# n + Ti 46 : (n,n'27)  
# tendl.2019 A.J. Koning and D. Rochman        EVAL-NOV19
# uncertainties: n
# # energies =    79
#   E(MeV)       xs(mb) 
 3.93700E+00    0.00000E+00
 3.93900E+00    2.17132E-01
 3.94064E+00    2.44157E-01
 3.95699E+00    5.13566E-01
 3.96100E+00    5.79640E-01
 3.97467E+00    6.91923E-01
 4.03400E+00    1.17925E+00
 4.14300E+00    2.01615E+00
 4.25700E+00    2.83566E+00
 4.34500E+00    3.41737E+00
 4.43700E+00    3.97776E+00
 4.50000E+00    4.33459E+00
 4.62100E+00    4.95200E+00
 4.70100E+00    5.31304E+00
 4.80000E+00    5.70323E+00
 4.82200E+00    5.78066E+00
 4.92400E+00    6.10026E+00
 5.00000E+00    6.29369E+00
 5.06000E+00    6.41621E+00
 5.10600E+00    6.49549E+00
 5.18500E+00    6.59651E+00
 5.20000E+00    6.61093E+00
 5.26700E+00    6.65580E+00
 5.31200E+00    6.67220E+00
 5.40000E+00    6.66831E+00
 5.41300E+00    6.66393E+00
 5.50000E+00    6.61203E+00
 5.51000E+00    6.60380E+00
 5.60000E+00    6.50926E+00
 5.67100E+00    6.40821E+00
 5.75200E+00    6.27487E+00
 5.79100E+00    6.20559E+00
 5.84100E+00    6.10793E+00
 5.91300E+00    5.95898E+00
 6.00000E+00    5.76599E+00
 6.20000E+00    5.29390E+00
 6.50000E+00    4.55467E+00
 6.60000E+00    4.31942E+00
 6.84570E+00    3.76657E+00
 7.00000E+00    3.44327E+00
 7.40000E+00    2.71833E+00
 7.50000E+00    2.56177E+00
 7.62220E+00    2.37993E+00
 7.74360E+00    2.21260E+00
 8.00000E+00    1.90014E+00
 8.50000E+00    1.41944E+00
 9.00000E+00    1.06062E+00
 9.50000E+00    7.99827E-01
 1.00000E+01    6.09927E-01
 1.05000E+01    4.70994E-01
 1.10000E+01    3.68922E-01
 1.15000E+01    2.94119E-01
 1.20000E+01    2.39340E-01
 1.25000E+01    1.99230E-01
 1.30000E+01    1.69915E-01
 1.35000E+01    1.48472E-01
 1.40000E+01    1.32920E-01
 1.45000E+01    1.21664E-01
 1.50000E+01    1.13591E-01
 1.55000E+01    1.07850E-01
 1.60000E+01    1.03810E-01
 1.65000E+01    1.01005E-01
 1.70000E+01    9.90942E-02
 1.75000E+01    9.78199E-02
 1.80000E+01    9.69915E-02
 1.85000E+01    9.64710E-02
 1.90000E+01    9.61598E-02
 1.95000E+01    9.59772E-02
 2.00000E+01    9.58858E-02
 2.10000E+01    9.58064E-02
 2.20000E+01    9.57223E-02
 2.30000E+01    9.55613E-02
 2.40000E+01    9.52914E-02
 2.50000E+01    9.49079E-02
 2.60000E+01    9.44156E-02
 2.70000E+01    9.38204E-02
 2.80000E+01    9.31285E-02
 2.90000E+01    9.23458E-02
 3.00000E+01    9.14780E-02
