# n + Sr 87 : (n,n'18)  
# jeff3.3    A.J. Koning and D. Rochman        EVAL-DEC15
# uncertainties: n
# # energies =    70
#   E(MeV)       xs(mb) 
 2.56574E+00    0.00000E+00
 2.56847E+00    1.16711E+00
 2.57960E+00    5.92557E+00
 2.58465E+00    8.08457E+00
 2.60000E+00    1.46471E+01
 2.62613E+00    2.07099E+01
 2.66154E+00    2.89259E+01
 2.68683E+00    3.47938E+01
 2.70791E+00    3.96848E+01
 2.71009E+00    4.01906E+01
 2.71313E+00    4.08960E+01
 2.73892E+00    4.68799E+01
 2.80000E+00    6.10519E+01
 2.83568E+00    6.32143E+01
 2.85161E+00    6.41797E+01
 3.00000E+00    7.31728E+01
 3.20000E+00    7.04217E+01
 3.40000E+00    6.20370E+01
 3.60000E+00    5.24050E+01
 3.80000E+00    4.33764E+01
 4.00000E+00    3.55771E+01
 4.20000E+00    2.90810E+01
 4.40000E+00    2.36844E+01
 4.60000E+00    1.92251E+01
 4.80000E+00    1.55602E+01
 5.00000E+00    1.25752E+01
 5.20000E+00    1.01424E+01
 5.40000E+00    8.17109E+00
 5.60000E+00    6.58108E+00
 5.80000E+00    5.30347E+00
 6.00000E+00    4.27985E+00
 6.20000E+00    3.46391E+00
 6.40000E+00    2.81385E+00
 6.60000E+00    2.29695E+00
 6.80000E+00    1.88626E+00
 7.00000E+00    1.56073E+00
 7.20000E+00    1.29600E+00
 7.40000E+00    1.08659E+00
 7.60000E+00    9.17121E-01
 7.80000E+00    7.83045E-01
 8.00000E+00    6.75011E-01
 8.50000E+00    4.86690E-01
 9.00000E+00    3.73435E-01
 9.50000E+00    3.03349E-01
 1.00000E+01    2.58709E-01
 1.05000E+01    2.29301E-01
 1.10000E+01    2.09166E-01
 1.15000E+01    1.94767E-01
 1.20000E+01    1.84023E-01
 1.25000E+01    1.75666E-01
 1.30000E+01    1.68917E-01
 1.35000E+01    1.63287E-01
 1.40000E+01    1.58459E-01
 1.45000E+01    1.54220E-01
 1.50000E+01    1.50425E-01
 1.60000E+01    1.43789E-01
 1.70000E+01    1.38046E-01
 1.80000E+01    1.32949E-01
 1.90000E+01    1.28409E-01
 2.00000E+01    1.24370E-01
 2.10000E+01    1.20730E-01
 2.20000E+01    1.17327E-01
 2.30000E+01    1.14015E-01
 2.40000E+01    1.10723E-01
 2.50000E+01    1.07475E-01
 2.60000E+01    1.04351E-01
 2.70000E+01    1.01442E-01
 2.80000E+01    9.88005E-02
 2.90000E+01    9.64401E-02
 3.00000E+01    9.43311E-02
