# n + Sr 87 : (n,n'07)  
# jeff3.3    A.J. Koning and D. Rochman        EVAL-DEC15
# uncertainties: n
# # energies =    85
#   E(MeV)       xs(mb) 
 1.79101E+00    0.00000E+00
 1.80000E+00    1.60216E+00
 1.94277E+00    3.83920E+01
 2.00000E+00    5.31394E+01
 2.13454E+00    6.90239E+01
 2.17849E+00    7.42128E+01
 2.19460E+00    7.61149E+01
 2.20000E+00    7.67524E+01
 2.26165E+00    7.77990E+01
 2.28825E+00    7.82506E+01
 2.40000E+00    8.01477E+01
 2.44252E+00    7.94618E+01
 2.44849E+00    7.93655E+01
 2.51688E+00    7.82623E+01
 2.56220E+00    7.75313E+01
 2.56574E+00    7.74741E+01
 2.56847E+00    7.74301E+01
 2.57960E+00    7.72506E+01
 2.58465E+00    7.71691E+01
 2.60000E+00    7.69215E+01
 2.62613E+00    7.58311E+01
 2.66154E+00    7.43535E+01
 2.68683E+00    7.32982E+01
 2.70791E+00    7.24185E+01
 2.71009E+00    7.23275E+01
 2.71313E+00    7.22007E+01
 2.73892E+00    7.11245E+01
 2.80000E+00    6.85757E+01
 2.83568E+00    6.69203E+01
 2.85161E+00    6.61812E+01
 3.00000E+00    5.92965E+01
 3.20000E+00    5.06846E+01
 3.40000E+00    4.33898E+01
 3.60000E+00    3.68483E+01
 3.80000E+00    3.08264E+01
 4.00000E+00    2.53562E+01
 4.20000E+00    2.05283E+01
 4.40000E+00    1.63930E+01
 4.60000E+00    1.29560E+01
 4.80000E+00    1.01724E+01
 5.00000E+00    7.96084E+00
 5.20000E+00    6.22657E+00
 5.40000E+00    4.87726E+00
 5.60000E+00    3.83461E+00
 5.80000E+00    3.02989E+00
 6.00000E+00    2.40967E+00
 6.20000E+00    1.92976E+00
 6.40000E+00    1.55671E+00
 6.60000E+00    1.26686E+00
 6.80000E+00    1.03938E+00
 7.00000E+00    8.61370E-01
 7.20000E+00    7.17718E-01
 7.40000E+00    6.04141E-01
 7.60000E+00    5.12311E-01
 7.80000E+00    4.39426E-01
 8.00000E+00    3.80337E-01
 8.50000E+00    2.76042E-01
 9.00000E+00    2.11811E-01
 9.50000E+00    1.70997E-01
 1.00000E+01    1.44425E-01
 1.05000E+01    1.26655E-01
 1.10000E+01    1.14390E-01
 1.15000E+01    1.05607E-01
 1.20000E+01    9.90782E-02
 1.25000E+01    9.40337E-02
 1.30000E+01    8.99952E-02
 1.35000E+01    8.66581E-02
 1.40000E+01    8.38243E-02
 1.45000E+01    8.13620E-02
 1.50000E+01    7.91768E-02
 1.60000E+01    7.53949E-02
 1.70000E+01    7.21513E-02
 1.80000E+01    6.93034E-02
 1.90000E+01    6.67965E-02
 2.00000E+01    6.45761E-02
 2.10000E+01    6.25515E-02
 2.20000E+01    6.06212E-02
 2.30000E+01    5.87198E-02
 2.40000E+01    5.68411E-02
 2.50000E+01    5.50223E-02
 2.60000E+01    5.33152E-02
 2.70000E+01    5.17601E-02
 2.80000E+01    5.03718E-02
 2.90000E+01    4.91415E-02
 3.00000E+01    4.80419E-02
