# n + Sr 87 : (n,xa)    
# jeff3.3    A.J. Koning and D. Rochman        EVAL-DEC15
# 
# # energies =   131
#   E(MeV)        xs(mb) 
 3.93042E-01    1.65386E-08
 4.00000E-01    1.70100E-08
 5.00000E-01    2.74570E-08
 6.00000E-01    4.72477E-08
 7.00000E-01    8.76240E-08
 8.00000E-01    1.82820E-07
 8.83479E-01    3.97044E-07
 9.00000E-01    4.39440E-07
 1.00000E+00    7.43780E-07
 1.20000E+00    1.48376E-06
 1.24268E+00    2.07976E-06
 1.26849E+00    2.44017E-06
 1.40000E+00    4.27662E-06
 1.60000E+00    8.58007E-06
 1.76019E+00    1.39087E-05
 1.76222E+00    1.39762E-05
 1.79101E+00    1.49339E-05
 1.80000E+00    1.52329E-05
 1.94277E+00    3.04482E-05
 2.00000E+00    3.65474E-05
 2.13454E+00    5.08662E-05
 2.17849E+00    5.55326E-05
 2.19460E+00    5.72431E-05
 2.20000E+00    5.78164E-05
 2.26165E+00    7.46326E-05
 2.28825E+00    8.18882E-05
 2.40000E+00    1.12370E-04
 2.44252E+00    1.28285E-04
 2.44849E+00    1.30519E-04
 2.51688E+00    1.56116E-04
 2.56220E+00    1.73079E-04
 2.56574E+00    1.74404E-04
 2.56847E+00    1.75426E-04
 2.57960E+00    1.79592E-04
 2.58465E+00    1.81482E-04
 2.60000E+00    1.87227E-04
 2.62613E+00    1.96438E-04
 2.66154E+00    2.08920E-04
 2.68683E+00    2.17835E-04
 2.70791E+00    2.25266E-04
 2.71009E+00    2.26034E-04
 2.71313E+00    2.27106E-04
 2.73892E+00    2.36197E-04
 2.80000E+00    2.57728E-04
 2.83568E+00    2.91965E-04
 2.85161E+00    3.07251E-04
 3.00000E+00    4.49639E-04
 3.20000E+00    6.06612E-04
 3.40000E+00    9.17371E-04
 3.60000E+00    1.27380E-03
 3.80000E+00    1.64638E-03
 4.00000E+00    2.35879E-03
 4.20000E+00    2.92821E-03
 4.40000E+00    3.92474E-03
 4.60000E+00    5.03764E-03
 4.80000E+00    6.15528E-03
 5.00000E+00    8.03287E-03
 5.20000E+00    9.53252E-03
 5.40000E+00    1.19920E-02
 5.60000E+00    1.51367E-02
 5.80000E+00    1.75516E-02
 6.00000E+00    2.25138E-02
 6.20000E+00    2.56606E-02
 6.40000E+00    3.13238E-02
 6.60000E+00    4.14978E-02
 6.80000E+00    4.41554E-02
 7.00000E+00    5.94489E-02
 7.20000E+00    7.22068E-02
 7.40000E+00    7.77727E-02
 7.60000E+00    1.14934E-01
 7.80000E+00    1.09836E-01
 8.00000E+00    1.60075E-01
 8.50000E+00    2.65062E-01
 9.00000E+00    4.31697E-01
 9.50000E+00    6.79198E-01
 1.00000E+01    1.02306E+00
 1.05000E+01    1.47273E+00
 1.10000E+01    1.86606E+00
 1.15000E+01    2.52634E+00
 1.20000E+01    3.29953E+00
 1.25000E+01    4.18155E+00
 1.30000E+01    5.16923E+00
 1.35000E+01    6.26543E+00
 1.40000E+01    7.47799E+00
 1.45000E+01    8.82679E+00
 1.50000E+01    1.03475E+01
 1.60000E+01    1.38080E+01
 1.70000E+01    1.71516E+01
 1.80000E+01    2.03052E+01
 1.90000E+01    2.19307E+01
 2.00000E+01    2.40695E+01
 2.10000E+01    2.65461E+01
 2.20000E+01    2.85735E+01
 2.30000E+01    3.04840E+01
 2.40000E+01    3.23156E+01
 2.50000E+01    3.40262E+01
 2.60000E+01    3.56160E+01
 2.70000E+01    3.70900E+01
 2.80000E+01    3.84423E+01
 2.90000E+01    3.97316E+01
 3.00000E+01    4.09472E+01
 3.00000E+01    4.09478E+01
 3.20000E+01    4.32287E+01
 3.40000E+01    4.53489E+01
 3.60000E+01    4.73717E+01
 3.80000E+01    4.92197E+01
 4.00000E+01    5.11168E+01
 4.20000E+01    5.29904E+01
 4.40000E+01    5.47058E+01
 4.60000E+01    5.64813E+01
 4.80000E+01    5.81795E+01
 5.00000E+01    5.98407E+01
 5.20000E+01    6.14391E+01
 5.40000E+01    6.29834E+01
 5.60000E+01    6.42357E+01
 5.80000E+01    6.53940E+01
 6.00000E+01    6.65377E+01
 6.50000E+01    6.90686E+01
 7.00000E+01    7.08799E+01
 7.50000E+01    7.21929E+01
 8.00000E+01    7.36799E+01
 9.00000E+01    8.02810E+01
 1.00000E+02    9.39070E+01
 1.10000E+02    1.10724E+02
 1.20000E+02    1.25672E+02
 1.30000E+02    1.41497E+02
 1.40000E+02    1.59656E+02
 1.50000E+02    1.78751E+02
 1.60000E+02    2.00393E+02
 1.80000E+02    2.56891E+02
 2.00000E+02    3.08449E+02
