# n + Ti 48 : (n,el)    
# jendl4.0   K.KOBAYASHI(KUR),H.HASHIKURA(TOK) EVAL-SEP88
# uncertainties: n
# # energies =   171
#   E(MeV)       xs(mb) 
 1.00000E-11    8.94833E+03
 1.00000E-07    4.01802E+03
 4.13990E-07    4.01528E+03
 5.31580E-07    4.01506E+03
 6.82560E-07    4.01541E+03
 8.76420E-07    4.01590E+03
 1.12540E-06    4.01653E+03
 1.44500E-06    4.01735E+03
 1.85540E-06    4.01840E+03
 2.37240E-06    4.01999E+03
 3.05900E-06    4.02213E+03
 3.92790E-06    4.02485E+03
 5.04350E-06    4.02834E+03
 6.47600E-06    4.03283E+03
 8.31530E-06    4.03860E+03
 1.06770E-05    4.04600E+03
 1.37100E-05    4.05550E+03
 1.76030E-05    4.06770E+03
 2.26030E-05    4.08360E+03
 2.92030E-05    4.10376E+03
 3.72670E-05    4.12932E+03
 4.78510E-05    4.16248E+03
 6.14420E-05    4.20257E+03
 7.88930E-05    4.24792E+03
 1.01300E-04    4.30589E+03
 1.30070E-04    4.37765E+03
 1.67020E-04    4.45811E+03
 2.14450E-04    4.55813E+03
 2.75360E-04    4.67090E+03
 3.53580E-04    4.80777E+03
 4.54000E-04    4.96541E+03
 5.82950E-04    5.15599E+03
 7.48520E-04    5.38580E+03
 9.61120E-04    5.67785E+03
 1.23410E-03    6.04801E+03
 1.58460E-03    6.52931E+03
 2.03470E-03    6.96061E+03
 2.24870E-03    7.25840E+03
 2.48520E-03    7.51335E+03
 2.61260E-03    7.69514E+03
 2.74650E-03    8.00125E+03
 3.03540E-03    8.46577E+03
 3.35460E-03    9.01687E+03
 3.70740E-03    9.85632E+03
 4.30740E-03    1.17200E+04
 5.53080E-03    1.54787E+04
 7.10170E-03    2.26972E+04
 9.11880E-03    3.96913E+04
 1.17090E-02    8.57713E+04
 1.50340E-02    1.41411E+05
 1.93050E-02    9.53439E+04
 2.18750E-02    1.70937E+05
 2.35790E-02    7.15093E+04
 2.41760E-02    5.86576E+04
 2.47880E-02    4.62786E+04
 2.60580E-02    3.61184E+04
 2.70000E-02    2.83458E+04
 2.85000E-02    1.79140E+04
 3.18280E-02    8.46821E+03
 3.43070E-02    3.82935E+04
 4.08680E-02    9.68596E+03
 4.63090E-02    1.54510E+04
 5.24750E-02    3.73192E+04
 5.65620E-02    1.21978E+04
 6.73790E-02    7.52506E+03
 7.20000E-02    7.70341E+03
 7.95000E-02    6.82228E+03
 8.25000E-02    6.88474E+03
 8.65170E-02    5.59955E+03
 9.80370E-02    3.02726E+03
 1.11090E-01    4.44506E+03
 1.16790E-01    3.00301E+03
 1.22770E-01    7.19667E+02
 1.29070E-01    1.07131E+04
 1.35690E-01    3.63216E+03
 1.42640E-01    2.07019E+03
 1.49960E-01    3.88933E+03
 1.57640E-01    2.23170E+03
 1.65730E-01    1.67573E+03
 1.74220E-01    4.76072E+02
 1.83160E-01    6.47537E+03
 1.92550E-01    4.53308E+03
 2.02420E-01    2.10051E+03
 2.12800E-01    1.20603E+03
 2.23710E-01    7.45575E+02
 2.35180E-01    1.25640E+03
 2.47240E-01    6.89123E+03
 2.73240E-01    4.03285E+03
 2.87250E-01    3.40999E+03
 2.94520E-01    2.88588E+03
 2.97200E-01    3.06298E+03
 2.98500E-01    1.74572E+03
 3.01970E-01    3.30706E+03
 3.33730E-01    2.95930E+03
 3.68830E-01    1.10567E+03
 3.87740E-01    8.06510E+02
 4.07620E-01    1.48050E+03
 4.50490E-01    3.16138E+03
 4.97870E-01    1.79785E+03
 5.23400E-01    1.75696E+03
 5.50230E-01    1.17572E+03
 5.78440E-01    2.24656E+03
 6.08100E-01    2.31924E+03
 6.39280E-01    1.42677E+03
 6.72060E-01    4.02050E+03
 7.06510E-01    3.33233E+03
 7.42740E-01    3.06473E+03
 7.80820E-01    1.73368E+03
 8.20850E-01    1.86897E+03
 8.62940E-01    2.81871E+03
 9.07180E-01    2.04284E+03
 9.61640E-01    3.19437E+03
 1.00260E+00    2.28637E+03
 1.10800E+00    1.46444E+03
 1.16480E+00    2.01438E+03
 1.22460E+00    1.65705E+03
 1.28730E+00    1.79854E+03
 1.35340E+00    2.51271E+03
 1.42270E+00    2.15721E+03
 1.49570E+00    1.96285E+03
 1.57240E+00    2.11180E+03
 1.65300E+00    1.85694E+03
 1.73770E+00    1.87474E+03
 1.82680E+00    2.10586E+03
 1.92050E+00    2.43952E+03
 2.01900E+00    2.30298E+03
 2.12250E+00    2.24088E+03
 2.23130E+00    2.19269E+03
 2.30690E+00    2.17782E+03
 2.34570E+00    2.19925E+03
 2.36530E+00    2.46834E+03
 2.38520E+00    2.49959E+03
 2.46600E+00    2.38296E+03
 2.59240E+00    2.54776E+03
 2.72530E+00    1.97813E+03
 2.86500E+00    2.28962E+03
 3.01190E+00    2.09197E+03
 3.16640E+00    2.25111E+03
 3.32870E+00    2.32157E+03
 3.67880E+00    2.11492E+03
 4.06570E+00    2.28272E+03
 4.49330E+00    2.25478E+03
 4.72370E+00    2.29066E+03
 4.96590E+00    2.20577E+03
 5.22050E+00    2.03957E+03
 5.48810E+00    2.06228E+03
 5.76950E+00    1.99771E+03
 6.06530E+00    1.96252E+03
 6.37630E+00    1.93759E+03
 6.59240E+00    1.92376E+03
 6.70320E+00    1.90346E+03
 7.04690E+00    1.84760E+03
 7.40820E+00    1.77901E+03
 7.78800E+00    1.70690E+03
 8.18730E+00    1.63183E+03
 8.60710E+00    1.55369E+03
 9.04840E+00    1.47155E+03
 9.51230E+00    1.38472E+03
 1.00000E+01    1.30128E+03
 1.05130E+01    1.22364E+03
 1.10520E+01    1.14984E+03
 1.16180E+01    1.06312E+03
 1.22140E+01    9.73506E+02
 1.28400E+01    9.53948E+02
 1.34990E+01    9.49491E+02
 1.38400E+01    9.45095E+02
 1.41910E+01    9.39713E+02
 1.45500E+01    9.35337E+02
 1.49180E+01    9.30851E+02
 1.56830E+01    9.26501E+02
 1.64870E+01    9.16894E+02
