# n + Ti 48 : (n,n'04)  
# jendl4.0   K.KOBAYASHI(KUR),H.HASHIKURA(TOK) EVAL-SEP88
# uncertainties: n
# # energies =   120
#   E(MeV)       xs(mb) 
 3.06035E+00    0.00000E+00
 3.06040E+00    7.52664E-03
 3.06127E+00    1.47830E-01
 3.06301E+00    4.27340E-01
 3.06473E+00    7.04667E-01
 3.06816E+00    1.25498E+00
 3.07153E+00    1.79670E+00
 3.07486E+00    2.32996E+00
 3.08142E+00    3.37980E+00
 3.08778E+00    4.39684E+00
 3.09397E+00    5.38209E+00
 3.09996E+00    6.33656E+00
 3.10579E+00    7.26119E+00
 3.11710E+00    9.05268E+00
 3.12774E+00    1.07322E+01
 3.13775E+00    1.23067E+01
 3.14717E+00    1.37829E+01
 3.15602E+00    1.51668E+01
 3.16434E+00    1.64641E+01
 3.18000E+00    1.88967E+01
 3.19377E+00    2.10253E+01
 3.20586E+00    2.28877E+01
 3.21648E+00    2.45174E+01
 3.23515E+00    2.73692E+01
 3.24923E+00    2.95082E+01
 3.27046E+00    3.27165E+01
 3.29182E+00    3.59249E+01
 3.30795E+00    3.66050E+01
 3.35530E+00    3.85999E+01
 3.40332E+00    4.05948E+01
 3.42946E+00    4.16287E+01
 3.44181E+00    4.21082E+01
 3.47641E+00    4.31441E+01
 3.52896E+00    4.46979E+01
 3.58231E+00    4.62517E+01
 3.63718E+00    4.78034E+01
 3.69289E+00    4.93551E+01
 3.71004E+00    4.93468E+01
 3.77722E+00    4.98746E+01
 3.78907E+00    4.87520E+01
 3.81725E+00    4.71891E+01
 3.86207E+00    4.58045E+01
 3.88280E+00    4.57630E+01
 3.93303E+00    4.48267E+01
 3.93324E+00    4.48264E+01
 4.00000E+00    4.42381E+01
 4.05618E+00    4.34023E+01
 4.10956E+00    4.26187E+01
 4.16024E+00    4.18841E+01
 4.25696E+00    4.05068E+01
 4.34344E+00    3.93016E+01
 4.42055E+00    3.82471E+01
 4.48913E+00    3.73243E+01
 4.55002E+00    3.65170E+01
 4.60398E+00    3.58105E+01
 4.69994E+00    3.45742E+01
 4.77322E+00    3.36470E+01
 4.82893E+00    3.29516E+01
 4.91372E+00    3.19084E+01
 5.00000E+00    3.08653E+01
 5.05730E+00    3.02446E+01
 5.11162E+00    2.96627E+01
 5.21504E+00    2.85716E+01
 5.30725E+00    2.76168E+01
 5.38926E+00    2.67815E+01
 5.46207E+00    2.60505E+01
 5.52658E+00    2.54109E+01
 5.58365E+00    2.48513E+01
 5.68495E+00    2.38719E+01
 5.76213E+00    2.31374E+01
 5.82069E+00    2.25865E+01
 5.90967E+00    2.17601E+01
 6.00000E+00    2.09338E+01
 6.11673E+00    2.03796E+01
 6.22074E+00    1.98947E+01
 6.31319E+00    1.94704E+01
 6.39521E+00    1.90991E+01
 6.54133E+00    1.84494E+01
 6.65310E+00    1.79621E+01
 6.73818E+00    1.75967E+01
 6.86784E+00    1.70485E+01
 7.00000E+00    1.65003E+01
 7.11782E+00    1.62127E+01
 7.22254E+00    1.59610E+01
 7.40952E+00    1.55205E+01
 7.55292E+00    1.51902E+01
 7.66229E+00    1.49425E+01
 7.82933E+00    1.45708E+01
 8.00000E+00    1.41992E+01
 8.23907E+00    1.40455E+01
 8.61113E+00    1.38151E+01
 9.00000E+00    1.35846E+01
 9.48683E+00    1.34284E+01
 1.00000E+01    1.32722E+01
 1.02411E+01    1.30908E+01
 1.06138E+01    1.28186E+01
 1.10000E+01    1.25465E+01
 1.12419E+01    1.23812E+01
 1.16148E+01    1.21333E+01
 1.20000E+01    1.18854E+01
 1.22425E+01    1.17044E+01
 1.26156E+01    1.14329E+01
 1.30000E+01    1.11614E+01
 1.32431E+01    1.09861E+01
 1.36163E+01    1.07232E+01
 1.40000E+01    1.04602E+01
 1.42436E+01    1.03245E+01
 1.46169E+01    1.01209E+01
 1.50000E+01    9.91726E+00
 1.52440E+01    9.78272E+00
 1.56174E+01    9.58090E+00
 1.60000E+01    9.37909E+00
 1.64924E+01    9.15606E+00
 1.70000E+01    8.93304E+00
 1.74929E+01    8.71033E+00
 1.80000E+01    8.48761E+00
 1.84932E+01    8.26503E+00
 1.90000E+01    8.04245E+00
 1.94936E+01    7.81992E+00
 2.00000E+01    7.59738E+00
