# n + Ti 48 : (n,tot)   
# jendl4.0   K.KOBAYASHI(KUR),H.HASHIKURA(TOK) EVAL-SEP88
# uncertainties: y
# # energies =    69
#   E(MeV)       xs(mb)       xslow(mb)      xsupp(mb)
 1.00000E-10    6.43202E+04    5.81551E+04    7.04853E+04
 5.00000E-09    1.99949E+04    1.80784E+04    2.19114E+04
 1.00000E-08    1.60874E+04    1.45650E+04    1.76097E+04
 1.50000E-08    1.41455E+04    1.28069E+04    1.54841E+04
 2.00000E-08    1.29208E+04    1.16981E+04    1.41435E+04
 2.50000E-08    1.20563E+04    1.09919E+04    1.31208E+04
 3.00000E-08    1.14036E+04    1.04440E+04    1.23633E+04
 3.50000E-08    1.08055E+04    9.89618E+03    1.17147E+04
 4.20000E-08    1.02234E+04    9.35207E+03    1.10948E+04
 5.00000E-08    9.73969E+03    8.89643E+03    1.05830E+04
 5.80000E-08    9.33400E+03    8.52586E+03    1.01421E+04
 6.70000E-08    8.92207E+03    8.15558E+03    9.68857E+03
 8.00000E-08    8.45381E+03    7.71503E+03    9.19259E+03
 1.00000E-07    7.87489E+03    7.18670E+03    8.56308E+03
 1.40000E-07    7.34390E+03    6.70271E+03    7.98510E+03
 1.80000E-07    6.98643E+03    6.36687E+03    7.60598E+03
 2.20000E-07    6.75073E+03    6.15856E+03    7.34291E+03
 2.50000E-07    6.59000E+03    6.01192E+03    7.16807E+03
 2.80000E-07    6.47464E+03    5.90669E+03    7.04260E+03
 3.00000E-07    6.39368E+03    5.79203E+03    6.99532E+03
 3.20000E-07    6.30354E+03    5.71037E+03    6.89670E+03
 3.50000E-07    6.17927E+03    5.59780E+03    6.76074E+03
 4.00000E-07    5.99471E+03    5.43414E+03    6.55527E+03
 5.00000E-07    5.78507E+03    5.24370E+03    6.32643E+03
 6.25000E-07    5.59834E+03    5.07053E+03    6.12615E+03
 7.80000E-07    5.48031E+03    4.96363E+03    5.99700E+03
 8.50000E-07    5.42475E+03    4.91976E+03    5.92974E+03
 9.10000E-07    5.38588E+03    4.88451E+03    5.88726E+03
 9.50000E-07    5.36362E+03    4.86432E+03    5.86292E+03
 9.72000E-07    5.34756E+03    4.84975E+03    5.84536E+03
 9.96000E-07    5.33162E+03    4.83530E+03    5.82794E+03
 1.02000E-06    5.31620E+03    4.82131E+03    5.81108E+03
 1.04500E-06    5.30015E+03    4.80676E+03    5.79354E+03
 1.07100E-06    5.28469E+03    4.79274E+03    5.77664E+03
 1.09700E-06    5.27031E+03    4.77680E+03    5.76382E+03
 1.12300E-06    5.25565E+03    4.76351E+03    5.74779E+03
 1.15000E-06    5.21123E+03    4.72325E+03    5.69921E+03
 1.30000E-06    5.13511E+03    4.65426E+03    5.61596E+03
 1.50000E-06    5.01089E+03    4.54157E+03    5.48021E+03
 2.10000E-06    4.88392E+03    4.42649E+03    5.34135E+03
 2.60000E-06    4.79251E+03    4.34216E+03    5.24286E+03
 3.30000E-06    4.71498E+03    4.27305E+03    5.15692E+03
 4.00000E-06    4.55877E+03    4.12710E+03    4.99044E+03
 9.87700E-06    4.41564E+03    3.99108E+03    4.84020E+03
 1.59680E-05    4.35308E+03    3.94850E+03    4.75765E+03
 2.77000E-05    4.32181E+03    3.92282E+03    4.72080E+03
 4.80520E-05    4.33338E+03    3.83200E+03    4.83475E+03
 7.55014E-05    4.40119E+03    3.95843E+03    4.84395E+03
 1.48728E-04    4.61188E+03    4.14792E+03    5.07583E+03
 3.67262E-04    5.10024E+03    4.58715E+03    5.61332E+03
 9.06898E-04    5.76641E+03    5.18631E+03    6.34651E+03
 1.42510E-03    6.55455E+03    5.89516E+03    7.21393E+03
 2.23945E-03    7.95199E+03    7.15202E+03    8.75196E+03
 3.51910E-03    1.08227E+04    9.73392E+03    1.19115E+04
 5.53000E-03    1.91096E+04    1.71871E+04    2.10320E+04
 9.11800E-03    6.27682E+04    5.64537E+04    6.90827E+04
 1.50300E-02    1.26822E+05    1.14063E+05    1.39580E+05
 2.47800E-02    2.89392E+04    2.60279E+04    3.18505E+04
 4.08500E-02    1.61698E+04    1.51421E+04    1.71976E+04
 6.73400E-02    5.85793E+03    5.37852E+03    6.33735E+03
 1.11000E-01    3.29512E+03    2.99747E+03    3.59277E+03
 1.83000E-01    3.70166E+03    3.36725E+03    4.03607E+03
 3.02000E-01    2.38760E+03    2.24377E+03    2.53143E+03
 5.00000E-01    2.27832E+03    2.14046E+03    2.41618E+03
 8.21000E-01    2.34781E+03    2.21682E+03    2.47879E+03
 1.35300E+00    2.93926E+03    2.77410E+03    3.10442E+03
 2.23100E+00    3.33352E+03    3.13995E+03    3.52710E+03
 3.67900E+00    3.47673E+03    3.27306E+03    3.68039E+03
 6.06500E+00    3.07414E+03    2.78690E+03    3.36139E+03
