# n + Ti 48 : (n,xt)    
# jendl4.0   K.KOBAYASHI(KUR),H.HASHIKURA(TOK) EVAL-SEP88
# 
# # energies =   161
#   E(MeV)        xs(mb) 
 1.00419E+00    0.00000E+00
 1.00420E+00    0.00000E+00
 1.00441E+00    0.00000E+00
 1.00484E+00    0.00000E+00
 1.00570E+00    0.00000E+00
 1.00656E+00    0.00000E+00
 1.00741E+00    0.00000E+00
 1.00911E+00    0.00000E+00
 1.01080E+00    0.00000E+00
 1.01248E+00    0.00000E+00
 1.01414E+00    0.00000E+00
 1.01580E+00    0.00000E+00
 1.01745E+00    0.00000E+00
 1.02073E+00    0.00000E+00
 1.02396E+00    0.00000E+00
 1.02716E+00    0.00000E+00
 1.03032E+00    0.00000E+00
 1.03343E+00    0.00000E+00
 1.03651E+00    0.00000E+00
 1.03955E+00    0.00000E+00
 1.04255E+00    0.00000E+00
 1.04848E+00    0.00000E+00
 1.05425E+00    0.00000E+00
 1.05988E+00    0.00000E+00
 1.06536E+00    0.00000E+00
 1.07069E+00    0.00000E+00
 1.07588E+00    0.00000E+00
 1.08094E+00    0.00000E+00
 1.08586E+00    0.00000E+00
 1.09065E+00    0.00000E+00
 1.09530E+00    0.00000E+00
 1.10439E+00    0.00000E+00
 1.11297E+00    0.00000E+00
 1.12107E+00    0.00000E+00
 1.12873E+00    0.00000E+00
 1.13595E+00    0.00000E+00
 1.14276E+00    0.00000E+00
 1.14919E+00    0.00000E+00
 1.16133E+00    0.00000E+00
 1.17206E+00    0.00000E+00
 1.18153E+00    0.00000E+00
 1.18988E+00    0.00000E+00
 1.19723E+00    0.00000E+00
 1.21021E+00    0.00000E+00
 1.22004E+00    0.00000E+00
 1.23493E+00    0.00000E+00
 1.25000E+00    0.00000E+00
 1.27881E+00    0.00000E+00
 1.30457E+00    0.00000E+00
 1.32754E+00    0.00000E+00
 1.34796E+00    0.00000E+00
 1.38446E+00    0.00000E+00
 1.41248E+00    0.00000E+00
 1.43387E+00    0.00000E+00
 1.46656E+00    0.00000E+00
 1.50000E+00    0.00000E+00
 1.52918E+00    0.00000E+00
 1.55518E+00    0.00000E+00
 1.60175E+00    0.00000E+00
 1.63759E+00    0.00000E+00
 1.66500E+00    0.00000E+00
 1.70697E+00    0.00000E+00
 1.75000E+00    0.00000E+00
 1.80941E+00    0.00000E+00
 1.85528E+00    0.00000E+00
 1.89045E+00    0.00000E+00
 1.94445E+00    0.00000E+00
 2.00000E+00    0.00000E+00
 2.05977E+00    0.00000E+00
 2.15278E+00    0.00000E+00
 2.25000E+00    0.00000E+00
 2.34389E+00    0.00000E+00
 2.34390E+00    0.00000E+00
 2.40705E+00    0.00000E+00
 2.47190E+00    0.00000E+00
 2.47193E+00    0.00000E+00
 2.48593E+00    0.00000E+00
 2.50000E+00    0.00000E+00
 2.61659E+00    0.00000E+00
 2.70758E+00    0.00000E+00
 2.77790E+00    0.00000E+00
 2.88682E+00    0.00000E+00
 3.00000E+00    0.00000E+00
 3.06035E+00    0.00000E+00
 3.06040E+00    0.00000E+00
 3.17400E+00    0.00000E+00
 3.29182E+00    0.00000E+00
 3.30795E+00    0.00000E+00
 3.30800E+00    0.00000E+00
 3.40332E+00    0.00000E+00
 3.42946E+00    0.00000E+00
 3.42950E+00    0.00000E+00
 3.44181E+00    0.00000E+00
 3.51136E+00    0.00000E+00
 3.58231E+00    0.00000E+00
 3.69289E+00    0.00000E+00
 3.69290E+00    0.00000E+00
 3.71004E+00    0.00000E+00
 3.77722E+00    0.00000E+00
 3.78907E+00    0.00000E+00
 3.81725E+00    0.00000E+00
 3.86207E+00    0.00000E+00
 3.88280E+00    0.00000E+00
 3.93303E+00    0.00000E+00
 3.93320E+00    0.00000E+00
 3.93324E+00    0.00000E+00
 4.00000E+00    0.00000E+00
 4.15660E+00    0.00000E+00
 4.41026E+00    0.00000E+00
 4.67940E+00    0.00000E+00
 4.83704E+00    0.00000E+00
 5.00000E+00    0.00000E+00
 6.00000E+00    0.00000E+00
 7.00000E+00    0.00000E+00
 8.00000E+00    0.00000E+00
 8.48528E+00    0.00000E+00
 9.00000E+00    0.00000E+00
 9.48683E+00    0.00000E+00
 1.00000E+01    0.00000E+00
 1.04881E+01    0.00000E+00
 1.10000E+01    0.00000E+00
 1.14891E+01    0.00000E+00
 1.20000E+01    0.00000E+00
 1.21207E+01    0.00000E+00
 1.23348E+01    0.00000E+00
 1.24978E+01    0.00000E+00
 1.26215E+01    0.00000E+00
 1.28094E+01    0.00000E+00
 1.30000E+01    0.00000E+00
 1.31210E+01    0.00000E+00
 1.32278E+01    0.00000E+00
 1.34167E+01    0.00000E+00
 1.35602E+01    0.00000E+00
 1.36689E+01    0.00000E+00
 1.38334E+01    0.00000E+00
 1.40000E+01    0.00000E+00
 1.41213E+01    1.16402E-07
 1.43360E+01    3.22537E-07
 1.44992E+01    4.79193E-07
 1.46228E+01    5.97853E-07
 1.48102E+01    7.77744E-07
 1.50000E+01    9.59940E-07
 1.52440E+01    2.19869E-04
 1.54296E+01    3.86383E-04
 1.55702E+01    5.12598E-04
 1.57837E+01    7.04082E-04
 1.60000E+01    8.98190E-04
 1.62443E+01    5.00901E-03
 1.64300E+01    8.13323E-03
 1.67126E+01    1.28867E-02
 1.70000E+01    1.77219E-02
 1.72447E+01    3.08523E-02
 1.74305E+01    4.08240E-02
 1.77129E+01    5.59834E-02
 1.80000E+01    7.13884E-02
 1.82450E+01    1.01067E-01
 1.86187E+01    1.46345E-01
 1.90000E+01    1.92550E-01
 1.92452E+01    2.32460E-01
 1.96190E+01    2.93293E-01
 2.00000E+01    3.55308E-01
