# n + Zn 68 : (n,xa)    
# tendl.2019 A.J. Koning and D. Rochman        EVAL-NOV19
# 
# # energies =   124
#   E(MeV)        xs(mb) 
 1.09337E+00    5.39177E-13
 1.20000E+00    1.11330E-12
 1.40000E+00    3.28820E-11
 1.60000E+00    5.47750E-10
 1.68050E+00    2.90602E-09
 1.80000E+00    6.40680E-09
 1.91117E+00    3.31494E-08
 2.00000E+00    5.45180E-08
 2.20000E+00    3.76790E-07
 2.37318E+00    2.03453E-06
 2.40000E+00    2.29126E-06
 2.40550E+00    2.49160E-06
 2.45330E+00    4.23283E-06
 2.54748E+00    7.66356E-06
 2.60000E+00    9.57672E-06
 2.79161E+00    3.87796E-05
 2.80000E+00    4.00583E-05
 2.86369E+00    7.58090E-05
 2.99979E+00    1.52205E-04
 3.00000E+00    1.52323E-04
 3.00344E+00    1.58867E-04
 3.05396E+00    2.54978E-04
 3.14858E+00    4.34985E-04
 3.20000E+00    5.32807E-04
 3.20063E+00    5.37757E-04
 3.20703E+00    5.88049E-04
 3.21139E+00    6.22310E-04
 3.23146E+00    7.80020E-04
 3.23392E+00    7.99351E-04
 3.33031E+00    1.55679E-03
 3.33590E+00    1.60071E-03
 3.38422E+00    1.98041E-03
 3.39578E+00    2.07125E-03
 3.40000E+00    2.10441E-03
 3.43628E+00    2.69326E-03
 3.45140E+00    2.93866E-03
 3.47593E+00    3.33680E-03
 3.48039E+00    3.40919E-03
 3.50225E+00    3.76399E-03
 3.51019E+00    3.89286E-03
 3.53949E+00    4.36842E-03
 3.54800E+00    4.50654E-03
 3.60000E+00    5.35053E-03
 3.80000E+00    9.97722E-03
 4.00000E+00    2.44865E-02
 4.20000E+00    4.26654E-02
 4.40000E+00    6.99016E-02
 4.60000E+00    1.09385E-01
 4.80000E+00    1.55763E-01
 5.00000E+00    2.41245E-01
 5.20000E+00    3.46201E-01
 5.40000E+00    4.89125E-01
 5.60000E+00    7.04964E-01
 5.80000E+00    9.56464E-01
 6.00000E+00    1.31919E+00
 6.20000E+00    1.74830E+00
 6.40000E+00    2.23303E+00
 6.60000E+00    2.79593E+00
 6.80000E+00    3.41429E+00
 7.00000E+00    4.01352E+00
 7.20000E+00    4.61276E+00
 7.40000E+00    5.21200E+00
 7.60000E+00    5.69122E+00
 7.80000E+00    6.22600E+00
 8.00000E+00    6.64181E+00
 8.50000E+00    7.52459E+00
 9.00000E+00    8.22915E+00
 9.50000E+00    8.94359E+00
 1.00000E+01    9.99272E+00
 1.05000E+01    1.19276E+01
 1.10000E+01    1.38282E+01
 1.15000E+01    1.53590E+01
 1.20000E+01    1.69480E+01
 1.25000E+01    1.86365E+01
 1.30000E+01    2.04381E+01
 1.35000E+01    2.24833E+01
 1.40000E+01    2.46405E+01
 1.45000E+01    2.68416E+01
 1.50000E+01    2.91396E+01
 1.60000E+01    3.39171E+01
 1.70000E+01    3.86235E+01
 1.80000E+01    4.31601E+01
 1.90000E+01    4.74681E+01
 2.00000E+01    5.16976E+01
 2.10000E+01    5.60387E+01
 2.20000E+01    6.03963E+01
 2.30000E+01    6.45421E+01
 2.40000E+01    6.86923E+01
 2.50000E+01    7.25031E+01
 2.60000E+01    7.66153E+01
 2.70000E+01    8.06218E+01
 2.80000E+01    8.45764E+01
 2.90000E+01    8.83287E+01
 3.00000E+01    9.24074E+01
 3.00000E+01    9.23362E+01
 3.20000E+01    1.01610E+02
 3.40000E+01    1.10860E+02
 3.60000E+01    1.18516E+02
 3.80000E+01    1.24615E+02
 4.00000E+01    1.29340E+02
 4.20000E+01    1.33474E+02
 4.40000E+01    1.37093E+02
 4.60000E+01    1.40763E+02
 4.80000E+01    1.43232E+02
 5.00000E+01    1.45591E+02
 5.20000E+01    1.47813E+02
 5.40000E+01    1.49715E+02
 5.60000E+01    1.51961E+02
 5.80000E+01    1.54323E+02
 6.00000E+01    1.56914E+02
 6.50000E+01    1.62242E+02
 7.00000E+01    1.64137E+02
 7.50000E+01    1.64233E+02
 8.00000E+01    1.63076E+02
 9.00000E+01    1.62404E+02
 1.00000E+02    1.52543E+02
 1.10000E+02    1.72014E+02
 1.20000E+02    1.95916E+02
 1.30000E+02    2.16443E+02
 1.40000E+02    2.32936E+02
 1.50000E+02    2.48867E+02
 1.60000E+02    2.66123E+02
 1.80000E+02    3.09082E+02
 2.00000E+02    3.68812E+02
