# n + Zn 68 : (n,el)    
# tendl.2019 A.J. Koning and D. Rochman        EVAL-NOV19
# uncertainties: y
# # energies =    69
#   E(MeV)       xs(mb)       xslow(mb)      xsupp(mb)
 1.00000E-10    7.01626E+03    6.69534E+03    7.33718E+03
 5.00000E-09    5.12359E+03    4.88923E+03    5.35794E+03
 1.00000E-08    5.06551E+03    4.83381E+03    5.29721E+03
 1.50000E-08    5.04273E+03    4.81207E+03    5.27338E+03
 2.00000E-08    5.03043E+03    4.80034E+03    5.26053E+03
 2.50000E-08    5.02272E+03    4.79298E+03    5.25247E+03
 3.00000E-08    5.01727E+03    4.78777E+03    5.24677E+03
 3.50000E-08    5.01295E+03    4.78364E+03    5.24225E+03
 4.20000E-08    5.00879E+03    4.77968E+03    5.23791E+03
 5.00000E-08    5.00580E+03    4.77682E+03    5.23478E+03
 5.80000E-08    5.00320E+03    4.77434E+03    5.23206E+03
 6.70000E-08    5.00117E+03    4.77239E+03    5.22994E+03
 8.00000E-08    4.99851E+03    4.76985E+03    5.22717E+03
 1.00000E-07    4.99600E+03    4.76744E+03    5.22457E+03
 1.40000E-07    4.99360E+03    4.76514E+03    5.22205E+03
 1.80000E-07    4.99241E+03    4.76401E+03    5.22081E+03
 2.20000E-07    4.99138E+03    4.76299E+03    5.21977E+03
 2.50000E-07    4.99051E+03    4.76216E+03    5.21886E+03
 2.80000E-07    4.99006E+03    4.76174E+03    5.21839E+03
 3.00000E-07    4.98986E+03    4.76151E+03    5.21821E+03
 3.20000E-07    4.98960E+03    4.76126E+03    5.21794E+03
 3.50000E-07    4.98920E+03    4.76088E+03    5.21752E+03
 4.00000E-07    4.98844E+03    4.76013E+03    5.21676E+03
 5.00000E-07    4.98730E+03    4.75898E+03    5.21561E+03
 6.25000E-07    4.98592E+03    4.75767E+03    5.21417E+03
 7.80000E-07    4.98511E+03    4.75681E+03    5.21341E+03
 8.50000E-07    4.98472E+03    4.75644E+03    5.21300E+03
 9.10000E-07    4.98443E+03    4.75616E+03    5.21269E+03
 9.50000E-07    4.98424E+03    4.75598E+03    5.21250E+03
 9.72000E-07    4.98410E+03    4.75585E+03    5.21236E+03
 9.96000E-07    4.98396E+03    4.75572E+03    5.21221E+03
 1.02000E-06    4.98382E+03    4.75536E+03    5.21227E+03
 1.04500E-06    4.98367E+03    4.75522E+03    5.21211E+03
 1.07100E-06    4.98351E+03    4.75507E+03    5.21195E+03
 1.09700E-06    4.98336E+03    4.75492E+03    5.21179E+03
 1.12300E-06    4.98320E+03    4.75477E+03    5.21163E+03
 1.15000E-06    4.98268E+03    4.75428E+03    5.21108E+03
 1.30000E-06    4.98165E+03    4.75329E+03    5.21000E+03
 1.50000E-06    4.97936E+03    4.75111E+03    5.20761E+03
 2.10000E-06    4.97604E+03    4.74761E+03    5.20447E+03
 2.60000E-06    4.97251E+03    4.74424E+03    5.20078E+03
 3.30000E-06    4.96833E+03    4.73992E+03    5.19675E+03
 4.00000E-06    4.95132E+03    4.72336E+03    5.17929E+03
 9.87700E-06    4.91462E+03    4.68665E+03    5.14259E+03
 1.59680E-05    4.86342E+03    4.63505E+03    5.09180E+03
 2.77000E-05    4.77046E+03    4.54377E+03    4.99716E+03
 4.80520E-05    4.61778E+03    4.39083E+03    4.84472E+03
 7.55014E-05    4.26916E+03    4.04716E+03    4.49115E+03
 1.48728E-04    2.73589E+03    2.56450E+03    2.90729E+03
 3.67262E-04    1.51707E+05    1.19243E+05    1.84171E+05
 9.06898E-04    1.06398E+04    1.02566E+04    1.10230E+04
 1.42510E-03    8.67413E+03    8.41399E+03    8.93428E+03
 2.23945E-03    7.62306E+03    7.40814E+03    7.83798E+03
 3.51910E-03    8.70952E+03    8.43775E+03    8.98128E+03
 5.53000E-03    6.29596E+03    6.03259E+03    6.55933E+03
 9.11800E-03    5.95714E+03    5.77260E+03    6.14168E+03
 1.50300E-02    1.24005E+04    1.21684E+04    1.26326E+04
 2.47800E-02    5.88229E+03    5.71965E+03    6.04492E+03
 4.08500E-02    5.67270E+03    5.49666E+03    5.84874E+03
 6.73400E-02    6.12511E+03    6.02095E+03    6.22928E+03
 1.11000E-01    8.63238E+03    8.49651E+03    8.76825E+03
 1.83000E-01    6.73767E+03    6.63162E+03    6.84371E+03
 3.02000E-01    5.80944E+03    5.44460E+03    6.17429E+03
 5.00000E-01    4.80461E+03    4.50287E+03    5.10635E+03
 8.21000E-01    3.75385E+03    3.58151E+03    3.92619E+03
 1.35300E+00    2.57787E+03    2.38888E+03    2.76686E+03
 2.23100E+00    1.99030E+03    1.77426E+03    2.20634E+03
 3.67900E+00    2.04089E+03    1.88059E+03    2.20118E+03
 6.06500E+00    2.14795E+03    2.04364E+03    2.25225E+03
