 Z=  12 A=  21 Mg
  U[MeV]  fE1[mb/MeV]
    0.100   7.677E-06
    0.200   3.072E-05
    0.300   6.914E-05
    0.400   1.230E-04
    0.500   1.923E-04
    0.600   2.772E-04
    0.700   3.778E-04
    0.800   4.941E-04
    0.900   6.263E-04
    1.000   7.746E-04
    1.100   9.390E-04
    1.200   1.120E-03
    1.300   1.317E-03
    1.400   1.532E-03
    1.500   1.763E-03
    1.600   2.011E-03
    1.700   2.278E-03
    1.800   2.562E-03
    1.900   2.864E-03
    2.000   3.185E-03
    2.100   3.525E-03
    2.200   3.884E-03
    2.300   4.263E-03
    2.400   4.662E-03
    2.500   5.082E-03
    2.600   5.523E-03
    2.700   5.986E-03
    2.800   6.471E-03
    2.900   6.979E-03
    3.000   7.511E-03
    3.100   8.068E-03
    3.200   8.649E-03
    3.300   9.256E-03
    3.400   9.890E-03
    3.500   1.055E-02
    3.600   1.124E-02
    3.700   1.196E-02
    3.800   1.271E-02
    3.900   1.349E-02
    4.000   1.430E-02
    4.100   1.515E-02
    4.200   1.604E-02
    4.300   1.696E-02
    4.400   1.791E-02
    4.500   1.891E-02
    4.600   1.995E-02
    4.700   2.103E-02
    4.800   2.216E-02
    4.900   2.333E-02
    5.000   2.455E-02
    5.100   2.583E-02
    5.200   2.715E-02
    5.300   2.853E-02
    5.400   2.998E-02
    5.500   3.148E-02
    5.600   3.305E-02
    5.700   3.468E-02
    5.800   3.639E-02
    5.900   3.817E-02
    6.000   4.003E-02
    6.100   4.197E-02
    6.200   4.400E-02
    6.300   4.613E-02
    6.400   4.835E-02
    6.500   5.067E-02
    6.600   5.310E-02
    6.700   5.565E-02
    6.800   5.832E-02
    6.900   6.112E-02
    7.000   6.405E-02
    7.100   6.713E-02
    7.200   7.036E-02
    7.300   7.376E-02
    7.400   7.732E-02
    7.500   8.107E-02
    7.600   8.502E-02
    7.700   8.917E-02
    7.800   9.353E-02
    7.900   9.812E-02
    8.000   1.030E-01
    8.100   1.081E-01
    8.200   1.134E-01
    8.300   1.190E-01
    8.400   1.250E-01
    8.500   1.312E-01
    8.600   1.378E-01
    8.700   1.447E-01
    8.800   1.519E-01
    8.900   1.594E-01
    9.000   1.673E-01
    9.100   1.755E-01
    9.200   1.841E-01
    9.300   1.929E-01
    9.400   2.021E-01
    9.500   2.115E-01
    9.600   2.211E-01
    9.700   2.309E-01
    9.800   2.408E-01
    9.900   2.509E-01
   10.000   2.609E-01
   10.100   2.709E-01
   10.200   2.809E-01
   10.300   2.907E-01
   10.400   3.003E-01
   10.500   3.098E-01
   10.600   3.191E-01
   10.700   3.282E-01
   10.800   3.371E-01
   10.900   3.459E-01
   11.000   3.546E-01
   11.100   3.632E-01
   11.200   3.718E-01
   11.300   3.805E-01
   11.400   3.892E-01
   11.500   3.980E-01
   11.600   4.070E-01
   11.700   4.161E-01
   11.800   4.253E-01
   11.900   4.346E-01
   12.000   4.441E-01
   12.100   4.536E-01
   12.200   4.631E-01
   12.300   4.727E-01
   12.400   4.822E-01
   12.500   4.916E-01
   12.600   5.010E-01
   12.700   5.104E-01
   12.800   5.196E-01
   12.900   5.288E-01
   13.000   5.380E-01
   13.100   5.473E-01
   13.200   5.566E-01
   13.300   5.661E-01
   13.400   5.758E-01
   13.500   5.857E-01
   13.600   5.958E-01
   13.700   6.063E-01
   13.800   6.170E-01
   13.900   6.280E-01
   14.000   6.394E-01
   14.100   6.510E-01
   14.200   6.628E-01
   14.300   6.748E-01
   14.400   6.869E-01
   14.500   6.990E-01
   14.600   7.112E-01
   14.700   7.232E-01
   14.800   7.350E-01
   14.900   7.465E-01
   15.000   7.576E-01
   15.100   7.683E-01
   15.200   7.784E-01
   15.300   7.879E-01
   15.400   7.968E-01
   15.500   8.051E-01
   15.600   8.127E-01
   15.700   8.198E-01
   15.800   8.263E-01
   15.900   8.323E-01
   16.000   8.379E-01
   16.100   8.431E-01
   16.200   8.479E-01
   16.300   8.524E-01
   16.400   8.566E-01
   16.500   8.604E-01
   16.600   8.640E-01
   16.700   8.672E-01
   16.800   8.700E-01
   16.900   8.725E-01
   17.000   8.745E-01
   17.100   8.760E-01
   17.200   8.771E-01
   17.300   8.778E-01
   17.400   8.782E-01
   17.500   8.783E-01
   17.600   8.781E-01
   17.700   8.779E-01
   17.800   8.777E-01
   17.900   8.776E-01
   18.000   8.778E-01
   18.100   8.784E-01
   18.200   8.794E-01
   18.300   8.810E-01
   18.400   8.833E-01
   18.500   8.863E-01
   18.600   8.900E-01
   18.700   8.946E-01
   18.800   9.000E-01
   18.900   9.062E-01
   19.000   9.132E-01
   19.100   9.209E-01
   19.200   9.292E-01
   19.300   9.381E-01
   19.400   9.474E-01
   19.500   9.569E-01
   19.600   9.665E-01
   19.700   9.761E-01
   19.800   9.853E-01
   19.900   9.941E-01
   20.000   1.002E+00
   20.100   1.009E+00
   20.200   1.016E+00
   20.300   1.020E+00
   20.400   1.024E+00
   20.500   1.026E+00
   20.600   1.026E+00
   20.700   1.025E+00
   20.800   1.022E+00
   20.900   1.017E+00
   21.000   1.010E+00
   21.100   1.003E+00
   21.200   9.933E-01
   21.300   9.828E-01
   21.400   9.711E-01
   21.500   9.585E-01
   21.600   9.452E-01
   21.700   9.313E-01
   21.800   9.171E-01
   21.900   9.026E-01
   22.000   8.881E-01
   22.100   8.737E-01
   22.200   8.594E-01
   22.300   8.454E-01
   22.400   8.318E-01
   22.500   8.186E-01
   22.600   8.059E-01
   22.700   7.936E-01
   22.800   7.818E-01
   22.900   7.705E-01
   23.000   7.597E-01
   23.100   7.494E-01
   23.200   7.394E-01
   23.300   7.299E-01
   23.400   7.209E-01
   23.500   7.122E-01
   23.600   7.038E-01
   23.700   6.958E-01
   23.800   6.882E-01
   23.900   6.809E-01
   24.000   6.739E-01
   24.100   6.672E-01
   24.200   6.608E-01
   24.300   6.547E-01
   24.400   6.488E-01
   24.500   6.432E-01
   24.600   6.378E-01
   24.700   6.325E-01
   24.800   6.274E-01
   24.900   6.225E-01
   25.000   6.177E-01
   25.100   6.129E-01
   25.200   6.083E-01
   25.300   6.036E-01
   25.400   5.990E-01
   25.500   5.944E-01
   25.600   5.899E-01
   25.700   5.853E-01
   25.800   5.806E-01
   25.900   5.760E-01
   26.000   5.713E-01
   26.100   5.666E-01
   26.200   5.619E-01
   26.300   5.571E-01
   26.400   5.523E-01
   26.500   5.475E-01
   26.600   5.426E-01
   26.700   5.377E-01
   26.800   5.328E-01
   26.900   5.279E-01
   27.000   5.230E-01
   27.100   5.180E-01
   27.200   5.130E-01
   27.300   5.080E-01
   27.400   5.030E-01
   27.500   4.980E-01
   27.600   4.930E-01
   27.700   4.879E-01
   27.800   4.828E-01
   27.900   4.778E-01
   28.000   4.726E-01
   28.100   4.675E-01
   28.200   4.623E-01
   28.300   4.571E-01
   28.400   4.519E-01
   28.500   4.466E-01
   28.600   4.414E-01
   28.700   4.360E-01
   28.800   4.307E-01
   28.900   4.254E-01
   29.000   4.200E-01
   29.100   4.147E-01
   29.200   4.094E-01
   29.300   4.041E-01
   29.400   3.989E-01
   29.500   3.937E-01
   29.600   3.886E-01
   29.700   3.836E-01
   29.800   3.787E-01
   29.900   3.739E-01
   30.000   3.692E-01
 
 Z=  12 A=  22 Mg
  U[MeV]  fE1[mb/MeV]
    0.100   6.714E-06
    0.200   2.686E-05
    0.300   6.047E-05
    0.400   1.076E-04
    0.500   1.682E-04
    0.600   2.424E-04
    0.700   3.303E-04
    0.800   4.319E-04
    0.900   5.473E-04
    1.000   6.768E-04
    1.100   8.203E-04
    1.200   9.780E-04
    1.300   1.150E-03
    1.400   1.337E-03
    1.500   1.538E-03
    1.600   1.755E-03
    1.700   1.986E-03
    1.800   2.233E-03
    1.900   2.495E-03
    2.000   2.774E-03
    2.100   3.069E-03
    2.200   3.380E-03
    2.300   3.708E-03
    2.400   4.053E-03
    2.500   4.416E-03
    2.600   4.796E-03
    2.700   5.196E-03
    2.800   5.613E-03
    2.900   6.051E-03
    3.000   6.508E-03
    3.100   6.985E-03
    3.200   7.483E-03
    3.300   8.002E-03
    3.400   8.544E-03
    3.500   9.108E-03
    3.600   9.696E-03
    3.700   1.031E-02
    3.800   1.094E-02
    3.900   1.161E-02
    4.000   1.230E-02
    4.100   1.301E-02
    4.200   1.376E-02
    4.300   1.453E-02
    4.400   1.534E-02
    4.500   1.617E-02
    4.600   1.704E-02
    4.700   1.795E-02
    4.800   1.889E-02
    4.900   1.986E-02
    5.000   2.088E-02
    5.100   2.193E-02
    5.200   2.303E-02
    5.300   2.417E-02
    5.400   2.536E-02
    5.500   2.659E-02
    5.600   2.787E-02
    5.700   2.921E-02
    5.800   3.060E-02
    5.900   3.205E-02
    6.000   3.356E-02
    6.100   3.513E-02
    6.200   3.677E-02
    6.300   3.848E-02
    6.400   4.026E-02
    6.500   4.212E-02
    6.600   4.406E-02
    6.700   4.609E-02
    6.800   4.821E-02
    6.900   5.043E-02
    7.000   5.275E-02
    7.100   5.517E-02
    7.200   5.772E-02
    7.300   6.038E-02
    7.400   6.318E-02
    7.500   6.611E-02
    7.600   6.919E-02
    7.700   7.242E-02
    7.800   7.582E-02
    7.900   7.939E-02
    8.000   8.315E-02
    8.100   8.711E-02
    8.200   9.127E-02
    8.300   9.566E-02
    8.400   1.003E-01
    8.500   1.052E-01
    8.600   1.103E-01
    8.700   1.157E-01
    8.800   1.214E-01
    8.900   1.274E-01
    9.000   1.337E-01
    9.100   1.404E-01
    9.200   1.474E-01
    9.300   1.547E-01
    9.400   1.623E-01
    9.500   1.703E-01
    9.600   1.786E-01
    9.700   1.872E-01
    9.800   1.961E-01
    9.900   2.052E-01
   10.000   2.146E-01
   10.100   2.241E-01
   10.200   2.337E-01
   10.300   2.434E-01
   10.400   2.532E-01
   10.500   2.628E-01
   10.600   2.725E-01
   10.700   2.820E-01
   10.800   2.913E-01
   10.900   3.006E-01
   11.000   3.097E-01
   11.100   3.187E-01
   11.200   3.276E-01
   11.300   3.365E-01
   11.400   3.454E-01
   11.500   3.543E-01
   11.600   3.632E-01
   11.700   3.723E-01
   11.800   3.815E-01
   11.900   3.908E-01
   12.000   4.003E-01
   12.100   4.099E-01
   12.200   4.198E-01
   12.300   4.300E-01
   12.400   4.404E-01
   12.500   4.513E-01
   12.600   4.625E-01
   12.700   4.743E-01
   12.800   4.866E-01
   12.900   4.997E-01
   13.000   5.135E-01
   13.100   5.282E-01
   13.200   5.438E-01
   13.300   5.605E-01
   13.400   5.782E-01
   13.500   5.970E-01
   13.600   6.169E-01
   13.700   6.380E-01
   13.800   6.601E-01
   13.900   6.832E-01
   14.000   7.071E-01
   14.100   7.319E-01
   14.200   7.572E-01
   14.300   7.829E-01
   14.400   8.087E-01
   14.500   8.345E-01
   14.600   8.598E-01
   14.700   8.845E-01
   14.800   9.083E-01
   14.900   9.308E-01
   15.000   9.520E-01
   15.100   9.716E-01
   15.200   9.896E-01
   15.300   1.006E+00
   15.400   1.021E+00
   15.500   1.034E+00
   15.600   1.045E+00
   15.700   1.056E+00
   15.800   1.066E+00
   15.900   1.075E+00
   16.000   1.084E+00
   16.100   1.093E+00
   16.200   1.102E+00
   16.300   1.111E+00
   16.400   1.120E+00
   16.500   1.129E+00
   16.600   1.138E+00
   16.700   1.147E+00
   16.800   1.155E+00
   16.900   1.163E+00
   17.000   1.170E+00
   17.100   1.176E+00
   17.200   1.181E+00
   17.300   1.184E+00
   17.400   1.185E+00
   17.500   1.184E+00
   17.600   1.181E+00
   17.700   1.177E+00
   17.800   1.170E+00
   17.900   1.161E+00
   18.000   1.151E+00
   18.100   1.140E+00
   18.200   1.127E+00
   18.300   1.113E+00
   18.400   1.099E+00
   18.500   1.084E+00
   18.600   1.068E+00
   18.700   1.053E+00
   18.800   1.038E+00
   18.900   1.024E+00
   19.000   1.009E+00
   19.100   9.955E-01
   19.200   9.824E-01
   19.300   9.699E-01
   19.400   9.582E-01
   19.500   9.471E-01
   19.600   9.368E-01
   19.700   9.271E-01
   19.800   9.180E-01
   19.900   9.096E-01
   20.000   9.017E-01
   20.100   8.943E-01
   20.200   8.875E-01
   20.300   8.810E-01
   20.400   8.748E-01
   20.500   8.690E-01
   20.600   8.634E-01
   20.700   8.580E-01
   20.800   8.527E-01
   20.900   8.475E-01
   21.000   8.423E-01
   21.100   8.371E-01
   21.200   8.319E-01
   21.300   8.267E-01
   21.400   8.215E-01
   21.500   8.162E-01
   21.600   8.109E-01
   21.700   8.055E-01
   21.800   8.001E-01
   21.900   7.947E-01
   22.000   7.893E-01
   22.100   7.839E-01
   22.200   7.786E-01
   22.300   7.733E-01
   22.400   7.681E-01
   22.500   7.629E-01
   22.600   7.579E-01
   22.700   7.528E-01
   22.800   7.479E-01
   22.900   7.430E-01
   23.000   7.381E-01
   23.100   7.332E-01
   23.200   7.283E-01
   23.300   7.233E-01
   23.400   7.183E-01
   23.500   7.131E-01
   23.600   7.079E-01
   23.700   7.026E-01
   23.800   6.970E-01
   23.900   6.914E-01
   24.000   6.855E-01
   24.100   6.795E-01
   24.200   6.733E-01
   24.300   6.669E-01
   24.400   6.604E-01
   24.500   6.536E-01
   24.600   6.468E-01
   24.700   6.398E-01
   24.800   6.327E-01
   24.900   6.255E-01
   25.000   6.182E-01
   25.100   6.109E-01
   25.200   6.035E-01
   25.300   5.962E-01
   25.400   5.888E-01
   25.500   5.815E-01
   25.600   5.742E-01
   25.700   5.670E-01
   25.800   5.599E-01
   25.900   5.529E-01
   26.000   5.459E-01
   26.100   5.391E-01
   26.200   5.324E-01
   26.300   5.258E-01
   26.400   5.193E-01
   26.500   5.129E-01
   26.600   5.066E-01
   26.700   5.005E-01
   26.800   4.944E-01
   26.900   4.885E-01
   27.000   4.827E-01
   27.100   4.769E-01
   27.200   4.713E-01
   27.300   4.657E-01
   27.400   4.601E-01
   27.500   4.547E-01
   27.600   4.493E-01
   27.700   4.439E-01
   27.800   4.386E-01
   27.900   4.333E-01
   28.000   4.281E-01
   28.100   4.230E-01
   28.200   4.178E-01
   28.300   4.128E-01
   28.400   4.078E-01
   28.500   4.029E-01
   28.600   3.980E-01
   28.700   3.932E-01
   28.800   3.885E-01
   28.900   3.839E-01
   29.000   3.794E-01
   29.100   3.749E-01
   29.200   3.706E-01
   29.300   3.663E-01
   29.400   3.621E-01
   29.500   3.580E-01
   29.600   3.539E-01
   29.700   3.499E-01
   29.800   3.459E-01
   29.900   3.419E-01
   30.000   3.380E-01
 
 Z=  12 A=  23 Mg
  U[MeV]  fE1[mb/MeV]
    0.100   6.177E-06
    0.200   2.472E-05
    0.300   5.563E-05
    0.400   9.895E-05
    0.500   1.547E-04
    0.600   2.230E-04
    0.700   3.038E-04
    0.800   3.973E-04
    0.900   5.034E-04
    1.000   6.224E-04
    1.100   7.543E-04
    1.200   8.993E-04
    1.300   1.057E-03
    1.400   1.229E-03
    1.500   1.414E-03
    1.600   1.613E-03
    1.700   1.825E-03
    1.800   2.052E-03
    1.900   2.293E-03
    2.000   2.548E-03
    2.100   2.818E-03
    2.200   3.103E-03
    2.300   3.404E-03
    2.400   3.720E-03
    2.500   4.052E-03
    2.600   4.400E-03
    2.700   4.765E-03
    2.800   5.147E-03
    2.900   5.546E-03
    3.000   5.964E-03
    3.100   6.399E-03
    3.200   6.853E-03
    3.300   7.327E-03
    3.400   7.820E-03
    3.500   8.334E-03
    3.600   8.869E-03
    3.700   9.425E-03
    3.800   1.000E-02
    3.900   1.060E-02
    4.000   1.123E-02
    4.100   1.188E-02
    4.200   1.255E-02
    4.300   1.325E-02
    4.400   1.398E-02
    4.500   1.474E-02
    4.600   1.552E-02
    4.700   1.634E-02
    4.800   1.718E-02
    4.900   1.806E-02
    5.000   1.897E-02
    5.100   1.992E-02
    5.200   2.090E-02
    5.300   2.192E-02
    5.400   2.298E-02
    5.500   2.409E-02
    5.600   2.523E-02
    5.700   2.642E-02
    5.800   2.766E-02
    5.900   2.895E-02
    6.000   3.029E-02
    6.100   3.168E-02
    6.200   3.313E-02
    6.300   3.464E-02
    6.400   3.621E-02
    6.500   3.785E-02
    6.600   3.955E-02
    6.700   4.134E-02
    6.800   4.319E-02
    6.900   4.513E-02
    7.000   4.716E-02
    7.100   4.928E-02
    7.200   5.149E-02
    7.300   5.381E-02
    7.400   5.623E-02
    7.500   5.877E-02
    7.600   6.144E-02
    7.700   6.423E-02
    7.800   6.716E-02
    7.900   7.023E-02
    8.000   7.347E-02
    8.100   7.687E-02
    8.200   8.044E-02
    8.300   8.421E-02
    8.400   8.817E-02
    8.500   9.234E-02
    8.600   9.674E-02
    8.700   1.014E-01
    8.800   1.063E-01
    8.900   1.114E-01
    9.000   1.168E-01
    9.100   1.225E-01
    9.200   1.286E-01
    9.300   1.349E-01
    9.400   1.415E-01
    9.500   1.485E-01
    9.600   1.557E-01
    9.700   1.633E-01
    9.800   1.713E-01
    9.900   1.795E-01
   10.000   1.881E-01
   10.100   1.970E-01
   10.200   2.062E-01
   10.300   2.157E-01
   10.400   2.255E-01
   10.500   2.355E-01
   10.600   2.458E-01
   10.700   2.563E-01
   10.800   2.670E-01
   10.900   2.779E-01
   11.000   2.889E-01
   11.100   3.001E-01
   11.200   3.114E-01
   11.300   3.229E-01
   11.400   3.345E-01
   11.500   3.463E-01
   11.600   3.583E-01
   11.700   3.706E-01
   11.800   3.831E-01
   11.900   3.960E-01
   12.000   4.092E-01
   12.100   4.230E-01
   12.200   4.373E-01
   12.300   4.522E-01
   12.400   4.677E-01
   12.500   4.841E-01
   12.600   5.013E-01
   12.700   5.194E-01
   12.800   5.386E-01
   12.900   5.589E-01
   13.000   5.804E-01
   13.100   6.032E-01
   13.200   6.273E-01
   13.300   6.528E-01
   13.400   6.798E-01
   13.500   7.083E-01
   13.600   7.384E-01
   13.700   7.700E-01
   13.800   8.031E-01
   13.900   8.376E-01
   14.000   8.734E-01
   14.100   9.102E-01
   14.200   9.478E-01
   14.300   9.858E-01
   14.400   1.024E+00
   14.500   1.061E+00
   14.600   1.097E+00
   14.700   1.131E+00
   14.800   1.163E+00
   14.900   1.191E+00
   15.000   1.216E+00
   15.100   1.237E+00
   15.200   1.253E+00
   15.300   1.265E+00
   15.400   1.273E+00
   15.500   1.277E+00
   15.600   1.278E+00
   15.700   1.276E+00
   15.800   1.271E+00
   15.900   1.265E+00
   16.000   1.258E+00
   16.100   1.250E+00
   16.200   1.242E+00
   16.300   1.233E+00
   16.400   1.225E+00
   16.500   1.217E+00
   16.600   1.209E+00
   16.700   1.201E+00
   16.800   1.192E+00
   16.900   1.183E+00
   17.000   1.173E+00
   17.100   1.163E+00
   17.200   1.152E+00
   17.300   1.140E+00
   17.400   1.126E+00
   17.500   1.113E+00
   17.600   1.098E+00
   17.700   1.083E+00
   17.800   1.067E+00
   17.900   1.052E+00
   18.000   1.036E+00
   18.100   1.021E+00
   18.200   1.006E+00
   18.300   9.923E-01
   18.400   9.790E-01
   18.500   9.666E-01
   18.600   9.550E-01
   18.700   9.444E-01
   18.800   9.348E-01
   18.900   9.260E-01
   19.000   9.181E-01
   19.100   9.111E-01
   19.200   9.048E-01
   19.300   8.993E-01
   19.400   8.944E-01
   19.500   8.902E-01
   19.600   8.865E-01
   19.700   8.832E-01
   19.800   8.804E-01
   19.900   8.778E-01
   20.000   8.755E-01
   20.100   8.732E-01
   20.200   8.710E-01
   20.300   8.686E-01
   20.400   8.662E-01
   20.500   8.635E-01
   20.600   8.605E-01
   20.700   8.572E-01
   20.800   8.536E-01
   20.900   8.497E-01
   21.000   8.455E-01
   21.100   8.411E-01
   21.200   8.365E-01
   21.300   8.317E-01
   21.400   8.269E-01
   21.500   8.220E-01
   21.600   8.170E-01
   21.700   8.121E-01
   21.800   8.072E-01
   21.900   8.024E-01
   22.000   7.975E-01
   22.100   7.927E-01
   22.200   7.879E-01
   22.300   7.831E-01
   22.400   7.782E-01
   22.500   7.733E-01
   22.600   7.683E-01
   22.700   7.632E-01
   22.800   7.580E-01
   22.900   7.526E-01
   23.000   7.471E-01
   23.100   7.415E-01
   23.200   7.357E-01
   23.300   7.297E-01
   23.400   7.237E-01
   23.500   7.175E-01
   23.600   7.111E-01
   23.700   7.047E-01
   23.800   6.982E-01
   23.900   6.916E-01
   24.000   6.850E-01
   24.100   6.783E-01
   24.200   6.715E-01
   24.300   6.648E-01
   24.400   6.580E-01
   24.500   6.512E-01
   24.600   6.443E-01
   24.700   6.375E-01
   24.800   6.307E-01
   24.900   6.239E-01
   25.000   6.171E-01
   25.100   6.104E-01
   25.200   6.036E-01
   25.300   5.970E-01
   25.400   5.904E-01
   25.500   5.838E-01
   25.600   5.773E-01
   25.700   5.709E-01
   25.800   5.645E-01
   25.900   5.582E-01
   26.000   5.520E-01
   26.100   5.459E-01
   26.200   5.398E-01
   26.300   5.339E-01
   26.400   5.280E-01
   26.500   5.221E-01
   26.600   5.164E-01
   26.700   5.107E-01
   26.800   5.051E-01
   26.900   4.995E-01
   27.000   4.939E-01
   27.100   4.884E-01
   27.200   4.830E-01
   27.300   4.775E-01
   27.400   4.721E-01
   27.500   4.668E-01
   27.600   4.614E-01
   27.700   4.561E-01
   27.800   4.509E-01
   27.900   4.458E-01
   28.000   4.407E-01
   28.100   4.357E-01
   28.200   4.308E-01
   28.300   4.260E-01
   28.400   4.213E-01
   28.500   4.167E-01
   28.600   4.122E-01
   28.700   4.078E-01
   28.800   4.035E-01
   28.900   3.993E-01
   29.000   3.952E-01
   29.100   3.911E-01
   29.200   3.872E-01
   29.300   3.833E-01
   29.400   3.794E-01
   29.500   3.756E-01
   29.600   3.719E-01
   29.700   3.681E-01
   29.800   3.644E-01
   29.900   3.607E-01
   30.000   3.569E-01
 
 Z=  12 A=  24 Mg
  U[MeV]  fE1[mb/MeV]
    0.100   5.854E-06
    0.200   2.342E-05
    0.300   5.272E-05
    0.400   9.376E-05
    0.500   1.466E-04
    0.600   2.113E-04
    0.700   2.878E-04
    0.800   3.763E-04
    0.900   4.769E-04
    1.000   5.895E-04
    1.100   7.144E-04
    1.200   8.516E-04
    1.300   1.001E-03
    1.400   1.163E-03
    1.500   1.338E-03
    1.600   1.526E-03
    1.700   1.727E-03
    1.800   1.941E-03
    1.900   2.168E-03
    2.000   2.409E-03
    2.100   2.664E-03
    2.200   2.933E-03
    2.300   3.216E-03
    2.400   3.514E-03
    2.500   3.826E-03
    2.600   4.154E-03
    2.700   4.497E-03
    2.800   4.856E-03
    2.900   5.231E-03
    3.000   5.622E-03
    3.100   6.030E-03
    3.200   6.456E-03
    3.300   6.899E-03
    3.400   7.360E-03
    3.500   7.840E-03
    3.600   8.339E-03
    3.700   8.858E-03
    3.800   9.397E-03
    3.900   9.956E-03
    4.000   1.054E-02
    4.100   1.114E-02
    4.200   1.177E-02
    4.300   1.241E-02
    4.400   1.309E-02
    4.500   1.379E-02
    4.600   1.451E-02
    4.700   1.526E-02
    4.800   1.604E-02
    4.900   1.684E-02
    5.000   1.768E-02
    5.100   1.855E-02
    5.200   1.944E-02
    5.300   2.038E-02
    5.400   2.134E-02
    5.500   2.234E-02
    5.600   2.338E-02
    5.700   2.446E-02
    5.800   2.557E-02
    5.900   2.673E-02
    6.000   2.793E-02
    6.100   2.918E-02
    6.200   3.048E-02
    6.300   3.182E-02
    6.400   3.322E-02
    6.500   3.467E-02
    6.600   3.617E-02
    6.700   3.774E-02
    6.800   3.937E-02
    6.900   4.107E-02
    7.000   4.283E-02
    7.100   4.467E-02
    7.200   4.658E-02
    7.300   4.858E-02
    7.400   5.066E-02
    7.500   5.282E-02
    7.600   5.509E-02
    7.700   5.745E-02
    7.800   5.992E-02
    7.900   6.250E-02
    8.000   6.520E-02
    8.100   6.802E-02
    8.200   7.097E-02
    8.300   7.407E-02
    8.400   7.731E-02
    8.500   8.072E-02
    8.600   8.428E-02
    8.700   8.803E-02
    8.800   9.196E-02
    8.900   9.608E-02
    9.000   1.004E-01
    9.100   1.050E-01
    9.200   1.097E-01
    9.300   1.148E-01
    9.400   1.200E-01
    9.500   1.256E-01
    9.600   1.314E-01
    9.700   1.374E-01
    9.800   1.438E-01
    9.900   1.504E-01
   10.000   1.574E-01
   10.100   1.647E-01
   10.200   1.723E-01
   10.300   1.803E-01
   10.400   1.887E-01
   10.500   1.974E-01
   10.600   2.066E-01
   10.700   2.162E-01
   10.800   2.263E-01
   10.900   2.369E-01
   11.000   2.480E-01
   11.100   2.597E-01
   11.200   2.720E-01
   11.300   2.848E-01
   11.400   2.983E-01
   11.500   3.123E-01
   11.600   3.270E-01
   11.700   3.422E-01
   11.800   3.579E-01
   11.900   3.742E-01
   12.000   3.910E-01
   12.100   4.083E-01
   12.200   4.260E-01
   12.300   4.441E-01
   12.400   4.626E-01
   12.500   4.815E-01
   12.600   5.009E-01
   12.700   5.207E-01
   12.800   5.410E-01
   12.900   5.619E-01
   13.000   5.836E-01
   13.100   6.060E-01
   13.200   6.295E-01
   13.300   6.542E-01
   13.400   6.802E-01
   13.500   7.078E-01
   13.600   7.371E-01
   13.700   7.684E-01
   13.800   8.017E-01
   13.900   8.371E-01
   14.000   8.748E-01
   14.100   9.147E-01
   14.200   9.567E-01
   14.300   1.001E+00
   14.400   1.046E+00
   14.500   1.093E+00
   14.600   1.141E+00
   14.700   1.188E+00
   14.800   1.235E+00
   14.900   1.280E+00
   15.000   1.322E+00
   15.100   1.361E+00
   15.200   1.395E+00
   15.300   1.424E+00
   15.400   1.447E+00
   15.500   1.462E+00
   15.600   1.471E+00
   15.700   1.473E+00
   15.800   1.468E+00
   15.900   1.458E+00
   16.000   1.442E+00
   16.100   1.422E+00
   16.200   1.399E+00
   16.300   1.373E+00
   16.400   1.346E+00
   16.500   1.318E+00
   16.600   1.290E+00
   16.700   1.262E+00
   16.800   1.236E+00
   16.900   1.211E+00
   17.000   1.187E+00
   17.100   1.166E+00
   17.200   1.145E+00
   17.300   1.127E+00
   17.400   1.110E+00
   17.500   1.094E+00
   17.600   1.080E+00
   17.700   1.067E+00
   17.800   1.055E+00
   17.900   1.044E+00
   18.000   1.034E+00
   18.100   1.025E+00
   18.200   1.017E+00
   18.300   1.010E+00
   18.400   1.004E+00
   18.500   9.993E-01
   18.600   9.950E-01
   18.700   9.915E-01
   18.800   9.887E-01
   18.900   9.865E-01
   19.000   9.847E-01
   19.100   9.833E-01
   19.200   9.820E-01
   19.300   9.808E-01
   19.400   9.795E-01
   19.500   9.780E-01
   19.600   9.763E-01
   19.700   9.743E-01
   19.800   9.719E-01
   19.900   9.693E-01
   20.000   9.664E-01
   20.100   9.633E-01
   20.200   9.600E-01
   20.300   9.566E-01
   20.400   9.532E-01
   20.500   9.499E-01
   20.600   9.465E-01
   20.700   9.432E-01
   20.800   9.400E-01
   20.900   9.367E-01
   21.000   9.335E-01
   21.100   9.303E-01
   21.200   9.271E-01
   21.300   9.237E-01
   21.400   9.202E-01
   21.500   9.165E-01
   21.600   9.126E-01
   21.700   9.085E-01
   21.800   9.041E-01
   21.900   8.994E-01
   22.000   8.943E-01
   22.100   8.889E-01
   22.200   8.831E-01
   22.300   8.768E-01
   22.400   8.702E-01
   22.500   8.633E-01
   22.600   8.559E-01
   22.700   8.481E-01
   22.800   8.400E-01
   22.900   8.316E-01
   23.000   8.230E-01
   23.100   8.140E-01
   23.200   8.049E-01
   23.300   7.957E-01
   23.400   7.863E-01
   23.500   7.769E-01
   23.600   7.674E-01
   23.700   7.579E-01
   23.800   7.485E-01
   23.900   7.391E-01
   24.000   7.297E-01
   24.100   7.205E-01
   24.200   7.113E-01
   24.300   7.022E-01
   24.400   6.932E-01
   24.500   6.843E-01
   24.600   6.755E-01
   24.700   6.669E-01
   24.800   6.583E-01
   24.900   6.499E-01
   25.000   6.416E-01
   25.100   6.335E-01
   25.200   6.255E-01
   25.300   6.176E-01
   25.400   6.099E-01
   25.500   6.023E-01
   25.600   5.948E-01
   25.700   5.874E-01
   25.800   5.801E-01
   25.900   5.730E-01
   26.000   5.659E-01
   26.100   5.590E-01
   26.200   5.521E-01
   26.300   5.454E-01
   26.400   5.388E-01
   26.500   5.323E-01
   26.600   5.260E-01
   26.700   5.197E-01
   26.800   5.136E-01
   26.900   5.075E-01
   27.000   5.016E-01
   27.100   4.958E-01
   27.200   4.901E-01
   27.300   4.845E-01
   27.400   4.790E-01
   27.500   4.735E-01
   27.600   4.682E-01
   27.700   4.629E-01
   27.800   4.577E-01
   27.900   4.525E-01
   28.000   4.474E-01
   28.100   4.424E-01
   28.200   4.374E-01
   28.300   4.325E-01
   28.400   4.276E-01
   28.500   4.229E-01
   28.600   4.182E-01
   28.700   4.135E-01
   28.800   4.090E-01
   28.900   4.045E-01
   29.000   4.001E-01
   29.100   3.958E-01
   29.200   3.916E-01
   29.300   3.874E-01
   29.400   3.833E-01
   29.500   3.793E-01
   29.600   3.754E-01
   29.700   3.715E-01
   29.800   3.677E-01
   29.900   3.640E-01
   30.000   3.603E-01
 
 Z=  12 A=  25 Mg
  U[MeV]  fE1[mb/MeV]
    0.100   5.821E-06
    0.200   2.329E-05
    0.300   5.241E-05
    0.400   9.323E-05
    0.500   1.458E-04
    0.600   2.101E-04
    0.700   2.862E-04
    0.800   3.742E-04
    0.900   4.741E-04
    1.000   5.861E-04
    1.100   7.102E-04
    1.200   8.465E-04
    1.300   9.953E-04
    1.400   1.156E-03
    1.500   1.330E-03
    1.600   1.517E-03
    1.700   1.716E-03
    1.800   1.929E-03
    1.900   2.155E-03
    2.000   2.394E-03
    2.100   2.647E-03
    2.200   2.914E-03
    2.300   3.195E-03
    2.400   3.491E-03
    2.500   3.801E-03
    2.600   4.127E-03
    2.700   4.467E-03
    2.800   4.823E-03
    2.900   5.195E-03
    3.000   5.583E-03
    3.100   5.988E-03
    3.200   6.410E-03
    3.300   6.850E-03
    3.400   7.307E-03
    3.500   7.783E-03
    3.600   8.277E-03
    3.700   8.791E-03
    3.800   9.324E-03
    3.900   9.878E-03
    4.000   1.045E-02
    4.100   1.105E-02
    4.200   1.167E-02
    4.300   1.231E-02
    4.400   1.298E-02
    4.500   1.366E-02
    4.600   1.438E-02
    4.700   1.512E-02
    4.800   1.589E-02
    4.900   1.668E-02
    5.000   1.751E-02
    5.100   1.836E-02
    5.200   1.925E-02
    5.300   2.016E-02
    5.400   2.111E-02
    5.500   2.210E-02
    5.600   2.312E-02
    5.700   2.417E-02
    5.800   2.527E-02
    5.900   2.641E-02
    6.000   2.758E-02
    6.100   2.880E-02
    6.200   3.007E-02
    6.300   3.139E-02
    6.400   3.275E-02
    6.500   3.417E-02
    6.600   3.563E-02
    6.700   3.716E-02
    6.800   3.875E-02
    6.900   4.039E-02
    7.000   4.211E-02
    7.100   4.389E-02
    7.200   4.574E-02
    7.300   4.767E-02
    7.400   4.967E-02
    7.500   5.176E-02
    7.600   5.394E-02
    7.700   5.621E-02
    7.800   5.858E-02
    7.900   6.105E-02
    8.000   6.363E-02
    8.100   6.632E-02
    8.200   6.914E-02
    8.300   7.208E-02
    8.400   7.516E-02
    8.500   7.839E-02
    8.600   8.177E-02
    8.700   8.531E-02
    8.800   8.902E-02
    8.900   9.292E-02
    9.000   9.702E-02
    9.100   1.013E-01
    9.200   1.058E-01
    9.300   1.106E-01
    9.400   1.156E-01
    9.500   1.209E-01
    9.600   1.264E-01
    9.700   1.322E-01
    9.800   1.384E-01
    9.900   1.448E-01
   10.000   1.517E-01
   10.100   1.589E-01
   10.200   1.664E-01
   10.300   1.744E-01
   10.400   1.828E-01
   10.500   1.916E-01
   10.600   2.009E-01
   10.700   2.107E-01
   10.800   2.210E-01
   10.900   2.319E-01
   11.000   2.432E-01
   11.100   2.552E-01
   11.200   2.677E-01
   11.300   2.809E-01
   11.400   2.947E-01
   11.500   3.092E-01
   11.600   3.244E-01
   11.700   3.404E-01
   11.800   3.571E-01
   11.900   3.747E-01
   12.000   3.931E-01
   12.100   4.124E-01
   12.200   4.325E-01
   12.300   4.535E-01
   12.400   4.752E-01
   12.500   4.977E-01
   12.600   5.208E-01
   12.700   5.444E-01
   12.800   5.684E-01
   12.900   5.926E-01
   13.000   6.169E-01
   13.100   6.411E-01
   13.200   6.651E-01
   13.300   6.888E-01
   13.400   7.122E-01
   13.500   7.353E-01
   13.600   7.580E-01
   13.700   7.805E-01
   13.800   8.031E-01
   13.900   8.257E-01
   14.000   8.488E-01
   14.100   8.724E-01
   14.200   8.968E-01
   14.300   9.221E-01
   14.400   9.486E-01
   14.500   9.764E-01
   14.600   1.006E+00
   14.700   1.036E+00
   14.800   1.068E+00
   14.900   1.101E+00
   15.000   1.136E+00
   15.100   1.172E+00
   15.200   1.208E+00
   15.300   1.244E+00
   15.400   1.280E+00
   15.500   1.316E+00
   15.600   1.350E+00
   15.700   1.382E+00
   15.800   1.411E+00
   15.900   1.436E+00
   16.000   1.457E+00
   16.100   1.473E+00
   16.200   1.484E+00
   16.300   1.489E+00
   16.400   1.488E+00
   16.500   1.482E+00
   16.600   1.472E+00
   16.700   1.457E+00
   16.800   1.438E+00
   16.900   1.416E+00
   17.000   1.392E+00
   17.100   1.367E+00
   17.200   1.341E+00
   17.300   1.315E+00
   17.400   1.290E+00
   17.500   1.266E+00
   17.600   1.243E+00
   17.700   1.222E+00
   17.800   1.203E+00
   17.900   1.186E+00
   18.000   1.170E+00
   18.100   1.157E+00
   18.200   1.146E+00
   18.300   1.136E+00
   18.400   1.129E+00
   18.500   1.123E+00
   18.600   1.119E+00
   18.700   1.116E+00
   18.800   1.114E+00
   18.900   1.114E+00
   19.000   1.114E+00
   19.100   1.114E+00
   19.200   1.115E+00
   19.300   1.116E+00
   19.400   1.117E+00
   19.500   1.117E+00
   19.600   1.117E+00
   19.700   1.115E+00
   19.800   1.113E+00
   19.900   1.110E+00
   20.000   1.106E+00
   20.100   1.101E+00
   20.200   1.096E+00
   20.300   1.089E+00
   20.400   1.082E+00
   20.500   1.075E+00
   20.600   1.068E+00
   20.700   1.060E+00
   20.800   1.052E+00
   20.900   1.045E+00
   21.000   1.037E+00
   21.100   1.030E+00
   21.200   1.023E+00
   21.300   1.017E+00
   21.400   1.010E+00
   21.500   1.004E+00
   21.600   9.980E-01
   21.700   9.922E-01
   21.800   9.863E-01
   21.900   9.805E-01
   22.000   9.747E-01
   22.100   9.687E-01
   22.200   9.626E-01
   22.300   9.562E-01
   22.400   9.495E-01
   22.500   9.425E-01
   22.600   9.351E-01
   22.700   9.272E-01
   22.800   9.190E-01
   22.900   9.102E-01
   23.000   9.011E-01
   23.100   8.915E-01
   23.200   8.814E-01
   23.300   8.710E-01
   23.400   8.602E-01
   23.500   8.491E-01
   23.600   8.377E-01
   23.700   8.261E-01
   23.800   8.143E-01
   23.900   8.024E-01
   24.000   7.905E-01
   24.100   7.785E-01
   24.200   7.666E-01
   24.300   7.548E-01
   24.400   7.432E-01
   24.500   7.317E-01
   24.600   7.205E-01
   24.700   7.096E-01
   24.800   6.989E-01
   24.900   6.885E-01
   25.000   6.784E-01
   25.100   6.686E-01
   25.200   6.591E-01
   25.300   6.499E-01
   25.400   6.409E-01
   25.500   6.322E-01
   25.600   6.238E-01
   25.700   6.155E-01
   25.800   6.075E-01
   25.900   5.997E-01
   26.000   5.921E-01
   26.100   5.846E-01
   26.200   5.773E-01
   26.300   5.701E-01
   26.400   5.630E-01
   26.500   5.560E-01
   26.600   5.492E-01
   26.700   5.424E-01
   26.800   5.357E-01
   26.900   5.291E-01
   27.000   5.225E-01
   27.100   5.160E-01
   27.200   5.095E-01
   27.300   5.031E-01
   27.400   4.967E-01
   27.500   4.904E-01
   27.600   4.841E-01
   27.700   4.779E-01
   27.800   4.717E-01
   27.900   4.656E-01
   28.000   4.596E-01
   28.100   4.536E-01
   28.200   4.477E-01
   28.300   4.419E-01
   28.400   4.362E-01
   28.500   4.306E-01
   28.600   4.251E-01
   28.700   4.197E-01
   28.800   4.144E-01
   28.900   4.092E-01
   29.000   4.042E-01
   29.100   3.992E-01
   29.200   3.944E-01
   29.300   3.897E-01
   29.400   3.851E-01
   29.500   3.806E-01
   29.600   3.762E-01
   29.700   3.719E-01
   29.800   3.677E-01
   29.900   3.636E-01
   30.000   3.596E-01
 
 Z=  12 A=  26 Mg
  U[MeV]  fE1[mb/MeV]
    0.100   5.757E-06
    0.200   2.303E-05
    0.300   5.184E-05
    0.400   9.220E-05
    0.500   1.442E-04
    0.600   2.078E-04
    0.700   2.830E-04
    0.800   3.701E-04
    0.900   4.689E-04
    1.000   5.797E-04
    1.100   7.025E-04
    1.200   8.374E-04
    1.300   9.845E-04
    1.400   1.144E-03
    1.500   1.316E-03
    1.600   1.501E-03
    1.700   1.698E-03
    1.800   1.909E-03
    1.900   2.132E-03
    2.000   2.369E-03
    2.100   2.620E-03
    2.200   2.884E-03
    2.300   3.163E-03
    2.400   3.455E-03
    2.500   3.763E-03
    2.600   4.085E-03
    2.700   4.422E-03
    2.800   4.775E-03
    2.900   5.144E-03
    3.000   5.529E-03
    3.100   5.930E-03
    3.200   6.349E-03
    3.300   6.784E-03
    3.400   7.238E-03
    3.500   7.710E-03
    3.600   8.201E-03
    3.700   8.711E-03
    3.800   9.240E-03
    3.900   9.790E-03
    4.000   1.036E-02
    4.100   1.095E-02
    4.200   1.157E-02
    4.300   1.221E-02
    4.400   1.287E-02
    4.500   1.355E-02
    4.600   1.427E-02
    4.700   1.500E-02
    4.800   1.577E-02
    4.900   1.656E-02
    5.000   1.738E-02
    5.100   1.823E-02
    5.200   1.911E-02
    5.300   2.003E-02
    5.400   2.097E-02
    5.500   2.196E-02
    5.600   2.298E-02
    5.700   2.403E-02
    5.800   2.513E-02
    5.900   2.626E-02
    6.000   2.744E-02
    6.100   2.866E-02
    6.200   2.993E-02
    6.300   3.125E-02
    6.400   3.262E-02
    6.500   3.404E-02
    6.600   3.551E-02
    6.700   3.704E-02
    6.800   3.864E-02
    6.900   4.029E-02
    7.000   4.202E-02
    7.100   4.381E-02
    7.200   4.568E-02
    7.300   4.762E-02
    7.400   4.965E-02
    7.500   5.176E-02
    7.600   5.396E-02
    7.700   5.626E-02
    7.800   5.866E-02
    7.900   6.117E-02
    8.000   6.379E-02
    8.100   6.653E-02
    8.200   6.940E-02
    8.300   7.240E-02
    8.400   7.555E-02
    8.500   7.885E-02
    8.600   8.231E-02
    8.700   8.594E-02
    8.800   8.976E-02
    8.900   9.378E-02
    9.000   9.800E-02
    9.100   1.024E-01
    9.200   1.071E-01
    9.300   1.120E-01
    9.400   1.172E-01
    9.500   1.227E-01
    9.600   1.285E-01
    9.700   1.345E-01
    9.800   1.409E-01
    9.900   1.477E-01
   10.000   1.548E-01
   10.100   1.622E-01
   10.200   1.701E-01
   10.300   1.783E-01
   10.400   1.869E-01
   10.500   1.959E-01
   10.600   2.053E-01
   10.700   2.152E-01
   10.800   2.254E-01
   10.900   2.361E-01
   11.000   2.472E-01
   11.100   2.588E-01
   11.200   2.709E-01
   11.300   2.836E-01
   11.400   2.968E-01
   11.500   3.107E-01
   11.600   3.254E-01
   11.700   3.409E-01
   11.800   3.573E-01
   11.900   3.746E-01
   12.000   3.931E-01
   12.100   4.127E-01
   12.200   4.334E-01
   12.300   4.555E-01
   12.400   4.788E-01
   12.500   5.035E-01
   12.600   5.295E-01
   12.700   5.568E-01
   12.800   5.854E-01
   12.900   6.152E-01
   13.000   6.461E-01
   13.100   6.778E-01
   13.200   7.103E-01
   13.300   7.434E-01
   13.400   7.767E-01
   13.500   8.102E-01
   13.600   8.435E-01
   13.700   8.766E-01
   13.800   9.095E-01
   13.900   9.419E-01
   14.000   9.741E-01
   14.100   1.006E+00
   14.200   1.038E+00
   14.300   1.070E+00
   14.400   1.102E+00
   14.500   1.135E+00
   14.600   1.168E+00
   14.700   1.202E+00
   14.800   1.236E+00
   14.900   1.271E+00
   15.000   1.306E+00
   15.100   1.341E+00
   15.200   1.375E+00
   15.300   1.409E+00
   15.400   1.441E+00
   15.500   1.471E+00
   15.600   1.498E+00
   15.700   1.521E+00
   15.800   1.540E+00
   15.900   1.554E+00
   16.000   1.562E+00
   16.100   1.564E+00
   16.200   1.560E+00
   16.300   1.551E+00
   16.400   1.537E+00
   16.500   1.518E+00
   16.600   1.496E+00
   16.700   1.471E+00
   16.800   1.444E+00
   16.900   1.416E+00
   17.000   1.388E+00
   17.100   1.360E+00
   17.200   1.333E+00
   17.300   1.308E+00
   17.400   1.284E+00
   17.500   1.262E+00
   17.600   1.241E+00
   17.700   1.223E+00
   17.800   1.206E+00
   17.900   1.192E+00
   18.000   1.179E+00
   18.100   1.168E+00
   18.200   1.158E+00
   18.300   1.150E+00
   18.400   1.143E+00
   18.500   1.138E+00
   18.600   1.134E+00
   18.700   1.131E+00
   18.800   1.129E+00
   18.900   1.128E+00
   19.000   1.128E+00
   19.100   1.128E+00
   19.200   1.128E+00
   19.300   1.129E+00
   19.400   1.130E+00
   19.500   1.131E+00
   19.600   1.132E+00
   19.700   1.132E+00
   19.800   1.132E+00
   19.900   1.131E+00
   20.000   1.130E+00
   20.100   1.128E+00
   20.200   1.125E+00
   20.300   1.121E+00
   20.400   1.117E+00
   20.500   1.112E+00
   20.600   1.107E+00
   20.700   1.102E+00
   20.800   1.097E+00
   20.900   1.091E+00
   21.000   1.086E+00
   21.100   1.081E+00
   21.200   1.075E+00
   21.300   1.070E+00
   21.400   1.065E+00
   21.500   1.060E+00
   21.600   1.056E+00
   21.700   1.051E+00
   21.800   1.046E+00
   21.900   1.041E+00
   22.000   1.036E+00
   22.100   1.030E+00
   22.200   1.025E+00
   22.300   1.018E+00
   22.400   1.012E+00
   22.500   1.005E+00
   22.600   9.976E-01
   22.700   9.897E-01
   22.800   9.811E-01
   22.900   9.720E-01
   23.000   9.623E-01
   23.100   9.519E-01
   23.200   9.409E-01
   23.300   9.293E-01
   23.400   9.171E-01
   23.500   9.044E-01
   23.600   8.912E-01
   23.700   8.776E-01
   23.800   8.636E-01
   23.900   8.494E-01
   24.000   8.351E-01
   24.100   8.207E-01
   24.200   8.064E-01
   24.300   7.922E-01
   24.400   7.782E-01
   24.500   7.644E-01
   24.600   7.509E-01
   24.700   7.377E-01
   24.800   7.250E-01
   24.900   7.126E-01
   25.000   7.005E-01
   25.100   6.889E-01
   25.200   6.777E-01
   25.300   6.669E-01
   25.400   6.564E-01
   25.500   6.463E-01
   25.600   6.366E-01
   25.700   6.272E-01
   25.800   6.181E-01
   25.900   6.093E-01
   26.000   6.008E-01
   26.100   5.925E-01
   26.200   5.845E-01
   26.300   5.767E-01
   26.400   5.691E-01
   26.500   5.617E-01
   26.600   5.544E-01
   26.700   5.473E-01
   26.800   5.404E-01
   26.900   5.335E-01
   27.000   5.268E-01
   27.100   5.202E-01
   27.200   5.137E-01
   27.300   5.073E-01
   27.400   5.010E-01
   27.500   4.948E-01
   27.600   4.887E-01
   27.700   4.826E-01
   27.800   4.766E-01
   27.900   4.707E-01
   28.000   4.648E-01
   28.100   4.590E-01
   28.200   4.533E-01
   28.300   4.476E-01
   28.400   4.420E-01
   28.500   4.365E-01
   28.600   4.310E-01
   28.700   4.257E-01
   28.800   4.204E-01
   28.900   4.153E-01
   29.000   4.103E-01
   29.100   4.054E-01
   29.200   4.006E-01
   29.300   3.959E-01
   29.400   3.914E-01
   29.500   3.871E-01
   29.600   3.828E-01
   29.700   3.787E-01
   29.800   3.746E-01
   29.900   3.707E-01
   30.000   3.669E-01
 
 Z=  12 A=  27 Mg
  U[MeV]  fE1[mb/MeV]
    0.100   6.025E-06
    0.200   2.411E-05
    0.300   5.426E-05
    0.400   9.650E-05
    0.500   1.509E-04
    0.600   2.174E-04
    0.700   2.962E-04
    0.800   3.873E-04
    0.900   4.908E-04
    1.000   6.067E-04
    1.100   7.352E-04
    1.200   8.764E-04
    1.300   1.030E-03
    1.400   1.197E-03
    1.500   1.377E-03
    1.600   1.570E-03
    1.700   1.777E-03
    1.800   1.997E-03
    1.900   2.231E-03
    2.000   2.479E-03
    2.100   2.741E-03
    2.200   3.018E-03
    2.300   3.309E-03
    2.400   3.615E-03
    2.500   3.937E-03
    2.600   4.273E-03
    2.700   4.626E-03
    2.800   4.995E-03
    2.900   5.381E-03
    3.000   5.783E-03
    3.100   6.203E-03
    3.200   6.640E-03
    3.300   7.096E-03
    3.400   7.570E-03
    3.500   8.063E-03
    3.600   8.576E-03
    3.700   9.109E-03
    3.800   9.662E-03
    3.900   1.024E-02
    4.000   1.083E-02
    4.100   1.145E-02
    4.200   1.209E-02
    4.300   1.276E-02
    4.400   1.345E-02
    4.500   1.417E-02
    4.600   1.491E-02
    4.700   1.568E-02
    4.800   1.648E-02
    4.900   1.731E-02
    5.000   1.816E-02
    5.100   1.905E-02
    5.200   1.997E-02
    5.300   2.093E-02
    5.400   2.191E-02
    5.500   2.294E-02
    5.600   2.400E-02
    5.700   2.511E-02
    5.800   2.625E-02
    5.900   2.743E-02
    6.000   2.866E-02
    6.100   2.994E-02
    6.200   3.126E-02
    6.300   3.264E-02
    6.400   3.407E-02
    6.500   3.555E-02
    6.600   3.709E-02
    6.700   3.869E-02
    6.800   4.035E-02
    6.900   4.209E-02
    7.000   4.389E-02
    7.100   4.576E-02
    7.200   4.771E-02
    7.300   4.975E-02
    7.400   5.187E-02
    7.500   5.408E-02
    7.600   5.638E-02
    7.700   5.879E-02
    7.800   6.131E-02
    7.900   6.393E-02
    8.000   6.668E-02
    8.100   6.956E-02
    8.200   7.257E-02
    8.300   7.572E-02
    8.400   7.902E-02
    8.500   8.248E-02
    8.600   8.612E-02
    8.700   8.993E-02
    8.800   9.393E-02
    8.900   9.814E-02
    9.000   1.026E-01
    9.100   1.072E-01
    9.200   1.121E-01
    9.300   1.172E-01
    9.400   1.226E-01
    9.500   1.282E-01
    9.600   1.341E-01
    9.700   1.403E-01
    9.800   1.468E-01
    9.900   1.535E-01
   10.000   1.606E-01
   10.100   1.679E-01
   10.200   1.754E-01
   10.300   1.832E-01
   10.400   1.912E-01
   10.500   1.995E-01
   10.600   2.079E-01
   10.700   2.165E-01
   10.800   2.252E-01
   10.900   2.341E-01
   11.000   2.432E-01
   11.100   2.525E-01
   11.200   2.619E-01
   11.300   2.716E-01
   11.400   2.816E-01
   11.500   2.919E-01
   11.600   3.025E-01
   11.700   3.136E-01
   11.800   3.252E-01
   11.900   3.374E-01
   12.000   3.501E-01
   12.100   3.636E-01
   12.200   3.777E-01
   12.300   3.927E-01
   12.400   4.085E-01
   12.500   4.252E-01
   12.600   4.428E-01
   12.700   4.615E-01
   12.800   4.812E-01
   12.900   5.019E-01
   13.000   5.239E-01
   13.100   5.470E-01
   13.200   5.714E-01
   13.300   5.971E-01
   13.400   6.241E-01
   13.500   6.525E-01
   13.600   6.824E-01
   13.700   7.137E-01
   13.800   7.464E-01
   13.900   7.804E-01
   14.000   8.158E-01
   14.100   8.522E-01
   14.200   8.897E-01
   14.300   9.279E-01
   14.400   9.666E-01
   14.500   1.006E+00
   14.600   1.044E+00
   14.700   1.083E+00
   14.800   1.121E+00
   14.900   1.159E+00
   15.000   1.195E+00
   15.100   1.231E+00
   15.200   1.265E+00
   15.300   1.299E+00
   15.400   1.331E+00
   15.500   1.361E+00
   15.600   1.390E+00
   15.700   1.418E+00
   15.800   1.443E+00
   15.900   1.466E+00
   16.000   1.487E+00
   16.100   1.504E+00
   16.200   1.519E+00
   16.300   1.531E+00
   16.400   1.541E+00
   16.500   1.547E+00
   16.600   1.551E+00
   16.700   1.553E+00
   16.800   1.552E+00
   16.900   1.550E+00
   17.000   1.547E+00
   17.100   1.542E+00
   17.200   1.537E+00
   17.300   1.530E+00
   17.400   1.523E+00
   17.500   1.516E+00
   17.600   1.507E+00
   17.700   1.498E+00
   17.800   1.489E+00
   17.900   1.479E+00
   18.000   1.469E+00
   18.100   1.459E+00
   18.200   1.448E+00
   18.300   1.438E+00
   18.400   1.428E+00
   18.500   1.419E+00
   18.600   1.410E+00
   18.700   1.402E+00
   18.800   1.395E+00
   18.900   1.388E+00
   19.000   1.382E+00
   19.100   1.376E+00
   19.200   1.371E+00
   19.300   1.367E+00
   19.400   1.362E+00
   19.500   1.358E+00
   19.600   1.354E+00
   19.700   1.349E+00
   19.800   1.344E+00
   19.900   1.339E+00
   20.000   1.333E+00
   20.100   1.327E+00
   20.200   1.321E+00
   20.300   1.314E+00
   20.400   1.307E+00
   20.500   1.299E+00
   20.600   1.292E+00
   20.700   1.284E+00
   20.800   1.275E+00
   20.900   1.266E+00
   21.000   1.257E+00
   21.100   1.248E+00
   21.200   1.238E+00
   21.300   1.228E+00
   21.400   1.218E+00
   21.500   1.207E+00
   21.600   1.196E+00
   21.700   1.185E+00
   21.800   1.173E+00
   21.900   1.161E+00
   22.000   1.150E+00
   22.100   1.138E+00
   22.200   1.126E+00
   22.300   1.114E+00
   22.400   1.102E+00
   22.500   1.090E+00
   22.600   1.078E+00
   22.700   1.066E+00
   22.800   1.054E+00
   22.900   1.042E+00
   23.000   1.030E+00
   23.100   1.018E+00
   23.200   1.006E+00
   23.300   9.937E-01
   23.400   9.816E-01
   23.500   9.693E-01
   23.600   9.571E-01
   23.700   9.448E-01
   23.800   9.324E-01
   23.900   9.200E-01
   24.000   9.075E-01
   24.100   8.949E-01
   24.200   8.823E-01
   24.300   8.695E-01
   24.400   8.566E-01
   24.500   8.436E-01
   24.600   8.305E-01
   24.700   8.173E-01
   24.800   8.040E-01
   24.900   7.908E-01
   25.000   7.775E-01
   25.100   7.643E-01
   25.200   7.512E-01
   25.300   7.383E-01
   25.400   7.254E-01
   25.500   7.128E-01
   25.600   7.004E-01
   25.700   6.883E-01
   25.800   6.764E-01
   25.900   6.647E-01
   26.000   6.534E-01
   26.100   6.424E-01
   26.200   6.317E-01
   26.300   6.213E-01
   26.400   6.112E-01
   26.500   6.014E-01
   26.600   5.920E-01
   26.700   5.828E-01
   26.800   5.740E-01
   26.900   5.655E-01
   27.000   5.572E-01
   27.100   5.492E-01
   27.200   5.415E-01
   27.300   5.340E-01
   27.400   5.267E-01
   27.500   5.197E-01
   27.600   5.128E-01
   27.700   5.061E-01
   27.800   4.995E-01
   27.900   4.931E-01
   28.000   4.868E-01
   28.100   4.806E-01
   28.200   4.746E-01
   28.300   4.686E-01
   28.400   4.628E-01
   28.500   4.571E-01
   28.600   4.515E-01
   28.700   4.461E-01
   28.800   4.408E-01
   28.900   4.356E-01
   29.000   4.305E-01
   29.100   4.255E-01
   29.200   4.207E-01
   29.300   4.160E-01
   29.400   4.114E-01
   29.500   4.069E-01
   29.600   4.025E-01
   29.700   3.981E-01
   29.800   3.939E-01
   29.900   3.897E-01
   30.000   3.855E-01
 
 Z=  12 A=  28 Mg
  U[MeV]  fE1[mb/MeV]
    0.100   7.044E-06
    0.200   2.818E-05
    0.300   6.343E-05
    0.400   1.128E-04
    0.500   1.764E-04
    0.600   2.542E-04
    0.700   3.463E-04
    0.800   4.527E-04
    0.900   5.736E-04
    1.000   7.091E-04
    1.100   8.592E-04
    1.200   1.024E-03
    1.300   1.204E-03
    1.400   1.399E-03
    1.500   1.609E-03
    1.600   1.834E-03
    1.700   2.075E-03
    1.800   2.332E-03
    1.900   2.605E-03
    2.000   2.894E-03
    2.100   3.199E-03
    2.200   3.522E-03
    2.300   3.861E-03
    2.400   4.217E-03
    2.500   4.591E-03
    2.600   4.983E-03
    2.700   5.394E-03
    2.800   5.822E-03
    2.900   6.270E-03
    3.000   6.737E-03
    3.100   7.224E-03
    3.200   7.732E-03
    3.300   8.260E-03
    3.400   8.809E-03
    3.500   9.380E-03
    3.600   9.973E-03
    3.700   1.059E-02
    3.800   1.123E-02
    3.900   1.189E-02
    4.000   1.258E-02
    4.100   1.329E-02
    4.200   1.403E-02
    4.300   1.480E-02
    4.400   1.559E-02
    4.500   1.641E-02
    4.600   1.726E-02
    4.700   1.814E-02
    4.800   1.906E-02
    4.900   2.000E-02
    5.000   2.098E-02
    5.100   2.199E-02
    5.200   2.304E-02
    5.300   2.412E-02
    5.400   2.524E-02
    5.500   2.640E-02
    5.600   2.760E-02
    5.700   2.884E-02
    5.800   3.012E-02
    5.900   3.145E-02
    6.000   3.283E-02
    6.100   3.425E-02
    6.200   3.573E-02
    6.300   3.725E-02
    6.400   3.883E-02
    6.500   4.047E-02
    6.600   4.216E-02
    6.700   4.392E-02
    6.800   4.573E-02
    6.900   4.762E-02
    7.000   4.957E-02
    7.100   5.159E-02
    7.200   5.368E-02
    7.300   5.586E-02
    7.400   5.811E-02
    7.500   6.044E-02
    7.600   6.287E-02
    7.700   6.538E-02
    7.800   6.799E-02
    7.900   7.070E-02
    8.000   7.351E-02
    8.100   7.643E-02
    8.200   7.946E-02
    8.300   8.261E-02
    8.400   8.588E-02
    8.500   8.927E-02
    8.600   9.280E-02
    8.700   9.647E-02
    8.800   1.003E-01
    8.900   1.042E-01
    9.000   1.084E-01
    9.100   1.126E-01
    9.200   1.171E-01
    9.300   1.217E-01
    9.400   1.265E-01
    9.500   1.315E-01
    9.600   1.367E-01
    9.700   1.421E-01
    9.800   1.476E-01
    9.900   1.534E-01
   10.000   1.594E-01
   10.100   1.657E-01
   10.200   1.721E-01
   10.300   1.788E-01
   10.400   1.857E-01
   10.500   1.928E-01
   10.600   2.002E-01
   10.700   2.078E-01
   10.800   2.156E-01
   10.900   2.237E-01
   11.000   2.320E-01
   11.100   2.406E-01
   11.200   2.494E-01
   11.300   2.584E-01
   11.400   2.677E-01
   11.500   2.772E-01
   11.600   2.870E-01
   11.700   2.970E-01
   11.800   3.073E-01
   11.900   3.178E-01
   12.000   3.286E-01
   12.100   3.396E-01
   12.200   3.509E-01
   12.300   3.625E-01
   12.400   3.744E-01
   12.500   3.866E-01
   12.600   3.991E-01
   12.700   4.119E-01
   12.800   4.251E-01
   12.900   4.386E-01
   13.000   4.525E-01
   13.100   4.668E-01
   13.200   4.816E-01
   13.300   4.968E-01
   13.400   5.124E-01
   13.500   5.286E-01
   13.600   5.453E-01
   13.700   5.626E-01
   13.800   5.804E-01
   13.900   5.988E-01
   14.000   6.178E-01
   14.100   6.375E-01
   14.200   6.578E-01
   14.300   6.788E-01
   14.400   7.004E-01
   14.500   7.228E-01
   14.600   7.458E-01
   14.700   7.694E-01
   14.800   7.938E-01
   14.900   8.187E-01
   15.000   8.443E-01
   15.100   8.705E-01
   15.200   8.973E-01
   15.300   9.246E-01
   15.400   9.524E-01
   15.500   9.807E-01
   15.600   1.009E+00
   15.700   1.038E+00
   15.800   1.068E+00
   15.900   1.097E+00
   16.000   1.127E+00
   16.100   1.157E+00
   16.200   1.186E+00
   16.300   1.216E+00
   16.400   1.246E+00
   16.500   1.275E+00
   16.600   1.304E+00
   16.700   1.332E+00
   16.800   1.360E+00
   16.900   1.388E+00
   17.000   1.414E+00
   17.100   1.440E+00
   17.200   1.465E+00
   17.300   1.489E+00
   17.400   1.512E+00
   17.500   1.533E+00
   17.600   1.554E+00
   17.700   1.573E+00
   17.800   1.591E+00
   17.900   1.608E+00
   18.000   1.623E+00
   18.100   1.637E+00
   18.200   1.649E+00
   18.300   1.660E+00
   18.400   1.670E+00
   18.500   1.678E+00
   18.600   1.685E+00
   18.700   1.691E+00
   18.800   1.695E+00
   18.900   1.697E+00
   19.000   1.699E+00
   19.100   1.698E+00
   19.200   1.697E+00
   19.300   1.694E+00
   19.400   1.690E+00
   19.500   1.685E+00
   19.600   1.678E+00
   19.700   1.670E+00
   19.800   1.661E+00
   19.900   1.651E+00
   20.000   1.640E+00
   20.100   1.628E+00
   20.200   1.615E+00
   20.300   1.602E+00
   20.400   1.587E+00
   20.500   1.573E+00
   20.600   1.557E+00
   20.700   1.541E+00
   20.800   1.525E+00
   20.900   1.508E+00
   21.000   1.491E+00
   21.100   1.474E+00
   21.200   1.456E+00
   21.300   1.438E+00
   21.400   1.420E+00
   21.500   1.402E+00
   21.600   1.384E+00
   21.700   1.366E+00
   21.800   1.348E+00
   21.900   1.330E+00
   22.000   1.311E+00
   22.100   1.293E+00
   22.200   1.275E+00
   22.300   1.257E+00
   22.400   1.240E+00
   22.500   1.222E+00
   22.600   1.205E+00
   22.700   1.188E+00
   22.800   1.171E+00
   22.900   1.154E+00
   23.000   1.138E+00
   23.100   1.122E+00
   23.200   1.106E+00
   23.300   1.091E+00
   23.400   1.076E+00
   23.500   1.061E+00
   23.600   1.046E+00
   23.700   1.031E+00
   23.800   1.017E+00
   23.900   1.003E+00
   24.000   9.890E-01
   24.100   9.753E-01
   24.200   9.618E-01
   24.300   9.484E-01
   24.400   9.353E-01
   24.500   9.223E-01
   24.600   9.094E-01
   24.700   8.968E-01
   24.800   8.843E-01
   24.900   8.720E-01
   25.000   8.599E-01
   25.100   8.480E-01
   25.200   8.363E-01
   25.300   8.247E-01
   25.400   8.133E-01
   25.500   8.021E-01
   25.600   7.910E-01
   25.700   7.801E-01
   25.800   7.693E-01
   25.900   7.587E-01
   26.000   7.482E-01
   26.100   7.378E-01
   26.200   7.276E-01
   26.300   7.174E-01
   26.400   7.074E-01
   26.500   6.975E-01
   26.600   6.877E-01
   26.700   6.780E-01
   26.800   6.684E-01
   26.900   6.589E-01
   27.000   6.495E-01
   27.100   6.401E-01
   27.200   6.309E-01
   27.300   6.217E-01
   27.400   6.126E-01
   27.500   6.036E-01
   27.600   5.947E-01
   27.700   5.859E-01
   27.800   5.772E-01
   27.900   5.686E-01
   28.000   5.601E-01
   28.100   5.516E-01
   28.200   5.433E-01
   28.300   5.351E-01
   28.400   5.270E-01
   28.500   5.190E-01
   28.600   5.111E-01
   28.700   5.034E-01
   28.800   4.958E-01
   28.900   4.883E-01
   29.000   4.809E-01
   29.100   4.736E-01
   29.200   4.665E-01
   29.300   4.595E-01
   29.400   4.526E-01
   29.500   4.459E-01
   29.600   4.392E-01
   29.700   4.327E-01
   29.800   4.262E-01
   29.900   4.199E-01
   30.000   4.137E-01
 
 Z=  12 A=  29 Mg
  U[MeV]  fE1[mb/MeV]
    0.100   8.360E-06
    0.200   3.345E-05
    0.300   7.529E-05
    0.400   1.339E-04
    0.500   2.094E-04
    0.600   3.018E-04
    0.700   4.112E-04
    0.800   5.376E-04
    0.900   6.813E-04
    1.000   8.423E-04
    1.100   1.021E-03
    1.200   1.217E-03
    1.300   1.431E-03
    1.400   1.663E-03
    1.500   1.913E-03
    1.600   2.182E-03
    1.700   2.470E-03
    1.800   2.776E-03
    1.900   3.102E-03
    2.000   3.448E-03
    2.100   3.813E-03
    2.200   4.199E-03
    2.300   4.605E-03
    2.400   5.033E-03
    2.500   5.482E-03
    2.600   5.953E-03
    2.700   6.446E-03
    2.800   6.962E-03
    2.900   7.502E-03
    3.000   8.066E-03
    3.100   8.654E-03
    3.200   9.268E-03
    3.300   9.907E-03
    3.400   1.057E-02
    3.500   1.127E-02
    3.600   1.199E-02
    3.700   1.274E-02
    3.800   1.352E-02
    3.900   1.433E-02
    4.000   1.517E-02
    4.100   1.604E-02
    4.200   1.695E-02
    4.300   1.789E-02
    4.400   1.887E-02
    4.500   1.989E-02
    4.600   2.094E-02
    4.700   2.203E-02
    4.800   2.317E-02
    4.900   2.434E-02
    5.000   2.556E-02
    5.100   2.682E-02
    5.200   2.814E-02
    5.300   2.950E-02
    5.400   3.091E-02
    5.500   3.237E-02
    5.600   3.389E-02
    5.700   3.547E-02
    5.800   3.710E-02
    5.900   3.880E-02
    6.000   4.056E-02
    6.100   4.239E-02
    6.200   4.429E-02
    6.300   4.626E-02
    6.400   4.831E-02
    6.500   5.044E-02
    6.600   5.265E-02
    6.700   5.494E-02
    6.800   5.733E-02
    6.900   5.981E-02
    7.000   6.239E-02
    7.100   6.508E-02
    7.200   6.787E-02
    7.300   7.078E-02
    7.400   7.380E-02
    7.500   7.695E-02
    7.600   8.023E-02
    7.700   8.364E-02
    7.800   8.720E-02
    7.900   9.091E-02
    8.000   9.477E-02
    8.100   9.879E-02
    8.200   1.030E-01
    8.300   1.074E-01
    8.400   1.119E-01
    8.500   1.167E-01
    8.600   1.216E-01
    8.700   1.268E-01
    8.800   1.321E-01
    8.900   1.377E-01
    9.000   1.435E-01
    9.100   1.496E-01
    9.200   1.559E-01
    9.300   1.624E-01
    9.400   1.692E-01
    9.500   1.763E-01
    9.600   1.836E-01
    9.700   1.912E-01
    9.800   1.991E-01
    9.900   2.072E-01
   10.000   2.156E-01
   10.100   2.242E-01
   10.200   2.332E-01
   10.300   2.423E-01
   10.400   2.518E-01
   10.500   2.615E-01
   10.600   2.715E-01
   10.700   2.817E-01
   10.800   2.922E-01
   10.900   3.030E-01
   11.000   3.140E-01
   11.100   3.253E-01
   11.200   3.369E-01
   11.300   3.489E-01
   11.400   3.611E-01
   11.500   3.737E-01
   11.600   3.866E-01
   11.700   3.999E-01
   11.800   4.136E-01
   11.900   4.278E-01
   12.000   4.424E-01
   12.100   4.575E-01
   12.200   4.731E-01
   12.300   4.892E-01
   12.400   5.060E-01
   12.500   5.232E-01
   12.600   5.411E-01
   12.700   5.597E-01
   12.800   5.789E-01
   12.900   5.987E-01
   13.000   6.193E-01
   13.100   6.405E-01
   13.200   6.624E-01
   13.300   6.850E-01
   13.400   7.083E-01
   13.500   7.323E-01
   13.600   7.570E-01
   13.700   7.823E-01
   13.800   8.083E-01
   13.900   8.348E-01
   14.000   8.619E-01
   14.100   8.894E-01
   14.200   9.174E-01
   14.300   9.457E-01
   14.400   9.744E-01
   14.500   1.003E+00
   14.600   1.032E+00
   14.700   1.061E+00
   14.800   1.090E+00
   14.900   1.119E+00
   15.000   1.148E+00
   15.100   1.177E+00
   15.200   1.205E+00
   15.300   1.233E+00
   15.400   1.260E+00
   15.500   1.287E+00
   15.600   1.313E+00
   15.700   1.339E+00
   15.800   1.363E+00
   15.900   1.387E+00
   16.000   1.410E+00
   16.100   1.432E+00
   16.200   1.453E+00
   16.300   1.473E+00
   16.400   1.493E+00
   16.500   1.511E+00
   16.600   1.528E+00
   16.700   1.545E+00
   16.800   1.560E+00
   16.900   1.575E+00
   17.000   1.590E+00
   17.100   1.603E+00
   17.200   1.616E+00
   17.300   1.628E+00
   17.400   1.640E+00
   17.500   1.651E+00
   17.600   1.662E+00
   17.700   1.672E+00
   17.800   1.682E+00
   17.900   1.691E+00
   18.000   1.700E+00
   18.100   1.708E+00
   18.200   1.715E+00
   18.300   1.722E+00
   18.400   1.728E+00
   18.500   1.733E+00
   18.600   1.738E+00
   18.700   1.741E+00
   18.800   1.744E+00
   18.900   1.746E+00
   19.000   1.747E+00
   19.100   1.746E+00
   19.200   1.745E+00
   19.300   1.742E+00
   19.400   1.738E+00
   19.500   1.732E+00
   19.600   1.725E+00
   19.700   1.717E+00
   19.800   1.708E+00
   19.900   1.697E+00
   20.000   1.685E+00
   20.100   1.671E+00
   20.200   1.657E+00
   20.300   1.642E+00
   20.400   1.626E+00
   20.500   1.609E+00
   20.600   1.591E+00
   20.700   1.573E+00
   20.800   1.554E+00
   20.900   1.535E+00
   21.000   1.516E+00
   21.100   1.497E+00
   21.200   1.477E+00
   21.300   1.458E+00
   21.400   1.438E+00
   21.500   1.419E+00
   21.600   1.399E+00
   21.700   1.380E+00
   21.800   1.361E+00
   21.900   1.342E+00
   22.000   1.323E+00
   22.100   1.305E+00
   22.200   1.286E+00
   22.300   1.268E+00
   22.400   1.251E+00
   22.500   1.233E+00
   22.600   1.216E+00
   22.700   1.199E+00
   22.800   1.183E+00
   22.900   1.167E+00
   23.000   1.151E+00
   23.100   1.135E+00
   23.200   1.120E+00
   23.300   1.105E+00
   23.400   1.090E+00
   23.500   1.076E+00
   23.600   1.062E+00
   23.700   1.048E+00
   23.800   1.034E+00
   23.900   1.020E+00
   24.000   1.006E+00
   24.100   9.928E-01
   24.200   9.792E-01
   24.300   9.657E-01
   24.400   9.522E-01
   24.500   9.387E-01
   24.600   9.252E-01
   24.700   9.117E-01
   24.800   8.983E-01
   24.900   8.848E-01
   25.000   8.714E-01
   25.100   8.581E-01
   25.200   8.448E-01
   25.300   8.315E-01
   25.400   8.183E-01
   25.500   8.052E-01
   25.600   7.922E-01
   25.700   7.793E-01
   25.800   7.665E-01
   25.900   7.538E-01
   26.000   7.412E-01
   26.100   7.288E-01
   26.200   7.165E-01
   26.300   7.043E-01
   26.400   6.923E-01
   26.500   6.805E-01
   26.600   6.689E-01
   26.700   6.575E-01
   26.800   6.463E-01
   26.900   6.354E-01
   27.000   6.247E-01
   27.100   6.142E-01
   27.200   6.039E-01
   27.300   5.940E-01
   27.400   5.843E-01
   27.500   5.748E-01
   27.600   5.656E-01
   27.700   5.567E-01
   27.800   5.480E-01
   27.900   5.396E-01
   28.000   5.314E-01
   28.100   5.234E-01
   28.200   5.156E-01
   28.300   5.081E-01
   28.400   5.007E-01
   28.500   4.936E-01
   28.600   4.866E-01
   28.700   4.798E-01
   28.800   4.731E-01
   28.900   4.666E-01
   29.000   4.603E-01
   29.100   4.541E-01
   29.200   4.480E-01
   29.300   4.421E-01
   29.400   4.363E-01
   29.500   4.306E-01
   29.600   4.250E-01
   29.700   4.195E-01
   29.800   4.141E-01
   29.900   4.089E-01
   30.000   4.037E-01
 
 Z=  12 A=  30 Mg
  U[MeV]  fE1[mb/MeV]
    0.100   9.763E-06
    0.200   3.906E-05
    0.300   8.794E-05
    0.400   1.564E-04
    0.500   2.446E-04
    0.600   3.526E-04
    0.700   4.806E-04
    0.800   6.286E-04
    0.900   7.968E-04
    1.000   9.855E-04
    1.100   1.195E-03
    1.200   1.425E-03
    1.300   1.677E-03
    1.400   1.949E-03
    1.500   2.244E-03
    1.600   2.561E-03
    1.700   2.900E-03
    1.800   3.262E-03
    1.900   3.648E-03
    2.000   4.058E-03
    2.100   4.491E-03
    2.200   4.950E-03
    2.300   5.434E-03
    2.400   5.945E-03
    2.500   6.482E-03
    2.600   7.046E-03
    2.700   7.639E-03
    2.800   8.261E-03
    2.900   8.913E-03
    3.000   9.596E-03
    3.100   1.031E-02
    3.200   1.106E-02
    3.300   1.184E-02
    3.400   1.265E-02
    3.500   1.351E-02
    3.600   1.440E-02
    3.700   1.533E-02
    3.800   1.629E-02
    3.900   1.731E-02
    4.000   1.836E-02
    4.100   1.946E-02
    4.200   2.061E-02
    4.300   2.181E-02
    4.400   2.306E-02
    4.500   2.436E-02
    4.600   2.572E-02
    4.700   2.714E-02
    4.800   2.862E-02
    4.900   3.017E-02
    5.000   3.178E-02
    5.100   3.346E-02
    5.200   3.523E-02
    5.300   3.707E-02
    5.400   3.899E-02
    5.500   4.100E-02
    5.600   4.310E-02
    5.700   4.531E-02
    5.800   4.761E-02
    5.900   5.003E-02
    6.000   5.256E-02
    6.100   5.521E-02
    6.200   5.799E-02
    6.300   6.090E-02
    6.400   6.397E-02
    6.500   6.718E-02
    6.600   7.055E-02
    6.700   7.409E-02
    6.800   7.781E-02
    6.900   8.171E-02
    7.000   8.580E-02
    7.100   9.010E-02
    7.200   9.461E-02
    7.300   9.933E-02
    7.400   1.043E-01
    7.500   1.094E-01
    7.600   1.148E-01
    7.700   1.204E-01
    7.800   1.263E-01
    7.900   1.324E-01
    8.000   1.387E-01
    8.100   1.452E-01
    8.200   1.519E-01
    8.300   1.587E-01
    8.400   1.658E-01
    8.500   1.730E-01
    8.600   1.803E-01
    8.700   1.876E-01
    8.800   1.951E-01
    8.900   2.027E-01
    9.000   2.103E-01
    9.100   2.179E-01
    9.200   2.257E-01
    9.300   2.336E-01
    9.400   2.416E-01
    9.500   2.497E-01
    9.600   2.581E-01
    9.700   2.667E-01
    9.800   2.757E-01
    9.900   2.849E-01
   10.000   2.945E-01
   10.100   3.045E-01
   10.200   3.148E-01
   10.300   3.255E-01
   10.400   3.367E-01
   10.500   3.482E-01
   10.600   3.601E-01
   10.700   3.724E-01
   10.800   3.851E-01
   10.900   3.982E-01
   11.000   4.117E-01
   11.100   4.255E-01
   11.200   4.399E-01
   11.300   4.546E-01
   11.400   4.698E-01
   11.500   4.854E-01
   11.600   5.014E-01
   11.700   5.179E-01
   11.800   5.348E-01
   11.900   5.522E-01
   12.000   5.700E-01
   12.100   5.884E-01
   12.200   6.072E-01
   12.300   6.267E-01
   12.400   6.468E-01
   12.500   6.678E-01
   12.600   6.896E-01
   12.700   7.126E-01
   12.800   7.367E-01
   12.900   7.621E-01
   13.000   7.890E-01
   13.100   8.175E-01
   13.200   8.477E-01
   13.300   8.795E-01
   13.400   9.131E-01
   13.500   9.484E-01
   13.600   9.853E-01
   13.700   1.024E+00
   13.800   1.063E+00
   13.900   1.104E+00
   14.000   1.146E+00
   14.100   1.187E+00
   14.200   1.229E+00
   14.300   1.270E+00
   14.400   1.309E+00
   14.500   1.347E+00
   14.600   1.383E+00
   14.700   1.417E+00
   14.800   1.447E+00
   14.900   1.475E+00
   15.000   1.500E+00
   15.100   1.521E+00
   15.200   1.540E+00
   15.300   1.557E+00
   15.400   1.571E+00
   15.500   1.584E+00
   15.600   1.595E+00
   15.700   1.606E+00
   15.800   1.615E+00
   15.900   1.625E+00
   16.000   1.634E+00
   16.100   1.644E+00
   16.200   1.655E+00
   16.300   1.666E+00
   16.400   1.677E+00
   16.500   1.690E+00
   16.600   1.703E+00
   16.700   1.717E+00
   16.800   1.732E+00
   16.900   1.746E+00
   17.000   1.761E+00
   17.100   1.775E+00
   17.200   1.789E+00
   17.300   1.802E+00
   17.400   1.813E+00
   17.500   1.823E+00
   17.600   1.832E+00
   17.700   1.838E+00
   17.800   1.842E+00
   17.900   1.843E+00
   18.000   1.842E+00
   18.100   1.839E+00
   18.200   1.833E+00
   18.300   1.825E+00
   18.400   1.814E+00
   18.500   1.803E+00
   18.600   1.789E+00
   18.700   1.774E+00
   18.800   1.758E+00
   18.900   1.742E+00
   19.000   1.725E+00
   19.100   1.707E+00
   19.200   1.690E+00
   19.300   1.672E+00
   19.400   1.654E+00
   19.500   1.637E+00
   19.600   1.619E+00
   19.700   1.602E+00
   19.800   1.585E+00
   19.900   1.568E+00
   20.000   1.551E+00
   20.100   1.535E+00
   20.200   1.518E+00
   20.300   1.502E+00
   20.400   1.486E+00
   20.500   1.470E+00
   20.600   1.454E+00
   20.700   1.439E+00
   20.800   1.424E+00
   20.900   1.409E+00
   21.000   1.395E+00
   21.100   1.381E+00
   21.200   1.367E+00
   21.300   1.354E+00
   21.400   1.341E+00
   21.500   1.328E+00
   21.600   1.315E+00
   21.700   1.303E+00
   21.800   1.290E+00
   21.900   1.277E+00
   22.000   1.264E+00
   22.100   1.251E+00
   22.200   1.237E+00
   22.300   1.223E+00
   22.400   1.209E+00
   22.500   1.195E+00
   22.600   1.180E+00
   22.700   1.166E+00
   22.800   1.151E+00
   22.900   1.135E+00
   23.000   1.120E+00
   23.100   1.104E+00
   23.200   1.088E+00
   23.300   1.072E+00
   23.400   1.056E+00
   23.500   1.040E+00
   23.600   1.024E+00
   23.700   1.008E+00
   23.800   9.917E-01
   23.900   9.754E-01
   24.000   9.592E-01
   24.100   9.430E-01
   24.200   9.269E-01
   24.300   9.109E-01
   24.400   8.951E-01
   24.500   8.795E-01
   24.600   8.641E-01
   24.700   8.489E-01
   24.800   8.340E-01
   24.900   8.195E-01
   25.000   8.052E-01
   25.100   7.913E-01
   25.200   7.778E-01
   25.300   7.647E-01
   25.400   7.519E-01
   25.500   7.394E-01
   25.600   7.274E-01
   25.700   7.157E-01
   25.800   7.043E-01
   25.900   6.933E-01
   26.000   6.826E-01
   26.100   6.723E-01
   26.200   6.622E-01
   26.300   6.525E-01
   26.400   6.430E-01
   26.500   6.338E-01
   26.600   6.249E-01
   26.700   6.162E-01
   26.800   6.078E-01
   26.900   5.996E-01
   27.000   5.916E-01
   27.100   5.837E-01
   27.200   5.760E-01
   27.300   5.685E-01
   27.400   5.610E-01
   27.500   5.536E-01
   27.600   5.463E-01
   27.700   5.390E-01
   27.800   5.318E-01
   27.900   5.246E-01
   28.000   5.174E-01
   28.100   5.103E-01
   28.200   5.032E-01
   28.300   4.962E-01
   28.400   4.892E-01
   28.500   4.823E-01
   28.600   4.755E-01
   28.700   4.688E-01
   28.800   4.621E-01
   28.900   4.556E-01
   29.000   4.492E-01
   29.100   4.430E-01
   29.200   4.368E-01
   29.300   4.308E-01
   29.400   4.249E-01
   29.500   4.192E-01
   29.600   4.135E-01
   29.700   4.080E-01
   29.800   4.027E-01
   29.900   3.974E-01
   30.000   3.923E-01
 
 Z=  12 A=  31 Mg
  U[MeV]  fE1[mb/MeV]
    0.100   1.236E-05
    0.200   4.945E-05
    0.300   1.113E-04
    0.400   1.981E-04
    0.500   3.098E-04
    0.600   4.466E-04
    0.700   6.087E-04
    0.800   7.963E-04
    0.900   1.010E-03
    1.000   1.249E-03
    1.100   1.515E-03
    1.200   1.807E-03
    1.300   2.126E-03
    1.400   2.473E-03
    1.500   2.848E-03
    1.600   3.251E-03
    1.700   3.683E-03
    1.800   4.145E-03
    1.900   4.637E-03
    2.000   5.160E-03
    2.100   5.715E-03
    2.200   6.301E-03
    2.300   6.921E-03
    2.400   7.576E-03
    2.500   8.265E-03
    2.600   8.990E-03
    2.700   9.752E-03
    2.800   1.055E-02
    2.900   1.139E-02
    3.000   1.227E-02
    3.100   1.320E-02
    3.200   1.416E-02
    3.300   1.518E-02
    3.400   1.624E-02
    3.500   1.734E-02
    3.600   1.850E-02
    3.700   1.971E-02
    3.800   2.098E-02
    3.900   2.230E-02
    4.000   2.368E-02
    4.100   2.512E-02
    4.200   2.662E-02
    4.300   2.820E-02
    4.400   2.984E-02
    4.500   3.155E-02
    4.600   3.334E-02
    4.700   3.521E-02
    4.800   3.717E-02
    4.900   3.921E-02
    5.000   4.134E-02
    5.100   4.356E-02
    5.200   4.588E-02
    5.300   4.831E-02
    5.400   5.084E-02
    5.500   5.349E-02
    5.600   5.626E-02
    5.700   5.915E-02
    5.800   6.216E-02
    5.900   6.531E-02
    6.000   6.860E-02
    6.100   7.203E-02
    6.200   7.561E-02
    6.300   7.934E-02
    6.400   8.323E-02
    6.500   8.728E-02
    6.600   9.150E-02
    6.700   9.589E-02
    6.800   1.005E-01
    6.900   1.052E-01
    7.000   1.101E-01
    7.100   1.152E-01
    7.200   1.205E-01
    7.300   1.260E-01
    7.400   1.316E-01
    7.500   1.374E-01
    7.600   1.434E-01
    7.700   1.495E-01
    7.800   1.558E-01
    7.900   1.623E-01
    8.000   1.689E-01
    8.100   1.757E-01
    8.200   1.826E-01
    8.300   1.896E-01
    8.400   1.968E-01
    8.500   2.041E-01
    8.600   2.116E-01
    8.700   2.192E-01
    8.800   2.269E-01
    8.900   2.348E-01
    9.000   2.429E-01
    9.100   2.511E-01
    9.200   2.595E-01
    9.300   2.681E-01
    9.400   2.769E-01
    9.500   2.859E-01
    9.600   2.951E-01
    9.700   3.046E-01
    9.800   3.144E-01
    9.900   3.244E-01
   10.000   3.347E-01
   10.100   3.453E-01
   10.200   3.563E-01
   10.300   3.676E-01
   10.400   3.793E-01
   10.500   3.913E-01
   10.600   4.037E-01
   10.700   4.164E-01
   10.800   4.296E-01
   10.900   4.431E-01
   11.000   4.571E-01
   11.100   4.714E-01
   11.200   4.861E-01
   11.300   5.012E-01
   11.400   5.166E-01
   11.500   5.325E-01
   11.600   5.486E-01
   11.700   5.652E-01
   11.800   5.821E-01
   11.900   5.993E-01
   12.000   6.170E-01
   12.100   6.350E-01
   12.200   6.533E-01
   12.300   6.721E-01
   12.400   6.913E-01
   12.500   7.109E-01
   12.600   7.309E-01
   12.700   7.514E-01
   12.800   7.724E-01
   12.900   7.938E-01
   13.000   8.158E-01
   13.100   8.382E-01
   13.200   8.612E-01
   13.300   8.846E-01
   13.400   9.086E-01
   13.500   9.332E-01
   13.600   9.582E-01
   13.700   9.837E-01
   13.800   1.010E+00
   13.900   1.036E+00
   14.000   1.063E+00
   14.100   1.090E+00
   14.200   1.118E+00
   14.300   1.145E+00
   14.400   1.173E+00
   14.500   1.202E+00
   14.600   1.230E+00
   14.700   1.258E+00
   14.800   1.286E+00
   14.900   1.314E+00
   15.000   1.342E+00
   15.100   1.370E+00
   15.200   1.398E+00
   15.300   1.425E+00
   15.400   1.452E+00
   15.500   1.478E+00
   15.600   1.504E+00
   15.700   1.530E+00
   15.800   1.555E+00
   15.900   1.579E+00
   16.000   1.602E+00
   16.100   1.625E+00
   16.200   1.647E+00
   16.300   1.669E+00
   16.400   1.689E+00
   16.500   1.708E+00
   16.600   1.727E+00
   16.700   1.744E+00
   16.800   1.760E+00
   16.900   1.775E+00
   17.000   1.790E+00
   17.100   1.803E+00
   17.200   1.815E+00
   17.300   1.826E+00
   17.400   1.836E+00
   17.500   1.845E+00
   17.600   1.853E+00
   17.700   1.860E+00
   17.800   1.866E+00
   17.900   1.871E+00
   18.000   1.876E+00
   18.100   1.879E+00
   18.200   1.881E+00
   18.300   1.882E+00
   18.400   1.882E+00
   18.500   1.881E+00
   18.600   1.879E+00
   18.700   1.875E+00
   18.800   1.871E+00
   18.900   1.865E+00
   19.000   1.858E+00
   19.100   1.851E+00
   19.200   1.842E+00
   19.300   1.832E+00
   19.400   1.821E+00
   19.500   1.809E+00
   19.600   1.796E+00
   19.700   1.783E+00
   19.800   1.770E+00
   19.900   1.756E+00
   20.000   1.741E+00
   20.100   1.726E+00
   20.200   1.712E+00
   20.300   1.697E+00
   20.400   1.682E+00
   20.500   1.667E+00
   20.600   1.651E+00
   20.700   1.636E+00
   20.800   1.621E+00
   20.900   1.606E+00
   21.000   1.590E+00
   21.100   1.575E+00
   21.200   1.559E+00
   21.300   1.543E+00
   21.400   1.527E+00
   21.500   1.510E+00
   21.600   1.493E+00
   21.700   1.476E+00
   21.800   1.459E+00
   21.900   1.441E+00
   22.000   1.424E+00
   22.100   1.406E+00
   22.200   1.387E+00
   22.300   1.369E+00
   22.400   1.350E+00
   22.500   1.332E+00
   22.600   1.313E+00
   22.700   1.295E+00
   22.800   1.276E+00
   22.900   1.258E+00
   23.000   1.239E+00
   23.100   1.221E+00
   23.200   1.203E+00
   23.300   1.185E+00
   23.400   1.167E+00
   23.500   1.149E+00
   23.600   1.132E+00
   23.700   1.115E+00
   23.800   1.097E+00
   23.900   1.080E+00
   24.000   1.063E+00
   24.100   1.046E+00
   24.200   1.029E+00
   24.300   1.013E+00
   24.400   9.960E-01
   24.500   9.795E-01
   24.600   9.630E-01
   24.700   9.466E-01
   24.800   9.302E-01
   24.900   9.141E-01
   25.000   8.980E-01
   25.100   8.820E-01
   25.200   8.663E-01
   25.300   8.506E-01
   25.400   8.352E-01
   25.500   8.199E-01
   25.600   8.049E-01
   25.700   7.900E-01
   25.800   7.754E-01
   25.900   7.611E-01
   26.000   7.470E-01
   26.100   7.331E-01
   26.200   7.196E-01
   26.300   7.063E-01
   26.400   6.934E-01
   26.500   6.807E-01
   26.600   6.684E-01
   26.700   6.563E-01
   26.800   6.446E-01
   26.900   6.333E-01
   27.000   6.222E-01
   27.100   6.115E-01
   27.200   6.010E-01
   27.300   5.909E-01
   27.400   5.810E-01
   27.500   5.715E-01
   27.600   5.622E-01
   27.700   5.531E-01
   27.800   5.443E-01
   27.900   5.357E-01
   28.000   5.274E-01
   28.100   5.192E-01
   28.200   5.112E-01
   28.300   5.034E-01
   28.400   4.958E-01
   28.500   4.883E-01
   28.600   4.809E-01
   28.700   4.737E-01
   28.800   4.667E-01
   28.900   4.598E-01
   29.000   4.530E-01
   29.100   4.464E-01
   29.200   4.400E-01
   29.300   4.337E-01
   29.400   4.275E-01
   29.500   4.216E-01
   29.600   4.157E-01
   29.700   4.101E-01
   29.800   4.046E-01
   29.900   3.994E-01
   30.000   3.943E-01
 
 Z=  12 A=  32 Mg
  U[MeV]  fE1[mb/MeV]
    0.100   1.339E-05
    0.200   5.360E-05
    0.300   1.207E-04
    0.400   2.147E-04
    0.500   3.359E-04
    0.600   4.843E-04
    0.700   6.603E-04
    0.800   8.640E-04
    0.900   1.096E-03
    1.000   1.356E-03
    1.100   1.645E-03
    1.200   1.964E-03
    1.300   2.312E-03
    1.400   2.691E-03
    1.500   3.100E-03
    1.600   3.542E-03
    1.700   4.015E-03
    1.800   4.522E-03
    1.900   5.063E-03
    2.000   5.639E-03
    2.100   6.250E-03
    2.200   6.899E-03
    2.300   7.585E-03
    2.400   8.312E-03
    2.500   9.079E-03
    2.600   9.888E-03
    2.700   1.074E-02
    2.800   1.164E-02
    2.900   1.258E-02
    3.000   1.358E-02
    3.100   1.462E-02
    3.200   1.572E-02
    3.300   1.688E-02
    3.400   1.809E-02
    3.500   1.937E-02
    3.600   2.071E-02
    3.700   2.211E-02
    3.800   2.359E-02
    3.900   2.515E-02
    4.000   2.678E-02
    4.100   2.850E-02
    4.200   3.030E-02
    4.300   3.220E-02
    4.400   3.420E-02
    4.500   3.631E-02
    4.600   3.852E-02
    4.700   4.086E-02
    4.800   4.333E-02
    4.900   4.594E-02
    5.000   4.869E-02
    5.100   5.160E-02
    5.200   5.467E-02
    5.300   5.793E-02
    5.400   6.138E-02
    5.500   6.504E-02
    5.600   6.892E-02
    5.700   7.304E-02
    5.800   7.741E-02
    5.900   8.205E-02
    6.000   8.698E-02
    6.100   9.221E-02
    6.200   9.776E-02
    6.300   1.036E-01
    6.400   1.099E-01
    6.500   1.164E-01
    6.600   1.234E-01
    6.700   1.307E-01
    6.800   1.383E-01
    6.900   1.463E-01
    7.000   1.545E-01
    7.100   1.630E-01
    7.200   1.718E-01
    7.300   1.806E-01
    7.400   1.895E-01
    7.500   1.984E-01
    7.600   2.072E-01
    7.700   2.158E-01
    7.800   2.242E-01
    7.900   2.324E-01
    8.000   2.404E-01
    8.100   2.482E-01
    8.200   2.560E-01
    8.300   2.638E-01
    8.400   2.719E-01
    8.500   2.802E-01
    8.600   2.890E-01
    8.700   2.984E-01
    8.800   3.084E-01
    8.900   3.193E-01
    9.000   3.311E-01
    9.100   3.439E-01
    9.200   3.577E-01
    9.300   3.727E-01
    9.400   3.887E-01
    9.500   4.059E-01
    9.600   4.243E-01
    9.700   4.437E-01
    9.800   4.642E-01
    9.900   4.856E-01
   10.000   5.077E-01
   10.100   5.305E-01
   10.200   5.537E-01
   10.300   5.771E-01
   10.400   6.005E-01
   10.500   6.236E-01
   10.600   6.463E-01
   10.700   6.683E-01
   10.800   6.895E-01
   10.900   7.101E-01
   11.000   7.299E-01
   11.100   7.492E-01
   11.200   7.682E-01
   11.300   7.871E-01
   11.400   8.062E-01
   11.500   8.259E-01
   11.600   8.466E-01
   11.700   8.686E-01
   11.800   8.922E-01
   11.900   9.179E-01
   12.000   9.458E-01
   12.100   9.762E-01
   12.200   1.009E+00
   12.300   1.045E+00
   12.400   1.083E+00
   12.500   1.123E+00
   12.600   1.166E+00
   12.700   1.211E+00
   12.800   1.256E+00
   12.900   1.303E+00
   13.000   1.350E+00
   13.100   1.396E+00
   13.200   1.442E+00
   13.300   1.487E+00
   13.400   1.530E+00
   13.500   1.570E+00
   13.600   1.609E+00
   13.700   1.645E+00
   13.800   1.679E+00
   13.900   1.709E+00
   14.000   1.738E+00
   14.100   1.763E+00
   14.200   1.785E+00
   14.300   1.805E+00
   14.400   1.822E+00
   14.500   1.837E+00
   14.600   1.850E+00
   14.700   1.860E+00
   14.800   1.868E+00
   14.900   1.874E+00
   15.000   1.878E+00
   15.100   1.880E+00
   15.200   1.880E+00
   15.300   1.877E+00
   15.400   1.872E+00
   15.500   1.866E+00
   15.600   1.858E+00
   15.700   1.850E+00
   15.800   1.841E+00
   15.900   1.832E+00
   16.000   1.824E+00
   16.100   1.817E+00
   16.200   1.810E+00
   16.300   1.805E+00
   16.400   1.802E+00
   16.500   1.799E+00
   16.600   1.798E+00
   16.700   1.798E+00
   16.800   1.800E+00
   16.900   1.803E+00
   17.000   1.806E+00
   17.100   1.810E+00
   17.200   1.815E+00
   17.300   1.820E+00
   17.400   1.825E+00
   17.500   1.829E+00
   17.600   1.832E+00
   17.700   1.834E+00
   17.800   1.835E+00
   17.900   1.834E+00
   18.000   1.831E+00
   18.100   1.827E+00
   18.200   1.821E+00
   18.300   1.814E+00
   18.400   1.805E+00
   18.500   1.795E+00
   18.600   1.784E+00
   18.700   1.771E+00
   18.800   1.757E+00
   18.900   1.742E+00
   19.000   1.725E+00
   19.100   1.707E+00
   19.200   1.687E+00
   19.300   1.667E+00
   19.400   1.647E+00
   19.500   1.625E+00
   19.600   1.604E+00
   19.700   1.583E+00
   19.800   1.562E+00
   19.900   1.541E+00
   20.000   1.520E+00
   20.100   1.499E+00
   20.200   1.479E+00
   20.300   1.458E+00
   20.400   1.438E+00
   20.500   1.419E+00
   20.600   1.399E+00
   20.700   1.380E+00
   20.800   1.361E+00
   20.900   1.342E+00
   21.000   1.323E+00
   21.100   1.305E+00
   21.200   1.287E+00
   21.300   1.269E+00
   21.400   1.252E+00
   21.500   1.235E+00
   21.600   1.218E+00
   21.700   1.202E+00
   21.800   1.186E+00
   21.900   1.171E+00
   22.000   1.156E+00
   22.100   1.142E+00
   22.200   1.128E+00
   22.300   1.115E+00
   22.400   1.102E+00
   22.500   1.089E+00
   22.600   1.077E+00
   22.700   1.065E+00
   22.800   1.053E+00
   22.900   1.041E+00
   23.000   1.030E+00
   23.100   1.019E+00
   23.200   1.009E+00
   23.300   9.983E-01
   23.400   9.883E-01
   23.500   9.784E-01
   23.600   9.689E-01
   23.700   9.595E-01
   23.800   9.504E-01
   23.900   9.415E-01
   24.000   9.327E-01
   24.100   9.240E-01
   24.200   9.153E-01
   24.300   9.066E-01
   24.400   8.979E-01
   24.500   8.890E-01
   24.600   8.800E-01
   24.700   8.707E-01
   24.800   8.610E-01
   24.900   8.511E-01
   25.000   8.408E-01
   25.100   8.301E-01
   25.200   8.190E-01
   25.300   8.076E-01
   25.400   7.959E-01
   25.500   7.840E-01
   25.600   7.719E-01
   25.700   7.597E-01
   25.800   7.474E-01
   25.900   7.351E-01
   26.000   7.229E-01
   26.100   7.109E-01
   26.200   6.990E-01
   26.300   6.873E-01
   26.400   6.759E-01
   26.500   6.648E-01
   26.600   6.539E-01
   26.700   6.434E-01
   26.800   6.332E-01
   26.900   6.233E-01
   27.000   6.137E-01
   27.100   6.045E-01
   27.200   5.955E-01
   27.300   5.869E-01
   27.400   5.785E-01
   27.500   5.704E-01
   27.600   5.625E-01
   27.700   5.549E-01
   27.800   5.475E-01
   27.900   5.402E-01
   28.000   5.331E-01
   28.100   5.261E-01
   28.200   5.192E-01
   28.300   5.124E-01
   28.400   5.055E-01
   28.500   4.987E-01
   28.600   4.919E-01
   28.700   4.851E-01
   28.800   4.782E-01
   28.900   4.712E-01
   29.000   4.642E-01
   29.100   4.571E-01
   29.200   4.501E-01
   29.300   4.430E-01
   29.400   4.359E-01
   29.500   4.290E-01
   29.600   4.221E-01
   29.700   4.153E-01
   29.800   4.087E-01
   29.900   4.022E-01
   30.000   3.959E-01
 
 Z=  12 A=  33 Mg
  U[MeV]  fE1[mb/MeV]
    0.100   1.874E-05
    0.200   7.501E-05
    0.300   1.689E-04
    0.400   3.007E-04
    0.500   4.705E-04
    0.600   6.789E-04
    0.700   9.262E-04
    0.800   1.213E-03
    0.900   1.540E-03
    1.000   1.907E-03
    1.100   2.317E-03
    1.200   2.769E-03
    1.300   3.264E-03
    1.400   3.804E-03
    1.500   4.390E-03
    1.600   5.024E-03
    1.700   5.706E-03
    1.800   6.439E-03
    1.900   7.224E-03
    2.000   8.064E-03
    2.100   8.960E-03
    2.200   9.915E-03
    2.300   1.093E-02
    2.400   1.201E-02
    2.500   1.316E-02
    2.600   1.438E-02
    2.700   1.568E-02
    2.800   1.705E-02
    2.900   1.851E-02
    3.000   2.005E-02
    3.100   2.169E-02
    3.200   2.343E-02
    3.300   2.527E-02
    3.400   2.723E-02
    3.500   2.930E-02
    3.600   3.151E-02
    3.700   3.385E-02
    3.800   3.634E-02
    3.900   3.899E-02
    4.000   4.181E-02
    4.100   4.481E-02
    4.200   4.802E-02
    4.300   5.144E-02
    4.400   5.509E-02
    4.500   5.900E-02
    4.600   6.317E-02
    4.700   6.763E-02
    4.800   7.241E-02
    4.900   7.752E-02
    5.000   8.298E-02
    5.100   8.882E-02
    5.200   9.505E-02
    5.300   1.017E-01
    5.400   1.087E-01
    5.500   1.161E-01
    5.600   1.239E-01
    5.700   1.321E-01
    5.800   1.406E-01
    5.900   1.494E-01
    6.000   1.584E-01
    6.100   1.676E-01
    6.200   1.769E-01
    6.300   1.863E-01
    6.400   1.958E-01
    6.500   2.054E-01
    6.600   2.150E-01
    6.700   2.249E-01
    6.800   2.350E-01
    6.900   2.453E-01
    7.000   2.558E-01
    7.100   2.667E-01
    7.200   2.778E-01
    7.300   2.890E-01
    7.400   3.005E-01
    7.500   3.119E-01
    7.600   3.234E-01
    7.700   3.349E-01
    7.800   3.464E-01
    7.900   3.579E-01
    8.000   3.696E-01
    8.100   3.814E-01
    8.200   3.936E-01
    8.300   4.063E-01
    8.400   4.195E-01
    8.500   4.333E-01
    8.600   4.478E-01
    8.700   4.630E-01
    8.800   4.791E-01
    8.900   4.960E-01
    9.000   5.139E-01
    9.100   5.329E-01
    9.200   5.531E-01
    9.300   5.746E-01
    9.400   5.974E-01
    9.500   6.216E-01
    9.600   6.471E-01
    9.700   6.739E-01
    9.800   7.016E-01
    9.900   7.300E-01
   10.000   7.587E-01
   10.100   7.872E-01
   10.200   8.150E-01
   10.300   8.416E-01
   10.400   8.663E-01
   10.500   8.887E-01
   10.600   9.083E-01
   10.700   9.249E-01
   10.800   9.383E-01
   10.900   9.484E-01
   11.000   9.556E-01
   11.100   9.599E-01
   11.200   9.619E-01
   11.300   9.619E-01
   11.400   9.607E-01
   11.500   9.586E-01
   11.600   9.563E-01
   11.700   9.545E-01
   11.800   9.535E-01
   11.900   9.538E-01
   12.000   9.558E-01
   12.100   9.598E-01
   12.200   9.659E-01
   12.300   9.743E-01
   12.400   9.851E-01
   12.500   9.981E-01
   12.600   1.014E+00
   12.700   1.031E+00
   12.800   1.051E+00
   12.900   1.074E+00
   13.000   1.099E+00
   13.100   1.127E+00
   13.200   1.158E+00
   13.300   1.192E+00
   13.400   1.229E+00
   13.500   1.270E+00
   13.600   1.315E+00
   13.700   1.364E+00
   13.800   1.417E+00
   13.900   1.473E+00
   14.000   1.534E+00
   14.100   1.598E+00
   14.200   1.664E+00
   14.300   1.732E+00
   14.400   1.801E+00
   14.500   1.869E+00
   14.600   1.935E+00
   14.700   1.998E+00
   14.800   2.056E+00
   14.900   2.109E+00
   15.000   2.155E+00
   15.100   2.194E+00
   15.200   2.227E+00
   15.300   2.253E+00
   15.400   2.272E+00
   15.500   2.285E+00
   15.600   2.292E+00
   15.700   2.292E+00
   15.800   2.287E+00
   15.900   2.275E+00
   16.000   2.257E+00
   16.100   2.233E+00
   16.200   2.204E+00
   16.300   2.170E+00
   16.400   2.132E+00
   16.500   2.090E+00
   16.600   2.046E+00
   16.700   2.001E+00
   16.800   1.956E+00
   16.900   1.911E+00
   17.000   1.867E+00
   17.100   1.825E+00
   17.200   1.785E+00
   17.300   1.747E+00
   17.400   1.712E+00
   17.500   1.679E+00
   17.600   1.648E+00
   17.700   1.619E+00
   17.800   1.591E+00
   17.900   1.564E+00
   18.000   1.539E+00
   18.100   1.514E+00
   18.200   1.490E+00
   18.300   1.467E+00
   18.400   1.446E+00
   18.500   1.426E+00
   18.600   1.407E+00
   18.700   1.390E+00
   18.800   1.374E+00
   18.900   1.359E+00
   19.000   1.346E+00
   19.100   1.335E+00
   19.200   1.324E+00
   19.300   1.315E+00
   19.400   1.307E+00
   19.500   1.300E+00
   19.600   1.294E+00
   19.700   1.289E+00
   19.800   1.285E+00
   19.900   1.281E+00
   20.000   1.278E+00
   20.100   1.275E+00
   20.200   1.272E+00
   20.300   1.270E+00
   20.400   1.268E+00
   20.500   1.267E+00
   20.600   1.265E+00
   20.700   1.264E+00
   20.800   1.263E+00
   20.900   1.262E+00
   21.000   1.261E+00
   21.100   1.261E+00
   21.200   1.260E+00
   21.300   1.260E+00
   21.400   1.259E+00
   21.500   1.259E+00
   21.600   1.258E+00
   21.700   1.257E+00
   21.800   1.256E+00
   21.900   1.255E+00
   22.000   1.253E+00
   22.100   1.251E+00
   22.200   1.249E+00
   22.300   1.246E+00
   22.400   1.242E+00
   22.500   1.237E+00
   22.600   1.232E+00
   22.700   1.226E+00
   22.800   1.220E+00
   22.900   1.213E+00
   23.000   1.205E+00
   23.100   1.196E+00
   23.200   1.186E+00
   23.300   1.176E+00
   23.400   1.165E+00
   23.500   1.153E+00
   23.600   1.140E+00
   23.700   1.127E+00
   23.800   1.113E+00
   23.900   1.098E+00
   24.000   1.083E+00
   24.100   1.068E+00
   24.200   1.052E+00
   24.300   1.036E+00
   24.400   1.021E+00
   24.500   1.005E+00
   24.600   9.889E-01
   24.700   9.732E-01
   24.800   9.576E-01
   24.900   9.422E-01
   25.000   9.270E-01
   25.100   9.121E-01
   25.200   8.974E-01
   25.300   8.830E-01
   25.400   8.688E-01
   25.500   8.549E-01
   25.600   8.413E-01
   25.700   8.279E-01
   25.800   8.148E-01
   25.900   8.020E-01
   26.000   7.895E-01
   26.100   7.772E-01
   26.200   7.651E-01
   26.300   7.533E-01
   26.400   7.417E-01
   26.500   7.303E-01
   26.600   7.191E-01
   26.700   7.081E-01
   26.800   6.972E-01
   26.900   6.865E-01
   27.000   6.760E-01
   27.100   6.655E-01
   27.200   6.552E-01
   27.300   6.450E-01
   27.400   6.349E-01
   27.500   6.249E-01
   27.600   6.150E-01
   27.700   6.052E-01
   27.800   5.956E-01
   27.900   5.861E-01
   28.000   5.767E-01
   28.100   5.674E-01
   28.200   5.584E-01
   28.300   5.494E-01
   28.400   5.406E-01
   28.500   5.320E-01
   28.600   5.234E-01
   28.700   5.150E-01
   28.800   5.067E-01
   28.900   4.984E-01
   29.000   4.902E-01
   29.100   4.821E-01
   29.200   4.741E-01
   29.300   4.662E-01
   29.400   4.584E-01
   29.500   4.507E-01
   29.600   4.431E-01
   29.700   4.357E-01
   29.800   4.285E-01
   29.900   4.214E-01
   30.000   4.146E-01
 
 Z=  12 A=  34 Mg
  U[MeV]  fE1[mb/MeV]
    0.100   1.790E-05
    0.200   7.165E-05
    0.300   1.614E-04
    0.400   2.873E-04
    0.500   4.496E-04
    0.600   6.489E-04
    0.700   8.855E-04
    0.800   1.160E-03
    0.900   1.473E-03
    1.000   1.825E-03
    1.100   2.218E-03
    1.200   2.652E-03
    1.300   3.128E-03
    1.400   3.647E-03
    1.500   4.211E-03
    1.600   4.822E-03
    1.700   5.481E-03
    1.800   6.189E-03
    1.900   6.949E-03
    2.000   7.763E-03
    2.100   8.634E-03
    2.200   9.563E-03
    2.300   1.055E-02
    2.400   1.161E-02
    2.500   1.274E-02
    2.600   1.393E-02
    2.700   1.520E-02
    2.800   1.656E-02
    2.900   1.800E-02
    3.000   1.953E-02
    3.100   2.116E-02
    3.200   2.289E-02
    3.300   2.473E-02
    3.400   2.670E-02
    3.500   2.879E-02
    3.600   3.102E-02
    3.700   3.340E-02
    3.800   3.594E-02
    3.900   3.866E-02
    4.000   4.157E-02
    4.100   4.469E-02
    4.200   4.804E-02
    4.300   5.163E-02
    4.400   5.550E-02
    4.500   5.966E-02
    4.600   6.416E-02
    4.700   6.901E-02
    4.800   7.426E-02
    4.900   7.993E-02
    5.000   8.609E-02
    5.100   9.275E-02
    5.200   9.998E-02
    5.300   1.078E-01
    5.400   1.163E-01
    5.500   1.254E-01
    5.600   1.352E-01
    5.700   1.457E-01
    5.800   1.568E-01
    5.900   1.685E-01
    6.000   1.806E-01
    6.100   1.931E-01
    6.200   2.056E-01
    6.300   2.180E-01
    6.400   2.302E-01
    6.500   2.418E-01
    6.600   2.527E-01
    6.700   2.631E-01
    6.800   2.729E-01
    6.900   2.822E-01
    7.000   2.914E-01
    7.100   3.006E-01
    7.200   3.102E-01
    7.300   3.202E-01
    7.400   3.309E-01
    7.500   3.423E-01
    7.600   3.545E-01
    7.700   3.674E-01
    7.800   3.810E-01
    7.900   3.951E-01
    8.000   4.096E-01
    8.100   4.246E-01
    8.200   4.400E-01
    8.300   4.558E-01
    8.400   4.721E-01
    8.500   4.890E-01
    8.600   5.063E-01
    8.700   5.241E-01
    8.800   5.422E-01
    8.900   5.603E-01
    9.000   5.784E-01
    9.100   5.963E-01
    9.200   6.139E-01
    9.300   6.314E-01
    9.400   6.490E-01
    9.500   6.671E-01
    9.600   6.860E-01
    9.700   7.063E-01
    9.800   7.284E-01
    9.900   7.525E-01
   10.000   7.788E-01
   10.100   8.075E-01
   10.200   8.383E-01
   10.300   8.710E-01
   10.400   9.050E-01
   10.500   9.396E-01
   10.600   9.739E-01
   10.700   1.007E+00
   10.800   1.038E+00
   10.900   1.066E+00
   11.000   1.090E+00
   11.100   1.109E+00
   11.200   1.123E+00
   11.300   1.133E+00
   11.400   1.138E+00
   11.500   1.138E+00
   11.600   1.135E+00
   11.700   1.129E+00
   11.800   1.122E+00
   11.900   1.112E+00
   12.000   1.103E+00
   12.100   1.094E+00
   12.200   1.087E+00
   12.300   1.081E+00
   12.400   1.078E+00
   12.500   1.078E+00
   12.600   1.081E+00
   12.700   1.087E+00
   12.800   1.096E+00
   12.900   1.107E+00
   13.000   1.121E+00
   13.100   1.138E+00
   13.200   1.156E+00
   13.300   1.177E+00
   13.400   1.199E+00
   13.500   1.224E+00
   13.600   1.251E+00
   13.700   1.282E+00
   13.800   1.315E+00
   13.900   1.352E+00
   14.000   1.393E+00
   14.100   1.439E+00
   14.200   1.490E+00
   14.300   1.546E+00
   14.400   1.608E+00
   14.500   1.674E+00
   14.600   1.746E+00
   14.700   1.822E+00
   14.800   1.901E+00
   14.900   1.982E+00
   15.000   2.063E+00
   15.100   2.142E+00
   15.200   2.216E+00
   15.300   2.285E+00
   15.400   2.346E+00
   15.500   2.399E+00
   15.600   2.443E+00
   15.700   2.477E+00
   15.800   2.504E+00
   15.900   2.523E+00
   16.000   2.534E+00
   16.100   2.537E+00
   16.200   2.533E+00
   16.300   2.521E+00
   16.400   2.502E+00
   16.500   2.474E+00
   16.600   2.438E+00
   16.700   2.395E+00
   16.800   2.347E+00
   16.900   2.293E+00
   17.000   2.235E+00
   17.100   2.175E+00
   17.200   2.114E+00
   17.300   2.053E+00
   17.400   1.993E+00
   17.500   1.937E+00
   17.600   1.884E+00
   17.700   1.834E+00
   17.800   1.790E+00
   17.900   1.750E+00
   18.000   1.714E+00
   18.100   1.682E+00
   18.200   1.653E+00
   18.300   1.627E+00
   18.400   1.603E+00
   18.500   1.580E+00
   18.600   1.559E+00
   18.700   1.539E+00
   18.800   1.520E+00
   18.900   1.503E+00
   19.000   1.487E+00
   19.100   1.474E+00
   19.200   1.462E+00
   19.300   1.453E+00
   19.400   1.446E+00
   19.500   1.441E+00
   19.600   1.438E+00
   19.700   1.437E+00
   19.800   1.437E+00
   19.900   1.439E+00
   20.000   1.442E+00
   20.100   1.446E+00
   20.200   1.452E+00
   20.300   1.457E+00
   20.400   1.464E+00
   20.500   1.471E+00
   20.600   1.478E+00
   20.700   1.484E+00
   20.800   1.490E+00
   20.900   1.495E+00
   21.000   1.499E+00
   21.100   1.503E+00
   21.200   1.506E+00
   21.300   1.507E+00
   21.400   1.508E+00
   21.500   1.508E+00
   21.600   1.508E+00
   21.700   1.506E+00
   21.800   1.504E+00
   21.900   1.501E+00
   22.000   1.497E+00
   22.100   1.492E+00
   22.200   1.485E+00
   22.300   1.478E+00
   22.400   1.470E+00
   22.500   1.460E+00
   22.600   1.449E+00
   22.700   1.437E+00
   22.800   1.423E+00
   22.900   1.408E+00
   23.000   1.391E+00
   23.100   1.373E+00
   23.200   1.355E+00
   23.300   1.335E+00
   23.400   1.315E+00
   23.500   1.295E+00
   23.600   1.274E+00
   23.700   1.252E+00
   23.800   1.230E+00
   23.900   1.209E+00
   24.000   1.186E+00
   24.100   1.164E+00
   24.200   1.142E+00
   24.300   1.119E+00
   24.400   1.097E+00
   24.500   1.074E+00
   24.600   1.052E+00
   24.700   1.031E+00
   24.800   1.009E+00
   24.900   9.876E-01
   25.000   9.666E-01
   25.100   9.459E-01
   25.200   9.256E-01
   25.300   9.058E-01
   25.400   8.864E-01
   25.500   8.676E-01
   25.600   8.492E-01
   25.700   8.313E-01
   25.800   8.140E-01
   25.900   7.973E-01
   26.000   7.811E-01
   26.100   7.654E-01
   26.200   7.502E-01
   26.300   7.356E-01
   26.400   7.215E-01
   26.500   7.078E-01
   26.600   6.946E-01
   26.700   6.819E-01
   26.800   6.696E-01
   26.900   6.578E-01
   27.000   6.464E-01
   27.100   6.353E-01
   27.200   6.246E-01
   27.300   6.142E-01
   27.400   6.040E-01
   27.500   5.939E-01
   27.600   5.841E-01
   27.700   5.743E-01
   27.800   5.646E-01
   27.900   5.549E-01
   28.000   5.454E-01
   28.100   5.360E-01
   28.200   5.267E-01
   28.300   5.175E-01
   28.400   5.085E-01
   28.500   4.997E-01
   28.600   4.911E-01
   28.700   4.827E-01
   28.800   4.746E-01
   28.900   4.667E-01
   29.000   4.591E-01
   29.100   4.518E-01
   29.200   4.447E-01
   29.300   4.379E-01
   29.400   4.312E-01
   29.500   4.247E-01
   29.600   4.183E-01
   29.700   4.120E-01
   29.800   4.057E-01
   29.900   3.995E-01
   30.000   3.932E-01
 
 Z=  12 A=  35 Mg
  U[MeV]  fE1[mb/MeV]
    0.100   2.120E-05
    0.200   8.485E-05
    0.300   1.911E-04
    0.400   3.403E-04
    0.500   5.327E-04
    0.600   7.688E-04
    0.700   1.049E-03
    0.800   1.375E-03
    0.900   1.747E-03
    1.000   2.165E-03
    1.100   2.632E-03
    1.200   3.147E-03
    1.300   3.714E-03
    1.400   4.333E-03
    1.500   5.006E-03
    1.600   5.735E-03
    1.700   6.522E-03
    1.800   7.370E-03
    1.900   8.280E-03
    2.000   9.257E-03
    2.100   1.030E-02
    2.200   1.142E-02
    2.300   1.262E-02
    2.400   1.389E-02
    2.500   1.525E-02
    2.600   1.670E-02
    2.700   1.825E-02
    2.800   1.990E-02
    2.900   2.165E-02
    3.000   2.353E-02
    3.100   2.552E-02
    3.200   2.765E-02
    3.300   2.993E-02
    3.400   3.235E-02
    3.500   3.495E-02
    3.600   3.773E-02
    3.700   4.070E-02
    3.800   4.389E-02
    3.900   4.731E-02
    4.000   5.099E-02
    4.100   5.494E-02
    4.200   5.921E-02
    4.300   6.381E-02
    4.400   6.878E-02
    4.500   7.416E-02
    4.600   7.999E-02
    4.700   8.633E-02
    4.800   9.321E-02
    4.900   1.007E-01
    5.000   1.088E-01
    5.100   1.177E-01
    5.200   1.274E-01
    5.300   1.379E-01
    5.400   1.492E-01
    5.500   1.615E-01
    5.600   1.747E-01
    5.700   1.888E-01
    5.800   2.037E-01
    5.900   2.193E-01
    6.000   2.353E-01
    6.100   2.514E-01
    6.200   2.673E-01
    6.300   2.826E-01
    6.400   2.970E-01
    6.500   3.102E-01
    6.600   3.222E-01
    6.700   3.328E-01
    6.800   3.424E-01
    6.900   3.512E-01
    7.000   3.597E-01
    7.100   3.682E-01
    7.200   3.772E-01
    7.300   3.870E-01
    7.400   3.979E-01
    7.500   4.100E-01
    7.600   4.235E-01
    7.700   4.383E-01
    7.800   4.545E-01
    7.900   4.721E-01
    8.000   4.909E-01
    8.100   5.109E-01
    8.200   5.321E-01
    8.300   5.544E-01
    8.400   5.776E-01
    8.500   6.016E-01
    8.600   6.261E-01
    8.700   6.507E-01
    8.800   6.748E-01
    8.900   6.981E-01
    9.000   7.200E-01
    9.100   7.403E-01
    9.200   7.591E-01
    9.300   7.767E-01
    9.400   7.934E-01
    9.500   8.100E-01
    9.600   8.273E-01
    9.700   8.461E-01
    9.800   8.669E-01
    9.900   8.902E-01
   10.000   9.165E-01
   10.100   9.456E-01
   10.200   9.774E-01
   10.300   1.011E+00
   10.400   1.047E+00
   10.500   1.083E+00
   10.600   1.119E+00
   10.700   1.152E+00
   10.800   1.183E+00
   10.900   1.210E+00
   11.000   1.232E+00
   11.100   1.248E+00
   11.200   1.260E+00
   11.300   1.266E+00
   11.400   1.268E+00
   11.500   1.266E+00
   11.600   1.260E+00
   11.700   1.252E+00
   11.800   1.244E+00
   11.900   1.235E+00
   12.000   1.227E+00
   12.100   1.220E+00
   12.200   1.216E+00
   12.300   1.215E+00
   12.400   1.216E+00
   12.500   1.220E+00
   12.600   1.227E+00
   12.700   1.236E+00
   12.800   1.248E+00
   12.900   1.261E+00
   13.000   1.276E+00
   13.100   1.292E+00
   13.200   1.310E+00
   13.300   1.330E+00
   13.400   1.351E+00
   13.500   1.374E+00
   13.600   1.400E+00
   13.700   1.429E+00
   13.800   1.463E+00
   13.900   1.501E+00
   14.000   1.545E+00
   14.100   1.594E+00
   14.200   1.650E+00
   14.300   1.712E+00
   14.400   1.779E+00
   14.500   1.852E+00
   14.600   1.930E+00
   14.700   2.012E+00
   14.800   2.095E+00
   14.900   2.178E+00
   15.000   2.258E+00
   15.100   2.333E+00
   15.200   2.402E+00
   15.300   2.463E+00
   15.400   2.514E+00
   15.500   2.557E+00
   15.600   2.590E+00
   15.700   2.614E+00
   15.800   2.629E+00
   15.900   2.635E+00
   16.000   2.631E+00
   16.100   2.618E+00
   16.200   2.596E+00
   16.300   2.564E+00
   16.400   2.523E+00
   16.500   2.473E+00
   16.600   2.418E+00
   16.700   2.356E+00
   16.800   2.291E+00
   16.900   2.223E+00
   17.000   2.154E+00
   17.100   2.086E+00
   17.200   2.020E+00
   17.300   1.957E+00
   17.400   1.898E+00
   17.500   1.844E+00
   17.600   1.794E+00
   17.700   1.749E+00
   17.800   1.709E+00
   17.900   1.673E+00
   18.000   1.640E+00
   18.100   1.610E+00
   18.200   1.583E+00
   18.300   1.557E+00
   18.400   1.533E+00
   18.500   1.510E+00
   18.600   1.488E+00
   18.700   1.468E+00
   18.800   1.450E+00
   18.900   1.434E+00
   19.000   1.420E+00
   19.100   1.408E+00
   19.200   1.398E+00
   19.300   1.389E+00
   19.400   1.383E+00
   19.500   1.378E+00
   19.600   1.375E+00
   19.700   1.374E+00
   19.800   1.374E+00
   19.900   1.376E+00
   20.000   1.379E+00
   20.100   1.383E+00
   20.200   1.389E+00
   20.300   1.395E+00
   20.400   1.402E+00
   20.500   1.410E+00
   20.600   1.417E+00
   20.700   1.425E+00
   20.800   1.432E+00
   20.900   1.440E+00
   21.000   1.447E+00
   21.100   1.455E+00
   21.200   1.462E+00
   21.300   1.469E+00
   21.400   1.475E+00
   21.500   1.482E+00
   21.600   1.487E+00
   21.700   1.492E+00
   21.800   1.495E+00
   21.900   1.498E+00
   22.000   1.499E+00
   22.100   1.498E+00
   22.200   1.495E+00
   22.300   1.490E+00
   22.400   1.484E+00
   22.500   1.475E+00
   22.600   1.465E+00
   22.700   1.452E+00
   22.800   1.439E+00
   22.900   1.424E+00
   23.000   1.408E+00
   23.100   1.391E+00
   23.200   1.373E+00
   23.300   1.354E+00
   23.400   1.335E+00
   23.500   1.314E+00
   23.600   1.293E+00
   23.700   1.271E+00
   23.800   1.248E+00
   23.900   1.225E+00
   24.000   1.202E+00
   24.100   1.178E+00
   24.200   1.154E+00
   24.300   1.129E+00
   24.400   1.105E+00
   24.500   1.081E+00
   24.600   1.058E+00
   24.700   1.034E+00
   24.800   1.012E+00
   24.900   9.894E-01
   25.000   9.677E-01
   25.100   9.466E-01
   25.200   9.262E-01
   25.300   9.063E-01
   25.400   8.870E-01
   25.500   8.684E-01
   25.600   8.503E-01
   25.700   8.329E-01
   25.800   8.160E-01
   25.900   7.997E-01
   26.000   7.840E-01
   26.100   7.689E-01
   26.200   7.544E-01
   26.300   7.404E-01
   26.400   7.269E-01
   26.500   7.140E-01
   26.600   7.016E-01
   26.700   6.896E-01
   26.800   6.781E-01
   26.900   6.669E-01
   27.000   6.561E-01
   27.100   6.454E-01
   27.200   6.349E-01
   27.300   6.244E-01
   27.400   6.139E-01
   27.500   6.034E-01
   27.600   5.929E-01
   27.700   5.824E-01
   27.800   5.720E-01
   27.900   5.618E-01
   28.000   5.518E-01
   28.100   5.422E-01
   28.200   5.328E-01
   28.300   5.239E-01
   28.400   5.152E-01
   28.500   5.070E-01
   28.600   4.990E-01
   28.700   4.913E-01
   28.800   4.839E-01
   28.900   4.767E-01
   29.000   4.697E-01
   29.100   4.627E-01
   29.200   4.559E-01
   29.300   4.491E-01
   29.400   4.423E-01
   29.500   4.355E-01
   29.600   4.286E-01
   29.700   4.218E-01
   29.800   4.150E-01
   29.900   4.082E-01
   30.000   4.015E-01
 
 Z=  12 A=  36 Mg
  U[MeV]  fE1[mb/MeV]
    0.100   2.715E-05
    0.200   1.087E-04
    0.300   2.447E-04
    0.400   4.357E-04
    0.500   6.820E-04
    0.600   9.842E-04
    0.700   1.343E-03
    0.800   1.759E-03
    0.900   2.234E-03
    1.000   2.768E-03
    1.100   3.364E-03
    1.200   4.021E-03
    1.300   4.743E-03
    1.400   5.530E-03
    1.500   6.386E-03
    1.600   7.311E-03
    1.700   8.309E-03
    1.800   9.382E-03
    1.900   1.053E-02
    2.000   1.176E-02
    2.100   1.308E-02
    2.200   1.449E-02
    2.300   1.598E-02
    2.400   1.758E-02
    2.500   1.927E-02
    2.600   2.108E-02
    2.700   2.299E-02
    2.800   2.503E-02
    2.900   2.719E-02
    3.000   2.948E-02
    3.100   3.192E-02
    3.200   3.450E-02
    3.300   3.725E-02
    3.400   4.017E-02
    3.500   4.327E-02
    3.600   4.656E-02
    3.700   5.006E-02
    3.800   5.379E-02
    3.900   5.776E-02
    4.000   6.199E-02
    4.100   6.650E-02
    4.200   7.132E-02
    4.300   7.647E-02
    4.400   8.198E-02
    4.500   8.787E-02
    4.600   9.419E-02
    4.700   1.010E-01
    4.800   1.083E-01
    4.900   1.161E-01
    5.000   1.246E-01
    5.100   1.337E-01
    5.200   1.436E-01
    5.300   1.543E-01
    5.400   1.659E-01
    5.500   1.786E-01
    5.600   1.923E-01
    5.700   2.073E-01
    5.800   2.236E-01
    5.900   2.414E-01
    6.000   2.609E-01
    6.100   2.822E-01
    6.200   3.055E-01
    6.300   3.309E-01
    6.400   3.587E-01
    6.500   3.889E-01
    6.600   4.216E-01
    6.700   4.569E-01
    6.800   4.947E-01
    6.900   5.347E-01
    7.000   5.766E-01
    7.100   6.197E-01
    7.200   6.633E-01
    7.300   7.064E-01
    7.400   7.477E-01
    7.500   7.862E-01
    7.600   8.208E-01
    7.700   8.506E-01
    7.800   8.752E-01
    7.900   8.944E-01
    8.000   9.087E-01
    8.100   9.185E-01
    8.200   9.248E-01
    8.300   9.284E-01
    8.400   9.302E-01
    8.500   9.312E-01
    8.600   9.320E-01
    8.700   9.334E-01
    8.800   9.361E-01
    8.900   9.406E-01
    9.000   9.474E-01
    9.100   9.569E-01
    9.200   9.694E-01
    9.300   9.850E-01
    9.400   1.004E+00
    9.500   1.026E+00
    9.600   1.052E+00
    9.700   1.080E+00
    9.800   1.112E+00
    9.900   1.145E+00
   10.000   1.181E+00
   10.100   1.217E+00
   10.200   1.255E+00
   10.300   1.292E+00
   10.400   1.328E+00
   10.500   1.363E+00
   10.600   1.395E+00
   10.700   1.425E+00
   10.800   1.451E+00
   10.900   1.473E+00
   11.000   1.490E+00
   11.100   1.504E+00
   11.200   1.514E+00
   11.300   1.520E+00
   11.400   1.524E+00
   11.500   1.526E+00
   11.600   1.526E+00
   11.700   1.526E+00
   11.800   1.527E+00
   11.900   1.529E+00
   12.000   1.533E+00
   12.100   1.539E+00
   12.200   1.549E+00
   12.300   1.561E+00
   12.400   1.577E+00
   12.500   1.594E+00
   12.600   1.613E+00
   12.700   1.632E+00
   12.800   1.651E+00
   12.900   1.669E+00
   13.000   1.685E+00
   13.100   1.700E+00
   13.200   1.714E+00
   13.300   1.728E+00
   13.400   1.743E+00
   13.500   1.759E+00
   13.600   1.778E+00
   13.700   1.801E+00
   13.800   1.827E+00
   13.900   1.858E+00
   14.000   1.894E+00
   14.100   1.934E+00
   14.200   1.977E+00
   14.300   2.024E+00
   14.400   2.074E+00
   14.500   2.126E+00
   14.600   2.179E+00
   14.700   2.232E+00
   14.800   2.285E+00
   14.900   2.337E+00
   15.000   2.386E+00
   15.100   2.433E+00
   15.200   2.475E+00
   15.300   2.512E+00
   15.400   2.543E+00
   15.500   2.568E+00
   15.600   2.587E+00
   15.700   2.601E+00
   15.800   2.609E+00
   15.900   2.612E+00
   16.000   2.612E+00
   16.100   2.608E+00
   16.200   2.599E+00
   16.300   2.587E+00
   16.400   2.571E+00
   16.500   2.550E+00
   16.600   2.524E+00
   16.700   2.493E+00
   16.800   2.457E+00
   16.900   2.418E+00
   17.000   2.374E+00
   17.100   2.328E+00
   17.200   2.280E+00
   17.300   2.230E+00
   17.400   2.180E+00
   17.500   2.130E+00
   17.600   2.081E+00
   17.700   2.035E+00
   17.800   1.990E+00
   17.900   1.949E+00
   18.000   1.912E+00
   18.100   1.878E+00
   18.200   1.848E+00
   18.300   1.823E+00
   18.400   1.801E+00
   18.500   1.782E+00
   18.600   1.766E+00
   18.700   1.752E+00
   18.800   1.740E+00
   18.900   1.730E+00
   19.000   1.720E+00
   19.100   1.712E+00
   19.200   1.704E+00
   19.300   1.698E+00
   19.400   1.692E+00
   19.500   1.688E+00
   19.600   1.684E+00
   19.700   1.680E+00
   19.800   1.678E+00
   19.900   1.675E+00
   20.000   1.673E+00
   20.100   1.670E+00
   20.200   1.667E+00
   20.300   1.664E+00
   20.400   1.660E+00
   20.500   1.656E+00
   20.600   1.652E+00
   20.700   1.647E+00
   20.800   1.641E+00
   20.900   1.634E+00
   21.000   1.626E+00
   21.100   1.617E+00
   21.200   1.607E+00
   21.300   1.596E+00
   21.400   1.584E+00
   21.500   1.570E+00
   21.600   1.555E+00
   21.700   1.539E+00
   21.800   1.521E+00
   21.900   1.503E+00
   22.000   1.484E+00
   22.100   1.464E+00
   22.200   1.443E+00
   22.300   1.422E+00
   22.400   1.401E+00
   22.500   1.379E+00
   22.600   1.357E+00
   22.700   1.336E+00
   22.800   1.314E+00
   22.900   1.293E+00
   23.000   1.272E+00
   23.100   1.251E+00
   23.200   1.231E+00
   23.300   1.212E+00
   23.400   1.193E+00
   23.500   1.174E+00
   23.600   1.156E+00
   23.700   1.138E+00
   23.800   1.120E+00
   23.900   1.102E+00
   24.000   1.084E+00
   24.100   1.066E+00
   24.200   1.048E+00
   24.300   1.030E+00
   24.400   1.012E+00
   24.500   9.930E-01
   24.600   9.743E-01
   24.700   9.555E-01
   24.800   9.366E-01
   24.900   9.178E-01
   25.000   8.990E-01
   25.100   8.804E-01
   25.200   8.620E-01
   25.300   8.440E-01
   25.400   8.264E-01
   25.500   8.093E-01
   25.600   7.929E-01
   25.700   7.771E-01
   25.800   7.620E-01
   25.900   7.477E-01
   26.000   7.341E-01
   26.100   7.211E-01
   26.200   7.088E-01
   26.300   6.970E-01
   26.400   6.856E-01
   26.500   6.747E-01
   26.600   6.641E-01
   26.700   6.538E-01
   26.800   6.438E-01
   26.900   6.340E-01
   27.000   6.245E-01
   27.100   6.152E-01
   27.200   6.061E-01
   27.300   5.972E-01
   27.400   5.885E-01
   27.500   5.801E-01
   27.600   5.719E-01
   27.700   5.639E-01
   27.800   5.561E-01
   27.900   5.484E-01
   28.000   5.408E-01
   28.100   5.331E-01
   28.200   5.253E-01
   28.300   5.174E-01
   28.400   5.093E-01
   28.500   5.010E-01
   28.600   4.926E-01
   28.700   4.842E-01
   28.800   4.758E-01
   28.900   4.676E-01
   29.000   4.596E-01
   29.100   4.518E-01
   29.200   4.444E-01
   29.300   4.374E-01
   29.400   4.307E-01
   29.500   4.244E-01
   29.600   4.185E-01
   29.700   4.129E-01
   29.800   4.076E-01
   29.900   4.025E-01
   30.000   3.977E-01
 
 Z=  12 A=  37 Mg
  U[MeV]  fE1[mb/MeV]
    0.100   3.437E-05
    0.200   1.376E-04
    0.300   3.099E-04
    0.400   5.518E-04
    0.500   8.639E-04
    0.600   1.247E-03
    0.700   1.702E-03
    0.800   2.231E-03
    0.900   2.835E-03
    1.000   3.515E-03
    1.100   4.273E-03
    1.200   5.112E-03
    1.300   6.034E-03
    1.400   7.042E-03
    1.500   8.139E-03
    1.600   9.328E-03
    1.700   1.061E-02
    1.800   1.200E-02
    1.900   1.348E-02
    2.000   1.508E-02
    2.100   1.679E-02
    2.200   1.862E-02
    2.300   2.058E-02
    2.400   2.267E-02
    2.500   2.490E-02
    2.600   2.728E-02
    2.700   2.982E-02
    2.800   3.253E-02
    2.900   3.542E-02
    3.000   3.849E-02
    3.100   4.178E-02
    3.200   4.528E-02
    3.300   4.902E-02
    3.400   5.300E-02
    3.500   5.727E-02
    3.600   6.182E-02
    3.700   6.670E-02
    3.800   7.192E-02
    3.900   7.752E-02
    4.000   8.352E-02
    4.100   8.998E-02
    4.200   9.692E-02
    4.300   1.044E-01
    4.400   1.124E-01
    4.500   1.212E-01
    4.600   1.306E-01
    4.700   1.408E-01
    4.800   1.518E-01
    4.900   1.639E-01
    5.000   1.770E-01
    5.100   1.912E-01
    5.200   2.068E-01
    5.300   2.239E-01
    5.400   2.426E-01
    5.500   2.631E-01
    5.600   2.855E-01
    5.700   3.102E-01
    5.800   3.373E-01
    5.900   3.670E-01
    6.000   3.995E-01
    6.100   4.350E-01
    6.200   4.735E-01
    6.300   5.151E-01
    6.400   5.596E-01
    6.500   6.066E-01
    6.600   6.556E-01
    6.700   7.058E-01
    6.800   7.560E-01
    6.900   8.050E-01
    7.000   8.515E-01
    7.100   8.939E-01
    7.200   9.314E-01
    7.300   9.629E-01
    7.400   9.883E-01
    7.500   1.008E+00
    7.600   1.021E+00
    7.700   1.030E+00
    7.800   1.035E+00
    7.900   1.037E+00
    8.000   1.036E+00
    8.100   1.034E+00
    8.200   1.032E+00
    8.300   1.031E+00
    8.400   1.031E+00
    8.500   1.033E+00
    8.600   1.037E+00
    8.700   1.044E+00
    8.800   1.055E+00
    8.900   1.069E+00
    9.000   1.087E+00
    9.100   1.108E+00
    9.200   1.133E+00
    9.300   1.161E+00
    9.400   1.191E+00
    9.500   1.224E+00
    9.600   1.258E+00
    9.700   1.292E+00
    9.800   1.327E+00
    9.900   1.361E+00
   10.000   1.394E+00
   10.100   1.426E+00
   10.200   1.457E+00
   10.300   1.487E+00
   10.400   1.515E+00
   10.500   1.542E+00
   10.600   1.567E+00
   10.700   1.589E+00
   10.800   1.609E+00
   10.900   1.626E+00
   11.000   1.638E+00
   11.100   1.647E+00
   11.200   1.652E+00
   11.300   1.653E+00
   11.400   1.650E+00
   11.500   1.645E+00
   11.600   1.637E+00
   11.700   1.628E+00
   11.800   1.618E+00
   11.900   1.609E+00
   12.000   1.602E+00
   12.100   1.597E+00
   12.200   1.594E+00
   12.300   1.595E+00
   12.400   1.599E+00
   12.500   1.607E+00
   12.600   1.617E+00
   12.700   1.630E+00
   12.800   1.645E+00
   12.900   1.663E+00
   13.000   1.683E+00
   13.100   1.706E+00
   13.200   1.732E+00
   13.300   1.762E+00
   13.400   1.795E+00
   13.500   1.832E+00
   13.600   1.873E+00
   13.700   1.917E+00
   13.800   1.964E+00
   13.900   2.014E+00
   14.000   2.066E+00
   14.100   2.120E+00
   14.200   2.174E+00
   14.300   2.228E+00
   14.400   2.282E+00
   14.500   2.335E+00
   14.600   2.388E+00
   14.700   2.439E+00
   14.800   2.490E+00
   14.900   2.539E+00
   15.000   2.586E+00
   15.100   2.630E+00
   15.200   2.668E+00
   15.300   2.701E+00
   15.400   2.725E+00
   15.500   2.742E+00
   15.600   2.749E+00
   15.700   2.748E+00
   15.800   2.740E+00
   15.900   2.725E+00
   16.000   2.704E+00
   16.100   2.678E+00
   16.200   2.647E+00
   16.300   2.612E+00
   16.400   2.574E+00
   16.500   2.531E+00
   16.600   2.485E+00
   16.700   2.436E+00
   16.800   2.384E+00
   16.900   2.331E+00
   17.000   2.276E+00
   17.100   2.222E+00
   17.200   2.167E+00
   17.300   2.114E+00
   17.400   2.062E+00
   17.500   2.013E+00
   17.600   1.966E+00
   17.700   1.923E+00
   17.800   1.885E+00
   17.900   1.850E+00
   18.000   1.820E+00
   18.100   1.794E+00
   18.200   1.772E+00
   18.300   1.753E+00
   18.400   1.738E+00
   18.500   1.726E+00
   18.600   1.716E+00
   18.700   1.708E+00
   18.800   1.702E+00
   18.900   1.696E+00
   19.000   1.692E+00
   19.100   1.688E+00
   19.200   1.685E+00
   19.300   1.683E+00
   19.400   1.682E+00
   19.500   1.681E+00
   19.600   1.681E+00
   19.700   1.681E+00
   19.800   1.681E+00
   19.900   1.681E+00
   20.000   1.681E+00
   20.100   1.681E+00
   20.200   1.680E+00
   20.300   1.679E+00
   20.400   1.677E+00
   20.500   1.675E+00
   20.600   1.673E+00
   20.700   1.669E+00
   20.800   1.664E+00
   20.900   1.658E+00
   21.000   1.650E+00
   21.100   1.641E+00
   21.200   1.630E+00
   21.300   1.618E+00
   21.400   1.605E+00
   21.500   1.590E+00
   21.600   1.575E+00
   21.700   1.559E+00
   21.800   1.542E+00
   21.900   1.524E+00
   22.000   1.507E+00
   22.100   1.488E+00
   22.200   1.470E+00
   22.300   1.451E+00
   22.400   1.432E+00
   22.500   1.413E+00
   22.600   1.394E+00
   22.700   1.374E+00
   22.800   1.354E+00
   22.900   1.334E+00
   23.000   1.312E+00
   23.100   1.291E+00
   23.200   1.269E+00
   23.300   1.247E+00
   23.400   1.224E+00
   23.500   1.202E+00
   23.600   1.179E+00
   23.700   1.157E+00
   23.800   1.135E+00
   23.900   1.113E+00
   24.000   1.091E+00
   24.100   1.070E+00
   24.200   1.049E+00
   24.300   1.028E+00
   24.400   1.008E+00
   24.500   9.877E-01
   24.600   9.680E-01
   24.700   9.486E-01
   24.800   9.295E-01
   24.900   9.108E-01
   25.000   8.925E-01
   25.100   8.747E-01
   25.200   8.574E-01
   25.300   8.406E-01
   25.400   8.244E-01
   25.500   8.088E-01
   25.600   7.937E-01
   25.700   7.791E-01
   25.800   7.650E-01
   25.900   7.513E-01
   26.000   7.381E-01
   26.100   7.253E-01
   26.200   7.129E-01
   26.300   7.008E-01
   26.400   6.890E-01
   26.500   6.775E-01
   26.600   6.661E-01
   26.700   6.549E-01
   26.800   6.439E-01
   26.900   6.331E-01
   27.000   6.225E-01
   27.100   6.122E-01
   27.200   6.023E-01
   27.300   5.927E-01
   27.400   5.836E-01
   27.500   5.748E-01
   27.600   5.664E-01
   27.700   5.582E-01
   27.800   5.503E-01
   27.900   5.424E-01
   28.000   5.345E-01
   28.100   5.265E-01
   28.200   5.184E-01
   28.300   5.101E-01
   28.400   5.017E-01
   28.500   4.933E-01
   28.600   4.850E-01
   28.700   4.769E-01
   28.800   4.690E-01
   28.900   4.615E-01
   29.000   4.544E-01
   29.100   4.477E-01
   29.200   4.415E-01
   29.300   4.357E-01
   29.400   4.302E-01
   29.500   4.252E-01
   29.600   4.204E-01
   29.700   4.158E-01
   29.800   4.114E-01
   29.900   4.071E-01
   30.000   4.028E-01
 
