# n + Tm171 : (n,n'16)  
# jeff3.3    A.J. Koning and D. Rochman        EVAL-DEC15
# uncertainties: n
# # energies =    82
#   E(MeV)       xs(mb) 
 7.59295E-01    0.00000E+00
 7.80448E-01    3.18778E+01
 8.00000E-01    6.13429E+01
 8.27282E-01    6.33278E+01
 8.28943E-01    6.34487E+01
 8.77950E-01    6.70142E+01
 8.89558E-01    6.78587E+01
 9.00000E-01    6.86184E+01
 9.18333E-01    6.91827E+01
 9.41081E-01    6.98829E+01
 9.90269E-01    7.13969E+01
 1.00000E+00    7.16964E+01
 1.00452E+00    7.17882E+01
 1.01913E+00    7.20848E+01
 1.04237E+00    7.25566E+01
 1.06366E+00    7.29889E+01
 1.12335E+00    7.42008E+01
 1.20000E+00    7.57570E+01
 1.23293E+00    7.31913E+01
 1.40000E+00    6.01741E+01
 1.60000E+00    4.34525E+01
 1.80000E+00    2.95262E+01
 2.00000E+00    1.99915E+01
 2.20000E+00    1.37826E+01
 2.40000E+00    9.69506E+00
 2.60000E+00    6.92928E+00
 2.80000E+00    5.00545E+00
 3.00000E+00    3.63797E+00
 3.20000E+00    2.65130E+00
 3.40000E+00    1.93419E+00
 3.60000E+00    1.40996E+00
 3.80000E+00    1.02611E+00
 4.00000E+00    7.45204E-01
 4.20000E+00    5.40126E-01
 4.40000E+00    3.90651E-01
 4.60000E+00    2.82148E-01
 4.80000E+00    2.03352E-01
 5.00000E+00    1.46318E-01
 5.20000E+00    1.05160E-01
 5.40000E+00    7.55377E-02
 5.60000E+00    5.41693E-02
 5.80000E+00    3.86243E-02
 6.00000E+00    2.75837E-02
 6.20000E+00    1.97446E-02
 6.40000E+00    1.41606E-02
 6.60000E+00    1.01843E-02
 6.80000E+00    7.35378E-03
 7.00000E+00    5.31979E-03
 7.20000E+00    3.86497E-03
 7.40000E+00    2.81484E-03
 7.60000E+00    2.05535E-03
 7.80000E+00    1.50635E-03
 8.00000E+00    1.10580E-03
 8.50000E+00    5.18120E-04
 9.00000E+00    2.47627E-04
 9.50000E+00    1.20681E-04
 1.00000E+01    5.99650E-05
 1.05000E+01    3.03747E-05
 1.10000E+01    1.56521E-05
 1.15000E+01    8.18632E-06
 1.20000E+01    4.33710E-06
 1.25000E+01    2.32394E-06
 1.30000E+01    1.25798E-06
 1.35000E+01    6.87570E-07
 1.40000E+01    3.79320E-07
 1.45000E+01    2.11160E-07
 1.50000E+01    1.18660E-07
 1.60000E+01    3.85290E-08
 1.70000E+01    1.29520E-08
 1.80000E+01    4.46950E-09
 1.90000E+01    1.59610E-09
 2.00000E+01    5.84850E-10
 2.10000E+01    2.19280E-10
 2.20000E+01    8.40920E-11
 2.30000E+01    3.29510E-11
 2.40000E+01    1.31920E-11
 2.50000E+01    5.39390E-12
 2.60000E+01    2.24470E-12
 2.70000E+01    9.51090E-13
 2.80000E+01    4.09740E-13
 2.90000E+01    1.79310E-13
 3.00000E+01    7.96650E-14
