# n + Gd155 : (n,n'13)  
# jendl4.0   N.Iwamoto,A.Zukeran,K.Shibata     EVAL-Dec09
# uncertainties: n
# # energies =    82
#   E(MeV)       xs(mb) 
 2.84410E-01    0.00000E+00
 2.88873E-01    5.64879E-03
 3.00000E-01    1.95879E-02
 3.23471E-01    6.62873E-02
 3.28211E-01    7.83335E-02
 3.52717E-01    1.55191E-01
 3.70028E-01    2.23085E-01
 3.94871E-01    3.40826E-01
 3.96094E-01    3.46673E-01
 4.00000E-01    3.63723E-01
 4.26169E-01    5.06873E-01
 4.26569E-01    5.09226E-01
 4.30019E-01    5.30023E-01
 4.53496E-01    6.78562E-01
 4.54310E-01    6.83857E-01
 4.56624E-01    6.99032E-01
 4.57434E-01    7.04371E-01
 4.66850E-01    7.68106E-01
 4.83125E-01    8.84565E-01
 4.89139E-01    9.29706E-01
 4.91903E-01    9.44791E-01
 5.00000E-01    1.00109E+00
 5.37779E-01    1.29987E+00
 5.56974E-01    1.45281E+00
 5.63011E-01    1.49168E+00
 5.85241E-01    1.66891E+00
 5.95997E-01    1.76009E+00
 6.00000E-01    1.79471E+00
 6.14819E-01    1.92607E+00
 6.18858E-01    1.96139E+00
 7.00000E-01    2.72293E+00
 8.00000E-01    3.54032E+00
 9.00000E-01    4.15864E+00
 1.00000E+00    4.46517E+00
 1.10000E+00    4.60409E+00
 1.20000E+00    4.66894E+00
 1.30000E+00    4.66149E+00
 1.40000E+00    4.52251E+00
 1.50000E+00    4.33884E+00
 1.60000E+00    4.12625E+00
 1.70000E+00    3.89394E+00
 1.80000E+00    3.65036E+00
 1.90000E+00    3.40342E+00
 2.00000E+00    3.15778E+00
 2.25000E+00    2.53275E+00
 2.50000E+00    2.04429E+00
 2.75000E+00    1.58216E+00
 3.00000E+00    1.24540E+00
 3.50000E+00    7.05289E-01
 4.00000E+00    3.81522E-01
 4.50000E+00    2.03531E-01
 5.00000E+00    1.12414E-01
 5.50000E+00    6.74780E-02
 6.00000E+00    4.54435E-02
 6.50000E+00    3.42989E-02
 7.00000E+00    2.83006E-02
 7.50000E+00    2.47200E-02
 8.00000E+00    2.22901E-02
 8.50000E+00    2.04464E-02
 9.00000E+00    1.89313E-02
 9.50000E+00    1.76294E-02
 1.00000E+01    1.64808E-02
 1.05000E+01    1.54568E-02
 1.10000E+01    1.45368E-02
 1.15000E+01    1.37068E-02
 1.20000E+01    1.29562E-02
 1.25000E+01    1.22744E-02
 1.30000E+01    1.16522E-02
 1.35000E+01    1.10815E-02
 1.40000E+01    1.05551E-02
 1.45000E+01    1.00667E-02
 1.50000E+01    9.61121E-03
 1.55000E+01    9.18635E-03
 1.60000E+01    8.78759E-03
 1.65000E+01    8.41339E-03
 1.70000E+01    8.06215E-03
 1.75000E+01    7.73277E-03
 1.80000E+01    7.42401E-03
 1.85000E+01    7.13396E-03
 1.90000E+01    6.86041E-03
 1.95000E+01    6.60131E-03
 2.00000E+01    6.35511E-03
