# n + Gd155 : (n,n'11)  
# jendl4.0   N.Iwamoto,A.Zukeran,K.Shibata     EVAL-Dec09
# uncertainties: n
# # energies =    85
#   E(MeV)       xs(mb) 
 2.68383E-01    0.00000E+00
 2.70372E-01    2.39837E+01
 2.75000E-01    4.08597E+01
 2.84410E-01    6.07285E+01
 2.88873E-01    6.78622E+01
 3.00000E-01    8.19218E+01
 3.23471E-01    1.04109E+02
 3.28211E-01    1.07199E+02
 3.52717E-01    1.17399E+02
 3.70028E-01    1.23204E+02
 3.94871E-01    1.29629E+02
 3.96094E-01    1.29918E+02
 4.00000E-01    1.30629E+02
 4.26169E-01    1.36164E+02
 4.26569E-01    1.36098E+02
 4.30019E-01    1.36287E+02
 4.53496E-01    1.36825E+02
 4.54310E-01    1.36476E+02
 4.56624E-01    1.35989E+02
 4.57434E-01    1.35910E+02
 4.66850E-01    1.34587E+02
 4.83125E-01    1.33947E+02
 4.89139E-01    1.33149E+02
 4.91903E-01    1.32911E+02
 5.00000E-01    1.31417E+02
 5.37779E-01    1.28422E+02
 5.56974E-01    1.27104E+02
 5.63011E-01    1.26510E+02
 5.85241E-01    1.24578E+02
 5.95997E-01    1.23267E+02
 6.00000E-01    1.22503E+02
 6.14819E-01    1.20938E+02
 6.18858E-01    1.20399E+02
 7.00000E-01    1.13275E+02
 8.00000E-01    1.04645E+02
 9.00000E-01    9.42426E+01
 1.00000E+00    8.20464E+01
 1.10000E+00    7.14946E+01
 1.20000E+00    6.25039E+01
 1.30000E+00    5.44975E+01
 1.40000E+00    4.70521E+01
 1.50000E+00    4.05541E+01
 1.60000E+00    3.49069E+01
 1.70000E+00    3.00010E+01
 1.80000E+00    2.57442E+01
 1.90000E+00    2.20680E+01
 2.00000E+00    1.88995E+01
 2.25000E+00    1.25913E+01
 2.50000E+00    8.62100E+00
 2.75000E+00    5.75330E+00
 3.00000E+00    3.87519E+00
 3.50000E+00    1.74416E+00
 4.00000E+00    7.84394E-01
 4.50000E+00    3.56452E-01
 5.00000E+00    1.68228E-01
 5.50000E+00    8.60429E-02
 6.00000E+00    5.00128E-02
 6.50000E+00    3.37888E-02
 7.00000E+00    2.60952E-02
 7.50000E+00    2.20580E-02
 8.00000E+00    1.96005E-02
 8.50000E+00    1.78669E-02
 9.00000E+00    1.64987E-02
 9.50000E+00    1.53461E-02
 1.00000E+01    1.43385E-02
 1.05000E+01    1.34439E-02
 1.10000E+01    1.26417E-02
 1.15000E+01    1.19188E-02
 1.20000E+01    1.12651E-02
 1.25000E+01    1.06717E-02
 1.30000E+01    1.01301E-02
 1.35000E+01    9.63344E-03
 1.40000E+01    9.17531E-03
 1.45000E+01    8.75030E-03
 1.50000E+01    8.35396E-03
 1.55000E+01    7.98487E-03
 1.60000E+01    7.63844E-03
 1.65000E+01    7.31335E-03
 1.70000E+01    7.00820E-03
 1.75000E+01    6.72206E-03
 1.80000E+01    6.45383E-03
 1.85000E+01    6.20185E-03
 1.90000E+01    5.96418E-03
 1.95000E+01    5.73904E-03
 2.00000E+01    5.52411E-03
