# n + Gd155 : (n,n'10)  
# jendl4.0   N.Iwamoto,A.Zukeran,K.Shibata     EVAL-Dec09
# uncertainties: n
# # energies =    86
#   E(MeV)       xs(mb) 
 2.53345E-01    0.00000E+00
 2.68383E-01    6.24594E+00
 2.70372E-01    6.68856E+00
 2.75000E-01    7.70483E+00
 2.84410E-01    9.64464E+00
 2.88873E-01    1.05239E+01
 3.00000E-01    1.25917E+01
 3.23471E-01    1.65688E+01
 3.28211E-01    1.72881E+01
 3.52717E-01    2.04019E+01
 3.70028E-01    2.20205E+01
 3.94871E-01    2.46311E+01
 3.96094E-01    2.47572E+01
 4.00000E-01    2.48928E+01
 4.26169E-01    2.69897E+01
 4.26569E-01    2.69648E+01
 4.30019E-01    2.71253E+01
 4.53496E-01    2.86893E+01
 4.54310E-01    2.87342E+01
 4.56624E-01    2.88845E+01
 4.57434E-01    2.89382E+01
 4.66850E-01    2.95047E+01
 4.83125E-01    3.05539E+01
 4.89139E-01    3.08909E+01
 4.91903E-01    3.08879E+01
 5.00000E-01    3.10700E+01
 5.37779E-01    3.26290E+01
 5.56974E-01    3.35446E+01
 5.63011E-01    3.36139E+01
 5.85241E-01    3.44969E+01
 5.95997E-01    3.48980E+01
 6.00000E-01    3.50410E+01
 6.14819E-01    3.56672E+01
 6.18858E-01    3.57493E+01
 7.00000E-01    3.92192E+01
 8.00000E-01    4.27078E+01
 9.00000E-01    4.42818E+01
 1.00000E+00    4.39863E+01
 1.10000E+00    4.35454E+01
 1.20000E+00    4.30409E+01
 1.30000E+00    4.22014E+01
 1.40000E+00    4.10233E+01
 1.50000E+00    3.98435E+01
 1.60000E+00    3.87176E+01
 1.70000E+00    3.76703E+01
 1.80000E+00    3.67199E+01
 1.90000E+00    3.58848E+01
 2.00000E+00    3.51695E+01
 2.25000E+00    3.37715E+01
 2.50000E+00    3.33566E+01
 2.75000E+00    3.33991E+01
 3.00000E+00    3.40443E+01
 3.50000E+00    3.61255E+01
 4.00000E+00    3.84917E+01
 4.50000E+00    4.04999E+01
 5.00000E+00    4.20586E+01
 5.50000E+00    4.31653E+01
 6.00000E+00    4.39134E+01
 6.50000E+00    4.43118E+01
 7.00000E+00    4.44338E+01
 7.50000E+00    4.43165E+01
 8.00000E+00    4.40340E+01
 8.50000E+00    4.36208E+01
 9.00000E+00    4.31209E+01
 9.50000E+00    4.25563E+01
 1.00000E+01    4.19553E+01
 1.05000E+01    4.13359E+01
 1.10000E+01    4.07147E+01
 1.15000E+01    4.01021E+01
 1.20000E+01    3.95039E+01
 1.25000E+01    3.89210E+01
 1.30000E+01    3.83510E+01
 1.35000E+01    3.77890E+01
 1.40000E+01    3.72285E+01
 1.45000E+01    3.66626E+01
 1.50000E+01    3.60832E+01
 1.55000E+01    3.54821E+01
 1.60000E+01    3.48530E+01
 1.65000E+01    3.41932E+01
 1.70000E+01    3.35060E+01
 1.75000E+01    3.27992E+01
 1.80000E+01    3.20840E+01
 1.85000E+01    3.13712E+01
 1.90000E+01    3.06691E+01
 1.95000E+01    2.99827E+01
 2.00000E+01    2.93140E+01
