# n + Gd155 : (n,n'23)  
# jendl4.0   N.Iwamoto,A.Zukeran,K.Shibata     EVAL-Dec09
# uncertainties: n
# # energies =    70
#   E(MeV)       xs(mb) 
 4.30019E-01    0.00000E+00
 4.53496E-01    3.81046E+01
 4.54310E-01    3.87034E+01
 4.56624E-01    4.03340E+01
 4.57434E-01    4.08959E+01
 4.66850E-01    4.68152E+01
 4.83125E-01    5.51136E+01
 4.89139E-01    5.76360E+01
 4.91903E-01    5.87688E+01
 5.00000E-01    6.13141E+01
 5.37779E-01    7.15381E+01
 5.56974E-01    7.51992E+01
 5.63011E-01    7.62192E+01
 5.85241E-01    7.90547E+01
 5.95997E-01    7.98018E+01
 6.00000E-01    7.97299E+01
 6.14819E-01    8.02550E+01
 6.18858E-01    8.03995E+01
 7.00000E-01    8.18775E+01
 8.00000E-01    7.98212E+01
 9.00000E-01    7.30322E+01
 1.00000E+00    6.55481E+01
 1.10000E+00    5.80755E+01
 1.20000E+00    5.06291E+01
 1.30000E+00    4.42035E+01
 1.40000E+00    3.86751E+01
 1.50000E+00    3.35611E+01
 1.60000E+00    2.89632E+01
 1.70000E+00    2.49341E+01
 1.80000E+00    2.14144E+01
 1.90000E+00    1.83595E+01
 2.00000E+00    1.57172E+01
 2.25000E+00    1.04400E+01
 2.50000E+00    7.11457E+00
 2.75000E+00    4.71850E+00
 3.00000E+00    3.21590E+00
 3.50000E+00    1.46041E+00
 4.00000E+00    6.80438E-01
 4.50000E+00    3.35249E-01
 5.00000E+00    1.82836E-01
 5.50000E+00    1.14608E-01
 6.00000E+00    8.28977E-02
 6.50000E+00    6.69116E-02
 7.00000E+00    5.78688E-02
 7.50000E+00    5.19749E-02
 8.00000E+00    4.75898E-02
 8.50000E+00    4.40175E-02
 9.00000E+00    4.09438E-02
 9.50000E+00    3.82301E-02
 1.00000E+01    3.57980E-02
 1.05000E+01    3.36093E-02
 1.10000E+01    3.16325E-02
 1.15000E+01    2.98416E-02
 1.20000E+01    2.82169E-02
 1.25000E+01    2.67398E-02
 1.30000E+01    2.53908E-02
 1.35000E+01    2.41532E-02
 1.40000E+01    2.30114E-02
 1.45000E+01    2.19520E-02
 1.50000E+01    2.09640E-02
 1.55000E+01    2.00484E-02
 1.60000E+01    1.91875E-02
 1.65000E+01    1.83735E-02
 1.70000E+01    1.76091E-02
 1.75000E+01    1.68921E-02
 1.80000E+01    1.62197E-02
 1.85000E+01    1.55883E-02
 1.90000E+01    1.49929E-02
 1.95000E+01    1.44291E-02
 2.00000E+01    1.38936E-02
