# n + Gd155 : (n,n'22)  
# jendl4.0   N.Iwamoto,A.Zukeran,K.Shibata     EVAL-Dec09
# uncertainties: n
# # energies =    71
#   E(MeV)       xs(mb) 
 4.26569E-01    0.00000E+00
 4.30019E-01    4.81890E-09
 4.53496E-01    1.07640E-06
 4.54310E-01    1.16891E-06
 4.56624E-01    1.46112E-06
 4.57434E-01    1.55923E-06
 4.66850E-01    3.26192E-06
 4.83125E-01    8.70081E-06
 4.89139E-01    1.17581E-05
 4.91903E-01    1.36239E-05
 5.00000E-01    1.94446E-05
 5.37779E-01    7.27900E-05
 5.56974E-01    1.22233E-04
 5.63011E-01    1.42156E-04
 5.85241E-01    2.37314E-04
 5.95997E-01    2.96618E-04
 6.00000E-01    3.21318E-04
 6.14819E-01    4.26658E-04
 6.18858E-01    4.59255E-04
 7.00000E-01    1.75846E-03
 8.00000E-01    5.35891E-03
 9.00000E-01    1.18609E-02
 1.00000E+00    2.19358E-02
 1.10000E+00    3.55648E-02
 1.20000E+00    5.21088E-02
 1.30000E+00    7.18511E-02
 1.40000E+00    9.43378E-02
 1.50000E+00    1.17415E-01
 1.60000E+00    1.40196E-01
 1.70000E+00    1.61947E-01
 1.80000E+00    1.81820E-01
 1.90000E+00    1.99204E-01
 2.00000E+00    2.13612E-01
 2.25000E+00    2.31856E-01
 2.50000E+00    2.36116E-01
 2.75000E+00    2.19623E-01
 3.00000E+00    2.05882E-01
 3.50000E+00    1.46019E-01
 4.00000E+00    9.41653E-02
 4.50000E+00    5.78936E-02
 5.00000E+00    3.54676E-02
 5.50000E+00    2.24845E-02
 6.00000E+00    1.52928E-02
 6.50000E+00    1.13393E-02
 7.00000E+00    9.13511E-03
 7.50000E+00    7.82916E-03
 8.00000E+00    6.97539E-03
 8.50000E+00    6.35529E-03
 9.00000E+00    5.86373E-03
 9.50000E+00    5.45132E-03
 1.00000E+01    5.09260E-03
 1.05000E+01    4.77517E-03
 1.10000E+01    4.49118E-03
 1.15000E+01    4.23551E-03
 1.20000E+01    4.00428E-03
 1.25000E+01    3.79417E-03
 1.30000E+01    3.60248E-03
 1.35000E+01    3.42671E-03
 1.40000E+01    3.26460E-03
 1.45000E+01    3.11424E-03
 1.50000E+01    2.97402E-03
 1.55000E+01    2.84414E-03
 1.60000E+01    2.72174E-03
 1.65000E+01    2.60628E-03
 1.70000E+01    2.49787E-03
 1.75000E+01    2.39616E-03
 1.80000E+01    2.30080E-03
 1.85000E+01    2.21123E-03
 1.90000E+01    2.12678E-03
 1.95000E+01    2.04682E-03
 2.00000E+01    1.97086E-03
