# n + Gd155 : (n,el)    
# jendl4.0   N.Iwamoto,A.Zukeran,K.Shibata     EVAL-Dec09
# uncertainties: n
# # energies =   171
#   E(MeV)       xs(mb) 
 1.00000E-11    6.97935E+04
 1.00000E-07    1.27721E+04
 4.13990E-07    4.58679E+03
 5.31580E-07    3.77235E+03
 6.82560E-07    3.14577E+03
 8.76420E-07    2.60444E+03
 1.12540E-06    2.03215E+03
 1.44500E-06    1.16313E+03
 1.85540E-06    3.79260E+03
 2.37240E-06    4.13772E+04
 3.05900E-06    5.82382E+03
 3.92790E-06    3.50970E+03
 5.04350E-06    1.12372E+04
 6.47600E-06    8.03988E+03
 8.31530E-06    4.02515E+03
 1.06770E-05    3.98034E+03
 1.37100E-05    5.47782E+03
 1.76030E-05    2.69025E+04
 2.26030E-05    5.12858E+03
 2.92030E-05    2.15917E+04
 3.72670E-05    1.44701E+04
 4.78510E-05    2.18163E+04
 6.14420E-05    1.02842E+04
 7.88930E-05    7.51506E+03
 1.01300E-04    1.31509E+04
 1.30070E-04    4.22539E+04
 1.67020E-04    1.91770E+04
 2.14450E-04    1.53079E+04
 2.75360E-04    1.47986E+04
 3.53580E-04    1.42510E+04
 4.54000E-04    1.38890E+04
 5.82950E-04    1.35615E+04
 7.48520E-04    1.32131E+04
 9.61120E-04    1.28913E+04
 1.23410E-03    1.26275E+04
 1.58460E-03    1.23695E+04
 2.03470E-03    1.21229E+04
 2.24870E-03    1.19209E+04
 2.48520E-03    1.17718E+04
 2.61260E-03    1.16732E+04
 2.74650E-03    1.15269E+04
 3.03540E-03    1.13348E+04
 3.35460E-03    1.11460E+04
 3.70740E-03    1.09197E+04
 4.30740E-03    1.06086E+04
 5.53080E-03    1.02386E+04
 7.10170E-03    9.86786E+03
 9.11880E-03    9.49988E+03
 1.17090E-02    9.14576E+03
 1.50340E-02    8.80477E+03
 1.93050E-02    8.55697E+03
 2.18750E-02    8.42764E+03
 2.35790E-02    8.36396E+03
 2.41760E-02    8.33252E+03
 2.47880E-02    8.28488E+03
 2.60580E-02    8.23140E+03
 2.70000E-02    8.17567E+03
 2.85000E-02    8.07424E+03
 3.18280E-02    7.96191E+03
 3.43070E-02    7.81335E+03
 4.08680E-02    7.64843E+03
 4.63090E-02    7.52004E+03
 5.24750E-02    7.41632E+03
 5.65620E-02    7.26857E+03
 6.73790E-02    7.09025E+03
 7.20000E-02    6.99768E+03
 7.95000E-02    6.92628E+03
 8.25000E-02    6.88306E+03
 8.65170E-02    6.76876E+03
 9.80370E-02    6.61168E+03
 1.11090E-01    6.49041E+03
 1.16790E-01    6.42404E+03
 1.22770E-01    6.35432E+03
 1.29070E-01    6.28999E+03
 1.35690E-01    6.22910E+03
 1.42640E-01    6.16506E+03
 1.49960E-01    6.09936E+03
 1.57640E-01    6.04329E+03
 1.65730E-01    5.98933E+03
 1.74220E-01    5.94223E+03
 1.83160E-01    5.89384E+03
 1.92550E-01    5.84300E+03
 2.02420E-01    5.79087E+03
 2.12800E-01    5.74469E+03
 2.23710E-01    5.69771E+03
 2.35180E-01    5.64831E+03
 2.47240E-01    5.57901E+03
 2.73240E-01    5.49863E+03
 2.87250E-01    5.45247E+03
 2.94520E-01    5.42727E+03
 2.97200E-01    5.41678E+03
 2.98500E-01    5.40422E+03
 3.01970E-01    5.34056E+03
 3.33730E-01    5.22569E+03
 3.68830E-01    5.14372E+03
 3.87740E-01    5.09062E+03
 4.07620E-01    5.02806E+03
 4.50490E-01    4.94002E+03
 4.97870E-01    4.87674E+03
 5.23400E-01    4.84254E+03
 5.50230E-01    4.81249E+03
 5.78440E-01    4.78090E+03
 6.08100E-01    4.74772E+03
 6.39280E-01    4.71818E+03
 6.72060E-01    4.69102E+03
 7.06510E-01    4.66246E+03
 7.42740E-01    4.63505E+03
 7.80820E-01    4.61089E+03
 8.20850E-01    4.58557E+03
 8.62940E-01    4.55895E+03
 9.07180E-01    4.52857E+03
 9.61640E-01    4.49892E+03
 1.00260E+00    4.45220E+03
 1.10800E+00    4.39930E+03
 1.16480E+00    4.36158E+03
 1.22460E+00    4.32194E+03
 1.28730E+00    4.28028E+03
 1.35340E+00    4.23647E+03
 1.42270E+00    4.19044E+03
 1.49570E+00    4.14200E+03
 1.57240E+00    4.09111E+03
 1.65300E+00    4.03736E+03
 1.73770E+00    3.97884E+03
 1.82680E+00    3.91690E+03
 1.92050E+00    3.85177E+03
 2.01900E+00    3.78333E+03
 2.12250E+00    3.71139E+03
 2.23130E+00    3.64873E+03
 2.30690E+00    3.60985E+03
 2.34570E+00    3.59003E+03
 2.36530E+00    3.57665E+03
 2.38520E+00    3.54266E+03
 2.46600E+00    3.47423E+03
 2.59240E+00    3.39039E+03
 2.72530E+00    3.30227E+03
 2.86500E+00    3.21186E+03
 3.01190E+00    3.12135E+03
 3.16640E+00    3.02825E+03
 3.32870E+00    2.89534E+03
 3.67880E+00    2.72212E+03
 4.06570E+00    2.56287E+03
 4.49330E+00    2.45485E+03
 4.72370E+00    2.39049E+03
 4.96590E+00    2.33207E+03
 5.22050E+00    2.28102E+03
 5.48810E+00    2.23711E+03
 5.76950E+00    2.20158E+03
 6.06530E+00    2.17406E+03
 6.37630E+00    2.15499E+03
 6.59240E+00    2.14848E+03
 6.70320E+00    2.14582E+03
 7.04690E+00    2.14970E+03
 7.40820E+00    2.16120E+03
 7.78800E+00    2.18347E+03
 8.18730E+00    2.21679E+03
 8.60710E+00    2.25906E+03
 9.04840E+00    2.31020E+03
 9.51230E+00    2.36912E+03
 1.00000E+01    2.43353E+03
 1.05130E+01    2.50303E+03
 1.10520E+01    2.57459E+03
 1.16180E+01    2.64578E+03
 1.22140E+01    2.71402E+03
 1.28400E+01    2.77658E+03
 1.34990E+01    2.81827E+03
 1.38400E+01    2.84283E+03
 1.41910E+01    2.86422E+03
 1.45500E+01    2.88223E+03
 1.49180E+01    2.90231E+03
 1.56830E+01    2.91544E+03
 1.64870E+01    2.91127E+03
