# n + Gd155 : (n,n'07)  
# jendl4.0   N.Iwamoto,A.Zukeran,K.Shibata     EVAL-Dec09
# uncertainties: n
# # energies =    97
#   E(MeV)       xs(mb) 
 1.47021E-01    0.00000E+00
 1.50000E-01    6.41226E+00
 1.60000E-01    1.56641E+01
 1.70000E-01    2.42899E+01
 1.80000E-01    3.27089E+01
 1.90000E-01    4.08942E+01
 2.00000E-01    4.86805E+01
 2.15747E-01    6.02131E+01
 2.25000E-01    6.64916E+01
 2.31627E-01    7.08770E+01
 2.50000E-01    8.23057E+01
 2.53345E-01    8.41759E+01
 2.68383E-01    9.14818E+01
 2.70372E-01    9.11897E+01
 2.75000E-01    9.17689E+01
 2.84410E-01    9.47443E+01
 2.88873E-01    9.62961E+01
 3.00000E-01    9.98059E+01
 3.23471E-01    1.06435E+02
 3.28211E-01    1.06980E+02
 3.52717E-01    1.09086E+02
 3.70028E-01    1.10564E+02
 3.94871E-01    1.14137E+02
 3.96094E-01    1.14321E+02
 4.00000E-01    1.14146E+02
 4.26169E-01    1.16280E+02
 4.26569E-01    1.16159E+02
 4.30019E-01    1.16196E+02
 4.53496E-01    1.17186E+02
 4.54310E-01    1.17135E+02
 4.56624E-01    1.17129E+02
 4.57434E-01    1.17153E+02
 4.66850E-01    1.16941E+02
 4.83125E-01    1.17527E+02
 4.89139E-01    1.17350E+02
 4.91903E-01    1.17193E+02
 5.00000E-01    1.16493E+02
 5.37779E-01    1.17342E+02
 5.56974E-01    1.17982E+02
 5.63011E-01    1.17662E+02
 5.85241E-01    1.17748E+02
 5.95997E-01    1.17548E+02
 6.00000E-01    1.17425E+02
 6.14819E-01    1.17509E+02
 6.18858E-01    1.17370E+02
 7.00000E-01    1.19125E+02
 8.00000E-01    1.21136E+02
 9.00000E-01    1.18349E+02
 1.00000E+00    1.15533E+02
 1.10000E+00    1.12451E+02
 1.20000E+00    1.09139E+02
 1.30000E+00    1.05647E+02
 1.40000E+00    1.02482E+02
 1.50000E+00    9.97302E+01
 1.60000E+00    9.73909E+01
 1.70000E+00    9.54271E+01
 1.80000E+00    9.38010E+01
 1.90000E+00    9.24873E+01
 2.00000E+00    9.14483E+01
 2.25000E+00    8.96185E+01
 2.50000E+00    8.92446E+01
 2.75000E+00    8.93258E+01
 3.00000E+00    9.00642E+01
 3.50000E+00    9.21727E+01
 4.00000E+00    9.46900E+01
 4.50000E+00    9.72760E+01
 5.00000E+00    9.99446E+01
 5.50000E+00    1.02667E+02
 6.00000E+00    1.05331E+02
 6.50000E+00    1.07769E+02
 7.00000E+00    1.09893E+02
 7.50000E+00    1.11608E+02
 8.00000E+00    1.12927E+02
 8.50000E+00    1.13827E+02
 9.00000E+00    1.14378E+02
 9.50000E+00    1.14612E+02
 1.00000E+01    1.14615E+02
 1.05000E+01    1.14443E+02
 1.10000E+01    1.14157E+02
 1.15000E+01    1.13802E+02
 1.20000E+01    1.13402E+02
 1.25000E+01    1.12972E+02
 1.30000E+01    1.12513E+02
 1.35000E+01    1.12021E+02
 1.40000E+01    1.11487E+02
 1.45000E+01    1.10896E+02
 1.50000E+01    1.10232E+02
 1.55000E+01    1.09488E+02
 1.60000E+01    1.08663E+02
 1.65000E+01    1.07770E+02
 1.70000E+01    1.06834E+02
 1.75000E+01    1.05884E+02
 1.80000E+01    1.04956E+02
 1.85000E+01    1.04077E+02
 1.90000E+01    1.03268E+02
 1.95000E+01    1.02540E+02
 2.00000E+01    1.01898E+02
