# n + Gd155 : (n,tot)   
# jendl4.0   N.Iwamoto,A.Zukeran,K.Shibata     EVAL-Dec09
# uncertainties: n
# # energies =   171
#   E(MeV)       xs(mb) 
 1.00000E-11    5.40468E+08
 1.00000E-07    2.80619E+06
 4.13990E-07    2.25462E+05
 5.31580E-07    1.31873E+05
 6.82560E-07    8.41904E+04
 8.76420E-07    6.24841E+04
 1.12540E-06    6.08927E+04
 1.44500E-06    1.26626E+05
 1.85540E-06    7.22930E+05
 2.37240E-06    2.31748E+06
 3.05900E-06    7.61925E+04
 3.92790E-06    2.08253E+04
 5.04350E-06    5.16591E+05
 6.47600E-06    2.51174E+05
 8.31530E-06    3.34233E+04
 1.06770E-05    1.22450E+05
 1.37100E-05    1.07907E+05
 1.76030E-05    4.00882E+05
 2.26030E-05    7.61557E+04
 2.92030E-05    3.00939E+05
 3.72670E-05    1.36427E+05
 4.78510E-05    1.67155E+05
 6.14420E-05    7.17108E+04
 7.88930E-05    5.24124E+04
 1.01300E-04    8.73266E+04
 1.30070E-04    1.34514E+05
 1.67020E-04    7.93695E+04
 2.14450E-04    5.93677E+04
 2.75360E-04    5.29897E+04
 3.53580E-04    4.73349E+04
 4.54000E-04    4.24825E+04
 5.82950E-04    3.81624E+04
 7.48520E-04    3.43541E+04
 9.61120E-04    3.10568E+04
 1.23410E-03    2.82526E+04
 1.58460E-03    2.57050E+04
 2.03470E-03    2.40519E+04
 2.24870E-03    2.31601E+04
 2.48520E-03    2.25114E+04
 2.61260E-03    2.20899E+04
 2.74650E-03    2.14735E+04
 3.03540E-03    2.06770E+04
 3.35460E-03    1.99101E+04
 3.70740E-03    1.90107E+04
 4.30740E-03    1.77994E+04
 5.53080E-03    1.64111E+04
 7.10170E-03    1.51782E+04
 9.11880E-03    1.41007E+04
 1.17090E-02    1.31932E+04
 1.50340E-02    1.23528E+04
 1.93050E-02    1.17680E+04
 2.18750E-02    1.14955E+04
 2.35790E-02    1.13625E+04
 2.41760E-02    1.12970E+04
 2.47880E-02    1.11994E+04
 2.60580E-02    1.10885E+04
 2.70000E-02    1.09739E+04
 2.85000E-02    1.07691E+04
 3.18280E-02    1.05531E+04
 3.43070E-02    1.02721E+04
 4.08680E-02    9.96276E+03
 4.63090E-02    9.72529E+03
 5.24750E-02    9.53922E+03
 5.65620E-02    9.31671E+03
 6.73790E-02    9.11646E+03
 7.20000E-02    8.98673E+03
 7.95000E-02    8.88162E+03
 8.25000E-02    8.81705E+03
 8.65170E-02    8.68699E+03
 9.80370E-02    8.51370E+03
 1.11090E-01    8.40429E+03
 1.16790E-01    8.33734E+03
 1.22770E-01    8.27269E+03
 1.29070E-01    8.21402E+03
 1.35690E-01    8.15253E+03
 1.42640E-01    8.08787E+03
 1.49960E-01    8.02638E+03
 1.57640E-01    7.97305E+03
 1.65730E-01    7.91932E+03
 1.74220E-01    7.87422E+03
 1.83160E-01    7.82844E+03
 1.92550E-01    7.78035E+03
 2.02420E-01    7.72978E+03
 2.12800E-01    7.67993E+03
 2.23710E-01    7.63651E+03
 2.35180E-01    7.59135E+03
 2.47240E-01    7.53058E+03
 2.73240E-01    7.48908E+03
 2.87250E-01    7.46834E+03
 2.94520E-01    7.45866E+03
 2.97200E-01    7.45479E+03
 2.98500E-01    7.45017E+03
 3.01970E-01    7.41649E+03
 3.33730E-01    7.35597E+03
 3.68830E-01    7.31674E+03
 3.87740E-01    7.28958E+03
 4.07620E-01    7.27025E+03
 4.50490E-01    7.25478E+03
 4.97870E-01    7.24217E+03
 5.23400E-01    7.23319E+03
 5.50230E-01    7.22375E+03
 5.78440E-01    7.21382E+03
 6.08100E-01    7.20338E+03
 6.39280E-01    7.19614E+03
 6.72060E-01    7.19316E+03
 7.06510E-01    7.19004E+03
 7.42740E-01    7.18675E+03
 7.80820E-01    7.18330E+03
 8.20850E-01    7.17968E+03
 8.62940E-01    7.17586E+03
 9.07180E-01    7.17151E+03
 9.61640E-01    7.16728E+03
 1.00260E+00    7.15827E+03
 1.10800E+00    7.13601E+03
 1.16480E+00    7.11775E+03
 1.22460E+00    7.09857E+03
 1.28730E+00    7.07672E+03
 1.35340E+00    7.04440E+03
 1.42270E+00    7.00899E+03
 1.49570E+00    6.97174E+03
 1.57240E+00    6.93231E+03
 1.65300E+00    6.88318E+03
 1.73770E+00    6.82813E+03
 1.82680E+00    6.77022E+03
 1.92050E+00    6.70933E+03
 2.01900E+00    6.64527E+03
 2.12250E+00    6.57690E+03
 2.23130E+00    6.51707E+03
 2.30690E+00    6.47995E+03
 2.34570E+00    6.46103E+03
 2.36530E+00    6.44824E+03
 2.38520E+00    6.41579E+03
 2.46600E+00    6.34894E+03
 2.59240E+00    6.26504E+03
 2.72530E+00    6.17685E+03
 2.86500E+00    6.08918E+03
 3.01190E+00    6.00324E+03
 3.16640E+00    5.91293E+03
 3.32870E+00    5.77825E+03
 3.67880E+00    5.59941E+03
 4.06570E+00    5.42519E+03
 4.49330E+00    5.29923E+03
 4.72370E+00    5.22042E+03
 4.96590E+00    5.14309E+03
 5.22050E+00    5.07688E+03
 5.48810E+00    5.01150E+03
 5.76950E+00    4.95736E+03
 6.06530E+00    4.90963E+03
 6.37630E+00    4.87802E+03
 6.59240E+00    4.85970E+03
 6.70320E+00    4.84389E+03
 7.04690E+00    4.82475E+03
 7.40820E+00    4.81830E+03
 7.78800E+00    4.82386E+03
 8.18730E+00    4.83866E+03
 8.60710E+00    4.86156E+03
 9.04840E+00    4.89444E+03
 9.51230E+00    4.93500E+03
 1.00000E+01    4.98090E+03
 1.05130E+01    5.03297E+03
 1.10520E+01    5.08802E+03
 1.16180E+01    5.14385E+03
 1.22140E+01    5.19789E+03
 1.28400E+01    5.24722E+03
 1.34990E+01    5.27938E+03
 1.38400E+01    5.29767E+03
 1.41910E+01    5.31271E+03
 1.45500E+01    5.32422E+03
 1.49180E+01    5.33413E+03
 1.56830E+01    5.33251E+03
 1.64870E+01    5.31246E+03
