# n + Gd155 : (n,h)     
# jendl4.0   N.Iwamoto,A.Zukeran,K.Shibata     EVAL-Dec09
# uncertainties: n
# # energies =    55
#   E(MeV)       xs(mb) 
 6.50412E+00    0.00000E+00
 6.51167E+00    1.30400E-33
 6.52635E+00    5.76860E-33
 6.53989E+00    1.12980E-32
 6.54078E+00    1.16880E-32
 6.58796E+00    3.48660E-32
 6.59675E+00    3.93790E-32
 6.60279E+00    4.25760E-32
 6.60858E+00    4.57140E-32
 6.61003E+00    4.65170E-32
 6.65120E+00    6.96490E-32
 6.65965E+00    7.44310E-32
 6.67670E+00    8.41160E-32
 6.68031E+00    8.61740E-32
 6.68139E+00    8.67910E-32
 6.69117E+00    9.24000E-32
 6.73586E+00    1.18070E-31
 6.77166E+00    1.38650E-31
 6.77730E+00    1.41890E-31
 6.78406E+00    1.45780E-31
 6.78407E+00    1.45780E-31
 6.81942E+00    1.66120E-31
 6.82077E+00    1.66890E-31
 6.82714E+00    1.70560E-31
 6.83028E+00    1.72360E-31
 6.83318E+00    1.74030E-31
 6.83339E+00    1.74150E-31
 6.84052E+00    1.78250E-31
 6.86257E+00    1.90930E-31
 6.86262E+00    1.90960E-31
 6.86564E+00    1.92700E-31
 8.50000E+00    1.13280E-30
 9.00000E+00    1.13390E-29
 9.50000E+00    1.95260E-25
 1.00000E+01    3.00480E-22
 1.05000E+01    8.87740E-20
 1.10000E+01    8.02490E-18
 1.15000E+01    3.01090E-16
 1.20000E+01    5.85760E-15
 1.25000E+01    7.06200E-14
 1.30000E+01    7.83930E-13
 1.35000E+01    9.32320E-12
 1.40000E+01    1.02210E-10
 1.45000E+01    8.89200E-10
 1.50000E+01    5.97370E-09
 1.55000E+01    3.13560E-08
 1.60000E+01    1.38710E-07
 1.65000E+01    4.74920E-07
 1.70000E+01    1.54866E-06
 1.75000E+01    4.18401E-06
 1.80000E+01    1.03744E-05
 1.85000E+01    2.37851E-05
 1.90000E+01    5.07776E-05
 1.95000E+01    9.81459E-05
 2.00000E+01    1.87410E-04
