# n + Gd155 : (n,n')    
# jendl.ad   N.Iwamoto                         EVAL-Apr14
# uncertainties: n
# # energies =   113
#   E(MeV)       xs(mb) 
 6.04017E-02    0.00000E+00
 7.00000E-02    1.85441E+02
 8.00000E-02    2.35432E+02
 8.71105E-02    2.60578E+02
 9.00000E-02    3.49202E+02
 1.00000E-01    4.40262E+02
 1.02998E-01    4.58551E+02
 1.05997E-01    4.76853E+02
 1.08281E-01    5.49410E+02
 1.10000E-01    5.73680E+02
 1.18767E-01    6.58500E+02
 1.20000E-01    6.82106E+02
 1.21838E-01    7.02806E+02
 1.30000E-01    7.71962E+02
 1.40000E-01    8.38221E+02
 1.47021E-01    8.78369E+02
 1.50000E-01    8.98404E+02
 1.60000E-01    9.51481E+02
 1.70000E-01    9.96159E+02
 1.80000E-01    1.03506E+03
 1.90000E-01    1.06964E+03
 2.00000E-01    1.10027E+03
 2.15747E-01    1.14181E+03
 2.25000E-01    1.16287E+03
 2.31627E-01    1.17684E+03
 2.50000E-01    1.21246E+03
 2.53345E-01    1.21861E+03
 2.68383E-01    1.24852E+03
 2.70372E-01    1.26442E+03
 2.75000E-01    1.30453E+03
 2.84410E-01    1.34485E+03
 2.88873E-01    1.36047E+03
 3.00000E-01    1.43639E+03
 3.23471E-01    1.51516E+03
 3.28211E-01    1.53899E+03
 3.52717E-01    1.62850E+03
 3.70028E-01    1.67543E+03
 3.94871E-01    1.74294E+03
 3.96094E-01    1.74532E+03
 4.00000E-01    1.75550E+03
 4.26169E-01    1.81207E+03
 4.26569E-01    1.81346E+03
 4.30019E-01    1.82110E+03
 4.53496E-01    1.87680E+03
 4.53497E-01    1.87680E+03
 4.54310E-01    1.88182E+03
 4.56624E-01    1.89267E+03
 4.57434E-01    1.89537E+03
 4.66850E-01    1.92578E+03
 4.83125E-01    1.96171E+03
 4.89139E-01    1.97678E+03
 4.91903E-01    1.98298E+03
 5.00000E-01    2.00264E+03
 5.37779E-01    2.06269E+03
 5.56974E-01    2.08524E+03
 5.63011E-01    2.09277E+03
 5.85241E-01    2.11987E+03
 5.95997E-01    2.13310E+03
 6.00000E-01    2.13989E+03
 6.14819E-01    2.15657E+03
 6.18858E-01    2.16084E+03
 7.00000E-01    2.24518E+03
 8.00000E-01    2.32314E+03
 9.00000E-01    2.39920E+03
 1.00000E+00    2.46674E+03
 1.10000E+00    2.52513E+03
 1.20000E+00    2.57342E+03
 1.30000E+00    2.61325E+03
 1.40000E+00    2.64585E+03
 1.50000E+00    2.67227E+03
 1.60000E+00    2.69361E+03
 1.70000E+00    2.71097E+03
 1.80000E+00    2.72521E+03
 1.90000E+00    2.73694E+03
 2.00000E+00    2.74676E+03
 2.25000E+00    2.76785E+03
 2.50000E+00    2.78210E+03
 2.75000E+00    2.79809E+03
 3.00000E+00    2.81295E+03
 3.50000E+00    2.83532E+03
 4.00000E+00    2.83992E+03
 4.50000E+00    2.82581E+03
 5.00000E+00    2.80169E+03
 5.50000E+00    2.77153E+03
 6.00000E+00    2.74081E+03
 6.50000E+00    2.71111E+03
 7.00000E+00    2.57449E+03
 7.50000E+00    2.21351E+03
 8.00000E+00    1.84936E+03
 8.50000E+00    1.54980E+03
 9.00000E+00    1.31072E+03
 9.50000E+00    1.12723E+03
 1.00000E+01    9.90915E+02
 1.05000E+01    8.90336E+02
 1.10000E+01    8.14802E+02
 1.15000E+01    7.56317E+02
 1.20000E+01    7.09489E+02
 1.25000E+01    6.70860E+02
 1.30000E+01    6.38217E+02
 1.35000E+01    6.10086E+02
 1.40000E+01    5.85556E+02
 1.45000E+01    5.64056E+02
 1.50000E+01    5.44656E+02
 1.55000E+01    5.28263E+02
 1.60000E+01    5.11522E+02
 1.65000E+01    4.97567E+02
 1.70000E+01    4.84811E+02
 1.75000E+01    4.72937E+02
 1.80000E+01    4.61634E+02
 1.85000E+01    4.51743E+02
 1.90000E+01    4.43206E+02
 1.95000E+01    4.34725E+02
 2.00000E+01    4.26886E+02
