# n + Be  9 : (n,g)     
# jendl.ad   K.Shibata                         EVAL-Feb09
# uncertainties: n
# # energies =    69
#   E(MeV)       xs(mb) 
 1.00000E-10    5.92795E+01
 5.00000E-09    1.61408E+01
 1.00000E-08    1.22241E+01
 1.50000E-08    1.02705E+01
 2.00000E-08    9.03604E+00
 2.50000E-08    8.16356E+00
 3.00000E-08    7.50422E+00
 3.50000E-08    6.89949E+00
 4.20000E-08    6.31071E+00
 5.00000E-08    5.82098E+00
 5.80000E-08    5.41024E+00
 6.70000E-08    4.99290E+00
 8.00000E-08    4.51831E+00
 1.00000E-07    3.93164E+00
 1.40000E-07    3.39311E+00
 1.80000E-07    3.02990E+00
 2.20000E-07    2.79030E+00
 2.50000E-07    2.62698E+00
 2.80000E-07    2.50972E+00
 3.00000E-07    2.42730E+00
 3.20000E-07    2.33564E+00
 3.50000E-07    2.20915E+00
 4.00000E-07    2.02131E+00
 5.00000E-07    1.80796E+00
 6.25000E-07    1.61768E+00
 7.80000E-07    1.49733E+00
 8.50000E-07    1.44070E+00
 9.10000E-07    1.40118E+00
 9.50000E-07    1.37829E+00
 9.72000E-07    1.36210E+00
 9.96000E-07    1.34577E+00
 1.02000E-06    1.32970E+00
 1.04500E-06    1.31360E+00
 1.07100E-06    1.29776E+00
 1.09700E-06    1.28242E+00
 1.12300E-06    1.26747E+00
 1.15000E-06    1.22208E+00
 1.30000E-06    1.14384E+00
 1.50000E-06    1.01578E+00
 2.10000E-06    8.84660E-01
 2.60000E-06    7.90360E-01
 3.30000E-06    7.09476E-01
 4.00000E-06    5.43788E-01
 9.87700E-06    3.82371E-01
 1.59680E-05    2.95690E-01
 2.77000E-05    2.24511E-01
 4.80520E-05    1.74536E-01
 7.55014E-05    1.31943E-01
 1.48728E-04    8.91687E-02
 3.67262E-04    5.67469E-02
 9.06898E-04    4.01735E-02
 1.42510E-03    3.20458E-02
 2.23945E-03    2.55668E-02
 3.51910E-03    2.03927E-02
 5.53000E-03    1.60830E-02
 9.11800E-03    1.25255E-02
 1.50300E-02    9.75470E-03
 2.47800E-02    7.59781E-03
 4.08500E-02    5.91768E-03
 6.73400E-02    4.60917E-03
 1.11000E-01    3.58946E-03
 1.83000E-01    2.79520E-03
 3.02000E-01    2.17393E-03
 5.00000E-01    1.69307E-03
 8.21000E-01    1.31993E-03
 1.35300E+00    1.02822E-03
 2.23100E+00    8.00684E-04
 3.67900E+00    6.23553E-04
 6.06500E+00    4.85557E-04
