# n + Be  9 : (n,tot)   
# jendl.ad   K.Shibata                         EVAL-Feb09
# uncertainties: n
# # energies =    69
#   E(MeV)       xs(mb) 
 1.00000E-10    5.93041E+01
 5.00000E-09    1.61472E+01
 1.00000E-08    1.22292E+01
 1.50000E-08    1.02749E+01
 2.00000E-08    9.03966E+00
 2.50000E-08    8.16714E+00
 3.00000E-08    7.50734E+00
 3.50000E-08    6.90238E+00
 4.20000E-08    6.31348E+00
 5.00000E-08    5.82344E+00
 5.80000E-08    5.41241E+00
 6.70000E-08    4.99521E+00
 8.00000E-08    4.52009E+00
 1.00000E-07    3.93250E+00
 1.40000E-07    3.39358E+00
 1.80000E-07    3.03004E+00
 2.20000E-07    2.79072E+00
 2.50000E-07    2.62748E+00
 2.80000E-07    2.51012E+00
 3.00000E-07    2.42758E+00
 3.20000E-07    2.33587E+00
 3.50000E-07    2.20925E+00
 4.00000E-07    2.02158E+00
 5.00000E-07    1.80835E+00
 6.25000E-07    1.61816E+00
 7.80000E-07    1.49765E+00
 8.50000E-07    1.44088E+00
 9.10000E-07    1.40138E+00
 9.50000E-07    1.37840E+00
 9.72000E-07    1.36227E+00
 9.96000E-07    1.34598E+00
 1.02000E-06    1.33038E+00
 1.04500E-06    1.31418E+00
 1.07100E-06    1.29783E+00
 1.09700E-06    1.28285E+00
 1.12300E-06    1.26787E+00
 1.15000E-06    1.22222E+00
 1.30000E-06    1.14382E+00
 1.50000E-06    1.01563E+00
 2.10000E-06    8.84451E-01
 2.60000E-06    7.90199E-01
 3.30000E-06    7.09363E-01
 4.00000E-06    5.43833E-01
 9.87700E-06    3.82412E-01
 1.59680E-05    2.95677E-01
 2.77000E-05    2.24517E-01
 4.80520E-05    1.74599E-01
 7.55014E-05    1.31985E-01
 1.48728E-04    8.92632E-02
 3.67262E-04    5.68838E-02
 9.06898E-04    4.03203E-02
 1.42510E-03    3.21219E-02
 2.23945E-03    2.56549E-02
 3.51910E-03    2.04354E-02
 5.53000E-03    1.61271E-02
 9.11800E-03    1.25706E-02
 1.50300E-02    9.78432E-03
 2.47800E-02    7.61274E-03
 4.08500E-02    5.93468E-03
 6.73400E-02    4.62002E-03
 1.11000E-01    3.60195E-03
 1.83000E-01    2.80466E-03
 3.02000E-01    2.18045E-03
 5.00000E-01    1.26345E-02
 8.21000E-01    1.93793E+00
 1.35300E+00    3.17311E+01
 2.23100E+00    3.14095E+02
 3.67900E+00    6.02436E+02
 6.06500E+00    5.99029E+02
