# n + Be  9 : (n,a)     
# jendl.ad   K.Shibata                         EVAL-Feb09
# uncertainties: n
# # energies =    69
#   E(MeV)       xs(mb) 
 6.69700E-01    0.00000E+00
 8.41804E-01    6.27232E-02
 8.50249E-01    6.38567E-02
 8.58695E-01    6.63976E-02
 8.67140E-01    7.04797E-02
 8.75585E-01    7.62371E-02
 8.84030E-01    8.38042E-02
 8.92475E-01    9.33150E-02
 9.00920E-01    1.04904E-01
 9.09365E-01    1.18704E-01
 9.26256E-01    1.53480E-01
 9.43145E-01    1.98711E-01
 9.60035E-01    2.55474E-01
 9.76925E-01    3.24841E-01
 9.93815E-01    4.07886E-01
 1.01070E+00    5.05680E-01
 1.02759E+00    6.19299E-01
 1.04449E+00    7.49814E-01
 1.06138E+00    8.98313E-01
 1.08249E+00    1.12191E+00
 1.10360E+00    1.39743E+00
 1.12471E+00    1.72377E+00
 1.14583E+00    2.09991E+00
 1.18805E+00    2.99718E+00
 1.23028E+00    4.08070E+00
 1.27250E+00    5.34185E+00
 1.31473E+00    6.77211E+00
 1.39918E+00    1.01055E+01
 1.48363E+00    1.40124E+01
 1.56808E+00    1.84241E+01
 1.73698E+00    2.84880E+01
 1.90588E+00    3.89263E+01
 2.07478E+00    4.92096E+01
 2.24369E+00    6.00503E+01
 2.41259E+00    7.21609E+01
 2.54771E+00    8.33578E+01
 2.68283E+00    9.42222E+01
 2.81795E+00    1.01824E+02
 2.95307E+00    1.03233E+02
 3.12197E+00    1.00039E+02
 3.29087E+00    9.72992E+01
 3.45978E+00    9.52904E+01
 3.62868E+00    9.42891E+01
 3.89892E+00    8.97108E+01
 4.16916E+00    8.01825E+01
 4.43940E+00    7.00676E+01
 4.57453E+00    6.61538E+01
 4.70965E+00    6.37298E+01
 5.14879E+00    5.87583E+01
 5.58793E+00    5.34252E+01
 6.02708E+00    4.75034E+01
 6.46622E+00    4.07657E+01
 6.83780E+00    3.59768E+01
 7.20939E+00    3.33165E+01
 7.58097E+00    3.20135E+01
 7.95255E+00    3.12965E+01
 9.03352E+00    2.87031E+01
 1.01145E+01    2.50410E+01
 1.11955E+01    2.05420E+01
 1.22764E+01    1.54383E+01
 1.27493E+01    1.33099E+01
 1.32223E+01    1.15590E+01
 1.36952E+01    1.01431E+01
 1.41681E+01    9.01945E+00
 1.46410E+01    8.14563E+00
 1.51140E+01    7.47896E+00
 1.60598E+01    6.59680E+00
 1.79515E+01    5.44468E+00
 2.00000E+01    5.00000E+00
