# n + Be  9 : (n,g)     
# jendl.ad   K.Shibata                         EVAL-Feb09
# uncertainties: n
# # energies =   171
#   E(MeV)       xs(mb) 
 1.00000E-11    9.18090E+01
 1.00000E-07    3.05838E+00
 4.13990E-07    1.97382E+00
 5.31580E-07    1.74193E+00
 6.82560E-07    1.53721E+00
 8.76420E-07    1.35662E+00
 1.12540E-06    1.19734E+00
 1.44500E-06    1.05690E+00
 1.85540E-06    9.33807E-01
 2.37240E-06    8.24218E-01
 3.05900E-06    7.26497E-01
 3.92790E-06    6.41175E-01
 5.04350E-06    5.65827E-01
 6.47600E-06    4.99348E-01
 8.31530E-06    4.40664E-01
 1.06770E-05    3.88872E-01
 1.37100E-05    3.43197E-01
 1.76030E-05    3.02889E-01
 2.26030E-05    2.66866E-01
 2.92030E-05    2.35486E-01
 3.72670E-05    2.08155E-01
 4.78510E-05    1.83686E-01
 6.14420E-05    1.62105E-01
 7.88930E-05    1.43062E-01
 1.01300E-04    1.26240E-01
 1.30070E-04    1.11407E-01
 1.67020E-04    9.83236E-02
 2.14450E-04    8.67567E-02
 2.75360E-04    7.65780E-02
 3.53580E-04    6.75714E-02
 4.54000E-04    5.96334E-02
 5.82950E-04    5.26237E-02
 7.48520E-04    4.64460E-02
 9.61120E-04    4.09815E-02
 1.23410E-03    3.61724E-02
 1.58460E-03    3.19167E-02
 2.03470E-03    2.92253E-02
 2.24870E-03    2.78002E-02
 2.48520E-03    2.67750E-02
 2.61260E-03    2.61193E-02
 2.74650E-03    2.51682E-02
 3.03540E-03    2.39282E-02
 3.35460E-03    2.27639E-02
 3.70740E-03    2.13865E-02
 4.30740E-03    1.93581E-02
 5.53080E-03    1.70869E-02
 7.10170E-03    1.50772E-02
 9.11880E-03    1.33057E-02
 1.17090E-02    1.17429E-02
 1.50340E-02    1.03621E-02
 1.93050E-02    9.43079E-03
 2.18750E-02    8.96894E-03
 2.35790E-02    8.74617E-03
 2.41760E-02    8.63692E-03
 2.47880E-02    8.47863E-03
 2.60580E-02    8.29621E-03
 2.70000E-02    8.12056E-03
 2.85000E-02    7.79009E-03
 3.18280E-02    7.43514E-03
 3.43070E-02    6.98734E-03
 4.08680E-02    6.48148E-03
 4.63090E-02    6.08794E-03
 5.24750E-02    5.79412E-03
 5.65620E-02    5.44207E-03
 6.73790E-02    5.12207E-03
 7.20000E-02    4.91460E-03
 7.95000E-02    4.74867E-03
 8.25000E-02    4.65050E-03
 8.65170E-02    4.45495E-03
 9.80370E-02    4.18563E-03
 1.11090E-01    4.00473E-03
 1.16790E-01    3.90517E-03
 1.22770E-01    3.80946E-03
 1.29070E-01    3.71524E-03
 1.35690E-01    3.62495E-03
 1.42640E-01    3.53451E-03
 1.49960E-01    3.44685E-03
 1.57640E-01    3.36133E-03
 1.65730E-01    3.27943E-03
 1.74220E-01    3.19793E-03
 1.83160E-01    3.11886E-03
 1.92550E-01    3.04252E-03
 2.02420E-01    2.96693E-03
 2.12800E-01    2.89371E-03
 2.23710E-01    2.82233E-03
 2.35180E-01    2.75205E-03
 2.47240E-01    2.65143E-03
 2.73240E-01    2.55608E-03
 2.87250E-01    2.50746E-03
 2.94520E-01    2.48476E-03
 2.97200E-01    2.47570E-03
 2.98500E-01    2.46568E-03
 3.01970E-01    2.39897E-03
 3.33730E-01    2.28221E-03
 3.68830E-01    2.19774E-03
 3.87740E-01    2.14351E-03
 4.07620E-01    2.06506E-03
 4.50490E-01    1.96415E-03
 4.97870E-01    1.89159E-03
 5.23400E-01    1.84551E-03
 5.50230E-01    1.80124E-03
 5.78440E-01    1.75509E-03
 6.08100E-01    1.71196E-03
 6.39280E-01    1.66912E-03
 6.72060E-01    1.62845E-03
 7.06510E-01    1.58800E-03
 7.42740E-01    1.54880E-03
 7.80820E-01    1.51046E-03
 8.20850E-01    1.47330E-03
 8.62940E-01    1.43691E-03
 9.07180E-01    1.39843E-03
 9.61640E-01    1.36406E-03
 1.00260E+00    1.31673E-03
 1.10800E+00    1.26806E-03
 1.16480E+00    1.23665E-03
 1.22460E+00    1.20624E-03
 1.28730E+00    1.17634E-03
 1.35340E+00    1.14847E-03
 1.42270E+00    1.11952E-03
 1.49570E+00    1.09143E-03
 1.57240E+00    1.06435E-03
 1.65300E+00    1.03832E-03
 1.73770E+00    1.01259E-03
 1.82680E+00    9.87482E-04
 1.92050E+00    9.63229E-04
 2.01900E+00    9.39426E-04
 2.12250E+00    9.16313E-04
 2.23130E+00    8.97294E-04
 2.30690E+00    8.86336E-04
 2.34570E+00    8.80750E-04
 2.36530E+00    8.76977E-04
 2.38520E+00    8.67681E-04
 2.46600E+00    8.50008E-04
 2.59240E+00    8.29048E-04
 2.72530E+00    8.09352E-04
 2.86500E+00    7.88767E-04
 3.01190E+00    7.69187E-04
 3.16640E+00    7.50003E-04
 3.32870E+00    7.22629E-04
 3.67880E+00    6.87301E-04
 4.06570E+00    6.53869E-04
 4.49330E+00    6.29771E-04
 4.72370E+00    6.14061E-04
 4.96590E+00    5.98961E-04
 5.22050E+00    5.84311E-04
 5.48810E+00    5.70339E-04
 5.76950E+00    5.55749E-04
 6.06530E+00    5.42064E-04
 6.37630E+00    5.30688E-04
 6.59240E+00    5.24144E-04
 6.70320E+00    5.15633E-04
 7.04690E+00    5.02821E-04
 7.40820E+00    4.90399E-04
 7.78800E+00    4.78287E-04
 8.18730E+00    4.66486E-04
 8.60710E+00    4.54982E-04
 9.04840E+00    4.43700E-04
 9.51230E+00    4.32628E-04
 1.00000E+01    4.21951E-04
 1.05130E+01    4.11476E-04
 1.10520E+01    4.01362E-04
 1.16180E+01    3.91375E-04
 1.22140E+01    3.81698E-04
 1.28400E+01    3.72274E-04
 1.34990E+01    3.65523E-04
 1.38400E+01    3.61073E-04
 1.41910E+01    3.56507E-04
 1.45500E+01    3.51895E-04
 1.49180E+01    3.45459E-04
 1.56830E+01    3.36844E-04
 1.64870E+01    3.28544E-04
