# n + Ag  0 : (n,h)
# jendl4.0   N.Iwamoto,K.Shibata               EVAL-Dec09
# uncertainties: n
# # energies =    46
#   E(MeV)          xs(mb) 
 7.48597E+00    0.00000E+00
 7.61698E+00    9.33465E-22
 7.63651E+00    1.07841E-21
 7.88223E+00    3.01200E-21
 7.94614E+00    3.51510E-21
 7.95980E+00    3.62261E-21
 7.96444E+00    3.65916E-21
 7.99004E+00    3.86066E-21
 8.01492E+00    4.13737E-21
 8.09441E+00    5.15565E-21
 8.13070E+00    5.63645E-21
 8.21716E+00    6.80542E-21
 8.22715E+00    6.94124E-21
 8.25524E+00    7.32329E-21
 8.27636E+00    7.61152E-21
 8.27931E+00    7.65144E-21
 8.28841E+00    7.77585E-21
 8.29956E+00    7.92826E-21
 8.31068E+00    8.08014E-21
 8.32380E+00    8.25951E-21
 8.32750E+00    8.30979E-21
 8.33658E+00    8.43420E-21
 8.36014E+00    8.75664E-21
 8.36349E+00    8.80226E-21
 8.38884E+00    9.14958E-21
 1.00000E+01    3.20657E-20
 1.05000E+01    2.00740E-17
 1.10000E+01    3.27146E-15
 1.15000E+01    1.56372E-13
 1.20000E+01    3.16489E-12
 1.25000E+01    3.50752E-11
 1.30000E+01    2.63155E-10
 1.35000E+01    1.65748E-09
 1.40000E+01    9.96301E-09
 1.45000E+01    5.56176E-08
 1.50000E+01    2.68150E-07
 1.55000E+01    1.03082E-06
 1.60000E+01    3.50032E-06
 1.65000E+01    1.05941E-05
 1.70000E+01    2.87354E-05
 1.75000E+01    7.15817E-05
 1.80000E+01    1.54359E-04
 1.85000E+01    3.12588E-04
 1.90000E+01    6.03313E-04
 1.95000E+01    1.10050E-03
 2.00000E+01    1.84225E-03
