# n + Au197 : (n,xt)    
# jendl.ad   N.Iwamoto                         EVAL-Apr14
# 
# # energies =    94
#   E(MeV)        xs(mb) 
 7.77471E-02    0.00000E+00
 8.00000E-02    0.00000E+00
 9.00000E-02    0.00000E+00
 1.00000E-01    0.00000E+00
 1.05000E-01    0.00000E+00
 1.10000E-01    0.00000E+00
 1.20000E-01    0.00000E+00
 1.30000E-01    0.00000E+00
 1.40000E-01    0.00000E+00
 1.50000E-01    0.00000E+00
 1.60000E-01    0.00000E+00
 1.70000E-01    0.00000E+00
 1.80000E-01    0.00000E+00
 1.90000E-01    0.00000E+00
 2.00000E-01    0.00000E+00
 2.25000E-01    0.00000E+00
 2.50000E-01    0.00000E+00
 2.70162E-01    0.00000E+00
 2.75000E-01    0.00000E+00
 2.80419E-01    0.00000E+00
 3.00000E-01    0.00000E+00
 4.00000E-01    0.00000E+00
 4.11245E-01    0.00000E+00
 5.00000E-01    0.00000E+00
 5.05073E-01    0.00000E+00
 5.50304E-01    0.00000E+00
 5.85986E-01    0.00000E+00
 6.00000E-01    0.00000E+00
 7.00000E-01    0.00000E+00
 7.40473E-01    0.00000E+00
 8.00000E-01    0.00000E+00
 8.59881E-01    0.00000E+00
 8.86517E-01    0.00000E+00
 8.92658E-01    0.00000E+00
 9.00000E-01    0.00000E+00
 9.40793E-01    0.00000E+00
 9.52855E-01    0.00000E+00
 1.00000E+00    0.00000E+00
 1.05045E+00    0.00000E+00
 1.10000E+00    0.00000E+00
 1.12574E+00    0.00000E+00
 1.15639E+00    0.00000E+00
 1.20000E+00    0.00000E+00
 1.22353E+00    0.00000E+00
 1.22625E+00    0.00000E+00
 1.23730E+00    0.00000E+00
 1.24836E+00    0.00000E+00
 1.26947E+00    0.00000E+00
 1.30000E+00    0.00000E+00
 1.40000E+00    0.00000E+00
 1.50000E+00    0.00000E+00
 1.60000E+00    0.00000E+00
 1.70000E+00    0.00000E+00
 1.80000E+00    0.00000E+00
 1.90000E+00    0.00000E+00
 2.00000E+00    0.00000E+00
 2.25000E+00    0.00000E+00
 2.50000E+00    0.00000E+00
 2.75000E+00    0.00000E+00
 3.00000E+00    0.00000E+00
 3.50000E+00    0.00000E+00
 4.00000E+00    0.00000E+00
 4.50000E+00    0.00000E+00
 5.00000E+00    0.00000E+00
 5.50000E+00    5.93875E-30
 6.00000E+00    8.18453E-26
 6.50000E+00    1.65370E-25
 7.00000E+00    5.93100E-22
 7.50000E+00    1.99420E-17
 8.00000E+00    2.39620E-14
 8.50000E+00    3.80780E-12
 9.00000E+00    1.60500E-10
 9.50000E+00    2.71650E-09
 1.00000E+01    2.42560E-08
 1.05000E+01    1.42200E-07
 1.10000E+01    6.55520E-07
 1.15000E+01    2.96559E-06
 1.20000E+01    1.30303E-05
 1.25000E+01    5.16058E-05
 1.30000E+01    1.80751E-04
 1.35000E+01    5.52917E-04
 1.40000E+01    1.49208E-03
 1.45000E+01    3.59556E-03
 1.50000E+01    7.82226E-03
 1.55000E+01    1.54554E-02
 1.60000E+01    2.81326E-02
 1.65000E+01    4.66981E-02
 1.70000E+01    7.26348E-02
 1.75000E+01    1.06731E-01
 1.80000E+01    1.49191E-01
 1.85000E+01    1.99623E-01
 1.90000E+01    2.56511E-01
 1.95000E+01    3.20047E-01
 2.00000E+01    3.89553E-01
