# n + Au197 : (n,g)     
# jendl.ad   N.Iwamoto                         EVAL-Apr14
# uncertainties: n
# # energies =    69
#   E(MeV)       xs(mb) 
 1.00000E-10    6.82072E+05
 5.00000E-09    1.86224E+05
 1.00000E-08    1.41320E+05
 1.50000E-08    1.18977E+05
 2.00000E-08    1.04877E+05
 2.50000E-08    9.49320E+04
 3.00000E-08    8.74318E+04
 3.50000E-08    8.05850E+04
 4.20000E-08    7.39261E+04
 5.00000E-08    6.83935E+04
 5.80000E-08    6.37723E+04
 6.70000E-08    5.91100E+04
 8.00000E-08    5.38371E+04
 1.00000E-07    4.73659E+04
 1.40000E-07    4.15382E+04
 1.80000E-07    3.76965E+04
 2.20000E-07    3.52137E+04
 2.50000E-07    3.35590E+04
 2.80000E-07    3.23969E+04
 3.00000E-07    3.16053E+04
 3.20000E-07    3.07238E+04
 3.50000E-07    2.95414E+04
 4.00000E-07    2.78798E+04
 5.00000E-07    2.61812E+04
 6.25000E-07    2.49404E+04
 7.80000E-07    2.43511E+04
 8.50000E-07    2.41657E+04
 9.10000E-07    2.40766E+04
 9.50000E-07    2.40472E+04
 9.72000E-07    2.40314E+04
 9.96000E-07    2.40273E+04
 1.02000E-06    2.40333E+04
 1.04500E-06    2.40460E+04
 1.07100E-06    2.40700E+04
 1.09700E-06    2.41054E+04
 1.12300E-06    2.41454E+04
 1.15000E-06    2.43629E+04
 1.30000E-06    2.50579E+04
 1.50000E-06    2.80478E+04
 2.10000E-06    3.60954E+04
 2.60000E-06    5.55765E+04
 3.30000E-06    1.26807E+05
 4.00000E-06    1.56359E+06
 9.87700E-06    2.19494E+03
 1.59680E-05    5.12428E+02
 2.77000E-05    4.83094E+02
 4.80520E-05    6.96667E+04
 7.55014E-05    8.97096E+03
 1.48728E-04    1.62528E+04
 3.67262E-04    1.24108E+04
 9.06898E-04    6.88713E+03
 1.42510E-03    4.73269E+03
 2.23945E-03    3.02337E+03
 3.51910E-03    2.25725E+03
 5.53000E-03    1.57538E+03
 9.11800E-03    1.06996E+03
 1.50300E-02    7.27413E+02
 2.47800E-02    5.45971E+02
 4.08500E-02    4.23489E+02
 6.73400E-02    3.39660E+02
 1.11000E-01    2.80299E+02
 1.83000E-01    2.36948E+02
 3.02000E-01    1.63242E+02
 5.00000E-01    1.07263E+02
 8.21000E-01    7.99331E+01
 1.35300E+00    6.29104E+01
 2.23100E+00    2.65888E+01
 3.67900E+00    9.02195E+00
 6.06500E+00    2.72121E+00
