# n + Au197 : (n,t)     
# jendl.ad   N.Iwamoto                         EVAL-Apr14
# uncertainties: n
# # energies =    62
#   E(MeV)       xs(mb) 
 5.24948E+00    0.00000E+00
 5.34887E+00    2.35610E-30
 5.37992E+00    3.09220E-30
 5.45003E+00    4.75420E-30
 5.46196E+00    5.03700E-30
 5.47284E+00    5.29490E-30
 5.48997E+00    5.70100E-30
 5.51011E+00    6.17840E-30
 5.64063E+00    2.18100E-26
 5.67133E+00    2.69390E-26
 5.68369E+00    2.90040E-26
 5.68389E+00    2.90370E-26
 5.70144E+00    3.19690E-26
 5.70701E+00    3.28990E-26
 5.76016E+00    4.17780E-26
 5.77701E+00    4.45930E-26
 5.79124E+00    4.69710E-26
 5.79647E+00    4.78440E-26
 5.79955E+00    4.83590E-26
 5.81517E+00    5.09680E-26
 5.84340E+00    5.56840E-26
 5.86534E+00    5.93490E-26
 5.88284E+00    6.22730E-26
 5.88482E+00    6.26040E-26
 5.91708E+00    6.79930E-26
 5.91999E+00    6.84790E-26
 5.93095E+00    7.03100E-26
 5.94834E+00    7.32150E-26
 5.99281E+00    8.06440E-26
 6.01920E+00    8.50530E-26
 6.04654E+00    8.96200E-26
 6.04655E+00    8.96210E-26
 6.06817E+00    9.32330E-26
 6.07554E+00    9.44640E-26
 6.50000E+00    1.65370E-25
 7.00000E+00    5.93100E-22
 7.50000E+00    1.99420E-17
 8.00000E+00    2.39620E-14
 8.50000E+00    3.80780E-12
 9.00000E+00    1.60500E-10
 9.50000E+00    2.71650E-09
 1.00000E+01    2.42560E-08
 1.05000E+01    1.42200E-07
 1.10000E+01    6.55520E-07
 1.15000E+01    2.96559E-06
 1.20000E+01    1.30303E-05
 1.25000E+01    5.16058E-05
 1.30000E+01    1.80751E-04
 1.35000E+01    5.52917E-04
 1.40000E+01    1.49208E-03
 1.45000E+01    3.59556E-03
 1.50000E+01    7.82226E-03
 1.55000E+01    1.54554E-02
 1.60000E+01    2.81325E-02
 1.65000E+01    4.66976E-02
 1.70000E+01    7.26311E-02
 1.75000E+01    1.06712E-01
 1.80000E+01    1.49110E-01
 1.85000E+01    1.99333E-01
 1.90000E+01    2.55658E-01
 1.95000E+01    3.17735E-01
 2.00000E+01    3.84155E-01
