# n + Au197 : (n,d)     
# jendl.ad   N.Iwamoto                         EVAL-Apr14
# uncertainties: n
# # energies =    72
#   E(MeV)       xs(mb) 
 3.57627E+00    0.00000E+00
 3.93377E+00    1.40670E-21
 4.26849E+00    2.72380E-21
 4.45762E+00    3.46990E-21
 4.59651E+00    4.01790E-21
 4.71739E+00    4.76290E-21
 4.85298E+00    5.60160E-21
 4.87620E+00    5.74520E-21
 4.94482E+00    6.16970E-21
 4.95690E+00    6.24440E-21
 4.98618E+00    6.42560E-21
 5.00000E+00    6.51110E-21
 5.01333E+00    1.11090E-17
 5.03072E+00    2.55920E-17
 5.10988E+00    9.15230E-17
 5.11993E+00    9.98930E-17
 5.18897E+00    1.57400E-16
 5.19425E+00    1.61790E-16
 5.26212E+00    2.18320E-16
 5.26468E+00    2.20450E-16
 5.33991E+00    2.83110E-16
 5.38055E+00    3.16960E-16
 5.38780E+00    3.23000E-16
 5.40628E+00    3.38390E-16
 5.40883E+00    3.40510E-16
 5.41133E+00    3.42590E-16
 5.43308E+00    3.60710E-16
 5.43942E+00    3.65990E-16
 5.46891E+00    3.90550E-16
 5.47408E+00    3.94860E-16
 5.48771E+00    4.06210E-16
 5.50000E+00    4.16450E-16
 5.50463E+00    4.76760E-15
 5.51817E+00    1.74920E-14
 5.55526E+00    5.23480E-14
 5.57136E+00    6.74780E-14
 5.57467E+00    7.05890E-14
 5.58546E+00    8.07290E-14
 5.59254E+00    8.73820E-14
 5.59395E+00    8.87070E-14
 5.60046E+00    9.48250E-14
 5.63374E+00    1.26100E-13
 5.64179E+00    1.33670E-13
 6.00000E+00    4.70300E-13
 6.50000E+00    5.53560E-11
 7.00000E+00    1.68350E-09
 7.50000E+00    2.13730E-08
 8.00000E+00    1.56360E-07
 8.50000E+00    9.40960E-07
 9.00000E+00    6.16605E-06
 9.50000E+00    3.98898E-05
 1.00000E+01    2.14520E-04
 1.05000E+01    9.21577E-04
 1.10000E+01    3.23325E-03
 1.15000E+01    9.54260E-03
 1.20000E+01    2.43266E-02
 1.25000E+01    5.47172E-02
 1.30000E+01    1.10250E-01
 1.35000E+01    2.01683E-01
 1.40000E+01    3.38505E-01
 1.45000E+01    5.27361E-01
 1.50000E+01    7.70162E-01
 1.55000E+01    1.05780E+00
 1.60000E+01    1.40653E+00
 1.65000E+01    1.76090E+00
 1.70000E+01    2.22340E+00
 1.75000E+01    2.67311E+00
 1.80000E+01    3.16281E+00
 1.85000E+01    3.61399E+00
 1.90000E+01    4.07138E+00
 1.95000E+01    4.64212E+00
 2.00000E+01    5.14365E+00
