# n + Au197 : (n,n')    
# jendl.ad   N.Iwamoto                         EVAL-Apr14
# uncertainties: n
# # energies =    94
#   E(MeV)       xs(mb) 
 7.77471E-02    0.00000E+00
 8.00000E-02    7.16011E+01
 9.00000E-02    1.25139E+02
 1.00000E-01    1.50873E+02
 1.05000E-01    1.58530E+02
 1.10000E-01    1.66188E+02
 1.20000E-01    1.78185E+02
 1.30000E-01    1.88840E+02
 1.40000E-01    1.98577E+02
 1.50000E-01    2.08194E+02
 1.60000E-01    2.17710E+02
 1.70000E-01    2.27496E+02
 1.80000E-01    2.37894E+02
 1.90000E-01    2.48254E+02
 2.00000E-01    2.59118E+02
 2.25000E-01    2.74491E+02
 2.50000E-01    2.91834E+02
 2.70162E-01    3.07540E+02
 2.75000E-01    3.82716E+02
 2.80419E-01    4.11983E+02
 3.00000E-01    6.00273E+02
 4.00000E-01    9.12021E+02
 4.11245E-01    9.35054E+02
 5.00000E-01    1.12736E+03
 5.05073E-01    1.13611E+03
 5.50304E-01    1.26920E+03
 5.85986E-01    1.39091E+03
 6.00000E-01    1.44365E+03
 7.00000E-01    1.65069E+03
 7.40473E-01    1.71391E+03
 8.00000E-01    1.82263E+03
 8.59881E-01    1.89911E+03
 8.86517E-01    1.93574E+03
 8.92658E-01    1.94820E+03
 9.00000E-01    1.96204E+03
 9.40793E-01    2.01492E+03
 9.52855E-01    2.03435E+03
 1.00000E+00    2.10188E+03
 1.05045E+00    2.16001E+03
 1.10000E+00    2.21634E+03
 1.12574E+00    2.24064E+03
 1.15639E+00    2.26803E+03
 1.20000E+00    2.30732E+03
 1.22353E+00    2.32556E+03
 1.22625E+00    2.32875E+03
 1.23730E+00    2.33891E+03
 1.24836E+00    2.34807E+03
 1.26947E+00    2.36575E+03
 1.30000E+00    2.38999E+03
 1.40000E+00    2.45804E+03
 1.50000E+00    2.51824E+03
 1.60000E+00    2.59440E+03
 1.70000E+00    2.66093E+03
 1.80000E+00    2.72078E+03
 1.90000E+00    2.77256E+03
 2.00000E+00    2.81732E+03
 2.25000E+00    2.91014E+03
 2.50000E+00    2.98017E+03
 2.75000E+00    3.00880E+03
 3.00000E+00    3.02276E+03
 3.50000E+00    3.01550E+03
 4.00000E+00    3.00948E+03
 4.50000E+00    3.00034E+03
 5.00000E+00    2.97400E+03
 5.50000E+00    2.92863E+03
 6.00000E+00    2.87196E+03
 6.50000E+00    2.81485E+03
 7.00000E+00    2.76816E+03
 7.50000E+00    2.73784E+03
 8.00000E+00    2.72301E+03
 8.50000E+00    2.64308E+03
 9.00000E+00    2.26019E+03
 9.50000E+00    1.80716E+03
 1.00000E+01    1.41793E+03
 1.05000E+01    1.12075E+03
 1.10000E+01    9.09397E+02
 1.15000E+01    7.63238E+02
 1.20000E+01    6.61591E+02
 1.25000E+01    5.89680E+02
 1.30000E+01    5.35875E+02
 1.35000E+01    4.94875E+02
 1.40000E+01    4.61632E+02
 1.45000E+01    4.34907E+02
 1.50000E+01    4.12084E+02
 1.55000E+01    3.92881E+02
 1.60000E+01    3.75523E+02
 1.65000E+01    3.61203E+02
 1.70000E+01    3.47430E+02
 1.75000E+01    3.33652E+02
 1.80000E+01    3.22010E+02
 1.85000E+01    3.10654E+02
 1.90000E+01    2.99756E+02
 1.95000E+01    2.90324E+02
 2.00000E+01    2.80776E+02
