# n + Au197 : (n,tot)   
# jendl.ad   N.Iwamoto                         EVAL-Apr14
# uncertainties: n
# # energies =    69
#   E(MeV)       xs(mb) 
 1.00000E-10    6.82313E+05
 5.00000E-09    1.86234E+05
 1.00000E-08    1.41320E+05
 1.50000E-08    1.18979E+05
 2.00000E-08    1.04876E+05
 2.50000E-08    9.49343E+04
 3.00000E-08    8.74315E+04
 3.50000E-08    8.05831E+04
 4.20000E-08    7.39288E+04
 5.00000E-08    6.83944E+04
 5.80000E-08    6.37717E+04
 6.70000E-08    5.91084E+04
 8.00000E-08    5.38360E+04
 1.00000E-07    4.73655E+04
 1.40000E-07    4.15381E+04
 1.80000E-07    3.76964E+04
 2.20000E-07    3.52127E+04
 2.50000E-07    3.35593E+04
 2.80000E-07    3.23964E+04
 3.00000E-07    3.16046E+04
 3.20000E-07    3.07234E+04
 3.50000E-07    2.95408E+04
 4.00000E-07    2.78800E+04
 5.00000E-07    2.61833E+04
 6.25000E-07    2.49484E+04
 7.80000E-07    2.43557E+04
 8.50000E-07    2.41696E+04
 9.10000E-07    2.40773E+04
 9.50000E-07    2.40462E+04
 9.72000E-07    2.40319E+04
 9.96000E-07    2.40283E+04
 1.02000E-06    2.40360E+04
 1.04500E-06    2.40452E+04
 1.07100E-06    2.40685E+04
 1.09700E-06    2.41029E+04
 1.12300E-06    2.41461E+04
 1.15000E-06    2.43674E+04
 1.30000E-06    2.50609E+04
 1.50000E-06    2.80508E+04
 2.10000E-06    3.60811E+04
 2.60000E-06    5.55638E+04
 3.30000E-06    1.26780E+05
 4.00000E-06    1.56355E+06
 9.87700E-06    2.19470E+03
 1.59680E-05    5.12364E+02
 2.77000E-05    4.83038E+02
 4.80520E-05    6.96681E+04
 7.55014E-05    8.97109E+03
 1.48728E-04    1.62535E+04
 3.67262E-04    1.24112E+04
 9.06898E-04    6.88730E+03
 1.42510E-03    4.73294E+03
 2.23945E-03    3.02304E+03
 3.51910E-03    2.25689E+03
 5.53000E-03    1.57503E+03
 9.11800E-03    1.06973E+03
 1.50300E-02    7.27312E+02
 2.47800E-02    5.45869E+02
 4.08500E-02    4.23385E+02
 6.73400E-02    3.39624E+02
 1.11000E-01    2.80186E+02
 1.83000E-01    2.36892E+02
 3.02000E-01    1.63203E+02
 5.00000E-01    1.07241E+02
 8.21000E-01    7.99279E+01
 1.35300E+00    6.29142E+01
 2.23100E+00    2.65873E+01
 3.67900E+00    9.02116E+00
 6.06500E+00    2.33968E+03
