# n + Te120 : (n,t)     
# jendl.ad   K.Shibata (JAEA)                  EVAL-Nov13
# uncertainties: n
# # energies =    53
#   E(MeV)       xs(mb) 
 8.35334E+00    0.00000E+00
 8.38486E+00    2.12810E-21
 8.40458E+00    3.45940E-21
 8.43610E+00    5.58750E-21
 8.47233E+00    8.03360E-21
 8.52091E+00    1.13130E-20
 8.59334E+00    1.62040E-20
 8.60544E+00    1.70200E-20
 8.62543E+00    3.72900E-19
 8.63771E+00    5.91520E-19
 8.68039E+00    1.35140E-18
 8.68072E+00    1.35720E-18
 8.72645E+00    2.17140E-18
 8.75489E+00    2.67770E-18
 8.76023E+00    2.77280E-18
 8.86864E+00    4.70280E-18
 8.89848E+00    5.23400E-18
 8.91535E+00    5.53440E-18
 8.92635E+00    5.73020E-18
 8.92803E+00    5.76010E-18
 8.96476E+00    6.41400E-18
 8.97729E+00    6.63710E-18
 8.98080E+00    6.69960E-18
 8.98667E+00    6.80410E-18
 8.98767E+00    6.82190E-18
 8.99627E+00    6.97500E-18
 9.04208E+00    7.79050E-18
 9.07133E+00    8.31130E-18
 9.10082E+00    8.83630E-18
 9.12017E+00    9.18080E-18
 9.14829E+00    9.68140E-18
 9.16844E+00    1.00400E-17
 9.18140E+00    1.02710E-17
 9.18191E+00    1.02800E-17
 9.19409E+00    1.04970E-17
 9.19773E+00    1.05620E-17
 9.21291E+00    1.08320E-17
 9.22400E+00    1.10290E-17
 9.23419E+00    1.12110E-17
 9.25098E+00    1.15100E-17
 9.50000E+00    1.59430E-17
 1.00000E+01    1.59340E-14
 1.10000E+01    3.97720E-09
 1.20000E+01    2.18073E-06
 1.30000E+01    1.18474E-04
 1.40000E+01    1.80306E-03
 1.45000E+01    5.04405E-03
 1.50000E+01    1.22658E-02
 1.60000E+01    4.93066E-02
 1.70000E+01    1.30707E-01
 1.80000E+01    2.60633E-01
 1.90000E+01    4.33274E-01
 2.00000E+01    6.43290E-01
