# n + Te120 : (n,g)     
# jendl.ad   K.Shibata (JAEA)                  EVAL-Nov13
# uncertainties: n
# # energies =    69
#   E(MeV)       xs(mb) 
 1.00000E-10    4.58038E+03
 5.00000E-09    1.24732E+03
 1.00000E-08    9.44985E+02
 1.50000E-08    7.93982E+02
 2.00000E-08    6.98503E+02
 2.50000E-08    6.31094E+02
 3.00000E-08    5.80170E+02
 3.50000E-08    5.33400E+02
 4.20000E-08    4.87833E+02
 5.00000E-08    4.49990E+02
 5.80000E-08    4.18252E+02
 6.70000E-08    3.86007E+02
 8.00000E-08    3.49257E+02
 1.00000E-07    3.03873E+02
 1.40000E-07    2.62220E+02
 1.80000E-07    2.34124E+02
 2.20000E-07    2.15637E+02
 2.50000E-07    2.02992E+02
 2.80000E-07    1.93964E+02
 3.00000E-07    1.87602E+02
 3.20000E-07    1.80473E+02
 3.50000E-07    1.70708E+02
 4.00000E-07    1.56196E+02
 5.00000E-07    1.39722E+02
 6.25000E-07    1.25023E+02
 7.80000E-07    1.15711E+02
 8.50000E-07    1.11316E+02
 9.10000E-07    1.08274E+02
 9.50000E-07    1.06491E+02
 9.72000E-07    1.05252E+02
 9.96000E-07    1.03994E+02
 1.02000E-06    1.02740E+02
 1.04500E-06    1.01494E+02
 1.07100E-06    1.00283E+02
 1.09700E-06    9.90927E+01
 1.12300E-06    9.79389E+01
 1.15000E-06    9.44483E+01
 1.30000E-06    8.83886E+01
 1.50000E-06    7.84921E+01
 2.10000E-06    6.83624E+01
 2.60000E-06    6.10732E+01
 3.30000E-06    5.48124E+01
 4.00000E-06    4.20175E+01
 9.87700E-06    2.95446E+01
 1.59680E-05    2.28478E+01
 2.77000E-05    2.34672E+04
 4.80520E-05    2.36794E+04
 7.55014E-05    1.57567E+04
 1.48728E-04    8.91136E+03
 3.67262E-04    4.49866E+03
 9.06898E-04    2.70222E+03
 1.42510E-03    2.02995E+03
 2.23945E-03    1.55491E+03
 3.51910E-03    1.22706E+03
 5.53000E-03    1.00906E+03
 9.11800E-03    8.20250E+02
 1.50300E-02    6.74826E+02
 2.47800E-02    5.32601E+02
 4.08500E-02    4.10738E+02
 6.73400E-02    3.18097E+02
 1.11000E-01    2.64191E+02
 1.83000E-01    2.37435E+02
 3.02000E-01    2.41313E+02
 5.00000E-01    2.22493E+02
 8.21000E-01    1.99768E+02
 1.35300E+00    1.92604E+02
 2.23100E+00    2.00175E+02
 3.67900E+00    1.21928E+02
 6.06500E+00    1.87214E+01
