# n + Te120 : (n,p)m    
# jendl.ad   K.Shibata (JAEA)                  EVAL-Nov13
# uncertainties: n
# # energies =    48
#   E(MeV)       xs(mb) 
 1.99540E-01    0.00000E+00
 1.21138E+00    7.57970E-14
 1.50000E+00    3.62770E-11
 1.54799E+00    8.56890E-11
 1.62697E+00    3.13850E-10
 1.79117E+00    3.47240E-09
 1.83039E+00    5.71850E-09
 1.87896E+00    9.82460E-09
 1.94059E+00    1.98780E-08
 1.95289E+00    2.28030E-08
 2.00000E+00    3.79750E-08
 2.10058E+00    1.08480E-07
 2.22000E+00    3.33270E-07
 2.37784E+00    1.25643E-06
 2.44348E+00    2.06808E-06
 2.44853E+00    2.13697E-06
 2.46617E+00    2.41152E-06
 2.47646E+00    2.58807E-06
 2.48208E+00    2.68939E-06
 2.50000E+00    3.02965E-06
 2.54110E+00    3.99770E-06
 2.58890E+00    5.43852E-06
 3.00000E+00    5.32671E-05
 3.50000E+00    4.26528E-04
 4.00000E+00    2.04428E-03
 4.50000E+00    6.73136E-03
 5.00000E+00    1.79934E-02
 5.50000E+00    3.90340E-02
 6.00000E+00    8.37742E-02
 6.50000E+00    1.67537E-01
 7.00000E+00    3.14133E-01
 7.50000E+00    5.53329E-01
 8.00000E+00    9.15868E-01
 8.50000E+00    1.43286E+00
 9.00000E+00    2.13243E+00
 9.50000E+00    3.04175E+00
 1.00000E+01    4.18208E+00
 1.10000E+01    7.22637E+00
 1.20000E+01    1.13614E+01
 1.30000E+01    1.64479E+01
 1.40000E+01    2.21844E+01
 1.45000E+01    2.50975E+01
 1.50000E+01    2.79415E+01
 1.60000E+01    3.31965E+01
 1.70000E+01    3.77646E+01
 1.80000E+01    4.10947E+01
 1.90000E+01    4.33550E+01
 2.00000E+01    4.40536E+01
