# n + Te120 : (n,h)     
# jendl.ad   K.Shibata (JAEA)                  EVAL-Nov13
# uncertainties: n
# # energies =    56
#   E(MeV)       xs(mb) 
 4.64719E+00    0.00000E+00
 5.88721E+00    1.06130E-22
 6.42029E+00    1.51870E-22
 6.70726E+00    1.76500E-22
 6.72141E+00    1.77760E-22
 6.78503E+00    1.83490E-22
 6.94672E+00    1.98160E-22
 6.98795E+00    2.01900E-22
 6.99160E+00    2.02880E-22
 6.99480E+00    2.04270E-22
 7.00000E+00    2.07350E-22
 7.07063E+00    1.36560E-19
 7.07545E+00    1.45870E-19
 7.15700E+00    3.03310E-19
 7.16508E+00    3.18910E-19
 7.19848E+00    3.83390E-19
 7.24376E+00    4.70810E-19
 7.24587E+00    4.74880E-19
 7.34706E+00    6.70240E-19
 7.39512E+00    7.63030E-19
 7.40398E+00    7.80130E-19
 7.40824E+00    7.88350E-19
 7.44447E+00    8.58300E-19
 7.48789E+00    9.42130E-19
 7.48806E+00    9.42460E-19
 7.50000E+00    9.65510E-19
 7.55011E+00    4.47870E-17
 7.56050E+00    5.38730E-17
 7.57549E+00    6.69810E-17
 7.60156E+00    8.97790E-17
 7.60587E+00    9.35490E-17
 7.63556E+00    1.19510E-16
 7.64419E+00    1.27060E-16
 7.66335E+00    1.43820E-16
 7.67187E+00    1.51270E-16
 7.68777E+00    1.65170E-16
 7.69260E+00    1.69390E-16
 7.72119E+00    1.94400E-16
 7.72503E+00    1.97750E-16
 7.73013E+00    2.02210E-16
 8.00000E+00    4.38210E-16
 8.50000E+00    4.19520E-14
 9.00000E+00    1.35130E-12
 9.50000E+00    1.96530E-11
 1.00000E+01    1.57150E-10
 1.10000E+01    2.82070E-09
 1.20000E+01    1.70920E-08
 1.30000E+01    8.33760E-08
 1.40000E+01    9.27740E-07
 1.45000E+01    3.05419E-06
 1.50000E+01    9.29757E-06
 1.60000E+01    5.85127E-05
 1.70000E+01    2.93093E-04
 1.80000E+01    9.85476E-04
 1.90000E+01    2.90150E-03
 2.00000E+01    6.88252E-03
