# n + Nb 93 : (n,h)m    
# jendl.ad   A.Ichihara                        EVAL-APR16
# uncertainties: n
# # energies =    21
#   E(MeV)       xs(mb) 
 8.36644E+00    0.00000E+00
 1.05000E+01    1.17320E-18
 1.10000E+01    2.41720E-15
 1.15000E+01    5.16100E-13
 1.20000E+01    2.58870E-11
 1.25000E+01    4.89130E-10
 1.30000E+01    4.78110E-09
 1.35000E+01    3.11710E-08
 1.40000E+01    1.66020E-07
 1.45000E+01    7.97320E-07
 1.50000E+01    3.42552E-06
 1.55000E+01    1.28258E-05
 1.60000E+01    4.16234E-05
 1.65000E+01    1.18393E-04
 1.70000E+01    2.99979E-04
 1.75000E+01    6.87678E-04
 1.80000E+01    1.43167E-03
 1.85000E+01    2.64753E-03
 1.90000E+01    4.85157E-03
 1.95000E+01    8.33780E-03
 2.00000E+01    1.35202E-02
