# n + Nb 93 : (n,np)    
# jendl.ad   A.Ichihara                        EVAL-APR16
# uncertainties: n
# # energies =    27
#   E(MeV)       xs(mb) 
 6.10793E+00    0.00000E+00
 7.50000E+00    2.57178E-05
 8.00000E+00    3.53174E-03
 8.50000E+00    7.50976E-02
 9.00000E+00    5.77824E-01
 9.50000E+00    1.22077E+00
 1.00000E+01    1.17417E+00
 1.05000E+01    1.29370E+00
 1.10000E+01    1.65248E+00
 1.15000E+01    2.38050E+00
 1.20000E+01    3.61793E+00
 1.25000E+01    5.50101E+00
 1.30000E+01    8.02177E+00
 1.35000E+01    1.12048E+01
 1.40000E+01    1.49258E+01
 1.45000E+01    1.90540E+01
 1.50000E+01    2.34059E+01
 1.55000E+01    2.79910E+01
 1.60000E+01    3.26618E+01
 1.65000E+01    3.73992E+01
 1.70000E+01    4.21680E+01
 1.75000E+01    4.69490E+01
 1.80000E+01    5.17369E+01
 1.85000E+01    5.65300E+01
 1.90000E+01    6.12309E+01
 1.95000E+01    6.57955E+01
 2.00000E+01    6.99603E+01
