# n + Nb 93 : (n,h)     
# jendl.ad   A.Ichihara                        EVAL-APR16
# uncertainties: n
# # energies =    23
#   E(MeV)       xs(mb) 
 7.80483E+00    0.00000E+00
 8.36644E+00    3.51440E-19
 1.00000E+01    2.27190E-18
 1.05000E+01    2.03260E-15
 1.10000E+01    3.55860E-13
 1.15000E+01    1.59950E-11
 1.20000E+01    2.91410E-10
 1.25000E+01    2.85960E-09
 1.30000E+01    1.82700E-08
 1.35000E+01    8.93720E-08
 1.40000E+01    3.91940E-07
 1.45000E+01    1.67858E-06
 1.50000E+01    6.83057E-06
 1.55000E+01    2.50086E-05
 1.60000E+01    8.04688E-05
 1.65000E+01    2.28212E-04
 1.70000E+01    5.77846E-04
 1.75000E+01    1.32488E-03
 1.80000E+01    2.78375E-03
 1.85000E+01    5.14360E-03
 1.90000E+01    9.42889E-03
 1.95000E+01    1.62098E-02
 2.00000E+01    2.62929E-02
