# n + Nb 93 : (n,n')m   
# jendl.ad   A.Ichihara                        EVAL-APR16
# uncertainties: n
# # energies =    75
#   E(MeV)       xs(mb) 
 3.11546E-02    0.00000E+00
 3.50000E-02    2.21568E-02
 4.00000E-02    5.61354E-02
 5.00000E-02    1.31142E-01
 6.00000E-02    2.21349E-01
 7.00000E-02    3.30229E-01
 8.00000E-02    4.54825E-01
 9.00000E-02    5.95152E-01
 1.00000E-01    7.50470E-01
 1.25000E-01    1.20083E+00
 1.50000E-01    1.73293E+00
 1.75000E-01    2.34515E+00
 2.00000E-01    3.03338E+00
 2.25000E-01    3.79507E+00
 2.50000E-01    4.62250E+00
 2.75000E-01    5.52127E+00
 3.00000E-01    6.48523E+00
 3.50000E-01    8.59034E+00
 4.00000E-01    1.09261E+01
 5.00000E-01    1.61681E+01
 6.00000E-01    2.20304E+01
 6.94459E-01    2.79869E+01
 7.00000E-01    2.95344E+01
 7.51986E-01    3.85783E+01
 8.00000E-01    4.06551E+01
 8.17359E-01    4.17594E+01
 8.19208E-01    4.14860E+01
 9.00000E-01    7.16739E+01
 9.60142E-01    8.47453E+01
 9.80531E-01    8.82485E+01
 9.89568E-01    8.93870E+01
 1.00000E+00    9.06244E+01
 1.09442E+00    9.87798E+01
 1.25000E+00    1.05133E+02
 1.50000E+00    1.28868E+02
 1.75000E+00    1.64548E+02
 2.00000E+00    1.93562E+02
 2.25000E+00    2.14412E+02
 2.50000E+00    2.26483E+02
 2.75000E+00    2.36456E+02
 3.00000E+00    2.45197E+02
 3.50000E+00    2.46667E+02
 4.00000E+00    2.44235E+02
 4.50000E+00    2.41829E+02
 5.00000E+00    2.40920E+02
 5.50000E+00    2.41694E+02
 6.00000E+00    2.43095E+02
 6.50000E+00    2.44607E+02
 7.00000E+00    2.45720E+02
 7.50000E+00    2.46250E+02
 8.00000E+00    2.46278E+02
 8.50000E+00    2.45923E+02
 9.00000E+00    2.45033E+02
 9.50000E+00    2.25888E+02
 1.00000E+01    1.89552E+02
 1.05000E+01    1.59255E+02
 1.10000E+01    1.33946E+02
 1.15000E+01    1.14746E+02
 1.20000E+01    9.95907E+01
 1.25000E+01    8.87079E+01
 1.30000E+01    8.01797E+01
 1.35000E+01    7.38360E+01
 1.40000E+01    6.89497E+01
 1.45000E+01    6.51435E+01
 1.50000E+01    6.20949E+01
 1.55000E+01    5.96319E+01
 1.60000E+01    5.75655E+01
 1.65000E+01    5.57545E+01
 1.70000E+01    5.41466E+01
 1.75000E+01    5.26758E+01
 1.80000E+01    5.13697E+01
 1.85000E+01    5.00867E+01
 1.90000E+01    4.88558E+01
 1.95000E+01    4.76847E+01
 2.00000E+01    4.65622E+01
