# n + Nb 93 : (n,tot)   
# jendl.ad   A.Ichihara                        EVAL-APR16
# uncertainties: n
# # energies =   171
#   E(MeV)       xs(mb) 
 1.00000E-11    1.23584E+04
 1.00000E-07    4.10142E+02
 4.13990E-07    2.63557E+02
 5.31580E-07    2.32084E+02
 6.82560E-07    2.04211E+02
 8.76420E-07    1.79595E+02
 1.12540E-06    1.57730E+02
 1.44500E-06    1.38419E+02
 1.85540E-06    1.21346E+02
 2.37240E-06    1.06056E+02
 3.05900E-06    9.23822E+01
 3.92790E-06    8.02578E+01
 5.04350E-06    6.94649E+01
 6.47600E-06    5.98257E+01
 8.31530E-06    5.12322E+01
 1.06770E-05    4.35703E+01
 1.37100E-05    3.68340E+01
 1.76030E-05    3.10882E+01
 2.26030E-05    2.72330E+01
 2.92030E-05    8.31844E+02
 3.72670E-05    4.36164E+02
 4.78510E-05    1.53050E+01
 6.14420E-05    1.16281E+01
 7.88930E-05    3.16949E+02
 1.01300E-04    2.49513E+03
 1.30070E-04    1.27806E+01
 1.67020E-04    6.08440E+03
 2.14450E-04    2.97626E+02
 2.75360E-04    1.19586E+03
 3.53580E-04    3.45771E+03
 4.54000E-04    4.01296E+02
 5.82950E-04    1.72462E+03
 7.48520E-04    1.26924E+03
 9.61120E-04    2.60419E+03
 1.23410E-03    2.07437E+03
 1.58460E-03    1.31834E+03
 2.03470E-03    1.83775E+03
 2.24870E-03    1.50159E+03
 2.48520E-03    6.48216E+02
 2.61260E-03    2.12535E+03
 2.74650E-03    6.62605E+02
 3.03540E-03    3.44788E+02
 3.35460E-03    1.66276E+03
 3.70740E-03    1.16117E+03
 4.30740E-03    7.67876E+02
 5.53080E-03    1.01904E+03
 7.10170E-03    6.60786E+02
 9.11880E-03    5.73204E+02
 1.17090E-02    4.92104E+02
 1.50340E-02    4.18038E+02
 1.93050E-02    3.67425E+02
 2.18750E-02    3.42402E+02
 2.35790E-02    3.30329E+02
 2.41760E-02    3.24538E+02
 2.47880E-02    3.15872E+02
 2.60580E-02    3.06224E+02
 2.70000E-02    2.96422E+02
 2.85000E-02    2.79139E+02
 3.18280E-02    2.61658E+02
 3.43070E-02    2.39456E+02
 4.08680E-02    2.13912E+02
 4.63090E-02    1.94661E+02
 5.24750E-02    1.80587E+02
 5.65620E-02    1.64597E+02
 6.73790E-02    1.50453E+02
 7.20000E-02    1.41701E+02
 7.95000E-02    1.34874E+02
 8.25000E-02    1.30910E+02
 8.65170E-02    1.23282E+02
 9.80370E-02    1.13314E+02
 1.11090E-01    1.07025E+02
 1.16790E-01    1.03610E+02
 1.22770E-01    1.00344E+02
 1.29070E-01    9.75879E+01
 1.35690E-01    9.48819E+01
 1.42640E-01    9.22900E+01
 1.49960E-01    8.97487E+01
 1.57640E-01    8.72826E+01
 1.65730E-01    8.49013E+01
 1.74220E-01    8.26362E+01
 1.83160E-01    8.05455E+01
 1.92550E-01    7.85154E+01
 2.02420E-01    7.66370E+01
 2.12800E-01    7.48504E+01
 2.23710E-01    7.32736E+01
 2.35180E-01    7.19759E+01
 2.47240E-01    6.99353E+01
 2.73240E-01    6.78900E+01
 2.87250E-01    6.69604E+01
 2.94520E-01    6.65274E+01
 2.97200E-01    6.63545E+01
 2.98500E-01    6.61630E+01
 3.01970E-01    6.51306E+01
 3.33730E-01    6.33229E+01
 3.68830E-01    6.20226E+01
 3.87740E-01    6.11448E+01
 4.07620E-01    6.02417E+01
 4.50490E-01    5.91256E+01
 4.97870E-01    5.84056E+01
 5.23400E-01    5.81325E+01
 5.50230E-01    5.78466E+01
 5.78440E-01    5.75565E+01
 6.08100E-01    5.74558E+01
 6.39280E-01    5.74298E+01
 6.72060E-01    5.73300E+01
 7.06510E-01    5.68979E+01
 7.42740E-01    5.59146E+01
 7.80820E-01    5.36673E+01
 8.20850E-01    5.15663E+01
 8.62940E-01    4.95046E+01
 9.07180E-01    4.80971E+01
 9.61640E-01    4.28561E+01
 1.00260E+00    3.38638E+01
 1.10800E+00    2.78462E+01
 1.16480E+00    2.48285E+01
 1.22460E+00    2.20187E+01
 1.28730E+00    1.90559E+01
 1.35340E+00    1.64419E+01
 1.42270E+00    1.41848E+01
 1.49570E+00    1.26977E+01
 1.57240E+00    1.19257E+01
 1.65300E+00    1.11970E+01
 1.73770E+00    1.05887E+01
 1.82680E+00    1.01391E+01
 1.92050E+00    9.70135E+00
 2.01900E+00    9.11674E+00
 2.12250E+00    8.48946E+00
 2.23130E+00    8.04737E+00
 2.30690E+00    7.89714E+00
 2.34570E+00    7.82406E+00
 2.36530E+00    7.77570E+00
 2.38520E+00    7.66116E+00
 2.46600E+00    7.36798E+00
 2.59240E+00    6.87382E+00
 2.72530E+00    6.44153E+00
 2.86500E+00    6.11347E+00
 3.01190E+00    5.76841E+00
 3.16640E+00    5.41784E+00
 3.32870E+00    4.93134E+00
 3.67880E+00    4.34938E+00
 4.06570E+00    3.86014E+00
 4.49330E+00    3.55035E+00
 4.72370E+00    3.38069E+00
 4.96590E+00    3.23568E+00
 5.22050E+00    3.11649E+00
 5.48810E+00    3.02760E+00
 5.76950E+00    2.97622E+00
 6.06530E+00    2.95955E+00
 6.37630E+00    2.97322E+02
 6.59240E+00    1.79042E+03
 6.70320E+00    1.85549E+03
 7.04690E+00    1.85725E+03
 7.40820E+00    1.85719E+03
 7.78800E+00    1.85488E+03
 8.18730E+00    1.85073E+03
 8.60710E+00    1.84804E+03
 9.04840E+00    1.84314E+03
 9.51230E+00    1.83058E+03
 1.00000E+01    1.82207E+03
 1.05130E+01    1.81299E+03
 1.10520E+01    1.80367E+03
 1.16180E+01    1.79436E+03
 1.22140E+01    1.78536E+03
 1.28400E+01    1.77688E+03
 1.34990E+01    1.77093E+03
 1.38400E+01    1.76720E+03
 1.41910E+01    1.76372E+03
 1.45500E+01    1.76044E+03
 1.49180E+01    1.75598E+03
 1.56830E+01    1.75092E+03
 1.64870E+01    1.74684E+03
