# n + Nb 93 : (n,n')    
# jendl.ad   A.Ichihara                        EVAL-APR16
# uncertainties: n
# # energies =    76
#   E(MeV)       xs(mb) 
 3.11546E-02    0.00000E+00
 3.50000E-02    2.21568E-02
 4.00000E-02    5.61354E-02
 5.00000E-02    1.31142E-01
 6.00000E-02    2.21349E-01
 7.00000E-02    3.30229E-01
 8.00000E-02    4.54825E-01
 9.00000E-02    5.95152E-01
 1.00000E-01    7.50470E-01
 1.12500E-01    9.75650E-01
 1.25000E-01    1.20192E+00
 1.50000E-01    1.73398E+00
 1.75000E-01    2.34615E+00
 2.00000E-01    3.03432E+00
 2.25000E-01    3.80152E+00
 2.50000E-01    4.62912E+00
 2.75000E-01    5.52781E+00
 3.00000E-01    6.49164E+00
 3.50000E-01    8.61156E+00
 4.00000E-01    1.09474E+01
 5.00000E-01    1.62194E+01
 6.00000E-01    2.21339E+01
 6.94459E-01    2.81719E+01
 7.00000E-01    2.97197E+01
 7.51986E-01    3.88682E+01
 8.00000E-01    1.51239E+02
 8.17359E-01    1.94946E+02
 8.19208E-01    2.00106E+02
 9.00000E-01    4.30697E+02
 9.60142E-01    5.36385E+02
 9.80531E-01    6.10099E+02
 9.89568E-01    6.41490E+02
 1.00000E+00    6.96472E+02
 1.09442E+00    1.06397E+03
 1.25000E+00    1.44519E+03
 1.50000E+00    1.78954E+03
 1.75000E+00    1.92474E+03
 2.00000E+00    2.01543E+03
 2.25000E+00    2.08713E+03
 2.50000E+00    2.10933E+03
 2.75000E+00    2.11331E+03
 3.00000E+00    2.08817E+03
 3.50000E+00    2.00995E+03
 4.00000E+00    1.92985E+03
 4.50000E+00    1.87274E+03
 5.00000E+00    1.84302E+03
 5.50000E+00    1.83604E+03
 6.00000E+00    1.83900E+03
 6.50000E+00    1.84516E+03
 7.00000E+00    1.84907E+03
 7.50000E+00    1.84863E+03
 8.00000E+00    1.84413E+03
 8.50000E+00    1.83671E+03
 9.00000E+00    1.82691E+03
 9.50000E+00    1.63874E+03
 1.00000E+01    1.32902E+03
 1.05000E+01    1.07341E+03
 1.10000E+01    8.70339E+02
 1.15000E+01    7.12202E+02
 1.20000E+01    5.90409E+02
 1.25000E+01    5.02977E+02
 1.30000E+01    4.39061E+02
 1.35000E+01    3.92785E+02
 1.40000E+01    3.58410E+02
 1.45000E+01    3.32459E+02
 1.50000E+01    3.12359E+02
 1.55000E+01    2.96629E+02
 1.60000E+01    2.83964E+02
 1.65000E+01    2.72707E+02
 1.70000E+01    2.62974E+02
 1.75000E+01    2.54264E+02
 1.80000E+01    2.46573E+02
 1.85000E+01    2.39456E+02
 1.90000E+01    2.32570E+02
 1.95000E+01    2.26092E+02
 2.00000E+01    2.19934E+02
