# n + Nb 93 : (n,d)     
# jendl.ad   A.Ichihara                        EVAL-APR16
# uncertainties: n
# # energies =    36
#   E(MeV)       xs(mb) 
 3.85921E+00    0.00000E+00
 4.80384E+00    4.32080E-12
 5.00000E+00    1.13900E-11
 5.25705E+00    5.94830E-09
 5.37091E+00    8.58010E-09
 5.50000E+00    1.15650E-08
 5.72659E+00    4.66160E-07
 6.00000E+00    1.01470E-06
 6.50000E+00    1.79999E-05
 7.00000E+00    1.27999E-04
 7.50000E+00    5.27312E-04
 8.00000E+00    1.58887E-03
 8.50000E+00    4.27051E-03
 9.00000E+00    1.18928E-02
 9.50000E+00    3.41837E-02
 1.00000E+01    9.22574E-02
 1.05000E+01    2.18903E-01
 1.10000E+01    4.58698E-01
 1.15000E+01    8.50521E-01
 1.20000E+01    1.41968E+00
 1.25000E+01    2.17125E+00
 1.30000E+01    3.09296E+00
 1.35000E+01    4.16276E+00
 1.40000E+01    5.35553E+00
 1.45000E+01    6.64706E+00
 1.50000E+01    8.01569E+00
 1.55000E+01    9.44329E+00
 1.60000E+01    1.09137E+01
 1.65000E+01    1.22349E+01
 1.70000E+01    1.34757E+01
 1.75000E+01    1.49239E+01
 1.80000E+01    1.63002E+01
 1.85000E+01    1.75803E+01
 1.90000E+01    1.87584E+01
 1.95000E+01    1.98396E+01
 2.00000E+01    2.08278E+01
