# n + Nb 93 : (n,na)g   
# jendl.ad   A.Ichihara                        EVAL-APR16
# uncertainties: n
# # energies =    35
#   E(MeV)       xs(mb) 
 1.94969E+00    0.00000E+00
 2.86852E+00    1.75740E-21
 4.00000E+00    1.09880E-18
 4.50000E+00    3.44030E-14
 5.00000E+00    3.47390E-11
 5.50000E+00    6.19490E-09
 6.00000E+00    3.40330E-07
 6.50000E+00    8.09640E-06
 7.00000E+00    1.05742E-04
 7.50000E+00    8.70909E-04
 8.00000E+00    5.02416E-03
 8.50000E+00    2.20119E-02
 9.00000E+00    7.71081E-02
 9.50000E+00    1.32742E-01
 1.00000E+01    1.22426E-01
 1.05000E+01    1.23011E-01
 1.10000E+01    1.41776E-01
 1.15000E+01    1.86253E-01
 1.20000E+01    2.70787E-01
 1.25000E+01    4.13209E-01
 1.30000E+01    6.25558E-01
 1.35000E+01    9.24408E-01
 1.40000E+01    1.30442E+00
 1.45000E+01    1.78230E+00
 1.50000E+01    2.34360E+00
 1.55000E+01    2.97789E+00
 1.60000E+01    3.66914E+00
 1.65000E+01    4.43025E+00
 1.70000E+01    5.22014E+00
 1.75000E+01    6.01367E+00
 1.80000E+01    6.78949E+00
 1.85000E+01    7.53326E+00
 1.90000E+01    8.23509E+00
 1.95000E+01    8.89492E+00
 2.00000E+01    9.51530E+00
