# n + Nb 93 : (n,na)m   
# jendl.ad   A.Ichihara                        EVAL-APR16
# uncertainties: n
# # energies =    32
#   E(MeV)       xs(mb) 
 2.86852E+00    0.00000E+00
 5.00000E+00    8.25030E-18
 5.50000E+00    1.04080E-13
 6.00000E+00    8.84000E-11
 6.50000E+00    1.46690E-08
 7.00000E+00    7.47380E-07
 7.50000E+00    1.66011E-05
 8.00000E+00    2.01619E-04
 8.50000E+00    1.56163E-03
 9.00000E+00    8.58056E-03
 9.50000E+00    1.89553E-02
 1.00000E+01    2.08024E-02
 1.05000E+01    2.82266E-02
 1.10000E+01    4.83103E-02
 1.15000E+01    8.92616E-02
 1.20000E+01    1.62834E-01
 1.25000E+01    2.91776E-01
 1.30000E+01    5.02231E-01
 1.35000E+01    8.20976E-01
 1.40000E+01    1.26438E+00
 1.45000E+01    1.84550E+00
 1.50000E+01    2.53650E+00
 1.55000E+01    3.30086E+00
 1.60000E+01    4.16038E+00
 1.65000E+01    5.03570E+00
 1.70000E+01    5.89770E+00
 1.75000E+01    6.72962E+00
 1.80000E+01    7.52564E+00
 1.85000E+01    8.28512E+00
 1.90000E+01    9.00752E+00
 1.95000E+01    9.69600E+00
 2.00000E+01    1.03526E+01
