# n + Zn 64 : (n,g)     
# jendl.ad   N.Iwamoto                         EVAL-Apr14
# uncertainties: n
# # energies =    69
#   E(MeV)       xs(mb) 
 1.00000E-10    5.49591E+03
 5.00000E-09    1.49645E+03
 1.00000E-08    1.13343E+03
 1.50000E-08    9.52484E+02
 2.00000E-08    8.38092E+02
 2.50000E-08    7.57203E+02
 3.00000E-08    6.96023E+02
 3.50000E-08    6.39879E+02
 4.20000E-08    5.85262E+02
 5.00000E-08    5.39901E+02
 5.80000E-08    5.01820E+02
 6.70000E-08    4.63063E+02
 8.00000E-08    4.19014E+02
 1.00000E-07    3.64613E+02
 1.40000E-07    3.14569E+02
 1.80000E-07    2.80881E+02
 2.20000E-07    2.58730E+02
 2.50000E-07    2.43576E+02
 2.80000E-07    2.32688E+02
 3.00000E-07    2.25039E+02
 3.20000E-07    2.16534E+02
 3.50000E-07    2.04801E+02
 4.00000E-07    1.87449E+02
 5.00000E-07    1.67644E+02
 6.25000E-07    1.49993E+02
 7.80000E-07    1.38880E+02
 8.50000E-07    1.33635E+02
 9.10000E-07    1.29966E+02
 9.50000E-07    1.27833E+02
 9.72000E-07    1.26328E+02
 9.96000E-07    1.24816E+02
 1.02000E-06    1.23325E+02
 1.04500E-06    1.21830E+02
 1.07100E-06    1.20357E+02
 1.09700E-06    1.18944E+02
 1.12300E-06    1.17545E+02
 1.15000E-06    1.13344E+02
 1.30000E-06    1.06075E+02
 1.50000E-06    9.42254E+01
 2.10000E-06    8.20851E+01
 2.60000E-06    7.33311E+01
 3.30000E-06    6.58566E+01
 4.00000E-06    5.05210E+01
 9.87700E-06    3.56010E+01
 1.59680E-05    2.76157E+01
 2.77000E-05    2.10879E+01
 4.80520E-05    1.65482E+01
 7.55014E-05    1.27788E+01
 1.48728E-04    3.56234E+02
 3.67262E-04    7.07319E+00
 9.06898E-04    7.88734E+00
 1.42510E-03    2.15762E+01
 2.23945E-03    6.45984E+02
 3.51910E-03    4.39555E+02
 5.53000E-03    6.64749E+01
 9.11800E-03    1.05785E+02
 1.50300E-02    8.40050E+01
 2.47800E-02    6.36957E+01
 4.08500E-02    3.49986E+01
 6.73400E-02    3.24319E+01
 1.11000E-01    2.76722E+01
 1.83000E-01    2.30137E+01
 3.02000E-01    2.01046E+01
 5.00000E-01    1.92817E+01
 8.21000E-01    1.53374E+01
 1.35300E+00    8.41881E+00
 2.23100E+00    6.08028E+00
 3.67900E+00    2.03093E+00
 6.06500E+00    9.60469E-01
