# n + Zn 64 : (n,tot)   
# jendl.ad   N.Iwamoto                         EVAL-Apr14
# uncertainties: n
# # energies =    69
#   E(MeV)       xs(mb) 
 1.00000E-10    5.49793E+03
 5.00000E-09    1.49697E+03
 1.00000E-08    1.13372E+03
 1.50000E-08    9.52548E+02
 2.00000E-08    8.38106E+02
 2.50000E-08    7.57251E+02
 3.00000E-08    6.96046E+02
 3.50000E-08    6.39885E+02
 4.20000E-08    5.85290E+02
 5.00000E-08    5.39935E+02
 5.80000E-08    5.01836E+02
 6.70000E-08    4.63095E+02
 8.00000E-08    4.19026E+02
 1.00000E-07    3.64621E+02
 1.40000E-07    3.14584E+02
 1.80000E-07    2.80881E+02
 2.20000E-07    2.58748E+02
 2.50000E-07    2.43586E+02
 2.80000E-07    2.32696E+02
 3.00000E-07    2.25045E+02
 3.20000E-07    2.16536E+02
 3.50000E-07    2.04805E+02
 4.00000E-07    1.87466E+02
 5.00000E-07    1.67728E+02
 6.25000E-07    1.50028E+02
 7.80000E-07    1.38929E+02
 8.50000E-07    1.33692E+02
 9.10000E-07    1.29995E+02
 9.50000E-07    1.27897E+02
 9.72000E-07    1.26370E+02
 9.96000E-07    1.24843E+02
 1.02000E-06    1.23410E+02
 1.04500E-06    1.21921E+02
 1.07100E-06    1.20402E+02
 1.09700E-06    1.18964E+02
 1.12300E-06    1.17613E+02
 1.15000E-06    1.13375E+02
 1.30000E-06    1.06070E+02
 1.50000E-06    9.42252E+01
 2.10000E-06    8.20744E+01
 2.60000E-06    7.33035E+01
 3.30000E-06    6.58347E+01
 4.00000E-06    5.05055E+01
 9.87700E-06    3.55924E+01
 1.59680E-05    2.76102E+01
 2.77000E-05    2.10784E+01
 4.80520E-05    1.65407E+01
 7.55014E-05    1.27733E+01
 1.48728E-04    3.57301E+02
 3.67262E-04    7.07180E+00
 9.06898E-04    7.88592E+00
 1.42510E-03    2.15713E+01
 2.23945E-03    6.45952E+02
 3.51910E-03    4.39979E+02
 5.53000E-03    6.68161E+01
 9.11800E-03    1.05883E+02
 1.50300E-02    8.41743E+01
 2.47800E-02    6.38943E+01
 4.08500E-02    3.51305E+01
 6.73400E-02    3.25481E+01
 1.11000E-01    2.77669E+01
 1.83000E-01    2.31289E+01
 3.02000E-01    2.02980E+01
 5.00000E-01    1.97731E+01
 8.21000E-01    1.67286E+01
 1.35300E+00    1.40270E+01
 2.23100E+00    4.04812E+01
 3.67900E+00    6.89298E+01
 6.06500E+00    1.46826E+03
