# n + Zn 64 : (n,pa)    
# jendl.ad   N.Iwamoto                         EVAL-Apr14
# uncertainties: n
# # energies =    24
#   E(MeV)       xs(mb) 
 6.09177E+00    0.00000E+00
 6.15129E+00    1.90160E-15
 9.50000E+00    1.16330E-13
 1.00000E+01    3.94700E-11
 1.05000E+01    2.65230E-09
 1.10000E+01    6.78850E-08
 1.15000E+01    9.79490E-07
 1.20000E+01    9.43865E-06
 1.25000E+01    6.20239E-05
 1.30000E+01    2.92481E-04
 1.35000E+01    1.09314E-03
 1.40000E+01    3.37355E-03
 1.45000E+01    9.64932E-03
 1.50000E+01    2.42505E-02
 1.55000E+01    5.61831E-02
 1.60000E+01    1.20454E-01
 1.65000E+01    2.37901E-01
 1.70000E+01    4.34997E-01
 1.75000E+01    7.37806E-01
 1.80000E+01    1.16940E+00
 1.85000E+01    1.73860E+00
 1.90000E+01    2.44580E+00
 1.95000E+01    3.26886E+00
 2.00000E+01    4.18687E+00
