# n + Zn 64 : (n,pa)g   
# jendl.ad   N.Iwamoto                         EVAL-Apr14
# uncertainties: n
# # energies =    24
#   E(MeV)       xs(mb) 
 6.09177E+00    0.00000E+00
 6.15129E+00    1.90160E-15
 9.50000E+00    1.08890E-13
 1.00000E+01    3.60340E-11
 1.05000E+01    2.42660E-09
 1.10000E+01    6.19110E-08
 1.15000E+01    8.84170E-07
 1.20000E+01    8.41600E-06
 1.25000E+01    5.44820E-05
 1.30000E+01    2.51432E-04
 1.35000E+01    9.14308E-04
 1.40000E+01    2.71240E-03
 1.45000E+01    7.40606E-03
 1.50000E+01    1.77083E-02
 1.55000E+01    3.90621E-02
 1.60000E+01    8.00133E-02
 1.65000E+01    1.51437E-01
 1.70000E+01    2.66713E-01
 1.75000E+01    4.37976E-01
 1.80000E+01    6.76810E-01
 1.85000E+01    9.87192E-01
 1.90000E+01    1.37211E+00
 1.95000E+01    1.82130E+00
 2.00000E+01    2.32895E+00
