# n + Te123 : (n,tot)   
# jendl4.0   JNDC FP NUCLEAR DATA W.G.         EVAL-MAR90
# uncertainties: n
# # energies =   171
#   E(MeV)       xs(mb) 
 1.00000E-11    4.43077E+06
 1.00000E-07    1.78318E+05
 4.13990E-07    1.49939E+05
 5.31580E-07    1.53873E+05
 6.82560E-07    1.68021E+05
 8.76420E-07    2.02864E+05
 1.12540E-06    2.94101E+05
 1.44500E-06    6.54142E+05
 1.85540E-06    1.57780E+07
 2.37240E-06    6.72864E+06
 3.05900E-06    2.09662E+05
 3.92790E-06    5.60170E+04
 5.04350E-06    2.33742E+04
 6.47600E-06    1.25969E+04
 8.31530E-06    8.17458E+03
 1.06770E-05    6.13388E+03
 1.37100E-05    5.36030E+03
 1.76030E-05    1.08325E+04
 2.26030E-05    5.08798E+05
 2.92030E-05    8.39888E+04
 3.72670E-05    5.96636E+03
 4.78510E-05    4.07770E+03
 6.14420E-05    1.28544E+04
 7.88930E-05    1.59862E+04
 1.01300E-04    1.53300E+04
 1.30070E-04    1.28259E+05
 1.67020E-04    1.04500E+04
 2.14450E-04    2.12901E+04
 2.75360E-04    2.69682E+04
 3.53580E-04    3.26854E+04
 4.54000E-04    1.42188E+04
 5.82950E-04    3.23468E+04
 7.48520E-04    1.52556E+04
 9.61120E-04    1.39370E+04
 1.23410E-03    1.27688E+04
 1.58460E-03    1.17512E+04
 2.03470E-03    1.11266E+04
 2.24870E-03    1.07824E+04
 2.48520E-03    1.05234E+04
 2.61260E-03    1.03802E+04
 2.74650E-03    1.01516E+04
 3.03540E-03    9.86274E+03
 3.35460E-03    9.58296E+03
 3.70740E-03    9.26779E+03
 4.30740E-03    8.80399E+03
 5.53080E-03    8.27609E+03
 7.10170E-03    7.82522E+03
 9.11880E-03    7.43409E+03
 1.17090E-02    7.08961E+03
 1.50340E-02    6.80655E+03
 1.93050E-02    6.60210E+03
 2.18750E-02    6.52095E+03
 2.35790E-02    6.47870E+03
 2.41760E-02    6.45669E+03
 2.47880E-02    6.42611E+03
 2.60580E-02    6.39464E+03
 2.70000E-02    6.36025E+03
 2.85000E-02    6.29722E+03
 3.18280E-02    6.23870E+03
 3.43070E-02    6.15501E+03
 4.08680E-02    6.06393E+03
 4.63090E-02    5.99464E+03
 5.24750E-02    5.94573E+03
 5.65620E-02    5.88727E+03
 6.73790E-02    5.83499E+03
 7.20000E-02    5.80248E+03
 7.95000E-02    5.77645E+03
 8.25000E-02    5.76380E+03
 8.65170E-02    5.73627E+03
 9.80370E-02    5.69967E+03
 1.11090E-01    5.68136E+03
 1.16790E-01    5.67107E+03
 1.22770E-01    5.66102E+03
 1.29070E-01    5.65060E+03
 1.35690E-01    5.64051E+03
 1.42640E-01    5.63023E+03
 1.49960E-01    5.62330E+03
 1.57640E-01    5.62112E+03
 1.65730E-01    5.62235E+03
 1.74220E-01    5.62392E+03
 1.83160E-01    5.62557E+03
 1.92550E-01    5.62753E+03
 2.02420E-01    5.63518E+03
 2.12800E-01    5.64566E+03
 2.23710E-01    5.65669E+03
 2.35180E-01    5.66827E+03
 2.47240E-01    5.68752E+03
 2.73240E-01    5.71392E+03
 2.87250E-01    5.72932E+03
 2.94520E-01    5.73651E+03
 2.97200E-01    5.73938E+03
 2.98500E-01    5.74282E+03
 3.01970E-01    5.76901E+03
 3.33730E-01    5.82275E+03
 3.68830E-01    5.86682E+03
 3.87740E-01    5.89821E+03
 4.07620E-01    5.94754E+03
 4.50490E-01    6.01665E+03
 4.97870E-01    6.07286E+03
 5.23400E-01    6.11291E+03
 5.50230E-01    6.15501E+03
 5.78440E-01    6.19927E+03
 6.08100E-01    6.24500E+03
 6.39280E-01    6.28617E+03
 6.72060E-01    6.32783E+03
 7.06510E-01    6.37164E+03
 7.42740E-01    6.41717E+03
 7.80820E-01    6.45508E+03
 8.20850E-01    6.49110E+03
 8.62940E-01    6.52898E+03
 9.07180E-01    6.56729E+03
 9.61640E-01    6.59390E+03
 1.00260E+00    6.62962E+03
 1.10800E+00    6.65141E+03
 1.16480E+00    6.66293E+03
 1.22460E+00    6.66008E+03
 1.28730E+00    6.64570E+03
 1.35340E+00    6.63058E+03
 1.42270E+00    6.61470E+03
 1.49570E+00    6.58501E+03
 1.57240E+00    6.53736E+03
 1.65300E+00    6.48725E+03
 1.73770E+00    6.43179E+03
 1.82680E+00    6.36100E+03
 1.92050E+00    6.28504E+03
 2.01900E+00    6.19191E+03
 2.12250E+00    6.08284E+03
 2.23130E+00    5.98852E+03
 2.30690E+00    5.93606E+03
 2.34570E+00    5.91066E+03
 2.36530E+00    5.89351E+03
 2.38520E+00    5.84997E+03
 2.46600E+00    5.76037E+03
 2.59240E+00    5.65848E+03
 2.72530E+00    5.55845E+03
 2.86500E+00    5.45371E+03
 3.01190E+00    5.33527E+03
 3.16640E+00    5.19819E+03
 3.32870E+00    5.00022E+03
 3.67880E+00    4.74657E+03
 4.06570E+00    4.51577E+03
 4.49330E+00    4.35357E+03
 4.72370E+00    4.24735E+03
 4.96590E+00    4.16383E+03
 5.22050E+00    4.11535E+03
 5.48810E+00    4.06574E+03
 5.76950E+00    4.01605E+03
 6.06530E+00    4.01629E+03
 6.37630E+00    4.03566E+03
 6.59240E+00    4.04767E+03
 6.70320E+00    4.06428E+03
 7.04690E+00    4.11302E+03
 7.40820E+00    4.18340E+03
 7.78800E+00    4.25738E+03
 8.18730E+00    4.33516E+03
 8.60710E+00    4.41693E+03
 9.04840E+00    4.49775E+03
 9.51230E+00    4.57289E+03
 1.00000E+01    4.63990E+03
 1.05130E+01    4.69722E+03
 1.10520E+01    4.75522E+03
 1.16180E+01    4.81326E+03
 1.22140E+01    4.86433E+03
 1.28400E+01    4.91395E+03
 1.34990E+01    4.95132E+03
 1.38400E+01    4.97686E+03
 1.41910E+01    5.00459E+03
 1.45500E+01    5.03273E+03
 1.49180E+01    5.07098E+03
 1.56830E+01    5.10358E+03
 1.64870E+01    5.07767E+03
