# n + Rh103 : (n,xa)    
# jeff3.3    E.DUPONT, E.BAUGE, M.C.Moxon      EVAL-FEB05
# 
# # energies =    71
#   E(MeV)        xs(mb) 
 4.01457E-02    1.00703E-07
 5.00000E-02    1.00883E-07
 1.00000E-01    1.01794E-07
 2.00000E-01    1.03616E-07
 3.00000E-01    1.05438E-07
 4.00000E-01    1.07260E-07
 5.00000E-01    1.09081E-07
 6.00000E-01    1.10903E-07
 7.00000E-01    1.12725E-07
 8.00000E-01    1.14545E-07
 9.00000E-01    1.19604E-07
 1.00000E+00    3.86313E-05
 1.20000E+00    1.15661E-04
 1.40000E+00    1.92691E-04
 1.60000E+00    2.69721E-04
 1.80000E+00    3.46751E-04
 2.00000E+00    4.23780E-04
 2.20000E+00    5.00810E-04
 2.40000E+00    5.77840E-04
 2.60000E+00    6.54870E-04
 2.80000E+00    7.31900E-04
 3.00000E+00    8.08930E-04
 3.20000E+00    8.86161E-04
 3.40000E+00    9.64075E-04
 3.60000E+00    1.04199E-03
 3.80000E+00    1.11991E-03
 4.00000E+00    1.72613E-03
 4.20000E+00    2.58102E-03
 4.40000E+00    3.81830E-03
 4.60000E+00    5.48337E-03
 4.80000E+00    7.75738E-03
 5.00000E+00    1.07021E-02
 5.20000E+00    1.44368E-02
 5.40000E+00    1.93100E-02
 5.60000E+00    2.52822E-02
 5.80000E+00    3.25635E-02
 6.00000E+00    4.12760E-02
 6.20000E+00    5.13667E-02
 6.40000E+00    6.35861E-02
 6.60000E+00    7.77414E-02
 6.80000E+00    9.26613E-02
 7.00000E+00    1.09168E-01
 7.20000E+00    1.28776E-01
 7.40000E+00    1.49585E-01
 7.60000E+00    1.71919E-01
 7.80000E+00    1.95526E-01
 8.00000E+00    2.22328E-01
 8.50000E+00    3.52966E-01
 9.00000E+00    7.05378E-01
 9.50000E+00    1.09391E+00
 1.00000E+01    1.53663E+00
 1.05000E+01    2.01783E+00
 1.10000E+01    2.59455E+00
 1.15000E+01    3.30629E+00
 1.20000E+01    4.17078E+00
 1.25000E+01    5.19126E+00
 1.30000E+01    6.36364E+00
 1.35000E+01    7.67606E+00
 1.40000E+01    9.11654E+00
 1.45000E+01    1.06772E+01
 1.50000E+01    1.22952E+01
 1.60000E+01    1.58589E+01
 1.70000E+01    1.96068E+01
 1.80000E+01    2.33963E+01
 1.90000E+01    2.69405E+01
 2.00000E+01    2.92646E+01
 2.20000E+01    3.27713E+01
 2.40000E+01    3.61259E+01
 2.60000E+01    3.95846E+01
 2.80000E+01    4.31919E+01
 3.00000E+01    4.66191E+01
