# n + Mo 98 : (n,g)     
# jendl.ad   K.Shibata, A.Ichihara, S.Kunieda  EVAL-MAY13
# uncertainties: n
# # energies =    69
#   E(MeV)       xs(mb) 
 1.00000E-10    9.21185E+02
 5.00000E-09    2.50918E+02
 1.00000E-08    1.90120E+02
 1.50000E-08    1.59802E+02
 2.00000E-08    1.40629E+02
 2.50000E-08    1.27077E+02
 3.00000E-08    1.16847E+02
 3.50000E-08    1.07479E+02
 4.20000E-08    9.83467E+01
 5.00000E-08    9.07452E+01
 5.80000E-08    8.43793E+01
 6.70000E-08    7.79298E+01
 8.00000E-08    7.05803E+01
 1.00000E-07    6.14942E+01
 1.40000E-07    5.31934E+01
 1.80000E-07    4.76013E+01
 2.20000E-07    4.39222E+01
 2.50000E-07    4.14230E+01
 2.80000E-07    3.96322E+01
 3.00000E-07    3.83745E+01
 3.20000E-07    3.69781E+01
 3.50000E-07    3.50622E+01
 4.00000E-07    3.22272E+01
 5.00000E-07    2.90201E+01
 6.25000E-07    2.62003E+01
 7.80000E-07    2.44422E+01
 8.50000E-07    2.36197E+01
 9.10000E-07    2.30508E+01
 9.50000E-07    2.27211E+01
 9.72000E-07    2.24916E+01
 9.96000E-07    2.22588E+01
 1.02000E-06    2.20306E+01
 1.04500E-06    2.18038E+01
 1.07100E-06    2.15821E+01
 1.09700E-06    2.13660E+01
 1.12300E-06    2.11587E+01
 1.15000E-06    2.05320E+01
 1.30000E-06    1.94740E+01
 1.50000E-06    1.78572E+01
 2.10000E-06    1.63958E+01
 2.60000E-06    1.56417E+01
 3.30000E-06    1.54027E+01
 4.00000E-06    2.88555E+01
 9.87700E-06    4.02223E+03
 1.59680E-05    1.86673E+01
 2.77000E-05    5.49010E+00
 4.80520E-05    3.48354E+00
 7.55014E-05    2.66067E+00
 1.48728E-04    4.18919E+00
 3.67262E-04    4.14691E+03
 9.06898E-04    3.97035E+02
 1.42510E-03    4.61516E+02
 2.23945E-03    3.20677E+02
 3.51910E-03    3.65440E+02
 5.53000E-03    2.60337E+02
 9.11800E-03    1.45792E+02
 1.50300E-02    1.09336E+02
 2.47800E-02    7.85363E+01
 4.08500E-02    5.57202E+01
 6.73400E-02    4.31018E+01
 1.11000E-01    3.73852E+01
 1.83000E-01    3.36543E+01
 3.02000E-01    3.41261E+01
 5.00000E-01    3.60152E+01
 8.21000E-01    1.93798E+01
 1.35300E+00    1.51558E+01
 2.23100E+00    6.51943E+00
 3.67900E+00    2.63387E+00
 6.06500E+00    5.11996E-01
