# n + Mo 98 : (n,xt)    
# jendl.ad   K.Shibata, A.Ichihara, S.Kunieda  EVAL-MAY13
# 
# # energies =    33
#   E(MeV)        xs(mb) 
 7.42320E-01    0.00000E+00
 8.00000E-01    0.00000E+00
 9.00000E-01    0.00000E+00
 1.00000E+00    0.00000E+00
 1.50000E+00    0.00000E+00
 2.00000E+00    0.00000E+00
 2.50000E+00    0.00000E+00
 3.00000E+00    0.00000E+00
 3.50000E+00    0.00000E+00
 4.00000E+00    0.00000E+00
 4.50000E+00    0.00000E+00
 5.00000E+00    0.00000E+00
 5.50000E+00    0.00000E+00
 6.00000E+00    0.00000E+00
 6.50000E+00    0.00000E+00
 7.00000E+00    0.00000E+00
 7.50000E+00    0.00000E+00
 8.00000E+00    0.00000E+00
 8.50000E+00    0.00000E+00
 9.00000E+00    0.00000E+00
 9.50000E+00    0.00000E+00
 1.00000E+01    0.00000E+00
 1.10000E+01    0.00000E+00
 1.20000E+01    5.79900E-09
 1.30000E+01    2.42600E-06
 1.40000E+01    4.48800E-03
 1.45000E+01    8.83300E-03
 1.50000E+01    2.47300E-02
 1.60000E+01    1.04300E-01
 1.70000E+01    3.35800E-01
 1.80000E+01    6.29100E-01
 1.90000E+01    1.21000E+00
 2.00000E+01    1.95200E+00
