# n + Mo 98 : (n,tot)   
# jendl.ad   K.Shibata, A.Ichihara, S.Kunieda  EVAL-MAY13
# uncertainties: n
# # energies =    69
#   E(MeV)       xs(mb) 
 1.00000E-10    9.21515E+02
 5.00000E-09    2.50998E+02
 1.00000E-08    1.90143E+02
 1.50000E-08    1.59802E+02
 2.00000E-08    1.40628E+02
 2.50000E-08    1.27083E+02
 3.00000E-08    1.16850E+02
 3.50000E-08    1.07478E+02
 4.20000E-08    9.83466E+01
 5.00000E-08    9.07477E+01
 5.80000E-08    8.43818E+01
 6.70000E-08    7.79304E+01
 8.00000E-08    7.05797E+01
 1.00000E-07    6.14956E+01
 1.40000E-07    5.31934E+01
 1.80000E-07    4.76012E+01
 2.20000E-07    4.39243E+01
 2.50000E-07    4.14239E+01
 2.80000E-07    3.96327E+01
 3.00000E-07    3.83746E+01
 3.20000E-07    3.69778E+01
 3.50000E-07    3.50626E+01
 4.00000E-07    3.22307E+01
 5.00000E-07    2.90332E+01
 6.25000E-07    2.62076E+01
 7.80000E-07    2.44466E+01
 8.50000E-07    2.36234E+01
 9.10000E-07    2.30592E+01
 9.50000E-07    2.27373E+01
 9.72000E-07    2.24995E+01
 9.96000E-07    2.22628E+01
 1.02000E-06    2.20430E+01
 1.04500E-06    2.18147E+01
 1.07100E-06    2.15831E+01
 1.09700E-06    2.13726E+01
 1.12300E-06    2.11659E+01
 1.15000E-06    2.05344E+01
 1.30000E-06    1.94740E+01
 1.50000E-06    1.78543E+01
 2.10000E-06    1.63911E+01
 2.60000E-06    1.56369E+01
 3.30000E-06    1.53973E+01
 4.00000E-06    2.88501E+01
 9.87700E-06    4.02234E+03
 1.59680E-05    1.86642E+01
 2.77000E-05    5.48885E+00
 4.80520E-05    3.48265E+00
 7.55014E-05    2.65998E+00
 1.48728E-04    4.18867E+00
 3.67262E-04    4.14715E+03
 9.06898E-04    3.97080E+02
 1.42510E-03    4.61573E+02
 2.23945E-03    3.20726E+02
 3.51910E-03    3.65492E+02
 5.53000E-03    2.60396E+02
 9.11800E-03    1.45841E+02
 1.50300E-02    1.09390E+02
 2.47800E-02    7.85574E+01
 4.08500E-02    5.57204E+01
 6.73400E-02    4.31019E+01
 1.11000E-01    3.73852E+01
 1.83000E-01    3.36544E+01
 3.02000E-01    3.41261E+01
 5.00000E-01    3.60150E+01
 8.21000E-01    1.93800E+01
 1.35300E+00    1.51558E+01
 2.23100E+00    6.51943E+00
 3.67900E+00    2.63405E+00
 6.06500E+00    8.10102E+01
