# n + Mo 98 : (n,p)m    
# jendl.ad   K.Shibata, A.Ichihara, S.Kunieda  EVAL-MAY13
# uncertainties: n
# # energies =    22
#   E(MeV)       xs(mb) 
 3.92485E+00    0.00000E+00
 5.50000E+00    0.00000E+00
 6.00000E+00    4.35800E-06
 6.50000E+00    2.02200E-04
 7.00000E+00    1.07800E-03
 7.50000E+00    4.12900E-03
 8.00000E+00    1.20000E-02
 8.50000E+00    3.36600E-02
 9.00000E+00    7.19200E-02
 9.50000E+00    1.56100E-01
 1.00000E+01    2.71500E-01
 1.10000E+01    7.26600E-01
 1.20000E+01    1.51200E+00
 1.30000E+01    2.64500E+00
 1.40000E+01    4.07400E+00
 1.45000E+01    5.02900E+00
 1.50000E+01    5.63600E+00
 1.60000E+01    7.15100E+00
 1.70000E+01    8.77900E+00
 1.80000E+01    9.79800E+00
 1.90000E+01    1.05400E+01
 2.00000E+01    1.11600E+01
