# n + Mo 98 : (n,xa)    
# jendl.ad   K.Shibata, A.Ichihara, S.Kunieda  EVAL-MAY13
# 
# # energies =    33
#   E(MeV)        xs(mb) 
 7.42320E-01    0.00000E+00
 8.00000E-01    0.00000E+00
 9.00000E-01    0.00000E+00
 1.00000E+00    0.00000E+00
 1.50000E+00    0.00000E+00
 2.00000E+00    0.00000E+00
 2.50000E+00    0.00000E+00
 3.00000E+00    0.00000E+00
 3.50000E+00    0.00000E+00
 4.00000E+00    4.49300E-03
 4.50000E+00    1.02200E-02
 5.00000E+00    2.14100E-02
 5.50000E+00    3.44700E-02
 6.00000E+00    8.11900E-02
 6.50000E+00    1.26400E-01
 7.00000E+00    1.57700E-01
 7.50000E+00    2.06200E-01
 8.00000E+00    2.37900E-01
 8.50000E+00    3.39800E-01
 9.00000E+00    3.85100E-01
 9.50000E+00    5.58700E-01
 1.00000E+01    6.66700E-01
 1.10000E+01    1.20792E+00
 1.20000E+01    2.09519E+00
 1.30000E+01    3.39721E+00
 1.40000E+01    4.88710E+00
 1.45000E+01    5.72600E+00
 1.50000E+01    6.52540E+00
 1.60000E+01    8.19600E+00
 1.70000E+01    9.80700E+00
 1.80000E+01    1.13010E+01
 1.90000E+01    1.26500E+01
 2.00000E+01    1.38480E+01
