# n + Mo 98 : (n,p)     
# jendl.ad   K.Shibata, A.Ichihara, S.Kunieda  EVAL-MAY13
# uncertainties: n
# # energies =    21
#   E(MeV)       xs(mb) 
 5.50000E+00    0.00000E+00
 6.00000E+00    1.19840E-05
 6.50000E+00    5.02700E-04
 7.00000E+00    2.09000E-03
 7.50000E+00    7.28200E-03
 8.00000E+00    2.06160E-02
 8.50000E+00    5.45600E-02
 9.00000E+00    1.15710E-01
 9.50000E+00    2.42610E-01
 1.00000E+01    4.18600E-01
 1.10000E+01    1.08270E+00
 1.20000E+01    2.18690E+00
 1.30000E+01    3.73500E+00
 1.40000E+01    5.64000E+00
 1.45000E+01    6.72500E+00
 1.50000E+01    7.67900E+00
 1.60000E+01    9.61900E+00
 1.70000E+01    1.11920E+01
 1.80000E+01    1.23560E+01
 1.90000E+01    1.31890E+01
 2.00000E+01    1.38300E+01
