# n + Mo 98 : (n,a)     
# jendl.ad   K.Shibata, A.Ichihara, S.Kunieda  EVAL-MAY13
# uncertainties: n
# # energies =    25
#   E(MeV)       xs(mb) 
 3.50000E+00    0.00000E+00
 4.00000E+00    4.49300E-03
 4.50000E+00    1.02200E-02
 5.00000E+00    2.14100E-02
 5.50000E+00    3.44700E-02
 6.00000E+00    8.11900E-02
 6.50000E+00    1.26400E-01
 7.00000E+00    1.57700E-01
 7.50000E+00    2.06200E-01
 8.00000E+00    2.37900E-01
 8.50000E+00    3.39800E-01
 9.00000E+00    3.85100E-01
 9.50000E+00    5.58700E-01
 1.00000E+01    6.66700E-01
 1.10000E+01    1.20700E+00
 1.20000E+01    2.08600E+00
 1.30000E+01    3.35100E+00
 1.40000E+01    4.71100E+00
 1.45000E+01    5.40600E+00
 1.50000E+01    6.00100E+00
 1.60000E+01    6.96500E+00
 1.70000E+01    7.46900E+00
 1.80000E+01    7.54900E+00
 1.90000E+01    7.33700E+00
 2.00000E+01    6.95100E+00
