# n + Ca 46 : (n,g)     
# jendl4.0   K.Shibata                         EVAL-JUN06
# uncertainties: n
# # energies =    69
#   E(MeV)       xs(mb) 
 1.00000E-10    5.16688E+03
 5.00000E-09    1.40685E+03
 1.00000E-08    1.06547E+03
 1.50000E-08    8.95193E+02
 2.00000E-08    7.87608E+02
 2.50000E-08    7.11568E+02
 3.00000E-08    6.54101E+02
 3.50000E-08    6.01391E+02
 4.20000E-08    5.50070E+02
 5.00000E-08    5.07382E+02
 5.80000E-08    4.71580E+02
 6.70000E-08    4.35197E+02
 8.00000E-08    3.93812E+02
 1.00000E-07    3.42623E+02
 1.40000E-07    2.95646E+02
 1.80000E-07    2.63994E+02
 2.20000E-07    2.43119E+02
 2.50000E-07    2.28888E+02
 2.80000E-07    2.18668E+02
 3.00000E-07    2.11488E+02
 3.20000E-07    2.03502E+02
 3.50000E-07    1.92481E+02
 4.00000E-07    1.76119E+02
 5.00000E-07    1.57524E+02
 6.25000E-07    1.40950E+02
 7.80000E-07    1.30465E+02
 8.50000E-07    1.25528E+02
 9.10000E-07    1.22083E+02
 9.50000E-07    1.20088E+02
 9.72000E-07    1.18677E+02
 9.96000E-07    1.17253E+02
 1.02000E-06    1.15852E+02
 1.04500E-06    1.14451E+02
 1.07100E-06    1.13072E+02
 1.09700E-06    1.11737E+02
 1.12300E-06    1.10437E+02
 1.15000E-06    1.06486E+02
 1.30000E-06    9.96566E+01
 1.50000E-06    8.85039E+01
 2.10000E-06    7.70832E+01
 2.60000E-06    6.88598E+01
 3.30000E-06    6.18148E+01
 4.00000E-06    4.73794E+01
 9.87700E-06    3.33150E+01
 1.59680E-05    2.57633E+01
 2.77000E-05    1.95619E+01
 4.80520E-05    1.52080E+01
 7.55014E-05    1.14963E+01
 1.48728E-04    7.76996E+00
 3.67262E-04    4.94459E+00
 9.06898E-04    2.05456E+01
 1.42510E-03    1.86512E+01
 2.23945E-03    1.27324E+01
 3.51910E-03    8.76329E+00
 5.53000E-03    5.90623E+00
 9.11800E-03    4.21630E+00
 1.50300E-02    3.13424E+00
 2.47800E-02    2.45082E+00
 4.08500E-02    1.95850E+00
 6.73400E-02    1.51493E+00
 1.11000E-01    1.18199E+00
 1.83000E-01    8.67284E-01
 3.02000E-01    6.89869E-01
 5.00000E-01    6.12479E-01
 8.21000E-01    5.70749E-01
 1.35300E+00    3.36115E-01
 2.23100E+00    3.04099E-01
 3.67900E+00    2.45488E-01
 6.06500E+00    1.59363E-01
