# n + Ca 46 : (n,tot)   
# jendl4.0   K.Shibata                         EVAL-JUN06
# uncertainties: n
# # energies =   171
#   E(MeV)       xs(mb) 
 1.00000E-11    1.46128E+04
 1.00000E-07    3.18484E+03
 4.13990E-07    3.07697E+03
 5.31580E-07    3.05496E+03
 6.82560E-07    3.03702E+03
 8.76420E-07    3.02025E+03
 1.12540E-06    3.00895E+03
 1.44500E-06    3.00009E+03
 1.85540E-06    2.98976E+03
 2.37240E-06    2.97886E+03
 3.05900E-06    2.97039E+03
 3.92790E-06    2.95979E+03
 5.04350E-06    2.95076E+03
 6.47600E-06    2.94670E+03
 8.31530E-06    2.94156E+03
 1.06770E-05    2.93573E+03
 1.37100E-05    2.93328E+03
 1.76030E-05    2.93104E+03
 2.26030E-05    2.92813E+03
 2.92030E-05    2.92443E+03
 3.72670E-05    2.91979E+03
 4.78510E-05    2.91723E+03
 6.14420E-05    2.91637E+03
 7.88930E-05    2.91527E+03
 1.01300E-04    2.91385E+03
 1.30070E-04    2.91203E+03
 1.67020E-04    2.90975E+03
 2.14450E-04    2.90866E+03
 2.75360E-04    2.90820E+03
 3.53580E-04    2.90762E+03
 4.54000E-04    2.90687E+03
 5.82950E-04    2.90591E+03
 7.48520E-04    2.90468E+03
 9.61120E-04    3.63440E+04
 1.23410E-03    3.89250E+04
 1.58460E-03    3.38049E+04
 2.03470E-03    3.04236E+04
 2.24870E-03    2.91356E+04
 2.48520E-03    2.80862E+04
 2.61260E-03    2.73387E+04
 2.74650E-03    2.61443E+04
 3.03540E-03    2.48476E+04
 3.35460E-03    2.37059E+04
 3.70740E-03    2.21822E+04
 4.30740E-03    2.00921E+04
 5.53080E-03    1.77215E+04
 7.10170E-03    1.56480E+04
 9.11880E-03    1.39414E+04
 1.17090E-02    1.26920E+04
 1.50340E-02    1.11607E+04
 1.93050E-02    9.89944E+03
 2.18750E-02    9.49303E+03
 2.35790E-02    9.28619E+03
 2.41760E-02    9.17840E+03
 2.47880E-02    9.01131E+03
 2.60580E-02    8.81363E+03
 2.70000E-02    8.59661E+03
 2.85000E-02    8.20568E+03
 3.18280E-02    7.87216E+03
 3.43070E-02    7.40552E+03
 4.08680E-02    6.88620E+03
 4.63090E-02    6.48048E+03
 5.24750E-02    6.18928E+03
 5.65620E-02    5.83384E+03
 6.73790E-02    5.51213E+03
 7.20000E-02    5.31037E+03
 7.95000E-02    5.14389E+03
 8.25000E-02    5.05105E+03
 8.65170E-02    4.85758E+03
 9.80370E-02    4.62851E+03
 1.11090E-01    4.51703E+03
 1.16790E-01    4.44948E+03
 1.22770E-01    4.37845E+03
 1.29070E-01    4.30373E+03
 1.35690E-01    4.22524E+03
 1.42640E-01    4.14271E+03
 1.49960E-01    4.05595E+03
 1.57640E-01    3.96474E+03
 1.65730E-01    3.86884E+03
 1.74220E-01    3.76803E+03
 1.83160E-01    3.66201E+03
 1.92550E-01    3.55269E+03
 2.02420E-01    3.48744E+03
 2.12800E-01    3.44019E+03
 2.23710E-01    3.39051E+03
 2.35180E-01    3.33828E+03
 2.47240E-01    3.25452E+03
 2.73240E-01    3.16499E+03
 2.87250E-01    3.11756E+03
 2.94520E-01    3.09541E+03
 2.97200E-01    3.08657E+03
 2.98500E-01    3.07729E+03
 3.01970E-01    3.03991E+03
 3.33730E-01    2.96943E+03
 3.68830E-01    2.91200E+03
 3.87740E-01    2.87273E+03
 4.07620E-01    2.83850E+03
 4.50490E-01    2.79528E+03
 4.97870E-01    2.76470E+03
 5.23400E-01    2.75516E+03
 5.50230E-01    2.74553E+03
 5.78440E-01    2.73585E+03
 6.08100E-01    2.73452E+03
 6.39280E-01    2.73657E+03
 6.72060E-01    2.73872E+03
 7.06510E-01    2.74505E+03
 7.42740E-01    2.75758E+03
 7.80820E-01    2.77084E+03
 8.20850E-01    2.78927E+03
 8.62940E-01    2.81186E+03
 9.07180E-01    2.83863E+03
 9.61640E-01    2.86892E+03
 1.00260E+00    2.91843E+03
 1.10800E+00    2.97822E+03
 1.16480E+00    3.02107E+03
 1.22460E+00    3.06608E+03
 1.28730E+00    3.11340E+03
 1.35340E+00    3.16315E+03
 1.42270E+00    3.21544E+03
 1.49570E+00    3.26857E+03
 1.57240E+00    3.31811E+03
 1.65300E+00    3.36968E+03
 1.73770E+00    3.42389E+03
 1.82680E+00    3.48091E+03
 1.92050E+00    3.54034E+03
 2.01900E+00    3.58348E+03
 2.12250E+00    3.61893E+03
 2.23130E+00    3.64980E+03
 2.30690E+00    3.66896E+03
 2.34570E+00    3.67873E+03
 2.36530E+00    3.68532E+03
 2.38520E+00    3.70207E+03
 2.46600E+00    3.72817E+03
 2.59240E+00    3.73998E+03
 2.72530E+00    3.75115E+03
 2.86500E+00    3.76282E+03
 3.01190E+00    3.76028E+03
 3.16640E+00    3.74647E+03
 3.32870E+00    3.72249E+03
 3.67880E+00    3.66662E+03
 4.06570E+00    3.59547E+03
 4.49330E+00    3.53322E+03
 4.72370E+00    3.48880E+03
 4.96590E+00    3.44209E+03
 5.22050E+00    3.39300E+03
 5.48810E+00    3.34212E+03
 5.76950E+00    3.29165E+03
 6.06530E+00    3.23892E+03
 6.37630E+00    3.19299E+03
 6.59240E+00    3.16451E+03
 6.70320E+00    3.12523E+03
 7.04690E+00    3.06397E+03
 7.40820E+00    2.99859E+03
 7.78800E+00    2.92592E+03
 8.18730E+00    2.84912E+03
 8.60710E+00    2.76838E+03
 9.04840E+00    2.68350E+03
 9.51230E+00    2.59513E+03
 1.00000E+01    2.51132E+03
 1.05130E+01    2.42936E+03
 1.10520E+01    2.35375E+03
 1.16180E+01    2.28297E+03
 1.22140E+01    2.22328E+03
 1.28400E+01    2.17042E+03
 1.34990E+01    2.13920E+03
 1.38400E+01    2.11898E+03
 1.41910E+01    2.10277E+03
 1.45500E+01    2.08954E+03
 1.49180E+01    2.07511E+03
 1.56830E+01    2.06126E+03
 1.64870E+01    2.05517E+03
