# n + Er167 : (n,xa)    
# jeff3.3    A.J. Koning and D. Rochman        EVAL-DEC15
# 
# # energies =   134
#   E(MeV)        xs(mb) 
 7.98013E-02    3.52701E-04
 1.00000E-01    2.99900E-04
 1.79045E-01    2.41144E-04
 2.00000E-01    2.25568E-04
 2.09057E-01    2.22538E-04
 2.66474E-01    2.03330E-04
 2.83275E-01    1.97709E-04
 2.96735E-01    1.93206E-04
 3.00000E-01    1.92114E-04
 3.48648E-01    1.82325E-04
 4.00000E-01    1.71991E-04
 4.15769E-01    1.68936E-04
 4.32626E-01    1.65817E-04
 4.37072E-01    1.64995E-04
 4.44650E-01    1.63593E-04
 5.00000E-01    1.53352E-04
 5.34752E-01    1.52171E-04
 5.39037E-01    1.52025E-04
 5.77227E-01    1.50728E-04
 5.90924E-01    1.50262E-04
 5.95366E-01    1.50111E-04
 6.00000E-01    1.49954E-04
 6.01613E-01    1.49899E-04
 6.44119E-01    1.47828E-04
 6.49109E-01    1.47571E-04
 6.66483E-01    1.46675E-04
 6.71936E-01    1.46394E-04
 6.87439E-01    1.45595E-04
 7.00000E-01    1.44947E-04
 7.15356E-01    1.45443E-04
 7.24909E-01    1.45752E-04
 7.34411E-01    1.46060E-04
 7.49824E-01    1.46558E-04
 7.57268E-01    1.46798E-04
 7.68073E-01    1.47148E-04
 7.77356E-01    1.47448E-04
 7.95749E-01    1.48043E-04
 8.00000E-01    1.48180E-04
 9.00000E-01    1.51413E-04
 1.00000E+00    1.55824E-04
 1.20000E+00    1.61055E-04
 1.40000E+00    1.72599E-04
 1.60000E+00    1.86378E-04
 1.80000E+00    2.00274E-04
 2.00000E+00    2.20795E-04
 2.20000E+00    2.41689E-04
 2.40000E+00    2.70813E-04
 2.60000E+00    3.04398E-04
 2.80000E+00    3.42720E-04
 3.00000E+00    3.89580E-04
 3.20000E+00    4.47952E-04
 3.40000E+00    5.11735E-04
 3.60000E+00    5.81270E-04
 3.80000E+00    6.61662E-04
 4.00000E+00    7.51521E-04
 4.20000E+00    8.52016E-04
 4.40000E+00    9.82919E-04
 4.60000E+00    1.12251E-03
 4.80000E+00    1.29179E-03
 5.00000E+00    1.48483E-03
 5.20000E+00    1.69016E-03
 5.40000E+00    1.97880E-03
 5.60000E+00    2.28787E-03
 5.80000E+00    2.65352E-03
 6.00000E+00    3.06860E-03
 6.20000E+00    3.53835E-03
 6.40000E+00    4.18670E-03
 6.60000E+00    4.90011E-03
 6.80000E+00    5.37410E-03
 7.00000E+00    6.69997E-03
 7.20000E+00    7.81234E-03
 7.40000E+00    9.30300E-03
 7.60000E+00    1.10701E-02
 7.80000E+00    1.19519E-02
 8.00000E+00    1.49782E-02
 8.50000E+00    2.24074E-02
 9.00000E+00    3.33360E-02
 9.50000E+00    4.92488E-02
 1.00000E+01    7.19616E-02
 1.05000E+01    1.03818E-01
 1.10000E+01    1.47674E-01
 1.15000E+01    2.06812E-01
 1.20000E+01    2.81247E-01
 1.25000E+01    3.86452E-01
 1.30000E+01    5.16881E-01
 1.35000E+01    6.91096E-01
 1.40000E+01    8.84582E-01
 1.45000E+01    1.13397E+00
 1.50000E+01    1.42128E+00
 1.60000E+01    2.20981E+00
 1.70000E+01    3.38535E+00
 1.80000E+01    5.14322E+00
 1.90000E+01    7.58774E+00
 2.00000E+01    9.59288E+00
 2.10000E+01    1.15232E+01
 2.20000E+01    1.24149E+01
 2.30000E+01    1.19091E+01
 2.40000E+01    1.22545E+01
 2.50000E+01    1.26887E+01
 2.60000E+01    1.31880E+01
 2.70000E+01    1.37156E+01
 2.80000E+01    1.42578E+01
 2.90000E+01    1.48001E+01
 3.00000E+01    1.53350E+01
 3.00000E+01    1.53351E+01
 3.20000E+01    1.60493E+01
 3.40000E+01    1.70435E+01
 3.60000E+01    1.78737E+01
 3.80000E+01    1.85934E+01
 4.00000E+01    1.92120E+01
 4.20000E+01    1.97518E+01
 4.40000E+01    2.02248E+01
 4.60000E+01    2.06488E+01
 4.80000E+01    2.10368E+01
 5.00000E+01    2.14031E+01
 5.20000E+01    2.17556E+01
 5.40000E+01    2.22377E+01
 5.60000E+01    2.25858E+01
 5.80000E+01    2.29455E+01
 6.00000E+01    2.33276E+01
 6.50000E+01    2.43482E+01
 7.00000E+01    2.56911E+01
 7.50000E+01    2.72275E+01
 8.00000E+01    2.91405E+01
 9.00000E+01    3.42009E+01
 1.00000E+02    4.06174E+01
 1.10000E+02    4.92152E+01
 1.20000E+02    9.50679E+01
 1.30000E+02    1.19699E+02
 1.40000E+02    1.20966E+02
 1.50000E+02    1.00589E+02
 1.60000E+02    9.34866E+01
 1.80000E+02    1.25711E+02
 2.00000E+02    2.66515E+02
