# n + Er167 : (n,n'25)  
# jeff3.3    A.J. Koning and D. Rochman        EVAL-DEC15
# uncertainties: n
# # energies =    73
#   E(MeV)       xs(mb) 
 7.34411E-01    0.00000E+00
 7.49824E-01    1.30840E+00
 7.57268E-01    1.94032E+00
 7.68073E-01    2.85755E+00
 7.77356E-01    3.64558E+00
 7.95749E-01    5.20695E+00
 8.00000E-01    5.56782E+00
 9.00000E-01    7.83461E+00
 1.00000E+00    9.00639E+00
 1.20000E+00    9.82481E+00
 1.40000E+00    8.96082E+00
 1.60000E+00    7.26738E+00
 1.80000E+00    5.49493E+00
 2.00000E+00    4.00941E+00
 2.20000E+00    2.87646E+00
 2.40000E+00    2.05355E+00
 2.60000E+00    1.46831E+00
 2.80000E+00    1.05535E+00
 3.00000E+00    7.63251E-01
 3.20000E+00    5.67818E-01
 3.40000E+00    4.14200E-01
 3.60000E+00    3.04411E-01
 3.80000E+00    2.28628E-01
 4.00000E+00    1.67415E-01
 4.20000E+00    1.23024E-01
 4.40000E+00    9.05616E-02
 4.60000E+00    6.67781E-02
 4.80000E+00    4.93443E-02
 5.00000E+00    3.65514E-02
 5.20000E+00    2.71537E-02
 5.40000E+00    2.02378E-02
 5.60000E+00    1.51192E-02
 5.80000E+00    1.12866E-02
 6.00000E+00    8.47247E-03
 6.20000E+00    6.37733E-03
 6.40000E+00    4.82041E-03
 6.60000E+00    3.65712E-03
 6.80000E+00    2.78864E-03
 7.00000E+00    2.13143E-03
 7.20000E+00    1.63349E-03
 7.40000E+00    1.25493E-03
 7.60000E+00    9.65019E-04
 7.80000E+00    7.44492E-04
 8.00000E+00    5.75035E-04
 8.50000E+00    3.04175E-04
 9.00000E+00    1.62952E-04
 9.50000E+00    8.83983E-05
 1.00000E+01    4.85251E-05
 1.05000E+01    2.69516E-05
 1.10000E+01    1.51321E-05
 1.15000E+01    8.59410E-06
 1.20000E+01    4.92956E-06
 1.25000E+01    2.85881E-06
 1.30000E+01    1.67296E-06
 1.35000E+01    9.87840E-07
 1.40000E+01    5.88940E-07
 1.45000E+01    3.53940E-07
 1.50000E+01    2.14150E-07
 1.60000E+01    8.02730E-08
 1.70000E+01    3.09250E-08
 1.80000E+01    1.21260E-08
 1.90000E+01    4.89320E-09
 2.00000E+01    2.02050E-09
 2.10000E+01    8.52120E-10
 2.20000E+01    3.66290E-10
 2.30000E+01    1.59950E-10
 2.40000E+01    7.11910E-11
 2.50000E+01    3.22230E-11
 2.60000E+01    1.47940E-11
 2.70000E+01    6.88550E-12
 2.80000E+01    3.24570E-12
 2.90000E+01    1.54910E-12
 3.00000E+01    7.48250E-13
