# n + Ni 58 : (n,tot)   
# jendl4.0   S.IIJIMA                          EVAL-MAR87
# uncertainties: y
# # energies =    69
#   E(MeV)       xs(mb)       xslow(mb)      xsupp(mb)
 1.00000E-10    6.85721E+04    6.72006E+04    6.99435E+04
 5.00000E-09    3.43741E+04    3.36866E+04    3.50616E+04
 1.00000E-08    3.19042E+04    3.12662E+04    3.25423E+04
 1.50000E-08    3.07087E+04    3.00945E+04    3.13229E+04
 2.00000E-08    2.99652E+04    2.93659E+04    3.05645E+04
 2.50000E-08    2.94454E+04    2.88565E+04    3.00343E+04
 3.00000E-08    2.90559E+04    2.84747E+04    2.96370E+04
 3.50000E-08    2.87007E+04    2.81266E+04    2.92747E+04
 4.20000E-08    2.83570E+04    2.77898E+04    2.89241E+04
 5.00000E-08    2.80729E+04    2.75114E+04    2.86343E+04
 5.80000E-08    2.78351E+04    2.72784E+04    2.83918E+04
 6.70000E-08    2.75951E+04    2.70432E+04    2.81470E+04
 8.00000E-08    2.73232E+04    2.67768E+04    2.78697E+04
 1.00000E-07    2.69888E+04    2.64490E+04    2.75286E+04
 1.40000E-07    2.66835E+04    2.61498E+04    2.72172E+04
 1.80000E-07    2.64790E+04    2.59494E+04    2.70085E+04
 2.20000E-07    2.63442E+04    2.58173E+04    2.68711E+04
 2.50000E-07    2.62525E+04    2.57275E+04    2.67776E+04
 2.80000E-07    2.61863E+04    2.56626E+04    2.67100E+04
 3.00000E-07    2.61413E+04    2.56185E+04    2.66641E+04
 3.20000E-07    2.60891E+04    2.55673E+04    2.66109E+04
 3.50000E-07    2.60189E+04    2.54985E+04    2.65393E+04
 4.00000E-07    2.59143E+04    2.53960E+04    2.64326E+04
 5.00000E-07    2.57952E+04    2.52793E+04    2.63111E+04
 6.25000E-07    2.56892E+04    2.51754E+04    2.62030E+04
 7.80000E-07    2.56231E+04    2.51106E+04    2.61356E+04
 8.50000E-07    2.55903E+04    2.50785E+04    2.61021E+04
 9.10000E-07    2.55686E+04    2.50573E+04    2.60800E+04
 9.50000E-07    2.55567E+04    2.50455E+04    2.60678E+04
 9.72000E-07    2.55478E+04    2.50369E+04    2.60588E+04
 9.96000E-07    2.55386E+04    2.50278E+04    2.60494E+04
 1.02000E-06    2.55292E+04    2.50186E+04    2.60398E+04
 1.04500E-06    2.55194E+04    2.50090E+04    2.60298E+04
 1.07100E-06    2.55102E+04    2.50000E+04    2.60204E+04
 1.09700E-06    2.55034E+04    2.49933E+04    2.60135E+04
 1.12300E-06    2.54967E+04    2.49868E+04    2.60066E+04
 1.15000E-06    2.54747E+04    2.49652E+04    2.59842E+04
 1.30000E-06    2.54306E+04    2.49220E+04    2.59392E+04
 1.50000E-06    2.53647E+04    2.48574E+04    2.58720E+04
 2.10000E-06    2.53025E+04    2.47964E+04    2.58085E+04
 2.60000E-06    2.52368E+04    2.47320E+04    2.57415E+04
 3.30000E-06    2.51876E+04    2.46838E+04    2.56913E+04
 4.00000E-06    2.50947E+04    2.45928E+04    2.55966E+04
 9.87700E-06    2.49924E+04    2.44925E+04    2.54922E+04
 1.59680E-05    2.49106E+04    2.44124E+04    2.54088E+04
 2.77000E-05    2.48242E+04    2.43277E+04    2.53207E+04
 4.80520E-05    2.47332E+04    2.42385E+04    2.52278E+04
 7.55014E-05    2.45538E+04    2.40627E+04    2.50449E+04
 1.48728E-04    2.41356E+04    2.36529E+04    2.46183E+04
 3.67262E-04    2.31017E+04    2.26396E+04    2.35637E+04
 9.06898E-04    2.16335E+04    2.12008E+04    2.20661E+04
 1.42510E-03    2.00575E+04    1.96564E+04    2.04587E+04
 2.23945E-03    1.78533E+04    1.74962E+04    1.82104E+04
 3.51910E-03    1.48591E+04    1.45619E+04    1.51563E+04
 5.53000E-03    1.03915E+04    1.01837E+04    1.05993E+04
 9.11800E-03    9.91366E+03    9.71539E+03    1.01119E+04
 1.50300E-02    4.95654E+04    4.85741E+04    5.05567E+04
 2.47800E-02    1.10066E+04    1.07864E+04    1.12267E+04
 4.08500E-02    8.73970E+03    8.56491E+03    8.91450E+03
 6.73400E-02    8.47842E+03    8.30885E+03    8.64799E+03
 1.11000E-01    6.23080E+03    6.10618E+03    6.35541E+03
 1.83000E-01    6.14636E+03    6.02343E+03    6.26929E+03
 3.02000E-01    4.35580E+03    4.29460E+03    4.41700E+03
 5.00000E-01    3.30477E+03    3.25834E+03    3.35120E+03
 8.21000E-01    3.29578E+03    3.24367E+03    3.34789E+03
 1.35300E+00    3.19492E+03    3.12984E+03    3.26000E+03
 2.23100E+00    3.34102E+03    3.28961E+03    3.39244E+03
 3.67900E+00    3.65343E+03    3.58942E+03    3.71743E+03
 6.06500E+00    3.56809E+03    3.51592E+03    3.62025E+03
