# n + Ni 58 : (n,xn)    
# jendl4.0   S.IIJIMA                          EVAL-MAR87
# 
# # energies =   100
#   E(MeV)        xs(mb) 
 1.47982E+00    0.00000E+00
 1.48013E+00    2.72885E+00
 1.48075E+00    8.10119E+00
 1.48195E+00    1.85100E+01
 1.48307E+00    2.82683E+01
 1.48517E+00    4.65649E+01
 1.48702E+00    6.25745E+01
 1.49025E+00    9.05912E+01
 1.49268E+00    1.11604E+02
 1.49634E+00    1.43122E+02
 1.50000E+00    1.74641E+02
 1.51452E+00    1.85629E+02
 1.52826E+00    1.95931E+02
 1.54126E+00    2.05589E+02
 1.55354E+00    2.14643E+02
 1.56515E+00    2.23131E+02
 1.57611E+00    2.31089E+02
 1.58645E+00    2.38550E+02
 1.60603E+00    2.52538E+02
 1.62336E+00    2.64778E+02
 1.63867E+00    2.75488E+02
 1.65219E+00    2.84859E+02
 1.66411E+00    2.93058E+02
 1.68518E+00    3.07408E+02
 1.70116E+00    3.18170E+02
 1.72541E+00    3.34313E+02
 1.75000E+00    3.50456E+02
 1.77946E+00    3.55399E+02
 1.83220E+00    3.64048E+02
 1.87278E+00    3.70535E+02
 1.90381E+00    3.75401E+02
 1.95131E+00    3.82699E+02
 2.00000E+00    3.89997E+02
 2.02819E+00    3.98706E+02
 2.05497E+00    4.06870E+02
 2.08040E+00    4.14525E+02
 2.12894E+00    4.28876E+02
 2.17233E+00    4.41434E+02
 2.21103E+00    4.52422E+02
 2.24545E+00    4.62036E+02
 2.27601E+00    4.70449E+02
 2.33050E+00    4.85171E+02
 2.37222E+00    4.96213E+02
 2.40400E+00    5.04494E+02
 2.45247E+00    5.16916E+02
 2.50191E+00    5.29338E+02
 2.54005E+00    5.41580E+02
 2.57390E+00    5.52292E+02
 2.63423E+00    5.71038E+02
 2.68040E+00    5.85098E+02
 2.71555E+00    5.95642E+02
 2.76916E+00    6.11459E+02
 2.82382E+00    6.27276E+02
 2.85541E+00    6.50356E+02
 2.87934E+00    6.67665E+02
 2.91560E+00    6.93630E+02
 2.95232E+00    7.19594E+02
 2.97290E+00    7.42774E+02
 2.99363E+00    7.65953E+02
 3.00000E+00    7.76171E+02
 3.04491E+00    7.88952E+02
 3.09049E+00    8.01733E+02
 3.14639E+00    8.13788E+02
 3.23214E+00    8.31872E+02
 3.32022E+00    8.49955E+02
 3.39910E+00    8.58082E+02
 3.47985E+00    8.66210E+02
 3.58535E+00    8.68985E+02
 3.59237E+00    8.69074E+02
 3.65596E+00    8.70855E+02
 3.68302E+00    8.74476E+02
 3.84011E+00    8.67274E+02
 3.96617E+00    8.56014E+02
 4.00000E+00    8.54029E+02
 4.00046E+00    8.54059E+02
 4.26790E+00    8.57500E+02
 4.55322E+00    8.60942E+02
 4.77138E+00    8.65129E+02
 5.00000E+00    8.69317E+02
 5.23318E+00    8.62167E+02
 5.41517E+00    8.56805E+02
 5.70009E+00    8.48761E+02
 6.00000E+00    8.40718E+02
 6.23574E+00    8.29349E+02
 6.41860E+00    8.20822E+02
 6.70300E+00    8.08032E+02
 7.00000E+00    7.95242E+02
 8.00000E+00    7.32052E+02
 9.00000E+00    6.76947E+02
 1.00000E+01    6.20966E+02
 1.10000E+01    5.97059E+02
 1.20000E+01    6.78467E+02
 1.30000E+01    8.34345E+02
 1.40000E+01    9.97017E+02
 1.50000E+01    1.11888E+03
 1.60000E+01    1.19266E+03
 1.70000E+01    1.23674E+03
 1.80000E+01    1.26831E+03
 1.90000E+01    1.28973E+03
 2.00000E+01    1.29877E+03
