# n + Ni 58 : (n,xa)    
# jendl4.0   S.IIJIMA                          EVAL-MAR87
# 
# # energies =   100
#   E(MeV)        xs(mb) 
 1.47982E+00    1.72803E-01
 1.48013E+00    1.72903E-01
 1.48075E+00    1.73100E-01
 1.48195E+00    1.73481E-01
 1.48307E+00    1.73839E-01
 1.48517E+00    1.74511E-01
 1.48702E+00    1.75100E-01
 1.49025E+00    1.76133E-01
 1.49268E+00    1.76908E-01
 1.49634E+00    1.78074E-01
 1.50000E+00    1.79243E-01
 1.51452E+00    1.92455E-01
 1.52826E+00    2.04957E-01
 1.54126E+00    2.16781E-01
 1.55354E+00    2.27957E-01
 1.56515E+00    2.38515E-01
 1.57611E+00    2.48485E-01
 1.58645E+00    2.57896E-01
 1.60603E+00    2.75707E-01
 1.62336E+00    2.91472E-01
 1.63867E+00    3.05406E-01
 1.65219E+00    3.17706E-01
 1.66411E+00    3.28552E-01
 1.68518E+00    3.47720E-01
 1.70116E+00    3.62256E-01
 1.72541E+00    3.84318E-01
 1.75000E+00    4.06694E-01
 1.77946E+00    4.33493E-01
 1.83220E+00    4.81480E-01
 1.87278E+00    5.18402E-01
 1.90381E+00    5.46628E-01
 1.95131E+00    5.89848E-01
 2.00000E+00    6.34146E-01
 2.02819E+00    8.13799E-01
 2.05497E+00    9.84522E-01
 2.08040E+00    1.14662E+00
 2.12894E+00    1.45599E+00
 2.17233E+00    1.73260E+00
 2.21103E+00    1.97925E+00
 2.24545E+00    2.19867E+00
 2.27601E+00    2.39347E+00
 2.33050E+00    2.74076E+00
 2.37222E+00    3.00668E+00
 2.40400E+00    3.20924E+00
 2.45247E+00    3.51817E+00
 2.50191E+00    3.83333E+00
 2.54005E+00    4.07644E+00
 2.57390E+00    4.29220E+00
 2.63423E+00    4.67672E+00
 2.68040E+00    4.97101E+00
 2.71555E+00    5.19511E+00
 2.76916E+00    5.53678E+00
 2.82382E+00    5.88519E+00
 2.85541E+00    6.08656E+00
 2.87934E+00    6.23905E+00
 2.91560E+00    6.47020E+00
 2.95232E+00    6.70426E+00
 2.97290E+00    6.83545E+00
 2.99363E+00    6.96757E+00
 3.00000E+00    7.00817E+00
 3.04491E+00    7.58567E+00
 3.09049E+00    8.17182E+00
 3.14639E+00    8.89063E+00
 3.23214E+00    9.99330E+00
 3.32022E+00    1.11260E+01
 3.39910E+00    1.21403E+01
 3.47985E+00    1.31788E+01
 3.58535E+00    1.45354E+01
 3.59237E+00    1.46257E+01
 3.65596E+00    1.54434E+01
 3.68302E+00    1.57914E+01
 3.84011E+00    1.78115E+01
 3.96617E+00    1.94326E+01
 4.00000E+00    1.98676E+01
 4.00046E+00    1.98770E+01
 4.26790E+00    2.53594E+01
 4.55322E+00    3.12082E+01
 4.77138E+00    3.56804E+01
 5.00000E+00    4.03669E+01
 5.23318E+00    4.40533E+01
 5.41517E+00    4.69305E+01
 5.70009E+00    5.14350E+01
 6.00000E+00    5.61765E+01
 6.23574E+00    5.88327E+01
 6.41860E+00    6.08931E+01
 6.70300E+00    6.40976E+01
 7.00000E+00    6.74440E+01
 8.00000E+00    7.69413E+01
 9.00000E+00    8.39133E+01
 1.00000E+01    8.94412E+01
 1.10000E+01    9.51954E+01
 1.20000E+01    1.00800E+02
 1.30000E+01    1.05410E+02
 1.40000E+01    1.09324E+02
 1.50000E+01    1.13869E+02
 1.60000E+01    1.18438E+02
 1.70000E+01    1.22758E+02
 1.80000E+01    1.27117E+02
 1.90000E+01    1.31295E+02
 2.00000E+01    1.34694E+02
