# n + Br 81 : (n,g)     
# jendl4.0   K.Shibata, A.Ichihara, S.Kunieda  EVAL-AUG09
# uncertainties: n
# # energies =    69
#   E(MeV)       xs(mb) 
 1.00000E-10    1.64406E+04
 5.00000E-09    4.47681E+03
 1.00000E-08    3.39074E+03
 1.50000E-08    2.84902E+03
 2.00000E-08    2.50673E+03
 2.50000E-08    2.26482E+03
 3.00000E-08    2.08202E+03
 3.50000E-08    1.91439E+03
 4.20000E-08    1.75116E+03
 5.00000E-08    1.61539E+03
 5.80000E-08    1.50154E+03
 6.70000E-08    1.38588E+03
 8.00000E-08    1.25432E+03
 1.00000E-07    1.09162E+03
 1.40000E-07    9.42390E+02
 1.80000E-07    8.41866E+02
 2.20000E-07    7.75599E+02
 2.50000E-07    7.30441E+02
 2.80000E-07    6.98044E+02
 3.00000E-07    6.75280E+02
 3.20000E-07    6.49958E+02
 3.50000E-07    6.15020E+02
 4.00000E-07    5.63198E+02
 5.00000E-07    5.04382E+02
 6.25000E-07    4.52025E+02
 7.80000E-07    4.18946E+02
 8.50000E-07    4.03392E+02
 9.10000E-07    3.92541E+02
 9.50000E-07    3.86261E+02
 9.72000E-07    3.81825E+02
 9.96000E-07    3.77353E+02
 1.02000E-06    3.72961E+02
 1.04500E-06    3.68563E+02
 1.07100E-06    3.64233E+02
 1.09700E-06    3.60042E+02
 1.12300E-06    3.55959E+02
 1.15000E-06    3.43585E+02
 1.30000E-06    3.22205E+02
 1.50000E-06    2.87451E+02
 2.10000E-06    2.52044E+02
 2.60000E-06    2.26711E+02
 3.30000E-06    2.05261E+02
 4.00000E-06    1.62770E+02
 9.87700E-06    1.24857E+02
 1.59680E-05    1.10909E+02
 2.77000E-05    1.16355E+02
 4.80520E-05    1.97183E+02
 7.55014E-05    5.60643E+04
 1.48728E-04    8.57930E+02
 3.67262E-04    3.00289E+03
 9.06898E-04    3.26212E+03
 1.42510E-03    1.30233E+03
 2.23945E-03    7.82111E+02
 3.51910E-03    8.08373E+02
 5.53000E-03    5.93532E+02
 9.11800E-03    4.75515E+02
 1.50300E-02    3.98374E+02
 2.47800E-02    2.86879E+02
 4.08500E-02    2.06753E+02
 6.73400E-02    1.51757E+02
 1.11000E-01    1.21169E+02
 1.83000E-01    8.93331E+01
 3.02000E-01    5.92221E+01
 5.00000E-01    3.29804E+01
 8.21000E-01    1.43234E+01
 1.35300E+00    7.80954E+00
 2.23100E+00    6.09017E+00
 3.67900E+00    3.14663E+00
 6.06500E+00    9.89284E-01
