# n + Ge 73 : (n,el)    
# endfb8.0   Iwamoto,Herman,Mughabghab+        EVAL-AUG04
# uncertainties: n
# # energies =   171
#   E(MeV)       xs(mb) 
 1.00000E-11    9.25993E+03
 1.00000E-07    4.77519E+03
 4.13990E-07    4.75901E+03
 5.31580E-07    4.75139E+03
 6.82560E-07    4.74160E+03
 8.76420E-07    4.72973E+03
 1.12540E-06    4.71554E+03
 1.44500E-06    4.69732E+03
 1.85540E-06    4.67415E+03
 2.37240E-06    4.64415E+03
 3.05900E-06    4.60530E+03
 3.92790E-06    4.55577E+03
 5.04350E-06    4.49346E+03
 6.47600E-06    4.42196E+03
 8.31530E-06    4.33173E+03
 1.06770E-05    4.22323E+03
 1.37100E-05    4.09687E+03
 1.76030E-05    3.95357E+03
 2.26030E-05    3.79654E+03
 2.92030E-05    3.64986E+03
 3.72670E-05    3.57128E+03
 4.78510E-05    3.79147E+03
 6.14420E-05    5.81937E+03
 7.88930E-05    1.69157E+05
 1.01300E-04    7.86664E+05
 1.30070E-04    9.36839E+03
 1.67020E-04    2.60598E+04
 2.14450E-04    5.80459E+04
 2.75360E-04    1.00437E+05
 3.53580E-04    4.99137E+04
 4.54000E-04    7.73849E+04
 5.82950E-04    7.18189E+03
 7.48520E-04    6.27864E+03
 9.61120E-04    2.30616E+04
 1.23410E-03    1.50101E+04
 1.58460E-03    2.65386E+04
 2.03470E-03    6.67050E+03
 2.24870E-03    2.88191E+04
 2.48520E-03    2.12854E+04
 2.61260E-03    1.35260E+04
 2.74650E-03    1.19830E+04
 3.03540E-03    6.05988E+03
 3.35460E-03    5.04491E+03
 3.70740E-03    1.54822E+04
 4.30740E-03    1.17459E+04
 5.53080E-03    1.01676E+04
 7.10170E-03    1.18088E+04
 9.11880E-03    1.17770E+04
 1.17090E-02    1.10227E+04
 1.50340E-02    1.07596E+04
 1.93050E-02    1.06317E+04
 2.18750E-02    1.05526E+04
 2.35790E-02    1.05100E+04
 2.41760E-02    1.04878E+04
 2.47880E-02    1.04534E+04
 2.60580E-02    1.04127E+04
 2.70000E-02    1.03680E+04
 2.85000E-02    1.02803E+04
 3.18280E-02    1.01731E+04
 3.43070E-02    1.00074E+04
 4.08680E-02    9.66012E+03
 4.63090E-02    9.26602E+03
 5.24750E-02    9.05680E+03
 5.65620E-02    8.82448E+03
 6.73790E-02    8.57544E+03
 7.20000E-02    8.40713E+03
 7.95000E-02    8.26793E+03
 8.25000E-02    8.17600E+03
 8.65170E-02    7.97479E+03
 9.80370E-02    7.71397E+03
 1.11090E-01    7.58970E+03
 1.16790E-01    7.51451E+03
 1.22770E-01    7.43546E+03
 1.29070E-01    7.35229E+03
 1.35690E-01    7.26494E+03
 1.42640E-01    7.17308E+03
 1.49960E-01    7.07652E+03
 1.57640E-01    6.97501E+03
 1.65730E-01    6.86828E+03
 1.74220E-01    6.75608E+03
 1.83160E-01    6.63809E+03
 1.92550E-01    6.51575E+03
 2.02420E-01    6.42647E+03
 2.12800E-01    6.34950E+03
 2.23710E-01    6.26858E+03
 2.35180E-01    6.18351E+03
 2.47240E-01    6.04708E+03
 2.73240E-01    5.90125E+03
 2.87250E-01    5.82398E+03
 2.94520E-01    5.78791E+03
 2.97200E-01    5.77350E+03
 2.98500E-01    5.75628E+03
 3.01970E-01    5.66033E+03
 3.33730E-01    5.48258E+03
 3.68830E-01    5.33559E+03
 3.87740E-01    5.22705E+03
 4.07620E-01    5.08407E+03
 4.50490E-01    4.88752E+03
 4.97870E-01    4.72990E+03
 5.23400E-01    4.62395E+03
 5.50230E-01    4.50944E+03
 5.78440E-01    4.37331E+03
 6.08100E-01    4.25379E+03
 6.39280E-01    4.14180E+03
 6.72060E-01    3.99067E+03
 7.06510E-01    3.84896E+03
 7.42740E-01    3.71707E+03
 7.80820E-01    3.57202E+03
 8.20850E-01    3.45127E+03
 8.62940E-01    3.27888E+03
 9.07180E-01    3.09693E+03
 9.61640E-01    2.94767E+03
 1.00260E+00    2.78502E+03
 1.10800E+00    2.62442E+03
 1.16480E+00    2.48211E+03
 1.22460E+00    2.37791E+03
 1.28730E+00    2.28212E+03
 1.35340E+00    2.18310E+03
 1.42270E+00    2.10284E+03
 1.49570E+00    2.02615E+03
 1.57240E+00    1.94693E+03
 1.65300E+00    1.87168E+03
 1.73770E+00    1.79468E+03
 1.82680E+00    1.72725E+03
 1.92050E+00    1.66185E+03
 2.01900E+00    1.61726E+03
 2.12250E+00    1.58341E+03
 2.23130E+00    1.56256E+03
 2.30690E+00    1.55209E+03
 2.34570E+00    1.54676E+03
 2.36530E+00    1.54316E+03
 2.38520E+00    1.53474E+03
 2.46600E+00    1.52174E+03
 2.59240E+00    1.51605E+03
 2.72530E+00    1.52403E+03
 2.86500E+00    1.54189E+03
 3.01190E+00    1.56285E+03
 3.16640E+00    1.59132E+03
 3.32870E+00    1.65391E+03
 3.67880E+00    1.75252E+03
 4.06570E+00    1.86319E+03
 4.49330E+00    1.94910E+03
 4.72370E+00    2.00573E+03
 4.96590E+00    2.05865E+03
 5.22050E+00    2.10393E+03
 5.48810E+00    2.15138E+03
 5.76950E+00    2.20067E+03
 6.06530E+00    2.23542E+03
 6.37630E+00    2.25910E+03
 6.59240E+00    2.27378E+03
 6.70320E+00    2.29382E+03
 7.04690E+00    2.30997E+03
 7.40820E+00    2.31754E+03
 7.78800E+00    2.32318E+03
 8.18730E+00    2.31268E+03
 8.60710E+00    2.29842E+03
 9.04840E+00    2.27617E+03
 9.51230E+00    2.24437E+03
 1.00000E+01    2.20492E+03
 1.05130E+01    2.15731E+03
 1.10520E+01    2.10252E+03
 1.16180E+01    2.04116E+03
 1.22140E+01    1.97281E+03
 1.28400E+01    1.89879E+03
 1.34990E+01    1.83909E+03
 1.38400E+01    1.79816E+03
 1.41910E+01    1.75762E+03
 1.45500E+01    1.71632E+03
 1.49180E+01    1.65202E+03
 1.56830E+01    1.56398E+03
 1.64870E+01    1.47888E+03
