# n + Ge 73 : (n,tot)   
# endfb8.0   Iwamoto,Herman,Mughabghab+        EVAL-AUG04
# uncertainties: n
# # energies =   171
#   E(MeV)       xs(mb) 
 1.00000E-11    1.68261E+05
 1.00000E-07    1.00611E+04
 4.13990E-07    8.16270E+03
 5.31580E-07    7.75182E+03
 6.82560E-07    7.38610E+03
 8.76420E-07    7.05942E+03
 1.12540E-06    6.76692E+03
 1.44500E-06    6.50369E+03
 1.85540E-06    6.26451E+03
 2.37240E-06    6.04165E+03
 3.05900E-06    5.83132E+03
 3.92790E-06    5.63289E+03
 5.04350E-06    5.44078E+03
 6.47600E-06    5.25090E+03
 8.31530E-06    5.06075E+03
 1.06770E-05    4.86642E+03
 1.37100E-05    4.66817E+03
 1.76030E-05    4.46878E+03
 2.26030E-05    4.27321E+03
 2.92030E-05    4.11283E+03
 3.72670E-05    4.06118E+03
 4.78510E-05    4.40315E+03
 6.14420E-05    6.93165E+03
 7.88930E-05    1.92819E+05
 1.01300E-04    8.83378E+05
 1.30070E-04    9.89349E+03
 1.67020E-04    4.95357E+04
 2.14450E-04    7.92284E+04
 2.75360E-04    1.22154E+05
 3.53580E-04    6.41489E+04
 4.54000E-04    8.68460E+04
 5.82950E-04    7.88649E+03
 7.48520E-04    8.56878E+03
 9.61120E-04    2.64798E+04
 1.23410E-03    1.70076E+04
 1.58460E-03    2.85114E+04
 2.03470E-03    6.73446E+03
 2.24870E-03    3.15315E+04
 2.48520E-03    2.23013E+04
 2.61260E-03    1.44102E+04
 2.74650E-03    1.23725E+04
 3.03540E-03    6.06267E+03
 3.35460E-03    5.04651E+03
 3.70740E-03    1.57826E+04
 4.30740E-03    1.20275E+04
 5.53080E-03    1.03262E+04
 7.10170E-03    1.19495E+04
 9.11880E-03    1.21711E+04
 1.17090E-02    1.13614E+04
 1.50340E-02    1.10709E+04
 1.93050E-02    1.09227E+04
 2.18750E-02    1.08189E+04
 2.35790E-02    1.07599E+04
 2.41760E-02    1.07291E+04
 2.47880E-02    1.06814E+04
 2.60580E-02    1.06250E+04
 2.70000E-02    1.05630E+04
 2.85000E-02    1.04413E+04
 3.18280E-02    1.02927E+04
 3.43070E-02    1.00667E+04
 4.08680E-02    9.75916E+03
 4.63090E-02    9.47044E+03
 5.24750E-02    9.27691E+03
 5.65620E-02    9.03827E+03
 6.73790E-02    8.78513E+03
 7.20000E-02    8.64602E+03
 7.95000E-02    8.53432E+03
 8.25000E-02    8.46054E+03
 8.65170E-02    8.29908E+03
 9.80370E-02    8.07904E+03
 1.11090E-01    7.96739E+03
 1.16790E-01    7.90038E+03
 1.22770E-01    7.82993E+03
 1.29070E-01    7.75581E+03
 1.35690E-01    7.67796E+03
 1.42640E-01    7.59610E+03
 1.49960E-01    7.51004E+03
 1.57640E-01    7.41957E+03
 1.65730E-01    7.32445E+03
 1.74220E-01    7.22446E+03
 1.83160E-01    7.11930E+03
 1.92550E-01    7.00905E+03
 2.02420E-01    6.92235E+03
 2.12800E-01    6.85157E+03
 2.23710E-01    6.77717E+03
 2.35180E-01    6.69895E+03
 2.47240E-01    6.57350E+03
 2.73240E-01    6.43941E+03
 2.87250E-01    6.36836E+03
 2.94520E-01    6.33519E+03
 2.97200E-01    6.32195E+03
 2.98500E-01    6.30611E+03
 3.01970E-01    6.21915E+03
 3.33730E-01    6.05845E+03
 3.68830E-01    5.92750E+03
 3.87740E-01    5.83431E+03
 4.07620E-01    5.70741E+03
 4.50490E-01    5.53514E+03
 4.97870E-01    5.39810E+03
 5.23400E-01    5.31397E+03
 5.50230E-01    5.22669E+03
 5.78440E-01    5.13493E+03
 6.08100E-01    5.04591E+03
 6.39280E-01    4.96015E+03
 6.72060E-01    4.87001E+03
 7.06510E-01    4.77919E+03
 7.42740E-01    4.69303E+03
 7.80820E-01    4.60290E+03
 8.20850E-01    4.51557E+03
 8.62940E-01    4.42908E+03
 9.07180E-01    4.33463E+03
 9.61640E-01    4.25098E+03
 1.00260E+00    4.13712E+03
 1.10800E+00    4.01912E+03
 1.16480E+00    3.93592E+03
 1.22460E+00    3.86455E+03
 1.28730E+00    3.79587E+03
 1.35340E+00    3.72404E+03
 1.42270E+00    3.66322E+03
 1.49570E+00    3.60693E+03
 1.57240E+00    3.55062E+03
 1.65300E+00    3.50794E+03
 1.73770E+00    3.46599E+03
 1.82680E+00    3.43488E+03
 1.92050E+00    3.40967E+03
 2.01900E+00    3.39272E+03
 2.12250E+00    3.38364E+03
 2.23130E+00    3.38527E+03
 2.30690E+00    3.38902E+03
 2.34570E+00    3.39093E+03
 2.36530E+00    3.39222E+03
 2.38520E+00    3.39616E+03
 2.46600E+00    3.41220E+03
 2.59240E+00    3.43563E+03
 2.72530E+00    3.46783E+03
 2.86500E+00    3.50286E+03
 3.01190E+00    3.53995E+03
 3.16640E+00    3.57985E+03
 3.32870E+00    3.64395E+03
 3.67880E+00    3.73110E+03
 4.06570E+00    3.80535E+03
 4.49330E+00    3.85594E+03
 4.72370E+00    3.88302E+03
 4.96590E+00    3.90822E+03
 5.22050E+00    3.92527E+03
 5.48810E+00    3.94206E+03
 5.76950E+00    3.95968E+03
 6.06530E+00    3.96934E+03
 6.37630E+00    3.97216E+03
 6.59240E+00    3.97391E+03
 6.70320E+00    3.97620E+03
 7.04690E+00    3.97091E+03
 7.40820E+00    3.95983E+03
 7.78800E+00    3.94798E+03
 8.18730E+00    3.92782E+03
 8.60710E+00    3.90261E+03
 9.04840E+00    3.87421E+03
 9.51230E+00    3.83849E+03
 1.00000E+01    3.79600E+03
 1.05130E+01    3.74671E+03
 1.10520E+01    3.68921E+03
 1.16180E+01    3.62399E+03
 1.22140E+01    3.54737E+03
 1.28400E+01    3.46150E+03
 1.34990E+01    3.38910E+03
 1.38400E+01    3.33898E+03
 1.41910E+01    3.28756E+03
 1.45500E+01    3.23491E+03
 1.49180E+01    3.15320E+03
 1.56830E+01    3.04208E+03
 1.64870E+01    2.93693E+03
