# n + Se 77 : (n,el)    
# jendl4.0   S.Kamada, K.Shibata, A.Ichihara+  EVAL-MAY09
# uncertainties: n
# # energies =   171
#   E(MeV)       xs(mb) 
 1.00000E-11    1.60013E+04
 1.00000E-07    8.39331E+03
 4.13990E-07    8.36554E+03
 5.31580E-07    8.35279E+03
 6.82560E-07    8.33641E+03
 8.76420E-07    8.31594E+03
 1.12540E-06    8.29268E+03
 1.44500E-06    8.26327E+03
 1.85540E-06    8.22588E+03
 2.37240E-06    8.17746E+03
 3.05900E-06    8.11475E+03
 3.92790E-06    8.03628E+03
 5.04350E-06    7.95096E+03
 6.47600E-06    7.84556E+03
 8.31530E-06    7.71939E+03
 1.06770E-05    7.58089E+03
 1.37100E-05    7.42332E+03
 1.76030E-05    7.25206E+03
 2.26030E-05    7.07028E+03
 2.92030E-05    6.88596E+03
 3.72670E-05    6.70457E+03
 4.78510E-05    6.52700E+03
 6.14420E-05    6.36013E+03
 7.88930E-05    6.20957E+03
 1.01300E-04    6.09141E+03
 1.30070E-04    6.08138E+03
 1.67020E-04    9.39062E+04
 2.14450E-04    1.40482E+04
 2.75360E-04    8.63402E+03
 3.53580E-04    5.47481E+03
 4.54000E-04    5.12110E+03
 5.82950E-04    2.29233E+04
 7.48520E-04    1.10713E+04
 9.61120E-04    3.66982E+04
 1.23410E-03    1.49346E+04
 1.58460E-03    7.81252E+03
 2.03470E-03    6.14277E+03
 2.24870E-03    3.81805E+04
 2.48520E-03    3.61793E+04
 2.61260E-03    1.95328E+04
 2.74650E-03    1.76402E+04
 3.03540E-03    1.70122E+04
 3.35460E-03    1.64522E+04
 3.70740E-03    1.57036E+04
 4.30740E-03    1.46634E+04
 5.53080E-03    1.34683E+04
 7.10170E-03    1.24169E+04
 9.11880E-03    1.15534E+04
 1.17090E-02    1.09255E+04
 1.50340E-02    1.01569E+04
 1.93050E-02    9.52616E+03
 2.18750E-02    9.32962E+03
 2.35790E-02    9.23001E+03
 2.41760E-02    9.17809E+03
 2.47880E-02    9.09763E+03
 2.60580E-02    9.00243E+03
 2.70000E-02    8.89791E+03
 2.85000E-02    8.71045E+03
 3.18280E-02    8.55409E+03
 3.43070E-02    8.33677E+03
 4.08680E-02    8.09891E+03
 4.63090E-02    7.91673E+03
 5.24750E-02    7.78768E+03
 5.65620E-02    7.63357E+03
 6.73790E-02    7.49681E+03
 7.20000E-02    7.41352E+03
 7.95000E-02    7.34540E+03
 8.25000E-02    7.30744E+03
 8.65170E-02    7.22990E+03
 9.80370E-02    7.14101E+03
 1.11090E-01    7.09937E+03
 1.16790E-01    7.07418E+03
 1.22770E-01    7.04769E+03
 1.29070E-01    7.01983E+03
 1.35690E-01    6.99057E+03
 1.42640E-01    6.95979E+03
 1.49960E-01    6.92744E+03
 1.57640E-01    6.89331E+03
 1.65730E-01    6.85320E+03
 1.74220E-01    6.80861E+03
 1.83160E-01    6.76021E+03
 1.92550E-01    6.71015E+03
 2.02420E-01    6.68031E+03
 2.12800E-01    6.65872E+03
 2.23710E-01    6.63604E+03
 2.35180E-01    6.60468E+03
 2.47240E-01    6.42147E+03
 2.73240E-01    6.17159E+03
 2.87250E-01    6.03796E+03
 2.94520E-01    5.97556E+03
 2.97200E-01    5.95065E+03
 2.98500E-01    5.92449E+03
 3.01970E-01    5.78553E+03
 3.33730E-01    5.49888E+03
 3.68830E-01    5.26496E+03
 3.87740E-01    5.10431E+03
 4.07620E-01    4.95063E+03
 4.50490E-01    4.70651E+03
 4.97870E-01    4.51247E+03
 5.23400E-01    4.40117E+03
 5.50230E-01    4.24830E+03
 5.78440E-01    4.08741E+03
 6.08100E-01    3.95837E+03
 6.39280E-01    3.84123E+03
 6.72060E-01    3.71034E+03
 7.06510E-01    3.57990E+03
 7.42740E-01    3.46652E+03
 7.80820E-01    3.35501E+03
 8.20850E-01    3.25811E+03
 8.62940E-01    3.11637E+03
 9.07180E-01    3.00253E+03
 9.61640E-01    2.86915E+03
 1.00260E+00    2.77318E+03
 1.10800E+00    2.71181E+03
 1.16480E+00    2.65574E+03
 1.22460E+00    2.57420E+03
 1.28730E+00    2.46590E+03
 1.35340E+00    2.34285E+03
 1.42270E+00    2.18236E+03
 1.49570E+00    2.05666E+03
 1.57240E+00    2.00180E+03
 1.65300E+00    1.93554E+03
 1.73770E+00    1.86589E+03
 1.82680E+00    1.79262E+03
 1.92050E+00    1.71662E+03
 2.01900E+00    1.67518E+03
 2.12250E+00    1.65130E+03
 2.23130E+00    1.63050E+03
 2.30690E+00    1.61759E+03
 2.34570E+00    1.61101E+03
 2.36530E+00    1.60656E+03
 2.38520E+00    1.59528E+03
 2.46600E+00    1.57784E+03
 2.59240E+00    1.57041E+03
 2.72530E+00    1.56346E+03
 2.86500E+00    1.55620E+03
 3.01190E+00    1.55839E+03
 3.16640E+00    1.56808E+03
 3.32870E+00    1.58540E+03
 3.67880E+00    1.62496E+03
 4.06570E+00    1.67499E+03
 4.49330E+00    1.71841E+03
 4.72370E+00    1.74936E+03
 4.96590E+00    1.78170E+03
 5.22050E+00    1.81279E+03
 5.48810E+00    1.84374E+03
 5.76950E+00    1.87244E+03
 6.06530E+00    1.90018E+03
 6.37630E+00    1.92107E+03
 6.59240E+00    1.93275E+03
 6.70320E+00    1.94565E+03
 7.04690E+00    1.96353E+03
 7.40820E+00    1.97667E+03
 7.78800E+00    1.98225E+03
 8.18730E+00    1.98448E+03
 8.60710E+00    1.97886E+03
 9.04840E+00    1.96796E+03
 9.51230E+00    1.95003E+03
 1.00000E+01    1.92335E+03
 1.05130E+01    1.89144E+03
 1.10520E+01    1.85348E+03
 1.16180E+01    1.81006E+03
 1.22140E+01    1.76042E+03
 1.28400E+01    1.70671E+03
 1.34990E+01    1.66409E+03
 1.38400E+01    1.63473E+03
 1.41910E+01    1.60485E+03
 1.45500E+01    1.57517E+03
 1.49180E+01    1.53036E+03
 1.56830E+01    1.46939E+03
 1.64870E+01    1.40928E+03
