# n + Se 77 : (n,n')    
# jendl4.0   S.Kamada, K.Shibata, A.Ichihara+  EVAL-MAY09
# uncertainties: n
# # energies =    76
#   E(MeV)       xs(mb) 
 1.64045E-01    0.00000E+00
 1.77605E-01    1.02993E+01
 2.00000E-01    3.23460E+01
 2.42133E-01    5.07135E+01
 2.53063E-01    1.32659E+02
 3.00000E-01    6.45040E+02
 3.05099E-01    6.66076E+02
 4.00000E-01    1.30569E+03
 4.45215E-01    1.40802E+03
 5.00000E-01    1.61988E+03
 5.27466E-01    1.65260E+03
 5.88630E-01    1.85185E+03
 6.00000E-01    1.89555E+03
 6.89023E-01    2.01523E+03
 7.00000E-01    2.05375E+03
 8.00000E-01    2.13710E+03
 8.06592E-01    2.13301E+03
 8.18783E-01    2.12723E+03
 8.28581E-01    2.12470E+03
 8.35242E-01    2.13002E+03
 9.00000E-01    2.21687E+03
 9.23484E-01    2.20735E+03
 9.59401E-01    2.22648E+03
 9.82760E-01    2.26086E+03
 9.91129E-01    2.27318E+03
 1.00000E+00    2.28635E+03
 1.01230E+00    2.27483E+03
 1.01836E+00    2.27006E+03
 1.03757E+00    2.25920E+03
 1.14141E+00    2.20063E+03
 1.14290E+00    2.19979E+03
 1.14731E+00    2.19810E+03
 1.18786E+00    2.18584E+03
 1.19476E+00    2.18399E+03
 1.20255E+00    2.18218E+03
 1.20875E+00    2.18223E+03
 1.24676E+00    2.18391E+03
 1.26939E+00    2.18918E+03
 1.29962E+00    2.20120E+03
 1.36929E+00    2.23557E+03
 1.38216E+00    2.24206E+03
 1.42088E+00    2.26844E+03
 1.43014E+00    2.27720E+03
 1.45787E+00    2.31094E+03
 1.50000E+00    2.37907E+03
 1.50776E+00    2.37460E+03
 1.53083E+00    2.36379E+03
 1.54096E+00    2.36013E+03
 2.00000E+00    2.43685E+03
 2.50000E+00    2.40318E+03
 3.00000E+00    2.35974E+03
 3.50000E+00    2.29393E+03
 4.00000E+00    2.21880E+03
 4.50000E+00    2.14588E+03
 5.00000E+00    2.08287E+03
 5.50000E+00    2.03290E+03
 6.00000E+00    1.99490E+03
 6.50000E+00    1.96559E+03
 7.00000E+00    1.94217E+03
 7.50000E+00    1.92183E+03
 8.00000E+00    1.85766E+03
 8.50000E+00    1.69942E+03
 9.00000E+00    1.45434E+03
 9.50000E+00    1.23193E+03
 1.00000E+01    1.03248E+03
 1.10000E+01    7.69202E+02
 1.20000E+01    6.20320E+02
 1.30000E+01    5.34770E+02
 1.40000E+01    4.80298E+02
 1.45000E+01    4.59279E+02
 1.50000E+01    4.39377E+02
 1.60000E+01    4.07177E+02
 1.70000E+01    3.79570E+02
 1.80000E+01    3.55286E+02
 1.90000E+01    3.33782E+02
 2.00000E+01    3.14729E+02
