# n + Zn 66 : (n,n'16)  
# jendl4.0   N.Iwamoto                         EVAL-Dec09
# uncertainties: n
# # energies =    36
#   E(MeV)       xs(mb) 
 3.27872E+00    0.00000E+00
 3.29099E+00    8.45173E+00
 3.50000E+00    3.31504E+01
 4.00000E+00    4.72984E+01
 4.50000E+00    3.76880E+01
 5.00000E+00    2.49992E+01
 5.50000E+00    1.62968E+01
 6.00000E+00    1.08097E+01
 6.50000E+00    7.28499E+00
 7.00000E+00    4.94904E+00
 7.50000E+00    3.36305E+00
 8.00000E+00    2.27703E+00
 8.50000E+00    1.54824E+00
 9.00000E+00    1.06454E+00
 9.50000E+00    7.46612E-01
 1.00000E+01    5.37747E-01
 1.05000E+01    3.99305E-01
 1.10000E+01    3.08113E-01
 1.15000E+01    2.46181E-01
 1.20000E+01    2.04321E-01
 1.25000E+01    1.74878E-01
 1.30000E+01    1.54053E-01
 1.35000E+01    1.38421E-01
 1.40000E+01    1.26599E-01
 1.45000E+01    1.17063E-01
 1.50000E+01    1.09310E-01
 1.55000E+01    1.02619E-01
 1.60000E+01    9.69546E-02
 1.65000E+01    9.18033E-02
 1.70000E+01    8.73001E-02
 1.75000E+01    8.30586E-02
 1.80000E+01    7.92530E-02
 1.85000E+01    7.55942E-02
 1.90000E+01    7.22375E-02
 1.95000E+01    6.89982E-02
 2.00000E+01    6.59904E-02
