# n + Zn 66 : (n,g)     
# jendl4.0   N.Iwamoto                         EVAL-Dec09
# uncertainties: n
# # energies =   171
#   E(MeV)       xs(mb) 
 1.00000E-11    6.68052E+03
 1.00000E-07    2.22467E+02
 4.13990E-07    1.43563E+02
 5.31580E-07    1.26691E+02
 6.82560E-07    1.11799E+02
 8.76420E-07    9.86600E+01
 1.12540E-06    8.70809E+01
 1.44500E-06    7.68736E+01
 1.85540E-06    6.79091E+01
 2.37240E-06    5.99409E+01
 3.05900E-06    5.28279E+01
 3.92790E-06    4.66064E+01
 5.04350E-06    4.11303E+01
 6.47600E-06    3.62818E+01
 8.31530E-06    3.20057E+01
 1.06770E-05    2.82321E+01
 1.37100E-05    2.48972E+01
 1.76030E-05    2.19582E+01
 2.26030E-05    1.93292E+01
 2.92030E-05    1.70350E+01
 3.72670E-05    1.50358E+01
 4.78510E-05    1.32449E+01
 6.14420E-05    1.16636E+01
 7.88930E-05    1.02728E+01
 1.01300E-04    9.04971E+00
 1.30070E-04    7.99239E+00
 1.67020E-04    7.13057E+00
 2.14450E-04    6.83739E+00
 2.75360E-04    1.67635E+03
 3.53580E-04    5.55996E+00
 4.54000E-04    3.99789E+00
 5.82950E-04    3.38966E+00
 7.48520E-04    2.90535E+00
 9.61120E-04    2.49672E+00
 1.23410E-03    2.15363E+00
 1.58460E-03    1.87661E+00
 2.03470E-03    1.72367E+00
 2.24870E-03    1.65861E+00
 2.48520E-03    1.62136E+00
 2.61260E-03    1.60623E+00
 2.74650E-03    1.60461E+00
 3.03540E-03    1.67945E+00
 3.35460E-03    2.14383E+01
 3.70740E-03    3.27078E+02
 4.30740E-03    9.75603E+01
 5.53080E-03    5.44307E+01
 7.10170E-03    3.33574E+00
 9.11880E-03    1.27114E+02
 1.17090E-02    1.33392E+02
 1.50340E-02    6.29991E+01
 1.93050E-02    6.77160E+01
 2.18750E-02    7.80190E+00
 2.35790E-02    1.08176E+02
 2.41760E-02    9.00167E+01
 2.47880E-02    1.06822E+01
 2.60580E-02    4.15881E+01
 2.70000E-02    9.40383E+00
 2.85000E-02    1.66290E+01
 3.18280E-02    7.36293E+00
 3.43070E-02    2.73326E+01
 4.08680E-02    3.21934E+01
 4.63090E-02    2.19193E+01
 5.24750E-02    2.41203E+01
 5.65620E-02    1.84815E+01
 6.73790E-02    3.69735E+01
 7.20000E-02    2.16465E+01
 7.95000E-02    1.29465E+01
 8.25000E-02    2.49999E+01
 8.65170E-02    1.76124E+01
 9.80370E-02    1.71575E+01
 1.11090E-01    1.08840E+01
 1.16790E-01    1.29457E+01
 1.22770E-01    2.00518E+01
 1.29070E-01    1.50897E+01
 1.35690E-01    1.80343E+01
 1.42640E-01    2.28014E+01
 1.49960E-01    2.22753E+01
 1.57640E-01    2.17726E+01
 1.65730E-01    2.12967E+01
 1.74220E-01    2.08485E+01
 1.83160E-01    2.04390E+01
 1.92550E-01    2.02292E+01
 2.02420E-01    1.98885E+01
 2.12800E-01    1.94676E+01
 2.23710E-01    1.90777E+01
 2.35180E-01    1.87317E+01
 2.47240E-01    1.82703E+01
 2.73240E-01    1.79314E+01
 2.87250E-01    1.78680E+01
 2.94520E-01    1.78392E+01
 2.97200E-01    1.78277E+01
 2.98500E-01    1.78113E+01
 3.01970E-01    1.76355E+01
 3.33730E-01    1.73201E+01
 3.68830E-01    1.70875E+01
 3.87740E-01    1.69396E+01
 4.07620E-01    1.68143E+01
 4.50490E-01    1.66684E+01
 4.97870E-01    1.65877E+01
 5.23400E-01    1.65840E+01
 5.50230E-01    1.65804E+01
 5.78440E-01    1.65770E+01
 6.08100E-01    1.65808E+01
 6.39280E-01    1.65878E+01
 6.72060E-01    1.65974E+01
 7.06510E-01    1.67005E+01
 7.42740E-01    1.68539E+01
 7.80820E-01    1.70213E+01
 8.20850E-01    1.72635E+01
 8.62940E-01    1.75288E+01
 9.07180E-01    1.78589E+01
 9.61640E-01    1.82124E+01
 1.00260E+00    1.71572E+01
 1.10800E+00    1.23646E+01
 1.16480E+00    1.08483E+01
 1.22460E+00    9.94223E+00
 1.28730E+00    9.29558E+00
 1.35340E+00    8.86726E+00
 1.42270E+00    8.58328E+00
 1.49570E+00    8.41834E+00
 1.57240E+00    8.37568E+00
 1.65300E+00    8.41219E+00
 1.73770E+00    8.52522E+00
 1.82680E+00    8.69899E+00
 1.92050E+00    8.39473E+00
 2.01900E+00    8.20576E+00
 2.12250E+00    8.20564E+00
 2.23130E+00    8.24330E+00
 2.30690E+00    8.34100E+00
 2.34570E+00    8.39293E+00
 2.36530E+00    8.42801E+00
 2.38520E+00    8.51701E+00
 2.46600E+00    8.30786E+00
 2.59240E+00    8.10683E+00
 2.72530E+00    7.75617E+00
 2.86500E+00    6.70629E+00
 3.01190E+00    5.91930E+00
 3.16640E+00    5.40585E+00
 3.32870E+00    4.48438E+00
 3.67880E+00    3.75607E+00
 4.06570E+00    3.18480E+00
 4.49330E+00    2.81360E+00
 4.72370E+00    2.59895E+00
 4.96590E+00    2.40184E+00
 5.22050E+00    2.22216E+00
 5.48810E+00    2.05571E+00
 5.76950E+00    1.90217E+00
 6.06530E+00    1.76038E+00
 6.37630E+00    1.65043E+00
 6.59240E+00    1.58798E+00
 6.70320E+00    1.50884E+00
 7.04690E+00    1.39635E+00
 7.40820E+00    1.29332E+00
 7.78800E+00    1.20195E+00
 8.18730E+00    1.12234E+00
 8.60710E+00    1.05498E+00
 9.04840E+00    9.99606E-01
 9.51230E+00    9.47073E-01
 1.00000E+01    9.02379E-01
 1.05130E+01    8.74661E-01
 1.10520E+01    8.56779E-01
 1.16180E+01    8.51555E-01
 1.22140E+01    8.58399E-01
 1.28400E+01    8.74254E-01
 1.34990E+01    8.86881E-01
 1.38400E+01    8.94315E-01
 1.41910E+01    8.98585E-01
 1.45500E+01    8.99835E-01
 1.49180E+01    8.92555E-01
 1.56830E+01    8.61724E-01
 1.64870E+01    8.00517E-01
