# n + Zn 66 : (n,np)    
# jendl4.0   N.Iwamoto                         EVAL-Dec09
# uncertainties: n
# # energies =    21
#   E(MeV)       xs(mb) 
 9.06129E+00    0.00000E+00
 1.05000E+01    6.56230E-02
 1.10000E+01    1.91539E+00
 1.15000E+01    9.69755E+00
 1.20000E+01    1.38232E+01
 1.25000E+01    1.60465E+01
 1.30000E+01    1.86047E+01
 1.35000E+01    2.29374E+01
 1.40000E+01    2.87859E+01
 1.45000E+01    3.57309E+01
 1.50000E+01    4.34983E+01
 1.55000E+01    5.16933E+01
 1.60000E+01    6.12351E+01
 1.65000E+01    7.00543E+01
 1.70000E+01    7.89316E+01
 1.75000E+01    8.74881E+01
 1.80000E+01    9.55899E+01
 1.85000E+01    1.02882E+02
 1.90000E+01    1.09683E+02
 1.95000E+01    1.15658E+02
 2.00000E+01    1.20905E+02
