# n + Zn 66 : (n,n'05)  
# jendl4.0   N.Iwamoto                         EVAL-Dec09
# uncertainties: n
# # energies =    49
#   E(MeV)       xs(mb) 
 2.74517E+00    0.00000E+00
 2.75000E+00    1.09553E+01
 2.80568E+00    3.68624E+01
 2.80800E+00    3.75455E+01
 2.82309E+00    4.19805E+01
 2.87044E+00    5.31502E+01
 2.98341E+00    7.34015E+01
 3.00000E+00    7.58039E+01
 3.07636E+00    8.65162E+01
 3.12502E+00    9.26402E+01
 3.15288E+00    9.55963E+01
 3.26195E+00    1.05647E+02
 3.27668E+00    1.05869E+02
 3.27872E+00    1.05499E+02
 3.29099E+00    1.05270E+02
 3.50000E+00    1.03765E+02
 4.00000E+00    8.70778E+01
 4.50000E+00    6.05961E+01
 5.00000E+00    4.19430E+01
 5.50000E+00    2.97706E+01
 6.00000E+00    2.16602E+01
 6.50000E+00    1.60981E+01
 7.00000E+00    1.21632E+01
 7.50000E+00    9.33511E+00
 8.00000E+00    7.32730E+00
 8.50000E+00    5.91440E+00
 9.00000E+00    4.91237E+00
 9.50000E+00    4.19298E+00
 1.00000E+01    3.66617E+00
 1.05000E+01    3.26505E+00
 1.10000E+01    2.96450E+00
 1.15000E+01    2.71682E+00
 1.20000E+01    2.51901E+00
 1.25000E+01    2.34623E+00
 1.30000E+01    2.19927E+00
 1.35000E+01    2.06606E+00
 1.40000E+01    1.94950E+00
 1.45000E+01    1.84109E+00
 1.50000E+01    1.74506E+00
 1.55000E+01    1.65467E+00
 1.60000E+01    1.57424E+00
 1.65000E+01    1.49751E+00
 1.70000E+01    1.42817E+00
 1.75000E+01    1.36127E+00
 1.80000E+01    1.29986E+00
 1.85000E+01    1.24021E+00
 1.90000E+01    1.18480E+00
 1.95000E+01    1.13108E+00
 2.00000E+01    1.08090E+00
