# n + Zn 66 : (n,n'12)  
# jendl4.0   N.Iwamoto                         EVAL-Dec09
# uncertainties: n
# # energies =    40
#   E(MeV)       xs(mb) 
 3.12502E+00    0.00000E+00
 3.15288E+00    5.34658E+00
 3.26195E+00    1.56106E+01
 3.27668E+00    1.69000E+01
 3.27872E+00    1.69865E+01
 3.29099E+00    1.79130E+01
 3.50000E+00    3.11388E+01
 4.00000E+00    4.33616E+01
 4.50000E+00    3.59310E+01
 5.00000E+00    2.60700E+01
 5.50000E+00    1.88244E+01
 6.00000E+00    1.37770E+01
 6.50000E+00    1.01598E+01
 7.00000E+00    7.52483E+00
 7.50000E+00    5.56258E+00
 8.00000E+00    4.12033E+00
 8.50000E+00    3.08954E+00
 9.00000E+00    2.36198E+00
 9.50000E+00    1.85185E+00
 1.00000E+01    1.49335E+00
 1.05000E+01    1.23705E+00
 1.10000E+01    1.05721E+00
 1.15000E+01    9.23123E-01
 1.20000E+01    8.25146E-01
 1.25000E+01    7.48399E-01
 1.30000E+01    6.88797E-01
 1.35000E+01    6.38667E-01
 1.40000E+01    5.97559E-01
 1.45000E+01    5.61054E-01
 1.50000E+01    5.29597E-01
 1.55000E+01    5.00837E-01
 1.60000E+01    4.75532E-01
 1.65000E+01    4.51857E-01
 1.70000E+01    4.30625E-01
 1.75000E+01    4.10351E-01
 1.80000E+01    3.91904E-01
 1.85000E+01    3.74017E-01
 1.90000E+01    3.57539E-01
 1.95000E+01    3.41504E-01
 2.00000E+01    3.26650E-01
