# n + Zn 66 : (n,n'09)  
# jendl4.0   N.Iwamoto                         EVAL-Dec09
# uncertainties: n
# # energies =    44
#   E(MeV)       xs(mb) 
 2.87044E+00    0.00000E+00
 2.98341E+00    6.23240E+01
 3.00000E+00    6.57029E+01
 3.07636E+00    8.08724E+01
 3.12502E+00    8.95271E+01
 3.15288E+00    9.40714E+01
 3.26195E+00    1.10489E+02
 3.27668E+00    1.12054E+02
 3.27872E+00    1.11625E+02
 3.29099E+00    1.11989E+02
 3.50000E+00    1.23549E+02
 4.00000E+00    1.24083E+02
 4.50000E+00    1.01270E+02
 5.00000E+00    8.26768E+01
 5.50000E+00    7.08806E+01
 6.00000E+00    6.37517E+01
 6.50000E+00    5.94029E+01
 7.00000E+00    5.65575E+01
 7.50000E+00    5.44402E+01
 8.00000E+00    5.27396E+01
 8.50000E+00    5.13311E+01
 9.00000E+00    5.01457E+01
 9.50000E+00    4.91442E+01
 1.00000E+01    4.82945E+01
 1.05000E+01    4.75896E+01
 1.10000E+01    4.69705E+01
 1.15000E+01    4.65257E+01
 1.20000E+01    4.61211E+01
 1.25000E+01    4.59022E+01
 1.30000E+01    4.57030E+01
 1.35000E+01    4.56129E+01
 1.40000E+01    4.55345E+01
 1.45000E+01    4.54649E+01
 1.50000E+01    4.54030E+01
 1.55000E+01    4.53083E+01
 1.60000E+01    4.52193E+01
 1.65000E+01    4.51128E+01
 1.70000E+01    4.50104E+01
 1.75000E+01    4.49087E+01
 1.80000E+01    4.48101E+01
 1.85000E+01    4.47039E+01
 1.90000E+01    4.46002E+01
 1.95000E+01    4.44656E+01
 2.00000E+01    4.43332E+01
