# n + Zn 66 : (n,el)    
# jendl4.0   N.Iwamoto                         EVAL-Dec09
# uncertainties: n
# # energies =    69
#   E(MeV)       xs(mb) 
 1.00000E-10    6.94347E+03
 5.00000E-09    5.03757E+03
 1.00000E-08    4.97875E+03
 1.50000E-08    4.95581E+03
 2.00000E-08    4.94328E+03
 2.50000E-08    4.93554E+03
 3.00000E-08    4.93005E+03
 3.50000E-08    4.92568E+03
 4.20000E-08    4.92155E+03
 5.00000E-08    4.91849E+03
 5.80000E-08    4.91598E+03
 6.70000E-08    4.91391E+03
 8.00000E-08    4.91133E+03
 1.00000E-07    4.90886E+03
 1.40000E-07    4.90672E+03
 1.80000E-07    4.90560E+03
 2.20000E-07    4.90462E+03
 2.50000E-07    4.90396E+03
 2.80000E-07    4.90377E+03
 3.00000E-07    4.90363E+03
 3.20000E-07    4.90346E+03
 3.50000E-07    4.90319E+03
 4.00000E-07    4.90268E+03
 5.00000E-07    4.90191E+03
 6.25000E-07    4.90130E+03
 7.80000E-07    4.90115E+03
 8.50000E-07    4.90107E+03
 9.10000E-07    4.90101E+03
 9.50000E-07    4.90097E+03
 9.72000E-07    4.90094E+03
 9.96000E-07    4.90091E+03
 1.02000E-06    4.90088E+03
 1.04500E-06    4.90085E+03
 1.07100E-06    4.90081E+03
 1.09700E-06    4.90078E+03
 1.12300E-06    4.90075E+03
 1.15000E-06    4.90064E+03
 1.30000E-06    4.90042E+03
 1.50000E-06    4.89994E+03
 2.10000E-06    4.89924E+03
 2.60000E-06    4.89849E+03
 3.30000E-06    4.89762E+03
 4.00000E-06    4.89403E+03
 9.87700E-06    4.88652E+03
 1.59680E-05    4.87678E+03
 2.77000E-05    4.85912E+03
 4.80520E-05    4.83227E+03
 7.55014E-05    4.77895E+03
 1.48728E-04    4.66368E+03
 3.67262E-04    4.34727E+03
 9.06898E-04    3.90456E+03
 1.42510E-03    3.46784E+03
 2.23945E-03    2.83480E+03
 3.51910E-03    5.23544E+03
 5.53000E-03    1.23329E+03
 9.11800E-03    2.66830E+04
 1.50300E-02    1.70004E+04
 2.47800E-02    8.44590E+03
 4.08500E-02    5.36300E+03
 6.73400E-02    5.20823E+03
 1.11000E-01    5.91809E+03
 1.83000E-01    5.87631E+03
 3.02000E-01    5.13519E+03
 5.00000E-01    4.43604E+03
 8.21000E-01    3.57887E+03
 1.35300E+00    2.45039E+03
 2.23100E+00    1.90475E+03
 3.67900E+00    1.92528E+03
 6.06500E+00    2.03309E+03
