# n + Zn 66 : (n,n'17)  
# jendl4.0   N.Iwamoto                         EVAL-Dec09
# uncertainties: n
# # energies =    35
#   E(MeV)       xs(mb) 
 3.29099E+00    0.00000E+00
 3.50000E+00    2.98486E+01
 4.00000E+00    5.17525E+01
 4.50000E+00    4.48935E+01
 5.00000E+00    3.15165E+01
 5.50000E+00    2.15250E+01
 6.00000E+00    1.48276E+01
 6.50000E+00    1.02974E+01
 7.00000E+00    7.16217E+00
 7.50000E+00    4.95451E+00
 8.00000E+00    3.39245E+00
 8.50000E+00    2.31399E+00
 9.00000E+00    1.58077E+00
 9.50000E+00    1.08869E+00
 1.00000E+01    7.60120E-01
 1.05000E+01    5.39930E-01
 1.10000E+01    3.94611E-01
 1.15000E+01    2.96434E-01
 1.20000E+01    2.31068E-01
 1.25000E+01    1.86431E-01
 1.30000E+01    1.56023E-01
 1.35000E+01    1.34437E-01
 1.40000E+01    1.19015E-01
 1.45000E+01    1.07405E-01
 1.50000E+01    9.85173E-02
 1.55000E+01    9.13094E-02
 1.60000E+01    8.54852E-02
 1.65000E+01    8.04220E-02
 1.70000E+01    7.61298E-02
 1.75000E+01    7.21970E-02
 1.80000E+01    6.87314E-02
 1.85000E+01    6.54547E-02
 1.90000E+01    6.24782E-02
 1.95000E+01    5.96302E-02
 2.00000E+01    5.69987E-02
