# n + In115 : (n,d)     
# jendl4.0   S.Kunieda, A.Ichihara, K.Shibata+ EVAL-FEB22
# uncertainties: n
# # energies =    23
#   E(MeV)       xs(mb) 
 4.62029E+00    0.00000E+00
 4.75000E+00    3.57600E-35
 5.00000E+00    2.82100E-26
 5.50000E+00    2.17400E-18
 6.00000E+00    1.69200E-13
 6.50000E+00    1.82800E-10
 7.00000E+00    1.79600E-08
 7.50000E+00    2.78300E-07
 8.00000E+00    1.96400E-06
 8.50000E+00    8.46200E-06
 9.00000E+00    2.60200E-05
 9.50000E+00    6.32700E-05
 1.00000E+01    1.34800E-04
 1.10000E+01    1.42800E-03
 1.20000E+01    2.76900E-02
 1.30000E+01    2.28900E-01
 1.40000E+01    9.31200E-01
 1.50000E+01    2.35700E+00
 1.60000E+01    4.44600E+00
 1.70000E+01    6.66200E+00
 1.80000E+01    9.47100E+00
 1.90000E+01    1.24400E+01
 2.00000E+01    1.53900E+01
