# n + In115 : (n,n'05)  
# jendl4.0   S.Kunieda, A.Ichihara, K.Shibata+ EVAL-FEB22
# uncertainties: n
# # energies =    41
#   E(MeV)       xs(mb) 
 9.41977E-01    0.00000E+00
 9.50000E-01    1.31100E+01
 1.00000E+00    7.55400E+01
 1.20000E+00    1.81000E+02
 1.40000E+00    1.87100E+02
 1.60000E+00    1.67000E+02
 1.80000E+00    1.23700E+02
 2.00000E+00    9.61600E+01
 2.20000E+00    7.46000E+01
 2.40000E+00    5.76500E+01
 2.60000E+00    4.67100E+01
 2.80000E+00    3.59800E+01
 3.00000E+00    2.78000E+01
 3.25000E+00    2.00600E+01
 3.50000E+00    1.49600E+01
 3.75000E+00    1.11500E+01
 4.00000E+00    8.51600E+00
 4.25000E+00    6.60000E+00
 4.50000E+00    5.19800E+00
 4.75000E+00    4.19800E+00
 5.00000E+00    3.41000E+00
 5.50000E+00    2.40400E+00
 6.00000E+00    1.83100E+00
 6.50000E+00    1.50700E+00
 7.00000E+00    1.32300E+00
 7.50000E+00    1.21000E+00
 8.00000E+00    1.13500E+00
 8.50000E+00    1.12900E+00
 9.00000E+00    1.08700E+00
 9.50000E+00    1.05400E+00
 1.00000E+01    1.02700E+00
 1.10000E+01    9.81500E-01
 1.20000E+01    9.41700E-01
 1.30000E+01    9.06700E-01
 1.40000E+01    8.76200E-01
 1.50000E+01    8.50800E-01
 1.60000E+01    8.27900E-01
 1.70000E+01    8.05600E-01
 1.80000E+01    7.84200E-01
 1.90000E+01    7.64400E-01
 2.00000E+01    7.79900E-01
