# n + Yb170 : (n,n'20)  
# jeff3.3    A.J. Koning and D. Rochman        EVAL-DEC15
# uncertainties: n
# # energies =    73
#   E(MeV)       xs(mb) 
 1.45896E+00    0.00000E+00
 1.46841E+00    9.09968E-02
 1.48869E+00    2.86280E-01
 1.51916E+00    5.79685E-01
 1.52135E+00    6.00774E-01
 1.53034E+00    6.87340E-01
 1.53781E+00    7.59272E-01
 1.54368E+00    8.15796E-01
 1.56121E+00    9.84599E-01
 1.57568E+00    1.12393E+00
 1.58207E+00    1.18547E+00
 1.60000E+00    1.35812E+00
 1.80000E+00    3.75763E+00
 2.00000E+00    5.14423E+00
 2.20000E+00    5.23964E+00
 2.40000E+00    4.77464E+00
 2.60000E+00    4.14849E+00
 2.80000E+00    3.50000E+00
 3.00000E+00    2.89323E+00
 3.20000E+00    2.43076E+00
 3.40000E+00    1.96108E+00
 3.60000E+00    1.57330E+00
 3.80000E+00    1.25710E+00
 4.00000E+00    1.00054E+00
 4.20000E+00    7.93227E-01
 4.40000E+00    6.36547E-01
 4.60000E+00    5.09396E-01
 4.80000E+00    3.97442E-01
 5.00000E+00    3.10402E-01
 5.20000E+00    2.42074E-01
 5.40000E+00    1.88566E-01
 5.60000E+00    1.46814E-01
 5.80000E+00    1.13585E-01
 6.00000E+00    8.81484E-02
 6.20000E+00    6.83563E-02
 6.40000E+00    5.30488E-02
 6.60000E+00    4.12913E-02
 6.80000E+00    3.21723E-02
 7.00000E+00    2.51346E-02
 7.20000E+00    1.96696E-02
 7.40000E+00    1.54155E-02
 7.60000E+00    1.21143E-02
 7.80000E+00    9.52923E-03
 8.00000E+00    7.51438E-03
 8.50000E+00    4.18174E-03
 9.00000E+00    2.35015E-03
 9.50000E+00    1.32813E-03
 1.00000E+01    7.54352E-04
 1.05000E+01    4.31032E-04
 1.10000E+01    2.48045E-04
 1.15000E+01    1.43855E-04
 1.20000E+01    8.40662E-05
 1.25000E+01    4.95050E-05
 1.30000E+01    2.93522E-05
 1.35000E+01    1.75457E-05
 1.40000E+01    1.05539E-05
 1.45000E+01    6.39073E-06
 1.50000E+01    3.89953E-06
 1.60000E+01    1.47661E-06
 1.70000E+01    5.74400E-07
 1.80000E+01    2.26770E-07
 1.90000E+01    9.22240E-08
 2.00000E+01    3.83000E-08
 2.10000E+01    1.62270E-08
 2.20000E+01    6.99960E-09
 2.30000E+01    3.08540E-09
 2.40000E+01    1.38290E-09
 2.50000E+01    6.28070E-10
 2.60000E+01    2.89010E-10
 2.70000E+01    1.34270E-10
 2.80000E+01    6.34110E-11
 2.90000E+01    3.03570E-11
 3.00000E+01    1.47100E-11
