# n + Yb170 : (n,n'05)  
# jeff3.3    A.J. Koning and D. Rochman        EVAL-DEC15
# uncertainties: n
# # energies =    90
#   E(MeV)       xs(mb) 
 1.07570E+00    0.00000E+00
 1.14531E+00    4.51021E+01
 1.15252E+00    4.97736E+01
 1.20000E+00    8.05372E+01
 1.23262E+00    8.27328E+01
 1.23613E+00    8.29691E+01
 1.26593E+00    8.49749E+01
 1.30007E+00    8.72728E+01
 1.31414E+00    8.82198E+01
 1.33720E+00    8.97720E+01
 1.35316E+00    9.08463E+01
 1.37263E+00    9.21568E+01
 1.40000E+00    9.39990E+01
 1.40534E+00    9.36576E+01
 1.41709E+00    9.29063E+01
 1.43370E+00    9.18443E+01
 1.44606E+00    9.10541E+01
 1.45896E+00    9.02293E+01
 1.46841E+00    8.96251E+01
 1.48869E+00    8.83284E+01
 1.51916E+00    8.63803E+01
 1.52135E+00    8.62402E+01
 1.53034E+00    8.56655E+01
 1.53781E+00    8.51878E+01
 1.54368E+00    8.48125E+01
 1.56121E+00    8.36917E+01
 1.57568E+00    8.27666E+01
 1.58207E+00    8.23580E+01
 1.60000E+00    8.12116E+01
 1.80000E+00    6.08431E+01
 2.00000E+00    4.29001E+01
 2.20000E+00    2.92322E+01
 2.40000E+00    1.95725E+01
 2.60000E+00    1.30098E+01
 2.80000E+00    8.64862E+00
 3.00000E+00    5.78243E+00
 3.20000E+00    3.95940E+00
 3.40000E+00    2.69772E+00
 3.60000E+00    1.85788E+00
 3.80000E+00    1.29230E+00
 4.00000E+00    9.13952E-01
 4.20000E+00    6.54120E-01
 4.40000E+00    4.63166E-01
 4.60000E+00    3.30571E-01
 4.80000E+00    2.37115E-01
 5.00000E+00    1.70893E-01
 5.20000E+00    1.23742E-01
 5.40000E+00    8.99960E-02
 5.60000E+00    6.57609E-02
 5.80000E+00    4.79852E-02
 6.00000E+00    3.52837E-02
 6.20000E+00    2.60375E-02
 6.40000E+00    1.93078E-02
 6.60000E+00    1.44104E-02
 6.80000E+00    1.08021E-02
 7.00000E+00    8.14205E-03
 7.20000E+00    6.16168E-03
 7.40000E+00    4.68004E-03
 7.60000E+00    3.57062E-03
 7.80000E+00    2.73104E-03
 8.00000E+00    2.09687E-03
 8.50000E+00    1.09678E-03
 9.00000E+00    5.82418E-04
 9.50000E+00    3.12192E-04
 1.00000E+01    1.68729E-04
 1.05000E+01    9.20310E-05
 1.10000E+01    5.07221E-05
 1.15000E+01    2.82697E-05
 1.20000E+01    1.59296E-05
 1.25000E+01    9.07372E-06
 1.30000E+01    5.21859E-06
 1.35000E+01    3.03352E-06
 1.40000E+01    1.77842E-06
 1.45000E+01    1.05174E-06
 1.50000E+01    6.27970E-07
 1.60000E+01    2.28830E-07
 1.70000E+01    8.61470E-08
 1.80000E+01    3.30570E-08
 1.90000E+01    1.31090E-08
 2.00000E+01    5.32180E-09
 2.10000E+01    2.20900E-09
 2.20000E+01    9.35610E-10
 2.30000E+01    4.05850E-10
 2.40000E+01    1.79370E-10
 2.50000E+01    8.04520E-11
 2.60000E+01    3.66050E-11
 2.70000E+01    1.68280E-11
 2.80000E+01    7.86800E-12
 2.90000E+01    3.73080E-12
 3.00000E+01    1.79150E-12
