# n + Yb170 : (n,n'22)  
# jeff3.3    A.J. Koning and D. Rochman        EVAL-DEC15
# uncertainties: n
# # energies =    71
#   E(MeV)       xs(mb) 
 1.48869E+00    0.00000E+00
 1.51916E+00    7.16772E+00
 1.52135E+00    7.68289E+00
 1.53034E+00    9.79767E+00
 1.53781E+00    1.15549E+01
 1.54368E+00    1.29358E+01
 1.56121E+00    1.70595E+01
 1.57568E+00    2.04634E+01
 1.58207E+00    2.19666E+01
 1.60000E+00    2.61844E+01
 1.80000E+00    3.05581E+01
 2.00000E+00    2.72106E+01
 2.20000E+00    2.11091E+01
 2.40000E+00    1.52920E+01
 2.60000E+00    1.07365E+01
 2.80000E+00    7.41716E+00
 3.00000E+00    5.08610E+00
 3.20000E+00    3.53128E+00
 3.40000E+00    2.42725E+00
 3.60000E+00    1.68056E+00
 3.80000E+00    1.17381E+00
 4.00000E+00    8.27041E-01
 4.20000E+00    5.87341E-01
 4.40000E+00    4.22786E-01
 4.60000E+00    3.08293E-01
 4.80000E+00    2.21771E-01
 5.00000E+00    1.60606E-01
 5.20000E+00    1.16812E-01
 5.40000E+00    8.53062E-02
 5.60000E+00    6.25664E-02
 5.80000E+00    4.58018E-02
 6.00000E+00    3.37746E-02
 6.20000E+00    2.49848E-02
 6.40000E+00    1.85631E-02
 6.60000E+00    1.38783E-02
 6.80000E+00    1.04180E-02
 7.00000E+00    7.86195E-03
 7.20000E+00    5.95679E-03
 7.40000E+00    4.52931E-03
 7.60000E+00    3.45923E-03
 7.80000E+00    2.64857E-03
 8.00000E+00    2.03559E-03
 8.50000E+00    1.06727E-03
 9.00000E+00    5.67957E-04
 9.50000E+00    3.05017E-04
 1.00000E+01    1.65123E-04
 1.05000E+01    9.01866E-05
 1.10000E+01    4.97591E-05
 1.15000E+01    2.77563E-05
 1.20000E+01    1.56518E-05
 1.25000E+01    8.92206E-06
 1.30000E+01    5.13549E-06
 1.35000E+01    2.98777E-06
 1.40000E+01    1.75308E-06
 1.45000E+01    1.03754E-06
 1.50000E+01    6.19880E-07
 1.60000E+01    2.26100E-07
 1.70000E+01    8.51730E-08
 1.80000E+01    3.27000E-08
 1.90000E+01    1.29730E-08
 2.00000E+01    5.26870E-09
 2.10000E+01    2.18780E-09
 2.20000E+01    9.26910E-10
 2.30000E+01    4.02220E-10
 2.40000E+01    1.77840E-10
 2.50000E+01    7.98060E-11
 2.60000E+01    3.63290E-11
 2.70000E+01    1.67090E-11
 2.80000E+01    7.81490E-12
 2.90000E+01    3.70660E-12
 3.00000E+01    1.78020E-12
