# n + Yb170 : (n,n'10)  
# jeff3.3    A.J. Koning and D. Rochman        EVAL-DEC15
# uncertainties: n
# # energies =    84
#   E(MeV)       xs(mb) 
 1.26593E+00    0.00000E+00
 1.30007E+00    9.23698E+00
 1.31414E+00    1.30438E+01
 1.33720E+00    1.92829E+01
 1.35316E+00    2.36011E+01
 1.37263E+00    2.88689E+01
 1.40000E+00    3.62742E+01
 1.40534E+00    3.66968E+01
 1.41709E+00    3.76269E+01
 1.43370E+00    3.89415E+01
 1.44606E+00    3.99198E+01
 1.45896E+00    4.09408E+01
 1.46841E+00    4.16888E+01
 1.48869E+00    4.32939E+01
 1.51916E+00    4.57055E+01
 1.52135E+00    4.58789E+01
 1.53034E+00    4.65904E+01
 1.53781E+00    4.71817E+01
 1.54368E+00    4.76463E+01
 1.56121E+00    4.90337E+01
 1.57568E+00    5.01790E+01
 1.58207E+00    5.06848E+01
 1.60000E+00    5.21039E+01
 1.80000E+00    5.15766E+01
 2.00000E+00    4.31608E+01
 2.20000E+00    3.38735E+01
 2.40000E+00    2.59109E+01
 2.60000E+00    1.95372E+01
 2.80000E+00    1.45928E+01
 3.00000E+00    1.08428E+01
 3.20000E+00    8.29200E+00
 3.40000E+00    6.13778E+00
 3.60000E+00    4.55028E+00
 3.80000E+00    3.38038E+00
 4.00000E+00    2.51559E+00
 4.20000E+00    1.89709E+00
 4.40000E+00    1.43675E+00
 4.60000E+00    1.06861E+00
 4.80000E+00    7.98157E-01
 5.00000E+00    5.97171E-01
 5.20000E+00    4.47687E-01
 5.40000E+00    3.36252E-01
 5.60000E+00    2.53123E-01
 5.80000E+00    1.89820E-01
 6.00000E+00    1.43122E-01
 6.20000E+00    1.08049E-01
 6.40000E+00    8.17958E-02
 6.60000E+00    6.22167E-02
 6.80000E+00    4.74374E-02
 7.00000E+00    3.63286E-02
 7.20000E+00    2.78975E-02
 7.40000E+00    2.14791E-02
 7.60000E+00    1.66000E-02
 7.80000E+00    1.28519E-02
 8.00000E+00    9.98331E-03
 8.50000E+00    5.36592E-03
 9.00000E+00    2.92208E-03
 9.50000E+00    1.60381E-03
 1.00000E+01    8.86339E-04
 1.05000E+01    4.93610E-04
 1.10000E+01    2.77323E-04
 1.15000E+01    1.57294E-04
 1.20000E+01    9.00536E-05
 1.25000E+01    5.20439E-05
 1.30000E+01    3.03331E-05
 1.35000E+01    1.78514E-05
 1.40000E+01    1.05867E-05
 1.45000E+01    6.32835E-06
 1.50000E+01    3.81624E-06
 1.60000E+01    1.41538E-06
 1.70000E+01    5.40850E-07
 1.80000E+01    2.10230E-07
 1.90000E+01    8.43220E-08
 2.00000E+01    3.45890E-08
 2.10000E+01    1.44930E-08
 2.20000E+01    6.18900E-09
 2.30000E+01    2.70370E-09
 2.40000E+01    1.20220E-09
 2.50000E+01    5.42080E-10
 2.60000E+01    2.47850E-10
 2.70000E+01    1.14490E-10
 2.80000E+01    5.37810E-11
 2.90000E+01    2.56200E-11
 3.00000E+01    1.23580E-11
