# n + Yb170 : (n,n'18)  
# jeff3.3    A.J. Koning and D. Rochman        EVAL-DEC15
# uncertainties: n
# # energies =    75
#   E(MeV)       xs(mb) 
 1.43370E+00    0.00000E+00
 1.44606E+00    5.32475E+00
 1.45896E+00    1.08822E+01
 1.46841E+00    1.49533E+01
 1.48869E+00    2.36900E+01
 1.51916E+00    3.68167E+01
 1.52135E+00    3.77601E+01
 1.53034E+00    4.16330E+01
 1.53781E+00    4.48512E+01
 1.54368E+00    4.73800E+01
 1.56121E+00    5.49320E+01
 1.57568E+00    6.11658E+01
 1.58207E+00    6.39186E+01
 1.60000E+00    7.16430E+01
 1.80000E+00    7.93330E+01
 2.00000E+00    6.78444E+01
 2.20000E+00    5.20478E+01
 2.40000E+00    3.82060E+01
 2.60000E+00    2.75403E+01
 2.80000E+00    1.96720E+01
 3.00000E+00    1.39934E+01
 3.20000E+00    1.01551E+01
 3.40000E+00    7.22488E+00
 3.60000E+00    5.16112E+00
 3.80000E+00    3.70545E+00
 4.00000E+00    2.67363E+00
 4.20000E+00    1.93809E+00
 4.40000E+00    1.43143E+00
 4.60000E+00    1.05478E+00
 4.80000E+00    7.70274E-01
 5.00000E+00    5.65579E-01
 5.20000E+00    4.16736E-01
 5.40000E+00    3.08068E-01
 5.60000E+00    2.28527E-01
 5.80000E+00    1.69052E-01
 6.00000E+00    1.25844E-01
 6.20000E+00    9.38838E-02
 6.40000E+00    7.02686E-02
 6.60000E+00    5.28766E-02
 6.80000E+00    3.99143E-02
 7.00000E+00    3.02649E-02
 7.20000E+00    2.30303E-02
 7.40000E+00    1.75769E-02
 7.60000E+00    1.34711E-02
 7.80000E+00    1.03482E-02
 8.00000E+00    7.97808E-03
 8.50000E+00    4.21568E-03
 9.00000E+00    2.26136E-03
 9.50000E+00    1.22445E-03
 1.00000E+01    6.68372E-04
 1.05000E+01    3.68011E-04
 1.10000E+01    2.04593E-04
 1.15000E+01    1.14918E-04
 1.20000E+01    6.52042E-05
 1.25000E+01    3.73737E-05
 1.30000E+01    2.16193E-05
 1.35000E+01    1.26359E-05
 1.40000E+01    7.44636E-06
 1.45000E+01    4.42522E-06
 1.50000E+01    2.65412E-06
 1.60000E+01    9.74730E-07
 1.70000E+01    3.69240E-07
 1.80000E+01    1.42410E-07
 1.90000E+01    5.67190E-08
 2.00000E+01    2.31180E-08
 2.10000E+01    9.63020E-09
 2.20000E+01    4.09070E-09
 2.30000E+01    1.77860E-09
 2.40000E+01    7.87460E-10
 2.50000E+01    3.53760E-10
 2.60000E+01    1.61210E-10
 2.70000E+01    7.42380E-11
 2.80000E+01    3.47730E-11
 2.90000E+01    1.65190E-11
 3.00000E+01    7.94630E-12
