# n + Yb170 : (n,n'09)  
# jeff3.3    A.J. Koning and D. Rochman        EVAL-DEC15
# uncertainties: n
# # energies =    85
#   E(MeV)       xs(mb) 
 1.23613E+00    0.00000E+00
 1.26593E+00    1.06696E+01
 1.30007E+00    2.28931E+01
 1.31414E+00    2.79307E+01
 1.33720E+00    3.61871E+01
 1.35316E+00    4.19014E+01
 1.37263E+00    4.88725E+01
 1.40000E+00    5.86720E+01
 1.40534E+00    5.87075E+01
 1.41709E+00    5.87855E+01
 1.43370E+00    5.88958E+01
 1.44606E+00    5.89779E+01
 1.45896E+00    5.90635E+01
 1.46841E+00    5.91263E+01
 1.48869E+00    5.92609E+01
 1.51916E+00    5.94633E+01
 1.52135E+00    5.94778E+01
 1.53034E+00    5.95375E+01
 1.53781E+00    5.95871E+01
 1.54368E+00    5.96261E+01
 1.56121E+00    5.97425E+01
 1.57568E+00    5.98386E+01
 1.58207E+00    5.98810E+01
 1.60000E+00    6.00001E+01
 1.80000E+00    4.99776E+01
 2.00000E+00    3.73728E+01
 2.20000E+00    2.63472E+01
 2.40000E+00    1.80636E+01
 2.60000E+00    1.22136E+01
 2.80000E+00    8.21351E+00
 3.00000E+00    5.53067E+00
 3.20000E+00    3.80006E+00
 3.40000E+00    2.59514E+00
 3.60000E+00    1.79003E+00
 3.80000E+00    1.24698E+00
 4.00000E+00    8.76337E-01
 4.20000E+00    6.28238E-01
 4.40000E+00    4.51048E-01
 4.60000E+00    3.21977E-01
 4.80000E+00    2.31387E-01
 5.00000E+00    1.67058E-01
 5.20000E+00    1.21164E-01
 5.40000E+00    8.82544E-02
 5.60000E+00    6.45748E-02
 5.80000E+00    4.71731E-02
 6.00000E+00    3.47228E-02
 6.20000E+00    2.56440E-02
 6.40000E+00    1.90283E-02
 6.60000E+00    1.42112E-02
 6.80000E+00    1.06568E-02
 7.00000E+00    8.03640E-03
 7.20000E+00    6.08426E-03
 7.40000E+00    4.62299E-03
 7.60000E+00    3.52850E-03
 7.80000E+00    2.69983E-03
 8.00000E+00    2.07369E-03
 8.50000E+00    1.08561E-03
 9.00000E+00    5.76943E-04
 9.50000E+00    3.09475E-04
 1.00000E+01    1.67363E-04
 1.05000E+01    9.13313E-05
 1.10000E+01    5.03560E-05
 1.15000E+01    2.80742E-05
 1.20000E+01    1.58237E-05
 1.25000E+01    9.01597E-06
 1.30000E+01    5.18699E-06
 1.35000E+01    3.01614E-06
 1.40000E+01    1.76879E-06
 1.45000E+01    1.04634E-06
 1.50000E+01    6.24880E-07
 1.60000E+01    2.27790E-07
 1.70000E+01    8.57740E-08
 1.80000E+01    3.29200E-08
 1.90000E+01    1.30570E-08
 2.00000E+01    5.30140E-09
 2.10000E+01    2.20090E-09
 2.20000E+01    9.32270E-10
 2.30000E+01    4.04460E-10
 2.40000E+01    1.78780E-10
 2.50000E+01    8.02040E-11
 2.60000E+01    3.64990E-11
 2.70000E+01    1.67830E-11
 2.80000E+01    7.84760E-12
 2.90000E+01    3.72150E-12
 3.00000E+01    1.78710E-12
