# n + Yb170 : (n,n'08)  
# jeff3.3    A.J. Koning and D. Rochman        EVAL-DEC15
# uncertainties: n
# # energies =    86
#   E(MeV)       xs(mb) 
 1.23262E+00    0.00000E+00
 1.23613E+00    2.10747E+00
 1.26593E+00    2.00000E+01
 1.30007E+00    4.04982E+01
 1.31414E+00    4.89461E+01
 1.33720E+00    6.27918E+01
 1.35316E+00    7.23744E+01
 1.37263E+00    8.40646E+01
 1.40000E+00    1.00498E+02
 1.40534E+00    1.01016E+02
 1.41709E+00    1.02156E+02
 1.43370E+00    1.03768E+02
 1.44606E+00    1.04968E+02
 1.45896E+00    1.06220E+02
 1.46841E+00    1.07137E+02
 1.48869E+00    1.09105E+02
 1.51916E+00    1.12062E+02
 1.52135E+00    1.12274E+02
 1.53034E+00    1.13147E+02
 1.53781E+00    1.13872E+02
 1.54368E+00    1.14441E+02
 1.56121E+00    1.16143E+02
 1.57568E+00    1.17547E+02
 1.58207E+00    1.18167E+02
 1.60000E+00    1.19907E+02
 1.80000E+00    1.08296E+02
 2.00000E+00    8.58622E+01
 2.20000E+00    6.42210E+01
 2.40000E+00    4.67528E+01
 2.60000E+00    3.35197E+01
 2.80000E+00    2.38265E+01
 3.00000E+00    1.68882E+01
 3.20000E+00    1.22924E+01
 3.40000E+00    8.73991E+00
 3.60000E+00    6.24944E+00
 3.80000E+00    4.49412E+00
 4.00000E+00    3.24714E+00
 4.20000E+00    2.39251E+00
 4.40000E+00    1.75570E+00
 4.60000E+00    1.27583E+00
 4.80000E+00    9.31994E-01
 5.00000E+00    6.83024E-01
 5.20000E+00    5.02272E-01
 5.40000E+00    3.70558E-01
 5.60000E+00    2.74374E-01
 5.80000E+00    2.02653E-01
 6.00000E+00    1.50693E-01
 6.20000E+00    1.12338E-01
 6.40000E+00    8.40837E-02
 6.60000E+00    6.33036E-02
 6.80000E+00    4.78243E-02
 7.00000E+00    3.63223E-02
 7.20000E+00    2.76838E-02
 7.40000E+00    2.11708E-02
 7.60000E+00    1.62607E-02
 7.80000E+00    1.25180E-02
 8.00000E+00    9.67312E-03
 8.50000E+00    5.13932E-03
 9.00000E+00    2.77080E-03
 9.50000E+00    1.50721E-03
 1.00000E+01    8.26169E-04
 1.05000E+01    4.56655E-04
 1.10000E+01    2.54794E-04
 1.15000E+01    1.43603E-04
 1.20000E+01    8.17384E-05
 1.25000E+01    4.69865E-05
 1.30000E+01    2.72507E-05
 1.35000E+01    1.59642E-05
 1.40000E+01    9.42743E-06
 1.45000E+01    5.61333E-06
 1.50000E+01    3.37284E-06
 1.60000E+01    1.24299E-06
 1.70000E+01    4.72440E-07
 1.80000E+01    1.82790E-07
 1.90000E+01    7.30080E-08
 2.00000E+01    2.98300E-08
 2.10000E+01    1.24520E-08
 2.20000E+01    5.29980E-09
 2.30000E+01    2.30830E-09
 2.40000E+01    1.02360E-09
 2.50000E+01    4.60490E-10
 2.60000E+01    2.10110E-10
 2.70000E+01    9.68790E-11
 2.80000E+01    4.54330E-11
 2.90000E+01    2.16090E-11
 3.00000E+01    1.04070E-11
