# n + Yb170 : (n,n'21)  
# jeff3.3    A.J. Koning and D. Rochman        EVAL-DEC15
# uncertainties: n
# # energies =    72
#   E(MeV)       xs(mb) 
 1.46841E+00    0.00000E+00
 1.48869E+00    1.04530E+00
 1.51916E+00    2.61581E+00
 1.52135E+00    2.72869E+00
 1.53034E+00    3.19206E+00
 1.53781E+00    3.57709E+00
 1.54368E+00    3.87965E+00
 1.56121E+00    4.78320E+00
 1.57568E+00    5.52903E+00
 1.58207E+00    5.85839E+00
 1.60000E+00    6.78256E+00
 1.80000E+00    1.37520E+01
 2.00000E+00    1.69031E+01
 2.20000E+00    1.61548E+01
 2.40000E+00    1.38638E+01
 2.60000E+00    1.13137E+01
 2.80000E+00    8.94448E+00
 3.00000E+00    6.92521E+00
 3.20000E+00    5.52577E+00
 3.40000E+00    4.19023E+00
 3.60000E+00    3.17516E+00
 3.80000E+00    2.40819E+00
 4.00000E+00    1.82784E+00
 4.20000E+00    1.38751E+00
 4.40000E+00    1.06693E+00
 4.60000E+00    8.23272E-01
 4.80000E+00    6.20672E-01
 5.00000E+00    4.69689E-01
 5.20000E+00    3.55843E-01
 5.40000E+00    2.69956E-01
 5.60000E+00    2.05192E-01
 5.80000E+00    1.55336E-01
 6.00000E+00    1.18215E-01
 6.20000E+00    9.00829E-02
 6.40000E+00    6.88244E-02
 6.60000E+00    5.28265E-02
 6.80000E+00    4.06513E-02
 7.00000E+00    3.14046E-02
 7.20000E+00    2.43310E-02
 7.40000E+00    1.88955E-02
 7.60000E+00    1.47255E-02
 7.80000E+00    1.14946E-02
 8.00000E+00    8.99931E-03
 8.50000E+00    4.92728E-03
 9.00000E+00    2.72846E-03
 9.50000E+00    1.52038E-03
 1.00000E+01    8.51838E-04
 1.05000E+01    4.80323E-04
 1.10000E+01    2.72898E-04
 1.15000E+01    1.56353E-04
 1.20000E+01    9.03278E-05
 1.25000E+01    5.26275E-05
 1.30000E+01    3.08970E-05
 1.35000E+01    1.83021E-05
 1.40000E+01    1.09176E-05
 1.45000E+01    6.56059E-06
 1.50000E+01    3.97527E-06
 1.60000E+01    1.48694E-06
 1.70000E+01    5.72490E-07
 1.80000E+01    2.24040E-07
 1.90000E+01    9.04120E-08
 2.00000E+01    3.72900E-08
 2.10000E+01    1.57020E-08
 2.20000E+01    6.73550E-09
 2.30000E+01    2.95450E-09
 2.40000E+01    1.31850E-09
 2.50000E+01    5.96500E-10
 2.60000E+01    2.73540E-10
 2.70000E+01    1.26690E-10
 2.80000E+01    5.96560E-11
 2.90000E+01    2.84830E-11
 3.00000E+01    1.37670E-11
