# n + Zn  0 : (n,n'01)
# tendl.2019 A.J. Koning and D. Rochman        EVAL-NOV19
# uncertainties: y
# # energies =   104
#   E(MeV)          xs(mb) 
 9.47183E-02    0.00000E+00
 1.00000E-01    2.83509E-01
 1.87361E-01    1.84311E+00
 2.00000E-01    2.06875E+00
 3.00000E-01    3.17085E+00
 3.99462E-01    4.11931E+00
 4.00000E-01    4.12444E+00
 5.00000E-01    4.43366E+00
 6.00000E-01    4.82037E+00
 6.13590E-01    4.85370E+00
 7.00000E-01    5.06555E+00
 8.00000E-01    5.22012E+00
 8.27049E-01    5.17498E+00
 8.84036E-01    5.07994E+00
 9.00000E-01    5.58190E+00
 9.01080E-01    5.59275E+00
 9.94607E-01    6.53113E+00
 1.00000E+00    6.58523E+00
 1.00492E+00    6.59671E+00
 1.07598E+00    1.10367E+02
 1.16003E+00    3.22447E+02
 1.20000E+00    4.27906E+02
 1.38414E+00    5.84418E+02
 1.40000E+00    5.97898E+02
 1.42820E+00    6.14262E+02
 1.46788E+00    6.37287E+02
 1.54000E+00    6.79136E+02
 1.56676E+00    6.94664E+02
 1.60000E+00    7.13952E+02
 1.62785E+00    7.24824E+02
 1.66483E+00    7.39260E+02
 1.66776E+00    7.40403E+02
 1.68168E+00    7.45837E+02
 1.70281E+00    7.54086E+02
 1.71223E+00    7.57763E+02
 1.75876E+00    7.75927E+02
 1.80000E+00    7.92025E+02
 1.80707E+00    7.90733E+02
 1.81003E+00    7.90192E+02
 1.82764E+00    7.86973E+02
 1.82916E+00    7.86695E+02
 1.83514E+00    7.85602E+02
 1.87058E+00    7.79125E+02
 1.90368E+00    7.73074E+02
 2.00000E+00    7.55469E+02
 2.20000E+00    7.38236E+02
 2.40000E+00    7.14682E+02
 2.60000E+00    6.66888E+02
 2.80000E+00    6.17830E+02
 3.00000E+00    5.31450E+02
 3.20000E+00    4.45485E+02
 3.40000E+00    3.60304E+02
 3.60000E+00    2.94464E+02
 3.80000E+00    2.47809E+02
 4.00000E+00    2.13098E+02
 4.20000E+00    1.87426E+02
 4.40000E+00    1.67875E+02
 4.60000E+00    1.52564E+02
 4.80000E+00    1.40281E+02
 5.00000E+00    1.30253E+02
 5.20000E+00    1.21931E+02
 5.40000E+00    1.14945E+02
 5.60000E+00    1.09032E+02
 5.80000E+00    1.03979E+02
 6.00000E+00    9.96432E+01
 6.20000E+00    9.58940E+01
 6.40000E+00    9.26337E+01
 6.60000E+00    8.97939E+01
 6.80000E+00    8.72979E+01
 7.00000E+00    8.50955E+01
 7.20000E+00    8.31429E+01
 7.40000E+00    8.13969E+01
 7.60000E+00    7.98346E+01
 7.80000E+00    7.84263E+01
 8.00000E+00    7.71511E+01
 8.50000E+00    7.44532E+01
 9.00000E+00    7.23100E+01
 9.50000E+00    7.05887E+01
 1.00000E+01    6.91824E+01
 1.05000E+01    6.79948E+01
 1.10000E+01    6.69415E+01
 1.15000E+01    6.59578E+01
 1.20000E+01    6.50058E+01
 1.25000E+01    6.40715E+01
 1.30000E+01    6.31615E+01
 1.35000E+01    6.22905E+01
 1.40000E+01    6.14719E+01
 1.45000E+01    6.07127E+01
 1.50000E+01    6.00104E+01
 1.60000E+01    5.87272E+01
 1.70000E+01    5.74960E+01
 1.80000E+01    5.62194E+01
 1.90000E+01    5.48734E+01
 2.00000E+01    5.34895E+01
 2.10000E+01    5.21196E+01
 2.20000E+01    5.08111E+01
 2.30000E+01    4.95969E+01
 2.40000E+01    4.84880E+01
 2.50000E+01    4.74767E+01
 2.60000E+01    4.65399E+01
 2.70000E+01    4.56490E+01
 2.80000E+01    4.47790E+01
 2.90000E+01    4.39128E+01
 3.00000E+01    4.30434E+01
