# n + Zn 67 : (n,el)    
# tendl.2019 A.J. Koning and D. Rochman        EVAL-NOV19
# uncertainties: y
# # energies =    69
#   E(MeV)       xs(mb)       xslow(mb)      xsupp(mb)
 1.00000E-10    1.12499E+04    9.39843E+03    1.31013E+04
 5.00000E-09    8.18871E+03    6.84106E+03    9.53635E+03
 1.00000E-08    8.09451E+03    6.76237E+03    9.42665E+03
 1.50000E-08    8.05749E+03    6.73144E+03    9.38354E+03
 2.00000E-08    8.03744E+03    6.71469E+03    9.36019E+03
 2.50000E-08    8.02498E+03    6.70428E+03    9.34567E+03
 3.00000E-08    8.01610E+03    6.69685E+03    9.33534E+03
 3.50000E-08    8.00901E+03    6.69094E+03    9.32709E+03
 4.20000E-08    8.00223E+03    6.68527E+03    9.31920E+03
 5.00000E-08    7.99725E+03    6.68111E+03    9.31340E+03
 5.80000E-08    7.99303E+03    6.67758E+03    9.30848E+03
 6.70000E-08    7.98959E+03    6.67471E+03    9.30448E+03
 8.00000E-08    7.98516E+03    6.67100E+03    9.29932E+03
 1.00000E-07    7.98077E+03    6.66732E+03    9.29422E+03
 1.40000E-07    7.97659E+03    6.66383E+03    9.28936E+03
 1.80000E-07    7.97423E+03    6.66186E+03    9.28660E+03
 2.20000E-07    7.97215E+03    6.66010E+03    9.28420E+03
 2.50000E-07    7.97050E+03    6.65872E+03    9.28228E+03
 2.80000E-07    7.96970E+03    6.65805E+03    9.28135E+03
 3.00000E-07    7.96917E+03    6.65759E+03    9.28075E+03
 3.20000E-07    7.96851E+03    6.65704E+03    9.27998E+03
 3.50000E-07    7.96746E+03    6.65616E+03    9.27875E+03
 4.00000E-07    7.96550E+03    6.65450E+03    9.27649E+03
 5.00000E-07    7.96252E+03    6.65198E+03    9.27305E+03
 6.25000E-07    7.95909E+03    6.64912E+03    9.26906E+03
 7.80000E-07    7.95692E+03    6.64725E+03    9.26658E+03
 8.50000E-07    7.95572E+03    6.64625E+03    9.26519E+03
 9.10000E-07    7.95480E+03    6.64548E+03    9.26412E+03
 9.50000E-07    7.95423E+03    6.64501E+03    9.26346E+03
 9.72000E-07    7.95381E+03    6.64466E+03    9.26296E+03
 9.96000E-07    7.95337E+03    6.64429E+03    9.26245E+03
 1.02000E-06    7.95292E+03    6.64378E+03    9.26206E+03
 1.04500E-06    7.95245E+03    6.64339E+03    9.26152E+03
 1.07100E-06    7.95198E+03    6.64299E+03    9.26096E+03
 1.09700E-06    7.95150E+03    6.64259E+03    9.26041E+03
 1.12300E-06    7.95101E+03    6.64219E+03    9.25984E+03
 1.15000E-06    7.94942E+03    6.64085E+03    9.25798E+03
 1.30000E-06    7.94623E+03    6.63819E+03    9.25426E+03
 1.50000E-06    7.93916E+03    6.63228E+03    9.24603E+03
 2.10000E-06    7.92893E+03    6.62352E+03    9.23434E+03
 2.60000E-06    7.91802E+03    6.61441E+03    9.22163E+03
 3.30000E-06    7.90514E+03    6.60342E+03    9.20685E+03
 4.00000E-06    7.85265E+03    6.55935E+03    9.14596E+03
 9.87700E-06    7.73940E+03    6.46345E+03    9.01535E+03
 1.59680E-05    7.58139E+03    6.32894E+03    8.83385E+03
 2.77000E-05    7.29452E+03    6.08655E+03    8.50249E+03
 4.80520E-05    6.85706E+03    5.71156E+03    8.00257E+03
 7.55014E-05    5.89580E+03    4.89029E+03    6.90131E+03
 1.48728E-04    4.60524E+04    3.73273E+04    5.47775E+04
 3.67262E-04    1.00268E+05    8.42509E+04    1.16284E+05
 9.06898E-04    6.45277E+03    5.82384E+03    7.08170E+03
 1.42510E-03    2.89433E+04    2.58968E+04    3.19899E+04
 2.23945E-03    2.09343E+04    1.96855E+04    2.21831E+04
 3.51910E-03    1.78321E+04    1.66822E+04    1.89821E+04
 5.53000E-03    1.62722E+04    1.50198E+04    1.75246E+04
 9.11800E-03    8.16131E+03    7.66397E+03    8.65865E+03
 1.50300E-02    1.43417E+04    1.38069E+04    1.48764E+04
 2.47800E-02    1.08088E+04    1.02464E+04    1.13713E+04
 4.08500E-02    9.98453E+03    9.38592E+03    1.05831E+04
 6.73400E-02    9.01222E+03    8.21968E+03    9.80477E+03
 1.11000E-01    7.88487E+03    7.19146E+03    8.57828E+03
 1.83000E-01    6.63310E+03    6.04978E+03    7.21643E+03
 3.02000E-01    5.42975E+03    4.76818E+03    6.09132E+03
 5.00000E-01    4.18054E+03    3.67117E+03    4.68991E+03
 8.21000E-01    2.84020E+03    2.54334E+03    3.13706E+03
 1.35300E+00    1.90911E+03    1.68100E+03    2.13722E+03
 2.23100E+00    1.65567E+03    1.35211E+03    1.95923E+03
 3.67900E+00    1.97569E+03    1.77014E+03    2.18124E+03
 6.06500E+00    2.12181E+03    1.96392E+03    2.27970E+03
