# n + Zn 67 : (n,n'15)  
# tendl.2019 A.J. Koning and D. Rochman        EVAL-NOV19
# uncertainties: n
# # energies =    78
#   E(MeV)       xs(mb) 
 1.54000E+00    0.00000E+00
 1.56676E+00    1.30274E+01
 1.60000E+00    2.92094E+01
 1.62785E+00    3.17599E+01
 1.66483E+00    3.51464E+01
 1.66776E+00    3.54147E+01
 1.68168E+00    3.66895E+01
 1.70281E+00    3.86245E+01
 1.71223E+00    3.94872E+01
 1.75876E+00    4.37483E+01
 1.80000E+00    4.75250E+01
 1.80707E+00    4.77005E+01
 1.81003E+00    4.77739E+01
 1.82764E+00    4.82109E+01
 1.82916E+00    4.82486E+01
 1.83514E+00    4.83970E+01
 1.87058E+00    4.92765E+01
 1.90368E+00    5.00979E+01
 2.00000E+00    5.24882E+01
 2.20000E+00    4.99800E+01
 2.40000E+00    4.40150E+01
 2.60000E+00    3.71345E+01
 2.80000E+00    3.06889E+01
 3.00000E+00    2.51412E+01
 3.20000E+00    2.05565E+01
 3.40000E+00    1.67544E+01
 3.60000E+00    1.37510E+01
 3.80000E+00    1.13382E+01
 4.00000E+00    9.39277E+00
 4.20000E+00    7.81275E+00
 4.40000E+00    6.52044E+00
 4.60000E+00    5.45510E+00
 4.80000E+00    4.57059E+00
 5.00000E+00    3.83450E+00
 5.20000E+00    3.21813E+00
 5.40000E+00    2.70121E+00
 5.60000E+00    2.26980E+00
 5.80000E+00    1.90589E+00
 6.00000E+00    1.60402E+00
 6.20000E+00    1.34955E+00
 6.40000E+00    1.13924E+00
 6.60000E+00    9.63560E-01
 6.80000E+00    8.15479E-01
 7.00000E+00    6.93988E-01
 7.20000E+00    5.91627E-01
 7.40000E+00    5.06907E-01
 7.60000E+00    4.36477E-01
 7.80000E+00    3.76616E-01
 8.00000E+00    3.26669E-01
 8.50000E+00    2.34898E-01
 9.00000E+00    1.75561E-01
 9.50000E+00    1.36737E-01
 1.00000E+01    1.10953E-01
 1.05000E+01    9.35505E-02
 1.10000E+01    8.15704E-02
 1.15000E+01    7.31642E-02
 1.20000E+01    6.71083E-02
 1.25000E+01    6.26180E-02
 1.30000E+01    5.91875E-02
 1.35000E+01    5.64904E-02
 1.40000E+01    5.43174E-02
 1.45000E+01    5.25328E-02
 1.50000E+01    5.10433E-02
 1.60000E+01    4.87072E-02
 1.70000E+01    4.69347E-02
 1.80000E+01    4.54675E-02
 1.90000E+01    4.41432E-02
 2.00000E+01    4.28902E-02
 2.10000E+01    4.17027E-02
 2.20000E+01    4.06033E-02
 2.30000E+01    3.96145E-02
 2.40000E+01    3.87455E-02
 2.50000E+01    3.79880E-02
 2.60000E+01    3.73201E-02
 2.70000E+01    3.67131E-02
 2.80000E+01    3.61381E-02
 2.90000E+01    3.55733E-02
 3.00000E+01    3.50052E-02
