# n + Zn 67 : (n,n'06)  
# tendl.2019 A.J. Koning and D. Rochman        EVAL-NOV19
# uncertainties: n
# # energies =    91
#   E(MeV)       xs(mb) 
 8.84036E-01    0.00000E+00
 9.00000E-01    1.89650E+01
 9.01080E-01    1.92308E+01
 9.94607E-01    4.22462E+01
 1.00000E+00    4.35733E+01
 1.00492E+00    4.41481E+01
 1.07598E+00    5.24496E+01
 1.16003E+00    6.22687E+01
 1.20000E+00    6.69381E+01
 1.38414E+00    7.94016E+01
 1.40000E+00    8.04751E+01
 1.42820E+00    8.08804E+01
 1.46788E+00    8.14507E+01
 1.54000E+00    8.24873E+01
 1.56676E+00    8.28719E+01
 1.60000E+00    8.33497E+01
 1.62785E+00    8.26457E+01
 1.66483E+00    8.17108E+01
 1.66776E+00    8.16368E+01
 1.68168E+00    8.12849E+01
 1.70281E+00    8.07507E+01
 1.71223E+00    8.05126E+01
 1.75876E+00    7.93363E+01
 1.80000E+00    7.82938E+01
 1.80707E+00    7.78852E+01
 1.81003E+00    7.77141E+01
 1.82764E+00    7.66963E+01
 1.82916E+00    7.66084E+01
 1.83514E+00    7.62628E+01
 1.87058E+00    7.42145E+01
 1.90368E+00    7.23014E+01
 2.00000E+00    6.67343E+01
 2.20000E+00    5.46091E+01
 2.40000E+00    4.35314E+01
 2.60000E+00    3.43386E+01
 2.80000E+00    2.71062E+01
 3.00000E+00    2.15236E+01
 3.20000E+00    1.72287E+01
 3.40000E+00    1.38395E+01
 3.60000E+00    1.12394E+01
 3.80000E+00    9.18644E+00
 4.00000E+00    7.54507E+00
 4.20000E+00    6.21572E+00
 4.40000E+00    5.12932E+00
 4.60000E+00    4.23538E+00
 4.80000E+00    3.49624E+00
 5.00000E+00    2.88552E+00
 5.20000E+00    2.37945E+00
 5.40000E+00    1.96092E+00
 5.60000E+00    1.61670E+00
 5.80000E+00    1.33115E+00
 6.00000E+00    1.09783E+00
 6.20000E+00    9.04476E-01
 6.40000E+00    7.47010E-01
 6.60000E+00    6.17601E-01
 6.80000E+00    5.10100E-01
 7.00000E+00    4.23056E-01
 7.20000E+00    3.50818E-01
 7.40000E+00    2.91676E-01
 7.60000E+00    2.43140E-01
 7.80000E+00    2.02343E-01
 8.00000E+00    1.68674E-01
 8.50000E+00    1.07966E-01
 9.00000E+00    6.98078E-02
 9.50000E+00    4.55858E-02
 1.00000E+01    3.00370E-02
 1.05000E+01    1.99497E-02
 1.10000E+01    1.33338E-02
 1.15000E+01    8.97093E-03
 1.20000E+01    6.07006E-03
 1.25000E+01    4.12948E-03
 1.30000E+01    2.82461E-03
 1.35000E+01    1.94275E-03
 1.40000E+01    1.34428E-03
 1.45000E+01    9.35691E-04
 1.50000E+01    6.55177E-04
 1.60000E+01    3.26782E-04
 1.70000E+01    1.66103E-04
 1.80000E+01    8.57226E-05
 1.90000E+01    4.47873E-05
 2.00000E+01    2.36600E-05
 2.10000E+01    1.26482E-05
 2.20000E+01    6.84935E-06
 2.30000E+01    3.75392E-06
 2.40000E+01    2.07901E-06
 2.50000E+01    1.15281E-06
 2.60000E+01    6.53060E-07
 2.70000E+01    3.73900E-07
 2.80000E+01    2.15520E-07
 2.90000E+01    1.25590E-07
 3.00000E+01    7.37710E-08
