# n + Zn 67 : (n,n'09)  
# tendl.2019 A.J. Koning and D. Rochman        EVAL-NOV19
# uncertainties: n
# # energies =    86
#   E(MeV)       xs(mb) 
 1.00492E+00    0.00000E+00
 1.07598E+00    5.56994E+00
 1.16003E+00    1.21581E+01
 1.20000E+00    1.52911E+01
 1.38414E+00    2.33487E+01
 1.40000E+00    2.40427E+01
 1.42820E+00    2.47270E+01
 1.46788E+00    2.56899E+01
 1.54000E+00    2.74401E+01
 1.56676E+00    2.80895E+01
 1.60000E+00    2.88961E+01
 1.62785E+00    2.90701E+01
 1.66483E+00    2.93011E+01
 1.66776E+00    2.93194E+01
 1.68168E+00    2.94063E+01
 1.70281E+00    2.95383E+01
 1.71223E+00    2.95971E+01
 1.75876E+00    2.98878E+01
 1.80000E+00    3.01454E+01
 1.80707E+00    3.00551E+01
 1.81003E+00    3.00173E+01
 1.82764E+00    2.97923E+01
 1.82916E+00    2.97729E+01
 1.83514E+00    2.96965E+01
 1.87058E+00    2.92438E+01
 1.90368E+00    2.88209E+01
 2.00000E+00    2.75905E+01
 2.20000E+00    2.36485E+01
 2.40000E+00    1.94969E+01
 2.60000E+00    1.57737E+01
 2.80000E+00    1.26949E+01
 3.00000E+00    1.02326E+01
 3.20000E+00    8.28869E+00
 3.40000E+00    6.72226E+00
 3.60000E+00    5.50279E+00
 3.80000E+00    4.52849E+00
 4.00000E+00    3.74208E+00
 4.20000E+00    3.10004E+00
 4.40000E+00    2.57161E+00
 4.60000E+00    2.13392E+00
 4.80000E+00    1.76970E+00
 5.00000E+00    1.46694E+00
 5.20000E+00    1.21458E+00
 5.40000E+00    1.00452E+00
 5.60000E+00    8.30990E-01
 5.80000E+00    6.86271E-01
 6.00000E+00    5.67491E-01
 6.20000E+00    4.68608E-01
 6.40000E+00    3.87859E-01
 6.60000E+00    3.21179E-01
 6.80000E+00    2.65688E-01
 7.00000E+00    2.20646E-01
 7.20000E+00    1.83133E-01
 7.40000E+00    1.52396E-01
 7.60000E+00    1.27104E-01
 7.80000E+00    1.05826E-01
 8.00000E+00    8.82454E-02
 8.50000E+00    5.64856E-02
 9.00000E+00    3.64976E-02
 9.50000E+00    2.38074E-02
 1.00000E+01    1.56663E-02
 1.05000E+01    1.03910E-02
 1.10000E+01    6.93612E-03
 1.15000E+01    4.66122E-03
 1.20000E+01    3.15077E-03
 1.25000E+01    2.14155E-03
 1.30000E+01    1.46362E-03
 1.35000E+01    1.00583E-03
 1.40000E+01    6.95393E-04
 1.45000E+01    4.83609E-04
 1.50000E+01    3.38322E-04
 1.60000E+01    1.68446E-04
 1.70000E+01    8.54892E-05
 1.80000E+01    4.40669E-05
 1.90000E+01    2.30037E-05
 2.00000E+01    1.21445E-05
 2.10000E+01    6.48870E-06
 2.20000E+01    3.51204E-06
 2.30000E+01    1.92383E-06
 2.40000E+01    1.06489E-06
 2.50000E+01    5.90170E-07
 2.60000E+01    3.34160E-07
 2.70000E+01    1.91240E-07
 2.80000E+01    1.10200E-07
 2.90000E+01    6.41990E-08
 3.00000E+01    3.77010E-08
