# n + Ti 47 : (n,g)     
# jendl.ad   K.KOBAYASHI(KUR),H.HASHIKURA(TOK) EVAL-SEP88
# uncertainties: n
# # energies =    69
#   E(MeV)       xs(mb) 
 1.00000E-10    1.13527E+04
 5.00000E-09    3.09115E+03
 1.00000E-08    2.34107E+03
 1.50000E-08    1.96703E+03
 2.00000E-08    1.73083E+03
 2.50000E-08    1.56392E+03
 3.00000E-08    1.43769E+03
 3.50000E-08    1.32179E+03
 4.20000E-08    1.20897E+03
 5.00000E-08    1.11524E+03
 5.80000E-08    1.03660E+03
 6.70000E-08    9.56555E+02
 8.00000E-08    8.65535E+02
 1.00000E-07    7.53155E+02
 1.40000E-07    6.49798E+02
 1.80000E-07    5.80180E+02
 2.20000E-07    5.34397E+02
 2.50000E-07    5.03141E+02
 2.80000E-07    4.80649E+02
 3.00000E-07    4.64845E+02
 3.20000E-07    4.47271E+02
 3.50000E-07    4.23025E+02
 4.00000E-07    3.87154E+02
 5.00000E-07    3.46276E+02
 6.25000E-07    3.09801E+02
 7.80000E-07    2.86769E+02
 8.50000E-07    2.76014E+02
 9.10000E-07    2.68421E+02
 9.50000E-07    2.64037E+02
 9.72000E-07    2.60921E+02
 9.96000E-07    2.57784E+02
 1.02000E-06    2.54703E+02
 1.04500E-06    2.51624E+02
 1.07100E-06    2.48589E+02
 1.09700E-06    2.45648E+02
 1.12300E-06    2.42785E+02
 1.15000E-06    2.34088E+02
 1.30000E-06    2.19064E+02
 1.50000E-06    1.94565E+02
 2.10000E-06    1.69494E+02
 2.60000E-06    1.51403E+02
 3.30000E-06    1.35938E+02
 4.00000E-06    1.04236E+02
 9.87700E-06    7.33678E+01
 1.59680E-05    5.68152E+01
 2.77000E-05    4.32507E+01
 4.80520E-05    3.37641E+01
 7.55014E-05    2.57495E+01
 1.48728E-04    1.79190E+01
 3.67262E-04    1.28017E+01
 9.06898E-04    1.23011E+01
 1.42510E-03    1.99504E+01
 2.23945E-03    6.92486E+02
 3.51910E-03    1.37702E+02
 5.53000E-03    1.13616E+02
 9.11800E-03    1.47987E+02
 1.50300E-02    7.00903E+01
 2.47800E-02    3.05726E+01
 4.08500E-02    2.03467E+01
 6.73400E-02    8.88469E+00
 1.11000E-01    2.28023E+01
 1.83000E-01    1.23800E+01
 3.02000E-01    7.96909E+00
 5.00000E-01    5.99564E+00
 8.21000E-01    5.41290E+00
 1.35300E+00    5.61400E+00
 2.23100E+00    6.23523E+00
 3.67900E+00    3.29278E+00
 6.06500E+00    1.10364E+00
