# n + Xe132 : (n,n'01)  
# jendl4.0   S.Kunieda, A.Ichihara, K.Shibata+ EVAL-FEB22
# uncertainties: n
# # energies =    46
#   E(MeV)       xs(mb) 
 6.72826E-01    0.00000E+00
 7.00000E-01    2.55400E+02
 7.50000E-01    4.36000E+02
 8.00000E-01    5.53000E+02
 8.50000E-01    6.38800E+02
 9.00000E-01    7.07000E+02
 9.50000E-01    7.64200E+02
 1.00000E+00    8.14600E+02
 1.20000E+00    9.79100E+02
 1.40000E+00    1.01000E+03
 1.60000E+00    9.95600E+02
 1.80000E+00    1.00200E+03
 2.00000E+00    9.40200E+02
 2.20000E+00    8.29900E+02
 2.40000E+00    7.06700E+02
 2.60000E+00    6.60400E+02
 2.80000E+00    5.37700E+02
 3.00000E+00    4.42900E+02
 3.25000E+00    3.53500E+02
 3.50000E+00    3.03500E+02
 3.75000E+00    2.68200E+02
 4.00000E+00    2.39700E+02
 4.25000E+00    2.21700E+02
 4.50000E+00    2.06600E+02
 4.75000E+00    1.95500E+02
 5.00000E+00    1.85600E+02
 5.50000E+00    1.69200E+02
 6.00000E+00    1.54800E+02
 6.50000E+00    1.41700E+02
 7.00000E+00    1.30400E+02
 7.50000E+00    1.20800E+02
 8.00000E+00    1.13100E+02
 8.50000E+00    1.06900E+02
 9.00000E+00    1.01700E+02
 9.50000E+00    9.73500E+01
 1.00000E+01    9.34000E+01
 1.10000E+01    8.61800E+01
 1.20000E+01    7.95900E+01
 1.30000E+01    7.37500E+01
 1.40000E+01    6.88200E+01
 1.50000E+01    6.47900E+01
 1.60000E+01    6.14900E+01
 1.70000E+01    5.86800E+01
 1.80000E+01    5.62100E+01
 1.90000E+01    5.39500E+01
 2.00000E+01    5.18100E+01
