# n + Xe132 : (n,tot)   
# jendl4.0   S.Kunieda, A.Ichihara, K.Shibata+ EVAL-FEB22
# uncertainties: n
# # energies =   171
#   E(MeV)       xs(mb) 
 1.00000E-11    1.01565E+04
 1.00000E-07    3.45057E+03
 4.13990E-07    3.39213E+03
 5.31580E-07    3.37948E+03
 6.82560E-07    3.36828E+03
 8.76420E-07    3.35832E+03
 1.12540E-06    3.34972E+03
 1.44500E-06    3.34196E+03
 1.85540E-06    3.33633E+03
 2.37240E-06    3.32909E+03
 3.05900E-06    3.32038E+03
 3.92790E-06    3.31509E+03
 5.04350E-06    3.30968E+03
 6.47600E-06    3.30273E+03
 8.31530E-06    3.29385E+03
 1.06770E-05    3.28611E+03
 1.37100E-05    3.27875E+03
 1.76030E-05    3.26931E+03
 2.26030E-05    3.25700E+03
 2.92030E-05    3.24143E+03
 3.72670E-05    3.22527E+03
 4.78510E-05    3.20695E+03
 6.14420E-05    3.18341E+03
 7.88930E-05    3.15320E+03
 1.01300E-04    3.11468E+03
 1.30070E-04    3.06628E+03
 1.67020E-04    3.00423E+03
 2.14450E-04    2.91477E+03
 2.75360E-04    2.76962E+03
 3.53580E-04    2.48362E+03
 4.54000E-04    1.61601E+03
 5.82950E-04    9.62466E+04
 7.48520E-04    5.18924E+03
 9.61120E-04    4.17492E+03
 1.23410E-03    3.85937E+03
 1.58460E-03    3.63144E+03
 2.03470E-03    7.72368E+03
 2.24870E-03    3.75816E+03
 2.48520E-03    3.63195E+03
 2.61260E-03    3.55203E+03
 2.74650E-03    6.47440E+03
 3.03540E-03    4.14731E+03
 3.35460E-03    3.55458E+03
 3.70740E-03    5.90513E+03
 4.30740E-03    1.07726E+04
 5.53080E-03    1.05116E+04
 7.10170E-03    9.73179E+03
 9.11880E-03    9.09140E+03
 1.17090E-02    8.55037E+03
 1.50340E-02    8.04612E+03
 1.93050E-02    7.69765E+03
 2.18750E-02    7.54277E+03
 2.35790E-02    7.46733E+03
 2.41760E-02    7.43018E+03
 2.47880E-02    7.37441E+03
 2.60580E-02    7.31139E+03
 2.70000E-02    7.24629E+03
 2.85000E-02    7.13282E+03
 3.18280E-02    7.02645E+03
 3.43070E-02    6.89069E+03
 4.08680E-02    6.74541E+03
 4.63090E-02    6.63747E+03
 5.24750E-02    6.55964E+03
 5.65620E-02    6.47021E+03
 6.73790E-02    6.39172E+03
 7.20000E-02    6.34368E+03
 7.95000E-02    6.30588E+03
 8.25000E-02    6.28512E+03
 8.65170E-02    6.24469E+03
 9.80370E-02    6.19317E+03
 1.11090E-01    6.16056E+03
 1.16790E-01    6.14221E+03
 1.22770E-01    6.12719E+03
 1.29070E-01    6.11273E+03
 1.35690E-01    6.09860E+03
 1.42640E-01    6.08760E+03
 1.49960E-01    6.07708E+03
 1.57640E-01    6.06715E+03
 1.65730E-01    6.05997E+03
 1.74220E-01    6.05285E+03
 1.83160E-01    6.04815E+03
 1.92550E-01    6.04419E+03
 2.02420E-01    6.04359E+03
 2.12800E-01    6.04449E+03
 2.23710E-01    6.04544E+03
 2.35180E-01    6.04643E+03
 2.47240E-01    6.05419E+03
 2.73240E-01    6.06808E+03
 2.87250E-01    6.07549E+03
 2.94520E-01    6.07895E+03
 2.97200E-01    6.08033E+03
 2.98500E-01    6.08198E+03
 3.01970E-01    6.09402E+03
 3.33730E-01    6.11846E+03
 3.68830E-01    6.14492E+03
 3.87740E-01    6.16503E+03
 4.07620E-01    6.19728E+03
 4.50490E-01    6.24405E+03
 4.97870E-01    6.28216E+03
 5.23400E-01    6.30931E+03
 5.50230E-01    6.33784E+03
 5.78440E-01    6.36806E+03
 6.08100E-01    6.40037E+03
 6.39280E-01    6.39689E+03
 6.72060E-01    6.42411E+03
 7.06510E-01    6.51039E+03
 7.42740E-01    6.54542E+03
 7.80820E-01    6.58225E+03
 8.20850E-01    6.61622E+03
 8.62940E-01    6.64246E+03
 9.07180E-01    6.67214E+03
 9.61640E-01    6.69686E+03
 1.00260E+00    6.71747E+03
 1.10800E+00    6.74039E+03
 1.16480E+00    6.74908E+03
 1.22460E+00    6.68812E+03
 1.28730E+00    6.64690E+03
 1.35340E+00    6.72005E+03
 1.42270E+00    6.70256E+03
 1.49570E+00    6.67587E+03
 1.57240E+00    6.64885E+03
 1.65300E+00    6.59615E+03
 1.73770E+00    6.53358E+03
 1.82680E+00    6.44091E+03
 1.92050E+00    6.36737E+03
 2.01900E+00    6.26591E+03
 2.12250E+00    6.16882E+03
 2.23130E+00    6.09943E+03
 2.30690E+00    6.04241E+03
 2.34570E+00    6.01333E+03
 2.36530E+00    5.99543E+03
 2.38520E+00    5.93538E+03
 2.46600E+00    5.84038E+03
 2.59240E+00    5.75066E+03
 2.72530E+00    5.63962E+03
 2.86500E+00    5.52490E+03
 3.01190E+00    5.41662E+03
 3.16640E+00    5.30553E+03
 3.32870E+00    5.15154E+03
 3.67880E+00    4.96152E+03
 4.06570E+00    4.79202E+03
 4.49330E+00    4.67615E+03
 4.72370E+00    4.60146E+03
 4.96590E+00    4.53533E+03
 5.22050E+00    4.47137E+03
 5.48810E+00    4.41636E+03
 5.76950E+00    4.37183E+03
 6.06530E+00    4.33997E+03
 6.37630E+00    4.32135E+03
 6.59240E+00    4.31594E+03
 6.70320E+00    4.31474E+03
 7.04690E+00    4.32788E+03
 7.40820E+00    4.35300E+03
 7.78800E+00    4.39266E+03
 8.18730E+00    4.44092E+03
 8.60710E+00    4.49747E+03
 9.04840E+00    4.55567E+03
 9.51230E+00    4.61834E+03
 1.00000E+01    4.67692E+03
 1.05130E+01    4.72991E+03
 1.10520E+01    4.77351E+03
 1.16180E+01    4.80922E+03
 1.22140E+01    4.83081E+03
 1.28400E+01    4.84352E+03
 1.34990E+01    4.84360E+03
 1.38400E+01    4.84192E+03
 1.41910E+01    4.83336E+03
 1.45500E+01    4.82361E+03
 1.49180E+01    4.80149E+03
 1.56830E+01    4.76057E+03
 1.64870E+01    4.70692E+03
