# n + Xe132 : (n,n'05)  
# jendl4.0   S.Kunieda, A.Ichihara, K.Shibata+ EVAL-FEB22
# uncertainties: n
# # energies =    35
#   E(MeV)       xs(mb) 
 1.86415E+00    0.00000E+00
 2.00000E+00    2.54000E+01
 2.20000E+00    3.57400E+01
 2.40000E+00    4.54400E+01
 2.60000E+00    5.49100E+01
 2.80000E+00    5.79200E+01
 3.00000E+00    5.68500E+01
 3.25000E+00    5.05200E+01
 3.50000E+00    4.52000E+01
 3.75000E+00    3.87700E+01
 4.00000E+00    3.12500E+01
 4.25000E+00    2.57500E+01
 4.50000E+00    2.04400E+01
 4.75000E+00    1.64400E+01
 5.00000E+00    1.28900E+01
 5.50000E+00    7.87400E+00
 6.00000E+00    4.71400E+00
 6.50000E+00    2.80300E+00
 7.00000E+00    1.69000E+00
 7.50000E+00    1.06300E+00
 8.00000E+00    7.13000E-01
 8.50000E+00    5.17900E-01
 9.00000E+00    4.07400E-01
 9.50000E+00    3.42800E-01
 1.00000E+01    3.02600E-01
 1.10000E+01    2.55300E-01
 1.20000E+01    2.24600E-01
 1.30000E+01    1.99800E-01
 1.40000E+01    1.78600E-01
 1.50000E+01    1.61200E-01
 1.60000E+01    1.48100E-01
 1.70000E+01    1.39000E-01
 1.80000E+01    1.28500E-01
 1.90000E+01    1.19000E-01
 2.00000E+01    1.10400E-01
