# n + Xe132 : (n,el)    
# jendl4.0   S.Kunieda, A.Ichihara, K.Shibata+ EVAL-FEB22
# uncertainties: n
# # energies =    69
#   E(MeV)       xs(mb) 
 1.00000E-10    4.03789E+03
 5.00000E-09    3.33507E+03
 1.00000E-08    3.31536E+03
 1.50000E-08    3.30763E+03
 2.00000E-08    3.30332E+03
 2.50000E-08    3.30080E+03
 3.00000E-08    3.29904E+03
 3.50000E-08    3.29741E+03
 4.20000E-08    3.29619E+03
 5.00000E-08    3.29494E+03
 5.80000E-08    3.29423E+03
 6.70000E-08    3.29355E+03
 8.00000E-08    3.29256E+03
 1.00000E-07    3.29174E+03
 1.40000E-07    3.29100E+03
 1.80000E-07    3.29031E+03
 2.20000E-07    3.29006E+03
 2.50000E-07    3.28993E+03
 2.80000E-07    3.28983E+03
 3.00000E-07    3.28974E+03
 3.20000E-07    3.28964E+03
 3.50000E-07    3.28947E+03
 4.00000E-07    3.28915E+03
 5.00000E-07    3.28868E+03
 6.25000E-07    3.28815E+03
 7.80000E-07    3.28791E+03
 8.50000E-07    3.28780E+03
 9.10000E-07    3.28771E+03
 9.50000E-07    3.28766E+03
 9.72000E-07    3.28762E+03
 9.96000E-07    3.28758E+03
 1.02000E-06    3.28754E+03
 1.04500E-06    3.28749E+03
 1.07100E-06    3.28745E+03
 1.09700E-06    3.28741E+03
 1.12300E-06    3.28736E+03
 1.15000E-06    3.28721E+03
 1.30000E-06    3.28691E+03
 1.50000E-06    3.28625E+03
 2.10000E-06    3.28530E+03
 2.60000E-06    3.28428E+03
 3.30000E-06    3.28308E+03
 4.00000E-06    3.27817E+03
 9.87700E-06    3.26759E+03
 1.59680E-05    3.25284E+03
 2.77000E-05    3.22604E+03
 4.80520E-05    3.18745E+03
 7.55014E-05    3.11875E+03
 1.48728E-04    2.90028E+03
 3.67262E-04    2.69727E+04
 9.06898E-04    4.13494E+03
 1.42510E-03    4.18019E+03
 2.23945E-03    4.22752E+03
 3.51910E-03    7.79477E+03
 5.53000E-03    9.97439E+03
 9.11800E-03    8.71455E+03
 1.50300E-02    7.74850E+03
 2.47800E-02    7.02712E+03
 4.08500E-02    6.55342E+03
 6.73400E-02    6.24690E+03
 1.11000E-01    6.07143E+03
 1.83000E-01    6.02818E+03
 3.02000E-01    6.13866E+03
 5.00000E-01    6.24620E+03
 8.21000E-01    5.83090E+03
 1.35300E+00    4.97620E+03
 2.23100E+00    3.26831E+03
 3.67900E+00    2.17131E+03
 6.06500E+00    2.15807E+03
