# n + Xe132 : (n,p)     
# jendl4.0   S.Kunieda, A.Ichihara, K.Shibata+ EVAL-FEB22
# uncertainties: n
# # energies =    30
#   E(MeV)       xs(mb) 
 2.81964E+00    0.00000E+00
 3.00000E+00    5.49700E-29
 3.25000E+00    3.89400E-21
 3.50000E+00    8.02500E-17
 3.75000E+00    8.03400E-14
 4.00000E+00    1.59900E-11
 4.25000E+00    1.08700E-09
 4.50000E+00    3.39600E-08
 4.75000E+00    5.67100E-07
 5.00000E+00    5.57000E-06
 5.50000E+00    1.02800E-04
 6.00000E+00    8.34300E-04
 6.50000E+00    3.86900E-03
 7.00000E+00    1.23400E-02
 7.50000E+00    3.08100E-02
 8.00000E+00    6.58500E-02
 8.50000E+00    1.28000E-01
 9.00000E+00    2.34100E-01
 9.50000E+00    4.09100E-01
 1.00000E+01    6.84700E-01
 1.10000E+01    1.68600E+00
 1.20000E+01    3.51800E+00
 1.30000E+01    6.44900E+00
 1.40000E+01    1.05400E+01
 1.50000E+01    1.56900E+01
 1.60000E+01    2.15600E+01
 1.70000E+01    2.73900E+01
 1.80000E+01    3.24700E+01
 1.90000E+01    3.64000E+01
 2.00000E+01    3.90300E+01
