# n + Xe132 : (n,n')    
# jendl4.0   S.Kunieda, A.Ichihara, K.Shibata+ EVAL-FEB22
# uncertainties: n
# # energies =    65
#   E(MeV)       xs(mb) 
 6.72826E-01    0.00000E+00
 7.00000E-01    2.55400E+02
 7.50000E-01    4.36000E+02
 8.00000E-01    5.53000E+02
 8.50000E-01    6.38800E+02
 9.00000E-01    7.07000E+02
 9.50000E-01    7.64200E+02
 1.00000E+00    8.14600E+02
 1.20000E+00    9.79100E+02
 1.30784E+00    9.95762E+02
 1.40000E+00    1.23500E+03
 1.45134E+00    1.27009E+03
 1.60000E+00    1.44115E+03
 1.80000E+00    1.57490E+03
 1.81751E+00    1.57324E+03
 1.86415E+00    1.60137E+03
 1.97801E+00    1.69133E+03
 2.00000E+00    1.72135E+03
 2.00083E+00    1.72115E+03
 2.05596E+00    1.74717E+03
 2.12642E+00    1.78845E+03
 2.12800E+00    1.78984E+03
 2.18366E+00    1.83911E+03
 2.18538E+00    1.84122E+03
 2.20000E+00    1.87806E+03
 2.20395E+00    1.87876E+03
 2.23099E+00    1.89771E+03
 2.32104E+00    1.96089E+03
 2.36862E+00    1.99449E+03
 2.37120E+00    1.99682E+03
 2.40000E+00    2.02308E+03
 2.41322E+00    2.03046E+03
 2.44332E+00    2.05188E+03
 2.45340E+00    2.06217E+03
 2.60000E+00    2.29832E+03
 2.80000E+00    2.35767E+03
 3.00000E+00    2.40566E+03
 3.25000E+00    2.45405E+03
 3.50000E+00    2.48626E+03
 3.75000E+00    2.51055E+03
 4.00000E+00    2.52675E+03
 4.25000E+00    2.53139E+03
 4.50000E+00    2.52591E+03
 4.75000E+00    2.50974E+03
 5.00000E+00    2.48626E+03
 5.50000E+00    2.42555E+03
 6.00000E+00    2.36336E+03
 6.50000E+00    2.31149E+03
 7.00000E+00    2.27361E+03
 7.50000E+00    2.24927E+03
 8.00000E+00    2.23542E+03
 8.50000E+00    2.22777E+03
 9.00000E+00    2.22254E+03
 9.50000E+00    2.04965E+03
 1.00000E+01    1.63684E+03
 1.10000E+01    9.39038E+02
 1.20000E+01    5.74200E+02
 1.30000E+01    3.98277E+02
 1.40000E+01    3.06605E+02
 1.50000E+01    2.56297E+02
 1.60000E+01    2.28154E+02
 1.70000E+01    2.09529E+02
 1.80000E+01    1.95776E+02
 1.90000E+01    1.84209E+02
 2.00000E+01    1.73756E+02
