# n + Xe132 : (n,el)    
# jendl4.0   S.Kunieda, A.Ichihara, K.Shibata+ EVAL-FEB22
# uncertainties: n
# # energies =   171
#   E(MeV)       xs(mb) 
 1.00000E-11    5.34358E+03
 1.00000E-07    3.29052E+03
 4.13990E-07    3.28906E+03
 5.31580E-07    3.28849E+03
 6.82560E-07    3.28798E+03
 8.76420E-07    3.28760E+03
 1.12540E-06    3.28712E+03
 1.44500E-06    3.28649E+03
 1.85540E-06    3.28570E+03
 2.37240E-06    3.28468E+03
 3.05900E-06    3.28335E+03
 3.92790E-06    3.28166E+03
 5.04350E-06    3.27949E+03
 6.47600E-06    3.27671E+03
 8.31530E-06    3.27313E+03
 1.06770E-05    3.26853E+03
 1.37100E-05    3.26264E+03
 1.76030E-05    3.25506E+03
 2.26030E-05    3.24519E+03
 2.92030E-05    3.23268E+03
 3.72670E-05    3.21681E+03
 4.78510E-05    3.19685E+03
 6.14420E-05    3.17416E+03
 7.88930E-05    3.14540E+03
 1.01300E-04    3.10848E+03
 1.30070E-04    3.06106E+03
 1.67020E-04    2.99995E+03
 2.14450E-04    2.90982E+03
 2.75360E-04    2.76348E+03
 3.53580E-04    2.47371E+03
 4.54000E-04    1.57738E+03
 5.82950E-04    8.97564E+04
 7.48520E-04    5.17758E+03
 9.61120E-04    4.17276E+03
 1.23410E-03    3.85836E+03
 1.58460E-03    3.63026E+03
 2.03470E-03    5.95214E+03
 2.24870E-03    3.75644E+03
 2.48520E-03    3.63105E+03
 2.61260E-03    3.55051E+03
 2.74650E-03    5.72118E+03
 3.03540E-03    4.14163E+03
 3.35460E-03    3.54977E+03
 3.70740E-03    4.61293E+03
 4.30740E-03    1.06056E+04
 5.53080E-03    1.03527E+04
 7.10170E-03    9.59540E+03
 9.11880E-03    8.97559E+03
 1.17090E-02    8.45271E+03
 1.50340E-02    7.96393E+03
 1.93050E-02    7.62540E+03
 2.18750E-02    7.47517E+03
 2.35790E-02    7.40195E+03
 2.41760E-02    7.36577E+03
 2.47880E-02    7.31186E+03
 2.60580E-02    7.25053E+03
 2.70000E-02    7.18706E+03
 2.85000E-02    7.07674E+03
 3.18280E-02    6.97343E+03
 3.43070E-02    6.84149E+03
 4.08680E-02    6.70020E+03
 4.63090E-02    6.59517E+03
 5.24750E-02    6.51938E+03
 5.65620E-02    6.43226E+03
 6.73790E-02    6.35581E+03
 7.20000E-02    6.30909E+03
 7.95000E-02    6.27233E+03
 8.25000E-02    6.25214E+03
 8.65170E-02    6.21308E+03
 9.80370E-02    6.16282E+03
 1.11090E-01    6.13115E+03
 1.16790E-01    6.11334E+03
 1.22770E-01    6.09880E+03
 1.29070E-01    6.08481E+03
 1.35690E-01    6.07114E+03
 1.42640E-01    6.06054E+03
 1.49960E-01    6.05041E+03
 1.57640E-01    6.04087E+03
 1.65730E-01    6.03405E+03
 1.74220E-01    6.02730E+03
 1.83160E-01    6.02287E+03
 1.92550E-01    6.01917E+03
 2.02420E-01    6.01876E+03
 2.12800E-01    6.01982E+03
 2.23710E-01    6.02094E+03
 2.35180E-01    6.02212E+03
 2.47240E-01    6.03004E+03
 2.73240E-01    6.04400E+03
 2.87250E-01    6.05145E+03
 2.94520E-01    6.05493E+03
 2.97200E-01    6.05632E+03
 2.98500E-01    6.05798E+03
 3.01970E-01    6.07008E+03
 3.33730E-01    6.09460E+03
 3.68830E-01    6.12099E+03
 3.87740E-01    6.14103E+03
 4.07620E-01    6.17317E+03
 4.50490E-01    6.21977E+03
 4.97870E-01    6.25774E+03
 5.23400E-01    6.28479E+03
 5.50230E-01    6.31322E+03
 5.78440E-01    6.34312E+03
 6.08100E-01    6.37455E+03
 6.39280E-01    6.37340E+03
 6.72060E-01    6.25917E+03
 7.06510E-01    6.15530E+03
 7.42740E-01    6.07671E+03
 7.80820E-01    6.02487E+03
 8.20850E-01    5.98500E+03
 8.62940E-01    5.95179E+03
 9.07180E-01    5.91817E+03
 9.61640E-01    5.89074E+03
 1.00260E+00    5.84929E+03
 1.10800E+00    5.80252E+03
 1.16480E+00    5.76522E+03
 1.22460E+00    5.68986E+03
 1.28730E+00    5.60185E+03
 1.35340E+00    5.50801E+03
 1.42270E+00    5.40684E+03
 1.49570E+00    5.30308E+03
 1.57240E+00    5.19449E+03
 1.65300E+00    5.08038E+03
 1.73770E+00    4.96004E+03
 1.82680E+00    4.82086E+03
 1.92050E+00    4.66761E+03
 2.01900E+00    4.49887E+03
 2.12250E+00    4.31675E+03
 2.23130E+00    4.16245E+03
 2.30690E+00    4.06772E+03
 2.34570E+00    4.01943E+03
 2.36530E+00    3.98692E+03
 2.38520E+00    3.88671E+03
 2.46600E+00    3.64886E+03
 2.59240E+00    3.42728E+03
 2.72530E+00    3.27452E+03
 2.86500E+00    3.12625E+03
 3.01190E+00    2.98333E+03
 3.16640E+00    2.84634E+03
 3.32870E+00    2.65917E+03
 3.67880E+00    2.43687E+03
 4.06570E+00    2.25674E+03
 4.49330E+00    2.15125E+03
 4.72370E+00    2.09634E+03
 4.96590E+00    2.05549E+03
 5.22050E+00    2.02503E+03
 5.48810E+00    2.00368E+03
 5.76950E+00    1.99430E+03
 6.06530E+00    1.99754E+03
 6.37630E+00    2.00562E+03
 6.59240E+00    2.01472E+03
 6.70320E+00    2.03130E+03
 7.04690E+00    2.06332E+03
 7.40820E+00    2.10439E+03
 7.78800E+00    2.15400E+03
 8.18730E+00    2.21013E+03
 8.60710E+00    2.27153E+03
 9.04840E+00    2.33607E+03
 9.51230E+00    2.40393E+03
 1.00000E+01    2.46964E+03
 1.05130E+01    2.53208E+03
 1.10520E+01    2.58697E+03
 1.16180E+01    2.63538E+03
 1.22140E+01    2.67048E+03
 1.28400E+01    2.69620E+03
 1.34990E+01    2.70537E+03
 1.38400E+01    2.70976E+03
 1.41910E+01    2.70656E+03
 1.45500E+01    2.70220E+03
 1.49180E+01    2.68739E+03
 1.56830E+01    2.65477E+03
 1.64870E+01    2.60717E+03
