# n + Y  89 : (n,tot)   
# jendl.ad   A.Ichihara, K.Shibata, S.Kunieda+ EVAL-AUG13
# uncertainties: n
# # energies =    69
#   E(MeV)       xs(mb) 
 1.00000E-10    8.96647E+03
 5.00000E-09    2.44129E+03
 1.00000E-08    1.84881E+03
 1.50000E-08    1.55329E+03
 2.00000E-08    1.36650E+03
 2.50000E-08    1.23458E+03
 3.00000E-08    1.13484E+03
 3.50000E-08    1.04326E+03
 4.20000E-08    9.54184E+02
 5.00000E-08    8.80147E+02
 5.80000E-08    8.18024E+02
 6.70000E-08    7.54765E+02
 8.00000E-08    6.82849E+02
 1.00000E-07    5.94079E+02
 1.40000E-07    5.12366E+02
 1.80000E-07    4.57326E+02
 2.20000E-07    4.21132E+02
 2.50000E-07    3.96389E+02
 2.80000E-07    3.78588E+02
 3.00000E-07    3.66080E+02
 3.20000E-07    3.52183E+02
 3.50000E-07    3.32978E+02
 4.00000E-07    3.04633E+02
 5.00000E-07    2.72244E+02
 6.25000E-07    2.43261E+02
 7.80000E-07    2.24955E+02
 8.50000E-07    2.16477E+02
 9.10000E-07    2.10394E+02
 9.50000E-07    2.06966E+02
 9.72000E-07    2.04438E+02
 9.96000E-07    2.01905E+02
 1.02000E-06    1.99519E+02
 1.04500E-06    1.97040E+02
 1.07100E-06    1.94567E+02
 1.09700E-06    1.92287E+02
 1.12300E-06    1.89981E+02
 1.15000E-06    1.83027E+02
 1.30000E-06    1.71009E+02
 1.50000E-06    1.51407E+02
 2.10000E-06    1.31274E+02
 2.60000E-06    1.16721E+02
 3.30000E-06    1.04210E+02
 4.00000E-06    7.82513E+01
 9.87700E-06    5.24486E+01
 1.59680E-05    3.80966E+01
 2.77000E-05    2.59320E+01
 4.80520E-05    1.72289E+01
 7.55014E-05    1.00018E+01
 1.48728E-04    3.82900E+00
 3.67262E-04    9.18056E-01
 9.06898E-04    2.86918E-01
 1.42510E-03    4.00989E-01
 2.23945E-03    5.37763E+02
 3.51910E-03    1.60950E+01
 5.53000E-03    2.25058E+01
 9.11800E-03    5.28162E+01
 1.50300E-02    2.02985E+01
 2.47800E-02    1.83393E+01
 4.08500E-02    1.25499E+01
 6.73400E-02    1.06683E+01
 1.11000E-01    9.40266E+00
 1.83000E-01    8.13159E+00
 3.02000E-01    7.26312E+00
 5.00000E-01    6.89715E+00
 8.21000E-01    5.84166E+00
 1.35300E+00    4.44262E+00
 2.23100E+00    3.36750E+00
 3.67900E+00    1.69731E+00
 6.06500E+00    4.58636E+00
