# n + Dy164 : (n,n'06)  
# tendl.2019 A.J. Koning and D. Rochman        EVAL-NOV19
# uncertainties: n
# # energies =    91
#   E(MeV)       xs(mb) 
 8.48871E-01    0.00000E+00
 9.00000E-01    6.30941E-05
 9.21636E-01    2.34788E-04
 9.82901E-01    7.20961E-04
 1.00000E+00    8.56651E-04
 1.03094E+00    2.12271E-03
 1.04569E+00    2.72626E-03
 1.12968E+00    6.16310E-03
 1.16286E+00    7.52082E-03
 1.17317E+00    7.94270E-03
 1.20000E+00    9.04057E-03
 1.23268E+00    1.25816E-02
 1.26906E+00    1.65236E-02
 1.31061E+00    2.10258E-02
 1.35428E+00    2.57577E-02
 1.40000E+00    3.07117E-02
 1.40228E+00    3.13989E-02
 1.47955E+00    5.46879E-02
 1.51426E+00    6.51494E-02
 1.59759E+00    9.02648E-02
 1.60000E+00    9.09912E-02
 1.61759E+00    1.00169E-01
 1.66538E+00    1.25105E-01
 1.67530E+00    1.30280E-01
 1.68500E+00    1.35342E-01
 1.69678E+00    1.41488E-01
 1.72676E+00    1.57131E-01
 1.73592E+00    1.61910E-01
 1.74879E+00    1.68625E-01
 1.75664E+00    1.72721E-01
 1.80000E+00    1.95345E-01
 2.00000E+00    2.99756E-01
 2.20000E+00    3.95666E-01
 2.40000E+00    4.74326E-01
 2.60000E+00    5.33778E-01
 2.80000E+00    5.73975E-01
 3.00000E+00    5.94729E-01
 3.20000E+00    6.33953E-01
 3.40000E+00    6.14481E-01
 3.60000E+00    5.83252E-01
 3.80000E+00    5.61178E-01
 4.00000E+00    5.30444E-01
 4.20000E+00    4.89726E-01
 4.40000E+00    4.59868E-01
 4.60000E+00    4.40738E-01
 4.80000E+00    4.33048E-01
 5.00000E+00    4.36663E-01
 5.20000E+00    4.50968E-01
 5.40000E+00    4.75008E-01
 5.60000E+00    5.07585E-01
 5.80000E+00    5.46986E-01
 6.00000E+00    5.91768E-01
 6.20000E+00    6.39836E-01
 6.40000E+00    6.89013E-01
 6.60000E+00    7.37200E-01
 6.80000E+00    7.82502E-01
 7.00000E+00    8.23262E-01
 7.20000E+00    8.58355E-01
 7.40000E+00    8.87073E-01
 7.60000E+00    9.09184E-01
 7.80000E+00    9.24851E-01
 8.00000E+00    9.34504E-01
 8.50000E+00    9.36751E-01
 9.00000E+00    9.17233E-01
 9.50000E+00    8.86728E-01
 1.00000E+01    8.53110E-01
 1.05000E+01    8.21080E-01
 1.10000E+01    7.92656E-01
 1.15000E+01    7.68009E-01
 1.20000E+01    7.46335E-01
 1.25000E+01    7.26576E-01
 1.30000E+01    7.07897E-01
 1.35000E+01    6.89850E-01
 1.40000E+01    6.72310E-01
 1.45000E+01    6.55364E-01
 1.50000E+01    6.39192E-01
 1.60000E+01    6.10063E-01
 1.70000E+01    5.86348E-01
 1.80000E+01    5.68244E-01
 1.90000E+01    5.54649E-01
 2.00000E+01    5.43898E-01
 2.10000E+01    5.34360E-01
 2.20000E+01    5.24464E-01
 2.30000E+01    5.12824E-01
 2.40000E+01    4.98976E-01
 2.50000E+01    4.83724E-01
 2.60000E+01    4.68501E-01
 2.70000E+01    4.54509E-01
 2.80000E+01    4.42309E-01
 2.90000E+01    4.31819E-01
 3.00000E+01    4.22496E-01
