# n + Dy164 : (n,n'21)  
# tendl.2019 A.J. Koning and D. Rochman        EVAL-NOV19
# uncertainties: n
# # energies =    72
#   E(MeV)       xs(mb) 
 1.59759E+00    0.00000E+00
 1.60000E+00    4.28160E+00
 1.61759E+00    6.02710E+00
 1.66538E+00    1.07695E+01
 1.67530E+00    1.17538E+01
 1.68500E+00    1.27164E+01
 1.69678E+00    1.38854E+01
 1.72676E+00    1.68604E+01
 1.73592E+00    1.77694E+01
 1.74879E+00    1.90465E+01
 1.75664E+00    1.98254E+01
 1.80000E+00    2.41282E+01
 2.00000E+00    2.68711E+01
 2.20000E+00    2.46765E+01
 2.40000E+00    2.03218E+01
 2.60000E+00    1.58377E+01
 2.80000E+00    1.20252E+01
 3.00000E+00    9.02006E+00
 3.20000E+00    6.94165E+00
 3.40000E+00    5.16402E+00
 3.60000E+00    3.84091E+00
 3.80000E+00    2.86157E+00
 4.00000E+00    2.13770E+00
 4.20000E+00    1.60294E+00
 4.40000E+00    1.20604E+00
 4.60000E+00    9.28603E-01
 4.80000E+00    7.04221E-01
 5.00000E+00    5.32238E-01
 5.20000E+00    4.02907E-01
 5.40000E+00    3.05366E-01
 5.60000E+00    2.31705E-01
 5.80000E+00    1.75401E-01
 6.00000E+00    1.33189E-01
 6.20000E+00    1.01368E-01
 6.40000E+00    7.72569E-02
 6.60000E+00    5.89894E-02
 6.80000E+00    4.52556E-02
 7.00000E+00    3.47840E-02
 7.20000E+00    2.68495E-02
 7.40000E+00    2.07770E-02
 7.60000E+00    1.61087E-02
 7.80000E+00    1.25386E-02
 8.00000E+00    9.76751E-03
 8.50000E+00    5.27472E-03
 9.00000E+00    2.87545E-03
 9.50000E+00    1.58277E-03
 1.00000E+01    8.80098E-04
 1.05000E+01    4.94485E-04
 1.10000E+01    2.80677E-04
 1.15000E+01    1.60998E-04
 1.20000E+01    9.32878E-05
 1.25000E+01    5.45604E-05
 1.30000E+01    3.22138E-05
 1.35000E+01    1.91773E-05
 1.40000E+01    1.15254E-05
 1.45000E+01    6.97562E-06
 1.50000E+01    4.25476E-06
 1.60000E+01    1.61778E-06
 1.70000E+01    6.30960E-07
 1.80000E+01    2.50670E-07
 1.90000E+01    1.02270E-07
 2.00000E+01    4.27370E-08
 2.10000E+01    1.82100E-08
 2.20000E+01    7.88010E-09
 2.30000E+01    3.48800E-09
 2.40000E+01    1.57110E-09
 2.50000E+01    7.22530E-10
 2.60000E+01    3.36130E-10
 2.70000E+01    1.58150E-10
 2.80000E+01    7.51650E-11
 2.90000E+01    3.63140E-11
 3.00000E+01    1.77490E-11
