# n + Dy164 : (n,n'09)  
# tendl.2019 A.J. Koning and D. Rochman        EVAL-NOV19
# uncertainties: n
# # energies =    86
#   E(MeV)       xs(mb) 
 1.03094E+00    0.00000E+00
 1.04569E+00    9.07983E-01
 1.12968E+00    6.07830E+00
 1.16286E+00    8.12081E+00
 1.17317E+00    8.75548E+00
 1.20000E+00    1.04071E+01
 1.23268E+00    1.25145E+01
 1.26906E+00    1.48606E+01
 1.31061E+00    1.75400E+01
 1.35428E+00    2.03562E+01
 1.40000E+00    2.33045E+01
 1.40228E+00    2.34575E+01
 1.47955E+00    2.86412E+01
 1.51426E+00    3.09697E+01
 1.59759E+00    3.65600E+01
 1.60000E+00    3.67217E+01
 1.61759E+00    3.74648E+01
 1.66538E+00    3.94836E+01
 1.67530E+00    3.99027E+01
 1.68500E+00    4.03124E+01
 1.69678E+00    4.08101E+01
 1.72676E+00    4.20765E+01
 1.73592E+00    4.24635E+01
 1.74879E+00    4.30072E+01
 1.75664E+00    4.33388E+01
 1.80000E+00    4.51705E+01
 2.00000E+00    4.09436E+01
 2.20000E+00    3.27285E+01
 2.40000E+00    2.45818E+01
 2.60000E+00    1.80612E+01
 2.80000E+00    1.32298E+01
 3.00000E+00    9.71778E+00
 3.20000E+00    7.51400E+00
 3.40000E+00    5.54473E+00
 3.60000E+00    4.10719E+00
 3.80000E+00    3.05272E+00
 4.00000E+00    2.32516E+00
 4.20000E+00    1.75596E+00
 4.40000E+00    1.30470E+00
 4.60000E+00    9.71744E-01
 4.80000E+00    7.24211E-01
 5.00000E+00    5.40390E-01
 5.20000E+00    4.04068E-01
 5.40000E+00    3.02935E-01
 5.60000E+00    2.27697E-01
 5.80000E+00    1.71036E-01
 6.00000E+00    1.29048E-01
 6.20000E+00    9.77500E-02
 6.40000E+00    7.42471E-02
 6.60000E+00    5.65764E-02
 6.80000E+00    4.33734E-02
 7.00000E+00    3.33487E-02
 7.20000E+00    2.57782E-02
 7.40000E+00    1.99906E-02
 7.60000E+00    1.55432E-02
 7.80000E+00    1.21387E-02
 8.00000E+00    9.49090E-03
 8.50000E+00    5.17758E-03
 9.00000E+00    2.85217E-03
 9.50000E+00    1.58595E-03
 1.00000E+01    8.90348E-04
 1.05000E+01    5.04748E-04
 1.10000E+01    2.88908E-04
 1.15000E+01    1.67011E-04
 1.20000E+01    9.74674E-05
 1.25000E+01    5.73766E-05
 1.30000E+01    3.40725E-05
 1.35000E+01    2.03852E-05
 1.40000E+01    1.23031E-05
 1.45000E+01    7.47283E-06
 1.50000E+01    4.57187E-06
 1.60000E+01    1.74722E-06
 1.70000E+01    6.84530E-07
 1.80000E+01    2.73160E-07
 1.90000E+01    1.11940E-07
 2.00000E+01    4.69790E-08
 2.10000E+01    2.00970E-08
 2.20000E+01    8.72840E-09
 2.30000E+01    3.87620E-09
 2.40000E+01    1.75090E-09
 2.50000E+01    8.07160E-10
 2.60000E+01    3.76260E-10
 2.70000E+01    1.77340E-10
 2.80000E+01    8.44280E-11
 2.90000E+01    4.08550E-11
 3.00000E+01    2.00020E-11
