# n + La138 : (n,n'21)  
# tendl.2019 A.J. Koning and D. Rochman        EVAL-NOV19
# uncertainties: n
# # energies =    75
#   E(MeV)       xs(mb) 
 9.54722E-01    0.00000E+00
 9.68432E-01    4.51076E+00
 1.00000E+00    1.48970E+01
 1.04056E+00    1.84920E+01
 1.06562E+00    2.07131E+01
 1.07480E+00    2.15268E+01
 1.10402E+00    2.41166E+01
 1.11066E+00    2.47052E+01
 1.15841E+00    2.89374E+01
 1.16345E+00    2.93841E+01
 1.18662E+00    3.14378E+01
 1.20000E+00    3.26237E+01
 1.40000E+00    3.66297E+01
 1.60000E+00    3.55501E+01
 1.80000E+00    3.19741E+01
 2.00000E+00    2.71818E+01
 2.20000E+00    2.21384E+01
 2.40000E+00    1.75034E+01
 2.60000E+00    1.36004E+01
 2.80000E+00    1.04823E+01
 3.00000E+00    8.06234E+00
 3.20000E+00    6.20905E+00
 3.40000E+00    4.79438E+00
 3.60000E+00    3.71010E+00
 3.80000E+00    2.87614E+00
 4.00000E+00    2.23257E+00
 4.20000E+00    1.73471E+00
 4.40000E+00    1.34913E+00
 4.60000E+00    1.05010E+00
 4.80000E+00    8.18217E-01
 5.00000E+00    6.38360E-01
 5.20000E+00    4.98893E-01
 5.40000E+00    3.90497E-01
 5.60000E+00    3.06420E-01
 5.80000E+00    2.41091E-01
 6.00000E+00    1.89954E-01
 6.20000E+00    1.50117E-01
 6.40000E+00    1.18902E-01
 6.60000E+00    9.45460E-02
 6.80000E+00    7.54492E-02
 7.00000E+00    6.03120E-02
 7.20000E+00    4.84137E-02
 7.40000E+00    3.89198E-02
 7.60000E+00    3.13626E-02
 7.80000E+00    2.53182E-02
 8.00000E+00    2.04499E-02
 8.50000E+00    1.20368E-02
 9.00000E+00    7.09171E-03
 9.50000E+00    4.17956E-03
 1.00000E+01    2.46727E-03
 1.05000E+01    1.46126E-03
 1.10000E+01    8.69818E-04
 1.15000E+01    5.20835E-04
 1.20000E+01    3.14135E-04
 1.25000E+01    1.90963E-04
 1.30000E+01    1.17022E-04
 1.35000E+01    7.22867E-05
 1.40000E+01    4.49999E-05
 1.45000E+01    2.82199E-05
 1.50000E+01    1.78119E-05
 1.60000E+01    7.22131E-06
 1.70000E+01    2.98575E-06
 1.80000E+01    1.25458E-06
 1.90000E+01    5.34630E-07
 2.00000E+01    2.29120E-07
 2.10000E+01    1.00430E-07
 2.20000E+01    4.45850E-08
 2.30000E+01    2.00960E-08
 2.40000E+01    9.19540E-09
 2.50000E+01    4.26920E-09
 2.60000E+01    2.00830E-09
 2.70000E+01    9.55400E-10
 2.80000E+01    4.58970E-10
 2.90000E+01    2.22570E-10
 3.00000E+01    1.08870E-10
