# n + La138 : (n,n'16)  
# tendl.2019 A.J. Koning and D. Rochman        EVAL-NOV19
# uncertainties: n
# # energies =    81
#   E(MeV)       xs(mb) 
 8.48954E-01    0.00000E+00
 8.94495E-01    7.74260E+00
 9.00000E-01    8.67852E+00
 9.07187E-01    9.09618E+00
 9.35795E-01    1.07587E+01
 9.43753E-01    1.12212E+01
 9.54722E-01    1.18586E+01
 9.68432E-01    1.26554E+01
 1.00000E+00    1.44899E+01
 1.04056E+00    1.60586E+01
 1.06562E+00    1.70278E+01
 1.07480E+00    1.73828E+01
 1.10402E+00    1.85129E+01
 1.11066E+00    1.87697E+01
 1.15841E+00    2.06165E+01
 1.16345E+00    2.08114E+01
 1.18662E+00    2.17075E+01
 1.20000E+00    2.22250E+01
 1.40000E+00    2.79244E+01
 1.60000E+00    3.10881E+01
 1.80000E+00    3.10137E+01
 2.00000E+00    2.81028E+01
 2.20000E+00    2.37085E+01
 2.40000E+00    1.91266E+01
 2.60000E+00    1.50809E+01
 2.80000E+00    1.17862E+01
 3.00000E+00    9.19728E+00
 3.20000E+00    7.18257E+00
 3.40000E+00    5.61303E+00
 3.60000E+00    4.38134E+00
 3.80000E+00    3.41152E+00
 4.00000E+00    2.64769E+00
 4.20000E+00    2.04747E+00
 4.40000E+00    1.57785E+00
 4.60000E+00    1.21202E+00
 4.80000E+00    9.28692E-01
 5.00000E+00    7.10423E-01
 5.20000E+00    5.43119E-01
 5.40000E+00    4.15210E-01
 5.60000E+00    3.18082E-01
 5.80000E+00    2.44130E-01
 6.00000E+00    1.87846E-01
 6.20000E+00    1.45024E-01
 6.40000E+00    1.12332E-01
 6.60000E+00    8.75599E-02
 6.80000E+00    6.85766E-02
 7.00000E+00    5.39156E-02
 7.20000E+00    4.26466E-02
 7.40000E+00    3.38467E-02
 7.60000E+00    2.69782E-02
 7.80000E+00    2.15819E-02
 8.00000E+00    1.72991E-02
 8.50000E+00    1.00523E-02
 9.00000E+00    5.88553E-03
 9.50000E+00    3.46205E-03
 1.00000E+01    2.04515E-03
 1.05000E+01    1.21380E-03
 1.10000E+01    7.24472E-04
 1.15000E+01    4.35033E-04
 1.20000E+01    2.63090E-04
 1.25000E+01    1.60316E-04
 1.30000E+01    9.84352E-05
 1.35000E+01    6.08932E-05
 1.40000E+01    3.79370E-05
 1.45000E+01    2.37915E-05
 1.50000E+01    1.50051E-05
 1.60000E+01    6.06090E-06
 1.70000E+01    2.49295E-06
 1.80000E+01    1.04260E-06
 1.90000E+01    4.42890E-07
 2.00000E+01    1.89440E-07
 2.10000E+01    8.29160E-08
 2.20000E+01    3.67510E-08
 2.30000E+01    1.65330E-08
 2.40000E+01    7.54810E-09
 2.50000E+01    3.49700E-09
 2.60000E+01    1.64220E-09
 2.70000E+01    7.80270E-10
 2.80000E+01    3.74500E-10
 2.90000E+01    1.81470E-10
 3.00000E+01    8.86880E-11
