# n + La138 : (n,n'22)  
# tendl.2019 A.J. Koning and D. Rochman        EVAL-NOV19
# uncertainties: n
# # energies =    74
#   E(MeV)       xs(mb) 
 9.68432E-01    0.00000E+00
 1.00000E+00    3.78525E+01
 1.04056E+00    4.74183E+01
 1.06562E+00    5.33286E+01
 1.07480E+00    5.54936E+01
 1.10402E+00    6.23850E+01
 1.11066E+00    6.39510E+01
 1.15841E+00    7.52125E+01
 1.16345E+00    7.64012E+01
 1.18662E+00    8.18657E+01
 1.20000E+00    8.50213E+01
 1.40000E+00    8.69608E+01
 1.60000E+00    7.70120E+01
 1.80000E+00    6.40888E+01
 2.00000E+00    5.11821E+01
 2.20000E+00    3.97227E+01
 2.40000E+00    3.02605E+01
 2.60000E+00    2.28161E+01
 2.80000E+00    1.71296E+01
 3.00000E+00    1.28586E+01
 3.20000E+00    9.67583E+00
 3.40000E+00    7.30827E+00
 3.60000E+00    5.53905E+00
 3.80000E+00    4.21218E+00
 4.00000E+00    3.21265E+00
 4.20000E+00    2.45669E+00
 4.40000E+00    1.88338E+00
 4.60000E+00    1.44719E+00
 4.80000E+00    1.11474E+00
 5.00000E+00    8.60857E-01
 5.20000E+00    6.66643E-01
 5.40000E+00    5.17540E-01
 5.60000E+00    4.03075E-01
 5.80000E+00    3.14978E-01
 6.00000E+00    2.46606E-01
 6.20000E+00    1.93720E-01
 6.40000E+00    1.52573E-01
 6.60000E+00    1.20659E-01
 6.80000E+00    9.57846E-02
 7.00000E+00    7.61823E-02
 7.20000E+00    6.08532E-02
 7.40000E+00    4.86885E-02
 7.60000E+00    3.90570E-02
 7.80000E+00    3.13942E-02
 8.00000E+00    2.52545E-02
 8.50000E+00    1.47354E-02
 9.00000E+00    8.62316E-03
 9.50000E+00    5.05689E-03
 1.00000E+01    2.97456E-03
 1.05000E+01    1.75742E-03
 1.10000E+01    1.04448E-03
 1.15000E+01    6.24898E-04
 1.20000E+01    3.76806E-04
 1.25000E+01    2.29118E-04
 1.30000E+01    1.40496E-04
 1.35000E+01    8.68746E-05
 1.40000E+01    5.41515E-05
 1.45000E+01    3.40118E-05
 1.50000E+01    2.15054E-05
 1.60000E+01    8.75334E-06
 1.70000E+01    3.63420E-06
 1.80000E+01    1.53289E-06
 1.90000E+01    6.55330E-07
 2.00000E+01    2.81600E-07
 2.10000E+01    1.23740E-07
 2.20000E+01    5.50720E-08
 2.30000E+01    2.48920E-08
 2.40000E+01    1.14230E-08
 2.50000E+01    5.31980E-09
 2.60000E+01    2.51020E-09
 2.70000E+01    1.19760E-09
 2.80000E+01    5.76880E-10
 2.90000E+01    2.80450E-10
 3.00000E+01    1.37490E-10
