# n + Sn112 : (n,el)    
# endfb8.0   JNDC FPND W.G., Mughabghab        EVAL-DEC04
# uncertainties: n
# # energies =   171
#   E(MeV)       xs(mb) 
 1.00000E-11    7.52442E+03
 1.00000E-07    4.42649E+03
 4.13990E-07    4.42319E+03
 5.31580E-07    4.42228E+03
 6.82560E-07    4.42110E+03
 8.76420E-07    4.41960E+03
 1.12540E-06    4.41766E+03
 1.44500E-06    4.41518E+03
 1.85540E-06    4.41214E+03
 2.37240E-06    4.40845E+03
 3.05900E-06    4.40369E+03
 3.92790E-06    4.39761E+03
 5.04350E-06    4.38980E+03
 6.47600E-06    4.37978E+03
 8.31530E-06    4.36691E+03
 1.06770E-05    4.35038E+03
 1.37100E-05    4.32916E+03
 1.76030E-05    4.30192E+03
 2.26030E-05    4.26415E+03
 2.92030E-05    4.20371E+03
 3.72670E-05    4.10893E+03
 4.78510E-05    3.91710E+03
 6.14420E-05    3.47974E+03
 7.88930E-05    6.98958E+04
 1.01300E-04    7.97172E+03
 1.30070E-04    5.40605E+03
 1.67020E-04    5.06197E+03
 2.14450E-04    4.92281E+03
 2.75360E-04    4.82959E+03
 3.53580E-04    4.71057E+03
 4.54000E-04    5.88314E+03
 5.82950E-04    4.79310E+03
 7.48520E-04    7.44832E+03
 9.61120E-04    4.63423E+03
 1.23410E-03    1.16749E+04
 1.58460E-03    6.76236E+03
 2.03470E-03    6.61518E+03
 2.24870E-03    6.53665E+03
 2.48520E-03    6.48083E+03
 2.61260E-03    6.44489E+03
 2.74650E-03    6.39255E+03
 3.03540E-03    6.32714E+03
 3.35460E-03    6.26641E+03
 3.70740E-03    6.19690E+03
 4.30740E-03    6.10082E+03
 5.53080E-03    6.00352E+03
 7.10170E-03    5.93354E+03
 9.11880E-03    5.88955E+03
 1.17090E-02    5.86869E+03
 1.50340E-02    5.86907E+03
 1.93050E-02    5.88125E+03
 2.18750E-02    5.89216E+03
 2.35790E-02    5.89863E+03
 2.41760E-02    5.90216E+03
 2.47880E-02    5.90769E+03
 2.60580E-02    5.91433E+03
 2.70000E-02    5.92180E+03
 2.85000E-02    5.93674E+03
 3.18280E-02    5.95515E+03
 3.43070E-02    5.98285E+03
 4.08680E-02    6.01865E+03
 4.63090E-02    6.05060E+03
 5.24750E-02    6.07734E+03
 5.65620E-02    6.11174E+03
 6.73790E-02    6.14530E+03
 7.20000E-02    6.16836E+03
 7.95000E-02    6.18726E+03
 8.25000E-02    6.19881E+03
 8.65170E-02    6.22199E+03
 9.80370E-02    6.24830E+03
 1.11090E-01    6.24717E+03
 1.16790E-01    6.24546E+03
 1.22770E-01    6.24366E+03
 1.29070E-01    6.24176E+03
 1.35690E-01    6.23977E+03
 1.42640E-01    6.23768E+03
 1.49960E-01    6.23717E+03
 1.57640E-01    6.23839E+03
 1.65730E-01    6.23968E+03
 1.74220E-01    6.24103E+03
 1.83160E-01    6.24245E+03
 1.92550E-01    6.24394E+03
 2.02420E-01    6.24552E+03
 2.12800E-01    6.24717E+03
 2.23710E-01    6.24890E+03
 2.35180E-01    6.25073E+03
 2.47240E-01    6.25366E+03
 2.73240E-01    6.25679E+03
 2.87250E-01    6.25845E+03
 2.94520E-01    6.25922E+03
 2.97200E-01    6.25953E+03
 2.98500E-01    6.25990E+03
 3.01970E-01    6.26275E+03
 3.33730E-01    6.26885E+03
 3.68830E-01    6.27388E+03
 3.87740E-01    6.27747E+03
 4.07620E-01    6.28323E+03
 4.50490E-01    6.29157E+03
 4.97870E-01    6.29837E+03
 5.23400E-01    6.30262E+03
 5.50230E-01    6.30372E+03
 5.78440E-01    6.30432E+03
 6.08100E-01    6.30496E+03
 6.39280E-01    6.30563E+03
 6.72060E-01    6.30617E+03
 7.06510E-01    6.30049E+03
 7.42740E-01    6.29128E+03
 7.80820E-01    6.28160E+03
 8.20850E-01    6.27142E+03
 8.62940E-01    6.25819E+03
 9.07180E-01    6.23474E+03
 9.61640E-01    6.21150E+03
 1.00260E+00    6.16930E+03
 1.10800E+00    6.11354E+03
 1.16480E+00    6.07353E+03
 1.22460E+00    6.02607E+03
 1.28730E+00    5.88746E+03
 1.35340E+00    5.71308E+03
 1.42270E+00    5.54704E+03
 1.49570E+00    5.40003E+03
 1.57240E+00    5.27675E+03
 1.65300E+00    5.15169E+03
 1.73770E+00    5.02777E+03
 1.82680E+00    4.89756E+03
 1.92050E+00    4.76230E+03
 2.01900E+00    4.62587E+03
 2.12250E+00    4.47123E+03
 2.23130E+00    4.28929E+03
 2.30690E+00    4.17679E+03
 2.34570E+00    4.12177E+03
 2.36530E+00    4.08462E+03
 2.38520E+00    3.99029E+03
 2.46600E+00    3.79621E+03
 2.59240E+00    3.55791E+03
 2.72530E+00    3.33357E+03
 2.86500E+00    3.13336E+03
 3.01190E+00    2.94898E+03
 3.16640E+00    2.77555E+03
 3.32870E+00    2.54164E+03
 3.67880E+00    2.26332E+03
 4.06570E+00    2.08016E+03
 4.49330E+00    1.97810E+03
 4.72370E+00    1.91218E+03
 4.96590E+00    1.87526E+03
 5.22050E+00    1.88433E+03
 5.48810E+00    1.89459E+03
 5.76950E+00    1.90605E+03
 6.06530E+00    1.95155E+03
 6.37630E+00    2.00464E+03
 6.59240E+00    2.03746E+03
 6.70320E+00    2.07969E+03
 7.04690E+00    2.15942E+03
 7.40820E+00    2.25219E+03
 7.78800E+00    2.34687E+03
 8.18730E+00    2.44484E+03
 8.60710E+00    2.54712E+03
 9.04840E+00    2.64335E+03
 9.51230E+00    2.73821E+03
 1.00000E+01    2.86449E+03
 1.05130E+01    3.02239E+03
 1.10520E+01    3.05344E+03
 1.16180E+01    2.99568E+03
 1.22140E+01    2.93165E+03
 1.28400E+01    2.89328E+03
 1.34990E+01    2.91459E+03
 1.38400E+01    2.92150E+03
 1.41910E+01    2.88020E+03
 1.45500E+01    2.84554E+03
 1.49180E+01    2.78018E+03
 1.56830E+01    2.66958E+03
 1.64870E+01    2.52658E+03
