# n + Zn  0 : (n,na)
# jendl4.0   N.Iwamoto                         EVAL-Dec09
# uncertainties: n
# # energies =    29
#   E(MeV)          xs(mb) 
 4.01886E+00    0.00000E+00
 6.50000E+00    1.63892E-07
 7.00000E+00    2.28433E-05
 7.50000E+00    9.14368E-04
 8.00000E+00    1.58852E-02
 8.50000E+00    1.51615E-01
 9.00000E+00    9.03115E-01
 9.50000E+00    3.66297E+00
 1.00000E+01    1.05191E+01
 1.05000E+01    2.27108E+01
 1.10000E+01    4.05292E+01
 1.15000E+01    6.19003E+01
 1.20000E+01    7.74026E+01
 1.25000E+01    8.90171E+01
 1.30000E+01    9.70548E+01
 1.35000E+01    1.02417E+02
 1.40000E+01    1.06039E+02
 1.45000E+01    1.09389E+02
 1.50000E+01    1.12027E+02
 1.55000E+01    1.15015E+02
 1.60000E+01    1.19088E+02
 1.65000E+01    1.23265E+02
 1.70000E+01    1.27991E+02
 1.75000E+01    1.32822E+02
 1.80000E+01    1.37438E+02
 1.85000E+01    1.41189E+02
 1.90000E+01    1.44563E+02
 1.95000E+01    1.47112E+02
 2.00000E+01    1.48931E+02
