# n + Ba133 : (n,n'18)  
# jeff3.3    A.J. Koning and D. Rochman        EVAL-DEC15
# uncertainties: n
# # energies =    77
#   E(MeV)       xs(mb) 
 1.02934E+00    0.00000E+00
 1.07490E+00    1.49377E+01
 1.11963E+00    2.96032E+01
 1.12079E+00    2.99835E+01
 1.20000E+00    5.59539E+01
 1.22099E+00    5.69349E+01
 1.25717E+00    5.86258E+01
 1.28095E+00    5.97371E+01
 1.29370E+00    6.03330E+01
 1.33941E+00    6.24693E+01
 1.35131E+00    6.30255E+01
 1.36303E+00    6.35732E+01
 1.38609E+00    6.46509E+01
 1.40000E+00    6.53010E+01
 1.51290E+00    6.64795E+01
 1.60000E+00    6.73886E+01
 1.80000E+00    6.13847E+01
 2.00000E+00    5.16526E+01
 2.20000E+00    4.17097E+01
 2.40000E+00    3.21214E+01
 2.60000E+00    2.40660E+01
 2.80000E+00    1.77172E+01
 3.00000E+00    1.29311E+01
 3.20000E+00    9.42651E+00
 3.40000E+00    6.89452E+00
 3.60000E+00    5.07151E+00
 3.80000E+00    3.75386E+00
 4.00000E+00    2.79341E+00
 4.20000E+00    2.08736E+00
 4.40000E+00    1.56427E+00
 4.60000E+00    1.17457E+00
 4.80000E+00    8.83154E-01
 5.00000E+00    6.64704E-01
 5.20000E+00    5.00655E-01
 5.40000E+00    3.77509E-01
 5.60000E+00    2.85211E-01
 5.80000E+00    2.15476E-01
 6.00000E+00    1.63485E-01
 6.20000E+00    1.24111E-01
 6.40000E+00    9.42103E-02
 6.60000E+00    7.18978E-02
 6.80000E+00    5.49894E-02
 7.00000E+00    4.23064E-02
 7.20000E+00    3.26215E-02
 7.40000E+00    2.52538E-02
 7.60000E+00    1.96281E-02
 7.80000E+00    1.52757E-02
 8.00000E+00    1.19498E-02
 8.50000E+00    6.52141E-03
 9.00000E+00    3.60825E-03
 9.50000E+00    2.02068E-03
 1.00000E+01    1.14409E-03
 1.05000E+01    6.54406E-04
 1.10000E+01    3.77986E-04
 1.15000E+01    2.20411E-04
 1.20000E+01    1.29735E-04
 1.25000E+01    7.70601E-05
 1.30000E+01    4.61853E-05
 1.35000E+01    2.79249E-05
 1.40000E+01    1.70280E-05
 1.45000E+01    1.04663E-05
 1.50000E+01    6.48146E-06
 1.60000E+01    2.53478E-06
 1.70000E+01    1.01604E-06
 1.80000E+01    4.17120E-07
 1.90000E+01    1.75300E-07
 2.00000E+01    7.46950E-08
 2.10000E+01    3.26000E-08
 2.20000E+01    1.44480E-08
 2.30000E+01    6.49900E-09
 2.40000E+01    2.96690E-09
 2.50000E+01    1.37550E-09
 2.60000E+01    6.47700E-10
 2.70000E+01    3.09320E-10
 2.80000E+01    1.49710E-10
 2.90000E+01    7.33350E-11
 3.00000E+01    3.63080E-11
