# n + Ba133 : (n,n'13)  
# jeff3.3    A.J. Koning and D. Rochman        EVAL-DEC15
# uncertainties: n
# # energies =    84
#   E(MeV)       xs(mb) 
 8.93868E-01    0.00000E+00
 9.00000E-01    1.74468E+01
 9.08644E-01    2.09979E+01
 9.30969E-01    3.01692E+01
 9.76324E-01    4.88015E+01
 1.00000E+00    5.85278E+01
 1.00305E+00    5.88608E+01
 1.02934E+00    6.17309E+01
 1.07490E+00    6.67048E+01
 1.11963E+00    7.15881E+01
 1.12079E+00    7.17148E+01
 1.20000E+00    8.03623E+01
 1.22099E+00    8.07315E+01
 1.25717E+00    8.13678E+01
 1.28095E+00    8.17860E+01
 1.29370E+00    8.20102E+01
 1.33941E+00    8.28141E+01
 1.35131E+00    8.30234E+01
 1.36303E+00    8.32295E+01
 1.38609E+00    8.36351E+01
 1.40000E+00    8.38797E+01
 1.51290E+00    8.36807E+01
 1.60000E+00    8.35272E+01
 1.80000E+00    7.45162E+01
 2.00000E+00    6.16690E+01
 2.20000E+00    4.91877E+01
 2.40000E+00    3.76354E+01
 2.60000E+00    2.81916E+01
 2.80000E+00    2.08622E+01
 3.00000E+00    1.53650E+01
 3.20000E+00    1.13225E+01
 3.40000E+00    8.37328E+00
 3.60000E+00    6.22140E+00
 3.80000E+00    4.64276E+00
 4.00000E+00    3.47569E+00
 4.20000E+00    2.60752E+00
 4.40000E+00    1.95855E+00
 4.60000E+00    1.47211E+00
 4.80000E+00    1.10703E+00
 5.00000E+00    8.32882E-01
 5.20000E+00    6.26978E-01
 5.40000E+00    4.72593E-01
 5.60000E+00    3.56998E-01
 5.80000E+00    2.69764E-01
 6.00000E+00    2.04836E-01
 6.20000E+00    1.55728E-01
 6.40000E+00    1.18389E-01
 6.60000E+00    9.05971E-02
 6.80000E+00    6.94657E-02
 7.00000E+00    5.36004E-02
 7.20000E+00    4.14714E-02
 7.40000E+00    3.22080E-02
 7.60000E+00    2.51221E-02
 7.80000E+00    1.96167E-02
 8.00000E+00    1.53957E-02
 8.50000E+00    8.46575E-03
 9.00000E+00    4.71373E-03
 9.50000E+00    2.65337E-03
 1.00000E+01    1.50871E-03
 1.05000E+01    8.66138E-04
 1.10000E+01    5.01948E-04
 1.15000E+01    2.93610E-04
 1.20000E+01    1.73337E-04
 1.25000E+01    1.03256E-04
 1.30000E+01    6.20578E-05
 1.35000E+01    3.76225E-05
 1.40000E+01    2.30001E-05
 1.45000E+01    1.41714E-05
 1.50000E+01    8.79608E-06
 1.60000E+01    3.45475E-06
 1.70000E+01    1.39039E-06
 1.80000E+01    5.72920E-07
 1.90000E+01    2.41510E-07
 2.00000E+01    1.03130E-07
 2.10000E+01    4.50840E-08
 2.20000E+01    2.00080E-08
 2.30000E+01    9.01410E-09
 2.40000E+01    4.12240E-09
 2.50000E+01    1.91490E-09
 2.60000E+01    9.03420E-10
 2.70000E+01    4.32150E-10
 2.80000E+01    2.09440E-10
 2.90000E+01    1.02700E-10
 3.00000E+01    5.08900E-11
