# n + Ba133 : (n,n'08)  
# jeff3.3    A.J. Koning and D. Rochman        EVAL-DEC15
# uncertainties: n
# # energies =    91
#   E(MeV)       xs(mb) 
 6.81622E-01    0.00000E+00
 7.00000E-01    4.17848E+01
 7.97104E-01    1.16348E+02
 8.00000E-01    1.18572E+02
 8.65014E-01    1.39570E+02
 8.69348E-01    1.40970E+02
 8.90094E-01    1.47671E+02
 8.93868E-01    1.48889E+02
 9.00000E-01    1.50870E+02
 9.08644E-01    1.52419E+02
 9.30969E-01    1.56421E+02
 9.76324E-01    1.64550E+02
 1.00000E+00    1.68793E+02
 1.00305E+00    1.69161E+02
 1.02934E+00    1.72332E+02
 1.07490E+00    1.77829E+02
 1.11963E+00    1.83225E+02
 1.12079E+00    1.83365E+02
 1.20000E+00    1.92920E+02
 1.22099E+00    1.94525E+02
 1.25717E+00    1.97291E+02
 1.28095E+00    1.99109E+02
 1.29370E+00    2.00084E+02
 1.33941E+00    2.03579E+02
 1.35131E+00    2.04489E+02
 1.36303E+00    2.05385E+02
 1.38609E+00    2.07149E+02
 1.40000E+00    2.08212E+02
 1.51290E+00    2.15299E+02
 1.60000E+00    2.20767E+02
 1.80000E+00    2.19029E+02
 2.00000E+00    2.09594E+02
 2.20000E+00    1.98291E+02
 2.40000E+00    1.86435E+02
 2.60000E+00    1.75880E+02
 2.80000E+00    1.67046E+02
 3.00000E+00    1.59894E+02
 3.20000E+00    1.54162E+02
 3.40000E+00    1.49482E+02
 3.60000E+00    1.45484E+02
 3.80000E+00    1.41848E+02
 4.00000E+00    1.38330E+02
 4.20000E+00    1.34771E+02
 4.40000E+00    1.31077E+02
 4.60000E+00    1.27206E+02
 4.80000E+00    1.23159E+02
 5.00000E+00    1.18964E+02
 5.20000E+00    1.14680E+02
 5.40000E+00    1.10375E+02
 5.60000E+00    1.06122E+02
 5.80000E+00    1.01994E+02
 6.00000E+00    9.80479E+01
 6.20000E+00    9.43319E+01
 6.40000E+00    9.08767E+01
 6.60000E+00    8.76985E+01
 6.80000E+00    8.48026E+01
 7.00000E+00    8.21836E+01
 7.20000E+00    7.98275E+01
 7.40000E+00    7.77146E+01
 7.60000E+00    7.58206E+01
 7.80000E+00    7.41191E+01
 8.00000E+00    7.25829E+01
 8.50000E+00    6.92893E+01
 9.00000E+00    6.64915E+01
 9.50000E+00    6.39317E+01
 1.00000E+01    6.14707E+01
 1.05000E+01    5.90635E+01
 1.10000E+01    5.67206E+01
 1.15000E+01    5.44778E+01
 1.20000E+01    5.23735E+01
 1.25000E+01    5.04365E+01
 1.30000E+01    4.86820E+01
 1.35000E+01    4.71066E+01
 1.40000E+01    4.56960E+01
 1.45000E+01    4.44241E+01
 1.50000E+01    4.32603E+01
 1.60000E+01    4.11420E+01
 1.70000E+01    3.91730E+01
 1.80000E+01    3.72890E+01
 1.90000E+01    3.54723E+01
 2.00000E+01    3.37199E+01
 2.10000E+01    3.20547E+01
 2.20000E+01    3.05242E+01
 2.30000E+01    2.91705E+01
 2.40000E+01    2.80105E+01
 2.50000E+01    2.70353E+01
 2.60000E+01    2.62153E+01
 2.70000E+01    2.55067E+01
 2.80000E+01    2.48588E+01
 2.90000E+01    2.42284E+01
 3.00000E+01    2.35917E+01
