# n + Ba133 : (n,n'07)  
# jeff3.3    A.J. Koning and D. Rochman        EVAL-DEC15
# uncertainties: n
# # energies =    92
#   E(MeV)       xs(mb) 
 6.35354E-01    0.00000E+00
 6.81622E-01    5.50751E+01
 7.00000E-01    7.69512E+01
 7.97104E-01    1.49902E+02
 8.00000E-01    1.52078E+02
 8.65014E-01    1.71919E+02
 8.69348E-01    1.73242E+02
 8.90094E-01    1.79573E+02
 8.93868E-01    1.80725E+02
 9.00000E-01    1.82596E+02
 9.08644E-01    1.84223E+02
 9.30969E-01    1.88423E+02
 9.76324E-01    1.96957E+02
 1.00000E+00    2.01412E+02
 1.00305E+00    2.02018E+02
 1.02934E+00    2.07246E+02
 1.07490E+00    2.16305E+02
 1.11963E+00    2.25199E+02
 1.12079E+00    2.25430E+02
 1.20000E+00    2.41180E+02
 1.22099E+00    2.44276E+02
 1.25717E+00    2.49611E+02
 1.28095E+00    2.53118E+02
 1.29370E+00    2.54999E+02
 1.33941E+00    2.61740E+02
 1.35131E+00    2.63495E+02
 1.36303E+00    2.65224E+02
 1.38609E+00    2.68625E+02
 1.40000E+00    2.70676E+02
 1.51290E+00    2.83361E+02
 1.60000E+00    2.93147E+02
 1.80000E+00    2.97573E+02
 2.00000E+00    2.91271E+02
 2.20000E+00    2.80951E+02
 2.40000E+00    2.68629E+02
 2.60000E+00    2.56869E+02
 2.80000E+00    2.46532E+02
 3.00000E+00    2.37826E+02
 3.20000E+00    2.30584E+02
 3.40000E+00    2.24435E+02
 3.60000E+00    2.18961E+02
 3.80000E+00    2.13789E+02
 4.00000E+00    2.08635E+02
 4.20000E+00    2.03315E+02
 4.40000E+00    1.97725E+02
 4.60000E+00    1.91829E+02
 4.80000E+00    1.85645E+02
 5.00000E+00    1.79236E+02
 5.20000E+00    1.72694E+02
 5.40000E+00    1.66132E+02
 5.60000E+00    1.59667E+02
 5.80000E+00    1.53405E+02
 6.00000E+00    1.47436E+02
 6.20000E+00    1.41827E+02
 6.40000E+00    1.36624E+02
 6.60000E+00    1.31847E+02
 6.80000E+00    1.27501E+02
 7.00000E+00    1.23576E+02
 7.20000E+00    1.20050E+02
 7.40000E+00    1.16889E+02
 7.60000E+00    1.14056E+02
 7.80000E+00    1.11511E+02
 8.00000E+00    1.09211E+02
 8.50000E+00    1.04269E+02
 9.00000E+00    1.00052E+02
 9.50000E+00    9.61807E+01
 1.00000E+01    9.24534E+01
 1.05000E+01    8.88086E+01
 1.10000E+01    8.52653E+01
 1.15000E+01    8.18787E+01
 1.20000E+01    7.87064E+01
 1.25000E+01    7.57903E+01
 1.30000E+01    7.31522E+01
 1.35000E+01    7.07850E+01
 1.40000E+01    6.86658E+01
 1.45000E+01    6.67547E+01
 1.50000E+01    6.50046E+01
 1.60000E+01    6.18151E+01
 1.70000E+01    5.88475E+01
 1.80000E+01    5.60077E+01
 1.90000E+01    5.32699E+01
 2.00000E+01    5.06301E+01
 2.10000E+01    4.81238E+01
 2.20000E+01    4.58234E+01
 2.30000E+01    4.37914E+01
 2.40000E+01    4.20516E+01
 2.50000E+01    4.05897E+01
 2.60000E+01    3.93599E+01
 2.70000E+01    3.82959E+01
 2.80000E+01    3.73215E+01
 2.90000E+01    3.63721E+01
 3.00000E+01    3.54127E+01
