# n + Os188 : (n,n'35)  
# jendl4.0   N.Iwamoto                         EVAL-Jan10
# uncertainties: n
# # energies =    45
#   E(MeV)       xs(mb) 
 1.90316E+00    0.00000E+00
 1.94729E+00    1.06859E+01
 1.95144E+00    1.08449E+01
 1.95906E+00    1.10985E+01
 1.96759E+00    1.13174E+01
 1.97552E+00    1.14339E+01
 2.00000E+00    1.22322E+01
 2.25000E+00    1.72416E+01
 2.50000E+00    1.64257E+01
 2.75000E+00    1.33767E+01
 3.00000E+00    1.01680E+01
 3.50000E+00    5.06125E+00
 4.00000E+00    2.55098E+00
 4.50000E+00    1.45369E+00
 5.00000E+00    9.89547E-01
 5.50000E+00    7.85473E-01
 6.00000E+00    6.84025E-01
 6.50000E+00    6.22311E-01
 7.00000E+00    5.77509E-01
 7.50000E+00    5.40437E-01
 8.00000E+00    5.08057E-01
 8.50000E+00    4.79278E-01
 9.00000E+00    4.53702E-01
 9.50000E+00    4.30852E-01
 1.00000E+01    4.10202E-01
 1.05000E+01    3.91085E-01
 1.10000E+01    3.72974E-01
 1.15000E+01    3.55541E-01
 1.20000E+01    3.38664E-01
 1.25000E+01    3.22446E-01
 1.30000E+01    3.06925E-01
 1.35000E+01    2.92268E-01
 1.40000E+01    2.78536E-01
 1.45000E+01    2.65747E-01
 1.50000E+01    2.53866E-01
 1.55000E+01    2.42827E-01
 1.60000E+01    2.32546E-01
 1.65000E+01    2.22935E-01
 1.70000E+01    2.13908E-01
 1.75000E+01    2.05385E-01
 1.80000E+01    1.97309E-01
 1.85000E+01    1.89636E-01
 1.90000E+01    1.82342E-01
 1.95000E+01    1.75409E-01
 2.00000E+01    1.68835E-01
