# n + Os188 : (n,t)     
# jendl4.0   N.Iwamoto                         EVAL-Jan10
# uncertainties: n
# # energies =    53
#   E(MeV)       xs(mb) 
 6.11738E+00    0.00000E+00
 6.17670E+00    6.19270E-28
 6.21727E+00    1.12070E-27
 6.26444E+00    1.73650E-27
 6.26718E+00    1.77260E-27
 6.29224E+00    2.10420E-27
 6.30437E+00    2.26500E-27
 6.32921E+00    2.59430E-27
 6.38762E+00    3.36910E-27
 6.39247E+00    3.43350E-27
 6.43307E+00    3.97200E-27
 6.43554E+00    4.00480E-27
 6.43693E+00    4.02320E-27
 6.44149E+00    4.08370E-27
 6.44915E+00    4.18530E-27
 6.46121E+00    4.34530E-27
 6.47046E+00    4.46800E-27
 6.49780E+00    4.83070E-27
 6.53741E+00    5.49610E-26
 6.54019E+00    5.97180E-26
 6.54548E+00    6.96020E-26
 6.58283E+00    1.53920E-25
 6.58968E+00    1.70130E-25
 6.59042E+00    1.71890E-25
 6.59090E+00    1.73050E-25
 6.61734E+00    2.37730E-25
 6.62079E+00    2.46230E-25
 7.50000E+00    2.41920E-24
 8.00000E+00    2.91670E-20
 8.50000E+00    3.34510E-16
 9.00000E+00    2.56640E-13
 9.50000E+00    3.68660E-11
 1.00000E+01    1.73000E-09
 1.05000E+01    3.69570E-08
 1.10000E+01    4.44390E-07
 1.15000E+01    3.47237E-06
 1.20000E+01    1.95116E-05
 1.25000E+01    8.48923E-05
 1.30000E+01    3.01743E-04
 1.35000E+01    8.97373E-04
 1.40000E+01    2.37049E-03
 1.45000E+01    5.55989E-03
 1.50000E+01    1.17226E-02
 1.55000E+01    2.24283E-02
 1.60000E+01    3.92976E-02
 1.65000E+01    6.36927E-02
 1.70000E+01    9.65069E-02
 1.75000E+01    1.38105E-01
 1.80000E+01    1.88373E-01
 1.85000E+01    2.45553E-01
 1.90000E+01    3.11317E-01
 1.95000E+01    3.83349E-01
 2.00000E+01    4.60182E-01
