# n + Os188 : (n,n'28)  
# jendl4.0   N.Iwamoto                         EVAL-Jan10
# uncertainties: n
# # energies =    54
#   E(MeV)       xs(mb) 
 1.77487E+00    0.00000E+00
 1.78050E+00    8.30226E+00
 1.80000E+00    1.46182E+01
 1.81731E+00    1.73378E+01
 1.83473E+00    1.92312E+01
 1.85281E+00    1.99720E+01
 1.86496E+00    2.00942E+01
 1.88798E+00    2.03430E+01
 1.90000E+00    2.02574E+01
 1.90316E+00    2.03204E+01
 1.94729E+00    2.08464E+01
 1.95144E+00    2.07157E+01
 1.95906E+00    2.05041E+01
 1.96759E+00    2.02858E+01
 1.97552E+00    2.00814E+01
 2.00000E+00    2.02145E+01
 2.25000E+00    2.18307E+01
 2.50000E+00    1.85464E+01
 2.75000E+00    1.46817E+01
 3.00000E+00    1.03291E+01
 3.50000E+00    4.80204E+00
 4.00000E+00    2.15622E+00
 4.50000E+00    1.02279E+00
 5.00000E+00    5.58989E-01
 5.50000E+00    3.68775E-01
 6.00000E+00    2.86266E-01
 6.50000E+00    2.45591E-01
 7.00000E+00    2.21768E-01
 7.50000E+00    2.04905E-01
 8.00000E+00    1.91461E-01
 8.50000E+00    1.80098E-01
 9.00000E+00    1.70267E-01
 9.50000E+00    1.61599E-01
 1.00000E+01    1.53786E-01
 1.05000E+01    1.46535E-01
 1.10000E+01    1.39640E-01
 1.15000E+01    1.32994E-01
 1.20000E+01    1.26557E-01
 1.25000E+01    1.20398E-01
 1.30000E+01    1.14523E-01
 1.35000E+01    1.08992E-01
 1.40000E+01    1.03825E-01
 1.45000E+01    9.90231E-02
 1.50000E+01    9.45693E-02
 1.55000E+01    9.04354E-02
 1.60000E+01    8.65884E-02
 1.65000E+01    8.29924E-02
 1.70000E+01    7.96141E-02
 1.75000E+01    7.64243E-02
 1.80000E+01    7.34008E-02
 1.85000E+01    7.05279E-02
 1.90000E+01    6.77976E-02
 1.95000E+01    6.52039E-02
 2.00000E+01    6.27463E-02
