# n + Os188 : (n,n'26)  
# jendl4.0   N.Iwamoto                         EVAL-Jan10
# uncertainties: n
# # energies =    56
#   E(MeV)       xs(mb) 
 1.73870E+00    0.00000E+00
 1.75587E+00    2.83958E+01
 1.77487E+00    3.75412E+01
 1.78050E+00    3.95545E+01
 1.80000E+00    4.52698E+01
 1.81731E+00    4.92816E+01
 1.83473E+00    5.18455E+01
 1.85281E+00    5.46769E+01
 1.86496E+00    5.64759E+01
 1.88798E+00    5.98079E+01
 1.90000E+00    6.14176E+01
 1.90316E+00    6.17849E+01
 1.94729E+00    6.66643E+01
 1.95144E+00    6.70941E+01
 1.95906E+00    6.78728E+01
 1.96759E+00    6.87244E+01
 1.97552E+00    6.94991E+01
 2.00000E+00    7.06188E+01
 2.25000E+00    7.56827E+01
 2.50000E+00    6.18699E+01
 2.75000E+00    4.87793E+01
 3.00000E+00    3.36388E+01
 3.50000E+00    1.56844E+01
 4.00000E+00    6.97974E+00
 4.50000E+00    3.13810E+00
 5.00000E+00    1.52299E+00
 5.50000E+00    8.54172E-01
 6.00000E+00    5.72969E-01
 6.50000E+00    4.47585E-01
 7.00000E+00    3.85278E-01
 7.50000E+00    3.48274E-01
 8.00000E+00    3.22282E-01
 8.50000E+00    3.01862E-01
 9.00000E+00    2.84851E-01
 9.50000E+00    2.70123E-01
 1.00000E+01    2.56954E-01
 1.05000E+01    2.44767E-01
 1.10000E+01    2.33187E-01
 1.15000E+01    2.22028E-01
 1.20000E+01    2.11229E-01
 1.25000E+01    2.00904E-01
 1.30000E+01    1.91066E-01
 1.35000E+01    1.81809E-01
 1.40000E+01    1.73164E-01
 1.45000E+01    1.65136E-01
 1.50000E+01    1.57694E-01
 1.55000E+01    1.50789E-01
 1.60000E+01    1.44364E-01
 1.65000E+01    1.38359E-01
 1.70000E+01    1.32717E-01
 1.75000E+01    1.27390E-01
 1.80000E+01    1.22340E-01
 1.85000E+01    1.17542E-01
 1.90000E+01    1.12982E-01
 1.95000E+01    1.08651E-01
 2.00000E+01    1.04549E-01
