# n + Os188 : (n,n'19)  
# jendl4.0   N.Iwamoto                         EVAL-Jan10
# uncertainties: n
# # energies =    65
#   E(MeV)       xs(mb) 
 1.57511E+00    0.00000E+00
 1.58546E+00    2.93166E+00
 1.60000E+00    4.66748E+00
 1.62918E+00    7.75648E+00
 1.67762E+00    1.30402E+01
 1.69433E+00    1.49008E+01
 1.69454E+00    1.49082E+01
 1.70000E+00    1.54701E+01
 1.71342E+00    1.69687E+01
 1.73870E+00    1.98803E+01
 1.75587E+00    2.16966E+01
 1.77487E+00    2.36538E+01
 1.78050E+00    2.42590E+01
 1.80000E+00    2.63821E+01
 1.81731E+00    2.82913E+01
 1.83473E+00    2.99719E+01
 1.85281E+00    3.16436E+01
 1.86496E+00    3.27724E+01
 1.88798E+00    3.49259E+01
 1.90000E+00    3.60483E+01
 1.90316E+00    3.63428E+01
 1.94729E+00    4.04657E+01
 1.95144E+00    4.08574E+01
 1.95906E+00    4.15760E+01
 1.96759E+00    4.23776E+01
 1.97552E+00    4.30582E+01
 2.00000E+00    4.44323E+01
 2.25000E+00    5.25961E+01
 2.50000E+00    4.41954E+01
 2.75000E+00    3.60005E+01
 3.00000E+00    2.59979E+01
 3.50000E+00    1.32736E+01
 4.00000E+00    6.46749E+00
 4.50000E+00    3.16941E+00
 5.00000E+00    1.66395E+00
 5.50000E+00    9.92849E-01
 6.00000E+00    6.91945E-01
 6.50000E+00    5.49673E-01
 7.00000E+00    4.75291E-01
 7.50000E+00    4.29509E-01
 8.00000E+00    3.96954E-01
 8.50000E+00    3.71449E-01
 9.00000E+00    3.50332E-01
 9.50000E+00    3.32094E-01
 1.00000E+01    3.15734E-01
 1.05000E+01    3.00505E-01
 1.10000E+01    2.85973E-01
 1.15000E+01    2.71959E-01
 1.20000E+01    2.58447E-01
 1.25000E+01    2.45555E-01
 1.30000E+01    2.33320E-01
 1.35000E+01    2.21858E-01
 1.40000E+01    2.11193E-01
 1.45000E+01    2.01316E-01
 1.50000E+01    1.92176E-01
 1.55000E+01    1.83708E-01
 1.60000E+01    1.75835E-01
 1.65000E+01    1.68477E-01
 1.70000E+01    1.61565E-01
 1.75000E+01    1.55035E-01
 1.80000E+01    1.48843E-01
 1.85000E+01    1.42960E-01
 1.90000E+01    1.37370E-01
 1.95000E+01    1.32065E-01
 2.00000E+01    1.27043E-01
