# n + Os188 : (n,n'17)  
# jendl4.0   N.Iwamoto                         EVAL-Jan10
# uncertainties: n
# # energies =    67
#   E(MeV)       xs(mb) 
 1.52283E+00    0.00000E+00
 1.52424E+00    2.63802E-05
 1.57511E+00    3.44422E-04
 1.58546E+00    4.63829E-04
 1.60000E+00    6.75128E-04
 1.62918E+00    1.28662E-03
 1.67762E+00    3.00647E-03
 1.69433E+00    3.77567E-03
 1.69454E+00    3.78647E-03
 1.70000E+00    3.96941E-03
 1.71342E+00    4.66111E-03
 1.73870E+00    6.27369E-03
 1.75587E+00    7.59637E-03
 1.77487E+00    9.28953E-03
 1.78050E+00    9.81735E-03
 1.80000E+00    1.16221E-02
 1.81731E+00    1.36023E-02
 1.83473E+00    1.58751E-02
 1.85281E+00    1.85517E-02
 1.86496E+00    2.05371E-02
 1.88798E+00    2.47332E-02
 1.90000E+00    2.71644E-02
 1.90316E+00    2.78370E-02
 1.94729E+00    3.80999E-02
 1.95144E+00    3.91704E-02
 1.95906E+00    4.11996E-02
 1.96759E+00    4.35662E-02
 1.97552E+00    4.58618E-02
 2.00000E+00    5.35567E-02
 2.25000E+00    1.73633E-01
 2.50000E+00    3.18408E-01
 2.75000E+00    4.93231E-01
 3.00000E+00    9.62203E-01
 3.50000E+00    1.06860E+00
 4.00000E+00    1.00106E+00
 4.50000E+00    8.62460E-01
 5.00000E+00    7.33667E-01
 5.50000E+00    6.34217E-01
 6.00000E+00    5.59115E-01
 6.50000E+00    4.99674E-01
 7.00000E+00    4.52875E-01
 7.50000E+00    4.15256E-01
 8.00000E+00    3.84359E-01
 8.50000E+00    3.59123E-01
 9.00000E+00    3.38546E-01
 9.50000E+00    3.21763E-01
 1.00000E+01    3.07366E-01
 1.05000E+01    2.94182E-01
 1.10000E+01    2.81254E-01
 1.15000E+01    2.68078E-01
 1.20000E+01    2.54529E-01
 1.25000E+01    2.40734E-01
 1.30000E+01    2.26920E-01
 1.35000E+01    2.13424E-01
 1.40000E+01    2.00560E-01
 1.45000E+01    1.88607E-01
 1.50000E+01    1.77757E-01
 1.55000E+01    1.68098E-01
 1.60000E+01    1.59614E-01
 1.65000E+01    1.52204E-01
 1.70000E+01    1.45730E-01
 1.75000E+01    1.40029E-01
 1.80000E+01    1.34939E-01
 1.85000E+01    1.30309E-01
 1.90000E+01    1.26000E-01
 1.95000E+01    1.21882E-01
 2.00000E+01    1.17850E-01
