# n + Os188 : (n,n'10)  
# jendl4.0   N.Iwamoto                         EVAL-Jan10
# uncertainties: n
# # energies =    76
#   E(MeV)       xs(mb) 
 1.31182E+00    0.00000E+00
 1.40000E+00    1.28309E+02
 1.42137E+00    1.39162E+02
 1.43249E+00    1.43625E+02
 1.45125E+00    1.51572E+02
 1.46535E+00    1.55148E+02
 1.47036E+00    1.53602E+02
 1.48597E+00    1.53869E+02
 1.50000E+00    1.55812E+02
 1.52283E+00    1.60062E+02
 1.52424E+00    1.60328E+02
 1.57511E+00    1.69450E+02
 1.58546E+00    1.70698E+02
 1.60000E+00    1.68636E+02
 1.62918E+00    1.70519E+02
 1.67762E+00    1.70164E+02
 1.69433E+00    1.71317E+02
 1.69454E+00    1.71123E+02
 1.70000E+00    1.70777E+02
 1.71342E+00    1.70948E+02
 1.73870E+00    1.69524E+02
 1.75587E+00    1.66623E+02
 1.77487E+00    1.63922E+02
 1.78050E+00    1.63094E+02
 1.80000E+00    1.61571E+02
 1.81731E+00    1.60628E+02
 1.83473E+00    1.57833E+02
 1.85281E+00    1.56033E+02
 1.86496E+00    1.54858E+02
 1.88798E+00    1.53114E+02
 1.90000E+00    1.52177E+02
 1.90316E+00    1.52007E+02
 1.94729E+00    1.49311E+02
 1.95144E+00    1.48703E+02
 1.95906E+00    1.47605E+02
 1.96759E+00    1.46389E+02
 1.97552E+00    1.45267E+02
 2.00000E+00    1.40979E+02
 2.25000E+00    1.14022E+02
 2.50000E+00    8.23236E+01
 2.75000E+00    5.99952E+01
 3.00000E+00    4.05076E+01
 3.50000E+00    1.83885E+01
 4.00000E+00    8.21783E+00
 4.50000E+00    3.87041E+00
 5.00000E+00    2.06817E+00
 5.50000E+00    1.31456E+00
 6.00000E+00    9.83750E-01
 6.50000E+00    8.21682E-01
 7.00000E+00    7.29044E-01
 7.50000E+00    6.66115E-01
 8.00000E+00    6.18315E-01
 8.50000E+00    5.79638E-01
 9.00000E+00    5.47111E-01
 9.50000E+00    5.18648E-01
 1.00000E+01    4.92747E-01
 1.05000E+01    4.68337E-01
 1.10000E+01    4.44898E-01
 1.15000E+01    4.22242E-01
 1.20000E+01    4.00574E-01
 1.25000E+01    3.80005E-01
 1.30000E+01    3.60608E-01
 1.35000E+01    3.42541E-01
 1.40000E+01    3.25807E-01
 1.45000E+01    3.10364E-01
 1.50000E+01    2.96111E-01
 1.55000E+01    2.82926E-01
 1.60000E+01    2.70677E-01
 1.65000E+01    2.59231E-01
 1.70000E+01    2.48472E-01
 1.75000E+01    2.38304E-01
 1.80000E+01    2.28659E-01
 1.85000E+01    2.19491E-01
 1.90000E+01    2.10789E-01
 1.95000E+01    2.02542E-01
 2.00000E+01    1.94752E-01
