# n + Os188 : (n,n'24)  
# jendl4.0   N.Iwamoto                         EVAL-Jan10
# uncertainties: n
# # energies =    59
#   E(MeV)       xs(mb) 
 1.69455E+00    0.00000E+00
 1.70000E+00    9.12246E-03
 1.71342E+00    2.04815E-02
 1.73870E+00    4.60533E-02
 1.75587E+00    6.81009E-02
 1.77487E+00    9.69459E-02
 1.78050E+00    1.06534E-01
 1.80000E+00    1.43234E-01
 1.81731E+00    1.80209E-01
 1.83473E+00    2.22595E-01
 1.85281E+00    2.72402E-01
 1.86496E+00    3.06864E-01
 1.88798E+00    3.78438E-01
 1.90000E+00    4.19171E-01
 1.90316E+00    4.30277E-01
 1.94729E+00    6.03539E-01
 1.95144E+00    6.20139E-01
 1.95906E+00    6.51317E-01
 1.96759E+00    6.87224E-01
 1.97552E+00    7.21627E-01
 2.00000E+00    8.34215E-01
 2.25000E+00    2.04842E+00
 2.50000E+00    2.55055E+00
 2.75000E+00    2.82677E+00
 3.00000E+00    2.73222E+00
 3.50000E+00    2.07192E+00
 4.00000E+00    1.37543E+00
 4.50000E+00    8.54989E-01
 5.00000E+00    5.30801E-01
 5.50000E+00    3.47850E-01
 6.00000E+00    2.50260E-01
 6.50000E+00    1.98530E-01
 7.00000E+00    1.69994E-01
 7.50000E+00    1.52440E-01
 8.00000E+00    1.40233E-01
 8.50000E+00    1.30883E-01
 9.00000E+00    1.23265E-01
 9.50000E+00    1.16763E-01
 1.00000E+01    1.10996E-01
 1.05000E+01    1.05678E-01
 1.10000E+01    1.00633E-01
 1.15000E+01    9.57782E-02
 1.20000E+01    9.10875E-02
 1.25000E+01    8.66083E-02
 1.30000E+01    8.23457E-02
 1.35000E+01    7.83417E-02
 1.40000E+01    7.46070E-02
 1.45000E+01    7.11412E-02
 1.50000E+01    6.79300E-02
 1.55000E+01    6.49513E-02
 1.60000E+01    6.21805E-02
 1.65000E+01    5.95907E-02
 1.70000E+01    5.71576E-02
 1.75000E+01    5.48598E-02
 1.80000E+01    5.26815E-02
 1.85000E+01    5.06116E-02
 1.90000E+01    4.86446E-02
 1.95000E+01    4.67767E-02
 2.00000E+01    4.50075E-02
