# n + Os188 : (n,xp)    
# jendl4.0   N.Iwamoto                         EVAL-Jan10
# 
# # energies =   114
#   E(MeV)        xs(mb) 
 1.05000E-01    0.00000E+00
 1.10000E-01    0.00000E+00
 1.20000E-01    0.00000E+00
 1.30000E-01    0.00000E+00
 1.40000E-01    0.00000E+00
 1.50000E-01    0.00000E+00
 1.55853E-01    0.00000E+00
 1.60000E-01    0.00000E+00
 1.70000E-01    0.00000E+00
 1.80000E-01    0.00000E+00
 1.90000E-01    0.00000E+00
 2.00000E-01    0.00000E+00
 2.25000E-01    0.00000E+00
 2.50000E-01    0.00000E+00
 2.75000E-01    0.00000E+00
 3.00000E-01    0.00000E+00
 4.00000E-01    0.00000E+00
 4.80505E-01    0.00000E+00
 5.00000E-01    0.00000E+00
 6.00000E-01    0.00000E+00
 6.36412E-01    0.00000E+00
 7.00000E-01    0.00000E+00
 7.94219E-01    0.00000E+00
 8.00000E-01    0.00000E+00
 9.00000E-01    0.00000E+00
 9.45356E-01    0.00000E+00
 9.70832E-01    0.00000E+00
 1.00000E+00    0.00000E+00
 1.09219E+00    0.00000E+00
 1.10000E+00    0.00000E+00
 1.18720E+00    0.00000E+00
 1.20000E+00    0.00000E+00
 1.28595E+00    0.00000E+00
 1.30000E+00    0.00000E+00
 1.31182E+00    0.00000E+00
 1.40000E+00    5.38809E-19
 1.42137E+00    7.86650E-19
 1.43249E+00    9.23557E-19
 1.45125E+00    1.15720E-18
 1.46535E+00    1.34150E-18
 1.47036E+00    1.40782E-18
 1.48597E+00    1.61445E-18
 1.50000E+00    1.80016E-18
 1.52283E+00    4.46431E-18
 1.52424E+00    4.70941E-18
 1.57511E+00    1.49678E-17
 1.58546E+00    1.73555E-17
 1.60000E+00    2.07467E-17
 1.62918E+00    2.77029E-17
 1.67761E+00    3.96015E-17
 1.67762E+00    3.96040E-17
 1.69433E+00    4.37572E-17
 1.69454E+00    4.38095E-17
 1.69455E+00    4.38120E-17
 1.70000E+00    4.51691E-17
 1.71342E+00    4.85158E-17
 1.73870E+00    5.48269E-17
 1.75587E+00    5.93743E-17
 1.77487E+00    6.51731E-17
 1.78050E+00    6.69231E-17
 1.80000E+00    7.33640E-17
 1.81731E+00    7.95125E-17
 1.83473E+00    8.59818E-17
 1.85281E+00    9.27722E-17
 1.86495E+00    9.73316E-17
 1.86496E+00    9.73354E-17
 1.88798E+00    1.05981E-16
 1.90000E+00    1.10496E-16
 1.90316E+00    1.11682E-16
 1.94729E+00    1.28256E-16
 1.95144E+00    1.29815E-16
 1.95906E+00    1.32677E-16
 1.96759E+00    1.35881E-16
 1.97552E+00    1.38859E-16
 1.97553E+00    1.38863E-16
 2.00000E+00    1.48053E-16
 2.25000E+00    2.41946E-16
 2.50000E+00    3.35840E-16
 2.75000E+00    7.36750E-15
 3.00000E+00    6.99320E-13
 3.50000E+00    4.47480E-10
 4.00000E+00    3.22010E-08
 4.50000E+00    6.36270E-07
 5.00000E+00    5.47653E-06
 5.50000E+00    2.70035E-05
 6.00000E+00    9.20122E-05
 6.50000E+00    2.52860E-04
 7.00000E+00    6.48571E-04
 7.50000E+00    1.68673E-03
 8.00000E+00    4.43466E-03
 8.50000E+00    1.13004E-02
 9.00000E+00    2.69995E-02
 9.50000E+00    5.95941E-02
 1.00000E+01    1.21161E-01
 1.05000E+01    2.27549E-01
 1.10000E+01    3.97115E-01
 1.15000E+01    6.48901E-01
 1.20000E+01    1.00103E+00
 1.25000E+01    1.46980E+00
 1.30000E+01    2.06949E+00
 1.35000E+01    2.81245E+00
 1.40000E+01    3.70898E+00
 1.45000E+01    4.76746E+00
 1.50000E+01    5.99380E+00
 1.55000E+01    7.39123E+00
 1.60000E+01    8.96031E+00
 1.65000E+01    1.06986E+01
 1.70000E+01    1.26020E+01
 1.75000E+01    1.46635E+01
 1.80000E+01    1.68761E+01
 1.85000E+01    1.92321E+01
 1.90000E+01    2.17244E+01
 1.95000E+01    2.43458E+01
 2.00000E+01    2.70907E+01
