# n + Yb176 : (n,n'23)  
# tendl.2019 A.J. Koning and D. Rochman        EVAL-NOV19
# uncertainties: n
# # energies =    70
#   E(MeV)       xs(mb) 
 1.56727E+00    0.00000E+00
 1.58435E+00    1.44051E+00
 1.59768E+00    2.56476E+00
 1.60000E+00    2.76043E+00
 1.61920E+00    3.73738E+00
 1.63937E+00    4.76369E+00
 1.68103E+00    6.88347E+00
 1.70170E+00    7.93522E+00
 1.74796E+00    1.02891E+01
 1.80000E+00    1.29370E+01
 2.00000E+00    1.57175E+01
 2.20000E+00    1.42844E+01
 2.40000E+00    1.17351E+01
 2.60000E+00    9.17367E+00
 2.80000E+00    6.94311E+00
 3.00000E+00    5.14517E+00
 3.20000E+00    3.92379E+00
 3.40000E+00    2.85723E+00
 3.60000E+00    2.07899E+00
 3.80000E+00    1.51442E+00
 4.00000E+00    1.10382E+00
 4.20000E+00    8.04771E-01
 4.40000E+00    5.87455E-01
 4.60000E+00    4.40204E-01
 4.80000E+00    3.20259E-01
 5.00000E+00    2.33460E-01
 5.20000E+00    1.70420E-01
 5.40000E+00    1.24653E-01
 5.60000E+00    9.13591E-02
 5.80000E+00    6.66174E-02
 6.00000E+00    4.88016E-02
 6.20000E+00    3.59002E-02
 6.40000E+00    2.64861E-02
 6.60000E+00    1.96047E-02
 6.80000E+00    1.45844E-02
 7.00000E+00    1.08678E-02
 7.20000E+00    8.13356E-03
 7.40000E+00    6.09642E-03
 7.60000E+00    4.57438E-03
 7.80000E+00    3.44418E-03
 8.00000E+00    2.59392E-03
 8.50000E+00    1.29116E-03
 9.00000E+00    6.51789E-04
 9.50000E+00    3.33753E-04
 1.00000E+01    1.73256E-04
 1.05000E+01    9.11028E-05
 1.10000E+01    4.84875E-05
 1.15000E+01    2.61101E-05
 1.20000E+01    1.42159E-05
 1.25000E+01    7.81939E-06
 1.30000E+01    4.34588E-06
 1.35000E+01    2.43744E-06
 1.40000E+01    1.38128E-06
 1.45000E+01    7.89230E-07
 1.50000E+01    4.55110E-07
 1.60000E+01    1.55290E-07
 1.70000E+01    5.46470E-08
 1.80000E+01    1.96760E-08
 1.90000E+01    7.30730E-09
 2.00000E+01    2.78790E-09
 2.10000E+01    1.08700E-09
 2.20000E+01    4.31110E-10
 2.30000E+01    1.75060E-10
 2.40000E+01    7.24070E-11
 2.50000E+01    3.05190E-11
 2.60000E+01    1.30970E-11
 2.70000E+01    5.69440E-12
 2.80000E+01    2.50780E-12
 2.90000E+01    1.12480E-12
 3.00000E+01    5.11460E-13
