# n + Yb176 : (n,n'05)  
# tendl.2019 A.J. Koning and D. Rochman        EVAL-NOV19
# uncertainties: n
# # energies =    90
#   E(MeV)       xs(mb) 
 1.05582E+00    0.00000E+00
 1.09447E+00    7.19186E-03
 1.13859E+00    1.54015E-02
 1.14548E+00    1.66836E-02
 1.20000E+00    2.68285E-02
 1.20015E+00    2.69568E-02
 1.20646E+00    3.23541E-02
 1.26812E+00    8.50955E-02
 1.29063E+00    1.04350E-01
 1.34404E+00    1.50034E-01
 1.34877E+00    1.54080E-01
 1.40000E+00    1.97900E-01
 1.41769E+00    2.13570E-01
 1.43920E+00    2.32624E-01
 1.44182E+00    2.34945E-01
 1.44373E+00    2.36637E-01
 1.50007E+00    2.86544E-01
 1.50732E+00    2.92966E-01
 1.52764E+00    3.10966E-01
 1.54994E+00    3.30720E-01
 1.56727E+00    3.46071E-01
 1.58435E+00    3.61201E-01
 1.59768E+00    3.73009E-01
 1.60000E+00    3.75064E-01
 1.61920E+00    3.96025E-01
 1.63937E+00    4.18045E-01
 1.68103E+00    4.63526E-01
 1.70170E+00    4.86092E-01
 1.74796E+00    5.36595E-01
 1.80000E+00    5.93408E-01
 2.00000E+00    7.18498E-01
 2.20000E+00    7.46142E-01
 2.40000E+00    7.22137E-01
 2.60000E+00    6.65779E-01
 2.80000E+00    5.91607E-01
 3.00000E+00    5.11103E-01
 3.20000E+00    4.38171E-01
 3.40000E+00    3.64921E-01
 3.60000E+00    2.99552E-01
 3.80000E+00    2.43062E-01
 4.00000E+00    1.99123E-01
 4.20000E+00    1.61742E-01
 4.40000E+00    1.27516E-01
 4.60000E+00    1.00328E-01
 4.80000E+00    7.85664E-02
 5.00000E+00    6.12514E-02
 5.20000E+00    4.75381E-02
 5.40000E+00    3.67555E-02
 5.60000E+00    2.83324E-02
 5.80000E+00    2.16136E-02
 6.00000E+00    1.64980E-02
 6.20000E+00    1.25999E-02
 6.40000E+00    9.62149E-03
 6.60000E+00    7.35344E-03
 6.80000E+00    5.63741E-03
 7.00000E+00    4.32240E-03
 7.20000E+00    3.32499E-03
 7.40000E+00    2.55962E-03
 7.60000E+00    1.97126E-03
 7.80000E+00    1.52294E-03
 8.00000E+00    1.17646E-03
 8.50000E+00    6.23104E-04
 9.00000E+00    3.33853E-04
 9.50000E+00    1.80840E-04
 1.00000E+01    9.89266E-05
 1.05000E+01    5.45967E-05
 1.10000E+01    3.03766E-05
 1.15000E+01    1.70338E-05
 1.20000E+01    9.62291E-06
 1.25000E+01    5.47436E-06
 1.30000E+01    3.13816E-06
 1.35000E+01    1.81124E-06
 1.40000E+01    1.05423E-06
 1.45000E+01    6.17650E-07
 1.50000E+01    3.64660E-07
 1.60000E+01    1.29880E-07
 1.70000E+01    4.74780E-08
 1.80000E+01    1.76880E-08
 1.90000E+01    6.77370E-09
 2.00000E+01    2.65630E-09
 2.10000E+01    1.06120E-09
 2.20000E+01    4.30000E-10
 2.30000E+01    1.77940E-10
 2.40000E+01    7.48360E-11
 2.50000E+01    3.20140E-11
 2.60000E+01    1.39230E-11
 2.70000E+01    6.12710E-12
 2.80000E+01    2.72850E-12
 2.90000E+01    1.23650E-12
 3.00000E+01    5.67600E-13
