# n + Yb172 : (n,non)   
# endfb8.0   S.Kunieda, A.Ichihara, K.Shibata+ EVAL-FEB10
# uncertainties: n
# # energies =   128
#   E(MeV)       xs(mb) 
 3.50000E-03    0.00000E+00
 3.50000E-03    1.00358E+03
 4.00000E-03    9.24000E+02
 5.00000E-03    8.13900E+02
 6.00000E-03    7.38500E+02
 7.00000E-03    6.82900E+02
 8.00000E-03    6.39400E+02
 9.00000E-03    6.06400E+02
 1.00000E-02    5.79600E+02
 1.25000E-02    5.24667E+02
 1.50000E-02    4.83671E+02
 2.00000E-02    4.25400E+02
 2.50000E-02    3.85623E+02
 3.00000E-02    3.55900E+02
 4.00000E-02    3.17700E+02
 5.00000E-02    2.94600E+02
 6.00000E-02    2.79600E+02
 7.00000E-02    2.69200E+02
 7.92050E-02    2.30101E+02
 8.00000E-02    2.77910E+02
 9.00000E-02    3.32500E+02
 1.00000E-01    3.95300E+02
 1.20000E-01    5.15400E+02
 1.40000E-01    6.25800E+02
 1.60000E-01    7.28200E+02
 1.80000E-01    8.24200E+02
 2.00000E-01    9.14100E+02
 2.50000E-01    1.11537E+03
 2.61795E-01    1.15492E+03
 3.00000E-01    1.28812E+03
 3.50000E-01    1.43772E+03
 4.00000E-01    1.56588E+03
 4.50000E-01    1.67854E+03
 5.00000E-01    1.77647E+03
 5.43145E-01    1.84988E+03
 5.50000E-01    1.86154E+03
 6.00000E-01    1.93594E+03
 6.50000E-01    2.00130E+03
 7.00000E-01    2.05967E+03
 7.50000E-01    2.11204E+03
 8.00000E-01    2.16052E+03
 8.50000E-01    2.20492E+03
 9.00000E-01    2.24516E+03
 9.17471E-01    2.25885E+03
 9.50000E-01    2.28433E+03
 1.00000E+00    2.32098E+03
 1.04903E+00    2.29661E+03
 1.10439E+00    2.30670E+03
 1.12443E+00    2.31036E+03
 1.16172E+00    2.39282E+03
 1.17927E+00    2.47643E+03
 1.20000E+00    2.62079E+03
 1.20550E+00    2.61953E+03
 1.22889E+00    2.63500E+03
 1.27044E+00    2.68917E+03
 1.29409E+00    2.72511E+03
 1.33850E+00    2.80185E+03
 1.36089E+00    2.85017E+03
 1.37811E+00    2.88779E+03
 1.38388E+00    2.90042E+03
 1.40000E+00    2.93770E+03
 1.41325E+00    2.93146E+03
 1.47448E+00    2.91779E+03
 1.48544E+00    2.92284E+03
 1.50488E+00    2.94534E+03
 1.51904E+00    2.97117E+03
 1.54652E+00    3.02139E+03
 1.54965E+00    3.02711E+03
 1.55824E+00    3.04293E+03
 1.55953E+00    3.04613E+03
 1.55990E+00    3.04706E+03
 1.56672E+00    3.06643E+03
 1.60000E+00    3.16098E+03
 1.60926E+00    3.15901E+03
 1.61793E+00    3.16040E+03
 1.64272E+00    3.17455E+03
 1.65018E+00    3.17965E+03
 1.66752E+00    3.19425E+03
 1.67256E+00    3.19907E+03
 1.67589E+00    3.20324E+03
 1.68035E+00    3.20882E+03
 1.71062E+00    3.24682E+03
 1.71646E+00    3.25605E+03
 1.71782E+00    3.25822E+03
 1.72052E+00    3.26341E+03
 1.73057E+00    3.28602E+03
 1.80000E+00    3.45229E+03
 2.00000E+00    3.47729E+03
 2.20000E+00    3.47608E+03
 2.40000E+00    3.46162E+03
 2.60000E+00    3.44076E+03
 2.80000E+00    3.41722E+03
 3.00000E+00    3.39299E+03
 3.25000E+00    3.36121E+03
 3.50000E+00    3.32943E+03
 3.75000E+00    3.29885E+03
 4.00000E+00    3.26999E+03
 4.25000E+00    3.24385E+03
 4.50000E+00    3.22012E+03
 4.75000E+00    3.19829E+03
 5.00000E+00    3.17796E+03
 5.13906E+00    3.16656E+03
 5.50000E+00    3.13697E+03
 6.00000E+00    3.09441E+03
 6.04080E+00    3.09092E+03
 6.37534E+00    3.06231E+03
 6.50000E+00    3.05165E+03
 7.00000E+00    3.01155E+03
 7.37668E+00    2.98534E+03
 7.50000E+00    2.97677E+03
 8.00000E+00    2.94642E+03
 8.06651E+00    2.92556E+03
 8.50000E+00    2.91986E+03
 9.00000E+00    2.89658E+03
 9.50000E+00    2.87516E+03
 1.00000E+01    2.85572E+03
 1.10000E+01    2.81906E+03
 1.20000E+01    2.78512E+03
 1.26693E+01    2.76360E+03
 1.30000E+01    2.75297E+03
 1.40000E+01    2.72512E+03
 1.47198E+01    2.70772E+03
 1.50000E+01    2.70095E+03
 1.60000E+01    2.67994E+03
 1.70000E+01    2.66147E+03
 1.80000E+01    2.64386E+03
 1.90000E+01    2.62630E+03
 2.00000E+01    2.60890E+03
