# n + Yb172 : (n,n'02)  
# endfb8.0   S.Kunieda, A.Ichihara, K.Shibata+ EVAL-FEB10
# uncertainties: n
# # energies =    54
#   E(MeV)       xs(mb) 
 2.61795E-01    0.00000E+00
 3.00000E-01    4.42000E+00
 3.50000E-01    1.64200E+01
 4.00000E-01    3.64900E+01
 4.50000E-01    6.30000E+01
 5.00000E-01    9.41400E+01
 5.50000E-01    1.28500E+02
 6.00000E-01    1.64500E+02
 6.50000E-01    2.00900E+02
 7.00000E-01    2.37000E+02
 7.50000E-01    2.72100E+02
 8.00000E-01    3.05600E+02
 8.50000E-01    3.37600E+02
 9.00000E-01    3.68300E+02
 9.50000E-01    3.97600E+02
 1.00000E+00    4.25500E+02
 1.20000E+00    4.79600E+02
 1.40000E+00    4.12600E+02
 1.60000E+00    3.48500E+02
 1.80000E+00    2.94400E+02
 2.00000E+00    2.42500E+02
 2.20000E+00    2.06400E+02
 2.40000E+00    1.79600E+02
 2.60000E+00    1.58500E+02
 2.80000E+00    1.41600E+02
 3.00000E+00    1.28000E+02
 3.25000E+00    1.15100E+02
 3.50000E+00    1.05000E+02
 3.75000E+00    9.66300E+01
 4.00000E+00    9.06600E+01
 4.25000E+00    8.59200E+01
 4.50000E+00    8.21400E+01
 4.75000E+00    7.90400E+01
 5.00000E+00    7.64500E+01
 5.50000E+00    7.20300E+01
 6.00000E+00    6.80300E+01
 6.50000E+00    6.41300E+01
 7.00000E+00    6.03700E+01
 7.50000E+00    5.68000E+01
 8.00000E+00    5.34700E+01
 8.50000E+00    5.03900E+01
 9.00000E+00    4.75600E+01
 9.50000E+00    4.49800E+01
 1.00000E+01    4.26400E+01
 1.10000E+01    3.85700E+01
 1.20000E+01    3.51500E+01
 1.30000E+01    3.22100E+01
 1.40000E+01    2.96900E+01
 1.50000E+01    2.75500E+01
 1.60000E+01    2.57700E+01
 1.70000E+01    2.42700E+01
 1.80000E+01    2.29900E+01
 1.90000E+01    2.18800E+01
 2.00000E+01    2.08900E+01
