# n + Yb172 : (n,el)    
# endfb8.0   S.Kunieda, A.Ichihara, K.Shibata+ EVAL-FEB10
# uncertainties: n
# # energies =   171
#   E(MeV)       xs(mb) 
 1.00000E-11    1.73777E+04
 1.00000E-07    1.14529E+04
 4.13990E-07    1.14436E+04
 5.31580E-07    1.14402E+04
 6.82560E-07    1.14358E+04
 8.76420E-07    1.14302E+04
 1.12540E-06    1.14230E+04
 1.44500E-06    1.14137E+04
 1.85540E-06    1.14019E+04
 2.37240E-06    1.13866E+04
 3.05900E-06    1.13668E+04
 3.92790E-06    1.13416E+04
 5.04350E-06    1.13093E+04
 6.47600E-06    1.12679E+04
 8.31530E-06    1.12147E+04
 1.06770E-05    1.11464E+04
 1.37100E-05    1.10587E+04
 1.76030E-05    1.09461E+04
 2.26030E-05    1.07993E+04
 2.92030E-05    1.06133E+04
 3.72670E-05    1.03773E+04
 4.78510E-05    1.00488E+04
 6.14420E-05    9.58552E+03
 7.88930E-05    8.83575E+03
 1.01300E-04    6.91326E+03
 1.30070E-04    7.92829E+04
 1.67020E-04    9.45786E+04
 2.14450E-04    1.14803E+04
 2.75360E-04    9.70963E+03
 3.53580E-04    8.18834E+03
 4.54000E-04    2.11575E+04
 5.82950E-04    9.32351E+03
 7.48520E-04    3.56814E+04
 9.61120E-04    1.16970E+04
 1.23410E-03    8.68235E+03
 1.58460E-03    3.86829E+04
 2.03470E-03    1.21069E+04
 2.24870E-03    3.87157E+04
 2.48520E-03    3.84160E+04
 2.61260E-03    2.57020E+04
 2.74650E-03    2.21615E+04
 3.03540E-03    1.78980E+04
 3.35460E-03    1.54351E+04
 3.70740E-03    1.99501E+04
 4.30740E-03    1.85686E+04
 5.53080E-03    1.70779E+04
 7.10170E-03    1.58445E+04
 9.11880E-03    1.47992E+04
 1.17090E-02    1.38657E+04
 1.50340E-02    1.29933E+04
 1.93050E-02    1.23813E+04
 2.18750E-02    1.20846E+04
 2.35790E-02    1.19396E+04
 2.41760E-02    1.18678E+04
 2.47880E-02    1.17615E+04
 2.60580E-02    1.16407E+04
 2.70000E-02    1.15161E+04
 2.85000E-02    1.12946E+04
 3.18280E-02    1.10675E+04
 3.43070E-02    1.07736E+04
 4.08680E-02    1.04414E+04
 4.63090E-02    1.01805E+04
 5.24750E-02    9.98042E+03
 5.65620E-02    9.74014E+03
 6.73790E-02    9.51621E+03
 7.20000E-02    9.36131E+03
 7.95000E-02    9.23039E+03
 8.25000E-02    9.13943E+03
 8.65170E-02    8.95333E+03
 9.80370E-02    8.68200E+03
 1.11090E-01    8.49479E+03
 1.16790E-01    8.38976E+03
 1.22770E-01    8.28493E+03
 1.29070E-01    8.18149E+03
 1.35690E-01    8.07912E+03
 1.42640E-01    7.97684E+03
 1.49960E-01    7.87596E+03
 1.57640E-01    7.77582E+03
 1.65730E-01    7.67655E+03
 1.74220E-01    7.57818E+03
 1.83160E-01    7.48015E+03
 1.92550E-01    7.38324E+03
 2.02420E-01    7.28723E+03
 2.12800E-01    7.19199E+03
 2.23710E-01    7.09806E+03
 2.35180E-01    7.00554E+03
 2.47240E-01    6.87266E+03
 2.73240E-01    6.73893E+03
 2.87250E-01    6.66929E+03
 2.94520E-01    6.64103E+03
 2.97200E-01    6.63013E+03
 2.98500E-01    6.61710E+03
 3.01970E-01    6.52212E+03
 3.33730E-01    6.35245E+03
 3.68830E-01    6.22940E+03
 3.87740E-01    6.14738E+03
 4.07620E-01    6.03084E+03
 4.50490E-01    5.87366E+03
 4.97870E-01    5.75970E+03
 5.23400E-01    5.68185E+03
 5.50230E-01    5.60991E+03
 5.78440E-01    5.53498E+03
 6.08100E-01    5.45966E+03
 6.39280E-01    5.39035E+03
 6.72060E-01    5.31812E+03
 7.06510E-01    5.24612E+03
 7.42740E-01    5.17976E+03
 7.80820E-01    5.11039E+03
 8.20850E-01    5.04338E+03
 8.62940E-01    4.98141E+03
 9.07180E-01    4.91100E+03
 9.61640E-01    4.84892E+03
 1.00260E+00    4.72099E+03
 1.10800E+00    4.56549E+03
 1.16480E+00    4.46276E+03
 1.22460E+00    4.35165E+03
 1.28730E+00    4.23348E+03
 1.35340E+00    4.12066E+03
 1.42270E+00    4.02084E+03
 1.49570E+00    3.92397E+03
 1.57240E+00    3.82044E+03
 1.65300E+00    3.68689E+03
 1.73770E+00    3.55641E+03
 1.82680E+00    3.49987E+03
 1.92050E+00    3.46689E+03
 2.01900E+00    3.43236E+03
 2.12250E+00    3.39920E+03
 2.23130E+00    3.37145E+03
 2.30690E+00    3.35423E+03
 2.34570E+00    3.34545E+03
 2.36530E+00    3.33952E+03
 2.38520E+00    3.32447E+03
 2.46600E+00    3.29346E+03
 2.59240E+00    3.25454E+03
 2.72530E+00    3.21307E+03
 2.86500E+00    3.16543E+03
 3.01190E+00    3.11452E+03
 3.16640E+00    3.06100E+03
 3.32870E+00    2.97519E+03
 3.67880E+00    2.85075E+03
 4.06570E+00    2.71321E+03
 4.49330E+00    2.60626E+03
 4.72370E+00    2.53507E+03
 4.96590E+00    2.46490E+03
 5.22050E+00    2.39900E+03
 5.48810E+00    2.33674E+03
 5.76950E+00    2.27998E+03
 6.06530E+00    2.23139E+03
 6.37630E+00    2.19359E+03
 6.59240E+00    2.17485E+03
 6.70320E+00    2.15366E+03
 7.04690E+00    2.12801E+03
 7.40820E+00    2.11121E+03
 7.78800E+00    2.10476E+03
 8.18730E+00    2.10979E+03
 8.60710E+00    2.12443E+03
 9.04840E+00    2.14963E+03
 9.51230E+00    2.18352E+03
 1.00000E+01    2.22800E+03
 1.05130E+01    2.27898E+03
 1.10520E+01    2.33527E+03
 1.16180E+01    2.39590E+03
 1.22140E+01    2.45778E+03
 1.28400E+01    2.51906E+03
 1.34990E+01    2.56213E+03
 1.38400E+01    2.59034E+03
 1.41910E+01    2.61467E+03
 1.45500E+01    2.63858E+03
 1.49180E+01    2.66899E+03
 1.56830E+01    2.70040E+03
 1.64870E+01    2.71866E+03
