# n + Mo 96 : (n,g)     
# jendl.ad   K.Shibata, A.Ichihara, S.Kunieda  EVAL-MAY13
# uncertainties: n
# # energies =    69
#   E(MeV)       xs(mb) 
 1.00000E-10    3.11922E+03
 5.00000E-09    8.49412E+02
 1.00000E-08    6.43460E+02
 1.50000E-08    5.40747E+02
 2.00000E-08    4.75771E+02
 2.50000E-08    4.29853E+02
 3.00000E-08    3.95206E+02
 3.50000E-08    3.63406E+02
 4.20000E-08    3.32396E+02
 5.00000E-08    3.06610E+02
 5.80000E-08    2.85024E+02
 6.70000E-08    2.63115E+02
 8.00000E-08    2.38127E+02
 1.00000E-07    2.07243E+02
 1.40000E-07    1.78963E+02
 1.80000E-07    1.59872E+02
 2.20000E-07    1.47295E+02
 2.50000E-07    1.38748E+02
 2.80000E-07    1.32629E+02
 3.00000E-07    1.28305E+02
 3.20000E-07    1.23496E+02
 3.50000E-07    1.16865E+02
 4.00000E-07    1.07035E+02
 5.00000E-07    9.59177E+01
 6.25000E-07    8.59875E+01
 7.80000E-07    7.97173E+01
 8.50000E-07    7.67716E+01
 9.10000E-07    7.47164E+01
 9.50000E-07    7.35285E+01
 9.72000E-07    7.26918E+01
 9.96000E-07    7.18586E+01
 1.02000E-06    7.10434E+01
 1.04500E-06    7.02202E+01
 1.07100E-06    6.93870E+01
 1.09700E-06    6.85887E+01
 1.12300E-06    6.78111E+01
 1.15000E-06    6.54708E+01
 1.30000E-06    6.14214E+01
 1.50000E-06    5.48453E+01
 2.10000E-06    4.81776E+01
 2.60000E-06    4.34063E+01
 3.30000E-06    3.93798E+01
 4.00000E-06    3.14350E+01
 9.87700E-06    2.43959E+01
 1.59680E-05    2.18015E+01
 2.77000E-05    2.23819E+01
 4.80520E-05    3.14671E+01
 7.55014E-05    2.38643E+04
 1.48728E-04    3.08616E+01
 3.67262E-04    1.52452E+02
 9.06898E-04    3.95428E+01
 1.42510E-03    5.54920E+01
 2.23945E-03    5.13564E+02
 3.51910E-03    2.85341E+02
 5.53000E-03    3.23494E+02
 9.11800E-03    1.75071E+02
 1.50300E-02    1.60372E+02
 2.47800E-02    1.02136E+02
 4.08500E-02    7.17818E+01
 6.73400E-02    5.47380E+01
 1.11000E-01    4.74570E+01
 1.83000E-01    4.27444E+01
 3.02000E-01    4.25098E+01
 5.00000E-01    4.41404E+01
 8.21000E-01    2.49710E+01
 1.35300E+00    2.00124E+01
 2.23100E+00    9.56524E+00
 3.67900E+00    4.53073E+00
 6.06500E+00    1.25664E+00
