# n + Eu152 : (n,n'18)  
# jeff3.3    N.Iwamoto                         EVAL-Nov09
# uncertainties: n
# # energies =    88
#   E(MeV)       xs(mb) 
 1.49748E-01    0.00000E+00
 1.50000E-01    2.95196E-02
 1.51688E-01    9.01899E-02
 1.59104E-01    3.36931E-01
 1.60000E-01    3.71913E-01
 1.61949E-01    4.51599E-01
 1.70000E-01    8.33817E-01
 1.76098E-01    1.17525E+00
 1.78866E-01    1.34195E+00
 1.80000E-01    1.41266E+00
 1.80120E-01    1.42022E+00
 1.81832E-01    1.52902E+00
 1.90000E-01    1.95590E+00
 1.93778E-01    2.19137E+00
 1.98221E-01    2.47319E+00
 2.00000E-01    2.59101E+00
 2.00991E-01    2.65810E+00
 2.02082E-01    2.72348E+00
 2.02467E-01    2.70816E+00
 2.04460E-01    2.78515E+00
 2.04532E-01    2.78863E+00
 2.13020E-01    3.24064E+00
 2.15784E-01    3.38492E+00
 2.15852E-01    3.38876E+00
 2.20917E-01    3.67580E+00
 2.22262E-01    3.75620E+00
 2.22678E-01    3.78127E+00
 2.22924E-01    3.79534E+00
 2.25000E-01    3.92035E+00
 2.25992E-01    3.98108E+00
 2.50000E-01    5.56103E+00
 2.75000E-01    7.30359E+00
 3.00000E-01    9.15296E+00
 4.00000E-01    1.37771E+01
 5.00000E-01    1.43795E+01
 6.00000E-01    1.36279E+01
 7.00000E-01    1.23231E+01
 8.00000E-01    1.09678E+01
 9.00000E-01    9.44155E+00
 1.00000E+00    8.15921E+00
 1.10000E+00    7.07432E+00
 1.20000E+00    6.09837E+00
 1.30000E+00    5.21282E+00
 1.40000E+00    4.45258E+00
 1.50000E+00    3.80472E+00
 1.60000E+00    3.25362E+00
 1.70000E+00    2.78514E+00
 1.80000E+00    2.38687E+00
 1.90000E+00    2.04804E+00
 2.00000E+00    1.75948E+00
 2.25000E+00    1.20067E+00
 2.50000E+00    8.34930E-01
 2.75000E+00    5.74958E-01
 3.00000E+00    3.94351E-01
 3.50000E+00    1.85125E-01
 4.00000E+00    8.57444E-02
 4.50000E+00    3.99087E-02
 5.00000E+00    1.91691E-02
 5.50000E+00    9.77249E-03
 6.00000E+00    5.54470E-03
 6.50000E+00    3.62292E-03
 7.00000E+00    2.70974E-03
 7.50000E+00    2.23686E-03
 8.00000E+00    1.96114E-03
 8.50000E+00    1.77702E-03
 9.00000E+00    1.63967E-03
 9.50000E+00    1.53073E-03
 1.00000E+01    1.43972E-03
 1.05000E+01    1.36134E-03
 1.10000E+01    1.29167E-03
 1.15000E+01    1.22841E-03
 1.20000E+01    1.16991E-03
 1.25000E+01    1.11501E-03
 1.30000E+01    1.06294E-03
 1.35000E+01    1.01333E-03
 1.40000E+01    9.66095E-04
 1.45000E+01    9.21294E-04
 1.50000E+01    8.78964E-04
 1.55000E+01    8.42216E-04
 1.60000E+01    8.07665E-04
 1.65000E+01    7.75192E-04
 1.70000E+01    7.44575E-04
 1.75000E+01    7.15685E-04
 1.80000E+01    6.88425E-04
 1.85000E+01    6.62712E-04
 1.90000E+01    6.38364E-04
 1.95000E+01    6.15224E-04
 2.00000E+01    5.93140E-04
