# n + Eu152 : (n,t)     
# jeff3.3    N.Iwamoto                         EVAL-Nov09
# uncertainties: n
# # energies =    74
#   E(MeV)       xs(mb) 
 2.73368E+00    0.00000E+00
 3.06976E+00    4.92700E-23
 3.47897E+00    1.78410E-20
 3.51205E+00    1.92790E-20
 3.78666E+00    6.03730E-20
 3.81205E+00    6.41730E-20
 3.90703E+00    7.83890E-20
 3.93533E+00    8.26240E-20
 3.99741E+00    9.19160E-20
 4.00000E+00    9.23330E-20
 4.02093E+00    2.25300E-18
 4.10022E+00    1.04410E-17
 4.16026E+00    1.66410E-17
 4.19229E+00    1.99480E-17
 4.24812E+00    2.57130E-17
 4.38710E+00    4.00650E-17
 4.40298E+00    4.17050E-17
 4.41748E+00    4.32020E-17
 4.41749E+00    4.32030E-17
 4.42886E+00    4.43770E-17
 4.45819E+00    4.74060E-17
 4.50000E+00    5.17240E-17
 4.50492E+00    9.43940E-16
 4.51008E+00    1.87970E-15
 4.51875E+00    3.45190E-15
 4.53214E+00    5.88010E-15
 4.53959E+00    7.23120E-15
 4.56509E+00    1.18560E-14
 4.56749E+00    1.22910E-14
 4.56806E+00    1.23940E-14
 4.57913E+00    1.44020E-14
 4.58274E+00    1.50560E-14
 4.62948E+00    2.35320E-14
 4.67377E+00    3.15640E-14
 4.69720E+00    3.58130E-14
 4.71037E+00    3.82010E-14
 4.71709E+00    3.94200E-14
 4.72612E+00    4.10570E-14
 4.75249E+00    4.58400E-14
 4.76734E+00    4.85330E-14
 4.77165E+00    4.93140E-14
 4.78241E+00    5.12650E-14
 4.79135E+00    5.28870E-14
 5.00000E+00    9.07240E-14
 5.50000E+00    1.19300E-11
 6.00000E+00    3.50020E-10
 6.50000E+00    3.95820E-09
 7.00000E+00    2.35820E-08
 7.50000E+00    9.16640E-08
 8.00000E+00    3.04980E-07
 8.50000E+00    1.48783E-06
 9.00000E+00    1.03978E-05
 9.50000E+00    6.36406E-05
 1.00000E+01    2.94492E-04
 1.05000E+01    1.11193E-03
 1.10000E+01    3.46057E-03
 1.15000E+01    9.15586E-03
 1.20000E+01    2.10395E-02
 1.25000E+01    4.26758E-02
 1.30000E+01    7.75703E-02
 1.35000E+01    1.28350E-01
 1.40000E+01    1.96272E-01
 1.45000E+01    2.81236E-01
 1.50000E+01    3.82118E-01
 1.55000E+01    4.98868E-01
 1.60000E+01    6.24841E-01
 1.65000E+01    7.60999E-01
 1.70000E+01    9.04379E-01
 1.75000E+01    1.04648E+00
 1.80000E+01    1.18704E+00
 1.85000E+01    1.31816E+00
 1.90000E+01    1.43702E+00
 1.95000E+01    1.53843E+00
 2.00000E+01    1.61866E+00
