# n + Eu152 : (n,n'11)  
# jeff3.3    N.Iwamoto                         EVAL-Nov09
# uncertainties: n
# # energies =    98
#   E(MeV)       xs(mb) 
 1.18951E-01    0.00000E+00
 1.20000E-01    3.88788E+01
 1.21640E-01    5.76464E+01
 1.25362E-01    7.96838E+01
 1.30000E-01    9.48059E+01
 1.40000E-01    1.12111E+02
 1.42768E-01    1.15203E+02
 1.47056E-01    1.18986E+02
 1.48842E-01    1.20023E+02
 1.49724E-01    1.20564E+02
 1.49748E-01    1.20569E+02
 1.50000E-01    1.20697E+02
 1.51688E-01    1.21613E+02
 1.59104E-01    1.24976E+02
 1.60000E-01    1.25214E+02
 1.61949E-01    1.25800E+02
 1.70000E-01    1.27013E+02
 1.76098E-01    1.27709E+02
 1.78866E-01    1.24907E+02
 1.80000E-01    1.24247E+02
 1.80120E-01    1.24199E+02
 1.81832E-01    1.23323E+02
 1.90000E-01    1.20901E+02
 1.93778E-01    1.20082E+02
 1.98221E-01    1.19212E+02
 2.00000E-01    1.18593E+02
 2.00991E-01    1.18343E+02
 2.02082E-01    1.18086E+02
 2.02467E-01    1.17997E+02
 2.04460E-01    1.17273E+02
 2.04532E-01    1.17220E+02
 2.13020E-01    1.14835E+02
 2.15784E-01    1.14163E+02
 2.15852E-01    1.13787E+02
 2.20917E-01    1.10189E+02
 2.22262E-01    1.09594E+02
 2.22678E-01    1.08701E+02
 2.22924E-01    1.08335E+02
 2.25000E-01    1.05052E+02
 2.25992E-01    1.04156E+02
 2.50000E-01    9.13310E+01
 2.75000E-01    8.69909E+01
 3.00000E-01    8.38363E+01
 4.00000E-01    6.64247E+01
 5.00000E-01    5.06638E+01
 6.00000E-01    3.91275E+01
 7.00000E-01    3.15127E+01
 8.00000E-01    2.56109E+01
 9.00000E-01    2.08403E+01
 1.00000E+00    1.72062E+01
 1.10000E+00    1.43953E+01
 1.20000E+00    1.19323E+01
 1.30000E+00    9.87260E+00
 1.40000E+00    8.17240E+00
 1.50000E+00    6.77279E+00
 1.60000E+00    5.62034E+00
 1.70000E+00    4.67120E+00
 1.80000E+00    3.88918E+00
 1.90000E+00    3.24445E+00
 2.00000E+00    2.71238E+00
 2.25000E+00    1.73464E+00
 2.50000E+00    1.14428E+00
 2.75000E+00    7.52070E-01
 3.00000E+00    5.02232E-01
 3.50000E+00    2.24718E-01
 4.00000E+00    1.01523E-01
 4.50000E+00    4.75320E-02
 5.00000E+00    2.41589E-02
 5.50000E+00    1.39665E-02
 6.00000E+00    9.48008E-03
 6.50000E+00    7.41035E-03
 7.00000E+00    6.33915E-03
 7.50000E+00    5.68527E-03
 8.00000E+00    5.21945E-03
 8.50000E+00    4.84678E-03
 9.00000E+00    4.52993E-03
 9.50000E+00    4.25783E-03
 1.00000E+01    4.01947E-03
 1.05000E+01    3.80846E-03
 1.10000E+01    3.61790E-03
 1.15000E+01    3.44323E-03
 1.20000E+01    3.28077E-03
 1.25000E+01    3.12752E-03
 1.30000E+01    2.98088E-03
 1.35000E+01    2.84115E-03
 1.40000E+01    2.70815E-03
 1.45000E+01    2.58206E-03
 1.50000E+01    2.46299E-03
 1.55000E+01    2.36020E-03
 1.60000E+01    2.26354E-03
 1.65000E+01    2.17269E-03
 1.70000E+01    2.08702E-03
 1.75000E+01    2.00618E-03
 1.80000E+01    1.92930E-03
 1.85000E+01    1.85673E-03
 1.90000E+01    1.78803E-03
 1.95000E+01    1.72274E-03
 2.00000E+01    1.66044E-03
