# n + Eu152 : (n,n'24)  
# jeff3.3    N.Iwamoto                         EVAL-Nov09
# uncertainties: n
# # energies =    78
#   E(MeV)       xs(mb) 
 1.80120E-01    0.00000E+00
 1.81832E-01    2.14017E+01
 1.90000E-01    4.46811E+01
 1.93778E-01    5.06866E+01
 1.98221E-01    5.64588E+01
 2.00000E-01    5.74704E+01
 2.00991E-01    5.83211E+01
 2.02082E-01    5.92726E+01
 2.02467E-01    5.96065E+01
 2.04460E-01    6.03047E+01
 2.04532E-01    6.03483E+01
 2.13020E-01    6.54530E+01
 2.15784E-01    6.70752E+01
 2.15852E-01    6.70896E+01
 2.20917E-01    6.90109E+01
 2.22262E-01    6.95792E+01
 2.22678E-01    6.96309E+01
 2.22924E-01    6.93830E+01
 2.25000E-01    6.93687E+01
 2.25992E-01    6.95477E+01
 2.50000E-01    7.46827E+01
 2.75000E-01    7.94414E+01
 3.00000E-01    8.25453E+01
 4.00000E-01    7.54294E+01
 5.00000E-01    5.92422E+01
 6.00000E-01    4.60759E+01
 7.00000E-01    3.59566E+01
 8.00000E-01    2.88329E+01
 9.00000E-01    2.27971E+01
 1.00000E+00    1.82370E+01
 1.10000E+00    1.48534E+01
 1.20000E+00    1.22164E+01
 1.30000E+00    9.98871E+00
 1.40000E+00    8.20024E+00
 1.50000E+00    6.76099E+00
 1.60000E+00    5.59672E+00
 1.70000E+00    4.65027E+00
 1.80000E+00    3.87734E+00
 1.90000E+00    3.24336E+00
 2.00000E+00    2.72125E+00
 2.25000E+00    1.75992E+00
 2.50000E+00    1.17355E+00
 2.75000E+00    7.79469E-01
 3.00000E+00    5.21687E-01
 3.50000E+00    2.35986E-01
 4.00000E+00    1.07065E-01
 4.50000E+00    4.94513E-02
 5.00000E+00    2.40101E-02
 5.50000E+00    1.27246E-02
 6.00000E+00    7.74049E-03
 6.50000E+00    5.49326E-03
 7.00000E+00    4.40727E-03
 7.50000E+00    3.81319E-03
 8.00000E+00    3.43666E-03
 8.50000E+00    3.16191E-03
 9.00000E+00    2.94152E-03
 9.50000E+00    2.75828E-03
 1.00000E+01    2.60060E-03
 1.05000E+01    2.46248E-03
 1.10000E+01    2.33843E-03
 1.15000E+01    2.22514E-03
 1.20000E+01    2.12002E-03
 1.25000E+01    2.02115E-03
 1.30000E+01    1.92724E-03
 1.35000E+01    1.83768E-03
 1.40000E+01    1.75234E-03
 1.45000E+01    1.67133E-03
 1.50000E+01    1.59474E-03
 1.55000E+01    1.52801E-03
 1.60000E+01    1.46526E-03
 1.65000E+01    1.40629E-03
 1.70000E+01    1.35068E-03
 1.75000E+01    1.29822E-03
 1.80000E+01    1.24872E-03
 1.85000E+01    1.20202E-03
 1.90000E+01    1.15781E-03
 1.95000E+01    1.11580E-03
 2.00000E+01    1.07571E-03
