# n + Eu152 : (n,n'07)  
# jeff3.3    N.Iwamoto                         EVAL-Nov09
# uncertainties: n
# # energies =   103
#   E(MeV)       xs(mb) 
 1.08833E-01    0.00000E+00
 1.09814E-01    1.19456E+01
 1.10000E-01    1.28817E+01
 1.12187E-01    2.01182E+01
 1.14727E-01    2.52793E+01
 1.18950E-01    3.13863E+01
 1.20000E-01    3.26369E+01
 1.21640E-01    3.44734E+01
 1.25362E-01    3.82195E+01
 1.30000E-01    4.01361E+01
 1.40000E-01    4.61383E+01
 1.42768E-01    4.76937E+01
 1.47056E-01    4.95544E+01
 1.48842E-01    5.03805E+01
 1.49724E-01    5.07653E+01
 1.49748E-01    5.06128E+01
 1.50000E-01    5.03522E+01
 1.51688E-01    5.03087E+01
 1.59104E-01    5.15762E+01
 1.60000E-01    5.18095E+01
 1.61949E-01    5.23311E+01
 1.70000E-01    5.45216E+01
 1.76098E-01    5.60636E+01
 1.78866E-01    5.63905E+01
 1.80000E-01    5.65983E+01
 1.80120E-01    5.66211E+01
 1.81832E-01    5.69350E+01
 1.90000E-01    5.80864E+01
 1.93778E-01    5.87361E+01
 1.98221E-01    5.94929E+01
 2.00000E-01    5.97714E+01
 2.00991E-01    5.99308E+01
 2.02082E-01    5.94003E+01
 2.02467E-01    5.92544E+01
 2.04460E-01    5.90454E+01
 2.04532E-01    5.90428E+01
 2.13020E-01    5.85354E+01
 2.15784E-01    5.85408E+01
 2.15852E-01    5.85418E+01
 2.20917E-01    5.75253E+01
 2.22262E-01    5.74579E+01
 2.22678E-01    5.73292E+01
 2.22924E-01    5.72849E+01
 2.25000E-01    5.70829E+01
 2.25992E-01    5.70220E+01
 2.50000E-01    5.64395E+01
 2.75000E-01    5.73032E+01
 3.00000E-01    5.79996E+01
 4.00000E-01    5.21932E+01
 5.00000E-01    4.23913E+01
 6.00000E-01    3.37410E+01
 7.00000E-01    2.75554E+01
 8.00000E-01    2.23663E+01
 9.00000E-01    1.82056E+01
 1.00000E+00    1.50071E+01
 1.10000E+00    1.25123E+01
 1.20000E+00    1.03380E+01
 1.30000E+00    8.55989E+00
 1.40000E+00    7.10716E+00
 1.50000E+00    5.92018E+00
 1.60000E+00    4.94703E+00
 1.70000E+00    4.14645E+00
 1.80000E+00    3.48559E+00
 1.90000E+00    2.93820E+00
 2.00000E+00    2.48327E+00
 2.25000E+00    1.63407E+00
 2.50000E+00    1.10471E+00
 2.75000E+00    7.42744E-01
 3.00000E+00    5.19988E-01
 3.50000E+00    2.47534E-01
 4.00000E+00    1.21805E-01
 4.50000E+00    6.44088E-02
 5.00000E+00    3.83023E-02
 5.50000E+00    2.61868E-02
 6.00000E+00    2.03892E-02
 6.50000E+00    1.73806E-02
 7.00000E+00    1.55696E-02
 7.50000E+00    1.42815E-02
 8.00000E+00    1.32523E-02
 8.50000E+00    1.23683E-02
 9.00000E+00    1.15875E-02
 9.50000E+00    1.09040E-02
 1.00000E+01    1.02992E-02
 1.05000E+01    9.76101E-03
 1.10000E+01    9.27365E-03
 1.15000E+01    8.82627E-03
 1.20000E+01    8.40989E-03
 1.25000E+01    8.01756E-03
 1.30000E+01    7.64451E-03
 1.35000E+01    7.28860E-03
 1.40000E+01    6.94914E-03
 1.45000E+01    6.62499E-03
 1.50000E+01    6.31896E-03
 1.55000E+01    6.05543E-03
 1.60000E+01    5.80763E-03
 1.65000E+01    5.57282E-03
 1.70000E+01    5.35126E-03
 1.75000E+01    5.14224E-03
 1.80000E+01    4.94504E-03
 1.85000E+01    4.75906E-03
 1.90000E+01    4.58296E-03
 1.95000E+01    4.41562E-03
 2.00000E+01    4.25593E-03
