# n + Eu152 : (n,n'27)  
# jeff3.3    N.Iwamoto                         EVAL-Nov09
# uncertainties: n
# # energies =    74
#   E(MeV)       xs(mb) 
 1.98221E-01    0.00000E+00
 2.00000E-01    1.80584E+01
 2.00991E-01    2.20155E+01
 2.02082E-01    2.54720E+01
 2.02467E-01    2.65408E+01
 2.04460E-01    3.06893E+01
 2.04532E-01    3.08295E+01
 2.13020E-01    4.29555E+01
 2.15784E-01    4.58305E+01
 2.15852E-01    4.58873E+01
 2.20917E-01    4.98104E+01
 2.22262E-01    5.08407E+01
 2.22678E-01    5.10965E+01
 2.22924E-01    5.10024E+01
 2.25000E-01    5.18067E+01
 2.25992E-01    5.22912E+01
 2.50000E-01    6.20455E+01
 2.75000E-01    6.90246E+01
 3.00000E-01    7.39620E+01
 4.00000E-01    7.06603E+01
 5.00000E-01    5.66278E+01
 6.00000E-01    4.46365E+01
 7.00000E-01    3.49327E+01
 8.00000E-01    2.80682E+01
 9.00000E-01    2.23845E+01
 1.00000E+00    1.79208E+01
 1.10000E+00    1.46047E+01
 1.20000E+00    1.20637E+01
 1.30000E+00    9.87813E+00
 1.40000E+00    8.11896E+00
 1.50000E+00    6.70036E+00
 1.60000E+00    5.55085E+00
 1.70000E+00    4.61510E+00
 1.80000E+00    3.85003E+00
 1.90000E+00    3.22189E+00
 2.00000E+00    2.70419E+00
 2.25000E+00    1.74968E+00
 2.50000E+00    1.16743E+00
 2.75000E+00    7.75589E-01
 3.00000E+00    5.29292E-01
 3.50000E+00    2.44712E-01
 4.00000E+00    1.15810E-01
 4.50000E+00    5.77899E-02
 5.00000E+00    3.18731E-02
 5.50000E+00    2.01347E-02
 6.00000E+00    1.47416E-02
 6.50000E+00    1.21087E-02
 7.00000E+00    1.06464E-02
 7.50000E+00    9.68204E-03
 8.00000E+00    8.95036E-03
 8.50000E+00    8.33961E-03
 9.00000E+00    7.80747E-03
 9.50000E+00    7.34463E-03
 1.00000E+01    6.93632E-03
 1.05000E+01    6.57388E-03
 1.10000E+01    6.24591E-03
 1.15000E+01    5.94517E-03
 1.20000E+01    5.66549E-03
 1.25000E+01    5.40211E-03
 1.30000E+01    5.15174E-03
 1.35000E+01    4.91281E-03
 1.40000E+01    4.68504E-03
 1.45000E+01    4.46877E-03
 1.50000E+01    4.26425E-03
 1.55000E+01    4.08573E-03
 1.60000E+01    3.91787E-03
 1.65000E+01    3.76011E-03
 1.70000E+01    3.61138E-03
 1.75000E+01    3.47103E-03
 1.80000E+01    3.33860E-03
 1.85000E+01    3.21369E-03
 1.90000E+01    3.09543E-03
 1.95000E+01    2.98306E-03
 2.00000E+01    2.87586E-03
