# n + Eu152 :  n        
# jeff3.3    N.Iwamoto                         EVAL-Nov09
# uncertainties: n
# # energies =   104
#   E(MeV)       xs(mb) 
 1.04416E-01    0.00000E+00
 1.08833E-01    6.15217E-03
 1.09814E-01    6.39426E-03
 1.10000E-01    6.44122E-03
 1.12187E-01    6.95278E-03
 1.14727E-01    7.44258E-03
 1.18950E-01    7.65138E-03
 1.20000E-01    7.74558E-03
 1.21640E-01    7.90469E-03
 1.25362E-01    7.98640E-03
 1.30000E-01    8.02592E-03
 1.40000E-01    8.51168E-03
 1.42768E-01    8.63691E-03
 1.47056E-01    8.82494E-03
 1.48842E-01    8.73422E-03
 1.49724E-01    8.74170E-03
 1.49748E-01    8.72612E-03
 1.50000E-01    8.69384E-03
 1.51688E-01    8.65010E-03
 1.59104E-01    8.64084E-03
 1.60000E-01    8.63021E-03
 1.61949E-01    8.64424E-03
 1.70000E-01    8.99508E-03
 1.76098E-01    9.23248E-03
 1.78866E-01    9.52537E-03
 1.80000E-01    9.99428E-03
 1.80120E-01    1.00351E-02
 1.81832E-01    1.03027E-02
 1.90000E-01    1.09887E-02
 1.93778E-01    1.38895E-02
 1.98221E-01    1.52493E-02
 2.00000E-01    1.54890E-02
 2.00991E-01    1.56363E-02
 2.02082E-01    2.16588E-02
 2.02467E-01    2.28694E-02
 2.04460E-01    2.65046E-02
 2.04532E-01    2.66012E-02
 2.13020E-01    3.40683E-02
 2.15784E-01    3.62008E-02
 2.15852E-01    3.62529E-02
 2.20917E-01    3.89953E-02
 2.22262E-01    3.95809E-02
 2.22678E-01    3.98621E-02
 2.22924E-01    3.98737E-02
 2.25000E-01    4.04053E-02
 2.25992E-01    4.06798E-02
 2.50000E-01    4.60046E-02
 2.75000E-01    5.27145E-02
 3.00000E-01    8.07981E-02
 4.00000E-01    4.67498E+02
 5.00000E-01    1.11420E+03
 6.00000E-01    1.56883E+03
 7.00000E-01    1.90114E+03
 8.00000E-01    2.14368E+03
 9.00000E-01    2.32512E+03
 1.00000E+00    2.45381E+03
 1.10000E+00    2.54376E+03
 1.20000E+00    2.60673E+03
 1.30000E+00    2.65161E+03
 1.40000E+00    2.68040E+03
 1.50000E+00    2.69686E+03
 1.60000E+00    2.70444E+03
 1.70000E+00    2.70588E+03
 1.80000E+00    2.70333E+03
 1.90000E+00    2.69841E+03
 2.00000E+00    2.69236E+03
 2.25000E+00    2.67779E+03
 2.50000E+00    2.66390E+03
 2.75000E+00    2.65268E+03
 3.00000E+00    2.64027E+03
 3.50000E+00    2.60320E+03
 4.00000E+00    2.54901E+03
 4.50000E+00    2.49296E+03
 5.00000E+00    2.44823E+03
 5.50000E+00    2.41441E+03
 6.00000E+00    2.38886E+03
 6.50000E+00    2.35562E+03
 7.00000E+00    2.11274E+03
 7.50000E+00    1.70242E+03
 8.00000E+00    1.31705E+03
 8.50000E+00    1.01289E+03
 9.00000E+00    7.89252E+02
 9.50000E+00    6.27534E+02
 1.00000E+01    5.09472E+02
 1.05000E+01    4.21859E+02
 1.10000E+01    3.55840E+02
 1.15000E+01    3.05209E+02
 1.20000E+01    2.66173E+02
 1.25000E+01    2.35824E+02
 1.30000E+01    2.12024E+02
 1.35000E+01    1.93190E+02
 1.40000E+01    1.78186E+02
 1.45000E+01    1.66037E+02
 1.50000E+01    1.56007E+02
 1.55000E+01    1.47872E+02
 1.60000E+01    1.40793E+02
 1.65000E+01    1.34560E+02
 1.70000E+01    1.28842E+02
 1.75000E+01    1.23678E+02
 1.80000E+01    1.18693E+02
 1.85000E+01    1.14978E+02
 1.90000E+01    1.10440E+02
 1.95000E+01    1.07088E+02
 2.00000E+01    1.02958E+02
