# n + Eu152 : (n,n'19)  
# jeff3.3    N.Iwamoto                         EVAL-Nov09
# uncertainties: n
# # energies =    86
#   E(MeV)       xs(mb) 
 1.51687E-01    0.00000E+00
 1.59104E-01    7.50456E+01
 1.60000E-01    7.81366E+01
 1.61949E-01    8.40036E+01
 1.70000E-01    1.00049E+02
 1.76098E-01    1.07746E+02
 1.78866E-01    1.07979E+02
 1.80000E-01    1.08537E+02
 1.80120E-01    1.08599E+02
 1.81832E-01    1.09390E+02
 1.90000E-01    1.12646E+02
 1.93778E-01    1.13919E+02
 1.98221E-01    1.15138E+02
 2.00000E-01    1.15430E+02
 2.00991E-01    1.15623E+02
 2.02082E-01    1.15748E+02
 2.02467E-01    1.15687E+02
 2.04460E-01    1.15685E+02
 2.04532E-01    1.15689E+02
 2.13020E-01    1.12922E+02
 2.15784E-01    1.12677E+02
 2.15852E-01    1.12668E+02
 2.20917E-01    1.11846E+02
 2.22262E-01    1.11697E+02
 2.22678E-01    1.11004E+02
 2.22924E-01    1.10764E+02
 2.25000E-01    1.09704E+02
 2.25992E-01    1.09360E+02
 2.50000E-01    1.02539E+02
 2.75000E-01    1.00495E+02
 3.00000E-01    9.94161E+01
 4.00000E-01    8.34298E+01
 5.00000E-01    6.47346E+01
 6.00000E-01    5.08539E+01
 7.00000E-01    4.08567E+01
 8.00000E-01    3.35116E+01
 9.00000E-01    2.71496E+01
 1.00000E+00    2.23087E+01
 1.10000E+00    1.85526E+01
 1.20000E+00    1.54110E+01
 1.30000E+00    1.27160E+01
 1.40000E+00    1.04967E+01
 1.50000E+00    8.67511E+00
 1.60000E+00    7.18009E+00
 1.70000E+00    5.95302E+00
 1.80000E+00    4.94553E+00
 1.90000E+00    4.11769E+00
 2.00000E+00    3.43670E+00
 2.25000E+00    2.19347E+00
 2.50000E+00    1.44331E+00
 2.75000E+00    9.48656E-01
 3.00000E+00    6.37443E-01
 3.50000E+00    2.87704E-01
 4.00000E+00    1.32179E-01
 4.50000E+00    6.38085E-02
 5.00000E+00    3.40615E-02
 5.50000E+00    2.09492E-02
 6.00000E+00    1.50612E-02
 6.50000E+00    1.22430E-02
 7.00000E+00    1.07034E-02
 7.50000E+00    9.70375E-03
 8.00000E+00    8.95149E-03
 8.50000E+00    8.33009E-03
 9.00000E+00    7.79243E-03
 9.50000E+00    7.32657E-03
 1.00000E+01    6.91660E-03
 1.05000E+01    6.55296E-03
 1.10000E+01    6.22420E-03
 1.15000E+01    5.92282E-03
 1.20000E+01    5.64263E-03
 1.25000E+01    5.37885E-03
 1.30000E+01    5.12822E-03
 1.35000E+01    4.88920E-03
 1.40000E+01    4.66152E-03
 1.45000E+01    4.44548E-03
 1.50000E+01    4.24131E-03
 1.55000E+01    4.06400E-03
 1.60000E+01    3.89728E-03
 1.65000E+01    3.74058E-03
 1.70000E+01    3.59284E-03
 1.75000E+01    3.45343E-03
 1.80000E+01    3.32188E-03
 1.85000E+01    3.19779E-03
 1.90000E+01    3.08030E-03
 1.95000E+01    2.96863E-03
 2.00000E+01    2.86206E-03
