# n + Eu152 : (n,n'31)  
# jeff3.3    N.Iwamoto                         EVAL-Nov09
# uncertainties: n
# # energies =    69
#   E(MeV)       xs(mb) 
 2.04461E-01    0.00000E+00
 2.04532E-01    3.36556E-01
 2.13020E-01    3.22194E+00
 2.15784E-01    3.70999E+00
 2.15852E-01    3.70797E+00
 2.20917E-01    4.41683E+00
 2.22262E-01    4.60241E+00
 2.22678E-01    4.65924E+00
 2.22924E-01    4.69012E+00
 2.25000E-01    4.89425E+00
 2.25992E-01    5.01123E+00
 2.50000E-01    7.76209E+00
 2.75000E-01    1.03934E+01
 3.00000E-01    1.27976E+01
 4.00000E-01    1.70690E+01
 5.00000E-01    1.65467E+01
 6.00000E-01    1.51321E+01
 7.00000E-01    1.32850E+01
 8.00000E-01    1.17630E+01
 9.00000E-01    1.01773E+01
 1.00000E+00    8.70355E+00
 1.10000E+00    7.48691E+00
 1.20000E+00    6.47567E+00
 1.30000E+00    5.49265E+00
 1.40000E+00    4.63932E+00
 1.50000E+00    3.91098E+00
 1.60000E+00    3.29324E+00
 1.70000E+00    2.77177E+00
 1.80000E+00    2.33309E+00
 1.90000E+00    1.96494E+00
 2.00000E+00    1.65643E+00
 2.25000E+00    1.07659E+00
 2.50000E+00    7.19228E-01
 2.75000E+00    4.76933E-01
 3.00000E+00    3.19548E-01
 3.50000E+00    1.43732E-01
 4.00000E+00    6.47077E-02
 4.50000E+00    2.98120E-02
 5.00000E+00    1.46816E-02
 5.50000E+00    8.09773E-03
 6.00000E+00    5.23227E-03
 6.50000E+00    3.93999E-03
 7.00000E+00    3.29786E-03
 7.50000E+00    2.92532E-03
 8.00000E+00    2.67177E-03
 8.50000E+00    2.47507E-03
 9.00000E+00    2.31067E-03
 9.50000E+00    2.17073E-03
 1.00000E+01    2.04868E-03
 1.05000E+01    1.94100E-03
 1.10000E+01    1.84387E-03
 1.15000E+01    1.75497E-03
 1.20000E+01    1.67237E-03
 1.25000E+01    1.59462E-03
 1.30000E+01    1.52073E-03
 1.35000E+01    1.45023E-03
 1.40000E+01    1.38302E-03
 1.45000E+01    1.31919E-03
 1.50000E+01    1.25869E-03
 1.55000E+01    1.20613E-03
 1.60000E+01    1.15657E-03
 1.65000E+01    1.10999E-03
 1.70000E+01    1.06608E-03
 1.75000E+01    1.02464E-03
 1.80000E+01    9.85541E-04
 1.85000E+01    9.48661E-04
 1.90000E+01    9.13746E-04
 1.95000E+01    8.80571E-04
 2.00000E+01    8.48923E-04
