# n + Eu152 : (n,n'25)  
# jeff3.3    N.Iwamoto                         EVAL-Nov09
# uncertainties: n
# # energies =    77
#   E(MeV)       xs(mb) 
 1.81832E-01    0.00000E+00
 1.90000E-01    1.03102E+01
 1.93778E-01    1.22924E+01
 1.98221E-01    1.43184E+01
 2.00000E-01    1.50489E+01
 2.00991E-01    1.54494E+01
 2.02082E-01    1.58594E+01
 2.02467E-01    1.57885E+01
 2.04460E-01    1.62360E+01
 2.04532E-01    1.62554E+01
 2.13020E-01    1.83401E+01
 2.15784E-01    1.90783E+01
 2.15852E-01    1.90962E+01
 2.20917E-01    2.03220E+01
 2.22262E-01    2.06522E+01
 2.22678E-01    2.07493E+01
 2.22924E-01    2.07989E+01
 2.25000E-01    2.12698E+01
 2.25992E-01    2.14975E+01
 2.50000E-01    2.67354E+01
 2.75000E-01    3.16793E+01
 3.00000E-01    3.59730E+01
 4.00000E-01    4.16822E+01
 5.00000E-01    3.77397E+01
 6.00000E-01    3.28462E+01
 7.00000E-01    2.79257E+01
 8.00000E-01    2.40271E+01
 9.00000E-01    2.01687E+01
 1.00000E+00    1.69740E+01
 1.10000E+00    1.43646E+01
 1.20000E+00    1.21873E+01
 1.30000E+00    1.01954E+01
 1.40000E+00    8.51703E+00
 1.50000E+00    7.11438E+00
 1.60000E+00    5.94607E+00
 1.70000E+00    4.97506E+00
 1.80000E+00    4.16898E+00
 1.90000E+00    3.49996E+00
 2.00000E+00    2.94440E+00
 2.25000E+00    1.91403E+00
 2.50000E+00    1.27942E+00
 2.75000E+00    8.51834E-01
 3.00000E+00    5.91621E-01
 3.50000E+00    2.77345E-01
 4.00000E+00    1.34502E-01
 4.50000E+00    7.05709E-02
 5.00000E+00    4.21976E-02
 5.50000E+00    2.93033E-02
 6.00000E+00    2.32122E-02
 6.50000E+00    2.00352E-02
 7.00000E+00    1.80821E-02
 7.50000E+00    1.66535E-02
 8.00000E+00    1.54863E-02
 8.50000E+00    1.44693E-02
 9.00000E+00    1.35633E-02
 9.50000E+00    1.27666E-02
 1.00000E+01    1.20600E-02
 1.05000E+01    1.14308E-02
 1.10000E+01    1.08606E-02
 1.15000E+01    1.03374E-02
 1.20000E+01    9.85051E-03
 1.25000E+01    9.39196E-03
 1.30000E+01    8.95605E-03
 1.35000E+01    8.54011E-03
 1.40000E+01    8.14368E-03
 1.45000E+01    7.76732E-03
 1.50000E+01    7.41148E-03
 1.55000E+01    7.10133E-03
 1.60000E+01    6.80971E-03
 1.65000E+01    6.53563E-03
 1.70000E+01    6.27722E-03
 1.75000E+01    6.03338E-03
 1.80000E+01    5.80330E-03
 1.85000E+01    5.58627E-03
 1.90000E+01    5.38080E-03
 1.95000E+01    5.18554E-03
 2.00000E+01    4.99925E-03
