# n + Pb204 : (n,np)    
# jendl.ad   O.Iwamoto, N.Iwamoto              EVAL-MAR10
# uncertainties: n
# # energies =    26
#   E(MeV)       xs(mb) 
 6.67034E+00    0.00000E+00
 8.00000E+00    2.19220E-16
 8.50000E+00    5.54300E-12
 9.00000E+00    2.10930E-10
 9.50000E+00    1.31190E-08
 1.00000E+01    3.17770E-07
 1.05000E+01    3.82450E-06
 1.10000E+01    3.24260E-05
 1.15000E+01    1.80029E-04
 1.20000E+01    7.19283E-04
 1.25000E+01    2.43576E-03
 1.30000E+01    6.48605E-03
 1.35000E+01    1.49153E-02
 1.40000E+01    3.10571E-02
 1.45000E+01    6.13340E-02
 1.50000E+01    1.17198E-01
 1.55000E+01    2.16294E-01
 1.60000E+01    3.69586E-01
 1.65000E+01    6.37526E-01
 1.70000E+01    1.02449E+00
 1.75000E+01    1.52424E+00
 1.80000E+01    2.32977E+00
 1.85000E+01    3.24570E+00
 1.90000E+01    4.37449E+00
 1.95000E+01    5.75785E+00
 2.00000E+01    7.67072E+00
