# n + Cd112 : (n,g)     
# jendl.ad   kunieda                           EVAL-Mar14
# uncertainties: n
# # energies =    69
#   E(MeV)       xs(mb) 
 1.00000E-10    1.53124E+04
 5.00000E-09    4.16921E+03
 1.00000E-08    3.15791E+03
 1.50000E-08    2.65332E+03
 2.00000E-08    2.33432E+03
 2.50000E-08    2.10894E+03
 3.00000E-08    1.93839E+03
 3.50000E-08    1.78183E+03
 4.20000E-08    1.62952E+03
 5.00000E-08    1.50311E+03
 5.80000E-08    1.39694E+03
 6.70000E-08    1.28882E+03
 8.00000E-08    1.16591E+03
 1.00000E-07    1.01416E+03
 1.40000E-07    8.74447E+02
 1.80000E-07    7.80318E+02
 2.20000E-07    7.18439E+02
 2.50000E-07    6.76070E+02
 2.80000E-07    6.45613E+02
 3.00000E-07    6.24209E+02
 3.20000E-07    6.00400E+02
 3.50000E-07    5.67537E+02
 4.00000E-07    5.18903E+02
 5.00000E-07    4.63348E+02
 6.25000E-07    4.13730E+02
 7.80000E-07    3.82404E+02
 8.50000E-07    3.67672E+02
 9.10000E-07    3.57314E+02
 9.50000E-07    3.51314E+02
 9.72000E-07    3.47021E+02
 9.96000E-07    3.42765E+02
 1.02000E-06    3.38579E+02
 1.04500E-06    3.34338E+02
 1.07100E-06    3.30156E+02
 1.09700E-06    3.26194E+02
 1.12300E-06    3.22216E+02
 1.15000E-06    3.10322E+02
 1.30000E-06    2.89705E+02
 1.50000E-06    2.55955E+02
 2.10000E-06    2.21239E+02
 2.60000E-06    1.96020E+02
 3.30000E-06    1.74341E+02
 4.00000E-06    1.29148E+02
 9.87700E-06    8.42410E+01
 1.59680E-05    6.00866E+01
 2.77000E-05    4.45263E+01
 4.80520E-05    1.39844E+04
 7.55014E-05    4.20083E+02
 1.48728E-04    1.56206E+03
 3.67262E-04    1.69674E+03
 9.06898E-04    1.96156E+03
 1.42510E-03    6.23211E+02
 2.23945E-03    8.35966E+02
 3.51910E-03    6.57223E+02
 5.53000E-03    5.17531E+02
 9.11800E-03    3.16914E+02
 1.50300E-02    2.34674E+02
 2.47800E-02    1.70209E+02
 4.08500E-02    1.24359E+02
 6.73400E-02    9.63790E+01
 1.11000E-01    8.28082E+01
 1.83000E-01    7.92285E+01
 3.02000E-01    8.15240E+01
 5.00000E-01    6.99038E+01
 8.21000E-01    4.54942E+01
 1.35300E+00    3.86342E+01
 2.23100E+00    1.97897E+01
 3.67900E+00    5.45967E+00
 6.06500E+00    1.46754E+00
