# n + Cd112 : (n,xd)    
# jendl.ad   kunieda                           EVAL-Mar14
# 
# # energies =    70
#   E(MeV)        xs(mb) 
 1.50000E-01    0.00000E+00
 2.00000E-01    0.00000E+00
 3.00000E-01    0.00000E+00
 4.00000E-01    0.00000E+00
 5.00000E-01    0.00000E+00
 6.00000E-01    0.00000E+00
 6.23086E-01    0.00000E+00
 7.00000E-01    0.00000E+00
 8.00000E-01    0.00000E+00
 9.00000E-01    0.00000E+00
 1.00000E+00    0.00000E+00
 1.20000E+00    0.00000E+00
 1.23550E+00    0.00000E+00
 1.32422E+00    0.00000E+00
 1.40000E+00    0.00000E+00
 1.42834E+00    0.00000E+00
 1.44611E+00    0.00000E+00
 1.48210E+00    0.00000E+00
 1.60000E+00    0.00000E+00
 1.80000E+00    0.00000E+00
 1.88761E+00    0.00000E+00
 1.88786E+00    0.00000E+00
 2.00000E+00    0.00000E+00
 2.02341E+00    0.00000E+00
 2.08319E+00    0.00000E+00
 2.10051E+00    0.00000E+00
 2.14083E+00    0.00000E+00
 2.14084E+00    0.00000E+00
 2.17562E+00    0.00000E+00
 2.17563E+00    0.00000E+00
 2.18653E+00    0.00000E+00
 2.18757E+00    0.00000E+00
 2.20000E+00    0.00000E+00
 2.40000E+00    0.00000E+00
 2.70000E+00    0.00000E+00
 3.00000E+00    0.00000E+00
 3.50000E+00    0.00000E+00
 4.00000E+00    0.00000E+00
 4.50000E+00    0.00000E+00
 5.00000E+00    0.00000E+00
 5.50000E+00    0.00000E+00
 6.00000E+00    0.00000E+00
 6.50000E+00    0.00000E+00
 7.00000E+00    0.00000E+00
 7.50000E+00    2.65154E-15
 8.00000E+00    2.86074E-13
 8.50000E+00    5.84887E-13
 9.00000E+00    8.83700E-13
 9.50000E+00    8.39240E-10
 1.00000E+01    7.18190E-08
 1.05000E+01    2.40554E-06
 1.10000E+01    4.96042E-05
 1.15000E+01    3.69263E-04
 1.20000E+01    2.15934E-03
 1.25000E+01    1.01747E-02
 1.30000E+01    2.33377E-02
 1.35000E+01    8.30969E-02
 1.40000E+01    1.52629E-01
 1.45000E+01    4.04113E-01
 1.50000E+01    6.38431E-01
 1.55000E+01    9.61248E-01
 1.60000E+01    1.38436E+00
 1.65000E+01    2.17470E+00
 1.70000E+01    2.87700E+00
 1.75000E+01    3.69414E+00
 1.80000E+01    4.62444E+00
 1.85000E+01    5.16258E+00
 1.90000E+01    6.24972E+00
 1.95000E+01    7.01754E+00
 2.00000E+01    8.28445E+00
