# n + Cd112 : (n,xp)    
# jendl.ad   kunieda                           EVAL-Mar14
# 
# # energies =    70
#   E(MeV)        xs(mb) 
 1.50000E-01    0.00000E+00
 2.00000E-01    0.00000E+00
 3.00000E-01    0.00000E+00
 4.00000E-01    0.00000E+00
 5.00000E-01    0.00000E+00
 6.00000E-01    0.00000E+00
 6.23086E-01    0.00000E+00
 7.00000E-01    0.00000E+00
 8.00000E-01    0.00000E+00
 9.00000E-01    0.00000E+00
 1.00000E+00    0.00000E+00
 1.20000E+00    0.00000E+00
 1.23550E+00    0.00000E+00
 1.32422E+00    0.00000E+00
 1.40000E+00    0.00000E+00
 1.42834E+00    0.00000E+00
 1.44611E+00    0.00000E+00
 1.48210E+00    0.00000E+00
 1.60000E+00    0.00000E+00
 1.80000E+00    0.00000E+00
 1.88761E+00    0.00000E+00
 1.88786E+00    0.00000E+00
 2.00000E+00    0.00000E+00
 2.02341E+00    0.00000E+00
 2.08319E+00    0.00000E+00
 2.10051E+00    0.00000E+00
 2.14083E+00    0.00000E+00
 2.14084E+00    0.00000E+00
 2.17562E+00    0.00000E+00
 2.17563E+00    0.00000E+00
 2.18653E+00    0.00000E+00
 2.18757E+00    0.00000E+00
 2.20000E+00    0.00000E+00
 2.40000E+00    0.00000E+00
 2.70000E+00    0.00000E+00
 3.00000E+00    0.00000E+00
 3.50000E+00    7.20182E-10
 4.00000E+00    1.92984E-09
 4.50000E+00    3.13950E-09
 5.00000E+00    1.03703E-06
 5.50000E+00    4.15550E-05
 6.00000E+00    4.28050E-04
 6.50000E+00    2.66421E-03
 7.00000E+00    8.49438E-03
 7.50000E+00    2.21859E-02
 8.00000E+00    4.93146E-02
 8.50000E+00    9.65606E-02
 9.00000E+00    1.61544E-01
 9.50000E+00    2.70877E-01
 1.00000E+01    4.52531E-01
 1.05000E+01    7.39246E-01
 1.10000E+01    1.16664E+00
 1.15000E+01    1.76561E+00
 1.20000E+01    2.55784E+00
 1.25000E+01    3.57629E+00
 1.30000E+01    4.82076E+00
 1.35000E+01    6.28151E+00
 1.40000E+01    7.99433E+00
 1.45000E+01    9.91997E+00
 1.50000E+01    1.20691E+01
 1.55000E+01    1.44192E+01
 1.60000E+01    1.69932E+01
 1.65000E+01    1.97029E+01
 1.70000E+01    2.26140E+01
 1.75000E+01    2.55960E+01
 1.80000E+01    2.87725E+01
 1.85000E+01    3.20944E+01
 1.90000E+01    3.55013E+01
 1.95000E+01    3.90513E+01
 2.00000E+01    4.26832E+01
