# n + Cd112 : (n,xa)    
# jendl.ad   kunieda                           EVAL-Mar14
# 
# # energies =    70
#   E(MeV)        xs(mb) 
 1.50000E-01    0.00000E+00
 2.00000E-01    0.00000E+00
 3.00000E-01    0.00000E+00
 4.00000E-01    0.00000E+00
 5.00000E-01    0.00000E+00
 6.00000E-01    0.00000E+00
 6.23086E-01    0.00000E+00
 7.00000E-01    0.00000E+00
 8.00000E-01    0.00000E+00
 9.00000E-01    0.00000E+00
 1.00000E+00    0.00000E+00
 1.20000E+00    0.00000E+00
 1.23550E+00    0.00000E+00
 1.32422E+00    0.00000E+00
 1.40000E+00    0.00000E+00
 1.42834E+00    0.00000E+00
 1.44611E+00    0.00000E+00
 1.48210E+00    0.00000E+00
 1.60000E+00    0.00000E+00
 1.80000E+00    0.00000E+00
 1.88761E+00    0.00000E+00
 1.88786E+00    0.00000E+00
 2.00000E+00    0.00000E+00
 2.02341E+00    0.00000E+00
 2.08319E+00    0.00000E+00
 2.10051E+00    0.00000E+00
 2.14083E+00    0.00000E+00
 2.14084E+00    0.00000E+00
 2.17562E+00    0.00000E+00
 2.17563E+00    0.00000E+00
 2.18653E+00    0.00000E+00
 2.18757E+00    0.00000E+00
 2.20000E+00    0.00000E+00
 2.40000E+00    0.00000E+00
 2.70000E+00    0.00000E+00
 3.00000E+00    8.44520E-10
 3.50000E+00    3.44780E-08
 4.00000E+00    6.05244E-07
 4.50000E+00    6.31713E-06
 5.00000E+00    5.03794E-05
 5.50000E+00    3.44239E-04
 6.00000E+00    1.66914E-03
 6.50000E+00    4.21903E-03
 7.00000E+00    7.70106E-03
 7.50000E+00    1.25034E-02
 8.00000E+00    1.97979E-02
 8.50000E+00    3.05337E-02
 9.00000E+00    4.00009E-02
 9.50000E+00    5.61512E-02
 1.00000E+01    7.69824E-02
 1.05000E+01    1.02125E-01
 1.10000E+01    1.34371E-01
 1.15000E+01    1.77168E-01
 1.20000E+01    2.35562E-01
 1.25000E+01    3.15045E-01
 1.30000E+01    4.20536E-01
 1.35000E+01    5.56600E-01
 1.40000E+01    7.25679E-01
 1.45000E+01    9.29746E-01
 1.50000E+01    1.16861E+00
 1.55000E+01    1.44022E+00
 1.60000E+01    1.75171E+00
 1.65000E+01    2.08647E+00
 1.70000E+01    2.44513E+00
 1.75000E+01    2.83077E+00
 1.80000E+01    3.23957E+00
 1.85000E+01    3.65874E+00
 1.90000E+01    4.10147E+00
 1.95000E+01    4.54766E+00
 2.00000E+01    5.01311E+00
