# n + Cd112 : (n,xn)    
# jendl.ad   kunieda                           EVAL-Mar14
# 
# # energies =    70
#   E(MeV)        xs(mb) 
 1.50000E-01    0.00000E+00
 2.00000E-01    7.35630E-05
 3.00000E-01    1.00403E-03
 4.00000E-01    5.10583E-03
 5.00000E-01    1.69766E-02
 6.00000E-01    4.43054E-02
 6.23086E-01    8.12121E-02
 7.00000E-01    4.43776E+02
 8.00000E-01    6.38699E+02
 9.00000E-01    7.22030E+02
 1.00000E+00    7.69309E+02
 1.20000E+00    8.26633E+02
 1.23550E+00    8.34449E+02
 1.32422E+00    9.07900E+02
 1.40000E+00    1.03315E+03
 1.42834E+00    1.06208E+03
 1.44611E+00    1.08406E+03
 1.48210E+00    1.13518E+03
 1.60000E+00    1.28033E+03
 1.80000E+00    1.35266E+03
 1.88761E+00    1.36608E+03
 1.88786E+00    1.36622E+03
 2.00000E+00    1.39708E+03
 2.02341E+00    1.40139E+03
 2.08319E+00    1.42403E+03
 2.10051E+00    1.43202E+03
 2.14083E+00    1.44887E+03
 2.14084E+00    1.44888E+03
 2.17562E+00    1.46568E+03
 2.17563E+00    1.46568E+03
 2.18653E+00    1.47206E+03
 2.18757E+00    1.47275E+03
 2.20000E+00    1.47995E+03
 2.40000E+00    1.57801E+03
 2.70000E+00    1.65961E+03
 3.00000E+00    1.70468E+03
 3.50000E+00    1.76044E+03
 4.00000E+00    1.82497E+03
 4.50000E+00    1.90073E+03
 5.00000E+00    1.96804E+03
 5.50000E+00    2.01281E+03
 6.00000E+00    2.02837E+03
 6.50000E+00    2.02259E+03
 7.00000E+00    2.00444E+03
 7.50000E+00    1.98157E+03
 8.00000E+00    1.95929E+03
 8.50000E+00    1.94087E+03
 9.00000E+00    1.92794E+03
 9.50000E+00    1.92759E+03
 1.00000E+01    2.04670E+03
 1.05000E+01    2.31396E+03
 1.10000E+01    2.65163E+03
 1.15000E+01    2.90993E+03
 1.20000E+01    3.12365E+03
 1.25000E+01    3.25867E+03
 1.30000E+01    3.35471E+03
 1.35000E+01    3.41844E+03
 1.40000E+01    3.46371E+03
 1.45000E+01    3.48985E+03
 1.50000E+01    3.50490E+03
 1.55000E+01    3.51343E+03
 1.60000E+01    3.51814E+03
 1.65000E+01    3.51301E+03
 1.70000E+01    3.50640E+03
 1.75000E+01    3.49130E+03
 1.80000E+01    3.50139E+03
 1.85000E+01    3.52732E+03
 1.90000E+01    3.56164E+03
 1.95000E+01    3.61278E+03
 2.00000E+01    3.67352E+03
