# n + Cd112 : (n,tot)   
# jendl.ad   kunieda                           EVAL-Mar14
# uncertainties: n
# # energies =    69
#   E(MeV)       xs(mb) 
 1.00000E-10    1.53179E+04
 5.00000E-09    4.17041E+03
 1.00000E-08    3.15816E+03
 1.50000E-08    2.65332E+03
 2.00000E-08    2.33430E+03
 2.50000E-08    2.10899E+03
 3.00000E-08    1.93839E+03
 3.50000E-08    1.78180E+03
 4.20000E-08    1.62954E+03
 5.00000E-08    1.50312E+03
 5.80000E-08    1.39693E+03
 6.70000E-08    1.28880E+03
 8.00000E-08    1.16589E+03
 1.00000E-07    1.01415E+03
 1.40000E-07    8.74448E+02
 1.80000E-07    7.80343E+02
 2.20000E-07    7.18437E+02
 2.50000E-07    6.76063E+02
 2.80000E-07    6.45661E+02
 3.00000E-07    6.24230E+02
 3.20000E-07    6.00420E+02
 3.50000E-07    5.67543E+02
 4.00000E-07    5.18901E+02
 5.00000E-07    4.63463E+02
 6.25000E-07    4.13790E+02
 7.80000E-07    3.82507E+02
 8.50000E-07    3.67865E+02
 9.10000E-07    3.57479E+02
 9.50000E-07    3.51555E+02
 9.72000E-07    3.47176E+02
 9.96000E-07    3.42803E+02
 1.02000E-06    3.38715E+02
 1.04500E-06    3.34468E+02
 1.07100E-06    3.30182E+02
 1.09700E-06    3.26254E+02
 1.12300E-06    3.22332E+02
 1.15000E-06    3.10344E+02
 1.30000E-06    2.89687E+02
 1.50000E-06    2.55945E+02
 2.10000E-06    2.21223E+02
 2.60000E-06    1.95963E+02
 3.30000E-06    1.74288E+02
 4.00000E-06    1.29112E+02
 9.87700E-06    8.42211E+01
 1.59680E-05    6.00685E+01
 2.77000E-05    4.45180E+01
 4.80520E-05    1.39850E+04
 7.55014E-05    4.20100E+02
 1.48728E-04    1.56208E+03
 3.67262E-04    1.69687E+03
 9.06898E-04    1.96170E+03
 1.42510E-03    6.23270E+02
 2.23945E-03    8.36086E+02
 3.51910E-03    6.57344E+02
 5.53000E-03    5.17608E+02
 9.11800E-03    3.16970E+02
 1.50300E-02    2.34702E+02
 2.47800E-02    1.70253E+02
 4.08500E-02    1.24388E+02
 6.73400E-02    9.63814E+01
 1.11000E-01    8.28083E+01
 1.83000E-01    7.92280E+01
 3.02000E-01    8.14899E+01
 5.00000E-01    6.98954E+01
 8.21000E-01    4.54923E+01
 1.35300E+00    3.86368E+01
 2.23100E+00    1.97877E+01
 3.67900E+00    5.45909E+00
 6.06500E+00    1.67348E+03
