# n + Dy154 : (n,n'09)  
# endfb8.0   N.Iwamoto                         EVAL-Nov09
# uncertainties: n
# # energies =    53
#   E(MeV)       xs(mb) 
 1.26006E+00    0.00000E+00
 1.30000E+00    7.16967E+00
 1.34305E+00    1.16292E+01
 1.39941E+00    1.72496E+01
 1.40000E+00    1.72890E+01
 1.42970E+00    2.02788E+01
 1.45212E+00    2.26696E+01
 1.50000E+00    2.70077E+01
 1.51753E+00    2.87405E+01
 1.55613E+00    3.22949E+01
 1.60000E+00    3.61562E+01
 1.70000E+00    4.41240E+01
 1.80000E+00    5.03533E+01
 1.90000E+00    5.47781E+01
 2.00000E+00    5.74144E+01
 2.25000E+00    5.79637E+01
 2.50000E+00    5.00680E+01
 2.75000E+00    4.15904E+01
 3.00000E+00    3.18939E+01
 3.50000E+00    1.77553E+01
 4.00000E+00    9.31644E+00
 4.50000E+00    4.83634E+00
 5.00000E+00    2.58214E+00
 5.50000E+00    1.48067E+00
 6.00000E+00    9.48072E-01
 6.50000E+00    6.86813E-01
 7.00000E+00    5.52446E-01
 7.50000E+00    4.77149E-01
 8.00000E+00    4.29184E-01
 8.50000E+00    3.94154E-01
 9.00000E+00    3.65984E-01
 9.50000E+00    3.41984E-01
 1.00000E+01    3.20847E-01
 1.05000E+01    3.02062E-01
 1.10000E+01    2.84740E-01
 1.15000E+01    2.69210E-01
 1.20000E+01    2.54744E-01
 1.25000E+01    2.41624E-01
 1.30000E+01    2.29361E-01
 1.35000E+01    2.18171E-01
 1.40000E+01    2.07696E-01
 1.45000E+01    1.98069E-01
 1.50000E+01    1.88927E-01
 1.55000E+01    1.80194E-01
 1.60000E+01    1.72492E-01
 1.65000E+01    1.64928E-01
 1.70000E+01    1.58161E-01
 1.75000E+01    1.51152E-01
 1.80000E+01    1.45026E-01
 1.85000E+01    1.39584E-01
 1.90000E+01    1.34175E-01
 1.95000E+01    1.28735E-01
 2.00000E+01    1.23543E-01
