# n + Dy154 : (n,d)     
# endfb8.0   N.Iwamoto                         EVAL-Nov09
# uncertainties: n
# # energies =    52
#   E(MeV)       xs(mb) 
 4.16949E+00    0.00000E+00
 4.25074E+00    4.93000E-19
 4.31803E+00    9.40820E-19
 4.33374E+00    1.04650E-18
 4.38463E+00    1.39030E-18
 4.38955E+00    1.42350E-18
 4.40100E+00    1.50100E-18
 4.41160E+00    1.57280E-18
 4.42536E+00    1.66600E-18
 4.43405E+00    1.72480E-18
 4.44602E+00    1.80590E-18
 4.49659E+00    2.14860E-18
 4.54347E+00    1.17230E-17
 4.56160E+00    1.68770E-17
 4.61710E+00    3.56670E-17
 4.68313E+00    5.88510E-17
 4.68414E+00    5.92070E-17
 4.70234E+00    6.56440E-17
 4.70840E+00    6.77910E-17
 4.71039E+00    6.84970E-17
 4.71620E+00    7.05620E-17
 4.74519E+00    8.08870E-17
 5.50000E+00    3.49920E-16
 6.00000E+00    2.68590E-13
 6.50000E+00    1.62420E-10
 7.00000E+00    1.37090E-08
 7.50000E+00    3.95090E-07
 8.00000E+00    5.53726E-06
 8.50000E+00    4.93324E-05
 9.00000E+00    3.10976E-04
 9.50000E+00    1.47387E-03
 1.00000E+01    5.57117E-03
 1.05000E+01    1.73539E-02
 1.10000E+01    4.58323E-02
 1.15000E+01    1.05170E-01
 1.20000E+01    2.13173E-01
 1.25000E+01    3.88195E-01
 1.30000E+01    6.43793E-01
 1.35000E+01    9.87117E-01
 1.40000E+01    1.41665E+00
 1.45000E+01    1.92656E+00
 1.50000E+01    2.50628E+00
 1.55000E+01    3.05231E+00
 1.60000E+01    3.74691E+00
 1.65000E+01    4.52360E+00
 1.70000E+01    5.25170E+00
 1.75000E+01    5.90565E+00
 1.80000E+01    6.72263E+00
 1.85000E+01    7.58168E+00
 1.90000E+01    8.34215E+00
 1.95000E+01    9.26742E+00
 2.00000E+01    9.90492E+00
