# n + Dy154 : (n,el)    
# endfb8.0   N.Iwamoto                         EVAL-Nov09
# uncertainties: n
# # energies =    69
#   E(MeV)       xs(mb) 
 1.00000E-10    8.04899E+03
 5.00000E-09    6.80071E+03
 1.00000E-08    6.76614E+03
 1.50000E-08    6.75267E+03
 2.00000E-08    6.74533E+03
 2.50000E-08    6.74073E+03
 3.00000E-08    6.73777E+03
 3.50000E-08    6.73478E+03
 4.20000E-08    6.73278E+03
 5.00000E-08    6.73078E+03
 5.80000E-08    6.72912E+03
 6.70000E-08    6.72818E+03
 8.00000E-08    6.72682E+03
 1.00000E-07    6.72498E+03
 1.40000E-07    6.72413E+03
 1.80000E-07    6.72342E+03
 2.20000E-07    6.72279E+03
 2.50000E-07    6.72225E+03
 2.80000E-07    6.72198E+03
 3.00000E-07    6.72195E+03
 3.20000E-07    6.72192E+03
 3.50000E-07    6.72187E+03
 4.00000E-07    6.72178E+03
 5.00000E-07    6.72164E+03
 6.25000E-07    6.72146E+03
 7.80000E-07    6.72132E+03
 8.50000E-07    6.72124E+03
 9.10000E-07    6.72117E+03
 9.50000E-07    6.72114E+03
 9.72000E-07    6.72111E+03
 9.96000E-07    6.72108E+03
 1.02000E-06    6.72105E+03
 1.04500E-06    6.72101E+03
 1.07100E-06    6.72098E+03
 1.09700E-06    6.72095E+03
 1.12300E-06    6.72092E+03
 1.15000E-06    6.72081E+03
 1.30000E-06    6.72059E+03
 1.50000E-06    6.72033E+03
 2.10000E-06    6.72024E+03
 2.60000E-06    1.51601E+05
 3.30000E-06    1.91487E+05
 4.00000E-06    1.78509E+05
 9.87700E-06    1.60286E+05
 1.59680E-05    1.43938E+05
 2.77000E-05    1.28114E+05
 4.80520E-05    1.13311E+05
 7.55014E-05    9.69558E+04
 1.48728E-04    7.62982E+04
 3.67262E-04    5.69882E+04
 9.06898E-04    4.45501E+04
 1.42510E-03    3.76830E+04
 2.23945E-03    3.18717E+04
 3.51910E-03    2.69190E+04
 5.53000E-03    2.24400E+04
 9.11800E-03    1.85286E+04
 1.50300E-02    1.53171E+04
 2.47800E-02    1.26598E+04
 4.08500E-02    1.04885E+04
 6.73400E-02    8.74147E+03
 1.11000E-01    7.36090E+03
 1.83000E-01    6.31000E+03
 3.02000E-01    5.49646E+03
 5.00000E-01    4.84617E+03
 8.21000E-01    4.30901E+03
 1.35300E+00    3.77619E+03
 2.23100E+00    3.16650E+03
 3.67900E+00    2.39939E+03
 6.06500E+00    2.06868E+03
