# n + Dy154 : (n,n'01)  
# endfb8.0   N.Iwamoto                         EVAL-Nov09
# uncertainties: n
# # energies =    70
#   E(MeV)       xs(mb) 
 3.36772E-01    0.00000E+00
 4.00000E-01    3.52322E+02
 5.00000E-01    5.70324E+02
 6.00000E-01    7.33024E+02
 6.65150E-01    8.19469E+02
 7.00000E-01    8.44237E+02
 7.51935E-01    8.89445E+02
 8.00000E-01    9.25404E+02
 9.00000E-01    9.83366E+02
 9.11122E-01    9.88411E+02
 1.00000E+00    9.40860E+02
 1.03384E+00    9.42139E+02
 1.06501E+00    9.04923E+02
 1.10000E+00    8.86159E+02
 1.20000E+00    8.67985E+02
 1.21594E+00    8.64891E+02
 1.23210E+00    8.58161E+02
 1.26006E+00    8.50329E+02
 1.30000E+00    8.39152E+02
 1.34305E+00    8.27958E+02
 1.39941E+00    8.00893E+02
 1.40000E+00    7.97921E+02
 1.42970E+00    7.77145E+02
 1.45212E+00    7.60286E+02
 1.50000E+00    7.40471E+02
 1.51753E+00    7.33412E+02
 1.55613E+00    7.07886E+02
 1.60000E+00    6.89313E+02
 1.70000E+00    6.50610E+02
 1.80000E+00    6.13378E+02
 1.90000E+00    5.77612E+02
 2.00000E+00    5.45062E+02
 2.25000E+00    4.76050E+02
 2.50000E+00    4.18302E+02
 2.75000E+00    3.77761E+02
 3.00000E+00    3.45653E+02
 3.50000E+00    3.07245E+02
 4.00000E+00    2.86182E+02
 4.50000E+00    2.73097E+02
 5.00000E+00    2.63699E+02
 5.50000E+00    2.56387E+02
 6.00000E+00    2.50413E+02
 6.50000E+00    2.45152E+02
 7.00000E+00    2.40023E+02
 7.50000E+00    2.34621E+02
 8.00000E+00    2.28787E+02
 8.50000E+00    2.22575E+02
 9.00000E+00    2.16162E+02
 9.50000E+00    2.09749E+02
 1.00000E+01    2.03506E+02
 1.05000E+01    1.97698E+02
 1.10000E+01    1.91891E+02
 1.15000E+01    1.86758E+02
 1.20000E+01    1.81624E+02
 1.25000E+01    1.77152E+02
 1.30000E+01    1.72680E+02
 1.35000E+01    1.68829E+02
 1.40000E+01    1.64979E+02
 1.45000E+01    1.61689E+02
 1.50000E+01    1.58399E+02
 1.55000E+01    1.55584E+02
 1.60000E+01    1.52769E+02
 1.65000E+01    1.50345E+02
 1.70000E+01    1.47921E+02
 1.75000E+01    1.45817E+02
 1.80000E+01    1.43713E+02
 1.85000E+01    1.41876E+02
 1.90000E+01    1.40039E+02
 1.95000E+01    1.38429E+02
 2.00000E+01    1.36818E+02
