# n + Dy154 : (n,n'08)  
# endfb8.0   N.Iwamoto                         EVAL-Nov09
# uncertainties: n
# # energies =    54
#   E(MeV)       xs(mb) 
 1.23210E+00    0.00000E+00
 1.26006E+00    1.92376E-02
 1.30000E+00    7.02999E-02
 1.34305E+00    1.70054E-01
 1.39941E+00    3.76037E-01
 1.40000E+00    3.78725E-01
 1.42970E+00    5.30042E-01
 1.45212E+00    6.58726E-01
 1.50000E+00    9.81065E-01
 1.51753E+00    1.12500E+00
 1.55613E+00    1.46086E+00
 1.60000E+00    1.86056E+00
 1.70000E+00    2.94283E+00
 1.80000E+00    4.12324E+00
 1.90000E+00    5.32275E+00
 2.00000E+00    6.47144E+00
 2.25000E+00    9.25637E+00
 2.50000E+00    1.06296E+01
 2.75000E+00    1.15880E+01
 3.00000E+00    1.16668E+01
 3.50000E+00    1.09825E+01
 4.00000E+00    9.81258E+00
 4.50000E+00    8.67983E+00
 5.00000E+00    7.80553E+00
 5.50000E+00    7.21916E+00
 6.00000E+00    6.84782E+00
 6.50000E+00    6.59911E+00
 7.00000E+00    6.40018E+00
 7.50000E+00    6.20389E+00
 8.00000E+00    5.98614E+00
 8.50000E+00    5.74101E+00
 9.00000E+00    5.47353E+00
 9.50000E+00    5.19403E+00
 1.00000E+01    4.91362E+00
 1.05000E+01    4.64852E+00
 1.10000E+01    4.38406E+00
 1.15000E+01    4.15140E+00
 1.20000E+01    3.91915E+00
 1.25000E+01    3.71788E+00
 1.30000E+01    3.51694E+00
 1.35000E+01    3.34182E+00
 1.40000E+01    3.16697E+00
 1.45000E+01    3.01455E+00
 1.50000E+01    2.86230E+00
 1.55000E+01    2.73025E+00
 1.60000E+01    2.59861E+00
 1.65000E+01    2.48474E+00
 1.70000E+01    2.37111E+00
 1.75000E+01    2.27260E+00
 1.80000E+01    2.17441E+00
 1.85000E+01    2.08876E+00
 1.90000E+01    2.00312E+00
 1.95000E+01    1.92723E+00
 2.00000E+01    1.85144E+00
