# n + Es252 : (n,n'13)  
# tendl.2019 A.J. Koning and D. Rochman        EVAL-NOV19
# uncertainties: n
# # energies =    86
#   E(MeV)       xs(mb) 
 6.10432E-01    0.00000E+00
 6.11436E-01    3.36669E-02
 6.12440E-01    6.73338E-02
 6.13444E-01    1.01001E-01
 6.14448E-01    1.34670E-01
 6.15452E-01    1.68337E-01
 6.16456E-01    2.02003E-01
 6.17460E-01    2.35672E-01
 6.18464E-01    2.69339E-01
 6.19467E-01    3.02974E-01
 6.20471E-01    3.36641E-01
 6.21475E-01    3.70308E-01
 6.22479E-01    4.03977E-01
 6.23483E-01    4.37644E-01
 6.24487E-01    4.71311E-01
 6.25491E-01    5.04980E-01
 6.26495E-01    5.38647E-01
 6.27499E-01    5.72313E-01
 7.00000E-01    3.00352E+00
 8.00000E-01    3.20944E+00
 9.00000E-01    2.82844E+00
 1.00000E+00    2.45009E+00
 1.20000E+00    1.84596E+00
 1.40000E+00    1.39786E+00
 1.60000E+00    1.04954E+00
 1.80000E+00    7.65676E-01
 2.00000E+00    5.45036E-01
 2.20000E+00    3.81688E-01
 2.40000E+00    2.63708E-01
 2.60000E+00    1.80055E-01
 2.80000E+00    1.22261E-01
 3.00000E+00    8.28417E-02
 3.20000E+00    5.61449E-02
 3.40000E+00    3.81301E-02
 3.60000E+00    2.59478E-02
 3.80000E+00    1.77077E-02
 4.00000E+00    1.21298E-02
 4.20000E+00    8.33658E-03
 4.40000E+00    5.76125E-03
 4.60000E+00    4.00399E-03
 4.80000E+00    2.79934E-03
 5.00000E+00    1.96808E-03
 5.20000E+00    1.38554E-03
 5.40000E+00    9.82356E-04
 5.60000E+00    7.01609E-04
 5.80000E+00    5.03108E-04
 6.00000E+00    3.61963E-04
 6.20000E+00    2.61301E-04
 6.40000E+00    1.88805E-04
 6.60000E+00    1.37035E-04
 6.80000E+00    9.94818E-05
 7.00000E+00    7.23562E-05
 7.20000E+00    5.27496E-05
 7.40000E+00    3.84629E-05
 7.60000E+00    2.81549E-05
 7.80000E+00    2.06426E-05
 8.00000E+00    1.51722E-05
 8.50000E+00    7.12023E-06
 9.00000E+00    3.41212E-06
 9.50000E+00    1.67435E-06
 1.00000E+01    8.41130E-07
 1.05000E+01    4.31840E-07
 1.10000E+01    2.26030E-07
 1.15000E+01    1.20370E-07
 1.20000E+01    6.51200E-08
 1.25000E+01    3.57440E-08
 1.30000E+01    1.99000E-08
 1.35000E+01    1.12360E-08
 1.40000E+01    6.43400E-09
 1.45000E+01    3.73700E-09
 1.50000E+01    2.20140E-09
 1.60000E+01    7.91350E-10
 1.70000E+01    3.00350E-10
 1.80000E+01    1.19160E-10
 1.90000E+01    4.91120E-11
 2.00000E+01    2.09380E-11
 2.10000E+01    9.22350E-12
 2.20000E+01    4.18180E-12
 2.30000E+01    1.95660E-12
 2.40000E+01    9.42640E-13
 2.50000E+01    4.67500E-13
 2.60000E+01    2.37670E-13
 2.70000E+01    1.23530E-13
 2.80000E+01    6.55210E-14
 2.90000E+01    3.53760E-14
 3.00000E+01    1.94940E-14
