# n + Es252 : (n,n'21)  
# tendl.2019 A.J. Koning and D. Rochman        EVAL-NOV19
# uncertainties: n
# # energies =    78
#   E(MeV)       xs(mb) 
 6.18464E-01    0.00000E+00
 6.19467E-01    4.13508E-02
 6.20471E-01    8.27408E-02
 6.21475E-01    1.24131E-01
 6.22479E-01    1.65523E-01
 6.23483E-01    2.06914E-01
 6.24487E-01    2.48304E-01
 6.25491E-01    2.89696E-01
 6.26495E-01    3.31086E-01
 6.27499E-01    3.72476E-01
 7.00000E-01    3.36140E+00
 8.00000E-01    5.29680E+00
 9.00000E-01    5.14705E+00
 1.00000E+00    4.37508E+00
 1.20000E+00    3.03021E+00
 1.40000E+00    2.34500E+00
 1.60000E+00    1.83570E+00
 1.80000E+00    1.31158E+00
 2.00000E+00    8.66848E-01
 2.20000E+00    5.49386E-01
 2.40000E+00    3.41133E-01
 2.60000E+00    2.10133E-01
 2.80000E+00    1.29925E-01
 3.00000E+00    8.10592E-02
 3.20000E+00    5.11570E-02
 3.40000E+00    3.27007E-02
 3.60000E+00    2.11542E-02
 3.80000E+00    1.38488E-02
 4.00000E+00    9.17806E-03
 4.20000E+00    6.15063E-03
 4.40000E+00    4.17409E-03
 4.60000E+00    2.86756E-03
 4.80000E+00    1.99358E-03
 5.00000E+00    1.40139E-03
 5.20000E+00    9.91325E-04
 5.40000E+00    7.09458E-04
 5.60000E+00    5.13410E-04
 5.80000E+00    3.74204E-04
 6.00000E+00    2.74290E-04
 6.20000E+00    2.02024E-04
 6.40000E+00    1.48969E-04
 6.60000E+00    1.10324E-04
 6.80000E+00    8.16112E-05
 7.00000E+00    6.03809E-05
 7.20000E+00    4.46970E-05
 7.40000E+00    3.30091E-05
 7.60000E+00    2.44211E-05
 7.80000E+00    1.80569E-05
 8.00000E+00    1.33568E-05
 8.50000E+00    6.32231E-06
 9.00000E+00    3.03249E-06
 9.50000E+00    1.48347E-06
 1.00000E+01    7.42200E-07
 1.05000E+01    3.79860E-07
 1.10000E+01    1.98590E-07
 1.15000E+01    1.05860E-07
 1.20000E+01    5.74280E-08
 1.25000E+01    3.16510E-08
 1.30000E+01    1.77100E-08
 1.35000E+01    1.00530E-08
 1.40000E+01    5.78920E-09
 1.45000E+01    3.38160E-09
 1.50000E+01    2.00320E-09
 1.60000E+01    7.27750E-10
 1.70000E+01    2.78830E-10
 1.80000E+01    1.11510E-10
 1.90000E+01    4.62780E-11
 2.00000E+01    1.98520E-11
 2.10000E+01    8.79580E-12
 2.20000E+01    4.00980E-12
 2.30000E+01    1.88590E-12
 2.40000E+01    9.12990E-13
 2.50000E+01    4.54840E-13
 2.60000E+01    2.32220E-13
 2.70000E+01    1.21180E-13
 2.80000E+01    6.45140E-14
 2.90000E+01    3.49520E-14
 3.00000E+01    1.93210E-14
