# n + Sm150 : (n,xa)    
# jendl.ad   N.Iwamoto                         EVAL-Apr14
# 
# # energies =   111
#   E(MeV)        xs(mb) 
 1.05000E-01    1.19206E-05
 1.10000E-01    1.20445E-05
 1.20000E-01    1.22925E-05
 1.30000E-01    1.25404E-05
 1.40000E-01    1.27883E-05
 1.50000E-01    1.30762E-05
 1.60000E-01    1.33739E-05
 1.70000E-01    1.37287E-05
 1.80000E-01    1.40909E-05
 1.90000E-01    1.44530E-05
 2.00000E-01    1.48232E-05
 2.25000E-01    1.58384E-05
 2.50000E-01    1.68536E-05
 2.75000E-01    1.81998E-05
 3.00000E-01    1.96401E-05
 3.36109E-01    2.19577E-05
 4.00000E-01    1.48749E-05
 5.00000E-01    1.82955E-05
 6.00000E-01    2.39240E-05
 7.00000E-01    3.26374E-05
 7.45363E-01    3.78272E-05
 7.78440E-01    4.06639E-05
 8.00000E-01    4.21081E-05
 9.00000E-01    5.41612E-05
 1.00000E+00    7.10647E-05
 1.05308E+00    8.32267E-05
 1.07847E+00    8.24478E-05
 1.10000E+00    8.17874E-05
 1.17345E+00    9.48967E-05
 1.20000E+00    9.44413E-05
 1.20176E+00    9.46101E-05
 1.26385E+00    1.00565E-04
 1.28736E+00    1.03821E-04
 1.30000E+00    1.06192E-04
 1.36666E+00    1.22904E-04
 1.40000E+00    1.32170E-04
 1.42670E+00    1.41661E-04
 1.45874E+00    1.47496E-04
 1.50000E+00    1.59234E-04
 1.51457E+00    1.65841E-04
 1.60000E+00    1.94496E-04
 1.65357E+00    2.21065E-04
 1.66945E+00    2.27816E-04
 1.68395E+00    2.31706E-04
 1.68396E+00    2.31709E-04
 1.69533E+00    2.35886E-04
 1.70000E+00    2.36234E-04
 1.72467E+00    2.49154E-04
 1.77140E+00    2.67700E-04
 1.77656E+00    2.68846E-04
 1.78523E+00    2.72927E-04
 1.79862E+00    2.79229E-04
 1.80000E+00    2.78991E-04
 1.80607E+00    2.81369E-04
 1.83157E+00    2.91910E-04
 1.83398E+00    2.92924E-04
 1.83454E+00    2.93058E-04
 1.84561E+00    2.95711E-04
 1.84562E+00    2.95713E-04
 1.84923E+00    2.95159E-04
 1.89597E+00    3.15236E-04
 1.90000E+00    3.15412E-04
 1.94027E+00    3.39834E-04
 1.96369E+00    3.50286E-04
 1.97687E+00    3.56168E-04
 1.98359E+00    3.57643E-04
 1.99262E+00    3.61188E-04
 2.00000E+00    3.64086E-04
 2.01899E+00    3.79585E-04
 2.03384E+00    3.85775E-04
 2.03815E+00    3.87571E-04
 2.04891E+00    3.93197E-04
 2.05785E+00    3.98135E-04
 2.25000E+00    5.67061E-04
 2.50000E+00    8.15214E-04
 2.75000E+00    1.22630E-03
 3.00000E+00    1.63297E-03
 3.50000E+00    2.90359E-03
 4.00000E+00    4.61837E-03
 4.50000E+00    6.75028E-03
 5.00000E+00    9.26437E-03
 5.50000E+00    1.21490E-02
 6.00000E+00    1.55168E-02
 6.50000E+00    1.96264E-02
 7.00000E+00    2.49980E-02
 7.50000E+00    3.36579E-02
 8.00000E+00    4.80310E-02
 8.50000E+00    7.14627E-02
 9.00000E+00    1.08520E-01
 9.50000E+00    1.66872E-01
 1.00000E+01    2.56011E-01
 1.05000E+01    3.86124E-01
 1.10000E+01    5.68423E-01
 1.15000E+01    8.12201E-01
 1.20000E+01    1.12409E+00
 1.25000E+01    1.50697E+00
 1.30000E+01    1.95974E+00
 1.35000E+01    2.47783E+00
 1.40000E+01    3.05417E+00
 1.45000E+01    3.68020E+00
 1.50000E+01    4.34670E+00
 1.55000E+01    5.04493E+00
 1.60000E+01    5.76501E+00
 1.65000E+01    6.49690E+00
 1.70000E+01    7.23845E+00
 1.75000E+01    7.97926E+00
 1.80000E+01    8.71713E+00
 1.85000E+01    9.44513E+00
 1.90000E+01    1.01635E+01
 1.95000E+01    1.08681E+01
 2.00000E+01    1.15582E+01
