# n + Sm150 : (n,t)     
# jendl.ad   N.Iwamoto                         EVAL-Apr14
# uncertainties: n
# # energies =    59
#   E(MeV)       xs(mb) 
 7.11146E+00    0.00000E+00
 7.18767E+00    1.78400E-22
 7.24958E+00    3.23330E-22
 7.25028E+00    3.24970E-22
 7.32821E+00    5.18570E-22
 7.33284E+00    5.30080E-22
 7.40542E+00    7.10390E-22
 7.41640E+00    7.37670E-22
 7.41821E+00    7.42170E-22
 7.42244E+00    7.52670E-22
 7.47730E+00    8.88970E-22
 7.49371E+00    9.29740E-22
 7.49935E+00    9.43750E-22
 7.50217E+00    9.50750E-22
 7.52381E+00    1.00450E-21
 7.52774E+00    1.01430E-21
 7.55452E+00    1.08080E-21
 7.56650E+00    1.11060E-21
 7.57657E+00    1.13560E-21
 7.64140E+00    1.29670E-21
 7.64442E+00    1.30420E-21
 7.65851E+00    1.33920E-21
 7.66083E+00    1.34490E-21
 7.66546E+00    1.35640E-21
 7.67653E+00    1.38390E-21
 7.67945E+00    1.39120E-21
 7.68841E+00    1.41340E-21
 7.72677E+00    1.50870E-21
 7.73835E+00    1.53750E-21
 7.75768E+00    1.58550E-21
 7.77157E+00    1.62000E-21
 7.77640E+00    1.63200E-21
 7.78546E+00    1.65460E-21
 7.78888E+00    1.66300E-21
 7.81617E+00    1.73080E-21
 8.50000E+00    3.42970E-21
 9.00000E+00    4.36220E-16
 9.50000E+00    9.35730E-13
 1.00000E+01    2.03140E-10
 1.05000E+01    1.08560E-08
 1.10000E+01    2.32280E-07
 1.15000E+01    2.65012E-06
 1.20000E+01    1.92747E-05
 1.25000E+01    1.00455E-04
 1.30000E+01    4.05443E-04
 1.35000E+01    1.33493E-03
 1.40000E+01    3.46127E-03
 1.45000E+01    8.83651E-03
 1.50000E+01    1.87088E-02
 1.55000E+01    3.49599E-02
 1.60000E+01    5.99997E-02
 1.65000E+01    9.53670E-02
 1.70000E+01    1.39763E-01
 1.75000E+01    1.94928E-01
 1.80000E+01    2.60150E-01
 1.85000E+01    3.34483E-01
 1.90000E+01    4.17001E-01
 1.95000E+01    5.02609E-01
 2.00000E+01    5.91917E-01
