# n + Sm150 : (n,g)     
# jendl.ad   N.Iwamoto                         EVAL-Apr14
# uncertainties: n
# # energies =    69
#   E(MeV)       xs(mb) 
 1.00000E-10    7.13073E+05
 5.00000E-09    1.93573E+05
 1.00000E-08    1.46234E+05
 1.50000E-08    1.22559E+05
 2.00000E-08    1.07550E+05
 2.50000E-08    9.69158E+04
 3.00000E-08    8.88769E+04
 3.50000E-08    8.14775E+04
 4.20000E-08    7.42373E+04
 5.00000E-08    6.81964E+04
 5.80000E-08    6.31199E+04
 6.70000E-08    5.79495E+04
 8.00000E-08    5.20149E+04
 1.00000E-07    4.46152E+04
 1.40000E-07    3.77611E+04
 1.80000E-07    3.30710E+04
 2.20000E-07    2.99471E+04
 2.50000E-07    2.77999E+04
 2.80000E-07    2.62519E+04
 3.00000E-07    2.51648E+04
 3.20000E-07    2.39418E+04
 3.50000E-07    2.22436E+04
 4.00000E-07    1.97044E+04
 5.00000E-07    1.67956E+04
 6.25000E-07    1.41909E+04
 7.80000E-07    1.25405E+04
 8.50000E-07    1.17644E+04
 9.10000E-07    1.12228E+04
 9.50000E-07    1.09105E+04
 9.72000E-07    1.06904E+04
 9.96000E-07    1.04689E+04
 1.02000E-06    1.02512E+04
 1.04500E-06    1.00339E+04
 1.07100E-06    9.81998E+03
 1.09700E-06    9.61421E+03
 1.12300E-06    9.41295E+03
 1.15000E-06    8.81188E+03
 1.30000E-06    7.77915E+03
 1.50000E-06    6.15806E+03
 2.10000E-06    4.60726E+03
 2.60000E-06    3.60680E+03
 3.30000E-06    2.85088E+03
 4.00000E-06    1.82937E+03
 9.87700E-06    2.45600E+03
 1.59680E-05    4.72589E+05
 2.77000E-05    2.10450E+04
 4.80520E-05    3.72360E+04
 7.55014E-05    7.27690E+03
 1.48728E-04    7.15741E+03
 3.67262E-04    5.76355E+03
 9.06898E-04    2.28551E+03
 1.42510E-03    1.83643E+03
 2.23945E-03    1.41592E+03
 3.51910E-03    1.02233E+03
 5.53000E-03    7.76381E+02
 9.11800E-03    6.02523E+02
 1.50300E-02    4.76829E+02
 2.47800E-02    3.83618E+02
 4.08500E-02    3.21353E+02
 6.73400E-02    2.84849E+02
 1.11000E-01    2.63758E+02
 1.83000E-01    2.49748E+02
 3.02000E-01    1.77089E+02
 5.00000E-01    1.32746E+02
 8.21000E-01    1.24794E+02
 1.35300E+00    8.90732E+01
 2.23100E+00    5.87167E+01
 3.67900E+00    2.13039E+01
 6.06500E+00    2.88010E+00
