# n + Cd110 : (n,el)    
# jendl4.0   S.Kunieda, A.Ichihara, K.Shibata+ EVAL-FEB22
# uncertainties: n
# # energies =   171
#   E(MeV)       xs(mb) 
 1.00000E-11    9.18100E+03
 1.00000E-07    5.35561E+03
 4.13990E-07    5.33167E+03
 5.31580E-07    5.31992E+03
 6.82560E-07    5.30484E+03
 8.76420E-07    5.28642E+03
 1.12540E-06    5.26392E+03
 1.44500E-06    5.23504E+03
 1.85540E-06    5.19906E+03
 2.37240E-06    5.15803E+03
 3.05900E-06    5.10603E+03
 3.92790E-06    5.03997E+03
 5.04350E-06    4.96653E+03
 6.47600E-06    4.87899E+03
 8.31530E-06    4.78043E+03
 1.06770E-05    4.66756E+03
 1.37100E-05    4.54408E+03
 1.76030E-05    4.40641E+03
 2.26030E-05    4.24616E+03
 2.92030E-05    4.05832E+03
 3.72670E-05    3.81593E+03
 4.78510E-05    3.42126E+03
 6.14420E-05    2.41017E+03
 7.88930E-05    1.49663E+05
 1.01300E-04    6.87267E+03
 1.30070E-04    5.31993E+03
 1.67020E-04    4.84198E+03
 2.14450E-04    4.88415E+03
 2.75360E-04    4.47263E+03
 3.53580E-04    5.01581E+03
 4.54000E-04    4.29733E+03
 5.82950E-04    3.94412E+03
 7.48520E-04    1.32621E+04
 9.61120E-04    4.32555E+03
 1.23410E-03    1.22355E+04
 1.58460E-03    5.82996E+03
 2.03470E-03    2.46201E+04
 2.24870E-03    1.97885E+04
 2.48520E-03    6.19867E+03
 2.61260E-03    5.41500E+03
 2.74650E-03    4.16072E+03
 3.03540E-03    1.27840E+04
 3.35460E-03    5.87249E+03
 3.70740E-03    7.83850E+03
 4.30740E-03    6.42637E+03
 5.53080E-03    6.99480E+03
 7.10170E-03    8.09788E+03
 9.11880E-03    7.87943E+03
 1.17090E-02    7.73230E+03
 1.50340E-02    7.59279E+03
 1.93050E-02    7.50062E+03
 2.18750E-02    7.47913E+03
 2.35790E-02    7.46953E+03
 2.41760E-02    7.46453E+03
 2.47880E-02    7.45683E+03
 2.60580E-02    7.44854E+03
 2.70000E-02    7.43995E+03
 2.85000E-02    7.42711E+03
 3.18280E-02    7.42797E+03
 3.43070E-02    7.43390E+03
 4.08680E-02    7.45184E+03
 4.63090E-02    7.47483E+03
 5.24750E-02    7.49753E+03
 5.65620E-02    7.52965E+03
 6.73790E-02    7.56448E+03
 7.20000E-02    7.58989E+03
 7.95000E-02    7.61185E+03
 8.25000E-02    7.62552E+03
 8.65170E-02    7.65406E+03
 9.80370E-02    7.69244E+03
 1.11090E-01    7.71643E+03
 1.16790E-01    7.72998E+03
 1.22770E-01    7.74102E+03
 1.29070E-01    7.75200E+03
 1.35690E-01    7.76329E+03
 1.42640E-01    7.77252E+03
 1.49960E-01    7.78152E+03
 1.57640E-01    7.79018E+03
 1.65730E-01    7.79695E+03
 1.74220E-01    7.80370E+03
 1.83160E-01    7.80813E+03
 1.92550E-01    7.81181E+03
 2.02420E-01    7.81164E+03
 2.12800E-01    7.80972E+03
 2.23710E-01    7.80771E+03
 2.35180E-01    7.80559E+03
 2.47240E-01    7.79420E+03
 2.73240E-01    7.77541E+03
 2.87250E-01    7.76602E+03
 2.94520E-01    7.76164E+03
 2.97200E-01    7.75989E+03
 2.98500E-01    7.75742E+03
 3.01970E-01    7.73177E+03
 3.33730E-01    7.68209E+03
 3.68830E-01    7.64160E+03
 3.87740E-01    7.61275E+03
 4.07620E-01    7.56316E+03
 4.50490E-01    7.48756E+03
 4.97870E-01    7.42593E+03
 5.23400E-01    7.38202E+03
 5.50230E-01    7.33586E+03
 5.78440E-01    7.28734E+03
 6.08100E-01    7.23632E+03
 6.39280E-01    7.14760E+03
 6.72060E-01    6.93874E+03
 7.06510E-01    6.71015E+03
 7.42740E-01    6.48551E+03
 7.80820E-01    6.28466E+03
 8.20850E-01    6.10606E+03
 8.62940E-01    5.94340E+03
 9.07180E-01    5.78156E+03
 9.61640E-01    5.64339E+03
 1.00260E+00    5.45820E+03
 1.10800E+00    5.26809E+03
 1.16480E+00    5.14839E+03
 1.22460E+00    5.02374E+03
 1.28730E+00    4.90522E+03
 1.35340E+00    4.78309E+03
 1.42270E+00    4.61904E+03
 1.49570E+00    4.44123E+03
 1.57240E+00    4.26563E+03
 1.65300E+00    4.08474E+03
 1.73770E+00    3.90152E+03
 1.82680E+00    3.70709E+03
 1.92050E+00    3.51100E+03
 2.01900E+00    3.33872E+03
 2.12250E+00    3.17309E+03
 2.23130E+00    2.98392E+03
 2.30690E+00    2.86000E+03
 2.34570E+00    2.79871E+03
 2.36530E+00    2.75773E+03
 2.38520E+00    2.68478E+03
 2.46600E+00    2.58011E+03
 2.59240E+00    2.46151E+03
 2.72530E+00    2.34970E+03
 2.86500E+00    2.24595E+03
 3.01190E+00    2.15209E+03
 3.16640E+00    2.06469E+03
 3.32870E+00    1.95033E+03
 3.67880E+00    1.82760E+03
 4.06570E+00    1.74648E+03
 4.49330E+00    1.71265E+03
 4.72370E+00    1.70356E+03
 4.96590E+00    1.70693E+03
 5.22050E+00    1.72037E+03
 5.48810E+00    1.74213E+03
 5.76950E+00    1.77406E+03
 6.06530E+00    1.81345E+03
 6.37630E+00    1.85143E+03
 6.59240E+00    1.87500E+03
 6.70320E+00    1.90879E+03
 7.04690E+00    1.96190E+03
 7.40820E+00    2.01774E+03
 7.78800E+00    2.07327E+03
 8.18730E+00    2.12796E+03
 8.60710E+00    2.17976E+03
 9.04840E+00    2.22730E+03
 9.51230E+00    2.27045E+03
 1.00000E+01    2.30499E+03
 1.05130E+01    2.33327E+03
 1.10520E+01    2.35232E+03
 1.16180E+01    2.36404E+03
 1.22140E+01    2.36385E+03
 1.28400E+01    2.35521E+03
 1.34990E+01    2.34005E+03
 1.38400E+01    2.32848E+03
 1.41910E+01    2.31110E+03
 1.45500E+01    2.29304E+03
 1.49180E+01    2.26021E+03
 1.56830E+01    2.20818E+03
 1.64870E+01    2.14793E+03
