# n + Cd110 : (n,xn)    
# jendl4.0   S.Kunieda, A.Ichihara, K.Shibata+ EVAL-FEB22
# 
# # energies =    60
#   E(MeV)        xs(mb) 
 6.63801E-01    0.00000E+00
 7.00000E-01    2.78500E+02
 7.50000E-01    5.27100E+02
 8.00000E-01    6.96700E+02
 8.50000E-01    8.15500E+02
 9.00000E-01    9.02400E+02
 9.50000E-01    9.66400E+02
 1.00000E+00    1.01500E+03
 1.20000E+00    1.12900E+03
 1.40000E+00    1.18600E+03
 1.48664E+00    1.13098E+03
 1.48934E+00    1.13118E+03
 1.55661E+00    1.26639E+03
 1.60000E+00    1.38351E+03
 1.74722E+00    1.49929E+03
 1.79985E+00    1.56727E+03
 1.80000E+00    1.56981E+03
 1.82609E+00    1.57572E+03
 2.00000E+00    1.77274E+03
 2.09774E+00    1.77518E+03
 2.09794E+00    1.77523E+03
 2.18267E+00    1.85895E+03
 2.20000E+00    1.88765E+03
 2.24045E+00    1.91573E+03
 2.27120E+00    1.94439E+03
 2.30844E+00    1.98788E+03
 2.35348E+00    2.05950E+03
 2.36357E+00    2.07990E+03
 2.40000E+00    2.15903E+03
 2.60000E+00    2.20188E+03
 2.80000E+00    2.22671E+03
 3.00000E+00    2.23933E+03
 3.25000E+00    2.24406E+03
 3.50000E+00    2.25081E+03
 3.75000E+00    2.25567E+03
 4.00000E+00    2.26359E+03
 4.25000E+00    2.27135E+03
 4.50000E+00    2.27942E+03
 4.75000E+00    2.28619E+03
 5.00000E+00    2.29079E+03
 5.50000E+00    2.29128E+03
 6.00000E+00    2.27959E+03
 6.50000E+00    2.25765E+03
 7.00000E+00    2.23012E+03
 7.50000E+00    2.20117E+03
 8.00000E+00    2.17432E+03
 8.50000E+00    2.15162E+03
 9.00000E+00    2.13323E+03
 9.50000E+00    2.11885E+03
 1.00000E+01    2.10712E+03
 1.10000E+01    2.54271E+03
 1.20000E+01    3.08866E+03
 1.30000E+01    3.38041E+03
 1.40000E+01    3.51980E+03
 1.50000E+01    3.56890E+03
 1.60000E+01    3.56667E+03
 1.70000E+01    3.53629E+03
 1.80000E+01    3.48965E+03
 1.90000E+01    3.45853E+03
 2.00000E+01    3.48129E+03
