# n + Cd110 : (n,non)   
# jendl4.0   S.Kunieda, A.Ichihara, K.Shibata+ EVAL-FEB22
# uncertainties: n
# # energies =   101
#   E(MeV)       xs(mb) 
 7.00000E-03    0.00000E+00
 7.00000E-03    5.30800E+02
 8.00000E-03    4.98200E+02
 9.00000E-03    4.69900E+02
 1.00000E-02    4.45100E+02
 1.25000E-02    3.91085E+02
 1.50000E-02    3.51854E+02
 2.00000E-02    2.97800E+02
 2.50000E-02    2.57899E+02
 3.00000E-02    2.29300E+02
 3.50000E-02    2.07384E+02
 4.00000E-02    1.90100E+02
 5.00000E-02    1.65100E+02
 6.00000E-02    1.48100E+02
 7.00000E-02    1.35700E+02
 8.00000E-02    1.26900E+02
 9.00000E-02    1.20200E+02
 1.00000E-01    1.15000E+02
 1.20000E-01    1.07500E+02
 1.40000E-01    1.02400E+02
 1.60000E-01    9.87600E+01
 1.80000E-01    9.59800E+01
 2.00000E-01    9.42200E+01
 2.50000E-01    9.22500E+01
 3.00000E-01    9.22300E+01
 3.50000E-01    9.36200E+01
 4.00000E-01    9.53400E+01
 4.50000E-01    9.77500E+01
 5.00000E-01    1.00100E+02
 5.50000E-01    1.03000E+02
 6.00000E-01    1.05600E+02
 6.50000E-01    1.08900E+02
 6.63801E-01    9.91305E+01
 7.00000E-01    3.56670E+02
 7.50000E-01    5.93880E+02
 8.00000E-01    7.57870E+02
 8.50000E-01    8.73790E+02
 9.00000E-01    9.58770E+02
 9.50000E-01    1.02202E+03
 1.00000E+00    1.07016E+03
 1.20000E+00    1.18683E+03
 1.40000E+00    1.25104E+03
 1.48664E+00    1.19399E+03
 1.48934E+00    1.19413E+03
 1.55661E+00    1.32789E+03
 1.60000E+00    1.44412E+03
 1.74722E+00    1.55670E+03
 1.79985E+00    1.62365E+03
 1.80000E+00    1.62618E+03
 1.82609E+00    1.63119E+03
 2.00000E+00    1.82286E+03
 2.09774E+00    1.82409E+03
 2.09794E+00    1.82414E+03
 2.12946E+00    1.85492E+03
 2.18267E+00    1.90688E+03
 2.20000E+00    1.93539E+03
 2.24045E+00    1.96238E+03
 2.27120E+00    1.99025E+03
 2.30844E+00    2.03280E+03
 2.35348E+00    2.10333E+03
 2.36357E+00    2.12349E+03
 2.40000E+00    2.20179E+03
 2.60000E+00    2.23966E+03
 2.80000E+00    2.26030E+03
 2.90182E+00    2.26500E+03
 3.00000E+00    2.26967E+03
 3.25000E+00    2.27209E+03
 3.50000E+00    2.27529E+03
 3.75000E+00    2.27834E+03
 4.00000E+00    2.28405E+03
 4.25000E+00    2.28991E+03
 4.50000E+00    2.29620E+03
 4.75000E+00    2.30122E+03
 5.00000E+00    2.30431E+03
 5.50000E+00    2.30197E+03
 6.00000E+00    2.28792E+03
 6.50000E+00    2.26416E+03
 6.75617E+00    2.24939E+03
 7.00000E+00    2.23534E+03
 7.50000E+00    2.20563E+03
 7.75915E+00    2.19153E+03
 8.00000E+00    2.17843E+03
 8.50000E+00    2.15580E+03
 9.00000E+00    2.13790E+03
 9.00115E+00    2.13787E+03
 9.50000E+00    2.12442E+03
 9.71802E+00    2.11992E+03
 1.00000E+01    2.11411E+03
 1.00069E+01    2.11087E+03
 1.10000E+01    2.09914E+03
 1.20000E+01    2.08700E+03
 1.30000E+01    2.07764E+03
 1.40000E+01    2.06754E+03
 1.50000E+01    2.05603E+03
 1.60000E+01    2.04262E+03
 1.60327E+01    2.04216E+03
 1.70000E+01    2.02859E+03
 1.74016E+01    2.02202E+03
 1.80000E+01    2.01293E+03
 1.90000E+01    1.99797E+03
 2.00000E+01    1.98359E+03
