# n + Cd110 : (n,xh)    
# jendl4.0   S.Kunieda, A.Ichihara, K.Shibata+ EVAL-FEB22
# 
# # energies =    60
#   E(MeV)        xs(mb) 
 6.63801E-01    0.00000E+00
 7.00000E-01    0.00000E+00
 7.50000E-01    0.00000E+00
 8.00000E-01    0.00000E+00
 8.50000E-01    0.00000E+00
 9.00000E-01    0.00000E+00
 9.50000E-01    0.00000E+00
 1.00000E+00    0.00000E+00
 1.20000E+00    0.00000E+00
 1.40000E+00    0.00000E+00
 1.48664E+00    0.00000E+00
 1.48934E+00    0.00000E+00
 1.55661E+00    0.00000E+00
 1.60000E+00    0.00000E+00
 1.74722E+00    0.00000E+00
 1.79985E+00    0.00000E+00
 1.80000E+00    0.00000E+00
 1.82609E+00    0.00000E+00
 2.00000E+00    0.00000E+00
 2.09774E+00    0.00000E+00
 2.09794E+00    0.00000E+00
 2.18267E+00    0.00000E+00
 2.20000E+00    0.00000E+00
 2.24045E+00    0.00000E+00
 2.27120E+00    0.00000E+00
 2.30844E+00    0.00000E+00
 2.35348E+00    0.00000E+00
 2.36357E+00    0.00000E+00
 2.40000E+00    0.00000E+00
 2.60000E+00    0.00000E+00
 2.80000E+00    0.00000E+00
 3.00000E+00    0.00000E+00
 3.25000E+00    0.00000E+00
 3.50000E+00    0.00000E+00
 3.75000E+00    0.00000E+00
 4.00000E+00    0.00000E+00
 4.25000E+00    0.00000E+00
 4.50000E+00    0.00000E+00
 4.75000E+00    0.00000E+00
 5.00000E+00    0.00000E+00
 5.50000E+00    0.00000E+00
 6.00000E+00    0.00000E+00
 6.50000E+00    0.00000E+00
 7.00000E+00    0.00000E+00
 7.50000E+00    0.00000E+00
 8.00000E+00    0.00000E+00
 8.50000E+00    1.76800E-29
 9.00000E+00    3.08200E-24
 9.50000E+00    6.83700E-21
 1.00000E+01    1.86200E-18
 1.10000E+01    5.65200E-15
 1.20000E+01    1.96700E-12
 1.30000E+01    1.60700E-10
 1.40000E+01    2.91700E-09
 1.50000E+01    2.20500E-08
 1.60000E+01    1.75300E-07
 1.70000E+01    3.02600E-06
 1.80000E+01    3.88500E-05
 1.90000E+01    3.01700E-04
 2.00000E+01    1.58400E-03
