# n + Mo 94 : (n,el)    
# jendl4.0   K.Shibata, A.Ichihara, S.Kunieda+ EVAL-MAR09
# uncertainties: n
# # energies =    69
#   E(MeV)       xs(mb) 
 1.00000E-10    7.62097E+03
 5.00000E-09    5.94078E+03
 1.00000E-08    5.89169E+03
 1.50000E-08    5.87245E+03
 2.00000E-08    5.86212E+03
 2.50000E-08    5.85558E+03
 3.00000E-08    5.85099E+03
 3.50000E-08    5.84738E+03
 4.20000E-08    5.84379E+03
 5.00000E-08    5.84136E+03
 5.80000E-08    5.83941E+03
 6.70000E-08    5.83717E+03
 8.00000E-08    5.83551E+03
 1.00000E-07    5.83305E+03
 1.40000E-07    5.83146E+03
 1.80000E-07    5.83033E+03
 2.20000E-07    5.82935E+03
 2.50000E-07    5.82878E+03
 2.80000E-07    5.82861E+03
 3.00000E-07    5.82848E+03
 3.20000E-07    5.82832E+03
 3.50000E-07    5.82806E+03
 4.00000E-07    5.82758E+03
 5.00000E-07    5.82685E+03
 6.25000E-07    5.82594E+03
 7.80000E-07    5.82537E+03
 8.50000E-07    5.82524E+03
 9.10000E-07    5.82515E+03
 9.50000E-07    5.82509E+03
 9.72000E-07    5.82504E+03
 9.96000E-07    5.82499E+03
 1.02000E-06    5.82495E+03
 1.04500E-06    5.82490E+03
 1.07100E-06    5.82485E+03
 1.09700E-06    5.82480E+03
 1.12300E-06    5.82475E+03
 1.15000E-06    5.82458E+03
 1.30000E-06    5.82424E+03
 1.50000E-06    5.82349E+03
 2.10000E-06    5.82241E+03
 2.60000E-06    5.82126E+03
 3.30000E-06    5.81989E+03
 4.00000E-06    5.81434E+03
 9.87700E-06    5.80236E+03
 1.59680E-05    5.78564E+03
 2.77000E-05    5.75556E+03
 4.80520E-05    5.72265E+03
 7.55014E-05    5.67372E+03
 1.48728E-04    5.59512E+03
 3.67262E-04    5.47968E+03
 9.06898E-04    5.25955E+03
 1.42510E-03    8.70399E+03
 2.23945E-03    5.19873E+03
 3.51910E-03    1.61944E+04
 5.53000E-03    7.35358E+03
 9.11800E-03    1.04921E+04
 1.50300E-02    7.78237E+03
 2.47800E-02    8.38106E+03
 4.08500E-02    8.65973E+03
 6.73400E-02    8.97998E+03
 1.11000E-01    9.20713E+03
 1.83000E-01    9.15269E+03
 3.02000E-01    8.60392E+03
 5.00000E-01    7.72421E+03
 8.21000E-01    5.96749E+03
 1.35300E+00    4.15411E+03
 2.23100E+00    2.49611E+03
 3.67900E+00    1.98745E+03
 6.06500E+00    2.36070E+03
