# n + Mo 94 : (n,n'10)  
# jendl4.0   K.Shibata, A.Ichihara, S.Kunieda+ EVAL-MAR09
# uncertainties: n
# # energies =    28
#   E(MeV)       xs(mb) 
 2.44949E+00    0.00000E+00
 2.50000E+00    3.50500E-01
 3.00000E+00    3.40100E+00
 3.50000E+00    8.18100E+00
 4.00000E+00    1.20800E+01
 4.50000E+00    1.21700E+01
 5.00000E+00    9.99100E+00
 5.50000E+00    7.64600E+00
 6.00000E+00    5.65300E+00
 6.50000E+00    4.77800E+00
 7.00000E+00    3.27700E+00
 7.50000E+00    3.43600E+00
 8.00000E+00    2.28300E+00
 8.50000E+00    3.06500E+00
 9.00000E+00    1.93800E+00
 9.50000E+00    3.09300E+00
 1.00000E+01    1.86700E+00
 1.10000E+01    1.89900E+00
 1.20000E+01    1.96000E+00
 1.30000E+01    2.02400E+00
 1.40000E+01    2.08900E+00
 1.45000E+01    1.81400E+00
 1.50000E+01    2.16200E+00
 1.60000E+01    3.61600E+00
 1.70000E+01    3.74900E+00
 1.80000E+01    3.87900E+00
 1.90000E+01    4.00200E+00
 2.00000E+01    4.11500E+00
