# n + La138 : (n,na)g   
# jendl.ad   N.Iwamoto                         EVAL-Apr14
# uncertainties: n
# # energies =    34
#   E(MeV)       xs(mb) 
 2.07347E+00    0.00000E+00
 2.21323E+00    1.56410E-25
 4.50000E+00    2.71560E-24
 5.00000E+00    1.87770E-19
 5.50000E+00    7.27430E-16
 6.00000E+00    4.21280E-13
 6.50000E+00    6.34320E-11
 7.00000E+00    3.53930E-09
 7.50000E+00    9.35460E-08
 8.00000E+00    7.17690E-07
 8.50000E+00    3.96601E-06
 9.00000E+00    1.28281E-05
 9.50000E+00    2.98305E-05
 1.00000E+01    7.77749E-05
 1.05000E+01    2.15390E-04
 1.10000E+01    5.69899E-04
 1.15000E+01    1.39495E-03
 1.20000E+01    3.14070E-03
 1.25000E+01    6.57440E-03
 1.30000E+01    1.28620E-02
 1.35000E+01    2.38068E-02
 1.40000E+01    4.19115E-02
 1.45000E+01    7.06530E-02
 1.50000E+01    1.14577E-01
 1.55000E+01    1.76175E-01
 1.60000E+01    2.67482E-01
 1.65000E+01    3.90154E-01
 1.70000E+01    5.54311E-01
 1.75000E+01    7.49725E-01
 1.80000E+01    9.74745E-01
 1.85000E+01    1.22020E+00
 1.90000E+01    1.48752E+00
 1.95000E+01    1.74236E+00
 2.00000E+01    2.02627E+00
