# n + La138 : (n,g)     
# jendl.ad   N.Iwamoto                         EVAL-Apr14
# uncertainties: n
# # energies =    69
#   E(MeV)       xs(mb) 
 1.00000E-10    3.97155E+05
 5.00000E-09    1.08245E+05
 1.00000E-08    8.20435E+04
 1.50000E-08    6.89816E+04
 2.00000E-08    6.07302E+04
 2.50000E-08    5.49045E+04
 3.00000E-08    5.05009E+04
 3.50000E-08    4.64635E+04
 4.20000E-08    4.25411E+04
 5.00000E-08    3.92888E+04
 5.80000E-08    3.65580E+04
 6.70000E-08    3.37852E+04
 8.00000E-08    3.06438E+04
 1.00000E-07    2.67777E+04
 1.40000E-07    2.32492E+04
 1.80000E-07    2.08947E+04
 2.20000E-07    1.93660E+04
 2.50000E-07    1.83307E+04
 2.80000E-07    1.75938E+04
 3.00000E-07    1.70809E+04
 3.20000E-07    1.65161E+04
 3.50000E-07    1.57493E+04
 4.00000E-07    1.46514E+04
 5.00000E-07    1.34797E+04
 6.25000E-07    1.25660E+04
 7.80000E-07    1.20994E+04
 8.50000E-07    1.19365E+04
 9.10000E-07    1.18509E+04
 9.50000E-07    1.18148E+04
 9.72000E-07    1.17966E+04
 9.96000E-07    1.17840E+04
 1.02000E-06    1.17781E+04
 1.04500E-06    1.17816E+04
 1.07100E-06    1.17943E+04
 1.09700E-06    1.18129E+04
 1.12300E-06    1.18408E+04
 1.15000E-06    1.20113E+04
 1.30000E-06    1.26552E+04
 1.50000E-06    1.68991E+04
 2.10000E-06    4.60837E+04
 2.60000E-06    1.14499E+06
 3.30000E-06    4.44318E+04
 4.00000E-06    3.57011E+03
 9.87700E-06    9.13935E+02
 1.59680E-05    3.46828E+04
 2.77000E-05    1.98536E+02
 4.80520E-05    1.38142E+04
 7.55014E-05    1.18796E+04
 1.48728E-04    1.11321E+04
 3.67262E-04    6.11280E+03
 9.06898E-04    3.50170E+03
 1.42510E-03    2.49732E+03
 2.23945E-03    1.78237E+03
 3.51910E-03    1.28846E+03
 5.53000E-03    9.57158E+02
 9.11800E-03    7.13481E+02
 1.50300E-02    5.35106E+02
 2.47800E-02    3.96172E+02
 4.08500E-02    2.91261E+02
 6.73400E-02    2.10803E+02
 1.11000E-01    1.52278E+02
 1.83000E-01    1.12295E+02
 3.02000E-01    8.53277E+01
 5.00000E-01    7.15734E+01
 8.21000E-01    4.55866E+01
 1.35300E+00    1.98840E+01
 2.23100E+00    8.22415E+00
 3.67900E+00    2.56370E+00
 6.06500E+00    9.42977E-01
