# n + La138 : (n,na)m   
# jendl.ad   N.Iwamoto                         EVAL-Apr14
# uncertainties: n
# # energies =    33
#   E(MeV)       xs(mb) 
 2.21323E+00    0.00000E+00
 4.50000E+00    3.35240E-26
 5.00000E+00    6.75710E-21
 5.50000E+00    4.71100E-17
 6.00000E+00    3.89630E-14
 6.50000E+00    7.49000E-12
 7.00000E+00    5.03770E-10
 7.50000E+00    1.53660E-08
 8.00000E+00    2.14740E-07
 8.50000E+00    1.84987E-06
 9.00000E+00    7.44191E-06
 9.50000E+00    1.65747E-05
 1.00000E+01    4.00469E-05
 1.05000E+01    1.07853E-04
 1.10000E+01    2.87898E-04
 1.15000E+01    7.18516E-04
 1.20000E+01    1.65097E-03
 1.25000E+01    3.51335E-03
 1.30000E+01    6.94774E-03
 1.35000E+01    1.28765E-02
 1.40000E+01    2.24424E-02
 1.45000E+01    3.72534E-02
 1.50000E+01    5.90849E-02
 1.55000E+01    8.98034E-02
 1.60000E+01    1.29805E-01
 1.65000E+01    1.78998E-01
 1.70000E+01    2.39730E-01
 1.75000E+01    3.05432E-01
 1.80000E+01    3.78082E-01
 1.85000E+01    4.53205E-01
 1.90000E+01    5.33675E-01
 1.95000E+01    6.12785E-01
 2.00000E+01    6.97158E-01
