# n + La138 : (n,np)    
# jendl.ad   N.Iwamoto                         EVAL-Apr14
# uncertainties: n
# # energies =    28
#   E(MeV)       xs(mb) 
 6.13698E+00    0.00000E+00
 6.80348E+00    3.67620E-10
 7.50000E+00    7.56670E-10
 8.00000E+00    6.58680E-08
 8.50000E+00    1.95560E-06
 9.00000E+00    3.35314E-05
 9.50000E+00    3.16802E-04
 1.00000E+01    1.84130E-03
 1.05000E+01    7.56545E-03
 1.10000E+01    2.40270E-02
 1.15000E+01    6.28256E-02
 1.20000E+01    1.40899E-01
 1.25000E+01    2.81680E-01
 1.30000E+01    5.13054E-01
 1.35000E+01    8.69813E-01
 1.40000E+01    1.38695E+00
 1.45000E+01    2.10039E+00
 1.50000E+01    3.02560E+00
 1.55000E+01    4.28408E+00
 1.60000E+01    5.81861E+00
 1.65000E+01    7.63637E+00
 1.70000E+01    9.76639E+00
 1.75000E+01    1.22068E+01
 1.80000E+01    1.48101E+01
 1.85000E+01    1.77679E+01
 1.90000E+01    2.07685E+01
 1.95000E+01    2.42262E+01
 2.00000E+01    2.75316E+01
