# n + La138 : (n,na)    
# jendl.ad   N.Iwamoto                         EVAL-Apr14
# uncertainties: n
# # energies =    34
#   E(MeV)       xs(mb) 
 2.07347E+00    0.00000E+00
 2.21323E+00    1.56410E-25
 4.50000E+00    2.74920E-24
 5.00000E+00    1.94520E-19
 5.50000E+00    7.74540E-16
 6.00000E+00    4.60250E-13
 6.50000E+00    7.09210E-11
 7.00000E+00    4.04310E-09
 7.50000E+00    1.08910E-07
 8.00000E+00    9.32430E-07
 8.50000E+00    5.81588E-06
 9.00000E+00    2.02700E-05
 9.50000E+00    4.64052E-05
 1.00000E+01    1.17822E-04
 1.05000E+01    3.23243E-04
 1.10000E+01    8.57797E-04
 1.15000E+01    2.11347E-03
 1.20000E+01    4.79167E-03
 1.25000E+01    1.00878E-02
 1.30000E+01    1.98097E-02
 1.35000E+01    3.66833E-02
 1.40000E+01    6.43539E-02
 1.45000E+01    1.07906E-01
 1.50000E+01    1.73662E-01
 1.55000E+01    2.65978E-01
 1.60000E+01    3.97287E-01
 1.65000E+01    5.69152E-01
 1.70000E+01    7.94041E-01
 1.75000E+01    1.05516E+00
 1.80000E+01    1.35283E+00
 1.85000E+01    1.67340E+00
 1.90000E+01    2.02119E+00
 1.95000E+01    2.35514E+00
 2.00000E+01    2.72343E+00
