# n + La138 : (n,n')    
# jendl.ad   N.Iwamoto                         EVAL-Apr14
# uncertainties: n
# # energies =   110
#   E(MeV)       xs(mb) 
 7.31008E-02    0.00000E+00
 8.00000E-02    1.28274E+01
 9.00000E-02    2.95801E+01
 1.00000E-01    4.46559E+01
 1.05000E-01    5.13418E+01
 1.10000E-01    5.80294E+01
 1.17020E-01    6.63009E+01
 1.20000E-01    7.01965E+01
 1.30000E-01    8.21239E+01
 1.40000E-01    9.28532E+01
 1.50000E-01    1.02194E+02
 1.60000E-01    1.10847E+02
 1.62359E-01    1.12968E+02
 1.70000E-01    1.24142E+02
 1.80000E-01    1.37623E+02
 1.90000E-01    1.50385E+02
 1.93596E-01    1.54798E+02
 2.00000E-01    1.62784E+02
 2.25000E-01    1.91000E+02
 2.32095E-01    1.98018E+02
 2.50000E-01    3.01203E+02
 2.75000E-01    3.64115E+02
 2.95123E-01    4.02735E+02
 3.00000E-01    4.10809E+02
 4.00000E-01    5.19999E+02
 4.16333E-01    5.38711E+02
 4.82846E-01    6.13138E+02
 5.00000E-01    6.51432E+02
 5.14183E-01    6.71976E+02
 5.14184E-01    6.71978E+02
 5.22474E-01    6.83777E+02
 6.00000E-01    8.02953E+02
 6.47038E-01    8.54135E+02
 7.00000E-01    9.17741E+02
 7.43086E-01    9.63032E+02
 7.44103E-01    9.64040E+02
 8.00000E-01    1.02801E+03
 8.29392E-01    1.05634E+03
 8.42115E-01    1.06837E+03
 8.48954E-01    1.08488E+03
 8.94495E-01    1.15300E+03
 9.00000E-01    1.16008E+03
 9.07187E-01    1.16907E+03
 9.35795E-01    1.20581E+03
 9.43753E-01    1.21533E+03
 9.54722E-01    1.23719E+03
 9.68432E-01    1.26915E+03
 1.00000E+00    1.35264E+03
 1.04056E+00    1.42402E+03
 1.06562E+00    1.46026E+03
 1.07480E+00    1.47234E+03
 1.10000E+00    1.50879E+03
 1.10402E+00    1.51397E+03
 1.11066E+00    1.52241E+03
 1.15841E+00    1.57520E+03
 1.16345E+00    1.58006E+03
 1.18662E+00    1.60238E+03
 1.20000E+00    1.61416E+03
 1.20908E+00    1.62184E+03
 1.23748E+00    1.64510E+03
 1.23749E+00    1.64511E+03
 1.25209E+00    1.65555E+03
 1.26418E+00    1.66438E+03
 1.27627E+00    1.67329E+03
 1.30000E+00    1.69282E+03
 1.40000E+00    1.77388E+03
 1.50000E+00    1.84919E+03
 1.60000E+00    1.91162E+03
 1.70000E+00    1.95883E+03
 1.80000E+00    1.99958E+03
 1.90000E+00    2.03136E+03
 2.00000E+00    2.06089E+03
 2.25000E+00    2.11628E+03
 2.50000E+00    2.17565E+03
 2.75000E+00    2.22642E+03
 3.00000E+00    2.27577E+03
 3.50000E+00    2.33038E+03
 4.00000E+00    2.33317E+03
 4.50000E+00    2.29147E+03
 5.00000E+00    2.23907E+03
 5.50000E+00    2.18917E+03
 6.00000E+00    2.14893E+03
 6.50000E+00    2.12252E+03
 7.00000E+00    2.10652E+03
 7.50000E+00    2.09694E+03
 8.00000E+00    2.00588E+03
 8.50000E+00    1.80828E+03
 9.00000E+00    1.53761E+03
 9.50000E+00    1.21377E+03
 1.00000E+01    9.22003E+02
 1.05000E+01    6.96832E+02
 1.10000E+01    5.35392E+02
 1.15000E+01    4.23287E+02
 1.20000E+01    3.44504E+02
 1.25000E+01    2.90017E+02
 1.30000E+01    2.51667E+02
 1.35000E+01    2.24513E+02
 1.40000E+01    2.07501E+02
 1.45000E+01    1.92305E+02
 1.50000E+01    1.80148E+02
 1.55000E+01    1.69488E+02
 1.60000E+01    1.61027E+02
 1.65000E+01    1.54748E+02
 1.70000E+01    1.48924E+02
 1.75000E+01    1.41951E+02
 1.80000E+01    1.36646E+02
 1.85000E+01    1.32684E+02
 1.90000E+01    1.28270E+02
 1.95000E+01    1.23179E+02
 2.00000E+01    1.19114E+02
