# n + La138 : (n,t)g    
# jendl.ad   N.Iwamoto                         EVAL-Apr14
# uncertainties: n
# # energies =    31
#   E(MeV)       xs(mb) 
 4.54927E+00    0.00000E+00
 6.00000E+00    1.10510E-17
 6.50000E+00    1.12400E-13
 6.59459E+00    6.58780E-12
 7.00000E+00    3.43410E-11
 7.50000E+00    1.54020E-09
 8.00000E+00    2.16830E-08
 8.50000E+00    1.47060E-07
 9.00000E+00    6.21220E-07
 9.50000E+00    1.90830E-06
 1.00000E+01    4.73042E-06
 1.05000E+01    1.16322E-05
 1.10000E+01    3.72068E-05
 1.15000E+01    1.48633E-04
 1.20000E+01    6.47345E-04
 1.25000E+01    1.84993E-03
 1.30000E+01    5.18331E-03
 1.35000E+01    1.24330E-02
 1.40000E+01    2.59415E-02
 1.45000E+01    4.79376E-02
 1.50000E+01    8.00194E-02
 1.55000E+01    1.22648E-01
 1.60000E+01    1.76624E-01
 1.65000E+01    2.42352E-01
 1.70000E+01    3.14914E-01
 1.75000E+01    3.96649E-01
 1.80000E+01    4.86066E-01
 1.85000E+01    5.78223E-01
 1.90000E+01    6.78629E-01
 1.95000E+01    7.76847E-01
 2.00000E+01    8.75749E-01
