# n + La138 : (n,xa)    
# jendl.ad   N.Iwamoto                         EVAL-Apr14
# 
# # energies =   110
#   E(MeV)        xs(mb) 
 7.31008E-02    1.94526E-04
 8.00000E-02    1.80322E-04
 9.00000E-02    1.68430E-04
 1.00000E-01    1.59035E-04
 1.05000E-01    1.56188E-04
 1.10000E-01    1.53342E-04
 1.17020E-01    1.49808E-04
 1.20000E-01    1.48356E-04
 1.30000E-01    1.44094E-04
 1.40000E-01    1.40647E-04
 1.50000E-01    1.37798E-04
 1.60000E-01    1.35512E-04
 1.62359E-01    1.35348E-04
 1.70000E-01    1.32801E-04
 1.80000E-01    1.31483E-04
 1.90000E-01    1.30164E-04
 1.93596E-01    1.29865E-04
 2.00000E-01    1.29334E-04
 2.25000E-01    1.27830E-04
 2.32095E-01    1.27506E-04
 2.50000E-01    1.19709E-04
 2.75000E-01    1.19644E-04
 2.95123E-01    1.20702E-04
 3.00000E-01    1.20959E-04
 4.00000E-01    1.31991E-04
 4.16333E-01    1.36364E-04
 4.82846E-01    1.54174E-04
 5.00000E-01    1.56639E-04
 5.14183E-01    1.59688E-04
 5.14184E-01    1.59689E-04
 5.22474E-01    1.61471E-04
 6.00000E-01    1.75806E-04
 6.47038E-01    1.89640E-04
 7.00000E-01    2.11934E-04
 7.43086E-01    2.32256E-04
 7.44103E-01    2.32736E-04
 8.00000E-01    2.58784E-04
 8.29392E-01    2.74563E-04
 8.42115E-01    2.81393E-04
 8.48954E-01    2.77188E-04
 8.94495E-01    2.89664E-04
 9.00000E-01    2.91413E-04
 9.07187E-01    2.94012E-04
 9.35795E-01    3.04358E-04
 9.43753E-01    3.07478E-04
 9.54722E-01    3.08243E-04
 9.68432E-01    3.08959E-04
 1.00000E+00    2.98267E-04
 1.04056E+00    3.07279E-04
 1.06562E+00    3.15357E-04
 1.07480E+00    3.18316E-04
 1.10000E+00    3.23395E-04
 1.10402E+00    3.24537E-04
 1.11066E+00    3.26970E-04
 1.15841E+00    3.46455E-04
 1.16345E+00    3.48553E-04
 1.18662E+00    3.59065E-04
 1.20000E+00    3.65569E-04
 1.20908E+00    3.70277E-04
 1.23748E+00    3.85003E-04
 1.23749E+00    3.85009E-04
 1.25209E+00    3.94077E-04
 1.26418E+00    4.01048E-04
 1.27627E+00    4.07483E-04
 1.30000E+00    4.19833E-04
 1.40000E+00    4.71080E-04
 1.50000E+00    5.19407E-04
 1.60000E+00    5.75828E-04
 1.70000E+00    6.41268E-04
 1.80000E+00    7.17420E-04
 1.90000E+00    8.03580E-04
 2.00000E+00    9.04489E-04
 2.25000E+00    1.26031E-03
 2.50000E+00    1.63932E-03
 2.75000E+00    2.24676E-03
 3.00000E+00    2.97908E-03
 3.50000E+00    4.94048E-03
 4.00000E+00    7.63630E-03
 4.50000E+00    1.10504E-02
 5.00000E+00    1.53323E-02
 5.50000E+00    2.07372E-02
 6.00000E+00    2.79626E-02
 6.50000E+00    3.80691E-02
 7.00000E+00    5.25130E-02
 7.50000E+00    7.34134E-02
 8.00000E+00    1.04030E-01
 8.50000E+00    1.47956E-01
 9.00000E+00    2.09662E-01
 9.50000E+00    2.92919E-01
 1.00000E+01    4.00160E-01
 1.05000E+01    5.35107E-01
 1.10000E+01    6.97048E-01
 1.15000E+01    8.83146E-01
 1.20000E+01    1.09430E+00
 1.25000E+01    1.32657E+00
 1.30000E+01    1.57549E+00
 1.35000E+01    1.83899E+00
 1.40000E+01    2.11300E+00
 1.45000E+01    2.39534E+00
 1.50000E+01    2.68303E+00
 1.55000E+01    2.97216E+00
 1.60000E+01    3.26567E+00
 1.65000E+01    3.55511E+00
 1.70000E+01    3.84575E+00
 1.75000E+01    4.12662E+00
 1.80000E+01    4.40770E+00
 1.85000E+01    4.67565E+00
 1.90000E+01    4.94998E+00
 1.95000E+01    5.20378E+00
 2.00000E+01    5.46471E+00
