# n + La138 : (n,d)g    
# jendl.ad   N.Iwamoto                         EVAL-Apr14
# uncertainties: n
# # energies =    33
#   E(MeV)       xs(mb) 
 3.89615E+00    0.00000E+00
 4.56265E+00    3.37560E-18
 5.00000E+00    5.59070E-18
 5.50000E+00    4.38490E-13
 6.00000E+00    2.79040E-10
 6.50000E+00    1.73140E-08
 7.00000E+00    2.87190E-07
 7.50000E+00    2.14068E-06
 8.00000E+00    1.09492E-05
 8.50000E+00    6.06193E-05
 9.00000E+00    3.68229E-04
 9.50000E+00    1.89083E-03
 1.00000E+01    6.38819E-03
 1.05000E+01    2.08036E-02
 1.10000E+01    5.54855E-02
 1.15000E+01    1.24941E-01
 1.20000E+01    2.26126E-01
 1.25000E+01    3.94570E-01
 1.30000E+01    6.22897E-01
 1.35000E+01    9.08989E-01
 1.40000E+01    1.24560E+00
 1.45000E+01    1.62508E+00
 1.50000E+01    2.03876E+00
 1.55000E+01    2.53036E+00
 1.60000E+01    2.90866E+00
 1.65000E+01    3.50160E+00
 1.70000E+01    3.93840E+00
 1.75000E+01    4.40499E+00
 1.80000E+01    4.87211E+00
 1.85000E+01    5.34340E+00
 1.90000E+01    5.68778E+00
 1.95000E+01    6.04071E+00
 2.00000E+01    6.35957E+00
