# n + Dy163 : (n,t)     
# jendl4.0   N.Iwamoto,S.Chiba                 EVAL-Nov09
# uncertainties: n
# # energies =    43
#   E(MeV)       xs(mb) 
 5.83269E+00    0.00000E+00
 5.88933E+00    2.78790E-27
 5.96720E+00    7.06820E-27
 6.06484E+00    1.24510E-26
 6.14955E+00    2.86130E-23
 6.22949E+00    5.74190E-23
 6.25250E+00    6.57480E-23
 6.31579E+00    8.87000E-23
 6.32449E+00    9.18550E-23
 6.33478E+00    9.55880E-23
 6.35591E+00    1.03250E-22
 6.39414E+00    1.17120E-22
 6.42030E+00    1.26610E-22
 6.42209E+00    1.27260E-22
 6.43841E+00    1.33180E-22
 6.47464E+00    1.46330E-22
 7.00000E+00    3.36920E-22
 7.50000E+00    2.43350E-19
 8.00000E+00    1.93130E-15
 8.50000E+00    6.86410E-13
 9.00000E+00    4.06520E-11
 9.50000E+00    8.09030E-10
 1.00000E+01    9.29790E-09
 1.05000E+01    9.88620E-08
 1.10000E+01    9.66480E-07
 1.15000E+01    7.34811E-06
 1.20000E+01    4.14359E-05
 1.25000E+01    1.80904E-04
 1.30000E+01    6.40025E-04
 1.35000E+01    1.87876E-03
 1.40000E+01    4.83174E-03
 1.45000E+01    1.09044E-02
 1.50000E+01    2.18943E-02
 1.55000E+01    3.94765E-02
 1.60000E+01    6.55025E-02
 1.65000E+01    1.01175E-01
 1.70000E+01    1.45096E-01
 1.75000E+01    1.98582E-01
 1.80000E+01    2.60857E-01
 1.85000E+01    3.29459E-01
 1.90000E+01    4.06739E-01
 1.95000E+01    4.87935E-01
 2.00000E+01    5.73299E-01
