# n + Dy163 : (n,n'40)  
# jendl4.0   N.Iwamoto,S.Chiba                 EVAL-Nov09
# uncertainties: n
# # energies =    51
#   E(MeV)       xs(mb) 
 8.89769E-01    0.00000E+00
 9.00000E-01    2.09947E+00
 1.00000E+00    8.92761E+00
 1.10000E+00    1.25027E+01
 1.20000E+00    1.41807E+01
 1.30000E+00    1.46880E+01
 1.40000E+00    1.45619E+01
 1.50000E+00    1.40442E+01
 1.60000E+00    1.32552E+01
 1.70000E+00    1.23217E+01
 1.80000E+00    1.12950E+01
 1.90000E+00    1.02332E+01
 2.00000E+00    9.15397E+00
 2.25000E+00    6.90565E+00
 2.50000E+00    4.86854E+00
 2.75000E+00    3.49104E+00
 3.00000E+00    2.44883E+00
 3.50000E+00    1.17312E+00
 4.00000E+00    5.52623E-01
 4.50000E+00    2.57555E-01
 5.00000E+00    1.19800E-01
 5.50000E+00    5.65505E-02
 6.00000E+00    2.78522E-02
 6.50000E+00    1.48591E-02
 7.00000E+00    8.98860E-03
 7.50000E+00    6.28334E-03
 8.00000E+00    4.95833E-03
 8.50000E+00    4.23879E-03
 9.00000E+00    3.79359E-03
 9.50000E+00    3.47979E-03
 1.00000E+01    3.23434E-03
 1.05000E+01    3.02965E-03
 1.10000E+01    2.84774E-03
 1.15000E+01    2.68673E-03
 1.20000E+01    2.53787E-03
 1.25000E+01    2.40310E-03
 1.30000E+01    2.27708E-03
 1.35000E+01    2.16188E-03
 1.40000E+01    2.05378E-03
 1.45000E+01    1.95433E-03
 1.50000E+01    1.86090E-03
 1.55000E+01    1.80456E-03
 1.60000E+01    1.72004E-03
 1.65000E+01    1.62099E-03
 1.70000E+01    1.57333E-03
 1.75000E+01    1.52755E-03
 1.80000E+01    1.46589E-03
 1.85000E+01    1.39074E-03
 1.90000E+01    1.32434E-03
 1.95000E+01    1.29458E-03
 2.00000E+01    1.26074E-03
