# n + Dy163 : (n,xp)    
# jendl4.0   N.Iwamoto,S.Chiba                 EVAL-Nov09
# 
# # energies =   117
#   E(MeV)        xs(mb) 
 7.38997E-02    0.00000E+00
 8.00000E-02    0.00000E+00
 9.00000E-02    0.00000E+00
 1.00000E-01    0.00000E+00
 1.05000E-01    0.00000E+00
 1.10000E-01    0.00000E+00
 1.20000E-01    0.00000E+00
 1.30000E-01    0.00000E+00
 1.40000E-01    0.00000E+00
 1.50000E-01    0.00000E+00
 1.60000E-01    0.00000E+00
 1.68375E-01    0.00000E+00
 1.70000E-01    0.00000E+00
 1.80000E-01    0.00000E+00
 1.90000E-01    0.00000E+00
 2.00000E-01    0.00000E+00
 2.25000E-01    0.00000E+00
 2.50000E-01    0.00000E+00
 2.52442E-01    0.00000E+00
 2.75000E-01    0.00000E+00
 2.83315E-01    0.00000E+00
 2.87363E-01    0.00000E+00
 3.00000E-01    0.00000E+00
 3.38627E-01    0.00000E+00
 3.38628E-01    0.00000E+00
 3.53324E-01    0.00000E+00
 3.92166E-01    0.00000E+00
 4.00000E-01    0.00000E+00
 4.14935E-01    0.00000E+00
 4.17811E-01    0.00000E+00
 4.24456E-01    0.00000E+00
 4.30328E-01    0.00000E+00
 4.52786E-01    0.00000E+00
 4.78331E-01    0.00000E+00
 5.00000E-01    0.00000E+00
 5.00278E-01    0.00000E+00
 5.17738E-01    0.00000E+00
 5.56444E-01    0.00000E+00
 5.69504E-01    0.00000E+00
 5.72231E-01    0.00000E+00
 5.91569E-01    0.00000E+00
 6.00000E-01    0.00000E+00
 6.15789E-01    0.00000E+00
 6.50250E-01    0.00000E+00
 6.64086E-01    0.00000E+00
 7.00000E-01    0.00000E+00
 7.09364E-01    0.00000E+00
 7.09365E-01    0.00000E+00
 7.15877E-01    0.00000E+00
 7.16408E-01    0.00000E+00
 7.22717E-01    0.00000E+00
 7.32104E-01    0.00000E+00
 7.42226E-01    0.00000E+00
 7.44581E-01    0.00000E+00
 7.70951E-01    0.00000E+00
 7.70952E-01    0.00000E+00
 7.85935E-01    0.00000E+00
 7.98306E-01    0.00000E+00
 8.00000E-01    0.00000E+00
 8.06273E-01    0.00000E+00
 8.25877E-01    0.00000E+00
 8.31919E-01    0.00000E+00
 8.56393E-01    0.00000E+00
 8.64607E-01    0.00000E+00
 8.88481E-01    0.00000E+00
 8.89768E-01    0.00000E+00
 8.89769E-01    0.00000E+00
 9.00000E-01    0.00000E+00
 1.00000E+00    0.00000E+00
 1.10000E+00    1.96293E-15
 1.20000E+00    4.61843E-15
 1.30000E+00    7.32324E-15
 1.40000E+00    1.01045E-14
 1.50000E+00    1.30393E-14
 1.60000E+00    1.63544E-14
 1.70000E+00    2.00934E-14
 1.80000E+00    2.38544E-14
 1.90000E+00    2.76154E-14
 2.00000E+00    3.13764E-14
 2.25000E+00    4.07790E-14
 2.50000E+00    3.33480E-12
 2.75000E+00    1.10990E-10
 3.00000E+00    1.68650E-09
 3.50000E+00    8.78090E-08
 4.00000E+00    1.30405E-06
 4.50000E+00    8.88520E-06
 5.00000E+00    3.60494E-05
 5.50000E+00    1.02280E-04
 6.00000E+00    2.18202E-04
 6.50000E+00    4.32557E-04
 7.00000E+00    8.81177E-04
 7.50000E+00    2.00698E-03
 8.00000E+00    4.92295E-03
 8.50000E+00    1.19870E-02
 9.00000E+00    2.75579E-02
 9.50000E+00    5.87633E-02
 1.00000E+01    1.15935E-01
 1.05000E+01    2.12362E-01
 1.10000E+01    3.62599E-01
 1.15000E+01    5.81502E-01
 1.20000E+01    8.80484E-01
 1.25000E+01    1.26987E+00
 1.30000E+01    1.75421E+00
 1.35000E+01    2.33907E+00
 1.40000E+01    3.02384E+00
 1.45000E+01    3.81155E+00
 1.50000E+01    4.69874E+00
 1.55000E+01    5.68654E+00
 1.60000E+01    6.77082E+00
 1.65000E+01    7.94999E+00
 1.70000E+01    9.22077E+00
 1.75000E+01    1.05781E+01
 1.80000E+01    1.20236E+01
 1.85000E+01    1.35424E+01
 1.90000E+01    1.51413E+01
 1.95000E+01    1.68023E+01
 2.00000E+01    1.85326E+01
