# n + Dy163 : (n,g)     
# jendl4.0   N.Iwamoto,S.Chiba                 EVAL-Nov09
# uncertainties: n
# # energies =   171
#   E(MeV)       xs(mb) 
 1.00000E-11    1.31748E+06
 1.00000E-07    5.29522E+04
 4.13990E-07    4.65666E+04
 5.31580E-07    5.02729E+04
 6.82560E-07    6.06071E+04
 8.76420E-07    9.03697E+04
 1.12540E-06    2.35675E+05
 1.44500E-06    3.93386E+06
 1.85540E-06    3.45546E+05
 2.37240E-06    3.28805E+04
 3.05900E-06    9.35196E+03
 3.92790E-06    4.06598E+03
 5.04350E-06    8.50838E+03
 6.47600E-06    1.75885E+03
 8.31530E-06    1.82208E+03
 1.06770E-05    3.94382E+03
 1.37100E-05    5.59410E+05
 1.76030E-05    2.63325E+04
 2.26030E-05    8.12102E+02
 2.92030E-05    4.96208E+04
 3.72670E-05    1.07638E+03
 4.78510E-05    1.74152E+05
 6.14420E-05    3.02747E+04
 7.88930E-05    2.90654E+04
 1.01300E-04    6.60358E+04
 1.30070E-04    3.82038E+04
 1.67020E-04    1.48822E+04
 2.14450E-04    3.13152E+04
 2.75360E-04    3.75138E+04
 3.53580E-04    1.77671E+04
 4.54000E-04    1.88589E+04
 5.82950E-04    1.46764E+04
 7.48520E-04    1.02582E+04
 9.61120E-04    9.03803E+03
 1.23410E-03    7.76435E+03
 1.58460E-03    6.46757E+03
 2.03470E-03    5.68429E+03
 2.24870E-03    5.28352E+03
 2.48520E-03    5.00079E+03
 2.61260E-03    4.82147E+03
 2.74650E-03    4.56505E+03
 3.03540E-03    4.24319E+03
 3.35460E-03    3.94411E+03
 3.70740E-03    3.60434E+03
 4.30740E-03    3.14866E+03
 5.53080E-03    2.66054E+03
 7.10170E-03    2.26690E+03
 9.11880E-03    1.95242E+03
 1.17090E-02    1.70609E+03
 1.50340E-02    1.49290E+03
 1.93050E-02    1.35081E+03
 2.18750E-02    1.28297E+03
 2.35790E-02    1.25047E+03
 2.41760E-02    1.23450E+03
 2.47880E-02    1.21100E+03
 2.60580E-02    1.18474E+03
 2.70000E-02    1.15784E+03
 2.85000E-02    1.11041E+03
 3.18280E-02    1.06014E+03
 3.43070E-02    9.96582E+02
 4.08680E-02    9.24796E+02
 4.63090E-02    8.69069E+02
 5.24750E-02    8.27420E+02
 5.65620E-02    7.78868E+02
 6.73790E-02    7.34742E+02
 7.20000E-02    6.90466E+02
 7.95000E-02    6.35984E+02
 8.25000E-02    6.14838E+02
 8.65170E-02    5.75125E+02
 9.80370E-02    5.24442E+02
 1.11090E-01    4.92996E+02
 1.16790E-01    4.76539E+02
 1.22770E-01    4.61325E+02
 1.29070E-01    4.46890E+02
 1.35690E-01    4.33270E+02
 1.42640E-01    4.20915E+02
 1.49960E-01    4.09210E+02
 1.57640E-01    3.98075E+02
 1.65730E-01    3.81727E+02
 1.74220E-01    3.62780E+02
 1.83160E-01    3.49071E+02
 1.92550E-01    3.36919E+02
 2.02420E-01    3.25917E+02
 2.12800E-01    3.15541E+02
 2.23710E-01    3.06020E+02
 2.35180E-01    2.97556E+02
 2.47240E-01    2.78628E+02
 2.73240E-01    2.54542E+02
 2.87250E-01    2.41560E+02
 2.94520E-01    2.34255E+02
 2.97200E-01    2.31336E+02
 2.98500E-01    2.28252E+02
 3.01970E-01    2.15599E+02
 3.33730E-01    1.93535E+02
 3.68830E-01    1.77272E+02
 3.87740E-01    1.65831E+02
 4.07620E-01    1.49596E+02
 4.50490E-01    1.26956E+02
 4.97870E-01    1.13194E+02
 5.23400E-01    1.06217E+02
 5.50230E-01    9.93670E+01
 5.78440E-01    9.27638E+01
 6.08100E-01    8.73826E+01
 6.39280E-01    8.29715E+01
 6.72060E-01    7.88587E+01
 7.06510E-01    7.47366E+01
 7.42740E-01    7.05681E+01
 7.80820E-01    6.71728E+01
 8.20850E-01    6.38083E+01
 8.62940E-01    6.08554E+01
 9.07180E-01    5.79834E+01
 9.61640E-01    5.55033E+01
 1.00260E+00    5.20279E+01
 1.10800E+00    4.84871E+01
 1.16480E+00    4.62852E+01
 1.22460E+00    4.41365E+01
 1.28730E+00    4.20828E+01
 1.35340E+00    4.01377E+01
 1.42270E+00    3.82899E+01
 1.49570E+00    3.64888E+01
 1.57240E+00    3.47176E+01
 1.65300E+00    3.30113E+01
 1.73770E+00    3.13644E+01
 1.82680E+00    2.97571E+01
 1.92050E+00    2.81756E+01
 2.01900E+00    2.66792E+01
 2.12250E+00    2.52645E+01
 2.23130E+00    2.40322E+01
 2.30690E+00    2.31256E+01
 2.34570E+00    2.26679E+01
 2.36530E+00    2.23833E+01
 2.38520E+00    2.16671E+01
 2.46600E+00    2.03137E+01
 2.59240E+00    1.88057E+01
 2.72530E+00    1.73418E+01
 2.86500E+00    1.58671E+01
 3.01190E+00    1.43643E+01
 3.16640E+00    1.28984E+01
 3.32870E+00    1.09375E+01
 3.67880E+00    8.49372E+00
 4.06570E+00    6.36802E+00
 4.49330E+00    4.99275E+00
 4.72370E+00    4.18205E+00
 4.96590E+00    3.48338E+00
 5.22050E+00    2.87398E+00
 5.48810E+00    2.36609E+00
 5.76950E+00    1.94388E+00
 6.06530E+00    1.61071E+00
 6.37630E+00    1.38328E+00
 6.59240E+00    1.27855E+00
 6.70320E+00    1.15935E+00
 7.04690E+00    1.03343E+00
 7.40820E+00    9.56929E-01
 7.78800E+00    9.29267E-01
 8.18730E+00    9.39846E-01
 8.60710E+00    9.77317E-01
 9.04840E+00    1.02961E+00
 9.51230E+00    1.08704E+00
 1.00000E+01    1.12950E+00
 1.05130E+01    1.16010E+00
 1.10520E+01    1.18111E+00
 1.16180E+01    1.17779E+00
 1.22140E+01    1.15562E+00
 1.28400E+01    1.12305E+00
 1.34990E+01    1.09257E+00
 1.38400E+01    1.06711E+00
 1.41910E+01    1.03524E+00
 1.45500E+01    9.95280E-01
 1.49180E+01    9.20694E-01
 1.56830E+01    8.00009E-01
 1.64870E+01    6.74940E-01
