# n + Dy163 : (n,h)     
# jendl4.0   N.Iwamoto,S.Chiba                 EVAL-Nov09
# uncertainties: n
# # energies =    33
#   E(MeV)       xs(mb) 
 8.05927E+00    0.00000E+00
 8.09781E+00    3.65790E-35
 8.13876E+00    8.47230E-35
 8.17871E+00    1.33220E-34
 8.22228E+00    1.87120E-34
 8.22229E+00    1.87130E-34
 8.29472E+00    2.78100E-34
 8.31384E+00    3.02120E-34
 8.37019E+00    3.72890E-34
 8.38930E+00    3.96900E-34
 8.43056E+00    4.48720E-34
 8.46678E+00    4.94210E-34
 1.00000E+01    2.41990E-33
 1.05000E+01    2.62380E-30
 1.10000E+01    2.99380E-26
 1.15000E+01    3.68510E-23
 1.20000E+01    9.65480E-21
 1.25000E+01    8.29300E-19
 1.30000E+01    3.11730E-17
 1.35000E+01    6.78670E-16
 1.40000E+01    1.22310E-14
 1.45000E+01    2.31180E-13
 1.50000E+01    3.78690E-12
 1.55000E+01    3.92270E-11
 1.60000E+01    3.39250E-10
 1.65000E+01    2.34890E-09
 1.70000E+01    1.31820E-08
 1.75000E+01    6.08190E-08
 1.80000E+01    2.20070E-07
 1.85000E+01    6.95850E-07
 1.90000E+01    1.97998E-06
 1.95000E+01    5.10989E-06
 2.00000E+01    1.21202E-05
