# n + Dy163 : (n,d)     
# jendl4.0   N.Iwamoto,S.Chiba                 EVAL-Nov09
# uncertainties: n
# # energies =    35
#   E(MeV)       xs(mb) 
 5.80533E+00    0.00000E+00
 5.84468E+00    2.98540E-23
 5.90293E+00    1.01310E-22
 5.98242E+00    2.37100E-22
 6.02267E+00    3.07610E-22
 6.07399E+00    1.87760E-18
 6.11725E+00    4.03460E-18
 6.14886E+00    5.70360E-18
 7.00000E+00    5.12880E-17
 7.50000E+00    1.21730E-15
 8.00000E+00    5.31920E-12
 8.50000E+00    1.66880E-09
 9.00000E+00    1.09280E-07
 9.50000E+00    3.00361E-06
 1.00000E+01    3.50212E-05
 1.05000E+01    2.51833E-04
 1.10000E+01    1.04189E-03
 1.15000E+01    3.71451E-03
 1.20000E+01    1.19397E-02
 1.25000E+01    3.19717E-02
 1.30000E+01    7.33852E-02
 1.35000E+01    1.47593E-01
 1.40000E+01    2.64794E-01
 1.45000E+01    4.31402E-01
 1.50000E+01    6.48808E-01
 1.55000E+01    9.17132E-01
 1.60000E+01    1.24562E+00
 1.65000E+01    1.57344E+00
 1.70000E+01    1.96943E+00
 1.75000E+01    2.33571E+00
 1.80000E+01    2.73175E+00
 1.85000E+01    3.20833E+00
 1.90000E+01    3.59701E+00
 1.95000E+01    4.05417E+00
 2.00000E+01    4.51868E+00
