# n + Pd106 : (n,tot)   
# jendl4.0   N.Iwamoto,K.Shibata               EVAL-Dec09
# uncertainties: n
# # energies =   171
#   E(MeV)       xs(mb) 
 1.00000E-11    1.15670E+04
 1.00000E-07    4.82700E+03
 4.13990E-07    4.78369E+03
 5.31580E-07    4.77424E+03
 6.82560E-07    4.76574E+03
 8.76420E-07    4.75807E+03
 1.12540E-06    4.75220E+03
 1.44500E-06    4.74628E+03
 1.85540E-06    4.73878E+03
 2.37240E-06    4.73315E+03
 3.05900E-06    4.72887E+03
 3.92790E-06    4.72341E+03
 5.04350E-06    4.71640E+03
 6.47600E-06    4.70741E+03
 8.31530E-06    4.69660E+03
 1.06770E-05    4.68797E+03
 1.37100E-05    4.67793E+03
 1.76030E-05    4.66504E+03
 2.26030E-05    4.64824E+03
 2.92030E-05    4.62694E+03
 3.72670E-05    4.59993E+03
 4.78510E-05    4.56513E+03
 6.14420E-05    4.57282E+03
 7.88930E-05    4.45117E+03
 1.01300E-04    4.35602E+03
 1.30070E-04    4.82467E+03
 1.67020E-04    3.81152E+03
 2.14450E-04    2.37221E+03
 2.75360E-04    1.14783E+05
 3.53580E-04    5.92950E+03
 4.54000E-04    5.89189E+03
 5.82950E-04    5.21713E+03
 7.48520E-04    3.72173E+04
 9.61120E-04    8.04621E+03
 1.23410E-03    8.04159E+03
 1.58460E-03    1.13497E+04
 2.03470E-03    1.24639E+04
 2.24870E-03    1.21139E+04
 2.48520E-03    1.18577E+04
 2.61260E-03    1.16902E+04
 2.74650E-03    1.14439E+04
 3.03540E-03    1.11226E+04
 3.35460E-03    1.08108E+04
 3.70740E-03    1.04472E+04
 4.30740E-03    1.00024E+04
 5.53080E-03    9.48927E+03
 7.10170E-03    9.06199E+03
 9.11880E-03    8.72994E+03
 1.17090E-02    8.51491E+03
 1.50340E-02    8.31529E+03
 1.93050E-02    8.17735E+03
 2.18750E-02    8.12631E+03
 2.35790E-02    8.10156E+03
 2.41760E-02    8.08940E+03
 2.47880E-02    8.07105E+03
 2.60580E-02    8.05042E+03
 2.70000E-02    8.02841E+03
 2.85000E-02    7.99387E+03
 3.18280E-02    7.97621E+03
 3.43070E-02    7.95773E+03
 4.08680E-02    7.93564E+03
 4.63090E-02    7.92009E+03
 5.24750E-02    7.92869E+03
 5.65620E-02    7.94972E+03
 6.73790E-02    7.97023E+03
 7.20000E-02    7.98708E+03
 7.95000E-02    8.00234E+03
 8.25000E-02    8.01309E+03
 8.65170E-02    8.03580E+03
 9.80370E-02    8.06888E+03
 1.11090E-01    8.09196E+03
 1.16790E-01    8.10536E+03
 1.22770E-01    8.11862E+03
 1.29070E-01    8.12941E+03
 1.35690E-01    8.13553E+03
 1.42640E-01    8.14156E+03
 1.49960E-01    8.14761E+03
 1.57640E-01    8.15367E+03
 1.65730E-01    8.15972E+03
 1.74220E-01    8.16578E+03
 1.83160E-01    8.17185E+03
 1.92550E-01    8.17738E+03
 2.02420E-01    8.17065E+03
 2.12800E-01    8.15831E+03
 2.23710E-01    8.14533E+03
 2.35180E-01    8.13169E+03
 2.47240E-01    8.10981E+03
 2.73240E-01    8.08642E+03
 2.87250E-01    8.07403E+03
 2.94520E-01    8.06825E+03
 2.97200E-01    8.06594E+03
 2.98500E-01    8.06317E+03
 3.01970E-01    8.02784E+03
 3.33730E-01    7.95138E+03
 3.68830E-01    7.88900E+03
 3.87740E-01    7.84387E+03
 4.07620E-01    7.76429E+03
 4.50490E-01    7.64782E+03
 4.97870E-01    7.55290E+03
 5.23400E-01    7.48546E+03
 5.50230E-01    7.41470E+03
 5.78440E-01    7.34029E+03
 6.08100E-01    7.26206E+03
 6.39280E-01    7.18100E+03
 6.72060E-01    7.10475E+03
 7.06510E-01    7.02646E+03
 7.42740E-01    6.94415E+03
 7.80820E-01    6.85763E+03
 8.20850E-01    6.77221E+03
 8.62940E-01    6.68988E+03
 9.07180E-01    6.59594E+03
 9.61640E-01    6.50474E+03
 1.00260E+00    6.37746E+03
 1.10800E+00    6.24027E+03
 1.16480E+00    6.14838E+03
 1.22460E+00    6.05850E+03
 1.28730E+00    5.96400E+03
 1.35340E+00    5.87146E+03
 1.42270E+00    5.78347E+03
 1.49570E+00    5.69095E+03
 1.57240E+00    5.59373E+03
 1.65300E+00    5.49837E+03
 1.73770E+00    5.40800E+03
 1.82680E+00    5.31370E+03
 1.92050E+00    5.22279E+03
 2.01900E+00    5.12974E+03
 2.12250E+00    5.03194E+03
 2.23130E+00    4.94848E+03
 2.30690E+00    4.90284E+03
 2.34570E+00    4.88008E+03
 2.36530E+00    4.86472E+03
 2.38520E+00    4.82570E+03
 2.46600E+00    4.74532E+03
 2.59240E+00    4.64663E+03
 2.72530E+00    4.55394E+03
 2.86500E+00    4.45851E+03
 3.01190E+00    4.37450E+03
 3.16640E+00    4.29429E+03
 3.32870E+00    4.18379E+03
 3.67880E+00    4.07668E+03
 4.06570E+00    4.01490E+03
 4.49330E+00    3.99694E+03
 4.72370E+00    4.00331E+03
 4.96590E+00    4.01254E+03
 5.22050E+00    4.03346E+03
 5.48810E+00    4.05678E+03
 5.76950E+00    4.08144E+03
 6.06530E+00    4.10811E+03
 6.37630E+00    4.13144E+03
 6.59240E+00    4.14590E+03
 6.70320E+00    4.16585E+03
 7.04690E+00    4.19697E+03
 7.40820E+00    4.22955E+03
 7.78800E+00    4.25896E+03
 8.18730E+00    4.28732E+03
 8.60710E+00    4.31714E+03
 9.04840E+00    4.34478E+03
 9.51230E+00    4.36726E+03
 1.00000E+01    4.38618E+03
 1.05130E+01    4.39861E+03
 1.10520E+01    4.40230E+03
 1.16180E+01    4.39892E+03
 1.22140E+01    4.38378E+03
 1.28400E+01    4.36077E+03
 1.34990E+01    4.33552E+03
 1.38400E+01    4.31730E+03
 1.41910E+01    4.29341E+03
 1.45500E+01    4.26886E+03
 1.49180E+01    4.22644E+03
 1.56830E+01    4.16138E+03
 1.64870E+01    4.08692E+03
