# n + Pd106 : (n,n'04)  
# jendl4.0   N.Iwamoto,K.Shibata               EVAL-Dec09
# uncertainties: n
# # energies =    83
#   E(MeV)       xs(mb) 
 1.24096E+00    0.00000E+00
 1.30000E+00    3.65894E+01
 1.40000E+00    8.57207E+01
 1.50000E+00    1.23400E+02
 1.57249E+00    1.46066E+02
 1.57713E+00    1.46757E+02
 1.60000E+00    1.48678E+02
 1.70000E+00    1.52126E+02
 1.72264E+00    1.53613E+02
 1.80000E+00    1.59312E+02
 1.90000E+00    1.69480E+02
 1.92245E+00    1.72122E+02
 1.92764E+00    1.71841E+02
 1.95068E+00    1.71286E+02
 2.00000E+00    1.67824E+02
 2.02055E+00    1.66175E+02
 2.09606E+00    1.61948E+02
 2.09641E+00    1.61936E+02
 2.10371E+00    1.61248E+02
 2.25000E+00    1.49057E+02
 2.26385E+00    1.48566E+02
 2.29981E+00    1.46668E+02
 2.30468E+00    1.46474E+02
 2.32752E+00    1.45096E+02
 2.33080E+00    1.44730E+02
 2.37320E+00    1.40917E+02
 2.38849E+00    1.39388E+02
 2.42034E+00    1.36353E+02
 2.42427E+00    1.36001E+02
 2.46233E+00    1.31871E+02
 2.49625E+00    1.28300E+02
 2.50000E+00    1.27833E+02
 2.50832E+00    1.26816E+02
 2.51876E+00    1.25561E+02
 2.52381E+00    1.24948E+02
 2.52412E+00    1.24882E+02
 2.60298E+00    1.15451E+02
 2.60457E+00    1.15241E+02
 2.61588E+00    1.14055E+02
 2.64940E+00    1.11023E+02
 2.65189E+00    1.10818E+02
 2.67413E+00    1.09125E+02
 2.72507E+00    1.05580E+02
 2.73107E+00    1.05246E+02
 2.73783E+00    1.04861E+02
 2.73944E+00    1.04749E+02
 2.74344E+00    1.04474E+02
 2.75000E+00    1.04002E+02
 3.00000E+00    9.03927E+01
 3.50000E+00    6.23510E+01
 4.00000E+00    4.25714E+01
 4.50000E+00    3.04558E+01
 5.00000E+00    2.33874E+01
 5.50000E+00    1.92639E+01
 6.00000E+00    1.68094E+01
 6.50000E+00    1.52909E+01
 7.00000E+00    1.43026E+01
 7.50000E+00    1.36332E+01
 8.00000E+00    1.31514E+01
 8.50000E+00    1.27880E+01
 9.00000E+00    1.24833E+01
 9.50000E+00    1.22180E+01
 1.00000E+01    1.19586E+01
 1.05000E+01    1.16694E+01
 1.10000E+01    1.13868E+01
 1.15000E+01    1.10452E+01
 1.20000E+01    1.07071E+01
 1.25000E+01    1.03365E+01
 1.30000E+01    9.96830E+00
 1.35000E+01    9.61466E+00
 1.40000E+01    9.26294E+00
 1.45000E+01    8.95074E+00
 1.50000E+01    8.64018E+00
 1.55000E+01    8.37292E+00
 1.60000E+01    8.10724E+00
 1.65000E+01    7.87939E+00
 1.70000E+01    7.65385E+00
 1.75000E+01    7.46089E+00
 1.80000E+01    7.26781E+00
 1.85000E+01    7.09513E+00
 1.90000E+01    6.92399E+00
 1.95000E+01    6.76262E+00
 2.00000E+01    6.60140E+00
