# n + Pd106 : (n,el)    
# jendl4.0   N.Iwamoto,K.Shibata               EVAL-Dec09
# uncertainties: n
# # energies =   171
#   E(MeV)       xs(mb) 
 1.00000E-11    8.13804E+03
 1.00000E-07    4.71317E+03
 4.13990E-07    4.71058E+03
 5.31580E-07    4.70998E+03
 6.82560E-07    4.70922E+03
 8.76420E-07    4.70825E+03
 1.12540E-06    4.70700E+03
 1.44500E-06    4.70567E+03
 1.85540E-06    4.70435E+03
 2.37240E-06    4.70263E+03
 3.05900E-06    4.70041E+03
 3.92790E-06    4.69757E+03
 5.04350E-06    4.69393E+03
 6.47600E-06    4.68925E+03
 8.31530E-06    4.68325E+03
 1.06770E-05    4.67554E+03
 1.37100E-05    4.66564E+03
 1.76030E-05    4.65293E+03
 2.26030E-05    4.63637E+03
 2.92030E-05    4.61537E+03
 3.72670E-05    4.58874E+03
 4.78510E-05    4.55419E+03
 6.14420E-05    4.50982E+03
 7.88930E-05    4.44718E+03
 1.01300E-04    4.34831E+03
 1.30070E-04    4.18201E+03
 1.67020E-04    3.79673E+03
 2.14450E-04    2.16613E+03
 2.75360E-04    1.01520E+05
 3.53580E-04    5.83872E+03
 4.54000E-04    5.15950E+03
 5.82950E-04    4.68611E+03
 7.48520E-04    3.35333E+04
 9.61120E-04    7.01255E+03
 1.23410E-03    6.99343E+03
 1.58460E-03    1.03949E+04
 2.03470E-03    1.14469E+04
 2.24870E-03    1.11444E+04
 2.48520E-03    1.09225E+04
 2.61260E-03    1.07773E+04
 2.74650E-03    1.05637E+04
 3.03540E-03    1.02844E+04
 3.35460E-03    1.00129E+04
 3.70740E-03    9.69679E+03
 4.30740E-03    9.31581E+03
 5.53080E-03    8.87615E+03
 7.10170E-03    8.51757E+03
 9.11880E-03    8.24927E+03
 1.17090E-02    8.09167E+03
 1.50340E-02    7.94681E+03
 1.93050E-02    7.84811E+03
 2.18750E-02    7.81655E+03
 2.35790E-02    7.80150E+03
 2.41760E-02    7.79427E+03
 2.47880E-02    7.78320E+03
 2.60580E-02    7.77016E+03
 2.70000E-02    7.75704E+03
 2.85000E-02    7.73704E+03
 3.18280E-02    7.73326E+03
 3.43070E-02    7.73309E+03
 4.08680E-02    7.73202E+03
 4.63090E-02    7.73295E+03
 5.24750E-02    7.75296E+03
 5.65620E-02    7.78569E+03
 6.73790E-02    7.81704E+03
 7.20000E-02    7.84042E+03
 7.95000E-02    7.86096E+03
 8.25000E-02    7.87457E+03
 8.65170E-02    7.90307E+03
 9.80370E-02    7.94334E+03
 1.11090E-01    7.97036E+03
 1.16790E-01    7.98582E+03
 1.22770E-01    8.00093E+03
 1.29070E-01    8.01326E+03
 1.35690E-01    8.02045E+03
 1.42640E-01    8.02769E+03
 1.49960E-01    8.03491E+03
 1.57640E-01    8.04199E+03
 1.65730E-01    8.04892E+03
 1.74220E-01    8.05571E+03
 1.83160E-01    8.06238E+03
 1.92550E-01    8.06837E+03
 2.02420E-01    8.06157E+03
 2.12800E-01    8.04895E+03
 2.23710E-01    8.03568E+03
 2.35180E-01    8.02173E+03
 2.47240E-01    7.99937E+03
 2.73240E-01    7.97546E+03
 2.87250E-01    7.96279E+03
 2.94520E-01    7.95687E+03
 2.97200E-01    7.95451E+03
 2.98500E-01    7.95169E+03
 3.01970E-01    7.91624E+03
 3.33730E-01    7.83977E+03
 3.68830E-01    7.77739E+03
 3.87740E-01    7.73152E+03
 4.07620E-01    7.64835E+03
 4.50490E-01    7.52683E+03
 4.97870E-01    7.42462E+03
 5.23400E-01    7.28291E+03
 5.50230E-01    7.10636E+03
 5.78440E-01    6.92112E+03
 6.08100E-01    6.75647E+03
 6.39280E-01    6.60242E+03
 6.72060E-01    6.44121E+03
 7.06510E-01    6.29935E+03
 7.42740E-01    6.16452E+03
 7.80820E-01    6.03363E+03
 8.20850E-01    5.90991E+03
 8.62940E-01    5.79068E+03
 9.07180E-01    5.66401E+03
 9.61640E-01    5.54982E+03
 1.00260E+00    5.38884E+03
 1.10800E+00    5.20262E+03
 1.16480E+00    4.96688E+03
 1.22460E+00    4.73795E+03
 1.28730E+00    4.54028E+03
 1.35340E+00    4.36674E+03
 1.42270E+00    4.21311E+03
 1.49570E+00    4.06555E+03
 1.57240E+00    3.90135E+03
 1.65300E+00    3.72625E+03
 1.73770E+00    3.55940E+03
 1.82680E+00    3.40304E+03
 1.92050E+00    3.24319E+03
 2.01900E+00    3.08345E+03
 2.12250E+00    2.93380E+03
 2.23130E+00    2.81422E+03
 2.30690E+00    2.74338E+03
 2.34570E+00    2.70754E+03
 2.36530E+00    2.68333E+03
 2.38520E+00    2.62290E+03
 2.46600E+00    2.50703E+03
 2.59240E+00    2.37612E+03
 2.72530E+00    2.25967E+03
 2.86500E+00    2.14962E+03
 3.01190E+00    2.05755E+03
 3.16640E+00    1.97767E+03
 3.32870E+00    1.86741E+03
 3.67880E+00    1.75980E+03
 4.06570E+00    1.69548E+03
 4.49330E+00    1.67238E+03
 4.72370E+00    1.67457E+03
 4.96590E+00    1.68455E+03
 5.22050E+00    1.70800E+03
 5.48810E+00    1.73712E+03
 5.76950E+00    1.77621E+03
 6.06530E+00    1.81998E+03
 6.37630E+00    1.86076E+03
 6.59240E+00    1.88606E+03
 6.70320E+00    1.92094E+03
 7.04690E+00    1.97535E+03
 7.40820E+00    2.03151E+03
 7.78800E+00    2.08497E+03
 8.18730E+00    2.13690E+03
 8.60710E+00    2.18537E+03
 9.04840E+00    2.22965E+03
 9.51230E+00    2.27832E+03
 1.00000E+01    2.29747E+03
 1.05130E+01    2.32153E+03
 1.10520E+01    2.33640E+03
 1.16180E+01    2.34359E+03
 1.22140E+01    2.33862E+03
 1.28400E+01    2.32550E+03
 1.34990E+01    2.30759E+03
 1.38400E+01    2.29407E+03
 1.41910E+01    2.27568E+03
 1.45500E+01    2.25620E+03
 1.49180E+01    2.22230E+03
 1.56830E+01    2.16954E+03
 1.64870E+01    2.10855E+03
