# n + Pd106 : (n,n'09)  
# jendl4.0   N.Iwamoto,K.Shibata               EVAL-Dec09
# uncertainties: n
# # energies =    71
#   E(MeV)       xs(mb) 
 1.92764E+00    0.00000E+00
 1.95068E+00    2.55891E+01
 2.00000E+00    6.11370E+01
 2.02055E+00    7.45097E+01
 2.09606E+00    1.14438E+02
 2.09641E+00    1.14593E+02
 2.10371E+00    1.17829E+02
 2.25000E+00    1.56261E+02
 2.26385E+00    1.58304E+02
 2.29981E+00    1.61903E+02
 2.30468E+00    1.62325E+02
 2.32752E+00    1.64051E+02
 2.33080E+00    1.64050E+02
 2.37320E+00    1.62805E+02
 2.38849E+00    1.62235E+02
 2.42034E+00    1.60993E+02
 2.42427E+00    1.60848E+02
 2.46233E+00    1.58017E+02
 2.49625E+00    1.55153E+02
 2.50000E+00    1.54701E+02
 2.50832E+00    1.53776E+02
 2.51876E+00    1.52323E+02
 2.52381E+00    1.51492E+02
 2.52412E+00    1.51409E+02
 2.60298E+00    1.37126E+02
 2.60457E+00    1.36860E+02
 2.61588E+00    1.35142E+02
 2.64940E+00    1.30212E+02
 2.65189E+00    1.29847E+02
 2.67413E+00    1.26773E+02
 2.72507E+00    1.20481E+02
 2.73107E+00    1.19829E+02
 2.73783E+00    1.19012E+02
 2.73944E+00    1.18821E+02
 2.74344E+00    1.18333E+02
 2.75000E+00    1.17524E+02
 3.00000E+00    9.22156E+01
 3.50000E+00    5.50589E+01
 4.00000E+00    3.13295E+01
 4.50000E+00    1.71049E+01
 5.00000E+00    9.13146E+00
 5.50000E+00    4.86556E+00
 6.00000E+00    2.63348E+00
 6.50000E+00    1.47106E+00
 7.00000E+00    8.63145E-01
 7.50000E+00    5.42986E-01
 8.00000E+00    3.72273E-01
 8.50000E+00    2.79503E-01
 9.00000E+00    2.27052E-01
 9.50000E+00    1.95397E-01
 1.00000E+01    1.74687E-01
 1.05000E+01    1.59991E-01
 1.10000E+01    1.48606E-01
 1.15000E+01    1.39377E-01
 1.20000E+01    1.31464E-01
 1.25000E+01    1.24484E-01
 1.30000E+01    1.18169E-01
 1.35000E+01    1.12358E-01
 1.40000E+01    1.07037E-01
 1.45000E+01    1.02004E-01
 1.50000E+01    9.73840E-02
 1.55000E+01    9.30164E-02
 1.60000E+01    8.89889E-02
 1.65000E+01    8.47999E-02
 1.70000E+01    8.11633E-02
 1.75000E+01    7.76725E-02
 1.80000E+01    7.42336E-02
 1.85000E+01    7.09055E-02
 1.90000E+01    6.79443E-02
 1.95000E+01    6.51516E-02
 2.00000E+01    6.24097E-02
