# n + Pd106 : (n,xa)    
# jendl4.0   N.Iwamoto,K.Shibata               EVAL-Dec09
# 
# # energies =   113
#   E(MeV)        xs(mb) 
 1.05000E-01    3.56995E-12
 1.10000E-01    3.71920E-12
 1.20000E-01    4.06550E-12
 1.30000E-01    4.46310E-12
 1.40000E-01    4.91640E-12
 1.50000E-01    5.43940E-12
 1.60000E-01    6.03120E-12
 1.70000E-01    6.69900E-12
 1.80000E-01    7.45140E-12
 1.90000E-01    8.29740E-12
 2.00000E-01    9.24790E-12
 2.25000E-01    1.21920E-11
 2.50000E-01    1.60700E-11
 2.75000E-01    2.12230E-11
 3.00000E-01    2.80040E-11
 4.00000E-01    7.95220E-11
 5.00000E-01    2.37540E-10
 5.16726E-01    2.79140E-10
 6.00000E-01    4.09810E-10
 7.00000E-01    9.30698E-10
 8.00000E-01    2.16470E-09
 9.00000E-01    5.01940E-09
 1.00000E+00    1.14740E-08
 1.10000E+00    2.55190E-08
 1.13875E+00    3.45650E-08
 1.14457E+00    3.48190E-08
 1.20000E+00    4.65960E-08
 1.24096E+00    5.96840E-08
 1.30000E+00    8.29120E-08
 1.40000E+00    1.53165E-07
 1.50000E+00    2.87200E-07
 1.57249E+00    4.51480E-07
 1.57713E+00    4.60084E-07
 1.60000E+00    5.05090E-07
 1.70000E+00    8.50728E-07
 1.72264E+00    9.60713E-07
 1.80000E+00    1.44154E-06
 1.90000E+00    2.46795E-06
 1.92245E+00    2.78312E-06
 1.92764E+00    2.85761E-06
 1.95068E+00    3.14510E-06
 2.00000E+00    3.90006E-06
 2.02055E+00    4.26424E-06
 2.09606E+00    5.93055E-06
 2.09607E+00    5.93080E-06
 2.09641E+00    5.93940E-06
 2.10371E+00    6.12413E-06
 2.25000E+00    1.13000E-05
 2.26385E+00    1.20039E-05
 2.29981E+00    1.39389E-05
 2.30468E+00    1.42113E-05
 2.32752E+00    1.56007E-05
 2.33080E+00    1.58025E-05
 2.37320E+00    1.86310E-05
 2.38849E+00    1.98126E-05
 2.42033E+00    2.24196E-05
 2.42034E+00    2.24204E-05
 2.42427E+00    2.27657E-05
 2.46233E+00    2.63487E-05
 2.49625E+00    2.98433E-05
 2.50000E+00    3.02378E-05
 2.50832E+00    3.11130E-05
 2.51876E+00    3.22112E-05
 2.52381E+00    3.27424E-05
 2.52412E+00    3.27748E-05
 2.60298E+00    4.15424E-05
 2.60457E+00    4.17352E-05
 2.61588E+00    4.31895E-05
 2.64940E+00    4.78849E-05
 2.65189E+00    4.82481E-05
 2.67413E+00    5.17291E-05
 2.72507E+00    6.11602E-05
 2.73107E+00    6.24066E-05
 2.73783E+00    6.38108E-05
 2.73944E+00    6.41453E-05
 2.73945E+00    6.41473E-05
 2.74344E+00    6.49762E-05
 2.75000E+00    6.63389E-05
 3.00000E+00    1.51506E-04
 3.50000E+00    6.40150E-04
 4.00000E+00    2.13652E-03
 4.50000E+00    5.89213E-03
 5.00000E+00    1.38134E-02
 5.50000E+00    2.73477E-02
 6.00000E+00    4.93952E-02
 6.50000E+00    8.08671E-02
 7.00000E+00    1.21778E-01
 7.50000E+00    1.70978E-01
 8.00000E+00    2.26636E-01
 8.50000E+00    2.89003E-01
 9.00000E+00    3.61402E-01
 9.50000E+00    4.51735E-01
 1.00000E+01    5.74595E-01
 1.05000E+01    7.45635E-01
 1.10000E+01    9.83995E-01
 1.15000E+01    1.29882E+00
 1.20000E+01    1.73132E+00
 1.25000E+01    2.28234E+00
 1.30000E+01    2.95684E+00
 1.35000E+01    3.75372E+00
 1.40000E+01    4.66686E+00
 1.45000E+01    5.68412E+00
 1.50000E+01    6.79399E+00
 1.55000E+01    7.97855E+00
 1.60000E+01    9.22387E+00
 1.65000E+01    1.05105E+01
 1.70000E+01    1.18299E+01
 1.75000E+01    1.31612E+01
 1.80000E+01    1.45007E+01
 1.85000E+01    1.58359E+01
 1.90000E+01    1.71487E+01
 1.95000E+01    1.84428E+01
 2.00000E+01    1.97081E+01
