# n + Pd106 : (n,n'03)  
# jendl4.0   N.Iwamoto,K.Shibata               EVAL-Dec09
# uncertainties: n
# # energies =    85
#   E(MeV)       xs(mb) 
 1.14457E+00    0.00000E+00
 1.20000E+00    7.30065E+01
 1.24096E+00    1.12354E+02
 1.30000E+00    1.52243E+02
 1.40000E+00    1.89927E+02
 1.50000E+00    2.06644E+02
 1.57249E+00    2.11549E+02
 1.57713E+00    2.11424E+02
 1.60000E+00    2.09185E+02
 1.70000E+00    1.95751E+02
 1.72264E+00    1.93063E+02
 1.80000E+00    1.79017E+02
 1.90000E+00    1.65548E+02
 1.92245E+00    1.63131E+02
 1.92764E+00    1.62572E+02
 1.95068E+00    1.58797E+02
 2.00000E+00    1.51047E+02
 2.02055E+00    1.47983E+02
 2.09606E+00    1.35718E+02
 2.09641E+00    1.35671E+02
 2.10371E+00    1.34660E+02
 2.25000E+00    1.16712E+02
 2.26385E+00    1.15454E+02
 2.29981E+00    1.11567E+02
 2.30468E+00    1.10826E+02
 2.32752E+00    1.08143E+02
 2.33080E+00    1.07783E+02
 2.37320E+00    1.02361E+02
 2.38849E+00    1.00495E+02
 2.42034E+00    9.68519E+01
 2.42427E+00    9.64310E+01
 2.46233E+00    9.24838E+01
 2.49625E+00    8.88577E+01
 2.50000E+00    8.83877E+01
 2.50832E+00    8.74386E+01
 2.51876E+00    8.59949E+01
 2.52381E+00    8.51827E+01
 2.52412E+00    8.51150E+01
 2.60298E+00    7.33342E+01
 2.60457E+00    7.31266E+01
 2.61588E+00    7.17098E+01
 2.64940E+00    6.76448E+01
 2.65189E+00    6.73079E+01
 2.67413E+00    6.46221E+01
 2.72507E+00    5.94847E+01
 2.73107E+00    5.89735E+01
 2.73783E+00    5.83251E+01
 2.73944E+00    5.81805E+01
 2.74344E+00    5.77852E+01
 2.75000E+00    5.71339E+01
 3.00000E+00    4.06398E+01
 3.50000E+00    2.17792E+01
 4.00000E+00    1.13259E+01
 4.50000E+00    5.80411E+00
 5.00000E+00    3.00083E+00
 5.50000E+00    1.59035E+00
 6.00000E+00    8.73171E-01
 6.50000E+00    5.02850E-01
 7.00000E+00    3.08950E-01
 7.50000E+00    2.07277E-01
 8.00000E+00    1.52305E-01
 8.50000E+00    1.21469E-01
 9.00000E+00    1.03119E-01
 9.50000E+00    9.12813E-02
 1.00000E+01    8.29461E-02
 1.05000E+01    7.75672E-02
 1.10000E+01    7.31129E-02
 1.15000E+01    6.92517E-02
 1.20000E+01    6.57176E-02
 1.25000E+01    6.24299E-02
 1.30000E+01    5.93410E-02
 1.35000E+01    5.63858E-02
 1.40000E+01    5.35917E-02
 1.45000E+01    5.08618E-02
 1.50000E+01    4.82787E-02
 1.55000E+01    4.51145E-02
 1.60000E+01    4.17982E-02
 1.65000E+01    4.21649E-02
 1.70000E+01    3.97327E-02
 1.75000E+01    3.62015E-02
 1.80000E+01    3.60942E-02
 1.85000E+01    3.55414E-02
 1.90000E+01    3.30523E-02
 1.95000E+01    3.01576E-02
 2.00000E+01    2.98402E-02
