# n + Pd102 : (n,h)     
# jendl4.0   N.Iwamoto,K.Shibata               EVAL-Dec09
# uncertainties: n
# # energies =    66
#   E(MeV)       xs(mb) 
 5.62108E+00    0.00000E+00
 6.16593E+00    3.48100E-19
 6.76257E+00    1.07090E-18
 6.85969E+00    1.18980E-18
 6.99672E+00    1.35860E-18
 7.37930E+00    3.16660E-18
 7.50464E+00    3.75900E-18
 7.52074E+00    3.86230E-18
 7.69304E+00    5.22170E-18
 7.70402E+00    5.30850E-18
 7.71672E+00    5.40960E-18
 7.71773E+00    5.41760E-18
 7.74096E+00    5.60410E-18
 7.77317E+00    5.86340E-18
 7.80940E+00    6.15560E-18
 7.83680E+00    6.37670E-18
 7.88406E+00    6.75820E-18
 7.91153E+00    6.98000E-18
 7.95748E+00    7.35100E-18
 7.96869E+00    7.44150E-18
 7.99576E+00    7.66010E-18
 8.00000E+00    7.69900E-18
 8.01101E+00    5.84800E-17
 8.03188E+00    1.54760E-16
 8.05675E+00    2.69500E-16
 8.08321E+00    3.91580E-16
 8.11490E+00    5.37800E-16
 8.13865E+00    6.47390E-16
 8.15840E+00    7.38530E-16
 8.16281E+00    7.58880E-16
 8.17431E+00    8.11950E-16
 8.18235E+00    8.49050E-16
 8.18996E+00    8.84160E-16
 8.21643E+00    1.00630E-15
 8.23859E+00    1.10860E-15
 8.26408E+00    1.22620E-15
 8.28115E+00    1.30500E-15
 8.30754E+00    1.42680E-15
 8.30808E+00    1.42930E-15
 8.31392E+00    1.45620E-15
 8.34276E+00    1.58930E-15
 8.39385E+00    1.82510E-15
 8.50000E+00    2.31490E-15
 9.00000E+00    4.53290E-13
 9.50000E+00    2.31230E-11
 1.00000E+01    4.64070E-10
 1.05000E+01    4.78600E-09
 1.10000E+01    3.00090E-08
 1.15000E+01    1.29870E-07
 1.20000E+01    4.20100E-07
 1.25000E+01    1.09380E-06
 1.30000E+01    2.41280E-06
 1.35000E+01    4.76468E-06
 1.40000E+01    8.80122E-06
 1.45000E+01    1.59388E-05
 1.50000E+01    2.84232E-05
 1.55000E+01    5.48504E-05
 1.60000E+01    1.04891E-04
 1.65000E+01    2.07158E-04
 1.70000E+01    4.12423E-04
 1.75000E+01    7.65710E-04
 1.80000E+01    1.39668E-03
 1.85000E+01    2.45715E-03
 1.90000E+01    4.16840E-03
 1.95000E+01    6.77437E-03
 2.00000E+01    1.03024E-02
