# n + Pd102 : (n,xp)    
# jendl4.0   N.Iwamoto,K.Shibata               EVAL-Dec09
# 
# # energies =   107
#   E(MeV)        xs(mb) 
 1.05000E-01    0.00000E+00
 1.10000E-01    0.00000E+00
 1.20000E-01    0.00000E+00
 1.30000E-01    0.00000E+00
 1.40000E-01    0.00000E+00
 1.50000E-01    0.00000E+00
 1.60000E-01    0.00000E+00
 1.70000E-01    0.00000E+00
 1.80000E-01    0.00000E+00
 1.90000E-01    0.00000E+00
 2.00000E-01    0.00000E+00
 2.25000E-01    0.00000E+00
 2.50000E-01    0.00000E+00
 2.75000E-01    0.00000E+00
 3.00000E-01    0.00000E+00
 4.00000E-01    3.13228E-10
 5.00000E-01    5.20077E-09
 5.61938E-01    1.09056E-08
 6.00000E-01    1.51137E-08
 7.00000E-01    2.86248E-08
 8.00000E-01    4.74461E-08
 9.00000E-01    7.50047E-08
 1.00000E+00    1.05971E-07
 1.10000E+00    1.37288E-07
 1.20000E+00    1.68605E-07
 1.28850E+00    1.96321E-07
 1.30000E+00    1.99923E-07
 1.40000E+00    2.31240E-07
 1.50000E+00    3.23030E-07
 1.54966E+00    5.21450E-07
 1.60000E+00    9.38150E-07
 1.60890E+00    1.05192E-06
 1.67451E+00    2.43066E-06
 1.70000E+00    3.35537E-06
 1.73198E+00    5.03674E-06
 1.80000E+00    1.14989E-05
 1.90000E+00    3.64960E-05
 1.93799E+00    5.54245E-05
 1.96370E+00    7.18387E-05
 2.00000E+00    1.01103E-04
 2.13225E+00    3.36562E-04
 2.13255E+00    3.37454E-04
 2.15918E+00    4.22396E-04
 2.25000E+00    8.84726E-04
 2.27096E+00    1.04334E-03
 2.31724E+00    1.46526E-03
 2.32405E+00    1.53926E-03
 2.36613E+00    2.08084E-03
 2.41477E+00    2.87553E-03
 2.45557E+00    3.71585E-03
 2.49882E+00    4.82579E-03
 2.50000E+00    4.86029E-03
 2.50475E+00    4.99979E-03
 2.51454E+00    5.27451E-03
 2.51455E+00    5.27485E-03
 2.55807E+00    6.77243E-03
 2.57140E+00    7.29497E-03
 2.57877E+00    7.58946E-03
 2.57878E+00    7.58986E-03
 2.59978E+00    8.46465E-03
 2.60847E+00    8.81714E-03
 2.63230E+00    9.84970E-03
 2.63657E+00    1.00314E-02
 2.67754E+00    1.21306E-02
 2.68704E+00    1.26599E-02
 2.70148E+00    1.34978E-02
 2.72258E+00    1.48028E-02
 2.74319E+00    1.63693E-02
 2.75000E+00    1.68115E-02
 2.76409E+00    1.78036E-02
 2.79641E+00    2.03562E-02
 2.82660E+00    2.30607E-02
 3.00000E+00    4.85139E-02
 3.50000E+00    2.98106E-01
 4.00000E+00    1.16973E+00
 4.50000E+00    3.33325E+00
 5.00000E+00    7.52026E+00
 5.50000E+00    1.42224E+01
 6.00000E+00    2.34105E+01
 6.50000E+00    3.44789E+01
 7.00000E+00    4.65212E+01
 7.50000E+00    5.87736E+01
 8.00000E+00    7.09147E+01
 8.50000E+00    8.30498E+01
 9.00000E+00    9.47119E+01
 9.50000E+00    1.08065E+02
 1.00000E+01    1.22293E+02
 1.05000E+01    1.37949E+02
 1.10000E+01    1.55659E+02
 1.15000E+01    1.75463E+02
 1.20000E+01    1.96957E+02
 1.25000E+01    2.20006E+02
 1.30000E+01    2.44839E+02
 1.35000E+01    2.71217E+02
 1.40000E+01    2.98811E+02
 1.45000E+01    3.27475E+02
 1.50000E+01    3.57153E+02
 1.55000E+01    3.87347E+02
 1.60000E+01    4.17776E+02
 1.65000E+01    4.46678E+02
 1.70000E+01    4.76609E+02
 1.75000E+01    5.04633E+02
 1.80000E+01    5.33715E+02
 1.85000E+01    5.60956E+02
 1.90000E+01    5.88340E+02
 1.95000E+01    6.14674E+02
 2.00000E+01    6.41190E+02
