# n + Pd102 : (n,el)    
# jendl4.0   N.Iwamoto,K.Shibata               EVAL-Dec09
# uncertainties: n
# # energies =   171
#   E(MeV)       xs(mb) 
 1.00000E-11    8.37424E+03
 1.00000E-07    4.79372E+03
 4.13990E-07    4.78851E+03
 5.31580E-07    4.78647E+03
 6.82560E-07    4.78384E+03
 8.76420E-07    4.78073E+03
 1.12540E-06    4.77792E+03
 1.44500E-06    4.77447E+03
 1.85540E-06    4.77008E+03
 2.37240E-06    4.76439E+03
 3.05900E-06    4.75703E+03
 3.92790E-06    4.74764E+03
 5.04350E-06    4.73559E+03
 6.47600E-06    4.72052E+03
 8.31530E-06    4.70744E+03
 1.06770E-05    4.69282E+03
 1.37100E-05    4.67406E+03
 1.76030E-05    4.65004E+03
 2.26030E-05    4.62293E+03
 2.92030E-05    4.59112E+03
 3.72670E-05    4.55079E+03
 4.78510E-05    4.49846E+03
 6.14420E-05    4.42388E+03
 7.88930E-05    4.30018E+03
 1.01300E-04    4.05881E+03
 1.30070E-04    3.34345E+03
 1.67020E-04    9.18212E+04
 2.14450E-04    6.43823E+03
 2.75360E-04    5.17227E+03
 3.53580E-04    2.84869E+04
 4.54000E-04    6.17177E+03
 5.82950E-04    5.52794E+03
 7.48520E-04    8.41433E+03
 9.61120E-04    1.25751E+04
 1.23410E-03    1.18357E+04
 1.58460E-03    1.11433E+04
 2.03470E-03    1.06816E+04
 2.24870E-03    1.04270E+04
 2.48520E-03    1.02399E+04
 2.61260E-03    1.01176E+04
 2.74650E-03    9.93635E+03
 3.03540E-03    9.69944E+03
 3.35460E-03    9.46852E+03
 3.70740E-03    9.19958E+03
 4.30740E-03    8.88178E+03
 5.53080E-03    8.51433E+03
 7.10170E-03    8.22003E+03
 9.11880E-03    8.00777E+03
 1.17090E-02    7.89655E+03
 1.50340E-02    7.79565E+03
 1.93050E-02    7.72838E+03
 2.18750E-02    7.71137E+03
 2.35790E-02    7.70367E+03
 2.41760E-02    7.69967E+03
 2.47880E-02    7.69350E+03
 2.60580E-02    7.68685E+03
 2.70000E-02    7.67995E+03
 2.85000E-02    7.67068E+03
 3.18280E-02    7.67681E+03
 3.43070E-02    7.68963E+03
 4.08680E-02    7.70323E+03
 4.63090E-02    7.71594E+03
 5.24750E-02    7.74056E+03
 5.65620E-02    7.77703E+03
 6.73790E-02    7.81132E+03
 7.20000E-02    7.83514E+03
 7.95000E-02    7.85551E+03
 8.25000E-02    7.86783E+03
 8.65170E-02    7.89381E+03
 9.80370E-02    7.92940E+03
 1.11090E-01    7.95108E+03
 1.16790E-01    7.96337E+03
 1.22770E-01    7.97529E+03
 1.29070E-01    7.98402E+03
 1.35690E-01    7.98693E+03
 1.42640E-01    7.98956E+03
 1.49960E-01    7.99205E+03
 1.57640E-01    7.99439E+03
 1.65730E-01    7.99656E+03
 1.74220E-01    7.99854E+03
 1.83160E-01    7.99989E+03
 1.92550E-01    8.00093E+03
 2.02420E-01    7.99006E+03
 2.12800E-01    7.97353E+03
 2.23710E-01    7.95616E+03
 2.35180E-01    7.93789E+03
 2.47240E-01    7.90859E+03
 2.73240E-01    7.87728E+03
 2.87250E-01    7.86069E+03
 2.94520E-01    7.85294E+03
 2.97200E-01    7.84985E+03
 2.98500E-01    7.84615E+03
 3.01970E-01    7.81005E+03
 3.33730E-01    7.73192E+03
 3.68830E-01    7.66804E+03
 3.87740E-01    7.62254E+03
 4.07620E-01    7.54672E+03
 4.50490E-01    7.43134E+03
 4.97870E-01    7.33714E+03
 5.23400E-01    7.26941E+03
 5.50230E-01    7.16918E+03
 5.78440E-01    6.94098E+03
 6.08100E-01    6.73587E+03
 6.39280E-01    6.53980E+03
 6.72060E-01    6.33496E+03
 7.06510E-01    6.16812E+03
 7.42740E-01    6.01786E+03
 7.80820E-01    5.86368E+03
 8.20850E-01    5.73158E+03
 8.62940E-01    5.59917E+03
 9.07180E-01    5.46193E+03
 9.61640E-01    5.34066E+03
 1.00260E+00    5.16807E+03
 1.10800E+00    4.99024E+03
 1.16480E+00    4.87610E+03
 1.22460E+00    4.75761E+03
 1.28730E+00    4.63303E+03
 1.35340E+00    4.50206E+03
 1.42270E+00    4.37136E+03
 1.49570E+00    4.23904E+03
 1.57240E+00    4.05661E+03
 1.65300E+00    3.85147E+03
 1.73770E+00    3.65160E+03
 1.82680E+00    3.47613E+03
 1.92050E+00    3.30081E+03
 2.01900E+00    3.13064E+03
 2.12250E+00    2.97467E+03
 2.23130E+00    2.84962E+03
 2.30690E+00    2.77581E+03
 2.34570E+00    2.73830E+03
 2.36530E+00    2.71296E+03
 2.38520E+00    2.64862E+03
 2.46600E+00    2.52316E+03
 2.59240E+00    2.38600E+03
 2.72530E+00    2.25256E+03
 2.86500E+00    2.13503E+03
 3.01190E+00    2.04203E+03
 3.16640E+00    1.96343E+03
 3.32870E+00    1.85615E+03
 3.67880E+00    1.75265E+03
 4.06570E+00    1.69008E+03
 4.49330E+00    1.66667E+03
 4.72370E+00    1.66767E+03
 4.96590E+00    1.67607E+03
 5.22050E+00    1.69730E+03
 5.48810E+00    1.72642E+03
 5.76950E+00    1.76501E+03
 6.06530E+00    1.81036E+03
 6.37630E+00    1.85288E+03
 6.59240E+00    1.87925E+03
 6.70320E+00    1.91540E+03
 7.04690E+00    1.97149E+03
 7.40820E+00    2.03030E+03
 7.78800E+00    2.08712E+03
 8.18730E+00    2.14175E+03
 8.60710E+00    2.19199E+03
 9.04840E+00    2.23677E+03
 9.51230E+00    2.27556E+03
 1.00000E+01    2.30405E+03
 1.05130E+01    2.33343E+03
 1.10520E+01    2.33881E+03
 1.16180E+01    2.34290E+03
 1.22140E+01    2.33445E+03
 1.28400E+01    2.31758E+03
 1.34990E+01    2.29671E+03
 1.38400E+01    2.28106E+03
 1.41910E+01    2.26033E+03
 1.45500E+01    2.23874E+03
 1.49180E+01    2.20093E+03
 1.56830E+01    2.14319E+03
 1.64870E+01    2.07739E+03
