# n + Pd102 : (n,n'05)  
# jendl4.0   N.Iwamoto,K.Shibata               EVAL-Dec09
# uncertainties: n
# # energies =    73
#   E(MeV)       xs(mb) 
 1.67451E+00    0.00000E+00
 1.70000E+00    1.70539E+01
 1.73198E+00    3.36282E+01
 1.80000E+00    6.28151E+01
 1.90000E+00    8.90701E+01
 1.93799E+00    9.54188E+01
 1.96370E+00    9.77573E+01
 2.00000E+00    9.85992E+01
 2.13225E+00    9.60027E+01
 2.13255E+00    9.59947E+01
 2.15918E+00    9.52237E+01
 2.25000E+00    9.20960E+01
 2.27096E+00    9.15381E+01
 2.31724E+00    8.92733E+01
 2.32405E+00    8.89304E+01
 2.36613E+00    8.69718E+01
 2.41477E+00    8.44610E+01
 2.45557E+00    8.19538E+01
 2.49882E+00    7.92578E+01
 2.50000E+00    7.91863E+01
 2.50475E+00    7.88887E+01
 2.51454E+00    7.79605E+01
 2.55807E+00    7.40625E+01
 2.57140E+00    7.30276E+01
 2.57878E+00    7.23650E+01
 2.59978E+00    7.05318E+01
 2.60847E+00    6.95675E+01
 2.63230E+00    6.70761E+01
 2.63657E+00    6.66018E+01
 2.67754E+00    6.22257E+01
 2.68704E+00    6.12614E+01
 2.70148E+00    5.97338E+01
 2.72258E+00    5.76736E+01
 2.74319E+00    5.57081E+01
 2.75000E+00    5.50481E+01
 2.76409E+00    5.37593E+01
 2.79641E+00    5.10828E+01
 2.82660E+00    4.87420E+01
 3.00000E+00    3.99179E+01
 3.50000E+00    2.50762E+01
 4.00000E+00    1.60325E+01
 4.50000E+00    1.00768E+01
 5.00000E+00    6.30691E+00
 5.50000E+00    4.00973E+00
 6.00000E+00    2.63177E+00
 6.50000E+00    1.80267E+00
 7.00000E+00    1.29679E+00
 7.50000E+00    9.82151E-01
 8.00000E+00    7.82121E-01
 8.50000E+00    6.51664E-01
 9.00000E+00    5.63804E-01
 9.50000E+00    5.02267E-01
 1.00000E+01    4.57359E-01
 1.05000E+01    4.23244E-01
 1.10000E+01    3.95553E-01
 1.15000E+01    3.72696E-01
 1.20000E+01    3.52961E-01
 1.25000E+01    3.35328E-01
 1.30000E+01    3.19409E-01
 1.35000E+01    3.04666E-01
 1.40000E+01    2.91145E-01
 1.45000E+01    2.78326E-01
 1.50000E+01    2.66517E-01
 1.55000E+01    2.54913E-01
 1.60000E+01    2.44575E-01
 1.65000E+01    2.34295E-01
 1.70000E+01    2.24732E-01
 1.75000E+01    2.15184E-01
 1.80000E+01    2.06603E-01
 1.85000E+01    1.98060E-01
 1.90000E+01    1.89934E-01
 1.95000E+01    1.81965E-01
 2.00000E+01    1.74784E-01
