# n + Pd102 : (n,n'06)  
# jendl4.0   N.Iwamoto,K.Shibata               EVAL-Dec09
# uncertainties: n
# # energies =    71
#   E(MeV)       xs(mb) 
 1.73198E+00    0.00000E+00
 1.80000E+00    3.45605E+01
 1.90000E+00    7.01828E+01
 1.93799E+00    8.06168E+01
 1.96370E+00    8.64181E+01
 2.00000E+00    9.23750E+01
 2.13225E+00    1.10952E+02
 2.13255E+00    1.10984E+02
 2.15918E+00    1.12073E+02
 2.25000E+00    1.15951E+02
 2.27096E+00    1.16733E+02
 2.31724E+00    1.17126E+02
 2.32405E+00    1.17057E+02
 2.36613E+00    1.15457E+02
 2.41477E+00    1.12178E+02
 2.45557E+00    1.08649E+02
 2.49882E+00    1.05124E+02
 2.50000E+00    1.05052E+02
 2.50475E+00    1.04706E+02
 2.51454E+00    1.03940E+02
 2.55807E+00    1.01016E+02
 2.57140E+00    1.00017E+02
 2.57878E+00    9.95074E+01
 2.59978E+00    9.76398E+01
 2.60847E+00    9.68203E+01
 2.63230E+00    9.43321E+01
 2.63657E+00    9.37798E+01
 2.67754E+00    8.95555E+01
 2.68704E+00    8.86414E+01
 2.70148E+00    8.74376E+01
 2.72258E+00    8.56036E+01
 2.74319E+00    8.39541E+01
 2.75000E+00    8.32892E+01
 2.76409E+00    8.21297E+01
 2.79641E+00    7.97873E+01
 2.82660E+00    7.80411E+01
 3.00000E+00    7.24024E+01
 3.50000E+00    5.50803E+01
 4.00000E+00    4.03262E+01
 4.50000E+00    2.83739E+01
 5.00000E+00    1.93493E+01
 5.50000E+00    1.29757E+01
 6.00000E+00    8.68896E+00
 6.50000E+00    5.89403E+00
 7.00000E+00    4.10385E+00
 7.50000E+00    2.96518E+00
 8.00000E+00    2.23985E+00
 8.50000E+00    1.77363E+00
 9.00000E+00    1.46854E+00
 9.50000E+00    1.26350E+00
 1.00000E+01    1.12131E+00
 1.05000E+01    1.01916E+00
 1.10000E+01    9.41072E-01
 1.15000E+01    8.79768E-01
 1.20000E+01    8.29023E-01
 1.25000E+01    7.85224E-01
 1.30000E+01    7.46506E-01
 1.35000E+01    7.11252E-01
 1.40000E+01    6.79218E-01
 1.45000E+01    6.49067E-01
 1.50000E+01    6.21460E-01
 1.55000E+01    5.94617E-01
 1.60000E+01    5.70231E-01
 1.65000E+01    5.46563E-01
 1.70000E+01    5.24106E-01
 1.75000E+01    5.02017E-01
 1.80000E+01    4.82051E-01
 1.85000E+01    4.62050E-01
 1.90000E+01    4.43390E-01
 1.95000E+01    4.24668E-01
 2.00000E+01    4.07920E-01
