# n + Pd102 : (n,tot)   
# jendl4.0   N.Iwamoto,K.Shibata               EVAL-Dec09
# uncertainties: n
# # energies =   171
#   E(MeV)       xs(mb) 
 1.00000E-11    2.81158E+04
 1.00000E-07    5.43491E+03
 4.13990E-07    5.18906E+03
 5.31580E-07    5.13435E+03
 6.82560E-07    5.08490E+03
 8.76420E-07    5.04003E+03
 1.12540E-06    4.99963E+03
 1.44500E-06    4.96205E+03
 1.85540E-06    4.92977E+03
 2.37240E-06    4.89423E+03
 3.05900E-06    4.86502E+03
 3.92790E-06    4.83282E+03
 5.04350E-06    4.80685E+03
 6.47600E-06    4.77728E+03
 8.31530E-06    4.75256E+03
 1.06770E-05    4.72593E+03
 1.37100E-05    4.69893E+03
 1.76030E-05    4.67418E+03
 2.26030E-05    4.64215E+03
 2.92030E-05    4.60699E+03
 3.72670E-05    4.56524E+03
 4.78510E-05    4.51106E+03
 6.14420E-05    4.43756E+03
 7.88930E-05    4.31617E+03
 1.01300E-04    4.08427E+03
 1.30070E-04    3.42124E+03
 1.67020E-04    1.27236E+05
 2.14450E-04    6.48963E+03
 2.75360E-04    5.18378E+03
 3.53580E-04    3.62168E+04
 4.54000E-04    6.18273E+03
 5.82950E-04    5.52901E+03
 7.48520E-04    9.72605E+03
 9.61120E-04    1.40977E+04
 1.23410E-03    1.31949E+04
 1.58460E-03    1.23549E+04
 2.03470E-03    1.17971E+04
 2.24870E-03    1.14905E+04
 2.48520E-03    1.12656E+04
 2.61260E-03    1.11184E+04
 2.74650E-03    1.09017E+04
 3.03540E-03    1.06183E+04
 3.35460E-03    1.03427E+04
 3.70740E-03    1.00220E+04
 4.30740E-03    9.63804E+03
 5.53080E-03    9.19506E+03
 7.10170E-03    8.82955E+03
 9.11880E-03    8.55051E+03
 1.17090E-02    8.37781E+03
 1.50340E-02    8.21768E+03
 1.93050E-02    8.10757E+03
 2.18750E-02    8.06854E+03
 2.35790E-02    8.04969E+03
 2.41760E-02    8.04065E+03
 2.47880E-02    8.02682E+03
 2.60580E-02    8.01050E+03
 2.70000E-02    7.99411E+03
 2.85000E-02    7.96815E+03
 3.18280E-02    7.95827E+03
 3.43070E-02    7.94916E+03
 4.08680E-02    7.93836E+03
 4.63090E-02    7.93139E+03
 5.24750E-02    7.94223E+03
 5.65620E-02    7.96415E+03
 6.73790E-02    7.98542E+03
 7.20000E-02    8.00145E+03
 7.95000E-02    8.01557E+03
 8.25000E-02    8.02491E+03
 8.65170E-02    8.04464E+03
 9.80370E-02    8.07154E+03
 1.11090E-01    8.08804E+03
 1.16790E-01    8.09758E+03
 1.22770E-01    8.10701E+03
 1.29070E-01    8.11339E+03
 1.35690E-01    8.11417E+03
 1.42640E-01    8.11486E+03
 1.49960E-01    8.11555E+03
 1.57640E-01    8.11623E+03
 1.65730E-01    8.11692E+03
 1.74220E-01    8.11761E+03
 1.83160E-01    8.11830E+03
 1.92550E-01    8.11848E+03
 2.02420E-01    8.10691E+03
 2.12800E-01    8.08979E+03
 2.23710E-01    8.07179E+03
 2.35180E-01    8.05286E+03
 2.47240E-01    8.02252E+03
 2.73240E-01    7.99008E+03
 2.87250E-01    7.97289E+03
 2.94520E-01    7.96487E+03
 2.97200E-01    7.96166E+03
 2.98500E-01    7.95783E+03
 3.01970E-01    7.92335E+03
 3.33730E-01    7.84765E+03
 3.68830E-01    7.78557E+03
 3.87740E-01    7.74134E+03
 4.07620E-01    7.66758E+03
 4.50490E-01    7.55516E+03
 4.97870E-01    7.46337E+03
 5.23400E-01    7.39828E+03
 5.50230E-01    7.33007E+03
 5.78440E-01    7.25835E+03
 6.08100E-01    7.18303E+03
 6.39280E-01    7.11131E+03
 6.72060E-01    7.04089E+03
 7.06510E-01    6.96686E+03
 7.42740E-01    6.88902E+03
 7.80820E-01    6.80721E+03
 8.20850E-01    6.72149E+03
 8.62940E-01    6.63888E+03
 9.07180E-01    6.54816E+03
 9.61640E-01    6.46008E+03
 1.00260E+00    6.32686E+03
 1.10800E+00    6.18635E+03
 1.16480E+00    6.09371E+03
 1.22460E+00    5.99637E+03
 1.28730E+00    5.89407E+03
 1.35340E+00    5.79581E+03
 1.42270E+00    5.69995E+03
 1.49570E+00    5.59910E+03
 1.57240E+00    5.49314E+03
 1.65300E+00    5.38666E+03
 1.73770E+00    5.28721E+03
 1.82680E+00    5.18409E+03
 1.92050E+00    5.08642E+03
 2.01900E+00    4.98699E+03
 2.12250E+00    4.88300E+03
 2.23130E+00    4.80114E+03
 2.30690E+00    4.75322E+03
 2.34570E+00    4.72879E+03
 2.36530E+00    4.71229E+03
 2.38520E+00    4.67040E+03
 2.46600E+00    4.59150E+03
 2.59240E+00    4.50032E+03
 2.72530E+00    4.40806E+03
 2.86500E+00    4.32100E+03
 3.01190E+00    4.23933E+03
 3.16640E+00    4.16546E+03
 3.32870E+00    4.05785E+03
 3.67880E+00    3.95136E+03
 4.06570E+00    3.88507E+03
 4.49330E+00    3.86237E+03
 4.72370E+00    3.86608E+03
 4.96590E+00    3.87506E+03
 5.22050E+00    3.89835E+03
 5.48810E+00    3.92456E+03
 5.76950E+00    3.95814E+03
 6.06530E+00    3.99450E+03
 6.37630E+00    4.02617E+03
 6.59240E+00    4.04581E+03
 6.70320E+00    4.07289E+03
 7.04690E+00    4.11512E+03
 7.40820E+00    4.15483E+03
 7.78800E+00    4.19052E+03
 8.18730E+00    4.22762E+03
 8.60710E+00    4.25775E+03
 9.04840E+00    4.28573E+03
 9.51230E+00    4.31203E+03
 1.00000E+01    4.32835E+03
 1.05130E+01    4.33962E+03
 1.10520E+01    4.34175E+03
 1.16180E+01    4.33644E+03
 1.22140E+01    4.31897E+03
 1.28400E+01    4.29348E+03
 1.34990E+01    4.26625E+03
 1.38400E+01    4.24675E+03
 1.41910E+01    4.22156E+03
 1.45500E+01    4.19575E+03
 1.49180E+01    4.15151E+03
 1.56830E+01    4.08400E+03
 1.64870E+01    4.00663E+03
