# n + Pd102 : (n,n'02)  
# jendl4.0   N.Iwamoto,K.Shibata               EVAL-Dec09
# uncertainties: n
# # energies =    80
#   E(MeV)       xs(mb) 
 1.28850E+00    0.00000E+00
 1.30000E+00    6.99336E+00
 1.40000E+00    7.49579E+01
 1.50000E+00    1.25926E+02
 1.54966E+00    1.45532E+02
 1.60000E+00    1.58986E+02
 1.60890E+00    1.60799E+02
 1.67451E+00    1.74217E+02
 1.70000E+00    1.79307E+02
 1.73198E+00    1.85115E+02
 1.80000E+00    1.90826E+02
 1.90000E+00    2.02482E+02
 1.93799E+00    2.07406E+02
 1.96370E+00    2.10513E+02
 2.00000E+00    2.12028E+02
 2.13225E+00    2.11615E+02
 2.13255E+00    2.11619E+02
 2.15918E+00    2.09945E+02
 2.25000E+00    1.97758E+02
 2.27096E+00    1.95629E+02
 2.31724E+00    1.89796E+02
 2.32405E+00    1.88436E+02
 2.36613E+00    1.81390E+02
 2.41477E+00    1.72798E+02
 2.45557E+00    1.66371E+02
 2.49882E+00    1.60016E+02
 2.50000E+00    1.59838E+02
 2.50475E+00    1.59037E+02
 2.51454E+00    1.57296E+02
 2.55807E+00    1.50767E+02
 2.57140E+00    1.48859E+02
 2.57878E+00    1.47752E+02
 2.59978E+00    1.44168E+02
 2.60847E+00    1.42728E+02
 2.63230E+00    1.38697E+02
 2.63657E+00    1.37927E+02
 2.67754E+00    1.31162E+02
 2.68704E+00    1.29672E+02
 2.70148E+00    1.27507E+02
 2.72258E+00    1.24280E+02
 2.74319E+00    1.21270E+02
 2.75000E+00    1.20221E+02
 2.76409E+00    1.18259E+02
 2.79641E+00    1.14085E+02
 2.82660E+00    1.10472E+02
 3.00000E+00    9.83884E+01
 3.50000E+00    7.29434E+01
 4.00000E+00    5.33005E+01
 4.50000E+00    3.85849E+01
 5.00000E+00    2.83421E+01
 5.50000E+00    2.14261E+01
 6.00000E+00    1.67923E+01
 6.50000E+00    1.36876E+01
 7.00000E+00    1.16025E+01
 7.50000E+00    1.01927E+01
 8.00000E+00    9.21853E+00
 8.50000E+00    8.52420E+00
 9.00000E+00    8.00812E+00
 9.50000E+00    7.60611E+00
 1.00000E+01    7.27911E+00
 1.05000E+01    7.00346E+00
 1.10000E+01    6.75519E+00
 1.15000E+01    6.52496E+00
 1.20000E+01    6.30681E+00
 1.25000E+01    6.09051E+00
 1.30000E+01    5.88047E+00
 1.35000E+01    5.67474E+00
 1.40000E+01    5.47337E+00
 1.45000E+01    5.28312E+00
 1.50000E+01    5.09638E+00
 1.55000E+01    4.92445E+00
 1.60000E+01    4.75590E+00
 1.65000E+01    4.60320E+00
 1.70000E+01    4.45177E+00
 1.75000E+01    4.31392E+00
 1.80000E+01    4.17948E+00
 1.85000E+01    4.05516E+00
 1.90000E+01    3.93239E+00
 1.95000E+01    3.81797E+00
 2.00000E+01    3.70624E+00
