# n + Hg204 : (n,tot)   
# jendl4.0   K.SHIBATA, T.FUKAHORI, S.CHIBA,+  EVAL-SEP97
# uncertainties: n
# # energies =   171
#   E(MeV)       xs(mb) 
 1.00000E-11    4.37146E+04
 1.00000E-07    2.97986E+04
 4.13990E-07    2.97761E+04
 5.31580E-07    2.97715E+04
 6.82560E-07    2.97675E+04
 8.76420E-07    2.97623E+04
 1.12540E-06    2.97562E+04
 1.44500E-06    2.97543E+04
 1.85540E-06    2.97537E+04
 2.37240E-06    2.97530E+04
 3.05900E-06    2.97521E+04
 3.92790E-06    2.97509E+04
 5.04350E-06    2.97494E+04
 6.47600E-06    2.97474E+04
 8.31530E-06    2.97449E+04
 1.06770E-05    2.97417E+04
 1.37100E-05    2.97376E+04
 1.76030E-05    2.97323E+04
 2.26030E-05    2.97253E+04
 2.92030E-05    2.97166E+04
 3.72670E-05    2.97054E+04
 4.78510E-05    2.96910E+04
 6.14420E-05    2.96829E+04
 7.88930E-05    2.96816E+04
 1.01300E-04    2.96800E+04
 1.30070E-04    2.96779E+04
 1.67020E-04    2.96752E+04
 2.14450E-04    2.96717E+04
 2.75360E-04    2.96672E+04
 3.53580E-04    2.96615E+04
 4.54000E-04    2.96542E+04
 5.82950E-04    2.96447E+04
 7.48520E-04    2.96365E+04
 9.61120E-04    2.90238E+04
 1.23410E-03    2.73790E+04
 1.58460E-03    2.58073E+04
 2.03470E-03    2.47583E+04
 2.24870E-03    2.41795E+04
 2.48520E-03    2.37544E+04
 2.61260E-03    2.34753E+04
 2.74650E-03    2.30627E+04
 3.03540E-03    2.25238E+04
 3.35460E-03    2.19975E+04
 3.70740E-03    2.13575E+04
 4.30740E-03    2.03729E+04
 5.53080E-03    1.92034E+04
 7.10170E-03    1.81011E+04
 9.11880E-03    1.71222E+04
 1.17090E-02    1.64112E+04
 1.50340E-02    1.57491E+04
 1.93050E-02    1.52695E+04
 2.18750E-02    1.50198E+04
 2.35790E-02    1.48963E+04
 2.41760E-02    1.48351E+04
 2.47880E-02    1.47440E+04
 2.60580E-02    1.46406E+04
 2.70000E-02    1.45329E+04
 2.85000E-02    1.43377E+04
 3.18280E-02    1.41200E+04
 3.43070E-02    1.38331E+04
 4.08680E-02    1.34954E+04
 4.63090E-02    1.32203E+04
 5.24750E-02    1.30043E+04
 5.65620E-02    1.27394E+04
 6.73790E-02    1.24882E+04
 7.20000E-02    1.23196E+04
 7.95000E-02    1.21825E+04
 8.25000E-02    1.20975E+04
 8.65170E-02    1.19270E+04
 9.80370E-02    1.16147E+04
 1.11090E-01    1.13157E+04
 1.16790E-01    1.11472E+04
 1.22770E-01    1.09814E+04
 1.29070E-01    1.08182E+04
 1.35690E-01    1.06570E+04
 1.42640E-01    1.04983E+04
 1.49960E-01    1.03424E+04
 1.57640E-01    1.01882E+04
 1.65730E-01    1.00366E+04
 1.74220E-01    9.88728E+03
 1.83160E-01    9.74020E+03
 1.92550E-01    9.59516E+03
 2.02420E-01    9.45224E+03
 2.12800E-01    9.31170E+03
 2.23710E-01    9.17309E+03
 2.35180E-01    9.03647E+03
 2.47240E-01    8.83575E+03
 2.73240E-01    8.63888E+03
 2.87250E-01    8.54219E+03
 2.94520E-01    8.49861E+03
 2.97200E-01    8.48165E+03
 2.98500E-01    8.46179E+03
 3.01970E-01    8.32154E+03
 3.33730E-01    8.07563E+03
 3.68830E-01    7.89572E+03
 3.87740E-01    7.77805E+03
 4.07620E-01    7.58001E+03
 4.50490E-01    7.25546E+03
 4.97870E-01    7.01623E+03
 5.23400E-01    6.85942E+03
 5.50230E-01    6.71026E+03
 5.78440E-01    6.55898E+03
 6.08100E-01    6.42107E+03
 6.39280E-01    6.28263E+03
 6.72060E-01    6.15642E+03
 7.06510E-01    6.02600E+03
 7.42740E-01    5.89804E+03
 7.80820E-01    5.78259E+03
 8.20850E-01    5.69196E+03
 8.62940E-01    5.60496E+03
 9.07180E-01    5.51559E+03
 9.61640E-01    5.43684E+03
 1.00260E+00    5.38593E+03
 1.10800E+00    5.35426E+03
 1.16480E+00    5.33167E+03
 1.22460E+00    5.31944E+03
 1.28730E+00    5.35677E+03
 1.35340E+00    5.40181E+03
 1.42270E+00    5.44915E+03
 1.49570E+00    5.52359E+03
 1.57240E+00    5.63308E+03
 1.65300E+00    5.74823E+03
 1.73770E+00    5.86920E+03
 1.82680E+00    5.99139E+03
 1.92050E+00    6.11700E+03
 2.01900E+00    6.25304E+03
 2.12250E+00    6.40179E+03
 2.23130E+00    6.53112E+03
 2.30690E+00    6.60484E+03
 2.34570E+00    6.63981E+03
 2.36530E+00    6.66342E+03
 2.38520E+00    6.72337E+03
 2.46600E+00    6.84015E+03
 2.59240E+00    6.95840E+03
 2.72530E+00    7.07922E+03
 2.86500E+00    7.20495E+03
 3.01190E+00    7.28365E+03
 3.16640E+00    7.32370E+03
 3.32870E+00    7.38777E+03
 3.67880E+00    7.47451E+03
 4.06570E+00    7.42097E+03
 4.49330E+00    7.31796E+03
 4.72370E+00    7.24616E+03
 4.96590E+00    7.14111E+03
 5.22050E+00    6.97058E+03
 5.48810E+00    6.79484E+03
 5.76950E+00    6.62433E+03
 6.06530E+00    6.43102E+03
 6.37630E+00    6.25339E+03
 6.59240E+00    6.15075E+03
 6.70320E+00    6.01783E+03
 7.04690E+00    5.81916E+03
 7.40820E+00    5.62951E+03
 7.78800E+00    5.44956E+03
 8.18730E+00    5.33436E+03
 8.60710E+00    5.24250E+03
 9.04840E+00    5.15780E+03
 9.51230E+00    5.06926E+03
 1.00000E+01    5.02164E+03
 1.05130E+01    5.01802E+03
 1.10520E+01    5.02113E+03
 1.16180E+01    5.03523E+03
 1.22140E+01    5.10204E+03
 1.28400E+01    5.18688E+03
 1.34990E+01    5.25247E+03
 1.38400E+01    5.29755E+03
 1.41910E+01    5.35220E+03
 1.45500E+01    5.40913E+03
 1.49180E+01    5.49697E+03
 1.56830E+01    5.60724E+03
 1.64870E+01    5.67567E+03
