# n + Fe 55 : (n,n'13)  
# tendl.2019 A.J. Koning and D. Rochman        EVAL-NOV19
# uncertainties: n
# # energies =    75
#   E(MeV)       xs(mb) 
 2.53572E+00    0.00000E+00
 2.58573E+00    2.93697E+01
 2.60000E+00    3.77500E+01
 2.62503E+00    3.92375E+01
 2.64774E+00    4.05871E+01
 2.80000E+00    4.96355E+01
 2.86546E+00    5.18380E+01
 2.92504E+00    5.38427E+01
 2.99286E+00    5.61246E+01
 3.00000E+00    5.63648E+01
 3.03685E+00    5.71456E+01
 3.03919E+00    5.71952E+01
 3.08410E+00    5.81467E+01
 3.12840E+00    5.90854E+01
 3.13248E+00    5.91718E+01
 3.16578E+00    5.98773E+01
 3.20000E+00    6.06024E+01
 3.34531E+00    6.27474E+01
 3.37179E+00    6.31383E+01
 3.40000E+00    6.35547E+01
 3.42373E+00    6.35289E+01
 3.48177E+00    6.34658E+01
 3.52037E+00    6.34239E+01
 3.60000E+00    6.33373E+01
 3.80000E+00    6.03051E+01
 4.00000E+00    5.57428E+01
 4.20000E+00    5.04142E+01
 4.40000E+00    4.48425E+01
 4.60000E+00    3.94477E+01
 4.80000E+00    3.43915E+01
 5.00000E+00    2.98755E+01
 5.20000E+00    2.58437E+01
 5.40000E+00    2.23601E+01
 5.60000E+00    1.93636E+01
 5.80000E+00    1.67214E+01
 6.00000E+00    1.44896E+01
 6.20000E+00    1.25648E+01
 6.40000E+00    1.08896E+01
 6.60000E+00    9.47443E+00
 6.80000E+00    8.23771E+00
 7.00000E+00    7.17607E+00
 7.20000E+00    6.25398E+00
 7.40000E+00    5.43876E+00
 7.60000E+00    4.76000E+00
 7.80000E+00    4.14871E+00
 8.00000E+00    3.63135E+00
 8.50000E+00    2.58095E+00
 9.00000E+00    1.83865E+00
 9.50000E+00    1.31219E+00
 1.00000E+01    9.37794E-01
 1.05000E+01    6.69624E-01
 1.10000E+01    4.81016E-01
 1.15000E+01    3.46264E-01
 1.20000E+01    2.49720E-01
 1.25000E+01    1.80372E-01
 1.30000E+01    1.30414E-01
 1.35000E+01    9.43554E-02
 1.40000E+01    6.82473E-02
 1.45000E+01    4.94050E-02
 1.50000E+01    3.57814E-02
 1.60000E+01    1.88166E-02
 1.70000E+01    9.96255E-03
 1.80000E+01    5.32285E-03
 1.90000E+01    2.86850E-03
 2.00000E+01    1.56062E-03
 2.10000E+01    8.58535E-04
 2.20000E+01    4.75659E-04
 2.30000E+01    2.65472E-04
 2.40000E+01    1.50226E-04
 2.50000E+01    8.51699E-05
 2.60000E+01    4.74239E-05
 2.70000E+01    2.70584E-05
 2.80000E+01    1.55354E-05
 2.90000E+01    8.97628E-06
 3.00000E+01    5.20634E-06
