# n + Mo 92 : (n,xa)    
# endfb8.0   11   S. F. MUGHABGHAB+ JENDL3.3   EVAL-MAY 2
# 
# # energies =   147
#   E(MeV)        xs(mb) 
 1.52607E+00    6.07204E-05
 1.52663E+00    6.08920E-05
 1.52775E+00    6.12350E-05
 1.52882E+00    6.15688E-05
 1.53091E+00    6.22182E-05
 1.53287E+00    6.28372E-05
 1.53472E+00    6.34212E-05
 1.53817E+00    6.45348E-05
 1.54121E+00    6.55275E-05
 1.54386E+00    6.64121E-05
 1.54853E+00    6.79875E-05
 1.55203E+00    6.91985E-05
 1.55731E+00    7.10632E-05
 1.56260E+00    7.29797E-05
 1.56723E+00    7.47022E-05
 1.57129E+00    7.62449E-05
 1.57842E+00    7.90311E-05
 1.58378E+00    8.11966E-05
 1.59187E+00    8.45699E-05
 1.60000E+00    8.81040E-05
 1.61217E+00    9.36717E-05
 1.62290E+00    9.88674E-05
 1.63234E+00    1.03683E-04
 1.64065E+00    1.08111E-04
 1.65529E+00    1.16387E-04
 1.66636E+00    1.23057E-04
 1.68309E+00    1.33880E-04
 1.70000E+00    1.45764E-04
 1.72447E+00    1.64883E-04
 1.74305E+00    1.81048E-04
 1.75711E+00    1.94339E-04
 1.77843E+00    2.16350E-04
 1.80000E+00    2.41172E-04
 1.82450E+00    2.72849E-04
 1.84309E+00    2.99596E-04
 1.87133E+00    3.45384E-04
 1.90000E+00    3.99019E-04
 1.92452E+00    4.51477E-04
 1.96190E+00    5.44923E-04
 2.00000E+00    6.60162E-04
 2.04823E+00    7.69880E-04
 2.08516E+00    8.66039E-04
 2.14181E+00    1.03739E-03
 2.20000E+00    1.24874E-03
 2.30765E+00    1.75973E-03
 2.33040E+00    1.89204E-03
 2.36494E+00    2.11222E-03
 2.40000E+00    2.36188E-03
 2.44949E+00    2.76559E-03
 2.50000E+00    3.24851E-03
 2.54735E+00    3.77736E-03
 2.55483E+00    3.86849E-03
 2.60000E+00    4.46752E-03
 2.64107E+00    5.09225E-03
 2.71485E+00    6.44193E-03
 2.79069E+00    8.20337E-03
 2.80000E+00    8.45020E-03
 2.88098E+00    1.09386E-02
 2.88100E+00    1.09393E-02
 2.93990E+00    1.31971E-02
 3.00000E+00    1.59829E-02
 3.04000E+00    1.74061E-02
 3.09773E+00    1.96857E-02
 3.12520E+00    2.08730E-02
 3.12523E+00    2.08743E-02
 3.19319E+00    2.41303E-02
 3.24513E+00    2.69567E-02
 3.32463E+00    3.19355E-02
 3.40608E+00    3.79910E-02
 3.50000E+00    4.64130E-02
 3.58087E+00    5.51501E-02
 3.61959E+00    5.98953E-02
 3.66094E+00    6.54109E-02
 3.66458E+00    6.59238E-02
 3.72848E+00    7.55416E-02
 3.72850E+00    7.55448E-02
 3.79460E+00    8.69850E-02
 3.89594E+00    1.07956E-01
 4.00000E+00    1.34770E-01
 4.50000E+00    2.82772E-01
 4.62011E+00    3.37868E-01
 4.80630E+00    4.45248E-01
 5.00000E+00    5.81669E-01
 5.50000E+00    1.02325E+00
 5.74456E+00    1.29231E+00
 6.00000E+00    1.61316E+00
 6.48074E+00    2.19834E+00
 7.00000E+00    3.07074E+00
 8.00000E+00    4.56760E+00
 8.48528E+00    5.15996E+00
 9.00000E+00    5.87241E+00
 9.48683E+00    6.48478E+00
 1.00000E+01    7.19953E+00
 1.02411E+01    7.64817E+00
 1.04258E+01    8.01036E+00
 1.07091E+01    8.59978E+00
 1.08536E+01    8.91699E+00
 1.10000E+01    9.24961E+00
 1.11203E+01    9.52866E+00
 1.12266E+01    9.80323E+00
 1.14152E+01    1.03230E+01
 1.15586E+01    1.07368E+01
 1.16674E+01    1.10622E+01
 1.18326E+01    1.15735E+01
 1.20000E+01    1.21166E+01
 1.21207E+01    1.25562E+01
 1.22272E+01    1.29558E+01
 1.24160E+01    1.36961E+01
 1.25595E+01    1.42865E+01
 1.26682E+01    1.47506E+01
 1.28330E+01    1.54807E+01
 1.30000E+01    1.62171E+01
 1.31210E+01    1.67866E+01
 1.32278E+01    1.73051E+01
 1.34167E+01    1.82610E+01
 1.35602E+01    1.90203E+01
 1.36689E+01    1.96166E+01
 1.38334E+01    2.05508E+01
 1.40000E+01    2.15420E+01
 1.41213E+01    2.21904E+01
 1.42282E+01    2.27741E+01
 1.44174E+01    2.38424E+01
 1.45609E+01    2.46221E+01
 1.46694E+01    2.51645E+01
 1.48338E+01    2.60071E+01
 1.50000E+01    2.68828E+01
 1.51215E+01    2.74366E+01
 1.53365E+01    2.84347E+01
 1.54997E+01    2.92044E+01
 1.56233E+01    2.97970E+01
 1.58105E+01    3.07064E+01
 1.60000E+01    3.16440E+01
 1.62443E+01    3.24237E+01
 1.64300E+01    3.30163E+01
 1.67126E+01    3.39179E+01
 1.70000E+01    3.48350E+01
 1.72447E+01    3.56875E+01
 1.74305E+01    3.63078E+01
 1.77129E+01    3.70376E+01
 1.80000E+01    3.78018E+01
 1.82450E+01    3.90248E+01
 1.86187E+01    4.09310E+01
 1.90000E+01    4.29330E+01
 1.92452E+01    4.47950E+01
 1.96190E+01    4.76801E+01
 1.98086E+01    4.91629E+01
 2.00000E+01    5.06737E+01
