# n + Sr 88 : (n,g)     
# jendl.ad   K.Shibata, A.Ichihara, S.Kunieda  EVAL-APR13
# uncertainties: n
# # energies =   171
#   E(MeV)       xs(mb) 
 1.00000E-11    6.27273E+01
 1.00000E-07    2.08667E+00
 4.13990E-07    1.34414E+00
 5.31580E-07    1.18538E+00
 6.82560E-07    1.04467E+00
 8.76420E-07    9.20475E-01
 1.12540E-06    8.11076E-01
 1.44500E-06    7.14082E-01
 1.85540E-06    6.29073E-01
 2.37240E-06    5.53028E-01
 3.05900E-06    4.85042E-01
 3.92790E-06    4.25449E-01
 5.04350E-06    3.72525E-01
 6.47600E-06    3.25552E-01
 8.31530E-06    2.83889E-01
 1.06770E-05    2.46852E-01
 1.37100E-05    2.13999E-01
 1.76030E-05    1.84955E-01
 2.26030E-05    1.58933E-01
 2.92030E-05    1.36367E-01
 3.72670E-05    1.16946E-01
 4.78510E-05    9.98677E-02
 6.14420E-05    8.52449E-02
 7.88930E-05    7.28557E-02
 1.01300E-04    6.24446E-02
 1.30070E-04    5.37863E-02
 1.67020E-04    4.66200E-02
 2.14450E-04    4.07029E-02
 2.75360E-04    3.58192E-02
 3.53580E-04    3.17871E-02
 4.54000E-04    2.84539E-02
 5.82950E-04    2.57156E-02
 7.48520E-04    2.34906E-02
 9.61120E-04    2.17345E-02
 1.23410E-03    2.04290E-02
 1.58460E-03    1.95986E-02
 2.03470E-03    1.93133E-02
 2.24870E-03    1.92928E-02
 2.48520E-03    1.93508E-02
 2.61260E-03    1.94427E-02
 2.74650E-03    1.96287E-02
 3.03540E-03    2.00188E-02
 3.35460E-03    2.06042E-02
 3.70740E-03    2.17095E-02
 4.30740E-03    2.47836E-02
 5.53080E-03    3.29364E-02
 7.10170E-03    5.71235E-02
 9.11880E-03    2.77915E-01
 1.17090E-02    5.42014E+01
 1.50340E-02    2.47769E-01
 1.93050E-02    5.01840E+00
 2.18750E-02    6.70738E+00
 2.35790E-02    5.64219E+01
 2.41760E-02    7.72757E-01
 2.47880E-02    2.19945E-01
 2.60580E-02    1.75785E+00
 2.70000E-02    2.71754E-01
 2.85000E-02    1.69248E+01
 3.18280E-02    7.14933E-02
 3.43070E-02    3.24239E+00
 4.08680E-02    1.39314E-02
 4.63090E-02    3.87281E+00
 5.24750E-02    1.15080E+01
 5.65620E-02    1.28805E+00
 6.73790E-02    1.46664E-02
 7.20000E-02    2.98316E+00
 7.95000E-02    3.80061E-02
 8.25000E-02    8.78524E-02
 8.65170E-02    3.94769E+00
 9.80370E-02    2.01414E+00
 1.11090E-01    9.54984E-01
 1.16790E-01    5.09225E+00
 1.22770E-01    3.70044E+00
 1.29070E-01    6.99745E-01
 1.35690E-01    8.15674E-01
 1.42640E-01    1.10267E+00
 1.49960E-01    3.72479E+00
 1.57640E-01    5.81776E-01
 1.65730E-01    2.21335E+00
 1.74220E-01    1.25393E+00
 1.83160E-01    1.21937E+00
 1.92550E-01    1.56466E+00
 2.02420E-01    1.59374E+00
 2.12800E-01    7.05699E-01
 2.23710E-01    2.35104E+00
 2.35180E-01    1.63522E+00
 2.47240E-01    1.49260E+00
 2.73240E-01    1.66561E+00
 2.87250E-01    3.47663E+00
 2.94520E-01    5.94954E-01
 2.97200E-01    1.83462E+00
 2.98500E-01    1.35817E+00
 3.01970E-01    1.94763E+00
 3.33730E-01    1.89185E+00
 3.68830E-01    1.84640E+00
 3.87740E-01    1.81516E+00
 4.07620E-01    1.78503E+00
 4.50490E-01    1.74581E+00
 4.97870E-01    1.73147E+00
 5.23400E-01    1.75199E+00
 5.50230E-01    1.77373E+00
 5.78440E-01    1.79604E+00
 6.08100E-01    1.80883E+00
 6.39280E-01    1.81810E+00
 6.72060E-01    1.82772E+00
 7.06510E-01    1.83296E+00
 7.42740E-01    1.83593E+00
 7.80820E-01    1.84183E+00
 8.20850E-01    1.86403E+00
 8.62940E-01    1.89031E+00
 9.07180E-01    1.94236E+00
 9.61640E-01    2.00312E+00
 1.00260E+00    2.09882E+00
 1.10800E+00    2.20818E+00
 1.16480E+00    2.28617E+00
 1.22460E+00    2.36810E+00
 1.28730E+00    2.45425E+00
 1.35340E+00    2.54481E+00
 1.42270E+00    2.63998E+00
 1.49570E+00    2.68432E+00
 1.57240E+00    2.66015E+00
 1.65300E+00    2.63454E+00
 1.73770E+00    2.60760E+00
 1.82680E+00    2.57928E+00
 1.92050E+00    2.54860E+00
 2.01900E+00    2.48304E+00
 2.12250E+00    2.39707E+00
 2.23130E+00    2.32220E+00
 2.30690E+00    2.27574E+00
 2.34570E+00    2.25206E+00
 2.36530E+00    2.23606E+00
 2.38520E+00    2.19545E+00
 2.46600E+00    2.11631E+00
 2.59240E+00    2.02831E+00
 2.72530E+00    1.93647E+00
 2.86500E+00    1.84006E+00
 3.01190E+00    1.76827E+00
 3.16640E+00    1.71505E+00
 3.32870E+00    1.59685E+00
 3.67880E+00    1.23302E+00
 4.06570E+00    8.73286E-01
 4.49330E+00    6.52608E-01
 4.72370E+00    5.54290E-01
 4.96590E+00    4.75973E-01
 5.22050E+00    4.35830E-01
 5.48810E+00    3.96563E-01
 5.76950E+00    3.58032E-01
 6.06530E+00    3.17539E-01
 6.37630E+00    2.83388E-01
 6.59240E+00    2.67832E-01
 6.70320E+00    2.48748E-01
 7.04690E+00    2.18974E-01
 7.40820E+00    1.93452E-01
 7.78800E+00    1.80682E-01
 8.18730E+00    1.64742E-01
 8.60710E+00    1.61223E-01
 9.04840E+00    1.58990E-01
 9.51230E+00    1.66157E-01
 1.00000E+01    1.85166E-01
 1.05130E+01    2.05115E-01
 1.10520E+01    2.21384E-01
 1.16180E+01    2.36960E-01
 1.22140E+01    2.74799E-01
 1.28400E+01    3.24383E-01
 1.34990E+01    3.69493E-01
 1.38400E+01    4.03375E-01
 1.41910E+01    4.50790E-01
 1.45500E+01    4.74811E-01
 1.49180E+01    4.92998E-01
 1.56830E+01    5.17385E-01
 1.64870E+01    5.11764E-01
