# n + Sr 88 : (n,a)     
# jendl.ad   K.Shibata, A.Ichihara, S.Kunieda  EVAL-APR13
# uncertainties: n
# # energies =    72
#   E(MeV)       xs(mb) 
 8.04195E-01    0.00000E+00
 1.00000E+00    5.01017E-04
 1.10936E+00    6.10597E-04
 1.11257E+00    6.16405E-04
 1.50000E+00    1.69984E-03
 2.00000E+00    2.73413E-03
 2.11474E+00    3.01084E-03
 2.20510E+00    3.21837E-03
 2.34792E+00    3.52967E-03
 2.50000E+00    3.84097E-03
 2.66170E+00    4.37070E-03
 2.85004E+00    4.94858E-03
 3.00000E+00    5.38200E-03
 3.11787E+00    5.91874E-03
 3.30341E+00    6.72386E-03
 3.50000E+00    7.52897E-03
 3.61881E+00    8.27689E-03
 3.80464E+00    9.39875E-03
 4.00000E+00    1.05206E-02
 4.21152E+00    1.23443E-02
 4.40171E+00    1.39073E-02
 4.50000E+00    1.46889E-02
 4.71228E+00    1.72293E-02
 4.90219E+00    1.94067E-02
 5.00000E+00    2.04955E-02
 5.21290E+00    2.40335E-02
 5.40258E+00    2.70662E-02
 5.50000E+00    2.85825E-02
 5.74456E+00    3.42139E-02
 6.00000E+00    3.98453E-02
 6.24500E+00    4.76832E-02
 6.50000E+00    5.55211E-02
 6.74537E+00    6.64283E-02
 7.00000E+00    7.73355E-02
 7.24569E+00    9.25052E-02
 7.50000E+00    1.07675E-01
 7.87196E+00    1.28272E-01
 8.00000E+00    1.35138E-01
 8.24621E+00    1.69881E-01
 8.50000E+00    2.04624E-01
 8.74643E+00    2.45548E-01
 9.00000E+00    2.86471E-01
 9.24662E+00    3.41757E-01
 9.50000E+00    3.97043E-01
 9.74679E+00    4.71217E-01
 1.00000E+01    5.45393E-01
 1.02470E+01    6.43073E-01
 1.05000E+01    7.40752E-01
 1.08728E+01    9.28797E-01
 1.10000E+01    9.91479E-01
 1.13729E+01    1.22549E+00
 1.15000E+01    1.30350E+00
 1.18730E+01    1.58494E+00
 1.20000E+01    1.67875E+00
 1.23731E+01    2.00695E+00
 1.25000E+01    2.11636E+00
 1.28732E+01    2.48623E+00
 1.30000E+01    2.60952E+00
 1.35000E+01    3.14750E+00
 1.40000E+01    3.71506E+00
 1.45000E+01    4.29104E+00
 1.50000E+01    4.85023E+00
 1.55000E+01    5.36433E+00
 1.60000E+01    5.80545E+00
 1.65000E+01    6.15185E+00
 1.70000E+01    6.39157E+00
 1.75000E+01    6.52490E+00
 1.80000E+01    6.56275E+00
 1.85000E+01    6.52355E+00
 1.90000E+01    6.42652E+00
 1.95000E+01    6.28962E+00
 2.00000E+01    6.12772E+00
