# n + Bk248 : (n,n'25)  
# tendl.2019 A.J. Koning and D. Rochman        EVAL-NOV19
# uncertainties: n
# # energies =    78
#   E(MeV)       xs(mb) 
 2.89635E-01    0.00000E+00
 2.90651E-01    1.92849E-02
 3.00000E-01    1.96742E-01
 3.01220E-01    2.15703E-01
 3.05362E-01    2.80077E-01
 3.08499E-01    3.28832E-01
 3.13771E-01    4.10769E-01
 4.00000E-01    1.75093E+00
 5.00000E-01    2.77156E+00
 6.00000E-01    3.36106E+00
 7.00000E-01    3.74230E+00
 8.00000E-01    4.00657E+00
 9.00000E-01    4.14973E+00
 1.00000E+00    4.13318E+00
 1.20000E+00    3.66062E+00
 1.40000E+00    2.83783E+00
 1.60000E+00    2.00558E+00
 1.80000E+00    1.34390E+00
 2.00000E+00    8.76474E-01
 2.20000E+00    5.65332E-01
 2.40000E+00    3.63642E-01
 2.60000E+00    2.33960E-01
 2.80000E+00    1.50669E-01
 3.00000E+00    9.71827E-02
 3.20000E+00    6.28641E-02
 3.40000E+00    4.07563E-02
 3.60000E+00    2.65610E-02
 3.80000E+00    1.73957E-02
 4.00000E+00    1.14649E-02
 4.20000E+00    7.60408E-03
 4.40000E+00    5.08275E-03
 4.60000E+00    3.42166E-03
 4.80000E+00    2.32674E-03
 5.00000E+00    1.59472E-03
 5.20000E+00    1.09788E-03
 5.40000E+00    7.63711E-04
 5.60000E+00    5.34871E-04
 5.80000E+00    3.77511E-04
 6.00000E+00    2.67487E-04
 6.20000E+00    1.90300E-04
 6.40000E+00    1.35915E-04
 6.60000E+00    9.72002E-05
 6.80000E+00    6.98223E-05
 7.00000E+00    5.01968E-05
 7.20000E+00    3.61650E-05
 7.40000E+00    2.61421E-05
 7.60000E+00    1.89259E-05
 7.80000E+00    1.37637E-05
 8.00000E+00    1.00393E-05
 8.50000E+00    4.63628E-06
 9.00000E+00    2.19686E-06
 9.50000E+00    1.06954E-06
 1.00000E+01    5.35010E-07
 1.05000E+01    2.74460E-07
 1.10000E+01    1.44030E-07
 1.15000E+01    7.71270E-08
 1.20000E+01    4.20610E-08
 1.25000E+01    2.33310E-08
 1.30000E+01    1.31550E-08
 1.35000E+01    7.53410E-09
 1.40000E+01    4.38260E-09
 1.45000E+01    2.58910E-09
 1.50000E+01    1.55330E-09
 1.60000E+01    5.81170E-10
 1.70000E+01    2.30190E-10
 1.80000E+01    9.54080E-11
 1.90000E+01    4.10750E-11
 2.00000E+01    1.82690E-11
 2.10000E+01    8.37150E-12
 2.20000E+01    3.94360E-12
 2.30000E+01    1.91080E-12
 2.40000E+01    9.52550E-13
 2.50000E+01    4.87360E-13
 2.60000E+01    2.56070E-13
 2.70000E+01    1.37370E-13
 2.80000E+01    7.51870E-14
 2.90000E+01    4.19830E-14
 3.00000E+01    2.38730E-14
