# n + Bk248 : (n,n'23)  
# tendl.2019 A.J. Koning and D. Rochman        EVAL-NOV19
# uncertainties: n
# # energies =    80
#   E(MeV)       xs(mb) 
 2.86876E-01    0.00000E+00
 2.88757E-01    1.64699E-02
 2.89635E-01    2.41577E-02
 2.90651E-01    3.30537E-02
 3.00000E-01    1.14913E-01
 3.01220E-01    1.24411E-01
 3.05362E-01    1.56656E-01
 3.08499E-01    1.81078E-01
 3.13771E-01    2.22121E-01
 4.00000E-01    8.93417E-01
 5.00000E-01    1.32531E+00
 6.00000E-01    1.49887E+00
 7.00000E-01    1.58564E+00
 8.00000E-01    1.65525E+00
 9.00000E-01    1.71210E+00
 1.00000E+00    1.73371E+00
 1.20000E+00    1.62808E+00
 1.40000E+00    1.33759E+00
 1.60000E+00    9.88095E-01
 1.80000E+00    6.85755E-01
 2.00000E+00    4.61460E-01
 2.20000E+00    3.06652E-01
 2.40000E+00    2.03043E-01
 2.60000E+00    1.34315E-01
 2.80000E+00    8.87475E-02
 3.00000E+00    5.85596E-02
 3.20000E+00    3.86233E-02
 3.40000E+00    2.54590E-02
 3.60000E+00    1.68159E-02
 3.80000E+00    1.11372E-02
 4.00000E+00    7.40559E-03
 4.20000E+00    4.94622E-03
 4.40000E+00    3.32367E-03
 4.60000E+00    2.24597E-03
 4.80000E+00    1.53091E-03
 5.00000E+00    1.05065E-03
 5.20000E+00    7.23543E-04
 5.40000E+00    5.03106E-04
 5.60000E+00    3.52052E-04
 5.80000E+00    2.48207E-04
 6.00000E+00    1.75659E-04
 6.20000E+00    1.24838E-04
 6.40000E+00    8.90775E-05
 6.60000E+00    6.36515E-05
 6.80000E+00    4.56933E-05
 7.00000E+00    3.28259E-05
 7.20000E+00    2.36322E-05
 7.40000E+00    1.70675E-05
 7.60000E+00    1.23422E-05
 7.80000E+00    8.96326E-06
 8.00000E+00    6.52644E-06
 8.50000E+00    2.99604E-06
 9.00000E+00    1.40783E-06
 9.50000E+00    6.78280E-07
 1.00000E+01    3.35260E-07
 1.05000E+01    1.69810E-07
 1.10000E+01    8.79750E-08
 1.15000E+01    4.65200E-08
 1.20000E+01    2.50650E-08
 1.25000E+01    1.37440E-08
 1.30000E+01    7.66300E-09
 1.35000E+01    4.34080E-09
 1.40000E+01    2.49740E-09
 1.45000E+01    1.45900E-09
 1.50000E+01    8.65300E-10
 1.60000E+01    3.16140E-10
 1.70000E+01    1.22200E-10
 1.80000E+01    4.94510E-11
 1.90000E+01    2.08130E-11
 2.00000E+01    9.06620E-12
 2.10000E+01    4.07540E-12
 2.20000E+01    1.88540E-12
 2.30000E+01    8.97650E-13
 2.40000E+01    4.39810E-13
 2.50000E+01    2.21260E-13
 2.60000E+01    1.14390E-13
 2.70000E+01    6.04460E-14
 2.80000E+01    3.26290E-14
 2.90000E+01    1.79860E-14
 3.00000E+01    1.01040E-14
