# n + Bk248 : (n,n'26)  
# tendl.2019 A.J. Koning and D. Rochman        EVAL-NOV19
# uncertainties: n
# # energies =    77
#   E(MeV)       xs(mb) 
 2.90651E-01    0.00000E+00
 3.00000E-01    1.86736E+01
 3.01220E-01    1.90978E+01
 3.05362E-01    2.05382E+01
 3.08499E-01    2.16291E+01
 3.13771E-01    2.34624E+01
 4.00000E-01    5.34482E+01
 5.00000E-01    5.17074E+01
 6.00000E-01    4.30748E+01
 7.00000E-01    3.44917E+01
 8.00000E-01    2.74850E+01
 9.00000E-01    2.20792E+01
 1.00000E+00    1.79019E+01
 1.20000E+00    1.20793E+01
 1.40000E+00    8.14961E+00
 1.60000E+00    5.36711E+00
 1.80000E+00    3.44106E+00
 2.00000E+00    2.16038E+00
 2.20000E+00    1.33973E+00
 2.40000E+00    8.26538E-01
 2.60000E+00    5.09511E-01
 2.80000E+00    3.14547E-01
 3.00000E+00    1.94867E-01
 3.20000E+00    1.21409E-01
 3.40000E+00    7.60713E-02
 3.60000E+00    4.80505E-02
 3.80000E+00    3.05870E-02
 4.00000E+00    1.96357E-02
 4.20000E+00    1.27072E-02
 4.40000E+00    8.29763E-03
 4.60000E+00    5.46155E-03
 4.80000E+00    3.63383E-03
 5.00000E+00    2.43772E-03
 5.20000E+00    1.64366E-03
 5.40000E+00    1.12062E-03
 5.60000E+00    7.69907E-04
 5.80000E+00    5.33729E-04
 6.00000E+00    3.72037E-04
 6.20000E+00    2.60806E-04
 6.40000E+00    1.83871E-04
 6.60000E+00    1.30035E-04
 6.80000E+00    9.25070E-05
 7.00000E+00    6.59617E-05
 7.20000E+00    4.71876E-05
 7.40000E+00    3.38995E-05
 7.60000E+00    2.44078E-05
 7.80000E+00    1.76623E-05
 8.00000E+00    1.28229E-05
 8.50000E+00    5.85663E-06
 9.00000E+00    2.74419E-06
 9.50000E+00    1.32023E-06
 1.00000E+01    6.52230E-07
 1.05000E+01    3.30390E-07
 1.10000E+01    1.71250E-07
 1.15000E+01    9.06350E-08
 1.20000E+01    4.88900E-08
 1.25000E+01    2.68430E-08
 1.30000E+01    1.49910E-08
 1.35000E+01    8.50720E-09
 1.40000E+01    4.90460E-09
 1.45000E+01    2.87190E-09
 1.50000E+01    1.70780E-09
 1.60000E+01    6.27700E-10
 1.70000E+01    2.44290E-10
 1.80000E+01    9.95680E-11
 1.90000E+01    4.22080E-11
 2.00000E+01    1.85130E-11
 2.10000E+01    8.37700E-12
 2.20000E+01    3.90020E-12
 2.30000E+01    1.86860E-12
 2.40000E+01    9.21270E-13
 2.50000E+01    4.66300E-13
 2.60000E+01    2.42500E-13
 2.70000E+01    1.28850E-13
 2.80000E+01    6.99060E-14
 2.90000E+01    3.87160E-14
 3.00000E+01    2.18460E-14
