# n + Hg196 : (n,tot)   
# jendl4.0   K.SHIBATA, T.FUKAHORI, S.CHIBA,+  EVAL-SEP97
# uncertainties: n
# # energies =   171
#   E(MeV)       xs(mb) 
 1.00000E-11    3.43012E+07
 1.00000E-07    1.02955E+06
 4.13990E-07    5.56003E+05
 5.31580E-07    4.51709E+05
 6.82560E-07    3.60824E+05
 8.76420E-07    2.83100E+05
 1.12540E-06    2.18193E+05
 1.44500E-06    1.65427E+05
 1.85540E-06    1.24051E+05
 2.37240E-06    9.20505E+04
 3.05900E-06    6.80883E+04
 3.92790E-06    5.09058E+04
 5.04350E-06    3.87374E+04
 6.47600E-06    3.02555E+04
 8.31530E-06    2.43777E+04
 1.06770E-05    2.03069E+04
 1.37100E-05    1.74587E+04
 1.76030E-05    1.54291E+04
 2.26030E-05    1.39174E+04
 2.92030E-05    1.27539E+04
 3.72670E-05    1.17608E+04
 4.78510E-05    1.06910E+04
 6.14420E-05    9.03490E+03
 7.88930E-05    3.51874E+05
 1.01300E-04    8.80100E+04
 1.30070E-04    8.19704E+04
 1.67020E-04    7.30669E+04
 2.14450E-04    6.51308E+04
 2.75360E-04    5.80545E+04
 3.53580E-04    5.17489E+04
 4.54000E-04    4.61275E+04
 5.82950E-04    4.11166E+04
 7.48520E-04    3.66505E+04
 9.61120E-04    3.32256E+04
 1.23410E-03    3.10746E+04
 1.58460E-03    2.90813E+04
 2.03470E-03    2.77580E+04
 2.24870E-03    2.70319E+04
 2.48520E-03    2.64989E+04
 2.61260E-03    2.61504E+04
 2.74650E-03    2.56357E+04
 3.03540E-03    2.49650E+04
 3.35460E-03    2.43112E+04
 3.70740E-03    2.35198E+04
 4.30740E-03    2.23074E+04
 5.53080E-03    2.08767E+04
 7.10170E-03    1.95376E+04
 9.11880E-03    1.83497E+04
 1.17090E-02    1.74675E+04
 1.50340E-02    1.66486E+04
 1.93050E-02    1.60587E+04
 2.18750E-02    1.57529E+04
 2.35790E-02    1.56018E+04
 2.41760E-02    1.55272E+04
 2.47880E-02    1.54161E+04
 2.60580E-02    1.52901E+04
 2.70000E-02    1.51590E+04
 2.85000E-02    1.49218E+04
 3.18280E-02    1.46580E+04
 3.43070E-02    1.43110E+04
 4.08680E-02    1.39045E+04
 4.63090E-02    1.35744E+04
 5.24750E-02    1.33160E+04
 5.65620E-02    1.30006E+04
 6.73790E-02    1.27021E+04
 7.20000E-02    1.25022E+04
 7.95000E-02    1.23398E+04
 8.25000E-02    1.22400E+04
 8.65170E-02    1.20390E+04
 9.80370E-02    1.16935E+04
 1.11090E-01    1.13689E+04
 1.16790E-01    1.11938E+04
 1.22770E-01    1.10145E+04
 1.29070E-01    1.08349E+04
 1.35690E-01    1.06684E+04
 1.42640E-01    1.04944E+04
 1.49960E-01    1.03272E+04
 1.57640E-01    1.01662E+04
 1.65730E-01    9.99929E+03
 1.74220E-01    9.84465E+03
 1.83160E-01    9.68697E+03
 1.92550E-01    9.53017E+03
 2.02420E-01    9.38359E+03
 2.12800E-01    9.23005E+03
 2.23710E-01    9.08381E+03
 2.35180E-01    8.94239E+03
 2.47240E-01    8.72696E+03
 2.73240E-01    8.52109E+03
 2.87250E-01    8.41401E+03
 2.94520E-01    8.36906E+03
 2.97200E-01    8.35226E+03
 2.98500E-01    8.33217E+03
 3.01970E-01    8.18580E+03
 3.33730E-01    7.92692E+03
 3.68830E-01    7.73555E+03
 3.87740E-01    7.61632E+03
 4.07620E-01    7.43261E+03
 4.50490E-01    7.19726E+03
 4.97870E-01    7.00281E+03
 5.23400E-01    6.85755E+03
 5.50230E-01    6.71218E+03
 5.78440E-01    6.58057E+03
 6.08100E-01    6.44982E+03
 6.39280E-01    6.32679E+03
 6.72060E-01    6.20825E+03
 7.06510E-01    6.09175E+03
 7.42740E-01    5.97272E+03
 7.80820E-01    5.86639E+03
 8.20850E-01    5.78492E+03
 8.62940E-01    5.70695E+03
 9.07180E-01    5.62482E+03
 9.61640E-01    5.55400E+03
 1.00260E+00    5.53281E+03
 1.10800E+00    5.54126E+03
 1.16480E+00    5.54728E+03
 1.22460E+00    5.55393E+03
 1.28730E+00    5.56142E+03
 1.35340E+00    5.56864E+03
 1.42270E+00    5.57012E+03
 1.49570E+00    5.61234E+03
 1.57240E+00    5.70659E+03
 1.65300E+00    5.80579E+03
 1.73770E+00    5.90609E+03
 1.82680E+00    6.00227E+03
 1.92050E+00    6.10402E+03
 2.01900E+00    6.21800E+03
 2.12250E+00    6.33914E+03
 2.23130E+00    6.44466E+03
 2.30690E+00    6.51014E+03
 2.34570E+00    6.54235E+03
 2.36530E+00    6.56173E+03
 2.38520E+00    6.61086E+03
 2.46600E+00    6.70805E+03
 2.59240E+00    6.80765E+03
 2.72530E+00    6.90866E+03
 2.86500E+00    7.01254E+03
 3.01190E+00    7.07275E+03
 3.16640E+00    7.10404E+03
 3.32870E+00    7.15421E+03
 3.67880E+00    7.22111E+03
 4.06570E+00    7.16008E+03
 4.49330E+00    7.05775E+03
 4.72370E+00    6.98564E+03
 4.96590E+00    6.88439E+03
 5.22050E+00    6.72682E+03
 5.48810E+00    6.56705E+03
 5.76950E+00    6.41229E+03
 6.06530E+00    6.23580E+03
 6.37630E+00    6.07311E+03
 6.59240E+00    5.97592E+03
 6.70320E+00    5.85531E+03
 7.04690E+00    5.67288E+03
 7.40820E+00    5.49912E+03
 7.78800E+00    5.33373E+03
 8.18730E+00    5.23522E+03
 8.60710E+00    5.14463E+03
 9.04840E+00    5.05643E+03
 9.51230E+00    4.98935E+03
 1.00000E+01    4.96203E+03
 1.05130E+01    4.96759E+03
 1.10520E+01    4.97219E+03
 1.16180E+01    4.98284E+03
 1.22140E+01    5.03616E+03
 1.28400E+01    5.10653E+03
 1.34990E+01    5.16416E+03
 1.38400E+01    5.20621E+03
 1.41910E+01    5.25501E+03
 1.45500E+01    5.30592E+03
 1.49180E+01    5.38528E+03
 1.56830E+01    5.48748E+03
 1.64870E+01    5.55958E+03
