# n + Nd145 : (n,n'06)  
# jeff3.3    A.J. Koning and D. Rochman        EVAL-DEC15
# uncertainties: n
# # energies =    90
#   E(MeV)       xs(mb) 
 9.26424E-01    0.00000E+00
 9.30774E-01    4.73586E-01
 9.34459E-01    8.74778E-01
 9.43445E-01    1.85311E+00
 1.00000E+00    8.01034E+00
 1.01805E+00    8.51760E+00
 1.05875E+00    9.66138E+00
 1.09278E+00    1.06177E+01
 1.11893E+00    1.13526E+01
 1.15828E+00    1.24585E+01
 1.16906E+00    1.27614E+01
 1.17042E+00    1.27996E+01
 1.20000E+00    1.36309E+01
 1.22180E+00    1.41214E+01
 1.25842E+00    1.49453E+01
 1.29446E+00    1.57562E+01
 1.32610E+00    1.64681E+01
 1.33550E+00    1.66796E+01
 1.34794E+00    1.69595E+01
 1.40000E+00    1.81308E+01
 1.41065E+00    1.82845E+01
 1.41236E+00    1.83092E+01
 1.41368E+00    1.83282E+01
 1.43754E+00    1.86726E+01
 1.53770E+00    2.01180E+01
 1.53964E+00    2.01460E+01
 1.54293E+00    2.01935E+01
 1.54397E+00    2.02085E+01
 1.60000E+00    2.10171E+01
 1.80000E+00    2.00961E+01
 2.00000E+00    1.68588E+01
 2.20000E+00    1.30487E+01
 2.40000E+00    9.67409E+00
 2.60000E+00    7.04223E+00
 2.80000E+00    5.09883E+00
 3.00000E+00    3.69617E+00
 3.20000E+00    2.68752E+00
 3.40000E+00    1.95972E+00
 3.60000E+00    1.43311E+00
 3.80000E+00    1.04943E+00
 4.00000E+00    7.68937E-01
 4.20000E+00    5.63473E-01
 4.40000E+00    4.12761E-01
 4.60000E+00    3.02314E-01
 4.80000E+00    2.21542E-01
 5.00000E+00    1.62576E-01
 5.20000E+00    1.19610E-01
 5.40000E+00    8.82827E-02
 5.60000E+00    6.54913E-02
 5.80000E+00    4.87581E-02
 6.00000E+00    3.65378E-02
 6.20000E+00    2.73756E-02
 6.40000E+00    2.06200E-02
 6.60000E+00    1.56175E-02
 6.80000E+00    1.18438E-02
 7.00000E+00    9.03576E-03
 7.20000E+00    6.90818E-03
 7.40000E+00    5.29834E-03
 7.60000E+00    4.08323E-03
 7.80000E+00    3.14844E-03
 8.00000E+00    2.43999E-03
 8.50000E+00    1.29930E-03
 9.00000E+00    7.00516E-04
 9.50000E+00    3.81671E-04
 1.00000E+01    2.10127E-04
 1.05000E+01    1.16895E-04
 1.10000E+01    6.57598E-05
 1.15000E+01    3.74114E-05
 1.20000E+01    2.15269E-05
 1.25000E+01    1.25183E-05
 1.30000E+01    7.35393E-06
 1.35000E+01    4.36204E-06
 1.40000E+01    2.61010E-06
 1.45000E+01    1.57477E-06
 1.50000E+01    9.56590E-07
 1.60000E+01    3.60100E-07
 1.70000E+01    1.38880E-07
 1.80000E+01    5.48550E-08
 1.90000E+01    2.19980E-08
 2.00000E+01    9.08830E-09
 2.10000E+01    3.83140E-09
 2.20000E+01    1.64670E-09
 2.30000E+01    7.20780E-10
 2.40000E+01    3.21020E-10
 2.50000E+01    1.45280E-10
 2.60000E+01    6.66730E-11
 2.70000E+01    3.09980E-11
 2.80000E+01    1.45680E-11
 2.90000E+01    6.91920E-12
 3.00000E+01    3.32140E-12
