# n + Nd145 : (n,n'23)  
# jeff3.3    A.J. Koning and D. Rochman        EVAL-DEC15
# uncertainties: n
# # energies =    70
#   E(MeV)       xs(mb) 
 1.41065E+00    0.00000E+00
 1.41236E+00    1.21584E-01
 1.41368E+00    2.15442E-01
 1.43754E+00    1.91200E+00
 1.53770E+00    9.03381E+00
 1.53964E+00    9.17174E+00
 1.54293E+00    9.40568E+00
 1.54397E+00    9.47962E+00
 1.60000E+00    1.34636E+01
 1.80000E+00    1.56642E+01
 2.00000E+00    1.72692E+01
 2.20000E+00    1.69433E+01
 2.40000E+00    1.46984E+01
 2.60000E+00    1.16645E+01
 2.80000E+00    8.78713E+00
 3.00000E+00    6.45925E+00
 3.20000E+00    4.70687E+00
 3.40000E+00    3.42690E+00
 3.60000E+00    2.50385E+00
 3.80000E+00    1.83802E+00
 4.00000E+00    1.35729E+00
 4.20000E+00    1.00923E+00
 4.40000E+00    7.55954E-01
 4.60000E+00    5.70806E-01
 4.80000E+00    4.34996E-01
 5.00000E+00    3.35161E-01
 5.20000E+00    2.61786E-01
 5.40000E+00    2.08025E-01
 5.60000E+00    1.68789E-01
 5.80000E+00    1.40043E-01
 6.00000E+00    1.19261E-01
 6.20000E+00    1.03891E-01
 6.40000E+00    9.28062E-02
 6.60000E+00    8.48635E-02
 6.80000E+00    7.90894E-02
 7.00000E+00    7.49943E-02
 7.20000E+00    7.20559E-02
 7.40000E+00    6.99605E-02
 7.60000E+00    6.84805E-02
 7.80000E+00    6.74049E-02
 8.00000E+00    6.66339E-02
 8.50000E+00    6.54141E-02
 9.00000E+00    6.46347E-02
 9.50000E+00    6.39536E-02
 1.00000E+01    6.32683E-02
 1.05000E+01    6.25706E-02
 1.10000E+01    6.18816E-02
 1.15000E+01    6.12214E-02
 1.20000E+01    6.06018E-02
 1.25000E+01    6.00256E-02
 1.30000E+01    5.94919E-02
 1.35000E+01    5.89969E-02
 1.40000E+01    5.85365E-02
 1.45000E+01    5.81065E-02
 1.50000E+01    5.77009E-02
 1.60000E+01    5.69362E-02
 1.70000E+01    5.61839E-02
 1.80000E+01    5.54002E-02
 1.90000E+01    5.45713E-02
 2.00000E+01    5.37138E-02
 2.10000E+01    5.28614E-02
 2.20000E+01    5.20460E-02
 2.30000E+01    5.12823E-02
 2.40000E+01    5.05609E-02
 2.50000E+01    4.98553E-02
 2.60000E+01    4.91329E-02
 2.70000E+01    4.83692E-02
 2.80000E+01    4.75566E-02
 2.90000E+01    4.67032E-02
 3.00000E+01    4.58269E-02
