# n + Ar 40 : (n,el)    
# jeff3.3    T.WATANABE                        EVAL-MAR94
# uncertainties: n
# # energies =   171
#   E(MeV)       xs(mb) 
 1.00000E-11    1.54154E+03
 1.00000E-07    6.48121E+02
 4.13990E-07    6.47434E+02
 5.31580E-07    6.47274E+02
 6.82560E-07    6.47184E+02
 8.76420E-07    6.47112E+02
 1.12540E-06    6.47019E+02
 1.44500E-06    6.46900E+02
 1.85540E-06    6.46756E+02
 2.37240E-06    6.46645E+02
 3.05900E-06    6.46524E+02
 3.92790E-06    6.46368E+02
 5.04350E-06    6.46169E+02
 6.47600E-06    6.45913E+02
 8.31530E-06    6.45585E+02
 1.06770E-05    6.45163E+02
 1.37100E-05    6.44622E+02
 1.76030E-05    6.43927E+02
 2.26030E-05    6.43021E+02
 2.92030E-05    6.41872E+02
 3.72670E-05    6.40416E+02
 4.78510E-05    6.38526E+02
 6.14420E-05    6.36100E+02
 7.88930E-05    6.32984E+02
 1.01300E-04    6.28991E+02
 1.30070E-04    6.24601E+02
 1.67020E-04    6.19491E+02
 2.14450E-04    6.12930E+02
 2.75360E-04    6.05413E+02
 3.53580E-04    5.97109E+02
 4.54000E-04    5.87543E+02
 5.82950E-04    5.77270E+02
 7.48520E-04    5.66509E+02
 9.61120E-04    5.55139E+02
 1.23410E-03    5.43646E+02
 1.58460E-03    5.32199E+02
 2.03470E-03    5.24412E+02
 2.24870E-03    5.19594E+02
 2.48520E-03    5.16293E+02
 2.61260E-03    5.14205E+02
 2.74650E-03    5.10855E+02
 3.03540E-03    5.06045E+02
 3.35460E-03    5.01666E+02
 3.70740E-03    4.95984E+02
 4.30740E-03    4.86371E+02
 5.53080E-03    4.73549E+02
 7.10170E-03    4.59249E+02
 9.11880E-03    4.59080E+02
 1.17090E-02    4.20396E+02
 1.50340E-02    4.11674E+02
 1.93050E-02    3.65802E+02
 2.18750E-02    3.48729E+02
 2.35790E-02    3.39176E+02
 2.41760E-02    3.34000E+02
 2.47880E-02    3.25978E+02
 2.60580E-02    3.16488E+02
 2.70000E-02    3.05698E+02
 2.85000E-02    2.83481E+02
 3.18280E-02    2.55094E+02
 3.43070E-02    2.07885E+02
 4.08680E-02    1.37558E+02
 4.63090E-02    6.64308E+01
 5.24750E-02    1.29410E+01
 5.65620E-02    2.17411E+02
 6.73790E-02    2.44717E+03
 7.20000E-02    2.27372E+04
 7.95000E-02    1.57314E+04
 8.25000E-02    7.89507E+03
 8.65170E-02    3.67287E+03
 9.80370E-02    1.83221E+03
 1.11090E-01    3.54889E+03
 1.16790E-01    1.46131E+03
 1.22770E-01    1.00024E+03
 1.29070E-01    8.45487E+02
 1.35690E-01    6.91740E+02
 1.42640E-01    5.68089E+02
 1.49960E-01    3.30009E+02
 1.57640E-01    2.40518E+02
 1.65730E-01    6.29561E+03
 1.74220E-01    7.38344E+03
 1.83160E-01    2.46344E+03
 1.92550E-01    1.82364E+03
 2.02420E-01    9.75487E+02
 2.12800E-01    3.11607E+03
 2.23710E-01    1.86883E+03
 2.35180E-01    9.71072E+02
 2.47240E-01    3.54595E+03
 2.73240E-01    2.26575E+03
 2.87250E-01    1.66569E+03
 2.94520E-01    1.48943E+03
 2.97200E-01    4.57390E+03
 2.98500E-01    1.59951E+03
 3.01970E-01    1.51632E+03
 3.33730E-01    1.54512E+03
 3.68830E-01    1.54413E+03
 3.87740E-01    2.11892E+03
 4.07620E-01    1.35311E+03
 4.50490E-01    1.75531E+03
 4.97870E-01    1.12574E+03
 5.23400E-01    1.27424E+03
 5.50230E-01    2.06092E+03
 5.78440E-01    2.33603E+03
 6.08100E-01    2.23125E+03
 6.39280E-01    1.98962E+03
 6.72060E-01    1.48336E+03
 7.06510E-01    2.36372E+03
 7.42740E-01    1.52366E+03
 7.80820E-01    1.70542E+03
 8.20850E-01    1.81969E+03
 8.62940E-01    2.05513E+03
 9.07180E-01    1.85337E+03
 9.61640E-01    2.40213E+03
 1.00260E+00    2.49229E+03
 1.10800E+00    2.91007E+03
 1.16480E+00    2.01000E+03
 1.22460E+00    3.51013E+03
 1.28730E+00    2.80379E+03
 1.35340E+00    4.13740E+03
 1.42270E+00    3.49894E+03
 1.49570E+00    3.62466E+03
 1.57240E+00    2.44960E+03
 1.65300E+00    2.65908E+03
 1.73770E+00    3.15892E+03
 1.82680E+00    3.18643E+03
 1.92050E+00    3.76183E+03
 2.01900E+00    3.67611E+03
 2.12250E+00    3.49864E+03
 2.23130E+00    3.33207E+03
 2.30690E+00    2.71235E+03
 2.34570E+00    4.31585E+03
 2.36530E+00    3.36221E+03
 2.38520E+00    3.24297E+03
 2.46600E+00    3.11354E+03
 2.59240E+00    3.22403E+03
 2.72530E+00    2.86342E+03
 2.86500E+00    3.15357E+03
 3.01190E+00    2.74710E+03
 3.16640E+00    2.43498E+03
 3.32870E+00    2.37270E+03
 3.67880E+00    2.23559E+03
 4.06570E+00    2.08952E+03
 4.49330E+00    1.96059E+03
 4.72370E+00    1.95428E+03
 4.96590E+00    1.73058E+03
 5.22050E+00    1.60977E+03
 5.48810E+00    1.52272E+03
 5.76950E+00    1.44053E+03
 6.06530E+00    1.37019E+03
 6.37630E+00    1.31480E+03
 6.59240E+00    1.28265E+03
 6.70320E+00    1.23979E+03
 7.04690E+00    1.18825E+03
 7.40820E+00    1.14269E+03
 7.78800E+00    1.09932E+03
 8.18730E+00    1.06004E+03
 8.60710E+00    1.02224E+03
 9.04840E+00    9.86856E+02
 9.51230E+00    9.53573E+02
 1.00000E+01    9.34528E+02
 1.05130E+01    8.97047E+02
 1.10520E+01    8.65647E+02
 1.16180E+01    8.40173E+02
 1.22140E+01    8.18921E+02
 1.28400E+01    8.02379E+02
 1.34990E+01    7.93512E+02
 1.38400E+01    7.88059E+02
 1.41910E+01    7.83916E+02
 1.45500E+01    7.80823E+02
 1.49180E+01    7.77350E+02
 1.56830E+01    7.73597E+02
 1.64870E+01    7.71739E+02
