# n + Xe134 : (n,xt)    
# jendl4.0   S.Kunieda, A.Ichihara, K.Shibata+ EVAL-FEB22
# 
# # energies =    52
#   E(MeV)        xs(mb) 
 8.53422E-01    0.00000E+00
 9.00000E-01    0.00000E+00
 9.50000E-01    0.00000E+00
 1.00000E+00    0.00000E+00
 1.20000E+00    0.00000E+00
 1.40000E+00    0.00000E+00
 1.60000E+00    0.00000E+00
 1.62593E+00    0.00000E+00
 1.74420E+00    0.00000E+00
 1.80000E+00    0.00000E+00
 1.93406E+00    0.00000E+00
 1.98030E+00    0.00000E+00
 2.00000E+00    0.00000E+00
 2.15270E+00    0.00000E+00
 2.20000E+00    0.00000E+00
 2.28912E+00    0.00000E+00
 2.31959E+00    0.00000E+00
 2.37069E+00    0.00000E+00
 2.40000E+00    0.00000E+00
 2.42664E+00    0.00000E+00
 2.43672E+00    0.00000E+00
 2.60000E+00    0.00000E+00
 2.80000E+00    0.00000E+00
 3.00000E+00    0.00000E+00
 3.25000E+00    0.00000E+00
 3.50000E+00    0.00000E+00
 3.75000E+00    0.00000E+00
 4.00000E+00    0.00000E+00
 4.25000E+00    0.00000E+00
 4.50000E+00    0.00000E+00
 4.75000E+00    0.00000E+00
 5.00000E+00    0.00000E+00
 5.50000E+00    0.00000E+00
 6.00000E+00    0.00000E+00
 6.50000E+00    0.00000E+00
 7.00000E+00    0.00000E+00
 7.50000E+00    0.00000E+00
 8.00000E+00    0.00000E+00
 8.50000E+00    0.00000E+00
 9.00000E+00    0.00000E+00
 9.50000E+00    0.00000E+00
 1.00000E+01    3.79700E-22
 1.10000E+01    1.37500E-13
 1.20000E+01    4.00400E-09
 1.30000E+01    2.17700E-06
 1.40000E+01    9.78000E-05
 1.50000E+01    1.43800E-03
 1.60000E+01    1.02600E-02
 1.70000E+01    4.21900E-02
 1.80000E+01    1.15700E-01
 1.90000E+01    2.40000E-01
 2.00000E+01    4.13700E-01
