# n + Xe134 : (n,xn)    
# jendl4.0   S.Kunieda, A.Ichihara, K.Shibata+ EVAL-FEB22
# 
# # energies =    52
#   E(MeV)        xs(mb) 
 8.53422E-01    0.00000E+00
 9.00000E-01    3.06900E+02
 9.50000E-01    4.35300E+02
 1.00000E+00    5.23100E+02
 1.20000E+00    7.37700E+02
 1.40000E+00    8.85600E+02
 1.60000E+00    1.01000E+03
 1.62593E+00    1.00406E+03
 1.74420E+00    1.15132E+03
 1.80000E+00    1.26895E+03
 1.93406E+00    1.33682E+03
 1.98030E+00    1.41323E+03
 2.00000E+00    1.44591E+03
 2.15270E+00    1.53554E+03
 2.20000E+00    1.58382E+03
 2.28912E+00    1.60050E+03
 2.31959E+00    1.61671E+03
 2.37069E+00    1.66334E+03
 2.40000E+00    1.70602E+03
 2.42664E+00    1.74401E+03
 2.43672E+00    1.75979E+03
 2.60000E+00    2.07059E+03
 2.80000E+00    2.16214E+03
 3.00000E+00    2.24315E+03
 3.25000E+00    2.32784E+03
 3.50000E+00    2.38506E+03
 3.75000E+00    2.43030E+03
 4.00000E+00    2.45660E+03
 4.25000E+00    2.47067E+03
 4.50000E+00    2.46998E+03
 4.75000E+00    2.45724E+03
 5.00000E+00    2.43458E+03
 5.50000E+00    2.37373E+03
 6.00000E+00    2.31113E+03
 6.50000E+00    2.26097E+03
 7.00000E+00    2.22641E+03
 7.50000E+00    2.20672E+03
 8.00000E+00    2.19758E+03
 8.50000E+00    2.19403E+03
 9.00000E+00    2.27525E+03
 9.50000E+00    2.63572E+03
 1.00000E+01    3.02494E+03
 1.10000E+01    3.56952E+03
 1.20000E+01    3.80425E+03
 1.30000E+01    3.89585E+03
 1.40000E+01    3.92635E+03
 1.50000E+01    3.93041E+03
 1.60000E+01    3.93099E+03
 1.70000E+01    3.98096E+03
 1.80000E+01    4.13151E+03
 1.90000E+01    4.37629E+03
 2.00000E+01    4.63891E+03
