# n + Xe134 : (n,el)    
# jendl4.0   S.Kunieda, A.Ichihara, K.Shibata+ EVAL-FEB22
# uncertainties: n
# # energies =   171
#   E(MeV)       xs(mb) 
 1.00000E-11    6.02000E+03
 1.00000E-07    3.72202E+03
 4.13990E-07    3.72033E+03
 5.31580E-07    3.71968E+03
 6.82560E-07    3.71899E+03
 8.76420E-07    3.71852E+03
 1.12540E-06    3.71796E+03
 1.44500E-06    3.71724E+03
 1.85540E-06    3.71632E+03
 2.37240E-06    3.71512E+03
 3.05900E-06    3.71358E+03
 3.92790E-06    3.71161E+03
 5.04350E-06    3.70909E+03
 6.47600E-06    3.70584E+03
 8.31530E-06    3.70168E+03
 1.06770E-05    3.69633E+03
 1.37100E-05    3.68947E+03
 1.76030E-05    3.68065E+03
 2.26030E-05    3.66917E+03
 2.92030E-05    3.65814E+03
 3.72670E-05    3.64744E+03
 4.78510E-05    3.63355E+03
 6.14420E-05    3.61635E+03
 7.88930E-05    3.60214E+03
 1.01300E-04    3.58633E+03
 1.30070E-04    3.56870E+03
 1.67020E-04    3.55536E+03
 2.14450E-04    3.53921E+03
 2.75360E-04    3.52651E+03
 3.53580E-04    3.51455E+03
 4.54000E-04    3.49945E+03
 5.82950E-04    3.48241E+03
 7.48520E-04    3.44981E+03
 9.61120E-04    3.57346E+03
 1.23410E-03    3.47637E+03
 1.58460E-03    3.42538E+03
 2.03470E-03    4.54124E+03
 2.24870E-03    3.62299E+03
 2.48520E-03    3.53705E+03
 2.61260E-03    3.51933E+03
 2.74650E-03    3.50253E+03
 3.03540E-03    3.48776E+03
 3.35460E-03    3.47506E+03
 3.70740E-03    3.45722E+03
 4.30740E-03    3.41369E+03
 5.53080E-03    4.37734E+03
 7.10170E-03    3.54935E+03
 9.11880E-03    6.44679E+03
 1.17090E-02    8.03310E+03
 1.50340E-02    7.56263E+03
 1.93050E-02    7.23667E+03
 2.18750E-02    7.09152E+03
 2.35790E-02    7.02077E+03
 2.41760E-02    6.98583E+03
 2.47880E-02    6.93376E+03
 2.60580E-02    6.87453E+03
 2.70000E-02    6.81325E+03
 2.85000E-02    6.70654E+03
 3.18280E-02    6.60576E+03
 3.43070E-02    6.47687E+03
 4.08680E-02    6.33908E+03
 4.63090E-02    6.23689E+03
 5.24750E-02    6.16373E+03
 5.65620E-02    6.07973E+03
 6.73790E-02    6.00577E+03
 7.20000E-02    5.96141E+03
 7.95000E-02    5.92663E+03
 8.25000E-02    5.90753E+03
 8.65170E-02    5.87073E+03
 9.80370E-02    5.82494E+03
 1.11090E-01    5.79754E+03
 1.16790E-01    5.78226E+03
 1.22770E-01    5.77056E+03
 1.29070E-01    5.75950E+03
 1.35690E-01    5.74877E+03
 1.42640E-01    5.74136E+03
 1.49960E-01    5.73461E+03
 1.57640E-01    5.72862E+03
 1.65730E-01    5.72552E+03
 1.74220E-01    5.72272E+03
 1.83160E-01    5.72278E+03
 1.92550E-01    5.72389E+03
 2.02420E-01    5.72864E+03
 2.12800E-01    5.73517E+03
 2.23710E-01    5.74167E+03
 2.35180E-01    5.74814E+03
 2.47240E-01    5.76438E+03
 2.73240E-01    5.78708E+03
 2.87250E-01    5.79916E+03
 2.94520E-01    5.80480E+03
 2.97200E-01    5.80705E+03
 2.98500E-01    5.80974E+03
 3.01970E-01    5.82936E+03
 3.33730E-01    5.86839E+03
 3.68830E-01    5.90524E+03
 3.87740E-01    5.93222E+03
 4.07620E-01    5.97549E+03
 4.50490E-01    6.03821E+03
 4.97870E-01    6.08933E+03
 5.23400E-01    6.12575E+03
 5.50230E-01    6.16402E+03
 5.78440E-01    6.20427E+03
 6.08100E-01    6.24658E+03
 6.39280E-01    6.29106E+03
 6.72060E-01    6.33546E+03
 7.06510E-01    6.37482E+03
 7.42740E-01    6.41570E+03
 7.80820E-01    6.45867E+03
 8.20850E-01    6.49199E+03
 8.62940E-01    6.34124E+03
 9.07180E-01    6.20886E+03
 9.61640E-01    6.14956E+03
 1.00260E+00    6.09123E+03
 1.10800E+00    6.03541E+03
 1.16480E+00    5.99612E+03
 1.22460E+00    5.95424E+03
 1.28730E+00    5.90648E+03
 1.35340E+00    5.85561E+03
 1.42270E+00    5.79389E+03
 1.49570E+00    5.72181E+03
 1.57240E+00    5.62879E+03
 1.65300E+00    5.47092E+03
 1.73770E+00    5.30720E+03
 1.82680E+00    5.14653E+03
 1.92050E+00    4.98222E+03
 2.01900E+00    4.81902E+03
 2.12250E+00    4.64887E+03
 2.23130E+00    4.50513E+03
 2.30690E+00    4.41642E+03
 2.34570E+00    4.37119E+03
 2.36530E+00    4.34101E+03
 2.38520E+00    4.23050E+03
 2.46600E+00    3.94760E+03
 2.59240E+00    3.68753E+03
 2.72530E+00    3.51492E+03
 2.86500E+00    3.34575E+03
 3.01190E+00    3.18094E+03
 3.16640E+00    3.02305E+03
 3.32870E+00    2.80897E+03
 3.67880E+00    2.55599E+03
 4.06570E+00    2.35316E+03
 4.49330E+00    2.23296E+03
 4.72370E+00    2.16936E+03
 4.96590E+00    2.12111E+03
 5.22050E+00    2.08385E+03
 5.48810E+00    2.05613E+03
 5.76950E+00    2.04101E+03
 6.06530E+00    2.03907E+03
 6.37630E+00    2.04378E+03
 6.59240E+00    2.05270E+03
 6.70320E+00    2.06755E+03
 7.04690E+00    2.09760E+03
 7.40820E+00    2.13840E+03
 7.78800E+00    2.18926E+03
 8.18730E+00    2.24721E+03
 8.60710E+00    2.31127E+03
 9.04840E+00    2.37861E+03
 9.51230E+00    2.44941E+03
 1.00000E+01    2.51817E+03
 1.05130E+01    2.58377E+03
 1.10520E+01    2.64164E+03
 1.16180E+01    2.69291E+03
 1.22140E+01    2.73060E+03
 1.28400E+01    2.75830E+03
 1.34990E+01    2.76804E+03
 1.38400E+01    2.77272E+03
 1.41910E+01    2.76956E+03
 1.45500E+01    2.76520E+03
 1.49180E+01    2.75039E+03
 1.56830E+01    2.71762E+03
 1.64870E+01    2.66926E+03
