# n + Xe134 : (n,el)    
# jendl4.0   S.Kunieda, A.Ichihara, K.Shibata+ EVAL-FEB22
# uncertainties: n
# # energies =    69
#   E(MeV)       xs(mb) 
 1.00000E-10    4.55604E+03
 5.00000E-09    3.77174E+03
 1.00000E-08    3.74975E+03
 1.50000E-08    3.74115E+03
 2.00000E-08    3.73652E+03
 2.50000E-08    3.73354E+03
 3.00000E-08    3.73158E+03
 3.50000E-08    3.72976E+03
 4.20000E-08    3.72840E+03
 5.00000E-08    3.72700E+03
 5.80000E-08    3.72619E+03
 6.70000E-08    3.72545E+03
 8.00000E-08    3.72435E+03
 1.00000E-07    3.72340E+03
 1.40000E-07    3.72259E+03
 1.80000E-07    3.72181E+03
 2.20000E-07    3.72147E+03
 2.50000E-07    3.72133E+03
 2.80000E-07    3.72120E+03
 3.00000E-07    3.72111E+03
 3.20000E-07    3.72099E+03
 3.50000E-07    3.72079E+03
 4.00000E-07    3.72044E+03
 5.00000E-07    3.71989E+03
 6.25000E-07    3.71923E+03
 7.80000E-07    3.71889E+03
 8.50000E-07    3.71876E+03
 9.10000E-07    3.71866E+03
 9.50000E-07    3.71859E+03
 9.72000E-07    3.71855E+03
 9.96000E-07    3.71850E+03
 1.02000E-06    3.71845E+03
 1.04500E-06    3.71840E+03
 1.07100E-06    3.71835E+03
 1.09700E-06    3.71830E+03
 1.12300E-06    3.71824E+03
 1.15000E-06    3.71807E+03
 1.30000E-06    3.71772E+03
 1.50000E-06    3.71695E+03
 2.10000E-06    3.71584E+03
 2.60000E-06    3.71466E+03
 3.30000E-06    3.71326E+03
 4.00000E-06    3.70755E+03
 9.87700E-06    3.69524E+03
 1.59680E-05    3.67806E+03
 2.77000E-05    3.65370E+03
 4.80520E-05    3.62627E+03
 7.55014E-05    3.59082E+03
 1.48728E-04    3.54268E+03
 3.67262E-04    3.48981E+03
 9.06898E-04    3.52452E+03
 1.42510E-03    3.67787E+03
 2.23945E-03    3.53225E+03
 3.51910E-03    3.43486E+03
 5.53000E-03    3.96329E+03
 9.11800E-03    7.23885E+03
 1.50300E-02    7.35504E+03
 2.47800E-02    6.65765E+03
 4.08500E-02    6.19683E+03
 6.73400E-02    5.90311E+03
 1.11000E-01    5.75129E+03
 1.83000E-01    5.75190E+03
 3.02000E-01    5.92730E+03
 5.00000E-01    6.27234E+03
 8.21000E-01    6.12762E+03
 1.35300E+00    5.33798E+03
 2.23100E+00    3.50676E+03
 3.67900E+00    2.25225E+03
 6.06500E+00    2.19650E+03
