# n + Xe134 : (n,xp)    
# jendl4.0   S.Kunieda, A.Ichihara, K.Shibata+ EVAL-FEB22
# 
# # energies =    52
#   E(MeV)        xs(mb) 
 8.53422E-01    0.00000E+00
 9.00000E-01    0.00000E+00
 9.50000E-01    0.00000E+00
 1.00000E+00    0.00000E+00
 1.20000E+00    0.00000E+00
 1.40000E+00    0.00000E+00
 1.60000E+00    0.00000E+00
 1.62593E+00    0.00000E+00
 1.74420E+00    0.00000E+00
 1.80000E+00    0.00000E+00
 1.93406E+00    0.00000E+00
 1.98030E+00    0.00000E+00
 2.00000E+00    0.00000E+00
 2.15270E+00    0.00000E+00
 2.20000E+00    0.00000E+00
 2.28912E+00    0.00000E+00
 2.31959E+00    0.00000E+00
 2.37069E+00    0.00000E+00
 2.40000E+00    0.00000E+00
 2.42664E+00    0.00000E+00
 2.43672E+00    0.00000E+00
 2.60000E+00    0.00000E+00
 2.80000E+00    0.00000E+00
 3.00000E+00    0.00000E+00
 3.25000E+00    0.00000E+00
 3.50000E+00    2.51900E-27
 3.75000E+00    2.23000E-20
 4.00000E+00    2.27800E-16
 4.25000E+00    1.66700E-13
 4.50000E+00    2.98400E-11
 4.75000E+00    1.85100E-09
 5.00000E+00    5.35400E-08
 5.50000E+00    7.23500E-06
 6.00000E+00    1.36600E-04
 6.50000E+00    1.03500E-03
 7.00000E+00    4.51700E-03
 7.50000E+00    1.36700E-02
 8.00000E+00    3.25700E-02
 8.50000E+00    6.67900E-02
 9.00000E+00    1.25500E-01
 9.50000E+00    2.22300E-01
 1.00000E+01    3.81800E-01
 1.10000E+01    1.00900E+00
 1.20000E+01    2.28401E+00
 1.30000E+01    4.47010E+00
 1.40000E+01    7.74728E+00
 1.50000E+01    1.22532E+01
 1.60000E+01    1.81878E+01
 1.70000E+01    2.54610E+01
 1.80000E+01    3.40080E+01
 1.90000E+01    4.37400E+01
 2.00000E+01    5.45500E+01
