# n + Xe134 : (n,na)    
# jendl4.0   S.Kunieda, A.Ichihara, K.Shibata+ EVAL-FEB22
# uncertainties: n
# # energies =    26
#   E(MeV)       xs(mb) 
 3.75000E+00    0.00000E+00
 4.00000E+00    3.02600E-31
 4.25000E+00    2.04700E-27
 4.50000E+00    1.77400E-24
 4.75000E+00    3.88900E-22
 5.00000E+00    3.79100E-20
 5.50000E+00    5.64000E-17
 6.00000E+00    1.73900E-14
 6.50000E+00    1.87800E-12
 7.00000E+00    9.59000E-11
 7.50000E+00    2.83600E-09
 8.00000E+00    5.71400E-08
 8.50000E+00    8.22500E-07
 9.00000E+00    4.15200E-06
 9.50000E+00    7.99400E-06
 1.00000E+01    2.55300E-05
 1.10000E+01    3.29700E-04
 1.20000E+01    2.51100E-03
 1.30000E+01    1.25200E-02
 1.40000E+01    4.61500E-02
 1.50000E+01    1.38100E-01
 1.60000E+01    3.49200E-01
 1.70000E+01    7.74800E-01
 1.80000E+01    1.54000E+00
 1.90000E+01    2.77700E+00
 2.00000E+01    4.59400E+00
