# n + Ba132 : (n,el)    
# endfb8.0   JNDC FPND W.G., Mughabghab        EVAL-JAN05
# uncertainties: n
# # energies =   171
#   E(MeV)       xs(mb) 
 1.00000E-11    1.27167E+04
 1.00000E-07    7.81794E+03
 4.13990E-07    7.79948E+03
 5.31580E-07    7.79010E+03
 6.82560E-07    7.77881E+03
 8.76420E-07    7.76492E+03
 1.12540E-06    7.74709E+03
 1.44500E-06    7.72419E+03
 1.85540E-06    7.69508E+03
 2.37240E-06    7.65739E+03
 3.05900E-06    7.60857E+03
 3.92790E-06    7.54685E+03
 5.04350E-06    7.47230E+03
 6.47600E-06    7.37772E+03
 8.31530E-06    7.25629E+03
 1.06770E-05    7.10035E+03
 1.37100E-05    6.90671E+03
 1.76030E-05    6.67153E+03
 2.26030E-05    6.36557E+03
 2.92030E-05    5.98220E+03
 3.72670E-05    5.49633E+03
 4.78510E-05    4.80701E+03
 6.14420E-05    3.63789E+03
 7.88930E-05    2.29300E+03
 1.01300E-04    3.33411E+05
 1.30070E-04    1.00418E+04
 1.67020E-04    9.67235E+03
 2.14450E-04    9.30673E+03
 2.75360E-04    8.94591E+03
 3.53580E-04    8.59069E+03
 4.54000E-04    8.24242E+03
 5.82950E-04    7.90302E+03
 7.48520E-04    7.57744E+03
 9.61120E-04    7.26469E+03
 1.23410E-03    6.96554E+03
 1.58460E-03    6.68104E+03
 2.03470E-03    6.49010E+03
 2.24870E-03    6.38469E+03
 2.48520E-03    6.30724E+03
 2.61260E-03    6.25646E+03
 2.74650E-03    6.18159E+03
 3.03540E-03    6.08431E+03
 3.35460E-03    5.98902E+03
 3.70740E-03    5.87365E+03
 4.30740E-03    5.69810E+03
 5.53080E-03    5.49317E+03
 7.10170E-03    5.30542E+03
 9.11880E-03    5.13505E+03
 1.17090E-02    4.98269E+03
 1.50340E-02    4.84755E+03
 1.93050E-02    4.75779E+03
 2.18750E-02    4.71376E+03
 2.35790E-02    4.69324E+03
 2.41760E-02    4.68276E+03
 2.47880E-02    4.66764E+03
 2.60580E-02    4.65124E+03
 2.70000E-02    4.63399E+03
 2.85000E-02    4.60441E+03
 3.18280E-02    4.57253E+03
 3.43070E-02    4.53373E+03
 4.08680E-02    4.49042E+03
 4.63090E-02    4.45756E+03
 5.24750E-02    4.43287E+03
 5.65620E-02    4.40418E+03
 6.73790E-02    4.37764E+03
 7.20000E-02    4.36021E+03
 7.95000E-02    4.34619E+03
 8.25000E-02    4.33761E+03
 8.65170E-02    4.31969E+03
 9.80370E-02    4.31832E+03
 1.11090E-01    4.34122E+03
 1.16790E-01    4.35526E+03
 1.22770E-01    4.37001E+03
 1.29070E-01    4.38554E+03
 1.35690E-01    4.40186E+03
 1.42640E-01    4.41942E+03
 1.49960E-01    4.43859E+03
 1.57640E-01    4.46261E+03
 1.65730E-01    4.48871E+03
 1.74220E-01    4.51615E+03
 1.83160E-01    4.54500E+03
 1.92550E-01    4.57532E+03
 2.02420E-01    4.60743E+03
 2.12800E-01    4.64341E+03
 2.23710E-01    4.68178E+03
 2.35180E-01    4.72213E+03
 2.47240E-01    4.78683E+03
 2.73240E-01    4.85599E+03
 2.87250E-01    4.89263E+03
 2.94520E-01    4.90974E+03
 2.97200E-01    4.91657E+03
 2.98500E-01    4.92475E+03
 3.01970E-01    4.98465E+03
 3.33730E-01    5.10074E+03
 3.68830E-01    5.19487E+03
 3.87740E-01    5.25469E+03
 4.07620E-01    5.34721E+03
 4.50490E-01    5.46647E+03
 4.97870E-01    5.52365E+03
 5.23400E-01    5.57097E+03
 5.50230E-01    5.62161E+03
 5.78440E-01    5.67486E+03
 6.08100E-01    5.73056E+03
 6.39280E-01    5.78254E+03
 6.72060E-01    5.83437E+03
 7.06510E-01    5.88886E+03
 7.42740E-01    5.94561E+03
 7.80820E-01    5.99608E+03
 8.20850E-01    6.04581E+03
 8.62940E-01    6.09588E+03
 9.07180E-01    6.13802E+03
 9.61640E-01    6.17677E+03
 1.00260E+00    6.21434E+03
 1.10800E+00    6.21194E+03
 1.16480E+00    6.20639E+03
 1.22460E+00    6.19520E+03
 1.28730E+00    6.16010E+03
 1.35340E+00    6.12051E+03
 1.42270E+00    6.07890E+03
 1.49570E+00    6.02372E+03
 1.57240E+00    5.93167E+03
 1.65300E+00    5.83155E+03
 1.73770E+00    5.70941E+03
 1.82680E+00    5.57529E+03
 1.92050E+00    5.43163E+03
 2.01900E+00    5.26712E+03
 2.12250E+00    5.04503E+03
 2.23130E+00    4.86170E+03
 2.30690E+00    4.75161E+03
 2.34570E+00    4.69819E+03
 2.36530E+00    4.66483E+03
 2.38520E+00    4.58016E+03
 2.46600E+00    4.41121E+03
 2.59240E+00    4.21829E+03
 2.72530E+00    4.03490E+03
 2.86500E+00    3.85590E+03
 3.01190E+00    3.66459E+03
 3.16640E+00    3.46311E+03
 3.32870E+00    3.18336E+03
 3.67880E+00    2.84431E+03
 4.06570E+00    2.57378E+03
 4.49330E+00    2.39907E+03
 4.72370E+00    2.28946E+03
 4.96590E+00    2.20568E+03
 5.22050E+00    2.15816E+03
 5.48810E+00    2.10940E+03
 5.76950E+00    2.06351E+03
 6.06530E+00    2.05534E+03
 6.37630E+00    2.06340E+03
 6.59240E+00    2.06839E+03
 6.70320E+00    2.07551E+03
 7.04690E+00    2.10253E+03
 7.40820E+00    2.14088E+03
 7.78800E+00    2.18194E+03
 8.18730E+00    2.22723E+03
 8.60710E+00    2.27491E+03
 9.04840E+00    2.32457E+03
 9.51230E+00    2.37669E+03
 1.00000E+01    2.47727E+03
 1.05130E+01    2.62299E+03
 1.10520E+01    2.65755E+03
 1.16180E+01    2.61564E+03
 1.22140E+01    2.59717E+03
 1.28400E+01    2.61822E+03
 1.34990E+01    2.69411E+03
 1.38400E+01    2.74031E+03
 1.41910E+01    2.75138E+03
 1.45500E+01    2.76406E+03
 1.49180E+01    2.78136E+03
 1.56830E+01    2.78499E+03
 1.64870E+01    2.76944E+03
