# n + Ba132 : (n,tot)   
# endfb8.0   JNDC FPND W.G., Mughabghab        EVAL-JAN05
# uncertainties: n
# # energies =   171
#   E(MeV)       xs(mb) 
 1.00000E-11    8.33454E+04
 1.00000E-07    1.01653E+04
 4.13990E-07    9.31040E+03
 5.31580E-07    9.12214E+03
 6.82560E-07    8.95242E+03
 8.76420E-07    8.79828E+03
 1.12540E-06    8.65709E+03
 1.44500E-06    8.52625E+03
 1.85540E-06    8.40413E+03
 2.37240E-06    8.27805E+03
 3.05900E-06    8.15313E+03
 3.92790E-06    8.02636E+03
 5.04350E-06    7.88665E+03
 6.47600E-06    7.73871E+03
 8.31530E-06    7.56787E+03
 1.06770E-05    7.37296E+03
 1.37100E-05    7.14712E+03
 1.76030E-05    6.87533E+03
 2.26030E-05    6.55008E+03
 2.92030E-05    6.14902E+03
 3.72670E-05    5.65296E+03
 4.78510E-05    4.97947E+03
 6.14420E-05    3.90422E+03
 7.88930E-05    4.92704E+03
 1.01300E-04    4.62135E+05
 1.30070E-04    2.10273E+04
 1.67020E-04    1.89775E+04
 2.14450E-04    1.71706E+04
 2.75360E-04    1.55779E+04
 3.53580E-04    1.41721E+04
 4.54000E-04    1.29318E+04
 5.82950E-04    1.18411E+04
 7.48520E-04    1.08775E+04
 9.61120E-04    1.00296E+04
 1.23410E-03    9.28317E+03
 1.58460E-03    8.62700E+03
 2.03470E-03    8.21219E+03
 2.24870E-03    7.99288E+03
 2.48520E-03    7.83542E+03
 2.61260E-03    7.73408E+03
 2.74650E-03    7.58730E+03
 3.03540E-03    7.40104E+03
 3.35460E-03    7.22312E+03
 3.70740E-03    7.01383E+03
 4.30740E-03    6.70765E+03
 5.53080E-03    6.36736E+03
 7.10170E-03    6.07022E+03
 9.11880E-03    5.81154E+03
 1.17090E-02    5.58756E+03
 1.50340E-02    5.39325E+03
 1.93050E-02    5.26507E+03
 2.18750E-02    5.20208E+03
 2.35790E-02    5.17258E+03
 2.41760E-02    5.15751E+03
 2.47880E-02    5.13575E+03
 2.60580E-02    5.11213E+03
 2.70000E-02    5.08722E+03
 2.85000E-02    5.04418E+03
 3.18280E-02    4.99767E+03
 3.43070E-02    4.93994E+03
 4.08680E-02    4.87475E+03
 4.63090E-02    4.82447E+03
 5.24750E-02    4.78644E+03
 5.65620E-02    4.74189E+03
 6.73790E-02    4.70084E+03
 7.20000E-02    4.67402E+03
 7.95000E-02    4.65257E+03
 8.25000E-02    4.63985E+03
 8.65170E-02    4.61332E+03
 9.80370E-02    4.59726E+03
 1.11090E-01    4.61402E+03
 1.16790E-01    4.62482E+03
 1.22770E-01    4.63617E+03
 1.29070E-01    4.64812E+03
 1.35690E-01    4.66066E+03
 1.42640E-01    4.67385E+03
 1.49960E-01    4.68914E+03
 1.57640E-01    4.71177E+03
 1.65730E-01    4.73638E+03
 1.74220E-01    4.76224E+03
 1.83160E-01    4.78944E+03
 1.92550E-01    4.81802E+03
 2.02420E-01    4.84877E+03
 2.12800E-01    4.88472E+03
 2.23710E-01    4.92303E+03
 2.35180E-01    4.96331E+03
 2.47240E-01    5.02791E+03
 2.73240E-01    5.09782E+03
 2.87250E-01    5.13608E+03
 2.94520E-01    5.15396E+03
 2.97200E-01    5.16109E+03
 2.98500E-01    5.16963E+03
 3.01970E-01    5.23196E+03
 3.33730E-01    5.35240E+03
 3.68830E-01    5.45047E+03
 3.87740E-01    5.51368E+03
 4.07620E-01    5.60901E+03
 4.50490E-01    5.74721E+03
 4.97870E-01    5.85984E+03
 5.23400E-01    5.94007E+03
 5.50230E-01    6.02077E+03
 5.78440E-01    6.09830E+03
 6.08100E-01    6.17961E+03
 6.39280E-01    6.26452E+03
 6.72060E-01    6.34510E+03
 7.06510E-01    6.42684E+03
 7.42740E-01    6.51277E+03
 7.80820E-01    6.60097E+03
 8.20850E-01    6.68149E+03
 8.62940E-01    6.76419E+03
 9.07180E-01    6.85601E+03
 9.61640E-01    6.93384E+03
 1.00260E+00    7.04232E+03
 1.10800E+00    7.14478E+03
 1.16480E+00    7.20676E+03
 1.22460E+00    7.25957E+03
 1.28730E+00    7.29420E+03
 1.35340E+00    7.32352E+03
 1.42270E+00    7.35433E+03
 1.49570E+00    7.37765E+03
 1.57240E+00    7.36936E+03
 1.65300E+00    7.35764E+03
 1.73770E+00    7.32399E+03
 1.82680E+00    7.27127E+03
 1.92050E+00    7.21324E+03
 2.01900E+00    7.12088E+03
 2.12250E+00    6.96965E+03
 2.23130E+00    6.83348E+03
 2.30690E+00    6.75650E+03
 2.34570E+00    6.71945E+03
 2.36530E+00    6.69444E+03
 2.38520E+00    6.63092E+03
 2.46600E+00    6.50153E+03
 2.59240E+00    6.35654E+03
 2.72530E+00    6.20953E+03
 2.86500E+00    6.06374E+03
 3.01190E+00    5.90893E+03
 3.16640E+00    5.73864E+03
 3.32870E+00    5.49450E+03
 3.67880E+00    5.18424E+03
 4.06570E+00    4.90888E+03
 4.49330E+00    4.71854E+03
 4.72370E+00    4.59769E+03
 4.96590E+00    4.50017E+03
 5.22050E+00    4.44633E+03
 5.48810E+00    4.39049E+03
 5.76950E+00    4.33493E+03
 6.06530E+00    4.32987E+03
 6.37630E+00    4.34469E+03
 6.59240E+00    4.35389E+03
 6.70320E+00    4.36656E+03
 7.04690E+00    4.39135E+03
 7.40820E+00    4.42617E+03
 7.78800E+00    4.46292E+03
 8.18730E+00    4.50156E+03
 8.60710E+00    4.54218E+03
 9.04840E+00    4.58579E+03
 9.51230E+00    4.63621E+03
 1.00000E+01    4.69652E+03
 1.05130E+01    4.76535E+03
 1.10520E+01    4.83118E+03
 1.16180E+01    4.90327E+03
 1.22140E+01    4.96081E+03
 1.28400E+01    5.01317E+03
 1.34990E+01    5.05272E+03
 1.38400E+01    5.07685E+03
 1.41910E+01    5.08826E+03
 1.45500E+01    5.09788E+03
 1.49180E+01    5.10522E+03
 1.56830E+01    5.10360E+03
 1.64870E+01    5.08895E+03
