# n + Mo 92 : (n,n'10)  
# jendl4.0   K.Shibata, A.Ichihara, S.Kunieda+ EVAL-MAR09
# uncertainties: n
# # energies =    26
#   E(MeV)       xs(mb) 
 3.12526E+00    0.00000E+00
 3.50000E+00    2.25600E+02
 4.00000E+00    1.85900E+02
 4.50000E+00    1.24000E+02
 5.00000E+00    9.20200E+01
 5.50000E+00    6.47300E+01
 6.00000E+00    4.53500E+01
 6.50000E+00    2.93600E+01
 7.00000E+00    1.92400E+01
 7.50000E+00    1.23000E+01
 8.00000E+00    8.35100E+00
 8.50000E+00    5.64900E+00
 9.00000E+00    4.30100E+00
 9.50000E+00    3.19300E+00
 1.00000E+01    2.77100E+00
 1.10000E+01    2.10900E+00
 1.20000E+01    1.75100E+00
 1.30000E+01    1.28000E+00
 1.40000E+01    1.14100E+00
 1.45000E+01    1.18200E+00
 1.50000E+01    1.03000E+00
 1.60000E+01    9.36800E-01
 1.70000E+01    8.55800E-01
 1.80000E+01    7.85500E-01
 1.90000E+01    7.24300E-01
 2.00000E+01    6.71200E-01
