# n + Mo 92 : (n,n'08)  
# jendl4.0   K.Shibata, A.Ichihara, S.Kunieda+ EVAL-MAR09
# uncertainties: n
# # energies =    26
#   E(MeV)       xs(mb) 
 3.04001E+00    0.00000E+00
 3.50000E+00    2.57400E+01
 4.00000E+00    3.65300E+01
 4.50000E+00    3.89800E+01
 5.00000E+00    3.83700E+01
 5.50000E+00    3.21000E+01
 6.00000E+00    2.56600E+01
 6.50000E+00    1.84700E+01
 7.00000E+00    1.32900E+01
 7.50000E+00    9.24100E+00
 8.00000E+00    6.77700E+00
 8.50000E+00    4.91500E+00
 9.00000E+00    3.97500E+00
 9.50000E+00    3.10800E+00
 1.00000E+01    2.81800E+00
 1.10000E+01    2.29800E+00
 1.20000E+01    2.01400E+00
 1.30000E+01    1.53700E+00
 1.40000E+01    1.42300E+00
 1.45000E+01    1.49900E+00
 1.50000E+01    1.32900E+00
 1.60000E+01    1.24800E+00
 1.70000E+01    1.17600E+00
 1.80000E+01    1.11200E+00
 1.90000E+01    1.05100E+00
 2.00000E+01    9.94900E-01
