# n + Mo 92 : (n,a)     
# jendl4.0   K.Shibata, A.Ichihara, S.Kunieda+ EVAL-MAR09
# uncertainties: n
# # energies =    26
#   E(MeV)       xs(mb) 
 3.00000E+00    0.00000E+00
 3.50000E+00    1.38700E-02
 4.00000E+00    3.99900E-02
 4.50000E+00    1.01900E-01
 5.00000E+00    2.41900E-01
 5.50000E+00    4.81500E-01
 6.00000E+00    8.90400E-01
 6.50000E+00    1.45500E+00
 7.00000E+00    2.33300E+00
 7.50000E+00    3.15300E+00
 8.00000E+00    3.94500E+00
 8.50000E+00    4.76600E+00
 9.00000E+00    5.51100E+00
 9.50000E+00    6.17600E+00
 1.00000E+01    7.06300E+00
 1.10000E+01    9.32500E+00
 1.20000E+01    1.27400E+01
 1.30000E+01    1.74800E+01
 1.40000E+01    2.29800E+01
 1.45000E+01    2.59500E+01
 1.50000E+01    2.87900E+01
 1.60000E+01    3.42700E+01
 1.70000E+01    3.85800E+01
 1.80000E+01    4.08000E+01
 1.90000E+01    4.02700E+01
 2.00000E+01    3.71100E+01
