# n + Mo 92 : (n,n'13)  
# jendl4.0   K.Shibata, A.Ichihara, S.Kunieda+ EVAL-MAR09
# uncertainties: n
# # energies =    25
#   E(MeV)       xs(mb) 
 3.61959E+00    0.00000E+00
 4.00000E+00    6.99200E+01
 4.50000E+00    7.03400E+01
 5.00000E+00    5.97100E+01
 5.50000E+00    4.60000E+01
 6.00000E+00    3.57400E+01
 6.50000E+00    2.53800E+01
 7.00000E+00    1.78100E+01
 7.50000E+00    1.19500E+01
 8.00000E+00    8.42100E+00
 8.50000E+00    5.85600E+00
 9.00000E+00    4.55500E+00
 9.50000E+00    3.44200E+00
 1.00000E+01    3.03200E+00
 1.10000E+01    2.36400E+00
 1.20000E+01    1.99800E+00
 1.30000E+01    1.47800E+00
 1.40000E+01    1.32900E+00
 1.45000E+01    1.38200E+00
 1.50000E+01    1.21000E+00
 1.60000E+01    1.11000E+00
 1.70000E+01    1.02500E+00
 1.80000E+01    9.51800E-01
 1.90000E+01    8.86800E-01
 2.00000E+01    8.28400E-01
