# n + Mo 92 : (n,n'05)  
# jendl4.0   K.Shibata, A.Ichihara, S.Kunieda+ EVAL-MAR09
# uncertainties: n
# # energies =    27
#   E(MeV)       xs(mb) 
 2.64091E+00    0.00000E+00
 3.00000E+00    4.87900E+00
 3.50000E+00    1.45200E+01
 4.00000E+00    2.36700E+01
 4.50000E+00    2.59700E+01
 5.00000E+00    2.62900E+01
 5.50000E+00    2.16000E+01
 6.00000E+00    1.68100E+01
 6.50000E+00    1.20600E+01
 7.00000E+00    8.80000E+00
 7.50000E+00    6.27600E+00
 8.00000E+00    4.74800E+00
 8.50000E+00    3.55700E+00
 9.00000E+00    2.96600E+00
 9.50000E+00    2.38600E+00
 1.00000E+01    2.21800E+00
 1.10000E+01    1.89100E+00
 1.20000E+01    1.72100E+00
 1.30000E+01    1.35600E+00
 1.40000E+01    1.29000E+00
 1.45000E+01    1.37400E+00
 1.50000E+01    1.23100E+00
 1.60000E+01    1.17400E+00
 1.70000E+01    1.12000E+00
 1.80000E+01    1.06800E+00
 1.90000E+01    1.01900E+00
 2.00000E+01    9.73400E-01
