# n + Mo 92 : (n,n'04)  
# jendl4.0   K.Shibata, A.Ichihara, S.Kunieda+ EVAL-MAR09
# uncertainties: n
# # energies =    27
#   E(MeV)       xs(mb) 
 2.55473E+00    0.00000E+00
 3.00000E+00    4.22200E+01
 3.50000E+00    5.21800E+01
 4.00000E+00    5.72800E+01
 4.50000E+00    5.37100E+01
 5.00000E+00    4.86700E+01
 5.50000E+00    3.78000E+01
 6.00000E+00    2.86500E+01
 6.50000E+00    2.00900E+01
 7.00000E+00    1.42900E+01
 7.50000E+00    9.89600E+00
 8.00000E+00    7.24800E+00
 8.50000E+00    5.24600E+00
 9.00000E+00    4.22900E+00
 9.50000E+00    3.29200E+00
 1.00000E+01    2.96900E+00
 1.10000E+01    2.39900E+00
 1.20000E+01    2.08700E+00
 1.30000E+01    1.58500E+00
 1.40000E+01    1.46300E+00
 1.45000E+01    1.54000E+00
 1.50000E+01    1.36400E+00
 1.60000E+01    1.27800E+00
 1.70000E+01    1.20200E+00
 1.80000E+01    1.13400E+00
 1.90000E+01    1.07100E+00
 2.00000E+01    1.01200E+00
