# n + Mo 92 : (n,n'12)  
# jendl4.0   K.Shibata, A.Ichihara, S.Kunieda+ EVAL-MAR09
# uncertainties: n
# # energies =    25
#   E(MeV)       xs(mb) 
 3.58088E+00    0.00000E+00
 4.00000E+00    1.25500E+02
 4.50000E+00    1.01300E+02
 5.00000E+00    7.76000E+01
 5.50000E+00    5.53400E+01
 6.00000E+00    4.02200E+01
 6.50000E+00    2.70900E+01
 7.00000E+00    1.81700E+01
 7.50000E+00    1.17400E+01
 8.00000E+00    8.00400E+00
 8.50000E+00    5.41400E+00
 9.00000E+00    4.11900E+00
 9.50000E+00    3.05800E+00
 1.00000E+01    2.65700E+00
 1.10000E+01    2.03300E+00
 1.20000E+01    1.69800E+00
 1.30000E+01    1.24600E+00
 1.40000E+01    1.11400E+00
 1.45000E+01    1.15500E+00
 1.50000E+01    1.00800E+00
 1.60000E+01    9.18000E-01
 1.70000E+01    8.40000E-01
 1.80000E+01    7.72100E-01
 1.90000E+01    7.12700E-01
 2.00000E+01    6.61100E-01
