# n + Mo 92 : (n,n'01)  
# jendl4.0   K.Shibata, A.Ichihara, S.Kunieda+ EVAL-MAR09
# uncertainties: n
# # energies =    29
#   E(MeV)       xs(mb) 
 1.52606E+00    0.00000E+00
 2.00000E+00    9.15500E+02
 2.50000E+00    9.68700E+02
 3.00000E+00    8.20000E+02
 3.50000E+00    5.85500E+02
 4.00000E+00    3.71300E+02
 4.50000E+00    2.30900E+02
 5.00000E+00    1.60100E+02
 5.50000E+00    1.07500E+02
 6.00000E+00    7.49900E+01
 6.50000E+00    5.30400E+01
 7.00000E+00    3.97300E+01
 7.50000E+00    3.13500E+01
 8.00000E+00    2.61400E+01
 8.50000E+00    2.28400E+01
 9.00000E+00    2.06400E+01
 9.50000E+00    1.91200E+01
 1.00000E+01    1.79700E+01
 1.10000E+01    1.63000E+01
 1.20000E+01    1.50900E+01
 1.30000E+01    1.41600E+01
 1.40000E+01    1.34200E+01
 1.45000E+01    1.31100E+01
 1.50000E+01    1.28100E+01
 1.60000E+01    1.22700E+01
 1.70000E+01    1.17700E+01
 1.80000E+01    1.13100E+01
 1.90000E+01    1.08900E+01
 2.00000E+01    1.05100E+01
