# n + Mo 92 : (n,n'14)  
# jendl4.0   K.Shibata, A.Ichihara, S.Kunieda+ EVAL-MAR09
# uncertainties: n
# # energies =    25
#   E(MeV)       xs(mb) 
 3.66094E+00    0.00000E+00
 4.00000E+00    8.09200E+01
 4.50000E+00    7.34800E+01
 5.00000E+00    5.66500E+01
 5.50000E+00    4.04400E+01
 6.00000E+00    2.92200E+01
 6.50000E+00    1.95800E+01
 7.00000E+00    1.30400E+01
 7.50000E+00    8.34600E+00
 8.00000E+00    5.63500E+00
 8.50000E+00    3.77600E+00
 9.00000E+00    2.84700E+00
 9.50000E+00    2.09800E+00
 1.00000E+01    1.81200E+00
 1.10000E+01    1.37200E+00
 1.20000E+01    1.13600E+00
 1.30000E+01    8.28500E-01
 1.40000E+01    7.37200E-01
 1.45000E+01    7.62900E-01
 1.50000E+01    6.64600E-01
 1.60000E+01    6.03400E-01
 1.70000E+01    5.50500E-01
 1.80000E+01    5.04500E-01
 1.90000E+01    4.64200E-01
 2.00000E+01    4.29500E-01
