# n + Ni 61 : (n,any)   
# endfb8.0   T.Kawano,A.Kahler,A.Trkov         EVAL-Oct12
# uncertainties: n
# # energies =   148
#   E(MeV)       xs(mb) 
 2.00000E+01    0.00000E+00
 2.00000E+01    1.35640E+03
 2.10000E+01    1.34411E+03
 2.20000E+01    1.32700E+03
 2.20861E+01    1.32535E+03
 2.29124E+01    1.31021E+03
 2.30000E+01    1.30865E+03
 2.30708E+01    1.30738E+03
 2.33159E+01    1.30302E+03
 2.40000E+01    1.29070E+03
 2.41422E+01    1.28811E+03
 2.42884E+01    1.28547E+03
 2.45539E+01    1.28073E+03
 2.50000E+01    1.27290E+03
 2.57294E+01    1.26039E+03
 2.60000E+01    1.25580E+03
 2.64724E+01    1.24791E+03
 2.65444E+01    1.24673E+03
 2.70000E+01    1.23932E+03
 2.80000E+01    1.22360E+03
 2.83601E+01    1.21811E+03
 2.84961E+01    1.21606E+03
 2.86757E+01    1.21337E+03
 2.90000E+01    1.20856E+03
 3.00000E+01    1.19420E+03
 3.10000E+01    1.18059E+03
 3.15931E+01    1.17285E+03
 3.20000E+01    1.16769E+03
 3.22207E+01    1.16492E+03
 3.25976E+01    1.16028E+03
 3.30000E+01    1.15541E+03
 3.40000E+01    1.14367E+03
 3.43234E+01    1.13997E+03
 3.46060E+01    1.13679E+03
 3.50000E+01    1.13240E+03
 3.51812E+01    1.13041E+03
 3.53764E+01    1.12829E+03
 3.55580E+01    1.12635E+03
 3.60000E+01    1.12171E+03
 3.70000E+01    1.11170E+03
 3.70005E+01    1.11169E+03
 3.80000E+01    1.10226E+03
 3.90000E+01    1.09331E+03
 3.99248E+01    1.08543E+03
 4.00000E+01    1.08480E+03
 4.10000E+01    1.07683E+03
 4.10970E+01    1.07609E+03
 4.20000E+01    1.06950E+03
 4.30000E+01    1.06273E+03
 4.34122E+01    1.06009E+03
 4.37386E+01    1.05805E+03
 4.40000E+01    1.05645E+03
 4.48651E+01    1.05137E+03
 4.49062E+01    1.05113E+03
 4.50000E+01    1.05060E+03
 4.54251E+01    1.04823E+03
 4.60000E+01    1.04512E+03
 4.70000E+01    1.04000E+03
 4.78129E+01    1.03609E+03
 4.80000E+01    1.03522E+03
 4.87813E+01    1.03173E+03
 4.90000E+01    1.03079E+03
 5.00000E+01    1.02670E+03
 5.01752E+01    1.02602E+03
 5.10000E+01    1.02285E+03
 5.20000E+01    1.01916E+03
 5.24370E+01    1.01761E+03
 5.30000E+01    1.01568E+03
 5.40000E+01    1.01242E+03
 5.43309E+01    1.01139E+03
 5.50000E+01    1.00940E+03
 5.60000E+01    1.00655E+03
 5.66093E+01    1.00486E+03
 5.69541E+01    1.00391E+03
 5.70000E+01    1.00379E+03
 5.80000E+01    1.00111E+03
 5.85227E+01    9.99748E+02
 5.90000E+01    9.98527E+02
 6.00000E+01    9.96040E+02
 6.10000E+01    9.93641E+02
 6.20000E+01    9.91307E+02
 6.30000E+01    9.89021E+02
 6.40000E+01    9.86766E+02
 6.50000E+01    9.84530E+02
 6.58433E+01    9.82652E+02
 6.58457E+01    9.82647E+02
 6.60000E+01    9.82304E+02
 6.70000E+01    9.80091E+02
 6.73259E+01    9.79373E+02
 6.77110E+01    9.78526E+02
 6.80000E+01    9.77892E+02
 6.90000E+01    9.75708E+02
 7.00000E+01    9.73540E+02
 7.10000E+01    9.71357E+02
 7.20000E+01    9.69136E+02
 7.30000E+01    9.66892E+02
 7.40000E+01    9.64640E+02
 7.50000E+01    9.62390E+02
 7.60000E+01    9.60131E+02
 7.70000E+01    9.57845E+02
 7.80000E+01    9.55538E+02
 7.90000E+01    9.53215E+02
 8.00000E+01    9.50880E+02
 8.10000E+01    9.48528E+02
 8.20000E+01    9.46152E+02
 8.30000E+01    9.43755E+02
 8.40000E+01    9.41340E+02
 8.50000E+01    9.38910E+02
 8.60000E+01    9.36466E+02
 8.70000E+01    9.34008E+02
 8.80000E+01    9.31536E+02
 8.90000E+01    9.29050E+02
 9.00000E+01    9.26550E+02
 9.10000E+01    9.24038E+02
 9.20000E+01    9.21518E+02
 9.30000E+01    9.18993E+02
 9.40000E+01    9.16466E+02
 9.50000E+01    9.13940E+02
 9.60000E+01    9.11412E+02
 9.70000E+01    9.08876E+02
 9.80000E+01    9.06333E+02
 9.90000E+01    9.03784E+02
 1.00000E+02    9.01230E+02
 1.02000E+02    8.96127E+02
 1.04000E+02    8.91046E+02
 1.06000E+02    8.85985E+02
 1.08000E+02    8.80947E+02
 1.10000E+02    8.75930E+02
 1.12000E+02    8.70947E+02
 1.14000E+02    8.66007E+02
 1.16000E+02    8.61105E+02
 1.18000E+02    8.56237E+02
 1.20000E+02    8.51400E+02
 1.22000E+02    8.46617E+02
 1.24000E+02    8.41906E+02
 1.26000E+02    8.37257E+02
 1.28000E+02    8.32661E+02
 1.30000E+02    8.28110E+02
 1.32000E+02    8.23616E+02
 1.34000E+02    8.19192E+02
 1.36000E+02    8.14833E+02
 1.38000E+02    8.10534E+02
 1.40000E+02    8.06290E+02
 1.42000E+02    8.02104E+02
 1.44000E+02    7.97980E+02
 1.46000E+02    7.93913E+02
 1.48000E+02    7.89901E+02
 1.50000E+02    7.85940E+02
