# n + In113 : (n,na)    
# jendl.ad   kunieda                           EVAL-Mar14
# uncertainties: n
# # energies =    25
#   E(MeV)       xs(mb) 
 3.09931E+00    0.00000E+00
 3.18813E+00    2.06910E-11
 9.00000E+00    3.71490E-09
 9.50000E+00    2.71620E-07
 1.00000E+01    2.95845E-06
 1.05000E+01    1.58349E-05
 1.10000E+01    1.17866E-04
 1.15000E+01    8.14962E-04
 1.20000E+01    3.54026E-03
 1.25000E+01    9.02994E-03
 1.30000E+01    2.12753E-02
 1.35000E+01    4.37149E-02
 1.40000E+01    8.67930E-02
 1.45000E+01    1.48771E-01
 1.50000E+01    2.88015E-01
 1.55000E+01    4.82382E-01
 1.60000E+01    7.98965E-01
 1.65000E+01    1.22215E+00
 1.70000E+01    1.79999E+00
 1.75000E+01    2.50172E+00
 1.80000E+01    3.30546E+00
 1.85000E+01    4.22245E+00
 1.90000E+01    5.04705E+00
 1.95000E+01    6.27383E+00
 2.00000E+01    7.12927E+00
