# n + In113 : (n,na)m   
# jendl.ad   kunieda                           EVAL-Mar14
# uncertainties: n
# # energies =    24
#   E(MeV)       xs(mb) 
 3.18813E+00    0.00000E+00
 9.00000E+00    2.34030E-09
 9.50000E+00    2.15310E-07
 1.00000E+01    2.08437E-06
 1.05000E+01    9.84815E-06
 1.10000E+01    8.57122E-05
 1.15000E+01    6.19623E-04
 1.20000E+01    2.56613E-03
 1.25000E+01    5.67250E-03
 1.30000E+01    1.24055E-02
 1.35000E+01    2.49219E-02
 1.40000E+01    4.91261E-02
 1.45000E+01    7.97471E-02
 1.50000E+01    1.59631E-01
 1.55000E+01    2.40269E-01
 1.60000E+01    4.12951E-01
 1.65000E+01    5.72025E-01
 1.70000E+01    8.56669E-01
 1.75000E+01    1.11398E+00
 1.80000E+01    1.45383E+00
 1.85000E+01    1.83434E+00
 1.90000E+01    2.02803E+00
 1.95000E+01    2.66623E+00
 2.00000E+01    2.90040E+00
