# n + In113 : (n,np)    
# jendl.ad   kunieda                           EVAL-Mar14
# uncertainties: n
# # energies =    27
#   E(MeV)       xs(mb) 
 6.13237E+00    0.00000E+00
 7.50000E+00    1.09280E-07
 8.00000E+00    3.02916E-05
 8.50000E+00    8.87047E-04
 9.00000E+00    1.13505E-02
 9.50000E+00    6.69806E-02
 1.00000E+01    1.67313E-01
 1.05000E+01    2.68415E-01
 1.10000E+01    4.31599E-01
 1.15000E+01    6.39878E-01
 1.20000E+01    1.05268E+00
 1.25000E+01    1.68023E+00
 1.30000E+01    2.63104E+00
 1.35000E+01    4.18945E+00
 1.40000E+01    6.10132E+00
 1.45000E+01    8.41539E+00
 1.50000E+01    1.10098E+01
 1.55000E+01    1.43257E+01
 1.60000E+01    1.79900E+01
 1.65000E+01    2.19085E+01
 1.70000E+01    2.57503E+01
 1.75000E+01    3.03257E+01
 1.80000E+01    3.37468E+01
 1.85000E+01    3.86773E+01
 1.90000E+01    4.33810E+01
 1.95000E+01    4.78209E+01
 2.00000E+01    5.29723E+01
