# n + In113 : (n,g)     
# jendl.ad   kunieda                           EVAL-Mar14
# uncertainties: n
# # energies =    69
#   E(MeV)       xs(mb) 
 1.00000E-10    8.25151E+04
 5.00000E-09    2.25978E+04
 1.00000E-08    1.71976E+04
 1.50000E-08    1.45169E+04
 2.00000E-08    1.28301E+04
 2.50000E-08    1.16440E+04
 3.00000E-08    1.07540E+04
 3.50000E-08    9.94184E+03
 4.20000E-08    9.15548E+03
 5.00000E-08    8.50737E+03
 5.80000E-08    7.97038E+03
 6.70000E-08    7.43197E+03
 8.00000E-08    6.82995E+03
 1.00000E-07    6.11062E+03
 1.40000E-07    5.48788E+03
 1.80000E-07    5.10773E+03
 2.20000E-07    4.88261E+03
 2.50000E-07    4.74853E+03
 2.80000E-07    4.66487E+03
 3.00000E-07    4.61466E+03
 3.20000E-07    4.56928E+03
 3.50000E-07    4.53019E+03
 4.00000E-07    4.54233E+03
 5.00000E-07    4.73053E+03
 6.25000E-07    5.24692E+03
 7.80000E-07    5.92877E+03
 8.50000E-07    6.47152E+03
 9.10000E-07    6.98182E+03
 9.50000E-07    7.34984E+03
 9.72000E-07    7.65293E+03
 9.96000E-07    7.99886E+03
 1.02000E-06    8.38748E+03
 1.04500E-06    8.83440E+03
 1.07100E-06    9.34108E+03
 1.09700E-06    9.90692E+03
 1.12300E-06    1.05540E+04
 1.15000E-06    1.35295E+04
 1.30000E-06    2.67461E+04
 1.50000E-06    4.29934E+05
 2.10000E-06    1.41092E+04
 2.60000E-06    2.94675E+03
 3.30000E-06    1.75178E+03
 4.00000E-06    1.23300E+04
 9.87700E-06    1.34423E+05
 1.59680E-05    7.37048E+04
 2.77000E-05    3.69460E+04
 4.80520E-05    3.92726E+03
 7.55014E-05    1.89560E+04
 1.48728E-04    4.06590E+03
 3.67262E-04    3.11004E+03
 9.06898E-04    3.86607E+03
 1.42510E-03    2.95467E+03
 2.23945E-03    2.30016E+03
 3.51910E-03    1.83241E+03
 5.53000E-03    1.47593E+03
 9.11800E-03    1.17915E+03
 1.50300E-02    9.26596E+02
 2.47800E-02    7.05603E+02
 4.08500E-02    5.21626E+02
 6.73400E-02    3.81630E+02
 1.11000E-01    2.86607E+02
 1.83000E-01    2.31404E+02
 3.02000E-01    2.07872E+02
 5.00000E-01    2.09277E+02
 8.21000E-01    2.28325E+02
 1.35300E+00    1.46270E+02
 2.23100E+00    3.88974E+01
 3.67900E+00    8.07295E+00
 6.06500E+00    1.16779E+00
