# n + Kr  0 : (n,xp)
# jendl4.0   K.Shibata, A.Ichihara, S.Kunieda  EVAL-AUG09
#
# # energies =    73
#   E(MeV)          xs(mb) 
 9.51030E-03    0.00000E+00
 1.00000E-02    0.00000E+00
 2.00000E-02    0.00000E+00
 3.00000E-02    0.00000E+00
 4.00000E-02    0.00000E+00
 4.20484E-02    0.00000E+00
 5.00000E-02    0.00000E+00
 6.00000E-02    0.00000E+00
 7.00000E-02    0.00000E+00
 8.00000E-02    0.00000E+00
 9.00000E-02    0.00000E+00
 1.00000E-01    0.00000E+00
 2.00000E-01    0.00000E+00
 3.00000E-01    0.00000E+00
 4.00000E-01    0.00000E+00
 5.00000E-01    0.00000E+00
 5.68862E-01    0.00000E+00
 5.78154E-01    0.00000E+00
 6.00000E-01    0.00000E+00
 6.98546E-01    0.00000E+00
 7.00000E-01    0.00000E+00
 8.00000E-01    0.00000E+00
 8.08619E-01    0.00000E+00
 8.20866E-01    0.00000E+00
 9.00000E-01    0.00000E+00
 1.00000E+00    0.00000E+00
 1.02417E+00    0.00000E+00
 1.11338E+00    0.00000E+00
 1.11631E+00    0.00000E+00
 1.13568E+00    0.00000E+00
 1.18464E+00    0.00000E+00
 1.23674E+00    0.00000E+00
 1.29345E+00    0.00000E+00
 1.50000E+00    0.00000E+00
 1.53525E+00    5.02852E-05
 1.54776E+00    6.81312E-05
 1.55235E+00    7.46791E-05
 1.55681E+00    8.10414E-05
 1.66247E+00    2.31777E-04
 1.68829E+00    2.68613E-04
 1.74255E+00    3.46021E-04
 1.75962E+00    3.70373E-04
 1.80256E+00    4.31634E-04
 1.91188E+00    5.87593E-04
 1.92200E+00    6.02030E-04
 2.00000E+00    7.13300E-04
 2.50000E+00    1.33473E-02
 3.00000E+00    5.73255E-02
 3.50000E+00    1.59585E-01
 4.00000E+00    3.54759E-01
 4.50000E+00    6.65059E-01
 5.00000E+00    9.68316E-01
 5.50000E+00    1.33566E+00
 6.00000E+00    1.56432E+00
 6.50000E+00    1.83398E+00
 7.00000E+00    2.00053E+00
 7.50000E+00    2.24919E+00
 8.00000E+00    2.50327E+00
 8.50000E+00    2.83814E+00
 9.00000E+00    3.25350E+00
 9.50000E+00    3.82248E+00
 1.00000E+01    4.54492E+00
 1.10000E+01    6.53265E+00
 1.20000E+01    9.89831E+00
 1.30000E+01    1.41431E+01
 1.40000E+01    1.86763E+01
 1.45000E+01    2.11581E+01
 1.50000E+01    2.41169E+01
 1.60000E+01    3.02531E+01
 1.70000E+01    3.66798E+01
 1.80000E+01    4.31652E+01
 1.90000E+01    4.97900E+01
 2.00000E+01    5.65220E+01
