# n + Kr  0 : (n,xd)
# jendl4.0   K.Shibata, A.Ichihara, S.Kunieda  EVAL-AUG09
#
# # energies =    73
#   E(MeV)          xs(mb) 
 9.51030E-03    0.00000E+00
 1.00000E-02    0.00000E+00
 2.00000E-02    0.00000E+00
 3.00000E-02    0.00000E+00
 4.00000E-02    0.00000E+00
 4.20484E-02    0.00000E+00
 5.00000E-02    0.00000E+00
 6.00000E-02    0.00000E+00
 7.00000E-02    0.00000E+00
 8.00000E-02    0.00000E+00
 9.00000E-02    0.00000E+00
 1.00000E-01    0.00000E+00
 2.00000E-01    0.00000E+00
 3.00000E-01    0.00000E+00
 4.00000E-01    0.00000E+00
 5.00000E-01    0.00000E+00
 5.68862E-01    0.00000E+00
 5.78154E-01    0.00000E+00
 6.00000E-01    0.00000E+00
 6.98546E-01    0.00000E+00
 7.00000E-01    0.00000E+00
 8.00000E-01    0.00000E+00
 8.08619E-01    0.00000E+00
 8.20866E-01    0.00000E+00
 9.00000E-01    0.00000E+00
 1.00000E+00    0.00000E+00
 1.02417E+00    0.00000E+00
 1.11338E+00    0.00000E+00
 1.11631E+00    0.00000E+00
 1.13568E+00    0.00000E+00
 1.18464E+00    0.00000E+00
 1.23674E+00    0.00000E+00
 1.29345E+00    0.00000E+00
 1.50000E+00    0.00000E+00
 1.53525E+00    0.00000E+00
 1.54776E+00    0.00000E+00
 1.55235E+00    0.00000E+00
 1.55681E+00    0.00000E+00
 1.66247E+00    0.00000E+00
 1.68829E+00    0.00000E+00
 1.74255E+00    0.00000E+00
 1.75962E+00    0.00000E+00
 1.80256E+00    0.00000E+00
 1.91188E+00    0.00000E+00
 1.92200E+00    0.00000E+00
 2.00000E+00    0.00000E+00
 2.50000E+00    0.00000E+00
 3.00000E+00    0.00000E+00
 3.50000E+00    0.00000E+00
 4.00000E+00    0.00000E+00
 4.50000E+00    0.00000E+00
 5.00000E+00    0.00000E+00
 5.50000E+00    0.00000E+00
 6.00000E+00    0.00000E+00
 6.50000E+00    0.00000E+00
 7.00000E+00    0.00000E+00
 7.50000E+00    0.00000E+00
 8.00000E+00    0.00000E+00
 8.50000E+00    6.69200E-07
 9.00000E+00    8.78277E-06
 9.50000E+00    3.94163E-05
 1.00000E+01    1.16771E-04
 1.10000E+01    2.15432E-03
 1.20000E+01    2.75824E-02
 1.30000E+01    1.74043E-01
 1.40000E+01    6.19152E-01
 1.45000E+01    1.04112E+00
 1.50000E+01    1.50845E+00
 1.60000E+01    2.84488E+00
 1.70000E+01    4.57145E+00
 1.80000E+01    6.57603E+00
 1.90000E+01    8.73952E+00
 2.00000E+01    1.07023E+01
