# n + Pu238 : (n,n'17)  
# jendl4.0   O.Iwamoto,T.Nakagawa +            EVAL-JAN10
# uncertainties: y
# # energies =    47
#   E(MeV)       xs(mb)       xslow(mb)      xsupp(mb)
 1.13053E+00    0.00000E+00   -0.00000E+00    0.00000E+00
 1.13880E+00    4.61910E-13    0.00000E+00    1.11782E-12
 1.17938E+00    6.64240E-12    0.00000E+00    1.60746E-11
 1.20756E+00    2.36100E-11    0.00000E+00    5.71362E-11
 1.23386E+00    6.16000E-11    0.00000E+00    1.49072E-10
 1.25730E+00    1.27930E-10    0.00000E+00    3.09591E-10
 1.30000E+00    4.93140E-10    0.00000E+00    1.19340E-09
 1.60000E+00    6.33250E-08    0.00000E+00    1.27916E-07
 1.80000E+00    4.00970E-07    0.00000E+00    8.09959E-07
 2.00000E+00    1.77638E-06    3.30407E-07    3.22235E-06
 2.30000E+00    7.48549E-06    1.39230E-06    1.35787E-05
 2.50000E+00    1.53313E-05    3.87882E-06    2.67838E-05
 2.70000E+00    2.72638E-05    6.89774E-06    4.76299E-05
 3.00000E+00    1.36752E-01    8.91623E-02    1.84342E-01
 3.50000E+00    1.36721E-01    9.62516E-02    1.77190E-01
 4.00000E+00    1.30344E-01    9.67152E-02    1.63973E-01
 4.50000E+00    1.21304E-01    9.00076E-02    1.52600E-01
 5.00000E+00    1.12641E-01    8.56072E-02    1.39675E-01
 5.50000E+00    1.03583E-01    7.87231E-02    1.28443E-01
 6.00000E+00    9.54395E-02    7.23431E-02    1.18536E-01
 6.50000E+00    8.84497E-02    6.70449E-02    1.09855E-01
 7.00000E+00    8.25973E-02    6.22784E-02    1.02916E-01
 7.50000E+00    7.71848E-02    5.81973E-02    9.61723E-02
 8.00000E+00    7.33223E-02    5.52117E-02    9.14329E-02
 8.50000E+00    6.87743E-02    5.17870E-02    8.57615E-02
 9.00000E+00    6.54666E-02    4.94927E-02    8.14404E-02
 9.50000E+00    6.20793E-02    4.69319E-02    7.72266E-02
 1.00000E+01    5.89114E-02    4.49494E-02    7.28734E-02
 1.05000E+01    5.57453E-02    4.25337E-02    6.89569E-02
 1.10000E+01    5.29035E-02    4.03654E-02    6.54416E-02
 1.15000E+01    5.01531E-02    3.82668E-02    6.20394E-02
 1.20000E+01    4.75993E-02    3.69371E-02    5.82615E-02
 1.25000E+01    4.51618E-02    3.50456E-02    5.52780E-02
 1.30000E+01    4.30269E-02    3.33889E-02    5.26649E-02
 1.35000E+01    4.12335E-02    3.19972E-02    5.04698E-02
 1.40000E+01    3.95172E-02    3.10210E-02    4.80134E-02
 1.45000E+01    3.77599E-02    2.96415E-02    4.58783E-02
 1.50000E+01    3.59844E-02    2.83917E-02    4.35771E-02
 1.55000E+01    3.44388E-02    2.71722E-02    4.17054E-02
 1.60000E+01    3.30489E-02    2.62078E-02    3.98900E-02
 1.65000E+01    3.18033E-02    2.52200E-02    3.83866E-02
 1.70000E+01    3.06211E-02    2.42825E-02    3.69597E-02
 1.75000E+01    2.94002E-02    2.33144E-02    3.54860E-02
 1.80000E+01    2.82840E-02    2.26272E-02    3.39408E-02
 1.85000E+01    2.72762E-02    2.18210E-02    3.27314E-02
 1.95000E+01    2.52387E-02    2.01910E-02    3.02864E-02
 2.00000E+01    2.42927E-02    1.94342E-02    2.91512E-02
