# n + Mg 24 : (n,p)     
# jeff3.3    M.HATCHYA(DEC), T.ASAMI(NEDAC)    EVAL-MAR87
# uncertainties: y
# # energies =    42
#   E(MeV)       xs(mb)       xslow(mb)      xsupp(mb)
 4.93113E+00    0.00000E+00    0.00000E+00    0.00000E+00
 5.00000E+00    2.10000E-02    1.79764E-02    2.40236E-02
 5.20000E+00    4.70000E-02    4.02329E-02    5.37671E-02
 5.60000E+00    2.10000E-01    1.79764E-01    2.40236E-01
 5.80000E+00    1.90000E+00    1.62644E+00    2.17356E+00
 6.10000E+00    4.30000E+00    3.68088E+00    4.91912E+00
 6.30000E+00    8.70000E+00    7.44736E+00    9.95264E+00
 6.50000E+00    3.69000E+01    3.15871E+01    4.22129E+01
 6.70000E+00    4.36000E+01    3.73224E+01    4.98776E+01
 6.90000E+00    3.57000E+01    3.32502E+01    3.81498E+01
 7.10000E+00    5.22000E+01    4.86180E+01    5.57820E+01
 7.31000E+00    4.65000E+01    4.33091E+01    4.96909E+01
 7.51000E+00    8.01000E+01    7.46035E+01    8.55965E+01
 7.70000E+00    9.33000E+01    8.68977E+01    9.97023E+01
 7.90000E+00    1.06300E+02    9.90056E+01    1.13594E+02
 8.11000E+00    1.19800E+02    1.11579E+02    1.28021E+02
 8.50000E+00    1.19200E+02    1.11020E+02    1.27380E+02
 9.50000E+00    1.23400E+02    1.16100E+02    1.30700E+02
 1.00000E+01    1.48108E+02    1.39346E+02    1.56870E+02
 1.05000E+01    1.57900E+02    1.48559E+02    1.67241E+02
 1.15000E+01    1.81900E+02    1.71139E+02    1.92661E+02
 1.22000E+01    1.92700E+02    1.81300E+02    2.04100E+02
 1.24000E+01    2.09600E+02    1.97200E+02    2.22000E+02
 1.26000E+01    2.00200E+02    1.88356E+02    2.12044E+02
 1.28000E+01    2.00800E+02    1.88921E+02    2.12679E+02
 1.30000E+01    1.97700E+02    1.86004E+02    2.09396E+02
 1.32000E+01    2.14600E+02    2.01904E+02    2.27296E+02
 1.34000E+01    2.17700E+02    2.04821E+02    2.30579E+02
 1.36000E+01    2.01400E+02    1.85629E+02    2.17171E+02
 1.38000E+01    1.89100E+02    1.74292E+02    2.03908E+02
 1.40000E+01    1.96500E+02    1.81113E+02    2.11887E+02
 1.42000E+01    1.96700E+02    1.81297E+02    2.12103E+02
 1.44000E+01    1.90700E+02    1.75767E+02    2.05633E+02
 1.46000E+01    1.82200E+02    1.67933E+02    1.96467E+02
 1.48000E+01    1.71800E+02    1.58347E+02    1.85253E+02
 1.50000E+01    1.78200E+02    1.64246E+02    1.92154E+02
 1.55000E+01    1.56900E+02    1.44614E+02    1.69186E+02
 1.60000E+01    1.39800E+02    1.28853E+02    1.50747E+02
 1.70000E+01    1.22200E+02    1.02460E+02    1.41940E+02
 1.80000E+01    1.13500E+02    9.51656E+01    1.31834E+02
 1.90000E+01    9.71000E+01    8.14148E+01    1.12785E+02
 2.00000E+01    8.09000E+01    6.78317E+01    9.39683E+01
