# p + Tl203 : Production of Pb200
# IAEA-MED for    27.200 MeV <     37.300 MeV, extended with TENDL-2019   EVAL-2019
# uncertainties: y
# # energies =   123
#  E(MeV)          xs(mb)         dxs(mb)
 2.46283E+01    0.00000E+00    0.00000E+00
 2.60000E+01    2.75761E-01    0.00000E+00
 2.72000E+01    6.30000E+00    1.70000E+00
 2.73000E+01    5.80000E+00    1.60000E+00
 2.74000E+01    5.50000E+00    1.50000E+00
 2.75000E+01    5.30000E+00    1.20000E+00
 2.76000E+01    5.40000E+00    1.20000E+00
 2.77000E+01    5.80000E+00    1.30000E+00
 2.78000E+01    6.40000E+00    1.40000E+00
 2.79000E+01    7.40000E+00    1.60000E+00
 2.80000E+01    8.60000E+00    1.40000E+00
 2.81000E+01    1.01000E+01    1.70000E+00
 2.82000E+01    1.20000E+01    2.00000E+00
 2.83000E+01    1.41000E+01    2.30000E+00
 2.84000E+01    1.66000E+01    2.80000E+00
 2.85000E+01    1.95000E+01    2.00000E+00
 2.86000E+01    2.27000E+01    2.30000E+00
 2.87000E+01    2.63000E+01    2.70000E+00
 2.88000E+01    3.03000E+01    3.10000E+00
 2.89000E+01    3.48000E+01    3.60000E+00
 2.90000E+01    3.96000E+01    3.10000E+00
 2.91000E+01    4.49000E+01    3.50000E+00
 2.92000E+01    5.07000E+01    4.00000E+00
 2.93000E+01    5.69000E+01    4.50000E+00
 2.94000E+01    6.36000E+01    5.00000E+00
 2.95000E+01    7.07000E+01    5.30000E+00
 2.96000E+01    7.83000E+01    5.90000E+00
 2.97000E+01    8.65000E+01    6.50000E+00
 2.98000E+01    9.51000E+01    7.20000E+00
 2.99000E+01    1.04200E+02    7.90000E+00
 3.00000E+01    1.13800E+02    8.70000E+00
 3.01000E+01    1.23900E+02    9.50000E+00
 3.02000E+01    1.34600E+02    1.03000E+01
 3.03000E+01    1.45700E+02    1.12000E+01
 3.04000E+01    1.57300E+02    1.21000E+01
 3.05000E+01    1.69400E+02    1.30000E+01
 3.06000E+01    1.81900E+02    1.40000E+01
 3.07000E+01    1.94900E+02    1.50000E+01
 3.08000E+01    2.08300E+02    1.60000E+01
 3.09000E+01    2.22200E+02    1.71000E+01
 3.10000E+01    2.36500E+02    1.78000E+01
 3.11000E+01    2.51100E+02    1.89000E+01
 3.12000E+01    2.66100E+02    2.00000E+01
 3.13000E+01    2.81400E+02    2.12000E+01
 3.14000E+01    2.97100E+02    2.23000E+01
 3.15000E+01    3.13000E+02    2.24000E+01
 3.16000E+01    3.29100E+02    2.36000E+01
 3.17000E+01    3.45500E+02    2.47000E+01
 3.18000E+01    3.62100E+02    2.59000E+01
 3.19000E+01    3.78800E+02    2.71000E+01
 3.20000E+01    3.95600E+02    2.64000E+01
 3.21000E+01    4.12500E+02    2.75000E+01
 3.22000E+01    4.29400E+02    2.86000E+01
 3.23000E+01    4.46300E+02    2.98000E+01
 3.24000E+01    4.63300E+02    3.09000E+01
 3.25000E+01    4.80100E+02    2.97000E+01
 3.26000E+01    4.96900E+02    3.07000E+01
 3.27000E+01    5.13600E+02    3.17000E+01
 3.28000E+01    5.30100E+02    3.28000E+01
 3.29000E+01    5.46400E+02    3.38000E+01
 3.30000E+01    5.62500E+02    3.27000E+01
 3.31000E+01    5.78300E+02    3.37000E+01
 3.32000E+01    5.93900E+02    3.46000E+01
 3.33000E+01    6.09300E+02    3.55000E+01
 3.34000E+01    6.24300E+02    3.63000E+01
 3.35000E+01    6.39000E+02    3.68000E+01
 3.36000E+01    6.53300E+02    3.77000E+01
 3.37000E+01    6.67300E+02    3.85000E+01
 3.38000E+01    6.80900E+02    3.92000E+01
 3.39000E+01    6.94200E+02    4.00000E+01
 3.40000E+01    7.07000E+02    4.30000E+01
 3.41000E+01    7.19500E+02    4.38000E+01
 3.42000E+01    7.31500E+02    4.45000E+01
 3.43000E+01    7.43100E+02    4.52000E+01
 3.44000E+01    7.54400E+02    4.59000E+01
 3.45000E+01    7.65200E+02    5.17000E+01
 3.46000E+01    7.75600E+02    5.24000E+01
 3.47000E+01    7.85500E+02    5.31000E+01
 3.48000E+01    7.95100E+02    5.38000E+01
 3.49000E+01    8.04300E+02    5.44000E+01
 3.50000E+01    8.13000E+02    6.23000E+01
 3.51000E+01    8.21400E+02    6.30000E+01
 3.52000E+01    8.29400E+02    6.36000E+01
 3.53000E+01    8.36900E+02    6.42000E+01
 3.54000E+01    8.44200E+02    6.47000E+01
 3.55000E+01    8.51000E+02    7.40000E+01
 3.56000E+01    8.57500E+02    7.46000E+01
 3.57000E+01    8.63600E+02    7.51000E+01
 3.58000E+01    8.69400E+02    7.56000E+01
 3.59000E+01    8.74800E+02    7.61000E+01
 3.60000E+01    8.79900E+02    8.59000E+01
 3.61000E+01    8.84700E+02    8.63000E+01
 3.62000E+01    8.89200E+02    8.68000E+01
 3.63000E+01    8.93400E+02    8.72000E+01
 3.64000E+01    8.97300E+02    8.76000E+01
 3.65000E+01    9.01000E+02    9.75000E+01
 3.66000E+01    9.04400E+02    9.78000E+01
 3.67000E+01    9.07500E+02    9.82000E+01
 3.68000E+01    9.10400E+02    9.85000E+01
 3.69000E+01    9.13100E+02    9.88000E+01
 3.70000E+01    9.15700E+02    1.08200E+02
 3.71000E+01    9.18100E+02    1.08500E+02
 3.72000E+01    9.20400E+02    1.08800E+02
 3.73000E+01    9.22500E+02    1.09000E+02
 4.00000E+01    7.17146E+02    0.00000E+00
 4.50000E+01    2.37963E+02    0.00000E+00
 5.00000E+01    1.25733E+02    0.00000E+00
 5.50000E+01    9.57629E+01    0.00000E+00
 6.00000E+01    8.00093E+01    0.00000E+00
 6.50000E+01    6.89675E+01    0.00000E+00
 7.00000E+01    6.04393E+01    0.00000E+00
 7.50000E+01    5.30339E+01    0.00000E+00
 8.00000E+01    4.67456E+01    0.00000E+00
 9.00000E+01    3.80068E+01    0.00000E+00
 1.00000E+02    3.14092E+01    0.00000E+00
 1.10000E+02    2.73360E+01    0.00000E+00
 1.20000E+02    2.32625E+01    0.00000E+00
 1.30000E+02    2.01207E+01    0.00000E+00
 1.40000E+02    1.82156E+01    0.00000E+00
 1.50000E+02    1.61736E+01    0.00000E+00
 1.60000E+02    1.48047E+01    0.00000E+00
 1.80000E+02    1.23737E+01    0.00000E+00
 2.00000E+02    1.10107E+01    0.00000E+00
