# n + Kr 78 : (n,tot)   
# endfb8.0   T. Kawano                         EVAL-Oct16
# uncertainties: n
# # energies =   171
#   E(MeV)       xs(mb) 
 1.00000E-11    6.60182E+04
 1.00000E-07    9.53023E+03
 4.13990E-07    8.91232E+03
 5.31580E-07    8.77776E+03
 6.82560E-07    8.65721E+03
 8.76420E-07    8.54883E+03
 1.12540E-06    8.45177E+03
 1.44500E-06    8.36254E+03
 1.85540E-06    8.28283E+03
 2.37240E-06    8.20043E+03
 3.05900E-06    8.12344E+03
 3.92790E-06    8.04660E+03
 5.04350E-06    7.96706E+03
 6.47600E-06    7.88525E+03
 8.31530E-06    7.79509E+03
 1.06770E-05    7.69629E+03
 1.37100E-05    7.58573E+03
 1.76030E-05    7.45761E+03
 2.26030E-05    7.31060E+03
 2.92030E-05    7.14147E+03
 3.72670E-05    6.94498E+03
 4.78510E-05    6.69931E+03
 6.14420E-05    6.38198E+03
 7.88930E-05    5.81472E+03
 1.01300E-04    7.63949E+04
 1.30070E-04    6.77069E+03
 1.67020E-04    6.18460E+03
 2.14450E-04    5.79837E+03
 2.75360E-04    5.36697E+03
 3.53580E-04    2.27253E+04
 4.54000E-04    5.86245E+03
 5.82950E-04    6.73437E+04
 7.48520E-04    2.46826E+04
 9.61120E-04    2.84765E+04
 1.23410E-03    2.63113E+04
 1.58460E-03    2.35591E+04
 2.03470E-03    2.17438E+04
 2.24870E-03    2.10552E+04
 2.48520E-03    2.04941E+04
 2.61260E-03    2.00944E+04
 2.74650E-03    1.94565E+04
 3.03540E-03    1.88181E+04
 3.35460E-03    1.83046E+04
 3.70740E-03    1.75828E+04
 4.30740E-03    1.63124E+04
 5.53080E-03    1.52677E+04
 7.10170E-03    1.41757E+04
 9.11880E-03    1.29825E+04
 1.17090E-02    1.22881E+04
 1.50340E-02    1.14808E+04
 1.93050E-02    1.08165E+04
 2.18750E-02    1.06038E+04
 2.35790E-02    1.04956E+04
 2.41760E-02    1.04393E+04
 2.47880E-02    1.03519E+04
 2.60580E-02    1.02486E+04
 2.70000E-02    1.01351E+04
 2.85000E-02    9.93078E+03
 3.18280E-02    9.75695E+03
 3.43070E-02    9.51393E+03
 4.08680E-02    9.24383E+03
 4.63090E-02    9.03297E+03
 5.24750E-02    8.88060E+03
 5.65620E-02    8.70033E+03
 6.73790E-02    8.54536E+03
 7.20000E-02    8.43012E+03
 7.95000E-02    8.33486E+03
 8.25000E-02    8.28855E+03
 8.65170E-02    8.18775E+03
 9.80370E-02    8.04127E+03
 1.11090E-01    7.94683E+03
 1.16790E-01    7.89048E+03
 1.22770E-01    7.84184E+03
 1.29070E-01    7.79278E+03
 1.35690E-01    7.74126E+03
 1.42640E-01    7.68708E+03
 1.49960E-01    7.63737E+03
 1.57640E-01    7.59265E+03
 1.65730E-01    7.54564E+03
 1.74220E-01    7.49621E+03
 1.83160E-01    7.44424E+03
 1.92550E-01    7.38996E+03
 2.02420E-01    7.34106E+03
 2.12800E-01    7.29316E+03
 2.23710E-01    7.24280E+03
 2.35180E-01    7.18986E+03
 2.47240E-01    7.11086E+03
 2.73240E-01    7.03171E+03
 2.87250E-01    6.98982E+03
 2.94520E-01    6.97026E+03
 2.97200E-01    6.96245E+03
 2.98500E-01    6.95330E+03
 3.01970E-01    6.89096E+03
 3.33730E-01    6.77229E+03
 3.68830E-01    6.68001E+03
 3.87740E-01    6.61519E+03
 4.07620E-01    6.51609E+03
 4.50490E-01    6.37676E+03
 4.97870E-01    6.26640E+03
 5.23400E-01    6.18916E+03
 5.50230E-01    6.10798E+03
 5.78440E-01    6.02279E+03
 6.08100E-01    5.93656E+03
 6.39280E-01    5.84722E+03
 6.72060E-01    5.75343E+03
 7.06510E-01    5.65954E+03
 7.42740E-01    5.56327E+03
 7.80820E-01    5.46330E+03
 8.20850E-01    5.36520E+03
 8.62940E-01    5.26331E+03
 9.07180E-01    5.15473E+03
 9.61640E-01    5.05292E+03
 1.00260E+00    4.91351E+03
 1.10800E+00    4.76529E+03
 1.16480E+00    4.67012E+03
 1.22460E+00    4.57693E+03
 1.28730E+00    4.48671E+03
 1.35340E+00    4.40149E+03
 1.42270E+00    4.31991E+03
 1.49570E+00    4.24313E+03
 1.57240E+00    4.17243E+03
 1.65300E+00    4.10684E+03
 1.73770E+00    4.04613E+03
 1.82680E+00    3.99457E+03
 1.92050E+00    3.94670E+03
 2.01900E+00    3.90772E+03
 2.12250E+00    3.87169E+03
 2.23130E+00    3.84907E+03
 2.30690E+00    3.83558E+03
 2.34570E+00    3.82870E+03
 2.36530E+00    3.82408E+03
 2.38520E+00    3.81718E+03
 2.46600E+00    3.80460E+03
 2.59240E+00    3.79035E+03
 2.72530E+00    3.78402E+03
 2.86500E+00    3.77873E+03
 3.01190E+00    3.77863E+03
 3.16640E+00    3.78263E+03
 3.32870E+00    3.78907E+03
 3.67880E+00    3.80361E+03
 4.06570E+00    3.82371E+03
 4.49330E+00    3.84010E+03
 4.72370E+00    3.85177E+03
 4.96590E+00    3.86404E+03
 5.22050E+00    3.87694E+03
 5.48810E+00    3.89049E+03
 5.76950E+00    3.90475E+03
 6.06530E+00    3.91974E+03
 6.37630E+00    3.93279E+03
 6.59240E+00    3.93949E+03
 6.70320E+00    3.94502E+03
 7.04690E+00    3.95363E+03
 7.40820E+00    3.95918E+03
 7.78800E+00    3.95641E+03
 8.18730E+00    3.95056E+03
 8.60710E+00    3.93485E+03
 9.04840E+00    3.91571E+03
 9.51230E+00    3.88691E+03
 1.00000E+01    3.85120E+03
 1.05130E+01    3.80666E+03
 1.10520E+01    3.75488E+03
 1.16180E+01    3.69638E+03
 1.22140E+01    3.63180E+03
 1.28400E+01    3.56181E+03
 1.34990E+01    3.50632E+03
 1.38400E+01    3.46791E+03
 1.41910E+01    3.42852E+03
 1.45500E+01    3.38838E+03
 1.49180E+01    3.32676E+03
 1.56830E+01    3.24323E+03
 1.64870E+01    3.15949E+03
