# n + Kr 78 : (n,xd)    
# endfb8.0   T. Kawano                         EVAL-Oct16
# 
# # energies =    78
#   E(MeV)        xs(mb) 
 4.60930E-01    0.00000E+00
 5.00000E-01    0.00000E+00
 6.00000E-01    0.00000E+00
 7.00000E-01    0.00000E+00
 8.00000E-01    0.00000E+00
 9.00000E-01    0.00000E+00
 1.00000E+00    0.00000E+00
 1.03035E+00    0.00000E+00
 1.10000E+00    0.00000E+00
 1.13396E+00    0.00000E+00
 1.16278E+00    0.00000E+00
 1.20000E+00    0.00000E+00
 1.30000E+00    0.00000E+00
 1.40000E+00    0.00000E+00
 1.50000E+00    0.00000E+00
 1.58502E+00    0.00000E+00
 1.60000E+00    0.00000E+00
 1.67531E+00    0.00000E+00
 1.70000E+00    0.00000E+00
 1.77859E+00    0.00000E+00
 1.79588E+00    0.00000E+00
 1.80000E+00    0.00000E+00
 1.89714E+00    0.00000E+00
 1.90000E+00    0.00000E+00
 2.00000E+00    0.00000E+00
 2.00342E+00    0.00000E+00
 2.03341E+00    0.00000E+00
 2.03442E+00    0.00000E+00
 2.10000E+00    0.00000E+00
 2.20000E+00    0.00000E+00
 2.30000E+00    0.00000E+00
 2.40000E+00    0.00000E+00
 2.50000E+00    0.00000E+00
 2.60000E+00    0.00000E+00
 2.70000E+00    0.00000E+00
 2.80000E+00    0.00000E+00
 2.90000E+00    0.00000E+00
 3.00000E+00    0.00000E+00
 3.10000E+00    0.00000E+00
 3.20000E+00    0.00000E+00
 3.30000E+00    0.00000E+00
 3.40000E+00    0.00000E+00
 3.50000E+00    0.00000E+00
 3.60000E+00    0.00000E+00
 3.80000E+00    0.00000E+00
 4.00000E+00    0.00000E+00
 4.50000E+00    0.00000E+00
 5.00000E+00    0.00000E+00
 5.50000E+00    0.00000E+00
 6.00000E+00    0.00000E+00
 6.50000E+00    6.37420E-12
 7.00000E+00    1.40920E-11
 7.50000E+00    1.58880E-07
 8.00000E+00    2.75873E-05
 8.50000E+00    6.78251E-04
 9.00000E+00    5.72209E-03
 9.50000E+00    2.53311E-02
 1.00000E+01    7.38270E-02
 1.05000E+01    1.64467E-01
 1.10000E+01    3.16197E-01
 1.15000E+01    5.75327E-01
 1.20000E+01    1.02196E+00
 1.25000E+01    1.73818E+00
 1.30000E+01    2.66055E+00
 1.35000E+01    3.98706E+00
 1.40000E+01    5.61029E+00
 1.45000E+01    7.49848E+00
 1.50000E+01    9.28771E+00
 1.55000E+01    1.15434E+01
 1.60000E+01    1.39280E+01
 1.65000E+01    1.64407E+01
 1.70000E+01    1.90263E+01
 1.75000E+01    2.16880E+01
 1.80000E+01    2.43858E+01
 1.85000E+01    2.71402E+01
 1.90000E+01    2.98968E+01
 1.95000E+01    3.26534E+01
 2.00000E+01    3.54693E+01
