# n + Dy160 : (n,n'05)  
# tendl.2019 A.J. Koning and D. Rochman        EVAL-NOV19
# uncertainties: n
# # energies =    90
#   E(MeV)       xs(mb) 
 1.01433E+00    0.00000E+00
 1.05572E+00    3.15807E-04
 1.16313E+00    1.13535E-03
 1.20000E+00    1.41667E-03
 1.27272E+00    5.82391E-03
 1.28801E+00    6.75057E-03
 1.29371E+00    7.09603E-03
 1.29483E+00    7.16390E-03
 1.29679E+00    7.28269E-03
 1.35827E+00    1.10087E-02
 1.36724E+00    1.15524E-02
 1.39520E+00    1.32469E-02
 1.40000E+00    1.35378E-02
 1.40779E+00    1.46988E-02
 1.41735E+00    1.61235E-02
 1.43704E+00    1.90579E-02
 1.44762E+00    2.06347E-02
 1.46594E+00    2.33650E-02
 1.49889E+00    2.82756E-02
 1.52799E+00    3.26124E-02
 1.53193E+00    3.31996E-02
 1.54483E+00    3.51221E-02
 1.56641E+00    3.83382E-02
 1.59675E+00    4.28599E-02
 1.60000E+00    4.33442E-02
 1.60443E+00    4.44831E-02
 1.61390E+00    4.69178E-02
 1.61697E+00    4.77071E-02
 1.61800E+00    4.79720E-02
 1.80000E+00    9.47636E-02
 2.00000E+00    1.89182E-01
 2.20000E+00    3.18395E-01
 2.40000E+00    4.66336E-01
 2.60000E+00    6.05773E-01
 2.80000E+00    7.08932E-01
 3.00000E+00    7.61272E-01
 3.20000E+00    8.16545E-01
 3.40000E+00    7.73403E-01
 3.60000E+00    7.07301E-01
 3.80000E+00    6.33479E-01
 4.00000E+00    5.82554E-01
 4.20000E+00    5.19860E-01
 4.40000E+00    4.63246E-01
 4.60000E+00    4.23200E-01
 4.80000E+00    3.98072E-01
 5.00000E+00    3.86556E-01
 5.20000E+00    3.87101E-01
 5.40000E+00    3.98064E-01
 5.60000E+00    4.17993E-01
 5.80000E+00    4.45474E-01
 6.00000E+00    4.78854E-01
 6.20000E+00    5.16928E-01
 6.40000E+00    5.57963E-01
 6.60000E+00    6.00375E-01
 6.80000E+00    6.42493E-01
 7.00000E+00    6.82806E-01
 7.20000E+00    7.19983E-01
 7.40000E+00    7.52975E-01
 7.60000E+00    7.81084E-01
 7.80000E+00    8.03937E-01
 8.00000E+00    8.21474E-01
 8.50000E+00    8.43866E-01
 9.00000E+00    8.41950E-01
 9.50000E+00    8.24838E-01
 1.00000E+01    8.00405E-01
 1.05000E+01    7.74162E-01
 1.10000E+01    7.49260E-01
 1.15000E+01    7.26959E-01
 1.20000E+01    7.07277E-01
 1.25000E+01    6.89595E-01
 1.30000E+01    6.73165E-01
 1.35000E+01    6.57431E-01
 1.40000E+01    6.42095E-01
 1.45000E+01    6.27103E-01
 1.50000E+01    6.12544E-01
 1.60000E+01    5.85366E-01
 1.70000E+01    5.61958E-01
 1.80000E+01    5.43168E-01
 1.90000E+01    5.28758E-01
 2.00000E+01    5.17656E-01
 2.10000E+01    5.08550E-01
 2.20000E+01    5.00129E-01
 2.30000E+01    4.91029E-01
 2.40000E+01    4.80192E-01
 2.50000E+01    4.67492E-01
 2.60000E+01    4.53792E-01
 2.70000E+01    4.40313E-01
 2.80000E+01    4.27977E-01
 2.90000E+01    4.17168E-01
 3.00000E+01    4.07743E-01
