# n + Dy160 : (n,n'15)  
# tendl.2019 A.J. Koning and D. Rochman        EVAL-NOV19
# uncertainties: n
# # energies =    79
#   E(MeV)       xs(mb) 
 1.39520E+00    0.00000E+00
 1.40000E+00    1.00243E+01
 1.40779E+00    1.08511E+01
 1.41735E+00    1.18659E+01
 1.43704E+00    1.39558E+01
 1.44762E+00    1.50787E+01
 1.46594E+00    1.70232E+01
 1.49889E+00    2.05206E+01
 1.52799E+00    2.36093E+01
 1.53193E+00    2.40275E+01
 1.54483E+00    2.53967E+01
 1.56641E+00    2.76872E+01
 1.59675E+00    3.09075E+01
 1.60000E+00    3.12525E+01
 1.60443E+00    3.13809E+01
 1.61390E+00    3.16553E+01
 1.61697E+00    3.17442E+01
 1.61800E+00    3.17741E+01
 1.80000E+00    3.70480E+01
 2.00000E+00    3.90720E+01
 2.20000E+00    3.73115E+01
 2.40000E+00    3.28268E+01
 2.60000E+00    2.70035E+01
 2.80000E+00    2.10319E+01
 3.00000E+00    1.57241E+01
 3.20000E+00    1.17585E+01
 3.40000E+00    8.37727E+00
 3.60000E+00    5.90325E+00
 3.80000E+00    4.14277E+00
 4.00000E+00    2.90646E+00
 4.20000E+00    2.04363E+00
 4.40000E+00    1.46970E+00
 4.60000E+00    1.04352E+00
 4.80000E+00    7.40611E-01
 5.00000E+00    5.27565E-01
 5.20000E+00    3.77057E-01
 5.40000E+00    2.70344E-01
 5.60000E+00    1.94576E-01
 5.80000E+00    1.40610E-01
 6.00000E+00    1.01452E-01
 6.20000E+00    7.36983E-02
 6.40000E+00    5.36472E-02
 6.60000E+00    3.92926E-02
 6.80000E+00    2.88787E-02
 7.00000E+00    2.13338E-02
 7.20000E+00    1.58344E-02
 7.40000E+00    1.17905E-02
 7.60000E+00    8.82897E-03
 7.80000E+00    6.62925E-03
 8.00000E+00    4.99426E-03
 8.50000E+00    2.49691E-03
 9.00000E+00    1.27127E-03
 9.50000E+00    6.55502E-04
 1.00000E+01    3.41664E-04
 1.05000E+01    1.80084E-04
 1.10000E+01    9.60498E-05
 1.15000E+01    5.18592E-05
 1.20000E+01    2.83456E-05
 1.25000E+01    1.56714E-05
 1.30000E+01    8.75912E-06
 1.35000E+01    4.95178E-06
 1.40000E+01    2.82894E-06
 1.45000E+01    1.63140E-06
 1.50000E+01    9.50510E-07
 1.60000E+01    3.30480E-07
 1.70000E+01    1.18670E-07
 1.80000E+01    4.37390E-08
 1.90000E+01    1.64500E-08
 2.00000E+01    6.38340E-09
 2.10000E+01    2.53600E-09
 2.20000E+01    1.02980E-09
 2.30000E+01    4.28780E-10
 2.40000E+01    1.82320E-10
 2.50000E+01    7.88820E-11
 2.60000E+01    3.46800E-11
 2.70000E+01    1.54260E-11
 2.80000E+01    6.97210E-12
 2.90000E+01    3.20240E-12
 3.00000E+01    1.48980E-12
