# n + Dy160 : (n,n'20)  
# tendl.2019 A.J. Koning and D. Rochman        EVAL-NOV19
# uncertainties: n
# # energies =    73
#   E(MeV)       xs(mb) 
 1.46594E+00    0.00000E+00
 1.49889E+00    9.90539E+00
 1.52799E+00    1.86534E+01
 1.53193E+00    1.98378E+01
 1.54483E+00    2.37158E+01
 1.56641E+00    3.02031E+01
 1.59675E+00    3.93239E+01
 1.60000E+00    4.03009E+01
 1.60443E+00    4.02833E+01
 1.61390E+00    4.02456E+01
 1.61697E+00    4.02334E+01
 1.61800E+00    4.02293E+01
 1.80000E+00    3.95057E+01
 2.00000E+00    3.70378E+01
 2.20000E+00    3.23465E+01
 2.40000E+00    2.59605E+01
 2.60000E+00    1.93668E+01
 2.80000E+00    1.36440E+01
 3.00000E+00    9.23303E+00
 3.20000E+00    6.15065E+00
 3.40000E+00    4.01413E+00
 3.60000E+00    2.61183E+00
 3.80000E+00    1.70607E+00
 4.00000E+00    1.12284E+00
 4.20000E+00    7.46058E-01
 4.40000E+00    5.05076E-01
 4.60000E+00    3.46315E-01
 4.80000E+00    2.35605E-01
 5.00000E+00    1.61572E-01
 5.20000E+00    1.11399E-01
 5.40000E+00    7.71746E-02
 5.60000E+00    5.37417E-02
 5.80000E+00    3.76306E-02
 6.00000E+00    2.63429E-02
 6.20000E+00    1.85971E-02
 6.40000E+00    1.31773E-02
 6.60000E+00    9.40848E-03
 6.80000E+00    6.75382E-03
 7.00000E+00    4.88109E-03
 7.20000E+00    3.55064E-03
 7.40000E+00    2.59551E-03
 7.60000E+00    1.91080E-03
 7.80000E+00    1.41262E-03
 8.00000E+00    1.04915E-03
 8.50000E+00    5.08468E-04
 9.00000E+00    2.52151E-04
 9.50000E+00    1.27007E-04
 1.00000E+01    6.47891E-05
 1.05000E+01    3.34681E-05
 1.10000E+01    1.75163E-05
 1.15000E+01    9.29169E-06
 1.20000E+01    4.99607E-06
 1.25000E+01    2.72069E-06
 1.30000E+01    1.49966E-06
 1.35000E+01    8.37040E-07
 1.40000E+01    4.72610E-07
 1.45000E+01    2.69600E-07
 1.50000E+01    1.55500E-07
 1.60000E+01    5.31110E-08
 1.70000E+01    1.87890E-08
 1.80000E+01    6.84000E-09
 1.90000E+01    2.54540E-09
 2.00000E+01    9.78420E-10
 2.10000E+01    3.85270E-10
 2.20000E+01    1.55130E-10
 2.30000E+01    6.41010E-11
 2.40000E+01    2.70760E-11
 2.50000E+01    1.16510E-11
 2.60000E+01    5.09910E-12
 2.70000E+01    2.25900E-12
 2.80000E+01    1.01700E-12
 2.90000E+01    4.65170E-13
 3.00000E+01    2.15460E-13
