# n + Dy160 : (n,n'06)  
# tendl.2019 A.J. Koning and D. Rochman        EVAL-NOV19
# uncertainties: n
# # energies =    89
#   E(MeV)       xs(mb) 
 1.05572E+00    0.00000E+00
 1.16313E+00    1.18885E+02
 1.20000E+00    1.59694E+02
 1.27272E+00    1.64927E+02
 1.28801E+00    1.66027E+02
 1.29371E+00    1.66437E+02
 1.29483E+00    1.66518E+02
 1.29679E+00    1.66659E+02
 1.35827E+00    1.71082E+02
 1.36724E+00    1.71728E+02
 1.39520E+00    1.73740E+02
 1.40000E+00    1.74085E+02
 1.40779E+00    1.73830E+02
 1.41735E+00    1.73517E+02
 1.43704E+00    1.72872E+02
 1.44762E+00    1.72525E+02
 1.46594E+00    1.71926E+02
 1.49889E+00    1.70846E+02
 1.52799E+00    1.69893E+02
 1.53193E+00    1.69764E+02
 1.54483E+00    1.69342E+02
 1.56641E+00    1.68635E+02
 1.59675E+00    1.67642E+02
 1.60000E+00    1.67535E+02
 1.60443E+00    1.67322E+02
 1.61390E+00    1.66867E+02
 1.61697E+00    1.66720E+02
 1.61800E+00    1.66670E+02
 1.80000E+00    1.57926E+02
 2.00000E+00    1.37529E+02
 2.20000E+00    1.12136E+02
 2.40000E+00    8.70739E+01
 2.60000E+00    6.47822E+01
 2.80000E+00    4.64198E+01
 3.00000E+00    3.23252E+01
 3.20000E+00    2.27646E+01
 3.40000E+00    1.53655E+01
 3.60000E+00    1.03235E+01
 3.80000E+00    6.94208E+00
 4.00000E+00    4.74315E+00
 4.20000E+00    3.25934E+00
 4.40000E+00    2.21129E+00
 4.60000E+00    1.51018E+00
 4.80000E+00    1.03584E+00
 5.00000E+00    7.13760E-01
 5.20000E+00    4.94332E-01
 5.40000E+00    3.44069E-01
 5.60000E+00    2.40775E-01
 5.80000E+00    1.69536E-01
 6.00000E+00    1.19385E-01
 6.20000E+00    8.47868E-02
 6.40000E+00    6.04661E-02
 6.60000E+00    4.34451E-02
 6.80000E+00    3.13863E-02
 7.00000E+00    2.28264E-02
 7.20000E+00    1.67014E-02
 7.40000E+00    1.22785E-02
 7.60000E+00    9.08786E-03
 7.80000E+00    6.75293E-03
 8.00000E+00    5.03988E-03
 8.50000E+00    2.47038E-03
 9.00000E+00    1.23837E-03
 9.50000E+00    6.30613E-04
 1.00000E+01    3.25345E-04
 1.05000E+01    1.70017E-04
 1.10000E+01    9.00118E-05
 1.15000E+01    4.82815E-05
 1.20000E+01    2.62331E-05
 1.25000E+01    1.44231E-05
 1.30000E+01    8.01887E-06
 1.35000E+01    4.51009E-06
 1.40000E+01    2.56366E-06
 1.45000E+01    1.47112E-06
 1.50000E+01    8.53000E-07
 1.60000E+01    2.93920E-07
 1.70000E+01    1.04730E-07
 1.80000E+01    3.83600E-08
 1.90000E+01    1.43550E-08
 2.00000E+01    5.54730E-09
 2.10000E+01    2.19570E-09
 2.20000E+01    8.88510E-10
 2.30000E+01    3.68760E-10
 2.40000E+01    1.56320E-10
 2.50000E+01    6.74440E-11
 2.60000E+01    2.95750E-11
 2.70000E+01    1.31250E-11
 2.80000E+01    5.92020E-12
 2.90000E+01    2.71430E-12
 3.00000E+01    1.26070E-12
