# n + Dy160 : (n,n'14)  
# tendl.2019 A.J. Koning and D. Rochman        EVAL-NOV19
# uncertainties: n
# # energies =    80
#   E(MeV)       xs(mb) 
 1.36724E+00    0.00000E+00
 1.39520E+00    4.26944E+01
 1.40000E+00    5.00238E+01
 1.40779E+00    5.13887E+01
 1.41735E+00    5.30638E+01
 1.43704E+00    5.65138E+01
 1.44762E+00    5.83676E+01
 1.46594E+00    6.15776E+01
 1.49889E+00    6.73510E+01
 1.52799E+00    7.24498E+01
 1.53193E+00    7.31402E+01
 1.54483E+00    7.54005E+01
 1.56641E+00    7.91816E+01
 1.59675E+00    8.44977E+01
 1.60000E+00    8.50672E+01
 1.60443E+00    8.51740E+01
 1.61390E+00    8.54022E+01
 1.61697E+00    8.54762E+01
 1.61800E+00    8.55010E+01
 1.80000E+00    8.98876E+01
 2.00000E+00    8.42096E+01
 2.20000E+00    7.23746E+01
 2.40000E+00    5.81231E+01
 2.60000E+00    4.41599E+01
 2.80000E+00    3.20704E+01
 3.00000E+00    2.25312E+01
 3.20000E+00    1.57360E+01
 3.40000E+00    1.06815E+01
 3.60000E+00    7.20763E+00
 3.80000E+00    4.86382E+00
 4.00000E+00    3.29302E+00
 4.20000E+00    2.24322E+00
 4.40000E+00    1.56362E+00
 4.60000E+00    1.07749E+00
 4.80000E+00    7.47006E-01
 5.00000E+00    5.20624E-01
 5.20000E+00    3.64767E-01
 5.40000E+00    2.56801E-01
 5.60000E+00    1.81732E-01
 5.80000E+00    1.29280E-01
 6.00000E+00    9.19240E-02
 6.20000E+00    6.58628E-02
 6.40000E+00    4.73242E-02
 6.60000E+00    3.42423E-02
 6.80000E+00    2.48772E-02
 7.00000E+00    1.81790E-02
 7.20000E+00    1.33543E-02
 7.40000E+00    9.84711E-03
 7.60000E+00    7.30643E-03
 7.80000E+00    5.43853E-03
 8.00000E+00    4.06371E-03
 8.50000E+00    1.99420E-03
 9.00000E+00    9.98915E-04
 9.50000E+00    5.07637E-04
 1.00000E+01    2.61138E-04
 1.05000E+01    1.35995E-04
 1.10000E+01    7.17329E-05
 1.15000E+01    3.83322E-05
 1.20000E+01    2.07512E-05
 1.25000E+01    1.13702E-05
 1.30000E+01    6.30217E-06
 1.35000E+01    3.53523E-06
 1.40000E+01    2.00519E-06
 1.45000E+01    1.14868E-06
 1.50000E+01    6.65160E-07
 1.60000E+01    2.28750E-07
 1.70000E+01    8.13730E-08
 1.80000E+01    2.97520E-08
 1.90000E+01    1.11110E-08
 2.00000E+01    4.28490E-09
 2.10000E+01    1.69280E-09
 2.20000E+01    6.83840E-10
 2.30000E+01    2.83360E-10
 2.40000E+01    1.19940E-10
 2.50000E+01    5.16810E-11
 2.60000E+01    2.26360E-11
 2.70000E+01    1.00350E-11
 2.80000E+01    4.52200E-12
 2.90000E+01    2.07120E-12
 3.00000E+01    9.60950E-13
