# n + Dy160 : (n,xa)    
# tendl.2019 A.J. Koning and D. Rochman        EVAL-NOV19
# 
# # energies =   134
#   E(MeV)        xs(mb) 
 8.73354E-02    1.14984E-07
 1.00000E-01    1.08110E-07
 2.00000E-01    9.10690E-08
 2.85612E-01    1.29039E-07
 3.00000E-01    1.35420E-07
 4.00000E-01    2.19020E-07
 5.00000E-01    3.19810E-07
 5.84727E-01    4.19330E-07
 6.00000E-01    4.37270E-07
 7.00000E-01    5.80502E-07
 8.00000E-01    9.04990E-07
 9.00000E-01    1.48233E-06
 9.72263E-01    1.90533E-06
 1.00000E+00    2.06817E-06
 1.01433E+00    2.16526E-06
 1.05572E+00    2.44568E-06
 1.16313E+00    3.17340E-06
 1.20000E+00    3.42320E-06
 1.27272E+00    4.19700E-06
 1.28801E+00    4.35969E-06
 1.29371E+00    4.42034E-06
 1.29483E+00    4.43226E-06
 1.29679E+00    4.45312E-06
 1.35827E+00    5.10731E-06
 1.36724E+00    5.20276E-06
 1.39520E+00    5.50027E-06
 1.40000E+00    5.55135E-06
 1.40779E+00    5.65897E-06
 1.41735E+00    5.79105E-06
 1.43704E+00    6.06308E-06
 1.44762E+00    6.20925E-06
 1.46594E+00    6.46236E-06
 1.49889E+00    6.91759E-06
 1.52799E+00    7.31962E-06
 1.53193E+00    7.37406E-06
 1.54483E+00    7.55228E-06
 1.56641E+00    7.85042E-06
 1.59675E+00    8.26959E-06
 1.60000E+00    8.31449E-06
 1.60443E+00    8.41733E-06
 1.61390E+00    8.63718E-06
 1.61697E+00    8.70845E-06
 1.61800E+00    8.73236E-06
 1.80000E+00    1.29575E-05
 2.00000E+00    2.25343E-05
 2.20000E+00    3.34496E-05
 2.40000E+00    5.29419E-05
 2.60000E+00    7.84814E-05
 2.80000E+00    1.07827E-04
 3.00000E+00    1.54680E-04
 3.20000E+00    2.06786E-04
 3.40000E+00    2.72742E-04
 3.60000E+00    3.52314E-04
 3.80000E+00    4.35753E-04
 4.00000E+00    5.48833E-04
 4.20000E+00    6.68066E-04
 4.40000E+00    8.03035E-04
 4.60000E+00    9.57471E-04
 4.80000E+00    1.13148E-03
 5.00000E+00    1.33825E-03
 5.20000E+00    1.57885E-03
 5.40000E+00    1.84831E-03
 5.60000E+00    2.15723E-03
 5.80000E+00    2.54790E-03
 6.00000E+00    2.98814E-03
 6.20000E+00    3.54546E-03
 6.40000E+00    4.09895E-03
 6.60000E+00    4.83379E-03
 6.80000E+00    5.82853E-03
 7.00000E+00    6.95151E-03
 7.20000E+00    8.52487E-03
 7.40000E+00    9.99189E-03
 7.60000E+00    1.20237E-02
 7.80000E+00    1.52302E-02
 8.00000E+00    1.86416E-02
 8.50000E+00    3.18532E-02
 9.00000E+00    5.45219E-02
 9.50000E+00    9.16498E-02
 1.00000E+01    1.50020E-01
 1.05000E+01    2.37528E-01
 1.10000E+01    3.56884E-01
 1.15000E+01    5.25309E-01
 1.20000E+01    7.46234E-01
 1.25000E+01    1.02717E+00
 1.30000E+01    1.37276E+00
 1.35000E+01    1.77642E+00
 1.40000E+01    2.29567E+00
 1.45000E+01    2.85339E+00
 1.50000E+01    3.52017E+00
 1.60000E+01    5.10664E+00
 1.70000E+01    7.17034E+00
 1.80000E+01    9.98767E+00
 1.90000E+01    1.39868E+01
 2.00000E+01    1.92980E+01
 2.10000E+01    2.34904E+01
 2.20000E+01    2.68425E+01
 2.30000E+01    2.80089E+01
 2.40000E+01    2.70725E+01
 2.50000E+01    2.69123E+01
 2.60000E+01    2.70725E+01
 2.70000E+01    2.74609E+01
 2.80000E+01    2.79988E+01
 2.90000E+01    2.86260E+01
 3.00000E+01    2.93059E+01
 3.00000E+01    2.91977E+01
 3.20000E+01    3.05959E+01
 3.40000E+01    3.15502E+01
 3.60000E+01    3.28730E+01
 3.80000E+01    3.40780E+01
 4.00000E+01    3.51824E+01
 4.20000E+01    3.61788E+01
 4.40000E+01    3.70924E+01
 4.60000E+01    3.79492E+01
 4.80000E+01    3.87037E+01
 5.00000E+01    3.94662E+01
 5.20000E+01    4.01821E+01
 5.40000E+01    4.09113E+01
 5.60000E+01    4.16942E+01
 5.80000E+01    4.24663E+01
 6.00000E+01    4.31550E+01
 6.50000E+01    4.50261E+01
 7.00000E+01    4.69541E+01
 7.50000E+01    4.88624E+01
 8.00000E+01    5.18328E+01
 9.00000E+01    5.88646E+01
 1.00000E+02    6.57860E+01
 1.10000E+02    7.11017E+01
 1.20000E+02    7.47399E+01
 1.30000E+02    8.14044E+01
 1.40000E+02    9.06494E+01
 1.50000E+02    1.05786E+02
 1.60000E+02    1.30774E+02
 1.80000E+02    2.00840E+02
 2.00000E+02    3.37500E+02
