# n + Fe 56 : (n,n'23)  
# jendl4.0   S.IIJIMA,H.YAMAKOSHI              EVAL-MAR87
# uncertainties: y
# # energies =    60
#   E(MeV)       xs(mb)       xslow(mb)      xsupp(mb)
 4.37958E+00    0.00000E+00    0.00000E+00    0.00000E+00
 4.38104E+00    1.03899E-01    7.27293E-02    1.35069E-01
 4.38393E+00    3.08449E-01    2.15914E-01    4.00984E-01
 4.38672E+00    5.06608E-01    3.54626E-01    6.58590E-01
 4.39214E+00    8.90538E-01    6.23377E-01    1.15770E+00
 4.39723E+00    1.25047E+00    8.75332E-01    1.62562E+00
 4.40200E+00    1.58791E+00    1.11154E+00    2.06429E+00
 4.41097E+00    2.22061E+00    1.55443E+00    2.88679E+00
 4.41883E+00    2.77422E+00    1.94195E+00    3.60649E+00
 4.42572E+00    3.25863E+00    2.28104E+00    4.23622E+00
 4.43780E+00    4.10635E+00    2.87444E+00    5.33825E+00
 4.44689E+00    4.74213E+00    3.31949E+00    6.16477E+00
 4.46055E+00    5.69581E+00    3.98707E+00    7.40455E+00
 4.47425E+00    6.64949E+00    4.65464E+00    8.64434E+00
 4.48036E+00    6.77334E+00    4.74134E+00    8.80534E+00
 4.50949E+00    7.24078E+00    5.06855E+00    9.41302E+00
 4.53880E+00    7.70823E+00    5.39576E+00    1.00207E+01
 4.56499E+00    8.00683E+00    5.60478E+00    1.04089E+01
 4.59133E+00    8.30542E+00    5.81379E+00    1.07970E+01
 4.63919E+00    8.66952E+00    6.06867E+00    1.12704E+01
 4.67541E+00    8.94260E+00    6.25982E+00    1.16254E+01
 4.73027E+00    9.35221E+00    7.94938E+00    1.07550E+01
 4.78577E+00    9.76183E+00    8.29756E+00    1.12261E+01
 4.83845E+00    9.96585E+00    8.47097E+00    1.14607E+01
 4.91856E+00    1.02719E+01    8.73109E+00    1.18127E+01
 5.00000E+00    1.05779E+01    8.99121E+00    1.21646E+01
 5.11526E+00    1.04574E+01    8.88875E+00    1.20260E+01
 5.21829E+00    1.03519E+01    8.79909E+00    1.19047E+01
 5.40361E+00    1.01673E+01    8.64219E+00    1.16924E+01
 5.54691E+00    1.00288E+01    8.57466E+00    1.14830E+01
 5.65687E+00    9.92501E+00    8.48588E+00    1.13641E+01
 5.82591E+00    9.76926E+00    8.35272E+00    1.11858E+01
 6.00000E+00    9.61351E+00    8.21955E+00    1.10075E+01
 6.05809E+00    9.39089E+00    8.02921E+00    1.07526E+01
 6.11305E+00    9.18219E+00    7.85077E+00    1.05136E+01
 6.21746E+00    8.79086E+00    7.51619E+00    1.00655E+01
 6.31028E+00    8.44845E+00    7.22343E+00    9.67348E+00
 6.39263E+00    8.14885E+00    6.96726E+00    9.33043E+00
 6.46558E+00    7.88669E+00    6.74312E+00    9.03026E+00
 6.53008E+00    7.65730E+00    6.43979E+00    8.87482E+00
 6.58705E+00    7.45659E+00    6.27099E+00    8.64219E+00
 6.68795E+00    7.10534E+00    5.97559E+00    8.23509E+00
 6.76463E+00    6.84191E+00    5.75404E+00    7.92977E+00
 6.82272E+00    6.64433E+00    5.58788E+00    7.70078E+00
 6.91079E+00    6.34796E+00    5.33864E+00    7.35729E+00
 7.00000E+00    6.05160E+00    5.08940E+00    7.01380E+00
 8.00000E+00    3.48713E+00    2.89083E+00    4.08343E+00
 9.00000E+00    1.90219E+00    1.56550E+00    2.23888E+00
 1.00000E+01    1.14266E+00    9.43837E-01    1.34148E+00
 1.10000E+01    6.89546E-01    5.70944E-01    8.08148E-01
 1.17000E+01    6.03294E-01    4.98924E-01    7.07664E-01
 1.20000E+01    4.48295E-01    3.70740E-01    5.25850E-01
 1.30000E+01    6.57986E-01    5.42838E-01    7.73134E-01
 1.40000E+01    5.38731E-01    4.42298E-01    6.35164E-01
 1.50000E+01    2.59272E-01    2.11566E-01    3.06978E-01
 1.60000E+01    1.23602E-01    9.97468E-02    1.47457E-01
 1.70000E+01    1.06244E-01    8.46765E-02    1.27812E-01
 1.80000E+01    1.11011E-01    8.71436E-02    1.34878E-01
 1.90000E+01    1.33580E-01    1.03124E-01    1.64036E-01
 2.00000E+01    8.51938E-02    6.49177E-02    1.05470E-01
