# n + Fe 56 : (n,n'16)  
# jendl4.0   S.IIJIMA,H.YAMAKOSHI              EVAL-MAR87
# uncertainties: y
# # energies =    84
#   E(MeV)       xs(mb)       xslow(mb)      xsupp(mb)
 3.82353E+00    0.00000E+00    0.00000E+00    0.00000E+00
 3.82473E+00    4.56468E-03    3.19528E-03    5.93408E-03
 3.82709E+00    1.35513E-02    9.48591E-03    1.76167E-02
 3.82939E+00    2.22572E-02    1.55800E-02    2.89344E-02
 3.83383E+00    3.91247E-02    2.73873E-02    5.08621E-02
 3.83800E+00    5.49380E-02    3.84566E-02    7.14194E-02
 3.84191E+00    6.97630E-02    4.88341E-02    9.06919E-02
 3.84926E+00    9.75598E-02    6.82919E-02    1.26828E-01
 3.85570E+00    1.21882E-01    8.53174E-02    1.58447E-01
 3.86135E+00    1.43164E-01    1.00215E-01    1.86113E-01
 3.87125E+00    1.80407E-01    1.26285E-01    2.34529E-01
 3.87869E+00    2.08340E-01    1.45838E-01    2.70842E-01
 3.88988E+00    2.50238E-01    1.75167E-01    3.25309E-01
 3.90110E+00    2.92137E-01    2.04496E-01    3.79778E-01
 3.91355E+00    3.48149E-01    2.08541E-01    4.87757E-01
 3.92604E+00    4.04160E-01    2.42092E-01    5.66228E-01
 3.93521E+00    4.49847E-01    2.69458E-01    6.30236E-01
 3.95131E+00    5.29800E-01    3.17350E-01    7.42250E-01
 3.96343E+00    5.89765E-01    3.53269E-01    8.26261E-01
 3.98167E+00    6.79711E-01    4.07147E-01    9.52275E-01
 4.00000E+00    7.69658E-01    4.61025E-01    1.07829E+00
 4.02060E+00    8.95521E-01    5.36417E-01    1.25462E+00
 4.03872E+00    1.00565E+00    6.02385E-01    1.40892E+00
 4.05464E+00    1.10201E+00    6.60106E-01    1.54392E+00
 4.06862E+00    1.18633E+00    7.10613E-01    1.66205E+00
 4.09320E+00    1.33389E+00    7.99000E-01    1.86878E+00
 4.11173E+00    1.44456E+00    8.65290E-01    2.02382E+00
 4.13968E+00    1.61056E+00    9.64725E-01    2.25639E+00
 4.16783E+00    1.77656E+00    1.06416E+00    2.48896E+00
 4.17424E+00    1.81360E+00    1.08635E+00    2.54085E+00
 4.19430E+00    1.93428E+00    1.15863E+00    2.70993E+00
 4.21656E+00    2.07675E+00    1.24398E+00    2.90953E+00
 4.23613E+00    2.20142E+00    1.31865E+00    3.08419E+00
 4.27060E+00    2.41958E+00    1.44933E+00    3.38983E+00
 4.29664E+00    2.58320E+00    1.54734E+00    3.61907E+00
 4.31627E+00    2.70592E+00    1.62085E+00    3.79099E+00
 4.34589E+00    2.89000E+00    1.73111E+00    4.04888E+00
 4.37571E+00    3.07407E+00    1.84137E+00    4.30677E+00
 4.37958E+00    3.07969E+00    1.84473E+00    4.31465E+00
 4.40306E+00    3.22446E+00    1.93145E+00    4.51747E+00
 4.43851E+00    3.44162E+00    2.06153E+00    4.82170E+00
 4.47425E+00    3.65877E+00    2.19160E+00    5.12594E+00
 4.48036E+00    3.68950E+00    2.21001E+00    5.16899E+00
 4.50949E+00    3.87434E+00    2.91350E+00    4.83517E+00
 4.53880E+00    4.05917E+00    3.05250E+00    5.06584E+00
 4.56499E+00    4.22122E+00    3.17436E+00    5.26808E+00
 4.59133E+00    4.38327E+00    3.29622E+00    5.47032E+00
 4.63919E+00    4.68996E+00    3.52685E+00    5.85308E+00
 4.67541E+00    4.91999E+00    3.69983E+00    6.14014E+00
 4.73027E+00    5.26502E+00    3.95929E+00    6.57074E+00
 4.78577E+00    5.61005E+00    4.21876E+00    7.00134E+00
 4.83845E+00    5.87281E+00    4.41636E+00    7.32927E+00
 4.87834E+00    6.06988E+00    4.56455E+00    7.57522E+00
 4.93880E+00    6.36549E+00    4.78685E+00    7.94413E+00
 5.00000E+00    6.66110E+00    5.00915E+00    8.31305E+00
 5.11526E+00    6.87316E+00    5.16861E+00    8.57770E+00
 5.21829E+00    7.05870E+00    5.30814E+00    8.80926E+00
 5.31014E+00    7.22106E+00    5.43024E+00    9.01188E+00
 5.39184E+00    7.36312E+00    5.53706E+00    9.18917E+00
 5.46435E+00    7.48742E+00    5.63054E+00    9.34430E+00
 5.59360E+00    7.70495E+00    6.22560E+00    9.18430E+00
 5.69255E+00    7.86810E+00    6.35742E+00    9.37877E+00
 5.76790E+00    7.99046E+00    6.45629E+00    9.52463E+00
 5.88281E+00    8.17400E+00    6.60459E+00    9.74341E+00
 6.00000E+00    8.35754E+00    6.75289E+00    9.96219E+00
 6.23574E+00    8.19873E+00    6.62457E+00    9.77289E+00
 6.41860E+00    8.07963E+00    6.52834E+00    9.63092E+00
 6.55926E+00    7.99030E+00    6.05665E+00    9.92395E+00
 6.77605E+00    7.85630E+00    5.95508E+00    9.75753E+00
 7.00000E+00    7.72231E+00    5.85351E+00    9.59111E+00
 8.00000E+00    5.64301E+00    4.23226E+00    7.05376E+00
 9.00000E+00    3.87570E+00    3.02305E+00    4.72835E+00
 1.00000E+01    2.56743E+00    2.07448E+00    3.06038E+00
 1.10000E+01    1.70744E+00    1.40181E+00    2.01307E+00
 1.17000E+01    1.29678E+00    1.06725E+00    1.52631E+00
 1.20000E+01    1.18164E+00    9.72490E-01    1.39079E+00
 1.30000E+01    8.68278E-01    7.12856E-01    1.02370E+00
 1.40000E+01    6.86183E-01    5.59925E-01    8.12441E-01
 1.50000E+01    5.79693E-01    4.68972E-01    6.90414E-01
 1.60000E+01    4.16515E-01    3.31962E-01    5.01068E-01
 1.70000E+01    4.51878E-01    3.54272E-01    5.49484E-01
 1.80000E+01    4.75243E-01    3.66412E-01    5.84074E-01
 1.90000E+01    4.40743E-01    3.34083E-01    5.47403E-01
 2.00000E+01    3.94699E-01    2.95235E-01    4.94163E-01
