# n + Fe 56 : (n,tot)   
# jendl4.0   S.IIJIMA,H.YAMAKOSHI              EVAL-MAR87
# uncertainties: y
# # energies =    69
#   E(MeV)       xs(mb)       xslow(mb)      xsupp(mb)
 1.00000E-10    3.59408E+04    3.42185E+04    3.76630E+04
 5.00000E-09    1.74039E+04    1.65699E+04    1.82379E+04
 1.00000E-08    1.60381E+04    1.52695E+04    1.68066E+04
 1.50000E-08    1.53751E+04    1.46383E+04    1.61118E+04
 2.00000E-08    1.49623E+04    1.42453E+04    1.56793E+04
 2.50000E-08    1.46733E+04    1.39702E+04    1.53764E+04
 3.00000E-08    1.44566E+04    1.38072E+04    1.51060E+04
 3.50000E-08    1.42589E+04    1.36184E+04    1.48994E+04
 4.20000E-08    1.40675E+04    1.34356E+04    1.46994E+04
 5.00000E-08    1.39089E+04    1.32845E+04    1.45333E+04
 5.80000E-08    1.37767E+04    1.31583E+04    1.43952E+04
 6.70000E-08    1.36428E+04    1.30303E+04    1.42552E+04
 8.00000E-08    1.34909E+04    1.29028E+04    1.40790E+04
 1.00000E-07    1.33042E+04    1.27242E+04    1.38841E+04
 1.40000E-07    1.31336E+04    1.25855E+04    1.36817E+04
 1.80000E-07    1.30190E+04    1.24757E+04    1.35623E+04
 2.20000E-07    1.29437E+04    1.24036E+04    1.34839E+04
 2.50000E-07    1.28924E+04    1.23609E+04    1.34240E+04
 2.80000E-07    1.28559E+04    1.23259E+04    1.33860E+04
 3.00000E-07    1.28295E+04    1.23006E+04    1.33585E+04
 3.20000E-07    1.28013E+04    1.22735E+04    1.33291E+04
 3.50000E-07    1.27615E+04    1.22353E+04    1.32876E+04
 4.00000E-07    1.27026E+04    1.21788E+04    1.32263E+04
 5.00000E-07    1.26360E+04    1.19849E+04    1.32871E+04
 6.25000E-07    1.25762E+04    1.19281E+04    1.32242E+04
 7.80000E-07    1.25388E+04    1.17506E+04    1.33270E+04
 8.50000E-07    1.25205E+04    1.17335E+04    1.33075E+04
 9.10000E-07    1.25081E+04    1.17219E+04    1.32944E+04
 9.50000E-07    1.25013E+04    1.17155E+04    1.32872E+04
 9.72000E-07    1.24963E+04    1.17108E+04    1.32818E+04
 9.96000E-07    1.24911E+04    1.17059E+04    1.32763E+04
 1.02000E-06    1.24857E+04    1.17009E+04    1.32706E+04
 1.04500E-06    1.24802E+04    1.16957E+04    1.32647E+04
 1.07100E-06    1.24753E+04    1.16911E+04    1.32595E+04
 1.09700E-06    1.24714E+04    1.16875E+04    1.32554E+04
 1.12300E-06    1.24675E+04    1.16838E+04    1.32512E+04
 1.15000E-06    1.24545E+04    1.16716E+04    1.32374E+04
 1.30000E-06    1.24284E+04    1.16361E+04    1.32207E+04
 1.50000E-06    1.23928E+04    1.16028E+04    1.31829E+04
 2.10000E-06    1.23530E+04    1.15655E+04    1.31405E+04
 2.60000E-06    1.23144E+04    1.14638E+04    1.31649E+04
 3.30000E-06    1.22919E+04    1.14429E+04    1.31410E+04
 4.00000E-06    1.22285E+04    1.13839E+04    1.30731E+04
 9.87700E-06    1.21564E+04    1.13636E+04    1.29492E+04
 1.59680E-05    1.20901E+04    1.11931E+04    1.29872E+04
 2.77000E-05    1.20127E+04    1.11297E+04    1.28957E+04
 4.80520E-05    1.18983E+04    1.09700E+04    1.28266E+04
 7.55014E-05    1.17139E+04    1.08495E+04    1.25783E+04
 1.48728E-04    1.12407E+04    1.03064E+04    1.21750E+04
 3.67262E-04    1.02374E+04    9.23595E+03    1.12389E+04
 9.06898E-04    9.52181E+03    8.97054E+03    1.00731E+04
 1.42510E-03    8.13513E+03    7.72838E+03    8.54189E+03
 2.23945E-03    7.11566E+03    6.75987E+03    7.47144E+03
 3.51910E-03    6.08786E+03    5.75839E+03    6.41734E+03
 5.53000E-03    5.01606E+03    4.68330E+03    5.34883E+03
 9.11800E-03    3.79516E+03    3.15234E+03    4.43799E+03
 1.50300E-02    1.74229E+03    1.65518E+03    1.82941E+03
 2.47800E-02    1.85365E+04    1.76097E+04    1.94633E+04
 4.08500E-02    4.23487E+03    4.02312E+03    4.44661E+03
 6.73400E-02    5.28775E+03    5.02336E+03    5.55214E+03
 1.11000E-01    3.65581E+03    3.47302E+03    3.83860E+03
 1.83000E-01    3.64343E+03    3.45342E+03    3.83343E+03
 3.02000E-01    3.63944E+03    3.44965E+03    3.82924E+03
 5.00000E-01    2.98446E+03    2.82576E+03    3.14317E+03
 8.21000E-01    2.67390E+03    2.46614E+03    2.88165E+03
 1.35300E+00    3.03225E+03    2.74374E+03    3.32075E+03
 2.23100E+00    3.42010E+03    3.23200E+03    3.60821E+03
 3.67900E+00    3.63600E+03    3.43829E+03    3.83370E+03
 6.06500E+00    3.39657E+03    3.21231E+03    3.58084E+03
