# n + Fe 56 : (n,n'14)  
# jendl4.0   S.IIJIMA,H.YAMAKOSHI              EVAL-MAR87
# uncertainties: y
# # energies =    81
#   E(MeV)       xs(mb)       xslow(mb)      xsupp(mb)
 3.67204E+00    0.00000E+00    0.00000E+00    0.00000E+00
 3.67314E+00    1.12440E-01    7.87080E-02    1.46172E-01
 3.67532E+00    3.35562E-01    2.34893E-01    4.36231E-01
 3.67748E+00    5.55198E-01    3.88639E-01    7.21757E-01
 3.68172E+00    9.87606E-01    6.91324E-01    1.28389E+00
 3.68583E+00    1.40650E+00    9.84550E-01    1.82845E+00
 3.68981E+00    1.81230E+00    1.26861E+00    2.35600E+00
 3.69755E+00    2.59855E+00    1.81898E+00    3.37811E+00
 3.70482E+00    3.33565E+00    2.33496E+00    4.33635E+00
 3.71165E+00    4.02669E+00    2.81868E+00    5.23469E+00
 3.71806E+00    4.67453E+00    3.27217E+00    6.07689E+00
 3.73012E+00    5.88924E+00    4.12247E+00    7.65602E+00
 3.74069E+00    6.95211E+00    4.86648E+00    9.03775E+00
 3.74998E+00    7.88212E+00    5.51749E+00    1.02468E+01
 3.75812E+00    8.69588E+00    6.08712E+00    1.13046E+01
 3.77240E+00    1.01200E+01    7.08398E+00    1.31560E+01
 3.78315E+00    1.11880E+01    7.83162E+00    1.45444E+01
 3.79934E+00    1.27901E+01    8.95308E+00    1.66271E+01
 3.81559E+00    1.43922E+01    1.00745E+01    1.87099E+01
 3.82353E+00    1.45966E+01    1.02176E+01    1.89756E+01
 3.86212E+00    1.53889E+01    1.28959E+01    1.78818E+01
 3.90110E+00    1.61811E+01    1.35598E+01    1.88024E+01
 3.92604E+00    1.65592E+01    1.38766E+01    1.92418E+01
 3.96285E+00    1.70175E+01    1.42607E+01    1.97743E+01
 4.00000E+00    1.74758E+01    1.46447E+01    2.03069E+01
 4.04131E+00    1.78278E+01    1.49397E+01    2.07159E+01
 4.10408E+00    1.83557E+01    1.53821E+01    2.13294E+01
 4.16783E+00    1.88837E+01    1.58245E+01    2.19429E+01
 4.17424E+00    1.89078E+01    1.58447E+01    2.19709E+01
 4.19430E+00    1.89883E+01    1.59122E+01    2.20644E+01
 4.28405E+00    1.93729E+01    1.62345E+01    2.25113E+01
 4.37571E+00    1.97575E+01    1.65568E+01    2.29582E+01
 4.37958E+00    1.97712E+01    1.65683E+01    2.29741E+01
 4.47425E+00    1.96419E+01    1.64599E+01    2.28239E+01
 4.48036E+00    1.96292E+01    1.64493E+01    2.28091E+01
 4.53880E+00    1.95714E+01    1.66357E+01    2.25071E+01
 4.59133E+00    1.95374E+01    1.66068E+01    2.24680E+01
 4.78577E+00    1.94496E+01    1.65322E+01    2.23670E+01
 4.89171E+00    1.90746E+01    1.62134E+01    2.19358E+01
 5.00000E+00    1.86996E+01    1.58947E+01    2.15045E+01
 5.05730E+00    1.83161E+01    1.55687E+01    2.10635E+01
 5.11162E+00    1.79566E+01    1.52631E+01    2.06501E+01
 5.21504E+00    1.72824E+01    1.46901E+01    1.98748E+01
 5.30725E+00    1.66926E+01    1.41887E+01    1.91965E+01
 5.38926E+00    1.61765E+01    1.37500E+01    1.86029E+01
 5.46207E+00    1.57249E+01    1.33661E+01    1.80836E+01
 5.52658E+00    1.53297E+01    1.30762E+01    1.75832E+01
 5.58365E+00    1.49839E+01    1.27813E+01    1.71866E+01
 5.68495E+00    1.43789E+01    1.22652E+01    1.64925E+01
 5.76213E+00    1.39250E+01    1.18781E+01    1.59720E+01
 5.82069E+00    1.35847E+01    1.15877E+01    1.55816E+01
 5.90967E+00    1.30741E+01    1.11522E+01    1.49960E+01
 6.00000E+00    1.25636E+01    1.07168E+01    1.44104E+01
 6.05809E+00    1.22388E+01    1.04397E+01    1.40379E+01
 6.11305E+00    1.19342E+01    1.01799E+01    1.36885E+01
 6.16504E+00    1.16487E+01    9.93635E+00    1.33611E+01
 6.26370E+00    1.11134E+01    9.47972E+00    1.27471E+01
 6.35132E+00    1.06450E+01    9.08016E+00    1.22098E+01
 6.42900E+00    1.02351E+01    8.73055E+00    1.17397E+01
 6.49775E+00    9.87649E+00    8.42465E+00    1.13283E+01
 6.55850E+00    9.56269E+00    7.95616E+00    1.11692E+01
 6.61213E+00    9.28812E+00    7.72772E+00    1.08485E+01
 6.70703E+00    8.80762E+00    7.32794E+00    1.02873E+01
 6.77911E+00    8.44724E+00    7.02810E+00    9.86638E+00
 6.83367E+00    8.17696E+00    6.80323E+00    9.55069E+00
 6.91633E+00    7.77153E+00    6.46592E+00    9.07715E+00
 7.00000E+00    7.36611E+00    6.12860E+00    8.60362E+00
 8.00000E+00    4.01256E+00    3.29030E+00    4.73482E+00
 9.00000E+00    2.18716E+00    1.80003E+00    2.57429E+00
 1.00000E+01    1.14609E+00    9.48963E-01    1.34322E+00
 1.10000E+01    5.94064E-01    4.93073E-01    6.95055E-01
 1.17000E+01    3.57517E-01    2.96024E-01    4.19010E-01
 1.20000E+01    3.54402E-01    2.93445E-01    4.15359E-01
 1.30000E+01    2.30897E-01    1.90490E-01    2.71304E-01
 1.40000E+01    1.43204E-01    1.17714E-01    1.68694E-01
 1.50000E+01    9.39096E-02    7.66302E-02    1.11189E-01
 1.60000E+01    9.86352E-02    7.95986E-02    1.17672E-01
 1.70000E+01    1.01183E-01    8.06429E-02    1.21723E-01
 1.80000E+01    1.66613E-01    1.30625E-01    2.02601E-01
 1.90000E+01    6.30978E-02    4.86484E-02    7.75472E-02
 2.00000E+01    7.80614E-02    5.94047E-02    9.67181E-02
