# n + Hf178 : (n,xa)    
# jeff3.3    JEFF Collaboration                EVAL-JAN16
# 
# # energies =    94
#   E(MeV)        xs(mb) 
 9.37082E-02    3.78424E-19
 1.00000E-01    4.04672E-19
 2.00000E-01    8.21861E-19
 3.00000E-01    1.23905E-18
 3.08356E-01    1.27391E-18
 4.00000E-01    1.65624E-18
 5.00000E-01    2.07342E-18
 6.00000E-01    2.49061E-18
 6.35761E-01    2.63980E-18
 7.00000E-01    2.90780E-18
 8.00000E-01    3.32499E-18
 9.00000E-01    3.74218E-18
 1.00000E+00    4.15937E-18
 1.06455E+00    1.18227E-05
 1.15392E+00    2.81913E-05
 1.18129E+00    3.32043E-05
 1.20000E+00    3.66311E-05
 1.20619E+00    3.68978E-05
 1.26739E+00    3.95347E-05
 1.27573E+00    3.98941E-05
 1.28393E+00    4.02474E-05
 1.31750E+00    4.16938E-05
 1.32996E+00    4.22307E-05
 1.37027E+00    4.39675E-05
 1.37181E+00    4.40339E-05
 1.39231E+00    4.49172E-05
 1.40000E+00    4.52485E-05
 1.41743E+00    4.52843E-05
 1.44175E+00    4.53342E-05
 1.44724E+00    4.53454E-05
 1.45211E+00    4.53554E-05
 1.45858E+00    4.53687E-05
 1.48741E+00    4.54279E-05
 1.50493E+00    4.54638E-05
 1.52116E+00    4.54971E-05
 1.52219E+00    4.54992E-05
 1.52719E+00    4.55095E-05
 1.53213E+00    4.55196E-05
 1.54184E+00    4.55396E-05
 1.54751E+00    4.55512E-05
 1.56281E+00    4.55826E-05
 1.60000E+00    4.56589E-05
 1.80000E+00    8.08669E-05
 2.00000E+00    9.25485E-05
 2.20000E+00    1.10133E-04
 2.40000E+00    1.33441E-04
 2.45996E+00    1.36572E-04
 2.60000E+00    1.43883E-04
 2.80000E+00    1.77564E-04
 3.00000E+00    1.10281E-03
 3.20000E+00    1.35010E-03
 3.40000E+00    1.63270E-03
 3.60000E+00    1.93724E-03
 3.80000E+00    2.25949E-03
 4.00000E+00    2.61471E-03
 4.20000E+00    3.01594E-03
 4.40000E+00    3.45625E-03
 4.60000E+00    3.92092E-03
 4.80000E+00    4.40754E-03
 5.00000E+00    4.93307E-03
 5.20000E+00    5.47648E-03
 5.40000E+00    6.06185E-03
 5.60000E+00    6.66875E-03
 5.80000E+00    7.29939E-03
 6.00000E+00    7.98071E-03
 6.20000E+00    8.72547E-03
 6.40000E+00    9.54465E-03
 6.60000E+00    1.04551E-02
 6.80000E+00    1.14787E-02
 7.00000E+00    1.26357E-02
 7.20000E+00    1.40395E-02
 7.40000E+00    1.56477E-02
 7.60000E+00    1.76055E-02
 7.80000E+00    1.98244E-02
 8.00000E+00    2.19614E-02
 8.50000E+00    2.77626E-02
 9.00000E+00    3.63571E-02
 9.50000E+00    5.16787E-02
 1.00000E+01    7.90442E-02
 1.05000E+01    1.27708E-01
 1.10000E+01    1.90830E-01
 1.15000E+01    2.75926E-01
 1.20000E+01    4.00173E-01
 1.25000E+01    5.61590E-01
 1.30000E+01    7.85710E-01
 1.35000E+01    1.06037E+00
 1.40000E+01    1.42242E+00
 1.45000E+01    1.82684E+00
 1.50000E+01    2.34342E+00
 1.60000E+01    3.62050E+00
 1.70000E+01    5.38440E+00
 1.80000E+01    7.75815E+00
 1.90000E+01    1.12737E+01
 2.00000E+01    1.61052E+01
