# n + Pt193 : (n,n'22)  
# endfb8.0   A.J. Koning and D. Rochman        EVAL-DEC15
# uncertainties: n
# # energies =    78
#   E(MeV)       xs(mb) 
 5.65943E-01    0.00000E+00
 6.00000E-01    2.39178E+01
 6.02131E-01    2.42052E+01
 6.06454E-01    2.47883E+01
 6.25251E-01    2.73237E+01
 6.33293E-01    2.84084E+01
 6.45356E-01    3.00354E+01
 6.68476E-01    3.31538E+01
 6.95617E-01    3.68146E+01
 7.00000E-01    3.74058E+01
 7.03659E-01    3.75417E+01
 8.00000E-01    4.11202E+01
 9.00000E-01    4.14900E+01
 1.00000E+00    3.96946E+01
 1.20000E+00    3.33127E+01
 1.40000E+00    2.62399E+01
 1.60000E+00    2.00108E+01
 1.80000E+00    1.50291E+01
 2.00000E+00    1.12549E+01
 2.20000E+00    8.44777E+00
 2.40000E+00    6.36407E+00
 2.60000E+00    4.80301E+00
 2.80000E+00    3.62025E+00
 3.00000E+00    2.71647E+00
 3.20000E+00    2.02495E+00
 3.40000E+00    1.49870E+00
 3.60000E+00    1.10190E+00
 3.80000E+00    8.05539E-01
 4.00000E+00    5.86068E-01
 4.20000E+00    4.24759E-01
 4.40000E+00    3.06823E-01
 4.60000E+00    2.20898E-01
 4.80000E+00    1.58564E-01
 5.00000E+00    1.13324E-01
 5.20000E+00    8.07889E-02
 5.40000E+00    5.73059E-02
 5.60000E+00    4.03325E-02
 5.80000E+00    2.82996E-02
 6.00000E+00    1.97705E-02
 6.20000E+00    1.37984E-02
 6.40000E+00    9.59658E-03
 6.60000E+00    6.67264E-03
 6.80000E+00    4.63955E-03
 7.00000E+00    3.22428E-03
 7.20000E+00    2.24796E-03
 7.40000E+00    1.56923E-03
 7.60000E+00    1.09881E-03
 7.80000E+00    7.72496E-04
 8.00000E+00    5.44452E-04
 8.50000E+00    2.31707E-04
 9.00000E+00    1.01327E-04
 9.50000E+00    4.54616E-05
 1.00000E+01    2.08627E-05
 1.05000E+01    9.75937E-06
 1.10000E+01    4.64018E-06
 1.15000E+01    2.23807E-06
 1.20000E+01    1.09374E-06
 1.25000E+01    5.41351E-07
 1.30000E+01    2.71358E-07
 1.35000E+01    1.37723E-07
 1.40000E+01    7.07553E-08
 1.45000E+01    3.67766E-08
 1.50000E+01    1.93301E-08
 1.60000E+01    5.50347E-09
 1.70000E+01    1.62371E-09
 1.80000E+01    4.91378E-10
 1.90000E+01    1.53670E-10
 2.00000E+01    4.93329E-11
 2.10000E+01    1.62741E-11
 2.20000E+01    5.50844E-12
 2.30000E+01    1.91442E-12
 2.40000E+01    6.82061E-13
 2.50000E+01    2.48297E-13
 2.60000E+01    9.22163E-14
 2.70000E+01    3.48470E-14
 2.80000E+01    1.33783E-14
 2.90000E+01    5.21411E-15
 3.00000E+01    2.06335E-15
