# n + Pt193 : (n,n'29)  
# endfb8.0   A.J. Koning and D. Rochman        EVAL-DEC15
# uncertainties: n
# # energies =    70
#   E(MeV)       xs(mb) 
 6.95617E-01    0.00000E+00
 7.00000E-01    3.35861E-03
 7.03659E-01    8.82046E-03
 8.00000E-01    1.52630E-01
 9.00000E-01    5.13305E-01
 1.00000E+00    9.94045E-01
 1.20000E+00    1.99281E+00
 1.40000E+00    2.78055E+00
 1.60000E+00    3.26571E+00
 1.80000E+00    3.46280E+00
 2.00000E+00    3.43023E+00
 2.20000E+00    3.22946E+00
 2.40000E+00    2.92279E+00
 2.60000E+00    2.56374E+00
 2.80000E+00    2.19347E+00
 3.00000E+00    1.83900E+00
 3.20000E+00    1.51556E+00
 3.40000E+00    1.23006E+00
 3.60000E+00    9.84354E-01
 3.80000E+00    7.77138E-01
 4.00000E+00    6.05595E-01
 4.20000E+00    4.66292E-01
 4.40000E+00    3.55125E-01
 4.60000E+00    2.67754E-01
 4.80000E+00    2.00123E-01
 5.00000E+00    1.48212E-01
 5.20000E+00    1.09116E-01
 5.40000E+00    7.97125E-02
 5.60000E+00    5.76726E-02
 5.80000E+00    4.15898E-02
 6.00000E+00    2.98542E-02
 6.20000E+00    2.14261E-02
 6.40000E+00    1.53432E-02
 6.60000E+00    1.09970E-02
 6.80000E+00    7.89129E-03
 7.00000E+00    5.66798E-03
 7.20000E+00    4.08655E-03
 7.40000E+00    2.95233E-03
 7.60000E+00    2.14053E-03
 7.80000E+00    1.55703E-03
 8.00000E+00    1.13532E-03
 8.50000E+00    5.23280E-04
 9.00000E+00    2.45252E-04
 9.50000E+00    1.16461E-04
 1.00000E+01    5.58972E-05
 1.05000E+01    2.70879E-05
 1.10000E+01    1.32524E-05
 1.15000E+01    6.54909E-06
 1.20000E+01    3.27104E-06
 1.25000E+01    1.65246E-06
 1.30000E+01    8.44822E-07
 1.35000E+01    4.37110E-07
 1.40000E+01    2.28820E-07
 1.45000E+01    1.21115E-07
 1.50000E+01    6.47792E-08
 1.60000E+01    1.90491E-08
 1.70000E+01    5.78228E-09
 1.80000E+01    1.79248E-09
 1.90000E+01    5.71775E-10
 2.00000E+01    1.86618E-10
 2.10000E+01    6.24614E-11
 2.20000E+01    2.14274E-11
 2.30000E+01    7.54215E-12
 2.40000E+01    2.71888E-12
 2.50000E+01    1.00005E-12
 2.60000E+01    3.74658E-13
 2.70000E+01    1.42647E-13
 2.80000E+01    5.51560E-14
 2.90000E+01    2.16529E-14
 3.00000E+01    8.63266E-15
