# n + Sb123 : (n,el)    
# jendl4.0   JNDC FP NUCLEAR DATA W.G.         EVAL-AUG89
# uncertainties: n
# # energies =   171
#   E(MeV)       xs(mb) 
 1.00000E-11    6.45848E+03
 1.00000E-07    3.89391E+03
 4.13990E-07    3.88341E+03
 5.31580E-07    3.87817E+03
 6.82560E-07    3.87163E+03
 8.76420E-07    3.86322E+03
 1.12540E-06    3.85242E+03
 1.44500E-06    3.83856E+03
 1.85540E-06    3.82093E+03
 2.37240E-06    3.79811E+03
 3.05900E-06    3.76708E+03
 3.92790E-06    3.72343E+03
 5.04350E-06    3.66707E+03
 6.47600E-06    3.58319E+03
 8.31530E-06    3.45347E+03
 1.06770E-05    3.22119E+03
 1.37100E-05    2.69638E+03
 1.76030E-05    1.37275E+05
 2.26030E-05    8.78995E+03
 2.92030E-05    5.23967E+03
 3.72670E-05    4.62320E+03
 4.78510E-05    4.87317E+03
 6.14420E-05    4.66609E+03
 7.88930E-05    3.97123E+03
 1.01300E-04    1.66432E+04
 1.30070E-04    4.50402E+03
 1.67020E-04    5.08776E+03
 2.14450E-04    4.83048E+03
 2.75360E-04    5.57401E+03
 3.53580E-04    4.67281E+03
 4.54000E-04    4.52515E+03
 5.82950E-04    5.55961E+03
 7.48520E-04    7.15714E+03
 9.61120E-04    5.32805E+03
 1.23410E-03    5.34542E+03
 1.58460E-03    6.98627E+03
 2.03470E-03    5.88723E+03
 2.24870E-03    5.24906E+03
 2.48520E-03    5.31830E+03
 2.61260E-03    5.37055E+03
 2.74650E-03    5.36846E+03
 3.03540E-03    5.36470E+03
 3.35460E-03    5.36078E+03
 3.70740E-03    5.35704E+03
 4.30740E-03    5.35361E+03
 5.53080E-03    5.35918E+03
 7.10170E-03    5.37732E+03
 9.11880E-03    5.41038E+03
 1.17090E-02    5.45927E+03
 1.50340E-02    5.52170E+03
 1.93050E-02    5.57574E+03
 2.18750E-02    5.60806E+03
 2.35790E-02    5.62502E+03
 2.41760E-02    5.63368E+03
 2.47880E-02    5.64678E+03
 2.60580E-02    5.66178E+03
 2.70000E-02    5.67782E+03
 2.85000E-02    5.70814E+03
 3.18280E-02    5.74323E+03
 3.43070E-02    5.79240E+03
 4.08680E-02    5.85304E+03
 4.63090E-02    5.90469E+03
 5.24750E-02    5.94632E+03
 5.65620E-02    5.99824E+03
 6.73790E-02    6.04797E+03
 7.20000E-02    6.08154E+03
 7.95000E-02    6.10882E+03
 8.25000E-02    6.12540E+03
 8.65170E-02    6.15807E+03
 9.80370E-02    6.18388E+03
 1.11090E-01    6.18431E+03
 1.16790E-01    6.18431E+03
 1.22770E-01    6.18430E+03
 1.29070E-01    6.18430E+03
 1.35690E-01    6.18430E+03
 1.42640E-01    6.18429E+03
 1.49960E-01    6.18490E+03
 1.57640E-01    6.18457E+03
 1.65730E-01    6.17455E+03
 1.74220E-01    6.16248E+03
 1.83160E-01    6.15078E+03
 1.92550E-01    6.13877E+03
 2.02420E-01    6.12666E+03
 2.12800E-01    6.11414E+03
 2.23710E-01    6.10173E+03
 2.35180E-01    6.08941E+03
 2.47240E-01    6.07132E+03
 2.73240E-01    6.05399E+03
 2.87250E-01    6.04540E+03
 2.94520E-01    6.04139E+03
 2.97200E-01    6.03979E+03
 2.98500E-01    6.03804E+03
 3.01970E-01    6.03000E+03
 3.33730E-01    6.01477E+03
 3.68830E-01    6.00236E+03
 3.87740E-01    5.99351E+03
 4.07620E-01    5.97964E+03
 4.50490E-01    5.96525E+03
 4.97870E-01    5.96349E+03
 5.23400E-01    5.97671E+03
 5.50230E-01    5.99034E+03
 5.78440E-01    5.99877E+03
 6.08100E-01    6.00552E+03
 6.39280E-01    6.01262E+03
 6.72060E-01    6.02008E+03
 7.06510E-01    6.02792E+03
 7.42740E-01    6.03163E+03
 7.80820E-01    6.02621E+03
 8.20850E-01    6.02022E+03
 8.62940E-01    6.01394E+03
 9.07180E-01    6.00676E+03
 9.61640E-01    5.99979E+03
 1.00260E+00    5.95123E+03
 1.10800E+00    5.81910E+03
 1.16480E+00    5.71558E+03
 1.22460E+00    5.60696E+03
 1.28730E+00    5.50143E+03
 1.35340E+00    5.37401E+03
 1.42270E+00    5.22432E+03
 1.49570E+00    5.06961E+03
 1.57240E+00    4.90818E+03
 1.65300E+00    4.74611E+03
 1.73770E+00    4.58198E+03
 1.82680E+00    4.41239E+03
 1.92050E+00    4.25055E+03
 2.01900E+00    4.08292E+03
 2.12250E+00    3.91582E+03
 2.23130E+00    3.77948E+03
 2.30690E+00    3.69490E+03
 2.34570E+00    3.65241E+03
 2.36530E+00    3.62642E+03
 2.38520E+00    3.56107E+03
 2.46600E+00    3.42643E+03
 2.59240E+00    3.26501E+03
 2.72530E+00    3.10842E+03
 2.86500E+00    2.95961E+03
 3.01190E+00    2.82708E+03
 3.16640E+00    2.70415E+03
 3.32870E+00    2.52859E+03
 3.67880E+00    2.29745E+03
 4.06570E+00    2.15641E+03
 4.49330E+00    2.08539E+03
 4.72370E+00    2.03885E+03
 4.96590E+00    2.01087E+03
 5.22050E+00    2.01573E+03
 5.48810E+00    2.02133E+03
 5.76950E+00    2.02797E+03
 6.06530E+00    2.05668E+03
 6.37630E+00    2.09007E+03
 6.59240E+00    2.11079E+03
 6.70320E+00    2.13975E+03
 7.04690E+00    2.19007E+03
 7.40820E+00    2.24569E+03
 7.78800E+00    2.30446E+03
 8.18730E+00    2.36981E+03
 8.60710E+00    2.44109E+03
 9.04840E+00    2.50677E+03
 9.51230E+00    2.54396E+03
 1.00000E+01    2.57044E+03
 1.05130E+01    2.58545E+03
 1.10520E+01    2.59233E+03
 1.16180E+01    2.59251E+03
 1.22140E+01    2.58488E+03
 1.28400E+01    2.56864E+03
 1.34990E+01    2.54539E+03
 1.38400E+01    2.52817E+03
 1.41910E+01    2.50391E+03
 1.45500E+01    2.47876E+03
 1.49180E+01    2.43518E+03
 1.56830E+01    2.36687E+03
 1.64870E+01    2.28581E+03
