# n + Hf180 : (n,n'14)  
# tendl.2019 A.J. Koning and D. Rochman        EVAL-NOV19
# uncertainties: n
# # energies =    80
#   E(MeV)       xs(mb) 
 1.30744E+00    0.00000E+00
 1.32308E+00    1.41982E+01
 1.36169E+00    4.92492E+01
 1.37716E+00    6.32931E+01
 1.38185E+00    6.75508E+01
 1.38905E+00    7.40871E+01
 1.39296E+00    7.76366E+01
 1.40000E+00    8.40277E+01
 1.41710E+00    8.70916E+01
 1.42286E+00    8.81237E+01
 1.42856E+00    8.91450E+01
 1.43760E+00    9.07648E+01
 1.45209E+00    9.33610E+01
 1.48052E+00    9.84550E+01
 1.49072E+00    1.00283E+02
 1.49259E+00    1.00618E+02
 1.51645E+00    1.04893E+02
 1.53355E+00    1.07957E+02
 1.60000E+00    1.19863E+02
 1.80000E+00    1.20842E+02
 2.00000E+00    1.11166E+02
 2.20000E+00    9.73838E+01
 2.40000E+00    8.18439E+01
 2.60000E+00    6.60367E+01
 2.80000E+00    5.11592E+01
 3.00000E+00    3.81543E+01
 3.20000E+00    2.76617E+01
 3.40000E+00    1.94797E+01
 3.60000E+00    1.34987E+01
 3.80000E+00    9.26878E+00
 4.00000E+00    6.34477E+00
 4.20000E+00    4.35376E+00
 4.40000E+00    3.00789E+00
 4.60000E+00    2.07657E+00
 4.80000E+00    1.44315E+00
 5.00000E+00    1.00957E+00
 5.20000E+00    7.11034E-01
 5.40000E+00    5.04245E-01
 5.60000E+00    3.60169E-01
 5.80000E+00    2.57100E-01
 6.00000E+00    1.85541E-01
 6.20000E+00    1.34681E-01
 6.40000E+00    9.84210E-02
 6.60000E+00    7.23518E-02
 6.80000E+00    5.34363E-02
 7.00000E+00    3.96794E-02
 7.20000E+00    2.95687E-02
 7.40000E+00    2.21199E-02
 7.60000E+00    1.66027E-02
 7.80000E+00    1.24825E-02
 8.00000E+00    9.40850E-03
 8.50000E+00    4.66324E-03
 9.00000E+00    2.33414E-03
 9.50000E+00    1.18256E-03
 1.00000E+01    6.07538E-04
 1.05000E+01    3.16670E-04
 1.10000E+01    1.67449E-04
 1.15000E+01    8.97768E-05
 1.20000E+01    4.87636E-05
 1.25000E+01    2.68238E-05
 1.30000E+01    1.49291E-05
 1.35000E+01    8.40418E-06
 1.40000E+01    4.78023E-06
 1.45000E+01    2.74677E-06
 1.50000E+01    1.59364E-06
 1.60000E+01    5.50700E-07
 1.70000E+01    1.96790E-07
 1.80000E+01    7.20870E-08
 1.90000E+01    2.72850E-08
 2.00000E+01    1.05940E-08
 2.10000E+01    4.20880E-09
 2.20000E+01    1.70980E-09
 2.30000E+01    7.10030E-10
 2.40000E+01    3.00700E-10
 2.50000E+01    1.29900E-10
 2.60000E+01    5.70060E-11
 2.70000E+01    2.53920E-11
 2.80000E+01    1.14840E-11
 2.90000E+01    5.26640E-12
 3.00000E+01    2.44740E-12
