# n + Cs134 : (n,el)    
# endfb8.0   JNDC FPND W.G., Mughabghab        EVAL-JAN05
# uncertainties: n
# # energies =   171
#   E(MeV)       xs(mb) 
 1.00000E-11    3.66992E+04
 1.00000E-07    2.22518E+04
 4.13990E-07    2.17508E+04
 5.31580E-07    2.14943E+04
 6.82560E-07    2.11754E+04
 8.76420E-07    2.07812E+04
 1.12540E-06    2.02984E+04
 1.44500E-06    1.97183E+04
 1.85540E-06    1.90208E+04
 2.37240E-06    1.81960E+04
 3.05900E-06    1.72356E+04
 3.92790E-06    1.61619E+04
 5.04350E-06    1.49834E+04
 6.47600E-06    1.37237E+04
 8.31530E-06    1.23934E+04
 1.06770E-05    1.13669E+04
 1.37100E-05    1.01306E+04
 1.76030E-05    8.94882E+03
 2.26030E-05    7.91259E+03
 2.92030E-05    6.98727E+03
 3.72670E-05    6.41372E+03
 4.78510E-05    5.82866E+03
 6.14420E-05    5.31154E+03
 7.88930E-05    4.82625E+03
 1.01300E-04    5.06529E+03
 1.30070E-04    4.50037E+03
 1.67020E-04    1.10239E+04
 2.14450E-04    1.33241E+04
 2.75360E-04    1.30179E+04
 3.53580E-04    1.26667E+04
 4.54000E-04    1.22826E+04
 5.82950E-04    1.18735E+04
 7.48520E-04    1.14511E+04
 9.61120E-04    1.10210E+04
 1.23410E-03    1.05680E+04
 1.58460E-03    1.01147E+04
 2.03470E-03    9.79856E+03
 2.24870E-03    9.61908E+03
 2.48520E-03    9.48548E+03
 2.61260E-03    9.39703E+03
 2.74650E-03    9.26527E+03
 3.03540E-03    9.09148E+03
 3.35460E-03    8.91864E+03
 3.70740E-03    8.70573E+03
 4.30740E-03    8.37271E+03
 5.53080E-03    7.97067E+03
 7.10170E-03    7.58720E+03
 9.11880E-03    7.18957E+03
 1.17090E-02    6.73533E+03
 1.50340E-02    6.37479E+03
 1.93050E-02    6.14095E+03
 2.18750E-02    6.02280E+03
 2.35790E-02    5.96515E+03
 2.41760E-02    5.93708E+03
 2.47880E-02    5.89684E+03
 2.60580E-02    5.85337E+03
 2.70000E-02    5.80734E+03
 2.85000E-02    5.72692E+03
 3.18280E-02    5.63983E+03
 3.43070E-02    5.52874E+03
 4.08680E-02    5.40306E+03
 4.63090E-02    5.30495E+03
 5.24750E-02    5.22995E+03
 5.65620E-02    5.13300E+03
 6.73790E-02    4.98423E+03
 7.20000E-02    4.89982E+03
 7.95000E-02    4.84387E+03
 8.25000E-02    4.81218E+03
 8.65170E-02    4.74754E+03
 9.80370E-02    4.71046E+03
 1.11090E-01    4.68636E+03
 1.16790E-01    4.66747E+03
 1.22770E-01    4.64761E+03
 1.29070E-01    4.62684E+03
 1.35690E-01    4.61056E+03
 1.42640E-01    4.59657E+03
 1.49960E-01    4.58368E+03
 1.57640E-01    4.57524E+03
 1.65730E-01    4.56666E+03
 1.74220E-01    4.53977E+03
 1.83160E-01    4.50312E+03
 1.92550E-01    4.43112E+03
 2.02420E-01    4.36865E+03
 2.12800E-01    4.32226E+03
 2.23710E-01    4.28079E+03
 2.35180E-01    4.24574E+03
 2.47240E-01    4.21513E+03
 2.73240E-01    4.18935E+03
 2.87250E-01    4.17829E+03
 2.94520E-01    4.17313E+03
 2.97200E-01    4.17106E+03
 2.98500E-01    4.17008E+03
 3.01970E-01    4.17694E+03
 3.33730E-01    4.19215E+03
 3.68830E-01    4.21439E+03
 3.87740E-01    4.23259E+03
 4.07620E-01    4.26177E+03
 4.50490E-01    4.30140E+03
 4.97870E-01    4.33273E+03
 5.23400E-01    4.35582E+03
 5.50230E-01    4.38196E+03
 5.78440E-01    4.40955E+03
 6.08100E-01    4.43856E+03
 6.39280E-01    4.46905E+03
 6.72060E-01    4.50096E+03
 7.06510E-01    4.52902E+03
 7.42740E-01    4.55568E+03
 7.80820E-01    4.58370E+03
 8.20850E-01    4.61004E+03
 8.62940E-01    4.63148E+03
 9.07180E-01    4.65429E+03
 9.61640E-01    4.66998E+03
 1.00260E+00    4.68119E+03
 1.10800E+00    4.68455E+03
 1.16480E+00    4.68683E+03
 1.22460E+00    4.68490E+03
 1.28730E+00    4.66405E+03
 1.35340E+00    4.63995E+03
 1.42270E+00    4.61462E+03
 1.49570E+00    4.58135E+03
 1.57240E+00    4.53259E+03
 1.65300E+00    4.48093E+03
 1.73770E+00    4.42286E+03
 1.82680E+00    4.35142E+03
 1.92050E+00    4.27504E+03
 2.01900E+00    4.16968E+03
 2.12250E+00    4.04711E+03
 2.23130E+00    3.95012E+03
 2.30690E+00    3.89217E+03
 2.34570E+00    3.86263E+03
 2.36530E+00    3.84268E+03
 2.38520E+00    3.79662E+03
 2.46600E+00    3.70601E+03
 2.59240E+00    3.59709E+03
 2.72530E+00    3.49295E+03
 2.86500E+00    3.39003E+03
 3.01190E+00    3.27061E+03
 3.16640E+00    3.13774E+03
 3.32870E+00    2.94986E+03
 3.67880E+00    2.71549E+03
 4.06570E+00    2.51718E+03
 4.49330E+00    2.38487E+03
 4.72370E+00    2.29898E+03
 4.96590E+00    2.23358E+03
 5.22050E+00    2.19660E+03
 5.48810E+00    2.15839E+03
 5.76950E+00    2.12253E+03
 6.06530E+00    2.11971E+03
 6.37630E+00    2.13027E+03
 6.59240E+00    2.13683E+03
 6.70320E+00    2.14618E+03
 7.04690E+00    2.18313E+03
 7.40820E+00    2.23594E+03
 7.78800E+00    2.29209E+03
 8.18730E+00    2.35999E+03
 8.60710E+00    2.43425E+03
 9.04840E+00    2.51217E+03
 9.51230E+00    2.59104E+03
 1.00000E+01    2.66053E+03
 1.05130E+01    2.72022E+03
 1.10520E+01    2.78112E+03
 1.16180E+01    2.84087E+03
 1.22140E+01    2.87119E+03
 1.28400E+01    2.89320E+03
 1.34990E+01    2.90970E+03
 1.38400E+01    2.91878E+03
 1.41910E+01    2.91647E+03
 1.45500E+01    2.91245E+03
 1.49180E+01    2.89886E+03
 1.56830E+01    2.86654E+03
 1.64870E+01    2.81182E+03
