# n + Cs134 : (n,tot)   
# endfb8.0   JNDC FPND W.G., Mughabghab        EVAL-JAN05
# uncertainties: n
# # energies =   171
#   E(MeV)       xs(mb) 
 1.00000E-11    1.55222E+06
 1.00000E-07    7.13070E+04
 4.13990E-07    5.22631E+04
 5.31580E-07    4.79371E+04
 6.82560E-07    4.39796E+04
 8.76420E-07    4.03263E+04
 1.12540E-06    3.69288E+04
 1.44500E-06    3.37310E+04
 1.85540E-06    3.07220E+04
 2.37240E-06    2.78111E+04
 3.05900E-06    2.49968E+04
 3.92790E-06    2.23248E+04
 5.04350E-06    1.97891E+04
 6.47600E-06    1.74308E+04
 8.31530E-06    1.54959E+04
 1.06770E-05    4.85949E+04
 1.37100E-05    1.17732E+04
 1.76030E-05    9.85362E+03
 2.26030E-05    8.49071E+03
 2.92030E-05    7.41148E+03
 3.72670E-05    1.45721E+04
 4.78510E-05    9.54130E+03
 6.14420E-05    5.40870E+03
 7.88930E-05    4.90731E+03
 1.01300E-04    1.14713E+04
 1.30070E-04    7.71925E+03
 1.67020E-04    3.58091E+04
 2.14450E-04    4.09098E+04
 2.75360E-04    3.65366E+04
 3.53580E-04    3.26662E+04
 4.54000E-04    2.92542E+04
 5.82950E-04    2.62512E+04
 7.48520E-04    2.35964E+04
 9.61120E-04    2.12572E+04
 1.23410E-03    1.91951E+04
 1.58460E-03    1.73792E+04
 2.03470E-03    1.62294E+04
 2.24870E-03    1.56205E+04
 2.48520E-03    1.51829E+04
 2.61260E-03    1.49011E+04
 2.74650E-03    1.44925E+04
 3.03540E-03    1.39735E+04
 3.35460E-03    1.34770E+04
 3.70740E-03    1.28918E+04
 4.30740E-03    1.20325E+04
 5.53080E-03    1.10730E+04
 7.10170E-03    1.02293E+04
 9.11880E-03    9.42857E+03
 1.17090E-02    8.76956E+03
 1.50340E-02    8.29388E+03
 1.93050E-02    7.91484E+03
 2.18750E-02    7.71936E+03
 2.35790E-02    7.62431E+03
 2.41760E-02    7.57816E+03
 2.47880E-02    7.51177E+03
 2.60580E-02    7.43970E+03
 2.70000E-02    7.36342E+03
 2.85000E-02    7.23060E+03
 3.18280E-02    7.08765E+03
 3.43070E-02    6.90536E+03
 4.08680E-02    6.69941E+03
 4.63090E-02    6.53881E+03
 5.24750E-02    6.41788E+03
 5.65620E-02    6.28097E+03
 6.73790E-02    6.11650E+03
 7.20000E-02    6.03605E+03
 7.95000E-02    5.98436E+03
 8.25000E-02    5.94273E+03
 8.65170E-02    5.85900E+03
 9.80370E-02    5.79482E+03
 1.11090E-01    5.75416E+03
 1.16790E-01    5.72547E+03
 1.22770E-01    5.69531E+03
 1.29070E-01    5.66569E+03
 1.35690E-01    5.64146E+03
 1.42640E-01    5.61765E+03
 1.49960E-01    5.60252E+03
 1.57640E-01    5.58894E+03
 1.65730E-01    5.57467E+03
 1.74220E-01    5.55966E+03
 1.83160E-01    5.54943E+03
 1.92550E-01    5.54391E+03
 2.02420E-01    5.53822E+03
 2.12800E-01    5.53838E+03
 2.23710E-01    5.54209E+03
 2.35180E-01    5.54600E+03
 2.47240E-01    5.55524E+03
 2.73240E-01    5.57569E+03
 2.87250E-01    5.58769E+03
 2.94520E-01    5.59329E+03
 2.97200E-01    5.59553E+03
 2.98500E-01    5.59820E+03
 3.01970E-01    5.61998E+03
 3.33730E-01    5.67067E+03
 3.68830E-01    5.71297E+03
 3.87740E-01    5.74495E+03
 4.07620E-01    5.80196E+03
 4.50490E-01    5.88475E+03
 4.97870E-01    5.95222E+03
 5.23400E-01    6.00029E+03
 5.50230E-01    6.05081E+03
 5.78440E-01    6.10394E+03
 6.08100E-01    6.15979E+03
 6.39280E-01    6.21850E+03
 6.72060E-01    6.27510E+03
 7.06510E-01    6.32854E+03
 7.42740E-01    6.38473E+03
 7.80820E-01    6.44373E+03
 8.20850E-01    6.49734E+03
 8.62940E-01    6.54770E+03
 9.07180E-01    6.60290E+03
 9.61640E-01    6.64650E+03
 1.00260E+00    6.69378E+03
 1.10800E+00    6.73333E+03
 1.16480E+00    6.76135E+03
 1.22460E+00    6.78436E+03
 1.28730E+00    6.78053E+03
 1.35340E+00    6.77326E+03
 1.42270E+00    6.76562E+03
 1.49570E+00    6.74771E+03
 1.57240E+00    6.70833E+03
 1.65300E+00    6.66633E+03
 1.73770E+00    6.61876E+03
 1.82680E+00    6.55335E+03
 1.92050E+00    6.48268E+03
 2.01900E+00    6.38978E+03
 2.12250E+00    6.27644E+03
 2.23130E+00    6.17814E+03
 2.30690E+00    6.12288E+03
 2.34570E+00    6.09642E+03
 2.36530E+00    6.07855E+03
 2.38520E+00    6.03318E+03
 2.46600E+00    5.94344E+03
 2.59240E+00    5.84526E+03
 2.72530E+00    5.74368E+03
 2.86500E+00    5.64115E+03
 3.01190E+00    5.52624E+03
 3.16640E+00    5.39254E+03
 3.32870E+00    5.19678E+03
 3.67880E+00    4.94636E+03
 4.06570E+00    4.72213E+03
 4.49330E+00    4.56867E+03
 4.72370E+00    4.46793E+03
 4.96590E+00    4.38869E+03
 5.22050E+00    4.34230E+03
 5.48810E+00    4.29406E+03
 5.76950E+00    4.24548E+03
 6.06530E+00    4.23806E+03
 6.37630E+00    4.24746E+03
 6.59240E+00    4.25329E+03
 6.70320E+00    4.26133E+03
 7.04690E+00    4.26925E+03
 7.40820E+00    4.28838E+03
 7.78800E+00    4.39679E+03
 8.18730E+00    4.46869E+03
 8.60710E+00    4.52398E+03
 9.04840E+00    4.58199E+03
 9.51230E+00    4.64023E+03
 1.00000E+01    4.70223E+03
 1.05130E+01    4.76354E+03
 1.10520E+01    4.79804E+03
 1.16180E+01    4.82452E+03
 1.22140E+01    4.85391E+03
 1.28400E+01    4.88439E+03
 1.34990E+01    4.90697E+03
 1.38400E+01    4.92078E+03
 1.41910E+01    4.92912E+03
 1.45500E+01    4.93732E+03
 1.49180E+01    4.94043E+03
 1.56830E+01    4.92378E+03
 1.64870E+01    4.86892E+03
