# n + Mo 92 : (n,p)m    
# jendl.ad   K.Shibata, A.Ichihara, S.Kunieda  EVAL-APR13
# uncertainties: n
# # energies =    30
#   E(MeV)       xs(mb) 
 1.00000E-11    0.00000E+00
 1.50000E+00    0.00000E+00
 2.00000E+00    1.51100E-01
 2.50000E+00    1.85400E+00
 3.00000E+00    6.65200E+00
 3.50000E+00    1.41600E+01
 4.00000E+00    2.42500E+01
 4.50000E+00    3.40200E+01
 5.00000E+00    5.31200E+01
 5.50000E+00    6.94700E+01
 6.00000E+00    8.98100E+01
 6.50000E+00    1.00500E+02
 7.00000E+00    1.13600E+02
 7.50000E+00    1.16700E+02
 8.00000E+00    1.22000E+02
 8.50000E+00    1.21600E+02
 9.00000E+00    1.22900E+02
 9.50000E+00    1.22800E+02
 1.00000E+01    1.23400E+02
 1.10000E+01    1.23100E+02
 1.20000E+01    1.17800E+02
 1.30000E+01    1.04000E+02
 1.40000E+01    8.14300E+01
 1.45000E+01    6.89600E+01
 1.50000E+01    6.05900E+01
 1.60000E+01    4.59400E+01
 1.70000E+01    3.68500E+01
 1.80000E+01    3.13200E+01
 1.90000E+01    2.77700E+01
 2.00000E+01    2.46500E+01
