# n + Mo 92 : (n,p)     
# jendl.ad   K.Shibata, A.Ichihara, S.Kunieda  EVAL-APR13
# uncertainties: n
# # energies =    29
#   E(MeV)       xs(mb) 
 1.50000E+00    0.00000E+00
 2.00000E+00    1.61650E-01
 2.50000E+00    1.96060E+00
 3.00000E+00    6.98360E+00
 3.50000E+00    1.51870E+01
 4.00000E+00    2.67990E+01
 4.50000E+00    3.88160E+01
 5.00000E+00    6.25210E+01
 5.50000E+00    8.41700E+01
 6.00000E+00    1.12170E+02
 6.50000E+00    1.29530E+02
 7.00000E+00    1.50900E+02
 7.50000E+00    1.59990E+02
 8.00000E+00    1.72160E+02
 8.50000E+00    1.77010E+02
 9.00000E+00    1.83770E+02
 9.50000E+00    1.88860E+02
 1.00000E+01    1.94280E+02
 1.10000E+01    2.03070E+02
 1.20000E+01    2.02680E+02
 1.30000E+01    1.87250E+02
 1.40000E+01    1.54090E+02
 1.45000E+01    1.33700E+02
 1.50000E+01    1.20880E+02
 1.60000E+01    9.61600E+01
 1.70000E+01    8.00700E+01
 1.80000E+01    6.99700E+01
 1.90000E+01    6.34700E+01
 2.00000E+01    5.78700E+01
