# n + Mo 92 : (n,p)g    
# jendl.ad   K.Shibata, A.Ichihara, S.Kunieda  EVAL-APR13
# uncertainties: n
# # energies =    30
#   E(MeV)       xs(mb) 
 1.00000E-11    0.00000E+00
 1.50000E+00    0.00000E+00
 2.00000E+00    1.05500E-02
 2.50000E+00    1.06600E-01
 3.00000E+00    3.31600E-01
 3.50000E+00    1.02700E+00
 4.00000E+00    2.54900E+00
 4.50000E+00    4.79600E+00
 5.00000E+00    9.40100E+00
 5.50000E+00    1.47000E+01
 6.00000E+00    2.23600E+01
 6.50000E+00    2.90300E+01
 7.00000E+00    3.73000E+01
 7.50000E+00    4.32900E+01
 8.00000E+00    5.01600E+01
 8.50000E+00    5.54100E+01
 9.00000E+00    6.08700E+01
 9.50000E+00    6.60600E+01
 1.00000E+01    7.08800E+01
 1.10000E+01    7.99700E+01
 1.20000E+01    8.48800E+01
 1.30000E+01    8.32500E+01
 1.40000E+01    7.26600E+01
 1.45000E+01    6.47400E+01
 1.50000E+01    6.02900E+01
 1.60000E+01    5.02200E+01
 1.70000E+01    4.32200E+01
 1.80000E+01    3.86500E+01
 1.90000E+01    3.57000E+01
 2.00000E+01    3.32200E+01
