# n + Te  0 : (n,t)
# jendl.ad   K.Shibata (JAEA)                  EVAL-Dec13
# uncertainties: n
# # energies =    53
#   E(MeV)          xs(mb) 
 8.35334E+00    9.83560E-15
 8.38486E+00    1.07130E-14
 8.40458E+00    1.12616E-14
 8.43610E+00    1.21391E-14
 8.47233E+00    1.31477E-14
 8.52091E+00    2.64216E-13
 8.59334E+00    1.13122E-12
 8.60544E+00    1.27606E-12
 8.62543E+00    1.51535E-12
 8.63771E+00    1.66232E-12
 8.68039E+00    2.17320E-12
 8.68072E+00    2.17715E-12
 8.72645E+00    2.72454E-12
 8.75489E+00    3.06498E-12
 8.76023E+00    3.12889E-12
 8.86864E+00    4.42658E-12
 8.89848E+00    4.78377E-12
 8.91535E+00    4.98570E-12
 8.92635E+00    5.11737E-12
 8.92803E+00    5.13749E-12
 8.96476E+00    5.57715E-12
 8.97729E+00    5.72714E-12
 8.98080E+00    5.76915E-12
 8.98667E+00    5.83941E-12
 8.98767E+00    5.85139E-12
 8.99627E+00    5.95433E-12
 9.04208E+00    3.18586E-11
 9.07133E+00    4.98339E-11
 9.10082E+00    6.79563E-11
 9.12017E+00    7.98476E-11
 9.14829E+00    9.71284E-11
 9.16844E+00    1.09512E-10
 9.18140E+00    1.17476E-10
 9.18191E+00    1.17789E-10
 9.19409E+00    1.25275E-10
 9.19773E+00    1.27512E-10
 9.21291E+00    1.36840E-10
 9.22400E+00    1.43656E-10
 9.23419E+00    1.49918E-10
 9.25098E+00    1.60236E-10
 9.50000E+00    3.13270E-10
 1.00000E+01    4.72323E-09
 1.10000E+01    1.52873E-07
 1.20000E+01    3.60466E-06
 1.30000E+01    5.76202E-05
 1.40000E+01    5.60062E-04
 1.45000E+01    1.40654E-03
 1.50000E+01    3.00930E-03
 1.60000E+01    1.19619E-02
 1.70000E+01    3.59396E-02
 1.80000E+01    8.39238E-02
 1.90000E+01    1.61085E-01
 2.00000E+01    2.65152E-01
