# n + Te  0 : (n,n')
# jendl.ad   K.Shibata (JAEA)                  EVAL-Nov13
# uncertainties: n
# # energies =    70
#   E(MeV)          xs(mb) 
 1.45944E-01    0.00000E+00
 2.00000E-01    3.60277E-02
 3.00000E-01    6.76878E-01
 3.23683E-01    1.09031E+00
 4.00000E-01    2.12449E+01
 4.05337E-01    2.27503E+01
 4.47144E-01    4.00149E+01
 4.67109E-01    4.72963E+01
 5.00000E-01    5.28816E+01
 5.29470E-01    5.84390E+01
 5.42194E-01    6.51558E+01
 6.00000E-01    9.20174E+01
 6.41228E-01    1.06408E+02
 6.47392E-01    1.08059E+02
 6.58172E-01    1.11195E+02
 6.76867E-01    1.17198E+02
 7.00000E-01    1.20383E+02
 7.35118E-01    1.27472E+02
 7.92929E-01    1.36456E+02
 8.00000E-01    1.38765E+02
 8.11098E-01    1.41971E+02
 8.47701E-01    1.52820E+02
 9.00000E-01    1.66933E+02
 1.00000E+00    1.88101E+02
 1.02595E+00    1.95152E+02
 1.03771E+00    1.97377E+02
 1.06236E+00    2.02395E+02
 1.07492E+00    2.04313E+02
 1.08053E+00    2.04420E+02
 1.10021E+00    2.13151E+02
 1.14248E+00    2.31437E+02
 1.15798E+00    2.37034E+02
 1.20135E+00    2.53468E+02
 1.21938E+00    2.59921E+02
 1.25286E+00    2.71551E+02
 1.25568E+00    2.71956E+02
 1.27539E+00    2.75758E+02
 1.32109E+00    2.85115E+02
 1.32522E+00    2.86039E+02
 1.33020E+00    2.87110E+02
 1.33301E+00    2.89463E+02
 1.50000E+00    3.70942E+02
 2.00000E+00    4.53494E+02
 2.50000E+00    5.17548E+02
 3.00000E+00    6.08743E+02
 3.50000E+00    7.03056E+02
 4.00000E+00    7.79957E+02
 4.50000E+00    8.35503E+02
 5.00000E+00    8.74884E+02
 5.50000E+00    8.99539E+02
 6.00000E+00    9.13575E+02
 6.50000E+00    9.23835E+02
 7.00000E+00    9.30316E+02
 7.50000E+00    9.10900E+02
 8.00000E+00    8.46947E+02
 8.50000E+00    7.39969E+02
 9.00000E+00    6.14494E+02
 9.50000E+00    5.01403E+02
 1.00000E+01    4.03595E+02
 1.10000E+01    2.70186E+02
 1.20000E+01    1.92030E+02
 1.30000E+01    1.46344E+02
 1.40000E+01    1.18972E+02
 1.45000E+01    1.10416E+02
 1.50000E+01    1.02680E+02
 1.60000E+01    9.03575E+01
 1.70000E+01    8.27201E+01
 1.80000E+01    7.60850E+01
 1.90000E+01    7.05530E+01
 2.00000E+01    6.60648E+01
