# n + Np236 : (n,n'25)  
# tendl.2019 A.J. Koning and D. Rochman        EVAL-NOV19
# uncertainties: n
# # energies =    77
#   E(MeV)       xs(mb) 
 3.89253E-01    0.00000E+00
 3.91913E-01    2.11281E+00
 3.93568E-01    3.42737E+00
 3.95873E-01    5.25820E+00
 4.00000E-01    8.53622E+00
 4.04406E-01    9.36151E+00
 4.07158E-01    9.87698E+00
 5.00000E-01    2.72672E+01
 6.00000E-01    3.11421E+01
 7.00000E-01    2.92035E+01
 8.00000E-01    2.54460E+01
 9.00000E-01    2.15732E+01
 1.00000E+00    1.32164E+01
 1.20000E+00    9.10264E+00
 1.40000E+00    6.16585E+00
 1.60000E+00    4.04395E+00
 1.80000E+00    2.58675E+00
 2.00000E+00    1.63631E+00
 2.20000E+00    1.03084E+00
 2.40000E+00    6.48251E-01
 2.60000E+00    4.07677E-01
 2.80000E+00    2.57012E-01
 3.00000E+00    1.62834E-01
 3.20000E+00    1.03735E-01
 3.40000E+00    6.65081E-02
 3.60000E+00    4.28921E-02
 3.80000E+00    2.78572E-02
 4.00000E+00    1.82206E-02
 4.20000E+00    1.20002E-02
 4.40000E+00    7.95928E-03
 4.60000E+00    5.31733E-03
 4.80000E+00    3.57946E-03
 5.00000E+00    2.42988E-03
 5.20000E+00    1.65754E-03
 5.40000E+00    1.14114E-03
 5.60000E+00    7.92274E-04
 5.80000E+00    5.54692E-04
 6.00000E+00    3.91188E-04
 6.20000E+00    2.77463E-04
 6.40000E+00    1.98217E-04
 6.60000E+00    1.42171E-04
 6.80000E+00    1.02494E-04
 7.00000E+00    7.42405E-05
 7.20000E+00    5.39044E-05
 7.40000E+00    3.93387E-05
 7.60000E+00    2.87614E-05
 7.80000E+00    2.11020E-05
 8.00000E+00    1.55401E-05
 8.50000E+00    7.33229E-06
 9.00000E+00    3.53823E-06
 9.50000E+00    1.74826E-06
 1.00000E+01    8.84630E-07
 1.05000E+01    4.58400E-07
 1.10000E+01    2.42830E-07
 1.15000E+01    1.31290E-07
 1.20000E+01    7.22850E-08
 1.25000E+01    4.04530E-08
 1.30000E+01    2.29810E-08
 1.35000E+01    1.32400E-08
 1.40000E+01    7.73470E-09
 1.45000E+01    4.57890E-09
 1.50000E+01    2.74770E-09
 1.60000E+01    1.02530E-09
 1.70000E+01    4.05030E-10
 1.80000E+01    1.67740E-10
 1.90000E+01    7.24570E-11
 2.00000E+01    3.24440E-11
 2.10000E+01    1.49850E-11
 2.20000E+01    7.12350E-12
 2.30000E+01    3.48750E-12
 2.40000E+01    1.75560E-12
 2.50000E+01    9.09980E-13
 2.60000E+01    4.84790E-13
 2.70000E+01    2.64080E-13
 2.80000E+01    1.47070E-13
 2.90000E+01    8.36070E-14
 3.00000E+01    4.84460E-14
