# n + Np236 : (n,n'22)  
# tendl.2019 A.J. Koning and D. Rochman        EVAL-NOV19
# uncertainties: n
# # energies =    80
#   E(MeV)       xs(mb) 
 3.82990E-01    0.00000E+00
 3.85103E-01    5.62732E-01
 3.86207E-01    8.56758E-01
 3.89253E-01    1.66796E+00
 3.91913E-01    2.37638E+00
 3.93568E-01    2.81715E+00
 3.95873E-01    3.43101E+00
 4.00000E-01    4.53012E+00
 4.04406E-01    6.00650E+00
 4.07158E-01    6.92864E+00
 5.00000E-01    3.80385E+01
 6.00000E-01    5.09913E+01
 7.00000E-01    5.02161E+01
 8.00000E-01    4.49908E+01
 9.00000E-01    3.92511E+01
 1.00000E+00    2.48443E+01
 1.20000E+00    1.83691E+01
 1.40000E+00    1.32755E+01
 1.60000E+00    9.04575E+00
 1.80000E+00    5.77271E+00
 2.00000E+00    3.51432E+00
 2.20000E+00    2.08318E+00
 2.40000E+00    1.21982E+00
 2.60000E+00    7.12823E-01
 2.80000E+00    4.18742E-01
 3.00000E+00    2.48425E-01
 3.20000E+00    1.48990E-01
 3.40000E+00    9.03681E-02
 3.60000E+00    5.53797E-02
 3.80000E+00    3.43178E-02
 4.00000E+00    2.15028E-02
 4.20000E+00    1.36206E-02
 4.40000E+00    8.72474E-03
 4.60000E+00    5.65191E-03
 4.80000E+00    3.70401E-03
 5.00000E+00    2.45747E-03
 5.20000E+00    1.64464E-03
 5.40000E+00    1.11504E-03
 5.60000E+00    7.65250E-04
 5.80000E+00    5.31541E-04
 6.00000E+00    3.73225E-04
 6.20000E+00    2.64445E-04
 6.40000E+00    1.89285E-04
 6.60000E+00    1.36352E-04
 6.80000E+00    9.89121E-05
 7.00000E+00    7.21769E-05
 7.20000E+00    5.28187E-05
 7.40000E+00    3.88552E-05
 7.60000E+00    2.86153E-05
 7.80000E+00    2.11330E-05
 8.00000E+00    1.56501E-05
 8.50000E+00    7.45119E-06
 9.00000E+00    3.60485E-06
 9.50000E+00    1.77718E-06
 1.00000E+01    8.94700E-07
 1.05000E+01    4.60780E-07
 1.10000E+01    2.42650E-07
 1.15000E+01    1.30550E-07
 1.20000E+01    7.16190E-08
 1.25000E+01    3.99920E-08
 1.30000E+01    2.26980E-08
 1.35000E+01    1.30780E-08
 1.40000E+01    7.64630E-09
 1.45000E+01    4.53290E-09
 1.50000E+01    2.72500E-09
 1.60000E+01    1.02110E-09
 1.70000E+01    4.05160E-10
 1.80000E+01    1.68460E-10
 1.90000E+01    7.30010E-11
 2.00000E+01    3.27740E-11
 2.10000E+01    1.51750E-11
 2.20000E+01    7.23150E-12
 2.30000E+01    3.54910E-12
 2.40000E+01    1.79090E-12
 2.50000E+01    9.30360E-13
 2.60000E+01    4.96710E-13
 2.70000E+01    2.71140E-13
 2.80000E+01    1.51310E-13
 2.90000E+01    8.61940E-14
 3.00000E+01    5.00390E-14
