# n + Ni 59 : (n,tot)   
# jendl4.0   K.Shibata                         EVAL-FEB09
# uncertainties: n
# # energies =   171
#   E(MeV)       xs(mb) 
 1.00000E-11    9.72371E+05
 1.00000E-07    3.45743E+04
 4.13990E-07    2.31841E+04
 5.31580E-07    2.07502E+04
 6.82560E-07    1.86087E+04
 8.76420E-07    1.67272E+04
 1.12540E-06    1.50720E+04
 1.44500E-06    1.36180E+04
 1.85540E-06    1.23561E+04
 2.37240E-06    1.12336E+04
 3.05900E-06    1.02436E+04
 3.92790E-06    9.39520E+03
 5.04350E-06    8.65967E+03
 6.47600E-06    8.03015E+03
 8.31530E-06    7.50122E+03
 1.06770E-05    7.06125E+03
 1.37100E-05    6.71745E+03
 1.76030E-05    6.47197E+03
 2.26030E-05    6.33356E+03
 2.92030E-05    6.33906E+03
 3.72670E-05    6.53311E+03
 4.78510E-05    7.04071E+03
 6.14420E-05    8.13694E+03
 7.88930E-05    1.05898E+04
 1.01300E-04    1.72675E+04
 1.30070E-04    4.85359E+04
 1.67020E-04    1.20752E+06
 2.14450E-04    2.05664E+05
 2.75360E-04    2.31715E+04
 3.53580E-04    1.00603E+04
 4.54000E-04    6.33201E+03
 5.82950E-04    4.73784E+03
 7.48520E-04    3.87331E+03
 9.61120E-04    3.30619E+03
 1.23410E-03    2.85511E+03
 1.58460E-03    2.41420E+03
 2.03470E-03    2.06683E+03
 2.24870E-03    1.83831E+03
 2.48520E-03    1.65212E+03
 2.61260E-03    1.52619E+03
 2.74650E-03    1.43527E+03
 3.03540E-03    2.87791E+04
 3.35460E-03    1.66054E+03
 3.70740E-03    6.97400E+04
 4.30740E-03    2.29955E+04
 5.53080E-03    6.80660E+04
 7.10170E-03    1.15625E+04
 9.11880E-03    2.37448E+04
 1.17090E-02    1.93658E+04
 1.50340E-02    1.74389E+04
 1.93050E-02    1.58468E+04
 2.18750E-02    1.53198E+04
 2.35790E-02    1.50507E+04
 2.41760E-02    1.49105E+04
 2.47880E-02    1.46931E+04
 2.60580E-02    1.44359E+04
 2.70000E-02    1.41536E+04
 2.85000E-02    1.36422E+04
 3.18280E-02    1.31936E+04
 3.43070E-02    1.25610E+04
 4.08680E-02    1.18503E+04
 4.63090E-02    1.12879E+04
 5.24750E-02    1.08730E+04
 5.65620E-02    1.03605E+04
 6.73790E-02    9.88666E+03
 7.20000E-02    9.58328E+03
 7.95000E-02    9.33151E+03
 8.25000E-02    9.18691E+03
 8.65170E-02    8.88658E+03
 9.80370E-02    8.51708E+03
 1.11090E-01    8.32125E+03
 1.16790E-01    8.20219E+03
 1.22770E-01    8.07703E+03
 1.29070E-01    7.94533E+03
 1.35690E-01    7.80702E+03
 1.42640E-01    7.66157E+03
 1.49960E-01    7.50867E+03
 1.57640E-01    7.34793E+03
 1.65730E-01    7.17893E+03
 1.74220E-01    7.00127E+03
 1.83160E-01    6.81443E+03
 1.92550E-01    6.62122E+03
 2.02420E-01    6.49245E+03
 2.12800E-01    6.38900E+03
 2.23710E-01    6.28026E+03
 2.35180E-01    6.16593E+03
 2.47240E-01    5.98257E+03
 2.73240E-01    5.78659E+03
 2.87250E-01    5.68275E+03
 2.94520E-01    5.63426E+03
 2.97200E-01    5.61490E+03
 2.98500E-01    5.59384E+03
 3.01970E-01    5.49070E+03
 3.33730E-01    5.29466E+03
 3.68830E-01    5.13492E+03
 3.87740E-01    5.02398E+03
 4.07620E-01    4.89594E+03
 4.50490E-01    4.72142E+03
 4.97870E-01    4.58800E+03
 5.23400E-01    4.51608E+03
 5.50230E-01    4.44126E+03
 5.78440E-01    4.36279E+03
 6.08100E-01    4.29434E+03
 6.39280E-01    4.23115E+03
 6.72060E-01    4.16475E+03
 7.06510E-01    4.10506E+03
 7.42740E-01    4.05080E+03
 7.80820E-01    3.99416E+03
 8.20850E-01    3.94485E+03
 8.62940E-01    3.89749E+03
 9.07180E-01    3.84889E+03
 9.61640E-01    3.80838E+03
 1.00260E+00    3.76185E+03
 1.10800E+00    3.71807E+03
 1.16480E+00    3.68687E+03
 1.22460E+00    3.65409E+03
 1.28730E+00    3.61962E+03
 1.35340E+00    3.58339E+03
 1.42270E+00    3.54532E+03
 1.49570E+00    3.51311E+03
 1.57240E+00    3.49560E+03
 1.65300E+00    3.47769E+03
 1.73770E+00    3.45887E+03
 1.82680E+00    3.43907E+03
 1.92050E+00    3.41827E+03
 2.01900E+00    3.40675E+03
 2.12250E+00    3.40335E+03
 2.23130E+00    3.40040E+03
 2.30690E+00    3.39856E+03
 2.34570E+00    3.39763E+03
 2.36530E+00    3.39699E+03
 2.38520E+00    3.39539E+03
 2.46600E+00    3.39603E+03
 2.59240E+00    3.40667E+03
 2.72530E+00    3.41843E+03
 2.86500E+00    3.43080E+03
 3.01190E+00    3.44557E+03
 3.16640E+00    3.46708E+03
 3.32870E+00    3.50232E+03
 3.67880E+00    3.55342E+03
 4.06570E+00    3.60772E+03
 4.49330E+00    3.64479E+03
 4.72370E+00    3.66416E+03
 4.96590E+00    3.68121E+03
 5.22050E+00    3.69101E+03
 5.48810E+00    3.69401E+03
 5.76950E+00    3.68955E+03
 6.06530E+00    3.67928E+03
 6.37630E+00    3.66434E+03
 6.59240E+00    3.65501E+03
 6.70320E+00    3.63648E+03
 7.04690E+00    3.60574E+03
 7.40820E+00    3.56774E+03
 7.78800E+00    3.52230E+03
 8.18730E+00    3.47448E+03
 8.60710E+00    3.42018E+03
 9.04840E+00    3.36037E+03
 9.51230E+00    3.29750E+03
 1.00000E+01    3.23117E+03
 1.05130E+01    3.16123E+03
 1.10520E+01    3.08876E+03
 1.16180E+01    3.01354E+03
 1.22140E+01    2.93802E+03
 1.28400E+01    2.86134E+03
 1.34990E+01    2.80443E+03
 1.38400E+01    2.76590E+03
 1.41910E+01    2.72931E+03
 1.45500E+01    2.69361E+03
 1.49180E+01    2.64338E+03
 1.56830E+01    2.58055E+03
 1.64870E+01    2.52517E+03
