# n + Ni 59 : (n,xd)    
# jendl4.0   K.Shibata                         EVAL-FEB09
# 
# # energies =    60
#   E(MeV)        xs(mb) 
 3.45230E-01    0.00000E+00
 4.00000E-01    0.00000E+00
 4.72934E-01    0.00000E+00
 5.00000E-01    0.00000E+00
 6.00000E-01    0.00000E+00
 7.00000E-01    0.00000E+00
 8.00000E-01    0.00000E+00
 8.92973E-01    0.00000E+00
 9.00000E-01    0.00000E+00
 1.00000E+00    0.00000E+00
 1.20914E+00    0.00000E+00
 1.32368E+00    0.00000E+00
 1.36079E+00    0.00000E+00
 1.50000E+00    0.00000E+00
 1.70845E+00    0.00000E+00
 1.72401E+00    0.00000E+00
 1.76441E+00    0.00000E+00
 1.76901E+00    0.00000E+00
 1.77599E+00    0.00000E+00
 1.79770E+00    0.00000E+00
 1.98127E+00    0.00000E+00
 2.00000E+00    0.00000E+00
 2.36988E+00    0.00000E+00
 2.45630E+00    0.00000E+00
 2.46955E+00    0.00000E+00
 2.50000E+00    0.00000E+00
 2.52244E+00    0.00000E+00
 2.57371E+00    0.00000E+00
 2.57890E+00    0.00000E+00
 2.59710E+00    0.00000E+00
 2.67203E+00    0.00000E+00
 2.68518E+00    0.00000E+00
 2.72729E+00    0.00000E+00
 2.73746E+00    0.00000E+00
 3.00000E+00    0.00000E+00
 3.50000E+00    0.00000E+00
 4.00000E+00    0.00000E+00
 4.50000E+00    0.00000E+00
 5.00000E+00    0.00000E+00
 5.50000E+00    0.00000E+00
 6.00000E+00    0.00000E+00
 6.50000E+00    0.00000E+00
 7.00000E+00    0.00000E+00
 7.50000E+00    0.00000E+00
 8.00000E+00    1.78700E-05
 8.50000E+00    4.35100E-03
 9.00000E+00    4.93800E-02
 9.50000E+00    1.99800E-01
 1.00000E+01    5.01600E-01
 1.10000E+01    2.37800E+00
 1.20000E+01    5.09200E+00
 1.30000E+01    8.27000E+00
 1.40000E+01    1.18100E+01
 1.45000E+01    1.29000E+01
 1.50000E+01    1.56400E+01
 1.60000E+01    1.95900E+01
 1.70000E+01    2.67901E+01
 1.80000E+01    3.08509E+01
 1.90000E+01    2.87356E+01
 2.00000E+01    3.22820E+01
