# n + Ni 59 : (n,el)    
# jendl4.0   K.Shibata                         EVAL-FEB09
# uncertainties: n
# # energies =   171
#   E(MeV)       xs(mb) 
 1.00000E-11    4.74540E+03
 1.00000E-07    2.28952E+03
 4.13990E-07    2.29048E+03
 5.31580E-07    2.29176E+03
 6.82560E-07    2.29348E+03
 8.76420E-07    2.29568E+03
 1.12540E-06    2.29850E+03
 1.44500E-06    2.30253E+03
 1.85540E-06    2.30802E+03
 2.37240E-06    2.31513E+03
 3.05900E-06    2.32434E+03
 3.92790E-06    2.33608E+03
 5.04350E-06    2.35115E+03
 6.47600E-06    2.37050E+03
 8.31530E-06    2.39603E+03
 1.06770E-05    2.43361E+03
 1.37100E-05    2.48288E+03
 1.76030E-05    2.55363E+03
 2.26030E-05    2.65663E+03
 2.92030E-05    2.80939E+03
 3.72670E-05    3.04713E+03
 4.78510E-05    3.44908E+03
 6.14420E-05    4.19146E+03
 7.88930E-05    5.77681E+03
 1.01300E-04    1.01343E+04
 1.30070E-04    3.14477E+04
 1.67020E-04    8.84824E+05
 2.14450E-04    1.59341E+05
 2.75360E-04    1.99766E+04
 3.53580E-04    9.25379E+03
 4.54000E-04    6.04813E+03
 5.82950E-04    4.61981E+03
 7.48520E-04    3.81811E+03
 9.61120E-04    3.27763E+03
 1.23410E-03    2.83821E+03
 1.58460E-03    2.40212E+03
 2.03470E-03    2.05467E+03
 2.24870E-03    1.82467E+03
 2.48520E-03    1.63726E+03
 2.61260E-03    1.50825E+03
 2.74650E-03    1.40338E+03
 3.03540E-03    2.66386E+04
 3.35460E-03    1.59634E+03
 3.70740E-03    6.90714E+04
 4.30740E-03    2.28723E+04
 5.53080E-03    6.78366E+04
 7.10170E-03    1.14792E+04
 9.11880E-03    2.34305E+04
 1.17090E-02    1.92888E+04
 1.50340E-02    1.73576E+04
 1.93050E-02    1.57636E+04
 2.18750E-02    1.52401E+04
 2.35790E-02    1.49731E+04
 2.41760E-02    1.48339E+04
 2.47880E-02    1.46182E+04
 2.60580E-02    1.43630E+04
 2.70000E-02    1.40828E+04
 2.85000E-02    1.35753E+04
 3.18280E-02    1.31296E+04
 3.43070E-02    1.25011E+04
 4.08680E-02    1.17945E+04
 4.63090E-02    1.12348E+04
 5.24750E-02    1.08215E+04
 5.65620E-02    1.03107E+04
 6.73790E-02    9.83804E+03
 7.20000E-02    9.53524E+03
 7.95000E-02    9.28390E+03
 8.25000E-02    9.13948E+03
 8.65170E-02    8.83951E+03
 9.80370E-02    8.47031E+03
 1.11090E-01    8.27454E+03
 1.16790E-01    8.15553E+03
 1.22770E-01    8.03040E+03
 1.29070E-01    7.89875E+03
 1.35690E-01    7.76048E+03
 1.42640E-01    7.61507E+03
 1.49960E-01    7.46223E+03
 1.57640E-01    7.30154E+03
 1.65730E-01    7.13260E+03
 1.74220E-01    6.95500E+03
 1.83160E-01    6.76822E+03
 1.92550E-01    6.57506E+03
 2.02420E-01    6.44615E+03
 2.12800E-01    6.34246E+03
 2.23710E-01    6.23346E+03
 2.35180E-01    6.11886E+03
 2.47240E-01    5.93508E+03
 2.73240E-01    5.73864E+03
 2.87250E-01    5.63456E+03
 2.94520E-01    5.58596E+03
 2.97200E-01    5.56656E+03
 2.98500E-01    5.54552E+03
 3.01970E-01    5.44435E+03
 3.33730E-01    5.20662E+03
 3.68830E-01    4.90205E+03
 3.87740E-01    4.68670E+03
 4.07620E-01    4.50910E+03
 4.50490E-01    4.26582E+03
 4.97870E-01    4.02258E+03
 5.23400E-01    3.92249E+03
 5.50230E-01    3.81773E+03
 5.78440E-01    3.70886E+03
 6.08100E-01    3.61875E+03
 6.39280E-01    3.53341E+03
 6.72060E-01    3.44374E+03
 7.06510E-01    3.36092E+03
 7.42740E-01    3.28347E+03
 7.80820E-01    3.20575E+03
 8.20850E-01    3.14525E+03
 8.62940E-01    3.06903E+03
 9.07180E-01    2.93464E+03
 9.61640E-01    2.84662E+03
 1.00260E+00    2.78609E+03
 1.10800E+00    2.74521E+03
 1.16480E+00    2.71486E+03
 1.22460E+00    2.65680E+03
 1.28730E+00    2.58421E+03
 1.35340E+00    2.47579E+03
 1.42270E+00    2.32706E+03
 1.49570E+00    2.24555E+03
 1.57240E+00    2.25537E+03
 1.65300E+00    2.26390E+03
 1.73770E+00    2.23083E+03
 1.82680E+00    2.13210E+03
 1.92050E+00    2.01659E+03
 2.01900E+00    1.96543E+03
 2.12250E+00    1.96620E+03
 2.23130E+00    1.96688E+03
 2.30690E+00    1.96730E+03
 2.34570E+00    1.96751E+03
 2.36530E+00    1.96657E+03
 2.38520E+00    1.95759E+03
 2.46600E+00    1.92920E+03
 2.59240E+00    1.94254E+03
 2.72530E+00    1.92892E+03
 2.86500E+00    1.89331E+03
 3.01190E+00    1.88940E+03
 3.16640E+00    1.91062E+03
 3.32870E+00    1.94461E+03
 3.67880E+00    1.99011E+03
 4.06570E+00    2.03412E+03
 4.49330E+00    2.06415E+03
 4.72370E+00    2.07900E+03
 4.96590E+00    2.09303E+03
 5.22050E+00    2.10249E+03
 5.48810E+00    2.10713E+03
 5.76950E+00    2.10634E+03
 6.06530E+00    2.09998E+03
 6.37630E+00    2.09094E+03
 6.59240E+00    2.08391E+03
 6.70320E+00    2.07040E+03
 7.04690E+00    2.04668E+03
 7.40820E+00    2.01625E+03
 7.78800E+00    1.97829E+03
 8.18730E+00    1.93635E+03
 8.60710E+00    1.88868E+03
 9.04840E+00    1.83706E+03
 9.51230E+00    1.77840E+03
 1.00000E+01    1.71723E+03
 1.05130E+01    1.65388E+03
 1.10520E+01    1.58891E+03
 1.16180E+01    1.52208E+03
 1.22140E+01    1.45633E+03
 1.28400E+01    1.39030E+03
 1.34990E+01    1.34189E+03
 1.38400E+01    1.30917E+03
 1.41910E+01    1.27824E+03
 1.45500E+01    1.24796E+03
 1.49180E+01    1.20527E+03
 1.56830E+01    1.15189E+03
 1.64870E+01    1.10468E+03
