# n + C  12 : (n,tot)   
# jendl.ad   K.SHIBATA                         EVAL-AUG83
# uncertainties: n
# # energies =    69
#   E(MeV)       xs(mb) 
 1.00000E-10    2.69628E+01
 5.00000E-09    7.34161E+00
 1.00000E-08    5.56016E+00
 1.50000E-08    4.67174E+00
 2.00000E-08    4.11035E+00
 2.50000E-08    3.71319E+00
 3.00000E-08    3.41362E+00
 3.50000E-08    3.13853E+00
 4.20000E-08    2.87046E+00
 5.00000E-08    2.64768E+00
 5.80000E-08    2.46129E+00
 6.70000E-08    2.27127E+00
 8.00000E-08    2.05510E+00
 1.00000E-07    1.78834E+00
 1.40000E-07    1.54307E+00
 1.80000E-07    1.37802E+00
 2.20000E-07    1.26899E+00
 2.50000E-07    1.19459E+00
 2.80000E-07    1.14123E+00
 3.00000E-07    1.10370E+00
 3.20000E-07    1.06212E+00
 3.50000E-07    1.00477E+00
 4.00000E-07    9.19348E-01
 5.00000E-07    8.22222E-01
 6.25000E-07    7.35661E-01
 7.80000E-07    6.81232E-01
 8.50000E-07    6.55376E-01
 9.10000E-07    6.37218E-01
 9.50000E-07    6.26994E-01
 9.72000E-07    6.19489E-01
 9.96000E-07    6.11964E-01
 1.02000E-06    6.04871E-01
 1.04500E-06    5.97501E-01
 1.07100E-06    5.90065E-01
 1.09700E-06    5.83251E-01
 1.12300E-06    5.76442E-01
 1.15000E-06    5.55678E-01
 1.30000E-06    5.20316E-01
 1.50000E-06    4.61845E-01
 2.10000E-06    4.02320E-01
 2.60000E-06    3.59400E-01
 3.30000E-06    3.22503E-01
 4.00000E-06    2.47363E-01
 9.87700E-06    1.73934E-01
 1.59680E-05    1.34531E-01
 2.77000E-05    1.02193E-01
 4.80520E-05    7.94405E-02
 7.55014E-05    6.00631E-02
 1.48728E-04    4.06545E-02
 3.67262E-04    2.63577E-02
 9.06898E-04    1.99859E-02
 1.42510E-03    1.66970E-02
 2.23945E-03    1.44013E-02
 3.51910E-03    1.26004E-02
 5.53000E-03    1.15619E-02
 9.11800E-03    1.09416E-02
 1.50300E-02    1.09159E-02
 2.47800E-02    1.19670E-02
 4.08500E-02    1.35738E-02
 6.73400E-02    1.61562E-02
 1.11000E-01    1.91720E-02
 1.83000E-01    2.16034E-02
 3.02000E-01    2.18852E-02
 5.00000E-01    2.20295E-02
 8.21000E-01    2.20943E-02
 1.35300E+00    2.21120E-02
 2.23100E+00    2.21235E-02
 3.67900E+00    2.40059E-02
 6.06500E+00    9.23207E+01
