# n + N  15 : (n,el)    
# jendl4.0   T.FUKAHORI                        EVAL-DEC88
# uncertainties: y
# # energies =    69
#   E(MeV)       xs(mb)       xslow(mb)      xsupp(mb)
 1.00000E-10    1.05515E+04    1.04354E+04    1.06676E+04
 5.00000E-09    5.15207E+03    5.09540E+03    5.20875E+03
 1.00000E-08    4.91073E+03    4.85671E+03    4.96475E+03
 1.50000E-08    4.81609E+03    4.76311E+03    4.86907E+03
 2.00000E-08    4.76490E+03    4.71249E+03    4.81732E+03
 2.50000E-08    4.73275E+03    4.68069E+03    4.78481E+03
 3.00000E-08    4.71068E+03    4.65886E+03    4.76249E+03
 3.50000E-08    4.69201E+03    4.64039E+03    4.74362E+03
 4.20000E-08    4.67539E+03    4.62396E+03    4.72682E+03
 5.00000E-08    4.66267E+03    4.61138E+03    4.71396E+03
 5.80000E-08    4.65283E+03    4.60165E+03    4.70401E+03
 6.70000E-08    4.64355E+03    4.59247E+03    4.69463E+03
 8.00000E-08    4.63388E+03    4.58290E+03    4.68485E+03
 1.00000E-07    4.62333E+03    4.57248E+03    4.67419E+03
 1.40000E-07    4.61482E+03    4.56406E+03    4.66559E+03
 1.80000E-07    4.60983E+03    4.55912E+03    4.66053E+03
 2.20000E-07    4.60688E+03    4.55620E+03    4.65755E+03
 2.50000E-07    4.60507E+03    4.55441E+03    4.65573E+03
 2.80000E-07    4.60355E+03    4.55291E+03    4.65419E+03
 3.00000E-07    4.60260E+03    4.55197E+03    4.65323E+03
 3.20000E-07    4.60189E+03    4.55127E+03    4.65251E+03
 3.50000E-07    4.60078E+03    4.55017E+03    4.65139E+03
 4.00000E-07    4.59884E+03    4.54825E+03    4.64943E+03
 5.00000E-07    4.59730E+03    4.54673E+03    4.64787E+03
 6.25000E-07    4.59578E+03    4.54522E+03    4.64633E+03
 7.80000E-07    4.59481E+03    4.54427E+03    4.64536E+03
 8.50000E-07    4.59462E+03    4.54408E+03    4.64516E+03
 9.10000E-07    4.59447E+03    4.54394E+03    4.64501E+03
 9.50000E-07    4.59438E+03    4.54385E+03    4.64492E+03
 9.72000E-07    4.59432E+03    4.54378E+03    4.64485E+03
 9.96000E-07    4.59425E+03    4.54371E+03    4.64478E+03
 1.02000E-06    4.59417E+03    4.54364E+03    4.64471E+03
 1.04500E-06    4.59410E+03    4.54356E+03    4.64463E+03
 1.07100E-06    4.59402E+03    4.54349E+03    4.64456E+03
 1.09700E-06    4.59394E+03    4.54341E+03    4.64448E+03
 1.12300E-06    4.59387E+03    4.54333E+03    4.64440E+03
 1.15000E-06    4.59361E+03    4.54308E+03    4.64414E+03
 1.30000E-06    4.59310E+03    4.54257E+03    4.64362E+03
 1.50000E-06    4.59231E+03    4.54180E+03    4.64283E+03
 2.10000E-06    4.59220E+03    4.54168E+03    4.64271E+03
 2.60000E-06    4.59220E+03    4.54168E+03    4.64271E+03
 3.30000E-06    4.59219E+03    4.54168E+03    4.64271E+03
 4.00000E-06    4.59218E+03    4.54167E+03    4.64270E+03
 9.87700E-06    4.59216E+03    4.54165E+03    4.64268E+03
 1.59680E-05    4.59214E+03    4.54162E+03    4.64265E+03
 2.77000E-05    4.59209E+03    4.54157E+03    4.64260E+03
 4.80520E-05    4.59201E+03    4.54150E+03    4.64252E+03
 7.55014E-05    4.59185E+03    4.54134E+03    4.64237E+03
 1.48728E-04    4.59142E+03    4.54092E+03    4.64193E+03
 3.67262E-04    4.59027E+03    4.53977E+03    4.64076E+03
 9.06898E-04    4.58848E+03    4.53801E+03    4.63895E+03
 1.42510E-03    4.58635E+03    4.42583E+03    4.74687E+03
 2.23945E-03    4.58301E+03    4.42260E+03    4.74341E+03
 3.51910E-03    4.57775E+03    4.41753E+03    4.73797E+03
 5.53000E-03    4.56889E+03    4.40898E+03    4.72880E+03
 9.11800E-03    4.55377E+03    4.39439E+03    4.71315E+03
 1.50300E-02    4.52885E+03    4.37034E+03    4.68736E+03
 2.47800E-02    4.48775E+03    4.33068E+03    4.64482E+03
 4.08500E-02    4.42001E+03    4.26531E+03    4.57471E+03
 6.73400E-02    4.30836E+03    4.15757E+03    4.45916E+03
 1.11000E-01    4.12480E+03    3.98043E+03    4.26917E+03
 1.83000E-01    3.89329E+03    3.75702E+03    4.02955E+03
 3.02000E-01    3.56974E+03    3.44480E+03    3.69468E+03
 5.00000E-01    3.18039E+03    2.99214E+03    3.36863E+03
 8.21000E-01    2.78073E+03    2.61614E+03    2.94532E+03
 1.35300E+00    2.07082E+03    1.94879E+03    2.19285E+03
 2.23100E+00    2.92282E+03    2.75350E+03    3.09214E+03
 3.67900E+00    1.84657E+03    1.73923E+03    1.95391E+03
 6.06500E+00    1.14334E+03    1.14334E+03    1.14334E+03
