# n + N  15 : (n,n'06)  
# jendl4.0   T.FUKAHORI                        EVAL-DEC88
# uncertainties: n
# # energies =   114
#   E(MeV)       xs(mb) 
 8.07594E+00    0.00000E+00
 8.07891E+00    1.85286E-01
 8.08481E+00    5.54409E-01
 8.09068E+00    9.20649E-01
 8.09651E+00    1.28403E+00
 8.10808E+00    2.00511E+00
 8.11949E+00    2.71492E+00
 8.13074E+00    3.41364E+00
 8.14182E+00    4.10144E+00
 8.16369E+00    5.45555E+00
 8.18493E+00    6.76735E+00
 8.20556E+00    8.03815E+00
 8.22560E+00    9.26924E+00
 8.24506E+00    1.04619E+01
 8.26395E+00    1.16172E+01
 8.30067E+00    1.38557E+01
 8.33525E+00    1.59543E+01
 8.36780E+00    1.79217E+01
 8.39843E+00    1.97662E+01
 8.42725E+00    2.14953E+01
 8.45436E+00    2.31164E+01
 8.50541E+00    2.61560E+01
 8.55035E+00    2.88156E+01
 8.58985E+00    3.11428E+01
 8.62457E+00    3.31791E+01
 8.68567E+00    3.67426E+01
 8.73178E+00    3.94152E+01
 8.80140E+00    4.34241E+01
 8.87157E+00    4.74330E+01
 9.00000E+00    4.97374E+01
 9.14777E+00    5.21226E+01
 9.27288E+00    5.41478E+01
 9.36783E+00    5.56667E+01
 9.51208E+00    5.79450E+01
 9.65856E+00    6.02233E+01
 9.76752E+00    6.20955E+01
 9.77062E+00    6.21191E+01
 9.84532E+00    6.23270E+01
 1.00000E+01    6.40545E+01
 1.02047E+01    6.59526E+01
 1.04136E+01    6.78507E+01
 1.04899E+01    6.80887E+01
 1.05956E+01    6.82400E+01
 1.07471E+01    6.86765E+01
 1.08005E+01    6.86752E+01
 1.10000E+01    6.82617E+01
 1.11203E+01    6.62086E+01
 1.12266E+01    6.44122E+01
 1.13205E+01    6.28404E+01
 1.14867E+01    6.00896E+01
 1.16129E+01    5.80265E+01
 1.17085E+01    5.64792E+01
 1.18534E+01    5.41583E+01
 1.20000E+01    5.18373E+01
 1.21207E+01    5.02936E+01
 1.22272E+01    4.89428E+01
 1.24160E+01    4.65790E+01
 1.25595E+01    4.48061E+01
 1.26682E+01    4.34765E+01
 1.28330E+01    4.14820E+01
 1.30000E+01    3.94875E+01
 1.31210E+01    3.73839E+01
 1.32278E+01    3.55433E+01
 1.33219E+01    3.39328E+01
 1.34049E+01    3.25236E+01
 1.34778E+01    3.12905E+01
 1.36065E+01    2.91327E+01
 1.37038E+01    2.75143E+01
 1.37773E+01    2.63005E+01
 1.38882E+01    2.44798E+01
 1.40000E+01    2.26591E+01
 1.41213E+01    2.14359E+01
 1.42282E+01    2.03657E+01
 1.43225E+01    1.94292E+01
 1.44055E+01    1.86098E+01
 1.44785E+01    1.78928E+01
 1.46071E+01    1.66381E+01
 1.47044E+01    1.56970E+01
 1.47777E+01    1.49913E+01
 1.48884E+01    1.39326E+01
 1.50000E+01    1.28739E+01
 1.51215E+01    1.22888E+01
 1.52286E+01    1.17768E+01
 1.53230E+01    1.13289E+01
 1.54895E+01    1.05449E+01
 1.56156E+01    9.95694E+00
 1.57108E+01    9.51597E+00
 1.58547E+01    8.85452E+00
 1.60000E+01    8.19306E+00
 1.61217E+01    7.91634E+00
 1.62290E+01    7.67421E+00
 1.64184E+01    7.25048E+00
 1.65619E+01    6.93268E+00
 1.66704E+01    6.69433E+00
 1.68344E+01    6.33681E+00
 1.70000E+01    5.97929E+00
 1.71219E+01    5.81182E+00
 1.73373E+01    5.51876E+00
 1.75007E+01    5.29896E+00
 1.76242E+01    5.13412E+00
 1.78111E+01    4.88684E+00
 1.80000E+01    4.63957E+00
 1.81221E+01    4.49692E+00
 1.83377E+01    4.24729E+00
 1.85011E+01    4.06006E+00
 1.86245E+01    3.91964E+00
 1.88113E+01    3.70901E+00
 1.90000E+01    3.49838E+00
 1.91222E+01    3.38664E+00
 1.93380E+01    3.19109E+00
 1.95014E+01    3.04442E+00
 1.96249E+01    2.93442E+00
 1.98116E+01    2.76943E+00
 2.00000E+01    2.60443E+00
