# n + N  15 : (n,tot)   
# jendl4.0   T.FUKAHORI                        EVAL-DEC88
# uncertainties: y
# # energies =    69
#   E(MeV)       xs(mb)       xslow(mb)      xsupp(mb)
 1.00000E-10    1.05517E+04    1.04356E+04    1.06678E+04
 5.00000E-09    5.15212E+03    5.09544E+03    5.20879E+03
 1.00000E-08    4.91076E+03    4.85674E+03    4.96478E+03
 1.50000E-08    4.81612E+03    4.76314E+03    4.86910E+03
 2.00000E-08    4.76493E+03    4.71252E+03    4.81734E+03
 2.50000E-08    4.73278E+03    4.68072E+03    4.78484E+03
 3.00000E-08    4.71070E+03    4.65888E+03    4.76252E+03
 3.50000E-08    4.69203E+03    4.64041E+03    4.74364E+03
 4.20000E-08    4.67541E+03    4.62398E+03    4.72684E+03
 5.00000E-08    4.66269E+03    4.61140E+03    4.71398E+03
 5.80000E-08    4.65284E+03    4.60166E+03    4.70402E+03
 6.70000E-08    4.64356E+03    4.59249E+03    4.69464E+03
 8.00000E-08    4.63389E+03    4.58291E+03    4.68486E+03
 1.00000E-07    4.62334E+03    4.57249E+03    4.67420E+03
 1.40000E-07    4.61483E+03    4.56407E+03    4.66560E+03
 1.80000E-07    4.60984E+03    4.55913E+03    4.66054E+03
 2.20000E-07    4.60689E+03    4.55621E+03    4.65756E+03
 2.50000E-07    4.60508E+03    4.55442E+03    4.65574E+03
 2.80000E-07    4.60356E+03    4.55292E+03    4.65420E+03
 3.00000E-07    4.60261E+03    4.55198E+03    4.65324E+03
 3.20000E-07    4.60190E+03    4.55128E+03    4.65252E+03
 3.50000E-07    4.60079E+03    4.55018E+03    4.65140E+03
 4.00000E-07    4.59885E+03    4.54826E+03    4.64944E+03
 5.00000E-07    4.59731E+03    4.54674E+03    4.64788E+03
 6.25000E-07    4.59578E+03    4.54523E+03    4.64633E+03
 7.80000E-07    4.59481E+03    4.54427E+03    4.64536E+03
 8.50000E-07    4.59462E+03    4.54408E+03    4.64516E+03
 9.10000E-07    4.59447E+03    4.54394E+03    4.64501E+03
 9.50000E-07    4.59438E+03    4.54385E+03    4.64492E+03
 9.72000E-07    4.59432E+03    4.54378E+03    4.64485E+03
 9.96000E-07    4.59425E+03    4.54371E+03    4.64478E+03
 1.02000E-06    4.59417E+03    4.54364E+03    4.64471E+03
 1.04500E-06    4.59410E+03    4.54356E+03    4.64463E+03
 1.07100E-06    4.59402E+03    4.54349E+03    4.64456E+03
 1.09700E-06    4.59394E+03    4.54341E+03    4.64448E+03
 1.12300E-06    4.59387E+03    4.54333E+03    4.64440E+03
 1.15000E-06    4.59361E+03    4.54308E+03    4.64414E+03
 1.30000E-06    4.59310E+03    4.54257E+03    4.64362E+03
 1.50000E-06    4.59231E+03    4.54180E+03    4.64283E+03
 2.10000E-06    4.59220E+03    4.54168E+03    4.64271E+03
 2.60000E-06    4.59220E+03    4.54168E+03    4.64271E+03
 3.30000E-06    4.59219E+03    4.54168E+03    4.64271E+03
 4.00000E-06    4.59218E+03    4.54167E+03    4.64270E+03
 9.87700E-06    4.59216E+03    4.54165E+03    4.64268E+03
 1.59680E-05    4.59214E+03    4.54162E+03    4.64265E+03
 2.77000E-05    4.59209E+03    4.54157E+03    4.64260E+03
 4.80520E-05    4.59201E+03    4.54150E+03    4.64252E+03
 7.55014E-05    4.59185E+03    4.54134E+03    4.64237E+03
 1.48728E-04    4.59142E+03    4.54092E+03    4.64193E+03
 3.67262E-04    4.59027E+03    4.53977E+03    4.64076E+03
 9.06898E-04    4.58848E+03    4.53801E+03    4.63895E+03
 1.42510E-03    4.58635E+03    4.42583E+03    4.74687E+03
 2.23945E-03    4.58301E+03    4.42260E+03    4.74341E+03
 3.51910E-03    4.57775E+03    4.41753E+03    4.73797E+03
 5.53000E-03    4.56889E+03    4.40898E+03    4.72880E+03
 9.11800E-03    4.55377E+03    4.39439E+03    4.71316E+03
 1.50300E-02    4.52885E+03    4.37034E+03    4.68736E+03
 2.47800E-02    4.48775E+03    4.33068E+03    4.64482E+03
 4.08500E-02    4.42002E+03    4.26532E+03    4.57472E+03
 6.73400E-02    4.30837E+03    4.15758E+03    4.45916E+03
 1.11000E-01    4.12481E+03    3.98044E+03    4.26918E+03
 1.83000E-01    3.89331E+03    3.75704E+03    4.02957E+03
 3.02000E-01    3.56981E+03    3.44486E+03    3.69475E+03
 5.00000E-01    3.18183E+03    2.99350E+03    3.37016E+03
 8.21000E-01    2.78076E+03    2.61616E+03    2.94535E+03
 1.35300E+00    2.07083E+03    1.94879E+03    2.19286E+03
 2.23100E+00    2.92289E+03    2.75357E+03    3.09221E+03
 3.67900E+00    1.85422E+03    1.74643E+03    1.96200E+03
 6.06500E+00    1.41544E+03    1.33243E+03    1.49846E+03
