# n + N  15 : (n,xn)    
# jendl4.0   T.FUKAHORI                        EVAL-DEC88
# 
# # energies =   101
#   E(MeV)        xs(mb) 
 5.62459E+00    0.00000E+00
 5.62649E+00    1.65331E+00
 5.63006E+00    4.75327E+00
 5.63319E+00    7.46573E+00
 5.63866E+00    1.22125E+01
 5.64688E+00    1.93327E+01
 5.65511E+00    2.64529E+01
 5.67607E+00    2.93294E+01
 5.69580E+00    3.20262E+01
 5.71435E+00    3.45543E+01
 5.74930E+00    3.92947E+01
 5.78005E+00    4.34425E+01
 5.80710E+00    4.70719E+01
 5.83087E+00    5.02475E+01
 5.87270E+00    5.58049E+01
 5.90427E+00    5.99730E+01
 5.95194E+00    6.62251E+01
 6.00000E+00    7.24772E+01
 6.04428E+00    7.60678E+01
 6.08610E+00    7.94339E+01
 6.12556E+00    8.25896E+01
 6.16279E+00    8.55482E+01
 6.23320E+00    9.10954E+01
 6.29547E+00    9.59492E+01
 6.35047E+00    1.00196E+02
 6.39898E+00    1.03913E+02
 6.44174E+00    1.07164E+02
 6.51725E+00    1.12855E+02
 6.57447E+00    1.17122E+02
 6.66123E+00    1.23524E+02
 6.74914E+00    1.29926E+02
 6.78000E+00    1.37374E+02
 6.83434E+00    1.50407E+02
 6.87539E+00    1.60181E+02
 6.93741E+00    1.74844E+02
 7.00000E+00    1.89506E+02
 7.07654E+00    1.97190E+02
 7.14419E+00    2.03913E+02
 7.20392E+00    2.09796E+02
 7.30965E+00    2.20091E+02
 7.38996E+00    2.27812E+02
 7.45078E+00    2.33603E+02
 7.54294E+00    2.42290E+02
 7.63624E+00    2.50976E+02
 7.71365E+00    2.62786E+02
 7.79184E+00    2.74597E+02
 7.89523E+00    2.87573E+02
 8.00000E+00    3.00548E+02
 8.07594E+00    3.06697E+02
 8.17135E+00    3.17247E+02
 8.25576E+00    3.26478E+02
 8.33034E+00    3.34555E+02
 8.46247E+00    3.48690E+02
 8.56294E+00    3.59291E+02
 8.71589E+00    3.75193E+02
 8.87157E+00    3.91095E+02
 9.00000E+00    4.01102E+02
 9.14777E+00    4.07352E+02
 9.39970E+00    4.17286E+02
 9.65856E+00    4.27221E+02
 9.76752E+00    4.30466E+02
 9.77062E+00    4.31439E+02
 9.84532E+00    4.37752E+02
 1.00000E+01    4.45173E+02
 1.04136E+01    4.44869E+02
 1.04899E+01    4.45352E+02
 1.05956E+01    4.44852E+02
 1.07471E+01    4.44366E+02
 1.08005E+01    4.44021E+02
 1.10000E+01    4.41746E+02
 1.12419E+01    4.35433E+02
 1.14268E+01    4.30744E+02
 1.17099E+01    4.26816E+02
 1.20000E+01    4.25901E+02
 1.24900E+01    4.52759E+02
 1.30000E+01    4.80924E+02
 1.32431E+01    4.85047E+02
 1.34284E+01    4.88387E+02
 1.35691E+01    4.91033E+02
 1.37829E+01    4.95231E+02
 1.40000E+01    4.99709E+02
 1.41213E+01    5.02346E+02
 1.43360E+01    5.07179E+02
 1.44992E+01    5.10988E+02
 1.46228E+01    5.13948E+02
 1.48102E+01    5.18559E+02
 1.50000E+01    5.23375E+02
 1.52440E+01    5.25521E+02
 1.54296E+01    5.27255E+02
 1.57122E+01    5.30060E+02
 1.58554E+01    5.31555E+02
 1.60000E+01    5.33113E+02
 1.62443E+01    5.34782E+02
 1.66179E+01    5.37429E+02
 1.70000E+01    5.40251E+02
 1.74929E+01    5.39270E+02
 1.80000E+01    5.38334E+02
 1.84932E+01    5.36667E+02
 1.90000E+01    5.35096E+02
 1.94936E+01    5.36334E+02
 2.00000E+01    5.37757E+02
