# n + N  15 : (n,n'08)  
# jendl4.0   T.FUKAHORI                        EVAL-DEC88
# uncertainties: n
# # energies =   100
#   E(MeV)       xs(mb) 
 9.14777E+00    0.00000E+00
 9.14971E+00    4.46694E-02
 9.15358E+00    1.33659E-01
 9.16127E+00    3.10247E-01
 9.16883E+00    4.84076E-01
 9.17629E+00    6.55190E-01
 9.19099E+00    9.92068E-01
 9.20525E+00    1.31842E+00
 9.21909E+00    1.63457E+00
 9.23252E+00    1.94085E+00
 9.25859E+00    2.53425E+00
 9.28309E+00    3.09057E+00
 9.30613E+00    3.61211E+00
 9.32777E+00    4.10106E+00
 9.34811E+00    4.55945E+00
 9.38636E+00    5.41893E+00
 9.41996E+00    6.17098E+00
 9.44946E+00    6.82902E+00
 9.47535E+00    7.40480E+00
 9.52083E+00    8.41243E+00
 9.55507E+00    9.16815E+00
 9.60668E+00    1.03017E+01
 9.65856E+00    1.14353E+01
 9.71289E+00    1.18602E+01
 9.76752E+00    1.22852E+01
 9.77062E+00    1.22963E+01
 9.84532E+00    1.26732E+01
 9.92236E+00    1.32517E+01
 1.00000E+01    1.38303E+01
 1.01018E+01    1.47329E+01
 1.01789E+01    1.54099E+01
 1.02956E+01    1.64253E+01
 1.04136E+01    1.74408E+01
 1.04899E+01    1.80248E+01
 1.05956E+01    1.89133E+01
 1.06711E+01    1.95498E+01
 1.07471E+01    2.01863E+01
 1.08005E+01    2.04343E+01
 1.08998E+01    2.11210E+01
 1.10000E+01    2.18077E+01
 1.12419E+01    2.22946E+01
 1.14268E+01    2.26598E+01
 1.17099E+01    2.32075E+01
 1.20000E+01    2.37553E+01
 1.21207E+01    2.32261E+01
 1.23348E+01    2.22999E+01
 1.24978E+01    2.16053E+01
 1.26215E+01    2.10843E+01
 1.28094E+01    2.03029E+01
 1.30000E+01    1.95214E+01
 1.31210E+01    1.85291E+01
 1.32278E+01    1.76609E+01
 1.33219E+01    1.69012E+01
 1.34049E+01    1.62365E+01
 1.34778E+01    1.56548E+01
 1.36065E+01    1.46369E+01
 1.37038E+01    1.38735E+01
 1.37773E+01    1.33010E+01
 1.38882E+01    1.24421E+01
 1.40000E+01    1.15833E+01
 1.41213E+01    1.09567E+01
 1.42282E+01    1.04085E+01
 1.43225E+01    9.92881E+00
 1.44055E+01    9.50908E+00
 1.44785E+01    9.14180E+00
 1.46071E+01    8.49908E+00
 1.47044E+01    8.01703E+00
 1.47777E+01    7.65550E+00
 1.48884E+01    7.11320E+00
 1.50000E+01    6.57090E+00
 1.51215E+01    6.27113E+00
 1.52286E+01    6.00882E+00
 1.53230E+01    5.77931E+00
 1.54895E+01    5.37766E+00
 1.56156E+01    5.07642E+00
 1.57108E+01    4.85049E+00
 1.58547E+01    4.51160E+00
 1.60000E+01    4.17271E+00
 1.61217E+01    4.03876E+00
 1.63369E+01    3.80434E+00
 1.65002E+01    3.62853E+00
 1.66238E+01    3.49667E+00
 1.68108E+01    3.29888E+00
 1.70000E+01    3.10109E+00
 1.72447E+01    2.94595E+00
 1.74305E+01    2.82960E+00
 1.75711E+01    2.74233E+00
 1.77843E+01    2.61144E+00
 1.80000E+01    2.48054E+00
 1.82450E+01    2.33994E+00
 1.84309E+01    2.23449E+00
 1.85715E+01    2.15540E+00
 1.87845E+01    2.03677E+00
 1.90000E+01    1.91814E+00
 1.91222E+01    1.85846E+00
 1.93380E+01    1.75401E+00
 1.95014E+01    1.67568E+00
 1.96249E+01    1.61693E+00
 1.98116E+01    1.52881E+00
 2.00000E+01    1.44068E+00
