# n + N  15 : (n,xd)    
# jendl4.0   T.FUKAHORI                        EVAL-DEC88
# 
# # energies =   101
#   E(MeV)        xs(mb) 
 5.62459E+00    0.00000E+00
 5.62649E+00    0.00000E+00
 5.63006E+00    0.00000E+00
 5.63319E+00    0.00000E+00
 5.63866E+00    0.00000E+00
 5.64688E+00    0.00000E+00
 5.65511E+00    0.00000E+00
 5.67607E+00    0.00000E+00
 5.69580E+00    0.00000E+00
 5.71435E+00    0.00000E+00
 5.74930E+00    0.00000E+00
 5.78005E+00    0.00000E+00
 5.80710E+00    0.00000E+00
 5.83087E+00    0.00000E+00
 5.87270E+00    0.00000E+00
 5.90427E+00    0.00000E+00
 5.95194E+00    0.00000E+00
 6.00000E+00    0.00000E+00
 6.04428E+00    0.00000E+00
 6.08610E+00    0.00000E+00
 6.12556E+00    0.00000E+00
 6.16279E+00    0.00000E+00
 6.23320E+00    0.00000E+00
 6.29547E+00    0.00000E+00
 6.35047E+00    0.00000E+00
 6.39898E+00    0.00000E+00
 6.44174E+00    0.00000E+00
 6.51725E+00    0.00000E+00
 6.57447E+00    0.00000E+00
 6.66123E+00    0.00000E+00
 6.74914E+00    0.00000E+00
 6.78000E+00    0.00000E+00
 6.83434E+00    0.00000E+00
 6.87539E+00    0.00000E+00
 6.93741E+00    0.00000E+00
 7.00000E+00    0.00000E+00
 7.07654E+00    0.00000E+00
 7.14419E+00    0.00000E+00
 7.20392E+00    0.00000E+00
 7.30965E+00    0.00000E+00
 7.38996E+00    0.00000E+00
 7.45078E+00    0.00000E+00
 7.54294E+00    0.00000E+00
 7.63624E+00    0.00000E+00
 7.71365E+00    0.00000E+00
 7.79184E+00    0.00000E+00
 7.89523E+00    0.00000E+00
 8.00000E+00    0.00000E+00
 8.07594E+00    0.00000E+00
 8.17135E+00    0.00000E+00
 8.25576E+00    0.00000E+00
 8.33034E+00    0.00000E+00
 8.46247E+00    0.00000E+00
 8.56294E+00    4.65710E-02
 8.71589E+00    2.10728E-01
 8.87157E+00    3.77816E-01
 9.00000E+00    5.15658E-01
 9.14777E+00    2.80217E+00
 9.39970E+00    6.70034E+00
 9.65856E+00    1.07058E+01
 9.76752E+00    1.23918E+01
 9.77062E+00    1.24398E+01
 9.84532E+00    1.35957E+01
 1.00000E+01    1.59891E+01
 1.04136E+01    1.91792E+01
 1.04899E+01    1.97677E+01
 1.05956E+01    2.05830E+01
 1.07471E+01    2.17515E+01
 1.08005E+01    2.21634E+01
 1.10000E+01    2.37021E+01
 1.12419E+01    2.33457E+01
 1.14268E+01    2.30733E+01
 1.17099E+01    2.26562E+01
 1.20000E+01    2.22288E+01
 1.24900E+01    2.04862E+01
 1.30000E+01    1.86725E+01
 1.32431E+01    1.78127E+01
 1.34284E+01    1.71573E+01
 1.35691E+01    1.66598E+01
 1.37829E+01    1.59036E+01
 1.40000E+01    1.51356E+01
 1.41213E+01    1.47938E+01
 1.43360E+01    1.41886E+01
 1.44992E+01    1.37286E+01
 1.46228E+01    1.33802E+01
 1.48102E+01    1.28520E+01
 1.50000E+01    1.23170E+01
 1.52440E+01    1.18711E+01
 1.54296E+01    1.15320E+01
 1.57122E+01    1.10155E+01
 1.58554E+01    1.07538E+01
 1.60000E+01    1.04896E+01
 1.62443E+01    1.00485E+01
 1.66179E+01    9.37409E+00
 1.70000E+01    8.68421E+00
 1.74929E+01    7.47201E+00
 1.80000E+01    6.24519E+00
 1.84932E+01    6.82042E+00
 1.90000E+01    7.41141E+00
 1.94936E+01    9.85018E+00
 2.00000E+01    1.23523E+01
