# n + Cr  0 : (n,xa)
# jendl4.0   N.Iwamoto                         EVAL-Dec09
#
# # energies =   184
#   E(MeV)          xs(mb) 
 1.05000E-01    0.00000E+00
 1.10000E-01    0.00000E+00
 1.20000E-01    0.00000E+00
 1.30000E-01    0.00000E+00
 1.40000E-01    0.00000E+00
 1.50000E-01    0.00000E+00
 1.60000E-01    0.00000E+00
 1.70000E-01    0.00000E+00
 1.80000E-01    0.00000E+00
 1.90000E-01    0.00000E+00
 2.00000E-01    0.00000E+00
 2.25000E-01    5.73271E-09
 2.50000E-01    7.26665E-09
 2.75000E-01    9.24276E-09
 3.00000E-01    1.17746E-08
 4.00000E-01    3.09581E-08
 5.00000E-01    7.94911E-08
 6.00000E-01    1.67348E-07
 7.00000E-01    3.66588E-07
 8.00000E-01    8.05250E-07
 9.00000E-01    1.71880E-06
 1.00000E+00    3.54558E-06
 1.10000E+00    6.33156E-06
 1.20000E+00    1.17989E-05
 1.30000E+00    2.15276E-05
 1.40000E+00    3.65464E-05
 1.46194E+00    5.25755E-05
 1.48669E+00    5.89804E-05
 1.50000E+00    6.24248E-05
 1.53817E+00    7.71024E-05
 1.58965E+00    9.80361E-05
 1.60000E+00    1.02512E-04
 1.64113E+00    1.28566E-04
 1.69261E+00    1.61177E-04
 1.70000E+00    1.65858E-04
 1.74409E+00    2.08833E-04
 1.79558E+00    2.59021E-04
 1.80000E+00    2.63329E-04
 1.84706E+00    3.32368E-04
 1.89854E+00    4.07891E-04
 1.90000E+00    4.10033E-04
 1.95002E+00    5.18464E-04
 2.00000E+00    6.26809E-04
 2.00150E+00    6.30803E-04
 2.05298E+00    8.16792E-04
 2.10446E+00    1.01422E-03
 2.15594E+00    1.21165E-03
 2.20742E+00    1.40907E-03
 2.25000E+00    1.63908E-03
 2.25890E+00    1.69510E-03
 2.31038E+00    2.06368E-03
 2.36187E+00    2.45393E-03
 2.41335E+00    2.91144E-03
 2.41565E+00    2.93206E-03
 2.44372E+00    3.18385E-03
 2.46483E+00    3.37320E-03
 2.49610E+00    3.65368E-03
 2.50000E+00    3.68910E-03
 2.51631E+00    3.94956E-03
 2.54849E+00    4.46344E-03
 2.56779E+00    4.77164E-03
 2.60087E+00    5.29989E-03
 2.61927E+00    5.59372E-03
 2.65325E+00    6.13634E-03
 2.67075E+00    6.41579E-03
 2.69830E+00    6.85574E-03
 2.70563E+00    6.97279E-03
 2.72223E+00    7.27285E-03
 2.75000E+00    7.66195E-03
 2.75801E+00    7.82896E-03
 2.77371E+00    8.01628E-03
 2.81040E+00    8.64068E-03
 2.82152E+00    8.83231E-03
 2.82519E+00    8.90350E-03
 2.86278E+00    9.76616E-03
 2.87667E+00    1.00849E-02
 2.91516E+00    1.10403E-02
 2.92815E+00    1.13654E-02
 2.96754E+00    1.23509E-02
 2.97964E+00    1.26537E-02
 3.00000E+00    1.31622E-02
 3.01992E+00    1.38494E-02
 3.02236E+00    1.39336E-02
 3.02237E+00    1.39340E-02
 3.03112E+00    1.42358E-02
 3.07230E+00    1.57538E-02
 3.08260E+00    1.61539E-02
 3.12469E+00    1.77890E-02
 3.13408E+00    1.81538E-02
 3.17433E+00    1.99298E-02
 3.17707E+00    2.00548E-02
 3.18556E+00    2.04419E-02
 3.22314E+00    2.21944E-02
 3.22945E+00    2.24901E-02
 3.23704E+00    2.28459E-02
 3.28183E+00    2.49341E-02
 3.28852E+00    2.52465E-02
 3.33421E+00    2.75097E-02
 3.34000E+00    2.77509E-02
 3.38660E+00    2.96923E-02
 3.39148E+00    2.98956E-02
 3.43898E+00    3.24083E-02
 3.44296E+00    3.26561E-02
 3.48164E+00    3.52468E-02
 3.49136E+00    3.59019E-02
 3.49444E+00    3.61095E-02
 3.50000E+00    3.64842E-02
 3.53968E+00    3.97479E-02
 3.54374E+00    4.00819E-02
 3.54592E+00    4.02612E-02
 3.59612E+00    4.43910E-02
 3.59740E+00    4.44963E-02
 3.64851E+00    4.87009E-02
 3.64889E+00    4.87322E-02
 3.68615E+00    5.18879E-02
 3.70037E+00    5.31348E-02
 3.70089E+00    5.31804E-02
 3.75185E+00    5.76880E-02
 3.75327E+00    5.78137E-02
 3.80333E+00    6.02943E-02
 3.80565E+00    6.05102E-02
 3.81222E+00    6.11215E-02
 3.84496E+00    6.41683E-02
 3.84497E+00    6.41693E-02
 3.85481E+00    6.50567E-02
 3.85804E+00    6.53050E-02
 3.90629E+00    6.91316E-02
 3.91042E+00    6.94651E-02
 3.95777E+00    7.44084E-02
 3.96280E+00    7.49422E-02
 4.00000E+00    7.87993E-02
 4.00925E+00    8.00074E-02
 4.02518E+00    8.21011E-02
 4.06073E+00    8.68047E-02
 4.09349E+00    9.11390E-02
 4.11221E+00    9.36171E-02
 4.11764E+00    9.43359E-02
 4.16369E+00    1.00229E-01
 4.17962E+00    1.02360E-01
 4.50000E+00    1.48741E-01
 4.55681E+00    1.59722E-01
 4.65161E+00    1.78322E-01
 4.70054E+00    1.88171E-01
 4.71718E+00    1.91544E-01
 4.79331E+00    2.07743E-01
 4.82185E+00    2.14023E-01
 4.82186E+00    2.14025E-01
 4.83439E+00    2.16804E-01
 4.84257E+00    2.18630E-01
 4.89332E+00    2.30402E-01
 4.89952E+00    2.31859E-01
 4.90922E+00    2.34194E-01
 4.93532E+00    2.40498E-01
 5.00000E+00    2.56301E-01
 5.50000E+00    4.18444E-01
 6.00000E+00    6.85715E-01
 6.50000E+00    1.15679E+00
 7.00000E+00    1.96809E+00
 7.50000E+00    3.24278E+00
 8.00000E+00    4.98705E+00
 8.50000E+00    7.22049E+00
 9.00000E+00    9.79443E+00
 9.50000E+00    1.27975E+01
 1.00000E+01    1.60184E+01
 1.05000E+01    1.91056E+01
 1.10000E+01    2.19382E+01
 1.15000E+01    2.46042E+01
 1.20000E+01    2.72986E+01
 1.25000E+01    3.01602E+01
 1.30000E+01    3.34127E+01
 1.35000E+01    3.70320E+01
 1.40000E+01    4.10461E+01
 1.45000E+01    4.53904E+01
 1.50000E+01    5.01228E+01
 1.55000E+01    5.52412E+01
 1.60000E+01    6.04206E+01
 1.65000E+01    6.63089E+01
 1.70000E+01    7.24441E+01
 1.75000E+01    7.87410E+01
 1.80000E+01    8.51053E+01
 1.85000E+01    9.14836E+01
 1.90000E+01    9.78285E+01
 1.95000E+01    1.04113E+02
 2.00000E+01    1.10254E+02
