# n + Cr  0 : (n,d)
# jendl4.0   N.Iwamoto                         EVAL-Dec09
# uncertainties: n
# # energies =    64
#   E(MeV)          xs(mb) 
 7.51574E+00    0.00000E+00
 7.60821E+00    3.12144E-06
 7.67175E+00    6.38346E-06
 8.27912E+00    4.25858E-05
 8.55799E+00    6.40387E-05
 8.67930E+00    7.62462E-05
 8.69439E+00    7.78503E-05
 8.72263E+00    8.09615E-05
 9.00000E+00    1.30245E-04
 9.06086E+00    3.43330E-04
 9.15078E+00    6.60270E-04
 9.15825E+00    6.86675E-04
 9.19211E+00    8.06494E-04
 9.19542E+00    8.18217E-04
 9.21069E+00    8.72321E-04
 9.50000E+00    1.90024E-03
 9.55072E+00    3.01989E-03
 9.73803E+00    7.16448E-03
 9.74180E+00    7.24806E-03
 9.76425E+00    7.74583E-03
 9.79485E+00    8.42432E-03
 9.82474E+00    9.08707E-03
 9.82678E+00    9.13232E-03
 9.84076E+00    9.44228E-03
 9.87177E+00    1.01299E-02
 9.91666E+00    1.11254E-02
 9.95196E+00    1.19082E-02
 9.97267E+00    1.23674E-02
 1.00000E+01    1.29735E-02
 1.02407E+01    3.72517E-02
 1.02410E+01    3.72820E-02
 1.02499E+01    3.81801E-02
 1.02983E+01    4.30646E-02
 1.03121E+01    4.44575E-02
 1.03584E+01    4.91310E-02
 1.03688E+01    5.01808E-02
 1.03808E+01    5.13920E-02
 1.03834E+01    5.16544E-02
 1.04350E+01    5.68632E-02
 1.05000E+01    6.34247E-02
 1.05940E+01    9.71561E-02
 1.07129E+01    1.39824E-01
 1.07130E+01    1.39860E-01
 1.07315E+01    1.46499E-01
 1.08048E+01    1.72803E-01
 1.10000E+01    2.42853E-01
 1.15000E+01    6.74043E-01
 1.20000E+01    1.39986E+00
 1.25000E+01    2.32467E+00
 1.30000E+01    3.32103E+00
 1.35000E+01    4.33664E+00
 1.40000E+01    5.39315E+00
 1.45000E+01    6.37250E+00
 1.50000E+01    7.73917E+00
 1.55000E+01    9.27181E+00
 1.60000E+01    1.08164E+01
 1.65000E+01    1.23923E+01
 1.70000E+01    1.39328E+01
 1.75000E+01    1.53152E+01
 1.80000E+01    1.67723E+01
 1.85000E+01    1.81612E+01
 1.90000E+01    1.95496E+01
 1.95000E+01    2.06299E+01
 2.00000E+01    2.19399E+01
