# n + Cr  0 : (n,p)
# jendl4.0   N.Iwamoto                         EVAL-Dec09
# uncertainties: n
# # energies =   126
#   E(MeV)          xs(mb) 
 2.60760E-01    0.00000E+00
 4.91528E-01    8.40840E-06
 5.87386E-01    6.21426E-05
 6.23338E-01    1.14635E-04
 6.57004E-01    2.05424E-04
 1.11395E+00    1.99222E-03
 1.18914E+00    2.30259E-03
 1.18924E+00    2.30301E-03
 1.30000E+00    2.78892E-03
 1.40000E+00    3.28860E-03
 1.50000E+00    3.86063E-03
 1.58844E+00    4.46623E-03
 1.60000E+00    4.56455E-03
 1.61915E+00    4.88986E-03
 1.69097E+00    6.18758E-03
 1.70000E+00    6.35508E-03
 1.78626E+00    1.26898E-02
 1.80000E+00    1.37210E-02
 1.80982E+00    1.50425E-02
 1.85400E+00    2.10585E-02
 1.90000E+00    2.73739E-02
 1.91928E+00    3.09734E-02
 1.97183E+00    3.74997E-02
 1.99530E+00    4.04214E-02
 1.99825E+00    4.07906E-02
 2.00000E+00    4.10097E-02
 2.01437E+00    4.64033E-02
 2.02019E+00    4.85945E-02
 2.02080E+00    4.88243E-02
 2.04763E+00    5.89425E-02
 2.05783E+00    6.27983E-02
 2.05865E+00    6.31081E-02
 2.10813E+00    8.18555E-02
 2.18118E+00    1.09590E-01
 2.23586E+00    1.30353E-01
 2.25000E+00    1.35733E-01
 2.25422E+00    1.39597E-01
 2.33992E+00    2.18112E-01
 2.33993E+00    2.18121E-01
 2.41439E+00    2.86377E-01
 2.43684E+00    3.06964E-01
 2.46642E+00    3.34097E-01
 2.50000E+00    3.64904E-01
 2.61537E+00    5.71094E-01
 2.62006E+00    5.79480E-01
 2.65210E+00    6.36751E-01
 2.70821E+00    7.37056E-01
 2.73371E+00    7.82647E-01
 2.73473E+00    7.84468E-01
 2.75000E+00    8.11774E-01
 2.76534E+00    8.57850E-01
 2.78911E+00    9.29246E-01
 2.79390E+00    9.43633E-01
 2.98356E+00    1.51335E+00
 3.00000E+00    1.49477E+00
 3.22494E+00    2.34839E+00
 3.22758E+00    2.31983E+00
 3.39171E+00    3.01223E+00
 3.50000E+00    3.52614E+00
 3.66714E+00    4.54629E+00
 3.67474E+00    4.56791E+00
 3.68423E+00    4.60547E+00
 3.70280E+00    4.67962E+00
 3.76656E+00    4.97733E+00
 3.76860E+00    4.97758E+00
 3.77238E+00    4.98682E+00
 3.86889E+00    5.31710E+00
 3.90265E+00    5.48201E+00
 3.90429E+00    5.48552E+00
 3.92194E+00    5.56338E+00
 3.92775E+00    5.57929E+00
 3.95315E+00    5.69225E+00
 3.97397E+00    5.79815E+00
 3.97672E+00    5.75725E+00
 4.00000E+00    5.78470E+00
 4.01722E+00    5.84961E+00
 4.12159E+00    6.17461E+00
 4.13352E+00    6.22378E+00
 4.15260E+00    6.14122E+00
 4.21310E+00    6.23941E+00
 4.27758E+00    6.46984E+00
 4.29196E+00    6.46123E+00
 4.36848E+00    6.66213E+00
 4.43785E+00    6.85652E+00
 4.45111E+00    6.90710E+00
 4.50000E+00    7.11646E+00
 4.61526E+00    7.71832E+00
 4.63801E+00    7.85742E+00
 4.74748E+00    8.32568E+00
 4.77043E+00    8.44945E+00
 4.82348E+00    8.65935E+00
 4.83572E+00    8.73327E+00
 4.84083E+00    8.75103E+00
 4.86837E+00    8.88700E+00
 4.89796E+00    8.98188E+00
 5.00000E+00    9.48386E+00
 5.50000E+00    1.29278E+01
 6.00000E+00    1.79024E+01
 6.50000E+00    2.43389E+01
 7.00000E+00    3.16921E+01
 7.50000E+00    3.92277E+01
 8.00000E+00    4.63485E+01
 8.50000E+00    5.29917E+01
 9.00000E+00    5.86821E+01
 9.50000E+00    6.38529E+01
 1.00000E+01    6.87823E+01
 1.05000E+01    7.39234E+01
 1.10000E+01    7.91708E+01
 1.15000E+01    8.35792E+01
 1.20000E+01    8.92031E+01
 1.25000E+01    9.45968E+01
 1.30000E+01    9.90279E+01
 1.35000E+01    1.01597E+02
 1.40000E+01    1.01637E+02
 1.45000E+01    9.88230E+01
 1.50000E+01    9.35354E+01
 1.55000E+01    8.73097E+01
 1.60000E+01    8.01903E+01
 1.65000E+01    7.21931E+01
 1.70000E+01    6.45655E+01
 1.75000E+01    5.79177E+01
 1.80000E+01    5.22528E+01
 1.85000E+01    4.75438E+01
 1.90000E+01    4.37043E+01
 1.95000E+01    4.06168E+01
 2.00000E+01    3.81514E+01
