# n + Cs134 : (n,n'28)  
# jeff3.3    A.J. Koning and D. Rochman        EVAL-DEC15
# uncertainties: n
# # energies =    72
#   E(MeV)       xs(mb) 
 5.83493E-01    0.00000E+00
 5.88580E-01    2.70932E+00
 6.00000E-01    8.79157E+00
 6.17639E-01    1.07887E+01
 7.00000E-01    2.01141E+01
 8.00000E-01    2.25334E+01
 9.00000E-01    2.24510E+01
 1.00000E+00    2.16099E+01
 1.20000E+00    1.95617E+01
 1.40000E+00    1.73276E+01
 1.60000E+00    1.48542E+01
 1.80000E+00    1.23024E+01
 2.00000E+00    9.91992E+00
 2.20000E+00    7.87356E+00
 2.40000E+00    6.21414E+00
 2.60000E+00    4.91250E+00
 2.80000E+00    3.90511E+00
 3.00000E+00    3.12389E+00
 3.20000E+00    2.51209E+00
 3.40000E+00    2.02591E+00
 3.60000E+00    1.63406E+00
 3.80000E+00    1.31545E+00
 4.00000E+00    1.05550E+00
 4.20000E+00    8.43434E-01
 4.40000E+00    6.71175E-01
 4.60000E+00    5.31922E-01
 4.80000E+00    4.20172E-01
 5.00000E+00    3.30930E-01
 5.20000E+00    2.60269E-01
 5.40000E+00    2.04326E-01
 5.60000E+00    1.60525E-01
 5.80000E+00    1.26186E-01
 6.00000E+00    9.93123E-02
 6.20000E+00    7.83602E-02
 6.40000E+00    6.17249E-02
 6.60000E+00    4.89321E-02
 6.80000E+00    3.89334E-02
 7.00000E+00    3.10866E-02
 7.20000E+00    2.49150E-02
 7.40000E+00    2.00194E-02
 7.60000E+00    1.61428E-02
 7.80000E+00    1.30438E-02
 8.00000E+00    1.05608E-02
 8.50000E+00    6.27827E-03
 9.00000E+00    3.76108E-03
 9.50000E+00    2.26579E-03
 1.00000E+01    1.37168E-03
 1.05000E+01    8.34548E-04
 1.10000E+01    5.10484E-04
 1.15000E+01    3.14078E-04
 1.20000E+01    1.94470E-04
 1.25000E+01    1.21215E-04
 1.30000E+01    7.60540E-05
 1.35000E+01    4.80385E-05
 1.40000E+01    3.05444E-05
 1.45000E+01    1.95406E-05
 1.50000E+01    1.25746E-05
 1.60000E+01    5.28534E-06
 1.70000E+01    2.26000E-06
 1.80000E+01    9.82590E-07
 1.90000E+01    4.34440E-07
 2.00000E+01    1.93450E-07
 2.10000E+01    8.81880E-08
 2.20000E+01    4.05360E-08
 2.30000E+01    1.88600E-08
 2.40000E+01    8.88800E-09
 2.50000E+01    4.24390E-09
 2.60000E+01    2.05330E-09
 2.70000E+01    1.00450E-09
 2.80000E+01    4.96980E-10
 2.90000E+01    2.48230E-10
 3.00000E+01    1.25080E-10
