# n + Cs134 : (n,n'26)  
# jeff3.3    A.J. Koning and D. Rochman        EVAL-DEC15
# uncertainties: n
# # energies =    74
#   E(MeV)       xs(mb) 
 5.43722E-01    0.00000E+00
 5.75127E-01    1.64125E+01
 5.83493E-01    2.07847E+01
 5.88580E-01    2.34432E+01
 6.00000E-01    2.94114E+01
 6.17639E-01    3.13226E+01
 7.00000E-01    4.02464E+01
 8.00000E-01    4.16315E+01
 9.00000E-01    4.03804E+01
 1.00000E+00    3.83060E+01
 1.20000E+00    3.37471E+01
 1.40000E+00    2.89605E+01
 1.60000E+00    2.40501E+01
 1.80000E+00    1.93697E+01
 2.00000E+00    1.52663E+01
 2.20000E+00    1.18988E+01
 2.40000E+00    9.25271E+00
 2.60000E+00    7.22088E+00
 2.80000E+00    5.67013E+00
 3.00000E+00    4.47958E+00
 3.20000E+00    3.55610E+00
 3.40000E+00    2.83023E+00
 3.60000E+00    2.25288E+00
 3.80000E+00    1.79050E+00
 4.00000E+00    1.41929E+00
 4.20000E+00    1.12132E+00
 4.40000E+00    8.82972E-01
 4.60000E+00    6.93038E-01
 4.80000E+00    5.42625E-01
 5.00000E+00    4.23975E-01
 5.20000E+00    3.31068E-01
 5.40000E+00    2.58240E-01
 5.60000E+00    2.01743E-01
 5.80000E+00    1.57833E-01
 6.00000E+00    1.23690E-01
 6.20000E+00    9.72749E-02
 6.40000E+00    7.64019E-02
 6.60000E+00    6.04266E-02
 6.80000E+00    4.79994E-02
 7.00000E+00    3.82725E-02
 7.20000E+00    3.06477E-02
 7.40000E+00    2.46119E-02
 7.60000E+00    1.98416E-02
 7.80000E+00    1.60335E-02
 8.00000E+00    1.29854E-02
 8.50000E+00    7.73169E-03
 9.00000E+00    4.64250E-03
 9.50000E+00    2.80444E-03
 1.00000E+01    1.70279E-03
 1.05000E+01    1.03920E-03
 1.10000E+01    6.37676E-04
 1.15000E+01    3.93603E-04
 1.20000E+01    2.44518E-04
 1.25000E+01    1.52933E-04
 1.30000E+01    9.62939E-05
 1.35000E+01    6.10442E-05
 1.40000E+01    3.89583E-05
 1.45000E+01    2.50174E-05
 1.50000E+01    1.61602E-05
 1.60000E+01    6.84432E-06
 1.70000E+01    2.94878E-06
 1.80000E+01    1.29135E-06
 1.90000E+01    5.74700E-07
 2.00000E+01    2.57340E-07
 2.10000E+01    1.17870E-07
 2.20000E+01    5.44130E-08
 2.30000E+01    2.54210E-08
 2.40000E+01    1.20290E-08
 2.50000E+01    5.76790E-09
 2.60000E+01    2.80220E-09
 2.70000E+01    1.37620E-09
 2.80000E+01    6.83360E-10
 2.90000E+01    3.42440E-10
 3.00000E+01    1.73040E-10
