# n + Ta180m: (n,n'26)  
# jeff3.3    A.J. Koning and D. Rochman        EVAL-DEC15
# uncertainties: n
# # energies =    75
#   E(MeV)       xs(mb) 
 4.40918E-01    0.00000E+00
 4.45523E-01    2.83686E+00
 4.69879E-01    1.78411E+01
 4.73328E-01    1.99658E+01
 4.74289E-01    2.05578E+01
 5.00000E-01    3.63968E+01
 6.00000E-01    5.94324E+01
 7.00000E-01    6.90263E+01
 8.00000E-01    6.87115E+01
 9.00000E-01    6.25469E+01
 1.00000E+00    5.39246E+01
 1.20000E+00    3.68986E+01
 1.40000E+00    2.41287E+01
 1.60000E+00    1.56617E+01
 1.80000E+00    1.02471E+01
 2.00000E+00    6.78684E+00
 2.20000E+00    4.55013E+00
 2.40000E+00    3.08352E+00
 2.60000E+00    2.10749E+00
 2.80000E+00    1.45008E+00
 3.00000E+00    1.00372E+00
 3.20000E+00    6.98811E-01
 3.40000E+00    4.89406E-01
 3.60000E+00    3.44721E-01
 3.80000E+00    2.44426E-01
 4.00000E+00    1.74635E-01
 4.20000E+00    1.25648E-01
 4.40000E+00    9.09771E-02
 4.60000E+00    6.62258E-02
 4.80000E+00    4.84394E-02
 5.00000E+00    3.55688E-02
 5.20000E+00    2.61642E-02
 5.40000E+00    1.93015E-02
 5.60000E+00    1.42595E-02
 5.80000E+00    1.05489E-02
 6.00000E+00    7.82134E-03
 6.20000E+00    5.80707E-03
 6.40000E+00    4.32107E-03
 6.60000E+00    3.22237E-03
 6.80000E+00    2.40924E-03
 7.00000E+00    1.80571E-03
 7.20000E+00    1.35674E-03
 7.40000E+00    1.02202E-03
 7.60000E+00    7.71982E-04
 7.80000E+00    5.84889E-04
 8.00000E+00    4.44509E-04
 8.50000E+00    2.27089E-04
 9.00000E+00    1.18346E-04
 9.50000E+00    6.27671E-05
 1.00000E+01    3.37742E-05
 1.05000E+01    1.83732E-05
 1.10000E+01    1.00822E-05
 1.15000E+01    5.57268E-06
 1.20000E+01    3.10204E-06
 1.25000E+01    1.74095E-06
 1.30000E+01    9.85120E-07
 1.35000E+01    5.62300E-07
 1.40000E+01    3.23980E-07
 1.45000E+01    1.88410E-07
 1.50000E+01    1.10620E-07
 1.60000E+01    3.92290E-08
 1.70000E+01    1.43770E-08
 1.80000E+01    5.38620E-09
 1.90000E+01    2.07210E-09
 2.00000E+01    8.11440E-10
 2.10000E+01    3.23590E-10
 2.20000E+01    1.31270E-10
 2.30000E+01    5.44830E-11
 2.40000E+01    2.29930E-11
 2.50000E+01    9.88510E-12
 2.60000E+01    4.32540E-12
 2.70000E+01    1.92200E-12
 2.80000E+01    8.65760E-13
 2.90000E+01    3.94630E-13
 3.00000E+01    1.81900E-13
