# n + Ta180m: (n,n'27)  
# jeff3.3    A.J. Koning and D. Rochman        EVAL-DEC15
# uncertainties: n
# # energies =    74
#   E(MeV)       xs(mb) 
 4.45523E-01    0.00000E+00
 4.69879E-01    2.67921E-03
 4.73328E-01    3.05861E-03
 4.74289E-01    3.16432E-03
 5.00000E-01    5.99259E-03
 6.00000E-01    4.87367E-02
 7.00000E-01    1.21020E-01
 8.00000E-01    2.00928E-01
 9.00000E-01    2.71686E-01
 1.00000E+00    3.25921E-01
 1.20000E+00    3.84046E-01
 1.40000E+00    3.89639E-01
 1.60000E+00    3.63320E-01
 1.80000E+00    3.21034E-01
 2.00000E+00    2.73134E-01
 2.20000E+00    2.25962E-01
 2.40000E+00    1.83070E-01
 2.60000E+00    1.45986E-01
 2.80000E+00    1.15055E-01
 3.00000E+00    8.99853E-02
 3.20000E+00    7.00883E-02
 3.40000E+00    5.45208E-02
 3.60000E+00    4.24241E-02
 3.80000E+00    3.30759E-02
 4.00000E+00    2.58619E-02
 4.20000E+00    2.02606E-02
 4.40000E+00    1.58802E-02
 4.60000E+00    1.24272E-02
 4.80000E+00    9.70287E-03
 5.00000E+00    7.55561E-03
 5.20000E+00    5.84726E-03
 5.40000E+00    4.51379E-03
 5.60000E+00    3.47054E-03
 5.80000E+00    2.65905E-03
 6.00000E+00    2.03501E-03
 6.20000E+00    1.55501E-03
 6.40000E+00    1.18820E-03
 6.60000E+00    9.08548E-04
 6.80000E+00    6.95681E-04
 7.00000E+00    5.33349E-04
 7.20000E+00    4.09704E-04
 7.40000E+00    3.15270E-04
 7.60000E+00    2.43150E-04
 7.80000E+00    1.88043E-04
 8.00000E+00    1.45813E-04
 8.50000E+00    7.82502E-05
 9.00000E+00    4.27352E-05
 9.50000E+00    2.36710E-05
 1.00000E+01    1.32450E-05
 1.05000E+01    7.45788E-06
 1.10000E+01    4.21719E-06
 1.15000E+01    2.39276E-06
 1.20000E+01    1.36295E-06
 1.25000E+01    7.80810E-07
 1.30000E+01    4.50170E-07
 1.35000E+01    2.61450E-07
 1.40000E+01    1.53110E-07
 1.45000E+01    9.04280E-08
 1.50000E+01    5.38780E-08
 1.60000E+01    1.96330E-08
 1.70000E+01    7.37070E-09
 1.80000E+01    2.81940E-09
 1.90000E+01    1.10400E-09
 2.00000E+01    4.38780E-10
 2.10000E+01    1.77150E-10
 2.20000E+01    7.26160E-11
 2.30000E+01    3.04110E-11
 2.40000E+01    1.29350E-11
 2.50000E+01    5.59990E-12
 2.60000E+01    2.46550E-12
 2.70000E+01    1.10160E-12
 2.80000E+01    4.98590E-13
 2.90000E+01    2.28220E-13
 3.00000E+01    1.05580E-13
