# n + Ta180m: (n,xn)    
# jeff3.3    A.J. Koning and D. Rochman        EVAL-DEC15
# 
# # energies =   143
#   E(MeV)        xs(mb) 
 2.23538E-04    2.00040E-17
 3.00000E-04    6.70612E-12
 6.00000E-04    5.78512E-12
 1.00000E-03    6.84702E-12
 2.00000E-03    9.49740E-11
 3.00000E-03    1.80920E-10
 6.00000E-03    6.03860E-10
 1.00000E-02    1.53950E-09
 2.00000E-02    8.37930E-09
 3.00000E-02    3.75770E-08
 3.09224E-02    4.19180E-08
 3.39593E-02    5.87890E-08
 5.37496E-02    1.69168E-05
 6.00000E-02    2.23126E-05
 9.47079E-02    4.81531E-04
 1.00000E-01    6.94888E-04
 1.01114E-01    7.30024E-04
 1.08535E-01    1.30888E+01
 1.58262E-01    1.00803E+02
 1.81914E-01    1.42525E+02
 2.00000E-01    1.74741E+02
 2.04068E-01    1.77404E+02
 2.35181E-01    3.24000E+02
 2.42602E-01    3.59112E+02
 2.44724E-01    3.69165E+02
 2.81147E-01    5.41798E+02
 2.95527E-01    6.20819E+02
 2.98283E-01    6.35981E+02
 3.00000E-01    6.72642E+02
 3.41202E-01    7.54330E+02
 3.44822E-01    7.62633E+02
 3.48452E-01    7.71206E+02
 3.50655E-01    7.76491E+02
 3.72979E-01    8.33867E+02
 3.88304E-01    8.77768E+02
 4.00000E-01    9.65497E+02
 4.03389E-01    9.68467E+02
 4.30510E-01    9.93612E+02
 4.40918E-01    1.02148E+03
 4.45523E-01    1.03677E+03
 4.69879E-01    1.11899E+03
 4.73328E-01    1.13082E+03
 4.74289E-01    1.13453E+03
 5.00000E-01    1.26253E+03
 6.00000E-01    1.49507E+03
 7.00000E-01    1.66523E+03
 8.00000E-01    1.78146E+03
 9.00000E-01    1.85771E+03
 1.00000E+00    1.90492E+03
 1.20000E+00    1.94821E+03
 1.40000E+00    1.95950E+03
 1.60000E+00    1.96186E+03
 1.80000E+00    1.96692E+03
 2.00000E+00    1.97769E+03
 2.20000E+00    1.99461E+03
 2.40000E+00    2.01557E+03
 2.60000E+00    2.03925E+03
 2.80000E+00    2.06450E+03
 3.00000E+00    2.09099E+03
 3.20000E+00    2.11920E+03
 3.40000E+00    2.14990E+03
 3.60000E+00    2.18395E+03
 3.80000E+00    2.22190E+03
 4.00000E+00    2.26353E+03
 4.20000E+00    2.30808E+03
 4.40000E+00    2.35350E+03
 4.60000E+00    2.39749E+03
 4.80000E+00    2.43815E+03
 5.00000E+00    2.47310E+03
 5.20000E+00    2.50176E+03
 5.40000E+00    2.52363E+03
 5.60000E+00    2.53852E+03
 5.80000E+00    2.54737E+03
 6.00000E+00    2.55075E+03
 6.20000E+00    2.54947E+03
 6.40000E+00    2.54438E+03
 6.60000E+00    2.53626E+03
 6.80000E+00    2.54218E+03
 7.00000E+00    2.56970E+03
 7.20000E+00    2.62646E+03
 7.40000E+00    2.72983E+03
 7.60000E+00    2.86080E+03
 7.80000E+00    3.02135E+03
 8.00000E+00    3.18524E+03
 8.50000E+00    3.57982E+03
 9.00000E+00    3.89969E+03
 9.50000E+00    4.13747E+03
 1.00000E+01    4.30806E+03
 1.05000E+01    4.41824E+03
 1.10000E+01    4.48494E+03
 1.15000E+01    4.52118E+03
 1.20000E+01    4.53405E+03
 1.25000E+01    4.53226E+03
 1.30000E+01    4.52358E+03
 1.35000E+01    4.51148E+03
 1.40000E+01    4.49925E+03
 1.45000E+01    4.48944E+03
 1.50000E+01    4.50307E+03
 1.60000E+01    4.78594E+03
 1.70000E+01    5.24237E+03
 1.80000E+01    5.61160E+03
 1.90000E+01    5.87363E+03
 2.00000E+01    5.99266E+03
 2.10000E+01    6.04874E+03
 2.20000E+01    6.06263E+03
 2.30000E+01    6.10087E+03
 2.40000E+01    6.19530E+03
 2.50000E+01    6.35364E+03
 2.60000E+01    6.54959E+03
 2.70000E+01    6.74294E+03
 2.80000E+01    6.90717E+03
 2.90000E+01    7.02933E+03
 3.00000E+01    7.11935E+03
 3.00000E+01    7.12505E+03
 3.20000E+01    7.23275E+03
 3.40000E+01    7.38662E+03
 3.60000E+01    7.62199E+03
 3.80000E+01    7.84881E+03
 4.00000E+01    8.03215E+03
 4.20000E+01    8.22454E+03
 4.40000E+01    8.40997E+03
 4.60000E+01    8.58125E+03
 4.80000E+01    8.72008E+03
 5.00000E+01    8.83904E+03
 5.20000E+01    8.95106E+03
 5.40000E+01    9.08417E+03
 5.60000E+01    9.20673E+03
 5.80000E+01    9.32255E+03
 6.00000E+01    9.44585E+03
 6.50000E+01    9.70432E+03
 7.00000E+01    9.94173E+03
 7.50000E+01    1.01477E+04
 8.00000E+01    1.03339E+04
 9.00000E+01    1.06849E+04
 1.00000E+02    1.10205E+04
 1.10000E+02    1.14131E+04
 1.20000E+02    1.18021E+04
 1.30000E+02    1.22058E+04
 1.40000E+02    1.26548E+04
 1.50000E+02    1.35716E+04
 1.60000E+02    1.45668E+04
 1.80000E+02    1.68711E+04
 2.00000E+02    1.84477E+04
