# n + Ta180m: (n,n'24)  
# jeff3.3    A.J. Koning and D. Rochman        EVAL-DEC15
# uncertainties: n
# # energies =    77
#   E(MeV)       xs(mb) 
 4.03389E-01    0.00000E+00
 4.30510E-01    5.79650E-05
 4.40918E-01    8.02097E-05
 4.45523E-01    9.00518E-05
 4.69879E-01    1.42107E-04
 4.73328E-01    1.49479E-04
 4.74289E-01    1.51533E-04
 5.00000E-01    2.06484E-04
 6.00000E-01    1.00036E-03
 7.00000E-01    2.25375E-03
 8.00000E-01    3.77653E-03
 9.00000E-01    5.41801E-03
 1.00000E+00    7.07069E-03
 1.20000E+00    1.01773E-02
 1.40000E+00    1.27538E-02
 1.60000E+00    1.46052E-02
 1.80000E+00    1.56522E-02
 2.00000E+00    1.59222E-02
 2.20000E+00    1.55367E-02
 2.40000E+00    1.46731E-02
 2.60000E+00    1.35109E-02
 2.80000E+00    1.22080E-02
 3.00000E+00    1.08911E-02
 3.20000E+00    9.64342E-03
 3.40000E+00    8.50635E-03
 3.60000E+00    7.48693E-03
 3.80000E+00    6.58128E-03
 4.00000E+00    5.77544E-03
 4.20000E+00    5.04679E-03
 4.40000E+00    4.37804E-03
 4.60000E+00    3.75408E-03
 4.80000E+00    3.18155E-03
 5.00000E+00    2.65939E-03
 5.20000E+00    2.18542E-03
 5.40000E+00    1.77650E-03
 5.60000E+00    1.42227E-03
 5.80000E+00    1.12626E-03
 6.00000E+00    8.84643E-04
 6.20000E+00    6.89237E-04
 6.40000E+00    5.34160E-04
 6.60000E+00    4.12504E-04
 6.80000E+00    3.17733E-04
 7.00000E+00    2.44319E-04
 7.20000E+00    1.87778E-04
 7.40000E+00    1.44281E-04
 7.60000E+00    1.11016E-04
 7.80000E+00    8.55780E-05
 8.00000E+00    6.61329E-05
 8.50000E+00    3.52339E-05
 9.00000E+00    1.91851E-05
 9.50000E+00    1.06482E-05
 1.00000E+01    5.99567E-06
 1.05000E+01    3.40759E-06
 1.10000E+01    1.94876E-06
 1.15000E+01    1.11957E-06
 1.20000E+01    6.46140E-07
 1.25000E+01    3.75140E-07
 1.30000E+01    2.19190E-07
 1.35000E+01    1.28980E-07
 1.40000E+01    7.65110E-08
 1.45000E+01    4.57470E-08
 1.50000E+01    2.75770E-08
 1.60000E+01    1.02620E-08
 1.70000E+01    3.91880E-09
 1.80000E+01    1.51870E-09
 1.90000E+01    6.00710E-10
 2.00000E+01    2.40710E-10
 2.10000E+01    9.78710E-11
 2.20000E+01    4.03640E-11
 2.30000E+01    1.69930E-11
 2.40000E+01    7.26080E-12
 2.50000E+01    3.15550E-12
 2.60000E+01    1.39400E-12
 2.70000E+01    6.24770E-13
 2.80000E+01    2.83580E-13
 2.90000E+01    1.30120E-13
 3.00000E+01    6.03160E-14
