# n + Mg 26 : (n,el)    
# jendl4.0   M.HATCHYA(DEC),T.ASAMI(NEDAC)     EVAL-MAR87
# uncertainties: n
# # energies =   171
#   E(MeV)       xs(mb) 
 1.00000E-11    7.94617E+03
 1.00000E-07    2.83791E+03
 4.13990E-07    2.83352E+03
 5.31580E-07    2.83271E+03
 6.82560E-07    2.83235E+03
 8.76420E-07    2.83196E+03
 1.12540E-06    2.83147E+03
 1.44500E-06    2.83133E+03
 1.85540E-06    2.83132E+03
 2.37240E-06    2.83132E+03
 3.05900E-06    2.83131E+03
 3.92790E-06    2.83130E+03
 5.04350E-06    2.83128E+03
 6.47600E-06    2.83126E+03
 8.31530E-06    2.83124E+03
 1.06770E-05    2.83121E+03
 1.37100E-05    2.83117E+03
 1.76030E-05    2.83112E+03
 2.26030E-05    2.83105E+03
 2.92030E-05    2.83097E+03
 3.72670E-05    2.83087E+03
 4.78510E-05    2.83073E+03
 6.14420E-05    2.83055E+03
 7.88930E-05    2.83033E+03
 1.01300E-04    2.83004E+03
 1.30070E-04    2.82966E+03
 1.67020E-04    2.82919E+03
 2.14450E-04    2.82857E+03
 2.75360E-04    2.82778E+03
 3.53580E-04    2.82677E+03
 4.54000E-04    2.82547E+03
 5.82950E-04    2.82380E+03
 7.48520E-04    2.82166E+03
 9.61120E-04    2.81891E+03
 1.23410E-03    2.81537E+03
 1.58460E-03    2.81084E+03
 2.03470E-03    2.80697E+03
 2.24870E-03    2.80440E+03
 2.48520E-03    2.80231E+03
 2.61260E-03    2.80082E+03
 2.74650E-03    2.79844E+03
 3.03540E-03    2.79498E+03
 3.35460E-03    2.79115E+03
 3.70740E-03    2.78578E+03
 4.30740E-03    2.77559E+03
 5.53080E-03    2.76047E+03
 7.10170E-03    2.74487E+03
 9.11880E-03    2.72540E+03
 1.17090E-02    2.70044E+03
 1.50340E-02    2.67373E+03
 1.93050E-02    2.65202E+03
 2.18750E-02    2.63859E+03
 2.35790E-02    2.63136E+03
 2.41760E-02    2.62760E+03
 2.47880E-02    2.62210E+03
 2.60580E-02    2.61691E+03
 2.70000E-02    2.61145E+03
 2.85000E-02    2.60071E+03
 3.18280E-02    2.58760E+03
 3.43070E-02    2.56806E+03
 4.08680E-02    2.54684E+03
 4.63090E-02    2.52852E+03
 5.24750E-02    2.51228E+03
 5.65620E-02    2.49454E+03
 6.73790E-02    2.47728E+03
 7.20000E-02    2.46787E+03
 7.95000E-02    2.45995E+03
 8.25000E-02    2.45472E+03
 8.65170E-02    2.44493E+03
 9.80370E-02    2.43619E+03
 1.11090E-01    2.43084E+03
 1.16790E-01    2.43198E+03
 1.22770E-01    2.43471E+03
 1.29070E-01    2.43778E+03
 1.35690E-01    2.44598E+03
 1.42640E-01    2.45683E+03
 1.49960E-01    2.47441E+03
 1.57640E-01    2.49808E+03
 1.65730E-01    2.53310E+03
 1.74220E-01    2.58242E+03
 1.83160E-01    2.65303E+03
 1.92550E-01    2.75542E+03
 2.02420E-01    2.90635E+03
 2.12800E-01    4.68163E+03
 2.23710E-01    3.58587E+03
 2.35180E-01    4.15970E+03
 2.47240E-01    6.05873E+03
 2.73240E-01    9.39462E+03
 2.87250E-01    1.11032E+04
 2.94520E-01    1.15038E+04
 2.97200E-01    1.15708E+04
 2.98500E-01    1.15547E+04
 3.01970E-01    9.70466E+03
 3.33730E-01    6.00549E+03
 3.68830E-01    4.43955E+03
 3.87740E-01    3.76701E+03
 4.07620E-01    4.71920E+03
 4.50490E-01    4.08737E+03
 4.97870E-01    4.05400E+03
 5.23400E-01    4.03023E+03
 5.50230E-01    4.00524E+03
 5.78440E-01    3.97897E+03
 6.08100E-01    3.95135E+03
 6.39280E-01    3.92232E+03
 6.72060E-01    3.89180E+03
 7.06510E-01    3.85971E+03
 7.42740E-01    3.82598E+03
 7.80820E-01    3.79113E+03
 8.20850E-01    3.75573E+03
 8.62940E-01    3.71855E+03
 9.07180E-01    3.67610E+03
 9.61640E-01    3.63489E+03
 1.00260E+00    3.57297E+03
 1.10800E+00    3.50593E+03
 1.16480E+00    3.45878E+03
 1.22460E+00    3.41240E+03
 1.28730E+00    3.36940E+03
 1.35340E+00    3.32430E+03
 1.42270E+00    3.27789E+03
 1.49570E+00    3.23138E+03
 1.57240E+00    3.18260E+03
 1.65300E+00    3.13134E+03
 1.73770E+00    3.07971E+03
 1.82680E+00    3.01730E+03
 1.92050E+00    2.85573E+03
 2.01900E+00    2.72616E+03
 2.12250E+00    2.62401E+03
 2.23130E+00    2.54214E+03
 2.30690E+00    2.49193E+03
 2.34570E+00    2.46633E+03
 2.36530E+00    2.44904E+03
 2.38520E+00    2.40820E+03
 2.46600E+00    2.33367E+03
 2.59240E+00    2.25823E+03
 2.72530E+00    2.18548E+03
 2.86500E+00    2.11446E+03
 3.01190E+00    2.03963E+03
 3.16640E+00    1.94259E+03
 3.32870E+00    1.80172E+03
 3.67880E+00    1.64809E+03
 4.06570E+00    1.50222E+03
 4.49330E+00    1.38496E+03
 4.72370E+00    1.30370E+03
 4.96590E+00    1.22748E+03
 5.22050E+00    1.16004E+03
 5.48810E+00    1.09738E+03
 5.76950E+00    1.04208E+03
 6.06530E+00    9.95520E+02
 6.37630E+00    9.60102E+02
 6.59240E+00    9.42564E+02
 6.70320E+00    9.20863E+02
 7.04690E+00    8.91977E+02
 7.40820E+00    8.67005E+02
 7.78800E+00    8.46426E+02
 8.18730E+00    8.24637E+02
 8.60710E+00    7.96605E+02
 9.04840E+00    7.67593E+02
 9.51230E+00    7.38783E+02
 1.00000E+01    7.16566E+02
 1.05130E+01    7.00847E+02
 1.10520E+01    6.90418E+02
 1.16180E+01    6.83440E+02
 1.22140E+01    6.79595E+02
 1.28400E+01    6.77698E+02
 1.34990E+01    6.78188E+02
 1.38400E+01    6.78755E+02
 1.41910E+01    6.80104E+02
 1.45500E+01    6.81606E+02
 1.49180E+01    6.84272E+02
 1.56830E+01    6.88475E+02
 1.64870E+01    6.93610E+02
