# n + Mg 26 :  n        
# jendl4.0   M.HATCHYA(DEC),T.ASAMI(NEDAC)     EVAL-MAR87
# uncertainties: n
# # energies =   100
#   E(MeV)       xs(mb) 
 8.31057E+00    0.00000E+00
 8.31316E+00    7.09761E-01
 8.31831E+00    2.12373E+00
 8.32344E+00    3.52666E+00
 8.33360E+00    6.31059E+00
 8.34363E+00    9.05102E+00
 8.35351E+00    1.17486E+01
 8.36324E+00    1.44041E+01
 8.38244E+00    1.96320E+01
 8.40108E+00    2.46966E+01
 8.41918E+00    2.96029E+01
 8.43675E+00    3.43559E+01
 8.45381E+00    3.89603E+01
 8.47036E+00    4.34209E+01
 8.50253E+00    5.20632E+01
 8.53280E+00    6.01654E+01
 8.56128E+00    6.77612E+01
 8.58806E+00    7.48822E+01
 8.61325E+00    8.15582E+01
 8.66067E+00    9.40757E+01
 8.70237E+00    1.05028E+02
 8.73903E+00    1.14612E+02
 8.77123E+00    1.22998E+02
 8.82788E+00    1.37673E+02
 8.87059E+00    1.48679E+02
 8.93506E+00    1.65189E+02
 9.00000E+00    1.81698E+02
 9.05946E+00    2.04609E+02
 9.11556E+00    2.26088E+02
 9.16847E+00    2.46224E+02
 9.21836E+00    2.65102E+02
 9.26537E+00    2.82800E+02
 9.30966E+00    2.99392E+02
 9.35137E+00    3.14947E+02
 9.43009E+00    3.44112E+02
 9.49951E+00    3.69632E+02
 9.56068E+00    3.91962E+02
 9.61452E+00    4.11500E+02
 9.70947E+00    4.45693E+02
 9.78131E+00    4.71337E+02
 9.83553E+00    4.90570E+02
 9.91742E+00    5.19420E+02
 1.00000E+01    5.48270E+02
 1.01199E+01    5.74931E+02
 1.02259E+01    5.98259E+02
 1.03196E+01    6.18671E+02
 1.04023E+01    6.36532E+02
 1.05486E+01    6.67788E+02
 1.06597E+01    6.91230E+02
 1.08285E+01    7.26393E+02
 1.10000E+01    7.61556E+02
 1.12419E+01    7.87953E+02
 1.14268E+01    8.07751E+02
 1.15675E+01    8.22600E+02
 1.17818E+01    8.44872E+02
 1.20000E+01    8.67145E+02
 1.22425E+01    8.40373E+02
 1.24277E+01    8.20294E+02
 1.25683E+01    8.05235E+02
 1.27824E+01    7.82646E+02
 1.30000E+01    7.60057E+02
 1.31210E+01    7.37835E+02
 1.32278E+01    7.18390E+02
 1.34167E+01    6.84363E+02
 1.35602E+01    6.58842E+02
 1.36689E+01    6.39702E+02
 1.38334E+01    6.10991E+02
 1.40000E+01    5.82280E+02
 1.41213E+01    5.62023E+02
 1.42282E+01    5.44298E+02
 1.44174E+01    5.13280E+02
 1.45609E+01    4.90016E+02
 1.46694E+01    4.72568E+02
 1.48338E+01    4.46397E+02
 1.50000E+01    4.20225E+02
 1.51215E+01    4.07429E+02
 1.53365E+01    3.85036E+02
 1.54997E+01    3.68241E+02
 1.56233E+01    3.55645E+02
 1.58105E+01    3.36751E+02
 1.60000E+01    3.17857E+02
 1.61217E+01    3.09243E+02
 1.63369E+01    2.94170E+02
 1.65002E+01    2.82865E+02
 1.66238E+01    2.74386E+02
 1.68108E+01    2.61667E+02
 1.70000E+01    2.48949E+02
 1.72447E+01    2.37496E+02
 1.74305E+01    2.28906E+02
 1.75711E+01    2.22463E+02
 1.77843E+01    2.12800E+02
 1.80000E+01    2.03136E+02
 1.82450E+01    1.95426E+02
 1.84309E+01    1.89644E+02
 1.87133E+01    1.80970E+02
 1.90000E+01    1.72297E+02
 1.92452E+01    1.66706E+02
 1.94312E+01    1.62512E+02
 1.97135E+01    1.56222E+02
 2.00000E+01    1.49932E+02
