# n + Mn 55 : (n,n'09)  
# jendl4.0   K.Shibata,T.Hojuyama              EVAL-MAR87
# uncertainties: y
# # energies =    30
#   E(MeV)       xs(mb)       xslow(mb)      xsupp(mb)
 2.23835E+00    0.00000E+00    0.00000E+00    0.00000E+00
 2.25000E+00    1.55544E+01    1.55544E+01    1.55544E+01
 2.50000E+00    4.92569E+01    4.92569E+01    4.92569E+01
 2.75000E+00    6.31692E+01    6.31692E+01    6.31692E+01
 3.00000E+00    6.75136E+01    6.75136E+01    6.75136E+01
 3.50000E+00    6.27028E+01    6.27028E+01    6.27028E+01
 4.00000E+00    5.03135E+01    5.03135E+01    5.03135E+01
 4.50000E+00    3.92965E+01    3.92965E+01    3.92965E+01
 5.00000E+00    2.93897E+01    2.93897E+01    2.93897E+01
 5.50000E+00    2.18455E+01    2.18455E+01    2.18455E+01
 6.00000E+00    1.59997E+01    1.59997E+01    1.59997E+01
 6.50000E+00    1.18098E+01    1.18098E+01    1.18098E+01
 7.00000E+00    8.55160E+00    8.55160E+00    8.55160E+00
 7.50000E+00    6.25630E+00    6.25630E+00    6.25630E+00
 8.00000E+00    4.60810E+00    4.60810E+00    4.60810E+00
 8.50000E+00    3.43190E+00    3.43190E+00    3.43190E+00
 9.00000E+00    2.62300E+00    2.62300E+00    2.62300E+00
 9.50000E+00    2.06520E+00    2.06520E+00    2.06520E+00
 1.00000E+01    1.66980E+00    1.66980E+00    1.66980E+00
 1.10000E+01    1.18160E+00    1.18160E+00    1.18160E+00
 1.20000E+01    9.19500E-01    9.19500E-01    9.19500E-01
 1.30000E+01    7.61800E-01    7.61800E-01    7.61800E-01
 1.40000E+01    6.57000E-01    6.57000E-01    6.57000E-01
 1.45000E+01    6.12900E-01    6.12900E-01    6.12900E-01
 1.50000E+01    5.73800E-01    5.73800E-01    5.73800E-01
 1.60000E+01    5.07600E-01    5.07600E-01    5.07600E-01
 1.70000E+01    4.52400E-01    4.52400E-01    4.52400E-01
 1.80000E+01    4.05700E-01    4.05700E-01    4.05700E-01
 1.90000E+01    3.66200E-01    3.66200E-01    3.66200E-01
 2.00000E+01    3.32200E-01    3.32200E-01    3.32200E-01
