# n + Mn 55 : (n,n'13)  
# jendl4.0   K.Shibata,T.Hojuyama              EVAL-MAR87
# uncertainties: y
# # energies =    29
#   E(MeV)       xs(mb)       xslow(mb)      xsupp(mb)
 2.35445E+00    0.00000E+00    0.00000E+00    0.00000E+00
 2.50000E+00    4.53820E+00    4.53820E+00    4.53820E+00
 2.75000E+00    1.12743E+01    1.12743E+01    1.12743E+01
 3.00000E+00    1.72923E+01    1.72923E+01    1.72923E+01
 3.50000E+00    2.29534E+01    2.29534E+01    2.29534E+01
 4.00000E+00    2.21428E+01    2.21428E+01    2.21428E+01
 4.50000E+00    1.91589E+01    1.91589E+01    1.91589E+01
 5.00000E+00    1.53668E+01    1.53668E+01    1.53668E+01
 5.50000E+00    1.22821E+01    1.22821E+01    1.22821E+01
 6.00000E+00    9.55860E+00    9.55860E+00    9.55860E+00
 6.50000E+00    7.42950E+00    7.42950E+00    7.42950E+00
 7.00000E+00    5.63230E+00    5.63230E+00    5.63230E+00
 7.50000E+00    4.31110E+00    4.31110E+00    4.31110E+00
 8.00000E+00    3.31720E+00    3.31720E+00    3.31720E+00
 8.50000E+00    2.57580E+00    2.57580E+00    2.57580E+00
 9.00000E+00    2.04900E+00    2.04900E+00    2.04900E+00
 9.50000E+00    1.67530E+00    1.67530E+00    1.67530E+00
 1.00000E+01    1.40230E+00    1.40230E+00    1.40230E+00
 1.10000E+01    1.05240E+00    1.05240E+00    1.05240E+00
 1.20000E+01    8.57700E-01    8.57700E-01    8.57700E-01
 1.30000E+01    7.37600E-01    7.37600E-01    7.37600E-01
 1.40000E+01    6.56700E-01    6.56700E-01    6.56700E-01
 1.45000E+01    6.21600E-01    6.21600E-01    6.21600E-01
 1.50000E+01    5.90300E-01    5.90300E-01    5.90300E-01
 1.60000E+01    5.36800E-01    5.36800E-01    5.36800E-01
 1.70000E+01    4.91300E-01    4.91300E-01    4.91300E-01
 1.80000E+01    4.51900E-01    4.51900E-01    4.51900E-01
 1.90000E+01    4.17700E-01    4.17700E-01    4.17700E-01
 2.00000E+01    3.87400E-01    3.87400E-01    3.87400E-01
