# n + Sm154 : (n,n'18)  
# jendl4.0   N.Iwamoto                         EVAL-Nov09
# uncertainties: n
# # energies =    66
#   E(MeV)       xs(mb) 
 1.37998E+00    0.00000E+00
 1.40000E+00    6.29241E+00
 1.44038E+00    1.16699E+01
 1.44949E+00    1.27696E+01
 1.48178E+00    1.65824E+01
 1.48467E+00    1.67194E+01
 1.48538E+00    1.67801E+01
 1.50000E+00    1.82261E+01
 1.52512E+00    2.09756E+01
 1.54935E+00    2.35402E+01
 1.58694E+00    2.72301E+01
 1.59493E+00    2.80954E+01
 1.60000E+00    2.84401E+01
 1.62540E+00    3.10200E+01
 1.67279E+00    3.56644E+01
 1.67580E+00    3.58533E+01
 1.68480E+00    3.63595E+01
 1.70000E+00    3.76364E+01
 1.71800E+00    3.92724E+01
 1.75241E+00    4.20775E+01
 1.76614E+00    4.33664E+01
 1.76740E+00    4.34857E+01
 1.77153E+00    4.38791E+01
 1.77596E+00    4.43054E+01
 1.78587E+00    4.50907E+01
 1.80000E+00    4.61215E+01
 1.90000E+00    5.19803E+01
 2.00000E+00    5.54523E+01
 2.25000E+00    5.40927E+01
 2.50000E+00    4.41405E+01
 2.75000E+00    3.54582E+01
 3.00000E+00    2.61182E+01
 3.50000E+00    1.41225E+01
 4.00000E+00    7.52658E+00
 4.50000E+00    3.95058E+00
 5.00000E+00    2.16277E+00
 5.50000E+00    1.28145E+00
 6.00000E+00    8.47820E-01
 6.50000E+00    6.29035E-01
 7.00000E+00    5.12049E-01
 7.50000E+00    4.42662E-01
 8.00000E+00    3.95839E-01
 8.50000E+00    3.60060E-01
 9.00000E+00    3.30328E-01
 9.50000E+00    3.04616E-01
 1.00000E+01    2.82059E-01
 1.05000E+01    2.62216E-01
 1.10000E+01    2.44711E-01
 1.15000E+01    2.29242E-01
 1.20000E+01    2.15430E-01
 1.25000E+01    2.02971E-01
 1.30000E+01    1.91639E-01
 1.35000E+01    1.81249E-01
 1.40000E+01    1.71651E-01
 1.45000E+01    1.62753E-01
 1.50000E+01    1.54472E-01
 1.55000E+01    1.46663E-01
 1.60000E+01    1.39060E-01
 1.65000E+01    1.32583E-01
 1.70000E+01    1.26660E-01
 1.75000E+01    1.20687E-01
 1.80000E+01    1.14883E-01
 1.85000E+01    1.09634E-01
 1.90000E+01    1.05087E-01
 1.95000E+01    1.00823E-01
 2.00000E+01    9.66386E-02
