# n + Sm154 : (n,n'34)  
# jendl4.0   N.Iwamoto                         EVAL-Nov09
# uncertainties: n
# # energies =    46
#   E(MeV)       xs(mb) 
 1.76614E+00    0.00000E+00
 1.76740E+00    3.35600E+00
 1.77153E+00    6.33967E+00
 1.77596E+00    8.13387E+00
 1.78587E+00    1.04560E+01
 1.80000E+00    1.27427E+01
 1.90000E+00    2.01793E+01
 2.00000E+00    2.29556E+01
 2.25000E+00    2.39874E+01
 2.50000E+00    1.94041E+01
 2.75000E+00    1.51709E+01
 3.00000E+00    1.04764E+01
 3.50000E+00    4.93559E+00
 4.00000E+00    2.35020E+00
 4.50000E+00    1.15248E+00
 5.00000E+00    6.18249E-01
 5.50000E+00    3.75305E-01
 6.00000E+00    2.61529E-01
 6.50000E+00    2.05280E-01
 7.00000E+00    1.74695E-01
 7.50000E+00    1.55640E-01
 8.00000E+00    1.41912E-01
 8.50000E+00    1.30759E-01
 9.00000E+00    1.21020E-01
 9.50000E+00    1.12269E-01
 1.00000E+01    1.04369E-01
 1.05000E+01    9.72763E-02
 1.10000E+01    9.09326E-02
 1.15000E+01    8.52752E-02
 1.20000E+01    8.02199E-02
 1.25000E+01    7.56485E-02
 1.30000E+01    7.14953E-02
 1.35000E+01    6.76921E-02
 1.40000E+01    6.41807E-02
 1.45000E+01    6.09229E-02
 1.50000E+01    5.78869E-02
 1.55000E+01    5.50238E-02
 1.60000E+01    5.22126E-02
 1.65000E+01    4.98390E-02
 1.70000E+01    4.76367E-02
 1.75000E+01    4.54421E-02
 1.80000E+01    4.32843E-02
 1.85000E+01    4.13286E-02
 1.90000E+01    3.96438E-02
 1.95000E+01    3.80574E-02
 2.00000E+01    3.64960E-02
