# n + Sm154 : (n,n'12)  
# jendl4.0   N.Iwamoto                         EVAL-Nov09
# uncertainties: n
# # energies =    73
#   E(MeV)       xs(mb) 
 1.21026E+00    0.00000E+00
 1.29479E+00    6.49176E+01
 1.30000E+00    6.62446E+01
 1.30349E+00    6.71241E+01
 1.34153E+00    7.41040E+01
 1.34641E+00    7.48461E+01
 1.37394E+00    7.85086E+01
 1.37998E+00    7.90741E+01
 1.40000E+00    8.08003E+01
 1.44038E+00    8.38590E+01
 1.44949E+00    8.44788E+01
 1.48178E+00    8.52859E+01
 1.48467E+00    8.53313E+01
 1.48538E+00    8.53423E+01
 1.50000E+00    8.38729E+01
 1.52512E+00    8.33370E+01
 1.54935E+00    8.21773E+01
 1.58694E+00    8.11227E+01
 1.59493E+00    8.09959E+01
 1.60000E+00    8.09130E+01
 1.62540E+00    8.00748E+01
 1.67279E+00    7.59196E+01
 1.67580E+00    7.57745E+01
 1.68480E+00    7.53546E+01
 1.70000E+00    7.34994E+01
 1.71800E+00    7.25275E+01
 1.75241E+00    7.11724E+01
 1.76614E+00    7.07302E+01
 1.76740E+00    7.03946E+01
 1.77153E+00    6.95161E+01
 1.77596E+00    6.90637E+01
 1.78587E+00    6.77561E+01
 1.80000E+00    6.68310E+01
 1.90000E+00    6.09750E+01
 2.00000E+00    5.45518E+01
 2.25000E+00    4.17915E+01
 2.50000E+00    2.79583E+01
 2.75000E+00    1.93956E+01
 3.00000E+00    1.31634E+01
 3.50000E+00    6.17731E+00
 4.00000E+00    3.15105E+00
 4.50000E+00    1.76292E+00
 5.00000E+00    1.13048E+00
 5.50000E+00    8.27372E-01
 6.00000E+00    6.71214E-01
 6.50000E+00    5.81211E-01
 7.00000E+00    5.21384E-01
 7.50000E+00    4.75447E-01
 8.00000E+00    4.36454E-01
 8.50000E+00    4.01706E-01
 9.00000E+00    3.70327E-01
 9.50000E+00    3.42110E-01
 1.00000E+01    3.16942E-01
 1.05000E+01    2.94656E-01
 1.10000E+01    2.74945E-01
 1.15000E+01    2.57512E-01
 1.20000E+01    2.41917E-01
 1.25000E+01    2.27830E-01
 1.30000E+01    2.15004E-01
 1.35000E+01    2.03237E-01
 1.40000E+01    1.92367E-01
 1.45000E+01    1.82296E-01
 1.50000E+01    1.72933E-01
 1.55000E+01    1.64034E-01
 1.60000E+01    1.55462E-01
 1.65000E+01    1.48202E-01
 1.70000E+01    1.41450E-01
 1.75000E+01    1.34760E-01
 1.80000E+01    1.28292E-01
 1.85000E+01    1.22318E-01
 1.90000E+01    1.17212E-01
 1.95000E+01    1.12460E-01
 2.00000E+01    1.07801E-01
