# n + Sm154 : (n,n'03)  
# jendl4.0   N.Iwamoto                         EVAL-Nov09
# uncertainties: n
# # energies =    89
#   E(MeV)       xs(mb) 
 5.47293E-01    0.00000E+00
 6.00000E-01    2.71227E-02
 7.00000E-01    3.13840E-01
 8.00000E-01    1.15168E+00
 9.00000E-01    2.72273E+00
 9.08555E-01    2.90549E+00
 9.27438E-01    3.33746E+00
 1.00000E+00    5.23348E+00
 1.01902E+00    5.81869E+00
 1.10000E+00    8.12724E+00
 1.10653E+00    8.35757E+00
 1.11124E+00    8.52582E+00
 1.12734E+00    8.93775E+00
 1.18553E+00    1.04812E+01
 1.18839E+00    1.05302E+01
 1.20000E+00    1.07394E+01
 1.21026E+00    1.09569E+01
 1.29479E+00    1.30779E+01
 1.30000E+00    1.31996E+01
 1.30349E+00    1.32952E+01
 1.34153E+00    1.43277E+01
 1.34641E+00    1.44703E+01
 1.37394E+00    1.44910E+01
 1.37998E+00    1.45253E+01
 1.40000E+00    1.43026E+01
 1.44038E+00    1.50275E+01
 1.44949E+00    1.52383E+01
 1.48178E+00    1.59768E+01
 1.48467E+00    1.58182E+01
 1.48538E+00    1.58113E+01
 1.50000E+00    1.59421E+01
 1.52512E+00    1.64276E+01
 1.54935E+00    1.69483E+01
 1.58694E+00    1.75372E+01
 1.59493E+00    1.76987E+01
 1.60000E+00    1.77480E+01
 1.62540E+00    1.82057E+01
 1.67279E+00    1.91393E+01
 1.67580E+00    1.91688E+01
 1.68480E+00    1.90119E+01
 1.70000E+00    1.91270E+01
 1.71800E+00    1.93443E+01
 1.75241E+00    1.93952E+01
 1.76614E+00    1.95530E+01
 1.76740E+00    1.95684E+01
 1.77153E+00    1.96200E+01
 1.77596E+00    1.96778E+01
 1.78587E+00    1.98187E+01
 1.80000E+00    1.99975E+01
 1.90000E+00    2.08609E+01
 2.00000E+00    2.10138E+01
 2.25000E+00    2.09313E+01
 2.50000E+00    1.81334E+01
 2.75000E+00    1.61606E+01
 3.00000E+00    1.30945E+01
 3.50000E+00    9.12090E+00
 4.00000E+00    6.59574E+00
 4.50000E+00    5.06831E+00
 5.00000E+00    4.25363E+00
 5.50000E+00    3.80849E+00
 6.00000E+00    3.53946E+00
 6.50000E+00    3.33695E+00
 7.00000E+00    3.16549E+00
 7.50000E+00    3.01993E+00
 8.00000E+00    2.90763E+00
 8.50000E+00    2.83437E+00
 9.00000E+00    2.79375E+00
 9.50000E+00    2.77837E+00
 1.00000E+01    2.77637E+00
 1.05000E+01    2.78083E+00
 1.10000E+01    2.78819E+00
 1.15000E+01    2.79945E+00
 1.20000E+01    2.81856E+00
 1.25000E+01    2.85023E+00
 1.30000E+01    2.89772E+00
 1.35000E+01    2.96134E+00
 1.40000E+01    3.03832E+00
 1.45000E+01    3.12380E+00
 1.50000E+01    3.21234E+00
 1.55000E+01    3.29929E+00
 1.60000E+01    3.38133E+00
 1.65000E+01    3.45638E+00
 1.70000E+01    3.52324E+00
 1.75000E+01    3.58123E+00
 1.80000E+01    3.63018E+00
 1.85000E+01    3.67043E+00
 1.90000E+01    3.70292E+00
 1.95000E+01    3.72905E+00
 2.00000E+01    3.75038E+00
