# n + Sm154 :  n        
# jendl4.0   N.Iwamoto                         EVAL-Nov09
# uncertainties: n
# # energies =   107
#   E(MeV)       xs(mb) 
 1.05000E-01    0.00000E+00
 1.10000E-01    2.36314E-03
 1.20000E-01    2.87892E-03
 1.30000E-01    3.09537E-03
 1.40000E-01    3.21228E-03
 1.50000E-01    3.29220E-03
 1.60000E-01    3.37561E-03
 1.70000E-01    3.45098E-03
 1.80000E-01    3.51592E-03
 1.90000E-01    5.73180E-03
 2.00000E-01    5.92175E-03
 2.25000E-01    1.93424E-02
 2.50000E-01    2.16024E-02
 2.68538E-01    2.27972E-02
 2.75000E-01    2.31235E-02
 3.00000E-01    3.68026E-02
 4.00000E-01    1.15524E-01
 5.00000E-01    2.70514E-01
 5.47293E-01    3.99107E-01
 6.00000E-01    5.45812E-01
 7.00000E-01    9.80125E-01
 8.00000E-01    1.64554E+00
 9.00000E-01    2.58966E+00
 9.08555E-01    2.76334E+00
 9.27438E-01    3.02685E+00
 1.00000E+00    3.44385E+00
 1.01902E+00    3.80427E+00
 1.10000E+00    4.51186E+00
 1.10653E+00    4.59546E+00
 1.11124E+00    4.72556E+00
 1.12734E+00    4.91170E+00
 1.18553E+00    5.18690E+00
 1.18839E+00    5.10485E+00
 1.20000E+00    5.42866E+00
 1.21026E+00    5.60846E+00
 1.29479E+00    6.40577E+00
 1.30000E+00    6.38916E+00
 1.30349E+00    6.41391E+00
 1.34153E+00    6.63284E+00
 1.34641E+00    6.64690E+00
 1.37394E+00    6.69369E+00
 1.37998E+00    6.69406E+00
 1.40000E+00    7.04556E+00
 1.44038E+00    7.59814E+00
 1.44949E+00    7.65226E+00
 1.48178E+00    7.65917E+00
 1.48467E+00    7.66153E+00
 1.48538E+00    7.66324E+00
 1.50000E+00    7.91513E+00
 1.52512E+00    8.31687E+00
 1.54935E+00    8.38262E+00
 1.58694E+00    8.44757E+00
 1.59493E+00    8.71278E+00
 1.60000E+00    8.77309E+00
 1.62540E+00    9.21399E+00
 1.67279E+00    9.49080E+00
 1.67580E+00    9.49309E+00
 1.68480E+00    9.55701E+00
 1.70000E+00    9.89710E+00
 1.71800E+00    1.02675E+01
 1.75241E+00    1.06438E+01
 1.76614E+00    1.07432E+01
 1.76740E+00    1.07423E+01
 1.77153E+00    1.07462E+01
 1.77596E+00    1.07661E+01
 1.78587E+00    1.08544E+01
 1.80000E+00    1.12474E+01
 1.90000E+00    7.97312E+01
 2.00000E+00    2.30316E+02
 2.25000E+00    6.07763E+02
 2.50000E+00    1.13596E+03
 2.75000E+00    1.48620E+03
 3.00000E+00    1.82012E+03
 3.50000E+00    2.19527E+03
 4.00000E+00    2.36942E+03
 4.50000E+00    2.44417E+03
 5.00000E+00    2.47069E+03
 5.50000E+00    2.47725E+03
 6.00000E+00    2.47611E+03
 6.50000E+00    2.46876E+03
 7.00000E+00    2.45516E+03
 7.50000E+00    2.43542E+03
 8.00000E+00    2.41169E+03
 8.50000E+00    2.04548E+03
 9.00000E+00    1.44366E+03
 9.50000E+00    9.85103E+02
 1.00000E+01    6.99167E+02
 1.05000E+01    5.29218E+02
 1.10000E+01    4.24260E+02
 1.15000E+01    3.57981E+02
 1.20000E+01    3.14077E+02
 1.25000E+01    2.83259E+02
 1.30000E+01    2.60477E+02
 1.35000E+01    2.41770E+02
 1.40000E+01    2.26145E+02
 1.45000E+01    2.12626E+02
 1.50000E+01    2.00790E+02
 1.55000E+01    1.90568E+02
 1.60000E+01    1.80252E+02
 1.65000E+01    1.71708E+02
 1.70000E+01    1.63826E+02
 1.75000E+01    1.56429E+02
 1.80000E+01    1.49499E+02
 1.85000E+01    1.43323E+02
 1.90000E+01    1.37197E+02
 1.95000E+01    1.31882E+02
 2.00000E+01    1.26754E+02
