# n + Sm154 : (n,n'01)  
# jendl4.0   N.Iwamoto                         EVAL-Nov09
# uncertainties: n
# # energies =   109
#   E(MeV)       xs(mb) 
 8.25132E-02    0.00000E+00
 9.00000E-02    1.46280E+02
 1.00000E-01    2.41961E+02
 1.10000E-01    3.25073E+02
 1.20000E-01    3.97419E+02
 1.30000E-01    4.61005E+02
 1.40000E-01    5.19121E+02
 1.50000E-01    5.72174E+02
 1.60000E-01    6.20954E+02
 1.70000E-01    6.67436E+02
 1.80000E-01    7.11856E+02
 1.90000E-01    7.52339E+02
 2.00000E-01    7.90825E+02
 2.25000E-01    8.82355E+02
 2.50000E-01    9.65580E+02
 2.68538E-01    1.02291E+03
 2.75000E-01    1.04194E+03
 3.00000E-01    1.11222E+03
 4.00000E-01    1.32503E+03
 5.00000E-01    1.47217E+03
 5.47293E-01    1.51397E+03
 6.00000E-01    1.55176E+03
 7.00000E-01    1.60234E+03
 8.00000E-01    1.61426E+03
 9.00000E-01    1.61253E+03
 9.08555E-01    1.61279E+03
 9.27438E-01    1.61321E+03
 1.00000E+00    1.51340E+03
 1.01902E+00    1.50143E+03
 1.10000E+00    1.42219E+03
 1.10653E+00    1.41670E+03
 1.11124E+00    1.40255E+03
 1.12734E+00    1.37820E+03
 1.18553E+00    1.31218E+03
 1.18839E+00    1.28841E+03
 1.20000E+00    1.25840E+03
 1.21026E+00    1.24054E+03
 1.29479E+00    1.12811E+03
 1.30000E+00    1.10590E+03
 1.30349E+00    1.09864E+03
 1.34153E+00    1.01716E+03
 1.34641E+00    1.01106E+03
 1.37394E+00    9.79863E+02
 1.37998E+00    9.71628E+02
 1.40000E+00    9.49645E+02
 1.44038E+00    9.12692E+02
 1.44949E+00    9.05199E+02
 1.48178E+00    8.63233E+02
 1.48467E+00    8.60337E+02
 1.48538E+00    8.59667E+02
 1.50000E+00    8.40312E+02
 1.52512E+00    8.17137E+02
 1.54935E+00    7.92210E+02
 1.58694E+00    7.56347E+02
 1.59493E+00    7.50386E+02
 1.60000E+00    7.45920E+02
 1.62540E+00    7.27230E+02
 1.67279E+00    6.93036E+02
 1.67580E+00    6.91016E+02
 1.68480E+00    6.85084E+02
 1.70000E+00    6.73742E+02
 1.71800E+00    6.63127E+02
 1.75241E+00    6.44378E+02
 1.76614E+00    6.37673E+02
 1.76740E+00    6.36542E+02
 1.77153E+00    6.33231E+02
 1.77596E+00    6.30587E+02
 1.78587E+00    6.24232E+02
 1.80000E+00    6.16894E+02
 1.90000E+00    5.68449E+02
 2.00000E+00    5.23208E+02
 2.25000E+00    4.43951E+02
 2.50000E+00    3.81750E+02
 2.75000E+00    3.47384E+02
 3.00000E+00    3.19679E+02
 3.50000E+00    2.91643E+02
 4.00000E+00    2.77126E+02
 4.50000E+00    2.67753E+02
 5.00000E+00    2.61055E+02
 5.50000E+00    2.56050E+02
 6.00000E+00    2.52099E+02
 6.50000E+00    2.48472E+02
 7.00000E+00    2.44469E+02
 7.50000E+00    2.39597E+02
 8.00000E+00    2.33852E+02
 8.50000E+00    2.27381E+02
 9.00000E+00    2.20569E+02
 9.50000E+00    2.13745E+02
 1.00000E+01    2.07162E+02
 1.05000E+01    2.00981E+02
 1.10000E+01    1.95234E+02
 1.15000E+01    1.89881E+02
 1.20000E+01    1.84846E+02
 1.25000E+01    1.80054E+02
 1.30000E+01    1.75456E+02
 1.35000E+01    1.71029E+02
 1.40000E+01    1.66777E+02
 1.45000E+01    1.62719E+02
 1.50000E+01    1.58876E+02
 1.55000E+01    1.55268E+02
 1.60000E+01    1.51905E+02
 1.65000E+01    1.48789E+02
 1.70000E+01    1.45915E+02
 1.75000E+01    1.43270E+02
 1.80000E+01    1.40837E+02
 1.85000E+01    1.38595E+02
 1.90000E+01    1.36526E+02
 1.95000E+01    1.34609E+02
 2.00000E+01    1.32829E+02
