# n + Sm154 : (n,n'13)  
# jendl4.0   N.Iwamoto                         EVAL-Nov09
# uncertainties: n
# # energies =    72
#   E(MeV)       xs(mb) 
 1.29479E+00    0.00000E+00
 1.30000E+00    5.15628E+01
 1.30349E+00    6.38179E+01
 1.34153E+00    1.14960E+02
 1.34641E+00    1.18933E+02
 1.37394E+00    1.37164E+02
 1.37998E+00    1.40178E+02
 1.40000E+00    1.49366E+02
 1.44038E+00    1.63012E+02
 1.44949E+00    1.65778E+02
 1.48178E+00    1.67082E+02
 1.48467E+00    1.67472E+02
 1.48538E+00    1.67571E+02
 1.50000E+00    1.67766E+02
 1.52512E+00    1.70325E+02
 1.54935E+00    1.71044E+02
 1.58694E+00    1.69634E+02
 1.59493E+00    1.69820E+02
 1.60000E+00    1.69677E+02
 1.62540E+00    1.70033E+02
 1.67279E+00    1.70703E+02
 1.67580E+00    1.70716E+02
 1.68480E+00    1.70835E+02
 1.70000E+00    1.70298E+02
 1.71800E+00    1.69584E+02
 1.75241E+00    1.68329E+02
 1.76614E+00    1.67945E+02
 1.76740E+00    1.67779E+02
 1.77153E+00    1.67323E+02
 1.77596E+00    1.67053E+02
 1.78587E+00    1.66315E+02
 1.80000E+00    1.65653E+02
 1.90000E+00    1.59012E+02
 2.00000E+00    1.45296E+02
 2.25000E+00    1.15179E+02
 2.50000E+00    8.06755E+01
 2.75000E+00    5.82814E+01
 3.00000E+00    3.92790E+01
 3.50000E+00    1.86034E+01
 4.00000E+00    9.00917E+00
 4.50000E+00    4.43333E+00
 5.00000E+00    2.34594E+00
 5.50000E+00    1.38521E+00
 6.00000E+00    9.34124E-01
 6.50000E+00    7.12619E-01
 7.00000E+00    5.93930E-01
 7.50000E+00    5.21402E-01
 8.00000E+00    4.70100E-01
 8.50000E+00    4.29247E-01
 9.00000E+00    3.94407E-01
 9.50000E+00    3.63889E-01
 1.00000E+01    3.36972E-01
 1.05000E+01    3.13248E-01
 1.10000E+01    2.92306E-01
 1.15000E+01    2.73802E-01
 1.20000E+01    2.57263E-01
 1.25000E+01    2.42335E-01
 1.30000E+01    2.28750E-01
 1.35000E+01    2.16291E-01
 1.40000E+01    2.04781E-01
 1.45000E+01    1.94113E-01
 1.50000E+01    1.84192E-01
 1.55000E+01    1.74803E-01
 1.60000E+01    1.65744E-01
 1.65000E+01    1.57968E-01
 1.70000E+01    1.50847E-01
 1.75000E+01    1.43778E-01
 1.80000E+01    1.36804E-01
 1.85000E+01    1.30498E-01
 1.90000E+01    1.25108E-01
 1.95000E+01    1.20033E-01
 2.00000E+01    1.15006E-01
