# n + Sm154 : (n,n'06)  
# jendl4.0   N.Iwamoto                         EVAL-Nov09
# uncertainties: n
# # energies =    81
#   E(MeV)       xs(mb) 
 1.01902E+00    0.00000E+00
 1.10000E+00    8.96071E+01
 1.10653E+00    9.46655E+01
 1.11124E+00    9.82914E+01
 1.12734E+00    1.06719E+02
 1.18553E+00    1.37364E+02
 1.18839E+00    1.36048E+02
 1.20000E+00    1.38945E+02
 1.21026E+00    1.42389E+02
 1.29479E+00    1.70865E+02
 1.30000E+00    1.69210E+02
 1.30349E+00    1.69416E+02
 1.34153E+00    1.69323E+02
 1.34641E+00    1.69944E+02
 1.37394E+00    1.73161E+02
 1.37998E+00    1.71665E+02
 1.40000E+00    1.72209E+02
 1.44038E+00    1.74224E+02
 1.44949E+00    1.74545E+02
 1.48178E+00    1.71777E+02
 1.48467E+00    1.71624E+02
 1.48538E+00    1.71607E+02
 1.50000E+00    1.69502E+02
 1.52512E+00    1.68618E+02
 1.54935E+00    1.65886E+02
 1.58694E+00    1.62671E+02
 1.59493E+00    1.62459E+02
 1.60000E+00    1.61358E+02
 1.62540E+00    1.59876E+02
 1.67279E+00    1.57377E+02
 1.67580E+00    1.56819E+02
 1.68480E+00    1.55695E+02
 1.70000E+00    1.54224E+02
 1.71800E+00    1.52804E+02
 1.75241E+00    1.50039E+02
 1.76614E+00    1.49131E+02
 1.76740E+00    1.49036E+02
 1.77153E+00    1.48728E+02
 1.77596E+00    1.48429E+02
 1.78587E+00    1.47767E+02
 1.80000E+00    1.46844E+02
 1.90000E+00    1.37726E+02
 2.00000E+00    1.26198E+02
 2.25000E+00    9.89373E+01
 2.50000E+00    6.95469E+01
 2.75000E+00    5.14740E+01
 3.00000E+00    3.56354E+01
 3.50000E+00    1.78226E+01
 4.00000E+00    8.98431E+00
 4.50000E+00    4.50783E+00
 5.00000E+00    2.37406E+00
 5.50000E+00    1.35976E+00
 6.00000E+00    8.74511E-01
 6.50000E+00    6.35418E-01
 7.00000E+00    5.09981E-01
 7.50000E+00    4.36557E-01
 8.00000E+00    3.87432E-01
 8.50000E+00    3.50249E-01
 9.00000E+00    3.19749E-01
 9.50000E+00    2.93753E-01
 1.00000E+01    2.71250E-01
 1.05000E+01    2.51840E-01
 1.10000E+01    2.34906E-01
 1.15000E+01    2.19881E-01
 1.20000E+01    2.06395E-01
 1.25000E+01    1.94132E-01
 1.30000E+01    1.82885E-01
 1.35000E+01    1.72513E-01
 1.40000E+01    1.63106E-01
 1.45000E+01    1.54407E-01
 1.50000E+01    1.46335E-01
 1.55000E+01    1.38779E-01
 1.60000E+01    1.31326E-01
 1.65000E+01    1.25134E-01
 1.70000E+01    1.20014E-01
 1.75000E+01    1.13643E-01
 1.80000E+01    1.08085E-01
 1.85000E+01    1.03082E-01
 1.90000E+01    9.91034E-02
 1.95000E+01    9.57198E-02
 2.00000E+01    9.06810E-02
