# n + Sm154 : (n,n')    
# jendl4.0   N.Iwamoto                         EVAL-Nov09
# uncertainties: n
# # energies =   112
#   E(MeV)       xs(mb) 
 8.25132E-02    0.00000E+00
 9.00000E-02    1.46280E+02
 1.00000E-01    2.41961E+02
 1.05000E-01    2.83517E+02
 1.10000E-01    3.25075E+02
 1.20000E-01    3.97422E+02
 1.30000E-01    4.61008E+02
 1.40000E-01    5.19124E+02
 1.50000E-01    5.72177E+02
 1.60000E-01    6.20957E+02
 1.70000E-01    6.67440E+02
 1.80000E-01    7.11859E+02
 1.90000E-01    7.52345E+02
 2.00000E-01    7.90831E+02
 2.25000E-01    8.82374E+02
 2.50000E-01    9.65602E+02
 2.68538E-01    1.02293E+03
 2.75000E-01    1.04267E+03
 3.00000E-01    1.11562E+03
 4.00000E-01    1.35349E+03
 5.00000E-01    1.55049E+03
 5.47293E-01    1.62124E+03
 6.00000E-01    1.69323E+03
 7.00000E-01    1.81064E+03
 8.00000E-01    1.88807E+03
 9.00000E-01    1.95284E+03
 9.08555E-01    1.95757E+03
 9.27438E-01    1.96766E+03
 1.00000E+00    2.14519E+03
 1.01902E+00    2.16444E+03
 1.10000E+00    2.24647E+03
 1.10653E+00    2.25116E+03
 1.11123E+00    2.27087E+03
 1.11124E+00    2.27092E+03
 1.12734E+00    2.29598E+03
 1.18553E+00    2.35341E+03
 1.18839E+00    2.37106E+03
 1.20000E+00    2.39423E+03
 1.21026E+00    2.40792E+03
 1.29479E+00    2.50274E+03
 1.30000E+00    2.51899E+03
 1.30349E+00    2.52421E+03
 1.34153E+00    2.58302E+03
 1.34641E+00    2.58724E+03
 1.37394E+00    2.60755E+03
 1.37998E+00    2.61238E+03
 1.40000E+00    2.62568E+03
 1.44038E+00    2.64718E+03
 1.44949E+00    2.65132E+03
 1.48178E+00    2.67731E+03
 1.48467E+00    2.67884E+03
 1.48538E+00    2.67920E+03
 1.50000E+00    2.69529E+03
 1.52512E+00    2.70977E+03
 1.54935E+00    2.72535E+03
 1.58694E+00    2.74558E+03
 1.59493E+00    2.74878E+03
 1.60000E+00    2.75104E+03
 1.62540E+00    2.76033E+03
 1.67279E+00    2.77903E+03
 1.67580E+00    2.77999E+03
 1.68480E+00    2.78269E+03
 1.70000E+00    2.78963E+03
 1.71799E+00    2.79463E+03
 1.71800E+00    2.79464E+03
 1.75241E+00    2.80231E+03
 1.76614E+00    2.80472E+03
 1.76740E+00    2.80559E+03
 1.77153E+00    2.80794E+03
 1.77596E+00    2.80938E+03
 1.78587E+00    2.81325E+03
 1.80000E+00    2.81690E+03
 1.90000E+00    2.83732E+03
 2.00000E+00    2.85603E+03
 2.25000E+00    2.88324E+03
 2.50000E+00    2.90765E+03
 2.75000E+00    2.91546E+03
 3.00000E+00    2.92231E+03
 3.50000E+00    2.91516E+03
 4.00000E+00    2.89321E+03
 4.50000E+00    2.86349E+03
 5.00000E+00    2.83569E+03
 5.50000E+00    2.81280E+03
 6.00000E+00    2.79460E+03
 6.50000E+00    2.77608E+03
 7.00000E+00    2.75368E+03
 7.50000E+00    2.72568E+03
 8.00000E+00    2.69352E+03
 8.50000E+00    2.31855E+03
 9.00000E+00    1.70786E+03
 9.50000E+00    1.24058E+03
 1.00000E+01    9.46303E+02
 1.05000E+01    7.68557E+02
 1.10000E+01    6.56389E+02
 1.15000E+01    5.83451E+02
 1.20000E+01    5.33362E+02
 1.25000E+01    4.96747E+02
 1.30000E+01    4.68490E+02
 1.35000E+01    4.44581E+02
 1.40000E+01    4.24009E+02
 1.45000E+01    4.05795E+02
 1.50000E+01    3.89520E+02
 1.55000E+01    3.75118E+02
 1.60000E+01    3.60895E+02
 1.65000E+01    3.48718E+02
 1.70000E+01    3.37463E+02
 1.75000E+01    3.26943E+02
 1.80000E+01    3.17135E+02
 1.85000E+01    3.08297E+02
 1.90000E+01    2.99717E+02
 1.95000E+01    2.92126E+02
 2.00000E+01    2.84884E+02
