# p + O   0 : Production of F  18
# IAEA-MED for     2.500 MeV <     29.800 MeV, extended with TENDL-2019   EVAL-2019
# uncertainties: y
# # energies =   294
#   E(MeV)          xs(mb) 
 2.50000E+00    2.70000E+00
 2.60000E+00    5.23000E+01
 2.70000E+00    6.60000E+00
 2.80000E+00    7.90000E+00
 2.90000E+00    5.90000E+00
 3.00000E+00    8.80000E+01
 3.10000E+00    4.64000E+01
 3.20000E+00    6.23000E+01
 3.30000E+00    6.18000E+01
 3.40000E+00    4.05000E+01
 3.50000E+00    4.69000E+01
 3.60000E+00    4.30000E+01
 3.70000E+00    1.16100E+02
 3.80000E+00    1.17100E+02
 3.90000E+00    1.44600E+02
 4.00000E+00    1.56800E+02
 4.10000E+00    2.48100E+02
 4.20000E+00    1.83200E+02
 4.30000E+00    3.62800E+02
 4.40000E+00    2.84300E+02
 4.50000E+00    2.20200E+02
 4.60000E+00    1.34800E+02
 4.70000E+00    1.62100E+02
 4.80000E+00    2.61600E+02
 4.90000E+00    4.22400E+02
 5.00000E+00    5.02400E+02
 5.10000E+00    4.98000E+02
 5.20000E+00    4.65000E+02
 5.30000E+00    4.06300E+02
 5.40000E+00    3.52300E+02
 5.50000E+00    3.44100E+02
 5.60000E+00    3.75300E+02
 5.70000E+00    2.84900E+02
 5.80000E+00    2.35800E+02
 5.90000E+00    2.68800E+02
 6.00000E+00    4.65400E+02
 6.10000E+00    3.02700E+02
 6.20000E+00    2.27600E+02
 6.30000E+00    2.18300E+02
 6.40000E+00    2.47400E+02
 6.50000E+00    2.61500E+02
 6.60000E+00    2.65700E+02
 6.70000E+00    2.62800E+02
 6.80000E+00    2.34300E+02
 6.90000E+00    2.21600E+02
 7.00000E+00    2.74900E+02
 7.10000E+00    3.42300E+02
 7.20000E+00    3.40400E+02
 7.30000E+00    3.25100E+02
 7.40000E+00    3.05700E+02
 7.50000E+00    2.49600E+02
 7.60000E+00    2.25500E+02
 7.70000E+00    2.36500E+02
 7.80000E+00    2.43500E+02
 7.90000E+00    2.47800E+02
 8.00000E+00    2.46600E+02
 8.10000E+00    2.72000E+02
 8.20000E+00    2.81400E+02
 8.30000E+00    2.50700E+02
 8.40000E+00    2.37300E+02
 8.50000E+00    2.42000E+02
 8.60000E+00    2.57500E+02
 8.70000E+00    2.66600E+02
 8.80000E+00    2.48100E+02
 8.90000E+00    2.30200E+02
 9.00000E+00    2.17600E+02
 9.10000E+00    2.04200E+02
 9.20000E+00    2.03800E+02
 9.30000E+00    2.05200E+02
 9.40000E+00    1.89900E+02
 9.50000E+00    1.77200E+02
 9.60000E+00    1.86200E+02
 9.70000E+00    2.00300E+02
 9.80000E+00    1.97600E+02
 9.90000E+00    1.94900E+02
 1.00000E+01    1.92100E+02
 1.01000E+01    1.89400E+02
 1.02000E+01    1.86700E+02
 1.03000E+01    1.84000E+02
 1.04000E+01    1.81200E+02
 1.05000E+01    1.78800E+02
 1.06000E+01    1.76600E+02
 1.07000E+01    1.74400E+02
 1.08000E+01    1.72200E+02
 1.09000E+01    1.70000E+02
 1.10000E+01    1.67800E+02
 1.11000E+01    1.65600E+02
 1.12000E+01    1.63500E+02
 1.13000E+01    1.61300E+02
 1.14000E+01    1.59100E+02
 1.15000E+01    1.56900E+02
 1.16000E+01    1.54800E+02
 1.17000E+01    1.52600E+02
 1.18000E+01    1.50500E+02
 1.19000E+01    1.48300E+02
 1.20000E+01    1.46200E+02
 1.21000E+01    1.44000E+02
 1.22000E+01    1.41900E+02
 1.23000E+01    1.39800E+02
 1.24000E+01    1.37700E+02
 1.25000E+01    1.35600E+02
 1.26000E+01    1.33500E+02
 1.27000E+01    1.31400E+02
 1.28000E+01    1.29300E+02
 1.29000E+01    1.27300E+02
 1.30000E+01    1.25200E+02
 1.31000E+01    1.23200E+02
 1.32000E+01    1.21200E+02
 1.33000E+01    1.19100E+02
 1.34000E+01    1.17100E+02
 1.35000E+01    1.15200E+02
 1.36000E+01    1.13200E+02
 1.37000E+01    1.11200E+02
 1.38000E+01    1.09300E+02
 1.39000E+01    1.07400E+02
 1.40000E+01    1.05400E+02
 1.41000E+01    1.03500E+02
 1.42000E+01    1.01700E+02
 1.43000E+01    9.98000E+01
 1.44000E+01    9.80000E+01
 1.45000E+01    9.61000E+01
 1.46000E+01    9.43000E+01
 1.47000E+01    9.26000E+01
 1.48000E+01    9.08000E+01
 1.49000E+01    8.91000E+01
 1.50000E+01    8.73000E+01
 1.51000E+01    8.56000E+01
 1.52000E+01    8.40000E+01
 1.53000E+01    8.23000E+01
 1.54000E+01    8.07000E+01
 1.55000E+01    7.91000E+01
 1.56000E+01    7.75000E+01
 1.57000E+01    7.59000E+01
 1.58000E+01    7.44000E+01
 1.59000E+01    7.29000E+01
 1.60000E+01    7.14000E+01
 1.61000E+01    6.99000E+01
 1.62000E+01    6.85000E+01
 1.63000E+01    6.71000E+01
 1.64000E+01    6.57000E+01
 1.65000E+01    6.43000E+01
 1.66000E+01    6.30000E+01
 1.67000E+01    6.17000E+01
 1.68000E+01    6.04000E+01
 1.69000E+01    5.92000E+01
 1.70000E+01    5.79000E+01
 1.71000E+01    5.67000E+01
 1.72000E+01    5.56000E+01
 1.73000E+01    5.44000E+01
 1.74000E+01    5.33000E+01
 1.75000E+01    5.22000E+01
 1.76000E+01    5.12000E+01
 1.77000E+01    5.01000E+01
 1.78000E+01    4.91000E+01
 1.79000E+01    4.82000E+01
 1.80000E+01    4.72000E+01
 1.81000E+01    4.63000E+01
 1.82000E+01    4.54000E+01
 1.83000E+01    4.45000E+01
 1.84000E+01    4.37000E+01
 1.85000E+01    4.28000E+01
 1.86000E+01    4.21000E+01
 1.87000E+01    4.13000E+01
 1.88000E+01    4.05000E+01
 1.89000E+01    3.98000E+01
 1.90000E+01    3.91000E+01
 1.91000E+01    3.84000E+01
 1.92000E+01    3.78000E+01
 1.93000E+01    3.71000E+01
 1.94000E+01    3.65000E+01
 1.95000E+01    3.60000E+01
 1.96000E+01    3.54000E+01
 1.97000E+01    3.49000E+01
 1.98000E+01    3.44000E+01
 1.99000E+01    3.39000E+01
 2.00000E+01    3.35000E+01
 2.01000E+01    3.31000E+01
 2.02000E+01    3.27000E+01
 2.03000E+01    3.23000E+01
 2.04000E+01    3.19000E+01
 2.05000E+01    3.15000E+01
 2.06000E+01    3.12000E+01
 2.07000E+01    3.09000E+01
 2.08000E+01    3.06000E+01
 2.09000E+01    3.03000E+01
 2.10000E+01    3.00000E+01
 2.11000E+01    2.97000E+01
 2.12000E+01    2.95000E+01
 2.13000E+01    2.92000E+01
 2.14000E+01    2.90000E+01
 2.15000E+01    2.87000E+01
 2.16000E+01    2.85000E+01
 2.17000E+01    2.83000E+01
 2.18000E+01    2.81000E+01
 2.19000E+01    2.79000E+01
 2.20000E+01    2.77000E+01
 2.21000E+01    2.76000E+01
 2.22000E+01    2.74000E+01
 2.23000E+01    2.72000E+01
 2.24000E+01    2.70000E+01
 2.25000E+01    2.69000E+01
 2.26000E+01    2.67000E+01
 2.27000E+01    2.66000E+01
 2.28000E+01    2.64000E+01
 2.29000E+01    2.63000E+01
 2.30000E+01    2.61000E+01
 2.31000E+01    2.60000E+01
 2.32000E+01    2.58000E+01
 2.33000E+01    2.57000E+01
 2.34000E+01    2.56000E+01
 2.35000E+01    2.54000E+01
 2.36000E+01    2.53000E+01
 2.37000E+01    2.51000E+01
 2.38000E+01    2.50000E+01
 2.39000E+01    2.49000E+01
 2.40000E+01    2.48000E+01
 2.41000E+01    2.46000E+01
 2.42000E+01    2.45000E+01
 2.43000E+01    2.44000E+01
 2.44000E+01    2.43000E+01
 2.45000E+01    2.42000E+01
 2.46000E+01    2.40000E+01
 2.47000E+01    2.39000E+01
 2.48000E+01    2.38000E+01
 2.49000E+01    2.37000E+01
 2.50000E+01    2.36000E+01
 2.51000E+01    2.35000E+01
 2.52000E+01    2.34000E+01
 2.53000E+01    2.33000E+01
 2.54000E+01    2.33000E+01
 2.55000E+01    2.32000E+01
 2.56000E+01    2.31000E+01
 2.57000E+01    2.30000E+01
 2.58000E+01    2.29000E+01
 2.59000E+01    2.28000E+01
 2.60000E+01    2.28000E+01
 2.61000E+01    2.27000E+01
 2.62000E+01    2.26000E+01
 2.63000E+01    2.25000E+01
 2.64000E+01    2.25000E+01
 2.65000E+01    2.24000E+01
 2.66000E+01    2.23000E+01
 2.67000E+01    2.22000E+01
 2.68000E+01    2.22000E+01
 2.69000E+01    2.21000E+01
 2.70000E+01    2.21000E+01
 2.71000E+01    2.20000E+01
 2.72000E+01    2.20000E+01
 2.73000E+01    2.19000E+01
 2.74000E+01    2.19000E+01
 2.75000E+01    2.19000E+01
 2.76000E+01    2.18000E+01
 2.77000E+01    2.18000E+01
 2.78000E+01    2.18000E+01
 2.79000E+01    2.18000E+01
 2.80000E+01    2.18000E+01
 2.81000E+01    2.19000E+01
 2.82000E+01    2.19000E+01
 2.83000E+01    2.20000E+01
 2.84000E+01    2.20000E+01
 2.85000E+01    2.21000E+01
 2.86000E+01    2.22000E+01
 2.87000E+01    2.23000E+01
 2.88000E+01    2.24000E+01
 2.89000E+01    2.25000E+01
 2.90000E+01    2.26000E+01
 2.91000E+01    2.27000E+01
 2.92000E+01    2.28000E+01
 2.93000E+01    2.30000E+01
 2.94000E+01    2.31000E+01
 2.95000E+01    2.33000E+01
 2.96000E+01    2.34000E+01
 2.97000E+01    2.36000E+01
 2.98000E+01    2.37000E+01
 3.50000E+01    1.75820E+01
 4.00000E+01    1.23987E+01
 4.50000E+01    8.82559E+00
 5.00000E+01    8.37842E+00
 5.50000E+01    6.98556E+00
 6.00000E+01    6.16451E+00
 6.50000E+01    3.62125E+00
 7.00000E+01    4.18717E+00
 7.50000E+01    3.35314E+00
 8.00000E+01    2.20774E+00
 9.00000E+01    2.30184E+00
 1.00000E+02    1.90193E+00
 1.10000E+02    1.71204E+00
 1.20000E+02    1.26081E+00
 1.30000E+02    1.22941E+00
 1.40000E+02    1.01397E+00
 1.50000E+02    6.57941E-01
 1.60000E+02    7.23241E-01
 1.80000E+02    3.54095E-01
 2.00000E+02    5.14963E-01
