# n + Hf182 : (n,n'09)  
# jeff3.3    A.J. Koning and D. Rochman        EVAL-DEC15
# uncertainties: n
# # energies =    86
#   E(MeV)       xs(mb) 
 1.17937E+00    0.00000E+00
 1.20000E+00    6.23581E-04
 1.27201E+00    2.20516E-02
 1.40000E+00    6.01376E-02
 1.42737E+00    9.28049E-02
 1.47312E+00    1.47410E-01
 1.50530E+00    1.85818E-01
 1.59881E+00    2.97427E-01
 1.60000E+00    2.98847E-01
 1.68961E+00    5.21211E-01
 1.70128E+00    5.50170E-01
 1.73356E+00    6.30271E-01
 1.80000E+00    7.95140E-01
 1.83914E+00    9.46358E-01
 1.89545E+00    1.16391E+00
 1.92562E+00    1.28047E+00
 1.99942E+00    1.56560E+00
 2.00000E+00    1.56784E+00
 2.20000E+00    2.62795E+00
 2.22627E+00    2.78996E+00
 2.29264E+00    3.19929E+00
 2.32009E+00    3.36858E+00
 2.34463E+00    3.51993E+00
 2.40000E+00    3.86141E+00
 2.58555E+00    5.22527E+00
 2.60000E+00    5.33148E+00
 2.66399E+00    5.87325E+00
 2.80000E+00    7.02476E+00
 3.00000E+00    8.85288E+00
 3.02669E+00    9.08523E+00
 3.08229E+00    9.56926E+00
 3.20000E+00    1.05940E+01
 3.40000E+00    1.24865E+01
 3.60000E+00    1.42948E+01
 3.80000E+00    1.58960E+01
 3.89065E+00    1.14519E+01
 4.00000E+00    6.09105E+00
 4.20000E+00    1.31319E+00
 4.40000E+00    5.64079E-01
 4.60000E+00    3.14693E-01
 4.80000E+00    1.97045E-01
 5.00000E+00    1.31150E-01
 5.20000E+00    9.04802E-02
 5.40000E+00    6.38290E-02
 5.60000E+00    4.57220E-02
 5.80000E+00    3.27989E-02
 6.00000E+00    2.38098E-02
 6.20000E+00    1.74269E-02
 6.40000E+00    1.28334E-02
 6.60000E+00    9.50383E-03
 6.80000E+00    7.07329E-03
 7.00000E+00    5.28551E-03
 7.20000E+00    3.96461E-03
 7.40000E+00    2.98551E-03
 7.60000E+00    2.25632E-03
 7.80000E+00    1.71113E-03
 8.00000E+00    1.30438E-03
 8.50000E+00    6.67802E-04
 9.00000E+00    3.47387E-04
 9.50000E+00    1.83106E-04
 1.00000E+01    9.76152E-05
 1.05000E+01    5.25351E-05
 1.10000E+01    2.85253E-05
 1.15000E+01    1.56302E-05
 1.20000E+01    8.63931E-06
 1.25000E+01    4.82076E-06
 1.30000E+01    2.71637E-06
 1.35000E+01    1.54512E-06
 1.40000E+01    8.86750E-07
 1.45000E+01    5.13290E-07
 1.50000E+01    2.99530E-07
 1.60000E+01    1.04170E-07
 1.70000E+01    3.71770E-08
 1.80000E+01    1.35210E-08
 1.90000E+01    5.05740E-09
 2.00000E+01    1.93460E-09
 2.10000E+01    7.54940E-10
 2.20000E+01    3.00620E-10
 2.30000E+01    1.22120E-10
 2.40000E+01    5.05200E-11
 2.50000E+01    2.13210E-11
 2.60000E+01    9.13890E-12
 2.70000E+01    3.97060E-12
 2.80000E+01    1.74760E-12
 2.90000E+01    7.80930E-13
 3.00000E+01    3.53600E-13
