# n + Hf182 : (n,n'10)  
# jeff3.3    A.J. Koning and D. Rochman        EVAL-DEC15
# uncertainties: n
# # energies =    84
#   E(MeV)       xs(mb) 
 1.27201E+00    0.00000E+00
 1.40000E+00    6.75819E+01
 1.42737E+00    7.13796E+01
 1.47312E+00    7.77276E+01
 1.50530E+00    8.21928E+01
 1.59881E+00    9.51677E+01
 1.60000E+00    9.53328E+01
 1.68961E+00    9.38521E+01
 1.70128E+00    9.36592E+01
 1.73356E+00    9.31258E+01
 1.80000E+00    9.20279E+01
 1.83914E+00    9.01742E+01
 1.89545E+00    8.75073E+01
 1.92562E+00    8.60784E+01
 1.99942E+00    8.25831E+01
 2.00000E+00    8.25556E+01
 2.20000E+00    7.57650E+01
 2.22627E+00    7.50677E+01
 2.29264E+00    7.33059E+01
 2.32009E+00    7.25773E+01
 2.34463E+00    7.19259E+01
 2.40000E+00    7.04561E+01
 2.58555E+00    6.58046E+01
 2.60000E+00    6.54423E+01
 2.66399E+00    6.40725E+01
 2.80000E+00    6.11609E+01
 3.00000E+00    5.71716E+01
 3.02669E+00    5.67169E+01
 3.08229E+00    5.57697E+01
 3.20000E+00    5.37643E+01
 3.40000E+00    4.99654E+01
 3.60000E+00    4.62765E+01
 3.80000E+00    4.25712E+01
 3.89065E+00    3.11706E+01
 4.00000E+00    1.74183E+01
 4.20000E+00    3.46700E+00
 4.40000E+00    1.27906E+00
 4.60000E+00    6.08033E-01
 4.80000E+00    3.28465E-01
 5.00000E+00    1.91060E-01
 5.20000E+00    1.16683E-01
 5.40000E+00    7.37676E-02
 5.60000E+00    4.78616E-02
 5.80000E+00    3.13954E-02
 6.00000E+00    2.10184E-02
 6.20000E+00    1.42805E-02
 6.40000E+00    9.82308E-03
 6.60000E+00    6.82683E-03
 6.80000E+00    4.78673E-03
 7.00000E+00    3.38071E-03
 7.20000E+00    2.40330E-03
 7.40000E+00    1.71838E-03
 7.60000E+00    1.23552E-03
 7.80000E+00    8.92765E-04
 8.00000E+00    6.49280E-04
 8.50000E+00    2.97280E-04
 9.00000E+00    1.39466E-04
 9.50000E+00    6.69052E-05
 1.00000E+01    3.27721E-05
 1.05000E+01    1.63520E-05
 1.10000E+01    8.29560E-06
 1.15000E+01    4.27306E-06
 1.20000E+01    2.23056E-06
 1.25000E+01    1.17955E-06
 1.30000E+01    6.31640E-07
 1.35000E+01    3.42330E-07
 1.40000E+01    1.87680E-07
 1.45000E+01    1.04070E-07
 1.50000E+01    5.83500E-08
 1.60000E+01    1.89000E-08
 1.70000E+01    6.34800E-09
 1.80000E+01    2.19060E-09
 1.90000E+01    7.82220E-10
 2.00000E+01    2.87020E-10
 2.10000E+01    1.07900E-10
 2.20000E+01    4.15470E-11
 2.30000E+01    1.63810E-11
 2.40000E+01    6.60100E-12
 2.50000E+01    2.72270E-12
 2.60000E+01    1.14370E-12
 2.70000E+01    4.87780E-13
 2.80000E+01    2.10980E-13
 2.90000E+01    9.27250E-14
 3.00000E+01    4.13240E-14
