# n + Hf182 : (n,n'16)  
# jeff3.3    A.J. Koning and D. Rochman        EVAL-DEC15
# uncertainties: n
# # energies =    76
#   E(MeV)       xs(mb) 
 1.70128E+00    0.00000E+00
 1.73356E+00    1.00761E-05
 1.80000E+00    3.08152E-05
 1.83914E+00    1.26513E-04
 1.89545E+00    2.64190E-04
 1.92562E+00    3.37956E-04
 1.99942E+00    5.18397E-04
 2.00000E+00    5.19815E-04
 2.20000E+00    2.72384E-03
 2.22627E+00    3.61201E-03
 2.29264E+00    5.85594E-03
 2.32009E+00    6.78401E-03
 2.34463E+00    7.61368E-03
 2.40000E+00    9.48571E-03
 2.58555E+00    2.49662E-02
 2.60000E+00    2.61718E-02
 2.66399E+00    3.73037E-02
 2.80000E+00    6.09644E-02
 3.00000E+00    1.24012E-01
 3.02669E+00    1.37147E-01
 3.08229E+00    1.64511E-01
 3.20000E+00    2.22441E-01
 3.40000E+00    3.69121E-01
 3.60000E+00    5.65880E-01
 3.80000E+00    8.04389E-01
 3.89065E+00    5.95185E-01
 4.00000E+00    3.42824E-01
 4.20000E+00    8.35372E-02
 4.40000E+00    4.18830E-02
 4.60000E+00    2.69694E-02
 4.80000E+00    1.94124E-02
 5.00000E+00    1.43951E-02
 5.20000E+00    1.10046E-02
 5.40000E+00    8.55241E-03
 5.60000E+00    6.71169E-03
 5.80000E+00    5.24790E-03
 6.00000E+00    4.13172E-03
 6.20000E+00    3.26488E-03
 6.40000E+00    2.58170E-03
 6.60000E+00    2.04409E-03
 6.80000E+00    1.61976E-03
 7.00000E+00    1.28237E-03
 7.20000E+00    1.01558E-03
 7.40000E+00    8.04236E-04
 7.60000E+00    6.37053E-04
 7.80000E+00    5.04875E-04
 8.00000E+00    4.01156E-04
 8.50000E+00    2.25575E-04
 9.00000E+00    1.27437E-04
 9.50000E+00    7.22592E-05
 1.00000E+01    4.10867E-05
 1.05000E+01    2.34043E-05
 1.10000E+01    1.33617E-05
 1.15000E+01    7.65492E-06
 1.20000E+01    4.40277E-06
 1.25000E+01    2.54598E-06
 1.30000E+01    1.48159E-06
 1.35000E+01    8.67910E-07
 1.40000E+01    5.11810E-07
 1.45000E+01    3.03870E-07
 1.50000E+01    1.81610E-07
 1.60000E+01    6.60020E-08
 1.70000E+01    2.45000E-08
 1.80000E+01    9.22900E-09
 1.90000E+01    3.56240E-09
 2.00000E+01    1.40200E-09
 2.10000E+01    5.61530E-10
 2.20000E+01    2.29090E-10
 2.30000E+01    9.52070E-11
 2.40000E+01    4.02350E-11
 2.50000E+01    1.73210E-11
 2.60000E+01    7.56150E-12
 2.70000E+01    3.34060E-12
 2.80000E+01    1.49280E-12
 2.90000E+01    6.76380E-13
 3.00000E+01    3.10190E-13
