# n + Hf182 : (n,n'12)  
# jeff3.3    A.J. Koning and D. Rochman        EVAL-DEC15
# uncertainties: n
# # energies =    81
#   E(MeV)       xs(mb) 
 1.47312E+00    0.00000E+00
 1.50530E+00    2.98754E+01
 1.59881E+00    1.16688E+02
 1.60000E+00    1.17793E+02
 1.68961E+00    1.45332E+02
 1.70128E+00    1.48919E+02
 1.73356E+00    1.58839E+02
 1.80000E+00    1.79258E+02
 1.83914E+00    1.78632E+02
 1.89545E+00    1.77731E+02
 1.92562E+00    1.77248E+02
 1.99942E+00    1.76067E+02
 2.00000E+00    1.76058E+02
 2.20000E+00    1.68384E+02
 2.22627E+00    1.67315E+02
 2.29264E+00    1.64615E+02
 2.32009E+00    1.63499E+02
 2.34463E+00    1.62501E+02
 2.40000E+00    1.60248E+02
 2.58555E+00    1.52158E+02
 2.60000E+00    1.51528E+02
 2.66399E+00    1.49049E+02
 2.80000E+00    1.43781E+02
 3.00000E+00    1.36368E+02
 3.02669E+00    1.35550E+02
 3.08229E+00    1.33846E+02
 3.20000E+00    1.30238E+02
 3.40000E+00    1.22850E+02
 3.60000E+00    1.15397E+02
 3.80000E+00    1.07543E+02
 3.89065E+00    7.90187E+01
 4.00000E+00    4.46101E+01
 4.20000E+00    9.54575E+00
 4.40000E+00    4.05767E+00
 4.60000E+00    2.38057E+00
 4.80000E+00    1.66078E+00
 5.00000E+00    1.30477E+00
 5.20000E+00    1.11026E+00
 5.40000E+00    9.97248E-01
 5.60000E+00    9.29091E-01
 5.80000E+00    8.86596E-01
 6.00000E+00    8.61308E-01
 6.20000E+00    8.46948E-01
 6.40000E+00    8.39851E-01
 6.60000E+00    8.37648E-01
 6.80000E+00    8.38718E-01
 7.00000E+00    8.41919E-01
 7.20000E+00    8.46467E-01
 7.40000E+00    8.51815E-01
 7.60000E+00    8.57609E-01
 7.80000E+00    8.63593E-01
 8.00000E+00    8.69601E-01
 8.50000E+00    8.83926E-01
 9.00000E+00    8.96342E-01
 9.50000E+00    9.06315E-01
 1.00000E+01    9.13903E-01
 1.05000E+01    9.19402E-01
 1.10000E+01    9.23062E-01
 1.15000E+01    9.24906E-01
 1.20000E+01    9.24771E-01
 1.25000E+01    9.22496E-01
 1.30000E+01    9.18043E-01
 1.35000E+01    9.11531E-01
 1.40000E+01    9.03230E-01
 1.45000E+01    8.93539E-01
 1.50000E+01    8.82946E-01
 1.60000E+01    8.61354E-01
 1.70000E+01    8.43198E-01
 1.80000E+01    8.32330E-01
 1.90000E+01    8.30133E-01
 2.00000E+01    8.35128E-01
 2.10000E+01    8.44009E-01
 2.20000E+01    8.53330E-01
 2.30000E+01    8.61003E-01
 2.40000E+01    8.66794E-01
 2.50000E+01    8.71726E-01
 2.60000E+01    8.77082E-01
 2.70000E+01    8.83709E-01
 2.80000E+01    8.91748E-01
 2.90000E+01    9.00644E-01
 3.00000E+01    9.09431E-01
