# n + Th232 : (n,f)     
# jendl.ad   O.Iwamoto,T.Nakagawa,et al.       EVAL-JAN10
# uncertainties: n
# # energies =    69
#   E(MeV)       xs(mb) 
 1.00000E-10    3.79055E-01
 5.00000E-09    1.02474E-01
 1.00000E-08    7.74841E-02
 1.50000E-08    6.50378E-02
 2.00000E-08    5.71836E-02
 2.50000E-08    5.16502E-02
 3.00000E-08    4.74827E-02
 3.50000E-08    4.36599E-02
 4.20000E-08    3.99326E-02
 5.00000E-08    3.68384E-02
 5.80000E-08    3.42433E-02
 6.70000E-08    3.16069E-02
 8.00000E-08    2.86006E-02
 1.00000E-07    2.48882E-02
 1.40000E-07    2.14810E-02
 1.80000E-07    1.91816E-02
 2.20000E-07    1.76692E-02
 2.50000E-07    1.66331E-02
 2.80000E-07    1.58952E-02
 3.00000E-07    1.53748E-02
 3.20000E-07    1.47909E-02
 3.50000E-07    1.39906E-02
 4.00000E-07    1.28039E-02
 5.00000E-07    1.14536E-02
 6.25000E-07    1.02494E-02
 7.80000E-07    9.48760E-03
 8.50000E-07    9.12885E-03
 9.10000E-07    8.87936E-03
 9.50000E-07    8.73765E-03
 9.72000E-07    8.63386E-03
 9.96000E-07    8.52751E-03
 1.02000E-06    8.42437E-03
 1.04500E-06    8.32260E-03
 1.07100E-06    8.22341E-03
 1.09700E-06    8.12899E-03
 1.12300E-06    8.03568E-03
 1.15000E-06    7.74744E-03
 1.30000E-06    7.24901E-03
 1.50000E-06    6.43898E-03
 2.10000E-06    5.60978E-03
 2.60000E-06    5.01069E-03
 3.30000E-06    4.49928E-03
 4.00000E-06    3.44942E-03
 9.87700E-06    2.42665E-03
 1.59680E-05    1.87702E-03
 2.77000E-05    1.42563E-03
 4.80520E-05    1.10875E-03
 7.55014E-05    8.38366E-04
 1.48728E-04    5.66896E-04
 3.67262E-04    2.91360E-04
 9.06898E-04    4.09603E-04
 1.42510E-03    2.46422E-04
 2.23945E-03    4.21828E-04
 3.51910E-03    9.87203E-04
 5.53000E-03    7.57114E-04
 9.11800E-03    5.72983E-04
 1.50300E-02    7.13852E-04
 2.47800E-02    1.00418E-03
 4.08500E-02    1.42680E-03
 6.73400E-02    2.02698E-03
 1.11000E-01    2.87863E-03
 1.83000E-01    4.09178E-03
 3.02000E-01    7.56193E-03
 5.00000E-01    6.65462E-02
 8.21000E-01    5.59631E+00
 1.35300E+00    1.01877E+02
 2.23100E+00    1.36690E+02
 3.67900E+00    1.53627E+02
 6.06500E+00    3.51409E+02
