# n + Th232 : (n,f)     
# jendl.ad   O.Iwamoto,T.Nakagawa,et al.       EVAL-JAN10
# uncertainties: n
# # energies =   171
#   E(MeV)       xs(mb) 
 1.00000E-11    5.88381E-01
 1.00000E-07    1.93636E-02
 4.13990E-07    1.25029E-02
 5.31580E-07    1.10366E-02
 6.82560E-07    9.73963E-03
 8.76420E-07    8.59714E-03
 1.12540E-06    7.58932E-03
 1.44500E-06    6.69933E-03
 1.85540E-06    5.92066E-03
 2.37240E-06    5.22551E-03
 3.05900E-06    4.60709E-03
 3.92790E-06    4.06658E-03
 5.04350E-06    3.58908E-03
 6.47600E-06    3.16783E-03
 8.31530E-06    2.79625E-03
 1.06770E-05    2.46768E-03
 1.37100E-05    2.17812E-03
 1.76030E-05    1.92260E-03
 2.26030E-05    1.69424E-03
 2.92030E-05    1.49542E-03
 3.72670E-05    1.32185E-03
 4.78510E-05    1.16674E-03
 6.14420E-05    1.02987E-03
 7.88930E-05    9.08924E-04
 1.01300E-04    8.02269E-04
 1.30070E-04    7.08123E-04
 1.67020E-04    6.24934E-04
 2.14450E-04    5.51589E-04
 2.75360E-04    4.86923E-04
 3.53580E-04    4.29708E-04
 4.54000E-04    3.38210E-04
 5.82950E-04    1.69216E-04
 7.48520E-04    2.72049E-04
 9.61120E-04    4.39087E-04
 1.23410E-03    3.42954E-04
 1.58460E-03    2.18338E-04
 2.03470E-03    2.58427E-04
 2.24870E-03    3.06824E-04
 2.48520E-03    3.48543E-04
 2.61260E-03    3.79749E-04
 2.74650E-03    4.32374E-04
 3.03540E-03    5.13136E-04
 3.35460E-03    6.21366E-04
 3.70740E-03    8.83360E-04
 4.30740E-03    1.11825E-03
 5.53080E-03    8.80791E-04
 7.10170E-03    6.33217E-04
 9.11880E-03    5.46790E-04
 1.17090E-02    5.99258E-04
 1.50340E-02    6.58912E-04
 1.93050E-02    7.35238E-04
 2.18750E-02    7.88658E-04
 2.35790E-02    8.16904E-04
 2.41760E-02    8.31465E-04
 2.47880E-02    8.53236E-04
 2.60580E-02    8.78946E-04
 2.70000E-02    9.07173E-04
 2.85000E-02    9.61683E-04
 3.18280E-02    1.02582E-03
 3.43070E-02    1.12098E-03
 4.08680E-02    1.24545E-03
 4.63090E-02    1.35961E-03
 5.24750E-02    1.45756E-03
 5.65620E-02    1.59260E-03
 6.73790E-02    1.73280E-03
 7.20000E-02    1.83660E-03
 7.95000E-02    1.92602E-03
 8.25000E-02    1.98500E-03
 8.65170E-02    2.10947E-03
 9.80370E-02    2.30141E-03
 1.11090E-01    2.44587E-03
 1.16790E-01    2.53470E-03
 1.22770E-01    2.62477E-03
 1.29070E-01    2.71759E-03
 1.35690E-01    2.81508E-03
 1.42640E-01    2.91741E-03
 1.49960E-01    3.02095E-03
 1.57640E-01    3.12813E-03
 1.65730E-01    3.24082E-03
 1.74220E-01    3.35802E-03
 1.83160E-01    3.47677E-03
 1.92550E-01    3.60116E-03
 2.02420E-01    3.72964E-03
 2.12800E-01    3.86140E-03
 2.23710E-01    3.99987E-03
 2.35180E-01    4.14513E-03
 2.47240E-01    4.36803E-03
 2.73240E-01    4.60409E-03
 2.87250E-01    4.72916E-03
 2.94520E-01    4.78756E-03
 2.97200E-01    4.81087E-03
 2.98500E-01    4.84726E-03
 3.01970E-01    5.31029E-03
 3.33730E-01    6.24297E-03
 3.68830E-01    7.04330E-03
 3.87740E-01    7.63479E-03
 4.07620E-01    8.62590E-03
 4.50490E-01    1.01415E-02
 4.97870E-01    1.24177E-02
 5.23400E-01    1.62818E-02
 5.50230E-01    2.13566E-02
 5.78440E-01    2.80118E-02
 6.08100E-01    3.67491E-02
 6.39280E-01    4.82065E-02
 6.72060E-01    6.34090E-02
 7.06510E-01    9.12807E-02
 7.42740E-01    1.36929E-01
 7.80820E-01    2.05420E-01
 8.20850E-01    3.08140E-01
 8.62940E-01    4.63326E-01
 9.07180E-01    8.15918E-01
 9.61640E-01    1.42104E+00
 1.00260E+00    1.77023E+00
 1.10800E+00    2.34528E+00
 1.16480E+00    4.59405E+00
 1.22460E+00    1.22703E+01
 1.28730E+00    3.04763E+01
 1.35340E+00    5.74847E+01
 1.42270E+00    6.77307E+01
 1.49570E+00    9.34415E+01
 1.57240E+00    1.14502E+02
 1.65300E+00    9.05450E+01
 1.73770E+00    8.10478E+01
 1.82680E+00    1.16548E+02
 1.92050E+00    1.20990E+02
 2.01900E+00    1.32411E+02
 2.12250E+00    1.44500E+02
 2.23130E+00    1.32653E+02
 2.30690E+00    1.20315E+02
 2.34570E+00    1.16025E+02
 2.36530E+00    1.16998E+02
 2.38520E+00    1.19772E+02
 2.46600E+00    1.24989E+02
 2.59240E+00    1.30295E+02
 2.72530E+00    1.35800E+02
 2.86500E+00    1.41573E+02
 3.01190E+00    1.44801E+02
 3.16640E+00    1.46056E+02
 3.32870E+00    1.48068E+02
 3.67880E+00    1.50946E+02
 4.06570E+00    1.53207E+02
 4.49330E+00    1.54760E+02
 4.72370E+00    1.55867E+02
 4.96590E+00    1.55020E+02
 5.22050E+00    1.50738E+02
 5.48810E+00    1.51452E+02
 5.76950E+00    1.60149E+02
 6.06530E+00    2.16041E+02
 6.37630E+00    2.83115E+02
 6.59240E+00    3.28803E+02
 6.70320E+00    3.89897E+02
 7.04690E+00    4.20368E+02
 7.40820E+00    4.10976E+02
 7.78800E+00    3.85808E+02
 8.18730E+00    3.67459E+02
 8.60710E+00    3.52062E+02
 9.04840E+00    3.41006E+02
 9.51230E+00    3.32313E+02
 1.00000E+01    3.24288E+02
 1.05130E+01    3.17359E+02
 1.10520E+01    3.10407E+02
 1.16180E+01    3.05113E+02
 1.22140E+01    3.17938E+02
 1.28400E+01    3.36727E+02
 1.34990E+01    3.51412E+02
 1.38400E+01    3.63013E+02
 1.41910E+01    3.82541E+02
 1.45500E+01    4.03899E+02
 1.49180E+01    4.38391E+02
 1.56830E+01    4.79883E+02
 1.64870E+01    4.88448E+02
