# n + Gd  0 : (n,xa)
# jendl.ad   N.Iwamoto                         EVAL-Apr14
#
# # energies =   114
#   E(MeV)          xs(mb) 
 8.95455E-02    1.26574E-06
 9.00000E-02    1.25519E-06
 1.00000E-01    1.19182E-06
 1.05000E-01    2.52943E-05
 1.10000E-01    2.52715E-05
 1.20000E-01    2.54444E-05
 1.30000E-01    2.57639E-05
 1.40000E-01    2.60811E-05
 1.50000E-01    2.64238E-05
 1.60000E-01    2.68388E-05
 1.70000E-01    2.72661E-05
 1.80000E-01    2.77446E-05
 1.90000E-01    2.82543E-05
 2.00000E-01    2.87705E-05
 2.25000E-01    3.04330E-05
 2.50000E-01    3.21137E-05
 2.75000E-01    3.39817E-05
 2.90051E-01    3.51532E-05
 3.00000E-01    3.59096E-05
 4.00000E-01    3.50077E-05
 5.00000E-01    4.06228E-05
 5.88498E-01    4.79294E-05
 6.00000E-01    4.88784E-05
 7.00000E-01    5.75560E-05
 8.00000E-01    7.02491E-05
 9.00000E-01    8.53185E-05
 9.71377E-01    9.47267E-05
 9.71378E-01    9.47268E-05
 1.00000E+00    9.66315E-05
 1.05628E+00    1.07211E-04
 1.10000E+00    1.13925E-04
 1.13675E+00    1.19638E-04
 1.16162E+00    1.21832E-04
 1.17575E+00    1.23140E-04
 1.20000E+00    1.25616E-04
 1.25052E+00    1.36893E-04
 1.25608E+00    1.37772E-04
 1.26621E+00    1.39406E-04
 1.28440E+00    1.42451E-04
 1.30000E+00    1.45376E-04
 1.30622E+00    1.46447E-04
 1.32820E+00    1.49125E-04
 1.36419E+00    1.54274E-04
 1.37530E+00    1.55840E-04
 1.40000E+00    1.59475E-04
 1.41724E+00    1.63815E-04
 1.42524E+00    1.66318E-04
 1.47176E+00    1.75403E-04
 1.47801E+00    1.75871E-04
 1.50000E+00    1.79793E-04
 1.51661E+00    1.84461E-04
 1.52036E+00    1.85515E-04
 1.54880E+00    1.93526E-04
 1.55015E+00    1.93907E-04
 1.58707E+00    2.03492E-04
 1.60000E+00    2.07394E-04
 1.60532E+00    2.08779E-04
 1.63304E+00    2.16991E-04
 1.64860E+00    2.21999E-04
 1.65428E+00    2.23830E-04
 1.70000E+00    2.35161E-04
 1.71683E+00    2.40796E-04
 1.71684E+00    2.40800E-04
 1.72629E+00    2.44110E-04
 1.76499E+00    2.57640E-04
 1.77703E+00    2.60768E-04
 1.78255E+00    2.62078E-04
 1.79201E+00    2.65492E-04
 1.80000E+00    2.67342E-04
 1.81036E+00    2.70486E-04
 1.81567E+00    2.72111E-04
 1.83966E+00    2.83274E-04
 1.86029E+00    2.91514E-04
 1.86181E+00    2.91908E-04
 1.90000E+00    3.04018E-04
 2.00000E+00    3.45162E-04
 2.25000E+00    4.82810E-04
 2.50000E+00    6.61014E-04
 2.75000E+00    8.95395E-04
 3.00000E+00    1.16789E-03
 3.50000E+00    1.88752E-03
 4.00000E+00    2.93544E-03
 4.50000E+00    4.35519E-03
 5.00000E+00    6.20382E-03
 5.50000E+00    8.51116E-03
 6.00000E+00    1.13433E-02
 6.50000E+00    1.48331E-02
 7.00000E+00    1.93194E-02
 7.50000E+00    2.54110E-02
 8.00000E+00    3.43320E-02
 8.50000E+00    4.80609E-02
 9.00000E+00    6.93578E-02
 9.50000E+00    1.01278E-01
 1.00000E+01    1.49258E-01
 1.05000E+01    2.21803E-01
 1.10000E+01    3.29556E-01
 1.15000E+01    4.84474E-01
 1.20000E+01    6.99784E-01
 1.25000E+01    9.88540E-01
 1.30000E+01    1.36195E+00
 1.35000E+01    1.82826E+00
 1.40000E+01    2.39183E+00
 1.45000E+01    3.05277E+00
 1.50000E+01    3.80661E+00
 1.55000E+01    4.65353E+00
 1.60000E+01    5.57939E+00
 1.65000E+01    6.57587E+00
 1.70000E+01    7.63753E+00
 1.75000E+01    8.74754E+00
 1.80000E+01    9.90230E+00
 1.85000E+01    1.10925E+01
 1.90000E+01    1.23126E+01
 1.95000E+01    1.35623E+01
 2.00000E+01    1.48379E+01
