# n + Gd  0 : (n,xn)
# jendl.ad   N.Iwamoto                         EVAL-Apr14
#
# # energies =   114
#   E(MeV)          xs(mb) 
 8.95455E-02    1.31790E+02
 9.00000E-02    1.49253E+02
 1.00000E-01    2.24894E+02
 1.05000E-01    2.55597E+02
 1.10000E-01    3.14766E+02
 1.20000E-01    3.90617E+02
 1.30000E-01    4.58754E+02
 1.40000E-01    5.13468E+02
 1.50000E-01    5.63314E+02
 1.60000E-01    6.07735E+02
 1.70000E-01    6.47249E+02
 1.80000E-01    6.83134E+02
 1.90000E-01    7.16040E+02
 2.00000E-01    7.45001E+02
 2.25000E-01    8.08679E+02
 2.50000E-01    8.62978E+02
 2.75000E-01    9.30355E+02
 2.90051E-01    9.73086E+02
 3.00000E-01    1.01135E+03
 4.00000E-01    1.23554E+03
 5.00000E-01    1.42332E+03
 5.88498E-01    1.53402E+03
 6.00000E-01    1.54817E+03
 7.00000E-01    1.66117E+03
 8.00000E-01    1.75163E+03
 9.00000E-01    1.83753E+03
 9.71377E-01    1.89055E+03
 9.71378E-01    1.89055E+03
 1.00000E+00    1.91152E+03
 1.05628E+00    1.95092E+03
 1.10000E+00    1.99858E+03
 1.13675E+00    2.02548E+03
 1.16162E+00    2.06181E+03
 1.17575E+00    2.08795E+03
 1.20000E+00    2.12830E+03
 1.25052E+00    2.18392E+03
 1.25608E+00    2.19661E+03
 1.26621E+00    2.21429E+03
 1.28440E+00    2.24579E+03
 1.30000E+00    2.26938E+03
 1.30622E+00    2.27720E+03
 1.32820E+00    2.30258E+03
 1.36419E+00    2.34431E+03
 1.37530E+00    2.35545E+03
 1.40000E+00    2.38465E+03
 1.41724E+00    2.40028E+03
 1.42524E+00    2.40702E+03
 1.47176E+00    2.44143E+03
 1.47801E+00    2.44575E+03
 1.50000E+00    2.46143E+03
 1.51661E+00    2.47139E+03
 1.52036E+00    2.47357E+03
 1.54880E+00    2.48911E+03
 1.55015E+00    2.49009E+03
 1.58707E+00    2.50927E+03
 1.60000E+00    2.51719E+03
 1.60532E+00    2.51991E+03
 1.63304E+00    2.53431E+03
 1.64860E+00    2.54130E+03
 1.65428E+00    2.54360E+03
 1.70000E+00    2.56167E+03
 1.71683E+00    2.56780E+03
 1.71684E+00    2.56780E+03
 1.72629E+00    2.57094E+03
 1.76499E+00    2.58378E+03
 1.77703E+00    2.58731E+03
 1.78255E+00    2.58888E+03
 1.79201E+00    2.59268E+03
 1.80000E+00    2.59588E+03
 1.81036E+00    2.59976E+03
 1.81567E+00    2.60152E+03
 1.83966E+00    2.60919E+03
 1.86029E+00    2.61617E+03
 1.86181E+00    2.61662E+03
 1.90000E+00    2.62697E+03
 2.00000E+00    2.65225E+03
 2.25000E+00    2.70661E+03
 2.50000E+00    2.75377E+03
 2.75000E+00    2.78556E+03
 3.00000E+00    2.81606E+03
 3.50000E+00    2.85292E+03
 4.00000E+00    2.86470E+03
 4.50000E+00    2.85457E+03
 5.00000E+00    2.83338E+03
 5.50000E+00    2.80618E+03
 6.00000E+00    2.77856E+03
 6.50000E+00    2.75566E+03
 7.00000E+00    2.77019E+03
 7.50000E+00    2.87938E+03
 8.00000E+00    2.99161E+03
 8.50000E+00    3.07983E+03
 9.00000E+00    3.19776E+03
 9.50000E+00    3.45605E+03
 1.00000E+01    3.72007E+03
 1.05000E+01    3.92742E+03
 1.10000E+01    4.07192E+03
 1.15000E+01    4.16879E+03
 1.20000E+01    4.23344E+03
 1.25000E+01    4.27691E+03
 1.30000E+01    4.30583E+03
 1.35000E+01    4.32440E+03
 1.40000E+01    4.33509E+03
 1.45000E+01    4.33955E+03
 1.50000E+01    4.33922E+03
 1.55000E+01    4.33499E+03
 1.60000E+01    4.33395E+03
 1.65000E+01    4.35457E+03
 1.70000E+01    4.41151E+03
 1.75000E+01    4.50438E+03
 1.80000E+01    4.62258E+03
 1.85000E+01    4.75080E+03
 1.90000E+01    4.87008E+03
 1.95000E+01    4.98141E+03
 2.00000E+01    5.08764E+03
