# n + Tb159 : (n,n'02)  
# jendl4.0   N.Iwamoto,A.Zukeran               EVAL-Dec09
# uncertainties: n
# # energies =    90
#   E(MeV)       xs(mb) 
 1.38378E-01    0.00000E+00
 1.40000E-01    7.42874E+00
 1.50000E-01    2.88690E+01
 1.60000E-01    5.15212E+01
 1.70000E-01    7.35857E+01
 1.80000E-01    9.44327E+01
 1.90000E-01    1.14072E+02
 2.00000E-01    1.31779E+02
 2.25000E-01    1.69622E+02
 2.42680E-01    1.91832E+02
 2.50000E-01    1.97802E+02
 2.75000E-01    2.19968E+02
 3.00000E-01    2.37874E+02
 3.50494E-01    2.67575E+02
 3.64348E-01    2.68914E+02
 3.65852E-01    2.69253E+02
 3.90865E-01    2.63076E+02
 4.00000E-01    2.59774E+02
 4.30918E-01    2.59066E+02
 4.57485E-01    2.53897E+02
 5.00000E-01    2.51469E+02
 5.13639E-01    2.51723E+02
 5.35376E-01    2.52692E+02
 5.40106E-01    2.52260E+02
 5.48560E-01    2.50312E+02
 5.51076E-01    2.50011E+02
 5.84494E-01    2.45837E+02
 6.00000E-01    2.44363E+02
 6.21541E-01    2.43870E+02
 6.73155E-01    2.41606E+02
 6.78514E-01    2.41691E+02
 6.82202E-01    2.40956E+02
 7.00000E-01    2.39964E+02
 7.66132E-01    2.40491E+02
 7.82032E-01    2.39989E+02
 8.00000E-01    2.39159E+02
 8.04071E-01    2.39147E+02
 8.27418E-01    2.39450E+02
 8.60388E-01    2.40277E+02
 8.62741E-01    2.40294E+02
 9.00000E-01    2.40979E+02
 1.00000E+00    2.40365E+02
 1.10000E+00    2.34030E+02
 1.20000E+00    2.25916E+02
 1.30000E+00    2.16023E+02
 1.40000E+00    2.06666E+02
 1.50000E+00    1.98492E+02
 1.60000E+00    1.89379E+02
 1.70000E+00    1.81308E+02
 1.80000E+00    1.74513E+02
 1.90000E+00    1.69255E+02
 2.00000E+00    1.65279E+02
 2.25000E+00    1.54723E+02
 2.50000E+00    1.47785E+02
 2.75000E+00    1.42138E+02
 3.00000E+00    1.38521E+02
 3.50000E+00    1.33900E+02
 4.00000E+00    1.31445E+02
 4.50000E+00    1.29558E+02
 5.00000E+00    1.28019E+02
 5.50000E+00    1.26962E+02
 6.00000E+00    1.26237E+02
 6.50000E+00    1.25526E+02
 7.00000E+00    1.24595E+02
 7.50000E+00    1.23360E+02
 8.00000E+00    1.21848E+02
 8.50000E+00    1.20132E+02
 9.00000E+00    1.18289E+02
 9.50000E+00    1.16394E+02
 1.00000E+01    1.14512E+02
 1.05000E+01    1.12735E+02
 1.10000E+01    1.10959E+02
 1.15000E+01    1.09387E+02
 1.20000E+01    1.07816E+02
 1.25000E+01    1.06436E+02
 1.30000E+01    1.05056E+02
 1.35000E+01    1.03808E+02
 1.40000E+01    1.02560E+02
 1.45000E+01    1.01380E+02
 1.50000E+01    1.00199E+02
 1.55000E+01    9.90370E+01
 1.60000E+01    9.78747E+01
 1.65000E+01    9.67054E+01
 1.70000E+01    9.55361E+01
 1.75000E+01    9.43708E+01
 1.80000E+01    9.32055E+01
 1.85000E+01    9.20886E+01
 1.90000E+01    9.09717E+01
 1.95000E+01    8.99559E+01
 2.00000E+01    8.89402E+01
