# n + Tb159 : (n,n'06)  
# jendl4.0   N.Iwamoto,A.Zukeran               EVAL-Dec09
# uncertainties: n
# # energies =    75
#   E(MeV)       xs(mb) 
 3.65852E-01    0.00000E+00
 3.90865E-01    9.41882E+01
 4.00000E-01    1.08758E+02
 4.30918E-01    1.50214E+02
 4.57485E-01    1.73972E+02
 5.00000E-01    1.99975E+02
 5.13639E-01    2.05719E+02
 5.35376E-01    2.13955E+02
 5.40106E-01    2.15405E+02
 5.48560E-01    2.17189E+02
 5.51076E-01    2.17831E+02
 5.84494E-01    2.22016E+02
 6.00000E-01    2.20971E+02
 6.21541E-01    2.21701E+02
 6.73155E-01    2.16900E+02
 6.78514E-01    2.16521E+02
 6.82202E-01    2.15070E+02
 7.00000E-01    2.12197E+02
 7.66132E-01    2.06514E+02
 7.82032E-01    2.04375E+02
 8.00000E-01    2.01764E+02
 8.04071E-01    2.01298E+02
 8.27418E-01    1.98851E+02
 8.60388E-01    1.96011E+02
 8.62741E-01    1.95586E+02
 9.00000E-01    1.91021E+02
 1.00000E+00    1.76674E+02
 1.10000E+00    1.58257E+02
 1.20000E+00    1.39815E+02
 1.30000E+00    1.22276E+02
 1.40000E+00    1.06447E+02
 1.50000E+00    9.23894E+01
 1.60000E+00    7.96397E+01
 1.70000E+00    6.83293E+01
 1.80000E+00    5.87497E+01
 1.90000E+00    5.03757E+01
 2.00000E+00    4.28871E+01
 2.25000E+00    2.90326E+01
 2.50000E+00    1.88538E+01
 2.75000E+00    1.23973E+01
 3.00000E+00    7.96121E+00
 3.50000E+00    3.32965E+00
 4.00000E+00    1.38632E+00
 4.50000E+00    5.76384E-01
 5.00000E+00    2.43189E-01
 5.50000E+00    1.07956E-01
 6.00000E+00    5.40553E-02
 6.50000E+00    3.24346E-02
 7.00000E+00    2.32859E-02
 7.50000E+00    1.89901E-02
 8.00000E+00    1.66529E-02
 8.50000E+00    1.51569E-02
 9.00000E+00    1.40556E-02
 9.50000E+00    1.31625E-02
 1.00000E+01    1.23944E-02
 1.05000E+01    1.17206E-02
 1.10000E+01    1.10990E-02
 1.15000E+01    1.05418E-02
 1.20000E+01    1.00208E-02
 1.25000E+01    9.54872E-03
 1.30000E+01    9.10513E-03
 1.35000E+01    8.70043E-03
 1.40000E+01    8.32021E-03
 1.45000E+01    7.97036E-03
 1.50000E+01    7.64171E-03
 1.55000E+01    7.32896E-03
 1.60000E+01    7.05383E-03
 1.65000E+01    6.79153E-03
 1.70000E+01    6.53374E-03
 1.75000E+01    6.28312E-03
 1.80000E+01    6.05221E-03
 1.85000E+01    5.84065E-03
 1.90000E+01    5.64315E-03
 1.95000E+01    5.44249E-03
 2.00000E+01    5.25663E-03
