# n + Tb159 : (n,n'03)  
# jendl4.0   N.Iwamoto,A.Zukeran               EVAL-Dec09
# uncertainties: n
# # energies =    81
#   E(MeV)       xs(mb) 
 2.42681E-01    0.00000E+00
 2.50000E-01    7.56690E+00
 2.75000E-01    1.98942E+01
 3.00000E-01    3.09335E+01
 3.50494E-01    4.90514E+01
 3.64348E-01    5.28475E+01
 3.65852E-01    5.32451E+01
 3.90865E-01    5.65797E+01
 4.00000E-01    5.66186E+01
 4.30918E-01    6.00481E+01
 4.57485E-01    6.06049E+01
 5.00000E-01    6.23575E+01
 5.13639E-01    6.33916E+01
 5.35376E-01    6.51981E+01
 5.40106E-01    6.50749E+01
 5.48560E-01    6.46304E+01
 5.51076E-01    6.45577E+01
 5.84494E-01    6.40643E+01
 6.00000E-01    6.45036E+01
 6.21541E-01    6.56642E+01
 6.73155E-01    6.87212E+01
 6.78514E-01    6.91174E+01
 6.82202E-01    6.91902E+01
 7.00000E-01    6.99859E+01
 7.66132E-01    7.49176E+01
 7.82032E-01    7.56844E+01
 8.00000E-01    7.63878E+01
 8.04071E-01    7.66552E+01
 8.27418E-01    7.83406E+01
 8.60388E-01    8.07802E+01
 8.62741E-01    8.09513E+01
 9.00000E-01    8.34491E+01
 1.00000E+00    8.98165E+01
 1.10000E+00    9.33277E+01
 1.20000E+00    9.51648E+01
 1.30000E+00    9.44023E+01
 1.40000E+00    9.34142E+01
 1.50000E+00    9.20773E+01
 1.60000E+00    8.82115E+01
 1.70000E+00    8.50029E+01
 1.80000E+00    8.19315E+01
 1.90000E+00    7.91989E+01
 2.00000E+00    7.70640E+01
 2.25000E+00    6.97411E+01
 2.50000E+00    6.37733E+01
 2.75000E+00    5.94623E+01
 3.00000E+00    5.63797E+01
 3.50000E+00    5.41976E+01
 4.00000E+00    5.44130E+01
 4.50000E+00    5.47910E+01
 5.00000E+00    5.46810E+01
 5.50000E+00    5.41438E+01
 6.00000E+00    5.33136E+01
 6.50000E+00    5.22492E+01
 7.00000E+00    5.09811E+01
 7.50000E+00    4.95573E+01
 8.00000E+00    4.80464E+01
 8.50000E+00    4.65159E+01
 9.00000E+00    4.50131E+01
 9.50000E+00    4.35622E+01
 1.00000E+01    4.21742E+01
 1.05000E+01    4.08854E+01
 1.10000E+01    3.95968E+01
 1.15000E+01    3.84299E+01
 1.20000E+01    3.72632E+01
 1.25000E+01    3.61990E+01
 1.30000E+01    3.51349E+01
 1.35000E+01    3.41684E+01
 1.40000E+01    3.32019E+01
 1.45000E+01    3.23299E+01
 1.50000E+01    3.14581E+01
 1.55000E+01    3.06627E+01
 1.60000E+01    2.98676E+01
 1.65000E+01    2.91217E+01
 1.70000E+01    2.83758E+01
 1.75000E+01    2.76584E+01
 1.80000E+01    2.69410E+01
 1.85000E+01    2.62436E+01
 1.90000E+01    2.55462E+01
 1.95000E+01    2.48701E+01
 2.00000E+01    2.41939E+01
