# n + Tb159 :  n        
# jendl4.0   N.Iwamoto,A.Zukeran               EVAL-Dec09
# uncertainties: n
# # energies =    94
#   E(MeV)       xs(mb) 
 1.05000E-01    0.00000E+00
 1.10000E-01    6.51619E-03
 1.20000E-01    8.08715E-03
 1.30000E-01    9.06525E-03
 1.38378E-01    9.58610E-03
 1.40000E-01    9.64342E-03
 1.50000E-01    9.96848E-03
 1.60000E-01    1.12345E-02
 1.70000E-01    1.27105E-02
 1.80000E-01    1.31638E-02
 1.90000E-01    1.33727E-02
 2.00000E-01    1.34835E-02
 2.25000E-01    5.36630E-02
 2.42680E-01    6.23190E-02
 2.50000E-01    6.47510E-02
 2.75000E-01    8.35202E-02
 3.00000E-01    9.02306E-02
 3.50494E-01    2.29317E-01
 3.64348E-01    2.56340E-01
 3.65852E-01    2.59596E-01
 3.90865E-01    2.74727E-01
 4.00000E-01    2.75367E-01
 4.30918E-01    4.51085E-01
 4.57485E-01    5.01133E-01
 5.00000E-01    5.98411E-01
 5.13639E-01    7.79838E-01
 5.35376E-01    8.92055E-01
 5.40106E-01    9.07758E-01
 5.48560E-01    9.46302E-01
 5.51076E-01    9.54386E-01
 5.84494E-01    1.10498E+00
 6.00000E-01    1.11863E+00
 6.21541E-01    1.42334E+00
 6.73155E-01    1.67382E+00
 6.78514E-01    1.69436E+00
 6.82202E-01    1.69807E+00
 7.00000E-01    1.72233E+00
 7.66132E-01    2.37542E+00
 7.82032E-01    2.47725E+00
 8.00000E-01    2.53275E+00
 8.04071E-01    2.54259E+00
 8.27418E-01    2.98497E+00
 8.60388E-01    3.26580E+00
 8.62741E-01    3.27094E+00
 9.00000E-01    3.58963E+00
 1.00000E+00    7.81568E+01
 1.10000E+00    2.47759E+02
 1.20000E+00    4.45162E+02
 1.30000E+00    6.41785E+02
 1.40000E+00    8.30707E+02
 1.50000E+00    1.00929E+03
 1.60000E+00    1.16843E+03
 1.70000E+00    1.31647E+03
 1.80000E+00    1.45263E+03
 1.90000E+00    1.57777E+03
 2.00000E+00    1.69258E+03
 2.25000E+00    1.89387E+03
 2.50000E+00    2.06846E+03
 2.75000E+00    2.16697E+03
 3.00000E+00    2.25047E+03
 3.50000E+00    2.34748E+03
 4.00000E+00    2.39531E+03
 4.50000E+00    2.40525E+03
 5.00000E+00    2.39289E+03
 5.50000E+00    2.37022E+03
 6.00000E+00    2.34362E+03
 6.50000E+00    2.31692E+03
 7.00000E+00    2.29225E+03
 7.50000E+00    2.27047E+03
 8.00000E+00    2.25153E+03
 8.50000E+00    2.20353E+03
 9.00000E+00    1.92941E+03
 9.50000E+00    1.56415E+03
 1.00000E+01    1.22790E+03
 1.05000E+01    9.59631E+02
 1.10000E+01    7.54371E+02
 1.15000E+01    5.98673E+02
 1.20000E+01    4.79123E+02
 1.25000E+01    3.87179E+02
 1.30000E+01    3.16373E+02
 1.35000E+01    2.62453E+02
 1.40000E+01    2.21562E+02
 1.45000E+01    1.90780E+02
 1.50000E+01    1.67558E+02
 1.55000E+01    1.49888E+02
 1.60000E+01    1.36250E+02
 1.65000E+01    1.26321E+02
 1.70000E+01    1.18356E+02
 1.75000E+01    1.11122E+02
 1.80000E+01    1.05729E+02
 1.85000E+01    1.01027E+02
 1.90000E+01    9.69588E+01
 1.95000E+01    9.37865E+01
 2.00000E+01    9.03633E+01
