# n + Tb159 : (n,xn)    
# jendl4.0   N.Iwamoto,A.Zukeran               EVAL-Dec09
# 
# # energies =   103
#   E(MeV)        xs(mb) 
 5.83641E-02    0.00000E+00
 6.00000E-02    1.12768E+02
 7.00000E-02    2.47938E+02
 8.00000E-02    3.24973E+02
 9.00000E-02    3.84268E+02
 1.00000E-01    4.32991E+02
 1.05000E-01    4.53551E+02
 1.10000E-01    4.74117E+02
 1.20000E-01    5.07876E+02
 1.30000E-01    5.38032E+02
 1.38378E-01    5.58990E+02
 1.40000E-01    5.68760E+02
 1.50000E-01    6.07089E+02
 1.60000E-01    6.43786E+02
 1.70000E-01    6.76454E+02
 1.80000E-01    7.06844E+02
 1.90000E-01    7.34760E+02
 2.00000E-01    7.58026E+02
 2.25000E-01    8.05740E+02
 2.42680E-01    8.34493E+02
 2.42681E-01    8.34494E+02
 2.50000E-01    8.50161E+02
 2.75000E-01    8.87100E+02
 3.00000E-01    9.16868E+02
 3.50493E-01    9.68150E+02
 3.50494E-01    9.68155E+02
 3.64348E-01    1.02098E+03
 3.65852E-01    1.02440E+03
 3.90865E-01    1.12824E+03
 4.00000E-01    1.16229E+03
 4.30918E-01    1.24763E+03
 4.57485E-01    1.31539E+03
 5.00000E-01    1.39475E+03
 5.13639E-01    1.41738E+03
 5.35376E-01    1.45088E+03
 5.40106E-01    1.45876E+03
 5.48560E-01    1.47432E+03
 5.51075E-01    1.47849E+03
 5.51076E-01    1.47850E+03
 5.84494E-01    1.53221E+03
 6.00000E-01    1.57228E+03
 6.21541E-01    1.61330E+03
 6.73155E-01    1.73469E+03
 6.78514E-01    1.74385E+03
 6.82202E-01    1.75384E+03
 7.00000E-01    1.78790E+03
 7.66132E-01    1.89089E+03
 7.82032E-01    1.91263E+03
 8.00000E-01    1.93650E+03
 8.04071E-01    1.94175E+03
 8.27418E-01    1.97032E+03
 8.60388E-01    2.00679E+03
 8.62741E-01    2.01142E+03
 9.00000E-01    2.05565E+03
 1.00000E+00    2.16818E+03
 1.10000E+00    2.27649E+03
 1.20000E+00    2.37598E+03
 1.30000E+00    2.45133E+03
 1.40000E+00    2.51883E+03
 1.50000E+00    2.58058E+03
 1.60000E+00    2.61470E+03
 1.70000E+00    2.64671E+03
 1.80000E+00    2.67781E+03
 1.90000E+00    2.70846E+03
 2.00000E+00    2.73909E+03
 2.25000E+00    2.75767E+03
 2.50000E+00    2.79282E+03
 2.75000E+00    2.79392E+03
 3.00000E+00    2.81038E+03
 3.50000E+00    2.82988E+03
 4.00000E+00    2.84236E+03
 4.50000E+00    2.83499E+03
 5.00000E+00    2.81350E+03
 5.50000E+00    2.78577E+03
 6.00000E+00    2.75564E+03
 6.50000E+00    2.72520E+03
 7.00000E+00    2.69583E+03
 7.50000E+00    2.66831E+03
 8.00000E+00    2.64284E+03
 8.50000E+00    2.65092E+03
 9.00000E+00    2.88888E+03
 9.50000E+00    3.22119E+03
 1.00000E+01    3.52706E+03
 1.05000E+01    3.77006E+03
 1.10000E+01    3.94670E+03
 1.15000E+01    4.08063E+03
 1.20000E+01    4.17535E+03
 1.25000E+01    4.24822E+03
 1.30000E+01    4.29735E+03
 1.35000E+01    4.33419E+03
 1.40000E+01    4.35603E+03
 1.45000E+01    4.37103E+03
 1.50000E+01    4.37729E+03
 1.55000E+01    4.38133E+03
 1.60000E+01    4.40262E+03
 1.65000E+01    4.47827E+03
 1.70000E+01    4.61757E+03
 1.75000E+01    4.79755E+03
 1.80000E+01    4.99273E+03
 1.85000E+01    5.17429E+03
 1.90000E+01    5.33354E+03
 1.95000E+01    5.46313E+03
 2.00000E+01    5.57299E+03
