# n + Cd111 : (n,non)   
# jendl4.0   S.Kunieda, A.Ichihara, K.Shibata+ EVAL-FEB22
# uncertainties: n
# # energies =   153
#   E(MeV)       xs(mb) 
 1.80000E-03    0.00000E+00
 1.80000E-03    2.60488E+03
 2.00000E-03    2.45300E+03
 2.25000E-03    2.31477E+03
 2.50000E-03    2.19773E+03
 2.75000E-03    2.09696E+03
 3.00000E-03    2.00900E+03
 3.50000E-03    1.87604E+03
 4.00000E-03    1.76800E+03
 4.50000E-03    1.68442E+03
 5.00000E-03    1.61300E+03
 5.50000E-03    1.55453E+03
 6.00000E-03    1.50300E+03
 7.00000E-03    1.41800E+03
 8.00000E-03    1.35000E+03
 9.00000E-03    1.29200E+03
 1.00000E-02    1.24200E+03
 1.12500E-02    1.18246E+03
 1.25000E-02    1.13163E+03
 1.37500E-02    1.08753E+03
 1.50000E-02    1.04877E+03
 1.75000E-02    9.83472E+02
 2.00000E-02    9.30200E+02
 2.25000E-02    8.77502E+02
 2.50000E-02    8.32897E+02
 2.75000E-02    7.94503E+02
 3.00000E-02    7.61000E+02
 3.25000E-02    7.28557E+02
 3.50000E-02    6.99754E+02
 4.00000E-02    6.50700E+02
 4.50000E-02    6.08290E+02
 5.00000E-02    5.72700E+02
 5.50000E-02    5.41333E+02
 6.00000E-02    5.14200E+02
 6.50000E-02    4.90374E+02
 7.00000E-02    4.69300E+02
 7.50000E-02    4.50609E+02
 8.00000E-02    4.33800E+02
 9.00000E-02    4.05100E+02
 1.00000E-01    3.81600E+02
 1.10000E-01    3.62336E+02
 1.20000E-01    3.45600E+02
 1.30000E-01    3.32116E+02
 1.40000E-01    3.20100E+02
 1.60000E-01    3.01101E+02
 1.80000E-01    2.87401E+02
 2.00000E-01    2.77201E+02
 2.23811E-01    2.64884E+02
 2.47622E-01    2.54281E+02
 2.50000E-01    2.68771E+02
 2.56767E-01    2.95439E+02
 2.62500E-01    3.18032E+02
 2.75000E-01    3.68866E+02
 3.00000E-01    4.74401E+02
 3.45247E-01    5.90314E+02
 3.50000E-01    6.40521E+02
 3.99817E-01    9.21157E+02
 4.00000E-01    9.22201E+02
 4.20510E-01    9.86669E+02
 4.50000E-01    1.11128E+03
 5.00000E-01    1.23021E+03
 5.50000E-01    1.30122E+03
 6.00000E-01    1.34343E+03
 6.25821E-01    1.34309E+03
 6.50000E-01    1.38145E+03
 6.86669E-01    1.40837E+03
 7.00000E-01    1.42068E+03
 7.06366E-01    1.42054E+03
 7.11341E-01    1.42090E+03
 7.42694E-01    1.43920E+03
 7.50000E-01    1.46097E+03
 7.59657E-01    1.45919E+03
 7.61766E-01    1.46095E+03
 8.00000E-01    1.55233E+03
 8.38820E-01    1.60320E+03
 8.50000E-01    1.62167E+03
 8.61706E-01    1.61526E+03
 8.63382E-01    1.61487E+03
 8.72665E-01    1.62253E+03
 8.74482E-01    1.62597E+03
 9.00000E-01    1.70202E+03
 9.50000E-01    1.76687E+03
 9.76703E-01    1.78863E+03
 9.95502E-01    1.80402E+03
 1.00000E+00    1.80782E+03
 1.02601E+00    1.78370E+03
 1.02928E+00    1.78195E+03
 1.05628E+00    1.77576E+03
 1.06711E+00    1.77502E+03
 1.08806E+00    1.78019E+03
 1.12571E+00    1.80498E+03
 1.12858E+00    1.80808E+03
 1.14028E+00    1.82260E+03
 1.16147E+00    1.85662E+03
 1.19651E+00    1.92462E+03
 1.20000E+00    1.93393E+03
 1.20078E+00    1.93384E+03
 1.26802E+00    1.94227E+03
 1.28627E+00    1.94480E+03
 1.30061E+00    1.94985E+03
 1.31039E+00    1.95443E+03
 1.33363E+00    1.96807E+03
 1.33800E+00    1.97159E+03
 1.33869E+00    1.97228E+03
 1.34210E+00    1.97655E+03
 1.35190E+00    1.99183E+03
 1.35286E+00    1.99332E+03
 1.36295E+00    2.01116E+03
 1.40000E+00    2.07718E+03
 1.60000E+00    2.09403E+03
 1.80000E+00    2.09570E+03
 2.00000E+00    2.08852E+03
 2.20000E+00    2.07441E+03
 2.40000E+00    2.05802E+03
 2.60000E+00    2.04297E+03
 2.80000E+00    2.03123E+03
 3.00000E+00    2.02511E+03
 3.25000E+00    2.02627E+03
 3.34499E+00    2.03056E+03
 3.50000E+00    2.03764E+03
 3.75000E+00    2.05778E+03
 4.00000E+00    2.08408E+03
 4.25000E+00    2.11261E+03
 4.50000E+00    2.14014E+03
 4.75000E+00    2.16386E+03
 5.00000E+00    2.18204E+03
 5.50000E+00    2.19842E+03
 6.00000E+00    2.19199E+03
 6.50000E+00    2.17090E+03
 6.92378E+00    2.14704E+03
 7.00000E+00    2.14275E+03
 7.03929E+00    2.13652E+03
 7.48076E+00    2.11502E+03
 7.50000E+00    2.11408E+03
 8.00000E+00    2.08900E+03
 8.50000E+00    2.06938E+03
 8.58823E+00    2.06694E+03
 9.00000E+00    2.05552E+03
 9.16857E+00    2.05260E+03
 9.50000E+00    2.04684E+03
 1.00000E+01    2.04260E+03
 1.10000E+01    2.03805E+03
 1.20000E+01    2.03593E+03
 1.30000E+01    2.03211E+03
 1.37949E+01    2.02751E+03
 1.40000E+01    2.02632E+03
 1.50000E+01    2.01860E+03
 1.60000E+01    2.00671E+03
 1.70000E+01    1.99100E+03
 1.70454E+01    1.98957E+03
 1.80000E+01    1.97407E+03
 1.90000E+01    1.95802E+03
 2.00000E+01    1.94316E+03
