# n + Cd111 : (n,el)    
# jendl4.0   S.Kunieda, A.Ichihara, K.Shibata+ EVAL-FEB22
# uncertainties: n
# # energies =   171
#   E(MeV)       xs(mb) 
 1.00000E-11    7.74417E+03
 1.00000E-07    4.52793E+03
 4.13990E-07    4.50772E+03
 5.31580E-07    4.49809E+03
 6.82560E-07    4.48710E+03
 8.76420E-07    4.47379E+03
 1.12540E-06    4.45929E+03
 1.44500E-06    4.44106E+03
 1.85540E-06    4.42260E+03
 2.37240E-06    4.40242E+03
 3.05900E-06    4.37631E+03
 3.92790E-06    4.35083E+03
 5.04350E-06    4.32469E+03
 6.47600E-06    4.29176E+03
 8.31530E-06    4.25575E+03
 1.06770E-05    4.21113E+03
 1.37100E-05    4.14981E+03
 1.76030E-05    4.01503E+03
 2.26030E-05    7.08579E+03
 2.92030E-05    4.77557E+03
 3.72670E-05    4.38193E+03
 4.78510E-05    4.25033E+03
 6.14420E-05    4.11039E+03
 7.88930E-05    6.10850E+03
 1.01300E-04    4.38135E+03
 1.30070E-04    1.59496E+04
 1.67020E-04    4.93446E+03
 2.14450E-04    1.47505E+04
 2.75360E-04    5.69000E+03
 3.53580E-04    6.92950E+03
 4.54000E-04    5.62366E+03
 5.82950E-04    7.07680E+03
 7.48520E-04    6.81794E+03
 9.61120E-04    6.99587E+03
 1.23410E-03    1.21795E+04
 1.58460E-03    1.17261E+04
 2.03470E-03    8.19309E+03
 2.24870E-03    8.06643E+03
 2.48520E-03    7.97256E+03
 2.61260E-03    7.91059E+03
 2.74650E-03    7.81886E+03
 3.03540E-03    7.69664E+03
 3.35460E-03    7.57532E+03
 3.70740E-03    7.42824E+03
 4.30740E-03    7.21622E+03
 5.53080E-03    7.00693E+03
 7.10170E-03    6.86808E+03
 9.11880E-03    6.79431E+03
 1.17090E-02    6.77679E+03
 1.50340E-02    6.76309E+03
 1.93050E-02    6.76172E+03
 2.18750E-02    6.78361E+03
 2.35790E-02    6.79512E+03
 2.41760E-02    6.80110E+03
 2.47880E-02    6.81033E+03
 2.60580E-02    6.82032E+03
 2.70000E-02    6.83072E+03
 2.85000E-02    6.85319E+03
 3.18280E-02    6.88809E+03
 3.43070E-02    6.93820E+03
 4.08680E-02    7.00352E+03
 4.63090E-02    7.06207E+03
 5.24750E-02    7.11048E+03
 5.65620E-02    7.17101E+03
 6.73790E-02    7.22840E+03
 7.20000E-02    7.26744E+03
 7.95000E-02    7.29937E+03
 8.25000E-02    7.31839E+03
 8.65170E-02    7.35607E+03
 9.80370E-02    7.40682E+03
 1.11090E-01    7.43988E+03
 1.16790E-01    7.45877E+03
 1.22770E-01    7.47560E+03
 1.29070E-01    7.49219E+03
 1.35690E-01    7.50860E+03
 1.42640E-01    7.52291E+03
 1.49960E-01    7.53716E+03
 1.57640E-01    7.55124E+03
 1.65730E-01    7.56341E+03
 1.74220E-01    7.57585E+03
 1.83160E-01    7.58660E+03
 1.92550E-01    7.59699E+03
 2.02420E-01    7.60342E+03
 2.12800E-01    7.60832E+03
 2.23710E-01    7.61348E+03
 2.35180E-01    7.61890E+03
 2.47240E-01    7.58112E+03
 2.73240E-01    7.49904E+03
 2.87250E-01    7.45518E+03
 2.94520E-01    7.43470E+03
 2.97200E-01    7.42652E+03
 2.98500E-01    7.41674E+03
 3.01970E-01    7.34799E+03
 3.33730E-01    7.21710E+03
 3.68830E-01    7.07632E+03
 3.87740E-01    6.97180E+03
 4.07620E-01    6.84830E+03
 4.50490E-01    6.69842E+03
 4.97870E-01    6.60034E+03
 5.23400E-01    6.54050E+03
 5.50230E-01    6.48211E+03
 5.78440E-01    6.42073E+03
 6.08100E-01    6.35620E+03
 6.39280E-01    6.28835E+03
 6.72060E-01    6.21686E+03
 7.06510E-01    6.13465E+03
 7.42740E-01    6.03796E+03
 7.80820E-01    5.91437E+03
 8.20850E-01    5.78643E+03
 8.62940E-01    5.65728E+03
 9.07180E-01    5.51271E+03
 9.61640E-01    5.39109E+03
 1.00260E+00    5.21435E+03
 1.10800E+00    5.02633E+03
 1.16480E+00    4.90001E+03
 1.22460E+00    4.75252E+03
 1.28730E+00    4.59664E+03
 1.35340E+00    4.44766E+03
 1.42270E+00    4.31379E+03
 1.49570E+00    4.18177E+03
 1.57240E+00    4.05256E+03
 1.65300E+00    3.91831E+03
 1.73770E+00    3.78135E+03
 1.82680E+00    3.64387E+03
 1.92050E+00    3.50356E+03
 2.01900E+00    3.36405E+03
 2.12250E+00    3.22267E+03
 2.23130E+00    3.10697E+03
 2.30690E+00    3.03560E+03
 2.34570E+00    3.00170E+03
 2.36530E+00    2.97949E+03
 2.38520E+00    2.92309E+03
 2.46600E+00    2.80857E+03
 2.59240E+00    2.67580E+03
 2.72530E+00    2.54710E+03
 2.86500E+00    2.42390E+03
 3.01190E+00    2.30749E+03
 3.16640E+00    2.19842E+03
 3.32870E+00    2.05547E+03
 3.67880E+00    1.90129E+03
 4.06570E+00    1.80163E+03
 4.49330E+00    1.76342E+03
 4.72370E+00    1.75760E+03
 4.96590E+00    1.76790E+03
 5.22050E+00    1.78967E+03
 5.48810E+00    1.82120E+03
 5.76950E+00    1.86458E+03
 6.06530E+00    1.91543E+03
 6.37630E+00    1.96302E+03
 6.59240E+00    1.99254E+03
 6.70320E+00    2.03322E+03
 7.04690E+00    2.09573E+03
 7.40820E+00    2.16085E+03
 7.78800E+00    2.22568E+03
 8.18730E+00    2.28928E+03
 8.60710E+00    2.34770E+03
 9.04840E+00    2.40224E+03
 9.51230E+00    2.45115E+03
 1.00000E+01    2.49031E+03
 1.05130E+01    2.52330E+03
 1.10520E+01    2.54532E+03
 1.16180E+01    2.55856E+03
 1.22140E+01    2.55728E+03
 1.28400E+01    2.54612E+03
 1.34990E+01    2.52799E+03
 1.38400E+01    2.51411E+03
 1.41910E+01    2.49292E+03
 1.45500E+01    2.47090E+03
 1.49180E+01    2.43186E+03
 1.56830E+01    2.37055E+03
 1.64870E+01    2.29817E+03
