# n + Yb170 : (n,el)    
# jendl4.0   S.Kunieda, A.Ichihara, K.Shibata+ EVAL-FEB10
# uncertainties: n
# # energies =   171
#   E(MeV)       xs(mb) 
 1.00000E-11    8.22995E+03
 1.00000E-07    5.38165E+03
 4.13990E-07    5.34518E+03
 5.31580E-07    5.32584E+03
 6.82560E-07    5.30101E+03
 8.76420E-07    5.26899E+03
 1.12540E-06    5.22524E+03
 1.44500E-06    5.16800E+03
 1.85540E-06    5.09471E+03
 2.37240E-06    4.98847E+03
 3.05900E-06    4.84014E+03
 3.92790E-06    4.60942E+03
 5.04350E-06    4.16407E+03
 6.47600E-06    1.15731E+04
 8.31530E-06    7.43133E+03
 1.06770E-05    4.64491E+03
 1.37100E-05    3.78388E+03
 1.76030E-05    2.75987E+03
 2.26030E-05    1.21853E+03
 2.92030E-05    4.89813E+03
 3.72670E-05    1.44712E+06
 4.78510E-05    1.70648E+04
 6.14420E-05    1.44472E+05
 7.88930E-05    2.35015E+04
 1.01300E-04    1.14244E+04
 1.30070E-04    8.26261E+03
 1.67020E-04    6.33737E+04
 2.14450E-04    2.12502E+04
 2.75360E-04    2.87508E+04
 3.53580E-04    3.28672E+04
 4.54000E-04    9.59983E+03
 5.82950E-04    1.46731E+04
 7.48520E-04    1.67238E+04
 9.61120E-04    2.11293E+04
 1.23410E-03    2.16741E+04
 1.58460E-03    2.52465E+04
 2.03470E-03    2.38926E+04
 2.24870E-03    2.31402E+04
 2.48520E-03    2.25913E+04
 2.61260E-03    2.22323E+04
 2.74650E-03    2.17056E+04
 3.03540E-03    2.09868E+04
 3.35460E-03    2.02699E+04
 3.70740E-03    1.94082E+04
 4.30740E-03    1.81070E+04
 5.53080E-03    1.66893E+04
 7.10170E-03    1.55111E+04
 9.11880E-03    1.44906E+04
 1.17090E-02    1.35726E+04
 1.50340E-02    1.27144E+04
 1.93050E-02    1.21109E+04
 2.18750E-02    1.18143E+04
 2.35790E-02    1.16693E+04
 2.41760E-02    1.15975E+04
 2.47880E-02    1.14912E+04
 2.60580E-02    1.13704E+04
 2.70000E-02    1.12455E+04
 2.85000E-02    1.10250E+04
 3.18280E-02    1.08007E+04
 3.43070E-02    1.05115E+04
 4.08680E-02    1.01836E+04
 4.63090E-02    9.92614E+03
 5.24750E-02    9.72877E+03
 5.65620E-02    9.49161E+03
 6.73790E-02    9.27080E+03
 7.20000E-02    9.12582E+03
 7.95000E-02    9.00661E+03
 8.25000E-02    8.92964E+03
 8.65170E-02    8.76892E+03
 9.80370E-02    8.52171E+03
 1.11090E-01    8.34634E+03
 1.16790E-01    8.24741E+03
 1.22770E-01    8.14736E+03
 1.29070E-01    8.04845E+03
 1.35690E-01    7.95048E+03
 1.42640E-01    7.85213E+03
 1.49960E-01    7.75450E+03
 1.57640E-01    7.65735E+03
 1.65730E-01    7.56063E+03
 1.74220E-01    7.46482E+03
 1.83160E-01    7.36958E+03
 1.92550E-01    7.27551E+03
 2.02420E-01    7.18227E+03
 2.12800E-01    7.08979E+03
 2.23710E-01    6.99855E+03
 2.35180E-01    6.90866E+03
 2.47240E-01    6.77971E+03
 2.73240E-01    6.65010E+03
 2.87250E-01    6.58264E+03
 2.94520E-01    6.55539E+03
 2.97200E-01    6.54490E+03
 2.98500E-01    6.53235E+03
 3.01970E-01    6.44089E+03
 3.33730E-01    6.28022E+03
 3.68830E-01    6.16309E+03
 3.87740E-01    6.08676E+03
 4.07620E-01    5.97728E+03
 4.50490E-01    5.83277E+03
 4.97870E-01    5.72859E+03
 5.23400E-01    5.65759E+03
 5.50230E-01    5.59292E+03
 5.78440E-01    5.52565E+03
 6.08100E-01    5.45634E+03
 6.39280E-01    5.39330E+03
 6.72060E-01    5.32893E+03
 7.06510E-01    5.26155E+03
 7.42740E-01    5.19921E+03
 7.80820E-01    5.13766E+03
 8.20850E-01    5.07311E+03
 8.62940E-01    5.01297E+03
 9.07180E-01    4.94902E+03
 9.61640E-01    4.88670E+03
 1.00260E+00    4.77015E+03
 1.10800E+00    4.63355E+03
 1.16480E+00    4.53438E+03
 1.22460E+00    4.34094E+03
 1.28730E+00    4.13126E+03
 1.35340E+00    3.93726E+03
 1.42270E+00    3.84819E+03
 1.49570E+00    3.78869E+03
 1.57240E+00    3.73014E+03
 1.65300E+00    3.68241E+03
 1.73770E+00    3.63341E+03
 1.82680E+00    3.58815E+03
 1.92050E+00    3.54658E+03
 2.01900E+00    3.50289E+03
 2.12250E+00    3.46010E+03
 2.23130E+00    3.42597E+03
 2.30690E+00    3.40479E+03
 2.34570E+00    3.39400E+03
 2.36530E+00    3.38670E+03
 2.38520E+00    3.36819E+03
 2.46600E+00    3.33006E+03
 2.59240E+00    3.28220E+03
 2.72530E+00    3.23189E+03
 2.86500E+00    3.17899E+03
 3.01190E+00    3.12337E+03
 3.16640E+00    3.06490E+03
 3.32870E+00    2.97114E+03
 3.67880E+00    2.83617E+03
 4.06570E+00    2.69570E+03
 4.49330E+00    2.58785E+03
 4.72370E+00    2.51599E+03
 4.96590E+00    2.44650E+03
 5.22050E+00    2.38043E+03
 5.48810E+00    2.31995E+03
 5.76950E+00    2.26310E+03
 6.06530E+00    2.21507E+03
 6.37630E+00    2.17919E+03
 6.59240E+00    2.16119E+03
 6.70320E+00    2.14054E+03
 7.04690E+00    2.11633E+03
 7.40820E+00    2.10155E+03
 7.78800E+00    2.09670E+03
 8.18730E+00    2.10329E+03
 8.60710E+00    2.11908E+03
 9.04840E+00    2.14519E+03
 9.51230E+00    2.18003E+03
 1.00000E+01    2.22475E+03
 1.05130E+01    2.27520E+03
 1.10520E+01    2.33061E+03
 1.16180E+01    2.39008E+03
 1.22140E+01    2.45073E+03
 1.28400E+01    2.51054E+03
 1.34990E+01    2.55212E+03
 1.38400E+01    2.57930E+03
 1.41910E+01    2.60255E+03
 1.45500E+01    2.62538E+03
 1.49180E+01    2.65440E+03
 1.56830E+01    2.68423E+03
 1.64870E+01    2.70084E+03
