# n + Yb170 : (n,n'03)  
# jendl4.0   S.Kunieda, A.Ichihara, K.Shibata+ EVAL-FEB10
# uncertainties: n
# # energies =    48
#   E(MeV)       xs(mb) 
 5.76814E-01    0.00000E+00
 6.00000E-01    1.31200E-03
 6.50000E-01    3.96600E-02
 7.00000E-01    1.50000E-01
 7.50000E-01    3.51000E-01
 8.00000E-01    6.76400E-01
 8.50000E-01    1.18200E+00
 9.00000E-01    1.87300E+00
 9.50000E-01    2.77800E+00
 1.00000E+00    3.92800E+00
 1.20000E+00    1.10600E+01
 1.40000E+00    1.91800E+01
 1.60000E+00    2.43800E+01
 1.80000E+00    2.75700E+01
 2.00000E+00    2.92800E+01
 2.20000E+00    2.96900E+01
 2.40000E+00    2.90100E+01
 2.60000E+00    2.75200E+01
 2.80000E+00    2.55400E+01
 3.00000E+00    2.33300E+01
 3.25000E+00    2.07200E+01
 3.50000E+00    1.80100E+01
 3.75000E+00    1.60500E+01
 4.00000E+00    1.44700E+01
 4.25000E+00    1.32800E+01
 4.50000E+00    1.24000E+01
 4.75000E+00    1.17900E+01
 5.00000E+00    1.13600E+01
 5.50000E+00    1.08100E+01
 6.00000E+00    1.04300E+01
 6.50000E+00    1.00900E+01
 7.00000E+00    9.71800E+00
 7.50000E+00    9.27200E+00
 8.00000E+00    8.76600E+00
 8.50000E+00    8.23600E+00
 9.00000E+00    7.72600E+00
 9.50000E+00    7.26100E+00
 1.00000E+01    6.85300E+00
 1.10000E+01    6.18600E+00
 1.20000E+01    5.66500E+00
 1.30000E+01    5.24100E+00
 1.40000E+01    4.88200E+00
 1.50000E+01    4.56200E+00
 1.60000E+01    4.27100E+00
 1.70000E+01    4.00400E+00
 1.80000E+01    3.75800E+00
 1.90000E+01    3.52700E+00
 2.00000E+01    3.30500E+00
