# n + Yb170 : (n,n'02)  
# jendl4.0   S.Kunieda, A.Ichihara, K.Shibata+ EVAL-FEB10
# uncertainties: n
# # energies =    54
#   E(MeV)       xs(mb) 
 2.79087E-01    0.00000E+00
 3.00000E-01    1.49500E+00
 3.50000E-01    9.29000E+00
 4.00000E-01    2.38500E+01
 4.50000E-01    4.50400E+01
 5.00000E-01    7.17700E+01
 5.50000E-01    1.02900E+02
 6.00000E-01    1.37100E+02
 6.50000E-01    1.72600E+02
 7.00000E-01    2.08400E+02
 7.50000E-01    2.43500E+02
 8.00000E-01    2.77500E+02
 8.50000E-01    3.09800E+02
 9.00000E-01    3.40300E+02
 9.50000E-01    3.68900E+02
 1.00000E+00    3.95800E+02
 1.20000E+00    4.45500E+02
 1.40000E+00    4.61800E+02
 1.60000E+00    3.92400E+02
 1.80000E+00    3.25900E+02
 2.00000E+00    2.70500E+02
 2.20000E+00    2.26200E+02
 2.40000E+00    1.91500E+02
 2.60000E+00    1.64800E+02
 2.80000E+00    1.44500E+02
 3.00000E+00    1.29000E+02
 3.25000E+00    1.14900E+02
 3.50000E+00    1.03700E+02
 3.75000E+00    9.59500E+01
 4.00000E+00    8.99400E+01
 4.25000E+00    8.52000E+01
 4.50000E+00    8.13700E+01
 4.75000E+00    7.82900E+01
 5.00000E+00    7.57100E+01
 5.50000E+00    7.14200E+01
 6.00000E+00    6.76500E+01
 6.50000E+00    6.40200E+01
 7.00000E+00    6.04700E+01
 7.50000E+00    5.70500E+01
 8.00000E+00    5.38100E+01
 8.50000E+00    5.07800E+01
 9.00000E+00    4.79800E+01
 9.50000E+00    4.54200E+01
 1.00000E+01    4.30700E+01
 1.10000E+01    3.89800E+01
 1.20000E+01    3.55200E+01
 1.30000E+01    3.25200E+01
 1.40000E+01    2.99200E+01
 1.50000E+01    2.76900E+01
 1.60000E+01    2.58000E+01
 1.70000E+01    2.41700E+01
 1.80000E+01    2.27600E+01
 1.90000E+01    2.15000E+01
 2.00000E+01    2.03600E+01
