# n + Yb170 : (n,n'01)  
# jendl4.0   S.Kunieda, A.Ichihara, K.Shibata+ EVAL-FEB10
# uncertainties: n
# # energies =    62
#   E(MeV)       xs(mb) 
 8.47551E-02    0.00000E+00
 9.00000E-02    7.07400E+01
 1.00000E-01    1.44500E+02
 1.20000E-01    2.84600E+02
 1.40000E-01    4.08700E+02
 1.60000E-01    5.19700E+02
 1.80000E-01    6.21200E+02
 2.00000E-01    7.14700E+02
 2.50000E-01    9.20400E+02
 3.00000E-01    1.09400E+03
 3.50000E-01    1.23700E+03
 4.00000E-01    1.35400E+03
 4.50000E-01    1.44700E+03
 5.00000E-01    1.52000E+03
 5.50000E-01    1.57700E+03
 6.00000E-01    1.62000E+03
 6.50000E-01    1.65100E+03
 7.00000E-01    1.67300E+03
 7.50000E-01    1.68800E+03
 8.00000E-01    1.69700E+03
 8.50000E-01    1.70200E+03
 9.00000E-01    1.70400E+03
 9.50000E-01    1.70300E+03
 1.00000E+00    1.70000E+03
 1.20000E+00    1.54200E+03
 1.40000E+00    1.46100E+03
 1.60000E+00    1.17400E+03
 1.80000E+00    9.67500E+02
 2.00000E+00    8.20800E+02
 2.20000E+00    7.14900E+02
 2.40000E+00    6.37100E+02
 2.60000E+00    5.79200E+02
 2.80000E+00    5.35500E+02
 3.00000E+00    5.02100E+02
 3.25000E+00    4.71100E+02
 3.50000E+00    4.46900E+02
 3.75000E+00    4.29600E+02
 4.00000E+00    4.16400E+02
 4.25000E+00    4.06300E+02
 4.50000E+00    3.98500E+02
 4.75000E+00    3.92400E+02
 5.00000E+00    3.87500E+02
 5.50000E+00    3.79100E+02
 6.00000E+00    3.70900E+02
 6.50000E+00    3.62000E+02
 7.00000E+00    3.52400E+02
 7.50000E+00    3.42500E+02
 8.00000E+00    3.32700E+02
 8.50000E+00    3.23200E+02
 9.00000E+00    3.14100E+02
 9.50000E+00    3.05600E+02
 1.00000E+01    2.97600E+02
 1.10000E+01    2.82700E+02
 1.20000E+01    2.69200E+02
 1.30000E+01    2.56800E+02
 1.40000E+01    2.45500E+02
 1.50000E+01    2.35200E+02
 1.60000E+01    2.25800E+02
 1.70000E+01    2.17200E+02
 1.80000E+01    2.09300E+02
 1.90000E+01    2.02100E+02
 2.00000E+01    1.95600E+02
