# n + Te128 : (n,n'07)  
# jeff3.3    A.J. Koning and D. Rochman        EVAL-DEC15
# uncertainties: n
# # energies =    84
#   E(MeV)       xs(mb) 
 1.99442E+00    0.00000E+00
 2.00000E+00    4.96754E+00
 2.04377E+00    1.20542E+01
 2.15012E+00    2.92728E+01
 2.18059E+00    3.42061E+01
 2.20000E+00    3.73487E+01
 2.21079E+00    3.76778E+01
 2.23544E+00    3.84297E+01
 2.28825E+00    4.00405E+01
 2.32651E+00    4.12074E+01
 2.35617E+00    4.21121E+01
 2.37066E+00    4.25541E+01
 2.40000E+00    4.34490E+01
 2.41482E+00    4.33344E+01
 2.42433E+00    4.32608E+01
 2.44515E+00    4.30998E+01
 2.45924E+00    4.29908E+01
 2.50460E+00    4.26399E+01
 2.50703E+00    4.26211E+01
 2.51384E+00    4.25684E+01
 2.52784E+00    4.24601E+01
 2.53987E+00    4.23670E+01
 2.57065E+00    4.21289E+01
 2.59146E+00    4.19680E+01
 2.60000E+00    4.19019E+01
 2.60841E+00    4.17602E+01
 2.61952E+00    4.15731E+01
 2.65088E+00    4.10448E+01
 2.80000E+00    3.85330E+01
 3.00000E+00    3.53187E+01
 3.20000E+00    3.18004E+01
 3.40000E+00    2.80683E+01
 3.60000E+00    2.43302E+01
 3.80000E+00    2.07568E+01
 4.00000E+00    1.74586E+01
 4.20000E+00    1.44993E+01
 4.40000E+00    1.19048E+01
 4.60000E+00    9.67596E+00
 4.80000E+00    7.79560E+00
 5.00000E+00    6.22942E+00
 5.20000E+00    4.94145E+00
 5.40000E+00    3.89249E+00
 5.60000E+00    3.04647E+00
 5.80000E+00    2.37023E+00
 6.00000E+00    1.83465E+00
 6.20000E+00    1.41395E+00
 6.40000E+00    1.08349E+00
 6.60000E+00    8.29319E-01
 6.80000E+00    6.34700E-01
 7.00000E+00    4.84708E-01
 7.20000E+00    3.70970E-01
 7.40000E+00    2.83272E-01
 7.60000E+00    2.17142E-01
 7.80000E+00    1.66610E-01
 8.00000E+00    1.27937E-01
 8.50000E+00    6.71067E-02
 9.00000E+00    3.58953E-02
 9.50000E+00    1.95511E-02
 1.00000E+01    1.08090E-02
 1.05000E+01    6.05200E-03
 1.10000E+01    3.42576E-03
 1.15000E+01    1.95780E-03
 1.20000E+01    1.12887E-03
 1.25000E+01    6.56327E-04
 1.30000E+01    3.84701E-04
 1.35000E+01    2.27297E-04
 1.40000E+01    1.35402E-04
 1.45000E+01    8.13301E-05
 1.50000E+01    4.92553E-05
 1.60000E+01    1.85184E-05
 1.70000E+01    7.18187E-06
 1.80000E+01    2.86457E-06
 1.90000E+01    1.17139E-06
 2.00000E+01    4.85740E-07
 2.10000E+01    2.07040E-07
 2.20000E+01    8.96800E-08
 2.30000E+01    3.95210E-08
 2.40000E+01    1.76670E-08
 2.50000E+01    7.98900E-09
 2.60000E+01    3.66760E-09
 2.70000E+01    1.70990E-09
 2.80000E+01    8.09450E-10
 2.90000E+01    3.88840E-10
 3.00000E+01    1.89200E-10
