# n + Te128 : (n,n'17)  
# jeff3.3    A.J. Koning and D. Rochman        EVAL-DEC15
# uncertainties: n
# # energies =    71
#   E(MeV)       xs(mb) 
 2.41482E+00    0.00000E+00
 2.42433E+00    1.40136E+00
 2.44515E+00    4.46929E+00
 2.45924E+00    6.54554E+00
 2.50460E+00    1.32296E+01
 2.50703E+00    1.35877E+01
 2.51384E+00    1.45912E+01
 2.52784E+00    1.66541E+01
 2.53987E+00    1.84268E+01
 2.57065E+00    2.29624E+01
 2.59146E+00    2.60289E+01
 2.60000E+00    2.72873E+01
 2.60841E+00    2.76970E+01
 2.61952E+00    2.82383E+01
 2.65088E+00    2.97662E+01
 2.80000E+00    3.70314E+01
 3.00000E+00    4.18187E+01
 3.20000E+00    4.43128E+01
 3.40000E+00    4.49424E+01
 3.60000E+00    4.38681E+01
 3.80000E+00    4.13185E+01
 4.00000E+00    3.76427E+01
 4.20000E+00    3.32642E+01
 4.40000E+00    2.86109E+01
 4.60000E+00    2.40512E+01
 4.80000E+00    1.98507E+01
 5.00000E+00    1.61511E+01
 5.20000E+00    1.30076E+01
 5.40000E+00    1.04014E+01
 5.60000E+00    8.27754E+00
 5.80000E+00    6.56528E+00
 6.00000E+00    5.19494E+00
 6.20000E+00    4.10367E+00
 6.40000E+00    3.22921E+00
 6.60000E+00    2.54137E+00
 6.80000E+00    2.00226E+00
 7.00000E+00    1.57538E+00
 7.20000E+00    1.24218E+00
 7.40000E+00    9.77095E-01
 7.60000E+00    7.71408E-01
 7.80000E+00    6.08916E-01
 8.00000E+00    4.80624E-01
 8.50000E+00    2.68549E-01
 9.00000E+00    1.51659E-01
 9.50000E+00    8.64585E-02
 1.00000E+01    4.96660E-02
 1.05000E+01    2.87333E-02
 1.10000E+01    1.67371E-02
 1.15000E+01    9.81298E-03
 1.20000E+01    5.79057E-03
 1.25000E+01    3.43832E-03
 1.30000E+01    2.05452E-03
 1.35000E+01    1.23550E-03
 1.40000E+01    7.47990E-04
 1.45000E+01    4.55965E-04
 1.50000E+01    2.79866E-04
 1.60000E+01    1.07659E-04
 1.70000E+01    4.25352E-05
 1.80000E+01    1.72285E-05
 1.90000E+01    7.13435E-06
 2.00000E+01    2.98710E-06
 2.10000E+01    1.28248E-06
 2.20000E+01    5.59140E-07
 2.30000E+01    2.48210E-07
 2.40000E+01    1.11910E-07
 2.50000E+01    5.10760E-08
 2.60000E+01    2.36560E-08
 2.70000E+01    1.11120E-08
 2.80000E+01    5.28960E-09
 2.90000E+01    2.55090E-09
 3.00000E+01    1.24470E-09
