# n + Os188 : (n,n'19)  
# tendl.2019 A.J. Koning and D. Rochman        EVAL-NOV19
# uncertainties: n
# # energies =    74
#   E(MeV)       xs(mb) 
 1.57511E+00    0.00000E+00
 1.58546E+00    7.33296E+00
 1.60000E+00    1.76346E+01
 1.62918E+00    2.19462E+01
 1.67761E+00    2.91022E+01
 1.69433E+00    3.15728E+01
 1.70398E+00    3.29986E+01
 1.71342E+00    3.43935E+01
 1.73870E+00    3.81288E+01
 1.75587E+00    4.06659E+01
 1.77487E+00    4.34733E+01
 1.78050E+00    4.43052E+01
 1.80000E+00    4.71865E+01
 1.81731E+00    4.84789E+01
 2.00000E+00    6.21190E+01
 2.20000E+00    7.15073E+01
 2.40000E+00    7.60627E+01
 2.60000E+00    7.57093E+01
 2.80000E+00    7.07868E+01
 3.00000E+00    6.20341E+01
 3.20000E+00    5.06609E+01
 3.40000E+00    3.89050E+01
 3.60000E+00    2.83558E+01
 3.80000E+00    1.98829E+01
 4.00000E+00    1.36057E+01
 4.20000E+00    9.18500E+00
 4.40000E+00    6.16734E+00
 4.60000E+00    4.11723E+00
 4.80000E+00    2.76820E+00
 5.00000E+00    1.86994E+00
 5.20000E+00    1.27113E+00
 5.40000E+00    8.70235E-01
 5.60000E+00    5.96921E-01
 5.80000E+00    4.13097E-01
 6.00000E+00    2.88060E-01
 6.20000E+00    2.02419E-01
 6.40000E+00    1.43354E-01
 6.60000E+00    1.02025E-01
 6.80000E+00    7.32139E-02
 7.00000E+00    5.27578E-02
 7.20000E+00    3.82189E-02
 7.40000E+00    2.78426E-02
 7.60000E+00    2.03415E-02
 7.80000E+00    1.49605E-02
 8.00000E+00    1.10346E-02
 8.50000E+00    5.23430E-03
 9.00000E+00    2.51960E-03
 9.50000E+00    1.22815E-03
 1.00000E+01    6.06419E-04
 1.05000E+01    3.03479E-04
 1.10000E+01    1.53948E-04
 1.15000E+01    7.91443E-05
 1.20000E+01    4.12122E-05
 1.25000E+01    2.17378E-05
 1.30000E+01    1.16092E-05
 1.35000E+01    6.27514E-06
 1.40000E+01    3.43033E-06
 1.45000E+01    1.89560E-06
 1.50000E+01    1.05807E-06
 1.60000E+01    3.38780E-07
 1.70000E+01    1.12130E-07
 1.80000E+01    3.80360E-08
 1.90000E+01    1.33430E-08
 2.00000E+01    4.80240E-09
 2.10000E+01    1.77120E-09
 2.20000E+01    6.69300E-10
 2.30000E+01    2.59020E-10
 2.40000E+01    1.02340E-10
 2.50000E+01    4.13310E-11
 2.60000E+01    1.69640E-11
 2.70000E+01    7.07180E-12
 2.80000E+01    2.99450E-12
 2.90000E+01    1.28640E-12
 3.00000E+01    5.60520E-13
