# n + Os188 : (n,n'13)  
# tendl.2019 A.J. Koning and D. Rochman        EVAL-NOV19
# uncertainties: n
# # energies =    80
#   E(MeV)       xs(mb) 
 1.45125E+00    0.00000E+00
 1.46535E+00    8.64194E+00
 1.47036E+00    1.17126E+01
 1.48597E+00    2.12799E+01
 1.52283E+00    4.38714E+01
 1.52424E+00    4.47356E+01
 1.57511E+00    7.59138E+01
 1.58546E+00    8.22573E+01
 1.60000E+00    9.11689E+01
 1.62918E+00    9.67424E+01
 1.67761E+00    1.05993E+02
 1.69433E+00    1.09187E+02
 1.70398E+00    1.11030E+02
 1.71342E+00    1.12833E+02
 1.73870E+00    1.17661E+02
 1.75587E+00    1.20941E+02
 1.77487E+00    1.24570E+02
 1.78050E+00    1.25645E+02
 1.80000E+00    1.29370E+02
 1.81731E+00    1.29961E+02
 2.00000E+00    1.36202E+02
 2.20000E+00    1.34328E+02
 2.40000E+00    1.27104E+02
 2.60000E+00    1.15560E+02
 2.80000E+00    1.00528E+02
 3.00000E+00    8.30726E+01
 3.20000E+00    6.46291E+01
 3.40000E+00    4.77065E+01
 3.60000E+00    3.35648E+01
 3.80000E+00    2.27788E+01
 4.00000E+00    1.51133E+01
 4.20000E+00    9.90777E+00
 4.40000E+00    6.45129E+00
 4.60000E+00    4.20513E+00
 4.80000E+00    2.76189E+00
 5.00000E+00    1.82468E+00
 5.20000E+00    1.21496E+00
 5.40000E+00    8.15891E-01
 5.60000E+00    5.49695E-01
 5.80000E+00    3.74134E-01
 6.00000E+00    2.56868E-01
 6.20000E+00    1.77934E-01
 6.40000E+00    1.24360E-01
 6.60000E+00    8.74242E-02
 6.80000E+00    6.20322E-02
 7.00000E+00    4.42352E-02
 7.20000E+00    3.17335E-02
 7.40000E+00    2.29084E-02
 7.60000E+00    1.65946E-02
 7.80000E+00    1.21071E-02
 8.00000E+00    8.86257E-03
 8.50000E+00    4.13202E-03
 9.00000E+00    1.95877E-03
 9.50000E+00    9.41833E-04
 1.00000E+01    4.59399E-04
 1.05000E+01    2.27387E-04
 1.10000E+01    1.14195E-04
 1.15000E+01    5.81664E-05
 1.20000E+01    3.00280E-05
 1.25000E+01    1.57102E-05
 1.30000E+01    8.32549E-06
 1.35000E+01    4.46711E-06
 1.40000E+01    2.42487E-06
 1.45000E+01    1.33111E-06
 1.50000E+01    7.38380E-07
 1.60000E+01    2.33810E-07
 1.70000E+01    7.66710E-08
 1.80000E+01    2.58040E-08
 1.90000E+01    8.99130E-09
 2.00000E+01    3.21690E-09
 2.10000E+01    1.17990E-09
 2.20000E+01    4.43540E-10
 2.30000E+01    1.70810E-10
 2.40000E+01    6.71850E-11
 2.50000E+01    2.70230E-11
 2.60000E+01    1.10520E-11
 2.70000E+01    4.59280E-12
 2.80000E+01    1.93930E-12
 2.90000E+01    8.30910E-13
 3.00000E+01    3.61160E-13
