# n + Os188 : (n,n'18)  
# tendl.2019 A.J. Koning and D. Rochman        EVAL-NOV19
# uncertainties: n
# # energies =    75
#   E(MeV)       xs(mb) 
 1.52424E+00    0.00000E+00
 1.57511E+00    4.03004E+00
 1.58546E+00    4.84999E+00
 1.60000E+00    6.00189E+00
 1.62918E+00    8.17063E+00
 1.67761E+00    1.17701E+01
 1.69433E+00    1.30128E+01
 1.70398E+00    1.37300E+01
 1.71342E+00    1.44316E+01
 1.73870E+00    1.63105E+01
 1.75587E+00    1.75866E+01
 1.77487E+00    1.89988E+01
 1.78050E+00    1.94172E+01
 1.80000E+00    2.08665E+01
 1.81731E+00    2.16782E+01
 2.00000E+00    3.02446E+01
 2.20000E+00    3.60987E+01
 2.40000E+00    3.99150E+01
 2.60000E+00    4.17887E+01
 2.80000E+00    4.13205E+01
 3.00000E+00    3.82282E+01
 3.20000E+00    3.27346E+01
 3.40000E+00    2.62717E+01
 3.60000E+00    1.99327E+01
 3.80000E+00    1.44962E+01
 4.00000E+00    1.02508E+01
 4.20000E+00    7.12530E+00
 4.40000E+00    4.90780E+00
 4.60000E+00    3.36187E+00
 4.80000E+00    2.30775E+00
 5.00000E+00    1.58853E+00
 5.20000E+00    1.09852E+00
 5.40000E+00    7.63857E-01
 5.60000E+00    5.31324E-01
 5.80000E+00    3.72284E-01
 6.00000E+00    2.62484E-01
 6.20000E+00    1.86222E-01
 6.40000E+00    1.32998E-01
 6.60000E+00    9.53470E-02
 6.80000E+00    6.88556E-02
 7.00000E+00    4.98893E-02
 7.20000E+00    3.63143E-02
 7.40000E+00    2.65672E-02
 7.60000E+00    1.94825E-02
 7.80000E+00    1.43775E-02
 8.00000E+00    1.06375E-02
 8.50000E+00    5.08132E-03
 9.00000E+00    2.46242E-03
 9.50000E+00    1.20880E-03
 1.00000E+01    6.01435E-04
 1.05000E+01    3.03405E-04
 1.10000E+01    1.55154E-04
 1.15000E+01    8.03872E-05
 1.20000E+01    4.21682E-05
 1.25000E+01    2.23955E-05
 1.30000E+01    1.20374E-05
 1.35000E+01    6.54558E-06
 1.40000E+01    3.59810E-06
 1.45000E+01    1.99853E-06
 1.50000E+01    1.12077E-06
 1.60000E+01    3.61730E-07
 1.70000E+01    1.20480E-07
 1.80000E+01    4.10750E-08
 1.90000E+01    1.44740E-08
 2.00000E+01    5.23210E-09
 2.10000E+01    1.93780E-09
 2.20000E+01    7.35220E-10
 2.30000E+01    2.85560E-10
 2.40000E+01    1.13190E-10
 2.50000E+01    4.58390E-11
 2.60000E+01    1.88620E-11
 2.70000E+01    7.88180E-12
 2.80000E+01    3.34480E-12
 2.90000E+01    1.43980E-12
 3.00000E+01    6.28500E-13
