# n + Os188 : (n,n'15)  
# tendl.2019 A.J. Koning and D. Rochman        EVAL-NOV19
# uncertainties: n
# # energies =    78
#   E(MeV)       xs(mb) 
 1.47036E+00    0.00000E+00
 1.48597E+00    9.80177E+00
 1.52283E+00    3.29468E+01
 1.52424E+00    3.38321E+01
 1.57511E+00    6.57742E+01
 1.58546E+00    7.22731E+01
 1.60000E+00    8.14031E+01
 1.62918E+00    8.74579E+01
 1.67761E+00    9.75071E+01
 1.69433E+00    1.00976E+02
 1.70398E+00    1.02979E+02
 1.71342E+00    1.04938E+02
 1.73870E+00    1.10183E+02
 1.75587E+00    1.13746E+02
 1.77487E+00    1.17689E+02
 1.78050E+00    1.18857E+02
 1.80000E+00    1.22903E+02
 1.81731E+00    1.23689E+02
 2.00000E+00    1.31984E+02
 2.20000E+00    1.31438E+02
 2.40000E+00    1.25109E+02
 2.60000E+00    1.14187E+02
 2.80000E+00    9.95928E+01
 3.00000E+00    8.24529E+01
 3.20000E+00    6.42355E+01
 3.40000E+00    4.74651E+01
 3.60000E+00    3.34204E+01
 3.80000E+00    2.26930E+01
 4.00000E+00    1.50621E+01
 4.20000E+00    9.87716E+00
 4.40000E+00    6.43672E+00
 4.60000E+00    4.19417E+00
 4.80000E+00    2.75539E+00
 5.00000E+00    1.82065E+00
 5.20000E+00    1.21239E+00
 5.40000E+00    8.14213E-01
 5.60000E+00    5.48582E-01
 5.80000E+00    3.73389E-01
 6.00000E+00    2.56362E-01
 6.20000E+00    1.77588E-01
 6.40000E+00    1.24121E-01
 6.60000E+00    8.72597E-02
 6.80000E+00    6.19174E-02
 7.00000E+00    4.41551E-02
 7.20000E+00    3.16771E-02
 7.40000E+00    2.28686E-02
 7.60000E+00    1.65664E-02
 7.80000E+00    1.20870E-02
 8.00000E+00    8.84819E-03
 8.50000E+00    4.12571E-03
 9.00000E+00    1.95596E-03
 9.50000E+00    9.40565E-04
 1.00000E+01    4.58819E-04
 1.05000E+01    2.27118E-04
 1.10000E+01    1.14071E-04
 1.15000E+01    5.81079E-05
 1.20000E+01    3.00002E-05
 1.25000E+01    1.56966E-05
 1.30000E+01    8.31865E-06
 1.35000E+01    4.46359E-06
 1.40000E+01    2.42302E-06
 1.45000E+01    1.33012E-06
 1.50000E+01    7.37850E-07
 1.60000E+01    2.33650E-07
 1.70000E+01    7.66240E-08
 1.80000E+01    2.57900E-08
 1.90000E+01    8.98670E-09
 2.00000E+01    3.21540E-09
 2.10000E+01    1.17930E-09
 2.20000E+01    4.43340E-10
 2.30000E+01    1.70730E-10
 2.40000E+01    6.71570E-11
 2.50000E+01    2.70120E-11
 2.60000E+01    1.10470E-11
 2.70000E+01    4.59110E-12
 2.80000E+01    1.93870E-12
 2.90000E+01    8.30650E-13
 3.00000E+01    3.61050E-13
