# n + Hg204 : (n,n'06)  
# tendl.2019 A.J. Koning and D. Rochman        EVAL-NOV19
# uncertainties: n
# # energies =    85
#   E(MeV)       xs(mb) 
 1.85049E+00    0.00000E+00
 1.86041E+00    3.47980E+00
 1.95732E+00    3.74745E+01
 1.99920E+00    5.21655E+01
 2.00000E+00    5.24461E+01
 2.09884E+00    6.30351E+01
 2.10482E+00    6.36758E+01
 2.12794E+00    6.61527E+01
 2.14180E+00    6.76376E+01
 2.15145E+00    6.86714E+01
 2.20000E+00    7.38727E+01
 2.20184E+00    7.38842E+01
 2.24700E+00    7.41658E+01
 2.27416E+00    7.43352E+01
 2.27556E+00    7.43439E+01
 2.30701E+00    7.45400E+01
 2.31157E+00    7.45685E+01
 2.34135E+00    7.47542E+01
 2.37067E+00    7.49370E+01
 2.39770E+00    7.51056E+01
 2.40000E+00    7.51199E+01
 2.40745E+00    7.49236E+01
 2.47765E+00    7.30741E+01
 2.52687E+00    7.17773E+01
 2.58154E+00    7.03369E+01
 2.60000E+00    6.98505E+01
 2.64126E+00    6.84985E+01
 2.67044E+00    6.75423E+01
 2.68848E+00    6.69511E+01
 2.80000E+00    6.32968E+01
 3.00000E+00    5.57478E+01
 3.20000E+00    4.85778E+01
 3.40000E+00    4.20847E+01
 3.60000E+00    3.62324E+01
 3.80000E+00    3.09247E+01
 4.00000E+00    2.60978E+01
 4.20000E+00    2.17613E+01
 4.40000E+00    1.79308E+01
 4.60000E+00    1.46152E+01
 4.80000E+00    1.17996E+01
 5.00000E+00    9.45430E+00
 5.20000E+00    7.52705E+00
 5.40000E+00    5.95017E+00
 5.60000E+00    4.68624E+00
 5.80000E+00    3.68147E+00
 6.00000E+00    2.88769E+00
 6.20000E+00    2.26248E+00
 6.40000E+00    1.77090E+00
 6.60000E+00    1.38361E+00
 6.80000E+00    1.08097E+00
 7.00000E+00    8.41744E-01
 7.20000E+00    6.55475E-01
 7.40000E+00    5.09023E-01
 7.60000E+00    3.95633E-01
 7.80000E+00    3.07141E-01
 8.00000E+00    2.38094E-01
 8.50000E+00    1.26254E-01
 9.00000E+00    6.71959E-02
 9.50000E+00    3.60107E-02
 1.00000E+01    1.94432E-02
 1.05000E+01    1.05660E-02
 1.10000E+01    5.77067E-03
 1.15000E+01    3.16407E-03
 1.20000E+01    1.74130E-03
 1.25000E+01    9.62127E-04
 1.30000E+01    5.34037E-04
 1.35000E+01    2.97943E-04
 1.40000E+01    1.67152E-04
 1.45000E+01    9.43170E-05
 1.50000E+01    5.35269E-05
 1.60000E+01    1.75257E-05
 1.70000E+01    5.82846E-06
 1.80000E+01    1.98149E-06
 1.90000E+01    6.85760E-07
 2.00000E+01    2.41730E-07
 2.10000E+01    8.68100E-08
 2.20000E+01    3.17360E-08
 2.30000E+01    1.18130E-08
 2.40000E+01    4.46520E-09
 2.50000E+01    1.71270E-09
 2.60000E+01    6.66040E-10
 2.70000E+01    2.62310E-10
 2.80000E+01    1.04560E-10
 2.90000E+01    4.22130E-11
 3.00000E+01    1.72500E-11
