# n + Am243 : (n,g)     
# jendl.ad   O.Iwamoto,T.Nakagawa,T.Ohsawa,+   EVAL-JAN10
# uncertainties: n
# # energies =    69
#   E(MeV)       xs(mb) 
 1.00000E-10    5.35080E+05
 5.00000E-09    1.46990E+05
 1.00000E-08    1.12100E+05
 1.50000E-08    9.48439E+04
 2.00000E-08    8.40156E+04
 2.50000E-08    7.64372E+04
 3.00000E-08    7.07527E+04
 3.50000E-08    6.55798E+04
 4.20000E-08    6.06071E+04
 5.00000E-08    5.65420E+04
 5.80000E-08    5.31962E+04
 6.70000E-08    4.98570E+04
 8.00000E-08    4.61871E+04
 1.00000E-07    4.19611E+04
 1.40000E-07    3.85370E+04
 1.80000E-07    3.67324E+04
 2.20000E-07    3.59455E+04
 2.50000E-07    3.57465E+04
 2.80000E-07    3.58778E+04
 3.00000E-07    3.62236E+04
 3.20000E-07    3.71326E+04
 3.50000E-07    4.43647E+04
 4.00000E-07    5.99456E+04
 5.00000E-07    4.51488E+04
 6.25000E-07    5.95322E+04
 7.80000E-07    8.39457E+04
 8.50000E-07    1.18086E+05
 9.10000E-07    2.09483E+05
 9.50000E-07    3.98676E+05
 9.72000E-07    5.11053E+05
 9.96000E-07    4.00492E+05
 1.02000E-06    2.80032E+05
 1.04500E-06    2.50986E+05
 1.07100E-06    2.67579E+05
 1.09700E-06    3.08193E+05
 1.12300E-06    3.73179E+05
 1.15000E-06    1.39570E+06
 1.30000E-06    7.78887E+06
 1.50000E-06    7.01548E+05
 2.10000E-06    2.20690E+04
 2.60000E-06    2.65587E+04
 3.30000E-06    2.45618E+05
 4.00000E-06    1.27867E+05
 9.87700E-06    1.60528E+05
 1.59680E-05    6.23304E+04
 2.77000E-05    5.36597E+04
 4.80520E-05    3.71507E+04
 7.55014E-05    3.08173E+04
 1.48728E-04    2.09890E+04
 3.67262E-04    1.34458E+04
 9.06898E-04    9.14973E+03
 1.42510E-03    7.12810E+03
 2.23945E-03    5.58906E+03
 3.51910E-03    4.44193E+03
 5.53000E-03    3.56356E+03
 9.11800E-03    2.92975E+03
 1.50300E-02    2.48116E+03
 2.47800E-02    2.14210E+03
 4.08500E-02    1.79919E+03
 6.73400E-02    1.41588E+03
 1.11000E-01    9.53123E+02
 1.83000E-01    6.90886E+02
 3.02000E-01    5.02023E+02
 5.00000E-01    3.33483E+02
 8.21000E-01    1.68957E+02
 1.35300E+00    7.86597E+01
 2.23100E+00    2.57936E+01
 3.67900E+00    3.54051E+00
 6.06500E+00    9.79008E-01
