# n + Am243 : (n,tot)   
# jendl.ad   O.Iwamoto,T.Nakagawa,T.Ohsawa,+   EVAL-JAN10
# uncertainties: n
# # energies =   171
#   E(MeV)       xs(mb) 
 1.00000E-11    8.30234E+05
 1.00000E-07    3.98414E+04
 4.13990E-07    5.35318E+04
 5.31580E-07    4.85663E+04
 6.82560E-07    7.58526E+04
 8.76420E-07    2.89445E+05
 1.12540E-06    4.99653E+06
 1.44500E-06    1.08208E+06
 1.85540E-06    6.11612E+04
 2.37240E-06    1.33829E+04
 3.05900E-06    2.05826E+05
 3.92790E-06    1.20947E+04
 5.04350E-06    1.05680E+05
 6.47600E-06    3.15833E+05
 8.31530E-06    6.48731E+04
 1.06770E-05    2.22421E+05
 1.37100E-05    7.74574E+04
 1.76030E-05    5.21331E+04
 2.26030E-05    7.05862E+04
 2.92030E-05    6.40078E+04
 3.72670E-05    4.43616E+04
 4.78510E-05    3.62917E+04
 6.14420E-05    3.55962E+04
 7.88930E-05    2.99773E+04
 1.01300E-04    3.35428E+04
 1.30070E-04    2.67821E+04
 1.67020E-04    2.50243E+04
 2.14450E-04    1.88754E+04
 2.75360E-04    1.88116E+04
 3.53580E-04    1.63664E+04
 4.54000E-04    1.42559E+04
 5.82950E-04    1.24188E+04
 7.48520E-04    1.07961E+04
 9.61120E-04    9.39345E+03
 1.23410E-03    8.18384E+03
 1.58460E-03    7.12702E+03
 2.03470E-03    6.47943E+03
 2.24870E-03    6.14012E+03
 2.48520E-03    5.89853E+03
 2.61260E-03    5.74181E+03
 2.74650E-03    5.51573E+03
 3.03540E-03    5.24094E+03
 3.35460E-03    4.98544E+03
 3.70740E-03    4.68266E+03
 4.30740E-03    4.23941E+03
 5.53080E-03    3.77281E+03
 7.10170E-03    3.38761E+03
 9.11880E-03    3.06814E+03
 1.17090E-02    2.81671E+03
 1.50340E-02    2.59124E+03
 1.93050E-02    2.43617E+03
 2.18750E-02    2.36696E+03
 2.35790E-02    2.33431E+03
 2.41760E-02    2.31836E+03
 2.47880E-02    2.29364E+03
 2.60580E-02    2.26453E+03
 2.70000E-02    2.23684E+03
 2.85000E-02    2.18506E+03
 3.18280E-02    2.12711E+03
 3.43070E-02    2.05234E+03
 4.08680E-02    1.95541E+03
 4.63090E-02    1.85180E+03
 5.24750E-02    1.77472E+03
 5.65620E-02    1.68410E+03
 6.73790E-02    1.59926E+03
 7.20000E-02    1.53967E+03
 7.95000E-02    1.49099E+03
 8.25000E-02    1.45868E+03
 8.65170E-02    1.37479E+03
 9.80370E-02    1.25463E+03
 1.11090E-01    1.15931E+03
 1.16790E-01    1.10355E+03
 1.22770E-01    1.04928E+03
 1.29070E-01    1.00181E+03
 1.35690E-01    9.63988E+02
 1.42640E-01    9.28330E+02
 1.49960E-01    8.94016E+02
 1.57640E-01    8.61364E+02
 1.65730E-01    8.33777E+02
 1.74220E-01    8.11968E+02
 1.83160E-01    7.91031E+02
 1.92550E-01    7.72857E+02
 2.02420E-01    7.51090E+02
 2.12800E-01    7.27128E+02
 2.23710E-01    7.04162E+02
 2.35180E-01    6.83473E+02
 2.47240E-01    6.61491E+02
 2.73240E-01    6.40454E+02
 2.87250E-01    6.29679E+02
 2.94520E-01    6.24922E+02
 2.97200E-01    6.23022E+02
 2.98500E-01    6.20528E+02
 3.01970E-01    5.97370E+02
 3.33730E-01    5.57046E+02
 3.68830E-01    5.28726E+02
 3.87740E-01    5.11018E+02
 4.07620E-01    4.92183E+02
 4.50490E-01    4.70635E+02
 4.97870E-01    4.55443E+02
 5.23400E-01    4.47031E+02
 5.50230E-01    4.39600E+02
 5.78440E-01    4.32271E+02
 6.08100E-01    4.31724E+02
 6.39280E-01    4.39587E+02
 6.72060E-01    4.60112E+02
 7.06510E-01    4.91487E+02
 7.42740E-01    5.39724E+02
 7.80820E-01    6.07502E+02
 8.20850E-01    6.80223E+02
 8.62940E-01    8.43780E+02
 9.07180E-01    9.99986E+02
 9.61640E-01    1.15065E+03
 1.00260E+00    1.32671E+03
 1.10800E+00    1.45214E+03
 1.16480E+00    1.49909E+03
 1.22460E+00    1.50018E+03
 1.28730E+00    1.50372E+03
 1.35340E+00    1.53565E+03
 1.42270E+00    1.57086E+03
 1.49570E+00    1.57575E+03
 1.57240E+00    1.53982E+03
 1.65300E+00    1.50759E+03
 1.73770E+00    1.50547E+03
 1.82680E+00    1.50977E+03
 1.92050E+00    1.51482E+03
 2.01900E+00    1.51783E+03
 2.12250E+00    1.52032E+03
 2.23130E+00    1.52313E+03
 2.30690E+00    1.52496E+03
 2.34570E+00    1.52584E+03
 2.36530E+00    1.52648E+03
 2.38520E+00    1.52819E+03
 2.46600E+00    1.52939E+03
 2.59240E+00    1.52468E+03
 2.72530E+00    1.51969E+03
 2.86500E+00    1.51515E+03
 3.01190E+00    1.50827E+03
 3.16640E+00    1.49962E+03
 3.32870E+00    1.48494E+03
 3.67880E+00    1.45287E+03
 4.06570E+00    1.44850E+03
 4.49330E+00    1.44981E+03
 4.72370E+00    1.43734E+03
 4.96590E+00    1.43612E+03
 5.22050E+00    1.45476E+03
 5.48810E+00    1.47478E+03
 5.76950E+00    1.50111E+03
 6.06530E+00    1.68021E+03
 6.37630E+00    1.89673E+03
 6.59240E+00    1.97179E+03
 6.70320E+00    2.04656E+03
 7.04690E+00    2.19516E+03
 7.40820E+00    2.33750E+03
 7.78800E+00    2.40352E+03
 8.18730E+00    2.49004E+03
 8.60710E+00    2.56272E+03
 9.04840E+00    2.61760E+03
 9.51230E+00    2.65902E+03
 1.00000E+01    2.69615E+03
 1.05130E+01    2.73722E+03
 1.10520E+01    2.77162E+03
 1.16180E+01    2.79832E+03
 1.22140E+01    2.82780E+03
 1.28400E+01    2.85393E+03
 1.34990E+01    2.86368E+03
 1.38400E+01    2.86136E+03
 1.41910E+01    2.84965E+03
 1.45500E+01    2.83605E+03
 1.49180E+01    2.79473E+03
 1.56830E+01    2.72045E+03
 1.64870E+01    2.66555E+03
