# n + Xe136 : (n,g)     
# jendl4.0   S.Kunieda, A.Ichihara, K.Shibata+ EVAL-FEB22
# uncertainties: n
# # energies =    69
#   E(MeV)       xs(mb) 
 1.00000E-10    9.07719E+02
 5.00000E-09    2.47156E+02
 1.00000E-08    1.87183E+02
 1.50000E-08    1.57266E+02
 2.00000E-08    1.38362E+02
 2.50000E-08    1.25002E+02
 3.00000E-08    1.14904E+02
 3.50000E-08    1.05642E+02
 4.20000E-08    9.66259E+01
 5.00000E-08    8.91265E+01
 5.80000E-08    8.28350E+01
 6.70000E-08    7.64414E+01
 8.00000E-08    6.91699E+01
 1.00000E-07    6.01753E+01
 1.40000E-07    5.19185E+01
 1.80000E-07    4.63565E+01
 2.20000E-07    4.26873E+01
 2.50000E-07    4.01851E+01
 2.80000E-07    3.83885E+01
 3.00000E-07    3.71261E+01
 3.20000E-07    3.57218E+01
 3.50000E-07    3.37840E+01
 4.00000E-07    3.09073E+01
 5.00000E-07    2.76364E+01
 6.25000E-07    2.47200E+01
 7.80000E-07    2.28754E+01
 8.50000E-07    2.20062E+01
 9.10000E-07    2.13993E+01
 9.50000E-07    2.10479E+01
 9.72000E-07    2.07994E+01
 9.96000E-07    2.05488E+01
 1.02000E-06    2.03023E+01
 1.04500E-06    2.00556E+01
 1.07100E-06    1.98130E+01
 1.09700E-06    1.95786E+01
 1.12300E-06    1.93498E+01
 1.15000E-06    1.86534E+01
 1.30000E-06    1.74520E+01
 1.50000E-06    1.54852E+01
 2.10000E-06    1.34713E+01
 2.60000E-06    1.20143E+01
 3.30000E-06    1.07664E+01
 4.00000E-06    8.20102E+00
 9.87700E-06    5.68011E+00
 1.59680E-05    4.30554E+00
 2.77000E-05    3.15317E+00
 4.80520E-05    2.32209E+00
 7.55014E-05    1.58919E+00
 1.48728E-04    8.37958E-01
 3.67262E-04    3.12400E-01
 9.06898E-04    1.14730E-01
 1.42510E-03    5.94754E+01
 2.23945E-03    7.41049E-02
 3.51910E-03    9.95258E-03
 5.53000E-03    3.70115E-03
 9.11800E-03    2.29240E-03
 1.50300E-02    7.82320E-01
 2.47800E-02    8.02964E-01
 4.08500E-02    7.51840E-01
 6.73400E-02    7.24299E-01
 1.11000E-01    1.31051E-01
 1.83000E-01    2.38916E-01
 3.02000E-01    1.53191E-01
 5.00000E-01    7.85986E-01
 8.21000E-01    1.03081E+00
 1.35300E+00    6.85096E-01
 2.23100E+00    3.15411E-01
 3.67900E+00    1.86929E-01
 6.06500E+00    1.49016E-01
