# n + Xe136 : (n,xn)    
# jendl4.0   S.Kunieda, A.Ichihara, K.Shibata+ EVAL-FEB22
# 
# # energies =    49
#   E(MeV)        xs(mb) 
 1.32278E+00    0.00000E+00
 1.40000E+00    3.73500E+02
 1.60000E+00    6.22800E+02
 1.70696E+00    6.94199E+02
 1.80000E+00    8.38500E+02
 1.90574E+00    9.38477E+02
 2.00000E+00    1.02929E+03
 2.14147E+00    1.13514E+03
 2.20000E+00    1.22466E+03
 2.27831E+00    1.27199E+03
 2.30652E+00    1.28936E+03
 2.40000E+00    1.46024E+03
 2.43267E+00    1.46608E+03
 2.46254E+00    1.49202E+03
 2.48331E+00    1.51438E+03
 2.57888E+00    1.65315E+03
 2.60000E+00    1.69997E+03
 2.60157E+00    1.70257E+03
 2.61164E+00    1.72133E+03
 2.80000E+00    2.12055E+03
 3.00000E+00    2.23002E+03
 3.25000E+00    2.33721E+03
 3.50000E+00    2.40477E+03
 3.75000E+00    2.44685E+03
 4.00000E+00    2.45991E+03
 4.25000E+00    2.45653E+03
 4.50000E+00    2.43778E+03
 4.75000E+00    2.41153E+03
 5.00000E+00    2.37888E+03
 5.50000E+00    2.30905E+03
 6.00000E+00    2.24756E+03
 6.50000E+00    2.20665E+03
 7.00000E+00    2.18564E+03
 7.50000E+00    2.17968E+03
 8.00000E+00    2.18124E+03
 8.50000E+00    2.23402E+03
 9.00000E+00    2.43661E+03
 9.50000E+00    2.75418E+03
 1.00000E+01    3.08334E+03
 1.10000E+01    3.52452E+03
 1.20000E+01    3.72690E+03
 1.30000E+01    3.82038E+03
 1.40000E+01    3.86909E+03
 1.50000E+01    3.89715E+03
 1.60000E+01    3.93656E+03
 1.70000E+01    4.03876E+03
 1.80000E+01    4.23561E+03
 1.90000E+01    4.50796E+03
 2.00000E+01    4.76890E+03
