# n + Ru106 : (n,n'17)  
# jeff3.3    A.J. Koning and D. Rochman        EVAL-DEC15
# uncertainties: n
# # energies =    72
#   E(MeV)       xs(mb) 
 2.30585E+00    0.00000E+00
 2.38954E+00    4.94770E-02
 2.40000E+00    5.56610E-02
 2.49050E+00    1.25532E-01
 2.50917E+00    1.39947E-01
 2.56853E+00    1.85776E-01
 2.59316E+00    2.04792E-01
 2.60000E+00    2.10073E-01
 2.65789E+00    2.91599E-01
 2.72716E+00    3.89150E-01
 2.73076E+00    3.94220E-01
 2.75469E+00    4.27920E-01
 2.79739E+00    4.88053E-01
 2.80000E+00    4.91729E-01
 2.89855E+00    7.02394E-01
 2.90339E+00    7.12740E-01
 2.95891E+00    8.31422E-01
 3.00000E+00    9.19258E-01
 3.20000E+00    1.27530E+00
 3.40000E+00    1.49517E+00
 3.60000E+00    1.59815E+00
 3.80000E+00    1.60092E+00
 4.00000E+00    1.52505E+00
 4.20000E+00    1.39648E+00
 4.40000E+00    1.23969E+00
 4.60000E+00    1.07482E+00
 4.80000E+00    9.15422E-01
 5.00000E+00    7.69588E-01
 5.20000E+00    6.40103E-01
 5.40000E+00    5.27602E-01
 5.60000E+00    4.31820E-01
 5.80000E+00    3.51176E-01
 6.00000E+00    2.83925E-01
 6.20000E+00    2.28289E-01
 6.40000E+00    1.82644E-01
 6.60000E+00    1.45534E-01
 6.80000E+00    1.15141E-01
 7.00000E+00    9.09249E-02
 7.20000E+00    7.16545E-02
 7.40000E+00    5.65933E-02
 7.60000E+00    4.44909E-02
 7.80000E+00    3.48922E-02
 8.00000E+00    2.74295E-02
 8.50000E+00    1.49265E-02
 9.00000E+00    8.14597E-03
 9.50000E+00    4.48410E-03
 1.00000E+01    2.49900E-03
 1.05000E+01    1.41215E-03
 1.10000E+01    8.09346E-04
 1.15000E+01    4.70517E-04
 1.20000E+01    2.77140E-04
 1.25000E+01    1.65203E-04
 1.30000E+01    9.96005E-05
 1.35000E+01    6.06794E-05
 1.40000E+01    3.73079E-05
 1.45000E+01    2.31257E-05
 1.50000E+01    1.44457E-05
 1.60000E+01    5.75267E-06
 1.70000E+01    2.35021E-06
 1.80000E+01    9.81840E-07
 1.90000E+01    4.18740E-07
 2.00000E+01    1.82110E-07
 2.10000E+01    8.02500E-08
 2.20000E+01    3.62930E-08
 2.30000E+01    1.67660E-08
 2.40000E+01    7.91150E-09
 2.50000E+01    3.78360E-09
 2.60000E+01    1.83630E-09
 2.70000E+01    9.02850E-10
 2.80000E+01    4.49370E-10
 2.90000E+01    2.26150E-10
 3.00000E+01    1.15100E-10
