# n + Dy156 : (n,tot)   
# jendl.ad   N.Iwamoto                         EVAL-Apr14
# uncertainties: n
# # energies =   171
#   E(MeV)       xs(mb) 
 1.00000E-11    3.52029E+05
 1.00000E-07    1.33825E+04
 4.13990E-07    1.04654E+04
 5.31580E-07    1.03246E+04
 6.82560E-07    1.06982E+04
 8.76420E-07    1.20563E+04
 1.12540E-06    1.60715E+04
 1.44500E-06    3.59059E+04
 1.85540E-06    6.70159E+05
 2.37240E-06    1.35563E+05
 3.05900E-06    1.12829E+06
 3.92790E-06    1.11456E+04
 5.04350E-06    3.25902E+03
 6.47600E-06    3.20381E+03
 8.31530E-06    1.15577E+05
 1.06770E-05    4.16751E+03
 1.37100E-05    3.27975E+05
 1.76030E-05    3.53409E+05
 2.26030E-05    1.17040E+05
 2.92030E-05    2.22332E+05
 3.72670E-05    9.03674E+04
 4.78510E-05    9.73238E+04
 6.14420E-05    9.94541E+04
 7.88930E-05    8.33294E+04
 1.01300E-04    6.95870E+04
 1.30070E-04    5.79935E+04
 1.67020E-04    4.83273E+04
 2.14450E-04    4.02753E+04
 2.75360E-04    3.35604E+04
 3.53580E-04    2.79333E+04
 4.54000E-04    2.30274E+04
 5.82950E-04    1.89509E+04
 7.48520E-04    1.55394E+04
 9.61120E-04    1.27478E+04
 1.23410E-03    1.05012E+04
 1.58460E-03    8.64711E+03
 2.03470E-03    7.53842E+03
 2.24870E-03    6.97937E+03
 2.48520E-03    6.58286E+03
 2.61260E-03    6.33301E+03
 2.74650E-03    5.97567E+03
 3.03540E-03    5.52813E+03
 3.35460E-03    5.11435E+03
 3.70740E-03    4.64896E+03
 4.30740E-03    4.01937E+03
 5.53080E-03    3.35192E+03
 7.10170E-03    2.82036E+03
 9.11880E-03    2.40233E+03
 1.17090E-02    2.08704E+03
 1.50340E-02    1.81603E+03
 1.93050E-02    1.64088E+03
 2.18750E-02    1.56524E+03
 2.35790E-02    1.52881E+03
 2.41760E-02    1.51136E+03
 2.47880E-02    1.48564E+03
 2.60580E-02    1.45681E+03
 2.70000E-02    1.42631E+03
 2.85000E-02    1.37432E+03
 3.18280E-02    1.32242E+03
 3.43070E-02    1.25735E+03
 4.08680E-02    1.18488E+03
 4.63090E-02    1.13001E+03
 5.24750E-02    1.08968E+03
 5.65620E-02    1.04325E+03
 6.73790E-02    1.00198E+03
 7.20000E-02    9.76792E+02
 7.95000E-02    9.56092E+02
 8.25000E-02    9.44712E+02
 8.65170E-02    9.21815E+02
 9.80370E-02    8.92383E+02
 1.11090E-01    8.73919E+02
 1.16790E-01    8.64197E+02
 1.22770E-01    8.55649E+02
 1.29070E-01    8.47533E+02
 1.35690E-01    8.22243E+02
 1.42640E-01    7.76946E+02
 1.49960E-01    7.48903E+02
 1.57640E-01    7.25772E+02
 1.65730E-01    7.04467E+02
 1.74220E-01    6.84728E+02
 1.83160E-01    6.66299E+02
 1.92550E-01    6.47685E+02
 2.02420E-01    6.32156E+02
 2.12800E-01    6.18238E+02
 2.23710E-01    6.05476E+02
 2.35180E-01    5.94129E+02
 2.47240E-01    5.78647E+02
 2.73240E-01    5.65602E+02
 2.87250E-01    5.60322E+02
 2.94520E-01    5.57868E+02
 2.97200E-01    5.56888E+02
 2.98500E-01    5.55884E+02
 3.01970E-01    5.52505E+02
 3.33730E-01    5.46399E+02
 3.68830E-01    5.41915E+02
 3.87740E-01    5.39076E+02
 4.07620E-01    5.39563E+02
 4.50490E-01    5.41391E+02
 4.97870E-01    5.44124E+02
 5.23400E-01    5.48240E+02
 5.50230E-01    5.52578E+02
 5.78440E-01    5.57219E+02
 6.08100E-01    5.63683E+02
 6.39280E-01    5.71098E+02
 6.72060E-01    5.72098E+02
 7.06510E-01    5.70321E+02
 7.42740E-01    5.75069E+02
 7.80820E-01    5.82203E+02
 8.20850E-01    5.84748E+02
 8.62940E-01    5.63055E+02
 9.07180E-01    5.40949E+02
 9.61640E-01    5.31394E+02
 1.00260E+00    5.25490E+02
 1.10800E+00    5.23019E+02
 1.16480E+00    5.27439E+02
 1.22460E+00    5.34636E+02
 1.28730E+00    5.38157E+02
 1.35340E+00    5.31656E+02
 1.42270E+00    5.14939E+02
 1.49570E+00    4.97520E+02
 1.57240E+00    4.87485E+02
 1.65300E+00    4.79877E+02
 1.73770E+00    4.78732E+02
 1.82680E+00    4.78609E+02
 1.92050E+00    4.73350E+02
 2.01900E+00    4.59494E+02
 2.12250E+00    4.42637E+02
 2.23130E+00    4.29709E+02
 2.30690E+00    4.23713E+02
 2.34570E+00    4.20714E+02
 2.36530E+00    4.18755E+02
 2.38520E+00    4.13981E+02
 2.46600E+00    4.00882E+02
 2.59240E+00    3.77018E+02
 2.72530E+00    3.54762E+02
 2.86500E+00    3.35740E+02
 3.01190E+00    3.13866E+02
 3.16640E+00    2.90651E+02
 3.32870E+00    2.57888E+02
 3.67880E+00    2.13058E+02
 4.06570E+00    1.68838E+02
 4.49330E+00    1.37466E+02
 4.72370E+00    1.17765E+02
 4.96590E+00    1.00121E+02
 5.22050E+00    8.39590E+01
 5.48810E+00    6.96663E+01
 5.76950E+00    5.70163E+01
 6.06530E+00    4.58267E+01
 6.37630E+00    1.16996E+03
 6.59240E+00    2.82212E+03
 6.70320E+00    2.80943E+03
 7.04690E+00    2.79023E+03
 7.40820E+00    2.77094E+03
 7.78800E+00    2.75130E+03
 8.18730E+00    2.73135E+03
 8.60710E+00    2.71108E+03
 9.04840E+00    2.69050E+03
 9.51230E+00    2.66955E+03
 1.00000E+01    2.64962E+03
 1.05130E+01    2.62896E+03
 1.10520E+01    2.60900E+03
 1.16180E+01    2.58908E+03
 1.22140E+01    2.57064E+03
 1.28400E+01    2.55229E+03
 1.34990E+01    2.53956E+03
 1.38400E+01    2.53076E+03
 1.41910E+01    2.52288E+03
 1.45500E+01    2.51480E+03
 1.49180E+01    2.50295E+03
 1.56830E+01    2.48757E+03
 1.64870E+01    2.47245E+03
