# n + Dy156 : (n,np)    
# jendl.ad   N.Iwamoto                         EVAL-Apr14
# uncertainties: n
# # energies =    26
#   E(MeV)       xs(mb) 
 6.60685E+00    0.00000E+00
 8.00000E+00    1.06530E-11
 8.50000E+00    2.71890E-08
 9.00000E+00    3.98389E-06
 9.50000E+00    1.25111E-04
 1.00000E+01    1.16504E-03
 1.05000E+01    5.46283E-03
 1.10000E+01    1.91641E-02
 1.15000E+01    5.37512E-02
 1.20000E+01    1.23955E-01
 1.25000E+01    2.45623E-01
 1.30000E+01    4.32678E-01
 1.35000E+01    6.99655E-01
 1.40000E+01    1.06200E+00
 1.45000E+01    1.54435E+00
 1.50000E+01    2.17655E+00
 1.55000E+01    2.97701E+00
 1.60000E+01    4.04240E+00
 1.65000E+01    5.33471E+00
 1.70000E+01    6.91839E+00
 1.75000E+01    8.79460E+00
 1.80000E+01    1.09496E+01
 1.85000E+01    1.34230E+01
 1.90000E+01    1.61388E+01
 1.95000E+01    1.91051E+01
 2.00000E+01    2.22200E+01
