# n + Xe124 : (n,tot)   
# endfb8.0   T. Kawano                         EVAL-Oct16
# uncertainties: n
# # energies =   171
#   E(MeV)       xs(mb) 
 1.00000E-11    1.59269E+06
 1.00000E-07    5.66071E+04
 4.13990E-07    3.97955E+04
 5.31580E-07    3.67360E+04
 6.82560E-07    3.44270E+04
 8.76420E-07    3.29607E+04
 1.12540E-06    3.25705E+04
 1.44500E-06    3.37962E+04
 1.85540E-06    3.79721E+04
 2.37240E-06    4.96971E+04
 3.05900E-06    9.33081E+04
 3.92790E-06    2.63967E+06
 5.04350E-06    5.48522E+06
 6.47600E-06    8.71059E+04
 8.31530E-06    8.28642E+06
 1.06770E-05    3.39083E+05
 1.37100E-05    4.38534E+04
 1.76030E-05    2.17758E+04
 2.26030E-05    1.47158E+04
 2.92030E-05    1.14659E+04
 3.72670E-05    9.63589E+03
 4.78510E-05    8.42252E+03
 6.14420E-05    7.54892E+03
 7.88930E-05    6.86630E+03
 1.01300E-04    6.28538E+03
 1.30070E-04    5.72119E+03
 1.67020E-04    4.94804E+03
 2.14450E-04    7.51687E+04
 2.75360E-04    5.30872E+04
 3.53580E-04    5.83524E+04
 4.54000E-04    5.19469E+04
 5.82950E-04    4.63266E+04
 7.48520E-04    4.14276E+04
 9.61120E-04    3.71856E+04
 1.23410E-03    3.40297E+04
 1.58460E-03    3.00333E+04
 2.03470E-03    2.74007E+04
 2.24870E-03    2.64061E+04
 2.48520E-03    2.55957E+04
 2.61260E-03    2.50185E+04
 2.74650E-03    2.40971E+04
 3.03540E-03    2.31782E+04
 3.35460E-03    2.24420E+04
 3.70740E-03    2.14073E+04
 4.30740E-03    1.95875E+04
 5.53080E-03    1.81063E+04
 7.10170E-03    1.65659E+04
 9.11880E-03    1.48881E+04
 1.17090E-02    1.39364E+04
 1.50340E-02    1.28355E+04
 1.93050E-02    1.19331E+04
 2.18750E-02    1.16543E+04
 2.35790E-02    1.15132E+04
 2.41760E-02    1.14396E+04
 2.47880E-02    1.13256E+04
 2.60580E-02    1.11907E+04
 2.70000E-02    1.10426E+04
 2.85000E-02    1.07773E+04
 3.18280E-02    1.05571E+04
 3.43070E-02    1.02515E+04
 4.08680E-02    9.91684E+03
 4.63090E-02    9.66018E+03
 5.24750E-02    9.47788E+03
 5.65620E-02    9.26552E+03
 6.73790E-02    9.08668E+03
 7.20000E-02    8.95413E+03
 7.95000E-02    8.84517E+03
 8.25000E-02    8.79390E+03
 8.65170E-02    8.68240E+03
 9.80370E-02    8.52228E+03
 1.11090E-01    8.42169E+03
 1.16790E-01    8.36200E+03
 1.22770E-01    8.31252E+03
 1.29070E-01    8.26311E+03
 1.35690E-01    8.21121E+03
 1.42640E-01    8.15665E+03
 1.49960E-01    8.10895E+03
 1.57640E-01    8.06886E+03
 1.65730E-01    8.02671E+03
 1.74220E-01    7.98241E+03
 1.83160E-01    7.93581E+03
 1.92550E-01    7.88737E+03
 2.02420E-01    7.84894E+03
 2.12800E-01    7.81389E+03
 2.23710E-01    7.77706E+03
 2.35180E-01    7.73832E+03
 2.47240E-01    7.68726E+03
 2.73240E-01    7.64259E+03
 2.87250E-01    7.61901E+03
 2.94520E-01    7.60800E+03
 2.97200E-01    7.60361E+03
 2.98500E-01    7.59882E+03
 3.01970E-01    7.57582E+03
 3.33730E-01    7.53218E+03
 3.68830E-01    7.49661E+03
 3.87740E-01    7.47127E+03
 4.07620E-01    7.43252E+03
 4.50490E-01    7.39227E+03
 4.97870E-01    7.36235E+03
 5.23400E-01    7.34155E+03
 5.50230E-01    7.32514E+03
 5.78440E-01    7.30936E+03
 6.08100E-01    7.29278E+03
 6.39280E-01    7.27534E+03
 6.72060E-01    7.25701E+03
 7.06510E-01    7.23775E+03
 7.42740E-01    7.21749E+03
 7.80820E-01    7.19620E+03
 8.20850E-01    7.17381E+03
 8.62940E-01    7.15028E+03
 9.07180E-01    7.12342E+03
 9.61640E-01    7.09470E+03
 1.00260E+00    7.03852E+03
 1.10800E+00    6.97476E+03
 1.16480E+00    6.92823E+03
 1.22460E+00    6.86945E+03
 1.28730E+00    6.80526E+03
 1.35340E+00    6.73778E+03
 1.42270E+00    6.66686E+03
 1.49570E+00    6.59091E+03
 1.57240E+00    6.50658E+03
 1.65300E+00    6.41759E+03
 1.73770E+00    6.32404E+03
 1.82680E+00    6.22564E+03
 1.92050E+00    6.12218E+03
 2.01900E+00    6.01344E+03
 2.12250E+00    5.89928E+03
 2.23130E+00    5.80544E+03
 2.30690E+00    5.74993E+03
 2.34570E+00    5.72163E+03
 2.36530E+00    5.70251E+03
 2.38520E+00    5.65399E+03
 2.46600E+00    5.55558E+03
 2.59240E+00    5.44377E+03
 2.72530E+00    5.32964E+03
 2.86500E+00    5.22282E+03
 3.01190E+00    5.11661E+03
 3.16640E+00    5.01992E+03
 3.32870E+00    4.88274E+03
 3.67880E+00    4.72264E+03
 4.06570E+00    4.58930E+03
 4.49330E+00    4.50011E+03
 4.72370E+00    4.45232E+03
 4.96590E+00    4.40759E+03
 5.22050E+00    4.37476E+03
 5.48810E+00    4.34524E+03
 5.76950E+00    4.32758E+03
 6.06530E+00    4.31633E+03
 6.37630E+00    4.31437E+03
 6.59240E+00    4.31942E+03
 6.70320E+00    4.32904E+03
 7.04690E+00    4.34719E+03
 7.40820E+00    4.37637E+03
 7.78800E+00    4.40874E+03
 8.18730E+00    4.44762E+03
 8.60710E+00    4.48917E+03
 9.04840E+00    4.53284E+03
 9.51230E+00    4.57873E+03
 1.00000E+01    4.62075E+03
 1.05130E+01    4.65531E+03
 1.10520E+01    4.68252E+03
 1.16180E+01    4.70081E+03
 1.22140E+01    4.70880E+03
 1.28400E+01    4.70534E+03
 1.34990E+01    4.69475E+03
 1.38400E+01    4.68350E+03
 1.41910E+01    4.66858E+03
 1.45500E+01    4.65021E+03
 1.49180E+01    4.61602E+03
 1.56830E+01    4.55891E+03
 1.64870E+01    4.48924E+03
