# n + Xe124 : (n,xa)    
# endfb8.0   T. Kawano                         EVAL-Oct16
# 
# # energies =    78
#   E(MeV)        xs(mb) 
 3.57023E-01    2.63767E-05
 4.00000E-01    2.31361E-05
 4.50000E-01    2.47776E-05
 5.00000E-01    2.77951E-05
 6.00000E-01    3.71336E-05
 7.00000E-01    5.14894E-05
 8.00000E-01    7.26432E-05
 8.53502E-01    8.51199E-05
 8.86186E-01    9.27418E-05
 9.00000E-01    9.59633E-05
 1.00000E+00    1.26595E-04
 1.10000E+00    1.72973E-04
 1.20000E+00    2.38811E-04
 1.25820E+00    2.86094E-04
 1.27928E+00    3.03220E-04
 1.30000E+00    3.20053E-04
 1.40000E+00    4.27625E-04
 1.44976E+00    5.02270E-04
 1.50000E+00    5.77644E-04
 1.56139E+00    7.04015E-04
 1.60000E+00    7.83500E-04
 1.64195E+00    8.91067E-04
 1.70000E+00    1.03993E-03
 1.70378E+00    1.05170E-03
 1.70479E+00    1.05484E-03
 1.80000E+00    1.35150E-03
 1.90000E+00    1.72302E-03
 2.00000E+00    2.16159E-03
 2.10000E+00    2.72378E-03
 2.20000E+00    3.34402E-03
 2.30000E+00    4.07180E-03
 2.40000E+00    4.92433E-03
 2.50000E+00    5.92101E-03
 2.60000E+00    7.08372E-03
 2.70000E+00    8.43749E-03
 2.80000E+00    1.00106E-02
 2.90000E+00    1.18343E-02
 3.00000E+00    1.39436E-02
 3.10000E+00    1.63764E-02
 3.20000E+00    1.91735E-02
 3.30000E+00    2.23775E-02
 3.40000E+00    2.60332E-02
 3.50000E+00    3.01859E-02
 3.60000E+00    3.48800E-02
 3.80000E+00    4.60498E-02
 4.00000E+00    5.96352E-02
 4.50000E+00    1.02530E-01
 5.00000E+00    1.46386E-01
 5.50000E+00    1.80498E-01
 6.00000E+00    2.02749E-01
 6.50000E+00    2.21777E-01
 7.00000E+00    2.42596E-01
 7.50000E+00    2.72044E-01
 8.00000E+00    3.23576E-01
 8.50000E+00    4.17250E-01
 9.00000E+00    5.78100E-01
 9.50000E+00    8.32959E-01
 1.00000E+01    1.20556E+00
 1.05000E+01    1.71177E+00
 1.10000E+01    2.36358E+00
 1.15000E+01    3.11965E+00
 1.20000E+01    4.06992E+00
 1.25000E+01    5.16690E+00
 1.30000E+01    6.40178E+00
 1.35000E+01    7.76314E+00
 1.40000E+01    9.23767E+00
 1.45000E+01    1.08111E+01
 1.50000E+01    1.24688E+01
 1.55000E+01    1.41962E+01
 1.60000E+01    1.59782E+01
 1.65000E+01    1.78028E+01
 1.70000E+01    1.96581E+01
 1.75000E+01    2.15358E+01
 1.80000E+01    2.34284E+01
 1.85000E+01    2.53301E+01
 1.90000E+01    2.72397E+01
 1.95000E+01    2.91537E+01
 2.00000E+01    3.10511E+01
