# n + Xe124 : (n,n')    
# endfb8.0   T. Kawano                         EVAL-Oct16
# uncertainties: n
# # energies =    78
#   E(MeV)       xs(mb) 
 3.57023E-01    0.00000E+00
 4.00000E-01    4.55814E+02
 4.50000E-01    7.14023E+02
 5.00000E-01    8.79879E+02
 6.00000E-01    1.08420E+03
 7.00000E-01    1.21376E+03
 8.00000E-01    1.30850E+03
 8.53502E-01    1.31534E+03
 8.86186E-01    1.40866E+03
 9.00000E-01    1.45394E+03
 1.00000E+00    1.58556E+03
 1.10000E+00    1.67172E+03
 1.20000E+00    1.73363E+03
 1.25820E+00    1.74103E+03
 1.27928E+00    1.76560E+03
 1.30000E+00    1.81044E+03
 1.40000E+00    1.88185E+03
 1.44976E+00    1.90001E+03
 1.50000E+00    1.92725E+03
 1.56139E+00    1.94635E+03
 1.60000E+00    1.95845E+03
 1.64195E+00    1.95222E+03
 1.70000E+00    1.99808E+03
 1.70378E+00    1.99779E+03
 1.70479E+00    1.99800E+03
 1.80000E+00    2.05942E+03
 1.90000E+00    2.11394E+03
 2.00000E+00    2.16641E+03
 2.10000E+00    2.20448E+03
 2.20000E+00    2.24802E+03
 2.30000E+00    2.28613E+03
 2.40000E+00    2.31908E+03
 2.50000E+00    2.34744E+03
 2.60000E+00    2.37190E+03
 2.70000E+00    2.39317E+03
 2.80000E+00    2.41188E+03
 2.90000E+00    2.42856E+03
 3.00000E+00    2.44367E+03
 3.10000E+00    2.45751E+03
 3.20000E+00    2.47031E+03
 3.30000E+00    2.48219E+03
 3.40000E+00    2.49319E+03
 3.50000E+00    2.50330E+03
 3.60000E+00    2.51248E+03
 3.80000E+00    2.52780E+03
 4.00000E+00    2.53872E+03
 4.50000E+00    2.54540E+03
 5.00000E+00    2.52639E+03
 5.50000E+00    2.49195E+03
 6.00000E+00    2.45241E+03
 6.50000E+00    2.41474E+03
 7.00000E+00    2.38223E+03
 7.50000E+00    2.35542E+03
 8.00000E+00    2.33328E+03
 8.50000E+00    2.31423E+03
 9.00000E+00    2.29689E+03
 9.50000E+00    2.28030E+03
 1.00000E+01    2.26395E+03
 1.05000E+01    2.24757E+03
 1.10000E+01    2.21835E+03
 1.15000E+01    2.10288E+03
 1.20000E+01    1.92294E+03
 1.25000E+01    1.73244E+03
 1.30000E+01    1.55980E+03
 1.35000E+01    1.41315E+03
 1.40000E+01    1.28921E+03
 1.45000E+01    1.18057E+03
 1.50000E+01    1.08182E+03
 1.55000E+01    9.91129E+02
 1.60000E+01    9.09222E+02
 1.65000E+01    8.35515E+02
 1.70000E+01    7.70116E+02
 1.75000E+01    7.11582E+02
 1.80000E+01    6.59332E+02
 1.85000E+01    6.12684E+02
 1.90000E+01    5.71133E+02
 1.95000E+01    5.33956E+02
 2.00000E+01    5.07118E+02
