# n + Xe124 : (n,a)     
# endfb8.0   T. Kawano                         EVAL-Oct16
# uncertainties: n
# # energies =    92
#   E(MeV)       xs(mb) 
 2.90000E-04    0.00000E+00
 2.90000E-04    4.81075E-04
 3.00000E-04    4.65858E-04
 4.00000E-04    3.68053E-04
 5.00000E-04    3.06434E-04
 7.00000E-04    2.32552E-04
 1.00000E-03    1.72954E-04
 2.00000E-03    1.00617E-04
 3.00000E-03    7.50837E-05
 5.00000E-03    5.38541E-05
 1.00000E-02    3.66148E-05
 2.00000E-02    2.60092E-05
 3.00000E-02    2.14771E-05
 4.00000E-02    1.88804E-05
 5.00000E-02    1.72160E-05
 6.00000E-02    1.61045E-05
 8.00000E-02    1.48407E-05
 1.00000E-01    1.43300E-05
 1.20000E-01    1.42699E-05
 1.50000E-01    1.47125E-05
 2.00000E-01    1.64062E-05
 2.50000E-01    1.90037E-05
 3.00000E-01    2.24661E-05
 3.50000E-01    2.69062E-05
 4.00000E-01    2.31361E-05
 4.50000E-01    2.47776E-05
 5.00000E-01    2.77951E-05
 6.00000E-01    3.71336E-05
 7.00000E-01    5.14894E-05
 8.00000E-01    7.26432E-05
 9.00000E-01    9.59633E-05
 1.00000E+00    1.26595E-04
 1.10000E+00    1.72973E-04
 1.20000E+00    2.38811E-04
 1.30000E+00    3.20053E-04
 1.40000E+00    4.27625E-04
 1.50000E+00    5.77644E-04
 1.60000E+00    7.83500E-04
 1.70000E+00    1.03993E-03
 1.80000E+00    1.35150E-03
 1.90000E+00    1.72302E-03
 2.00000E+00    2.16159E-03
 2.10000E+00    2.72378E-03
 2.20000E+00    3.34402E-03
 2.30000E+00    4.07180E-03
 2.40000E+00    4.92433E-03
 2.50000E+00    5.92101E-03
 2.60000E+00    7.08372E-03
 2.70000E+00    8.43749E-03
 2.80000E+00    1.00106E-02
 2.90000E+00    1.18343E-02
 3.00000E+00    1.39436E-02
 3.10000E+00    1.63764E-02
 3.20000E+00    1.91735E-02
 3.30000E+00    2.23775E-02
 3.40000E+00    2.60332E-02
 3.50000E+00    3.01859E-02
 3.60000E+00    3.48800E-02
 3.80000E+00    4.60498E-02
 4.00000E+00    5.96352E-02
 4.50000E+00    1.02530E-01
 5.00000E+00    1.46386E-01
 5.50000E+00    1.80498E-01
 6.00000E+00    2.02749E-01
 6.50000E+00    2.21777E-01
 7.00000E+00    2.42595E-01
 7.50000E+00    2.72040E-01
 8.00000E+00    3.23555E-01
 8.50000E+00    4.17163E-01
 9.00000E+00    5.77793E-01
 9.50000E+00    8.32019E-01
 1.00000E+01    1.20299E+00
 1.05000E+01    1.70534E+00
 1.10000E+01    2.34906E+00
 1.15000E+01    3.09192E+00
 1.20000E+01    4.02123E+00
 1.25000E+01    5.08421E+00
 1.30000E+01    6.26662E+00
 1.35000E+01    7.54853E+00
 1.40000E+01    8.90164E+00
 1.45000E+01    1.02878E+01
 1.50000E+01    1.16592E+01
 1.55000E+01    1.29581E+01
 1.60000E+01    1.41271E+01
 1.65000E+01    1.51220E+01
 1.70000E+01    1.59165E+01
 1.75000E+01    1.65037E+01
 1.80000E+01    1.68913E+01
 1.85000E+01    1.70966E+01
 1.90000E+01    1.71432E+01
 1.95000E+01    1.70524E+01
 2.00000E+01    1.68485E+01
