# n + Yb  0 : (n,xa)
# jeff3.3    A.J. Koning and D. Rochman        EVAL-DEC15
#
# # energies =   134
#   E(MeV)          xs(mb) 
 8.82569E-02    5.16879E-04
 1.00000E-01    4.54442E-04
 2.00000E-01    2.71134E-04
 2.88272E-01    2.33113E-04
 3.00000E-01    2.28061E-04
 4.00000E-01    2.25164E-04
 5.00000E-01    2.36679E-04
 5.88765E-01    2.56335E-04
 6.00000E-01    2.58823E-04
 7.00000E-01    2.88642E-04
 8.00000E-01    3.30390E-04
 9.00000E-01    3.75235E-04
 9.75856E-01    3.92888E-04
 9.89910E-01    3.96159E-04
 1.00000E+00    3.98507E-04
 1.07356E+00    4.04959E-04
 1.10459E+00    4.07694E-04
 1.16214E+00    4.12767E-04
 1.16667E+00    4.13167E-04
 1.17842E+00    4.14202E-04
 1.20000E+00    4.16105E-04
 1.20419E+00    4.16237E-04
 1.23890E+00    4.17334E-04
 1.24051E+00    4.17385E-04
 1.28668E+00    4.18845E-04
 1.31012E+00    4.19586E-04
 1.34805E+00    4.20784E-04
 1.39847E+00    4.22378E-04
 1.40000E+00    4.22427E-04
 1.41632E+00    4.23021E-04
 1.43401E+00    4.23665E-04
 1.44161E+00    4.23941E-04
 1.45381E+00    4.24385E-04
 1.46048E+00    4.24628E-04
 1.48144E+00    4.25391E-04
 1.48888E+00    4.25661E-04
 1.52058E+00    4.26816E-04
 1.55227E+00    4.27969E-04
 1.56065E+00    4.28274E-04
 1.60000E+00    4.29706E-04
 1.60458E+00    4.29774E-04
 1.60749E+00    4.29817E-04
 1.61414E+00    4.29915E-04
 1.80000E+00    4.32667E-04
 2.00000E+00    4.48663E-04
 2.20000E+00    4.67354E-04
 2.40000E+00    4.98133E-04
 2.60000E+00    5.38818E-04
 2.80000E+00    5.85484E-04
 3.00000E+00    6.48046E-04
 3.20000E+00    7.25262E-04
 3.40000E+00    8.08079E-04
 3.60000E+00    9.06210E-04
 3.80000E+00    1.01228E-03
 4.00000E+00    1.14176E-03
 4.20000E+00    1.28022E-03
 4.40000E+00    1.44655E-03
 4.60000E+00    1.64576E-03
 4.80000E+00    1.86148E-03
 5.00000E+00    2.12759E-03
 5.20000E+00    2.41636E-03
 5.40000E+00    2.74572E-03
 5.60000E+00    3.17733E-03
 5.80000E+00    3.62656E-03
 6.00000E+00    4.19516E-03
 6.20000E+00    4.81293E-03
 6.40000E+00    5.50955E-03
 6.60000E+00    6.49498E-03
 6.80000E+00    7.55792E-03
 7.00000E+00    8.70835E-03
 7.20000E+00    1.03821E-02
 7.40000E+00    1.19960E-02
 7.60000E+00    1.43628E-02
 7.80000E+00    1.68957E-02
 8.00000E+00    1.96106E-02
 8.50000E+00    2.95746E-02
 9.00000E+00    4.43218E-02
 9.50000E+00    6.62366E-02
 1.00000E+01    9.79362E-02
 1.05000E+01    1.43863E-01
 1.10000E+01    2.08025E-01
 1.15000E+01    2.96546E-01
 1.20000E+01    4.15385E-01
 1.25000E+01    5.72148E-01
 1.30000E+01    7.57915E-01
 1.35000E+01    1.00391E+00
 1.40000E+01    1.27600E+00
 1.45000E+01    1.62788E+00
 1.50000E+01    2.01268E+00
 1.60000E+01    3.02869E+00
 1.70000E+01    4.43175E+00
 1.80000E+01    6.42339E+00
 1.90000E+01    9.14083E+00
 2.00000E+01    1.22428E+01
 2.10000E+01    1.54377E+01
 2.20000E+01    1.76929E+01
 2.30000E+01    1.88858E+01
 2.40000E+01    1.91793E+01
 2.50000E+01    1.90255E+01
 2.60000E+01    1.91636E+01
 2.70000E+01    1.95757E+01
 2.80000E+01    2.00990E+01
 2.90000E+01    2.07181E+01
 3.00000E+01    1.73911E+01
 3.00000E+01    1.73911E+01
 3.20000E+01    2.26172E+01
 3.40000E+01    2.39694E+01
 3.60000E+01    2.55209E+01
 3.80000E+01    2.70240E+01
 4.00000E+01    2.85464E+01
 4.20000E+01    3.01564E+01
 4.40000E+01    3.17566E+01
 4.60000E+01    3.33738E+01
 4.80000E+01    3.50579E+01
 5.00000E+01    3.67942E+01
 5.20000E+01    3.85812E+01
 5.40000E+01    4.03628E+01
 5.60000E+01    4.21748E+01
 5.80000E+01    4.40437E+01
 6.00000E+01    4.59550E+01
 6.50000E+01    5.02571E+01
 7.00000E+01    5.44162E+01
 7.50000E+01    5.80865E+01
 8.00000E+01    6.05887E+01
 9.00000E+01    6.82009E+01
 1.00000E+02    7.30307E+01
 1.10000E+02    7.37891E+01
 1.20000E+02    7.62881E+01
 1.30000E+02    7.93451E+01
 1.40000E+02    8.66461E+01
 1.50000E+02    1.00686E+02
 1.60000E+02    1.16819E+02
 1.80000E+02    1.37089E+02
 2.00000E+02    2.34662E+02
