# n + Yb  0 : (n,xp)
# jeff3.3    A.J. Koning and D. Rochman        EVAL-DEC15
#
# # energies =   134
#   E(MeV)          xs(mb) 
 8.82569E-02    3.18600E-18
 1.00000E-01    3.18600E-18
 2.00000E-01    3.32637E-18
 2.88272E-01    4.31329E-18
 3.00000E-01    4.45025E-18
 4.00000E-01    7.64071E-16
 5.00000E-01    8.58762E-15
 5.88765E-01    1.44698E-13
 6.00000E-01    1.61925E-13
 7.00000E-01    1.12199E-12
 8.00000E-01    6.29567E-12
 9.00000E-01    2.88573E-11
 9.75856E-01    8.56224E-11
 9.89910E-01    9.61394E-11
 1.00000E+00    1.03690E-10
 1.07356E+00    4.03801E-10
 1.10459E+00    5.30398E-10
 1.16214E+00    7.65191E-10
 1.16667E+00    7.83672E-10
 1.17842E+00    8.31610E-10
 1.20000E+00    9.19653E-10
 1.20419E+00    1.03162E-09
 1.23890E+00    1.95916E-09
 1.24051E+00    2.00218E-09
 1.28668E+00    3.23596E-09
 1.31012E+00    3.86234E-09
 1.34805E+00    4.87592E-09
 1.39847E+00    6.22328E-09
 1.40000E+00    6.26416E-09
 1.41632E+00    7.97777E-09
 1.43401E+00    9.83525E-09
 1.44161E+00    1.06333E-08
 1.45381E+00    1.19143E-08
 1.46048E+00    1.26146E-08
 1.48144E+00    1.48154E-08
 1.48888E+00    1.55967E-08
 1.52058E+00    1.89252E-08
 1.55227E+00    2.22527E-08
 1.56065E+00    2.31326E-08
 1.60000E+00    2.72644E-08
 1.60458E+00    2.86958E-08
 1.60749E+00    2.96053E-08
 1.61414E+00    3.16837E-08
 1.80000E+00    8.97727E-08
 2.00000E+00    2.48356E-07
 2.20000E+00    6.00485E-07
 2.40000E+00    1.30351E-06
 2.60000E+00    2.59327E-06
 2.80000E+00    4.80549E-06
 3.00000E+00    8.40592E-06
 3.20000E+00    1.41058E-05
 3.40000E+00    2.29456E-05
 3.60000E+00    3.71588E-05
 3.80000E+00    5.61896E-05
 4.00000E+00    8.25352E-05
 4.20000E+00    1.18133E-04
 4.40000E+00    1.76049E-04
 4.60000E+00    2.45257E-04
 4.80000E+00    3.66758E-04
 5.00000E+00    5.03681E-04
 5.20000E+00    6.82102E-04
 5.40000E+00    1.02707E-03
 5.60000E+00    1.36113E-03
 5.80000E+00    2.03910E-03
 6.00000E+00    2.69602E-03
 6.20000E+00    3.56501E-03
 6.40000E+00    5.24655E-03
 6.60000E+00    6.84576E-03
 6.80000E+00    1.00056E-02
 7.00000E+00    1.28337E-02
 7.20000E+00    1.68036E-02
 7.40000E+00    2.33966E-02
 7.60000E+00    3.01270E-02
 7.80000E+00    4.13437E-02
 8.00000E+00    5.13833E-02
 8.50000E+00    9.47911E-02
 9.00000E+00    1.65617E-01
 9.50000E+00    2.75535E-01
 1.00000E+01    4.35670E-01
 1.05000E+01    6.58995E-01
 1.10000E+01    9.63457E-01
 1.15000E+01    1.35133E+00
 1.20000E+01    1.83868E+00
 1.25000E+01    2.43518E+00
 1.30000E+01    3.15069E+00
 1.35000E+01    4.00701E+00
 1.40000E+01    4.98276E+00
 1.45000E+01    6.09466E+00
 1.50000E+01    7.34469E+00
 1.60000E+01    1.02612E+01
 1.70000E+01    1.37035E+01
 1.80000E+01    1.80501E+01
 1.90000E+01    2.25217E+01
 2.00000E+01    2.79618E+01
 2.10000E+01    3.35963E+01
 2.20000E+01    3.98272E+01
 2.30000E+01    4.63341E+01
 2.40000E+01    5.31587E+01
 2.50000E+01    6.02214E+01
 2.60000E+01    6.74764E+01
 2.70000E+01    7.48960E+01
 2.80000E+01    8.24164E+01
 2.90000E+01    9.00483E+01
 3.00000E+01    7.38809E+01
 3.00000E+01    7.38809E+01
 3.20000E+01    1.13658E+02
 3.40000E+01    1.29757E+02
 3.60000E+01    1.46670E+02
 3.80000E+01    1.62899E+02
 4.00000E+01    1.79129E+02
 4.20000E+01    1.95699E+02
 4.40000E+01    2.12491E+02
 4.60000E+01    2.29648E+02
 4.80000E+01    2.46693E+02
 5.00000E+01    2.63838E+02
 5.20000E+01    2.81086E+02
 5.40000E+01    2.98133E+02
 5.60000E+01    3.15100E+02
 5.80000E+01    3.31858E+02
 6.00000E+01    3.48497E+02
 6.50000E+01    3.89323E+02
 7.00000E+01    4.28384E+02
 7.50000E+01    4.65106E+02
 8.00000E+01    4.96810E+02
 9.00000E+01    5.46507E+02
 1.00000E+02    5.87212E+02
 1.10000E+02    6.26361E+02
 1.20000E+02    6.62204E+02
 1.30000E+02    6.99956E+02
 1.40000E+02    7.47949E+02
 1.50000E+02    8.20355E+02
 1.60000E+02    9.32295E+02
 1.80000E+02    1.32035E+03
 2.00000E+02    1.90493E+03
