# n + N  15 : (n,a)     
# jeff3.3    E.Arthur,P.Young,G.Hale           EVAL-SEP83
# uncertainties: y
# # energies =    41
#   E(MeV)       xs(mb)       xslow(mb)      xsupp(mb)
 8.13400E+00    0.00000E+00    0.00000E+00    0.00000E+00
 8.25000E+00    2.81350E-05    1.12540E-05    4.50160E-05
 8.50000E+00    8.87710E-05    3.55084E-05    1.42034E-04
 8.75000E+00    4.64630E-02    1.85852E-02    7.43408E-02
 9.00000E+00    1.45010E-01    5.80040E-02    2.32016E-01
 9.25000E+00    9.29480E-01    3.71792E-01    1.48717E+00
 9.50000E+00    3.71010E+00    1.48404E+00    5.93616E+00
 9.75000E+00    8.52060E+00    3.40824E+00    1.36330E+01
 1.00000E+01    1.42280E+01    7.11400E+00    2.13420E+01
 1.02500E+01    2.01470E+01    1.00735E+01    3.02205E+01
 1.05000E+01    2.64570E+01    1.32285E+01    3.96855E+01
 1.07500E+01    3.36670E+01    1.68335E+01    5.05005E+01
 1.10000E+01    4.11130E+01    2.05565E+01    6.16695E+01
 1.12500E+01    4.83540E+01    2.41770E+01    7.25310E+01
 1.15000E+01    5.37860E+01    2.68930E+01    8.06790E+01
 1.17500E+01    5.51450E+01    2.75725E+01    8.27175E+01
 1.20000E+01    5.55900E+01    2.77950E+01    8.33850E+01
 1.22500E+01    5.74730E+01    2.87365E+01    8.62095E+01
 1.25000E+01    5.92500E+01    2.96250E+01    8.88750E+01
 1.27500E+01    6.01750E+01    3.00875E+01    9.02625E+01
 1.30000E+01    6.11500E+01    3.05750E+01    9.17250E+01
 1.32500E+01    6.35810E+01    3.17905E+01    9.53715E+01
 1.35000E+01    6.59900E+01    3.29950E+01    9.89850E+01
 1.37500E+01    6.72260E+01    3.36130E+01    1.00839E+02
 1.40000E+01    6.85500E+01    3.42750E+01    1.02825E+02
 1.42500E+01    7.02740E+01    3.51370E+01    1.05411E+02
 1.45000E+01    7.20000E+01    3.60000E+01    1.08000E+02
 1.47500E+01    7.37250E+01    3.68625E+01    1.10587E+02
 1.50000E+01    7.54300E+01    3.77150E+01    1.13145E+02
 1.52500E+01    7.48000E+01    3.74000E+01    1.12200E+02
 1.55000E+01    7.19900E+01    3.59950E+01    1.07985E+02
 1.57500E+01    6.91260E+01    3.45630E+01    1.03689E+02
 1.60000E+01    6.63000E+01    3.31500E+01    9.94500E+01
 1.65000E+01    6.18970E+01    3.09485E+01    9.28455E+01
 1.70000E+01    5.73600E+01    2.86800E+01    8.60400E+01
 1.75000E+01    4.95850E+01    2.47925E+01    7.43775E+01
 1.80000E+01    4.17800E+01    2.08900E+01    6.26700E+01
 1.85000E+01    3.65260E+01    1.82630E+01    5.47890E+01
 1.90000E+01    3.18900E+01    1.59450E+01    4.78350E+01
 1.95000E+01    2.76400E+01    1.38200E+01    4.14600E+01
 2.00000E+01    2.37000E+01    1.18500E+01    3.55500E+01
