# n + Re185 : (n,xn)    
# endfb8.0   I.J. Thompson and N.C. Summers    EVAL-Jan11
# 
# # energies =   120
#   E(MeV)        xs(mb) 
 1.26042E-01    0.00000E+00
 2.00000E-01    3.65771E+02
 2.85649E-01    4.33742E+02
 3.70208E-01    6.15526E+02
 4.00000E-01    7.12978E+02
 4.78194E-01    7.71588E+02
 5.49883E-01    8.48381E+02
 6.00000E-01    9.07831E+02
 6.49643E-01    9.12429E+02
 7.00801E-01    9.33236E+02
 7.21345E-01    9.42252E+02
 7.61531E-01    9.95409E+02
 7.73123E-01    1.01125E+03
 8.00000E-01    1.10758E+03
 8.30505E-01    1.10872E+03
 8.40559E-01    1.10914E+03
 8.79586E-01    1.11081E+03
 8.85083E-01    1.11330E+03
 9.22001E-01    1.13645E+03
 9.36138E-01    1.15216E+03
 9.54678E-01    1.18237E+03
 9.71268E-01    1.20950E+03
 1.00000E+00    1.27909E+03
 1.00545E+00    1.28161E+03
 1.01852E+00    1.28773E+03
 1.20000E+00    1.43189E+03
 1.40000E+00    1.53354E+03
 1.60000E+00    1.60955E+03
 1.80000E+00    1.67504E+03
 2.00000E+00    1.73688E+03
 2.20000E+00    1.79685E+03
 2.40000E+00    1.85476E+03
 2.60000E+00    1.91005E+03
 2.80000E+00    1.96277E+03
 3.00000E+00    2.01361E+03
 3.20000E+00    2.06384E+03
 3.40000E+00    2.11486E+03
 3.60000E+00    2.16758E+03
 3.80000E+00    2.22208E+03
 4.00000E+00    2.27733E+03
 4.20000E+00    2.33143E+03
 4.40000E+00    2.38220E+03
 4.60000E+00    2.42748E+03
 4.80000E+00    2.46589E+03
 5.00000E+00    2.49691E+03
 5.20000E+00    2.52038E+03
 5.40000E+00    2.53697E+03
 5.60000E+00    2.54728E+03
 5.80000E+00    2.55207E+03
 6.00000E+00    2.55192E+03
 6.20000E+00    2.54776E+03
 6.40000E+00    2.54027E+03
 6.60000E+00    2.53048E+03
 6.80000E+00    2.51921E+03
 7.00000E+00    2.50727E+03
 7.20000E+00    2.49543E+03
 7.40000E+00    2.48428E+03
 7.60000E+00    2.47428E+03
 7.80000E+00    2.47195E+03
 8.00000E+00    2.50299E+03
 8.20000E+00    2.58166E+03
 8.40000E+00    2.70264E+03
 8.60000E+00    2.84907E+03
 8.80000E+00    3.00339E+03
 9.00000E+00    3.15539E+03
 9.20000E+00    3.29847E+03
 9.40000E+00    3.43195E+03
 9.60000E+00    3.55596E+03
 9.80000E+00    3.66728E+03
 1.00000E+01    3.76862E+03
 1.02000E+01    3.86068E+03
 1.04000E+01    3.94316E+03
 1.06000E+01    4.01670E+03
 1.08000E+01    4.08193E+03
 1.10000E+01    4.13951E+03
 1.12000E+01    4.18918E+03
 1.14000E+01    4.23186E+03
 1.16000E+01    4.26856E+03
 1.18000E+01    4.29903E+03
 1.20000E+01    4.32551E+03
 1.22000E+01    4.34703E+03
 1.24000E+01    4.36487E+03
 1.26000E+01    4.38012E+03
 1.28000E+01    4.39207E+03
 1.30000E+01    4.40291E+03
 1.32000E+01    4.41172E+03
 1.34000E+01    4.41885E+03
 1.36000E+01    4.42573E+03
 1.38000E+01    4.43116E+03
 1.40000E+01    4.43672E+03
 1.42000E+01    4.44199E+03
 1.44000E+01    4.44666E+03
 1.46000E+01    4.45288E+03
 1.48000E+01    4.46060E+03
 1.50000E+01    4.47252E+03
 1.52000E+01    4.48872E+03
 1.54000E+01    4.51113E+03
 1.56000E+01    4.53936E+03
 1.58000E+01    4.57400E+03
 1.60000E+01    4.61410E+03
 1.62000E+01    4.65931E+03
 1.64000E+01    4.70707E+03
 1.66000E+01    4.75742E+03
 1.68000E+01    4.81087E+03
 1.70000E+01    4.86471E+03
 1.72000E+01    4.91930E+03
 1.74000E+01    4.96757E+03
 1.76000E+01    5.02188E+03
 1.78000E+01    5.07649E+03
 1.80000E+01    5.13013E+03
 1.82000E+01    5.18337E+03
 1.84000E+01    5.23499E+03
 1.86000E+01    5.28463E+03
 1.88000E+01    5.33254E+03
 1.90000E+01    5.37934E+03
 1.92000E+01    5.42449E+03
 1.94000E+01    5.46661E+03
 1.96000E+01    5.50637E+03
 1.98000E+01    5.54432E+03
 2.00000E+01    5.57708E+03
