# n + Re185 : (n,a)     
# endfb8.0   I.J. Thompson and N.C. Summers    EVAL-Jan11
# uncertainties: n
# # energies =    95
#   E(MeV)       xs(mb) 
 1.20000E+00    0.00000E+00
 1.40000E+00    1.23389E-05
 1.60000E+00    1.38103E-05
 1.80000E+00    1.74549E-05
 2.00000E+00    2.12325E-05
 2.20000E+00    2.27972E-05
 2.40000E+00    2.68738E-05
 2.60000E+00    2.99056E-05
 2.80000E+00    3.16817E-05
 3.00000E+00    3.59294E-05
 3.20000E+00    1.03830E-03
 3.40000E+00    1.24269E-03
 3.60000E+00    1.40664E-03
 3.80000E+00    1.63190E-03
 4.00000E+00    1.82641E-03
 4.20000E+00    2.05062E-03
 4.40000E+00    2.25230E-03
 4.60000E+00    2.48475E-03
 4.80000E+00    2.69650E-03
 5.00000E+00    2.92382E-03
 5.20000E+00    3.15805E-03
 5.40000E+00    3.37539E-03
 5.60000E+00    3.62157E-03
 5.80000E+00    3.92605E-03
 6.00000E+00    4.27117E-03
 6.20000E+00    4.74157E-03
 6.40000E+00    5.06601E-03
 6.60000E+00    5.68515E-03
 6.80000E+00    6.37488E-03
 7.00000E+00    7.13500E-03
 7.20000E+00    8.37605E-03
 7.40000E+00    9.06208E-03
 7.60000E+00    1.05880E-02
 7.80000E+00    1.24345E-02
 8.00000E+00    1.42271E-02
 8.20000E+00    1.73463E-02
 8.40000E+00    1.93026E-02
 8.60000E+00    2.29864E-02
 8.80000E+00    2.79570E-02
 9.00000E+00    3.23006E-02
 9.20000E+00    3.98324E-02
 9.40000E+00    4.54347E-02
 9.60000E+00    5.40049E-02
 9.80000E+00    6.70986E-02
 1.00000E+01    7.71801E-02
 1.02000E+01    9.38486E-02
 1.04000E+01    1.09291E-01
 1.06000E+01    1.25748E-01
 1.08000E+01    1.59845E-01
 1.10000E+01    1.76329E-01
 1.12000E+01    2.12508E-01
 1.14000E+01    2.46810E-01
 1.16000E+01    2.79726E-01
 1.18000E+01    3.42553E-01
 1.20000E+01    3.73553E-01
 1.22000E+01    4.32018E-01
 1.24000E+01    5.05726E-01
 1.26000E+01    5.90793E-01
 1.28000E+01    6.85084E-01
 1.30000E+01    7.32095E-01
 1.32000E+01    8.22926E-01
 1.34000E+01    9.27561E-01
 1.36000E+01    1.05076E+00
 1.38000E+01    1.19049E+00
 1.40000E+01    1.26391E+00
 1.42000E+01    1.39105E+00
 1.44000E+01    1.53573E+00
 1.46000E+01    1.70207E+00
 1.48000E+01    1.88923E+00
 1.50000E+01    1.99334E+00
 1.52000E+01    2.15854E+00
 1.54000E+01    2.34081E+00
 1.56000E+01    2.54352E+00
 1.58000E+01    2.76713E+00
 1.60000E+01    2.88513E+00
 1.62000E+01    3.07539E+00
 1.64000E+01    3.28767E+00
 1.66000E+01    3.52542E+00
 1.68000E+01    3.78907E+00
 1.70000E+01    3.93211E+00
 1.72000E+01    4.15620E+00
 1.74000E+01    4.41047E+00
 1.76000E+01    4.69510E+00
 1.78000E+01    5.01912E+00
 1.80000E+01    5.18109E+00
 1.82000E+01    5.42526E+00
 1.84000E+01    5.72236E+00
 1.86000E+01    6.06413E+00
 1.88000E+01    6.42898E+00
 1.90000E+01    6.65287E+00
 1.92000E+01    6.98632E+00
 1.94000E+01    7.39199E+00
 1.96000E+01    7.86306E+00
 1.98000E+01    8.33115E+00
 2.00000E+01    8.70966E+00
