# n + Re185 : (n,n'19)  
# endfb8.0   I.J. Thompson and N.C. Summers    EVAL-Jan11
# uncertainties: n
# # energies =    96
#   E(MeV)       xs(mb) 
 1.00545E+00    0.00000E+00
 1.20000E+00    9.12662E-01
 1.40000E+00    2.41196E+00
 1.60000E+00    3.37679E+00
 1.80000E+00    3.74680E+00
 2.00000E+00    3.71440E+00
 2.20000E+00    3.45006E+00
 2.40000E+00    3.07060E+00
 2.60000E+00    2.65042E+00
 2.80000E+00    2.23449E+00
 3.00000E+00    1.84886E+00
 3.20000E+00    1.50666E+00
 3.40000E+00    1.21227E+00
 3.60000E+00    9.65537E-01
 3.80000E+00    7.63373E-01
 4.00000E+00    6.01319E-01
 4.20000E+00    4.74412E-01
 4.40000E+00    3.77487E-01
 4.60000E+00    3.05570E-01
 4.80000E+00    2.54062E-01
 5.00000E+00    2.18578E-01
 5.20000E+00    1.95105E-01
 5.40000E+00    1.80319E-01
 5.60000E+00    1.71226E-01
 5.80000E+00    1.65937E-01
 6.00000E+00    1.62901E-01
 6.20000E+00    1.60904E-01
 6.40000E+00    1.59261E-01
 6.60000E+00    1.57536E-01
 6.80000E+00    1.55499E-01
 7.00000E+00    1.53086E-01
 7.20000E+00    1.50301E-01
 7.40000E+00    1.47215E-01
 7.60000E+00    1.43925E-01
 7.80000E+00    1.40535E-01
 8.00000E+00    1.37144E-01
 8.20000E+00    1.33839E-01
 8.40000E+00    1.30688E-01
 8.60000E+00    1.27744E-01
 8.80000E+00    1.25039E-01
 9.00000E+00    1.22590E-01
 9.20000E+00    1.20398E-01
 9.40000E+00    1.18456E-01
 9.60000E+00    1.16745E-01
 9.80000E+00    1.15241E-01
 1.00000E+01    1.13921E-01
 1.02000E+01    1.12753E-01
 1.04000E+01    1.11710E-01
 1.06000E+01    1.10766E-01
 1.08000E+01    1.09898E-01
 1.10000E+01    1.09083E-01
 1.12000E+01    1.08307E-01
 1.14000E+01    1.07554E-01
 1.16000E+01    1.06816E-01
 1.18000E+01    1.06084E-01
 1.20000E+01    1.05356E-01
 1.22000E+01    1.04628E-01
 1.24000E+01    1.03900E-01
 1.26000E+01    1.03173E-01
 1.28000E+01    1.02448E-01
 1.30000E+01    1.01726E-01
 1.32000E+01    1.01013E-01
 1.34000E+01    1.00308E-01
 1.36000E+01    9.96149E-02
 1.38000E+01    9.89356E-02
 1.40000E+01    9.82715E-02
 1.42000E+01    9.76236E-02
 1.44000E+01    9.69929E-02
 1.46000E+01    9.63795E-02
 1.48000E+01    9.57828E-02
 1.50000E+01    9.52024E-02
 1.52000E+01    9.46371E-02
 1.54000E+01    9.40852E-02
 1.56000E+01    9.35448E-02
 1.58000E+01    9.30142E-02
 1.60000E+01    9.24916E-02
 1.62000E+01    9.19745E-02
 1.64000E+01    9.14607E-02
 1.66000E+01    9.09487E-02
 1.68000E+01    9.04366E-02
 1.70000E+01    8.99225E-02
 1.72000E+01    8.94057E-02
 1.74000E+01    8.88843E-02
 1.76000E+01    8.83583E-02
 1.78000E+01    8.78268E-02
 1.80000E+01    8.72894E-02
 1.82000E+01    8.67464E-02
 1.84000E+01    8.61981E-02
 1.86000E+01    8.56444E-02
 1.88000E+01    8.50860E-02
 1.90000E+01    8.45240E-02
 1.92000E+01    8.39593E-02
 1.94000E+01    8.33925E-02
 1.96000E+01    8.28254E-02
 1.98000E+01    8.22588E-02
 2.00000E+01    8.16940E-02
