# n + Re185 : (n,n'07)  
# endfb8.0   I.J. Thompson and N.C. Summers    EVAL-Jan11
# uncertainties: n
# # energies =    98
#   E(MeV)       xs(mb) 
 7.00801E-01    0.00000E+00
 8.00000E-01    3.18332E+00
 1.00000E+00    1.44832E+01
 1.20000E+00    2.00316E+01
 1.40000E+00    1.95408E+01
 1.60000E+00    1.68558E+01
 1.80000E+00    1.39145E+01
 2.00000E+00    1.13186E+01
 2.20000E+00    9.16484E+00
 2.40000E+00    7.40045E+00
 2.60000E+00    5.95125E+00
 2.80000E+00    4.75607E+00
 3.00000E+00    3.77324E+00
 3.20000E+00    2.97165E+00
 3.40000E+00    2.32434E+00
 3.60000E+00    1.80808E+00
 3.80000E+00    1.40109E+00
 4.00000E+00    1.08368E+00
 4.20000E+00    8.38772E-01
 4.40000E+00    6.51826E-01
 4.60000E+00    5.10921E-01
 4.80000E+00    4.06459E-01
 5.00000E+00    3.30351E-01
 5.20000E+00    2.76045E-01
 5.40000E+00    2.37560E-01
 5.60000E+00    2.10325E-01
 5.80000E+00    1.91375E-01
 6.00000E+00    1.77979E-01
 6.20000E+00    1.68164E-01
 6.40000E+00    1.60622E-01
 6.60000E+00    1.54454E-01
 6.80000E+00    1.49086E-01
 7.00000E+00    1.44212E-01
 7.20000E+00    1.39635E-01
 7.40000E+00    1.35292E-01
 7.60000E+00    1.31163E-01
 7.80000E+00    1.27259E-01
 8.00000E+00    1.23607E-01
 8.20000E+00    1.20227E-01
 8.40000E+00    1.17137E-01
 8.60000E+00    1.14345E-01
 8.80000E+00    1.11849E-01
 9.00000E+00    1.09637E-01
 9.20000E+00    1.07689E-01
 9.40000E+00    1.05984E-01
 9.60000E+00    1.04490E-01
 9.80000E+00    1.03180E-01
 1.00000E+01    1.02024E-01
 1.02000E+01    1.00992E-01
 1.04000E+01    1.00056E-01
 1.06000E+01    9.91957E-02
 1.08000E+01    9.83899E-02
 1.10000E+01    9.76215E-02
 1.12000E+01    9.68782E-02
 1.14000E+01    9.61504E-02
 1.16000E+01    9.54315E-02
 1.18000E+01    9.47176E-02
 1.20000E+01    9.40064E-02
 1.22000E+01    9.32971E-02
 1.24000E+01    9.25913E-02
 1.26000E+01    9.18901E-02
 1.28000E+01    9.11949E-02
 1.30000E+01    9.05086E-02
 1.32000E+01    8.98335E-02
 1.34000E+01    8.91713E-02
 1.36000E+01    8.85236E-02
 1.38000E+01    8.78925E-02
 1.40000E+01    8.72785E-02
 1.42000E+01    8.66820E-02
 1.44000E+01    8.61035E-02
 1.46000E+01    8.55425E-02
 1.48000E+01    8.49980E-02
 1.50000E+01    8.44692E-02
 1.52000E+01    8.39543E-02
 1.54000E+01    8.34517E-02
 1.56000E+01    8.29592E-02
 1.58000E+01    8.24750E-02
 1.60000E+01    8.19973E-02
 1.62000E+01    8.15239E-02
 1.64000E+01    8.10526E-02
 1.66000E+01    8.05822E-02
 1.68000E+01    8.01110E-02
 1.70000E+01    7.96374E-02
 1.72000E+01    7.91609E-02
 1.74000E+01    7.86802E-02
 1.76000E+01    7.81952E-02
 1.78000E+01    7.77053E-02
 1.80000E+01    7.72104E-02
 1.82000E+01    7.67108E-02
 1.84000E+01    7.62070E-02
 1.86000E+01    7.56989E-02
 1.88000E+01    7.51873E-02
 1.90000E+01    7.46734E-02
 1.92000E+01    7.41579E-02
 1.94000E+01    7.36417E-02
 1.96000E+01    7.31263E-02
 1.98000E+01    7.26126E-02
 2.00000E+01    7.21017E-02
