# n + Sn112 : (n,xh)    
# jeff3.3    N.Iwamoto,K.Shibata               EVAL-Dec09
# 
# # energies =    95
#   E(MeV)        xs(mb) 
 1.05000E-01    0.00000E+00
 1.10000E-01    0.00000E+00
 1.20000E-01    0.00000E+00
 1.30000E-01    0.00000E+00
 1.40000E-01    0.00000E+00
 1.50000E-01    0.00000E+00
 1.60000E-01    0.00000E+00
 1.70000E-01    0.00000E+00
 1.80000E-01    0.00000E+00
 1.90000E-01    0.00000E+00
 2.00000E-01    0.00000E+00
 2.25000E-01    0.00000E+00
 2.50000E-01    0.00000E+00
 2.75000E-01    0.00000E+00
 3.00000E-01    0.00000E+00
 4.00000E-01    0.00000E+00
 5.00000E-01    0.00000E+00
 6.00000E-01    0.00000E+00
 7.00000E-01    0.00000E+00
 8.00000E-01    0.00000E+00
 9.00000E-01    0.00000E+00
 1.00000E+00    0.00000E+00
 1.10000E+00    0.00000E+00
 1.20000E+00    0.00000E+00
 1.26818E+00    0.00000E+00
 1.30000E+00    0.00000E+00
 1.40000E+00    0.00000E+00
 1.50000E+00    0.00000E+00
 1.60000E+00    0.00000E+00
 1.70000E+00    0.00000E+00
 1.80000E+00    0.00000E+00
 1.90000E+00    0.00000E+00
 2.00000E+00    0.00000E+00
 2.17048E+00    0.00000E+00
 2.21065E+00    0.00000E+00
 2.25000E+00    0.00000E+00
 2.26788E+00    0.00000E+00
 2.37575E+00    0.00000E+00
 2.49852E+00    0.00000E+00
 2.50000E+00    0.00000E+00
 2.54377E+00    0.00000E+00
 2.57228E+00    0.00000E+00
 2.57964E+00    0.00000E+00
 2.64160E+00    0.00000E+00
 2.74609E+00    0.00000E+00
 2.75000E+00    0.00000E+00
 2.78103E+00    0.00000E+00
 2.80901E+00    0.00000E+00
 2.88578E+00    0.00000E+00
 2.93966E+00    0.00000E+00
 2.94401E+00    0.00000E+00
 2.95316E+00    0.00000E+00
 2.97251E+00    0.00000E+00
 2.99374E+00    0.00000E+00
 3.00000E+00    0.00000E+00
 3.01594E+00    0.00000E+00
 3.10662E+00    0.00000E+00
 3.12095E+00    0.00000E+00
 3.14610E+00    0.00000E+00
 3.16528E+00    0.00000E+00
 3.17780E+00    0.00000E+00
 3.50000E+00    0.00000E+00
 4.00000E+00    0.00000E+00
 4.50000E+00    0.00000E+00
 5.00000E+00    0.00000E+00
 5.50000E+00    2.29025E-22
 6.00000E+00    6.34702E-22
 6.50000E+00    1.05351E-21
 7.00000E+00    1.67216E-21
 7.50000E+00    1.04200E-20
 8.00000E+00    9.83780E-18
 8.50000E+00    4.65280E-15
 9.00000E+00    4.51900E-13
 9.50000E+00    1.46590E-11
 1.00000E+01    2.16750E-10
 1.05000E+01    1.80490E-09
 1.10000E+01    9.71130E-09
 1.15000E+01    3.76910E-08
 1.20000E+01    1.12930E-07
 1.25000E+01    2.79850E-07
 1.30000E+01    6.03990E-07
 1.35000E+01    1.21335E-06
 1.40000E+01    2.40994E-06
 1.45000E+01    5.02081E-06
 1.50000E+01    1.11188E-05
 1.55000E+01    2.58628E-05
 1.60000E+01    5.52369E-05
 1.65000E+01    1.21543E-04
 1.70000E+01    2.54532E-04
 1.75000E+01    5.04692E-04
 1.80000E+01    9.46570E-04
 1.85000E+01    1.68991E-03
 1.90000E+01    2.87375E-03
 1.95000E+01    4.66745E-03
 2.00000E+01    7.26185E-03
