# n + Sn112 : (n,p)     
# jeff3.3    N.Iwamoto,K.Shibata               EVAL-Dec09
# uncertainties: n
# # energies =    81
#   E(MeV)       xs(mb) 
 1.80000E+00    0.00000E+00
 1.90000E+00    4.01091E-04
 1.92500E+00    4.73525E-04
 1.95000E+00    5.57843E-04
 1.97500E+00    6.55805E-04
 2.00000E+00    7.69403E-04
 2.00000E+00    7.69404E-04
 2.04262E+00    1.38173E-03
 2.08524E+00    2.05812E-03
 2.12786E+00    2.81425E-03
 2.17048E+00    3.66916E-03
 2.21065E+00    4.50976E-03
 2.25000E+00    5.49087E-03
 2.26788E+00    6.02556E-03
 2.32182E+00    8.32614E-03
 2.37575E+00    1.08993E-02
 2.43714E+00    1.47663E-02
 2.49852E+00    1.90123E-02
 2.50000E+00    1.90734E-02
 2.54377E+00    2.28832E-02
 2.57228E+00    2.53879E-02
 2.57964E+00    2.61090E-02
 2.64160E+00    3.24934E-02
 2.74609E+00    4.72069E-02
 2.75000E+00    4.77495E-02
 2.78103E+00    5.33176E-02
 2.80901E+00    5.85988E-02
 2.88578E+00    7.58658E-02
 2.93966E+00    9.02144E-02
 2.94401E+00    9.13111E-02
 2.95316E+00    9.37953E-02
 2.97251E+00    9.96921E-02
 2.99374E+00    1.05978E-01
 3.00000E+00    1.06939E-01
 3.01594E+00    1.11828E-01
 3.10662E+00    1.45055E-01
 3.12095E+00    1.50966E-01
 3.14610E+00    1.61353E-01
 3.16528E+00    1.69901E-01
 3.17780E+00    1.76587E-01
 3.33890E+00    2.84843E-01
 3.50000E+00    4.01182E-01
 3.74166E+00    7.32761E-01
 3.86867E+00    9.22668E-01
 4.00000E+00    1.13688E+00
 4.24264E+00    1.80027E+00
 4.50000E+00    2.62478E+00
 4.74342E+00    3.70231E+00
 5.00000E+00    5.07280E+00
 5.24404E+00    6.54933E+00
 5.50000E+00    8.45074E+00
 5.75000E+00    1.03374E+01
 6.00000E+00    1.25984E+01
 6.50000E+00    1.60510E+01
 7.00000E+00    2.00393E+01
 7.50000E+00    2.37616E+01
 8.00000E+00    2.73055E+01
 8.50000E+00    3.09325E+01
 9.00000E+00    3.48929E+01
 9.50000E+00    3.93619E+01
 1.00000E+01    4.43967E+01
 1.05000E+01    4.99708E+01
 1.10000E+01    5.58433E+01
 1.15000E+01    6.17675E+01
 1.20000E+01    6.71493E+01
 1.25000E+01    7.14569E+01
 1.30000E+01    7.40390E+01
 1.35000E+01    7.46301E+01
 1.40000E+01    7.32822E+01
 1.45000E+01    7.04349E+01
 1.50000E+01    6.68627E+01
 1.55000E+01    6.30147E+01
 1.60000E+01    5.94468E+01
 1.65000E+01    5.60491E+01
 1.70000E+01    5.30480E+01
 1.75000E+01    5.03646E+01
 1.80000E+01    4.81756E+01
 1.85000E+01    4.62764E+01
 1.90000E+01    4.47508E+01
 1.95000E+01    4.34130E+01
 2.00000E+01    4.23111E+01
