# n + Sn112 : (n,n')    
# jeff3.3    N.Iwamoto,K.Shibata               EVAL-Dec09
# uncertainties: n
# # energies =    95
#   E(MeV)       xs(mb) 
 1.05000E-01    0.00000E+00
 1.10000E-01    1.01282E-03
 1.20000E-01    1.20011E-03
 1.30000E-01    1.26013E-03
 1.40000E-01    1.28401E-03
 1.50000E-01    1.29826E-03
 1.60000E-01    1.30986E-03
 1.70000E-01    1.32285E-03
 1.80000E-01    1.33797E-03
 1.90000E-01    1.35526E-03
 2.00000E-01    1.37483E-03
 2.25000E-01    8.54628E-03
 2.50000E-01    9.35078E-03
 2.75000E-01    9.85334E-03
 3.00000E-01    1.04077E-02
 4.00000E-01    3.79963E-02
 5.00000E-01    9.99641E-02
 6.00000E-01    2.17459E-01
 7.00000E-01    4.16288E-01
 8.00000E-01    7.30518E-01
 9.00000E-01    1.19823E+00
 1.00000E+00    1.86435E+00
 1.10000E+00    2.78635E+00
 1.20000E+00    4.01811E+00
 1.26818E+00    5.22792E+00
 1.30000E+00    1.96819E+02
 1.40000E+00    4.52552E+02
 1.50000E+00    5.93387E+02
 1.60000E+00    6.78943E+02
 1.70000E+00    7.43633E+02
 1.80000E+00    7.97785E+02
 1.90000E+00    8.45863E+02
 2.00000E+00    8.89977E+02
 2.17048E+00    9.34737E+02
 2.21065E+00    9.85677E+02
 2.25000E+00    1.03554E+03
 2.26788E+00    1.05383E+03
 2.37575E+00    1.16815E+03
 2.49852E+00    1.30119E+03
 2.50000E+00    1.30507E+03
 2.54377E+00    1.34963E+03
 2.57228E+00    1.37869E+03
 2.57964E+00    1.38521E+03
 2.64160E+00    1.44987E+03
 2.74609E+00    1.53295E+03
 2.75000E+00    1.53731E+03
 2.78103E+00    1.56021E+03
 2.80901E+00    1.58267E+03
 2.88578E+00    1.63518E+03
 2.93966E+00    1.66823E+03
 2.94401E+00    1.67114E+03
 2.95316E+00    1.67774E+03
 2.97251E+00    1.68974E+03
 2.99374E+00    1.70307E+03
 3.00000E+00    1.71115E+03
 3.01594E+00    1.71975E+03
 3.10662E+00    1.76067E+03
 3.12095E+00    1.76630E+03
 3.14610E+00    1.77737E+03
 3.16528E+00    1.78505E+03
 3.17780E+00    1.78972E+03
 3.50000E+00    1.89892E+03
 4.00000E+00    2.02240E+03
 4.50000E+00    2.11295E+03
 5.00000E+00    2.17174E+03
 5.50000E+00    2.19712E+03
 6.00000E+00    2.19479E+03
 6.50000E+00    2.17746E+03
 7.00000E+00    2.15157E+03
 7.50000E+00    2.12386E+03
 8.00000E+00    2.09774E+03
 8.50000E+00    2.07487E+03
 9.00000E+00    2.05453E+03
 9.50000E+00    2.03612E+03
 1.00000E+01    2.01820E+03
 1.05000E+01    2.00039E+03
 1.10000E+01    1.97422E+03
 1.15000E+01    1.81302E+03
 1.20000E+01    1.58123E+03
 1.25000E+01    1.35019E+03
 1.30000E+01    1.13862E+03
 1.35000E+01    9.59788E+02
 1.40000E+01    8.16034E+02
 1.45000E+01    7.02103E+02
 1.50000E+01    6.13647E+02
 1.55000E+01    5.48261E+02
 1.60000E+01    4.92224E+02
 1.65000E+01    4.46336E+02
 1.70000E+01    4.09411E+02
 1.75000E+01    3.78518E+02
 1.80000E+01    3.53019E+02
 1.85000E+01    3.30987E+02
 1.90000E+01    3.12551E+02
 1.95000E+01    2.96418E+02
 2.00000E+01    2.82623E+02
