# n + Sn112 : (n,xt)    
# jeff3.3    N.Iwamoto,K.Shibata               EVAL-Dec09
# 
# # energies =    95
#   E(MeV)        xs(mb) 
 1.05000E-01    0.00000E+00
 1.10000E-01    0.00000E+00
 1.20000E-01    0.00000E+00
 1.30000E-01    0.00000E+00
 1.40000E-01    0.00000E+00
 1.50000E-01    0.00000E+00
 1.60000E-01    0.00000E+00
 1.70000E-01    0.00000E+00
 1.80000E-01    0.00000E+00
 1.90000E-01    0.00000E+00
 2.00000E-01    0.00000E+00
 2.25000E-01    0.00000E+00
 2.50000E-01    0.00000E+00
 2.75000E-01    0.00000E+00
 3.00000E-01    0.00000E+00
 4.00000E-01    0.00000E+00
 5.00000E-01    0.00000E+00
 6.00000E-01    0.00000E+00
 7.00000E-01    0.00000E+00
 8.00000E-01    0.00000E+00
 9.00000E-01    0.00000E+00
 1.00000E+00    0.00000E+00
 1.10000E+00    0.00000E+00
 1.20000E+00    0.00000E+00
 1.26818E+00    0.00000E+00
 1.30000E+00    0.00000E+00
 1.40000E+00    0.00000E+00
 1.50000E+00    0.00000E+00
 1.60000E+00    0.00000E+00
 1.70000E+00    0.00000E+00
 1.80000E+00    0.00000E+00
 1.90000E+00    0.00000E+00
 2.00000E+00    0.00000E+00
 2.17048E+00    0.00000E+00
 2.21065E+00    0.00000E+00
 2.25000E+00    0.00000E+00
 2.26788E+00    0.00000E+00
 2.37575E+00    0.00000E+00
 2.49852E+00    0.00000E+00
 2.50000E+00    0.00000E+00
 2.54377E+00    0.00000E+00
 2.57228E+00    0.00000E+00
 2.57964E+00    0.00000E+00
 2.64160E+00    0.00000E+00
 2.74609E+00    0.00000E+00
 2.75000E+00    0.00000E+00
 2.78103E+00    0.00000E+00
 2.80901E+00    0.00000E+00
 2.88578E+00    0.00000E+00
 2.93966E+00    0.00000E+00
 2.94401E+00    0.00000E+00
 2.95316E+00    0.00000E+00
 2.97251E+00    0.00000E+00
 2.99374E+00    0.00000E+00
 3.00000E+00    0.00000E+00
 3.01594E+00    0.00000E+00
 3.10662E+00    0.00000E+00
 3.12095E+00    0.00000E+00
 3.14610E+00    0.00000E+00
 3.16528E+00    0.00000E+00
 3.17780E+00    0.00000E+00
 3.50000E+00    0.00000E+00
 4.00000E+00    0.00000E+00
 4.50000E+00    0.00000E+00
 5.00000E+00    0.00000E+00
 5.50000E+00    0.00000E+00
 6.00000E+00    0.00000E+00
 6.50000E+00    0.00000E+00
 7.00000E+00    0.00000E+00
 7.50000E+00    0.00000E+00
 8.00000E+00    0.00000E+00
 8.50000E+00    0.00000E+00
 9.00000E+00    0.00000E+00
 9.50000E+00    1.09508E-16
 1.00000E+01    7.28384E-15
 1.05000E+01    1.98750E-14
 1.10000E+01    2.65850E-12
 1.15000E+01    9.12920E-10
 1.20000E+01    5.41570E-08
 1.25000E+01    1.12383E-06
 1.30000E+01    1.18662E-05
 1.35000E+01    7.94020E-05
 1.40000E+01    3.81986E-04
 1.45000E+01    1.42460E-03
 1.50000E+01    4.31234E-03
 1.55000E+01    1.09281E-02
 1.60000E+01    2.37893E-02
 1.65000E+01    4.52196E-02
 1.70000E+01    7.78960E-02
 1.75000E+01    1.22999E-01
 1.80000E+01    1.81130E-01
 1.85000E+01    2.52121E-01
 1.90000E+01    3.35323E-01
 1.95000E+01    4.29699E-01
 2.00000E+01    5.34090E-01
