# n + Sn112 :  n        
# jeff3.3    N.Iwamoto,K.Shibata               EVAL-Dec09
# uncertainties: n
# # energies =    95
#   E(MeV)       xs(mb) 
 1.05000E-01    0.00000E+00
 1.10000E-01    1.01282E-03
 1.20000E-01    1.20011E-03
 1.30000E-01    1.26013E-03
 1.40000E-01    1.28401E-03
 1.50000E-01    1.29826E-03
 1.60000E-01    1.30986E-03
 1.70000E-01    1.32285E-03
 1.80000E-01    1.33797E-03
 1.90000E-01    1.35526E-03
 2.00000E-01    1.37483E-03
 2.25000E-01    8.54628E-03
 2.50000E-01    9.35078E-03
 2.75000E-01    9.85334E-03
 3.00000E-01    1.04077E-02
 4.00000E-01    3.79963E-02
 5.00000E-01    9.99641E-02
 6.00000E-01    2.17459E-01
 7.00000E-01    4.16288E-01
 8.00000E-01    7.30518E-01
 9.00000E-01    1.19823E+00
 1.00000E+00    1.86435E+00
 1.10000E+00    2.78635E+00
 1.20000E+00    4.01811E+00
 1.26818E+00    5.22792E+00
 1.30000E+00    4.74014E+00
 1.40000E+00    5.37288E+00
 1.50000E+00    6.53579E+00
 1.60000E+00    7.96400E+00
 1.70000E+00    9.72319E+00
 1.80000E+00    1.18492E+01
 1.90000E+00    1.43997E+01
 2.00000E+00    1.74482E+01
 2.17048E+00    2.36964E+01
 2.21065E+00    2.39526E+01
 2.25000E+00    2.50275E+01
 2.26788E+00    2.53262E+01
 2.37575E+00    2.76036E+01
 2.49852E+00    2.94851E+01
 2.50000E+00    2.93891E+01
 2.54377E+00    3.00844E+01
 2.57228E+00    3.01322E+01
 2.57964E+00    3.01734E+01
 2.64160E+00    3.06342E+01
 2.74609E+00    3.18463E+01
 2.75000E+00    3.17885E+01
 2.78103E+00    3.19456E+01
 2.80901E+00    3.19442E+01
 2.88578E+00    3.29252E+01
 2.93966E+00    3.37964E+01
 2.94401E+00    3.38205E+01
 2.95316E+00    3.38273E+01
 2.97251E+00    3.39360E+01
 2.99374E+00    3.40315E+01
 3.00000E+00    3.37338E+01
 3.01594E+00    3.37534E+01
 3.10662E+00    3.48595E+01
 3.12095E+00    3.50041E+01
 3.14610E+00    3.55443E+01
 3.16528E+00    3.57313E+01
 3.17780E+00    3.58494E+01
 3.50000E+00    2.21608E+02
 4.00000E+00    7.56071E+02
 4.50000E+00    1.24032E+03
 5.00000E+00    1.59282E+03
 5.50000E+00    1.80798E+03
 6.00000E+00    1.91702E+03
 6.50000E+00    1.96564E+03
 7.00000E+00    1.97772E+03
 7.50000E+00    1.97282E+03
 8.00000E+00    1.96127E+03
 8.50000E+00    1.94842E+03
 9.00000E+00    1.93547E+03
 9.50000E+00    1.92282E+03
 1.00000E+01    1.90958E+03
 1.05000E+01    1.89554E+03
 1.10000E+01    1.87284E+03
 1.15000E+01    1.71450E+03
 1.20000E+01    1.48544E+03
 1.25000E+01    1.25679E+03
 1.30000E+01    1.04754E+03
 1.35000E+01    8.70774E+02
 1.40000E+01    7.29030E+02
 1.45000E+01    6.16841E+02
 1.50000E+01    5.30075E+02
 1.55000E+01    4.66150E+02
 1.60000E+01    4.11525E+02
 1.65000E+01    3.66917E+02
 1.70000E+01    3.31229E+02
 1.75000E+01    3.01531E+02
 1.80000E+01    2.77189E+02
 1.85000E+01    2.56302E+02
 1.90000E+01    2.38977E+02
 1.95000E+01    2.23923E+02
 2.00000E+01    2.11176E+02
