# n + Ca 48 : (n,el)    
# jendl4.0   K.Shibata                         EVAL-JUN06
# uncertainties: n
# # energies =   171
#   E(MeV)       xs(mb) 
 1.00000E-11    8.29154E+03
 1.00000E-07    3.72200E+03
 4.13990E-07    3.71869E+03
 5.31580E-07    3.71817E+03
 6.82560E-07    3.71794E+03
 8.76420E-07    3.71763E+03
 1.12540E-06    3.71723E+03
 1.44500E-06    3.71677E+03
 1.85540E-06    3.71659E+03
 2.37240E-06    3.71645E+03
 3.05900E-06    3.71626E+03
 3.92790E-06    3.71603E+03
 5.04350E-06    3.71573E+03
 6.47600E-06    3.71534E+03
 8.31530E-06    3.71485E+03
 1.06770E-05    3.71421E+03
 1.37100E-05    3.71339E+03
 1.76030E-05    3.71234E+03
 2.26030E-05    3.71097E+03
 2.92030E-05    3.70924E+03
 3.72670E-05    3.70704E+03
 4.78510E-05    3.70418E+03
 6.14420E-05    3.70052E+03
 7.88930E-05    3.69581E+03
 1.01300E-04    3.68977E+03
 1.30070E-04    3.68201E+03
 1.67020E-04    3.67204E+03
 2.14450E-04    3.65925E+03
 2.75360E-04    3.64282E+03
 3.53580E-04    3.62172E+03
 4.54000E-04    3.59464E+03
 5.82950E-04    3.56006E+03
 7.48520E-04    3.52057E+03
 9.61120E-04    3.47207E+03
 1.23410E-03    3.41000E+03
 1.58460E-03    3.33883E+03
 2.03470E-03    3.28127E+03
 2.24870E-03    3.24356E+03
 2.48520E-03    3.21612E+03
 2.61260E-03    3.19749E+03
 2.74650E-03    3.16760E+03
 3.03540E-03    3.12427E+03
 3.35460E-03    3.07977E+03
 3.70740E-03    3.02332E+03
 4.30740E-03    2.92503E+03
 5.53080E-03    2.79600E+03
 7.10170E-03    2.66282E+03
 9.11880E-03    2.52921E+03
 1.17090E-02    2.39865E+03
 1.50340E-02    2.27594E+03
 1.93050E-02    2.18929E+03
 2.18750E-02    2.14657E+03
 2.35790E-02    2.12433E+03
 2.41760E-02    2.11422E+03
 2.47880E-02    2.10003E+03
 2.60580E-02    2.08324E+03
 2.70000E-02    2.06484E+03
 2.85000E-02    2.03462E+03
 3.18280E-02    2.00043E+03
 3.43070E-02    1.95865E+03
 4.08680E-02    1.91149E+03
 4.63090E-02    1.87447E+03
 5.24750E-02    1.84717E+03
 5.65620E-02    1.81459E+03
 6.73790E-02    1.78392E+03
 7.20000E-02    1.76513E+03
 7.95000E-02    1.74919E+03
 8.25000E-02    1.73866E+03
 8.65170E-02    1.71706E+03
 9.80370E-02    1.68452E+03
 1.11090E-01    1.65940E+03
 1.16790E-01    1.64340E+03
 1.22770E-01    1.62243E+03
 1.29070E-01    1.59665E+03
 1.35690E-01    1.55832E+03
 1.42640E-01    1.48773E+03
 1.49960E-01    1.27420E+03
 1.57640E-01    3.20067E+03
 1.65730E-01    2.06807E+03
 1.74220E-01    1.83805E+03
 1.83160E-01    1.76556E+03
 1.92550E-01    1.72699E+03
 2.02420E-01    1.70145E+03
 2.12800E-01    1.68171E+03
 2.23710E-01    1.66620E+03
 2.35180E-01    1.65251E+03
 2.47240E-01    1.63646E+03
 2.73240E-01    1.63193E+03
 2.87250E-01    1.67475E+03
 2.94520E-01    1.79323E+03
 2.97200E-01    1.94989E+03
 2.98500E-01    2.82873E+03
 3.01970E-01    2.51944E+03
 3.33730E-01    1.59037E+03
 3.68830E-01    1.59975E+03
 3.87740E-01    4.58628E+03
 4.07620E-01    2.37567E+03
 4.50490E-01    2.06830E+03
 4.97870E-01    2.66735E+03
 5.23400E-01    2.75371E+03
 5.50230E-01    2.74160E+03
 5.78440E-01    2.72940E+03
 6.08100E-01    2.72669E+03
 6.39280E-01    2.72781E+03
 6.72060E-01    2.72900E+03
 7.06510E-01    2.73663E+03
 7.42740E-01    2.75009E+03
 7.80820E-01    2.76449E+03
 8.20850E-01    2.78578E+03
 8.62940E-01    2.81087E+03
 9.07180E-01    2.84121E+03
 9.61640E-01    2.87546E+03
 1.00260E+00    2.93213E+03
 1.10800E+00    3.00088E+03
 1.16480E+00    3.05004E+03
 1.22460E+00    3.10170E+03
 1.28730E+00    3.15601E+03
 1.35340E+00    3.21310E+03
 1.42270E+00    3.27310E+03
 1.49570E+00    3.33373E+03
 1.57240E+00    3.38909E+03
 1.65300E+00    3.44660E+03
 1.73770E+00    3.50707E+03
 1.82680E+00    3.57067E+03
 1.92050E+00    3.63692E+03
 2.01900E+00    3.68376E+03
 2.12250E+00    3.72133E+03
 2.23130E+00    3.75404E+03
 2.30690E+00    3.77434E+03
 2.34570E+00    3.78469E+03
 2.36530E+00    3.79168E+03
 2.38520E+00    3.80943E+03
 2.46600E+00    3.83679E+03
 2.59240E+00    3.84818E+03
 2.72530E+00    3.85880E+03
 2.86500E+00    3.86988E+03
 3.01190E+00    3.86661E+03
 3.16640E+00    3.85195E+03
 3.32870E+00    3.82693E+03
 3.67880E+00    3.72360E+03
 4.06570E+00    3.43690E+03
 4.49330E+00    3.25794E+03
 4.72370E+00    3.03950E+03
 4.96590E+00    2.83730E+03
 5.22050E+00    2.72498E+03
 5.48810E+00    2.48757E+03
 5.76950E+00    2.34352E+03
 6.06530E+00    2.19867E+03
 6.37630E+00    2.09432E+03
 6.59240E+00    2.03701E+03
 6.70320E+00    1.96132E+03
 7.04690E+00    1.85489E+03
 7.40820E+00    1.75258E+03
 7.78800E+00    1.65474E+03
 8.18730E+00    1.55989E+03
 8.60710E+00    1.46823E+03
 9.04840E+00    1.38749E+03
 9.51230E+00    1.31341E+03
 1.00000E+01    1.26359E+03
 1.05130E+01    1.18748E+03
 1.10520E+01    1.12137E+03
 1.16180E+01    1.06609E+03
 1.22140E+01    1.01899E+03
 1.28400E+01    9.77492E+02
 1.34990E+01    9.53748E+02
 1.38400E+01    9.38585E+02
 1.41910E+01    9.27427E+02
 1.45500E+01    9.18972E+02
 1.49180E+01    9.11888E+02
 1.56830E+01    9.08910E+02
 1.64870E+01    9.15939E+02
