# n + Ca 48 : (n,g)     
# jendl4.0   K.Shibata                         EVAL-JUN06
# uncertainties: n
# # energies =    69
#   E(MeV)       xs(mb) 
 1.00000E-10    7.62944E+03
 5.00000E-09    2.07736E+03
 1.00000E-08    1.57327E+03
 1.50000E-08    1.32184E+03
 2.00000E-08    1.16298E+03
 2.50000E-08    1.05070E+03
 3.00000E-08    9.65846E+02
 3.50000E-08    8.88010E+02
 4.20000E-08    8.12224E+02
 5.00000E-08    7.49193E+02
 5.80000E-08    6.96332E+02
 6.70000E-08    6.42607E+02
 8.00000E-08    5.81489E+02
 1.00000E-07    5.05907E+02
 1.40000E-07    4.36537E+02
 1.80000E-07    3.89794E+02
 2.20000E-07    3.58976E+02
 2.50000E-07    3.37962E+02
 2.80000E-07    3.22870E+02
 3.00000E-07    3.12265E+02
 3.20000E-07    3.00470E+02
 3.50000E-07    2.84191E+02
 4.00000E-07    2.60032E+02
 5.00000E-07    2.32578E+02
 6.25000E-07    2.08096E+02
 7.80000E-07    1.92610E+02
 8.50000E-07    1.85320E+02
 9.10000E-07    1.80233E+02
 9.50000E-07    1.77288E+02
 9.72000E-07    1.75205E+02
 9.96000E-07    1.73103E+02
 1.02000E-06    1.71036E+02
 1.04500E-06    1.68967E+02
 1.07100E-06    1.66930E+02
 1.09700E-06    1.64960E+02
 1.12300E-06    1.63034E+02
 1.15000E-06    1.57210E+02
 1.30000E-06    1.47128E+02
 1.50000E-06    1.30672E+02
 2.10000E-06    1.13798E+02
 2.60000E-06    1.01658E+02
 3.30000E-06    9.12323E+01
 4.00000E-06    6.98895E+01
 9.87700E-06    4.90857E+01
 1.59680E-05    3.78941E+01
 2.77000E-05    2.86812E+01
 4.80520E-05    2.21923E+01
 7.55014E-05    1.66251E+01
 1.48728E-04    1.09584E+01
 3.67262E-04    6.53106E+00
 9.06898E-04    4.16969E+00
 1.42510E-03    2.97172E+00
 2.23945E-03    2.01006E+00
 3.51910E-03    1.26934E+00
 5.53000E-03    7.15054E-01
 9.11800E-03    3.48205E-01
 1.50300E-02    1.50253E-01
 2.47800E-02    5.80463E-02
 4.08500E-02    2.05469E-02
 6.73400E-02    6.95775E-03
 1.11000E-01    5.12838E-02
 1.83000E-01    7.33094E-03
 3.02000E-01    2.55876E-01
 5.00000E-01    1.33362E-01
 8.21000E-01    1.11859E-01
 1.35300E+00    1.14671E-01
 2.23100E+00    1.86916E-01
 3.67900E+00    1.99920E-01
 6.06500E+00    8.06569E-02
