# n + Hg  0 : (n,n'01)
# jeff3.3    S.Chiba,M.Chadwick,P.Young        EVAL-OCT05
# uncertainties: n
# # energies =   110
#   E(MeV)          xs(mb) 
 1.57285E-03    0.00000E+00
 3.00000E-03    6.26206E+01
 6.00000E-03    5.27487E+01
 1.00000E-02    4.42165E+01
 2.00000E-02    3.44226E+01
 2.64039E-02    3.19707E+01
 3.00000E-02    3.05938E+01
 3.23063E-02    2.99833E+01
 6.00000E-02    2.26530E+01
 1.00000E-01    2.11323E+01
 1.68311E-01    2.55086E+01
 2.00000E-01    4.21203E+01
 3.00000E-01    5.87960E+01
 3.86532E-01    9.12603E+01
 4.00000E-01    1.10898E+02
 4.16620E-01    1.17773E+02
 4.66741E-01    1.90517E+02
 5.00000E-01    2.62865E+02
 5.45534E-01    3.13977E+02
 5.50067E-01    3.19030E+02
 5.55775E-01    3.25394E+02
 6.00000E-01    3.74077E+02
 6.48539E-01    4.07533E+02
 7.00000E-01    4.43004E+02
 7.35975E-01    4.60844E+02
 7.70066E-01    4.77750E+02
 8.00000E-01    4.92595E+02
 9.00000E-01    5.31144E+02
 9.57783E-01    5.43289E+02
 1.00000E+00    5.52162E+02
 1.04019E+00    5.52997E+02
 1.08040E+00    5.53832E+02
 1.19376E+00    5.56187E+02
 1.20000E+00    5.56317E+02
 1.29346E+00    5.44959E+02
 1.34271E+00    5.38648E+02
 1.36683E+00    5.35557E+02
 1.40000E+00    5.31307E+02
 1.51255E+00    5.09003E+02
 1.59094E+00    4.92312E+02
 1.59899E+00    4.90598E+02
 1.60000E+00    4.90383E+02
 1.70150E+00    4.58810E+02
 1.71858E+00    4.53497E+02
 1.74572E+00    4.45055E+02
 1.80000E+00    4.28170E+02
 1.95577E+00    3.89798E+02
 1.98089E+00    3.83610E+02
 2.00000E+00    3.78903E+02
 2.04722E+00    3.68774E+02
 2.09144E+00    3.59289E+02
 2.20000E+00    3.36003E+02
 2.40000E+00    2.97431E+02
 2.60000E+00    2.65562E+02
 2.80000E+00    2.39686E+02
 3.00000E+00    2.17603E+02
 3.20000E+00    1.98784E+02
 3.40000E+00    1.82130E+02
 3.60000E+00    1.67494E+02
 3.80000E+00    1.54551E+02
 4.00000E+00    1.42752E+02
 4.20000E+00    1.34883E+02
 4.40000E+00    1.27820E+02
 4.60000E+00    1.21469E+02
 4.80000E+00    1.15692E+02
 5.00000E+00    1.10302E+02
 5.20000E+00    1.05727E+02
 5.40000E+00    1.01324E+02
 5.60000E+00    9.70297E+01
 5.80000E+00    9.28394E+01
 6.00000E+00    8.87607E+01
 6.20000E+00    8.48100E+01
 6.40000E+00    8.10363E+01
 6.60000E+00    7.74753E+01
 6.80000E+00    7.41515E+01
 7.00000E+00    7.10822E+01
 7.20000E+00    6.82739E+01
 7.40000E+00    6.57240E+01
 7.60000E+00    6.34221E+01
 7.80000E+00    6.13517E+01
 8.00000E+00    5.94905E+01
 8.50000E+00    5.59249E+01
 9.00000E+00    5.30785E+01
 9.50000E+00    5.05847E+01
 1.00000E+01    4.82175E+01
 1.05000E+01    4.59986E+01
 1.10000E+01    4.38279E+01
 1.15000E+01    4.17452E+01
 1.20000E+01    3.97896E+01
 1.25000E+01    3.80608E+01
 1.30000E+01    3.64846E+01
 1.35000E+01    3.50451E+01
 1.40000E+01    3.37141E+01
 1.45000E+01    3.25034E+01
 1.50000E+01    3.13376E+01
 1.60000E+01    2.90693E+01
 1.70000E+01    2.68532E+01
 1.80000E+01    2.47919E+01
 1.90000E+01    2.30177E+01
 2.00000E+01    2.15220E+01
 2.10000E+01    1.90077E+01
 2.20000E+01    1.81101E+01
 2.30000E+01    1.73150E+01
 2.40000E+01    1.65639E+01
 2.50000E+01    1.58261E+01
 2.60000E+01    1.51011E+01
 2.70000E+01    1.44110E+01
 2.80000E+01    1.37835E+01
 2.90000E+01    1.32367E+01
 3.00000E+01    1.27729E+01
