# n + Ca  0 : (n,a)
# jendl4.0   K.Shibata                         EVAL-JUN06
# uncertainties: n
# # energies =    87
#   E(MeV)          xs(mb) 
 1.00000E-03    0.00000E+00
 1.00000E-02    2.45423E-07
 2.00000E-02    3.02526E-07
 3.00000E-02    3.29525E-07
 4.00000E-02    3.45995E-07
 5.00000E-02    3.58954E-07
 6.00000E-02    3.71374E-07
 7.00000E-02    3.84468E-07
 8.00000E-02    3.97968E-07
 9.00000E-02    4.13493E-07
 1.00000E-01    7.99986E-07
 2.00000E-01    1.13505E-06
 2.52902E-01    1.63367E-06
 3.00000E-01    2.07759E-06
 4.00000E-01    4.11960E-04
 5.00000E-01    2.22475E-03
 6.00000E-01    5.82321E-03
 6.30054E-01    7.87468E-03
 7.00000E-01    1.26492E-02
 8.00000E-01    2.44990E-02
 9.00000E-01    4.59774E-02
 9.52860E-01    6.54184E-02
 1.00000E+00    8.27558E-02
 1.21538E+00    4.81873E-01
 1.26328E+00    5.70634E-01
 1.26707E+00    5.77657E-01
 1.43676E+00    8.92100E-01
 1.50000E+00    1.00928E+00
 1.68035E+00    2.88632E+00
 1.80542E+00    4.18798E+00
 1.84789E+00    4.62996E+00
 1.99476E+00    6.15852E+00
 1.99783E+00    6.19047E+00
 2.00000E+00    6.21306E+00
 2.07132E+00    8.70275E+00
 2.09558E+00    9.54960E+00
 2.19332E+00    1.29614E+01
 2.20048E+00    1.32114E+01
 2.24756E+00    1.48548E+01
 2.26905E+00    1.56049E+01
 2.33896E+00    1.80453E+01
 2.35503E+00    1.86062E+01
 2.37959E+00    1.94636E+01
 2.45328E+00    2.20359E+01
 2.50000E+00    2.36667E+01
 2.55051E+00    2.74820E+01
 2.57610E+00    2.94149E+01
 2.64160E+00    3.43618E+01
 2.71427E+00    3.98508E+01
 2.74497E+00    4.21696E+01
 2.75828E+00    4.31749E+01
 2.77772E+00    4.46432E+01
 2.90464E+00    5.42299E+01
 2.93329E+00    5.63942E+01
 2.95663E+00    5.81572E+01
 3.00000E+00    6.14330E+01
 3.03769E+00    6.56154E+01
 3.06338E+00    6.84662E+01
 3.08681E+00    7.10661E+01
 3.10421E+00    7.29967E+01
 3.14515E+00    7.75397E+01
 3.17381E+00    8.07204E+01
 3.50000E+00    1.16918E+02
 4.00000E+00    1.65665E+02
 4.50000E+00    1.89715E+02
 5.00000E+00    2.10964E+02
 5.50000E+00    2.17388E+02
 6.00000E+00    2.21628E+02
 6.50000E+00    2.29175E+02
 7.00000E+00    2.37397E+02
 7.50000E+00    2.46704E+02
 8.00000E+00    2.54383E+02
 8.50000E+00    2.54990E+02
 9.00000E+00    2.48984E+02
 9.50000E+00    2.39261E+02
 1.00000E+01    2.27956E+02
 1.10000E+01    2.06473E+02
 1.20000E+01    1.89527E+02
 1.30000E+01    1.72184E+02
 1.40000E+01    1.46834E+02
 1.45000E+01    1.32722E+02
 1.50000E+01    1.17635E+02
 1.60000E+01    9.03486E+01
 1.70000E+01    6.76673E+01
 1.80000E+01    5.01502E+01
 1.90000E+01    3.68321E+01
 2.00000E+01    2.70963E+01
