# n + Fe 60 : (n,xn)    
# jeff3.3    A.J. Koning and D. Rochman        EVAL-DEC15
# 
# # energies =   126
#   E(MeV)        xs(mb) 
 8.37491E-01    0.00000E+00
 9.00000E-01    4.69883E+02
 1.00000E+00    6.24297E+02
 1.20000E+00    7.74328E+02
 1.40000E+00    8.81739E+02
 1.60000E+00    9.50423E+02
 1.80000E+00    9.86495E+02
 2.00000E+00    9.99419E+02
 2.00702E+00    9.98141E+02
 2.15011E+00    1.02051E+03
 2.20000E+00    1.04062E+03
 2.33810E+00    9.97935E+02
 2.39768E+00    1.09964E+03
 2.40000E+00    1.11279E+03
 2.60000E+00    1.16352E+03
 2.71768E+00    1.14397E+03
 2.80000E+00    1.21672E+03
 2.80208E+00    1.21614E+03
 2.83939E+00    1.22278E+03
 3.00000E+00    1.27123E+03
 3.08984E+00    1.25950E+03
 3.12370E+00    1.27209E+03
 3.20000E+00    1.31079E+03
 3.34842E+00    1.30328E+03
 3.36337E+00    1.31400E+03
 3.40000E+00    1.34647E+03
 3.56094E+00    1.36243E+03
 3.57527E+00    1.36589E+03
 3.57914E+00    1.36707E+03
 3.60000E+00    1.37352E+03
 3.60059E+00    1.37326E+03
 3.62195E+00    1.36504E+03
 3.64218E+00    1.36183E+03
 3.69618E+00    1.35342E+03
 3.70909E+00    1.35499E+03
 3.76024E+00    1.37399E+03
 3.77620E+00    1.38288E+03
 3.80000E+00    1.41409E+03
 3.93208E+00    1.41007E+03
 3.93991E+00    1.41255E+03
 3.99584E+00    1.43510E+03
 4.00000E+00    1.44300E+03
 4.02095E+00    1.44334E+03
 4.02563E+00    1.44343E+03
 4.12121E+00    1.44525E+03
 4.20000E+00    1.46718E+03
 4.24628E+00    1.46157E+03
 4.35203E+00    1.46157E+03
 4.40000E+00    1.48882E+03
 4.60000E+00    1.51065E+03
 4.80000E+00    1.52900E+03
 5.00000E+00    1.54403E+03
 5.20000E+00    1.55584E+03
 5.40000E+00    1.56460E+03
 5.60000E+00    1.57057E+03
 5.80000E+00    1.57409E+03
 6.00000E+00    1.57558E+03
 6.20000E+00    1.57545E+03
 6.40000E+00    1.57405E+03
 6.60000E+00    1.57178E+03
 6.80000E+00    1.56893E+03
 7.00000E+00    1.56573E+03
 7.20000E+00    1.56241E+03
 7.40000E+00    1.55911E+03
 7.60000E+00    1.55592E+03
 7.80000E+00    1.55294E+03
 8.00000E+00    1.55018E+03
 8.50000E+00    1.54425E+03
 9.00000E+00    1.54576E+03
 9.50000E+00    1.64193E+03
 1.00000E+01    1.80085E+03
 1.05000E+01    1.98542E+03
 1.10000E+01    2.14716E+03
 1.15000E+01    2.26830E+03
 1.20000E+01    2.35521E+03
 1.25000E+01    2.41300E+03
 1.30000E+01    2.45630E+03
 1.35000E+01    2.48138E+03
 1.40000E+01    2.49621E+03
 1.45000E+01    2.50500E+03
 1.50000E+01    2.50949E+03
 1.60000E+01    2.51000E+03
 1.70000E+01    2.51412E+03
 1.80000E+01    2.55134E+03
 1.90000E+01    2.62375E+03
 2.00000E+01    2.70399E+03
 2.10000E+01    2.77720E+03
 2.20000E+01    2.82754E+03
 2.30000E+01    2.86072E+03
 2.40000E+01    2.87638E+03
 2.50000E+01    2.87769E+03
 2.60000E+01    2.85944E+03
 2.70000E+01    2.84473E+03
 2.80000E+01    2.82750E+03
 2.90000E+01    2.81480E+03
 3.00000E+01    2.80741E+03
 3.00000E+01    2.81163E+03
 3.20000E+01    2.81650E+03
 3.40000E+01    2.83039E+03
 3.60000E+01    2.84274E+03
 3.80000E+01    2.84697E+03
 4.00000E+01    2.84506E+03
 4.20000E+01    2.84432E+03
 4.40000E+01    2.84627E+03
 4.60000E+01    2.84537E+03
 4.80000E+01    2.84449E+03
 5.00000E+01    2.83471E+03
 5.20000E+01    2.83239E+03
 5.40000E+01    2.83314E+03
 5.60000E+01    2.83454E+03
 5.80000E+01    2.83427E+03
 6.00000E+01    2.83602E+03
 6.50000E+01    2.83199E+03
 7.00000E+01    2.84171E+03
 7.50000E+01    2.85042E+03
 8.00000E+01    2.85692E+03
 9.00000E+01    2.92946E+03
 1.00000E+02    3.01556E+03
 1.10000E+02    3.09501E+03
 1.20000E+02    3.16928E+03
 1.30000E+02    3.24965E+03
 1.40000E+02    3.34271E+03
 1.50000E+02    3.43336E+03
 1.60000E+02    3.53037E+03
 1.80000E+02    3.72846E+03
 2.00000E+02    3.95172E+03
