# n + Fe 60 : (n,n'05)  
# jeff3.3    A.J. Koning and D. Rochman        EVAL-DEC15
# uncertainties: n
# # energies =    84
#   E(MeV)       xs(mb) 
 2.39768E+00    0.00000E+00
 2.40000E+00    9.18694E+00
 2.60000E+00    4.28926E+01
 2.71768E+00    5.01408E+01
 2.80000E+00    5.52110E+01
 2.80208E+00    5.52777E+01
 2.83939E+00    5.64742E+01
 3.00000E+00    6.16248E+01
 3.08984E+00    6.25087E+01
 3.12370E+00    6.28418E+01
 3.20000E+00    6.35925E+01
 3.34842E+00    6.32986E+01
 3.36337E+00    6.32690E+01
 3.40000E+00    6.31965E+01
 3.56094E+00    6.10362E+01
 3.57527E+00    6.08439E+01
 3.57914E+00    6.07919E+01
 3.60000E+00    6.05119E+01
 3.60059E+00    6.04884E+01
 3.62195E+00    5.96361E+01
 3.64218E+00    5.88289E+01
 3.69618E+00    5.66742E+01
 3.70909E+00    5.61591E+01
 3.76024E+00    5.41182E+01
 3.77620E+00    5.34813E+01
 3.80000E+00    5.25317E+01
 3.93208E+00    4.85014E+01
 3.93991E+00    4.82624E+01
 3.99584E+00    4.65557E+01
 4.00000E+00    4.64288E+01
 4.02095E+00    4.58491E+01
 4.02563E+00    4.57196E+01
 4.12121E+00    4.30747E+01
 4.20000E+00    4.08945E+01
 4.24628E+00    3.96616E+01
 4.35203E+00    3.68446E+01
 4.40000E+00    3.55667E+01
 4.60000E+00    2.97018E+01
 4.80000E+00    2.45247E+01
 5.00000E+00    2.00825E+01
 5.20000E+00    1.63338E+01
 5.40000E+00    1.32249E+01
 5.60000E+00    1.06894E+01
 5.80000E+00    8.64457E+00
 6.00000E+00    7.00633E+00
 6.20000E+00    5.69568E+00
 6.40000E+00    4.64702E+00
 6.60000E+00    3.80246E+00
 6.80000E+00    3.11941E+00
 7.00000E+00    2.56680E+00
 7.20000E+00    2.11614E+00
 7.40000E+00    1.74864E+00
 7.60000E+00    1.44747E+00
 7.80000E+00    1.19992E+00
 8.00000E+00    9.96517E-01
 8.50000E+00    6.28357E-01
 9.00000E+00    4.01246E-01
 9.50000E+00    2.58635E-01
 1.00000E+01    1.68613E-01
 1.05000E+01    1.11119E-01
 1.10000E+01    7.39738E-02
 1.15000E+01    4.96847E-02
 1.20000E+01    3.36266E-02
 1.25000E+01    2.29010E-02
 1.30000E+01    1.56863E-02
 1.35000E+01    1.08025E-02
 1.40000E+01    7.47799E-03
 1.45000E+01    5.20308E-03
 1.50000E+01    3.63878E-03
 1.60000E+01    1.80756E-03
 1.70000E+01    9.17269E-04
 1.80000E+01    4.75006E-04
 1.90000E+01    2.50782E-04
 2.00000E+01    1.34620E-04
 2.10000E+01    7.32060E-05
 2.20000E+01    4.01173E-05
 2.30000E+01    2.21746E-05
 2.40000E+01    1.23500E-05
 2.50000E+01    6.94864E-06
 2.60000E+01    3.89867E-06
 2.70000E+01    2.23185E-06
 2.80000E+01    1.28909E-06
 2.90000E+01    7.52660E-07
 3.00000E+01    4.43440E-07
