# n + Ho165 : (n,n'10)  
# tendl.2019 A.J. Koning and D. Rochman        EVAL-NOV19
# uncertainties: n
# # energies =    90
#   E(MeV)       xs(mb) 
 5.18628E-01    0.00000E+00
 5.42307E-01    1.16557E+01
 5.70266E-01    2.54181E+01
 5.93407E-01    3.68090E+01
 6.00000E-01    4.00543E+01
 6.05279E-01    4.05997E+01
 6.42405E-01    4.44350E+01
 6.77116E-01    4.80209E+01
 6.85366E-01    4.88731E+01
 6.93012E-01    4.96630E+01
 7.00000E-01    5.03849E+01
 7.06293E-01    5.05969E+01
 7.08104E-01    5.06579E+01
 7.19705E-01    5.10488E+01
 7.35370E-01    5.15766E+01
 7.48550E-01    5.20206E+01
 7.95636E-01    5.36071E+01
 8.00000E-01    5.37541E+01
 8.07207E-01    5.40028E+01
 8.24814E-01    5.46103E+01
 8.28692E-01    5.47441E+01
 8.32259E-01    5.48672E+01
 8.46948E-01    5.53740E+01
 8.68580E-01    5.61204E+01
 9.00000E-01    5.72045E+01
 1.00000E+00    6.08301E+01
 1.20000E+00    6.40226E+01
 1.40000E+00    6.15653E+01
 1.60000E+00    5.52537E+01
 1.80000E+00    4.67260E+01
 2.00000E+00    3.74028E+01
 2.20000E+00    2.84853E+01
 2.40000E+00    2.08016E+01
 2.60000E+00    1.47339E+01
 2.80000E+00    1.02348E+01
 3.00000E+00    7.03715E+00
 3.20000E+00    4.93609E+00
 3.40000E+00    3.39354E+00
 3.60000E+00    2.37656E+00
 3.80000E+00    1.62117E+00
 4.00000E+00    1.11097E+00
 4.20000E+00    7.63054E-01
 4.40000E+00    5.25806E-01
 4.60000E+00    3.63684E-01
 4.80000E+00    2.52660E-01
 5.00000E+00    1.76451E-01
 5.20000E+00    1.23671E-01
 5.40000E+00    8.73118E-02
 5.60000E+00    6.18412E-02
 5.80000E+00    4.39266E-02
 6.00000E+00    3.14361E-02
 6.20000E+00    2.25816E-02
 6.40000E+00    1.63413E-02
 6.60000E+00    1.18757E-02
 6.80000E+00    8.69916E-03
 7.00000E+00    6.40861E-03
 7.20000E+00    4.74050E-03
 7.40000E+00    3.53155E-03
 7.60000E+00    2.63805E-03
 7.80000E+00    1.98097E-03
 8.00000E+00    1.49331E-03
 8.50000E+00    7.46392E-04
 9.00000E+00    3.78728E-04
 9.50000E+00    1.94721E-04
 1.00000E+01    1.01417E-04
 1.05000E+01    5.34732E-05
 1.10000E+01    2.85477E-05
 1.15000E+01    1.54379E-05
 1.20000E+01    8.44688E-06
 1.25000E+01    4.67583E-06
 1.30000E+01    2.61843E-06
 1.35000E+01    1.48049E-06
 1.40000E+01    8.45890E-07
 1.45000E+01    4.88060E-07
 1.50000E+01    2.83940E-07
 1.60000E+01    9.84560E-08
 1.70000E+01    3.52670E-08
 1.80000E+01    1.28830E-08
 1.90000E+01    4.85540E-09
 2.00000E+01    1.87910E-09
 2.10000E+01    7.44380E-10
 2.20000E+01    3.01270E-10
 2.30000E+01    1.24150E-10
 2.40000E+01    5.21960E-11
 2.50000E+01    2.23940E-11
 2.60000E+01    9.76440E-12
 2.70000E+01    4.32020E-12
 2.80000E+01    1.93850E-12
 2.90000E+01    8.81690E-13
 3.00000E+01    4.06360E-13
