# n + Pt195 : (n,p)     
# jendl.ad   K.Shibata (JAEA)                  EVAL-Jun15
# uncertainties: n
# # energies =    57
#   E(MeV)       xs(mb) 
 3.21275E-01    0.00000E+00
 3.90814E-01    5.32520E-19
 4.21792E-01    7.69750E-19
 4.97403E-01    1.35130E-18
 5.55995E-01    1.80200E-18
 6.09278E-01    2.21180E-18
 7.17313E-01    3.04280E-18
 7.35445E-01    3.18230E-18
 7.52120E-01    3.31050E-18
 8.23359E-01    3.85850E-18
 8.63271E-01    4.16550E-18
 9.06080E-01    4.49470E-18
 9.50514E-01    4.83650E-18
 1.04500E+00    5.56330E-18
 1.08558E+00    5.87540E-18
 1.10134E+00    5.99660E-18
 1.18667E+00    6.65290E-18
 1.20382E+00    6.78480E-18
 1.23799E+00    7.04770E-18
 1.26990E+00    7.29310E-18
 1.28624E+00    7.41880E-18
 1.32042E+00    7.68170E-18
 1.34378E+00    7.86140E-18
 1.37671E+00    8.11470E-18
 1.43400E+00    8.55530E-18
 1.50000E+00    9.06300E-18
 2.00000E+00    3.66110E-13
 2.50000E+00    2.34160E-10
 2.53000E+00    3.21260E-10
 3.00000E+00    1.78900E-08
 3.50000E+00    3.91350E-07
 4.00000E+00    3.75678E-06
 4.50000E+00    2.03463E-05
 4.55000E+00    2.35142E-05
 4.64000E+00    3.01528E-05
 5.00000E+00    7.26377E-05
 5.50000E+00    1.88675E-04
 6.00000E+00    3.88691E-04
 6.50000E+00    6.92673E-04
 7.00000E+00    1.19145E-03
 7.50000E+00    2.22994E-03
 8.00000E+00    4.75302E-03
 8.50000E+00    1.08575E-02
 9.00000E+00    2.45273E-02
 9.50000E+00    5.23777E-02
 1.00000E+01    1.04009E-01
 1.10000E+01    3.29605E-01
 1.20000E+01    8.15890E-01
 1.30000E+01    1.68312E+00
 1.40000E+01    3.04604E+00
 1.45000E+01    3.94253E+00
 1.50000E+01    4.98441E+00
 1.60000E+01    7.46534E+00
 1.70000E+01    1.03094E+01
 1.80000E+01    1.32089E+01
 1.90000E+01    1.59220E+01
 2.00000E+01    1.82443E+01
