# n + Pt195 : (n,xn)    
# jendl.ad   K.Shibata (JAEA)                  EVAL-Jun15
# 
# # energies =    67
#   E(MeV)        xs(mb) 
 2.60642E-01    0.00000E+00
 3.00000E-01    0.00000E+00
 3.91173E-01    0.00000E+00
 4.00000E-01    0.00000E+00
 4.21874E-01    0.00000E+00
 4.34235E-01    0.00000E+00
 4.34436E-01    0.00000E+00
 4.51986E-01    0.00000E+00
 4.57555E-01    0.00000E+00
 5.00000E-01    0.00000E+00
 5.10709E-01    0.00000E+00
 5.27563E-01    0.00000E+00
 5.41789E-01    0.00000E+00
 5.47016E-01    0.00000E+00
 5.50101E-01    0.00000E+00
 5.65722E-01    0.00000E+00
 5.93953E-01    0.00000E+00
 6.00000E-01    0.00000E+00
 6.15890E-01    0.00000E+00
 6.33398E-01    0.00000E+00
 6.35370E-01    0.00000E+00
 6.67636E-01    0.00000E+00
 6.70551E-01    0.00000E+00
 6.81508E-01    0.00000E+00
 6.98897E-01    0.00000E+00
 7.00000E-01    0.00000E+00
 7.43372E-01    0.00000E+00
 7.69762E-01    0.00000E+00
 7.97103E-01    0.00000E+00
 8.00000E-01    0.00000E+00
 8.18734E-01    0.00000E+00
 8.26102E-01    0.00000E+00
 8.79527E-01    0.00000E+00
 9.00000E-01    0.00000E+00
 1.00000E+00    0.00000E+00
 1.50000E+00    9.50760E-34
 2.00000E+00    4.90090E-28
 2.50000E+00    1.66070E-23
 2.53000E+00    2.57860E-23
 3.00000E+00    7.36160E-20
 3.50000E+00    6.50600E-17
 4.00000E+00    1.65650E-14
 4.50000E+00    1.62990E-12
 4.55000E+00    2.46170E-12
 4.64000E+00    4.96760E-12
 5.00000E+00    7.65720E-11
 5.50000E+00    1.92290E-09
 6.00000E+00    2.95150E-08
 6.50000E+00    6.43062E+01
 7.00000E+00    5.03524E+02
 7.50000E+00    1.21335E+03
 8.00000E+00    1.92405E+03
 8.50000E+00    2.53440E+03
 9.00000E+00    2.99774E+03
 9.50000E+00    3.33892E+03
 1.00000E+01    3.58144E+03
 1.10000E+01    3.85684E+03
 1.20000E+01    3.96620E+03
 1.30000E+01    4.00737E+03
 1.40000E+01    4.03591E+03
 1.45000E+01    4.05004E+03
 1.50000E+01    4.06966E+03
 1.60000E+01    4.22117E+03
 1.70000E+01    4.59673E+03
 1.80000E+01    4.99259E+03
 1.90000E+01    5.31276E+03
 2.00000E+01    5.51440E+03
