# n + Pt195 : (n,t)     
# jendl.ad   K.Shibata (JAEA)                  EVAL-Jun15
# uncertainties: n
# # energies =    59
#   E(MeV)       xs(mb) 
 5.16305E+00    0.00000E+00
 5.23647E+00    1.34380E-28
 5.24370E+00    1.47610E-28
 5.30270E+00    2.59020E-28
 5.34404E+00    3.37090E-28
 5.46399E+00    5.63590E-28
 5.52266E+00    6.74370E-28
 5.52677E+00    6.82130E-28
 5.62596E+00    8.69440E-28
 5.63486E+00    8.86240E-28
 5.64451E+00    9.04460E-28
 5.68213E+00    9.75500E-28
 5.68767E+00    9.85960E-28
 5.72338E+00    1.05340E-27
 5.72524E+00    1.05690E-27
 5.72936E+00    1.06470E-27
 5.76437E+00    1.13080E-27
 5.78725E+00    1.17400E-27
 5.86178E+00    1.31470E-27
 5.87890E+00    1.34710E-27
 5.90726E+00    1.40060E-27
 5.97412E+00    1.52690E-27
 5.99625E+00    1.56870E-27
 6.00025E+00    1.57620E-27
 6.00630E+00    1.58760E-27
 6.01637E+00    1.60670E-27
 6.01652E+00    1.60690E-27
 6.02451E+00    1.62200E-27
 6.04186E+00    1.65480E-27
 6.05993E+00    1.68890E-27
 6.08616E+00    1.73840E-27
 6.09829E+00    1.76130E-27
 6.13247E+00    1.82590E-27
 6.14095E+00    1.84190E-27
 6.14343E+00    1.84660E-27
 6.17762E+00    1.91110E-27
 6.18791E+00    1.93060E-27
 6.20386E+00    1.96070E-27
 6.20425E+00    1.96140E-27
 6.20648E+00    1.96560E-27
 6.50000E+00    2.51990E-27
 7.00000E+00    9.02700E-21
 7.50000E+00    1.13910E-16
 8.00000E+00    6.86430E-14
 8.50000E+00    6.52050E-12
 9.00000E+00    1.86070E-10
 9.50000E+00    2.38380E-09
 1.00000E+01    1.90440E-08
 1.10000E+01    8.75090E-07
 1.20000E+01    2.57107E-05
 1.30000E+01    3.44564E-04
 1.40000E+01    2.56950E-03
 1.45000E+01    5.90154E-03
 1.50000E+01    1.23377E-02
 1.60000E+01    3.98375E-02
 1.70000E+01    9.55351E-02
 1.80000E+01    1.85326E-01
 1.90000E+01    3.05405E-01
 2.00000E+01    4.49552E-01
