# n + Fe 57 : (n,n'07)  
# jendl4.0   S.IIJIMA,H.YAMAKOSHI              EVAL-MAR87
# uncertainties: n
# # energies =   152
#   E(MeV)       xs(mb) 
 1.28782E+00    0.00000E+00
 1.28817E+00    2.11367E-01
 1.28886E+00    6.32445E-01
 1.28955E+00    1.05023E+00
 1.29092E+00    1.87927E+00
 1.29227E+00    2.69536E+00
 1.29360E+00    3.49870E+00
 1.29623E+00    5.08026E+00
 1.29877E+00    6.61240E+00
 1.30124E+00    8.09666E+00
 1.30364E+00    9.53453E+00
 1.30597E+00    1.09275E+01
 1.31049E+00    1.36263E+01
 1.31475E+00    1.61564E+01
 1.31875E+00    1.85284E+01
 1.32251E+00    2.07522E+01
 1.32604E+00    2.28370E+01
 1.33270E+00    2.67459E+01
 1.33855E+00    3.01663E+01
 1.34369E+00    3.31590E+01
 1.34820E+00    3.57777E+01
 1.35614E+00    4.03604E+01
 1.36212E+00    4.37974E+01
 1.37115E+00    4.89530E+01
 1.38023E+00    5.41085E+01
 1.39466E+00    5.55045E+01
 1.42028E+00    5.79474E+01
 1.43981E+00    5.97796E+01
 1.45462E+00    6.11538E+01
 1.47714E+00    6.32150E+01
 1.50000E+00    6.52762E+01
 1.53760E+00    6.72565E+01
 1.56641E+00    6.87418E+01
 1.58837E+00    6.98558E+01
 1.62190E+00    7.15267E+01
 1.65613E+00    7.31976E+01
 1.70242E+00    7.37410E+01
 1.75000E+00    7.42843E+01
 1.75597E+00    7.44651E+01
 1.81403E+00    7.52858E+01
 1.90475E+00    7.65169E+01
 2.00000E+00    7.77479E+01
 2.02454E+00    7.82019E+01
 2.02627E+00    7.82331E+01
 2.15552E+00    7.77241E+01
 2.25821E+00    7.76372E+01
 2.37128E+00    7.73617E+01
 2.39774E+00    7.62791E+01
 2.49951E+00    7.53364E+01
 2.54968E+00    7.49150E+01
 2.60973E+00    7.40860E+01
 2.64606E+00    7.27258E+01
 2.69517E+00    7.17225E+01
 2.74519E+00    7.07193E+01
 2.80890E+00    6.87581E+01
 2.85550E+00    6.72520E+01
 2.89096E+00    6.61225E+01
 2.94498E+00    6.44281E+01
 3.00000E+00    6.27338E+01
 3.05443E+00    6.07766E+01
 3.10635E+00    5.89418E+01
 3.15583E+00    5.72216E+01
 3.20293E+00    5.56090E+01
 3.24773E+00    5.40971E+01
 3.29029E+00    5.26798E+01
 3.33071E+00    5.13510E+01
 3.36904E+00    5.01052E+01
 3.40539E+00    4.89374E+01
 3.43981E+00    4.78425E+01
 3.47240E+00    4.68160E+01
 3.53434E+00    4.48914E+01
 3.58945E+00    4.32074E+01
 3.63837E+00    4.17339E+01
 3.68172E+00    4.04445E+01
 3.72008E+00    3.93164E+01
 3.75397E+00    3.83292E+01
 3.81402E+00    3.66017E+01
 3.85969E+00    3.53061E+01
 3.89430E+00    3.43344E+01
 3.94679E+00    3.28768E+01
 4.00000E+00    3.14192E+01
 4.05618E+00    3.03455E+01
 4.10956E+00    2.93388E+01
 4.16024E+00    2.83951E+01
 4.20833E+00    2.75104E+01
 4.25391E+00    2.66809E+01
 4.29709E+00    2.59034E+01
 4.33797E+00    2.51744E+01
 4.37665E+00    2.44909E+01
 4.41323E+00    2.38502E+01
 4.44779E+00    2.32495E+01
 4.51334E+00    2.21233E+01
 4.57148E+00    2.11378E+01
 4.62297E+00    2.02755E+01
 4.66850E+00    1.95210E+01
 4.70870E+00    1.88608E+01
 4.74416E+00    1.82831E+01
 4.80687E+00    1.72722E+01
 4.85444E+00    1.65140E+01
 4.89043E+00    1.59453E+01
 4.94491E+00    1.50924E+01
 5.00000E+00    1.42394E+01
 5.05730E+00    1.37557E+01
 5.11162E+00    1.33022E+01
 5.16307E+00    1.28770E+01
 5.21177E+00    1.24784E+01
 5.25785E+00    1.21048E+01
 5.30142E+00    1.17545E+01
 5.34260E+00    1.14260E+01
 5.38149E+00    1.11181E+01
 5.45517E+00    1.05408E+01
 5.52047E+00    1.00357E+01
 5.57825E+00    9.59371E+00
 5.62930E+00    9.20696E+00
 5.67436E+00    8.86855E+00
 5.71408E+00    8.57245E+00
 5.78425E+00    8.05427E+00
 5.83745E+00    7.66564E+00
 5.87767E+00    7.37416E+00
 5.93852E+00    6.93694E+00
 6.00000E+00    6.49973E+00
 6.05809E+00    6.27571E+00
 6.11305E+00    6.06569E+00
 6.16504E+00    5.86879E+00
 6.21417E+00    5.68421E+00
 6.26059E+00    5.51116E+00
 6.30443E+00    5.34892E+00
 6.38744E+00    5.04473E+00
 6.46098E+00    4.77856E+00
 6.52602E+00    4.54566E+00
 6.58347E+00    4.34188E+00
 6.63415E+00    4.16357E+00
 6.67881E+00    4.00755E+00
 6.71814E+00    3.87103E+00
 6.78752E+00    3.63212E+00
 6.84003E+00    3.45294E+00
 6.87968E+00    3.31855E+00
 6.93958E+00    3.11697E+00
 7.00000E+00    2.91539E+00
 8.00000E+00    3.57400E+00
 9.00000E+00    2.51042E+00
 1.00000E+01    1.89967E+00
 1.10000E+01    9.32971E-01
 1.20000E+01    7.51709E-01
 1.30000E+01    6.23120E-01
 1.40000E+01    5.25416E-01
 1.50000E+01    4.49304E-01
 1.60000E+01    6.70221E-01
 1.70000E+01    3.88139E-01
 1.80000E+01    5.69566E-01
 1.90000E+01    3.25816E-01
 2.00000E+01    5.60021E-01
