# n + Fe 57 :  n        
# jendl4.0   S.IIJIMA,H.YAMAKOSHI              EVAL-MAR87
# uncertainties: n
# # energies =   107
#   E(MeV)       xs(mb) 
 2.80890E+00    0.00000E+00
 2.80962E+00    2.30704E-01
 2.81106E+00    6.90305E-01
 2.81249E+00    1.14632E+00
 2.81533E+00    2.05121E+00
 2.81812E+00    2.94196E+00
 2.82088E+00    3.81880E+00
 2.82631E+00    5.54507E+00
 2.83158E+00    7.21739E+00
 2.83670E+00    8.83745E+00
 2.84167E+00    1.04069E+01
 2.84649E+00    1.19273E+01
 2.85585E+00    1.48730E+01
 2.86465E+00    1.76347E+01
 2.87293E+00    2.02237E+01
 2.88071E+00    2.26509E+01
 2.88802E+00    2.49265E+01
 2.90179E+00    2.91931E+01
 2.91389E+00    3.29264E+01
 2.92452E+00    3.61930E+01
 2.93385E+00    3.90513E+01
 2.95025E+00    4.40533E+01
 2.96261E+00    4.78048E+01
 2.98124E+00    5.34320E+01
 3.00000E+00    5.90593E+01
 3.01352E+00    6.71803E+01
 3.02688E+00    7.51743E+01
 3.04009E+00    8.30435E+01
 3.05315E+00    9.07897E+01
 3.06607E+00    9.84149E+01
 3.07883E+00    1.05921E+02
 3.09145E+00    1.13310E+02
 3.10392E+00    1.20583E+02
 3.11625E+00    1.27743E+02
 3.12843E+00    1.34790E+02
 3.15255E+00    1.48666E+02
 3.17609E+00    1.62108E+02
 3.19906E+00    1.75129E+02
 3.22148E+00    1.87744E+02
 3.24334E+00    1.99965E+02
 3.26467E+00    2.11803E+02
 3.28546E+00    2.23272E+02
 3.30572E+00    2.34382E+02
 3.32548E+00    2.45145E+02
 3.34472E+00    2.55572E+02
 3.36348E+00    2.65673E+02
 3.40011E+00    2.85243E+02
 3.43481E+00    3.03591E+02
 3.46767E+00    3.20791E+02
 3.49876E+00    3.36917E+02
 3.52816E+00    3.52035E+02
 3.55595E+00    3.66208E+02
 3.58220E+00    3.79495E+02
 3.60698E+00    3.91951E+02
 3.65391E+00    4.15308E+02
 3.69548E+00    4.35744E+02
 3.73224E+00    4.53626E+02
 3.76471E+00    4.69273E+02
 3.79334E+00    4.82964E+02
 3.84398E+00    5.06923E+02
 3.88241E+00    5.24893E+02
 3.94077E+00    5.51847E+02
 4.00000E+00    5.78801E+02
 4.05618E+00    6.05059E+02
 4.10956E+00    6.29676E+02
 4.16024E+00    6.52754E+02
 4.20833E+00    6.74389E+02
 4.25391E+00    6.94673E+02
 4.29709E+00    7.13689E+02
 4.33797E+00    7.31516E+02
 4.41568E+00    7.64942E+02
 4.48481E+00    7.94190E+02
 4.54618E+00    8.19782E+02
 4.60058E+00    8.42175E+02
 4.64871E+00    8.61769E+02
 4.73415E+00    8.96058E+02
 4.79925E+00    9.21775E+02
 4.84867E+00    9.41063E+02
 4.92375E+00    9.69995E+02
 5.00000E+00    9.98926E+02
 5.11526E+00    1.02668E+03
 5.21829E+00    1.05097E+03
 5.31014E+00    1.07222E+03
 5.39184E+00    1.09082E+03
 5.53784E+00    1.12336E+03
 5.64993E+00    1.14777E+03
 5.73548E+00    1.16607E+03
 5.86625E+00    1.19353E+03
 6.00000E+00    1.22099E+03
 6.11673E+00    1.23382E+03
 6.32651E+00    1.25627E+03
 6.48855E+00    1.27310E+03
 6.73943E+00    1.29836E+03
 7.00000E+00    1.32361E+03
 8.00000E+00    1.31587E+03
 9.00000E+00    1.14844E+03
 1.00000E+01    8.79781E+02
 1.10000E+01    6.46798E+02
 1.20000E+01    5.00544E+02
 1.30000E+01    4.06023E+02
 1.40000E+01    3.44528E+02
 1.50000E+01    3.01227E+02
 1.60000E+01    2.69222E+02
 1.70000E+01    2.42204E+02
 1.80000E+01    2.23082E+02
 1.90000E+01    2.01015E+02
 2.00000E+01    1.85163E+02
