# n + Fe 57 : (n,n'14)  
# jendl4.0   S.IIJIMA,H.YAMAKOSHI              EVAL-MAR87
# uncertainties: n
# # energies =   114
#   E(MeV)       xs(mb) 
 2.25821E+00    0.00000E+00
 2.25907E+00    1.68669E-01
 2.26078E+00    5.03370E-01
 2.26247E+00    8.32841E-01
 2.26413E+00    1.15716E+00
 2.26741E+00    1.79567E+00
 2.27058E+00    2.41423E+00
 2.27366E+00    3.01346E+00
 2.27665E+00    3.59396E+00
 2.28245E+00    4.71867E+00
 2.28791E+00    5.77310E+00
 2.29303E+00    6.76162E+00
 2.29784E+00    7.68835E+00
 2.30690E+00    9.42599E+00
 2.31485E+00    1.09464E+01
 2.32183E+00    1.22768E+01
 2.32795E+00    1.34409E+01
 2.33871E+00    1.54780E+01
 2.34681E+00    1.70059E+01
 2.35901E+00    1.92976E+01
 2.37128E+00    2.15894E+01
 2.38447E+00    2.24090E+01
 2.39774E+00    2.32286E+01
 2.42279E+00    2.46193E+01
 2.44174E+00    2.56624E+01
 2.47046E+00    2.72269E+01
 2.49951E+00    2.87915E+01
 2.52447E+00    3.00320E+01
 2.54968E+00    3.12726E+01
 2.57953E+00    3.19614E+01
 2.60973E+00    3.26502E+01
 2.64606E+00    3.41002E+01
 2.69517E+00    3.54370E+01
 2.74519E+00    3.67739E+01
 2.77686E+00    3.80220E+01
 2.80890E+00    3.92702E+01
 2.85550E+00    4.06961E+01
 2.89096E+00    4.17654E+01
 2.94498E+00    4.33695E+01
 3.00000E+00    4.49736E+01
 3.10984E+00    4.46183E+01
 3.20925E+00    4.43074E+01
 3.39092E+00    4.37633E+01
 3.53389E+00    4.33552E+01
 3.64506E+00    4.30492E+01
 3.81841E+00    4.25901E+01
 4.00000E+00    4.21310E+01
 4.05618E+00    4.10145E+01
 4.10956E+00    3.99677E+01
 4.16024E+00    3.89863E+01
 4.20833E+00    3.80663E+01
 4.25391E+00    3.72038E+01
 4.29709E+00    3.63952E+01
 4.33797E+00    3.56372E+01
 4.41568E+00    3.42158E+01
 4.48481E+00    3.29721E+01
 4.54618E+00    3.18839E+01
 4.60058E+00    3.09316E+01
 4.64871E+00    3.00985E+01
 4.69123E+00    2.93694E+01
 4.76659E+00    2.80936E+01
 4.82390E+00    2.71368E+01
 4.86733E+00    2.64191E+01
 4.93322E+00    2.53427E+01
 5.00000E+00    2.42662E+01
 5.05730E+00    2.34913E+01
 5.11162E+00    2.27648E+01
 5.16307E+00    2.20838E+01
 5.21177E+00    2.14453E+01
 5.25785E+00    2.08467E+01
 5.30142E+00    2.02855E+01
 5.34260E+00    1.97594E+01
 5.42066E+00    1.87729E+01
 5.48990E+00    1.79098E+01
 5.55121E+00    1.71545E+01
 5.60542E+00    1.64937E+01
 5.65329E+00    1.59155E+01
 5.69551E+00    1.54095E+01
 5.77015E+00    1.45241E+01
 5.82677E+00    1.38600E+01
 5.86961E+00    1.33620E+01
 5.93444E+00    1.26149E+01
 6.00000E+00    1.18678E+01
 6.05809E+00    1.14662E+01
 6.11305E+00    1.10897E+01
 6.16504E+00    1.07368E+01
 6.21417E+00    1.04059E+01
 6.26059E+00    1.00956E+01
 6.30443E+00    9.80481E+00
 6.38744E+00    9.25951E+00
 6.46098E+00    8.78237E+00
 6.52602E+00    8.36487E+00
 6.58347E+00    7.99955E+00
 6.63415E+00    7.67991E+00
 6.67881E+00    7.40021E+00
 6.71814E+00    7.15548E+00
 6.78752E+00    6.72721E+00
 6.84003E+00    6.40600E+00
 6.87968E+00    6.16509E+00
 6.93958E+00    5.80373E+00
 7.00000E+00    5.44237E+00
 8.00000E+00    4.21807E+00
 9.00000E+00    3.51486E+00
 1.00000E+01    3.54646E+00
 1.10000E+01    2.82672E+00
 1.20000E+01    2.34329E+00
 1.30000E+01    1.97879E+00
 1.40000E+01    1.69607E+00
 1.50000E+01    1.03235E+00
 1.60000E+01    1.59953E+00
 1.70000E+01    7.88764E-01
 1.80000E+01    1.22019E+00
 1.90000E+01    1.29131E+00
 2.00000E+01    7.44189E-01
