# n + Fe 57 : (n,n'20)  
# jendl4.0   S.IIJIMA,H.YAMAKOSHI              EVAL-MAR87
# uncertainties: n
# # energies =   108
#   E(MeV)       xs(mb) 
 2.64606E+00    0.00000E+00
 2.64682E+00    1.17818E-01
 2.64833E+00    3.51611E-01
 2.64982E+00    5.81752E-01
 2.65275E+00    1.03484E+00
 2.65559E+00    1.47377E+00
 2.65834E+00    1.89898E+00
 2.66369E+00    2.72283E+00
 2.66871E+00    3.49518E+00
 2.67343E+00    4.21927E+00
 2.67786E+00    4.89809E+00
 2.68618E+00    6.17090E+00
 2.69349E+00    7.28460E+00
 2.69990E+00    8.25909E+00
 2.71115E+00    9.96444E+00
 2.71962E+00    1.12435E+01
 2.73238E+00    1.31620E+01
 2.74519E+00    1.50805E+01
 2.76098E+00    1.58157E+01
 2.78484E+00    1.69185E+01
 2.80890E+00    1.80213E+01
 2.83211E+00    1.88177E+01
 2.85257E+00    1.95145E+01
 2.88873E+00    2.07340E+01
 2.91616E+00    2.16486E+01
 2.93689E+00    2.23345E+01
 2.96828E+00    2.33635E+01
 3.00000E+00    2.43924E+01
 3.05443E+00    2.50077E+01
 3.10635E+00    2.55845E+01
 3.15583E+00    2.61252E+01
 3.20293E+00    2.66322E+01
 3.24773E+00    2.71075E+01
 3.29029E+00    2.75531E+01
 3.37161E+00    2.83885E+01
 3.44442E+00    2.91195E+01
 3.50941E+00    2.97592E+01
 3.56728E+00    3.03189E+01
 3.61870E+00    3.08086E+01
 3.71047E+00    3.16656E+01
 3.78083E+00    3.23084E+01
 3.83447E+00    3.27905E+01
 3.91636E+00    3.35136E+01
 4.00000E+00    3.42367E+01
 4.05618E+00    3.34781E+01
 4.10956E+00    3.27669E+01
 4.16024E+00    3.21001E+01
 4.20833E+00    3.14750E+01
 4.25391E+00    3.08890E+01
 4.34071E+00    2.97902E+01
 4.41812E+00    2.88287E+01
 4.48698E+00    2.79875E+01
 4.54811E+00    2.72514E+01
 4.60228E+00    2.66073E+01
 4.65021E+00    2.60437E+01
 4.73529E+00    2.50574E+01
 4.80013E+00    2.43177E+01
 4.84933E+00    2.37629E+01
 4.92409E+00    2.29308E+01
 5.00000E+00    2.20986E+01
 5.05730E+00    2.14115E+01
 5.11162E+00    2.07673E+01
 5.16307E+00    2.01634E+01
 5.21177E+00    1.95972E+01
 5.25785E+00    1.90664E+01
 5.30142E+00    1.85688E+01
 5.38409E+00    1.76358E+01
 5.45748E+00    1.68194E+01
 5.52252E+00    1.61051E+01
 5.58006E+00    1.54800E+01
 5.63090E+00    1.49331E+01
 5.67577E+00    1.44546E+01
 5.71532E+00    1.40358E+01
 5.78520E+00    1.33031E+01
 5.83816E+00    1.27535E+01
 5.87821E+00    1.23413E+01
 5.93879E+00    1.17230E+01
 6.00000E+00    1.11047E+01
 6.05809E+00    1.07319E+01
 6.11305E+00    1.03823E+01
 6.16504E+00    1.00546E+01
 6.21417E+00    9.74743E+00
 6.26059E+00    9.45942E+00
 6.30443E+00    9.18942E+00
 6.38744E+00    8.68315E+00
 6.46098E+00    8.24017E+00
 6.52602E+00    7.85256E+00
 6.58347E+00    7.51341E+00
 6.63415E+00    7.21665E+00
 6.67881E+00    6.95698E+00
 6.75770E+00    6.50256E+00
 6.81748E+00    6.16175E+00
 6.86266E+00    5.90614E+00
 6.93099E+00    5.52272E+00
 7.00000E+00    5.13931E+00
 8.00000E+00    4.96922E+00
 9.00000E+00    3.60405E+00
 1.00000E+01    2.25398E+00
 1.10000E+01    1.99737E+00
 1.20000E+01    1.68052E+00
 1.30000E+01    1.44322E+00
 1.40000E+01    1.25390E+00
 1.50000E+01    1.10028E+00
 1.60000E+01    3.19639E+00
 1.70000E+01    1.88888E+00
 1.80000E+01    8.48236E-01
 1.90000E+01    2.69753E+00
 2.00000E+01    7.41728E-01
