# n + Fe 57 : (n,n'11)  
# jendl4.0   S.IIJIMA,H.YAMAKOSHI              EVAL-MAR87
# uncertainties: n
# # energies =   123
#   E(MeV)       xs(mb) 
 2.02454E+00    0.00000E+00
 2.02497E+00    6.48806E-02
 2.02627E+00    2.59518E-01
 2.03019E+00    3.39413E-01
 2.03399E+00    4.16812E-01
 2.03769E+00    4.91792E-01
 2.04127E+00    5.64428E-01
 2.04823E+00    7.05162E-01
 2.05477E+00    8.37099E-01
 2.06093E+00    9.60791E-01
 2.06672E+00    1.07675E+00
 2.07216E+00    1.18546E+00
 2.08240E+00    1.38930E+00
 2.09140E+00    1.56766E+00
 2.09931E+00    1.72372E+00
 2.10626E+00    1.86028E+00
 2.11847E+00    2.09925E+00
 2.12767E+00    2.27848E+00
 2.14155E+00    2.54732E+00
 2.15552E+00    2.81616E+00
 2.16810E+00    3.10180E+00
 2.17916E+00    3.35173E+00
 2.18889E+00    3.57042E+00
 2.20602E+00    3.95313E+00
 2.21895E+00    4.24016E+00
 2.22870E+00    4.45544E+00
 2.24341E+00    4.77835E+00
 2.25821E+00    5.10126E+00
 2.27204E+00    5.45120E+00
 2.28422E+00    5.75740E+00
 2.29492E+00    6.02532E+00
 2.31378E+00    6.49419E+00
 2.32802E+00    6.84584E+00
 2.34955E+00    7.37332E+00
 2.37128E+00    7.90079E+00
 2.38447E+00    8.26058E+00
 2.39774E+00    8.62036E+00
 2.42279E+00    9.30892E+00
 2.44174E+00    9.82534E+00
 2.45606E+00    1.02127E+01
 2.47769E+00    1.07936E+01
 2.49951E+00    1.13746E+01
 2.52447E+00    1.18204E+01
 2.54968E+00    1.22662E+01
 2.57953E+00    1.29866E+01
 2.60973E+00    1.37071E+01
 2.62783E+00    1.41478E+01
 2.64606E+00    1.45885E+01
 2.67050E+00    1.51806E+01
 2.70759E+00    1.60687E+01
 2.74519E+00    1.69569E+01
 2.77686E+00    1.77204E+01
 2.80890E+00    1.84840E+01
 2.85550E+00    1.92785E+01
 2.89096E+00    1.98744E+01
 2.91784E+00    2.03213E+01
 2.95864E+00    2.09916E+01
 3.00000E+00    2.16620E+01
 3.22371E+00    2.14639E+01
 3.40237E+00    2.13154E+01
 3.54284E+00    2.12040E+01
 3.76449E+00    2.10368E+01
 4.00000E+00    2.08697E+01
 4.05618E+00    2.03853E+01
 4.10956E+00    1.99311E+01
 4.16024E+00    1.95053E+01
 4.20833E+00    1.91061E+01
 4.25391E+00    1.87319E+01
 4.34071E+00    1.80302E+01
 4.41812E+00    1.74163E+01
 4.48698E+00    1.68790E+01
 4.54811E+00    1.64090E+01
 4.60228E+00    1.59977E+01
 4.65021E+00    1.56378E+01
 4.73529E+00    1.50079E+01
 4.80013E+00    1.45356E+01
 4.84933E+00    1.41813E+01
 4.92409E+00    1.36499E+01
 5.00000E+00    1.31185E+01
 5.05730E+00    1.27707E+01
 5.11162E+00    1.24446E+01
 5.16307E+00    1.21389E+01
 5.21177E+00    1.18523E+01
 5.25785E+00    1.15836E+01
 5.34535E+00    1.10799E+01
 5.42311E+00    1.06390E+01
 5.49207E+00    1.02533E+01
 5.55313E+00    9.91585E+00
 5.60712E+00    9.62055E+00
 5.65479E+00    9.36215E+00
 5.73918E+00    8.90997E+00
 5.80330E+00    8.57083E+00
 5.85186E+00    8.31647E+00
 5.92547E+00    7.93494E+00
 6.00000E+00    7.55341E+00
 6.05809E+00    7.33461E+00
 6.11305E+00    7.12948E+00
 6.16504E+00    6.93717E+00
 6.21417E+00    6.75688E+00
 6.30736E+00    6.41884E+00
 6.39004E+00    6.12305E+00
 6.46328E+00    5.86424E+00
 6.52805E+00    5.63778E+00
 6.58526E+00    5.43963E+00
 6.63573E+00    5.26624E+00
 6.72498E+00    4.96282E+00
 6.79271E+00    4.73525E+00
 6.84395E+00    4.56458E+00
 6.92153E+00    4.30856E+00
 7.00000E+00    4.05255E+00
 8.00000E+00    3.51738E+00
 9.00000E+00    3.23037E+00
 1.00000E+01    2.57877E+00
 1.10000E+01    2.15413E+00
 1.20000E+01    1.86962E+00
 1.30000E+01    1.64234E+00
 1.40000E+01    1.45369E+00
 1.50000E+01    2.13445E+00
 1.60000E+01    1.89944E+00
 1.70000E+01    9.48461E-01
 1.80000E+01    1.12432E+00
 1.90000E+01    1.00585E+00
 2.00000E+01    1.56080E+00
