# n + Fe 57 : (n,n'15)  
# jendl4.0   S.IIJIMA,H.YAMAKOSHI              EVAL-MAR87
# uncertainties: n
# # energies =   110
#   E(MeV)       xs(mb) 
 2.37128E+00    0.00000E+00
 2.37210E+00    3.59704E-01
 2.37370E+00    1.05663E+00
 2.37519E+00    1.70999E+00
 2.37800E+00    2.93505E+00
 2.38046E+00    4.00697E+00
 2.38477E+00    5.88283E+00
 2.38800E+00    7.28973E+00
 2.39287E+00    9.40007E+00
 2.39774E+00    1.15104E+01
 2.41023E+00    1.25025E+01
 2.42121E+00    1.33706E+01
 2.43087E+00    1.41301E+01
 2.44785E+00    1.54594E+01
 2.46066E+00    1.64563E+01
 2.48001E+00    1.79517E+01
 2.49951E+00    1.94471E+01
 2.52447E+00    2.04301E+01
 2.54968E+00    2.14131E+01
 2.57953E+00    2.23152E+01
 2.60973E+00    2.32173E+01
 2.64606E+00    2.38334E+01
 2.69517E+00    2.48212E+01
 2.74519E+00    2.58091E+01
 2.80890E+00    2.63630E+01
 2.85550E+00    2.68158E+01
 2.92686E+00    2.74949E+01
 3.00000E+00    2.81741E+01
 3.05443E+00    2.78201E+01
 3.10635E+00    2.74882E+01
 3.20610E+00    2.68659E+01
 3.29600E+00    2.63213E+01
 3.37673E+00    2.58449E+01
 3.44899E+00    2.54280E+01
 3.51348E+00    2.50632E+01
 3.57090E+00    2.47440E+01
 3.67366E+00    2.41854E+01
 3.75266E+00    2.37665E+01
 3.81302E+00    2.34523E+01
 3.90539E+00    2.29810E+01
 4.00000E+00    2.25097E+01
 4.05618E+00    2.18110E+01
 4.10956E+00    2.11560E+01
 4.16024E+00    2.05419E+01
 4.20833E+00    1.99661E+01
 4.25391E+00    1.94264E+01
 4.29709E+00    1.89204E+01
 4.33797E+00    1.84460E+01
 4.37665E+00    1.80013E+01
 4.45011E+00    1.71674E+01
 4.51539E+00    1.64378E+01
 4.57330E+00    1.57994E+01
 4.62458E+00    1.52408E+01
 4.66992E+00    1.47520E+01
 4.70996E+00    1.43243E+01
 4.74527E+00    1.39500E+01
 4.80771E+00    1.32951E+01
 4.85508E+00    1.28039E+01
 4.89091E+00    1.24356E+01
 4.94515E+00    1.18830E+01
 5.00000E+00    1.13304E+01
 5.05730E+00    1.09557E+01
 5.11162E+00    1.06044E+01
 5.16307E+00    1.02751E+01
 5.21177E+00    9.96640E+00
 5.25785E+00    9.67697E+00
 5.30142E+00    9.40562E+00
 5.34260E+00    9.15123E+00
 5.42066E+00    8.67426E+00
 5.48990E+00    8.25690E+00
 5.55121E+00    7.89172E+00
 5.60542E+00    7.57218E+00
 5.65329E+00    7.29259E+00
 5.69551E+00    7.04794E+00
 5.73271E+00    6.83388E+00
 5.79839E+00    6.45927E+00
 5.84815E+00    6.17831E+00
 5.88575E+00    5.96759E+00
 5.94260E+00    5.65151E+00
 6.00000E+00    5.33543E+00
 6.05809E+00    5.15764E+00
 6.11305E+00    4.99096E+00
 6.16504E+00    4.83470E+00
 6.21417E+00    4.68821E+00
 6.26059E+00    4.55087E+00
 6.30443E+00    4.42212E+00
 6.38744E+00    4.18070E+00
 6.46098E+00    3.96946E+00
 6.52602E+00    3.78463E+00
 6.58347E+00    3.62290E+00
 6.63415E+00    3.48139E+00
 6.67881E+00    3.35757E+00
 6.75770E+00    3.14087E+00
 6.81748E+00    2.97836E+00
 6.86266E+00    2.85647E+00
 6.93099E+00    2.67363E+00
 7.00000E+00    2.49080E+00
 8.00000E+00    3.27209E+00
 9.00000E+00    1.63168E+00
 1.00000E+01    1.62219E+00
 1.10000E+01    1.28610E+00
 1.20000E+01    1.06336E+00
 1.30000E+01    8.94273E-01
 1.40000E+01    7.58124E-01
 1.50000E+01    4.53957E-01
 1.60000E+01    3.86722E-01
 1.70000E+01    4.09993E-01
 1.80000E+01    5.12717E-01
 1.90000E+01    2.97626E-01
 2.00000E+01    3.09556E-01
