# n + Fe 57 : (n,el)    
# jendl4.0   S.IIJIMA,H.YAMAKOSHI              EVAL-MAR87
# uncertainties: n
# # energies =   171
#   E(MeV)       xs(mb) 
 1.00000E-11    4.24828E+02
 1.00000E-07    2.02354E+02
 4.13990E-07    2.02172E+02
 5.31580E-07    2.02139E+02
 6.82560E-07    2.02096E+02
 8.76420E-07    2.02041E+02
 1.12540E-06    2.01988E+02
 1.44500E-06    2.01936E+02
 1.85540E-06    2.01870E+02
 2.37240E-06    2.01785E+02
 3.05900E-06    2.01674E+02
 3.92790E-06    2.01533E+02
 5.04350E-06    2.01352E+02
 6.47600E-06    2.01119E+02
 8.31530E-06    2.00821E+02
 1.06770E-05    2.00437E+02
 1.37100E-05    1.99945E+02
 1.76030E-05    1.99312E+02
 2.26030E-05    1.98489E+02
 2.92030E-05    1.97444E+02
 3.72670E-05    1.96120E+02
 4.78510E-05    1.94401E+02
 6.14420E-05    1.92194E+02
 7.88930E-05    1.89360E+02
 1.01300E-04    1.85722E+02
 1.30070E-04    1.81050E+02
 1.67020E-04    1.75051E+02
 2.14450E-04    1.67349E+02
 2.75360E-04    1.57458E+02
 3.53580E-04    1.44907E+02
 4.54000E-04    1.29086E+02
 5.82950E-04    1.09153E+02
 7.48520E-04    8.46701E+01
 9.61120E-04    5.59759E+01
 1.23410E-03    2.67145E+01
 1.58460E-03    7.12012E+01
 2.03470E-03    4.07808E+01
 2.24870E-03    1.05451E+02
 2.48520E-03    2.03517E+02
 2.61260E-03    3.19596E+02
 2.74650E-03    6.63915E+02
 3.03540E-03    1.96149E+03
 3.35460E-03    9.68201E+03
 3.70740E-03    8.06399E+04
 4.30740E-03    1.49660E+04
 5.53080E-03    1.30938E+05
 7.10170E-03    1.47842E+04
 9.11880E-03    3.92868E+03
 1.17090E-02    2.07729E+03
 1.50340E-02    1.04031E+03
 1.93050E-02    6.68908E+02
 2.18750E-02    7.77655E+02
 2.35790E-02    1.46419E+03
 2.41760E-02    2.19353E+03
 2.47880E-02    4.42666E+03
 2.60580E-02    1.03360E+04
 2.70000E-02    3.00904E+04
 2.85000E-02    5.00042E+04
 3.18280E-02    1.40938E+04
 3.43070E-02    3.62543E+03
 4.08680E-02    1.73707E+04
 4.63090E-02    1.03576E+04
 5.24750E-02    9.78334E+03
 5.65620E-02    2.31617E+04
 6.73790E-02    1.08369E+04
 7.20000E-02    1.23106E+04
 7.95000E-02    1.32230E+04
 8.25000E-02    9.35075E+03
 8.65170E-02    6.60112E+03
 9.80370E-02    5.47240E+03
 1.11090E-01    1.03296E+04
 1.16790E-01    2.80530E+03
 1.22770E-01    7.64177E+03
 1.29070E-01    1.48537E+04
 1.35690E-01    1.22001E+04
 1.42640E-01    9.72846E+03
 1.49960E-01    7.43084E+03
 1.57640E-01    4.63848E+03
 1.65730E-01    8.65932E+03
 1.74220E-01    5.01206E+03
 1.83160E-01    1.04679E+04
 1.92550E-01    8.58283E+03
 2.02420E-01    4.87936E+03
 2.12800E-01    4.76737E+03
 2.23710E-01    4.66250E+03
 2.35180E-01    4.55581E+03
 2.47240E-01    4.40409E+03
 2.73240E-01    4.25576E+03
 2.87250E-01    4.18474E+03
 2.94520E-01    4.15158E+03
 2.97200E-01    4.13834E+03
 2.98500E-01    4.12250E+03
 3.01970E-01    4.01852E+03
 3.33730E-01    3.83431E+03
 3.68830E-01    3.69551E+03
 3.87740E-01    3.59550E+03
 4.07620E-01    3.44412E+03
 4.50490E-01    3.24653E+03
 4.97870E-01    3.11468E+03
 5.23400E-01    3.04789E+03
 5.50230E-01    2.98074E+03
 5.78440E-01    2.91727E+03
 6.08100E-01    2.85265E+03
 6.39280E-01    2.79194E+03
 6.72060E-01    2.73058E+03
 7.06510E-01    2.67703E+03
 7.42740E-01    2.63180E+03
 7.80820E-01    2.58683E+03
 8.20850E-01    2.53955E+03
 8.62940E-01    2.49165E+03
 9.07180E-01    2.44077E+03
 9.61640E-01    2.39150E+03
 1.00260E+00    2.34316E+03
 1.10800E+00    2.29908E+03
 1.16480E+00    2.27152E+03
 1.22460E+00    2.24719E+03
 1.28730E+00    2.22259E+03
 1.35340E+00    2.19349E+03
 1.42270E+00    2.17746E+03
 1.49570E+00    2.16491E+03
 1.57240E+00    2.15749E+03
 1.65300E+00    2.14879E+03
 1.73770E+00    2.13821E+03
 1.82680E+00    2.13351E+03
 1.92050E+00    2.12929E+03
 2.01900E+00    2.12875E+03
 2.12250E+00    2.12943E+03
 2.23130E+00    2.13231E+03
 2.30690E+00    2.13420E+03
 2.34570E+00    2.13517E+03
 2.36530E+00    2.13548E+03
 2.38520E+00    2.13631E+03
 2.46600E+00    2.14178E+03
 2.59240E+00    2.14876E+03
 2.72530E+00    2.15568E+03
 2.86500E+00    2.16026E+03
 3.01190E+00    2.16459E+03
 3.16640E+00    2.16915E+03
 3.32870E+00    2.17627E+03
 3.67880E+00    2.18461E+03
 4.06570E+00    2.18365E+03
 4.49330E+00    2.17879E+03
 4.72370E+00    2.17534E+03
 4.96590E+00    2.16886E+03
 5.22050E+00    2.15430E+03
 5.48810E+00    2.13856E+03
 5.76950E+00    2.12198E+03
 6.06530E+00    2.09836E+03
 6.37630E+00    2.07388E+03
 6.59240E+00    2.05869E+03
 6.70320E+00    2.03776E+03
 7.04690E+00    2.00079E+03
 7.40820E+00    1.95743E+03
 7.78800E+00    1.90927E+03
 8.18730E+00    1.85453E+03
 8.60710E+00    1.79937E+03
 9.04840E+00    1.74288E+03
 9.51230E+00    1.68360E+03
 1.00000E+01    1.62120E+03
 1.05130E+01    1.55864E+03
 1.10520E+01    1.49564E+03
 1.16180E+01    1.43294E+03
 1.22140E+01    1.37220E+03
 1.28400E+01    1.31426E+03
 1.34990E+01    1.27289E+03
 1.38400E+01    1.24623E+03
 1.41910E+01    1.22089E+03
 1.45500E+01    1.19626E+03
 1.49180E+01    1.16304E+03
 1.56830E+01    1.12574E+03
 1.64870E+01    1.09901E+03
