# n + Fe 57 : (n,n'09)  
# jendl4.0   S.IIJIMA,H.YAMAKOSHI              EVAL-MAR87
# uncertainties: n
# # energies =   142
#   E(MeV)       xs(mb) 
 1.65613E+00    0.00000E+00
 1.65649E+00    2.09765E-01
 1.65720E+00    6.27651E-01
 1.65861E+00    1.45689E+00
 1.66000E+00    2.27317E+00
 1.66137E+00    3.07669E+00
 1.66407E+00    4.65863E+00
 1.66669E+00    6.19112E+00
 1.66923E+00    7.67573E+00
 1.67170E+00    9.11395E+00
 1.67649E+00    1.19005E+01
 1.68099E+00    1.45129E+01
 1.68522E+00    1.69620E+01
 1.68920E+00    1.92580E+01
 1.69294E+00    2.14105E+01
 1.69997E+00    2.54465E+01
 1.70614E+00    2.89780E+01
 1.71156E+00    3.20681E+01
 1.71632E+00    3.47719E+01
 1.72468E+00    3.95035E+01
 1.73098E+00    4.30522E+01
 1.74046E+00    4.83753E+01
 1.75000E+00    5.36984E+01
 1.75597E+00    5.46687E+01
 1.78477E+00    5.69291E+01
 1.81035E+00    5.89069E+01
 1.83303E+00    6.06375E+01
 1.85312E+00    6.21518E+01
 1.88880E+00    6.48018E+01
 1.91600E+00    6.67892E+01
 1.93667E+00    6.82799E+01
 1.96808E+00    7.05158E+01
 2.00000E+00    7.27517E+01
 2.02454E+00    7.41301E+01
 2.02627E+00    7.42253E+01
 2.05784E+00    7.54960E+01
 2.10611E+00    7.74022E+01
 2.15552E+00    7.93083E+01
 2.20627E+00    8.07041E+01
 2.25821E+00    8.20999E+01
 2.31405E+00    8.34589E+01
 2.37128E+00    8.48179E+01
 2.39774E+00    8.48295E+01
 2.44810E+00    8.58470E+01
 2.49951E+00    8.68644E+01
 2.54968E+00    8.77995E+01
 2.60973E+00    8.81473E+01
 2.64606E+00    8.72991E+01
 2.74519E+00    8.68953E+01
 2.80890E+00    8.61680E+01
 2.85550E+00    8.51328E+01
 2.92686E+00    8.35800E+01
 3.00000E+00    8.20272E+01
 3.05443E+00    7.97794E+01
 3.10635E+00    7.76720E+01
 3.15583E+00    7.56964E+01
 3.20293E+00    7.38443E+01
 3.24773E+00    7.21079E+01
 3.29029E+00    7.04800E+01
 3.33071E+00    6.89539E+01
 3.36904E+00    6.75231E+01
 3.40539E+00    6.61818E+01
 3.47459E+00    6.36668E+01
 3.53629E+00    6.14662E+01
 3.59118E+00    5.95407E+01
 3.63990E+00    5.78559E+01
 3.68308E+00    5.63816E+01
 3.72128E+00    5.50917E+01
 3.78908E+00    5.28343E+01
 3.84075E+00    5.11412E+01
 3.87995E+00    4.98714E+01
 3.93952E+00    4.79667E+01
 4.00000E+00    4.60620E+01
 4.05618E+00    4.45367E+01
 4.10956E+00    4.31067E+01
 4.16024E+00    4.17661E+01
 4.20833E+00    4.05092E+01
 4.25391E+00    3.93310E+01
 4.29709E+00    3.82263E+01
 4.33797E+00    3.71907E+01
 4.37665E+00    3.62199E+01
 4.41323E+00    3.53097E+01
 4.48263E+00    3.36031E+01
 4.54425E+00    3.21098E+01
 4.59887E+00    3.08032E+01
 4.64719E+00    2.96599E+01
 4.68990E+00    2.86595E+01
 4.72758E+00    2.77841E+01
 4.79426E+00    2.62523E+01
 4.84489E+00    2.51034E+01
 4.88321E+00    2.42418E+01
 4.94126E+00    2.29493E+01
 5.00000E+00    2.16568E+01
 5.05730E+00    2.09375E+01
 5.11162E+00    2.02631E+01
 5.16307E+00    1.96309E+01
 5.21177E+00    1.90382E+01
 5.25785E+00    1.84825E+01
 5.30142E+00    1.79616E+01
 5.34260E+00    1.74732E+01
 5.42066E+00    1.65575E+01
 5.48990E+00    1.57563E+01
 5.55121E+00    1.50552E+01
 5.60542E+00    1.44417E+01
 5.65329E+00    1.39050E+01
 5.69551E+00    1.34353E+01
 5.73271E+00    1.30243E+01
 5.79839E+00    1.23052E+01
 5.84815E+00    1.17658E+01
 5.88575E+00    1.13612E+01
 5.94260E+00    1.07544E+01
 6.00000E+00    1.01476E+01
 6.05809E+00    9.80658E+00
 6.11305E+00    9.48687E+00
 6.16504E+00    9.18715E+00
 6.21417E+00    8.90615E+00
 6.26059E+00    8.64272E+00
 6.30443E+00    8.39576E+00
 6.38744E+00    7.93270E+00
 6.46098E+00    7.52752E+00
 6.52602E+00    7.17299E+00
 6.58347E+00    6.86277E+00
 6.63415E+00    6.59133E+00
 6.67881E+00    6.35383E+00
 6.75770E+00    5.93819E+00
 6.81748E+00    5.62646E+00
 6.86266E+00    5.39266E+00
 6.93099E+00    5.04197E+00
 7.00000E+00    4.69127E+00
 8.00000E+00    3.98697E+00
 9.00000E+00    4.57642E+00
 1.00000E+01    3.57704E+00
 1.10000E+01    2.89867E+00
 1.20000E+01    2.43202E+00
 1.30000E+01    2.06355E+00
 1.40000E+01    1.76285E+00
 1.50000E+01    1.12304E+00
 1.60000E+01    9.57572E-01
 1.70000E+01    1.56043E+00
 1.80000E+01    9.11368E-01
 1.90000E+01    1.35276E+00
 2.00000E+01    7.39701E-01
