# n + Fe 57 : (n,n'21)  
# jendl4.0   S.IIJIMA,H.YAMAKOSHI              EVAL-MAR87
# uncertainties: n
# # energies =    97
#   E(MeV)       xs(mb) 
 2.74519E+00    0.00000E+00
 2.74617E+00    1.74691E-01
 2.74811E+00    5.18612E-01
 2.74999E+00    8.51785E-01
 2.75364E+00    1.49731E+00
 2.75706E+00    2.10248E+00
 2.76027E+00    2.66984E+00
 2.76630E+00    3.73362E+00
 2.77159E+00    4.66443E+00
 2.77623E+00    5.47889E+00
 2.78436E+00    6.90419E+00
 2.79048E+00    7.97317E+00
 2.79967E+00    9.57664E+00
 2.80890E+00    1.11801E+01
 2.83211E+00    1.18479E+01
 2.85257E+00    1.24323E+01
 2.87059E+00    1.29436E+01
 2.90241E+00    1.38384E+01
 2.92651E+00    1.45094E+01
 2.94471E+00    1.50128E+01
 2.97223E+00    1.57677E+01
 3.00000E+00    1.65227E+01
 3.10984E+00    1.67528E+01
 3.20925E+00    1.69541E+01
 3.29884E+00    1.71302E+01
 3.37927E+00    1.72843E+01
 3.52478E+00    1.75541E+01
 3.63801E+00    1.77563E+01
 3.72532E+00    1.79081E+01
 3.86022E+00    1.81356E+01
 4.00000E+00    1.83632E+01
 4.05618E+00    1.78564E+01
 4.10956E+00    1.73812E+01
 4.16024E+00    1.69357E+01
 4.20833E+00    1.65181E+01
 4.25391E+00    1.61266E+01
 4.29709E+00    1.57595E+01
 4.33797E+00    1.54154E+01
 4.41568E+00    1.47702E+01
 4.48481E+00    1.42056E+01
 4.54618E+00    1.37116E+01
 4.60058E+00    1.32794E+01
 4.64871E+00    1.29012E+01
 4.69123E+00    1.25702E+01
 4.76659E+00    1.19911E+01
 4.82390E+00    1.15568E+01
 4.86733E+00    1.12310E+01
 4.93322E+00    1.07423E+01
 5.00000E+00    1.02537E+01
 5.05730E+00    9.92120E+00
 5.11162E+00    9.60947E+00
 5.16307E+00    9.31723E+00
 5.21177E+00    9.04326E+00
 5.25785E+00    8.78641E+00
 5.30142E+00    8.54561E+00
 5.34260E+00    8.31986E+00
 5.42066E+00    7.89658E+00
 5.48990E+00    7.52621E+00
 5.55121E+00    7.20214E+00
 5.60542E+00    6.91858E+00
 5.65329E+00    6.67046E+00
 5.69551E+00    6.45335E+00
 5.77015E+00    6.07342E+00
 5.82677E+00    5.78847E+00
 5.86961E+00    5.57476E+00
 5.93444E+00    5.25420E+00
 6.00000E+00    4.93363E+00
 6.05809E+00    4.77121E+00
 6.11305E+00    4.61894E+00
 6.16504E+00    4.47619E+00
 6.21417E+00    4.34235E+00
 6.26059E+00    4.21689E+00
 6.30443E+00    4.09926E+00
 6.38744E+00    3.87872E+00
 6.46098E+00    3.68574E+00
 6.52602E+00    3.51688E+00
 6.58347E+00    3.36913E+00
 6.63415E+00    3.23985E+00
 6.67881E+00    3.12673E+00
 6.75770E+00    2.92877E+00
 6.81748E+00    2.78030E+00
 6.86266E+00    2.66895E+00
 6.93099E+00    2.50192E+00
 7.00000E+00    2.33489E+00
 8.00000E+00    2.38626E+00
 9.00000E+00    1.67540E+00
 1.00000E+01    1.02991E+00
 1.10000E+01    8.15387E+00
 1.20000E+01    7.18143E+00
 1.30000E+01    6.33831E+00
 1.40000E+01    5.59911E+00
 1.50000E+01    4.96886E+00
 1.60000E+01    1.38154E+00
 1.70000E+01    8.03155E-01
 1.80000E+01    3.56175E-01
 1.90000E+01    1.12430E+00
 2.00000E+01    3.08007E-01
