# n + Fe 57 : (n,n'19)  
# jendl4.0   S.IIJIMA,H.YAMAKOSHI              EVAL-MAR87
# uncertainties: n
# # energies =    94
#   E(MeV)       xs(mb) 
 2.60973E+00    0.00000E+00
 2.61029E+00    2.59205E-01
 2.61140E+00    7.69509E-01
 2.61356E+00    1.75822E+00
 2.61558E+00    2.68513E+00
 2.61937E+00    4.42310E+00
 2.62269E+00    5.94381E+00
 2.62560E+00    7.27444E+00
 2.63070E+00    9.60303E+00
 2.63453E+00    1.13495E+01
 2.64029E+00    1.39691E+01
 2.64606E+00    1.65888E+01
 2.65825E+00    1.77130E+01
 2.66897E+00    1.86967E+01
 2.68782E+00    2.04181E+01
 2.70205E+00    2.17091E+01
 2.72354E+00    2.36457E+01
 2.74519E+00    2.55823E+01
 2.77686E+00    2.69323E+01
 2.80890E+00    2.82823E+01
 2.85550E+00    2.94177E+01
 2.89096E+00    3.02693E+01
 2.94498E+00    3.15467E+01
 3.00000E+00    3.28241E+01
 3.22371E+00    3.25654E+01
 3.40237E+00    3.23715E+01
 3.68910E+00    3.20805E+01
 4.00000E+00    3.17895E+01
 4.05618E+00    3.08888E+01
 4.10956E+00    3.00445E+01
 4.16024E+00    2.92528E+01
 4.20833E+00    2.85107E+01
 4.25391E+00    2.78150E+01
 4.29709E+00    2.71627E+01
 4.33797E+00    2.65512E+01
 4.41568E+00    2.54047E+01
 4.48481E+00    2.44014E+01
 4.54618E+00    2.35236E+01
 4.60058E+00    2.27555E+01
 4.64871E+00    2.20834E+01
 4.69123E+00    2.14953E+01
 4.76659E+00    2.04662E+01
 4.82390E+00    1.96944E+01
 4.86733E+00    1.91155E+01
 4.93322E+00    1.82471E+01
 5.00000E+00    1.73788E+01
 5.05730E+00    1.68196E+01
 5.11162E+00    1.62954E+01
 5.16307E+00    1.58039E+01
 5.21177E+00    1.53432E+01
 5.25785E+00    1.49113E+01
 5.30142E+00    1.45063E+01
 5.34260E+00    1.41267E+01
 5.42066E+00    1.34148E+01
 5.48990E+00    1.27920E+01
 5.55121E+00    1.22470E+01
 5.60542E+00    1.17701E+01
 5.65329E+00    1.13529E+01
 5.69551E+00    1.09878E+01
 5.77015E+00    1.03488E+01
 5.82677E+00    9.86963E+00
 5.86961E+00    9.51023E+00
 5.93444E+00    8.97114E+00
 6.00000E+00    8.43204E+00
 6.05809E+00    8.15674E+00
 6.11305E+00    7.89865E+00
 6.16504E+00    7.65670E+00
 6.21417E+00    7.42986E+00
 6.26059E+00    7.21720E+00
 6.34857E+00    6.81846E+00
 6.42656E+00    6.46957E+00
 6.49559E+00    6.16429E+00
 6.55660E+00    5.89716E+00
 6.61045E+00    5.66343E+00
 6.65793E+00    5.45892E+00
 6.69976E+00    5.27997E+00
 6.77359E+00    4.96680E+00
 6.82950E+00    4.73193E+00
 6.87173E+00    4.55577E+00
 6.93557E+00    4.29154E+00
 7.00000E+00    4.02731E+00
 8.00000E+00    4.14919E+00
 9.00000E+00    2.94797E+00
 1.00000E+01    1.83236E+00
 1.10000E+01    1.62742E+00
 1.20000E+01    1.37431E+00
 1.30000E+01    1.18121E+00
 1.40000E+01    1.01952E+00
 1.50000E+01    8.83163E-01
 1.60000E+01    6.97159E-01
 1.70000E+01    1.47231E+00
 1.80000E+01    6.53662E-01
 1.90000E+01    5.38989E-01
 2.00000E+01    5.65357E-01
