# n + Fe 57 : (n,n'12)  
# jendl4.0   S.IIJIMA,H.YAMAKOSHI              EVAL-MAR87
# uncertainties: n
# # energies =   128
#   E(MeV)       xs(mb) 
 2.02627E+00    0.00000E+00
 2.02676E+00    1.04090E-01
 2.02773E+00    3.11455E-01
 2.02967E+00    7.22942E-01
 2.03158E+00    1.12800E+00
 2.03346E+00    1.52673E+00
 2.03717E+00    2.31172E+00
 2.04077E+00    3.07219E+00
 2.04426E+00    3.80889E+00
 2.04765E+00    4.52256E+00
 2.05094E+00    5.21394E+00
 2.05732E+00    6.55348E+00
 2.06332E+00    7.80929E+00
 2.06897E+00    8.98662E+00
 2.07428E+00    1.00904E+01
 2.07926E+00    1.11251E+01
 2.08865E+00    1.30653E+01
 2.09689E+00    1.47629E+01
 2.10413E+00    1.62484E+01
 2.11049E+00    1.75482E+01
 2.12166E+00    1.98227E+01
 2.13007E+00    2.15287E+01
 2.14276E+00    2.40876E+01
 2.15552E+00    2.66465E+01
 2.18075E+00    2.78086E+01
 2.19986E+00    2.86802E+01
 2.22884E+00    2.99876E+01
 2.25821E+00    3.12950E+01
 2.28596E+00    3.21424E+01
 2.32823E+00    3.34136E+01
 2.37128E+00    3.46847E+01
 2.39774E+00    3.46089E+01
 2.44810E+00    3.55960E+01
 2.49951E+00    3.65831E+01
 2.54968E+00    3.75936E+01
 2.60973E+00    3.86315E+01
 2.64606E+00    3.87686E+01
 2.69517E+00    3.93604E+01
 2.74519E+00    3.99521E+01
 2.80890E+00    4.00088E+01
 3.00000E+00    4.00443E+01
 3.05443E+00    3.91515E+01
 3.10635E+00    3.83145E+01
 3.15583E+00    3.75298E+01
 3.20293E+00    3.67942E+01
 3.24773E+00    3.61045E+01
 3.29029E+00    3.54580E+01
 3.33071E+00    3.48518E+01
 3.40782E+00    3.37153E+01
 3.47676E+00    3.27208E+01
 3.53822E+00    3.18507E+01
 3.59290E+00    3.10893E+01
 3.64143E+00    3.04231E+01
 3.68443E+00    2.98401E+01
 3.76091E+00    2.88200E+01
 3.81931E+00    2.80549E+01
 3.86370E+00    2.74811E+01
 3.93126E+00    2.66203E+01
 4.00000E+00    2.57596E+01
 4.05618E+00    2.49161E+01
 4.10956E+00    2.41254E+01
 4.16024E+00    2.33841E+01
 4.20833E+00    2.26891E+01
 4.25391E+00    2.20375E+01
 4.29709E+00    2.14267E+01
 4.33797E+00    2.08540E+01
 4.37665E+00    2.03171E+01
 4.41323E+00    1.98138E+01
 4.48263E+00    1.88701E+01
 4.54425E+00    1.80443E+01
 4.59887E+00    1.73218E+01
 4.64719E+00    1.66896E+01
 4.68990E+00    1.61364E+01
 4.72758E+00    1.56524E+01
 4.79426E+00    1.48053E+01
 4.84489E+00    1.41700E+01
 4.88321E+00    1.36935E+01
 4.94126E+00    1.29788E+01
 5.00000E+00    1.22641E+01
 5.05730E+00    1.18544E+01
 5.11162E+00    1.14704E+01
 5.16307E+00    1.11103E+01
 5.21177E+00    1.07727E+01
 5.25785E+00    1.04563E+01
 5.30142E+00    1.01596E+01
 5.34260E+00    9.88147E+00
 5.42066E+00    9.35996E+00
 5.48990E+00    8.90364E+00
 5.55121E+00    8.50436E+00
 5.60542E+00    8.15498E+00
 5.65329E+00    7.84929E+00
 5.69551E+00    7.58180E+00
 5.73271E+00    7.34775E+00
 5.79839E+00    6.93816E+00
 5.84815E+00    6.63097E+00
 5.88575E+00    6.40057E+00
 5.94260E+00    6.05498E+00
 6.00000E+00    5.70939E+00
 6.05809E+00    5.51707E+00
 6.11305E+00    5.33677E+00
 6.16504E+00    5.16774E+00
 6.21417E+00    5.00928E+00
 6.26059E+00    4.86071E+00
 6.30443E+00    4.72144E+00
 6.38744E+00    4.46030E+00
 6.46098E+00    4.23179E+00
 6.52602E+00    4.03186E+00
 6.58347E+00    3.85691E+00
 6.63415E+00    3.70383E+00
 6.67881E+00    3.56989E+00
 6.75770E+00    3.33549E+00
 6.81748E+00    3.15969E+00
 6.86266E+00    3.02784E+00
 6.93099E+00    2.83007E+00
 7.00000E+00    2.63229E+00
 8.00000E+00    2.09376E+00
 9.00000E+00    1.73386E+00
 1.00000E+01    1.26878E+00
 1.10000E+01    9.86128E-01
 1.20000E+01    8.06476E-01
 1.30000E+01    6.74821E-01
 1.40000E+01    5.72794E-01
 1.50000E+01    8.10122E-01
 1.60000E+01    6.98406E-01
 1.70000E+01    3.39754E-01
 1.80000E+01    3.93841E-01
 1.90000E+01    3.46281E-01
 2.00000E+01    5.29676E-01
