# n + Fe 57 : (n,tot)   
# jendl4.0   S.IIJIMA,H.YAMAKOSHI              EVAL-MAR87
# uncertainties: n
# # energies =   171
#   E(MeV)       xs(mb) 
 1.00000E-11    2.70657E+04
 1.00000E-07    1.08948E+03
 4.13990E-07    7.74700E+02
 5.31580E-07    7.07398E+02
 6.82560E-07    6.47993E+02
 8.76420E-07    5.95553E+02
 1.12540E-06    5.49358E+02
 1.44500E-06    5.08628E+02
 1.85540E-06    4.72894E+02
 2.37240E-06    4.41011E+02
 3.05900E-06    4.12596E+02
 3.92790E-06    3.87700E+02
 5.04350E-06    3.65677E+02
 6.47600E-06    3.46144E+02
 8.31530E-06    3.28863E+02
 1.06770E-05    3.13452E+02
 1.37100E-05    2.99737E+02
 1.76030E-05    2.87401E+02
 2.26030E-05    2.76198E+02
 2.92030E-05    2.66037E+02
 3.72670E-05    2.56788E+02
 4.78510E-05    2.48014E+02
 6.14420E-05    2.39582E+02
 7.88930E-05    2.31251E+02
 1.01300E-04    2.22775E+02
 1.30070E-04    2.13849E+02
 1.67020E-04    2.04109E+02
 2.14450E-04    1.93168E+02
 2.75360E-04    1.80484E+02
 3.53580E-04    1.65487E+02
 4.54000E-04    1.47459E+02
 5.82950E-04    1.25715E+02
 7.48520E-04    9.97287E+01
 9.61120E-04    6.98189E+01
 1.23410E-03    4.01474E+01
 1.58460E-03    3.88749E+02
 2.03470E-03    5.37571E+01
 2.24870E-03    1.18991E+02
 2.48520E-03    2.17855E+02
 2.61260E-03    3.34734E+02
 2.74650E-03    6.81164E+02
 3.03540E-03    1.98525E+03
 3.35460E-03    9.73567E+03
 3.70740E-03    8.08832E+04
 4.30740E-03    1.50340E+04
 5.53080E-03    1.31178E+05
 7.10170E-03    1.49912E+04
 9.11880E-03    3.93473E+03
 1.17090E-02    2.15210E+03
 1.50340E-02    1.49751E+03
 1.93050E-02    1.58144E+03
 2.18750E-02    2.14499E+03
 2.35790E-02    3.21564E+03
 2.41760E-02    4.23006E+03
 2.47880E-02    7.07046E+03
 2.60580E-02    1.40530E+04
 2.70000E-02    3.56292E+04
 2.85000E-02    5.42733E+04
 3.18280E-02    1.43194E+04
 3.43070E-02    5.85832E+03
 4.08680E-02    2.18668E+04
 4.63090E-02    1.09681E+04
 5.24750E-02    9.94459E+03
 5.65620E-02    2.41681E+04
 6.73790E-02    1.09618E+04
 7.20000E-02    1.45317E+04
 7.95000E-02    1.38437E+04
 8.25000E-02    9.50295E+03
 8.65170E-02    7.01545E+03
 9.80370E-02    6.71188E+03
 1.11090E-01    1.10040E+04
 1.16790E-01    3.87883E+03
 1.22770E-01    1.04133E+04
 1.29070E-01    1.80052E+04
 1.35690E-01    1.38969E+04
 1.42640E-01    1.06401E+04
 1.49960E-01    7.94799E+03
 1.57640E-01    4.98970E+03
 1.65730E-01    1.05212E+04
 1.74220E-01    5.55941E+03
 1.83160E-01    1.15129E+04
 1.92550E-01    9.30008E+03
 2.02420E-01    5.52397E+03
 2.12800E-01    5.41232E+03
 2.23710E-01    5.30814E+03
 2.35180E-01    5.20111E+03
 2.47240E-01    5.04959E+03
 2.73240E-01    4.89818E+03
 2.87250E-01    4.82711E+03
 2.94520E-01    4.79413E+03
 2.97200E-01    4.78096E+03
 2.98500E-01    4.76521E+03
 3.01970E-01    4.66702E+03
 3.33730E-01    4.49447E+03
 3.68830E-01    4.37171E+03
 3.87740E-01    4.30054E+03
 4.07620E-01    4.19261E+03
 4.50490E-01    4.05420E+03
 4.97870E-01    3.95751E+03
 5.23400E-01    3.90639E+03
 5.50230E-01    3.85524E+03
 5.78440E-01    3.80247E+03
 6.08100E-01    3.75604E+03
 6.39280E-01    3.70940E+03
 6.72060E-01    3.66090E+03
 7.06510E-01    3.62345E+03
 7.42740E-01    3.59873E+03
 7.80820E-01    3.57525E+03
 8.20850E-01    3.55057E+03
 8.62940E-01    3.52462E+03
 9.07180E-01    3.49500E+03
 9.61640E-01    3.46624E+03
 1.00260E+00    3.44196E+03
 1.10800E+00    3.42598E+03
 1.16480E+00    3.41461E+03
 1.22460E+00    3.40427E+03
 1.28730E+00    3.40042E+03
 1.35340E+00    3.39717E+03
 1.42270E+00    3.39376E+03
 1.49570E+00    3.39287E+03
 1.57240E+00    3.39536E+03
 1.65300E+00    3.39798E+03
 1.73770E+00    3.40074E+03
 1.82680E+00    3.40365E+03
 1.92050E+00    3.40835E+03
 2.01900E+00    3.41580E+03
 2.12250E+00    3.42366E+03
 2.23130E+00    3.43051E+03
 2.30690E+00    3.43476E+03
 2.34570E+00    3.43692E+03
 2.36530E+00    3.43838E+03
 2.38520E+00    3.44210E+03
 2.46600E+00    3.44975E+03
 2.59240E+00    3.45947E+03
 2.72530E+00    3.47060E+03
 2.86500E+00    3.48248E+03
 3.01190E+00    3.49499E+03
 3.16640E+00    3.50813E+03
 3.32870E+00    3.52920E+03
 3.67880E+00    3.55820E+03
 4.06570E+00    3.57618E+03
 4.49330E+00    3.58730E+03
 4.72370E+00    3.59362E+03
 4.96590E+00    3.59362E+03
 5.22050E+00    3.58239E+03
 5.48810E+00    3.57042E+03
 5.76950E+00    3.55778E+03
 6.06530E+00    3.53494E+03
 6.37630E+00    3.50900E+03
 6.59240E+00    3.49292E+03
 6.70320E+00    3.47074E+03
 7.04690E+00    3.43248E+03
 7.40820E+00    3.38586E+03
 7.78800E+00    3.33674E+03
 8.18730E+00    3.28311E+03
 8.60710E+00    3.22501E+03
 9.04840E+00    3.16393E+03
 9.51230E+00    3.09973E+03
 1.00000E+01    3.03159E+03
 1.05130E+01    2.96239E+03
 1.10520E+01    2.89243E+03
 1.16180E+01    2.82242E+03
 1.22140E+01    2.75389E+03
 1.28400E+01    2.68775E+03
 1.34990E+01    2.64080E+03
 1.38400E+01    2.61051E+03
 1.41910E+01    2.58292E+03
 1.45500E+01    2.55600E+03
 1.49180E+01    2.51912E+03
 1.56830E+01    2.47659E+03
 1.64870E+01    2.44365E+03
