# n + Fe 57 : (n,n'08)  
# jendl4.0   S.IIJIMA,H.YAMAKOSHI              EVAL-MAR87
# uncertainties: n
# # energies =   156
#   E(MeV)       xs(mb) 
 1.38023E+00    0.00000E+00
 1.38068E+00    1.14902E-01
 1.38157E+00    3.43805E-01
 1.38246E+00    5.70920E-01
 1.38422E+00    1.02160E+00
 1.38596E+00    1.46524E+00
 1.38768E+00    1.90194E+00
 1.38937E+00    2.33182E+00
 1.39270E+00    3.17815E+00
 1.39593E+00    3.99803E+00
 1.39907E+00    4.79229E+00
 1.40212E+00    5.56172E+00
 1.40508E+00    6.30712E+00
 1.40795E+00    7.02921E+00
 1.41354E+00    8.42828E+00
 1.41879E+00    9.73990E+00
 1.42374E+00    1.09695E+01
 1.42839E+00    1.21223E+01
 1.43276E+00    1.32031E+01
 1.43687E+00    1.42163E+01
 1.44462E+00    1.61160E+01
 1.45143E+00    1.77783E+01
 1.45741E+00    1.92328E+01
 1.46267E+00    2.05055E+01
 1.47191E+00    2.27327E+01
 1.47888E+00    2.44030E+01
 1.48940E+00    2.69086E+01
 1.50000E+00    2.94142E+01
 1.51868E+00    3.06639E+01
 1.53522E+00    3.17574E+01
 1.54984E+00    3.27143E+01
 1.56274E+00    3.35515E+01
 1.58558E+00    3.50166E+01
 1.60293E+00    3.61155E+01
 1.62931E+00    3.77637E+01
 1.65613E+00    3.94120E+01
 1.67911E+00    4.07179E+01
 1.69656E+00    4.16974E+01
 1.72307E+00    4.31666E+01
 1.75000E+00    4.46358E+01
 1.75597E+00    4.49955E+01
 1.78477E+00    4.66306E+01
 1.81035E+00    4.80613E+01
 1.83303E+00    4.93132E+01
 1.85312E+00    5.04086E+01
 1.88880E+00    5.23255E+01
 1.91600E+00    5.37632E+01
 1.93667E+00    5.48415E+01
 1.96808E+00    5.64589E+01
 2.00000E+00    5.80763E+01
 2.02454E+00    5.93840E+01
 2.02627E+00    5.94411E+01
 2.05784E+00    6.09546E+01
 2.08183E+00    6.20897E+01
 2.11836E+00    6.37923E+01
 2.15552E+00    6.54950E+01
 2.20627E+00    6.67169E+01
 2.25821E+00    6.79388E+01
 2.31405E+00    6.91999E+01
 2.37128E+00    7.04609E+01
 2.39774E+00    7.10577E+01
 2.44810E+00    7.22582E+01
 2.49951E+00    7.34588E+01
 2.54968E+00    7.35539E+01
 2.60973E+00    7.37176E+01
 2.64606E+00    7.36169E+01
 2.74519E+00    7.35922E+01
 2.80890E+00    7.37003E+01
 2.90288E+00    7.22961E+01
 3.00000E+00    7.08919E+01
 3.05443E+00    6.91472E+01
 3.10635E+00    6.75116E+01
 3.15583E+00    6.59782E+01
 3.20293E+00    6.45406E+01
 3.24773E+00    6.31929E+01
 3.29029E+00    6.19294E+01
 3.33071E+00    6.07449E+01
 3.36904E+00    5.96344E+01
 3.44212E+00    5.75523E+01
 3.50736E+00    5.57304E+01
 3.56546E+00    5.41362E+01
 3.61708E+00    5.27414E+01
 3.66286E+00    5.15208E+01
 3.70340E+00    5.04529E+01
 3.77542E+00    4.85840E+01
 3.83036E+00    4.71823E+01
 3.87208E+00    4.61310E+01
 3.93552E+00    4.45541E+01
 4.00000E+00    4.29772E+01
 4.05618E+00    4.17107E+01
 4.10956E+00    4.05233E+01
 4.16024E+00    3.94101E+01
 4.20833E+00    3.83665E+01
 4.25391E+00    3.73881E+01
 4.29709E+00    3.64709E+01
 4.33797E+00    3.56110E+01
 4.37665E+00    3.48048E+01
 4.45011E+00    3.32933E+01
 4.51539E+00    3.19707E+01
 4.57330E+00    3.08134E+01
 4.62458E+00    2.98008E+01
 4.66992E+00    2.89148E+01
 4.70996E+00    2.81395E+01
 4.78085E+00    2.67827E+01
 4.83472E+00    2.57652E+01
 4.87552E+00    2.50020E+01
 4.93737E+00    2.38573E+01
 5.00000E+00    2.27125E+01
 5.05730E+00    2.20191E+01
 5.11162E+00    2.13691E+01
 5.16307E+00    2.07597E+01
 5.21177E+00    2.01884E+01
 5.25785E+00    1.96528E+01
 5.30142E+00    1.91507E+01
 5.38409E+00    1.82092E+01
 5.45748E+00    1.73854E+01
 5.52252E+00    1.66645E+01
 5.58006E+00    1.60338E+01
 5.63090E+00    1.54819E+01
 5.67577E+00    1.49990E+01
 5.71532E+00    1.45765E+01
 5.78520E+00    1.38370E+01
 5.83816E+00    1.32824E+01
 5.87821E+00    1.28665E+01
 5.93879E+00    1.22426E+01
 6.00000E+00    1.16187E+01
 6.05809E+00    1.12469E+01
 6.11305E+00    1.08984E+01
 6.16504E+00    1.05717E+01
 6.21417E+00    1.02654E+01
 6.26059E+00    9.97818E+00
 6.34857E+00    9.43973E+00
 6.42656E+00    8.96858E+00
 6.49559E+00    8.55633E+00
 6.55660E+00    8.19561E+00
 6.61045E+00    7.87998E+00
 6.65793E+00    7.60380E+00
 6.69976E+00    7.36214E+00
 6.77359E+00    6.93925E+00
 6.82950E+00    6.62208E+00
 6.87173E+00    6.38420E+00
 6.93557E+00    6.02738E+00
 7.00000E+00    5.67056E+00
 8.00000E+00    7.28346E+00
 9.00000E+00    5.44685E+00
 1.00000E+01    4.34170E+00
 1.10000E+01    2.22287E+00
 1.20000E+01    1.85267E+00
 1.30000E+01    1.57852E+00
 1.40000E+01    1.36264E+00
 1.50000E+01    1.19004E+00
 1.60000E+01    2.86099E+00
 1.70000E+01    1.05994E+00
 1.80000E+01    1.15337E+00
 1.90000E+01    9.06559E-01
 2.00000E+01    1.56879E+00
