# n + I 129 : (n,tot)   
# endfb8.0   JNDC FPND W.G., Mughabghab        EVAL-JAN05
# uncertainties: n
# # energies =   171
#   E(MeV)       xs(mb) 
 1.00000E-11    3.46947E+05
 1.00000E-07    2.07418E+04
 4.13990E-07    1.65457E+04
 5.31580E-07    1.55860E+04
 6.82560E-07    1.47053E+04
 8.76420E-07    1.38903E+04
 1.12540E-06    1.31316E+04
 1.44500E-06    1.24172E+04
 1.85540E-06    1.17461E+04
 2.37240E-06    1.10960E+04
 3.05900E-06    1.04732E+04
 3.92790E-06    9.88289E+03
 5.04350E-06    9.32674E+03
 6.47600E-06    8.80436E+03
 8.31530E-06    8.32414E+03
 1.06770E-05    7.88734E+03
 1.37100E-05    7.49657E+03
 1.76030E-05    7.15289E+03
 2.26030E-05    6.84668E+03
 2.92030E-05    6.58135E+03
 3.72670E-05    6.33951E+03
 4.78510E-05    6.07219E+03
 6.14420E-05    3.10292E+04
 7.88930E-05    7.39931E+03
 1.01300E-04    9.60808E+03
 1.30070E-04    3.80595E+04
 1.67020E-04    7.13747E+03
 2.14450E-04    6.07944E+03
 2.75360E-04    9.10814E+03
 3.53580E-04    1.62936E+04
 4.54000E-04    1.78453E+04
 5.82950E-04    1.02605E+04
 7.48520E-04    1.23060E+04
 9.61120E-04    1.03385E+04
 1.23410E-03    8.95648E+03
 1.58460E-03    1.20715E+04
 2.03470E-03    7.17185E+03
 2.24870E-03    9.61981E+03
 2.48520E-03    9.16332E+03
 2.61260E-03    9.18851E+03
 2.74650E-03    9.64663E+03
 3.03540E-03    9.80332E+03
 3.35460E-03    8.47350E+03
 3.70740E-03    7.55008E+03
 4.30740E-03    6.97836E+03
 5.53080E-03    6.72331E+03
 7.10170E-03    6.59292E+03
 9.11880E-03    6.33504E+03
 1.17090E-02    6.02401E+03
 1.50340E-02    5.82922E+03
 1.93050E-02    5.77024E+03
 2.18750E-02    5.75656E+03
 2.35790E-02    5.75091E+03
 2.41760E-02    5.74833E+03
 2.47880E-02    5.74371E+03
 2.60580E-02    5.74203E+03
 2.70000E-02    5.75049E+03
 2.85000E-02    5.85546E+03
 3.18280E-02    5.91665E+03
 3.43070E-02    5.89279E+03
 4.08680E-02    5.78123E+03
 4.63090E-02    5.68436E+03
 5.24750E-02    5.54655E+03
 5.65620E-02    5.36648E+03
 6.73790E-02    5.22595E+03
 7.20000E-02    5.35181E+03
 7.95000E-02    5.49299E+03
 8.25000E-02    5.58767E+03
 8.65170E-02    5.69469E+03
 9.80370E-02    5.68463E+03
 1.11090E-01    5.67694E+03
 1.16790E-01    5.66702E+03
 1.22770E-01    5.65659E+03
 1.29070E-01    5.64562E+03
 1.35690E-01    5.63409E+03
 1.42640E-01    5.62197E+03
 1.49960E-01    5.61621E+03
 1.57640E-01    5.61741E+03
 1.65730E-01    5.61867E+03
 1.74220E-01    5.62000E+03
 1.83160E-01    5.62139E+03
 1.92550E-01    5.62286E+03
 2.02420E-01    5.62568E+03
 2.12800E-01    5.63532E+03
 2.23710E-01    5.64642E+03
 2.35180E-01    5.65810E+03
 2.47240E-01    5.67683E+03
 2.73240E-01    5.70145E+03
 2.87250E-01    5.71802E+03
 2.94520E-01    5.72576E+03
 2.97200E-01    5.72885E+03
 2.98500E-01    5.73255E+03
 3.01970E-01    5.76063E+03
 3.33730E-01    5.81791E+03
 3.68830E-01    5.86486E+03
 3.87740E-01    5.89832E+03
 4.07620E-01    5.94896E+03
 4.50490E-01    6.01662E+03
 4.97870E-01    6.07158E+03
 5.23400E-01    6.11073E+03
 5.50230E-01    6.15077E+03
 5.78440E-01    6.19104E+03
 6.08100E-01    6.23335E+03
 6.39280E-01    6.27782E+03
 6.72060E-01    6.32458E+03
 7.06510E-01    6.36922E+03
 7.42740E-01    6.40857E+03
 7.80820E-01    6.44982E+03
 8.20850E-01    6.49264E+03
 8.62940E-01    6.52662E+03
 9.07180E-01    6.56067E+03
 9.61640E-01    6.59372E+03
 1.00260E+00    6.62648E+03
 1.10800E+00    6.65289E+03
 1.16480E+00    6.66267E+03
 1.22460E+00    6.66559E+03
 1.28730E+00    6.65466E+03
 1.35340E+00    6.64155E+03
 1.42270E+00    6.62038E+03
 1.49570E+00    6.58560E+03
 1.57240E+00    6.54513E+03
 1.65300E+00    6.49198E+03
 1.73770E+00    6.43430E+03
 1.82680E+00    6.36450E+03
 1.92050E+00    6.28912E+03
 2.01900E+00    6.19620E+03
 2.12250E+00    6.08699E+03
 2.23130E+00    5.99269E+03
 2.30690E+00    5.94045E+03
 2.34570E+00    5.91507E+03
 2.36530E+00    5.89792E+03
 2.38520E+00    5.85440E+03
 2.46600E+00    5.76479E+03
 2.59240E+00    5.66233E+03
 2.72530E+00    5.56189E+03
 2.86500E+00    5.45717E+03
 3.01190E+00    5.33904E+03
 3.16640E+00    5.20182E+03
 3.32870E+00    5.00274E+03
 3.67880E+00    4.74849E+03
 4.06570E+00    4.51665E+03
 4.49330E+00    4.35440E+03
 4.72370E+00    4.24706E+03
 4.96590E+00    4.16397E+03
 5.22050E+00    4.11589E+03
 5.48810E+00    4.06592E+03
 5.76950E+00    4.01616E+03
 6.06530E+00    4.01557E+03
 6.37630E+00    4.03390E+03
 6.59240E+00    4.04526E+03
 6.70320E+00    4.06131E+03
 7.04690E+00    4.11258E+03
 7.40820E+00    4.18286E+03
 7.78800E+00    4.25675E+03
 8.18730E+00    4.33442E+03
 8.60710E+00    4.41608E+03
 9.04840E+00    4.49469E+03
 9.51230E+00    4.56931E+03
 1.00000E+01    4.63785E+03
 1.05130E+01    4.69520E+03
 1.10520E+01    4.75350E+03
 1.16180E+01    4.81178E+03
 1.22140E+01    4.86348E+03
 1.28400E+01    4.91368E+03
 1.34990E+01    4.95154E+03
 1.38400E+01    4.97742E+03
 1.41910E+01    5.00551E+03
 1.45500E+01    5.03402E+03
 1.49180E+01    5.07260E+03
 1.56830E+01    5.10517E+03
 1.64870E+01    5.07852E+03
