# n + Pm146 : (n,el)    
# endfb8.0      G. Nobre, D. Brown, M. Herman  EVAL-Jul17
# uncertainties: n
# # energies =   146
#   E(MeV)       xs(mb) 
 1.30070E-04    4.18516E+04
 1.67020E-04    1.35992E+05
 2.14450E-04    1.27008E+05
 2.75360E-04    1.18522E+05
 3.53580E-04    1.07627E+05
 4.54000E-04    9.52459E+04
 5.82950E-04    8.63248E+04
 7.48520E-04    7.84877E+04
 9.61120E-04    7.13988E+04
 1.23410E-03    6.57550E+04
 1.58460E-03    5.85967E+04
 2.03470E-03    5.41500E+04
 2.24870E-03    5.28066E+04
 2.48520E-03    5.17120E+04
 2.61260E-03    5.09323E+04
 2.74650E-03    4.96815E+04
 3.03540E-03    4.78681E+04
 3.35460E-03    4.58642E+04
 3.70740E-03    4.30478E+04
 4.30740E-03    3.80695E+04
 5.53080E-03    3.37641E+04
 7.10170E-03    3.02065E+04
 9.11880E-03    2.69782E+04
 1.17090E-02    2.45383E+04
 1.50340E-02    2.15771E+04
 1.93050E-02    1.91926E+04
 2.18750E-02    1.85757E+04
 2.35790E-02    1.82711E+04
 2.41760E-02    1.81123E+04
 2.47880E-02    1.78663E+04
 2.60580E-02    1.75752E+04
 2.70000E-02    1.72555E+04
 2.85000E-02    1.66279E+04
 3.18280E-02    1.58614E+04
 3.43070E-02    1.46955E+04
 4.08680E-02    1.31093E+04
 4.63090E-02    1.16632E+04
 5.24750E-02    1.09498E+04
 5.65620E-02    1.01989E+04
 6.73790E-02    9.40934E+03
 7.20000E-02    8.98765E+03
 7.95000E-02    8.64137E+03
 8.25000E-02    8.41268E+03
 8.65170E-02    7.91216E+03
 9.80370E-02    7.29940E+03
 1.11090E-01    7.06366E+03
 1.16790E-01    6.92255E+03
 1.22770E-01    6.77420E+03
 1.29070E-01    6.61811E+03
 1.35690E-01    6.45417E+03
 1.42640E-01    6.28177E+03
 1.49960E-01    6.10055E+03
 1.57640E-01    5.91004E+03
 1.65730E-01    5.70973E+03
 1.74220E-01    5.49916E+03
 1.83160E-01    5.27771E+03
 1.92550E-01    5.04936E+03
 2.02420E-01    4.91336E+03
 2.12800E-01    4.81505E+03
 2.23710E-01    4.71171E+03
 2.35180E-01    4.60306E+03
 2.47240E-01    4.42882E+03
 2.73240E-01    4.24257E+03
 2.87250E-01    4.14389E+03
 2.94520E-01    4.09782E+03
 2.97200E-01    4.07942E+03
 2.98500E-01    4.06094E+03
 3.01970E-01    4.00816E+03
 3.33730E-01    3.91054E+03
 3.68830E-01    3.83099E+03
 3.87740E-01    3.77749E+03
 4.07620E-01    3.74701E+03
 4.50490E-01    3.71516E+03
 4.97870E-01    3.70227E+03
 5.23400E-01    3.71587E+03
 5.50230E-01    3.73029E+03
 5.78440E-01    3.74545E+03
 6.08100E-01    3.76139E+03
 6.39280E-01    3.77814E+03
 6.72060E-01    3.79606E+03
 7.06510E-01    3.82692E+03
 7.42740E-01    3.86559E+03
 7.80820E-01    3.90624E+03
 8.20850E-01    3.94911E+03
 8.62940E-01    3.99622E+03
 9.07180E-01    4.05079E+03
 9.61640E-01    4.10374E+03
 1.00260E+00    4.16705E+03
 1.10800E+00    4.23213E+03
 1.16480E+00    4.27853E+03
 1.22460E+00    4.32729E+03
 1.28730E+00    4.37012E+03
 1.35340E+00    4.39773E+03
 1.42270E+00    4.42622E+03
 1.49570E+00    4.44413E+03
 1.57240E+00    4.44762E+03
 1.65300E+00    4.45125E+03
 1.73770E+00    4.45396E+03
 1.82680E+00    4.43868E+03
 1.92050E+00    4.41579E+03
 2.01900E+00    4.37885E+03
 2.12250E+00    4.33342E+03
 2.23130E+00    4.29068E+03
 2.30690E+00    4.25794E+03
 2.34570E+00    4.24106E+03
 2.36530E+00    4.22967E+03
 2.38520E+00    4.20074E+03
 2.46600E+00    4.13797E+03
 2.59240E+00    4.05132E+03
 2.72530E+00    3.95711E+03
 2.86500E+00    3.85286E+03
 3.01190E+00    3.74197E+03
 3.16640E+00    3.62456E+03
 3.32870E+00    3.43782E+03
 3.67880E+00    3.17797E+03
 4.06570E+00    2.91564E+03
 4.49330E+00    2.72474E+03
 4.72370E+00    2.60429E+03
 4.96590E+00    2.49464E+03
 5.22050E+00    2.39293E+03
 5.48810E+00    2.30072E+03
 5.76950E+00    2.22228E+03
 6.06530E+00    2.17031E+03
 6.37630E+00    2.13681E+03
 6.59240E+00    2.11602E+03
 6.70320E+00    2.08783E+03
 7.04690E+00    2.07534E+03
 7.40820E+00    2.08189E+03
 7.78800E+00    2.09226E+03
 8.18730E+00    2.12796E+03
 8.60710E+00    2.17043E+03
 9.04840E+00    2.22436E+03
 9.51230E+00    2.28739E+03
 1.00000E+01    2.35502E+03
 1.05130E+01    2.42747E+03
 1.10520E+01    2.49992E+03
 1.16180E+01    2.57272E+03
 1.22140E+01    2.64002E+03
 1.28400E+01    2.70318E+03
 1.34990E+01    2.74368E+03
 1.38400E+01    2.76974E+03
 1.41910E+01    2.78878E+03
 1.45500E+01    2.80718E+03
 1.49180E+01    2.82694E+03
 1.56830E+01    2.83993E+03
 1.64870E+01    2.83527E+03
