# n + Pm146 : (n,xa)    
# endfb8.0      G. Nobre, D. Brown, M. Herman  EVAL-Jul17
# 
# # energies =    84
#   E(MeV)        xs(mb) 
 1.73491E-02    1.63508E+00
 2.00000E-02    1.36060E+00
 3.35000E-02    1.03862E+00
 5.00000E-02    6.45083E-01
 7.00000E-02    5.18584E-01
 7.36355E-02    4.98460E-01
 8.37550E-02    4.42444E-01
 8.97059E-02    4.09504E-01
 9.49317E-02    3.80576E-01
 1.00000E-01    3.52521E-01
 1.08243E-01    3.38606E-01
 1.37363E-01    2.89447E-01
 1.50896E-01    2.66601E-01
 1.68084E-01    2.37585E-01
 1.89118E-01    2.02076E-01
 2.00000E-01    1.83706E-01
 2.02490E-01    1.82213E-01
 2.13888E-01    1.75380E-01
 2.33704E-01    1.63501E-01
 2.37158E-01    1.61431E-01
 2.87172E-01    1.31449E-01
 2.94663E-01    1.26958E-01
 3.00000E-01    1.23759E-01
 3.04551E-01    1.22872E-01
 3.12727E-01    1.21278E-01
 3.54937E-01    1.13051E-01
 3.94680E-01    1.05305E-01
 4.00000E-01    1.04268E-01
 4.20799E-01    1.02995E-01
 4.55729E-01    1.00857E-01
 5.00000E-01    9.81472E-02
 5.21913E-01    9.76602E-02
 5.35849E-01    9.73506E-02
 5.68322E-01    9.66290E-02
 5.85661E-01    9.62437E-02
 5.93575E-01    9.60679E-02
 6.53516E-01    9.47360E-02
 6.70423E-01    9.43603E-02
 6.80200E-01    9.41431E-02
 7.00000E-01    9.37031E-02
 7.04356E-01    9.37223E-02
 7.08343E-01    9.37398E-02
 7.63743E-01    9.39837E-02
 7.70570E-01    9.40138E-02
 7.72503E-01    9.40223E-02
 7.96971E-01    9.41300E-02
 8.16425E-01    9.42156E-02
 8.26373E-01    9.42594E-02
 8.50000E-01    9.43634E-02
 1.00000E+00    9.94112E-02
 1.30000E+00    1.08442E-01
 1.50000E+00    1.14069E-01
 1.80000E+00    1.18897E-01
 2.00000E+00    1.23582E-01
 2.25000E+00    1.25799E-01
 2.50000E+00    1.27984E-01
 2.75000E+00    1.30386E-01
 3.00000E+00    1.32346E-01
 3.20000E+00    1.34600E-01
 3.40000E+00    1.36570E-01
 3.60000E+00    1.38404E-01
 3.80000E+00    1.40105E-01
 4.00000E+00    1.42979E-01
 4.20000E+00    1.46465E-01
 4.40000E+00    1.51644E-01
 4.60000E+00    1.58682E-01
 4.80000E+00    1.68609E-01
 5.00000E+00    1.80146E-01
 5.50000E+00    2.21261E-01
 6.00000E+00    2.97309E-01
 7.00000E+00    5.71293E-01
 8.00000E+00    9.06989E-01
 9.00000E+00    7.93861E+00
 1.00000E+01    2.67417E+01
 1.10000E+01    4.53492E+01
 1.20000E+01    6.60135E+01
 1.30000E+01    8.50056E+01
 1.40000E+01    1.04594E+02
 1.50000E+01    9.59093E+01
 1.60000E+01    1.44506E+02
 1.70000E+01    1.54714E+02
 1.80000E+01    1.54430E+02
 1.90000E+01    1.36858E+02
 2.00000E+01    1.16747E+02
