# n + Sm  0 : (n,xp)
# jendl4.0   N.Iwamoto                         EVAL-Nov09
#
# # energies =   118
#   E(MeV)          xs(mb) 
 2.26594E-02    0.00000E+00
 3.00000E-02    0.00000E+00
 4.00000E-02    0.00000E+00
 5.00000E-02    0.00000E+00
 6.00000E-02    0.00000E+00
 7.00000E-02    0.00000E+00
 8.00000E-02    0.00000E+00
 9.00000E-02    0.00000E+00
 1.00000E-01    0.00000E+00
 1.05000E-01    1.06389E-14
 1.10000E-01    1.14007E-14
 1.20000E-01    1.31160E-14
 1.30000E-01    1.49125E-14
 1.40000E-01    1.68132E-14
 1.50000E-01    1.87139E-14
 1.60000E-01    2.06147E-14
 1.70000E-01    2.25154E-14
 1.80000E-01    2.44162E-14
 1.90000E-01    2.63169E-14
 2.00000E-01    2.82176E-14
 2.25000E-01    3.29695E-14
 2.50000E-01    3.77213E-14
 2.75000E-01    4.24733E-14
 2.78952E-01    4.32244E-14
 2.87876E-01    4.49207E-14
 3.00000E-01    4.72447E-14
 3.52412E-01    5.73125E-14
 4.00000E-01    6.64536E-14
 4.01793E-01    6.90962E-14
 5.00000E-01    2.14686E-13
 5.32176E-01    6.39650E-13
 5.62157E-01    1.03576E-12
 5.94888E-01    1.46827E-12
 6.00000E-01    1.53583E-12
 6.40771E-01    5.70643E-12
 6.63061E-01    7.98658E-12
 6.68548E-01    8.54788E-12
 7.00000E-01    1.17653E-11
 7.01721E-01    1.22511E-11
 7.14668E-01    1.59059E-11
 7.52613E-01    3.74263E-11
 7.90549E-01    6.34313E-11
 7.94817E-01    6.63570E-11
 8.00000E-01    6.99100E-11
 8.36035E-01    1.42774E-10
 8.38874E-01    1.49853E-10
 8.41250E-01    1.55777E-10
 8.84591E-01    2.63849E-10
 8.87914E-01    2.72135E-10
 9.00000E-01    3.23138E-10
 9.31749E-01    4.93906E-10
 9.59233E-01    7.52709E-10
 9.59234E-01    7.52719E-10
 9.73550E-01    8.97144E-10
 1.00000E+00    1.24194E-09
 1.00134E+00    1.26916E-09
 1.01885E+00    1.62494E-09
 1.01886E+00    1.62514E-09
 1.04604E+00    2.23389E-09
 1.05510E+00    2.49442E-09
 1.09034E+00    3.69793E-09
 1.10000E+00    4.06919E-09
 1.12054E+00    5.25548E-09
 1.13061E+00    5.99645E-09
 1.14012E+00    6.69621E-09
 1.16182E+00    8.29294E-09
 1.18115E+00    1.00356E-08
 1.18900E+00    1.09046E-08
 1.19504E+00    1.15488E-08
 1.20000E+00    1.20777E-08
 1.20080E+00    1.22006E-08
 1.20309E+00    1.25523E-08
 1.30000E+00    3.37498E-08
 1.40000E+00    8.58606E-08
 1.50000E+00    2.09628E-07
 1.60000E+00    4.91335E-07
 1.70000E+00    1.06939E-06
 1.80000E+00    2.24714E-06
 1.90000E+00    4.27764E-06
 2.00000E+00    8.04751E-06
 2.25000E+00    3.31130E-05
 2.50000E+00    1.16806E-04
 2.75000E+00    3.30877E-04
 3.00000E+00    8.34411E-04
 3.50000E+00    3.30959E-03
 4.00000E+00    9.41453E-03
 4.50000E+00    2.10800E-02
 5.00000E+00    3.92109E-02
 5.50000E+00    6.34306E-02
 6.00000E+00    9.27192E-02
 6.50000E+00    1.26291E-01
 7.00000E+00    1.64266E-01
 7.50000E+00    2.08608E-01
 8.00000E+00    2.60188E-01
 8.50000E+00    3.35868E-01
 9.00000E+00    4.43882E-01
 9.50000E+00    6.01511E-01
 1.00000E+01    8.33795E-01
 1.05000E+01    1.18028E+00
 1.10000E+01    1.67927E+00
 1.15000E+01    2.33637E+00
 1.20000E+01    3.16053E+00
 1.25000E+01    4.13914E+00
 1.30000E+01    5.27261E+00
 1.35000E+01    6.54577E+00
 1.40000E+01    7.95112E+00
 1.45000E+01    9.48627E+00
 1.50000E+01    1.11912E+01
 1.55000E+01    1.30657E+01
 1.60000E+01    1.51200E+01
 1.65000E+01    1.73273E+01
 1.70000E+01    1.96918E+01
 1.75000E+01    2.22095E+01
 1.80000E+01    2.48577E+01
 1.85000E+01    2.76366E+01
 1.90000E+01    3.05351E+01
 1.95000E+01    3.35505E+01
 2.00000E+01    3.66731E+01
