# n + Sm  0 : (n,xa)
# jendl4.0   N.Iwamoto                         EVAL-Nov09
#
# # energies =   118
#   E(MeV)          xs(mb) 
 2.26594E-02    4.54149E-04
 3.00000E-02    3.26560E-04
 4.00000E-02    2.74842E-04
 5.00000E-02    2.44343E-04
 6.00000E-02    2.23688E-04
 7.00000E-02    2.08953E-04
 8.00000E-02    1.98284E-04
 9.00000E-02    1.90047E-04
 1.00000E-01    1.83936E-04
 1.05000E-01    2.56470E-03
 1.10000E-01    2.53766E-03
 1.20000E-01    2.49200E-03
 1.30000E-01    2.21430E-03
 1.40000E-01    2.11591E-03
 1.50000E-01    2.04380E-03
 1.60000E-01    1.98952E-03
 1.70000E-01    1.95773E-03
 1.80000E-01    1.93101E-03
 1.90000E-01    1.90883E-03
 2.00000E-01    1.80239E-03
 2.25000E-01    1.69854E-03
 2.50000E-01    1.65453E-03
 2.75000E-01    1.66109E-03
 2.78952E-01    1.66418E-03
 2.87876E-01    1.66415E-03
 3.00000E-01    1.66237E-03
 3.52412E-01    1.70951E-03
 4.00000E-01    1.74677E-03
 4.01793E-01    1.75177E-03
 5.00000E-01    2.02536E-03
 5.32176E-01    2.13238E-03
 5.62157E-01    2.21227E-03
 5.94888E-01    2.24276E-03
 6.00000E-01    2.24516E-03
 6.40771E-01    2.40540E-03
 6.63061E-01    2.49041E-03
 6.68548E-01    2.50937E-03
 7.00000E-01    2.62941E-03
 7.01721E-01    2.63747E-03
 7.14668E-01    2.69849E-03
 7.52613E-01    2.78553E-03
 7.90549E-01    2.91774E-03
 7.94817E-01    2.93146E-03
 8.00000E-01    2.94813E-03
 8.36035E-01    3.05531E-03
 8.38874E-01    3.06199E-03
 8.41250E-01    3.06616E-03
 8.84591E-01    3.17938E-03
 8.87914E-01    3.18809E-03
 9.00000E-01    3.23207E-03
 9.31749E-01    3.28645E-03
 9.59233E-01    3.34731E-03
 9.59234E-01    3.34731E-03
 9.73550E-01    3.37883E-03
 1.00000E+00    3.46129E-03
 1.00134E+00    3.46715E-03
 1.01885E+00    3.54369E-03
 1.01886E+00    3.54373E-03
 1.04604E+00    3.62643E-03
 1.05510E+00    3.65218E-03
 1.09034E+00    3.64995E-03
 1.10000E+00    3.64440E-03
 1.12054E+00    3.68973E-03
 1.13061E+00    3.70921E-03
 1.14012E+00    3.72761E-03
 1.16182E+00    3.77007E-03
 1.18115E+00    3.78328E-03
 1.18900E+00    3.78257E-03
 1.19504E+00    3.78503E-03
 1.20000E+00    3.78706E-03
 1.20080E+00    3.78997E-03
 1.20309E+00    3.79829E-03
 1.30000E+00    4.16380E-03
 1.40000E+00    4.57488E-03
 1.50000E+00    4.91704E-03
 1.60000E+00    5.43919E-03
 1.70000E+00    5.86723E-03
 1.80000E+00    6.33468E-03
 1.90000E+00    6.79814E-03
 2.00000E+00    7.38230E-03
 2.25000E+00    9.26800E-03
 2.50000E+00    1.12567E-02
 2.75000E+00    1.40017E-02
 3.00000E+00    1.67921E-02
 3.50000E+00    2.37779E-02
 4.00000E+00    3.15889E-02
 4.50000E+00    4.03892E-02
 5.00000E+00    5.04546E-02
 5.50000E+00    6.27679E-02
 6.00000E+00    7.94556E-02
 6.50000E+00    1.02794E-01
 7.00000E+00    1.33131E-01
 7.50000E+00    1.75525E-01
 8.00000E+00    2.27408E-01
 8.50000E+00    2.88865E-01
 9.00000E+00    3.61719E-01
 9.50000E+00    4.53655E-01
 1.00000E+01    6.21549E-01
 1.05000E+01    9.33210E-01
 1.10000E+01    1.37033E+00
 1.15000E+01    1.89405E+00
 1.20000E+01    2.48593E+00
 1.25000E+01    3.13880E+00
 1.30000E+01    3.84895E+00
 1.35000E+01    4.61256E+00
 1.40000E+01    5.42529E+00
 1.45000E+01    6.28093E+00
 1.50000E+01    7.18289E+00
 1.55000E+01    8.13797E+00
 1.60000E+01    9.13566E+00
 1.65000E+01    1.01258E+01
 1.70000E+01    1.11727E+01
 1.75000E+01    1.21570E+01
 1.80000E+01    1.31607E+01
 1.85000E+01    1.41045E+01
 1.90000E+01    1.50272E+01
 1.95000E+01    1.58235E+01
 2.00000E+01    1.65065E+01
