# n + Sm  0 : (n,t)
# jendl4.0   N.Iwamoto                         EVAL-Nov09
# uncertainties: n
# # energies =    62
#   E(MeV)          xs(mb) 
 4.91028E+00    0.00000E+00
 4.97195E+00    2.45506E-26
 5.40597E+00    1.45415E-20
 5.57532E+00    2.29841E-20
 5.58458E+00    2.36733E-20
 5.62878E+00    2.72267E-20
 5.64177E+00    2.82970E-20
 5.66584E+00    3.02978E-20
 5.68859E+00    3.22095E-20
 5.71034E+00    3.40454E-20
 5.73944E+00    3.65050E-20
 5.75253E+00    3.76119E-20
 5.80015E+00    4.16403E-20
 5.87486E+00    4.79612E-20
 5.97484E+00    5.64204E-20
 6.00000E+00    5.85491E-20
 6.01965E+00    1.42526E-19
 6.12537E+00    6.01284E-19
 6.13383E+00    6.38024E-19
 6.15266E+00    7.19840E-19
 6.17894E+00    8.34038E-19
 6.20310E+00    9.39047E-19
 6.21105E+00    9.73608E-19
 6.23099E+00    1.06027E-18
 6.26643E+00    1.21432E-18
 6.28556E+00    1.29747E-18
 6.30469E+00    1.38061E-18
 6.30832E+00    1.39640E-18
 6.31708E+00    1.43447E-18
 6.37598E+00    1.69047E-18
 6.40951E+00    1.83631E-18
 6.41414E+00    1.85642E-18
 6.42260E+00    1.89315E-18
 6.42763E+00    1.91494E-18
 6.50000E+00    2.22961E-18
 7.00000E+00    1.57346E-14
 7.50000E+00    4.54659E-12
 8.00000E+00    2.08668E-10
 8.50000E+00    3.12405E-09
 9.00000E+00    2.45528E-08
 9.50000E+00    1.57750E-07
 1.00000E+01    1.06997E-06
 1.05000E+01    6.75796E-06
 1.10000E+01    3.47340E-05
 1.15000E+01    1.43042E-04
 1.20000E+01    4.84565E-04
 1.25000E+01    1.37060E-03
 1.30000E+01    3.41584E-03
 1.35000E+01    7.49799E-03
 1.40000E+01    1.46685E-02
 1.45000E+01    2.63345E-02
 1.50000E+01    4.35432E-02
 1.55000E+01    6.70258E-02
 1.60000E+01    9.87038E-02
 1.65000E+01    1.38856E-01
 1.70000E+01    1.87569E-01
 1.75000E+01    2.45700E-01
 1.80000E+01    3.11756E-01
 1.85000E+01    3.85554E-01
 1.90000E+01    4.66473E-01
 1.95000E+01    5.50925E-01
 2.00000E+01    6.38780E-01
