# n + Fe 56 : (n,tot)   
# jendl.ad   S.IIJIMA,H.YAMAKOSHI              EVAL-MAR87
# uncertainties: n
# # energies =   171
#   E(MeV)       xs(mb) 
 1.00000E-11    2.80226E+04
 1.00000E-07    9.33040E+02
 4.13990E-07    6.02090E+02
 5.31580E-07    5.31383E+02
 6.82560E-07    4.68851E+02
 8.76420E-07    4.13695E+02
 1.12540E-06    3.65046E+02
 1.44500E-06    3.22037E+02
 1.85540E-06    2.84369E+02
 2.37240E-06    2.50863E+02
 3.05900E-06    2.21028E+02
 3.92790E-06    1.94899E+02
 5.04350E-06    1.71858E+02
 6.47600E-06    1.51457E+02
 8.31530E-06    1.33446E+02
 1.06770E-05    1.17538E+02
 1.37100E-05    1.03449E+02
 1.76030E-05    9.09954E+01
 2.26030E-05    7.98301E+01
 2.92030E-05    7.00607E+01
 3.72670E-05    6.15140E+01
 4.78510E-05    5.37949E+01
 6.14420E-05    4.69319E+01
 7.88930E-05    4.08370E+01
 1.01300E-04    3.53740E+01
 1.30070E-04    3.04954E+01
 1.67020E-04    2.61338E+01
 2.14450E-04    2.22321E+01
 2.75360E-04    1.87328E+01
 3.53580E-04    1.56184E+01
 4.54000E-04    1.28568E+01
 5.82950E-04    1.04492E+01
 7.48520E-04    8.48570E+00
 9.61120E-04    7.18247E+02
 1.23410E-03    5.58206E+00
 1.58460E-03    3.75982E+00
 2.03470E-03    3.00527E+00
 2.24870E-03    6.01697E+00
 2.48520E-03    2.40098E+00
 2.61260E-03    2.24826E+00
 2.74650E-03    2.03812E+00
 3.03540E-03    1.78556E+00
 3.35460E-03    1.56391E+00
 3.70740E-03    1.32555E+00
 4.30740E-03    1.02138E+00
 5.53080E-03    7.45872E-01
 7.10170E-03    5.64540E-01
 9.11880E-03    4.57807E-01
 1.17090E-02    6.96685E-01
 1.50340E-02    1.30351E+00
 1.93050E-02    1.59146E+00
 2.18750E-02    2.06267E+01
 2.35790E-02    2.43111E+00
 2.41760E-02    3.28778E+00
 2.47880E-02    6.29394E+00
 2.60580E-02    1.82278E+01
 2.70000E-02    5.22554E+01
 2.85000E-02    8.65901E+00
 3.18280E-02    2.88243E+01
 3.43070E-02    1.09180E+01
 4.08680E-02    8.20467E+00
 4.63090E-02    9.51821E+00
 5.24750E-02    7.87442E+00
 5.65620E-02    1.33339E+01
 6.73790E-02    3.59545E-01
 7.20000E-02    1.26872E+01
 7.95000E-02    3.54492E+01
 8.25000E-02    5.29758E+00
 8.65170E-02    1.78869E+01
 9.80370E-02    8.97989E+00
 1.11090E-01    6.96512E+00
 1.16790E-01    1.81877E+00
 1.22770E-01    1.24150E+01
 1.29070E-01    5.93447E+00
 1.35690E-01    8.66036E+00
 1.42640E-01    1.72047E+00
 1.49960E-01    2.24343E+00
 1.57640E-01    3.75877E+00
 1.65730E-01    9.49744E+00
 1.74220E-01    8.57634E+00
 1.83160E-01    5.48946E+00
 1.92550E-01    7.51184E+00
 2.02420E-01    6.73591E+00
 2.12800E-01    5.10548E+00
 2.23710E-01    9.15965E+00
 2.35180E-01    5.92126E+00
 2.47240E-01    3.41877E+00
 2.73240E-01    7.45121E+00
 2.87250E-01    6.78830E+00
 2.94520E-01    2.15863E-01
 2.97200E-01    2.06596E-01
 2.98500E-01    6.27034E+00
 3.01970E-01    5.20692E+00
 3.33730E-01    6.12041E+00
 3.68830E-01    6.26299E+00
 3.87740E-01    2.86893E+00
 4.07620E-01    3.54890E+00
 4.50490E-01    5.06863E+00
 4.97870E-01    5.32233E+00
 5.23400E-01    5.06602E+00
 5.50230E-01    6.12417E+00
 5.78440E-01    4.89060E+00
 6.08100E-01    6.17084E+00
 6.39280E-01    7.36041E+00
 6.72060E-01    7.12444E+00
 7.06510E-01    4.69205E+00
 7.42740E-01    6.95583E+00
 7.80820E-01    8.59680E+00
 8.20850E-01    6.97014E+00
 8.62940E-01    5.14721E+00
 9.07180E-01    3.94771E+00
 9.61640E-01    3.08195E+00
 1.00260E+00    2.68474E+00
 1.10800E+00    2.51254E+00
 1.16480E+00    2.40301E+00
 1.22460E+00    2.31265E+00
 1.28730E+00    2.29066E+00
 1.35340E+00    2.27590E+00
 1.42270E+00    2.26038E+00
 1.49570E+00    2.28041E+00
 1.57240E+00    2.34756E+00
 1.65300E+00    2.41827E+00
 1.73770E+00    2.49396E+00
 1.82680E+00    2.57588E+00
 1.92050E+00    2.66250E+00
 2.01900E+00    2.77013E+00
 2.12250E+00    2.80135E+00
 2.23130E+00    2.75181E+00
 2.30690E+00    2.72108E+00
 2.34570E+00    2.70588E+00
 2.36530E+00    2.69598E+00
 2.38520E+00    2.67092E+00
 2.46600E+00    2.62307E+00
 2.59240E+00    2.56648E+00
 2.72530E+00    2.52288E+00
 2.86500E+00    2.48502E+00
 3.01190E+00    2.42095E+00
 3.16640E+00    2.31769E+00
 3.32870E+00    2.13293E+00
 3.67880E+00    1.83839E+00
 4.06570E+00    1.66550E+00
 4.49330E+00    1.57779E+00
 4.72370E+00    1.52444E+00
 4.96590E+00    1.49783E+00
 5.22050E+00    1.45334E+00
 5.48810E+00    1.40955E+00
 5.76950E+00    1.36610E+00
 6.06530E+00    1.31332E+00
 6.37630E+00    6.38849E+00
 6.59240E+00    2.99304E+01
 6.70320E+00    3.50517E+01
 7.04690E+00    4.28486E+01
 7.40820E+00    5.11531E+01
 7.78800E+00    5.98606E+01
 8.18730E+00    6.88089E+01
 8.60710E+00    7.81668E+01
 9.04840E+00    8.65398E+01
 9.51230E+00    9.43470E+01
 1.00000E+01    1.03694E+02
 1.05130E+01    1.14663E+02
 1.10520E+01    1.27101E+02
 1.16180E+01    1.79058E+02
 1.22140E+01    2.96721E+02
 1.28400E+01    4.34628E+02
 1.34990E+01    5.46511E+02
 1.38400E+01    6.17732E+02
 1.41910E+01    6.80320E+02
 1.45500E+01    7.42918E+02
 1.49180E+01    8.22237E+02
 1.56830E+01    9.03613E+02
 1.64870E+01    9.58046E+02
