# n + Fe 56 : (n,g)     
# jendl.ad   S.IIJIMA,H.YAMAKOSHI              EVAL-MAR87
# uncertainties: n
# # energies =   171
#   E(MeV)       xs(mb) 
 1.00000E-11    2.80125E+04
 1.00000E-07    9.33023E+02
 4.13990E-07    6.01968E+02
 5.31580E-07    5.31252E+02
 6.82560E-07    4.68768E+02
 8.76420E-07    4.13549E+02
 1.12540E-06    3.65028E+02
 1.44500E-06    3.22069E+02
 1.85540E-06    2.84431E+02
 2.37240E-06    2.50937E+02
 3.05900E-06    2.21069E+02
 3.92790E-06    1.94943E+02
 5.04350E-06    1.71889E+02
 6.47600E-06    1.51493E+02
 8.31530E-06    1.33478E+02
 1.06770E-05    1.17568E+02
 1.37100E-05    1.03475E+02
 1.76030E-05    9.10166E+01
 2.26030E-05    7.98592E+01
 2.92030E-05    7.00775E+01
 3.72670E-05    6.15175E+01
 4.78510E-05    5.38080E+01
 6.14420E-05    4.69424E+01
 7.88930E-05    4.08374E+01
 1.01300E-04    3.53811E+01
 1.30070E-04    3.05022E+01
 1.67020E-04    2.61417E+01
 2.14450E-04    2.22335E+01
 2.75360E-04    1.87373E+01
 3.53580E-04    1.56216E+01
 4.54000E-04    1.28590E+01
 5.82950E-04    1.04501E+01
 7.48520E-04    8.48695E+00
 9.61120E-04    7.18198E+02
 1.23410E-03    5.58190E+00
 1.58460E-03    3.76041E+00
 2.03470E-03    3.00573E+00
 2.24870E-03    6.01359E+00
 2.48520E-03    2.40102E+00
 2.61260E-03    2.24863E+00
 2.74650E-03    2.03879E+00
 3.03540E-03    1.78585E+00
 3.35460E-03    1.56379E+00
 3.70740E-03    1.32508E+00
 4.30740E-03    1.02137E+00
 5.53080E-03    7.45770E-01
 7.10170E-03    5.64395E-01
 9.11880E-03    4.57736E-01
 1.17090E-02    6.96032E-01
 1.50340E-02    1.30278E+00
 1.93050E-02    1.59006E+00
 2.18750E-02    2.06158E+01
 2.35790E-02    2.43006E+00
 2.41760E-02    3.28862E+00
 2.47880E-02    6.29187E+00
 2.60580E-02    1.82246E+01
 2.70000E-02    5.22559E+01
 2.85000E-02    8.65368E+00
 3.18280E-02    2.88096E+01
 3.43070E-02    1.09122E+01
 4.08680E-02    8.19778E+00
 4.63090E-02    9.50926E+00
 5.24750E-02    7.86956E+00
 5.65620E-02    1.33266E+01
 6.73790E-02    3.58465E-01
 7.20000E-02    1.26803E+01
 7.95000E-02    3.54212E+01
 8.25000E-02    5.29179E+00
 8.65170E-02    1.78786E+01
 9.80370E-02    8.97326E+00
 1.11090E-01    6.96121E+00
 1.16790E-01    1.81357E+00
 1.22770E-01    1.24092E+01
 1.29070E-01    5.93388E+00
 1.35690E-01    8.64763E+00
 1.42640E-01    1.71525E+00
 1.49960E-01    2.24267E+00
 1.57640E-01    3.75783E+00
 1.65730E-01    9.48531E+00
 1.74220E-01    8.57224E+00
 1.83160E-01    5.48604E+00
 1.92550E-01    7.50892E+00
 2.02420E-01    6.73694E+00
 2.12800E-01    5.10225E+00
 2.23710E-01    9.15650E+00
 2.35180E-01    5.91788E+00
 2.47240E-01    3.41743E+00
 2.73240E-01    7.44907E+00
 2.87250E-01    6.78587E+00
 2.94520E-01    2.14944E-01
 2.97200E-01    2.05808E-01
 2.98500E-01    6.27107E+00
 3.01970E-01    5.20375E+00
 3.33730E-01    6.11598E+00
 3.68830E-01    6.26053E+00
 3.87740E-01    2.86764E+00
 4.07620E-01    3.54669E+00
 4.50490E-01    5.06545E+00
 4.97870E-01    5.31785E+00
 5.23400E-01    5.06061E+00
 5.50230E-01    6.11627E+00
 5.78440E-01    4.88550E+00
 6.08100E-01    6.16466E+00
 6.39280E-01    7.35123E+00
 6.72060E-01    7.11532E+00
 7.06510E-01    4.68557E+00
 7.42740E-01    6.94556E+00
 7.80820E-01    8.58450E+00
 8.20850E-01    6.96213E+00
 8.62940E-01    5.14630E+00
 9.07180E-01    3.94698E+00
 9.61640E-01    3.08215E+00
 1.00260E+00    2.68520E+00
 1.10800E+00    2.51221E+00
 1.16480E+00    2.40275E+00
 1.22460E+00    2.31265E+00
 1.28730E+00    2.29066E+00
 1.35340E+00    2.27590E+00
 1.42270E+00    2.26038E+00
 1.49570E+00    2.28073E+00
 1.57240E+00    2.34863E+00
 1.65300E+00    2.42012E+00
 1.73770E+00    2.49529E+00
 1.82680E+00    2.57588E+00
 1.92050E+00    2.66250E+00
 2.01900E+00    2.77013E+00
 2.12250E+00    2.80113E+00
 2.23130E+00    2.75123E+00
 2.30690E+00    2.72075E+00
 2.34570E+00    2.70645E+00
 2.36530E+00    2.69686E+00
 2.38520E+00    2.67254E+00
 2.46600E+00    2.62328E+00
 2.59240E+00    2.56599E+00
 2.72530E+00    2.52287E+00
 2.86500E+00    2.48653E+00
 3.01190E+00    2.42092E+00
 3.16640E+00    2.31831E+00
 3.32870E+00    2.13162E+00
 3.67880E+00    1.83703E+00
 4.06570E+00    1.66557E+00
 4.49330E+00    1.57774E+00
 4.72370E+00    1.52445E+00
 4.96590E+00    1.49840E+00
 5.22050E+00    1.45378E+00
 5.48810E+00    1.40977E+00
 5.76950E+00    1.36612E+00
 6.06530E+00    1.31377E+00
 6.37630E+00    1.26765E+00
 6.59240E+00    1.24013E+00
 6.70320E+00    1.20436E+00
 7.04690E+00    1.14038E+00
 7.40820E+00    1.07224E+00
 7.78800E+00    1.00800E+00
 8.18730E+00    9.48903E-01
 8.60710E+00    8.93362E-01
 9.04840E+00    8.46276E-01
 9.51230E+00    8.04037E-01
 1.00000E+01    7.77060E-01
 1.05130E+01    7.63895E-01
 1.10520E+01    7.31315E-01
 1.16180E+01    6.89643E-01
 1.22140E+01    6.86826E-01
 1.28400E+01    7.23153E-01
 1.34990E+01    7.69598E-01
 1.38400E+01    8.02182E-01
 1.41910E+01    8.35225E-01
 1.45500E+01    8.69004E-01
 1.49180E+01    9.09901E-01
 1.56830E+01    9.47512E-01
 1.64870E+01    9.61598E-01
