# n + Nd146 : (n,h)     
# jendl4.0   N.Iwamoto,A.Zukeran,K.Shibata     EVAL-Dec09
# uncertainties: n
# # energies =    43
#   E(MeV)       xs(mb) 
 7.40480E+00    0.00000E+00
 7.80498E+00    2.22400E-33
 8.34993E+00    1.03660E-31
 8.65559E+00    1.69200E-31
 8.76020E+00    4.68810E-31
 8.90409E+00    8.95330E-31
 8.93900E+00    9.98890E-31
 9.06298E+00    1.36680E-30
 9.09003E+00    1.77580E-30
 9.10802E+00    2.18320E-30
 9.23637E+00    5.80460E-30
 9.24645E+00    6.09280E-30
 9.28218E+00    7.12140E-30
 9.30879E+00    7.88990E-30
 9.41011E+00    1.08280E-29
 9.41292E+00    1.09100E-29
 9.43987E+00    1.16910E-29
 9.44752E+00    1.19130E-29
 9.45960E+00    1.22640E-29
 9.50000E+00    1.34360E-29
 9.53150E+00    1.71600E-28
 9.54650E+00    2.49270E-28
 1.00000E+01    2.61110E-27
 1.05000E+01    1.62990E-23
 1.10000E+01    1.14300E-20
 1.15000E+01    1.78280E-18
 1.20000E+01    9.49330E-17
 1.25000E+01    2.30360E-15
 1.30000E+01    3.04130E-14
 1.35000E+01    2.50670E-13
 1.40000E+01    1.42180E-12
 1.45000E+01    6.44180E-12
 1.50000E+01    3.16720E-11
 1.55000E+01    2.34860E-10
 1.60000E+01    1.61790E-09
 1.65000E+01    9.91880E-09
 1.70000E+01    5.08490E-08
 1.75000E+01    2.22230E-07
 1.80000E+01    7.43500E-07
 1.85000E+01    2.41535E-06
 1.90000E+01    6.44498E-06
 1.95000E+01    1.48413E-05
 2.00000E+01    3.36480E-05
