# n + Nd146 : (n,n'10)  
# jendl4.0   N.Iwamoto,A.Zukeran,K.Shibata     EVAL-Dec09
# uncertainties: n
# # energies =    73
#   E(MeV)       xs(mb) 
 1.61365E+00    0.00000E+00
 1.69967E+00    3.59363E+01
 1.70000E+00    3.59313E+01
 1.70849E+00    3.67773E+01
 1.75702E+00    3.87945E+01
 1.78163E+00    4.04195E+01
 1.78944E+00    4.07461E+01
 1.79232E+00    4.08577E+01
 1.79966E+00    4.12636E+01
 1.80000E+00    4.12429E+01
 1.82453E+00    4.22713E+01
 1.84668E+00    4.24267E+01
 1.89773E+00    4.34495E+01
 1.90000E+00    4.35090E+01
 1.91851E+00    4.39436E+01
 1.93206E+00    4.38099E+01
 1.99213E+00    4.41349E+01
 2.00000E+00    4.39313E+01
 2.00267E+00    4.39222E+01
 2.04101E+00    4.35556E+01
 2.04345E+00    4.33500E+01
 2.05967E+00    4.29087E+01
 2.08330E+00    4.24303E+01
 2.08692E+00    4.23614E+01
 2.09792E+00    4.21538E+01
 2.10445E+00    4.20382E+01
 2.11028E+00    4.14809E+01
 2.13410E+00    4.10203E+01
 2.15868E+00    4.04941E+01
 2.16380E+00    4.02674E+01
 2.18097E+00    3.94394E+01
 2.21247E+00    3.89618E+01
 2.22363E+00    3.85992E+01
 2.23510E+00    3.81764E+01
 2.24038E+00    3.79787E+01
 2.25000E+00    3.75819E+01
 2.50000E+00    3.23677E+01
 2.75000E+00    2.53211E+01
 3.00000E+00    2.16534E+01
 3.50000E+00    1.24293E+01
 4.00000E+00    7.28680E+00
 4.50000E+00    4.60884E+00
 5.00000E+00    3.22164E+00
 5.50000E+00    2.47973E+00
 6.00000E+00    2.05546E+00
 6.50000E+00    1.78917E+00
 7.00000E+00    1.60572E+00
 7.50000E+00    1.46777E+00
 8.00000E+00    1.35541E+00
 8.50000E+00    1.25807E+00
 9.00000E+00    1.17016E+00
 9.50000E+00    1.08895E+00
 1.00000E+01    1.01346E+00
 1.05000E+01    9.44293E-01
 1.10000E+01    8.79456E-01
 1.15000E+01    8.22005E-01
 1.20000E+01    7.69107E-01
 1.25000E+01    7.22507E-01
 1.30000E+01    6.80094E-01
 1.35000E+01    6.42277E-01
 1.40000E+01    6.07951E-01
 1.45000E+01    5.76744E-01
 1.50000E+01    5.48127E-01
 1.55000E+01    5.22330E-01
 1.60000E+01    4.97464E-01
 1.65000E+01    4.73612E-01
 1.70000E+01    4.52581E-01
 1.75000E+01    4.32353E-01
 1.80000E+01    4.12657E-01
 1.85000E+01    3.93556E-01
 1.90000E+01    3.75830E-01
 1.95000E+01    3.59098E-01
 2.00000E+01    3.43636E-01
