# n + Nd146 : (n,n'02)  
# jendl4.0   N.Iwamoto,A.Zukeran,K.Shibata     EVAL-Dec09
# uncertainties: n
# # energies =    88
#   E(MeV)       xs(mb) 
 9.21728E-01    0.00000E+00
 1.00000E+00    1.32701E+02
 1.04942E+00    1.51379E+02
 1.10000E+00    1.65854E+02
 1.19784E+00    1.87866E+02
 1.20000E+00    1.88235E+02
 1.30000E+00    2.02516E+02
 1.31211E+00    2.03780E+02
 1.38633E+00    1.94308E+02
 1.40000E+00    1.85375E+02
 1.48076E+00    1.78856E+02
 1.50000E+00    1.73477E+02
 1.52801E+00    1.71321E+02
 1.58287E+00    1.68181E+02
 1.60000E+00    1.62525E+02
 1.61365E+00    1.61043E+02
 1.69967E+00    1.50510E+02
 1.70000E+00    1.50209E+02
 1.70849E+00    1.48894E+02
 1.75702E+00    1.42202E+02
 1.78163E+00    1.40365E+02
 1.78944E+00    1.39144E+02
 1.79232E+00    1.37950E+02
 1.79966E+00    1.36674E+02
 1.80000E+00    1.36057E+02
 1.82453E+00    1.30344E+02
 1.84668E+00    1.25610E+02
 1.89773E+00    1.15984E+02
 1.90000E+00    1.15675E+02
 1.91851E+00    1.13564E+02
 1.93206E+00    1.10236E+02
 1.99213E+00    1.02834E+02
 2.00000E+00    1.00880E+02
 2.00267E+00    1.00484E+02
 2.04101E+00    9.61413E+01
 2.04345E+00    9.56014E+01
 2.05967E+00    9.36967E+01
 2.08330E+00    9.13250E+01
 2.08692E+00    9.09857E+01
 2.09792E+00    8.99357E+01
 2.10445E+00    8.93556E+01
 2.11028E+00    8.83891E+01
 2.13410E+00    8.58586E+01
 2.15868E+00    8.22617E+01
 2.16380E+00    8.11255E+01
 2.18097E+00    7.84243E+01
 2.21247E+00    7.50836E+01
 2.22363E+00    7.34024E+01
 2.23510E+00    7.15806E+01
 2.24038E+00    7.07444E+01
 2.25000E+00    6.93747E+01
 2.50000E+00    4.95296E+01
 2.75000E+00    3.40585E+01
 3.00000E+00    2.61043E+01
 3.50000E+00    1.37546E+01
 4.00000E+00    7.41869E+00
 4.50000E+00    4.21542E+00
 5.00000E+00    2.62483E+00
 5.50000E+00    1.82504E+00
 6.00000E+00    1.40277E+00
 6.50000E+00    1.16078E+00
 7.00000E+00    1.00593E+00
 7.50000E+00    9.01223E-01
 8.00000E+00    8.21688E-01
 8.50000E+00    7.54008E-01
 9.00000E+00    6.93519E-01
 9.50000E+00    6.38449E-01
 1.00000E+01    5.88269E-01
 1.05000E+01    5.43357E-01
 1.10000E+01    5.02395E-01
 1.15000E+01    4.66883E-01
 1.20000E+01    4.34653E-01
 1.25000E+01    4.08540E-01
 1.30000E+01    3.87137E-01
 1.35000E+01    3.68055E-01
 1.40000E+01    3.50027E-01
 1.45000E+01    3.33445E-01
 1.50000E+01    3.17720E-01
 1.55000E+01    2.88077E-01
 1.60000E+01    2.78990E-01
 1.65000E+01    2.78220E-01
 1.70000E+01    2.57334E-01
 1.75000E+01    2.35484E-01
 1.80000E+01    2.28819E-01
 1.85000E+01    2.30960E-01
 1.90000E+01    2.20819E-01
 1.95000E+01    2.00416E-01
 2.00000E+01    1.84775E-01
