# n + Nd146 :  n        
# jendl4.0   N.Iwamoto,A.Zukeran,K.Shibata     EVAL-Dec09
# uncertainties: n
# # energies =   110
#   E(MeV)       xs(mb) 
 1.05000E-01    0.00000E+00
 1.10000E-01    2.03396E-03
 1.20000E-01    2.58450E-03
 1.30000E-01    2.87801E-03
 1.40000E-01    3.11648E-03
 1.50000E-01    3.31431E-03
 1.60000E-01    3.45437E-03
 1.70000E-01    3.56095E-03
 1.80000E-01    3.63134E-03
 1.90000E-01    3.67418E-03
 2.00000E-01    3.69883E-03
 2.25000E-01    1.77296E-02
 2.50000E-01    2.17076E-02
 2.75000E-01    2.43045E-02
 3.00000E-01    2.57627E-02
 4.00000E-01    8.89384E-02
 4.56907E-01    1.96346E-01
 5.00000E-01    1.37962E-01
 6.00000E-01    2.28850E-01
 7.00000E-01    3.86996E-01
 8.00000E-01    6.34671E-01
 9.00000E-01    1.01314E+00
 9.21728E-01    1.19756E+00
 1.00000E+00    1.47922E+00
 1.04942E+00    1.85557E+00
 1.10000E+00    2.04584E+00
 1.19784E+00    2.76276E+00
 1.20000E+00    2.64139E+00
 1.30000E+00    3.31951E+00
 1.31211E+00    3.47216E+00
 1.38633E+00    3.81026E+00
 1.40000E+00    3.63243E+00
 1.48076E+00    4.21729E+00
 1.50000E+00    4.18864E+00
 1.52801E+00    4.46953E+00
 1.58287E+00    4.87215E+00
 1.60000E+00    4.95319E+00
 1.61365E+00    5.09902E+00
 1.69967E+00    5.93191E+00
 1.70000E+00    5.90741E+00
 1.70849E+00    5.89520E+00
 1.75702E+00    6.38748E+00
 1.78163E+00    6.60611E+00
 1.78944E+00    6.61078E+00
 1.79232E+00    6.57697E+00
 1.79966E+00    6.58727E+00
 1.80000E+00    6.56388E+00
 1.82453E+00    6.68828E+00
 1.84668E+00    6.72316E+00
 1.89773E+00    6.95215E+00
 1.90000E+00    6.91807E+00
 1.91851E+00    7.05655E+00
 1.93206E+00    7.09725E+00
 1.99213E+00    7.47654E+00
 2.00000E+00    7.47363E+00
 2.00267E+00    7.48563E+00
 2.04101E+00    7.79776E+00
 2.04345E+00    7.78761E+00
 2.05967E+00    7.87047E+00
 2.08330E+00    8.04657E+00
 2.08692E+00    8.07927E+00
 2.09792E+00    8.11745E+00
 2.10445E+00    8.15971E+00
 2.11028E+00    8.18502E+00
 2.13410E+00    8.42440E+00
 2.15868E+00    8.52811E+00
 2.16380E+00    8.52029E+00
 2.18097E+00    8.65657E+00
 2.21247E+00    8.87292E+00
 2.22363E+00    8.99519E+00
 2.23510E+00    9.04860E+00
 2.24038E+00    9.05202E+00
 2.25000E+00    9.06722E+00
 2.50000E+00    1.56327E+02
 2.75000E+00    5.21661E+02
 3.00000E+00    8.13796E+02
 3.50000E+00    1.43859E+03
 4.00000E+00    1.84815E+03
 4.50000E+00    2.05621E+03
 5.00000E+00    2.14860E+03
 5.50000E+00    2.18754E+03
 6.00000E+00    2.20540E+03
 6.50000E+00    2.21585E+03
 7.00000E+00    2.22347E+03
 7.50000E+00    2.22855E+03
 8.00000E+00    2.04483E+03
 8.50000E+00    1.63665E+03
 9.00000E+00    1.26055E+03
 9.50000E+00    9.80214E+02
 1.00000E+01    7.87122E+02
 1.05000E+01    6.52075E+02
 1.10000E+01    5.56827E+02
 1.15000E+01    4.88907E+02
 1.20000E+01    4.37308E+02
 1.25000E+01    3.97691E+02
 1.30000E+01    3.65473E+02
 1.35000E+01    3.39147E+02
 1.40000E+01    3.16698E+02
 1.45000E+01    2.97370E+02
 1.50000E+01    2.80334E+02
 1.55000E+01    2.66168E+02
 1.60000E+01    2.51680E+02
 1.65000E+01    2.38453E+02
 1.70000E+01    2.27154E+02
 1.75000E+01    2.16345E+02
 1.80000E+01    2.06538E+02
 1.85000E+01    1.96478E+02
 1.90000E+01    1.88437E+02
 1.95000E+01    1.80429E+02
 2.00000E+01    1.72551E+02
