# n + Nd146 : (n,n'06)  
# jendl4.0   N.Iwamoto,A.Zukeran,K.Shibata     EVAL-Dec09
# uncertainties: n
# # energies =    80
#   E(MeV)       xs(mb) 
 1.38633E+00    0.00000E+00
 1.40000E+00    6.95414E+01
 1.48076E+00    1.26834E+02
 1.50000E+00    1.32368E+02
 1.52801E+00    1.40509E+02
 1.58287E+00    1.53500E+02
 1.60000E+00    1.54983E+02
 1.61365E+00    1.56745E+02
 1.69967E+00    1.64378E+02
 1.70000E+00    1.63370E+02
 1.70849E+00    1.60622E+02
 1.75702E+00    1.57977E+02
 1.78163E+00    1.57855E+02
 1.78944E+00    1.54927E+02
 1.79232E+00    1.54082E+02
 1.79966E+00    1.52891E+02
 1.80000E+00    1.52504E+02
 1.82453E+00    1.48070E+02
 1.84668E+00    1.40078E+02
 1.89773E+00    1.31802E+02
 1.90000E+00    1.31250E+02
 1.91851E+00    1.29350E+02
 1.93206E+00    1.27189E+02
 1.99213E+00    1.22311E+02
 2.00000E+00    1.21049E+02
 2.00267E+00    1.20794E+02
 2.04101E+00    1.17881E+02
 2.04345E+00    1.16573E+02
 2.05967E+00    1.14146E+02
 2.08330E+00    1.11696E+02
 2.08692E+00    1.11402E+02
 2.09792E+00    1.10053E+02
 2.10445E+00    1.09494E+02
 2.11028E+00    1.08745E+02
 2.13410E+00    1.06803E+02
 2.15868E+00    1.04421E+02
 2.16380E+00    1.03696E+02
 2.18097E+00    1.01860E+02
 2.21247E+00    9.88498E+01
 2.22363E+00    9.75991E+01
 2.23510E+00    9.62589E+01
 2.24038E+00    9.56778E+01
 2.25000E+00    9.37091E+01
 2.50000E+00    7.30745E+01
 2.75000E+00    5.42456E+01
 3.00000E+00    4.32035E+01
 3.50000E+00    2.39531E+01
 4.00000E+00    1.32589E+01
 4.50000E+00    7.61168E+00
 5.00000E+00    4.71418E+00
 5.50000E+00    3.23014E+00
 6.00000E+00    2.44660E+00
 6.50000E+00    2.00761E+00
 7.00000E+00    1.74097E+00
 7.50000E+00    1.56179E+00
 8.00000E+00    1.42743E+00
 8.50000E+00    1.31676E+00
 9.00000E+00    1.21942E+00
 9.50000E+00    1.13083E+00
 1.00000E+01    1.04933E+00
 1.05000E+01    9.75334E-01
 1.10000E+01    9.06626E-01
 1.15000E+01    8.46220E-01
 1.20000E+01    7.90906E-01
 1.25000E+01    7.42460E-01
 1.30000E+01    6.98437E-01
 1.35000E+01    6.59244E-01
 1.40000E+01    6.23710E-01
 1.45000E+01    5.91382E-01
 1.50000E+01    5.61780E-01
 1.55000E+01    5.35064E-01
 1.60000E+01    5.09327E-01
 1.65000E+01    4.84558E-01
 1.70000E+01    4.62784E-01
 1.75000E+01    4.41823E-01
 1.80000E+01    4.21380E-01
 1.85000E+01    4.01581E-01
 1.90000E+01    3.83374E-01
 1.95000E+01    3.66018E-01
 2.00000E+01    3.49993E-01
