# n + Nd146 : (n,xa)    
# jendl4.0   N.Iwamoto,A.Zukeran,K.Shibata     EVAL-Dec09
# 
# # energies =   113
#   E(MeV)        xs(mb) 
 1.05000E-01    7.62343E-06
 1.10000E-01    7.61377E-06
 1.20000E-01    7.62595E-06
 1.30000E-01    7.65217E-06
 1.40000E-01    7.71327E-06
 1.50000E-01    7.78608E-06
 1.60000E-01    7.85888E-06
 1.70000E-01    7.96924E-06
 1.80000E-01    8.07960E-06
 1.90000E-01    8.21937E-06
 2.00000E-01    8.35913E-06
 2.25000E-01    8.86674E-06
 2.50000E-01    9.44785E-06
 2.75000E-01    1.00869E-05
 3.00000E-01    1.08161E-05
 4.00000E-01    1.49413E-05
 4.56907E-01    1.86064E-05
 5.00000E-01    1.18994E-05
 6.00000E-01    1.34517E-05
 7.00000E-01    1.75457E-05
 8.00000E-01    2.39500E-05
 9.00000E-01    3.36092E-05
 9.21728E-01    3.62533E-05
 1.00000E+00    4.55725E-05
 1.04942E+00    5.34413E-05
 1.10000E+00    5.67252E-05
 1.19784E+00    7.30722E-05
 1.20000E+00    6.97187E-05
 1.30000E+00    8.57228E-05
 1.31211E+00    8.84061E-05
 1.38633E+00    9.74060E-05
 1.40000E+00    9.51159E-05
 1.48076E+00    1.11975E-04
 1.50000E+00    1.12663E-04
 1.52801E+00    1.18943E-04
 1.58287E+00    1.33506E-04
 1.60000E+00    1.37839E-04
 1.61365E+00    1.42120E-04
 1.69967E+00    1.72380E-04
 1.70000E+00    1.71841E-04
 1.70849E+00    1.73146E-04
 1.75702E+00    1.91098E-04
 1.78163E+00    1.99235E-04
 1.78944E+00    2.00415E-04
 1.78945E+00    2.00412E-04
 1.79232E+00    1.99692E-04
 1.79966E+00    2.01139E-04
 1.80000E+00    2.00501E-04
 1.82453E+00    2.04696E-04
 1.84668E+00    2.09451E-04
 1.89773E+00    2.23606E-04
 1.90000E+00    2.23102E-04
 1.91851E+00    2.28978E-04
 1.93206E+00    2.31459E-04
 1.99213E+00    2.53662E-04
 2.00000E+00    2.55311E-04
 2.00267E+00    2.56121E-04
 2.04101E+00    2.71337E-04
 2.04345E+00    2.71624E-04
 2.05967E+00    2.78680E-04
 2.08330E+00    2.88959E-04
 2.08692E+00    2.90534E-04
 2.09792E+00    2.94476E-04
 2.10445E+00    2.97488E-04
 2.11028E+00    3.00177E-04
 2.13410E+00    3.11164E-04
 2.15868E+00    3.22205E-04
 2.16380E+00    3.23316E-04
 2.16381E+00    3.23321E-04
 2.18097E+00    3.31570E-04
 2.21247E+00    3.47847E-04
 2.22363E+00    3.52484E-04
 2.23509E+00    3.57246E-04
 2.23510E+00    3.57250E-04
 2.24038E+00    3.59315E-04
 2.25000E+00    3.62841E-04
 2.50000E+00    5.55577E-04
 2.75000E+00    8.01815E-04
 3.00000E+00    1.17682E-03
 3.50000E+00    2.28756E-03
 4.00000E+00    3.96726E-03
 4.50000E+00    6.23974E-03
 5.00000E+00    9.10192E-03
 5.50000E+00    1.26066E-02
 6.00000E+00    1.70431E-02
 6.50000E+00    2.33118E-02
 7.00000E+00    3.35109E-02
 7.50000E+00    5.19959E-02
 8.00000E+00    7.59058E-02
 8.50000E+00    1.01227E-01
 9.00000E+00    1.42052E-01
 9.50000E+00    2.08495E-01
 1.00000E+01    3.10904E-01
 1.05000E+01    4.59705E-01
 1.10000E+01    6.66555E-01
 1.15000E+01    9.40858E-01
 1.20000E+01    1.28829E+00
 1.25000E+01    1.71155E+00
 1.30000E+01    2.20781E+00
 1.35000E+01    2.77223E+00
 1.40000E+01    3.39590E+00
 1.45000E+01    4.06761E+00
 1.50000E+01    4.77938E+00
 1.55000E+01    5.52580E+00
 1.60000E+01    6.28775E+00
 1.65000E+01    7.06031E+00
 1.70000E+01    7.83331E+00
 1.75000E+01    8.60524E+00
 1.80000E+01    9.37204E+00
 1.85000E+01    1.01228E+01
 1.90000E+01    1.08600E+01
 1.95000E+01    1.15734E+01
 2.00000E+01    1.21544E+01
