# n + Nd146 : (n,n'11)  
# jendl4.0   N.Iwamoto,A.Zukeran,K.Shibata     EVAL-Dec09
# uncertainties: n
# # energies =    72
#   E(MeV)       xs(mb) 
 1.69967E+00    0.00000E+00
 1.70000E+00    5.85196E+00
 1.70849E+00    2.43439E+01
 1.75702E+00    5.06096E+01
 1.78163E+00    5.87235E+01
 1.78944E+00    5.89578E+01
 1.79232E+00    5.93297E+01
 1.79966E+00    6.07898E+01
 1.80000E+00    6.07348E+01
 1.82453E+00    6.49197E+01
 1.84668E+00    6.68989E+01
 1.89773E+00    7.28991E+01
 1.90000E+00    7.27992E+01
 1.91851E+00    7.41226E+01
 1.93206E+00    7.45560E+01
 1.99213E+00    7.88938E+01
 2.00000E+00    7.89359E+01
 2.00267E+00    7.89982E+01
 2.04101E+00    8.01618E+01
 2.04345E+00    7.97373E+01
 2.05967E+00    7.96505E+01
 2.08330E+00    7.97945E+01
 2.08692E+00    7.98563E+01
 2.09792E+00    7.95310E+01
 2.10445E+00    7.94544E+01
 2.11028E+00    7.92673E+01
 2.13410E+00    7.88625E+01
 2.15868E+00    7.79209E+01
 2.16380E+00    7.74877E+01
 2.18097E+00    7.67690E+01
 2.21247E+00    7.56644E+01
 2.22363E+00    7.52046E+01
 2.23510E+00    7.46594E+01
 2.24038E+00    7.43694E+01
 2.25000E+00    7.35292E+01
 2.50000E+00    6.68359E+01
 2.75000E+00    5.47866E+01
 3.00000E+00    4.59360E+01
 3.50000E+00    2.68148E+01
 4.00000E+00    1.49561E+01
 4.50000E+00    8.42025E+00
 5.00000E+00    4.99223E+00
 5.50000E+00    3.22795E+00
 6.00000E+00    2.31225E+00
 6.50000E+00    1.81856E+00
 7.00000E+00    1.53466E+00
 7.50000E+00    1.35636E+00
 8.00000E+00    1.23144E+00
 8.50000E+00    1.13384E+00
 9.00000E+00    1.05091E+00
 9.50000E+00    9.76782E-01
 1.00000E+01    9.08927E-01
 1.05000E+01    8.47148E-01
 1.10000E+01    7.89314E-01
 1.15000E+01    7.38043E-01
 1.20000E+01    6.90738E-01
 1.25000E+01    6.49078E-01
 1.30000E+01    6.11013E-01
 1.35000E+01    5.77199E-01
 1.40000E+01    5.46359E-01
 1.45000E+01    5.18467E-01
 1.50000E+01    4.92818E-01
 1.55000E+01    4.69762E-01
 1.60000E+01    4.47433E-01
 1.65000E+01    4.26107E-01
 1.70000E+01    4.07302E-01
 1.75000E+01    3.89117E-01
 1.80000E+01    3.71583E-01
 1.85000E+01    3.54315E-01
 1.90000E+01    3.38526E-01
 1.95000E+01    3.23570E-01
 2.00000E+01    3.09602E-01
