# n + Nd146 : (n,el)    
# jendl4.0   N.Iwamoto,A.Zukeran,K.Shibata     EVAL-Dec09
# uncertainties: n
# # energies =   171
#   E(MeV)       xs(mb) 
 1.00000E-11    1.54330E+04
 1.00000E-07    9.75442E+03
 4.13990E-07    9.74300E+03
 5.31580E-07    9.73774E+03
 6.82560E-07    9.73099E+03
 8.76420E-07    9.72235E+03
 1.12540E-06    9.71238E+03
 1.44500E-06    9.70025E+03
 1.85540E-06    9.68482E+03
 2.37240E-06    9.66485E+03
 3.05900E-06    9.63898E+03
 3.92790E-06    9.60601E+03
 5.04350E-06    9.56366E+03
 6.47600E-06    9.50929E+03
 8.31530E-06    9.43948E+03
 1.06770E-05    9.34983E+03
 1.37100E-05    9.23762E+03
 1.76030E-05    9.10924E+03
 2.26030E-05    8.94435E+03
 2.92030E-05    8.74353E+03
 3.72670E-05    8.51507E+03
 4.78510E-05    8.23902E+03
 6.14420E-05    7.92283E+03
 7.88930E-05    7.56672E+03
 1.01300E-04    7.17149E+03
 1.30070E-04    6.74020E+03
 1.67020E-04    6.27140E+03
 2.14450E-04    5.75213E+03
 2.75360E-04    5.00489E+03
 3.53580E-04    8.70100E+03
 4.54000E-04    3.99353E+03
 5.82950E-04    2.78768E+03
 7.48520E-04    2.59078E+04
 9.61120E-04    1.37507E+05
 1.23410E-03    3.31523E+04
 1.58460E-03    2.26349E+04
 2.03470E-03    1.58496E+04
 2.24870E-03    1.04996E+03
 2.48520E-03    2.37011E+05
 2.61260E-03    1.37724E+05
 2.74650E-03    3.23819E+04
 3.03540E-03    1.79946E+04
 3.35460E-03    6.96338E+04
 3.70740E-03    5.29223E+04
 4.30740E-03    1.97417E+04
 5.53080E-03    2.11311E+04
 7.10170E-03    1.22054E+04
 9.11880E-03    2.07441E+04
 1.17090E-02    1.99705E+04
 1.50340E-02    1.80334E+04
 1.93050E-02    1.67026E+04
 2.18750E-02    1.60440E+04
 2.35790E-02    1.57244E+04
 2.41760E-02    1.55673E+04
 2.47880E-02    1.53349E+04
 2.60580E-02    1.50744E+04
 2.70000E-02    1.48055E+04
 2.85000E-02    1.43276E+04
 3.18280E-02    1.38128E+04
 3.43070E-02    1.31531E+04
 4.08680E-02    1.23989E+04
 4.63090E-02    1.18058E+04
 5.24750E-02    1.13626E+04
 5.65620E-02    1.08391E+04
 6.73790E-02    1.03541E+04
 7.20000E-02    1.00412E+04
 7.95000E-02    9.79183E+03
 8.25000E-02    9.64336E+03
 8.65170E-02    9.34817E+03
 9.80370E-02    8.94444E+03
 1.11090E-01    8.68318E+03
 1.16790E-01    8.53804E+03
 1.22770E-01    8.39523E+03
 1.29070E-01    8.26203E+03
 1.35690E-01    8.14415E+03
 1.42640E-01    8.02802E+03
 1.49960E-01    7.91345E+03
 1.57640E-01    7.80043E+03
 1.65730E-01    7.68921E+03
 1.74220E-01    7.57951E+03
 1.83160E-01    7.47133E+03
 1.92550E-01    7.36583E+03
 2.02420E-01    7.28792E+03
 2.12800E-01    7.21886E+03
 2.23710E-01    7.14627E+03
 2.35180E-01    7.07221E+03
 2.47240E-01    6.97149E+03
 2.73240E-01    6.86542E+03
 2.87250E-01    6.81330E+03
 2.94520E-01    6.79264E+03
 2.97200E-01    6.78439E+03
 2.98500E-01    6.77453E+03
 3.01970E-01    6.72521E+03
 3.33730E-01    6.64278E+03
 3.68830E-01    6.57631E+03
 3.87740E-01    6.53820E+03
 4.07620E-01    6.50518E+03
 4.50490E-01    6.25040E+03
 4.97870E-01    5.88736E+03
 5.23400E-01    5.84214E+03
 5.50230E-01    5.79574E+03
 5.78440E-01    5.74813E+03
 6.08100E-01    5.72154E+03
 6.39280E-01    5.70275E+03
 6.72060E-01    5.68301E+03
 7.06510E-01    5.66839E+03
 7.42740E-01    5.66196E+03
 7.80820E-01    5.65700E+03
 8.20850E-01    5.66179E+03
 8.62940E-01    5.66842E+03
 9.07180E-01    5.65883E+03
 9.61640E-01    5.61162E+03
 1.00260E+00    5.57415E+03
 1.10800E+00    5.55413E+03
 1.16480E+00    5.53649E+03
 1.22460E+00    5.48909E+03
 1.28730E+00    5.41962E+03
 1.35340E+00    5.29071E+03
 1.42270E+00    5.19378E+03
 1.49570E+00    5.07546E+03
 1.57240E+00    4.95819E+03
 1.65300E+00    4.84570E+03
 1.73770E+00    4.73050E+03
 1.82680E+00    4.60140E+03
 1.92050E+00    4.48690E+03
 2.01900E+00    4.36712E+03
 2.12250E+00    4.23430E+03
 2.23130E+00    4.12310E+03
 2.30690E+00    4.06292E+03
 2.34570E+00    4.03249E+03
 2.36530E+00    4.01194E+03
 2.38520E+00    3.95991E+03
 2.46600E+00    3.85665E+03
 2.59240E+00    3.72854E+03
 2.72530E+00    3.59701E+03
 2.86500E+00    3.46371E+03
 3.01190E+00    3.33158E+03
 3.16640E+00    3.19911E+03
 3.32870E+00    3.00982E+03
 3.67880E+00    2.76361E+03
 4.06570E+00    2.53801E+03
 4.49330E+00    2.38483E+03
 4.72370E+00    2.29385E+03
 4.96590E+00    2.21228E+03
 5.22050E+00    2.14284E+03
 5.48810E+00    2.08503E+03
 5.76950E+00    2.03897E+03
 6.06530E+00    2.00957E+03
 6.37630E+00    1.99194E+03
 6.59240E+00    1.99015E+03
 6.70320E+00    1.99159E+03
 7.04690E+00    2.00447E+03
 7.40820E+00    2.05369E+03
 7.78800E+00    2.08025E+03
 8.18730E+00    2.12855E+03
 8.60710E+00    2.19113E+03
 9.04840E+00    2.26112E+03
 9.51230E+00    2.33473E+03
 1.00000E+01    2.40933E+03
 1.05130E+01    2.48449E+03
 1.10520E+01    2.55509E+03
 1.16180E+01    2.62224E+03
 1.22140E+01    2.67945E+03
 1.28400E+01    2.72996E+03
 1.34990E+01    2.75889E+03
 1.38400E+01    2.77728E+03
 1.41910E+01    2.78806E+03
 1.45500E+01    2.79791E+03
 1.49180E+01    2.80491E+03
 1.56830E+01    2.80115E+03
 1.64870E+01    2.78089E+03
