# n + Nd146 : (n,n'05)  
# jendl4.0   N.Iwamoto,A.Zukeran,K.Shibata     EVAL-Dec09
# uncertainties: n
# # energies =    81
#   E(MeV)       xs(mb) 
 1.31211E+00    0.00000E+00
 1.38633E+00    2.28657E+02
 1.40000E+00    2.35910E+02
 1.48076E+00    2.73110E+02
 1.50000E+00    2.64851E+02
 1.52801E+00    2.68209E+02
 1.58287E+00    2.77149E+02
 1.60000E+00    2.79183E+02
 1.61365E+00    2.81320E+02
 1.69967E+00    2.87697E+02
 1.70000E+00    2.87165E+02
 1.70849E+00    2.86103E+02
 1.75702E+00    2.82097E+02
 1.78163E+00    2.79317E+02
 1.78944E+00    2.77217E+02
 1.79232E+00    2.74173E+02
 1.79966E+00    2.71422E+02
 1.80000E+00    2.69831E+02
 1.82453E+00    2.58177E+02
 1.84668E+00    2.52898E+02
 1.89773E+00    2.38905E+02
 1.90000E+00    2.38217E+02
 1.91851E+00    2.35817E+02
 1.93206E+00    2.29810E+02
 1.99213E+00    2.21086E+02
 2.00000E+00    2.17502E+02
 2.00267E+00    2.16942E+02
 2.04101E+00    2.10629E+02
 2.04345E+00    2.09988E+02
 2.05967E+00    2.07818E+02
 2.08330E+00    2.04997E+02
 2.08692E+00    2.04627E+02
 2.09792E+00    2.03148E+02
 2.10445E+00    2.02484E+02
 2.11028E+00    2.01497E+02
 2.13410E+00    1.97897E+02
 2.15868E+00    1.92093E+02
 2.16380E+00    1.89866E+02
 2.18097E+00    1.86014E+02
 2.21247E+00    1.81377E+02
 2.22363E+00    1.78215E+02
 2.23510E+00    1.74692E+02
 2.24038E+00    1.72919E+02
 2.25000E+00    1.70608E+02
 2.50000E+00    1.37136E+02
 2.75000E+00    1.01642E+02
 3.00000E+00    7.73937E+01
 3.50000E+00    4.12240E+01
 4.00000E+00    2.14565E+01
 4.50000E+00    1.12608E+01
 5.00000E+00    6.25284E+00
 5.50000E+00    3.84623E+00
 6.00000E+00    2.67441E+00
 6.50000E+00    2.07622E+00
 7.00000E+00    1.74537E+00
 7.50000E+00    1.54080E+00
 8.00000E+00    1.39688E+00
 8.50000E+00    1.28302E+00
 9.00000E+00    1.18513E+00
 9.50000E+00    1.09716E+00
 1.00000E+01    1.01683E+00
 1.05000E+01    9.44264E-01
 1.10000E+01    8.77166E-01
 1.15000E+01    8.18367E-01
 1.20000E+01    7.64576E-01
 1.25000E+01    7.17639E-01
 1.30000E+01    6.74874E-01
 1.35000E+01    6.36960E-01
 1.40000E+01    6.02462E-01
 1.45000E+01    5.71117E-01
 1.50000E+01    5.42346E-01
 1.55000E+01    5.16354E-01
 1.60000E+01    4.91324E-01
 1.65000E+01    4.67502E-01
 1.70000E+01    4.46234E-01
 1.75000E+01    4.25960E-01
 1.80000E+01    4.06294E-01
 1.85000E+01    3.86934E-01
 1.90000E+01    3.69317E-01
 1.95000E+01    3.52686E-01
 2.00000E+01    3.37136E-01
