# n + Nd146 : (n,n'07)  
# jendl4.0   N.Iwamoto,A.Zukeran,K.Shibata     EVAL-Dec09
# uncertainties: n
# # energies =    78
#   E(MeV)       xs(mb) 
 1.48076E+00    0.00000E+00
 1.50000E+00    1.06123E+02
 1.52801E+00    1.41485E+02
 1.58287E+00    1.74002E+02
 1.60000E+00    1.80418E+02
 1.61365E+00    1.85142E+02
 1.69967E+00    2.07167E+02
 1.70000E+00    2.06875E+02
 1.70849E+00    2.07349E+02
 1.75702E+00    2.13994E+02
 1.78163E+00    2.16904E+02
 1.78944E+00    2.16364E+02
 1.79232E+00    2.14318E+02
 1.79966E+00    2.13067E+02
 1.80000E+00    2.11804E+02
 1.82453E+00    2.04430E+02
 1.84668E+00    2.01261E+02
 1.89773E+00    1.90524E+02
 1.90000E+00    1.89898E+02
 1.91851E+00    1.87405E+02
 1.93206E+00    1.82158E+02
 1.99213E+00    1.74356E+02
 2.00000E+00    1.71646E+02
 2.00267E+00    1.71265E+02
 2.04101E+00    1.67914E+02
 2.04345E+00    1.67497E+02
 2.05967E+00    1.66470E+02
 2.08330E+00    1.65198E+02
 2.08692E+00    1.65007E+02
 2.09792E+00    1.64124E+02
 2.10445E+00    1.63779E+02
 2.11028E+00    1.63206E+02
 2.13410E+00    1.61481E+02
 2.15868E+00    1.57787E+02
 2.16380E+00    1.56139E+02
 2.18097E+00    1.53735E+02
 2.21247E+00    1.50712E+02
 2.22363E+00    1.48478E+02
 2.23510E+00    1.45926E+02
 2.24038E+00    1.44635E+02
 2.25000E+00    1.43037E+02
 2.50000E+00    1.20684E+02
 2.75000E+00    9.29308E+01
 3.00000E+00    7.32524E+01
 3.50000E+00    3.95172E+01
 4.00000E+00    2.07370E+01
 4.50000E+00    1.09713E+01
 5.00000E+00    6.13743E+00
 5.50000E+00    3.80161E+00
 6.00000E+00    2.65886E+00
 6.50000E+00    2.07228E+00
 7.00000E+00    1.74645E+00
 7.50000E+00    1.54469E+00
 8.00000E+00    1.40283E+00
 8.50000E+00    1.29082E+00
 9.00000E+00    1.19468E+00
 9.50000E+00    1.10819E+00
 1.00000E+01    1.02896E+00
 1.05000E+01    9.57046E-01
 1.10000E+01    8.90160E-01
 1.15000E+01    8.31221E-01
 1.20000E+01    7.77209E-01
 1.25000E+01    7.29735E-01
 1.30000E+01    6.86700E-01
 1.35000E+01    6.48239E-01
 1.40000E+01    6.13484E-01
 1.45000E+01    5.81784E-01
 1.50000E+01    5.52819E-01
 1.55000E+01    5.26708E-01
 1.60000E+01    5.01408E-01
 1.65000E+01    4.77239E-01
 1.70000E+01    4.55970E-01
 1.75000E+01    4.35336E-01
 1.80000E+01    4.15370E-01
 1.85000E+01    3.96023E-01
 1.90000E+01    3.78002E-01
 1.95000E+01    3.61077E-01
 2.00000E+01    3.45411E-01
