# n + Nd146 : (n,n'12)  
# jendl4.0   N.Iwamoto,A.Zukeran,K.Shibata     EVAL-Dec09
# uncertainties: n
# # energies =    70
#   E(MeV)       xs(mb) 
 1.70849E+00    0.00000E+00
 1.75702E+00    2.37123E+01
 1.78163E+00    2.69381E+01
 1.78944E+00    2.76880E+01
 1.79232E+00    2.79563E+01
 1.79966E+00    2.86415E+01
 1.80000E+00    2.86653E+01
 1.82453E+00    3.06117E+01
 1.84668E+00    3.16649E+01
 1.89773E+00    3.38928E+01
 1.90000E+00    3.39928E+01
 1.91851E+00    3.46890E+01
 1.93206E+00    3.49640E+01
 1.99213E+00    3.65235E+01
 2.00000E+00    3.65679E+01
 2.00267E+00    3.66215E+01
 2.04101E+00    3.70763E+01
 2.04345E+00    3.69554E+01
 2.05967E+00    3.69117E+01
 2.08330E+00    3.69693E+01
 2.08692E+00    3.69804E+01
 2.09792E+00    3.70153E+01
 2.10445E+00    3.70408E+01
 2.11028E+00    3.65978E+01
 2.13410E+00    3.60323E+01
 2.15868E+00    3.54046E+01
 2.16380E+00    3.51874E+01
 2.18097E+00    3.42828E+01
 2.21247E+00    3.36273E+01
 2.22363E+00    3.34002E+01
 2.23510E+00    3.31315E+01
 2.24038E+00    3.30048E+01
 2.25000E+00    3.27168E+01
 2.50000E+00    2.92829E+01
 2.75000E+00    2.36109E+01
 3.00000E+00    1.94811E+01
 3.50000E+00    1.09018E+01
 4.00000E+00    5.98966E+00
 4.50000E+00    3.45599E+00
 5.00000E+00    2.18466E+00
 5.50000E+00    1.54188E+00
 6.00000E+00    1.20355E+00
 6.50000E+00    1.01133E+00
 7.00000E+00    8.90785E-01
 7.50000E+00    8.06800E-01
 8.00000E+00    7.41980E-01
 8.50000E+00    6.87624E-01
 9.00000E+00    6.39411E-01
 9.50000E+00    5.95297E-01
 1.00000E+01    5.54431E-01
 1.05000E+01    5.16999E-01
 1.10000E+01    4.81839E-01
 1.15000E+01    4.50616E-01
 1.20000E+01    4.21775E-01
 1.25000E+01    3.96365E-01
 1.30000E+01    3.73132E-01
 1.35000E+01    3.52497E-01
 1.40000E+01    3.33668E-01
 1.45000E+01    3.16644E-01
 1.50000E+01    3.00984E-01
 1.55000E+01    2.86888E-01
 1.60000E+01    2.73276E-01
 1.65000E+01    2.60238E-01
 1.70000E+01    2.48778E-01
 1.75000E+01    2.37661E-01
 1.80000E+01    2.26946E-01
 1.85000E+01    2.16422E-01
 1.90000E+01    2.06774E-01
 1.95000E+01    1.97632E-01
 2.00000E+01    1.89123E-01
