# n + As 75 : (n,xa)    
# endfb8.0   T.Kawano                          EVAL-MAR10
# 
# # energies =    84
#   E(MeV)        xs(mb) 
 2.01280E-01    0.00000E+00
 2.50000E-01    0.00000E+00
 2.68221E-01    0.00000E+00
 2.83307E-01    0.00000E+00
 3.00000E-01    0.00000E+00
 3.08016E-01    0.00000E+00
 3.50000E-01    0.00000E+00
 4.00000E-01    0.00000E+00
 4.06052E-01    0.00000E+00
 4.50000E-01    0.00000E+00
 4.75061E-01    0.00000E+00
 5.00000E-01    0.00000E+00
 5.80076E-01    0.00000E+00
 5.92876E-01    0.00000E+00
 6.00000E-01    0.00000E+00
 6.26006E-01    0.00000E+00
 7.00000E-01    0.00000E+00
 8.00000E-01    0.00000E+00
 8.32722E-01    0.00000E+00
 8.71375E-01    0.00000E+00
 8.76645E-01    0.00000E+00
 8.98333E-01    0.00000E+00
 9.00000E-01    0.00000E+00
 1.00000E+00    0.00000E+00
 1.05745E+00    2.25617E-13
 1.07762E+00    3.04825E-13
 1.08897E+00    3.49405E-13
 1.09535E+00    3.74481E-13
 1.10000E+00    3.92740E-13
 1.11106E+00    4.23625E-13
 1.11501E+00    4.34666E-13
 1.14187E+00    5.09672E-13
 1.14410E+00    5.15897E-13
 1.18778E+00    6.37889E-13
 1.20000E+00    6.72020E-13
 1.21980E+00    1.10244E-12
 1.28102E+00    2.43283E-12
 1.30000E+00    2.84540E-12
 1.31983E+00    4.23090E-12
 1.32703E+00    4.73353E-12
 1.36747E+00    7.55844E-12
 1.38926E+00    9.08058E-12
 1.40000E+00    9.83120E-12
 1.43932E+00    1.83242E-11
 1.44976E+00    2.05790E-11
 1.45077E+00    2.07979E-11
 1.50000E+00    3.14310E-11
 1.60000E+00    9.64290E-11
 1.70000E+00    2.79260E-10
 1.80000E+00    7.65530E-10
 1.90000E+00    1.99900E-09
 2.00000E+00    4.99030E-09
 2.50000E+00    2.73210E-07
 3.00000E+00    6.72004E-06
 3.50000E+00    9.16238E-05
 4.00000E+00    6.86752E-04
 4.50000E+00    4.04460E-03
 5.00000E+00    1.69383E-02
 5.50000E+00    5.13691E-02
 6.00000E+00    1.19167E-01
 6.50000E+00    2.55001E-01
 7.00000E+00    4.97227E-01
 7.50000E+00    8.66698E-01
 8.00000E+00    1.35020E+00
 8.50000E+00    1.90541E+00
 9.00000E+00    2.49112E+00
 9.50000E+00    3.09085E+00
 1.00000E+01    3.68289E+00
 1.05000E+01    4.31328E+00
 1.10000E+01    5.07281E+00
 1.15000E+01    5.82130E+00
 1.20000E+01    6.60793E+00
 1.25000E+01    7.64989E+00
 1.30000E+01    8.62884E+00
 1.35000E+01    9.84594E+00
 1.40000E+01    1.10414E+01
 1.45000E+01    1.24636E+01
 1.50000E+01    1.38896E+01
 1.55000E+01    1.55127E+01
 1.60000E+01    1.71604E+01
 1.70000E+01    2.06619E+01
 1.80000E+01    2.41557E+01
 1.90000E+01    2.75070E+01
 2.00000E+01    3.04664E+01
