# n + As 75 : (n,xn)    
# endfb8.0   T.Kawano                          EVAL-MAR10
# 
# # energies =    84
#   E(MeV)        xs(mb) 
 2.01280E-01    0.00000E+00
 2.50000E-01    8.59499E+01
 2.68221E-01    9.91820E+01
 2.83307E-01    1.64592E+02
 3.00000E-01    3.47118E+02
 3.08016E-01    3.80559E+02
 3.50000E-01    5.68851E+02
 4.00000E-01    7.25951E+02
 4.06052E-01    7.36528E+02
 4.50000E-01    9.09188E+02
 4.75061E-01    9.57207E+02
 5.00000E-01    1.04987E+03
 5.80076E-01    1.18186E+03
 5.92876E-01    1.21955E+03
 6.00000E-01    1.24780E+03
 6.26006E-01    1.28039E+03
 7.00000E-01    1.39744E+03
 8.00000E-01    1.47878E+03
 8.32722E-01    1.48219E+03
 8.71375E-01    1.49918E+03
 8.76645E-01    1.50306E+03
 8.98333E-01    1.53259E+03
 9.00000E-01    1.53667E+03
 1.00000E+00    1.58064E+03
 1.05745E+00    1.57966E+03
 1.07762E+00    1.58488E+03
 1.08897E+00    1.59245E+03
 1.09535E+00    1.60022E+03
 1.10000E+00    1.61097E+03
 1.11106E+00    1.61066E+03
 1.11501E+00    1.61134E+03
 1.14187E+00    1.61894E+03
 1.14410E+00    1.61984E+03
 1.18778E+00    1.64244E+03
 1.20000E+00    1.65068E+03
 1.21980E+00    1.65233E+03
 1.28102E+00    1.66847E+03
 1.30000E+00    1.67856E+03
 1.31983E+00    1.67646E+03
 1.32703E+00    1.67704E+03
 1.36747E+00    1.68734E+03
 1.38926E+00    1.69689E+03
 1.40000E+00    1.70465E+03
 1.43932E+00    1.70699E+03
 1.44976E+00    1.70918E+03
 1.45077E+00    1.70953E+03
 1.50000E+00    1.72830E+03
 1.60000E+00    1.75204E+03
 1.70000E+00    1.77649E+03
 1.80000E+00    1.80197E+03
 1.90000E+00    1.82844E+03
 2.00000E+00    1.85556E+03
 2.50000E+00    1.98197E+03
 3.00000E+00    2.05012E+03
 3.50000E+00    2.06030E+03
 4.00000E+00    2.03535E+03
 4.50000E+00    1.99577E+03
 5.00000E+00    1.95329E+03
 5.50000E+00    1.91182E+03
 6.00000E+00    1.87390E+03
 6.50000E+00    1.84127E+03
 7.00000E+00    1.81552E+03
 7.50000E+00    1.79583E+03
 8.00000E+00    1.78042E+03
 8.50000E+00    1.76761E+03
 9.00000E+00    1.75646E+03
 9.50000E+00    1.74635E+03
 1.00000E+01    1.73695E+03
 1.05000E+01    1.72722E+03
 1.10000E+01    1.76958E+03
 1.15000E+01    1.95018E+03
 1.20000E+01    2.14476E+03
 1.25000E+01    2.32437E+03
 1.30000E+01    2.44977E+03
 1.35000E+01    2.56590E+03
 1.40000E+01    2.64050E+03
 1.45000E+01    2.70814E+03
 1.50000E+01    2.74166E+03
 1.55000E+01    2.76827E+03
 1.60000E+01    2.78136E+03
 1.70000E+01    2.77374E+03
 1.80000E+01    2.74920E+03
 1.90000E+01    2.71951E+03
 2.00000E+01    2.70461E+03
