# n + As 75 : (n,xp)    
# endfb8.0   T.Kawano                          EVAL-MAR10
# 
# # energies =    84
#   E(MeV)        xs(mb) 
 2.01280E-01    0.00000E+00
 2.50000E-01    0.00000E+00
 2.68221E-01    0.00000E+00
 2.83307E-01    0.00000E+00
 3.00000E-01    0.00000E+00
 3.08016E-01    0.00000E+00
 3.50000E-01    0.00000E+00
 4.00000E-01    7.89460E-16
 4.06052E-01    3.79378E-15
 4.50000E-01    2.56104E-14
 4.75061E-01    1.16292E-13
 5.00000E-01    2.68770E-13
 5.80076E-01    1.13035E-12
 5.92876E-01    1.32736E-12
 6.00000E-01    1.44080E-12
 6.26006E-01    1.85924E-12
 7.00000E-01    3.22747E-12
 8.00000E-01    5.23760E-12
 8.32722E-01    1.29041E-11
 8.71375E-01    2.19789E-11
 8.76645E-01    2.32237E-11
 8.98333E-01    2.83464E-11
 9.00000E-01    2.87400E-11
 1.00000E+00    1.06470E-09
 1.05745E+00    1.20026E-08
 1.07762E+00    1.58420E-08
 1.08897E+00    1.80032E-08
 1.09535E+00    1.92188E-08
 1.10000E+00    2.01040E-08
 1.11106E+00    4.07820E-08
 1.11501E+00    4.81735E-08
 1.14187E+00    9.83906E-08
 1.14410E+00    1.02559E-07
 1.18778E+00    1.84237E-07
 1.20000E+00    2.07090E-07
 1.21980E+00    4.49813E-07
 1.28102E+00    1.20005E-06
 1.30000E+00    1.43272E-06
 1.31983E+00    2.59933E-06
 1.32703E+00    3.02255E-06
 1.36747E+00    5.40118E-06
 1.38926E+00    6.68285E-06
 1.40000E+00    7.31489E-06
 1.43932E+00    1.61247E-05
 1.44976E+00    1.84636E-05
 1.45077E+00    1.86906E-05
 1.50000E+00    2.97204E-05
 1.60000E+00    1.00107E-04
 1.70000E+00    2.89977E-04
 1.80000E+00    7.41750E-04
 1.90000E+00    1.70787E-03
 2.00000E+00    3.59328E-03
 2.50000E+00    5.33992E-02
 3.00000E+00    2.65441E-01
 3.50000E+00    7.00587E-01
 4.00000E+00    1.28055E+00
 4.50000E+00    1.94532E+00
 5.00000E+00    2.69551E+00
 5.50000E+00    3.54768E+00
 6.00000E+00    4.40173E+00
 6.50000E+00    5.22429E+00
 7.00000E+00    5.98135E+00
 7.50000E+00    6.66047E+00
 8.00000E+00    7.32460E+00
 8.50000E+00    8.02892E+00
 9.00000E+00    8.91809E+00
 9.50000E+00    1.05341E+01
 1.00000E+01    1.45584E+01
 1.05000E+01    2.17349E+01
 1.10000E+01    3.08327E+01
 1.15000E+01    3.74483E+01
 1.20000E+01    3.88168E+01
 1.25000E+01    4.20667E+01
 1.30000E+01    4.48035E+01
 1.35000E+01    4.90508E+01
 1.40000E+01    5.35398E+01
 1.45000E+01    5.83737E+01
 1.50000E+01    6.42637E+01
 1.55000E+01    6.94424E+01
 1.60000E+01    7.68856E+01
 1.70000E+01    8.84900E+01
 1.80000E+01    9.91644E+01
 1.90000E+01    1.08736E+02
 2.00000E+01    1.17664E+02
