# n + Al 27 : (n,any)   
# endfb8.0   M.B.Chadwick+,Derrien+            EVAL-FEB01
# uncertainties: n
# # energies =   155
#   E(MeV)       xs(mb) 
 2.00000E+01    0.00000E+00
 2.00000E+01    8.54988E+02
 2.09452E+01    8.40668E+02
 2.10000E+01    8.39879E+02
 2.13282E+01    8.35262E+02
 2.15394E+01    8.32389E+02
 2.20000E+01    8.26400E+02
 2.29082E+01    8.15359E+02
 2.30000E+01    8.14283E+02
 2.33497E+01    8.10243E+02
 2.40000E+01    8.02970E+02
 2.50000E+01    7.92367E+02
 2.53373E+01    7.88930E+02
 2.54920E+01    7.87371E+02
 2.55163E+01    7.87128E+02
 2.60000E+01    7.82330E+02
 2.70000E+01    7.72439E+02
 2.73136E+01    7.69315E+02
 2.80000E+01    7.62450E+02
 2.85532E+01    7.56621E+02
 2.90000E+01    7.51570E+02
 2.91676E+01    7.49616E+02
 3.00000E+01    7.39600E+02
 3.00414E+01    7.39094E+02
 3.10000E+01    7.27557E+02
 3.20000E+01    7.15880E+02
 3.20445E+01    7.15369E+02
 3.21504E+01    7.14154E+02
 3.30000E+01    7.04542E+02
 3.31217E+01    7.03184E+02
 3.33986E+01    7.00112E+02
 3.34659E+01    6.99368E+02
 3.37734E+01    6.95990E+02
 3.40000E+01    6.93519E+02
 3.48175E+01    6.84727E+02
 3.48303E+01    6.84591E+02
 3.50000E+01    6.82790E+02
 3.57643E+01    6.74745E+02
 3.60000E+01    6.72289E+02
 3.60437E+01    6.71835E+02
 3.67303E+01    6.64779E+02
 3.68945E+01    6.63115E+02
 3.70000E+01    6.62051E+02
 3.80000E+01    6.52190E+02
 3.90000E+01    6.42794E+02
 4.00000E+01    6.33930E+02
 4.08955E+01    6.26558E+02
 4.10000E+01    6.25734E+02
 4.16422E+01    6.20798E+02
 4.20000E+01    6.18130E+02
 4.29023E+01    6.11581E+02
 4.30000E+01    6.10884E+02
 4.38518E+01    6.04848E+02
 4.40000E+01    6.03801E+02
 4.46713E+01    5.99056E+02
 4.50000E+01    5.96720E+02
 4.60000E+01    5.89354E+02
 4.60540E+01    5.88946E+02
 4.62345E+01    5.87582E+02
 4.68100E+01    5.83217E+02
 4.70000E+01    5.81778E+02
 4.76784E+01    5.76703E+02
 4.80000E+01    5.74347E+02
 4.80189E+01    5.74210E+02
 4.85376E+01    5.70517E+02
 4.87769E+01    5.68864E+02
 4.90000E+01    5.67356E+02
 4.96833E+01    5.62960E+02
 4.97153E+01    5.62763E+02
 5.00000E+01    5.61050E+02
 5.10000E+01    5.55396E+02
 5.20000E+01    5.50102E+02
 5.25696E+01    5.47185E+02
 5.30000E+01    5.45009E+02
 5.40000E+01    5.39981E+02
 5.50000E+01    5.34900E+02
 5.53837E+01    5.32937E+02
 5.60000E+01    5.29826E+02
 5.70000E+01    5.24883E+02
 5.75286E+01    5.22322E+02
 5.80000E+01    5.20068E+02
 5.81285E+01    5.19458E+02
 5.90000E+01    5.15375E+02
 5.90699E+01    5.15052E+02
 6.00000E+01    5.10800E+02
 6.03172E+01    5.09368E+02
 6.10000E+01    5.06302E+02
 6.20000E+01    5.01876E+02
 6.30000E+01    4.97568E+02
 6.34321E+01    4.95754E+02
 6.40000E+01    4.93418E+02
 6.50000E+01    4.89460E+02
 6.60000E+01    4.85862E+02
 6.70000E+01    4.82653E+02
 6.80000E+01    4.79672E+02
 6.81426E+01    4.79257E+02
 6.84924E+01    4.78243E+02
 6.90000E+01    4.76774E+02
 7.00000E+01    4.73830E+02
 7.10000E+01    4.70837E+02
 7.20000E+01    4.67882E+02
 7.30000E+01    4.64978E+02
 7.39278E+01    4.62340E+02
 7.40000E+01    4.62138E+02
 7.50000E+01    4.59370E+02
 7.60000E+01    4.56741E+02
 7.70000E+01    4.54320E+02
 7.80000E+01    4.52118E+02
 7.90000E+01    4.50148E+02
 8.00000E+01    4.48420E+02
 8.10000E+01    4.46996E+02
 8.20000E+01    4.45891E+02
 8.30000E+01    4.45049E+02
 8.40000E+01    4.44418E+02
 8.50000E+01    4.43950E+02
 8.60000E+01    4.43605E+02
 8.70000E+01    4.43333E+02
 8.80000E+01    4.43077E+02
 8.90000E+01    4.42783E+02
 9.00000E+01    4.42400E+02
 9.10000E+01    4.41960E+02
 9.20000E+01    4.41518E+02
 9.30000E+01    4.41061E+02
 9.40000E+01    4.40578E+02
 9.50000E+01    4.40060E+02
 9.60000E+01    4.39514E+02
 9.70000E+01    4.38955E+02
 9.80000E+01    4.38381E+02
 9.90000E+01    4.37793E+02
 1.00000E+02    4.37190E+02
 1.02000E+02    4.35960E+02
 1.04000E+02    4.34715E+02
 1.06000E+02    4.33463E+02
 1.08000E+02    4.32213E+02
 1.10000E+02    4.30970E+02
 1.12000E+02    4.29676E+02
 1.14000E+02    4.28313E+02
 1.16000E+02    4.26942E+02
 1.18000E+02    4.25618E+02
 1.20000E+02    4.24390E+02
 1.22000E+02    4.23286E+02
 1.24000E+02    4.22317E+02
 1.26000E+02    4.21495E+02
 1.28000E+02    4.20832E+02
 1.30000E+02    4.20340E+02
 1.32000E+02    4.20069E+02
 1.34000E+02    4.19982E+02
 1.36000E+02    4.19961E+02
 1.38000E+02    4.19900E+02
 1.40000E+02    4.19700E+02
 1.42000E+02    4.19396E+02
 1.44000E+02    4.19075E+02
 1.46000E+02    4.18725E+02
 1.48000E+02    4.18337E+02
 1.50000E+02    4.17900E+02
