# n + Sn118 : (n,n'01)  
# jeff3.3    N.Iwamoto,K.Shibata               EVAL-Dec09
# uncertainties: n
# # energies =    86
#   E(MeV)       xs(mb) 
 1.24019E+00    0.00000E+00
 1.30000E+00    2.80630E+02
 1.40000E+00    4.75532E+02
 1.50000E+00    5.95290E+02
 1.60000E+00    6.75441E+02
 1.70000E+00    7.39697E+02
 1.77335E+00    7.80891E+02
 1.80000E+00    7.90127E+02
 1.90000E+00    8.24318E+02
 2.00000E+00    8.57210E+02
 2.06036E+00    8.68376E+02
 2.07451E+00    8.56364E+02
 2.13814E+00    8.26694E+02
 2.25000E+00    7.50267E+02
 2.29985E+00    7.28232E+02
 2.34109E+00    7.02130E+02
 2.34474E+00    7.00001E+02
 2.34794E+00    6.94503E+02
 2.42378E+00    6.21933E+02
 2.42860E+00    6.15784E+02
 2.50000E+00    5.57924E+02
 2.51016E+00    5.51107E+02
 2.51824E+00    5.44912E+02
 2.55164E+00    5.22152E+02
 2.59694E+00    4.97148E+02
 2.59905E+00    4.96087E+02
 2.70026E+00    4.46367E+02
 2.74831E+00    4.25239E+02
 2.75000E+00    4.23957E+02
 2.75718E+00    4.20312E+02
 2.76143E+00    4.18069E+02
 2.79767E+00    3.99834E+02
 2.84110E+00    3.81218E+02
 2.84127E+00    3.81150E+02
 2.90333E+00    3.57078E+02
 2.91372E+00    3.53530E+02
 2.92871E+00    3.48603E+02
 2.95478E+00    3.39173E+02
 2.95910E+00    3.37387E+02
 2.98879E+00    3.26306E+02
 2.99743E+00    3.23298E+02
 3.00000E+00    3.25163E+02
 3.01659E+00    3.19564E+02
 3.02511E+00    3.16414E+02
 3.04101E+00    3.11216E+02
 3.04584E+00    3.09536E+02
 3.07443E+00    3.00279E+02
 3.07827E+00    2.99049E+02
 3.08338E+00    2.97486E+02
 3.11564E+00    2.87255E+02
 3.13465E+00    2.81732E+02
 3.16432E+00    2.73937E+02
 3.50000E+00    2.08358E+02
 4.00000E+00    1.50279E+02
 4.50000E+00    1.21395E+02
 5.00000E+00    1.08343E+02
 5.50000E+00    1.03024E+02
 6.00000E+00    1.00062E+02
 6.50000E+00    9.66780E+01
 7.00000E+00    9.21781E+01
 7.50000E+00    8.69024E+01
 8.00000E+00    8.14253E+01
 8.50000E+00    7.62190E+01
 9.00000E+00    7.15643E+01
 9.50000E+00    6.75644E+01
 1.00000E+01    6.41856E+01
 1.05000E+01    6.14748E+01
 1.10000E+01    5.87852E+01
 1.15000E+01    5.65646E+01
 1.20000E+01    5.43576E+01
 1.25000E+01    5.24385E+01
 1.30000E+01    5.05309E+01
 1.35000E+01    4.89665E+01
 1.40000E+01    4.74122E+01
 1.45000E+01    4.61883E+01
 1.50000E+01    4.49724E+01
 1.55000E+01    4.39662E+01
 1.60000E+01    4.29670E+01
 1.65000E+01    4.20670E+01
 1.70000E+01    4.11734E+01
 1.75000E+01    4.03308E+01
 1.80000E+01    3.94941E+01
 1.85000E+01    3.86995E+01
 1.90000E+01    3.79103E+01
 1.95000E+01    3.71781E+01
 2.00000E+01    3.64509E+01
