# n + Sn118 : (n,xn)    
# jeff3.3    N.Iwamoto,K.Shibata               EVAL-Dec09
# 
# # energies =   111
#   E(MeV)        xs(mb) 
 1.05000E-01    0.00000E+00
 1.10000E-01    5.18571E-04
 1.20000E-01    5.69733E-04
 1.30000E-01    5.85962E-04
 1.40000E-01    5.99841E-04
 1.50000E-01    6.16605E-04
 1.60000E-01    6.34073E-04
 1.70000E-01    6.55629E-04
 1.80000E-01    6.78041E-04
 1.90000E-01    7.00229E-04
 2.00000E-01    7.21542E-04
 2.25000E-01    4.01435E-03
 2.50000E-01    4.40751E-03
 2.75000E-01    4.89315E-03
 3.00000E-01    5.42250E-03
 4.00000E-01    1.98563E-02
 5.00000E-01    5.22690E-02
 6.00000E-01    1.13522E-01
 7.00000E-01    2.17376E-01
 8.00000E-01    3.80852E-01
 9.00000E-01    6.24531E-01
 1.00000E+00    9.72864E-01
 1.10000E+00    1.46231E+00
 1.20000E+00    2.12070E+00
 1.24019E+00    2.54839E+00
 1.30000E+00    2.82823E+02
 1.40000E+00    4.78071E+02
 1.50000E+00    5.98365E+02
 1.60000E+00    6.79177E+02
 1.70000E+00    7.44250E+02
 1.77335E+00    7.86211E+02
 1.80000E+00    8.16657E+02
 1.90000E+00    8.94446E+02
 2.00000E+00    9.56035E+02
 2.06036E+00    9.79807E+02
 2.07451E+00    1.00499E+03
 2.13814E+00    1.08026E+03
 2.25000E+00    1.21776E+03
 2.29985E+00    1.25467E+03
 2.34109E+00    1.29677E+03
 2.34474E+00    1.30046E+03
 2.34794E+00    1.30736E+03
 2.42378E+00    1.41154E+03
 2.42860E+00    1.42021E+03
 2.50000E+00    1.50382E+03
 2.51016E+00    1.51203E+03
 2.51824E+00    1.51931E+03
 2.55164E+00    1.54797E+03
 2.59694E+00    1.57940E+03
 2.59905E+00    1.58076E+03
 2.70026E+00    1.64550E+03
 2.74831E+00    1.67373E+03
 2.75000E+00    1.67525E+03
 2.75718E+00    1.67967E+03
 2.76143E+00    1.68232E+03
 2.79767E+00    1.70487E+03
 2.84110E+00    1.72862E+03
 2.84127E+00    1.72871E+03
 2.90333E+00    1.76051E+03
 2.91372E+00    1.76548E+03
 2.92871E+00    1.77260E+03
 2.95478E+00    1.78596E+03
 2.95910E+00    1.78853E+03
 2.98879E+00    1.80437E+03
 2.99743E+00    1.80874E+03
 3.00000E+00    1.81339E+03
 3.01659E+00    1.82011E+03
 3.02511E+00    1.82383E+03
 3.04101E+00    1.83027E+03
 3.04584E+00    1.83225E+03
 3.07443E+00    1.84380E+03
 3.07827E+00    1.84529E+03
 3.08337E+00    1.84726E+03
 3.08338E+00    1.84726E+03
 3.11564E+00    1.86018E+03
 3.13465E+00    1.86760E+03
 3.16432E+00    1.87831E+03
 3.50000E+00    1.98301E+03
 4.00000E+00    2.11311E+03
 4.50000E+00    2.20943E+03
 5.00000E+00    2.25999E+03
 5.50000E+00    2.27052E+03
 6.00000E+00    2.25590E+03
 6.50000E+00    2.22872E+03
 7.00000E+00    2.19722E+03
 7.50000E+00    2.16665E+03
 8.00000E+00    2.14027E+03
 8.50000E+00    2.11915E+03
 9.00000E+00    2.10245E+03
 9.50000E+00    2.12360E+03
 1.00000E+01    2.18809E+03
 1.05000E+01    2.49558E+03
 1.10000E+01    2.79773E+03
 1.15000E+01    3.02617E+03
 1.20000E+01    3.18752E+03
 1.25000E+01    3.30455E+03
 1.30000E+01    3.38591E+03
 1.35000E+01    3.44305E+03
 1.40000E+01    3.48419E+03
 1.45000E+01    3.51021E+03
 1.50000E+01    3.52927E+03
 1.55000E+01    3.53714E+03
 1.60000E+01    3.54282E+03
 1.65000E+01    3.53885E+03
 1.70000E+01    3.53545E+03
 1.75000E+01    3.52890E+03
 1.80000E+01    3.53510E+03
 1.85000E+01    3.54443E+03
 1.90000E+01    3.56393E+03
 1.95000E+01    3.58820E+03
 2.00000E+01    3.62678E+03
