# n + Ra226 : (n,n'15)  
# jeff3.3    A.J. Koning and D. Rochman        EVAL-DEC15
# uncertainties: n
# # energies =    80
#   E(MeV)       xs(mb) 
 1.07528E+00    0.00000E+00
 1.08201E+00    1.76545E+00
 1.11194E+00    9.61677E+00
 1.12741E+00    1.36749E+01
 1.13816E+00    1.64949E+01
 1.14509E+00    1.83127E+01
 1.16136E+00    2.25807E+01
 1.20000E+00    3.27169E+01
 1.22544E+00    3.57776E+01
 1.24443E+00    3.80623E+01
 1.28621E+00    4.30890E+01
 1.33594E+00    4.90720E+01
 1.39620E+00    5.63220E+01
 1.40000E+00    5.67792E+01
 1.42634E+00    5.77144E+01
 1.42885E+00    5.78035E+01
 1.44422E+00    5.83493E+01
 1.45245E+00    5.86415E+01
 1.60000E+00    6.38803E+01
 1.80000E+00    6.02923E+01
 2.00000E+00    5.12096E+01
 2.20000E+00    4.06147E+01
 2.40000E+00    3.07968E+01
 2.60000E+00    2.25939E+01
 2.80000E+00    1.60490E+01
 3.00000E+00    1.10544E+01
 3.20000E+00    7.42307E+00
 3.40000E+00    4.88935E+00
 3.60000E+00    3.17690E+00
 3.80000E+00    2.04085E+00
 4.00000E+00    1.30126E+00
 4.20000E+00    8.25249E-01
 4.40000E+00    5.21029E-01
 4.60000E+00    3.27734E-01
 4.80000E+00    2.05628E-01
 5.00000E+00    1.28897E-01
 5.20000E+00    8.08918E-02
 5.40000E+00    5.07181E-02
 5.60000E+00    3.20467E-02
 5.80000E+00    2.03674E-02
 6.00000E+00    1.30538E-02
 6.20000E+00    8.40663E-03
 6.40000E+00    5.48023E-03
 6.60000E+00    3.59294E-03
 6.80000E+00    2.37585E-03
 7.00000E+00    1.58621E-03
 7.20000E+00    1.06462E-03
 7.40000E+00    7.22277E-04
 7.60000E+00    4.93020E-04
 7.80000E+00    3.38831E-04
 8.00000E+00    2.34755E-04
 8.50000E+00    9.61751E-05
 9.00000E+00    4.07979E-05
 9.50000E+00    1.78683E-05
 1.00000E+01    8.06223E-06
 1.05000E+01    3.74300E-06
 1.10000E+01    1.78540E-06
 1.15000E+01    8.74070E-07
 1.20000E+01    4.38800E-07
 1.25000E+01    2.25520E-07
 1.30000E+01    1.18470E-07
 1.35000E+01    6.35030E-08
 1.40000E+01    3.46770E-08
 1.45000E+01    1.92620E-08
 1.50000E+01    1.08740E-08
 1.60000E+01    3.62900E-09
 1.70000E+01    1.27880E-09
 1.80000E+01    4.78600E-10
 1.90000E+01    1.88700E-10
 2.00000E+01    7.79890E-11
 2.10000E+01    3.36220E-11
 2.20000E+01    1.50220E-11
 2.30000E+01    6.94660E-12
 2.40000E+01    3.31880E-12
 2.50000E+01    1.63790E-12
 2.60000E+01    8.34810E-13
 2.70000E+01    4.39220E-13
 2.80000E+01    2.37660E-13
 2.90000E+01    1.32030E-13
 3.00000E+01    7.51560E-14
