# n + Ra226 : (n,n'14)  
# jeff3.3    A.J. Koning and D. Rochman        EVAL-DEC15
# uncertainties: n
# # energies =    81
#   E(MeV)       xs(mb) 
 1.05348E+00    0.00000E+00
 1.07528E+00    6.22925E+00
 1.08201E+00    8.15235E+00
 1.11194E+00    1.67048E+01
 1.12741E+00    2.11253E+01
 1.13816E+00    2.41970E+01
 1.14509E+00    2.61772E+01
 1.16136E+00    3.08264E+01
 1.20000E+00    4.18676E+01
 1.22544E+00    4.41672E+01
 1.24443E+00    4.58838E+01
 1.28621E+00    4.96605E+01
 1.33594E+00    5.41558E+01
 1.39620E+00    5.96030E+01
 1.40000E+00    5.99465E+01
 1.42634E+00    6.01408E+01
 1.42885E+00    6.01593E+01
 1.44422E+00    6.02726E+01
 1.45245E+00    6.03333E+01
 1.60000E+00    6.14216E+01
 1.80000E+00    5.46473E+01
 2.00000E+00    4.45952E+01
 2.20000E+00    3.43687E+01
 2.40000E+00    2.55598E+01
 2.60000E+00    1.85833E+01
 2.80000E+00    1.32512E+01
 3.00000E+00    9.31255E+00
 3.20000E+00    6.51458E+00
 3.40000E+00    4.59458E+00
 3.60000E+00    3.31291E+00
 3.80000E+00    2.47017E+00
 4.00000E+00    1.92447E+00
 4.20000E+00    1.57380E+00
 4.40000E+00    1.34919E+00
 4.60000E+00    1.20564E+00
 4.80000E+00    1.11415E+00
 5.00000E+00    1.05598E+00
 5.20000E+00    1.01911E+00
 5.40000E+00    9.95698E-01
 5.60000E+00    9.81233E-01
 5.80000E+00    9.72518E-01
 6.00000E+00    9.67737E-01
 6.20000E+00    9.65690E-01
 6.40000E+00    9.65671E-01
 6.60000E+00    9.67119E-01
 6.80000E+00    9.69663E-01
 7.00000E+00    9.73006E-01
 7.20000E+00    9.76902E-01
 7.40000E+00    9.81190E-01
 7.60000E+00    9.85742E-01
 7.80000E+00    9.90474E-01
 8.00000E+00    9.95310E-01
 8.50000E+00    1.00729E+00
 9.00000E+00    1.01785E+00
 9.50000E+00    1.02558E+00
 1.00000E+01    1.02997E+00
 1.05000E+01    1.03140E+00
 1.10000E+01    1.03069E+00
 1.15000E+01    1.02870E+00
 1.20000E+01    1.02613E+00
 1.25000E+01    1.02350E+00
 1.30000E+01    1.02105E+00
 1.35000E+01    1.01874E+00
 1.40000E+01    1.01626E+00
 1.45000E+01    1.01321E+00
 1.50000E+01    1.00917E+00
 1.60000E+01    9.97068E-01
 1.70000E+01    9.79584E-01
 1.80000E+01    9.58813E-01
 1.90000E+01    9.38461E-01
 2.00000E+01    9.22412E-01
 2.10000E+01    9.13108E-01
 2.20000E+01    9.10563E-01
 2.30000E+01    9.12661E-01
 2.40000E+01    9.16612E-01
 2.50000E+01    9.20455E-01
 2.60000E+01    9.23668E-01
 2.70000E+01    9.26793E-01
 2.80000E+01    9.30720E-01
 2.90000E+01    9.36068E-01
 3.00000E+01    9.42808E-01
