# n + Ra226 : (n,n'17)  
# jeff3.3    A.J. Koning and D. Rochman        EVAL-DEC15
# uncertainties: n
# # energies =    78
#   E(MeV)       xs(mb) 
 1.11194E+00    0.00000E+00
 1.12741E+00    2.51557E+00
 1.13816E+00    4.26362E+00
 1.14509E+00    5.39050E+00
 1.16136E+00    8.03616E+00
 1.20000E+00    1.43194E+01
 1.22544E+00    1.62689E+01
 1.24443E+00    1.77242E+01
 1.28621E+00    2.09259E+01
 1.33594E+00    2.47369E+01
 1.39620E+00    2.93548E+01
 1.40000E+00    2.96460E+01
 1.42634E+00    3.05932E+01
 1.42885E+00    3.06835E+01
 1.44422E+00    3.12362E+01
 1.45245E+00    3.15322E+01
 1.60000E+00    3.68384E+01
 1.80000E+00    3.68519E+01
 2.00000E+00    3.26671E+01
 2.20000E+00    2.71335E+01
 2.40000E+00    2.16720E+01
 2.60000E+00    1.67336E+01
 2.80000E+00    1.24183E+01
 3.00000E+00    8.85813E+00
 3.20000E+00    6.12487E+00
 3.40000E+00    4.14401E+00
 3.60000E+00    2.76438E+00
 3.80000E+00    1.82329E+00
 4.00000E+00    1.19357E+00
 4.20000E+00    7.76957E-01
 4.40000E+00    5.03194E-01
 4.60000E+00    3.24357E-01
 4.80000E+00    2.08261E-01
 5.00000E+00    1.33394E-01
 5.20000E+00    8.54055E-02
 5.40000E+00    5.45619E-02
 5.60000E+00    3.50934E-02
 5.80000E+00    2.26878E-02
 6.00000E+00    1.47853E-02
 6.20000E+00    9.67559E-03
 6.40000E+00    6.40892E-03
 6.60000E+00    4.26724E-03
 6.80000E+00    2.86397E-03
 7.00000E+00    1.93970E-03
 7.20000E+00    1.31954E-03
 7.40000E+00    9.06626E-04
 7.60000E+00    6.26163E-04
 7.80000E+00    4.34966E-04
 8.00000E+00    3.04298E-04
 8.50000E+00    1.27198E-04
 9.00000E+00    5.47654E-05
 9.50000E+00    2.42489E-05
 1.00000E+01    1.10335E-05
 1.05000E+01    5.15893E-06
 1.10000E+01    2.47699E-06
 1.15000E+01    1.22042E-06
 1.20000E+01    6.16520E-07
 1.25000E+01    3.18780E-07
 1.30000E+01    1.68420E-07
 1.35000E+01    9.07410E-08
 1.40000E+01    4.97830E-08
 1.45000E+01    2.77720E-08
 1.50000E+01    1.57400E-08
 1.60000E+01    5.29280E-09
 1.70000E+01    1.87940E-09
 1.80000E+01    7.09010E-10
 1.90000E+01    2.81800E-10
 2.00000E+01    1.17340E-10
 2.10000E+01    5.09140E-11
 2.20000E+01    2.28670E-11
 2.30000E+01    1.06180E-11
 2.40000E+01    5.09010E-12
 2.50000E+01    2.51950E-12
 2.60000E+01    1.28790E-12
 2.70000E+01    6.79550E-13
 2.80000E+01    3.68770E-13
 2.90000E+01    2.05440E-13
 3.00000E+01    1.17240E-13
