# n + Ra226 : (n,n'20)  
# jeff3.3    A.J. Koning and D. Rochman        EVAL-DEC15
# uncertainties: n
# # energies =    75
#   E(MeV)       xs(mb) 
 1.14509E+00    0.00000E+00
 1.16136E+00    1.21295E+00
 1.20000E+00    4.09360E+00
 1.22544E+00    7.13838E+00
 1.24443E+00    9.41119E+00
 1.28621E+00    1.44116E+01
 1.33594E+00    2.03636E+01
 1.39620E+00    2.75758E+01
 1.40000E+00    2.80306E+01
 1.42634E+00    2.98661E+01
 1.42885E+00    3.00410E+01
 1.44422E+00    3.11121E+01
 1.45245E+00    3.16856E+01
 1.60000E+00    4.19677E+01
 1.80000E+00    4.33685E+01
 2.00000E+00    3.96137E+01
 2.20000E+00    3.52559E+01
 2.40000E+00    3.07907E+01
 2.60000E+00    2.55821E+01
 2.80000E+00    1.97288E+01
 3.00000E+00    1.41579E+01
 3.20000E+00    9.64288E+00
 3.40000E+00    6.35500E+00
 3.60000E+00    4.10576E+00
 3.80000E+00    2.61528E+00
 4.00000E+00    1.65168E+00
 4.20000E+00    1.03753E+00
 4.40000E+00    6.49102E-01
 4.60000E+00    4.04650E-01
 4.80000E+00    2.51496E-01
 5.00000E+00    1.56016E-01
 5.20000E+00    9.67949E-02
 5.40000E+00    5.99765E-02
 5.60000E+00    3.74643E-02
 5.80000E+00    2.35668E-02
 6.00000E+00    1.49831E-02
 6.20000E+00    9.58949E-03
 6.40000E+00    6.23515E-03
 6.60000E+00    4.08908E-03
 6.80000E+00    2.71241E-03
 7.00000E+00    1.82244E-03
 7.20000E+00    1.23401E-03
 7.40000E+00    8.46632E-04
 7.60000E+00    5.85495E-04
 7.80000E+00    4.08204E-04
 8.00000E+00    2.87120E-04
 8.50000E+00    1.22244E-04
 9.00000E+00    5.37049E-05
 9.50000E+00    2.42133E-05
 1.00000E+01    1.11802E-05
 1.05000E+01    5.28719E-06
 1.10000E+01    2.56063E-06
 1.15000E+01    1.27001E-06
 1.20000E+01    6.44900E-07
 1.25000E+01    3.34820E-07
 1.30000E+01    1.77480E-07
 1.35000E+01    9.58900E-08
 1.40000E+01    5.27340E-08
 1.45000E+01    2.94830E-08
 1.50000E+01    1.67460E-08
 1.60000E+01    5.65620E-09
 1.70000E+01    2.01840E-09
 1.80000E+01    7.65580E-10
 1.90000E+01    3.05900E-10
 2.00000E+01    1.27980E-10
 2.10000E+01    5.57500E-11
 2.20000E+01    2.51240E-11
 2.30000E+01    1.17030E-11
 2.40000E+01    5.62670E-12
 2.50000E+01    2.79290E-12
 2.60000E+01    1.43130E-12
 2.70000E+01    7.57060E-13
 2.80000E+01    4.11760E-13
 2.90000E+01    2.29890E-13
 3.00000E+01    1.31480E-13
