# n + Ra226 : (n,n'10)  
# jeff3.3    A.J. Koning and D. Rochman        EVAL-DEC15
# uncertainties: n
# # energies =    87
#   E(MeV)       xs(mb) 
 8.28280E-01    0.00000E+00
 8.61427E-01    9.98386E+00
 8.77599E-01    1.48548E+01
 9.00000E-01    2.16020E+01
 9.64184E-01    3.70442E+01
 1.00000E+00    4.56613E+01
 1.05348E+00    5.05631E+01
 1.07528E+00    5.25612E+01
 1.08201E+00    5.31781E+01
 1.11194E+00    5.59214E+01
 1.12741E+00    5.73393E+01
 1.13816E+00    5.83246E+01
 1.14509E+00    5.89598E+01
 1.16136E+00    6.04511E+01
 1.20000E+00    6.39927E+01
 1.22544E+00    6.35265E+01
 1.24443E+00    6.31784E+01
 1.28621E+00    6.24127E+01
 1.33594E+00    6.15013E+01
 1.39620E+00    6.03969E+01
 1.40000E+00    6.03273E+01
 1.42634E+00    5.94498E+01
 1.42885E+00    5.93661E+01
 1.44422E+00    5.88540E+01
 1.45245E+00    5.85798E+01
 1.60000E+00    5.36640E+01
 1.80000E+00    4.72116E+01
 2.00000E+00    4.07500E+01
 2.20000E+00    3.33610E+01
 2.40000E+00    2.52597E+01
 2.60000E+00    1.76960E+01
 2.80000E+00    1.16609E+01
 3.00000E+00    7.37480E+00
 3.20000E+00    4.54763E+00
 3.40000E+00    2.76487E+00
 3.60000E+00    1.67090E+00
 3.80000E+00    1.00673E+00
 4.00000E+00    6.06860E-01
 4.20000E+00    3.66243E-01
 4.40000E+00    2.21040E-01
 4.60000E+00    1.33271E-01
 4.80000E+00    8.02827E-02
 5.00000E+00    4.83845E-02
 5.20000E+00    2.92362E-02
 5.40000E+00    1.76792E-02
 5.60000E+00    1.08017E-02
 5.80000E+00    6.64785E-03
 6.00000E+00    4.13844E-03
 6.20000E+00    2.59605E-03
 6.40000E+00    1.65261E-03
 6.60000E+00    1.06214E-03
 6.80000E+00    6.90559E-04
 7.00000E+00    4.54960E-04
 7.20000E+00    3.02399E-04
 7.40000E+00    2.03805E-04
 7.60000E+00    1.38512E-04
 7.80000E+00    9.50034E-05
 8.00000E+00    6.57430E-05
 8.50000E+00    2.68848E-05
 9.00000E+00    1.13463E-05
 9.50000E+00    4.92147E-06
 1.00000E+01    2.19155E-06
 1.05000E+01    1.00194E-06
 1.10000E+01    4.70140E-07
 1.15000E+01    2.26450E-07
 1.20000E+01    1.11990E-07
 1.25000E+01    5.68060E-08
 1.30000E+01    2.95130E-08
 1.35000E+01    1.56710E-08
 1.40000E+01    8.48700E-09
 1.45000E+01    4.67900E-09
 1.50000E+01    2.62260E-09
 1.60000E+01    8.63610E-10
 1.70000E+01    3.00810E-10
 1.80000E+01    1.11630E-10
 1.90000E+01    4.38010E-11
 2.00000E+01    1.80680E-11
 2.10000E+01    7.78320E-12
 2.20000E+01    3.47250E-12
 2.30000E+01    1.60070E-12
 2.40000E+01    7.60980E-13
 2.50000E+01    3.73530E-13
 2.60000E+01    1.89510E-13
 2.70000E+01    9.94140E-14
 2.80000E+01    5.37400E-14
 2.90000E+01    2.98710E-14
 3.00000E+01    1.70190E-14
