# n + Se 80 : (n,el)    
# jendl4.0   S.Kamada, K.Shibata, A.Ichihara+  EVAL-MAY09
# uncertainties: n
# # energies =   171
#   E(MeV)       xs(mb) 
 1.00000E-11    1.30717E+04
 1.00000E-07    6.95580E+03
 4.13990E-07    6.95124E+03
 5.31580E-07    6.95065E+03
 6.82560E-07    6.94989E+03
 8.76420E-07    6.94891E+03
 1.12540E-06    6.94765E+03
 1.44500E-06    6.94605E+03
 1.85540E-06    6.94446E+03
 2.37240E-06    6.94266E+03
 3.05900E-06    6.94032E+03
 3.92790E-06    6.93734E+03
 5.04350E-06    6.93352E+03
 6.47600E-06    6.92861E+03
 8.31530E-06    6.92231E+03
 1.06770E-05    6.91422E+03
 1.37100E-05    6.90382E+03
 1.76030E-05    6.89048E+03
 2.26030E-05    6.87310E+03
 2.92030E-05    6.85105E+03
 3.72670E-05    6.82310E+03
 4.78510E-05    6.78683E+03
 6.14420E-05    6.74025E+03
 7.88930E-05    6.68045E+03
 1.01300E-04    6.60367E+03
 1.30070E-04    6.50506E+03
 1.67020E-04    6.37846E+03
 2.14450E-04    6.21591E+03
 2.75360E-04    6.00642E+03
 3.53580E-04    5.72404E+03
 4.54000E-04    5.35306E+03
 5.82950E-04    4.84349E+03
 7.48520E-04    4.11841E+03
 9.61120E-04    3.00623E+03
 1.23410E-03    1.24057E+03
 1.58460E-03    1.73161E+05
 2.03470E-03    8.06075E+04
 2.24870E-03    2.29108E+04
 2.48520E-03    1.51499E+04
 2.61260E-03    1.24945E+04
 2.74650E-03    9.77698E+03
 3.03540E-03    6.99225E+03
 3.35460E-03    4.26572E+03
 3.70740E-03    5.52048E+04
 4.30740E-03    6.89622E+04
 5.53080E-03    2.29839E+04
 7.10170E-03    1.18077E+04
 9.11880E-03    1.16805E+04
 1.17090E-02    1.23967E+04
 1.50340E-02    1.18167E+04
 1.93050E-02    1.13394E+04
 2.18750E-02    1.11864E+04
 2.35790E-02    1.11085E+04
 2.41760E-02    1.10680E+04
 2.47880E-02    1.10051E+04
 2.60580E-02    1.09307E+04
 2.70000E-02    1.08490E+04
 2.85000E-02    1.07020E+04
 3.18280E-02    1.05771E+04
 3.43070E-02    1.04024E+04
 4.08680E-02    1.02084E+04
 4.63090E-02    1.00566E+04
 5.24750E-02    9.94310E+03
 5.65620E-02    9.80305E+03
 6.73790E-02    9.67523E+03
 7.20000E-02    9.59201E+03
 7.95000E-02    9.52235E+03
 8.25000E-02    9.48134E+03
 8.65170E-02    9.39525E+03
 9.80370E-02    9.28052E+03
 1.11090E-01    9.20955E+03
 1.16790E-01    9.16616E+03
 1.22770E-01    9.12054E+03
 1.29070E-01    9.07255E+03
 1.35690E-01    9.02214E+03
 1.42640E-01    8.96913E+03
 1.49960E-01    8.91341E+03
 1.57640E-01    8.85483E+03
 1.65730E-01    8.79324E+03
 1.74220E-01    8.72849E+03
 1.83160E-01    8.66040E+03
 1.92550E-01    8.58930E+03
 2.02420E-01    8.52537E+03
 2.12800E-01    8.46279E+03
 2.23710E-01    8.39702E+03
 2.35180E-01    8.32786E+03
 2.47240E-01    8.21695E+03
 2.73240E-01    8.09839E+03
 2.87250E-01    8.03558E+03
 2.94520E-01    8.00625E+03
 2.97200E-01    7.99454E+03
 2.98500E-01    7.98092E+03
 3.01970E-01    7.89053E+03
 3.33730E-01    7.71698E+03
 3.68830E-01    7.57556E+03
 3.87740E-01    7.47549E+03
 4.07620E-01    7.32687E+03
 4.50490E-01    7.11408E+03
 4.97870E-01    6.94654E+03
 5.23400E-01    6.83747E+03
 5.50230E-01    6.72286E+03
 5.78440E-01    6.60255E+03
 6.08100E-01    6.47979E+03
 6.39280E-01    6.35220E+03
 6.72060E-01    6.10036E+03
 7.06510E-01    5.78974E+03
 7.42740E-01    5.52320E+03
 7.80820E-01    5.25298E+03
 8.20850E-01    5.02626E+03
 8.62940E-01    4.79777E+03
 9.07180E-01    4.57711E+03
 9.61640E-01    4.38165E+03
 1.00260E+00    4.18731E+03
 1.10800E+00    4.00642E+03
 1.16480E+00    3.87743E+03
 1.22460E+00    3.74190E+03
 1.28730E+00    3.59942E+03
 1.35340E+00    3.44962E+03
 1.42270E+00    3.27885E+03
 1.49570E+00    3.07040E+03
 1.57240E+00    2.97906E+03
 1.65300E+00    2.88361E+03
 1.73770E+00    2.76346E+03
 1.82680E+00    2.62356E+03
 1.92050E+00    2.40828E+03
 2.01900E+00    2.28921E+03
 2.12250E+00    2.24739E+03
 2.23130E+00    2.19013E+03
 2.30690E+00    2.15381E+03
 2.34570E+00    2.12920E+03
 2.36530E+00    2.10691E+03
 2.38520E+00    2.03020E+03
 2.46600E+00    1.94188E+03
 2.59240E+00    1.98744E+03
 2.72530E+00    1.99870E+03
 2.86500E+00    1.86425E+03
 3.01190E+00    1.80734E+03
 3.16640E+00    1.82523E+03
 3.32870E+00    1.71934E+03
 3.67880E+00    1.74364E+03
 4.06570E+00    1.81020E+03
 4.49330E+00    1.86642E+03
 4.72370E+00    1.90649E+03
 4.96590E+00    1.94733E+03
 5.22050E+00    1.98450E+03
 5.48810E+00    2.02131E+03
 5.76950E+00    2.05489E+03
 6.06530E+00    2.08446E+03
 6.37630E+00    2.10670E+03
 6.59240E+00    2.11769E+03
 6.70320E+00    2.13008E+03
 7.04690E+00    2.14646E+03
 7.40820E+00    2.15716E+03
 7.78800E+00    2.16177E+03
 8.18730E+00    2.15877E+03
 8.60710E+00    2.14978E+03
 9.04840E+00    2.13428E+03
 9.51230E+00    2.11149E+03
 1.00000E+01    2.08857E+03
 1.05130E+01    2.04407E+03
 1.10520E+01    1.99437E+03
 1.16180E+01    1.94193E+03
 1.22140E+01    1.88290E+03
 1.28400E+01    1.81985E+03
 1.34990E+01    1.77083E+03
 1.38400E+01    1.73717E+03
 1.41910E+01    1.70318E+03
 1.45500E+01    1.66837E+03
 1.49180E+01    1.61639E+03
 1.56830E+01    1.54742E+03
 1.64870E+01    1.47890E+03
