# n + Se 80 : (n,xa)    
# jendl4.0   S.Kamada, K.Shibata, A.Ichihara+  EVAL-MAY09
# 
# # energies =    65
#   E(MeV)        xs(mb) 
 6.74568E-01    0.00000E+00
 7.00000E-01    0.00000E+00
 8.00000E-01    0.00000E+00
 9.00000E-01    0.00000E+00
 1.00000E+00    0.00000E+00
 1.46751E+00    0.00000E+00
 1.49767E+00    0.00000E+00
 1.50000E+00    0.00000E+00
 1.72269E+00    0.00000E+00
 1.89698E+00    0.00000E+00
 1.98479E+00    0.00000E+00
 2.00000E+00    0.00000E+00
 2.14777E+00    0.00000E+00
 2.34009E+00    0.00000E+00
 2.37358E+00    0.00000E+00
 2.50000E+00    0.00000E+00
 2.52619E+00    0.00000E+00
 2.54598E+00    0.00000E+00
 2.66026E+00    0.00000E+00
 2.75089E+00    0.00000E+00
 2.80932E+00    0.00000E+00
 2.82207E+00    0.00000E+00
 2.84942E+00    0.00000E+00
 2.86096E+00    0.00000E+00
 2.86283E+00    0.00000E+00
 2.87210E+00    0.00000E+00
 2.98450E+00    0.00000E+00
 3.00000E+00    0.00000E+00
 3.03584E+00    0.00000E+00
 3.06288E+00    0.00000E+00
 3.07128E+00    0.00000E+00
 3.07432E+00    0.00000E+00
 3.07665E+00    0.00000E+00
 3.16554E+00    0.00000E+00
 3.19988E+00    0.00000E+00
 3.21548E+00    0.00000E+00
 3.23988E+00    0.00000E+00
 3.26672E+00    0.00000E+00
 3.26712E+00    0.00000E+00
 3.27725E+00    0.00000E+00
 3.50000E+00    0.00000E+00
 4.00000E+00    0.00000E+00
 4.50000E+00    0.00000E+00
 5.00000E+00    0.00000E+00
 5.50000E+00    0.00000E+00
 6.00000E+00    0.00000E+00
 6.50000E+00    0.00000E+00
 7.00000E+00    4.66800E-04
 7.50000E+00    3.21500E-03
 8.00000E+00    8.79400E-03
 8.50000E+00    2.44100E-02
 9.00000E+00    4.32600E-02
 9.50000E+00    7.28200E-02
 1.00000E+01    1.30200E-01
 1.10000E+01    2.60300E-01
 1.20000E+01    4.51400E-01
 1.30000E+01    7.76600E-01
 1.40000E+01    1.35771E+00
 1.45000E+01    1.73422E+00
 1.50000E+01    2.28911E+00
 1.60000E+01    3.58600E+00
 1.70000E+01    5.20580E+00
 1.80000E+01    7.00600E+00
 1.90000E+01    8.99200E+00
 2.00000E+01    1.10090E+01
