# n + Se 80 : (n,tot)   
# jendl4.0   S.Kamada, K.Shibata, A.Ichihara+  EVAL-MAY09
# uncertainties: n
# # energies =   171
#   E(MeV)       xs(mb) 
 1.00000E-11    1.96681E+04
 1.00000E-07    7.17548E+03
 4.13990E-07    7.09327E+03
 5.31580E-07    7.07571E+03
 6.82560E-07    7.06012E+03
 8.76420E-07    7.04618E+03
 1.12540E-06    7.03492E+03
 1.44500E-06    7.02600E+03
 1.85540E-06    7.01474E+03
 2.37240E-06    7.00311E+03
 3.05900E-06    6.99702E+03
 3.92790E-06    6.98985E+03
 5.04350E-06    6.98064E+03
 6.47600E-06    6.96882E+03
 8.31530E-06    6.95502E+03
 1.06770E-05    6.94518E+03
 1.37100E-05    6.93378E+03
 1.76030E-05    6.91913E+03
 2.26030E-05    6.90005E+03
 2.92030E-05    6.87586E+03
 3.72670E-05    6.84518E+03
 4.78510E-05    6.80537E+03
 6.14420E-05    6.75535E+03
 7.88930E-05    6.69441E+03
 1.01300E-04    6.61636E+03
 1.30070E-04    6.51612E+03
 1.67020E-04    6.38743E+03
 2.14450E-04    6.22220E+03
 2.75360E-04    6.01001E+03
 3.53580E-04    5.73210E+03
 4.54000E-04    5.35811E+03
 5.82950E-04    4.84921E+03
 7.48520E-04    4.12472E+03
 9.61120E-04    3.01417E+03
 1.23410E-03    1.57307E+03
 1.58460E-03    1.73986E+05
 2.03470E-03    8.08015E+04
 2.24870E-03    2.29363E+04
 2.48520E-03    1.51616E+04
 2.61260E-03    1.25028E+04
 2.74650E-03    9.78305E+03
 3.03540E-03    6.99755E+03
 3.35460E-03    4.27279E+03
 3.70740E-03    5.55290E+04
 4.30740E-03    6.94757E+04
 5.53080E-03    2.32138E+04
 7.10170E-03    1.18831E+04
 9.11880E-03    1.17214E+04
 1.17090E-02    1.24548E+04
 1.50340E-02    1.18654E+04
 1.93050E-02    1.13804E+04
 2.18750E-02    1.12253E+04
 2.35790E-02    1.11464E+04
 2.41760E-02    1.11053E+04
 2.47880E-02    1.10416E+04
 2.60580E-02    1.09662E+04
 2.70000E-02    1.08835E+04
 2.85000E-02    1.07345E+04
 3.18280E-02    1.06079E+04
 3.43070E-02    1.04310E+04
 4.08680E-02    1.02346E+04
 4.63090E-02    1.00811E+04
 5.24750E-02    9.96655E+03
 5.65620E-02    9.82533E+03
 6.73790E-02    9.69654E+03
 7.20000E-02    9.61264E+03
 7.95000E-02    9.54238E+03
 8.25000E-02    9.50099E+03
 8.65170E-02    9.41407E+03
 9.80370E-02    9.29840E+03
 1.11090E-01    9.22705E+03
 1.16790E-01    9.18343E+03
 1.22770E-01    9.13757E+03
 1.29070E-01    9.08933E+03
 1.35690E-01    9.03865E+03
 1.42640E-01    8.98537E+03
 1.49960E-01    8.92935E+03
 1.57640E-01    8.87046E+03
 1.65730E-01    8.80855E+03
 1.74220E-01    8.74346E+03
 1.83160E-01    8.67502E+03
 1.92550E-01    8.60355E+03
 2.02420E-01    8.53943E+03
 2.12800E-01    8.47675E+03
 2.23710E-01    8.41085E+03
 2.35180E-01    8.34157E+03
 2.47240E-01    8.23046E+03
 2.73240E-01    8.11170E+03
 2.87250E-01    8.04878E+03
 2.94520E-01    8.01940E+03
 2.97200E-01    8.00767E+03
 2.98500E-01    7.99402E+03
 3.01970E-01    7.90356E+03
 3.33730E-01    7.72986E+03
 3.68830E-01    7.58833E+03
 3.87740E-01    7.48818E+03
 4.07620E-01    7.33955E+03
 4.50490E-01    7.12673E+03
 4.97870E-01    6.95925E+03
 5.23400E-01    6.85031E+03
 5.50230E-01    6.73585E+03
 5.78440E-01    6.61564E+03
 6.08100E-01    6.49182E+03
 6.39280E-01    6.36265E+03
 6.72060E-01    6.22701E+03
 7.06510E-01    6.08975E+03
 7.42740E-01    5.94822E+03
 7.80820E-01    5.80196E+03
 8.20850E-01    5.66266E+03
 8.62940E-01    5.51877E+03
 9.07180E-01    5.36932E+03
 9.61640E-01    5.23116E+03
 1.00260E+00    5.07632E+03
 1.10800E+00    4.92217E+03
 1.16480E+00    4.81224E+03
 1.22460E+00    4.69675E+03
 1.28730E+00    4.57533E+03
 1.35340E+00    4.44768E+03
 1.42270E+00    4.31353E+03
 1.49570E+00    4.20774E+03
 1.57240E+00    4.14140E+03
 1.65300E+00    4.07182E+03
 1.73770E+00    3.99867E+03
 1.82680E+00    3.92173E+03
 1.92050E+00    3.84195E+03
 2.01900E+00    3.79996E+03
 2.12250E+00    3.77725E+03
 2.23130E+00    3.75746E+03
 2.30690E+00    3.74519E+03
 2.34570E+00    3.73893E+03
 2.36530E+00    3.73471E+03
 2.38520E+00    3.72397E+03
 2.46600E+00    3.71212E+03
 2.59240E+00    3.72280E+03
 2.72530E+00    3.73553E+03
 2.86500E+00    3.74891E+03
 3.01190E+00    3.76401E+03
 3.16640E+00    3.78452E+03
 3.32870E+00    3.81830E+03
 3.67880E+00    3.86357E+03
 4.06570E+00    3.90418E+03
 4.49330E+00    3.92975E+03
 4.72370E+00    3.94660E+03
 4.96590E+00    3.96352E+03
 5.22050E+00    3.97520E+03
 5.48810E+00    3.98618E+03
 5.76950E+00    3.99773E+03
 6.06530E+00    4.00987E+03
 6.37630E+00    4.01797E+03
 6.59240E+00    4.02022E+03
 6.70320E+00    4.02329E+03
 7.04690E+00    4.02809E+03
 7.40820E+00    4.02858E+03
 7.78800E+00    4.02031E+03
 8.18730E+00    4.01085E+03
 8.60710E+00    3.99095E+03
 9.04840E+00    3.96589E+03
 9.51230E+00    3.93539E+03
 1.00000E+01    3.89383E+03
 1.05130E+01    3.84596E+03
 1.10520E+01    3.79074E+03
 1.16180E+01    3.72890E+03
 1.22140E+01    3.66074E+03
 1.28400E+01    3.58816E+03
 1.34990E+01    3.53143E+03
 1.38400E+01    3.49238E+03
 1.41910E+01    3.45259E+03
 1.45500E+01    3.41188E+03
 1.49180E+01    3.35021E+03
 1.56830E+01    3.26699E+03
 1.64870E+01    3.18325E+03
