# n + Mn 55 : (n,a26)   
# jeff3.3    IAEA Evaluation Consortium (ib22) Eval-Oct13
# uncertainties: y
# # energies =    76
#   E(MeV)       xs(mb)       xslow(mb)      xsupp(mb)
 3.10616E+00    0.00000E+00    0.00000E+00    0.00000E+00
 3.97843E+00    4.68020E-08    4.68020E-08    4.68020E-08
 4.92642E+00    9.18800E-08    9.18800E-08    9.18800E-08
 5.26655E+00    1.07700E-07    1.07700E-07    1.07700E-07
 5.62341E+00    1.08870E-07    1.08870E-07    1.08870E-07
 6.00000E+00    1.33660E-07    1.33660E-07    1.33660E-07
 6.30957E+00    3.62829E-06    3.62829E-06    3.62829E-06
 6.50000E+00    5.68656E-06    5.68656E-06    5.68656E-06
 7.00000E+00    5.81918E-05    5.81918E-05    5.81918E-05
 7.07946E+00    1.08954E-04    1.08954E-04    1.08954E-04
 7.50000E+00    3.85150E-04    3.85150E-04    3.85150E-04
 7.94328E+00    1.63680E-03    1.63680E-03    1.63680E-03
 8.00000E+00    1.79750E-03    1.79750E-03    1.79750E-03
 8.50000E+00    6.22813E-03    6.22813E-03    6.22813E-03
 8.91251E+00    1.51377E-02    1.51377E-02    1.51377E-02
 9.00000E+00    1.69988E-02    1.69988E-02    1.69988E-02
 9.50000E+00    3.66382E-02    3.66382E-02    3.66382E-02
 1.00000E+01    6.26192E-02    6.26192E-02    6.26192E-02
 1.04137E+01    8.14048E-02    8.14048E-02    8.14048E-02
 1.05000E+01    8.53538E-02    8.53538E-02    8.53538E-02
 1.10000E+01    9.67500E-02    9.67500E-02    9.67500E-02
 1.12202E+01    9.66749E-02    9.66749E-02    9.66749E-02
 1.15000E+01    9.64475E-02    9.64475E-02    9.64475E-02
 1.20000E+01    8.87776E-02    8.87776E-02    8.87776E-02
 1.25000E+01    7.75432E-02    7.75432E-02    7.75432E-02
 1.25893E+01    7.53338E-02    7.53338E-02    7.53338E-02
 1.30000E+01    6.50246E-02    6.50246E-02    6.50246E-02
 1.35000E+01    5.32994E-02    5.32994E-02    5.32994E-02
 1.40000E+01    4.30301E-02    4.30301E-02    4.30301E-02
 1.41254E+01    4.08366E-02    4.08366E-02    4.08366E-02
 1.45000E+01    3.43720E-02    3.43720E-02    3.43720E-02
 1.50000E+01    2.72191E-02    2.72191E-02    2.72191E-02
 1.55000E+01    2.14252E-02    2.14252E-02    2.14252E-02
 1.58489E+01    1.81977E-02    1.81977E-02    1.81977E-02
 1.60000E+01    1.68272E-02    1.68272E-02    1.68272E-02
 1.65000E+01    1.32078E-02    1.32078E-02    1.32078E-02
 1.70000E+01    1.03513E-02    1.03513E-02    1.03513E-02
 1.75000E+01    8.10091E-03    8.10091E-03    8.10091E-03
 1.80000E+01    6.33529E-03    6.33529E-03    6.33529E-03
 1.85000E+01    4.95644E-03    4.95644E-03    4.95644E-03
 1.90000E+01    3.87620E-03    3.87620E-03    3.87620E-03
 1.95000E+01    3.03280E-03    3.03280E-03    3.03280E-03
 1.95159E+01    3.01173E-03    3.01173E-03    3.01173E-03
 1.99526E+01    2.40197E-03    2.40197E-03    2.40197E-03
 2.00000E+01    2.34011E-03    2.34011E-03    2.34011E-03
 2.10000E+01    1.43427E-03    1.43427E-03    1.43427E-03
 2.20000E+01    8.82183E-04    8.82183E-04    8.82183E-04
 2.23872E+01    7.50486E-04    7.50486E-04    7.50486E-04
 2.30000E+01    5.49725E-04    5.49725E-04    5.49725E-04
 2.40000E+01    3.46789E-04    3.46789E-04    3.46789E-04
 2.50000E+01    2.19945E-04    2.19945E-04    2.19945E-04
 2.51189E+01    2.10525E-04    2.10525E-04    2.10525E-04
 2.60000E+01    1.41605E-04    1.41605E-04    1.41605E-04
 2.80000E+01    5.98180E-05    5.98180E-05    5.98180E-05
 3.00000E+01    2.60630E-05    2.60630E-05    2.60630E-05
 3.16228E+01    1.44079E-05    1.44079E-05    1.44079E-05
 3.20000E+01    1.16969E-05    1.16969E-05    1.16969E-05
 3.40000E+01    5.36877E-06    5.36877E-06    5.36877E-06
 3.60000E+01    2.54532E-06    2.54532E-06    2.54532E-06
 3.80000E+01    1.23768E-06    1.23768E-06    1.23768E-06
 3.98107E+01    6.76900E-07    6.76900E-07    6.76900E-07
 4.00000E+01    6.23380E-07    6.23380E-07    6.23380E-07
 4.50000E+01    1.47310E-07    1.47310E-07    1.47310E-07
 5.00000E+01    3.83090E-08    3.83090E-08    3.83090E-08
 5.01187E+01    3.77590E-08    3.77590E-08    3.77590E-08
 5.50000E+01    9.73730E-09    9.73730E-09    9.73730E-09
 6.00000E+01    2.73400E-09    2.73400E-09    2.73400E-09
 6.30957E+01    1.96970E-09    1.96970E-09    1.96970E-09
 7.00000E+01    2.65060E-10    2.65060E-10    2.65060E-10
 7.94328E+01    4.47410E-11    4.47410E-11    4.47410E-11
 8.00000E+01    3.14920E-11    3.14920E-11    3.14920E-11
 9.00000E+01    3.93410E-12    3.93410E-12    3.93410E-12
 1.00000E+02    4.82440E-13    4.82440E-13    4.82440E-13
 1.10000E+02    6.14540E-14    6.14540E-14    6.14540E-14
 1.30000E+02    1.09280E-15    1.09280E-15    1.09280E-15
 1.50000E+02    2.59160E-17    2.59160E-17    2.59160E-17
