# n + Mn 55 : (n,a31)   
# jeff3.3    IAEA Evaluation Consortium (ib22) Eval-Oct13
# uncertainties: y
# # energies =    76
#   E(MeV)       xs(mb)       xslow(mb)      xsupp(mb)
 3.27250E+00    0.00000E+00    0.00000E+00    0.00000E+00
 3.97843E+00    4.37190E-09    4.37190E-09    4.37190E-09
 4.92642E+00    9.63610E-09    9.63610E-09    9.63610E-09
 5.26655E+00    1.14740E-08    1.14740E-08    1.14740E-08
 5.62341E+00    1.17360E-08    1.17360E-08    1.17360E-08
 6.00000E+00    1.45410E-08    1.45410E-08    1.45410E-08
 6.30957E+00    5.92770E-07    5.92770E-07    5.92770E-07
 6.50000E+00    9.33690E-07    9.33690E-07    9.33690E-07
 7.00000E+00    1.21299E-05    1.21299E-05    1.21299E-05
 7.07946E+00    2.50151E-05    2.50151E-05    2.50151E-05
 7.50000E+00    9.49908E-05    9.49908E-05    9.49908E-05
 7.94328E+00    4.55553E-04    4.55553E-04    4.55553E-04
 8.00000E+00    5.01866E-04    5.01866E-04    5.01866E-04
 8.50000E+00    1.91340E-03    1.91340E-03    1.91340E-03
 8.91251E+00    5.01259E-03    5.01259E-03    5.01259E-03
 9.00000E+00    5.66058E-03    5.66058E-03    5.66058E-03
 9.50000E+00    1.31947E-02    1.31947E-02    1.31947E-02
 1.00000E+01    2.44687E-02    2.44687E-02    2.44687E-02
 1.04137E+01    3.39558E-02    3.39558E-02    3.39558E-02
 1.05000E+01    3.59449E-02    3.59449E-02    3.59449E-02
 1.10000E+01    4.31192E-02    4.31192E-02    4.31192E-02
 1.12202E+01    4.37867E-02    4.37867E-02    4.37867E-02
 1.15000E+01    4.45709E-02    4.45709E-02    4.45709E-02
 1.20000E+01    4.19070E-02    4.19070E-02    4.19070E-02
 1.25000E+01    3.71026E-02    3.71026E-02    3.71026E-02
 1.25893E+01    3.60951E-02    3.60951E-02    3.60951E-02
 1.30000E+01    3.13884E-02    3.13884E-02    3.13884E-02
 1.35000E+01    2.58661E-02    2.58661E-02    2.58661E-02
 1.40000E+01    2.09506E-02    2.09506E-02    2.09506E-02
 1.41254E+01    1.98911E-02    1.98911E-02    1.98911E-02
 1.45000E+01    1.67685E-02    1.67685E-02    1.67685E-02
 1.50000E+01    1.32882E-02    1.32882E-02    1.32882E-02
 1.55000E+01    1.04521E-02    1.04521E-02    1.04521E-02
 1.58489E+01    8.86678E-03    8.86678E-03    8.86678E-03
 1.60000E+01    8.19356E-03    8.19356E-03    8.19356E-03
 1.65000E+01    6.41464E-03    6.41464E-03    6.41464E-03
 1.70000E+01    5.01255E-03    5.01255E-03    5.01255E-03
 1.75000E+01    3.91015E-03    3.91015E-03    3.91015E-03
 1.80000E+01    3.04696E-03    3.04696E-03    3.04696E-03
 1.85000E+01    2.37423E-03    2.37423E-03    2.37423E-03
 1.90000E+01    1.84854E-03    1.84854E-03    1.84854E-03
 1.95000E+01    1.43949E-03    1.43949E-03    1.43949E-03
 1.95159E+01    1.42931E-03    1.42931E-03    1.42931E-03
 1.99526E+01    1.13523E-03    1.13523E-03    1.13523E-03
 2.00000E+01    1.10537E-03    1.10537E-03    1.10537E-03
 2.10000E+01    6.71269E-04    6.71269E-04    6.71269E-04
 2.20000E+01    4.09478E-04    4.09478E-04    4.09478E-04
 2.23872E+01    3.47633E-04    3.47633E-04    3.47633E-04
 2.30000E+01    2.53320E-04    2.53320E-04    2.53320E-04
 2.40000E+01    1.58826E-04    1.58826E-04    1.58826E-04
 2.50000E+01    1.00232E-04    1.00232E-04    1.00232E-04
 2.51189E+01    9.59089E-05    9.59089E-05    9.59089E-05
 2.60000E+01    6.42779E-05    6.42779E-05    6.42779E-05
 2.80000E+01    2.70018E-05    2.70018E-05    2.70018E-05
 3.00000E+01    1.17200E-05    1.17200E-05    1.17200E-05
 3.16228E+01    6.46716E-06    6.46716E-06    6.46716E-06
 3.20000E+01    5.24535E-06    5.24535E-06    5.24535E-06
 3.40000E+01    2.40244E-06    2.40244E-06    2.40244E-06
 3.60000E+01    1.13700E-06    1.13700E-06    1.13700E-06
 3.80000E+01    5.52050E-07    5.52050E-07    5.52050E-07
 3.98107E+01    3.01600E-07    3.01600E-07    3.01600E-07
 4.00000E+01    2.77690E-07    2.77690E-07    2.77690E-07
 4.50000E+01    6.54400E-08    6.54400E-08    6.54400E-08
 5.00000E+01    1.69800E-08    1.69800E-08    1.69800E-08
 5.01187E+01    1.67360E-08    1.67360E-08    1.67360E-08
 5.50000E+01    4.30770E-09    4.30770E-09    4.30770E-09
 6.00000E+01    1.20750E-09    1.20750E-09    1.20750E-09
 6.30957E+01    8.69800E-10    8.69800E-10    8.69800E-10
 7.00000E+01    1.16720E-10    1.16720E-10    1.16720E-10
 7.94328E+01    1.96690E-11    1.96690E-11    1.96690E-11
 8.00000E+01    1.38330E-11    1.38330E-11    1.38330E-11
 9.00000E+01    1.72420E-12    1.72420E-12    1.72420E-12
 1.00000E+02    2.11000E-13    2.11000E-13    2.11000E-13
 1.10000E+02    2.68300E-14    2.68300E-14    2.68300E-14
 1.30000E+02    4.75570E-16    4.75570E-16    4.75570E-16
 1.50000E+02    1.12470E-17    1.12470E-17    1.12470E-17
