# n + Mn 55 : (n,a23)   
# jeff3.3    IAEA Evaluation Consortium (ib22) Eval-Oct13
# uncertainties: y
# # energies =    79
#   E(MeV)       xs(mb)       xslow(mb)      xsupp(mb)
 2.99452E+00    0.00000E+00    0.00000E+00    0.00000E+00
 3.09108E+00    1.76280E-10    1.76280E-10    1.76280E-10
 3.09571E+00    1.84740E-10    1.84740E-10    1.84740E-10
 3.97843E+00    1.79620E-09    1.79620E-09    1.79620E-09
 4.92642E+00    3.31790E-09    3.31790E-09    3.31790E-09
 5.26655E+00    3.85360E-09    3.85360E-09    3.85360E-09
 5.50000E+00    3.88140E-09    3.88140E-09    3.88140E-09
 5.62341E+00    7.35500E-08    7.35500E-08    7.35500E-08
 6.00000E+00    3.06230E-07    3.06230E-07    3.06230E-07
 6.30957E+00    6.90268E-06    6.90268E-06    6.90268E-06
 6.50000E+00    1.07853E-05    1.07853E-05    1.07853E-05
 7.00000E+00    9.69743E-05    9.69743E-05    9.69743E-05
 7.07946E+00    1.73618E-04    1.73618E-04    1.73618E-04
 7.50000E+00    5.91095E-04    5.91095E-04    5.91095E-04
 7.94328E+00    2.37311E-03    2.37311E-03    2.37311E-03
 8.00000E+00    2.60185E-03    2.60185E-03    2.60185E-03
 8.50000E+00    8.57056E-03    8.57056E-03    8.57056E-03
 8.91251E+00    1.99227E-02    1.99227E-02    1.99227E-02
 9.00000E+00    2.22925E-02    2.22925E-02    2.22925E-02
 9.50000E+00    4.55940E-02    4.55940E-02    4.55940E-02
 1.00000E+01    7.36630E-02    7.36630E-02    7.36630E-02
 1.04137E+01    9.18017E-02    9.18017E-02    9.18017E-02
 1.05000E+01    9.56243E-02    9.56243E-02    9.56243E-02
 1.10000E+01    1.04698E-01    1.04698E-01    1.04698E-01
 1.12202E+01    1.03602E-01    1.03602E-01    1.03602E-01
 1.15000E+01    1.02074E-01    1.02074E-01    1.02074E-01
 1.20000E+01    9.26130E-02    9.26130E-02    9.26130E-02
 1.25000E+01    8.00774E-02    8.00774E-02    8.00774E-02
 1.25893E+01    7.77115E-02    7.77115E-02    7.77115E-02
 1.30000E+01    6.66814E-02    6.66814E-02    6.66814E-02
 1.35000E+01    5.43964E-02    5.43964E-02    5.43964E-02
 1.40000E+01    4.37556E-02    4.37556E-02    4.37556E-02
 1.41254E+01    4.14985E-02    4.14985E-02    4.14985E-02
 1.45000E+01    3.48460E-02    3.48460E-02    3.48460E-02
 1.50000E+01    2.75287E-02    2.75287E-02    2.75287E-02
 1.55000E+01    2.16314E-02    2.16314E-02    2.16314E-02
 1.58489E+01    1.83574E-02    1.83574E-02    1.83574E-02
 1.60000E+01    1.69671E-02    1.69671E-02    1.69671E-02
 1.65000E+01    1.33031E-02    1.33031E-02    1.33031E-02
 1.70000E+01    1.04158E-02    1.04158E-02    1.04158E-02
 1.75000E+01    8.14422E-03    8.14422E-03    8.14422E-03
 1.80000E+01    6.36450E-03    6.36450E-03    6.36450E-03
 1.85000E+01    4.97638E-03    4.97638E-03    4.97638E-03
 1.90000E+01    3.89001E-03    3.89001E-03    3.89001E-03
 1.95000E+01    3.04242E-03    3.04242E-03    3.04242E-03
 1.95159E+01    3.02126E-03    3.02126E-03    3.02126E-03
 1.99526E+01    2.40885E-03    2.40885E-03    2.40885E-03
 2.00000E+01    2.34671E-03    2.34671E-03    2.34671E-03
 2.10000E+01    1.43743E-03    1.43743E-03    1.43743E-03
 2.20000E+01    8.83681E-04    8.83681E-04    8.83681E-04
 2.23872E+01    7.51681E-04    7.51681E-04    7.51681E-04
 2.30000E+01    5.50456E-04    5.50456E-04    5.50456E-04
 2.40000E+01    3.47148E-04    3.47148E-04    3.47148E-04
 2.50000E+01    2.20119E-04    2.20119E-04    2.20119E-04
 2.51189E+01    2.10688E-04    2.10688E-04    2.10688E-04
 2.60000E+01    1.41689E-04    1.41689E-04    1.41689E-04
 2.80000E+01    5.98395E-05    5.98395E-05    5.98395E-05
 3.00000E+01    2.60690E-05    2.60690E-05    2.60690E-05
 3.16228E+01    1.44105E-05    1.44105E-05    1.44105E-05
 3.20000E+01    1.16987E-05    1.16987E-05    1.16987E-05
 3.40000E+01    5.36938E-06    5.36938E-06    5.36938E-06
 3.60000E+01    2.54554E-06    2.54554E-06    2.54554E-06
 3.80000E+01    1.23776E-06    1.23776E-06    1.23776E-06
 3.98107E+01    6.76940E-07    6.76940E-07    6.76940E-07
 4.00000E+01    6.23420E-07    6.23420E-07    6.23420E-07
 4.50000E+01    1.47320E-07    1.47320E-07    1.47320E-07
 5.00000E+01    3.83100E-08    3.83100E-08    3.83100E-08
 5.01187E+01    3.77610E-08    3.77610E-08    3.77610E-08
 5.50000E+01    9.73760E-09    9.73760E-09    9.73760E-09
 6.00000E+01    2.73410E-09    2.73410E-09    2.73410E-09
 6.30957E+01    1.96980E-09    1.96980E-09    1.96980E-09
 7.00000E+01    2.65070E-10    2.65070E-10    2.65070E-10
 7.94328E+01    4.47420E-11    4.47420E-11    4.47420E-11
 8.00000E+01    3.14940E-11    3.14940E-11    3.14940E-11
 9.00000E+01    3.93430E-12    3.93430E-12    3.93430E-12
 1.00000E+02    4.82460E-13    4.82460E-13    4.82460E-13
 1.10000E+02    6.14580E-14    6.14580E-14    6.14580E-14
 1.30000E+02    1.09290E-15    1.09290E-15    1.09290E-15
 1.50000E+02    2.59180E-17    2.59180E-17    2.59180E-17
