# n + Mn 55 : (n,a20)   
# jeff3.3    IAEA Evaluation Consortium (ib22) Eval-Oct13
# uncertainties: y
# # energies =    79
#   E(MeV)       xs(mb)       xslow(mb)      xsupp(mb)
 2.77333E+00    0.00000E+00    0.00000E+00    0.00000E+00
 3.09108E+00    6.74790E-09    6.74790E-09    6.74790E-09
 3.09571E+00    6.84630E-09    6.84630E-09    6.84630E-09
 3.97843E+00    2.55920E-08    2.55920E-08    2.55920E-08
 4.92642E+00    4.30150E-08    4.30150E-08    4.30150E-08
 5.26655E+00    4.91930E-08    4.91930E-08    4.91930E-08
 5.50000E+00    4.91380E-08    4.91380E-08    4.91380E-08
 5.62341E+00    3.55170E-07    3.55170E-07    3.55170E-07
 6.00000E+00    1.38465E-06    1.38465E-06    1.38465E-06
 6.30957E+00    2.39966E-05    2.39966E-05    2.39966E-05
 6.50000E+00    3.72902E-05    3.72902E-05    3.72902E-05
 7.00000E+00    2.72927E-04    2.72927E-04    2.72927E-04
 7.07946E+00    4.46739E-04    4.46739E-04    4.46739E-04
 7.50000E+00    1.39615E-03    1.39615E-03    1.39615E-03
 7.94328E+00    4.87250E-03    4.87250E-03    4.87250E-03
 8.00000E+00    5.31843E-03    5.31843E-03    5.31843E-03
 8.50000E+00    1.55660E-02    1.55660E-02    1.55660E-02
 8.91251E+00    3.27750E-02    3.27750E-02    3.27750E-02
 9.00000E+00    3.63615E-02    3.63615E-02    3.63615E-02
 9.50000E+00    6.67817E-02    6.67817E-02    6.67817E-02
 1.00000E+01    9.74441E-02    9.74441E-02    9.74441E-02
 1.04137E+01    1.13200E-01    1.13200E-01    1.13200E-01
 1.05000E+01    1.16545E-01    1.16545E-01    1.16545E-01
 1.10000E+01    1.20381E-01    1.20381E-01    1.20381E-01
 1.12202E+01    1.17205E-01    1.17205E-01    1.17205E-01
 1.15000E+01    1.13027E-01    1.13027E-01    1.13027E-01
 1.20000E+01    9.99950E-02    9.99950E-02    9.99950E-02
 1.25000E+01    8.49206E-02    8.49206E-02    8.49206E-02
 1.25893E+01    8.22563E-02    8.22563E-02    8.22563E-02
 1.30000E+01    6.98513E-02    6.98513E-02    6.98513E-02
 1.35000E+01    5.64940E-02    5.64940E-02    5.64940E-02
 1.40000E+01    4.51336E-02    4.51336E-02    4.51336E-02
 1.41254E+01    4.27546E-02    4.27546E-02    4.27546E-02
 1.45000E+01    3.57419E-02    3.57419E-02    3.57419E-02
 1.50000E+01    2.81154E-02    2.81154E-02    2.81154E-02
 1.55000E+01    2.20238E-02    2.20238E-02    2.20238E-02
 1.58489E+01    1.86616E-02    1.86616E-02    1.86616E-02
 1.60000E+01    1.72337E-02    1.72337E-02    1.72337E-02
 1.65000E+01    1.34839E-02    1.34839E-02    1.34839E-02
 1.70000E+01    1.05372E-02    1.05372E-02    1.05372E-02
 1.75000E+01    8.22560E-03    8.22560E-03    8.22560E-03
 1.80000E+01    6.41945E-03    6.41945E-03    6.41945E-03
 1.85000E+01    5.01395E-03    5.01395E-03    5.01395E-03
 1.90000E+01    3.91599E-03    3.91599E-03    3.91599E-03
 1.95000E+01    3.06044E-03    3.06044E-03    3.06044E-03
 1.95159E+01    3.03910E-03    3.03910E-03    3.03910E-03
 1.99526E+01    2.42165E-03    2.42165E-03    2.42165E-03
 2.00000E+01    2.35899E-03    2.35899E-03    2.35899E-03
 2.10000E+01    1.44321E-03    1.44321E-03    1.44321E-03
 2.20000E+01    8.86438E-04    8.86438E-04    8.86438E-04
 2.23872E+01    7.53880E-04    7.53880E-04    7.53880E-04
 2.30000E+01    5.51795E-04    5.51795E-04    5.51795E-04
 2.40000E+01    3.47800E-04    3.47800E-04    3.47800E-04
 2.50000E+01    2.20433E-04    2.20433E-04    2.20433E-04
 2.51189E+01    2.10983E-04    2.10983E-04    2.10983E-04
 2.60000E+01    1.41842E-04    1.41842E-04    1.41842E-04
 2.80000E+01    5.98790E-05    5.98790E-05    5.98790E-05
 3.00000E+01    2.60802E-05    2.60802E-05    2.60802E-05
 3.16228E+01    1.44154E-05    1.44154E-05    1.44154E-05
 3.20000E+01    1.17021E-05    1.17021E-05    1.17021E-05
 3.40000E+01    5.37055E-06    5.37055E-06    5.37055E-06
 3.60000E+01    2.54597E-06    2.54597E-06    2.54597E-06
 3.80000E+01    1.23793E-06    1.23793E-06    1.23793E-06
 3.98107E+01    6.77020E-07    6.77020E-07    6.77020E-07
 4.00000E+01    6.23490E-07    6.23490E-07    6.23490E-07
 4.50000E+01    1.47330E-07    1.47330E-07    1.47330E-07
 5.00000E+01    3.83130E-08    3.83130E-08    3.83130E-08
 5.01187E+01    3.77630E-08    3.77630E-08    3.77630E-08
 5.50000E+01    9.73820E-09    9.73820E-09    9.73820E-09
 6.00000E+01    2.73430E-09    2.73430E-09    2.73430E-09
 6.30957E+01    1.96990E-09    1.96990E-09    1.96990E-09
 7.00000E+01    2.65090E-10    2.65090E-10    2.65090E-10
 7.94328E+01    4.47450E-11    4.47450E-11    4.47450E-11
 8.00000E+01    3.14960E-11    3.14960E-11    3.14960E-11
 9.00000E+01    3.93460E-12    3.93460E-12    3.93460E-12
 1.00000E+02    4.82500E-13    4.82500E-13    4.82500E-13
 1.10000E+02    6.14640E-14    6.14640E-14    6.14640E-14
 1.30000E+02    1.09300E-15    1.09300E-15    1.09300E-15
 1.50000E+02    2.59230E-17    2.59230E-17    2.59230E-17
