# n + Mn 55 : (n,any)   
# jeff3.3    IAEA Evaluation Consortium (ib22) Eval-Oct13
# uncertainties: n
# # energies =    79
#   E(MeV)       xs(mb) 
 6.33929E-01    0.00000E+00
 1.00000E+00    1.55496E-06
 1.25893E+00    2.65481E-06
 1.58489E+00    4.03939E-06
 1.99526E+00    5.78251E-06
 2.51189E+00    7.97699E-06
 3.16228E+00    1.07397E-05
 3.98107E+00    1.42176E-05
 5.01187E+00    1.85961E-05
 5.62341E+00    2.11938E-05
 6.30957E+00    2.41084E-05
 6.50000E+00    2.49172E-05
 7.00000E+00    3.89946E-04
 7.07946E+00    9.65565E-04
 7.50000E+00    3.67063E-03
 7.94328E+00    1.94170E-02
 8.00000E+00    2.17442E-02
 8.50000E+00    1.11883E-01
 8.91251E+00    3.76523E-01
 9.00000E+00    4.26457E-01
 9.50000E+00    1.14654E+00
 1.00000E+01    4.11695E+00
 1.05000E+01    1.46740E+01
 1.10000E+01    2.48926E+01
 1.12202E+01    2.93544E+01
 1.15000E+01    3.46061E+01
 1.20000E+01    3.87356E+01
 1.25000E+01    4.66174E+01
 1.25893E+01    4.77368E+01
 1.30000E+01    5.34894E+01
 1.35000E+01    6.53937E+01
 1.40000E+01    7.54720E+01
 1.41254E+01    7.91205E+01
 1.45000E+01    8.95782E+01
 1.50000E+01    9.91530E+01
 1.55000E+01    1.11173E+02
 1.58489E+01    1.20105E+02
 1.60000E+01    1.23789E+02
 1.65000E+01    1.35424E+02
 1.70000E+01    1.46351E+02
 1.75000E+01    1.58469E+02
 1.77828E+01    1.67015E+02
 1.80000E+01    1.73606E+02
 1.85000E+01    1.87630E+02
 1.90000E+01    2.03556E+02
 1.95000E+01    2.18049E+02
 1.99526E+01    2.37016E+02
 2.00000E+01    2.39013E+02
 2.10000E+01    2.76140E+02
 2.20000E+01    3.12989E+02
 2.23872E+01    3.27013E+02
 2.30000E+01    3.48012E+02
 2.40000E+01    3.82128E+02
 2.50000E+01    4.15346E+02
 2.51189E+01    4.18809E+02
 2.60000E+01    4.43791E+02
 2.80000E+01    5.01265E+02
 3.00000E+01    5.54289E+02
 3.16228E+01    5.93676E+02
 3.20000E+01    6.03085E+02
 3.40000E+01    6.50216E+02
 3.60000E+01    6.99642E+02
 3.80000E+01    7.42545E+02
 3.98107E+01    7.75580E+02
 4.00000E+01    7.79045E+02
 4.50000E+01    8.43135E+02
 5.00000E+01    8.70980E+02
 5.01187E+01    8.71167E+02
 5.50000E+01    8.89367E+02
 6.00000E+01    8.97468E+02
 6.30957E+01    8.98292E+02
 7.00000E+01    9.10814E+02
 7.94328E+01    9.19487E+02
 8.00000E+01    9.17658E+02
 9.00000E+01    8.82989E+02
 1.00000E+02    8.49855E+02
 1.10000E+02    8.18990E+02
 1.30000E+02    7.58106E+02
 1.50000E+02    7.03867E+02
