# n + Mn 55 : (n,p31)   
# jeff3.3    IAEA Evaluation Consortium (ib22) Eval-Oct13
# uncertainties: y
# # energies =    72
#   E(MeV)       xs(mb)       xslow(mb)      xsupp(mb)
 5.22095E+00    0.00000E+00    0.00000E+00    0.00000E+00
 5.62341E+00    7.33206E-06    7.33206E-06    7.33206E-06
 6.30957E+00    1.95852E-05    1.95852E-05    1.95852E-05
 6.50000E+00    2.29767E-05    2.29767E-05    2.29767E-05
 7.00000E+00    6.61527E-04    6.61527E-04    6.61527E-04
 7.07946E+00    1.19363E-03    1.19363E-03    1.19363E-03
 7.50000E+00    3.99420E-03    3.99420E-03    3.99420E-03
 7.94328E+00    1.21470E-02    1.21470E-02    1.21470E-02
 8.00000E+00    1.32061E-02    1.32061E-02    1.32061E-02
 8.50000E+00    2.89684E-02    2.89684E-02    2.89684E-02
 8.91251E+00    4.34938E-02    4.34938E-02    4.34938E-02
 9.00000E+00    4.66260E-02    4.66260E-02    4.66260E-02
 9.50000E+00    6.06832E-02    6.06832E-02    6.06832E-02
 1.00000E+01    6.87571E-02    6.87571E-02    6.87571E-02
 1.04137E+01    7.02149E-02    7.02149E-02    7.02149E-02
 1.05000E+01    7.09887E-02    7.09887E-02    7.09887E-02
 1.10000E+01    6.98543E-02    6.98543E-02    6.98543E-02
 1.12202E+01    6.77772E-02    6.77772E-02    6.77772E-02
 1.15000E+01    6.40348E-02    6.40348E-02    6.40348E-02
 1.20000E+01    5.60189E-02    5.60189E-02    5.60189E-02
 1.25000E+01    4.79457E-02    4.79457E-02    4.79457E-02
 1.25893E+01    4.66412E-02    4.66412E-02    4.66412E-02
 1.30000E+01    4.00072E-02    4.00072E-02    4.00072E-02
 1.35000E+01    3.31725E-02    3.31725E-02    3.31725E-02
 1.40000E+01    2.74686E-02    2.74686E-02    2.74686E-02
 1.41254E+01    2.62859E-02    2.62859E-02    2.62859E-02
 1.45000E+01    2.26016E-02    2.26016E-02    2.26016E-02
 1.50000E+01    1.85480E-02    1.85480E-02    1.85480E-02
 1.55000E+01    1.52055E-02    1.52055E-02    1.52055E-02
 1.58489E+01    1.32825E-02    1.32825E-02    1.32825E-02
 1.60000E+01    1.24530E-02    1.24530E-02    1.24530E-02
 1.65000E+01    1.01772E-02    1.01772E-02    1.01772E-02
 1.70000E+01    8.30468E-03    8.30468E-03    8.30468E-03
 1.75000E+01    6.76639E-03    6.76639E-03    6.76639E-03
 1.80000E+01    5.50795E-03    5.50795E-03    5.50795E-03
 1.85000E+01    4.48319E-03    4.48319E-03    4.48319E-03
 1.90000E+01    3.64498E-03    3.64498E-03    3.64498E-03
 1.95000E+01    2.96189E-03    2.96189E-03    2.96189E-03
 1.95159E+01    2.94412E-03    2.94412E-03    2.94412E-03
 1.99526E+01    2.38695E-03    2.38695E-03    2.38695E-03
 2.00000E+01    2.33520E-03    2.33520E-03    2.33520E-03
 2.10000E+01    1.53419E-03    1.53419E-03    1.53419E-03
 2.20000E+01    1.00606E-03    1.00606E-03    1.00606E-03
 2.23872E+01    8.70955E-04    8.70955E-04    8.70955E-04
 2.30000E+01    6.61212E-04    6.61212E-04    6.61212E-04
 2.40000E+01    4.36246E-04    4.36246E-04    4.36246E-04
 2.50000E+01    2.88192E-04    2.88192E-04    2.88192E-04
 2.51189E+01    2.76677E-04    2.76677E-04    2.76677E-04
 2.60000E+01    1.92648E-04    1.92648E-04    1.92648E-04
 2.80000E+01    8.71874E-05    8.71874E-05    8.71874E-05
 3.00000E+01    4.03970E-05    4.03970E-05    4.03970E-05
 3.16228E+01    2.31164E-05    2.31164E-05    2.31164E-05
 3.20000E+01    1.91599E-05    1.91599E-05    1.91599E-05
 3.40000E+01    9.29888E-06    9.29888E-06    9.29888E-06
 3.60000E+01    4.62634E-06    4.62634E-06    4.62634E-06
 3.80000E+01    2.34691E-06    2.34691E-06    2.34691E-06
 3.98107E+01    1.32504E-06    1.32504E-06    1.32504E-06
 4.00000E+01    1.21742E-06    1.21742E-06    1.21742E-06
 4.50000E+01    2.54600E-07    2.54600E-07    2.54600E-07
 5.00000E+01    5.92670E-08    5.92670E-08    5.92670E-08
 5.01187E+01    5.82280E-08    5.82280E-08    5.82280E-08
 5.50000E+01    1.55280E-08    1.55280E-08    1.55280E-08
 6.00000E+01    4.46750E-09    4.46750E-09    4.46750E-09
 6.30957E+01    3.22320E-09    3.22320E-09    3.22320E-09
 7.00000E+01    4.46430E-10    4.46430E-10    4.46430E-10
 7.94328E+01    7.60570E-11    7.60570E-11    7.60570E-11
 8.00000E+01    5.37110E-11    5.37110E-11    5.37110E-11
 9.00000E+01    6.68680E-12    6.68680E-12    6.68680E-12
 1.00000E+02    8.09370E-13    8.09370E-13    8.09370E-13
 1.10000E+02    1.01090E-13    1.01090E-13    1.01090E-13
 1.30000E+02    1.69950E-15    1.69950E-15    1.69950E-15
 1.50000E+02    3.74030E-17    3.74030E-17    3.74030E-17
