# n + Kr 81 : (n,n'08)  
# endfb8.0   A.J. Koning and D. Rochman        EVAL-DEC15
# uncertainties: n
# # energies =    90
#   E(MeV)       xs(mb) 
 7.41145E-01    0.00000E+00
 8.00000E-01    3.06225E+01
 8.84571E-01    6.60135E+01
 9.00000E-01    7.24702E+01
 9.13791E-01    7.61145E+01
 9.31276E-01    8.07349E+01
 9.45774E-01    8.45660E+01
 9.88349E-01    9.58165E+01
 9.91325E-01    9.66029E+01
 9.93826E-01    9.72638E+01
 1.00000E+00    9.88953E+01
 1.00673E+00    9.92795E+01
 1.02748E+00    1.00464E+02
 1.03843E+00    1.01089E+02
 1.10713E+00    1.05011E+02
 1.11374E+00    1.05388E+02
 1.20000E+00    1.10313E+02
 1.22166E+00    1.09342E+02
 1.25450E+00    1.07869E+02
 1.29418E+00    1.06090E+02
 1.29649E+00    1.05987E+02
 1.35498E+00    1.03364E+02
 1.36589E+00    1.02875E+02
 1.36799E+00    1.02781E+02
 1.40000E+00    1.01346E+02
 1.41316E+00    1.00453E+02
 1.46122E+00    9.71908E+01
 1.51023E+00    9.38643E+01
 1.60000E+00    8.77713E+01
 1.80000E+00    7.25247E+01
 2.00000E+00    5.76692E+01
 2.20000E+00    4.54544E+01
 2.40000E+00    3.60151E+01
 2.60000E+00    2.87679E+01
 2.80000E+00    2.30715E+01
 3.00000E+00    1.84927E+01
 3.20000E+00    1.47516E+01
 3.40000E+00    1.16826E+01
 3.60000E+00    9.18174E+00
 3.80000E+00    7.16034E+00
 4.00000E+00    5.55359E+00
 4.20000E+00    4.28996E+00
 4.40000E+00    3.30615E+00
 4.60000E+00    2.54612E+00
 4.80000E+00    1.96230E+00
 5.00000E+00    1.51612E+00
 5.20000E+00    1.17425E+00
 5.40000E+00    9.12704E-01
 5.60000E+00    7.13183E-01
 5.80000E+00    5.58579E-01
 6.00000E+00    4.41127E-01
 6.20000E+00    3.49515E-01
 6.40000E+00    2.78176E-01
 6.60000E+00    2.22950E-01
 6.80000E+00    1.79074E-01
 7.00000E+00    1.44892E-01
 7.20000E+00    1.17597E-01
 7.40000E+00    9.55551E-02
 7.60000E+00    7.80773E-02
 7.80000E+00    6.38891E-02
 8.00000E+00    5.25556E-02
 8.50000E+00    3.25700E-02
 9.00000E+00    2.04174E-02
 9.50000E+00    1.29067E-02
 1.00000E+01    8.22007E-03
 1.05000E+01    5.27523E-03
 1.10000E+01    3.41304E-03
 1.15000E+01    2.22628E-03
 1.20000E+01    1.46425E-03
 1.25000E+01    9.70351E-04
 1.30000E+01    6.47251E-04
 1.35000E+01    4.34424E-04
 1.40000E+01    2.93175E-04
 1.45000E+01    1.98813E-04
 1.50000E+01    1.35425E-04
 1.60000E+01    6.36884E-05
 1.70000E+01    3.05459E-05
 1.80000E+01    1.48729E-05
 1.90000E+01    7.37278E-06
 2.00000E+01    3.72102E-06
 2.10000E+01    1.91186E-06
 2.20000E+01    9.97225E-07
 2.30000E+01    5.20013E-07
 2.40000E+01    2.77118E-07
 2.50000E+01    1.49156E-07
 2.60000E+01    8.10577E-08
 2.70000E+01    4.44618E-08
 2.80000E+01    2.45493E-08
 2.90000E+01    1.37191E-08
 3.00000E+01    7.74036E-09
