# n + Kr 84 : (n,tot)   
# jendl4.0   K.Shibata, A.Ichihara, S.Kunieda  EVAL-AUG09
# uncertainties: n
# # energies =   171
#   E(MeV)       xs(mb) 
 1.00000E-11    1.25994E+04
 1.00000E-07    6.20405E+03
 4.13990E-07    6.18686E+03
 5.31580E-07    6.18305E+03
 6.82560E-07    6.18013E+03
 8.76420E-07    6.17711E+03
 1.12540E-06    6.17553E+03
 1.44500E-06    6.17487E+03
 1.85540E-06    6.17403E+03
 2.37240E-06    6.17295E+03
 3.05900E-06    6.17154E+03
 3.92790E-06    6.16974E+03
 5.04350E-06    6.16744E+03
 6.47600E-06    6.16448E+03
 8.31530E-06    6.16068E+03
 1.06770E-05    6.15580E+03
 1.37100E-05    6.15054E+03
 1.76030E-05    6.14710E+03
 2.26030E-05    6.14286E+03
 2.92030E-05    6.13749E+03
 3.72670E-05    6.13068E+03
 4.78510E-05    6.12185E+03
 6.14420E-05    6.11050E+03
 7.88930E-05    6.09593E+03
 1.01300E-04    6.07723E+03
 1.30070E-04    6.05321E+03
 1.67020E-04    6.02237E+03
 2.14450E-04    5.97628E+03
 2.75360E-04    5.88317E+03
 3.53580E-04    5.60546E+03
 4.54000E-04    3.13285E+04
 5.82950E-04    7.19042E+03
 7.48520E-04    6.47831E+03
 9.61120E-04    6.36049E+03
 1.23410E-03    6.30651E+03
 1.58460E-03    6.27199E+03
 2.03470E-03    6.25631E+03
 2.24870E-03    6.44400E+03
 2.48520E-03    1.55175E+04
 2.61260E-03    1.52810E+04
 2.74650E-03    1.49033E+04
 3.03540E-03    1.44942E+04
 3.35460E-03    1.41350E+04
 3.70740E-03    1.36556E+04
 4.30740E-03    1.29977E+04
 5.53080E-03    1.22540E+04
 7.10170E-03    1.16120E+04
 9.11880E-03    1.10822E+04
 1.17090E-02    1.06962E+04
 1.50340E-02    1.02228E+04
 1.93050E-02    9.83331E+03
 2.18750E-02    9.70896E+03
 2.35790E-02    9.64574E+03
 2.41760E-02    9.61280E+03
 2.47880E-02    9.56174E+03
 2.60580E-02    9.50132E+03
 2.70000E-02    9.43499E+03
 2.85000E-02    9.31554E+03
 3.18280E-02    9.21372E+03
 3.43070E-02    9.07130E+03
 4.08680E-02    8.91230E+03
 4.63090E-02    8.78749E+03
 5.24750E-02    8.69676E+03
 5.65620E-02    8.58584E+03
 6.73790E-02    8.48432E+03
 7.20000E-02    8.41984E+03
 7.95000E-02    8.36635E+03
 8.25000E-02    8.33547E+03
 8.65170E-02    8.27127E+03
 9.80370E-02    8.18991E+03
 1.11090E-01    8.14337E+03
 1.16790E-01    8.11499E+03
 1.22770E-01    8.08516E+03
 1.29070E-01    8.05377E+03
 1.35690E-01    8.02080E+03
 1.42640E-01    7.98613E+03
 1.49960E-01    7.94969E+03
 1.57640E-01    7.91138E+03
 1.65730E-01    7.87109E+03
 1.74220E-01    7.82875E+03
 1.83160E-01    7.78421E+03
 1.92550E-01    7.73782E+03
 2.02420E-01    7.69867E+03
 2.12800E-01    7.66163E+03
 2.23710E-01    7.62270E+03
 2.35180E-01    7.58176E+03
 2.47240E-01    7.51612E+03
 2.73240E-01    7.44595E+03
 2.87250E-01    7.40877E+03
 2.94520E-01    7.39141E+03
 2.97200E-01    7.38448E+03
 2.98500E-01    7.37628E+03
 3.01970E-01    7.31844E+03
 3.33730E-01    7.20721E+03
 3.68830E-01    7.11657E+03
 3.87740E-01    7.05200E+03
 4.07620E-01    6.94844E+03
 4.50490E-01    6.79829E+03
 4.97870E-01    6.67658E+03
 5.23400E-01    6.59098E+03
 5.50230E-01    6.50101E+03
 5.78440E-01    6.40657E+03
 6.08100E-01    6.31049E+03
 6.39280E-01    6.21074E+03
 6.72060E-01    6.10599E+03
 7.06510E-01    6.00029E+03
 7.42740E-01    5.89145E+03
 7.80820E-01    5.77843E+03
 8.20850E-01    5.66761E+03
 8.62940E-01    5.55252E+03
 9.07180E-01    5.42903E+03
 9.61640E-01    5.31284E+03
 1.00260E+00    5.17035E+03
 1.10800E+00    5.02224E+03
 1.16480E+00    4.91663E+03
 1.22460E+00    4.80568E+03
 1.28730E+00    4.68902E+03
 1.35340E+00    4.56638E+03
 1.42270E+00    4.43749E+03
 1.49570E+00    4.33527E+03
 1.57240E+00    4.27020E+03
 1.65300E+00    4.20194E+03
 1.73770E+00    4.13018E+03
 1.82680E+00    4.05470E+03
 1.92050E+00    3.97633E+03
 2.01900E+00    3.93105E+03
 2.12250E+00    3.90243E+03
 2.23130E+00    3.87750E+03
 2.30690E+00    3.86203E+03
 2.34570E+00    3.85415E+03
 2.36530E+00    3.84882E+03
 2.38520E+00    3.83530E+03
 2.46600E+00    3.81354E+03
 2.59240E+00    3.80635E+03
 2.72530E+00    3.80063E+03
 2.86500E+00    3.79466E+03
 3.01190E+00    3.79637E+03
 3.16640E+00    3.80419E+03
 3.32870E+00    3.81673E+03
 3.67880E+00    3.83910E+03
 4.06570E+00    3.87051E+03
 4.49330E+00    3.89616E+03
 4.72370E+00    3.91443E+03
 4.96590E+00    3.93435E+03
 5.22050E+00    3.95720E+03
 5.48810E+00    3.98134E+03
 5.76950E+00    4.00671E+03
 6.06530E+00    4.03339E+03
 6.37630E+00    4.05663E+03
 6.59240E+00    4.07100E+03
 6.70320E+00    4.08558E+03
 7.04690E+00    4.10664E+03
 7.40820E+00    4.12468E+03
 7.78800E+00    4.13363E+03
 8.18730E+00    4.13915E+03
 8.60710E+00    4.13171E+03
 9.04840E+00    4.11833E+03
 9.51230E+00    4.09481E+03
 1.00000E+01    4.06114E+03
 1.05130E+01    4.01797E+03
 1.10520E+01    3.96574E+03
 1.16180E+01    3.90538E+03
 1.22140E+01    3.83565E+03
 1.28400E+01    3.75900E+03
 1.34990E+01    3.69640E+03
 1.38400E+01    3.65300E+03
 1.41910E+01    3.60767E+03
 1.45500E+01    3.56115E+03
 1.49180E+01    3.48985E+03
 1.56830E+01    3.39296E+03
 1.64870E+01    3.29678E+03
