# n + Kr 84 : (n,el)    
# jendl4.0   K.Shibata, A.Ichihara, S.Kunieda  EVAL-AUG09
# uncertainties: n
# # energies =   171
#   E(MeV)       xs(mb) 
 1.00000E-11    1.14096E+04
 1.00000E-07    6.16451E+03
 4.13990E-07    6.16105E+03
 5.31580E-07    6.16056E+03
 6.82560E-07    6.16030E+03
 8.76420E-07    6.15996E+03
 1.12540E-06    6.15952E+03
 1.44500E-06    6.15897E+03
 1.85540E-06    6.15826E+03
 2.37240E-06    6.15736E+03
 3.05900E-06    6.15664E+03
 3.92790E-06    6.15592E+03
 5.04350E-06    6.15500E+03
 6.47600E-06    6.15382E+03
 8.31530E-06    6.15230E+03
 1.06770E-05    6.15036E+03
 1.37100E-05    6.14786E+03
 1.76030E-05    6.14465E+03
 2.26030E-05    6.14046E+03
 2.92030E-05    6.13516E+03
 3.72670E-05    6.12844E+03
 4.78510E-05    6.11971E+03
 6.14420E-05    6.10850E+03
 7.88930E-05    6.09412E+03
 1.01300E-04    6.07564E+03
 1.30070E-04    6.05192E+03
 1.67020E-04    6.02146E+03
 2.14450E-04    5.97485E+03
 2.75360E-04    5.88140E+03
 3.53580E-04    5.59948E+03
 4.54000E-04    2.32739E+04
 5.82950E-04    7.15854E+03
 7.48520E-04    6.47694E+03
 9.61120E-04    6.36049E+03
 1.23410E-03    6.30573E+03
 1.58460E-03    6.27523E+03
 2.03470E-03    6.25761E+03
 2.24870E-03    6.43967E+03
 2.48520E-03    1.53373E+04
 2.61260E-03    1.51061E+04
 2.74650E-03    1.47367E+04
 3.03540E-03    1.43368E+04
 3.35460E-03    1.39859E+04
 3.70740E-03    1.35175E+04
 4.30740E-03    1.28753E+04
 5.53080E-03    1.21498E+04
 7.10170E-03    1.15239E+04
 9.11880E-03    1.10074E+04
 1.17090E-02    1.06302E+04
 1.50340E-02    1.01675E+04
 1.93050E-02    9.78672E+03
 2.18750E-02    9.66484E+03
 2.35790E-02    9.60286E+03
 2.41760E-02    9.57056E+03
 2.47880E-02    9.52049E+03
 2.60580E-02    9.46125E+03
 2.70000E-02    9.39622E+03
 2.85000E-02    9.27907E+03
 3.18280E-02    9.17907E+03
 3.43070E-02    9.03914E+03
 4.08680E-02    8.88271E+03
 4.63090E-02    8.75973E+03
 5.24750E-02    8.67025E+03
 5.65620E-02    8.56079E+03
 6.73790E-02    8.46056E+03
 7.20000E-02    8.39689E+03
 7.95000E-02    8.34405E+03
 8.25000E-02    8.31355E+03
 8.65170E-02    8.25014E+03
 9.80370E-02    8.16966E+03
 1.11090E-01    8.12347E+03
 1.16790E-01    8.09530E+03
 1.22770E-01    8.06569E+03
 1.29070E-01    8.03453E+03
 1.35690E-01    8.00180E+03
 1.42640E-01    7.96739E+03
 1.49960E-01    7.93122E+03
 1.57640E-01    7.89319E+03
 1.65730E-01    7.85320E+03
 1.74220E-01    7.81117E+03
 1.83160E-01    7.76697E+03
 1.92550E-01    7.72091E+03
 2.02420E-01    7.68190E+03
 2.12800E-01    7.64493E+03
 2.23710E-01    7.60606E+03
 2.35180E-01    7.56520E+03
 2.47240E-01    7.49966E+03
 2.73240E-01    7.42961E+03
 2.87250E-01    7.39250E+03
 2.94520E-01    7.37517E+03
 2.97200E-01    7.36825E+03
 2.98500E-01    7.36006E+03
 3.01970E-01    7.30224E+03
 3.33730E-01    7.19104E+03
 3.68830E-01    7.10043E+03
 3.87740E-01    7.03587E+03
 4.07620E-01    6.93222E+03
 4.50490E-01    6.78194E+03
 4.97870E-01    6.66005E+03
 5.23400E-01    6.57424E+03
 5.50230E-01    6.48404E+03
 5.78440E-01    6.38936E+03
 6.08100E-01    6.29304E+03
 6.39280E-01    6.19303E+03
 6.72060E-01    6.08802E+03
 7.06510E-01    5.98201E+03
 7.42740E-01    5.87282E+03
 7.80820E-01    5.75961E+03
 8.20850E-01    5.64956E+03
 8.62940E-01    5.51422E+03
 9.07180E-01    5.23564E+03
 9.61640E-01    4.98375E+03
 1.00260E+00    4.72733E+03
 1.10800E+00    4.48519E+03
 1.16480E+00    4.31253E+03
 1.22460E+00    4.13113E+03
 1.28730E+00    3.94041E+03
 1.35340E+00    3.73990E+03
 1.42270E+00    3.52919E+03
 1.49570E+00    3.37391E+03
 1.57240E+00    3.29497E+03
 1.65300E+00    3.21228E+03
 1.73770E+00    3.12533E+03
 1.82680E+00    3.02554E+03
 1.92050E+00    2.82971E+03
 2.01900E+00    2.70277E+03
 2.12250E+00    2.62097E+03
 2.23130E+00    2.53098E+03
 2.30690E+00    2.47515E+03
 2.34570E+00    2.44669E+03
 2.36530E+00    2.42622E+03
 2.38520E+00    2.35941E+03
 2.46600E+00    2.27562E+03
 2.59240E+00    2.28768E+03
 2.72530E+00    2.23619E+03
 2.86500E+00    2.05528E+03
 3.01190E+00    1.98161E+03
 3.16640E+00    1.98762E+03
 3.32870E+00    1.90947E+03
 3.67880E+00    1.86434E+03
 4.06570E+00    1.86900E+03
 4.49330E+00    1.92832E+03
 4.72370E+00    1.97405E+03
 4.96590E+00    2.02211E+03
 5.22050E+00    2.06935E+03
 5.48810E+00    2.11695E+03
 5.76950E+00    2.16210E+03
 6.06530E+00    2.20508E+03
 6.37630E+00    2.23835E+03
 6.59240E+00    2.25612E+03
 6.70320E+00    2.27783E+03
 7.04690E+00    2.30593E+03
 7.40820E+00    2.32838E+03
 7.78800E+00    2.34407E+03
 8.18730E+00    2.35155E+03
 8.60710E+00    2.34921E+03
 9.04840E+00    2.33975E+03
 9.51230E+00    2.32166E+03
 1.00000E+01    2.30702E+03
 1.05130E+01    2.27561E+03
 1.10520E+01    2.20858E+03
 1.16180E+01    2.15463E+03
 1.22140E+01    2.09228E+03
 1.28400E+01    2.02409E+03
 1.34990E+01    1.96903E+03
 1.38400E+01    1.93098E+03
 1.41910E+01    1.89178E+03
 1.45500E+01    1.85150E+03
 1.49180E+01    1.79006E+03
 1.56830E+01    1.70698E+03
 1.64870E+01    1.62436E+03
