# n + Ru 99 : (n,el)    
# jendl4.0   JNDC FP Nuclear Data W.G.         EVAL-Mar90
# uncertainties: n
# # energies =   171
#   E(MeV)       xs(mb) 
 1.00000E-11    6.49677E+03
 1.00000E-07    3.68269E+03
 4.13990E-07    3.67368E+03
 5.31580E-07    3.66928E+03
 6.82560E-07    3.66362E+03
 8.76420E-07    3.65636E+03
 1.12540E-06    3.64693E+03
 1.44500E-06    3.63250E+03
 1.85540E-06    3.61322E+03
 2.37240E-06    3.58824E+03
 3.05900E-06    3.55070E+03
 3.92790E-06    3.48920E+03
 5.04350E-06    3.37712E+03
 6.47600E-06    3.10034E+03
 8.31530E-06    9.09646E+03
 1.06770E-05    5.12607E+03
 1.37100E-05    3.97529E+03
 1.76030E-05    3.41770E+03
 2.26030E-05    1.15569E+04
 2.92030E-05    4.48451E+03
 3.72670E-05    4.00738E+03
 4.78510E-05    5.90575E+03
 6.14420E-05    4.07051E+03
 7.88930E-05    3.55619E+03
 1.01300E-04    1.48277E+04
 1.30070E-04    9.96428E+03
 1.67020E-04    1.81930E+04
 2.14450E-04    7.11958E+03
 2.75360E-04    6.66809E+03
 3.53580E-04    4.74912E+03
 4.54000E-04    1.03607E+04
 5.82950E-04    9.91746E+03
 7.48520E-04    1.57546E+04
 9.61120E-04    7.24760E+03
 1.23410E-03    7.19975E+03
 1.58460E-03    7.04248E+03
 2.03470E-03    6.93976E+03
 2.24870E-03    6.88083E+03
 2.48520E-03    6.83640E+03
 2.61260E-03    6.81168E+03
 2.74650E-03    6.77223E+03
 3.03540E-03    6.72509E+03
 3.35460E-03    6.67972E+03
 3.70740E-03    6.61962E+03
 4.30740E-03    6.54212E+03
 5.53080E-03    6.46513E+03
 7.10170E-03    6.41799E+03
 9.11880E-03    6.40048E+03
 1.17090E-02    6.41220E+03
 1.50340E-02    6.45935E+03
 1.93050E-02    6.50743E+03
 2.18750E-02    6.55151E+03
 2.35790E-02    6.57571E+03
 2.41760E-02    6.58833E+03
 2.47880E-02    6.60625E+03
 2.60580E-02    6.62530E+03
 2.70000E-02    6.64615E+03
 2.85000E-02    6.68647E+03
 3.18280E-02    6.73326E+03
 3.43070E-02    6.80365E+03
 4.08680E-02    6.89124E+03
 4.63090E-02    6.96846E+03
 5.24750E-02    7.03007E+03
 5.65620E-02    7.11015E+03
 6.73790E-02    7.18767E+03
 7.20000E-02    7.23953E+03
 7.95000E-02    7.27937E+03
 8.25000E-02    7.29257E+03
 8.65170E-02    7.31939E+03
 9.80370E-02    7.33251E+03
 1.11090E-01    7.31103E+03
 1.16790E-01    7.29829E+03
 1.22770E-01    7.28585E+03
 1.29070E-01    7.27295E+03
 1.35690E-01    7.26046E+03
 1.42640E-01    7.24774E+03
 1.49960E-01    7.23322E+03
 1.57640E-01    7.21699E+03
 1.65730E-01    7.20109E+03
 1.74220E-01    7.18468E+03
 1.83160E-01    7.16879E+03
 1.92550E-01    7.15239E+03
 2.02420E-01    7.13435E+03
 2.12800E-01    7.11513E+03
 2.23710E-01    7.09492E+03
 2.35180E-01    7.07368E+03
 2.47240E-01    7.03960E+03
 2.73240E-01    7.00319E+03
 2.87250E-01    6.98389E+03
 2.94520E-01    6.97488E+03
 2.97200E-01    6.97128E+03
 2.98500E-01    6.96698E+03
 3.01970E-01    6.93399E+03
 3.33730E-01    6.80129E+03
 3.68830E-01    6.65238E+03
 3.87740E-01    6.54687E+03
 4.07620E-01    6.39898E+03
 4.50490E-01    6.21311E+03
 4.97870E-01    6.08437E+03
 5.23400E-01    6.01094E+03
 5.50230E-01    5.93530E+03
 5.78440E-01    5.85577E+03
 6.08100E-01    5.77216E+03
 6.39280E-01    5.68426E+03
 6.72060E-01    5.59188E+03
 7.06510E-01    5.50377E+03
 7.42740E-01    5.41884E+03
 7.80820E-01    5.33009E+03
 8.20850E-01    5.24990E+03
 8.62940E-01    5.17136E+03
 9.07180E-01    5.08375E+03
 9.61640E-01    5.00674E+03
 1.00260E+00    4.89192E+03
 1.10800E+00    4.76238E+03
 1.16480E+00    4.67002E+03
 1.22460E+00    4.57760E+03
 1.28730E+00    4.48415E+03
 1.35340E+00    4.38590E+03
 1.42270E+00    4.28365E+03
 1.49570E+00    4.18324E+03
 1.57240E+00    4.07914E+03
 1.65300E+00    3.96963E+03
 1.73770E+00    3.84917E+03
 1.82680E+00    3.71450E+03
 1.92050E+00    3.58007E+03
 2.01900E+00    3.44351E+03
 2.12250E+00    3.30378E+03
 2.23130E+00    3.19209E+03
 2.30690E+00    3.12435E+03
 2.34570E+00    3.09053E+03
 2.36530E+00    3.06783E+03
 2.38520E+00    3.01019E+03
 2.46600E+00    2.89445E+03
 2.59240E+00    2.76200E+03
 2.72530E+00    2.63566E+03
 2.86500E+00    2.51431E+03
 3.01190E+00    2.41618E+03
 3.16640E+00    2.33214E+03
 3.32870E+00    2.21090E+03
 3.67880E+00    2.05046E+03
 4.06570E+00    1.96094E+03
 4.49330E+00    1.91888E+03
 4.72370E+00    1.89023E+03
 4.96590E+00    1.87804E+03
 5.22050E+00    1.89303E+03
 5.48810E+00    1.90922E+03
 5.76950E+00    1.92679E+03
 6.06530E+00    1.96135E+03
 6.37630E+00    1.99766E+03
 6.59240E+00    2.02019E+03
 6.70320E+00    2.05102E+03
 7.04690E+00    2.12077E+03
 7.40820E+00    2.19524E+03
 7.78800E+00    2.22888E+03
 8.18730E+00    2.30231E+03
 8.60710E+00    2.35982E+03
 9.04840E+00    2.41298E+03
 9.51230E+00    2.47754E+03
 1.00000E+01    2.52691E+03
 1.05130E+01    2.55954E+03
 1.10520E+01    2.62026E+03
 1.16180E+01    2.69826E+03
 1.22140E+01    2.73051E+03
 1.28400E+01    2.75347E+03
 1.34990E+01    2.77852E+03
 1.38400E+01    2.79534E+03
 1.41910E+01    2.79593E+03
 1.45500E+01    2.79512E+03
 1.49180E+01    2.78760E+03
 1.56830E+01    2.76592E+03
 1.64870E+01    2.73180E+03
