# n + Os  0 : (n,xa)
# endfb8.0   N.Iwamoto                         EVAL-Jan10
#
# # energies =   117
#   E(MeV)          xs(mb) 
 9.79858E-03    6.35568E-04
 1.00000E-02    5.68206E-04
 2.00000E-02    2.96114E-04
 3.00000E-02    2.30176E-04
 4.00000E-02    3.30050E-04
 5.00000E-02    2.93870E-04
 6.00000E-02    2.71134E-04
 7.00000E-02    2.51217E-04
 7.47310E-02    2.40645E-04
 7.54449E-02    2.33355E-04
 8.00000E-02    2.15780E-04
 9.00000E-02    1.98567E-04
 1.00000E-01    1.81669E-04
 1.00546E-01    1.80971E-04
 1.01092E-01    1.80273E-04
 1.10000E-01    2.05608E-04
 1.17631E-01    1.98080E-04
 1.20000E-01    1.89252E-04
 1.30000E-01    1.78714E-04
 1.40000E-01    1.65615E-04
 1.50000E-01    1.58448E-04
 1.60000E-01    1.52538E-04
 1.70000E-01    1.47672E-04
 1.80000E-01    1.43858E-04
 1.88411E-01    1.41844E-04
 1.90000E-01    1.40662E-04
 1.91628E-01    1.40020E-04
 2.00000E-01    1.36718E-04
 2.25000E-01    1.29205E-04
 2.50000E-01    1.23218E-04
 2.58557E-01    1.21918E-04
 2.58558E-01    1.21918E-04
 2.64721E-01    1.21011E-04
 2.75000E-01    1.19689E-04
 3.00000E-01    1.16930E-04
 3.35058E-01    1.16231E-04
 3.43342E-01    1.15847E-04
 3.51888E-01    1.15742E-04
 4.00000E-01    1.16169E-04
 4.21261E-01    1.17103E-04
 4.44385E-01    1.17506E-04
 4.47441E-01    1.16395E-04
 4.61979E-01    1.15663E-04
 4.66503E-01    1.15594E-04
 5.00000E-01    1.14681E-04
 5.04155E-01    1.14879E-04
 5.10962E-01    1.14229E-04
 5.14360E-01    1.14147E-04
 5.39455E-01    1.14505E-04
 5.59905E-01    1.14050E-04
 5.89473E-01    1.15576E-04
 5.99668E-01    1.15749E-04
 6.00000E-01    1.15623E-04
 6.14296E-01    1.16211E-04
 6.21334E-01    1.16234E-04
 6.45333E-01    1.16851E-04
 6.67713E-01    1.17628E-04
 6.73615E-01    1.17567E-04
 6.87690E-01    1.18443E-04
 6.88193E-01    1.18461E-04
 7.00000E-01    1.18934E-04
 7.15067E-01    1.20540E-04
 7.29656E-01    1.21725E-04
 7.31023E-01    1.21683E-04
 7.49019E-01    1.23079E-04
 7.61084E-01    1.23957E-04
 8.00000E-01    1.25504E-04
 9.00000E-01    1.36648E-04
 1.00000E+00    1.47381E-04
 1.10000E+00    1.61032E-04
 1.20000E+00    1.78746E-04
 1.30000E+00    1.97304E-04
 1.40000E+00    2.20585E-04
 1.50000E+00    2.41690E-04
 1.60000E+00    2.64590E-04
 1.70000E+00    2.89703E-04
 1.80000E+00    3.17408E-04
 1.90000E+00    3.51147E-04
 2.00000E+00    3.89324E-04
 2.25000E+00    4.81443E-04
 2.50000E+00    6.03146E-04
 2.75000E+00    7.19442E-04
 3.00000E+00    9.42578E-04
 3.50000E+00    1.28678E-03
 4.00000E+00    1.68494E-03
 4.50000E+00    2.15658E-03
 5.00000E+00    2.71678E-03
 5.50000E+00    3.43785E-03
 6.00000E+00    4.43721E-03
 6.50000E+00    5.92902E-03
 7.00000E+00    8.26834E-03
 7.50000E+00    1.19784E-02
 8.00000E+00    1.78255E-02
 8.50000E+00    2.64415E-02
 9.00000E+00    3.82213E-02
 9.50000E+00    5.54519E-02
 1.00000E+01    8.10887E-02
 1.05000E+01    1.18331E-01
 1.10000E+01    1.71173E-01
 1.15000E+01    2.44084E-01
 1.20000E+01    3.41968E-01
 1.25000E+01    4.69577E-01
 1.30000E+01    6.31959E-01
 1.35000E+01    8.32962E-01
 1.40000E+01    1.07587E+00
 1.45000E+01    1.36285E+00
 1.50000E+01    1.69475E+00
 1.55000E+01    2.07151E+00
 1.60000E+01    2.49176E+00
 1.65000E+01    2.95245E+00
 1.70000E+01    3.45044E+00
 1.75000E+01    3.98217E+00
 1.80000E+01    4.54314E+00
 1.85000E+01    5.12887E+00
 1.90000E+01    5.73509E+00
 1.95000E+01    6.35765E+00
 2.00000E+01    6.99286E+00
