# n + Os  0 : (n,d)
# endfb8.0   N.Iwamoto                         EVAL-Jan10
# uncertainties: n
# # energies =    61
#   E(MeV)          xs(mb) 
 3.52877E+00    0.00000E+00
 3.64386E+00    1.05348E-23
 3.79006E+00    2.43820E-23
 3.96639E+00    4.10880E-23
 4.02772E+00    4.68980E-23
 4.13091E+00    6.11600E-23
 4.15128E+00    6.40260E-23
 4.17131E+00    6.68600E-23
 4.19649E+00    7.04320E-23
 4.23325E+00    7.56520E-23
 4.29344E+00    8.42529E-23
 4.36233E+00    9.41590E-23
 4.38491E+00    9.74070E-23
 4.39465E+00    9.88084E-23
 4.40396E+00    1.00147E-22
 4.41251E+00    1.01376E-22
 4.42577E+00    1.03284E-22
 4.48887E+00    1.12359E-22
 4.53380E+00    1.28467E-22
 4.53672E+00    1.31746E-22
 4.55859E+00    1.68398E-22
 4.56929E+00    1.97627E-22
 4.57523E+00    2.14377E-22
 4.60074E+00    2.88405E-22
 4.60966E+00    3.14959E-22
 4.61940E+00    3.43966E-22
 4.63675E+00    3.95792E-22
 4.64276E+00    4.14204E-22
 4.65994E+00    4.67477E-22
 4.66197E+00    4.73807E-22
 5.00000E+00    1.53150E-21
 5.50000E+00    3.71128E-18
 6.00000E+00    2.41978E-15
 6.50000E+00    2.26287E-13
 7.00000E+00    9.30081E-12
 7.50000E+00    2.67404E-10
 8.00000E+00    5.17517E-09
 8.50000E+00    8.24310E-08
 9.00000E+00    9.09721E-07
 9.50000E+00    7.26003E-06
 1.00000E+01    4.35854E-05
 1.05000E+01    2.04949E-04
 1.10000E+01    7.83053E-04
 1.15000E+01    2.51181E-03
 1.20000E+01    6.94861E-03
 1.25000E+01    1.69294E-02
 1.30000E+01    3.69536E-02
 1.35000E+01    7.32049E-02
 1.40000E+01    1.33122E-01
 1.45000E+01    2.24516E-01
 1.50000E+01    3.54464E-01
 1.55000E+01    5.22506E-01
 1.60000E+01    7.32140E-01
 1.65000E+01    9.93675E-01
 1.70000E+01    1.27666E+00
 1.75000E+01    1.60873E+00
 1.80000E+01    1.98430E+00
 1.85000E+01    2.38863E+00
 1.90000E+01    2.81559E+00
 1.95000E+01    3.25881E+00
 2.00000E+01    3.71162E+00
