# n + Os  0 : (n,xn)
# endfb8.0   N.Iwamoto                         EVAL-Jan10
#
# # energies =   117
#   E(MeV)          xs(mb) 
 9.79858E-03    1.96728E-31
 1.00000E-02    1.44517E+01
 2.00000E-02    3.08557E+01
 3.00000E-02    2.72296E+01
 4.00000E-02    9.80356E+01
 5.00000E-02    1.14416E+02
 6.00000E-02    1.16244E+02
 7.00000E-02    1.36166E+02
 7.47310E-02    1.71280E+02
 7.54449E-02    1.78836E+02
 8.00000E-02    2.15365E+02
 9.00000E-02    2.28525E+02
 1.00000E-01    2.87614E+02
 1.00546E-01    2.88749E+02
 1.01092E-01    2.89883E+02
 1.10000E-01    3.08573E+02
 1.17631E-01    3.14259E+02
 1.20000E-01    3.16824E+02
 1.30000E-01    3.21271E+02
 1.40000E-01    3.26400E+02
 1.50000E-01    3.30118E+02
 1.60000E-01    3.61585E+02
 1.70000E-01    3.73278E+02
 1.80000E-01    3.82960E+02
 1.88411E-01    4.08771E+02
 1.90000E-01    4.50995E+02
 1.91628E-01    4.56518E+02
 2.00000E-01    4.84944E+02
 2.25000E-01    7.14262E+02
 2.50000E-01    8.41847E+02
 2.58557E-01    8.74873E+02
 2.58558E-01    8.74877E+02
 2.64721E-01    8.98645E+02
 2.75000E-01    9.38284E+02
 3.00000E-01    1.03463E+03
 3.35058E-01    1.14413E+03
 3.43342E-01    1.17005E+03
 3.51888E-01    1.19675E+03
 4.00000E-01    1.35203E+03
 4.21261E-01    1.39630E+03
 4.44385E-01    1.44890E+03
 4.47441E-01    1.45714E+03
 4.61979E-01    1.48897E+03
 4.66503E-01    1.49883E+03
 5.00000E-01    1.60678E+03
 5.04155E-01    1.61702E+03
 5.10962E-01    1.63448E+03
 5.14360E-01    1.64274E+03
 5.39455E-01    1.70308E+03
 5.59905E-01    1.75223E+03
 5.89473E-01    1.84596E+03
 5.99668E-01    1.87656E+03
 6.00000E-01    1.87757E+03
 6.14296E-01    1.90302E+03
 6.21334E-01    1.91569E+03
 6.45333E-01    1.95961E+03
 6.67713E-01    2.00129E+03
 6.73615E-01    2.01245E+03
 6.87690E-01    2.03952E+03
 6.88193E-01    2.04049E+03
 7.00000E-01    2.07062E+03
 7.15067E-01    2.09111E+03
 7.29656E-01    2.11114E+03
 7.31023E-01    2.11305E+03
 7.49019E-01    2.13736E+03
 7.61084E-01    2.15362E+03
 8.00000E-01    2.21600E+03
 9.00000E-01    2.31065E+03
 1.00000E+00    2.41503E+03
 1.10000E+00    2.47260E+03
 1.20000E+00    2.55202E+03
 1.30000E+00    2.59847E+03
 1.40000E+00    2.64322E+03
 1.50000E+00    2.69826E+03
 1.60000E+00    2.73682E+03
 1.70000E+00    2.77025E+03
 1.80000E+00    2.79735E+03
 1.90000E+00    2.82149E+03
 2.00000E+00    2.83883E+03
 2.25000E+00    2.85456E+03
 2.50000E+00    2.85856E+03
 2.75000E+00    2.85373E+03
 3.00000E+00    2.85084E+03
 3.50000E+00    2.83744E+03
 4.00000E+00    2.82231E+03
 4.50000E+00    2.80365E+03
 5.00000E+00    2.78197E+03
 5.50000E+00    2.75249E+03
 6.00000E+00    2.72445E+03
 6.50000E+00    2.71458E+03
 7.00000E+00    2.76912E+03
 7.50000E+00    2.82993E+03
 8.00000E+00    2.97741E+03
 8.50000E+00    3.41200E+03
 9.00000E+00    3.85300E+03
 9.50000E+00    4.17116E+03
 1.00000E+01    4.37904E+03
 1.05000E+01    4.50336E+03
 1.10000E+01    4.57523E+03
 1.15000E+01    4.61368E+03
 1.20000E+01    4.63211E+03
 1.25000E+01    4.63909E+03
 1.30000E+01    4.63992E+03
 1.35000E+01    4.63870E+03
 1.40000E+01    4.63582E+03
 1.45000E+01    4.65064E+03
 1.50000E+01    4.71116E+03
 1.55000E+01    4.83381E+03
 1.60000E+01    5.00505E+03
 1.65000E+01    5.20007E+03
 1.70000E+01    5.39474E+03
 1.75000E+01    5.57334E+03
 1.80000E+01    5.72709E+03
 1.85000E+01    5.85345E+03
 1.90000E+01    5.95408E+03
 1.95000E+01    6.03231E+03
 2.00000E+01    6.09226E+03
