# n + Os  0 : (n,t)
# endfb8.0   N.Iwamoto                         EVAL-Jan10
# uncertainties: n
# # energies =    58
#   E(MeV)          xs(mb) 
 4.67297E+00    2.06967E-28
 4.80793E+00    6.35491E-28
 4.88031E+00    8.65539E-28
 4.97772E+00    1.17514E-27
 5.06505E+00    2.35676E-27
 5.18746E+00    6.62353E-27
 5.25806E+00    9.13802E-27
 5.26525E+00    9.39433E-27
 5.29463E+00    1.04416E-26
 5.30182E+00    1.06980E-26
 5.32365E+00    1.14762E-26
 5.36240E+00    1.28577E-26
 5.39553E+00    1.40386E-26
 5.41993E+00    1.49086E-26
 5.44487E+00    1.57977E-26
 5.44999E+00    1.59802E-26
 5.49389E+00    1.75453E-26
 5.49433E+00    1.75609E-26
 5.50417E+00    2.57868E-25
 5.52234E+00    1.30545E-24
 5.54222E+00    2.45297E-24
 5.55712E+00    3.31358E-24
 5.61157E+00    6.46125E-24
 5.62603E+00    7.29725E-24
 5.63827E+00    8.00491E-24
 5.64744E+00    8.53510E-24
 5.65719E+00    9.09882E-24
 5.67924E+00    1.03738E-23
 5.68146E+00    1.05021E-23
 6.00000E+00    2.89202E-23
 6.50000E+00    6.71941E-19
 7.00000E+00    5.23004E-16
 7.50000E+00    5.89009E-14
 8.00000E+00    2.02589E-12
 8.50000E+00    3.34008E-11
 9.00000E+00    4.18323E-10
 9.50000E+00    4.51396E-09
 1.00000E+01    4.90880E-08
 1.05000E+01    4.06568E-07
 1.10000E+01    2.50646E-06
 1.15000E+01    1.19910E-05
 1.20000E+01    4.92383E-05
 1.25000E+01    1.60338E-04
 1.30000E+01    4.37939E-04
 1.35000E+01    1.11891E-03
 1.40000E+01    2.57422E-03
 1.45000E+01    5.42087E-03
 1.50000E+01    1.04801E-02
 1.55000E+01    1.87867E-02
 1.60000E+01    3.14765E-02
 1.65000E+01    4.96527E-02
 1.70000E+01    7.42312E-02
 1.75000E+01    1.05585E-01
 1.80000E+01    1.44374E-01
 1.85000E+01    1.90128E-01
 1.90000E+01    2.42719E-01
 1.95000E+01    3.01205E-01
 2.00000E+01    3.64435E-01
