# n + Nb 94 : (n,n'09)  
# tendl.2019 A.J. Koning and D. Rochman        EVAL-NOV19
# uncertainties: n
# # energies =    92
#   E(MeV)       xs(mb) 
 4.00483E-01    0.00000E+00
 4.55040E-01    2.86664E+00
 5.00000E-01    5.22901E+00
 6.00000E-01    9.89765E+00
 6.38316E-01    1.11432E+01
 6.47873E-01    1.14538E+01
 6.73255E-01    1.22789E+01
 7.00000E-01    1.31483E+01
 7.94096E-01    1.61586E+01
 8.00000E-01    1.63475E+01
 8.01108E-01    1.63745E+01
 8.25604E-01    1.69708E+01
 9.00000E-01    1.87819E+01
 9.05270E-01    1.88317E+01
 9.34179E-01    1.91051E+01
 9.42718E-01    1.91858E+01
 9.46090E-01    1.92177E+01
 9.58183E-01    1.93320E+01
 9.67643E-01    1.94215E+01
 9.80582E-01    1.95438E+01
 9.87251E-01    1.96069E+01
 9.89809E-01    1.96310E+01
 1.00000E+00    1.97274E+01
 1.00195E+00    1.97106E+01
 1.01701E+00    1.95808E+01
 1.02176E+00    1.95398E+01
 1.03434E+00    1.94314E+01
 1.04126E+00    1.93717E+01
 1.20000E+00    1.80032E+01
 1.40000E+00    1.88015E+01
 1.60000E+00    2.01341E+01
 1.80000E+00    2.11072E+01
 2.00000E+00    2.15396E+01
 2.20000E+00    2.15101E+01
 2.40000E+00    2.11827E+01
 2.60000E+00    2.07221E+01
 2.80000E+00    2.02645E+01
 3.00000E+00    1.98998E+01
 3.20000E+00    1.96819E+01
 3.40000E+00    1.96313E+01
 3.60000E+00    1.97532E+01
 3.80000E+00    2.00342E+01
 4.00000E+00    2.04543E+01
 4.20000E+00    2.09923E+01
 4.40000E+00    2.16206E+01
 4.60000E+00    2.23163E+01
 4.80000E+00    2.30541E+01
 5.00000E+00    2.38103E+01
 5.20000E+00    2.45656E+01
 5.40000E+00    2.52996E+01
 5.60000E+00    2.59976E+01
 5.80000E+00    2.66479E+01
 6.00000E+00    2.72419E+01
 6.20000E+00    2.77731E+01
 6.40000E+00    2.82386E+01
 6.60000E+00    2.86388E+01
 6.80000E+00    2.89751E+01
 7.00000E+00    2.92514E+01
 7.20000E+00    2.94725E+01
 7.40000E+00    2.96443E+01
 7.60000E+00    2.97729E+01
 7.80000E+00    2.98638E+01
 8.00000E+00    2.99232E+01
 8.50000E+00    2.99671E+01
 9.00000E+00    2.99134E+01
 9.50000E+00    2.98081E+01
 1.00000E+01    2.96778E+01
 1.05000E+01    2.95371E+01
 1.10000E+01    2.93940E+01
 1.15000E+01    2.92527E+01
 1.20000E+01    2.91182E+01
 1.25000E+01    2.89932E+01
 1.30000E+01    2.88814E+01
 1.35000E+01    2.87853E+01
 1.40000E+01    2.87075E+01
 1.45000E+01    2.86493E+01
 1.50000E+01    2.86106E+01
 1.60000E+01    2.85853E+01
 1.70000E+01    2.86013E+01
 1.80000E+01    2.86116E+01
 1.90000E+01    2.85714E+01
 2.00000E+01    2.84572E+01
 2.10000E+01    2.82715E+01
 2.20000E+01    2.80333E+01
 2.30000E+01    2.77652E+01
 2.40000E+01    2.74840E+01
 2.50000E+01    2.71982E+01
 2.60000E+01    2.69078E+01
 2.70000E+01    2.66079E+01
 2.80000E+01    2.62919E+01
 2.90000E+01    2.59551E+01
 3.00000E+01    2.55955E+01
