# n + Th228 : (n,n'26)  
# jeff3.3    O.Iwamoto, T.Nakagawa, et al.     EVAL-FEB10
# uncertainties: y
# # energies =    51
#   E(MeV)       xs(mb)       xslow(mb)      xsupp(mb)
 1.17970E+00    0.00000E+00    0.00000E+00    0.00000E+00
 1.18059E+00    1.12962E-01    8.23493E-02    1.43575E-01
 1.19506E+00    8.38361E-01    6.11165E-01    1.06556E+00
 1.20000E+00    1.09989E+00    8.01820E-01    1.39796E+00
 1.20585E+00    1.41851E+00    1.03409E+00    1.80293E+00
 1.30000E+00    6.55768E+00    4.78055E+00    8.33481E+00
 1.40000E+00    1.08430E+01    7.90455E+00    1.37815E+01
 1.50000E+00    1.36516E+01    7.98619E+00    1.93170E+01
 1.60000E+00    1.53470E+01    8.97800E+00    2.17160E+01
 1.70000E+00    1.63673E+01    9.57487E+00    2.31597E+01
 1.80000E+00    1.66580E+01    9.74493E+00    2.35711E+01
 1.90000E+00    1.65324E+01    9.67145E+00    2.33933E+01
 2.00000E+00    1.59200E+01    8.85152E+00    2.29885E+01
 2.30000E+00    1.32091E+01    7.34426E+00    1.90739E+01
 2.50000E+00    1.07929E+01    7.13411E+00    1.44517E+01
 2.70000E+00    8.46607E+00    5.59607E+00    1.13361E+01
 3.00000E+00    5.50210E+00    4.11557E+00    6.88863E+00
 3.50000E+00    2.32842E+00    1.94656E+00    2.71028E+00
 4.00000E+00    9.23043E-01    8.27970E-01    1.01812E+00
 4.50000E+00    3.76562E-01    3.37776E-01    4.15348E-01
 5.00000E+00    1.86016E-01    1.61834E-01    2.10198E-01
 5.50000E+00    1.13254E-01    9.85310E-02    1.27977E-01
 6.00000E+00    8.42475E-02    6.73138E-02    1.01181E-01
 6.50000E+00    6.97451E-02    5.57263E-02    8.37639E-02
 7.00000E+00    6.16639E-02    4.74195E-02    7.59083E-02
 7.50000E+00    5.59352E-02    4.30142E-02    6.88562E-02
 8.00000E+00    5.18537E-02    3.94088E-02    6.42986E-02
 8.50000E+00    4.83405E-02    3.67388E-02    5.99422E-02
 9.00000E+00    4.54758E-02    3.45161E-02    5.64355E-02
 9.50000E+00    4.28005E-02    3.24856E-02    5.31154E-02
 1.00000E+01    4.04456E-02    3.08600E-02    5.00312E-02
 1.05000E+01    3.82998E-02    2.92227E-02    4.73769E-02
 1.10000E+01    3.63820E-02    2.77595E-02    4.50045E-02
 1.15000E+01    3.43898E-02    2.62394E-02    4.25402E-02
 1.20000E+01    3.26224E-02    2.52824E-02    3.99624E-02
 1.25000E+01    3.10939E-02    2.40978E-02    3.80900E-02
 1.30000E+01    2.95102E-02    2.28704E-02    3.61500E-02
 1.35000E+01    2.81237E-02    2.17959E-02    3.44515E-02
 1.40000E+01    2.68312E-02    2.10625E-02    3.25999E-02
 1.45000E+01    2.57049E-02    2.01783E-02    3.12315E-02
 1.50000E+01    2.46290E-02    1.94323E-02    2.98257E-02
 1.55000E+01    2.35269E-02    1.85627E-02    2.84911E-02
 1.60000E+01    2.24377E-02    1.78155E-02    2.70599E-02
 1.65000E+01    2.14824E-02    1.70570E-02    2.59078E-02
 1.70000E+01    2.06557E-02    1.64006E-02    2.49108E-02
 1.75000E+01    1.99228E-02    1.58187E-02    2.40269E-02
 1.80000E+01    1.91432E-02    1.53337E-02    2.29527E-02
 1.85000E+01    1.83947E-02    1.47342E-02    2.20552E-02
 1.90000E+01    1.77007E-02    1.41783E-02    2.12231E-02
 1.95000E+01    1.70738E-02    1.36761E-02    2.04715E-02
 2.00000E+01    1.64088E-02    1.31434E-02    1.96742E-02
