# n + Pb206 : (n,n')    
# jendl4.0   O.Iwamoto, N.Iwamoto              EVAL-MAR10
# uncertainties: n
# # energies =    66
#   E(MeV)       xs(mb) 
 1.50000E-01    0.00000E+00
 2.00000E-01    4.96862E-05
 4.00000E-01    1.33371E-03
 5.00000E-01    3.46819E-03
 6.00000E-01    7.50362E-03
 8.00000E-01    2.53495E-02
 8.07033E-01    3.01718E-02
 1.00000E+00    3.65862E+02
 1.17171E+00    5.19711E+02
 1.20000E+00    5.59401E+02
 1.34710E+00    6.88123E+02
 1.40000E+00    7.61199E+02
 1.47398E+00    8.44749E+02
 1.50000E+00    8.91459E+02
 1.60000E+00    1.02242E+03
 1.69229E+00    1.12641E+03
 1.71184E+00    1.15011E+03
 1.79294E+00    1.25956E+03
 1.80000E+00    1.27175E+03
 2.00000E+00    1.51069E+03
 2.00749E+00    1.51832E+03
 2.15842E+00    1.66698E+03
 2.20746E+00    1.71443E+03
 2.21098E+00    1.72005E+03
 2.24665E+00    1.75674E+03
 2.32634E+00    1.83018E+03
 2.39586E+00    1.88998E+03
 2.39587E+00    1.88998E+03
 2.40310E+00    1.89617E+03
 2.43497E+00    1.92349E+03
 2.50000E+00    1.97609E+03
 3.00000E+00    2.26232E+03
 3.50000E+00    2.42329E+03
 4.00000E+00    2.51981E+03
 4.50000E+00    2.58304E+03
 5.00000E+00    2.61036E+03
 5.50000E+00    2.59808E+03
 6.00000E+00    2.56306E+03
 6.50000E+00    2.52790E+03
 7.00000E+00    2.50640E+03
 7.50000E+00    2.50164E+03
 8.00000E+00    2.50907E+03
 8.50000E+00    2.43554E+03
 9.00000E+00    2.14259E+03
 9.50000E+00    1.77844E+03
 1.00000E+01    1.39300E+03
 1.05000E+01    1.05857E+03
 1.10000E+01    8.02723E+02
 1.15000E+01    5.95473E+02
 1.20000E+01    4.60937E+02
 1.25000E+01    3.72642E+02
 1.30000E+01    3.08926E+02
 1.35000E+01    2.69130E+02
 1.40000E+01    2.41296E+02
 1.45000E+01    2.23407E+02
 1.50000E+01    2.09463E+02
 1.55000E+01    1.98064E+02
 1.60000E+01    1.90845E+02
 1.65000E+01    1.81479E+02
 1.70000E+01    1.76230E+02
 1.75000E+01    1.67248E+02
 1.80000E+01    1.62713E+02
 1.85000E+01    1.56961E+02
 1.90000E+01    1.52560E+02
 1.95000E+01    1.46155E+02
 2.00000E+01    1.40949E+02
