# n + Pb206 : (n,el)    
# jendl4.0   O.Iwamoto, N.Iwamoto              EVAL-MAR10
# uncertainties: n
# # energies =    69
#   E(MeV)       xs(mb) 
 1.00000E-10    1.24536E+04
 5.00000E-09    1.09193E+04
 1.00000E-08    1.08777E+04
 1.50000E-08    1.08615E+04
 2.00000E-08    1.08526E+04
 2.50000E-08    1.08471E+04
 3.00000E-08    1.08437E+04
 3.50000E-08    1.08399E+04
 4.20000E-08    1.08374E+04
 5.00000E-08    1.08355E+04
 5.80000E-08    1.08335E+04
 6.70000E-08    1.08314E+04
 8.00000E-08    1.08304E+04
 1.00000E-07    1.08287E+04
 1.40000E-07    1.08265E+04
 1.80000E-07    1.08259E+04
 2.20000E-07    1.08257E+04
 2.50000E-07    1.08255E+04
 2.80000E-07    1.08254E+04
 3.00000E-07    1.08252E+04
 3.20000E-07    1.08251E+04
 3.50000E-07    1.08249E+04
 4.00000E-07    1.08244E+04
 5.00000E-07    1.08237E+04
 6.25000E-07    1.08230E+04
 7.80000E-07    1.08230E+04
 8.50000E-07    1.08230E+04
 9.10000E-07    1.08230E+04
 9.50000E-07    1.08230E+04
 9.72000E-07    1.08230E+04
 9.96000E-07    1.08230E+04
 1.02000E-06    1.08230E+04
 1.04500E-06    1.08230E+04
 1.07100E-06    1.08229E+04
 1.09700E-06    1.08229E+04
 1.12300E-06    1.08229E+04
 1.15000E-06    1.08229E+04
 1.30000E-06    1.08229E+04
 1.50000E-06    1.08229E+04
 2.10000E-06    1.08229E+04
 2.60000E-06    1.08229E+04
 3.30000E-06    1.08228E+04
 4.00000E-06    1.08227E+04
 9.87700E-06    1.08224E+04
 1.59680E-05    1.08220E+04
 2.77000E-05    1.08213E+04
 4.80520E-05    1.08202E+04
 7.55014E-05    1.08180E+04
 1.48728E-04    1.08117E+04
 3.67262E-04    1.07952E+04
 9.06898E-04    1.07696E+04
 1.42510E-03    1.07391E+04
 2.23945E-03    1.10596E+04
 3.51910E-03    1.06282E+04
 5.53000E-03    1.05411E+04
 9.11800E-03    1.04597E+04
 1.50300E-02    1.03141E+04
 2.47800E-02    1.08254E+04
 4.08500E-02    9.95856E+03
 6.73400E-02    9.53176E+03
 1.11000E-01    9.19254E+03
 1.83000E-01    7.52907E+03
 3.02000E-01    5.72377E+03
 5.00000E-01    5.68372E+03
 8.21000E-01    4.53271E+03
 1.35300E+00    4.15201E+03
 2.23100E+00    5.15060E+03
 3.67900E+00    4.65433E+03
 6.06500E+00    2.97450E+03
