# n + Pb206 :  n        
# jendl4.0   O.Iwamoto, N.Iwamoto              EVAL-MAR10
# uncertainties: n
# # energies =    65
#   E(MeV)       xs(mb) 
 1.50000E-01    0.00000E+00
 2.00000E-01    4.96862E-05
 4.00000E-01    1.33371E-03
 5.00000E-01    3.46819E-03
 6.00000E-01    7.50362E-03
 8.00000E-01    2.53495E-02
 8.07033E-01    3.01718E-02
 1.00000E+00    3.10860E-02
 1.17171E+00    5.50720E-02
 1.20000E+00    5.59902E-02
 1.34710E+00    9.18914E-02
 1.40000E+00    8.99139E-02
 1.47398E+00    1.06615E-01
 1.50000E+00    1.05108E-01
 1.60000E+00    1.23392E-01
 1.69229E+00    1.47912E-01
 1.71184E+00    1.51559E-01
 1.79294E+00    1.62512E-01
 1.80000E+00    1.61620E-01
 2.00000E+00    2.14540E-01
 2.00749E+00    2.15697E-01
 2.15842E+00    2.75319E-01
 2.20746E+00    2.84824E-01
 2.21098E+00    2.86298E-01
 2.24665E+00    3.07223E-01
 2.32634E+00    3.35763E-01
 2.39586E+00    3.57960E-01
 2.40310E+00    3.57793E-01
 2.43497E+00    3.79797E-01
 2.50000E+00    3.99159E-01
 3.00000E+00    1.53830E+02
 3.50000E+00    4.89171E+02
 4.00000E+00    9.06829E+02
 4.50000E+00    1.36057E+03
 5.00000E+00    1.77173E+03
 5.50000E+00    2.06665E+03
 6.00000E+00    2.23970E+03
 6.50000E+00    2.33072E+03
 7.00000E+00    2.38130E+03
 7.50000E+00    2.41667E+03
 8.00000E+00    2.44624E+03
 8.50000E+00    2.38498E+03
 9.00000E+00    2.09901E+03
 9.50000E+00    1.73904E+03
 1.00000E+01    1.35635E+03
 1.05000E+01    1.02397E+03
 1.10000E+01    7.69822E+02
 1.15000E+01    5.64096E+02
 1.20000E+01    4.30951E+02
 1.25000E+01    3.43932E+02
 1.30000E+01    2.81375E+02
 1.35000E+01    2.42629E+02
 1.40000E+01    2.15748E+02
 1.45000E+01    1.98716E+02
 1.50000E+01    1.85561E+02
 1.55000E+01    1.74915E+02
 1.60000E+01    1.68430E+02
 1.65000E+01    1.59789E+02
 1.70000E+01    1.55262E+02
 1.75000E+01    1.46993E+02
 1.80000E+01    1.43150E+02
 1.85000E+01    1.38054E+02
 1.90000E+01    1.34279E+02
 1.95000E+01    1.28461E+02
 2.00000E+01    1.23799E+02
