# n + Pb206 : (n,n'02)  
# jendl4.0   O.Iwamoto, N.Iwamoto              EVAL-MAR10
# uncertainties: n
# # energies =    57
#   E(MeV)       xs(mb) 
 1.17171E+00    0.00000E+00
 1.20000E+00    2.28436E+01
 1.34710E+00    6.77400E+01
 1.40000E+00    7.90360E+01
 1.47398E+00    9.22098E+01
 1.50000E+00    9.46026E+01
 1.60000E+00    1.03165E+02
 1.69229E+00    1.08243E+02
 1.71184E+00    1.09012E+02
 1.79294E+00    1.07607E+02
 1.80000E+00    1.07013E+02
 2.00000E+00    1.02356E+02
 2.00749E+00    1.02244E+02
 2.15842E+00    1.00340E+02
 2.20746E+00    9.90900E+01
 2.21098E+00    9.88885E+01
 2.24665E+00    9.79660E+01
 2.32634E+00    9.63185E+01
 2.39586E+00    9.44089E+01
 2.40310E+00    9.42568E+01
 2.43497E+00    9.30394E+01
 2.50000E+00    9.07877E+01
 3.00000E+00    7.97801E+01
 3.50000E+00    6.49060E+01
 4.00000E+00    4.70596E+01
 4.50000E+00    3.18123E+01
 5.00000E+00    2.04850E+01
 5.50000E+00    1.27453E+01
 6.00000E+00    7.86249E+00
 6.50000E+00    4.98735E+00
 7.00000E+00    3.38080E+00
 7.50000E+00    2.50941E+00
 8.00000E+00    2.03829E+00
 8.50000E+00    1.77593E+00
 9.00000E+00    1.61831E+00
 9.50000E+00    1.51049E+00
 1.00000E+01    1.42475E+00
 1.05000E+01    1.35168E+00
 1.10000E+01    1.27872E+00
 1.15000E+01    1.20977E+00
 1.20000E+01    1.15155E+00
 1.25000E+01    1.09689E+00
 1.30000E+01    1.04464E+00
 1.35000E+01    1.00087E+00
 1.40000E+01    9.63049E-01
 1.45000E+01    9.31018E-01
 1.50000E+01    8.96678E-01
 1.55000E+01    8.64867E-01
 1.60000E+01    8.33794E-01
 1.65000E+01    8.04191E-01
 1.70000E+01    7.75438E-01
 1.75000E+01    7.47654E-01
 1.80000E+01    7.18536E-01
 1.85000E+01    6.88987E-01
 1.90000E+01    6.61301E-01
 1.95000E+01    6.35677E-01
 2.00000E+01    6.12155E-01
