# n + Ta181 : (n,t)     
# jendl.ad   K.Shibata (JAEA)                  EVAL-Oct14
# uncertainties: n
# # energies =    73
#   E(MeV)       xs(mb) 
 4.88183E+00    0.00000E+00
 5.00530E+00    1.51020E-30
 5.09736E+00    2.63610E-30
 5.15225E+00    3.30750E-30
 5.22143E+00    4.15360E-30
 5.25895E+00    4.61250E-30
 5.30507E+00    2.71430E-29
 5.32295E+00    3.58780E-29
 5.36082E+00    5.43780E-29
 5.37226E+00    5.99660E-29
 5.40305E+00    7.50080E-29
 5.46730E+00    1.06400E-28
 5.49946E+00    1.22110E-28
 5.50202E+00    1.23360E-28
 5.51665E+00    1.30500E-28
 5.54983E+00    1.46710E-28
 5.56513E+00    1.54190E-28
 5.56666E+00    1.54930E-28
 5.58679E+00    1.64770E-28
 5.60646E+00    1.74380E-28
 5.61811E+00    1.80070E-28
 5.62868E+00    1.85230E-28
 5.67441E+00    2.07570E-28
 5.72943E+00    2.34450E-28
 5.73493E+00    2.37140E-28
 5.73576E+00    2.37540E-28
 5.75255E+00    2.45740E-28
 5.75690E+00    2.47870E-28
 5.77588E+00    2.57140E-28
 5.78353E+00    2.60880E-28
 5.79891E+00    2.68390E-28
 5.82269E+00    2.80010E-28
 5.84577E+00    2.91280E-28
 5.87302E+00    3.04600E-28
 5.87936E+00    3.07690E-28
 5.89107E+00    3.13410E-28
 5.91154E+00    3.23410E-28
 5.91837E+00    3.26750E-28
 5.96137E+00    3.47760E-28
 5.96252E+00    3.48320E-28
 5.96443E+00    3.49250E-28
 5.96619E+00    3.50110E-28
 5.96825E+00    3.51120E-28
 5.97260E+00    3.53240E-28
 5.97569E+00    3.54750E-28
 5.98062E+00    3.57160E-28
 5.99373E+00    3.63560E-28
 5.99391E+00    3.63650E-28
 6.00000E+00    3.66630E-28
 6.00890E+00    1.24010E-23
 6.50000E+00    6.96670E-22
 7.00000E+00    2.24650E-17
 7.50000E+00    1.99540E-14
 8.00000E+00    2.27240E-12
 8.50000E+00    7.17060E-11
 9.00000E+00    1.07120E-09
 9.50000E+00    1.06740E-08
 1.00000E+01    1.33220E-07
 1.10000E+01    1.15004E-05
 1.20000E+01    2.88454E-04
 1.25000E+01    1.10932E-03
 1.30000E+01    3.06944E-03
 1.40000E+01    1.87647E-02
 1.41000E+01    2.18990E-02
 1.42000E+01    2.54625E-02
 1.45000E+01    3.91390E-02
 1.50000E+01    7.42824E-02
 1.60000E+01    2.01461E-01
 1.70000E+01    4.19987E-01
 1.75000E+01    5.67312E-01
 1.80000E+01    7.32410E-01
 1.90000E+01    1.11762E+00
 2.00000E+01    1.55468E+00
