# n + Ta181 : (n,el)    
# irdff2.0   N.YAMAMURO                        EVAL-MAR87
# uncertainties: n
# # energies =   171
#   E(MeV)       xs(mb) 
 1.00000E-11    8.48171E+03
 1.00000E-07    5.58239E+03
 4.13990E-07    5.48704E+03
 5.31580E-07    5.43596E+03
 6.82560E-07    5.36700E+03
 8.76420E-07    5.27204E+03
 1.12540E-06    5.13933E+03
 1.44500E-06    4.94619E+03
 1.85540E-06    4.64403E+03
 2.37240E-06    4.08962E+03
 3.05900E-06    2.91866E+03
 3.92790E-06    9.64773E+04
 5.04350E-06    8.66644E+03
 6.47600E-06    6.32012E+03
 8.31530E-06    1.95043E+04
 1.06770E-05    7.39876E+03
 1.37100E-05    6.84501E+03
 1.76030E-05    4.95450E+03
 2.26030E-05    1.08230E+04
 2.92030E-05    4.34193E+04
 3.72670E-05    1.22766E+05
 4.78510E-05    6.90784E+03
 6.14420E-05    9.19242E+03
 7.88930E-05    8.23113E+04
 1.01300E-04    3.96370E+04
 1.30070E-04    1.31770E+04
 1.67020E-04    4.73475E+04
 2.14450E-04    2.55217E+04
 2.75360E-04    1.69464E+04
 3.53580E-04    1.75983E+04
 4.54000E-04    1.79787E+04
 5.82950E-04    2.69154E+04
 7.48520E-04    1.90916E+04
 9.61120E-04    2.43640E+04
 1.23410E-03    1.58815E+04
 1.58460E-03    1.43068E+04
 2.03470E-03    1.43071E+04
 2.24870E-03    1.45957E+04
 2.48520E-03    1.37683E+04
 2.61260E-03    1.37428E+04
 2.74650E-03    1.37081E+04
 3.03540E-03    1.36331E+04
 3.35460E-03    1.35412E+04
 3.70740E-03    1.34296E+04
 4.30740E-03    1.32048E+04
 5.53080E-03    1.28034E+04
 7.10170E-03    1.23363E+04
 9.11880E-03    1.18938E+04
 1.17090E-02    1.14741E+04
 1.50340E-02    1.10870E+04
 1.93050E-02    1.08149E+04
 2.18750E-02    1.06820E+04
 2.35790E-02    1.06168E+04
 2.41760E-02    1.05848E+04
 2.47880E-02    1.05429E+04
 2.60580E-02    1.05039E+04
 2.70000E-02    1.04637E+04
 2.85000E-02    1.03738E+04
 3.18280E-02    1.02078E+04
 3.43070E-02    9.96920E+03
 4.08680E-02    9.65943E+03
 4.63090E-02    9.38506E+03
 5.24750E-02    9.15980E+03
 5.65620E-02    8.88435E+03
 6.73790E-02    8.63081E+03
 7.20000E-02    8.45881E+03
 7.95000E-02    8.30918E+03
 8.25000E-02    8.19499E+03
 8.65170E-02    7.97128E+03
 9.80370E-02    7.66462E+03
 1.11090E-01    7.46178E+03
 1.16790E-01    7.34924E+03
 1.22770E-01    7.23323E+03
 1.29070E-01    7.11911E+03
 1.35690E-01    6.99742E+03
 1.42640E-01    6.85523E+03
 1.49960E-01    6.76586E+03
 1.57640E-01    6.73671E+03
 1.65730E-01    6.70606E+03
 1.74220E-01    6.67319E+03
 1.83160E-01    6.63608E+03
 1.92550E-01    6.59531E+03
 2.02420E-01    6.51583E+03
 2.12800E-01    6.41654E+03
 2.23710E-01    6.31437E+03
 2.35180E-01    6.21487E+03
 2.47240E-01    6.10655E+03
 2.73240E-01    6.03578E+03
 2.87250E-01    5.99868E+03
 2.94520E-01    5.98135E+03
 2.97200E-01    5.97444E+03
 2.98500E-01    5.96294E+03
 3.01970E-01    5.80950E+03
 3.33730E-01    5.54085E+03
 3.68830E-01    5.43059E+03
 3.87740E-01    5.36721E+03
 4.07620E-01    5.24178E+03
 4.50490E-01    5.03041E+03
 4.97870E-01    4.81097E+03
 5.23400E-01    4.74948E+03
 5.50230E-01    4.71434E+03
 5.78440E-01    4.71029E+03
 6.08100E-01    4.70563E+03
 6.39280E-01    4.70075E+03
 6.72060E-01    4.72348E+03
 7.06510E-01    4.73511E+03
 7.42740E-01    4.73135E+03
 7.80820E-01    4.72923E+03
 8.20850E-01    4.74029E+03
 8.62940E-01    4.75404E+03
 9.07180E-01    4.76834E+03
 9.61640E-01    4.77629E+03
 1.00260E+00    4.83118E+03
 1.10800E+00    4.85777E+03
 1.16480E+00    4.87171E+03
 1.22460E+00    4.88354E+03
 1.28730E+00    4.88375E+03
 1.35340E+00    4.88255E+03
 1.42270E+00    4.88129E+03
 1.49570E+00    4.87255E+03
 1.57240E+00    4.84795E+03
 1.65300E+00    4.82163E+03
 1.73770E+00    4.79396E+03
 1.82680E+00    4.76365E+03
 1.92050E+00    4.72666E+03
 2.01900E+00    4.68477E+03
 2.12250E+00    4.63500E+03
 2.23130E+00    4.59147E+03
 2.30690E+00    4.56446E+03
 2.34570E+00    4.55079E+03
 2.36530E+00    4.54177E+03
 2.38520E+00    4.51888E+03
 2.46600E+00    4.46734E+03
 2.59240E+00    4.38420E+03
 2.72530E+00    4.29535E+03
 2.86500E+00    4.20742E+03
 3.01190E+00    4.10843E+03
 3.16640E+00    3.99510E+03
 3.32870E+00    3.81580E+03
 3.67880E+00    3.50663E+03
 4.06570E+00    3.27635E+03
 4.49330E+00    3.13979E+03
 4.72370E+00    3.05178E+03
 4.96590E+00    2.95007E+03
 5.22050E+00    2.82587E+03
 5.48810E+00    2.70522E+03
 5.76950E+00    2.59121E+03
 6.06530E+00    2.52122E+03
 6.37630E+00    2.47883E+03
 6.59240E+00    2.45263E+03
 6.70320E+00    2.41947E+03
 7.04690E+00    2.40981E+03
 7.40820E+00    2.42562E+03
 7.78800E+00    2.44562E+03
 8.18730E+00    2.49060E+03
 8.60710E+00    2.54085E+03
 9.04840E+00    2.62690E+03
 9.51230E+00    2.74254E+03
 1.00000E+01    2.77270E+03
 1.05130E+01    2.71198E+03
 1.10520E+01    2.71826E+03
 1.16180E+01    2.77391E+03
 1.22140E+01    2.82135E+03
 1.28400E+01    2.87954E+03
 1.34990E+01    2.94662E+03
 1.38400E+01    2.99004E+03
 1.41910E+01    3.01810E+03
 1.45500E+01    3.04660E+03
 1.49180E+01    3.10932E+03
 1.56830E+01    3.20890E+03
 1.64870E+01    3.29269E+03
