# n + Xe130 : (n,d)     
# jendl.ad   kunieda                           EVAL-Mar14
# uncertainties: n
# # energies =    35
#   E(MeV)       xs(mb) 
 6.49278E+00    0.00000E+00
 6.52079E+00    3.73750E-15
 6.77332E+00    5.65230E-14
 6.98391E+00    1.01350E-13
 7.05674E+00    1.16850E-13
 7.19407E+00    1.60120E-13
 7.22801E+00    1.70970E-13
 7.26751E+00    1.83650E-13
 7.32914E+00    2.03510E-13
 7.34416E+00    2.08350E-13
 8.00000E+00    4.19750E-13
 8.50000E+00    3.35300E-10
 9.00000E+00    2.62400E-08
 9.50000E+00    6.39010E-07
 1.00000E+01    1.00961E-05
 1.05000E+01    7.24276E-05
 1.10000E+01    8.68006E-04
 1.15000E+01    2.17713E-03
 1.20000E+01    9.49459E-03
 1.25000E+01    3.52829E-02
 1.30000E+01    6.81663E-02
 1.35000E+01    1.96446E-01
 1.40000E+01    3.30826E-01
 1.45000E+01    6.22211E-01
 1.50000E+01    9.42777E-01
 1.55000E+01    1.36394E+00
 1.60000E+01    1.89316E+00
 1.65000E+01    2.53412E+00
 1.70000E+01    3.28784E+00
 1.75000E+01    4.15327E+00
 1.80000E+01    5.12818E+00
 1.85000E+01    5.69098E+00
 1.90000E+01    6.45296E+00
 1.95000E+01    7.65267E+00
 2.00000E+01    8.94728E+00
