# n + Xe130 : (n,p)m    
# jendl.ad   kunieda                           EVAL-Mar14
# uncertainties: n
# # energies =    35
#   E(MeV)       xs(mb) 
 2.22408E+00    0.00000E+00
 3.50000E+00    1.08250E-09
 4.00000E+00    6.39580E-07
 4.50000E+00    3.30004E-05
 5.00000E+00    4.73456E-04
 5.50000E+00    3.07058E-03
 6.00000E+00    1.33847E-02
 6.50000E+00    3.49492E-02
 7.00000E+00    7.50775E-02
 7.50000E+00    1.12800E-01
 8.00000E+00    1.84983E-01
 8.50000E+00    2.31665E-01
 9.00000E+00    2.80678E-01
 9.50000E+00    3.37174E-01
 1.00000E+01    4.09859E-01
 1.05000E+01    4.82776E-01
 1.10000E+01    6.11288E-01
 1.15000E+01    7.82737E-01
 1.20000E+01    9.71965E-01
 1.25000E+01    1.23043E+00
 1.30000E+01    1.50932E+00
 1.35000E+01    1.86272E+00
 1.40000E+01    2.21427E+00
 1.45000E+01    2.64868E+00
 1.50000E+01    3.03929E+00
 1.55000E+01    3.44884E+00
 1.60000E+01    3.92477E+00
 1.65000E+01    4.30071E+00
 1.70000E+01    4.66434E+00
 1.75000E+01    5.24088E+00
 1.80000E+01    5.49495E+00
 1.85000E+01    5.70624E+00
 1.90000E+01    5.95455E+00
 1.95000E+01    6.44875E+00
 2.00000E+01    6.44010E+00
