# n + Pd105 : (n,n'16)  
# jendl4.0   N.Iwamoto,K.Shibata               EVAL-Dec09
# uncertainties: n
# # energies =    73
#   E(MeV)       xs(mb) 
 7.94567E-01    0.00000E+00
 8.00000E-01    1.30134E+00
 8.15769E-01    3.92106E+00
 9.00000E-01    1.78399E+01
 9.10653E-01    1.92619E+01
 9.29855E-01    2.15679E+01
 9.38064E-01    2.23864E+01
 9.48028E-01    2.33122E+01
 9.70644E-01    2.50327E+01
 9.71633E-01    2.50793E+01
 9.79478E-01    2.55075E+01
 9.81346E-01    2.56131E+01
 1.00000E+00    2.63450E+01
 1.02128E+00    2.68062E+01
 1.02144E+00    2.68092E+01
 1.08251E+00    2.78557E+01
 1.08473E+00    2.78766E+01
 1.08534E+00    2.78828E+01
 1.09842E+00    2.79109E+01
 1.10000E+00    2.78747E+01
 1.10898E+00    2.77705E+01
 1.11270E+00    2.77266E+01
 1.13615E+00    2.73497E+01
 1.15178E+00    2.70572E+01
 1.15333E+00    2.70166E+01
 1.18902E+00    2.61808E+01
 1.20000E+00    2.59018E+01
 1.30000E+00    2.33833E+01
 1.40000E+00    2.13852E+01
 1.50000E+00    1.97769E+01
 1.60000E+00    1.82649E+01
 1.70000E+00    1.69334E+01
 1.80000E+00    1.57365E+01
 1.90000E+00    1.46208E+01
 2.00000E+00    1.36513E+01
 2.25000E+00    1.12581E+01
 2.50000E+00    9.12056E+00
 2.75000E+00    6.95158E+00
 3.00000E+00    5.40575E+00
 3.50000E+00    3.04098E+00
 4.00000E+00    1.68908E+00
 4.50000E+00    9.54717E-01
 5.00000E+00    5.60254E-01
 5.50000E+00    3.45844E-01
 6.00000E+00    2.26997E-01
 6.50000E+00    1.59790E-01
 7.00000E+00    1.20931E-01
 7.50000E+00    9.77515E-02
 8.00000E+00    8.33564E-02
 8.50000E+00    7.39542E-02
 9.00000E+00    6.74171E-02
 9.50000E+00    6.25652E-02
 1.00000E+01    5.87344E-02
 1.05000E+01    5.55601E-02
 1.10000E+01    5.26870E-02
 1.15000E+01    5.01199E-02
 1.20000E+01    4.77581E-02
 1.25000E+01    4.55649E-02
 1.30000E+01    4.35382E-02
 1.35000E+01    4.16195E-02
 1.40000E+01    3.98432E-02
 1.45000E+01    3.81322E-02
 1.50000E+01    3.65531E-02
 1.55000E+01    3.50217E-02
 1.60000E+01    3.35853E-02
 1.65000E+01    3.21574E-02
 1.70000E+01    3.08610E-02
 1.75000E+01    2.95640E-02
 1.80000E+01    2.83681E-02
 1.85000E+01    2.71861E-02
 1.90000E+01    2.61085E-02
 1.95000E+01    2.50488E-02
 2.00000E+01    2.40800E-02
