# n + Pd105 : (n,tot)   
# jendl4.0   N.Iwamoto,K.Shibata               EVAL-Dec09
# uncertainties: n
# # energies =   171
#   E(MeV)       xs(mb) 
 1.00000E-11    2.30187E+05
 1.00000E-07    1.23299E+04
 4.13990E-07    9.64561E+03
 5.31580E-07    9.05906E+03
 6.82560E-07    8.53485E+03
 8.76420E-07    8.06541E+03
 1.12540E-06    7.64507E+03
 1.44500E-06    7.26718E+03
 1.85540E-06    6.93033E+03
 2.37240E-06    6.62560E+03
 3.05900E-06    6.60980E+03
 3.92790E-06    6.30738E+03
 5.04350E-06    5.91188E+03
 6.47600E-06    5.80974E+03
 8.31530E-06    6.21915E+03
 1.06770E-05    1.35947E+05
 1.37100E-05    1.14499E+04
 1.76030E-05    5.56766E+03
 2.26030E-05    5.28554E+04
 2.92030E-05    8.48232E+03
 3.72670E-05    7.27578E+03
 4.78510E-05    2.57528E+04
 6.14420E-05    2.86342E+04
 7.88930E-05    2.84330E+04
 1.01300E-04    7.79911E+03
 1.30070E-04    3.75623E+04
 1.67020E-04    1.15989E+04
 2.14450E-04    1.74288E+04
 2.75360E-04    2.07758E+04
 3.53580E-04    1.77831E+04
 4.54000E-04    1.52571E+04
 5.82950E-04    1.73711E+04
 7.48520E-04    1.60308E+04
 9.61120E-04    1.11319E+04
 1.23410E-03    1.40145E+04
 1.58460E-03    1.20228E+04
 2.03470E-03    1.16497E+04
 2.24870E-03    1.11101E+04
 2.48520E-03    1.09006E+04
 2.61260E-03    1.07635E+04
 2.74650E-03    1.05612E+04
 3.03540E-03    1.02966E+04
 3.35460E-03    1.00391E+04
 3.70740E-03    9.73992E+03
 4.30740E-03    9.38994E+03
 5.53080E-03    8.98657E+03
 7.10170E-03    8.65826E+03
 9.11880E-03    8.41478E+03
 1.17090E-02    8.27654E+03
 1.50340E-02    8.14971E+03
 1.93050E-02    8.06359E+03
 2.18750E-02    8.03711E+03
 2.35790E-02    8.02481E+03
 2.41760E-02    8.01841E+03
 2.47880E-02    8.00854E+03
 2.60580E-02    7.99792E+03
 2.70000E-02    7.98691E+03
 2.85000E-02    7.97028E+03
 3.18280E-02    7.97033E+03
 3.43070E-02    7.97589E+03
 4.08680E-02    7.98251E+03
 4.63090E-02    7.99011E+03
 5.24750E-02    8.01148E+03
 5.65620E-02    8.04456E+03
 6.73790E-02    8.07713E+03
 7.20000E-02    8.10018E+03
 7.95000E-02    8.11999E+03
 8.25000E-02    8.13238E+03
 8.65170E-02    8.15848E+03
 9.80370E-02    8.19162E+03
 1.11090E-01    8.20969E+03
 1.16790E-01    8.22069E+03
 1.22770E-01    8.23225E+03
 1.29070E-01    8.24429E+03
 1.35690E-01    8.24990E+03
 1.42640E-01    8.25177E+03
 1.49960E-01    8.25373E+03
 1.57640E-01    8.25579E+03
 1.65730E-01    8.25796E+03
 1.74220E-01    8.26023E+03
 1.83160E-01    8.26263E+03
 1.92550E-01    8.26463E+03
 2.02420E-01    8.25431E+03
 2.12800E-01    8.23814E+03
 2.23710E-01    8.22113E+03
 2.35180E-01    8.20325E+03
 2.47240E-01    8.17458E+03
 2.73240E-01    8.14394E+03
 2.87250E-01    8.12770E+03
 2.94520E-01    8.12012E+03
 2.97200E-01    8.11709E+03
 2.98500E-01    8.11347E+03
 3.01970E-01    8.08206E+03
 3.33730E-01    8.01354E+03
 3.68830E-01    7.95733E+03
 3.87740E-01    7.91728E+03
 4.07620E-01    7.85194E+03
 4.50490E-01    7.75328E+03
 4.97870E-01    7.67258E+03
 5.23400E-01    7.61509E+03
 5.50230E-01    7.55465E+03
 5.78440E-01    7.49111E+03
 6.08100E-01    7.42431E+03
 6.39280E-01    7.35408E+03
 6.72060E-01    7.28026E+03
 7.06510E-01    7.20266E+03
 7.42740E-01    7.12110E+03
 7.80820E-01    7.04104E+03
 8.20850E-01    6.96105E+03
 8.62940E-01    6.87696E+03
 9.07180E-01    6.78096E+03
 9.61640E-01    6.68879E+03
 1.00260E+00    6.56046E+03
 1.10800E+00    6.41689E+03
 1.16480E+00    6.32148E+03
 1.22460E+00    6.22467E+03
 1.28730E+00    6.12289E+03
 1.35340E+00    6.02019E+03
 1.42270E+00    5.92184E+03
 1.49570E+00    5.81871E+03
 1.57240E+00    5.71035E+03
 1.65300E+00    5.59822E+03
 1.73770E+00    5.49408E+03
 1.82680E+00    5.38752E+03
 1.92050E+00    5.28134E+03
 2.01900E+00    5.17422E+03
 2.12250E+00    5.06164E+03
 2.23130E+00    4.96692E+03
 2.30690E+00    4.91473E+03
 2.34570E+00    4.88831E+03
 2.36530E+00    4.87047E+03
 2.38520E+00    4.82517E+03
 2.46600E+00    4.73442E+03
 2.59240E+00    4.63142E+03
 2.72530E+00    4.52559E+03
 2.86500E+00    4.42567E+03
 3.01190E+00    4.33420E+03
 3.16640E+00    4.25177E+03
 3.32870E+00    4.13388E+03
 3.67880E+00    4.02002E+03
 4.06570E+00    3.95217E+03
 4.49330E+00    3.93104E+03
 4.72370E+00    3.93682E+03
 4.96590E+00    3.94784E+03
 5.22050E+00    3.97291E+03
 5.48810E+00    4.00050E+03
 5.76950E+00    4.03405E+03
 6.06530E+00    4.07046E+03
 6.37630E+00    4.10218E+03
 6.59240E+00    4.12185E+03
 6.70320E+00    4.14898E+03
 7.04690E+00    4.19128E+03
 7.40820E+00    4.23142E+03
 7.78800E+00    4.26792E+03
 8.18730E+00    4.30627E+03
 8.60710E+00    4.34129E+03
 9.04840E+00    4.37100E+03
 9.51230E+00    4.40149E+03
 1.00000E+01    4.42231E+03
 1.05130E+01    4.43687E+03
 1.10520E+01    4.44160E+03
 1.16180E+01    4.43821E+03
 1.22140E+01    4.42167E+03
 1.28400E+01    4.39626E+03
 1.34990E+01    4.36809E+03
 1.38400E+01    4.34785E+03
 1.41910E+01    4.32111E+03
 1.45500E+01    4.29362E+03
 1.49180E+01    4.24611E+03
 1.56830E+01    4.17329E+03
 1.64870E+01    4.09024E+03
