# n + Pd105 : (n,n'07)  
# jendl4.0   N.Iwamoto,K.Shibata               EVAL-Dec09
# uncertainties: n
# # energies =    85
#   E(MeV)       xs(mb) 
 4.93843E-01    0.00000E+00
 5.00000E-01    4.08454E+00
 5.40144E-01    2.31788E+01
 5.66142E-01    3.29351E+01
 6.00000E-01    4.35292E+01
 6.50727E-01    5.67248E+01
 6.56956E-01    5.79741E+01
 6.79642E-01    6.15263E+01
 7.00000E-01    6.41773E+01
 7.03358E-01    6.45598E+01
 7.34212E-01    6.69148E+01
 7.89458E-01    7.25352E+01
 7.94567E-01    7.21162E+01
 8.00000E-01    7.21495E+01
 8.15769E-01    7.25593E+01
 9.00000E-01    7.34415E+01
 9.10653E-01    7.35732E+01
 9.29855E-01    7.39059E+01
 9.38064E-01    7.40696E+01
 9.48028E-01    7.42792E+01
 9.70644E-01    7.49605E+01
 9.71633E-01    7.49921E+01
 9.79478E-01    7.52412E+01
 9.81346E-01    7.52998E+01
 1.00000E+00    7.58560E+01
 1.02128E+00    7.63821E+01
 1.02144E+00    7.63831E+01
 1.08251E+00    7.45736E+01
 1.08473E+00    7.45182E+01
 1.08534E+00    7.45013E+01
 1.09842E+00    7.41561E+01
 1.10000E+00    7.41128E+01
 1.10898E+00    7.38735E+01
 1.11270E+00    7.37744E+01
 1.13615E+00    7.33056E+01
 1.15178E+00    7.30647E+01
 1.15333E+00    7.30523E+01
 1.18902E+00    7.28460E+01
 1.20000E+00    7.27945E+01
 1.30000E+00    6.97477E+01
 1.40000E+00    6.37480E+01
 1.50000E+00    5.70279E+01
 1.60000E+00    4.98329E+01
 1.70000E+00    4.39873E+01
 1.80000E+00    3.89377E+01
 1.90000E+00    3.48768E+01
 2.00000E+00    3.15383E+01
 2.25000E+00    2.41455E+01
 2.50000E+00    1.90253E+01
 2.75000E+00    1.38114E+01
 3.00000E+00    1.07899E+01
 3.50000E+00    6.15002E+00
 4.00000E+00    3.55974E+00
 4.50000E+00    2.10129E+00
 5.00000E+00    1.27098E+00
 5.50000E+00    7.95348E-01
 6.00000E+00    5.22389E-01
 6.50000E+00    3.65143E-01
 7.00000E+00    2.73417E-01
 7.50000E+00    2.18541E-01
 8.00000E+00    1.84536E-01
 8.50000E+00    1.62462E-01
 9.00000E+00    1.47269E-01
 9.50000E+00    1.36123E-01
 1.00000E+01    1.27418E-01
 1.05000E+01    1.20254E-01
 1.10000E+01    1.13825E-01
 1.15000E+01    1.08083E-01
 1.20000E+01    1.02838E-01
 1.25000E+01    9.79865E-02
 1.30000E+01    9.35231E-02
 1.35000E+01    8.93117E-02
 1.40000E+01    8.54173E-02
 1.45000E+01    8.16814E-02
 1.50000E+01    7.82217E-02
 1.55000E+01    7.48903E-02
 1.60000E+01    7.17636E-02
 1.65000E+01    6.86690E-02
 1.70000E+01    6.58287E-02
 1.75000E+01    6.30202E-02
 1.80000E+01    6.04122E-02
 1.85000E+01    5.78774E-02
 1.90000E+01    5.55547E-02
 1.95000E+01    5.32854E-02
 2.00000E+01    5.12070E-02
