# n + Pd105 : (n,n'01)  
# jendl4.0   N.Iwamoto,K.Shibata               EVAL-Dec09
# uncertainties: n
# # energies =    93
#   E(MeV)       xs(mb) 
 2.83207E-01    0.00000E+00
 3.00000E-01    4.05233E+01
 3.09195E-01    6.27528E+01
 3.22285E-01    9.35803E+01
 3.47824E-01    1.42841E+02
 4.00000E-01    2.00171E+02
 4.46634E-01    2.24319E+02
 4.51298E-01    2.25844E+02
 4.93843E-01    2.24912E+02
 5.00000E-01    2.23712E+02
 5.40144E-01    2.16839E+02
 5.66142E-01    2.09337E+02
 6.00000E-01    1.96989E+02
 6.50727E-01    1.80876E+02
 6.56956E-01    1.78955E+02
 6.79642E-01    1.71275E+02
 7.00000E-01    1.63856E+02
 7.03358E-01    1.62691E+02
 7.34212E-01    1.51986E+02
 7.89458E-01    1.34589E+02
 7.94567E-01    1.33113E+02
 8.00000E-01    1.31458E+02
 8.15769E-01    1.27058E+02
 9.00000E-01    1.08224E+02
 9.10653E-01    1.06372E+02
 9.29855E-01    1.02811E+02
 9.38064E-01    1.01196E+02
 9.48028E-01    9.91670E+01
 9.70644E-01    9.48259E+01
 9.71633E-01    9.45926E+01
 9.79478E-01    9.28459E+01
 9.81346E-01    9.24603E+01
 1.00000E+00    8.83431E+01
 1.02128E+00    8.41551E+01
 1.02144E+00    8.41141E+01
 1.08251E+00    7.43196E+01
 1.08473E+00    7.39610E+01
 1.08534E+00    7.38494E+01
 1.09842E+00    7.18110E+01
 1.10000E+00    7.15410E+01
 1.10898E+00    7.01824E+01
 1.11270E+00    6.95958E+01
 1.13615E+00    6.60633E+01
 1.15178E+00    6.38493E+01
 1.15333E+00    6.36308E+01
 1.18902E+00    5.89788E+01
 1.20000E+00    5.76299E+01
 1.30000E+00    4.78266E+01
 1.40000E+00    4.10177E+01
 1.50000E+00    3.60337E+01
 1.60000E+00    3.16602E+01
 1.70000E+00    2.81829E+01
 1.80000E+00    2.52796E+01
 1.90000E+00    2.26009E+01
 2.00000E+00    2.03311E+01
 2.25000E+00    1.57429E+01
 2.50000E+00    1.20204E+01
 2.75000E+00    8.68827E+00
 3.00000E+00    6.95499E+00
 3.50000E+00    3.90086E+00
 4.00000E+00    2.28676E+00
 4.50000E+00    1.43790E+00
 5.00000E+00    9.80907E-01
 5.50000E+00    7.24253E-01
 6.00000E+00    5.72361E-01
 6.50000E+00    4.77058E-01
 7.00000E+00    4.13462E-01
 7.50000E+00    3.68431E-01
 8.00000E+00    3.34906E-01
 8.50000E+00    3.08900E-01
 9.00000E+00    2.87995E-01
 9.50000E+00    2.70624E-01
 1.00000E+01    2.55707E-01
 1.05000E+01    2.42597E-01
 1.10000E+01    2.30225E-01
 1.15000E+01    2.18903E-01
 1.20000E+01    2.08410E-01
 1.25000E+01    1.98627E-01
 1.30000E+01    1.89533E-01
 1.35000E+01    1.80920E-01
 1.40000E+01    1.72954E-01
 1.45000E+01    1.65286E-01
 1.50000E+01    1.58211E-01
 1.55000E+01    1.51371E-01
 1.60000E+01    1.44992E-01
 1.65000E+01    1.38674E-01
 1.70000E+01    1.32885E-01
 1.75000E+01    1.27133E-01
 1.80000E+01    1.21821E-01
 1.85000E+01    1.16646E-01
 1.90000E+01    1.11920E-01
 1.95000E+01    1.07303E-01
 2.00000E+01    1.03079E-01
