# n + Pd105 : (n,d)     
# jendl4.0   N.Iwamoto,K.Shibata               EVAL-Dec09
# uncertainties: n
# # energies =    66
#   E(MeV)       xs(mb) 
 6.59017E+00    0.00000E+00
 6.64209E+00    2.78450E-14
 6.68820E+00    7.72160E-14
 6.72038E+00    1.26230E-13
 6.76709E+00    2.12810E-13
 6.77275E+00    2.23980E-13
 6.77800E+00    2.34530E-13
 6.78996E+00    2.59050E-13
 6.80528E+00    2.91200E-13
 6.81674E+00    3.15660E-13
 6.85950E+00    4.09400E-13
 6.86203E+00    4.15000E-13
 6.92314E+00    5.52180E-13
 6.93808E+00    5.85830E-13
 6.94314E+00    5.97230E-13
 6.95225E+00    6.17770E-13
 6.95684E+00    6.28130E-13
 6.97436E+00    6.67670E-13
 6.97886E+00    6.77830E-13
 6.98815E+00    6.98810E-13
 6.98872E+00    7.00100E-13
 6.99478E+00    7.13790E-13
 6.99856E+00    7.35500E-13
 7.00098E+00    7.56980E-13
 7.01041E+00    8.84590E-13
 7.01498E+00    9.63770E-13
 7.02063E+00    1.07780E-12
 7.05004E+00    1.89490E-12
 7.05423E+00    2.03020E-12
 7.06054E+00    2.24250E-12
 7.07713E+00    2.85290E-12
 7.08103E+00    3.00390E-12
 7.09301E+00    3.48440E-12
 7.10021E+00    3.78240E-12
 7.10964E+00    4.18280E-12
 7.11714E+00    4.50860E-12
 7.11992E+00    4.63090E-12
 7.13308E+00    5.22060E-12
 7.14778E+00    5.89390E-12
 7.15098E+00    6.04200E-12
 7.17090E+00    6.97830E-12
 8.00000E+00    4.63000E-11
 8.50000E+00    5.18840E-09
 9.00000E+00    7.13820E-07
 9.50000E+00    2.33941E-05
 1.00000E+01    2.22260E-04
 1.05000E+01    1.76812E-03
 1.10000E+01    9.09976E-03
 1.15000E+01    3.38216E-02
 1.20000E+01    9.73233E-02
 1.25000E+01    2.27582E-01
 1.30000E+01    4.49843E-01
 1.35000E+01    7.77753E-01
 1.40000E+01    1.21282E+00
 1.45000E+01    1.74588E+00
 1.50000E+01    2.36583E+00
 1.55000E+01    3.01448E+00
 1.60000E+01    3.75444E+00
 1.65000E+01    4.57846E+00
 1.70000E+01    5.37486E+00
 1.75000E+01    6.20948E+00
 1.80000E+01    6.97189E+00
 1.85000E+01    7.91460E+00
 1.90000E+01    8.87927E+00
 1.95000E+01    9.69496E+00
 2.00000E+01    1.03317E+01
