# n + Pd105 : (n,n'06)  
# jendl4.0   N.Iwamoto,K.Shibata               EVAL-Dec09
# uncertainties: n
# # energies =    86
#   E(MeV)       xs(mb) 
 4.51298E-01    0.00000E+00
 4.93843E-01    1.23699E+02
 5.00000E-01    1.39349E+02
 5.40144E-01    2.23355E+02
 5.66142E-01    2.60546E+02
 6.00000E-01    2.91616E+02
 6.50727E-01    3.20972E+02
 6.56956E-01    3.21231E+02
 6.79642E-01    3.21832E+02
 7.00000E-01    3.21459E+02
 7.03358E-01    3.21361E+02
 7.34212E-01    3.16566E+02
 7.89458E-01    2.97481E+02
 7.94567E-01    2.95571E+02
 8.00000E-01    2.93460E+02
 8.15769E-01    2.87500E+02
 9.00000E-01    2.54297E+02
 9.10653E-01    2.50899E+02
 9.29855E-01    2.44151E+02
 9.38064E-01    2.40988E+02
 9.48028E-01    2.36907E+02
 9.70644E-01    2.27463E+02
 9.71633E-01    2.26989E+02
 9.79478E-01    2.23409E+02
 9.81346E-01    2.22589E+02
 1.00000E+00    2.14336E+02
 1.02128E+00    2.05905E+02
 1.02144E+00    2.05788E+02
 1.08251E+00    1.83976E+02
 1.08473E+00    1.83158E+02
 1.08534E+00    1.82908E+02
 1.09842E+00    1.78426E+02
 1.10000E+00    1.77859E+02
 1.10898E+00    1.74903E+02
 1.11270E+00    1.73616E+02
 1.13615E+00    1.65961E+02
 1.15178E+00    1.61192E+02
 1.15333E+00    1.60711E+02
 1.18902E+00    1.50279E+02
 1.20000E+00    1.47266E+02
 1.30000E+00    1.23965E+02
 1.40000E+00    1.06294E+02
 1.50000E+00    9.22366E+01
 1.60000E+00    8.02037E+01
 1.70000E+00    7.03080E+01
 1.80000E+00    6.20021E+01
 1.90000E+00    5.51832E+01
 2.00000E+00    4.92230E+01
 2.25000E+00    3.70134E+01
 2.50000E+00    2.82927E+01
 2.75000E+00    2.01393E+01
 3.00000E+00    1.49470E+01
 3.50000E+00    7.89021E+00
 4.00000E+00    4.21327E+00
 4.50000E+00    2.30539E+00
 5.00000E+00    1.29705E+00
 5.50000E+00    7.50199E-01
 6.00000E+00    4.48148E-01
 6.50000E+00    2.80168E-01
 7.00000E+00    1.86534E-01
 7.50000E+00    1.33941E-01
 8.00000E+00    1.03947E-01
 8.50000E+00    8.63462E-02
 9.00000E+00    7.54730E-02
 9.50000E+00    6.82742E-02
 1.00000E+01    6.31189E-02
 1.05000E+01    5.91488E-02
 1.10000E+01    5.57548E-02
 1.15000E+01    5.28146E-02
 1.20000E+01    5.01832E-02
 1.25000E+01    4.77792E-02
 1.30000E+01    4.55817E-02
 1.35000E+01    4.35166E-02
 1.40000E+01    4.16115E-02
 1.45000E+01    3.97862E-02
 1.50000E+01    3.80973E-02
 1.55000E+01    3.64599E-02
 1.60000E+01    3.49247E-02
 1.65000E+01    3.34172E-02
 1.70000E+01    3.20366E-02
 1.75000E+01    3.06703E-02
 1.80000E+01    2.94021E-02
 1.85000E+01    2.81695E-02
 1.90000E+01    2.70362E-02
 1.95000E+01    2.59251E-02
 2.00000E+01    2.49075E-02
