# n + Pd105 : (n,n'14)  
# jendl4.0   N.Iwamoto,K.Shibata               EVAL-Dec09
# uncertainties: n
# # energies =    75
#   E(MeV)       xs(mb) 
 7.34212E-01    0.00000E+00
 7.89458E-01    5.31992E+01
 7.94567E-01    5.74465E+01
 8.00000E-01    6.18719E+01
 8.15769E-01    7.39480E+01
 9.00000E-01    1.16181E+02
 9.10653E-01    1.19846E+02
 9.29855E-01    1.25389E+02
 9.38064E-01    1.26973E+02
 9.48028E-01    1.28065E+02
 9.70644E-01    1.30185E+02
 9.71633E-01    1.30220E+02
 9.79478E-01    1.30539E+02
 9.81346E-01    1.30616E+02
 1.00000E+00    1.30965E+02
 1.02128E+00    1.31229E+02
 1.02144E+00    1.31193E+02
 1.08251E+00    1.27681E+02
 1.08473E+00    1.27447E+02
 1.08534E+00    1.27367E+02
 1.09842E+00    1.26165E+02
 1.10000E+00    1.25988E+02
 1.10898E+00    1.25142E+02
 1.11270E+00    1.24733E+02
 1.13615E+00    1.22118E+02
 1.15178E+00    1.19849E+02
 1.15333E+00    1.19628E+02
 1.18902E+00    1.14624E+02
 1.20000E+00    1.13111E+02
 1.30000E+00    9.95998E+01
 1.40000E+00    8.78086E+01
 1.50000E+00    7.76982E+01
 1.60000E+00    6.84206E+01
 1.70000E+00    6.05034E+01
 1.80000E+00    5.36874E+01
 1.90000E+00    4.79739E+01
 2.00000E+00    4.29758E+01
 2.25000E+00    3.29834E+01
 2.50000E+00    2.52527E+01
 2.75000E+00    1.84746E+01
 3.00000E+00    1.40021E+01
 3.50000E+00    7.64710E+00
 4.00000E+00    4.21863E+00
 4.50000E+00    2.40531E+00
 5.00000E+00    1.43965E+00
 5.50000E+00    9.13030E-01
 6.00000E+00    6.17928E-01
 6.50000E+00    4.48409E-01
 7.00000E+00    3.48462E-01
 7.50000E+00    2.87450E-01
 8.00000E+00    2.48537E-01
 8.50000E+00    2.22400E-01
 9.00000E+00    2.03751E-01
 9.50000E+00    1.89609E-01
 1.00000E+01    1.78257E-01
 1.05000E+01    1.68738E-01
 1.10000E+01    1.60056E-01
 1.15000E+01    1.52255E-01
 1.20000E+01    1.45070E-01
 1.25000E+01    1.38399E-01
 1.30000E+01    1.32231E-01
 1.35000E+01    1.26391E-01
 1.40000E+01    1.20981E-01
 1.45000E+01    1.15774E-01
 1.50000E+01    1.10962E-01
 1.55000E+01    1.06282E-01
 1.60000E+01    1.01917E-01
 1.65000E+01    9.75940E-02
 1.70000E+01    9.36323E-02
 1.75000E+01    8.96735E-02
 1.80000E+01    8.60188E-02
 1.85000E+01    8.24405E-02
 1.90000E+01    7.91741E-02
 1.95000E+01    7.59661E-02
 2.00000E+01    7.30136E-02
