# n + Pd105 : (n,xa)    
# jendl4.0   N.Iwamoto,K.Shibata               EVAL-Dec09
# 
# # energies =   110
#   E(MeV)        xs(mb) 
 1.05000E-01    8.46935E-03
 1.10000E-01    8.35509E-03
 1.20000E-01    8.16356E-03
 1.30000E-01    8.01026E-03
 1.40000E-01    7.89478E-03
 1.50000E-01    7.80599E-03
 1.60000E-01    7.73576E-03
 1.70000E-01    7.69394E-03
 1.80000E-01    7.66369E-03
 1.90000E-01    7.65274E-03
 2.00000E-01    7.66407E-03
 2.25000E-01    7.74673E-03
 2.50000E-01    7.89076E-03
 2.75000E-01    8.08501E-03
 2.83207E-01    8.15389E-03
 3.00000E-01    8.02311E-03
 3.09195E-01    8.02174E-03
 3.22285E-01    7.90772E-03
 3.47824E-01    7.45126E-03
 4.00000E-01    6.80733E-03
 4.46633E-01    6.77425E-03
 4.46634E-01    6.77425E-03
 4.51298E-01    6.73160E-03
 4.93843E-01    6.35443E-03
 5.00000E-01    6.31853E-03
 5.40144E-01    6.23548E-03
 5.66142E-01    6.10370E-03
 6.00000E-01    6.01508E-03
 6.50727E-01    6.13847E-03
 6.56956E-01    6.14798E-03
 6.79642E-01    6.08270E-03
 6.79643E-01    6.08269E-03
 7.00000E-01    6.02411E-03
 7.03358E-01    6.01714E-03
 7.34212E-01    5.97778E-03
 7.89458E-01    5.99017E-03
 7.94567E-01    5.99132E-03
 8.00000E-01    5.98257E-03
 8.15769E-01    6.01391E-03
 9.00000E-01    6.24432E-03
 9.10653E-01    6.30267E-03
 9.29855E-01    6.37000E-03
 9.38064E-01    6.39188E-03
 9.48028E-01    6.41006E-03
 9.48029E-01    6.41006E-03
 9.70644E-01    6.48701E-03
 9.71633E-01    6.49038E-03
 9.79478E-01    6.50459E-03
 9.81346E-01    6.50797E-03
 1.00000E+00    6.54175E-03
 1.02128E+00    6.58870E-03
 1.02144E+00    6.58831E-03
 1.08251E+00    6.77563E-03
 1.08473E+00    6.78244E-03
 1.08534E+00    6.78115E-03
 1.09842E+00    6.81146E-03
 1.10000E+00    6.81512E-03
 1.10898E+00    6.83593E-03
 1.11270E+00    6.84455E-03
 1.13615E+00    6.89888E-03
 1.15178E+00    6.94471E-03
 1.15333E+00    6.95021E-03
 1.18902E+00    7.08807E-03
 1.20000E+00    7.13339E-03
 1.30000E+00    7.73441E-03
 1.40000E+00    8.54684E-03
 1.50000E+00    9.55426E-03
 1.60000E+00    1.06315E-02
 1.70000E+00    1.19269E-02
 1.80000E+00    1.34560E-02
 1.90000E+00    1.52555E-02
 2.00000E+00    1.73159E-02
 2.25000E+00    2.36709E-02
 2.50000E+00    3.20951E-02
 2.75000E+00    4.04382E-02
 3.00000E+00    5.23339E-02
 3.50000E+00    8.08383E-02
 4.00000E+00    1.18422E-01
 4.50000E+00    1.65437E-01
 5.00000E+00    2.21003E-01
 5.50000E+00    2.83163E-01
 6.00000E+00    3.50869E-01
 6.50000E+00    4.24613E-01
 7.00000E+00    5.03483E-01
 7.50000E+00    6.05020E-01
 8.00000E+00    7.23137E-01
 8.50000E+00    8.94514E-01
 9.00000E+00    1.11806E+00
 9.50000E+00    1.39881E+00
 1.00000E+01    1.73882E+00
 1.05000E+01    2.13758E+00
 1.10000E+01    2.59084E+00
 1.15000E+01    3.09441E+00
 1.20000E+01    3.64258E+00
 1.25000E+01    4.23114E+00
 1.30000E+01    4.85700E+00
 1.35000E+01    5.51680E+00
 1.40000E+01    6.20985E+00
 1.45000E+01    6.92977E+00
 1.50000E+01    7.67501E+00
 1.55000E+01    8.43148E+00
 1.60000E+01    9.19883E+00
 1.65000E+01    9.92064E+00
 1.70000E+01    1.06930E+01
 1.75000E+01    1.13577E+01
 1.80000E+01    1.20408E+01
 1.85000E+01    1.27038E+01
 1.90000E+01    1.33252E+01
 1.95000E+01    1.39307E+01
 2.00000E+01    1.45470E+01
