# n + Pd105 : (n,n'12)  
# jendl4.0   N.Iwamoto,K.Shibata               EVAL-Dec09
# uncertainties: n
# # energies =    78
#   E(MeV)       xs(mb) 
 6.79643E-01    0.00000E+00
 7.00000E-01    5.37671E+00
 7.03358E-01    6.24459E+00
 7.34212E-01    1.41969E+01
 7.89458E-01    2.58151E+01
 7.94567E-01    2.66705E+01
 8.00000E-01    2.74319E+01
 8.15769E-01    2.95672E+01
 9.00000E-01    3.69881E+01
 9.10653E-01    3.75340E+01
 9.29855E-01    3.83491E+01
 9.38064E-01    3.86321E+01
 9.48028E-01    3.89129E+01
 9.70644E-01    3.91990E+01
 9.71633E-01    3.91723E+01
 9.79478E-01    3.90823E+01
 9.81346E-01    3.90380E+01
 1.00000E+00    3.83616E+01
 1.02128E+00    3.76854E+01
 1.02144E+00    3.76803E+01
 1.08251E+00    3.61225E+01
 1.08473E+00    3.60366E+01
 1.08534E+00    3.60127E+01
 1.09842E+00    3.54798E+01
 1.10000E+00    3.53882E+01
 1.10898E+00    3.50010E+01
 1.11270E+00    3.48410E+01
 1.13615E+00    3.37737E+01
 1.15178E+00    3.30597E+01
 1.15333E+00    3.29776E+01
 1.18902E+00    3.12261E+01
 1.20000E+00    3.06932E+01
 1.30000E+00    2.67305E+01
 1.40000E+00    2.39649E+01
 1.50000E+00    2.19001E+01
 1.60000E+00    2.00355E+01
 1.70000E+00    1.84493E+01
 1.80000E+00    1.70440E+01
 1.90000E+00    1.58221E+01
 2.00000E+00    1.46447E+01
 2.25000E+00    1.19793E+01
 2.50000E+00    9.64321E+00
 2.75000E+00    7.27531E+00
 3.00000E+00    5.68350E+00
 3.50000E+00    3.18801E+00
 4.00000E+00    1.78553E+00
 4.50000E+00    1.02992E+00
 5.00000E+00    6.24569E-01
 5.50000E+00    4.03305E-01
 6.00000E+00    2.79423E-01
 6.50000E+00    2.08097E-01
 7.00000E+00    1.65647E-01
 7.50000E+00    1.39269E-01
 8.00000E+00    1.22035E-01
 8.50000E+00    1.10139E-01
 9.00000E+00    1.01427E-01
 9.50000E+00    9.46736E-02
 1.00000E+01    8.91609E-02
 1.05000E+01    8.44805E-02
 1.10000E+01    8.01738E-02
 1.15000E+01    7.62806E-02
 1.20000E+01    7.26867E-02
 1.25000E+01    6.93430E-02
 1.30000E+01    6.62493E-02
 1.35000E+01    6.33162E-02
 1.40000E+01    6.05946E-02
 1.45000E+01    5.79763E-02
 1.50000E+01    5.55546E-02
 1.55000E+01    5.32114E-02
 1.60000E+01    5.10068E-02
 1.65000E+01    4.88289E-02
 1.70000E+01    4.68434E-02
 1.75000E+01    4.48664E-02
 1.80000E+01    4.30376E-02
 1.85000E+01    4.12404E-02
 1.90000E+01    3.95947E-02
 1.95000E+01    3.79811E-02
 2.00000E+01    3.65047E-02
