# n + Pd105 : (n,n'08)  
# jendl4.0   N.Iwamoto,K.Shibata               EVAL-Dec09
# uncertainties: n
# # energies =    83
#   E(MeV)       xs(mb) 
 5.40144E-01    0.00000E+00
 5.66142E-01    3.23009E+01
 6.00000E-01    6.81546E+01
 6.50727E-01    1.09530E+02
 6.56956E-01    1.13307E+02
 6.79642E-01    1.23917E+02
 7.00000E-01    1.30717E+02
 7.03358E-01    1.31739E+02
 7.34212E-01    1.39183E+02
 7.89458E-01    1.41513E+02
 7.94567E-01    1.41558E+02
 8.00000E-01    1.41452E+02
 8.15769E-01    1.41195E+02
 9.00000E-01    1.35129E+02
 9.10653E-01    1.34403E+02
 9.29855E-01    1.32620E+02
 9.38064E-01    1.31666E+02
 9.48028E-01    1.30025E+02
 9.70644E-01    1.26128E+02
 9.71633E-01    1.25887E+02
 9.79478E-01    1.24154E+02
 9.81346E-01    1.23774E+02
 1.00000E+00    1.19707E+02
 1.02128E+00    1.15564E+02
 1.02144E+00    1.15519E+02
 1.08251E+00    1.04836E+02
 1.08473E+00    1.04419E+02
 1.08534E+00    1.04295E+02
 1.09842E+00    1.02009E+02
 1.10000E+00    1.01691E+02
 1.10898E+00    1.00136E+02
 1.11270E+00    9.94661E+01
 1.13615E+00    9.53268E+01
 1.15178E+00    9.25373E+01
 1.15333E+00    9.22554E+01
 1.18902E+00    8.61829E+01
 1.20000E+00    8.44595E+01
 1.30000E+00    7.14220E+01
 1.40000E+00    6.21399E+01
 1.50000E+00    5.50541E+01
 1.60000E+00    4.88775E+01
 1.70000E+00    4.38516E+01
 1.80000E+00    3.95148E+01
 1.90000E+00    3.57556E+01
 2.00000E+00    3.25698E+01
 2.25000E+00    2.53541E+01
 2.50000E+00    1.99385E+01
 2.75000E+00    1.45116E+01
 3.00000E+00    1.10810E+01
 3.50000E+00    6.01626E+00
 4.00000E+00    3.28953E+00
 4.50000E+00    1.85211E+00
 5.00000E+00    1.08793E+00
 5.50000E+00    6.72233E-01
 6.00000E+00    4.40820E-01
 6.50000E+00    3.09533E-01
 7.00000E+00    2.33539E-01
 7.50000E+00    1.88231E-01
 8.00000E+00    1.60164E-01
 8.50000E+00    1.41887E-01
 9.00000E+00    1.29219E-01
 9.50000E+00    1.19833E-01
 1.00000E+01    1.12421E-01
 1.05000E+01    1.06262E-01
 1.10000E+01    1.00683E-01
 1.15000E+01    9.56734E-02
 1.20000E+01    9.10845E-02
 1.25000E+01    8.68303E-02
 1.30000E+01    8.29070E-02
 1.35000E+01    7.91984E-02
 1.40000E+01    7.57651E-02
 1.45000E+01    7.24684E-02
 1.50000E+01    6.94140E-02
 1.55000E+01    6.64539E-02
 1.60000E+01    6.36782E-02
 1.65000E+01    6.09497E-02
 1.70000E+01    5.84495E-02
 1.75000E+01    5.59745E-02
 1.80000E+01    5.36582E-02
 1.85000E+01    5.14050E-02
 1.90000E+01    4.93406E-02
 1.95000E+01    4.73227E-02
 2.00000E+01    4.54750E-02
