# n + Pd105 : (n,n'03)  
# jendl4.0   N.Iwamoto,K.Shibata               EVAL-Dec09
# uncertainties: n
# # energies =    90
#   E(MeV)       xs(mb) 
 3.22285E-01    0.00000E+00
 3.47824E-01    9.74823E+01
 4.00000E-01    2.47852E+02
 4.46634E-01    3.30273E+02
 4.51298E-01    3.35496E+02
 4.93843E-01    3.51000E+02
 5.00000E-01    3.52140E+02
 5.40144E-01    3.53654E+02
 5.66142E-01    3.46889E+02
 6.00000E-01    3.36038E+02
 6.50727E-01    3.18662E+02
 6.56956E-01    3.15107E+02
 6.79642E-01    3.03808E+02
 7.00000E-01    2.94395E+02
 7.03358E-01    2.92938E+02
 7.34212E-01    2.76430E+02
 7.89458E-01    2.45679E+02
 7.94567E-01    2.43155E+02
 8.00000E-01    2.40448E+02
 8.15769E-01    2.32976E+02
 9.00000E-01    1.96099E+02
 9.10653E-01    1.92678E+02
 9.29855E-01    1.85949E+02
 9.38064E-01    1.82784E+02
 9.48028E-01    1.78810E+02
 9.70644E-01    1.70568E+02
 9.71633E-01    1.70171E+02
 9.79478E-01    1.67156E+02
 9.81346E-01    1.66467E+02
 1.00000E+00    1.59586E+02
 1.02128E+00    1.52581E+02
 1.02144E+00    1.52489E+02
 1.08251E+00    1.34447E+02
 1.08473E+00    1.33807E+02
 1.08534E+00    1.33609E+02
 1.09842E+00    1.30077E+02
 1.10000E+00    1.29634E+02
 1.10898E+00    1.27315E+02
 1.11270E+00    1.26305E+02
 1.13615E+00    1.20201E+02
 1.15178E+00    1.16361E+02
 1.15333E+00    1.15992E+02
 1.18902E+00    1.08056E+02
 1.20000E+00    1.05773E+02
 1.30000E+00    8.81982E+01
 1.40000E+00    7.50181E+01
 1.50000E+00    6.49310E+01
 1.60000E+00    5.61078E+01
 1.70000E+00    4.89979E+01
 1.80000E+00    4.32509E+01
 1.90000E+00    3.81679E+01
 2.00000E+00    3.38511E+01
 2.25000E+00    2.54749E+01
 2.50000E+00    1.91670E+01
 2.75000E+00    1.36389E+01
 3.00000E+00    1.00012E+01
 3.50000E+00    5.24344E+00
 4.00000E+00    2.79059E+00
 4.50000E+00    1.52307E+00
 5.00000E+00    8.53320E-01
 5.50000E+00    4.89985E-01
 6.00000E+00    2.89614E-01
 6.50000E+00    1.78592E-01
 7.00000E+00    1.17044E-01
 7.50000E+00    8.27162E-02
 8.00000E+00    6.33124E-02
 8.50000E+00    5.20510E-02
 9.00000E+00    4.51707E-02
 9.50000E+00    4.06736E-02
 1.00000E+01    3.74900E-02
 1.05000E+01    3.50622E-02
 1.10000E+01    3.30011E-02
 1.15000E+01    3.12282E-02
 1.20000E+01    2.96477E-02
 1.25000E+01    2.82088E-02
 1.30000E+01    2.68966E-02
 1.35000E+01    2.56651E-02
 1.40000E+01    2.45313E-02
 1.45000E+01    2.34438E-02
 1.50000E+01    2.24412E-02
 1.55000E+01    2.14687E-02
 1.60000E+01    2.05612E-02
 1.65000E+01    1.96664E-02
 1.70000E+01    1.88507E-02
 1.75000E+01    1.80408E-02
 1.80000E+01    1.72917E-02
 1.85000E+01    1.65623E-02
 1.90000E+01    1.58919E-02
 1.95000E+01    1.52358E-02
 2.00000E+01    1.46355E-02
