# n + Pd105 : (n,n'02)  
# jendl4.0   N.Iwamoto,K.Shibata               EVAL-Dec09
# uncertainties: n
# # energies =    91
#   E(MeV)       xs(mb) 
 3.09195E-01    0.00000E+00
 3.22285E-01    4.47953E+01
 3.47824E-01    1.28689E+02
 4.00000E-01    2.63506E+02
 4.46634E-01    3.40262E+02
 4.51298E-01    3.43929E+02
 4.93843E-01    3.63209E+02
 5.00000E-01    3.64619E+02
 5.40144E-01    3.65582E+02
 5.66142E-01    3.64034E+02
 6.00000E-01    3.61537E+02
 6.50727E-01    3.52097E+02
 6.56956E-01    3.49296E+02
 6.79642E-01    3.42747E+02
 7.00000E-01    3.37642E+02
 7.03358E-01    3.36756E+02
 7.34212E-01    3.23517E+02
 7.89458E-01    3.00836E+02
 7.94567E-01    2.98761E+02
 8.00000E-01    2.96610E+02
 8.15769E-01    2.90020E+02
 9.00000E-01    2.58384E+02
 9.10653E-01    2.55579E+02
 9.29855E-01    2.50047E+02
 9.38064E-01    2.47612E+02
 9.48028E-01    2.44553E+02
 9.70644E-01    2.38196E+02
 9.71633E-01    2.37912E+02
 9.79478E-01    2.35720E+02
 9.81346E-01    2.35212E+02
 1.00000E+00    2.30295E+02
 1.02128E+00    2.25173E+02
 1.02144E+00    2.25084E+02
 1.08251E+00    2.11361E+02
 1.08473E+00    2.10885E+02
 1.08534E+00    2.10742E+02
 1.09842E+00    2.08151E+02
 1.10000E+00    2.07840E+02
 1.10898E+00    2.06178E+02
 1.11270E+00    2.05426E+02
 1.13615E+00    2.01008E+02
 1.15178E+00    1.98337E+02
 1.15333E+00    1.98086E+02
 1.18902E+00    1.92755E+02
 1.20000E+00    1.91246E+02
 1.30000E+00    1.78521E+02
 1.40000E+00    1.68359E+02
 1.50000E+00    1.60622E+02
 1.60000E+00    1.52933E+02
 1.70000E+00    1.47114E+02
 1.80000E+00    1.42781E+02
 1.90000E+00    1.39188E+02
 2.00000E+00    1.36513E+02
 2.25000E+00    1.29408E+02
 2.50000E+00    1.24557E+02
 2.75000E+00    1.18492E+02
 3.00000E+00    1.14294E+02
 3.50000E+00    1.06607E+02
 4.00000E+00    1.01211E+02
 4.50000E+00    9.77737E+01
 5.00000E+00    9.55654E+01
 5.50000E+00    9.37027E+01
 6.00000E+00    9.14960E+01
 6.50000E+00    8.86399E+01
 7.00000E+00    8.51806E+01
 7.50000E+00    8.13573E+01
 8.00000E+00    7.74458E+01
 8.50000E+00    7.36703E+01
 9.00000E+00    7.01746E+01
 9.50000E+00    6.70204E+01
 1.00000E+01    6.42077E+01
 1.05000E+01    6.18224E+01
 1.10000E+01    5.94374E+01
 1.15000E+01    5.74480E+01
 1.20000E+01    5.54588E+01
 1.25000E+01    5.37172E+01
 1.30000E+01    5.19757E+01
 1.35000E+01    5.04190E+01
 1.40000E+01    4.88623E+01
 1.45000E+01    4.74792E+01
 1.50000E+01    4.60962E+01
 1.55000E+01    4.48906E+01
 1.60000E+01    4.36851E+01
 1.65000E+01    4.26496E+01
 1.70000E+01    4.16142E+01
 1.75000E+01    4.07235E+01
 1.80000E+01    3.98329E+01
 1.85000E+01    3.90560E+01
 1.90000E+01    3.82792E+01
 1.95000E+01    3.75956E+01
 2.00000E+01    3.69121E+01
