# n + Pd105 : (n,n'13)  
# jendl4.0   N.Iwamoto,K.Shibata               EVAL-Dec09
# uncertainties: n
# # energies =    76
#   E(MeV)       xs(mb) 
 7.03358E-01    0.00000E+00
 7.34212E-01    3.57430E+01
 7.89458E-01    8.98345E+01
 7.94567E-01    9.39351E+01
 8.00000E-01    9.82065E+01
 8.15769E-01    1.09211E+02
 9.00000E-01    1.44998E+02
 9.10653E-01    1.47619E+02
 9.29855E-01    1.50867E+02
 9.38064E-01    1.51910E+02
 9.48028E-01    1.52851E+02
 9.70644E-01    1.54570E+02
 9.71633E-01    1.54612E+02
 9.79478E-01    1.54955E+02
 9.81346E-01    1.55027E+02
 1.00000E+00    1.55536E+02
 1.02128E+00    1.54744E+02
 1.02144E+00    1.54677E+02
 1.08251E+00    1.49897E+02
 1.08473E+00    1.49662E+02
 1.08534E+00    1.49590E+02
 1.09842E+00    1.48401E+02
 1.10000E+00    1.48247E+02
 1.10898E+00    1.47189E+02
 1.11270E+00    1.46650E+02
 1.13615E+00    1.43332E+02
 1.15178E+00    1.41234E+02
 1.15333E+00    1.41033E+02
 1.18902E+00    1.36560E+02
 1.20000E+00    1.35219E+02
 1.30000E+00    1.20931E+02
 1.40000E+00    1.06990E+02
 1.50000E+00    9.42705E+01
 1.60000E+00    8.21079E+01
 1.70000E+00    7.17617E+01
 1.80000E+00    6.29350E+01
 1.90000E+00    5.57412E+01
 2.00000E+00    4.94055E+01
 2.25000E+00    3.71074E+01
 2.50000E+00    2.80603E+01
 2.75000E+00    2.02183E+01
 3.00000E+00    1.50618E+01
 3.50000E+00    8.09102E+00
 4.00000E+00    4.39947E+00
 4.50000E+00    2.45936E+00
 5.00000E+00    1.42487E+00
 5.50000E+00    8.58989E-01
 6.00000E+00    5.42515E-01
 6.50000E+00    3.63113E-01
 7.00000E+00    2.60364E-01
 7.50000E+00    2.00522E-01
 8.00000E+00    1.64758E-01
 8.50000E+00    1.42520E-01
 9.00000E+00    1.27864E-01
 9.50000E+00    1.17519E-01
 1.00000E+01    1.09686E-01
 1.05000E+01    1.03392E-01
 1.10000E+01    9.78261E-02
 1.15000E+01    9.29087E-02
 1.20000E+01    8.84363E-02
 1.25000E+01    8.43143E-02
 1.30000E+01    8.05215E-02
 1.35000E+01    7.69411E-02
 1.40000E+01    7.36308E-02
 1.45000E+01    7.04491E-02
 1.50000E+01    6.75098E-02
 1.55000E+01    6.46641E-02
 1.60000E+01    6.20033E-02
 1.65000E+01    5.93529E-02
 1.70000E+01    5.69389E-02
 1.75000E+01    5.45335E-02
 1.80000E+01    5.23107E-02
 1.85000E+01    5.01366E-02
 1.90000E+01    4.81433E-02
 1.95000E+01    4.61802E-02
 2.00000E+01    4.43842E-02
