# n + Pd105 : (n,n'05)  
# jendl4.0   N.Iwamoto,K.Shibata               EVAL-Dec09
# uncertainties: n
# # energies =    87
#   E(MeV)       xs(mb) 
 4.46633E-01    0.00000E+00
 4.51298E-01    1.46244E+01
 4.93843E-01    1.03823E+02
 5.00000E-01    1.15390E+02
 5.40144E-01    1.78562E+02
 5.66142E-01    2.07579E+02
 6.00000E-01    2.32761E+02
 6.50727E-01    2.57889E+02
 6.56956E-01    2.57770E+02
 6.79642E-01    2.59527E+02
 7.00000E-01    2.60526E+02
 7.03358E-01    2.60682E+02
 7.34212E-01    2.57767E+02
 7.89458E-01    2.43874E+02
 7.94567E-01    2.42245E+02
 8.00000E-01    2.40521E+02
 8.15769E-01    2.35621E+02
 9.00000E-01    2.07306E+02
 9.10653E-01    2.04556E+02
 9.29855E-01    1.99377E+02
 9.38064E-01    1.97022E+02
 9.48028E-01    1.93932E+02
 9.70644E-01    1.86609E+02
 9.71633E-01    1.86277E+02
 9.79478E-01    1.83721E+02
 9.81346E-01    1.83123E+02
 1.00000E+00    1.77300E+02
 1.02128E+00    1.71401E+02
 1.02144E+00    1.71296E+02
 1.08251E+00    1.54610E+02
 1.08473E+00    1.53996E+02
 1.08534E+00    1.53817E+02
 1.09842E+00    1.50470E+02
 1.10000E+00    1.50067E+02
 1.10898E+00    1.47894E+02
 1.11270E+00    1.46966E+02
 1.13615E+00    1.41431E+02
 1.15178E+00    1.37955E+02
 1.15333E+00    1.37611E+02
 1.18902E+00    1.30192E+02
 1.20000E+00    1.28054E+02
 1.30000E+00    1.10182E+02
 1.40000E+00    9.50672E+01
 1.50000E+00    8.22232E+01
 1.60000E+00    7.08147E+01
 1.70000E+00    6.13879E+01
 1.80000E+00    5.35787E+01
 1.90000E+00    4.72358E+01
 2.00000E+00    4.17654E+01
 2.25000E+00    3.08503E+01
 2.50000E+00    2.32814E+01
 2.75000E+00    1.63958E+01
 3.00000E+00    1.22887E+01
 3.50000E+00    6.53450E+00
 4.00000E+00    3.56873E+00
 4.50000E+00    2.03035E+00
 5.00000E+00    1.21118E+00
 5.50000E+00    7.60587E-01
 6.00000E+00    5.06240E-01
 6.50000E+00    3.59975E-01
 7.00000E+00    2.74297E-01
 7.50000E+00    2.22664E-01
 8.00000E+00    1.90330E-01
 8.50000E+00    1.69049E-01
 9.00000E+00    1.54157E-01
 9.50000E+00    1.43038E-01
 1.00000E+01    1.34207E-01
 1.05000E+01    1.26839E-01
 1.10000E+01    1.20148E-01
 1.15000E+01    1.14132E-01
 1.20000E+01    1.08624E-01
 1.25000E+01    1.03519E-01
 1.30000E+01    9.88143E-02
 1.35000E+01    9.43686E-02
 1.40000E+01    9.02551E-02
 1.45000E+01    8.63055E-02
 1.50000E+01    8.26474E-02
 1.55000E+01    7.90992E-02
 1.60000E+01    7.57717E-02
 1.65000E+01    7.25025E-02
 1.70000E+01    6.95085E-02
 1.75000E+01    6.65448E-02
 1.80000E+01    6.37939E-02
 1.85000E+01    6.11201E-02
 1.90000E+01    5.86542E-02
 1.95000E+01    5.62440E-02
 2.00000E+01    5.40367E-02
