# n + Pd105 : (n,el)    
# jendl4.0   N.Iwamoto,K.Shibata               EVAL-Dec09
# uncertainties: n
# # energies =   171
#   E(MeV)       xs(mb) 
 1.00000E-11    8.81156E+03
 1.00000E-07    5.07845E+03
 4.13990E-07    5.06329E+03
 5.31580E-07    5.05602E+03
 6.82560E-07    5.04668E+03
 8.76420E-07    5.03478E+03
 1.12540E-06    5.02010E+03
 1.44500E-06    5.00137E+03
 1.85540E-06    4.97756E+03
 2.37240E-06    4.94672E+03
 3.05900E-06    4.90678E+03
 3.92790E-06    4.85586E+03
 5.04350E-06    4.79019E+03
 6.47600E-06    4.68814E+03
 8.31530E-06    4.48210E+03
 1.06770E-05    6.37544E+03
 1.37100E-05    5.60463E+03
 1.76030E-05    4.70601E+03
 2.26030E-05    5.74353E+03
 2.92030E-05    4.88246E+03
 3.72670E-05    4.61266E+03
 4.78510E-05    5.33064E+03
 6.14420E-05    6.48333E+03
 7.88930E-05    7.40227E+03
 1.01300E-04    4.64390E+03
 1.30070E-04    1.33303E+04
 1.67020E-04    5.52359E+03
 2.14450E-04    9.04466E+03
 2.75360E-04    1.09870E+04
 3.53580E-04    8.26426E+03
 4.54000E-04    8.80647E+03
 5.82950E-04    8.83865E+03
 7.48520E-04    8.84451E+03
 9.61120E-04    7.15206E+03
 1.23410E-03    9.27956E+03
 1.58460E-03    8.40561E+03
 2.03470E-03    7.64808E+03
 2.24870E-03    7.39254E+03
 2.48520E-03    7.32249E+03
 2.61260E-03    7.27628E+03
 2.74650E-03    7.20751E+03
 3.03540E-03    7.11699E+03
 3.35460E-03    7.02760E+03
 3.70740E-03    6.92253E+03
 4.30740E-03    6.80023E+03
 5.53080E-03    6.65736E+03
 7.10170E-03    6.54884E+03
 9.11880E-03    6.48751E+03
 1.17090E-02    6.50184E+03
 1.50340E-02    6.52327E+03
 1.93050E-02    6.54834E+03
 2.18750E-02    6.58334E+03
 2.35790E-02    6.60163E+03
 2.41760E-02    6.61048E+03
 2.47880E-02    6.62404E+03
 2.60580E-02    6.64003E+03
 2.70000E-02    6.65624E+03
 2.85000E-02    6.69035E+03
 3.18280E-02    6.74354E+03
 3.43070E-02    6.81932E+03
 4.08680E-02    6.91101E+03
 4.63090E-02    6.98902E+03
 5.24750E-02    7.06045E+03
 5.65620E-02    7.15388E+03
 6.73790E-02    7.24376E+03
 7.20000E-02    7.30414E+03
 7.95000E-02    7.35369E+03
 8.25000E-02    7.38375E+03
 8.65170E-02    7.44464E+03
 9.80370E-02    7.52388E+03
 1.11090E-01    7.57205E+03
 1.16790E-01    7.60151E+03
 1.22770E-01    7.63248E+03
 1.29070E-01    7.65987E+03
 1.35690E-01    7.67417E+03
 1.42640E-01    7.68836E+03
 1.49960E-01    7.70327E+03
 1.57640E-01    7.71895E+03
 1.65730E-01    7.73543E+03
 1.74220E-01    7.75264E+03
 1.83160E-01    7.76700E+03
 1.92550E-01    7.77961E+03
 2.02420E-01    7.77694E+03
 2.12800E-01    7.76730E+03
 2.23710E-01    7.75717E+03
 2.35180E-01    7.74651E+03
 2.47240E-01    7.72942E+03
 2.73240E-01    7.71114E+03
 2.87250E-01    7.69196E+03
 2.94520E-01    7.67538E+03
 2.97200E-01    7.66877E+03
 2.98500E-01    7.66085E+03
 3.01970E-01    7.56577E+03
 3.33730E-01    7.27854E+03
 3.68830E-01    7.04036E+03
 3.87740E-01    6.88354E+03
 4.07620E-01    6.66850E+03
 4.50490E-01    6.35539E+03
 4.97870E-01    6.10561E+03
 5.23400E-01    5.95207E+03
 5.50230E-01    5.80433E+03
 5.78440E-01    5.66854E+03
 6.08100E-01    5.54235E+03
 6.39280E-01    5.42043E+03
 6.72060E-01    5.29494E+03
 7.06510E-01    5.17126E+03
 7.42740E-01    5.04488E+03
 7.80820E-01    4.92654E+03
 8.20850E-01    4.81005E+03
 8.62940E-01    4.70055E+03
 9.07180E-01    4.57967E+03
 9.61640E-01    4.47080E+03
 1.00260E+00    4.31006E+03
 1.10800E+00    4.14410E+03
 1.16480E+00    4.03427E+03
 1.22460E+00    3.92625E+03
 1.28730E+00    3.81547E+03
 1.35340E+00    3.70817E+03
 1.42270E+00    3.59683E+03
 1.49570E+00    3.48978E+03
 1.57240E+00    3.38081E+03
 1.65300E+00    3.27245E+03
 1.73770E+00    3.16147E+03
 1.82680E+00    3.04560E+03
 1.92050E+00    2.92940E+03
 2.01900E+00    2.82157E+03
 2.12250E+00    2.71990E+03
 2.23130E+00    2.63428E+03
 2.30690E+00    2.58186E+03
 2.34570E+00    2.55524E+03
 2.36530E+00    2.53725E+03
 2.38520E+00    2.49160E+03
 2.46600E+00    2.40763E+03
 2.59240E+00    2.32158E+03
 2.72530E+00    2.23505E+03
 2.86500E+00    2.14589E+03
 3.01190E+00    2.06960E+03
 3.16640E+00    2.00406E+03
 3.32870E+00    1.91490E+03
 3.67880E+00    1.82950E+03
 4.06570E+00    1.78186E+03
 4.49330E+00    1.76926E+03
 4.72370E+00    1.77717E+03
 4.96590E+00    1.79266E+03
 5.22050E+00    1.82105E+03
 5.48810E+00    1.85510E+03
 5.76950E+00    1.89888E+03
 6.06530E+00    1.94780E+03
 6.37630E+00    1.99332E+03
 6.59240E+00    2.02156E+03
 6.70320E+00    2.06050E+03
 7.04690E+00    2.12063E+03
 7.40820E+00    2.17571E+03
 7.78800E+00    2.23208E+03
 8.18730E+00    2.28631E+03
 8.60710E+00    2.33633E+03
 9.04840E+00    2.38048E+03
 9.51230E+00    2.41896E+03
 1.00000E+01    2.44733E+03
 1.05130E+01    2.46943E+03
 1.10520E+01    2.48139E+03
 1.16180E+01    2.48480E+03
 1.22140E+01    2.47499E+03
 1.28400E+01    2.45619E+03
 1.34990E+01    2.43320E+03
 1.38400E+01    2.41615E+03
 1.41910E+01    2.39365E+03
 1.45500E+01    2.36989E+03
 1.49180E+01    2.32895E+03
 1.56830E+01    2.26613E+03
 1.64870E+01    2.19472E+03
