# n + Pd105 : (n,n'04)  
# jendl4.0   N.Iwamoto,K.Shibata               EVAL-Dec09
# uncertainties: n
# # energies =    89
#   E(MeV)       xs(mb) 
 3.47824E-01    0.00000E+00
 4.00000E-01    5.53814E+01
 4.46634E-01    9.19102E+01
 4.51298E-01    9.46101E+01
 4.93843E-01    1.10290E+02
 5.00000E-01    1.11697E+02
 5.40144E-01    1.19212E+02
 5.66142E-01    1.19183E+02
 6.00000E-01    1.16085E+02
 6.50727E-01    1.11786E+02
 6.56956E-01    1.11095E+02
 6.79642E-01    1.07527E+02
 7.00000E-01    1.03725E+02
 7.03358E-01    1.03155E+02
 7.34212E-01    9.80067E+01
 7.89458E-01    8.88873E+01
 7.94567E-01    8.81705E+01
 8.00000E-01    8.72077E+01
 8.15769E-01    8.48552E+01
 9.00000E-01    7.48427E+01
 9.10653E-01    7.38952E+01
 9.29855E-01    7.20725E+01
 9.38064E-01    7.12473E+01
 9.48028E-01    7.02024E+01
 9.70644E-01    6.75164E+01
 9.71633E-01    6.73490E+01
 9.79478E-01    6.61968E+01
 9.81346E-01    6.59476E+01
 1.00000E+00    6.32635E+01
 1.02128E+00    6.05759E+01
 1.02144E+00    6.05552E+01
 1.08251E+00    5.42810E+01
 1.08473E+00    5.40653E+01
 1.08534E+00    5.39985E+01
 1.09842E+00    5.26888E+01
 1.10000E+00    5.25002E+01
 1.10898E+00    5.16081E+01
 1.11270E+00    5.12284E+01
 1.13615E+00    4.88906E+01
 1.15178E+00    4.73845E+01
 1.15333E+00    4.72193E+01
 1.18902E+00    4.38426E+01
 1.20000E+00    4.29094E+01
 1.30000E+00    3.61620E+01
 1.40000E+00    3.16598E+01
 1.50000E+00    2.84226E+01
 1.60000E+00    2.56045E+01
 1.70000E+00    2.32424E+01
 1.80000E+00    2.12808E+01
 1.90000E+00    1.94611E+01
 2.00000E+00    1.77582E+01
 2.25000E+00    1.41428E+01
 2.50000E+00    1.11109E+01
 2.75000E+00    8.15189E+00
 3.00000E+00    6.34563E+00
 3.50000E+00    3.50204E+00
 4.00000E+00    1.96888E+00
 4.50000E+00    1.15799E+00
 5.00000E+00    7.24147E-01
 5.50000E+00    4.85670E-01
 6.00000E+00    3.50329E-01
 6.50000E+00    2.70788E-01
 7.00000E+00    2.22109E-01
 7.50000E+00    1.90787E-01
 8.00000E+00    1.69522E-01
 8.50000E+00    1.54279E-01
 9.00000E+00    1.42745E-01
 9.50000E+00    1.33565E-01
 1.00000E+01    1.25908E-01
 1.05000E+01    1.19303E-01
 1.10000E+01    1.13152E-01
 1.15000E+01    1.07554E-01
 1.20000E+01    1.02387E-01
 1.25000E+01    9.75789E-02
 1.30000E+01    9.31362E-02
 1.35000E+01    8.89312E-02
 1.40000E+01    8.50404E-02
 1.45000E+01    8.12971E-02
 1.50000E+01    7.78376E-02
 1.55000E+01    7.44695E-02
 1.60000E+01    7.13218E-02
 1.65000E+01    6.82201E-02
 1.70000E+01    6.53889E-02
 1.75000E+01    6.25802E-02
 1.80000E+01    5.99801E-02
 1.85000E+01    5.74496E-02
 1.90000E+01    5.51352E-02
 1.95000E+01    5.28741E-02
 2.00000E+01    5.08047E-02
