# n + Pd105 :  n        
# jendl4.0   N.Iwamoto,K.Shibata               EVAL-Dec09
# uncertainties: n
# # energies =   107
#   E(MeV)       xs(mb) 
 1.05000E-01    0.00000E+00
 1.10000E-01    5.11033E-03
 1.20000E-01    6.82996E-03
 1.30000E-01    7.76942E-03
 1.40000E-01    8.27972E-03
 1.50000E-01    8.55490E-03
 1.60000E-01    8.66185E-03
 1.70000E-01    8.70779E-03
 1.80000E-01    8.70435E-03
 1.90000E-01    8.67026E-03
 2.00000E-01    8.62237E-03
 2.25000E-01    4.57855E-02
 2.50000E-01    5.50744E-02
 2.75000E-01    5.82865E-02
 2.83207E-01    5.88420E-02
 3.00000E-01    5.80691E-02
 3.09195E-01    1.08458E-01
 3.22285E-01    1.37765E-01
 3.47824E-01    1.51635E-01
 4.00000E-01    1.47131E-01
 4.46634E-01    2.98694E-01
 4.51298E-01    2.97697E-01
 4.93843E-01    2.83371E-01
 5.00000E-01    2.80850E-01
 5.40144E-01    4.47556E-01
 5.66142E-01    4.57043E-01
 6.00000E-01    4.49341E-01
 6.50727E-01    6.80985E-01
 6.56956E-01    6.85988E-01
 6.79642E-01    6.78177E-01
 7.00000E-01    6.65153E-01
 7.03358E-01    6.63184E-01
 7.34212E-01    8.53445E-01
 7.89458E-01    8.74921E-01
 7.94567E-01    8.71079E-01
 8.00000E-01    8.68043E-01
 8.15769E-01    9.82285E-01
 9.00000E-01    1.12778E+00
 9.10653E-01    1.18961E+00
 9.29855E-01    1.34412E+00
 9.38064E-01    1.37510E+00
 9.48028E-01    1.39562E+00
 9.70644E-01    1.42378E+00
 9.71633E-01    1.42420E+00
 9.79478E-01    1.42376E+00
 9.81346E-01    1.42369E+00
 1.00000E+00    1.41948E+00
 1.02128E+00    1.58157E+00
 1.02144E+00    1.58264E+00
 1.08251E+00    1.73627E+00
 1.08473E+00    1.73604E+00
 1.08534E+00    1.73496E+00
 1.09842E+00    1.72964E+00
 1.10000E+00    1.72953E+00
 1.10898E+00    1.73057E+00
 1.11270E+00    1.79282E+00
 1.13615E+00    1.97541E+00
 1.15178E+00    2.02314E+00
 1.15333E+00    2.02625E+00
 1.18902E+00    2.06543E+00
 1.20000E+00    2.06840E+00
 1.30000E+00    5.59731E+01
 1.40000E+00    1.88679E+02
 1.50000E+00    3.58125E+02
 1.60000E+00    5.28892E+02
 1.70000E+00    6.91346E+02
 1.80000E+00    8.41851E+02
 1.90000E+00    9.80544E+02
 2.00000E+00    1.10907E+03
 2.25000E+00    1.31622E+03
 2.50000E+00    1.49759E+03
 2.75000E+00    1.63617E+03
 3.00000E+00    1.72957E+03
 3.50000E+00    1.84463E+03
 4.00000E+00    1.90649E+03
 4.50000E+00    1.94527E+03
 5.00000E+00    1.97001E+03
 5.50000E+00    1.98131E+03
 6.00000E+00    1.97980E+03
 6.50000E+00    1.96845E+03
 7.00000E+00    1.95136E+03
 7.50000E+00    1.91569E+03
 8.00000E+00    1.80656E+03
 8.50000E+00    1.63393E+03
 9.00000E+00    1.42675E+03
 9.50000E+00    1.21580E+03
 1.00000E+01    1.01978E+03
 1.05000E+01    8.35220E+02
 1.10000E+01    6.73311E+02
 1.15000E+01    5.46991E+02
 1.20000E+01    4.52960E+02
 1.25000E+01    3.83499E+02
 1.30000E+01    3.32889E+02
 1.35000E+01    2.95157E+02
 1.40000E+01    2.66804E+02
 1.45000E+01    2.44349E+02
 1.50000E+01    2.26427E+02
 1.55000E+01    2.11732E+02
 1.60000E+01    1.98958E+02
 1.65000E+01    1.87292E+02
 1.70000E+01    1.78661E+02
 1.75000E+01    1.68933E+02
 1.80000E+01    1.61402E+02
 1.85000E+01    1.54319E+02
 1.90000E+01    1.47939E+02
 1.95000E+01    1.41842E+02
 2.00000E+01    1.35837E+02
