# n + Pd105 : (n,n'09)  
# jendl4.0   N.Iwamoto,K.Shibata               EVAL-Dec09
# uncertainties: n
# # energies =    82
#   E(MeV)       xs(mb) 
 5.66142E-01    0.00000E+00
 6.00000E-01    2.41474E+01
 6.50727E-01    5.45680E+01
 6.56956E-01    5.76018E+01
 6.79642E-01    6.66673E+01
 7.00000E-01    7.31569E+01
 7.03358E-01    7.40031E+01
 7.34212E-01    8.03920E+01
 7.89458E-01    8.57063E+01
 7.94567E-01    8.58880E+01
 8.00000E-01    8.59741E+01
 8.15769E-01    8.62274E+01
 9.00000E-01    8.49001E+01
 9.10653E-01    8.45483E+01
 9.29855E-01    8.35902E+01
 9.38064E-01    8.30496E+01
 9.48028E-01    8.22825E+01
 9.70644E-01    8.03686E+01
 9.71633E-01    8.02173E+01
 9.79478E-01    7.91287E+01
 9.81346E-01    7.88906E+01
 1.00000E+00    7.63294E+01
 1.02128E+00    7.37191E+01
 1.02144E+00    7.36906E+01
 1.08251E+00    6.72770E+01
 1.08473E+00    6.70088E+01
 1.08534E+00    6.69292E+01
 1.09842E+00    6.54619E+01
 1.10000E+00    6.52566E+01
 1.10898E+00    6.42573E+01
 1.11270E+00    6.38271E+01
 1.13615E+00    6.11624E+01
 1.15178E+00    5.94598E+01
 1.15333E+00    5.92902E+01
 1.18902E+00    5.54499E+01
 1.20000E+00    5.43302E+01
 1.30000E+00    4.59661E+01
 1.40000E+00    4.00088E+01
 1.50000E+00    3.54462E+01
 1.60000E+00    3.14831E+01
 1.70000E+00    2.82081E+01
 1.80000E+00    2.54538E+01
 1.90000E+00    2.30099E+01
 2.00000E+00    2.09425E+01
 2.25000E+00    1.63356E+01
 2.50000E+00    1.28352E+01
 2.75000E+00    9.36829E+00
 3.00000E+00    7.38380E+00
 3.50000E+00    4.10954E+00
 4.00000E+00    2.33604E+00
 4.50000E+00    1.39618E+00
 5.00000E+00    8.93390E-01
 5.50000E+00    6.16407E-01
 6.00000E+00    4.57909E-01
 6.50000E+00    3.63274E-01
 7.00000E+00    3.03973E-01
 7.50000E+00    2.64718E-01
 8.00000E+00    2.37275E-01
 8.50000E+00    2.17073E-01
 9.00000E+00    2.01470E-01
 9.50000E+00    1.88877E-01
 1.00000E+01    1.78298E-01
 1.05000E+01    1.69133E-01
 1.10000E+01    1.60591E-01
 1.15000E+01    1.52794E-01
 1.20000E+01    1.45580E-01
 1.25000E+01    1.38851E-01
 1.30000E+01    1.32623E-01
 1.35000E+01    1.26721E-01
 1.40000E+01    1.21250E-01
 1.45000E+01    1.15991E-01
 1.50000E+01    1.11107E-01
 1.55000E+01    1.06376E-01
 1.60000E+01    1.01932E-01
 1.65000E+01    9.75608E-02
 1.70000E+01    9.35593E-02
 1.75000E+01    8.95940E-02
 1.80000E+01    8.59127E-02
 1.85000E+01    8.23249E-02
 1.90000E+01    7.90176E-02
 1.95000E+01    7.57842E-02
 2.00000E+01    7.28236E-02
