# n + Ir  0 : (n,xp)
# jendl.ad   N.Iwamoto                         EVAL-Apr14
#
# # energies =   122
#   E(MeV)          xs(mb) 
 7.34268E-02    0.00000E+00
 8.00000E-02    0.00000E+00
 8.06584E-02    0.00000E+00
 9.00000E-02    1.22312E-20
 1.00000E-01    1.41257E-20
 1.05000E-01    1.50730E-20
 1.10000E-01    1.87874E-20
 1.20000E-01    2.62688E-20
 1.30000E-01    3.37502E-20
 1.39666E-01    4.09819E-20
 1.40000E-01    4.12318E-20
 1.50000E-01    4.97519E-20
 1.60000E-01    5.99452E-20
 1.70000E-01    7.09077E-20
 1.80000E-01    8.23621E-20
 1.81008E-01    8.35167E-20
 1.90000E-01    9.38166E-20
 2.00000E-01    1.05507E-19
 2.25000E-01    1.45909E-19
 2.50000E-01    1.97754E-19
 2.75000E-01    2.51472E-19
 3.00000E-01    3.07813E-19
 3.00964E-01    3.10477E-19
 3.59638E-01    4.77485E-19
 3.63748E-01    4.90834E-19
 4.00000E-01    6.09475E-19
 4.62942E-01    8.39498E-19
 4.71841E-01    8.73608E-19
 4.81494E-01    9.10683E-19
 5.00000E-01    9.81761E-19
 5.19111E-01    1.08177E-18
 5.24653E-01    1.11531E-18
 5.60360E-01    1.35767E-18
 5.62223E-01    1.37940E-18
 5.66349E-01    1.42751E-18
 6.00000E-01    1.87496E-18
 6.01357E-01    1.92165E-18
 6.24236E-01    2.82141E-18
 6.98767E-01    1.40767E-17
 7.00000E-01    1.44409E-17
 7.15893E-01    2.64371E-17
 7.44251E-01    4.78421E-17
 8.00000E-01    1.76300E-16
 8.11120E-01    2.32990E-16
 8.33253E-01    3.86164E-16
 8.37249E-01    4.24531E-16
 8.43303E-01    5.27055E-16
 8.53368E-01    6.97502E-16
 8.53522E-01    7.00110E-16
 8.61506E-01    8.35316E-16
 8.78861E-01    1.12922E-15
 8.96932E-01    1.65651E-15
 9.00000E-01    1.75562E-15
 9.23166E-01    2.92247E-15
 9.35296E-01    3.78409E-15
 9.69471E-01    7.53819E-15
 9.77958E-01    9.00536E-15
 9.80432E-01    9.43303E-15
 1.00000E+00    1.38367E-14
 1.01463E+00    1.89792E-14
 1.02492E+00    2.35246E-14
 1.04087E+00    3.07547E-14
 1.04126E+00    3.09780E-14
 1.04349E+00    3.24243E-14
 1.07146E+00    5.82486E-14
 1.08210E+00    7.08848E-14
 1.08356E+00    7.26187E-14
 1.10000E+00    9.21430E-14
 1.13189E+00    2.26351E-13
 1.13708E+00    2.48192E-13
 1.15161E+00    3.09341E-13
 1.16908E+00    3.82863E-13
 1.17417E+00    4.04284E-13
 1.17528E+00    4.08955E-13
 1.19924E+00    5.09789E-13
 1.20000E+00    5.12988E-13
 1.30000E+00    2.40544E-12
 1.40000E+00    9.83601E-12
 1.50000E+00    3.56603E-11
 1.60000E+00    1.16175E-10
 1.70000E+00    3.44414E-10
 1.80000E+00    9.38360E-10
 1.90000E+00    2.37130E-09
 2.00000E+00    5.59999E-09
 2.25000E+00    3.80697E-08
 2.50000E+00    1.82766E-07
 2.75000E+00    7.12775E-07
 3.00000E+00    2.19124E-06
 3.50000E+00    1.36811E-05
 4.00000E+00    5.34007E-05
 4.50000E+00    1.47625E-04
 5.00000E+00    3.15757E-04
 5.50000E+00    5.59603E-04
 6.00000E+00    8.82931E-04
 6.50000E+00    1.36147E-03
 7.00000E+00    2.26184E-03
 7.50000E+00    4.23564E-03
 8.00000E+00    8.62715E-03
 8.50000E+00    1.78876E-02
 9.00000E+00    3.59829E-02
 9.50000E+00    6.88959E-02
 1.00000E+01    1.24537E-01
 1.05000E+01    2.12749E-01
 1.10000E+01    3.44868E-01
 1.15000E+01    5.33173E-01
 1.20000E+01    7.90311E-01
 1.25000E+01    1.12862E+00
 1.30000E+01    1.55977E+00
 1.35000E+01    2.09435E+00
 1.40000E+01    2.74149E+00
 1.45000E+01    3.50864E+00
 1.50000E+01    4.40129E+00
 1.55000E+01    5.42294E+00
 1.60000E+01    6.57459E+00
 1.65000E+01    7.85549E+00
 1.70000E+01    9.26265E+00
 1.75000E+01    1.07916E+01
 1.80000E+01    1.24365E+01
 1.85000E+01    1.41905E+01
 1.90000E+01    1.60471E+01
 1.95000E+01    1.79995E+01
 2.00000E+01    2.00420E+01
