# n + Sn116 : (n,t)     
# jendl4.0   N.Iwamoto,K.Shibata               EVAL-Dec09
# uncertainties: n
# # energies =    58
#   E(MeV)       xs(mb) 
 9.92003E+00    0.00000E+00
 1.01120E+01    3.53150E-21
 1.01430E+01    1.90040E-17
 1.02103E+01    7.34910E-17
 1.04215E+01    2.59360E-16
 1.04263E+01    2.63590E-16
 1.04610E+01    2.94130E-16
 1.04994E+01    3.27940E-16
 1.05256E+01    4.16970E-16
 1.05535E+01    5.57810E-16
 1.05674E+01    6.39750E-16
 1.05675E+01    6.40360E-16
 1.06135E+01    9.48310E-16
 1.06190E+01    9.86380E-16
 1.06225E+01    1.01090E-15
 1.06514E+01    1.21750E-15
 1.06549E+01    1.24280E-15
 1.07021E+01    1.59090E-15
 1.07522E+01    1.96320E-15
 1.07630E+01    2.04360E-15
 1.08340E+01    2.57350E-15
 1.08374E+01    2.59890E-15
 1.08991E+01    3.05970E-15
 1.09319E+01    3.30460E-15
 1.09352E+01    3.32920E-15
 1.09476E+01    3.42180E-15
 1.09487E+01    3.43000E-15
 1.09611E+01    3.52260E-15
 1.09662E+01    3.56070E-15
 1.09740E+01    3.61900E-15
 1.09764E+01    3.63690E-15
 1.09887E+01    3.72880E-15
 1.09918E+01    3.75190E-15
 1.09979E+01    3.80220E-15
 1.10000E+01    3.82120E-15
 1.10034E+01    3.89770E-15
 1.10121E+01    4.10080E-15
 1.10247E+01    4.40750E-15
 1.10415E+01    4.83640E-15
 1.10690E+01    5.57540E-15
 1.15000E+01    1.73710E-14
 1.20000E+01    1.72840E-11
 1.25000E+01    3.01380E-09
 1.30000E+01    7.30090E-08
 1.35000E+01    1.37133E-06
 1.40000E+01    1.38132E-05
 1.45000E+01    8.93111E-05
 1.50000E+01    4.14584E-04
 1.55000E+01    1.48827E-03
 1.60000E+01    4.32514E-03
 1.65000E+01    1.05144E-02
 1.70000E+01    2.19867E-02
 1.75000E+01    4.03684E-02
 1.80000E+01    6.74517E-02
 1.85000E+01    1.03871E-01
 1.90000E+01    1.49882E-01
 1.95000E+01    2.05263E-01
 2.00000E+01    2.69508E-01
