# n + Sn116 : (n,xp)    
# jendl4.0   N.Iwamoto,K.Shibata               EVAL-Dec09
# 
# # energies =   111
#   E(MeV)        xs(mb) 
 1.05000E-01    0.00000E+00
 1.10000E-01    0.00000E+00
 1.20000E-01    0.00000E+00
 1.30000E-01    0.00000E+00
 1.40000E-01    0.00000E+00
 1.50000E-01    0.00000E+00
 1.60000E-01    0.00000E+00
 1.70000E-01    0.00000E+00
 1.80000E-01    0.00000E+00
 1.90000E-01    0.00000E+00
 2.00000E-01    0.00000E+00
 2.25000E-01    0.00000E+00
 2.50000E-01    0.00000E+00
 2.75000E-01    0.00000E+00
 3.00000E-01    0.00000E+00
 4.00000E-01    0.00000E+00
 5.00000E-01    0.00000E+00
 6.00000E-01    0.00000E+00
 7.00000E-01    0.00000E+00
 8.00000E-01    0.00000E+00
 9.00000E-01    0.00000E+00
 1.00000E+00    0.00000E+00
 1.10000E+00    0.00000E+00
 1.20000E+00    0.00000E+00
 1.30000E+00    0.00000E+00
 1.30482E+00    0.00000E+00
 1.40000E+00    0.00000E+00
 1.50000E+00    0.00000E+00
 1.60000E+00    0.00000E+00
 1.70000E+00    0.00000E+00
 1.77215E+00    0.00000E+00
 1.80000E+00    0.00000E+00
 1.90000E+00    0.00000E+00
 2.00000E+00    0.00000E+00
 2.04512E+00    0.00000E+00
 2.13070E+00    0.00000E+00
 2.24475E+00    0.00000E+00
 2.25000E+00    0.00000E+00
 2.28588E+00    0.00000E+00
 2.38657E+00    0.00000E+00
 2.41169E+00    0.00000E+00
 2.50000E+00    0.00000E+00
 2.55121E+00    9.30816E-12
 2.56786E+00    1.39002E-11
 2.60806E+00    2.49873E-11
 2.67351E+00    4.30386E-11
 2.75000E+00    6.41355E-11
 2.79747E+00    7.72305E-11
 2.81484E+00    8.20229E-11
 2.82566E+00    8.50085E-11
 2.86857E+00    9.68496E-11
 2.93416E+00    1.14957E-10
 2.93417E+00    1.14960E-10
 2.98579E+00    1.29215E-10
 3.00000E+00    1.33137E-10
 3.02235E+00    1.39306E-10
 3.04269E+00    1.45585E-10
 3.05909E+00    1.50980E-10
 3.07291E+00    1.55526E-10
 3.11551E+00    1.71232E-10
 3.12388E+00    1.74369E-10
 3.13220E+00    1.77487E-10
 3.18521E+00    1.97511E-10
 3.20735E+00    2.06193E-10
 3.21171E+00    2.07907E-10
 3.22212E+00    2.11998E-10
 3.23794E+00    2.18215E-10
 3.25554E+00    2.25159E-10
 3.25604E+00    2.25357E-10
 3.25615E+00    2.25401E-10
 3.26418E+00    2.28588E-10
 3.28602E+00    2.37274E-10
 3.30612E+00    2.45286E-10
 3.31761E+00    2.49874E-10
 3.33780E+00    2.57934E-10
 3.34384E+00    2.60351E-10
 3.36279E+00    2.67938E-10
 3.50000E+00    3.23203E-10
 4.00000E+00    6.07550E-10
 4.50000E+00    1.57890E-09
 5.00000E+00    1.61885E-04
 5.50000E+00    1.52255E-03
 6.00000E+00    7.45649E-03
 6.50000E+00    2.40583E-02
 7.00000E+00    5.82526E-02
 7.50000E+00    1.16561E-01
 8.00000E+00    2.06924E-01
 8.50000E+00    3.42020E-01
 9.00000E+00    5.44349E-01
 9.50000E+00    8.46869E-01
 1.00000E+01    1.28942E+00
 1.05000E+01    1.91324E+00
 1.10000E+01    2.74939E+00
 1.15000E+01    3.82489E+00
 1.20000E+01    5.16854E+00
 1.25000E+01    6.79393E+00
 1.30000E+01    8.70197E+00
 1.35000E+01    1.09001E+01
 1.40000E+01    1.33887E+01
 1.45000E+01    1.61510E+01
 1.50000E+01    1.91981E+01
 1.55000E+01    2.24825E+01
 1.60000E+01    2.60320E+01
 1.65000E+01    2.97658E+01
 1.70000E+01    3.37369E+01
 1.75000E+01    3.78379E+01
 1.80000E+01    4.21488E+01
 1.85000E+01    4.65545E+01
 1.90000E+01    5.11479E+01
 1.95000E+01    5.58251E+01
 2.00000E+01    6.06640E+01
