# n + Sn116 : (n,h)     
# jendl4.0   N.Iwamoto,K.Shibata               EVAL-Dec09
# uncertainties: n
# # energies =    61
#   E(MeV)       xs(mb) 
 8.43988E+00    0.00000E+00
 9.00320E+00    1.94620E-26
 9.58428E+00    2.79230E-22
 9.66012E+00    3.16770E-22
 9.73479E+00    3.54620E-22
 9.75685E+00    3.65870E-22
 9.81609E+00    3.96110E-22
 1.01872E+01    5.85650E-22
 1.02394E+01    6.12560E-22
 1.02979E+01    6.42780E-22
 1.03158E+01    6.52030E-22
 1.03204E+01    6.54410E-22
 1.03888E+01    6.89790E-22
 1.04150E+01    7.03340E-22
 1.04475E+01    7.20160E-22
 1.05000E+01    7.47310E-22
 1.05057E+01    7.72110E-22
 1.06109E+01    1.23980E-21
 1.06636E+01    1.47580E-21
 1.06780E+01    1.54030E-21
 1.07588E+01    1.90320E-21
 1.07771E+01    1.98540E-21
 1.08454E+01    2.29220E-21
 1.08480E+01    2.30390E-21
 1.08522E+01    2.32270E-21
 1.08610E+01    2.36230E-21
 1.08734E+01    2.41800E-21
 1.08987E+01    2.53160E-21
 1.09173E+01    2.61520E-21
 1.09221E+01    2.63680E-21
 1.09265E+01    2.65650E-21
 1.09667E+01    2.83710E-21
 1.09873E+01    2.92970E-21
 1.09978E+01    2.97820E-21
 1.10000E+01    2.98860E-21
 1.10160E+01    8.55250E-20
 1.10427E+01    2.23260E-19
 1.10993E+01    5.15240E-19
 1.11131E+01    5.86430E-19
 1.11239E+01    6.42150E-19
 1.11324E+01    6.86000E-19
 1.11645E+01    8.51590E-19
 1.11989E+01    1.02910E-18
 1.15000E+01    2.58240E-18
 1.20000E+01    5.18470E-16
 1.25000E+01    2.90020E-14
 1.30000E+01    6.55290E-13
 1.35000E+01    7.71350E-12
 1.40000E+01    5.55330E-11
 1.45000E+01    2.76220E-10
 1.50000E+01    1.03240E-09
 1.55000E+01    3.15260E-09
 1.60000E+01    8.76100E-09
 1.65000E+01    2.61720E-08
 1.70000E+01    9.26180E-08
 1.75000E+01    3.52660E-07
 1.80000E+01    1.26662E-06
 1.85000E+01    4.13189E-06
 1.90000E+01    1.17239E-05
 1.95000E+01    2.98417E-05
 2.00000E+01    6.91302E-05
