# n + Dy  0 : (n,xp)
# jendl.ad   N.Iwamoto                         EVAL-Apr14
#
# # energies =   116
#   E(MeV)          xs(mb) 
 2.58118E-02    0.00000E+00
 3.00000E-02    0.00000E+00
 4.00000E-02    0.00000E+00
 4.40947E-02    3.02684E-18
 5.00000E-02    1.01331E-17
 6.00000E-02    2.21668E-17
 7.00000E-02    3.42005E-17
 7.50344E-02    4.02588E-17
 8.00000E-02    4.62342E-17
 9.00000E-02    5.82679E-17
 1.00000E-01    7.03017E-17
 1.00516E-01    7.09226E-17
 1.01032E-01    7.15435E-17
 1.03708E-01    7.47637E-17
 1.10000E-01    8.23353E-17
 1.20000E-01    9.43689E-17
 1.30000E-01    1.14146E-16
 1.32585E-01    1.22669E-16
 1.40000E-01    1.47115E-16
 1.50000E-01    1.80083E-16
 1.60000E-01    2.13159E-16
 1.70000E-01    2.46296E-16
 1.80000E-01    2.79432E-16
 1.85385E-01    2.97275E-16
 1.90000E-01    3.12568E-16
 2.00000E-01    3.45704E-16
 2.02347E-01    3.53481E-16
 2.14287E-01    4.15041E-16
 2.25000E-01    4.79856E-16
 2.50000E-01    6.73923E-16
 2.69116E-01    8.29089E-16
 2.75000E-01    8.76850E-16
 3.00000E-01    1.08223E-15
 3.16914E-01    1.27445E-15
 3.22700E-01    1.34697E-15
 3.69275E-01    1.94528E-15
 4.00000E-01    2.35761E-15
 4.09541E-01    2.52497E-15
 4.20855E-01    2.73124E-15
 4.46179E-01    3.21031E-15
 4.54262E-01    3.36462E-15
 4.60096E-01    3.47786E-15
 4.88603E-01    4.03121E-15
 5.00000E-01    4.25244E-15
 5.11285E-01    4.47149E-15
 5.15209E-01    4.54765E-15
 5.24266E-01    4.72346E-15
 5.37548E-01    4.98128E-15
 5.53702E-01    5.29483E-15
 5.71502E-01    5.64035E-15
 5.90780E-01    6.01455E-15
 6.00000E-01    6.19352E-15
 6.11389E-01    6.41646E-15
 6.13653E-01    6.46077E-15
 6.32172E-01    6.82329E-15
 6.37136E-01    6.92046E-15
 6.46024E-01    7.09444E-15
 6.82575E-01    7.81390E-15
 6.92614E-01    8.02574E-15
 7.00000E-01    8.18160E-15
 7.00441E-01    8.19229E-15
 7.03522E-01    8.26702E-15
 7.21544E-01    8.70410E-15
 7.23104E-01    8.74194E-15
 7.35494E-01    9.04243E-15
 8.00000E-01    1.09418E-14
 9.00000E-01    2.80990E-14
 1.00000E+00    1.62765E-13
 1.10000E+00    1.09428E-12
 1.20000E+00    6.41352E-12
 1.30000E+00    3.15821E-11
 1.40000E+00    1.31146E-10
 1.50000E+00    4.71227E-10
 1.60000E+00    1.51367E-09
 1.70000E+00    4.40944E-09
 1.80000E+00    1.17828E-08
 1.90000E+00    2.90524E-08
 2.00000E+00    6.65433E-08
 2.25000E+00    3.95661E-07
 2.50000E+00    1.82822E-06
 2.75000E+00    6.34179E-06
 3.00000E+00    1.87971E-05
 3.50000E+00    1.03734E-04
 4.00000E+00    3.69349E-04
 4.50000E+00    9.59176E-04
 5.00000E+00    1.98775E-03
 5.50000E+00    3.52914E-03
 6.00000E+00    5.77020E-03
 6.50000E+00    9.41483E-03
 7.00000E+00    1.62439E-02
 7.50000E+00    3.01022E-02
 8.00000E+00    5.78014E-02
 8.50000E+00    1.09787E-01
 9.00000E+00    2.01052E-01
 9.50000E+00    3.49440E-01
 1.00000E+01    5.74519E-01
 1.05000E+01    8.95305E-01
 1.10000E+01    1.32599E+00
 1.15000E+01    1.87998E+00
 1.20000E+01    2.56121E+00
 1.25000E+01    3.37673E+00
 1.30000E+01    4.32316E+00
 1.35000E+01    5.40445E+00
 1.40000E+01    6.61310E+00
 1.45000E+01    7.95148E+00
 1.50000E+01    9.41051E+00
 1.55000E+01    1.09906E+01
 1.60000E+01    1.26827E+01
 1.65000E+01    1.44863E+01
 1.70000E+01    1.63936E+01
 1.75000E+01    1.83971E+01
 1.80000E+01    2.04983E+01
 1.85000E+01    2.26752E+01
 1.90000E+01    2.49447E+01
 1.95000E+01    2.72708E+01
 2.00000E+01    2.96751E+01
