# n + Dy  0 : (n,d)
# jendl.ad   N.Iwamoto                         EVAL-Apr14
# uncertainties: n
# # energies =    70
#   E(MeV)          xs(mb) 
 4.73594E+00    8.73753E-20
 4.79721E+00    1.15597E-19
 4.88079E+00    1.54147E-19
 4.99015E+00    2.04599E-19
 5.06438E+00    2.38844E-19
 5.06568E+00    2.39602E-19
 5.09589E+00    2.59824E-19
 5.11605E+00    2.74123E-19
 5.14659E+00    2.96378E-19
 5.16446E+00    3.09632E-19
 5.25319E+00    3.76565E-19
 5.25685E+00    3.79350E-19
 5.27137E+00    3.90408E-19
 5.31132E+00    4.20869E-19
 5.33714E+00    4.40608E-19
 5.37737E+00    4.71378E-19
 5.38358E+00    4.76131E-19
 5.38805E+00    4.79552E-19
 5.39865E+00    4.87667E-19
 5.43400E+00    5.14736E-19
 5.43772E+00    5.17586E-19
 5.44927E+00    5.26432E-19
 5.52416E+00    1.25874E-18
 5.53455E+00    1.71969E-18
 5.57930E+00    4.44973E-18
 5.60124E+00    6.08047E-18
 5.60194E+00    6.13367E-18
 5.62491E+00    7.88398E-18
 5.63199E+00    8.42446E-18
 5.63672E+00    8.78584E-18
 5.63767E+00    8.85841E-18
 5.66453E+00    1.09108E-17
 5.66716E+00    1.11118E-17
 5.66886E+00    1.12419E-17
 5.68899E+00    1.27818E-17
 5.70811E+00    1.42448E-17
 5.71253E+00    1.45831E-17
 5.71277E+00    1.46014E-17
 5.71653E+00    1.48891E-17
 5.73398E+00    1.62246E-17
 5.74736E+00    1.72485E-17
 6.00000E+00    3.65857E-17
 6.50000E+00    2.50545E-14
 7.00000E+00    3.59430E-12
 7.50000E+00    1.74542E-10
 8.00000E+00    6.19756E-09
 8.50000E+00    1.76299E-07
 9.00000E+00    2.72436E-06
 9.50000E+00    3.13209E-05
 1.00000E+01    2.29884E-04
 1.05000E+01    1.18694E-03
 1.10000E+01    4.66002E-03
 1.15000E+01    1.47272E-02
 1.20000E+01    3.89352E-02
 1.25000E+01    8.85865E-02
 1.30000E+01    1.76911E-01
 1.35000E+01    3.16102E-01
 1.40000E+01    4.93957E-01
 1.45000E+01    7.46236E-01
 1.50000E+01    1.05236E+00
 1.55000E+01    1.43150E+00
 1.60000E+01    1.81806E+00
 1.65000E+01    2.28083E+00
 1.70000E+01    2.76574E+00
 1.75000E+01    3.24756E+00
 1.80000E+01    3.75494E+00
 1.85000E+01    4.29062E+00
 1.90000E+01    4.84993E+00
 1.95000E+01    5.34957E+00
 2.00000E+01    5.80483E+00
