# n + Dy  0 : (n,t)m
# jendl.ad   N.Iwamoto                         EVAL-Apr14
# uncertainties: n
# # energies =    26
#   E(MeV)          xs(mb) 
 7.28904E+00    9.65152E-26
 7.32798E+00    1.66284E-25
 8.50000E+00    2.26620E-24
 9.00000E+00    1.48492E-18
 9.50000E+00    6.39673E-15
 1.00000E+01    1.95214E-12
 1.05000E+01    1.18340E-10
 1.10000E+01    2.67350E-09
 1.15000E+01    3.03921E-08
 1.20000E+01    2.15200E-07
 1.25000E+01    1.09000E-06
 1.30000E+01    3.21866E-06
 1.35000E+01    1.13134E-05
 1.40000E+01    3.39750E-05
 1.45000E+01    9.39833E-05
 1.50000E+01    2.03871E-04
 1.55000E+01    3.92151E-04
 1.60000E+01    6.89761E-04
 1.65000E+01    1.14446E-03
 1.70000E+01    1.78511E-03
 1.75000E+01    2.48881E-03
 1.80000E+01    3.42577E-03
 1.85000E+01    4.61382E-03
 1.90000E+01    5.56607E-03
 1.95000E+01    7.22576E-03
 2.00000E+01    8.53975E-03
