# n + Cd113 : (n,xn)    
# jendl.ad   kunieda                           EVAL-Mar14
# 
# # energies =    56
#   E(MeV)        xs(mb) 
 1.50000E-01    0.00000E+00
 2.00000E-01    3.52727E-03
 2.65945E-01    2.48124E-02
 3.00000E-01    7.05481E-02
 3.01157E-01    7.35318E-02
 3.19005E-01    1.63953E+02
 4.00000E-01    7.95668E+02
 5.00000E-01    1.02886E+03
 6.00000E-01    1.16103E+03
 7.00000E-01    1.25880E+03
 8.00000E-01    1.34126E+03
 9.00000E-01    1.41445E+03
 1.00000E+00    1.47998E+03
 1.20000E+00    1.58789E+03
 1.40000E+00    1.66441E+03
 1.60000E+00    1.71295E+03
 1.80000E+00    1.73996E+03
 2.00000E+00    1.75219E+03
 2.20000E+00    1.75541E+03
 2.40000E+00    1.75412E+03
 2.70000E+00    1.75091E+03
 3.00000E+00    1.75349E+03
 3.50000E+00    1.78037E+03
 4.00000E+00    1.83834E+03
 4.50000E+00    1.91250E+03
 5.00000E+00    1.97886E+03
 5.50000E+00    2.02001E+03
 6.00000E+00    2.03229E+03
 6.50000E+00    2.02316E+03
 7.00000E+00    2.04347E+03
 7.50000E+00    2.18014E+03
 8.00000E+00    2.40479E+03
 8.50000E+00    2.63754E+03
 9.00000E+00    2.83344E+03
 9.50000E+00    3.01555E+03
 1.00000E+01    3.18911E+03
 1.05000E+01    3.32151E+03
 1.10000E+01    3.39926E+03
 1.15000E+01    3.47662E+03
 1.20000E+01    3.53286E+03
 1.25000E+01    3.56014E+03
 1.30000E+01    3.58941E+03
 1.35000E+01    3.60392E+03
 1.40000E+01    3.61214E+03
 1.45000E+01    3.61501E+03
 1.50000E+01    3.61412E+03
 1.55000E+01    3.60875E+03
 1.60000E+01    3.59859E+03
 1.65000E+01    3.58772E+03
 1.70000E+01    3.58101E+03
 1.75000E+01    3.58167E+03
 1.80000E+01    3.65452E+03
 1.85000E+01    3.73393E+03
 1.90000E+01    3.83044E+03
 1.95000E+01    3.94681E+03
 2.00000E+01    4.04836E+03
