# n + Ru100 : (n,el)    
# endfb8.0   JNDC FPND W.G., Mughabghab        EVAL-MAR05
# uncertainties: n
# # energies =   171
#   E(MeV)       xs(mb) 
 1.00000E-11    1.65515E+04
 1.00000E-07    9.41254E+03
 4.13990E-07    9.39379E+03
 5.31580E-07    9.38511E+03
 6.82560E-07    9.37396E+03
 8.76420E-07    9.35975E+03
 1.12540E-06    9.34208E+03
 1.44500E-06    9.31949E+03
 1.85540E-06    9.29076E+03
 2.37240E-06    9.25356E+03
 3.05900E-06    9.20539E+03
 3.92790E-06    9.14397E+03
 5.04350E-06    9.06510E+03
 6.47600E-06    8.95235E+03
 8.31530E-06    8.86642E+03
 1.06770E-05    8.94495E+03
 1.37100E-05    8.71251E+03
 1.76030E-05    8.51742E+03
 2.26030E-05    8.30055E+03
 2.92030E-05    8.06361E+03
 3.72670E-05    7.80457E+03
 4.78510E-05    7.52122E+03
 6.14420E-05    7.22403E+03
 7.88930E-05    6.92052E+03
 1.01300E-04    6.61647E+03
 1.30070E-04    6.30715E+03
 1.67020E-04    5.91984E+03
 2.14450E-04    7.16563E+03
 2.75360E-04    5.78934E+03
 3.53580E-04    5.56175E+03
 4.54000E-04    5.39046E+03
 5.82950E-04    5.25181E+03
 7.48520E-04    5.13644E+03
 9.61120E-04    5.03757E+03
 1.23410E-03    4.94990E+03
 1.58460E-03    4.85955E+03
 2.03470E-03    4.79009E+03
 2.24870E-03    4.74407E+03
 2.48520E-03    4.70659E+03
 2.61260E-03    5.33791E+03
 2.74650E-03    4.61362E+03
 3.03540E-03    5.21479E+03
 3.35460E-03    3.74524E+03
 3.70740E-03    1.49909E+04
 4.30740E-03    6.07888E+03
 5.53080E-03    8.60555E+03
 7.10170E-03    1.19317E+04
 9.11880E-03    1.15570E+04
 1.17090E-02    7.31639E+03
 1.50340E-02    6.22528E+03
 1.93050E-02    6.30650E+03
 2.18750E-02    6.35903E+03
 2.35790E-02    6.38752E+03
 2.41760E-02    6.40237E+03
 2.47880E-02    6.42536E+03
 2.60580E-02    6.45249E+03
 2.70000E-02    6.48208E+03
 2.85000E-02    6.53922E+03
 3.18280E-02    6.60717E+03
 3.43070E-02    6.70629E+03
 4.08680E-02    6.83410E+03
 4.63090E-02    6.94816E+03
 5.24750E-02    7.04325E+03
 5.65620E-02    7.16672E+03
 6.73790E-02    7.28919E+03
 7.20000E-02    7.37475E+03
 7.95000E-02    7.44582E+03
 8.25000E-02    7.49014E+03
 8.65170E-02    7.58069E+03
 9.80370E-02    7.66663E+03
 1.11090E-01    7.67536E+03
 1.16790E-01    7.68009E+03
 1.22770E-01    7.68505E+03
 1.29070E-01    7.69028E+03
 1.35690E-01    7.69577E+03
 1.42640E-01    7.70154E+03
 1.49960E-01    7.70193E+03
 1.57640E-01    7.69645E+03
 1.65730E-01    7.69068E+03
 1.74220E-01    7.68462E+03
 1.83160E-01    7.67825E+03
 1.92550E-01    7.67155E+03
 2.02420E-01    7.66445E+03
 2.12800E-01    7.65230E+03
 2.23710E-01    7.63648E+03
 2.35180E-01    7.61985E+03
 2.47240E-01    7.59317E+03
 2.73240E-01    7.56459E+03
 2.87250E-01    7.54626E+03
 2.94520E-01    7.53609E+03
 2.97200E-01    7.53203E+03
 2.98500E-01    7.52717E+03
 3.01970E-01    7.49194E+03
 3.33730E-01    7.42589E+03
 3.68830E-01    7.37248E+03
 3.87740E-01    7.33443E+03
 4.07620E-01    7.27594E+03
 4.50490E-01    7.20101E+03
 4.97870E-01    7.14082E+03
 5.23400E-01    7.09409E+03
 5.50230E-01    6.97646E+03
 5.78440E-01    6.81942E+03
 6.08100E-01    6.66872E+03
 6.39280E-01    6.51971E+03
 6.72060E-01    6.37345E+03
 7.06510E-01    6.25330E+03
 7.42740E-01    6.14629E+03
 7.80820E-01    6.03687E+03
 8.20850E-01    5.93944E+03
 8.62940E-01    5.83982E+03
 9.07180E-01    5.73185E+03
 9.61640E-01    5.63729E+03
 1.00260E+00    5.49487E+03
 1.10800E+00    5.33888E+03
 1.16480E+00    5.21568E+03
 1.22460E+00    5.08017E+03
 1.28730E+00    4.93953E+03
 1.35340E+00    4.79619E+03
 1.42270E+00    4.63077E+03
 1.49570E+00    4.47085E+03
 1.57240E+00    4.32430E+03
 1.65300E+00    4.18355E+03
 1.73770E+00    4.04072E+03
 1.82680E+00    3.89014E+03
 1.92050E+00    3.72143E+03
 2.01900E+00    3.55350E+03
 2.12250E+00    3.37720E+03
 2.23130E+00    3.22144E+03
 2.30690E+00    3.13657E+03
 2.34570E+00    3.09426E+03
 2.36530E+00    3.06569E+03
 2.38520E+00    3.00091E+03
 2.46600E+00    2.87579E+03
 2.59240E+00    2.73007E+03
 2.72530E+00    2.59117E+03
 2.86500E+00    2.45684E+03
 3.01190E+00    2.33591E+03
 3.16640E+00    2.22638E+03
 3.32870E+00    2.07291E+03
 3.67880E+00    1.88495E+03
 4.06570E+00    1.76734E+03
 4.49330E+00    1.70584E+03
 4.72370E+00    1.66507E+03
 4.96590E+00    1.64322E+03
 5.22050E+00    1.65246E+03
 5.48810E+00    1.66266E+03
 5.76950E+00    1.67410E+03
 6.06530E+00    1.70717E+03
 6.37630E+00    1.74410E+03
 6.59240E+00    1.76701E+03
 6.70320E+00    1.79788E+03
 7.04690E+00    1.85096E+03
 7.40820E+00    1.91223E+03
 7.78800E+00    1.97500E+03
 8.18730E+00    2.03925E+03
 8.60710E+00    2.10682E+03
 9.04840E+00    2.17854E+03
 9.51230E+00    2.25146E+03
 1.00000E+01    2.28160E+03
 1.05130E+01    2.30545E+03
 1.10520E+01    2.36663E+03
 1.16180E+01    2.44801E+03
 1.22140E+01    2.45903E+03
 1.28400E+01    2.47362E+03
 1.34990E+01    2.52883E+03
 1.38400E+01    2.56251E+03
 1.41910E+01    2.56722E+03
 1.45500E+01    2.57174E+03
 1.49180E+01    2.57276E+03
 1.56830E+01    2.55911E+03
 1.64870E+01    2.52967E+03
