# n + Ru100 : (n,tot)   
# endfb8.0   JNDC FPND W.G., Mughabghab        EVAL-MAR05
# uncertainties: n
# # energies =   171
#   E(MeV)       xs(mb) 
 1.00000E-11    7.91863E+04
 1.00000E-07    1.14929E+04
 4.13990E-07    1.07316E+04
 5.31580E-07    1.05638E+04
 6.82560E-07    1.04124E+04
 8.76420E-07    1.02748E+04
 1.12540E-06    1.01496E+04
 1.44500E-06    1.00332E+04
 1.85540E-06    9.92082E+03
 2.37240E-06    9.81486E+03
 3.05900E-06    9.70141E+03
 3.92790E-06    9.59315E+03
 5.04350E-06    9.48764E+03
 6.47600E-06    9.43885E+03
 8.31530E-06    3.13343E+04
 1.06770E-05    9.56429E+03
 1.37100E-05    8.90871E+03
 1.76030E-05    8.66134E+03
 2.26030E-05    8.41352E+03
 2.92030E-05    8.14973E+03
 3.72670E-05    7.87023E+03
 4.78510E-05    7.57092E+03
 6.14420E-05    7.26047E+03
 7.88930E-05    6.94589E+03
 1.01300E-04    6.63454E+03
 1.30070E-04    6.32142E+03
 1.67020E-04    5.94285E+03
 2.14450E-04    1.46255E+04
 2.75360E-04    5.79447E+03
 3.53580E-04    5.56359E+03
 4.54000E-04    5.39146E+03
 5.82950E-04    5.25280E+03
 7.48520E-04    5.13690E+03
 9.61120E-04    5.03781E+03
 1.23410E-03    4.94947E+03
 1.58460E-03    4.86103E+03
 2.03470E-03    4.79194E+03
 2.24870E-03    4.74617E+03
 2.48520E-03    4.70886E+03
 2.61260E-03    7.14414E+03
 2.74650E-03    4.64818E+03
 3.03540E-03    6.19284E+03
 3.35460E-03    4.14675E+03
 3.70740E-03    1.59848E+04
 4.30740E-03    6.59916E+03
 5.53080E-03    9.22821E+03
 7.10170E-03    1.25369E+04
 9.11880E-03    1.19430E+04
 1.17090E-02    7.64759E+03
 1.50340E-02    6.52725E+03
 1.93050E-02    6.57472E+03
 2.18750E-02    6.61043E+03
 2.35790E-02    6.63079E+03
 2.41760E-02    6.64171E+03
 2.47880E-02    6.65879E+03
 2.60580E-02    6.67929E+03
 2.70000E-02    6.70209E+03
 2.85000E-02    6.74741E+03
 3.18280E-02    6.80306E+03
 3.43070E-02    6.88680E+03
 4.08680E-02    6.99741E+03
 4.63090E-02    7.09837E+03
 5.24750E-02    7.18398E+03
 5.65620E-02    7.29684E+03
 6.73790E-02    7.40995E+03
 7.20000E-02    7.48977E+03
 7.95000E-02    7.55642E+03
 8.25000E-02    7.59820E+03
 8.65170E-02    7.68390E+03
 9.80370E-02    7.76419E+03
 1.11090E-01    7.77030E+03
 1.16790E-01    7.77345E+03
 1.22770E-01    7.77676E+03
 1.29070E-01    7.78025E+03
 1.35690E-01    7.78391E+03
 1.42640E-01    7.78775E+03
 1.49960E-01    7.78683E+03
 1.57640E-01    7.78069E+03
 1.65730E-01    7.77424E+03
 1.74220E-01    7.76745E+03
 1.83160E-01    7.76031E+03
 1.92550E-01    7.75282E+03
 2.02420E-01    7.74493E+03
 2.12800E-01    7.73329E+03
 2.23710E-01    7.71735E+03
 2.35180E-01    7.70060E+03
 2.47240E-01    7.67373E+03
 2.73240E-01    7.64500E+03
 2.87250E-01    7.62978E+03
 2.94520E-01    7.62268E+03
 2.97200E-01    7.61984E+03
 2.98500E-01    7.61610E+03
 3.01970E-01    7.58065E+03
 3.33730E-01    7.51203E+03
 3.68830E-01    7.45611E+03
 3.87740E-01    7.41795E+03
 4.07620E-01    7.36677E+03
 4.50490E-01    7.29341E+03
 4.97870E-01    7.23363E+03
 5.23400E-01    7.19050E+03
 5.50230E-01    7.14175E+03
 5.78440E-01    7.08989E+03
 6.08100E-01    7.03537E+03
 6.39280E-01    6.97808E+03
 6.72060E-01    6.92164E+03
 7.06510E-01    6.86491E+03
 7.42740E-01    6.80528E+03
 7.80820E-01    6.74260E+03
 8.20850E-01    6.67670E+03
 8.62940E-01    6.60742E+03
 9.07180E-01    6.52832E+03
 9.61640E-01    6.45366E+03
 1.00260E+00    6.34842E+03
 1.10800E+00    6.22978E+03
 1.16480E+00    6.14530E+03
 1.22460E+00    6.06172E+03
 1.28730E+00    5.97675E+03
 1.35340E+00    5.88743E+03
 1.42270E+00    5.79356E+03
 1.49570E+00    5.69498E+03
 1.57240E+00    5.59926E+03
 1.65300E+00    5.50293E+03
 1.73770E+00    5.40164E+03
 1.82680E+00    5.29743E+03
 1.92050E+00    5.19589E+03
 2.01900E+00    5.08985E+03
 2.12250E+00    4.97984E+03
 2.23130E+00    4.89228E+03
 2.30690E+00    4.83917E+03
 2.34570E+00    4.81209E+03
 2.36530E+00    4.79381E+03
 2.38520E+00    4.74772E+03
 2.46600E+00    4.66216E+03
 2.59240E+00    4.55862E+03
 2.72530E+00    4.46125E+03
 2.86500E+00    4.36451E+03
 3.01190E+00    4.28471E+03
 3.16640E+00    4.21733E+03
 3.32870E+00    4.11509E+03
 3.67880E+00    3.98432E+03
 4.06570E+00    3.91208E+03
 4.49330E+00    3.88040E+03
 4.72370E+00    3.85782E+03
 4.96590E+00    3.84440E+03
 5.22050E+00    3.84770E+03
 5.48810E+00    3.85144E+03
 5.76950E+00    3.85542E+03
 6.06530E+00    3.86835E+03
 6.37630E+00    3.88515E+03
 6.59240E+00    3.89557E+03
 6.70320E+00    3.90993E+03
 7.04690E+00    3.93743E+03
 7.40820E+00    3.97523E+03
 7.78800E+00    4.01545E+03
 8.18730E+00    4.06692E+03
 8.60710E+00    4.12531E+03
 9.04840E+00    4.18824E+03
 9.51230E+00    4.25917E+03
 1.00000E+01    4.32266E+03
 1.05130E+01    4.38755E+03
 1.10520E+01    4.45360E+03
 1.16180E+01    4.51774E+03
 1.22140E+01    4.53413E+03
 1.28400E+01    4.53544E+03
 1.34990E+01    4.53641E+03
 1.38400E+01    4.53420E+03
 1.41910E+01    4.51711E+03
 1.45500E+01    4.49798E+03
 1.49180E+01    4.46657E+03
 1.56830E+01    4.42279E+03
 1.64870E+01    4.38306E+03
