# n + Ge 76 : (n,n'08)  
# jeff3.3    A.J. Koning and D. Rochman        EVAL-DEC15
# uncertainties: n
# # energies =    81
#   E(MeV)       xs(mb) 
 2.31457E+00    0.00000E+00
 2.40000E+00    3.64260E+01
 2.48863E+00    5.62879E+01
 2.51112E+00    6.13278E+01
 2.53686E+00    6.70961E+01
 2.58793E+00    7.85408E+01
 2.60000E+00    8.12457E+01
 2.62552E+00    8.29476E+01
 2.65886E+00    8.51711E+01
 2.68978E+00    8.72331E+01
 2.72817E+00    8.97934E+01
 2.76972E+00    9.25643E+01
 2.78427E+00    9.35347E+01
 2.80000E+00    9.45837E+01
 2.80554E+00    9.44407E+01
 2.87932E+00    9.25366E+01
 2.93620E+00    9.10687E+01
 2.95858E+00    9.04911E+01
 2.95981E+00    9.04593E+01
 3.00000E+00    8.94221E+01
 3.00155E+00    8.93357E+01
 3.03378E+00    8.75388E+01
 3.04776E+00    8.67594E+01
 3.08140E+00    8.48839E+01
 3.09305E+00    8.42343E+01
 3.11180E+00    8.31890E+01
 3.13105E+00    8.21157E+01
 3.20000E+00    7.82716E+01
 3.40000E+00    6.59881E+01
 3.60000E+00    5.42717E+01
 3.80000E+00    4.40641E+01
 4.00000E+00    3.55139E+01
 4.20000E+00    2.85223E+01
 4.40000E+00    2.27851E+01
 4.60000E+00    1.83063E+01
 4.80000E+00    1.47605E+01
 5.00000E+00    1.19436E+01
 5.20000E+00    9.70042E+00
 5.40000E+00    7.90308E+00
 5.60000E+00    6.46037E+00
 5.80000E+00    5.30074E+00
 6.00000E+00    4.36840E+00
 6.20000E+00    3.61840E+00
 6.40000E+00    3.01547E+00
 6.60000E+00    2.53124E+00
 6.80000E+00    2.14190E+00
 7.00000E+00    1.82928E+00
 7.20000E+00    1.57862E+00
 7.40000E+00    1.37563E+00
 7.60000E+00    1.21058E+00
 7.80000E+00    1.07837E+00
 8.00000E+00    9.71714E-01
 8.50000E+00    7.87879E-01
 9.00000E+00    6.79308E-01
 9.50000E+00    6.14098E-01
 1.00000E+01    5.74502E-01
 1.05000E+01    5.50555E-01
 1.10000E+01    5.36698E-01
 1.15000E+01    5.29496E-01
 1.20000E+01    5.26569E-01
 1.25000E+01    5.26152E-01
 1.30000E+01    5.26932E-01
 1.35000E+01    5.28006E-01
 1.40000E+01    5.28830E-01
 1.45000E+01    5.29147E-01
 1.50000E+01    5.28890E-01
 1.60000E+01    5.26642E-01
 1.70000E+01    5.22121E-01
 1.80000E+01    5.15713E-01
 1.90000E+01    5.08422E-01
 2.00000E+01    5.01261E-01
 2.10000E+01    4.94718E-01
 2.20000E+01    4.88742E-01
 2.30000E+01    4.82950E-01
 2.40000E+01    4.76889E-01
 2.50000E+01    4.70188E-01
 2.60000E+01    4.62634E-01
 2.70000E+01    4.54191E-01
 2.80000E+01    4.44956E-01
 2.90000E+01    4.35129E-01
 3.00000E+01    4.24942E-01
