# n + Tb158 : (n,n'13)  
# jeff3.3    A.J. Koning and D. Rochman        EVAL-DEC15
# uncertainties: n
# # energies =    89
#   E(MeV)       xs(mb) 
 3.24660E-01    0.00000E+00
 3.26069E-01    1.92718E-02
 3.40259E-01    2.13359E-01
 3.62098E-01    5.12067E-01
 3.73571E-01    6.68991E-01
 3.83534E-01    8.05263E-01
 3.90881E-01    9.05753E-01
 4.00000E-01    1.03048E+00
 4.08593E-01    1.16410E+00
 4.10707E-01    1.19697E+00
 4.21978E-01    1.37223E+00
 4.41804E-01    1.68052E+00
 4.47238E-01    1.76502E+00
 4.63844E-01    2.02324E+00
 4.72700E-01    2.16095E+00
 4.87091E-01    2.38473E+00
 4.90412E-01    2.43637E+00
 4.98564E-01    2.56313E+00
 5.00000E-01    2.58546E+00
 5.09131E-01    2.66379E+00
 6.00000E-01    3.44328E+00
 7.00000E-01    3.79164E+00
 8.00000E-01    3.74547E+00
 9.00000E-01    3.49926E+00
 1.00000E+00    3.16900E+00
 1.20000E+00    2.57332E+00
 1.40000E+00    2.10133E+00
 1.60000E+00    1.72303E+00
 1.80000E+00    1.40843E+00
 2.00000E+00    1.14112E+00
 2.20000E+00    9.13372E-01
 2.40000E+00    7.21085E-01
 2.60000E+00    5.60307E-01
 2.80000E+00    4.28157E-01
 3.00000E+00    3.22088E-01
 3.20000E+00    2.38860E-01
 3.40000E+00    1.74990E-01
 3.60000E+00    1.27018E-01
 3.80000E+00    9.17767E-02
 4.00000E+00    6.62308E-02
 4.20000E+00    4.78188E-02
 4.40000E+00    3.46411E-02
 4.60000E+00    2.52212E-02
 4.80000E+00    1.84411E-02
 5.00000E+00    1.35733E-02
 5.20000E+00    1.00293E-02
 5.40000E+00    7.43371E-03
 5.60000E+00    5.52998E-03
 5.80000E+00    4.11989E-03
 6.00000E+00    3.06147E-03
 6.20000E+00    2.28170E-03
 6.40000E+00    1.70231E-03
 6.60000E+00    1.27052E-03
 6.80000E+00    9.48911E-04
 7.00000E+00    7.10581E-04
 7.20000E+00    5.32354E-04
 7.40000E+00    3.99445E-04
 7.60000E+00    3.00253E-04
 7.80000E+00    2.25915E-04
 8.00000E+00    1.70612E-04
 8.50000E+00    8.52776E-05
 9.00000E+00    4.33141E-05
 9.50000E+00    2.24029E-05
 1.00000E+01    1.18060E-05
 1.05000E+01    6.33694E-06
 1.10000E+01    3.45830E-06
 1.15000E+01    1.91512E-06
 1.20000E+01    1.07382E-06
 1.25000E+01    6.08160E-07
 1.30000E+01    3.47380E-07
 1.35000E+01    1.99840E-07
 1.40000E+01    1.15700E-07
 1.45000E+01    6.73550E-08
 1.50000E+01    3.94420E-08
 1.60000E+01    1.37690E-08
 1.70000E+01    4.91840E-09
 1.80000E+01    1.80180E-09
 1.90000E+01    6.73600E-10
 2.00000E+01    2.60270E-10
 2.10000E+01    1.03120E-10
 2.20000E+01    4.18200E-11
 2.30000E+01    1.72460E-11
 2.40000E+01    7.22630E-12
 2.50000E+01    3.07260E-12
 2.60000E+01    1.32690E-12
 2.70000E+01    5.81780E-13
 2.80000E+01    2.59240E-13
 2.90000E+01    1.17350E-13
 3.00000E+01    5.39380E-14
