# n + Tb158 : (n,n'25)  
# jeff3.3    A.J. Koning and D. Rochman        EVAL-DEC15
# uncertainties: n
# # energies =    76
#   E(MeV)       xs(mb) 
 4.63844E-01    0.00000E+00
 4.72700E-01    2.23682E+00
 4.87091E-01    5.87166E+00
 4.90412E-01    6.71046E+00
 4.98564E-01    8.76947E+00
 5.00000E-01    9.13217E+00
 5.09131E-01    9.44038E+00
 6.00000E-01    1.25076E+01
 7.00000E-01    1.37577E+01
 8.00000E-01    1.37067E+01
 9.00000E-01    1.28793E+01
 1.00000E+00    1.16206E+01
 1.20000E+00    9.03164E+00
 1.40000E+00    6.80764E+00
 1.60000E+00    5.07464E+00
 1.80000E+00    3.76763E+00
 2.00000E+00    2.79177E+00
 2.20000E+00    2.06554E+00
 2.40000E+00    1.52576E+00
 2.60000E+00    1.12266E+00
 2.80000E+00    8.21117E-01
 3.00000E+00    5.96414E-01
 3.20000E+00    4.29779E-01
 3.40000E+00    3.07150E-01
 3.60000E+00    2.17949E-01
 3.80000E+00    1.54080E-01
 4.00000E+00    1.08811E-01
 4.20000E+00    7.68609E-02
 4.40000E+00    5.44583E-02
 4.60000E+00    3.87716E-02
 4.80000E+00    2.77356E-02
 5.00000E+00    1.99718E-02
 5.20000E+00    1.44541E-02
 5.40000E+00    1.05058E-02
 5.60000E+00    7.67326E-03
 5.80000E+00    5.62142E-03
 6.00000E+00    4.11642E-03
 6.20000E+00    3.02730E-03
 6.40000E+00    2.23218E-03
 6.60000E+00    1.64998E-03
 6.80000E+00    1.22133E-03
 7.00000E+00    9.07896E-04
 7.20000E+00    6.75607E-04
 7.40000E+00    5.03845E-04
 7.60000E+00    3.76696E-04
 7.80000E+00    2.81966E-04
 8.00000E+00    2.11879E-04
 8.50000E+00    1.04610E-04
 9.00000E+00    5.24556E-05
 9.50000E+00    2.67579E-05
 1.00000E+01    1.38935E-05
 1.05000E+01    7.34282E-06
 1.10000E+01    3.94497E-06
 1.15000E+01    2.15137E-06
 1.20000E+01    1.18879E-06
 1.25000E+01    6.64170E-07
 1.30000E+01    3.74660E-07
 1.35000E+01    2.13090E-07
 1.40000E+01    1.22110E-07
 1.45000E+01    7.04260E-08
 1.50000E+01    4.08930E-08
 1.60000E+01    1.40640E-08
 1.70000E+01    4.95790E-09
 1.80000E+01    1.79380E-09
 1.90000E+01    6.62450E-10
 2.00000E+01    2.52920E-10
 2.10000E+01    9.90570E-11
 2.20000E+01    3.97440E-11
 2.30000E+01    1.62330E-11
 2.40000E+01    6.74530E-12
 2.50000E+01    2.84720E-12
 2.60000E+01    1.22150E-12
 2.70000E+01    5.32310E-13
 2.80000E+01    2.35800E-13
 2.90000E+01    1.06130E-13
 3.00000E+01    4.85140E-14
