# n + Tb158 : (n,xa)    
# jeff3.3    A.J. Koning and D. Rochman        EVAL-DEC15
# 
# # energies =   135
#   E(MeV)        xs(mb) 
 5.53915E-02    7.17805E-04
 6.00000E-02    6.54625E-04
 8.04103E-02    5.45587E-04
 1.00000E-01    4.40932E-04
 1.11004E-01    4.28732E-04
 1.16238E-01    4.22929E-04
 1.29119E-01    4.08648E-04
 1.68469E-01    3.65021E-04
 1.80043E-01    3.52189E-04
 2.00000E-01    3.30063E-04
 2.09127E-01    3.27684E-04
 2.18688E-01    3.25192E-04
 2.43546E-01    3.18713E-04
 2.82392E-01    3.08588E-04
 3.00000E-01    3.03999E-04
 3.00407E-01    3.03893E-04
 3.24660E-01    2.98710E-04
 3.26069E-01    2.98421E-04
 3.40259E-01    2.95514E-04
 3.62098E-01    2.91039E-04
 3.73571E-01    2.88688E-04
 3.83534E-01    2.86646E-04
 3.90881E-01    2.85141E-04
 4.00000E-01    2.83272E-04
 4.08593E-01    2.81965E-04
 4.10707E-01    2.81698E-04
 4.21978E-01    2.80274E-04
 4.41804E-01    2.77769E-04
 4.47238E-01    2.77082E-04
 4.63844E-01    2.74984E-04
 4.72700E-01    2.73865E-04
 4.87091E-01    2.72047E-04
 4.90412E-01    2.71627E-04
 4.98564E-01    2.70597E-04
 5.00000E-01    2.70416E-04
 5.09131E-01    2.68521E-04
 6.00000E-01    2.49667E-04
 7.00000E-01    2.43388E-04
 8.00000E-01    2.37597E-04
 9.00000E-01    2.32016E-04
 1.00000E+00    2.25604E-04
 1.20000E+00    2.27894E-04
 1.40000E+00    2.48589E-04
 1.60000E+00    2.75011E-04
 1.80000E+00    3.15663E-04
 2.00000E+00    3.62475E-04
 2.20000E+00    4.12262E-04
 2.40000E+00    4.71010E-04
 2.60000E+00    5.26562E-04
 2.80000E+00    5.85481E-04
 3.00000E+00    6.42532E-04
 3.20000E+00    6.96081E-04
 3.40000E+00    7.49281E-04
 3.60000E+00    7.91371E-04
 3.80000E+00    8.45294E-04
 4.00000E+00    8.95392E-04
 4.20000E+00    9.55350E-04
 4.40000E+00    1.02568E-03
 4.60000E+00    1.08373E-03
 4.80000E+00    1.21472E-03
 5.00000E+00    1.33412E-03
 5.20000E+00    1.51741E-03
 5.40000E+00    1.66517E-03
 5.60000E+00    1.88406E-03
 5.80000E+00    2.36839E-03
 6.00000E+00    2.75553E-03
 6.20000E+00    3.38013E-03
 6.40000E+00    3.85864E-03
 6.60000E+00    4.60150E-03
 6.80000E+00    6.25957E-03
 7.00000E+00    7.55531E-03
 7.20000E+00    9.66280E-03
 7.40000E+00    1.12393E-02
 7.60000E+00    1.37375E-02
 7.80000E+00    1.89333E-02
 8.00000E+00    2.29567E-02
 8.50000E+00    3.97418E-02
 9.00000E+00    6.74781E-02
 9.50000E+00    1.11681E-01
 1.00000E+01    1.79378E-01
 1.05000E+01    2.78663E-01
 1.10000E+01    4.18098E-01
 1.15000E+01    6.06152E-01
 1.20000E+01    8.50770E-01
 1.25000E+01    1.15285E+00
 1.30000E+01    1.53519E+00
 1.35000E+01    2.00377E+00
 1.40000E+01    2.51076E+00
 1.45000E+01    3.17014E+00
 1.50000E+01    3.83164E+00
 1.60000E+01    5.64030E+00
 1.70000E+01    8.19986E+00
 1.80000E+01    1.19876E+01
 1.90000E+01    1.66609E+01
 2.00000E+01    1.96661E+01
 2.10000E+01    2.23476E+01
 2.20000E+01    2.10964E+01
 2.30000E+01    2.11385E+01
 2.40000E+01    2.14700E+01
 2.50000E+01    2.19829E+01
 2.60000E+01    2.25998E+01
 2.70000E+01    2.32583E+01
 2.80000E+01    2.39249E+01
 2.90000E+01    2.45781E+01
 3.00000E+01    2.52029E+01
 3.00000E+01    2.50773E+01
 3.20000E+01    2.60945E+01
 3.40000E+01    2.70917E+01
 3.60000E+01    2.79131E+01
 3.80000E+01    2.85864E+01
 4.00000E+01    2.91381E+01
 4.20000E+01    2.95996E+01
 4.40000E+01    3.00011E+01
 4.60000E+01    3.03711E+01
 4.80000E+01    3.07515E+01
 5.00000E+01    3.11675E+01
 5.20000E+01    3.16030E+01
 5.40000E+01    3.20613E+01
 5.60000E+01    3.25978E+01
 5.80000E+01    3.32260E+01
 6.00000E+01    3.39381E+01
 6.50000E+01    3.61209E+01
 7.00000E+01    3.89245E+01
 7.50000E+01    4.23248E+01
 8.00000E+01    4.89586E+01
 9.00000E+01    5.88810E+01
 1.00000E+02    6.15695E+01
 1.10000E+02    6.68477E+01
 1.20000E+02    7.40678E+01
 1.30000E+02    8.31048E+01
 1.40000E+02    9.94923E+01
 1.50000E+02    1.14689E+02
 1.60000E+02    1.23414E+02
 1.80000E+02    2.04048E+02
 2.00000E+02    4.08728E+02
