# n + Tb158 : (n,n'20)  
# jeff3.3    A.J. Koning and D. Rochman        EVAL-DEC15
# uncertainties: n
# # energies =    81
#   E(MeV)       xs(mb) 
 4.08593E-01    0.00000E+00
 4.10707E-01    7.70644E-01
 4.21978E-01    4.87941E+00
 4.41804E-01    1.21068E+01
 4.47238E-01    1.40878E+01
 4.63844E-01    2.01414E+01
 4.72700E-01    2.33698E+01
 4.87091E-01    2.86159E+01
 4.90412E-01    2.98266E+01
 4.98564E-01    3.27983E+01
 5.00000E-01    3.33218E+01
 5.09131E-01    3.30654E+01
 6.00000E-01    3.05135E+01
 7.00000E-01    2.69078E+01
 8.00000E-01    2.34639E+01
 9.00000E-01    2.02294E+01
 1.00000E+00    1.71944E+01
 1.20000E+00    1.23761E+01
 1.40000E+00    8.89079E+00
 1.60000E+00    6.40375E+00
 1.80000E+00    4.62866E+00
 2.00000E+00    3.35461E+00
 2.20000E+00    2.43573E+00
 2.40000E+00    1.77056E+00
 2.60000E+00    1.28516E+00
 2.80000E+00    9.29080E-01
 3.00000E+00    6.67998E-01
 3.20000E+00    4.76986E-01
 3.40000E+00    3.37947E-01
 3.60000E+00    2.37753E-01
 3.80000E+00    1.66604E-01
 4.00000E+00    1.16579E-01
 4.20000E+00    8.15554E-02
 4.40000E+00    5.72033E-02
 4.60000E+00    4.03039E-02
 4.80000E+00    2.85175E-02
 5.00000E+00    2.03146E-02
 5.20000E+00    1.45415E-02
 5.40000E+00    1.04565E-02
 5.60000E+00    7.55958E-03
 5.80000E+00    5.48460E-03
 6.00000E+00    3.97954E-03
 6.20000E+00    2.90256E-03
 6.40000E+00    2.12427E-03
 6.60000E+00    1.55931E-03
 6.80000E+00    1.14730E-03
 7.00000E+00    8.48155E-04
 7.20000E+00    6.28081E-04
 7.40000E+00    4.66358E-04
 7.60000E+00    3.47239E-04
 7.80000E+00    2.58942E-04
 8.00000E+00    1.93889E-04
 8.50000E+00    9.49232E-05
 9.00000E+00    4.71998E-05
 9.50000E+00    2.38661E-05
 1.00000E+01    1.22772E-05
 1.05000E+01    6.42574E-06
 1.10000E+01    3.41813E-06
 1.15000E+01    1.84570E-06
 1.20000E+01    1.01010E-06
 1.25000E+01    5.59150E-07
 1.30000E+01    3.12670E-07
 1.35000E+01    1.76390E-07
 1.40000E+01    1.00310E-07
 1.45000E+01    5.74460E-08
 1.50000E+01    3.31400E-08
 1.60000E+01    1.12680E-08
 1.70000E+01    3.93260E-09
 1.80000E+01    1.40990E-09
 1.90000E+01    5.16150E-10
 2.00000E+01    1.95410E-10
 2.10000E+01    7.59170E-11
 2.20000E+01    3.02320E-11
 2.30000E+01    1.22660E-11
 2.40000E+01    5.06760E-12
 2.50000E+01    2.12880E-12
 2.60000E+01    9.09500E-13
 2.70000E+01    3.94870E-13
 2.80000E+01    1.74310E-13
 2.90000E+01    7.81850E-14
 3.00000E+01    3.56210E-14
