# n + Tb158 : (n,n'30)  
# jeff3.3    A.J. Koning and D. Rochman        EVAL-DEC15
# uncertainties: n
# # energies =    70
#   E(MeV)       xs(mb) 
 5.09131E-01    0.00000E+00
 6.00000E-01    8.81984E+01
 7.00000E-01    7.50888E+01
 8.00000E-01    6.59884E+01
 9.00000E-01    5.96336E+01
 1.00000E+00    5.32723E+01
 1.20000E+00    3.99083E+01
 1.40000E+00    2.75793E+01
 1.60000E+00    1.82842E+01
 1.80000E+00    1.19607E+01
 2.00000E+00    7.83793E+00
 2.20000E+00    5.18106E+00
 2.40000E+00    3.46211E+00
 2.60000E+00    2.33290E+00
 2.80000E+00    1.57928E+00
 3.00000E+00    1.07084E+00
 3.20000E+00    7.25072E-01
 3.40000E+00    4.89309E-01
 3.60000E+00    3.29131E-01
 3.80000E+00    2.21299E-01
 4.00000E+00    1.49092E-01
 4.20000E+00    1.00769E-01
 4.40000E+00    6.85222E-02
 4.60000E+00    4.69647E-02
 4.80000E+00    3.24511E-02
 5.00000E+00    2.26550E-02
 5.20000E+00    1.59536E-02
 5.40000E+00    1.13313E-02
 5.60000E+00    8.12139E-03
 5.80000E+00    5.86324E-03
 6.00000E+00    4.24804E-03
 6.20000E+00    3.10289E-03
 6.40000E+00    2.27917E-03
 6.60000E+00    1.68298E-03
 6.80000E+00    1.24657E-03
 7.00000E+00    9.28502E-04
 7.20000E+00    6.92980E-04
 7.40000E+00    5.18395E-04
 7.60000E+00    3.88803E-04
 7.80000E+00    2.91834E-04
 8.00000E+00    2.19801E-04
 8.50000E+00    1.08855E-04
 9.00000E+00    5.45278E-05
 9.50000E+00    2.76883E-05
 1.00000E+01    1.42744E-05
 1.05000E+01    7.47847E-06
 1.10000E+01    3.97961E-06
 1.15000E+01    2.14900E-06
 1.20000E+01    1.17592E-06
 1.25000E+01    6.50750E-07
 1.30000E+01    3.63760E-07
 1.35000E+01    2.05140E-07
 1.40000E+01    1.16640E-07
 1.45000E+01    6.68160E-08
 1.50000E+01    3.85690E-08
 1.60000E+01    1.31440E-08
 1.70000E+01    4.60280E-09
 1.80000E+01    1.65630E-09
 1.90000E+01    6.08490E-10
 2.00000E+01    2.31050E-10
 2.10000E+01    8.99860E-11
 2.20000E+01    3.59220E-11
 2.30000E+01    1.46140E-11
 2.40000E+01    6.05430E-12
 2.50000E+01    2.54970E-12
 2.60000E+01    1.09150E-12
 2.70000E+01    4.74570E-13
 2.80000E+01    2.09700E-13
 2.90000E+01    9.41530E-14
 3.00000E+01    4.29410E-14
