# n + Tb158 : (n,n'18)  
# jeff3.3    A.J. Koning and D. Rochman        EVAL-DEC15
# uncertainties: n
# # energies =    84
#   E(MeV)       xs(mb) 
 3.83534E-01    0.00000E+00
 3.90881E-01    2.02803E+00
 4.00000E-01    4.54521E+00
 4.08593E-01    4.84859E+00
 4.10707E-01    4.92323E+00
 4.21978E-01    5.32116E+00
 4.41804E-01    6.02112E+00
 4.47238E-01    6.21298E+00
 4.63844E-01    6.79926E+00
 4.72700E-01    7.11193E+00
 4.87091E-01    7.62001E+00
 4.90412E-01    7.73726E+00
 4.98564E-01    8.02507E+00
 5.00000E-01    8.07577E+00
 5.09131E-01    8.23952E+00
 6.00000E-01    9.86909E+00
 7.00000E-01    1.03220E+01
 8.00000E-01    9.91780E+00
 9.00000E-01    9.02111E+00
 1.00000E+00    7.88971E+00
 1.20000E+00    5.82004E+00
 1.40000E+00    4.23955E+00
 1.60000E+00    3.10231E+00
 1.80000E+00    2.28494E+00
 2.00000E+00    1.68962E+00
 2.20000E+00    1.25096E+00
 2.40000E+00    9.25356E-01
 2.60000E+00    6.81568E-01
 2.80000E+00    4.98461E-01
 3.00000E+00    3.61514E-01
 3.20000E+00    2.59757E-01
 3.40000E+00    1.84809E-01
 3.60000E+00    1.30339E-01
 3.80000E+00    9.14303E-02
 4.00000E+00    6.39688E-02
 4.20000E+00    4.47006E-02
 4.40000E+00    3.12931E-02
 4.60000E+00    2.19906E-02
 4.80000E+00    1.55085E-02
 5.00000E+00    1.10075E-02
 5.20000E+00    7.84735E-03
 5.40000E+00    5.61872E-03
 5.60000E+00    4.04456E-03
 5.80000E+00    2.92167E-03
 6.00000E+00    2.11085E-03
 6.20000E+00    1.53342E-03
 6.40000E+00    1.11804E-03
 6.60000E+00    8.17761E-04
 6.80000E+00    5.99780E-04
 7.00000E+00    4.42075E-04
 7.20000E+00    3.26509E-04
 7.40000E+00    2.41859E-04
 7.60000E+00    1.79681E-04
 7.80000E+00    1.33721E-04
 8.00000E+00    9.99374E-05
 8.50000E+00    4.87134E-05
 9.00000E+00    2.41206E-05
 9.50000E+00    1.21432E-05
 1.00000E+01    6.21735E-06
 1.05000E+01    3.23762E-06
 1.10000E+01    1.71300E-06
 1.15000E+01    9.19890E-07
 1.20000E+01    5.00700E-07
 1.25000E+01    2.75730E-07
 1.30000E+01    1.53450E-07
 1.35000E+01    8.61870E-08
 1.40000E+01    4.88220E-08
 1.45000E+01    2.78640E-08
 1.50000E+01    1.60260E-08
 1.60000E+01    5.41980E-09
 1.70000E+01    1.88300E-09
 1.80000E+01    6.72260E-10
 1.90000E+01    2.45170E-10
 2.00000E+01    9.24960E-11
 2.10000E+01    3.58210E-11
 2.20000E+01    1.42250E-11
 2.30000E+01    5.75670E-12
 2.40000E+01    2.37290E-12
 2.50000E+01    9.94730E-13
 2.60000E+01    4.24170E-13
 2.70000E+01    1.83840E-13
 2.80000E+01    8.10180E-14
 2.90000E+01    3.62860E-14
 3.00000E+01    1.65080E-14
