# n + Ni  0 : (n,a)
# endfb8.0   T.Kawano, A.Kahler, A.Trkov       EVAL-Oct12
# uncertainties: n
# # energies =    80
#   E(MeV)          xs(mb) 
 5.70000E-02    0.00000E+00
 5.70000E-02    0.00000E+00
 6.00000E-02    2.01039E-05
 7.00000E-02    1.81059E-05
 8.00000E-02    1.66662E-05
 9.00000E-02    1.55737E-05
 1.00000E-01    1.48011E-05
 1.50000E-01    1.32116E-05
 2.00000E-01    1.33914E-05
 2.50000E-01    1.44647E-05
 3.00000E-01    1.48321E-05
 3.50000E-01    1.57319E-05
 4.00000E-01    1.76416E-05
 4.50000E-01    2.03141E-05
 5.00000E-01    2.37737E-05
 6.00000E-01    3.35095E-05
 7.00000E-01    4.64517E-05
 8.00000E-01    6.46256E-05
 9.00000E-01    1.56205E-02
 1.00000E+00    2.50241E-02
 1.10000E+00    3.93993E-02
 1.20000E+00    6.08105E-02
 1.30000E+00    9.22581E-02
 1.40000E+00    1.37481E-01
 1.50000E+00    1.62214E-01
 1.60000E+00    1.90567E-01
 1.70000E+00    2.44336E-01
 1.80000E+00    3.20204E-01
 1.90000E+00    4.21982E-01
 2.00000E+00    5.55995E-01
 2.10000E+00    7.33636E-01
 2.20000E+00    9.60405E-01
 2.30000E+00    1.25076E+00
 2.40000E+00    1.61904E+00
 2.50000E+00    2.08167E+00
 2.60000E+00    2.61175E+00
 2.70000E+00    3.27138E+00
 2.80000E+00    4.06878E+00
 2.90000E+00    4.72759E+00
 3.00000E+00    5.39265E+00
 3.10000E+00    6.13301E+00
 3.20000E+00    6.97946E+00
 3.30000E+00    8.04899E+00
 3.40000E+00    8.45182E+00
 3.50000E+00    9.42006E+00
 3.60000E+00    1.02832E+01
 3.80000E+00    1.18511E+01
 4.00000E+00    1.40291E+01
 4.50000E+00    2.03539E+01
 5.00000E+00    2.77857E+01
 5.50000E+00    3.54372E+01
 6.00000E+00    4.43968E+01
 6.50000E+00    5.36912E+01
 7.00000E+00    6.22220E+01
 7.50000E+00    6.91381E+01
 8.00000E+00    7.41972E+01
 8.50000E+00    7.72532E+01
 9.00000E+00    7.94572E+01
 9.50000E+00    8.16780E+01
 1.00000E+01    8.33264E+01
 1.05000E+01    8.48403E+01
 1.10000E+01    8.61861E+01
 1.15000E+01    8.67468E+01
 1.20000E+01    8.79476E+01
 1.25000E+01    8.90499E+01
 1.30000E+01    8.96809E+01
 1.35000E+01    9.04571E+01
 1.40000E+01    9.06453E+01
 1.45000E+01    9.00490E+01
 1.50000E+01    8.84930E+01
 1.55000E+01    8.60934E+01
 1.60000E+01    8.28101E+01
 1.65000E+01    7.90116E+01
 1.70000E+01    7.48022E+01
 1.75000E+01    7.08260E+01
 1.80000E+01    6.67281E+01
 1.85000E+01    6.29078E+01
 1.90000E+01    5.92547E+01
 1.95000E+01    5.58821E+01
 2.00000E+01    5.27076E+01
