# n + Xe131 : (n,tot)   
# endfb8.0   Kim,Herman,Oh,Mughabghab+         EVAL-FEB06
# uncertainties: n
# # energies =   171
#   E(MeV)       xs(mb) 
 1.00000E-11    9.73357E+05
 1.00000E-07    3.40591E+04
 4.13990E-07    2.28616E+04
 5.31580E-07    2.05307E+04
 6.82560E-07    1.85157E+04
 8.76420E-07    1.67932E+04
 1.12540E-06    1.53528E+04
 1.44500E-06    1.41932E+04
 1.85540E-06    1.33493E+04
 2.37240E-06    1.28973E+04
 3.05900E-06    1.31573E+04
 3.92790E-06    1.39599E+04
 5.04350E-06    1.69619E+04
 6.47600E-06    2.54388E+04
 8.31530E-06    5.75487E+04
 1.06770E-05    5.89898E+05
 1.37100E-05    9.64916E+06
 1.76030E-05    1.04680E+05
 2.26030E-05    3.26690E+04
 2.92030E-05    1.70715E+04
 3.72670E-05    6.48169E+04
 4.78510E-05    9.81747E+03
 6.14420E-05    2.68184E+04
 7.88930E-05    5.95937E+03
 1.01300E-04    2.93935E+04
 1.30070E-04    4.44957E+03
 1.67020E-04    3.00506E+04
 2.14450E-04    3.97408E+03
 2.75360E-04    2.96575E+04
 3.53580E-04    4.86965E+04
 4.54000E-04    1.08737E+04
 5.82950E-04    1.66809E+04
 7.48520E-04    5.48861E+03
 9.61120E-04    1.09558E+04
 1.23410E-03    7.15048E+03
 1.58460E-03    1.35159E+04
 2.03470E-03    1.21642E+04
 2.24870E-03    9.87825E+03
 2.48520E-03    1.34592E+04
 2.61260E-03    4.62970E+03
 2.74650E-03    4.03615E+03
 3.03540E-03    6.08586E+03
 3.35460E-03    5.74055E+03
 3.70740E-03    8.35880E+03
 4.30740E-03    8.57158E+03
 5.53080E-03    8.05406E+03
 7.10170E-03    7.60370E+03
 9.11880E-03    7.21542E+03
 1.17090E-02    6.88339E+03
 1.50340E-02    6.60062E+03
 1.93050E-02    6.41721E+03
 2.18750E-02    6.32980E+03
 2.35790E-02    6.28842E+03
 2.41760E-02    6.26870E+03
 2.47880E-02    6.24002E+03
 2.60580E-02    6.20843E+03
 2.70000E-02    6.17528E+03
 2.85000E-02    6.11920E+03
 3.18280E-02    6.05996E+03
 3.43070E-02    5.98885E+03
 4.08680E-02    5.91394E+03
 4.63090E-02    5.86090E+03
 5.24750E-02    5.82411E+03
 5.65620E-02    5.78601E+03
 6.73790E-02    5.75504E+03
 7.20000E-02    5.73834E+03
 7.95000E-02    5.72661E+03
 8.25000E-02    5.72094E+03
 8.65170E-02    5.70893E+03
 9.80370E-02    5.69789E+03
 1.11090E-01    5.69971E+03
 1.16790E-01    5.70101E+03
 1.22770E-01    5.70236E+03
 1.29070E-01    5.70379E+03
 1.35690E-01    5.70529E+03
 1.42640E-01    5.70687E+03
 1.49960E-01    5.70890E+03
 1.57640E-01    5.71726E+03
 1.65730E-01    5.72828E+03
 1.74220E-01    5.73986E+03
 1.83160E-01    5.75204E+03
 1.92550E-01    5.76484E+03
 2.02420E-01    5.77834E+03
 2.12800E-01    5.79594E+03
 2.23710E-01    5.81666E+03
 2.35180E-01    5.83845E+03
 2.47240E-01    5.87338E+03
 2.73240E-01    5.91073E+03
 2.87250E-01    5.93051E+03
 2.94520E-01    5.93975E+03
 2.97200E-01    5.94344E+03
 2.98500E-01    5.94785E+03
 3.01970E-01    5.97999E+03
 3.33730E-01    6.04185E+03
 3.68830E-01    6.09223E+03
 3.87740E-01    6.12812E+03
 4.07620E-01    6.18568E+03
 4.50490E-01    6.26912E+03
 4.97870E-01    6.33665E+03
 5.23400E-01    6.37899E+03
 5.50230E-01    6.42188E+03
 5.78440E-01    6.46696E+03
 6.08100E-01    6.51436E+03
 6.39280E-01    6.56198E+03
 6.72060E-01    6.60605E+03
 7.06510E-01    6.65203E+03
 7.42740E-01    6.69461E+03
 7.80820E-01    6.73481E+03
 8.20850E-01    6.77618E+03
 8.62940E-01    6.81101E+03
 9.07180E-01    6.84817E+03
 9.61640E-01    6.87665E+03
 1.00260E+00    6.90820E+03
 1.10800E+00    6.92955E+03
 1.16480E+00    6.93618E+03
 1.22460E+00    6.92336E+03
 1.28730E+00    6.90569E+03
 1.35340E+00    6.88664E+03
 1.42270E+00    6.84727E+03
 1.49570E+00    6.79571E+03
 1.57240E+00    6.74113E+03
 1.65300E+00    6.67329E+03
 1.73770E+00    6.59732E+03
 1.82680E+00    6.51742E+03
 1.92050E+00    6.43341E+03
 2.01900E+00    6.33826E+03
 2.12250E+00    6.22843E+03
 2.23130E+00    6.13270E+03
 2.30690E+00    6.07330E+03
 2.34570E+00    6.04302E+03
 2.36530E+00    6.02257E+03
 2.38520E+00    5.97065E+03
 2.46600E+00    5.86368E+03
 2.59240E+00    5.73819E+03
 2.72530E+00    5.62456E+03
 2.86500E+00    5.50565E+03
 3.01190E+00    5.39582E+03
 3.16640E+00    5.29995E+03
 3.32870E+00    5.14632E+03
 3.67880E+00    4.92388E+03
 4.06570E+00    4.71931E+03
 4.49330E+00    4.57477E+03
 4.72370E+00    4.47179E+03
 4.96590E+00    4.38075E+03
 5.22050E+00    4.31410E+03
 5.48810E+00    4.24448E+03
 5.76950E+00    4.17284E+03
 6.06530E+00    4.14275E+03
 6.37630E+00    4.13400E+03
 6.59240E+00    4.12858E+03
 6.70320E+00    4.12158E+03
 7.04690E+00    4.14460E+03
 7.40820E+00    4.18997E+03
 7.78800E+00    4.23856E+03
 8.18730E+00    4.30237E+03
 8.60710E+00    4.37357E+03
 9.04840E+00    4.44842E+03
 9.51230E+00    4.52525E+03
 1.00000E+01    4.59498E+03
 1.05130E+01    4.65894E+03
 1.10520E+01    4.71329E+03
 1.16180E+01    4.76001E+03
 1.22140E+01    4.79424E+03
 1.28400E+01    4.82090E+03
 1.34990E+01    4.83276E+03
 1.38400E+01    4.83938E+03
 1.41910E+01    4.84003E+03
 1.45500E+01    4.83982E+03
 1.49180E+01    4.83304E+03
 1.56830E+01    4.81301E+03
 1.64870E+01    4.77847E+03
