# n + Dy164 : (n,t)     
# jendl4.0   N.Iwamoto,S.Chiba                 EVAL-Nov09
# uncertainties: n
# # energies =    32
#   E(MeV)       xs(mb) 
 7.21462E+00    0.00000E+00
 7.25396E+00    8.46470E-26
 7.31221E+00    2.56490E-25
 7.39170E+00    5.12900E-25
 7.43195E+00    6.43110E-25
 7.48326E+00    8.09190E-25
 7.52652E+00    9.49220E-25
 7.55813E+00    7.91490E-23
 8.50000E+00    2.91070E-21
 9.00000E+00    3.49790E-18
 9.50000E+00    2.06650E-14
 1.00000E+01    8.89800E-12
 1.05000E+01    7.86650E-10
 1.10000E+01    2.46280E-08
 1.15000E+01    3.76410E-07
 1.20000E+01    3.43702E-06
 1.25000E+01    2.14515E-05
 1.30000E+01    1.00326E-04
 1.35000E+01    3.74600E-04
 1.40000E+01    1.16605E-03
 1.45000E+01    3.07895E-03
 1.50000E+01    7.21478E-03
 1.55000E+01    1.47421E-02
 1.60000E+01    2.75914E-02
 1.65000E+01    4.73139E-02
 1.70000E+01    7.39287E-02
 1.75000E+01    1.10048E-01
 1.80000E+01    1.51817E-01
 1.85000E+01    2.02927E-01
 1.90000E+01    2.61269E-01
 1.95000E+01    3.24577E-01
 2.00000E+01    3.92850E-01
