# n + Dy164 : (n,el)    
# jendl4.0   N.Iwamoto,S.Chiba                 EVAL-Nov09
# uncertainties: n
# # energies =    69
#   E(MeV)       xs(mb) 
 1.00000E-10    3.90920E+05
 5.00000E-09    3.31216E+05
 1.00000E-08    3.28035E+05
 1.50000E-08    3.25853E+05
 2.00000E-08    3.23964E+05
 2.50000E-08    3.22239E+05
 3.00000E-08    3.20588E+05
 3.50000E-08    3.18678E+05
 4.20000E-08    3.16360E+05
 5.00000E-08    3.13922E+05
 5.80000E-08    3.11417E+05
 6.70000E-08    3.08239E+05
 8.00000E-08    3.03629E+05
 1.00000E-07    2.95687E+05
 1.40000E-07    2.85292E+05
 1.80000E-07    2.75518E+05
 2.20000E-07    2.67362E+05
 2.50000E-07    2.60744E+05
 2.80000E-07    2.55394E+05
 3.00000E-07    2.51280E+05
 3.20000E-07    2.46307E+05
 3.50000E-07    2.38722E+05
 4.00000E-07    2.25640E+05
 5.00000E-07    2.07840E+05
 6.25000E-07    1.88716E+05
 7.80000E-07    1.74918E+05
 8.50000E-07    1.67863E+05
 9.10000E-07    1.62741E+05
 9.50000E-07    1.59698E+05
 9.72000E-07    1.57511E+05
 9.96000E-07    1.55279E+05
 1.02000E-06    1.53060E+05
 1.04500E-06    1.50811E+05
 1.07100E-06    1.48562E+05
 1.09700E-06    1.46390E+05
 1.12300E-06    1.44202E+05
 1.15000E-06    1.37500E+05
 1.30000E-06    1.25489E+05
 1.50000E-06    1.04827E+05
 2.10000E-06    8.30944E+04
 2.60000E-06    6.75540E+04
 3.30000E-06    5.47539E+04
 4.00000E-06    3.22719E+04
 9.87700E-06    1.55677E+04
 1.59680E-05    9.77885E+03
 2.77000E-05    6.31897E+03
 4.80520E-05    4.22267E+03
 7.55014E-05    1.83246E+05
 1.48728E-04    2.47542E+04
 3.67262E-04    1.31762E+04
 9.06898E-04    1.45878E+04
 1.42510E-03    1.28080E+04
 2.23945E-03    1.67630E+04
 3.51910E-03    1.82753E+04
 5.53000E-03    1.75169E+04
 9.11800E-03    1.33839E+04
 1.50300E-02    1.18560E+04
 2.47800E-02    1.06049E+04
 4.08500E-02    9.59671E+03
 6.73400E-02    8.68305E+03
 1.11000E-01    7.71277E+03
 1.83000E-01    6.84767E+03
 3.02000E-01    6.10108E+03
 5.00000E-01    5.54486E+03
 8.21000E-01    4.87872E+03
 1.35300E+00    4.07639E+03
 2.23100E+00    3.22680E+03
 3.67900E+00    2.44266E+03
 6.06500E+00    2.11718E+03
