# n + Dy164 : (n,n'12)  
# jendl4.0   N.Iwamoto,S.Chiba                 EVAL-Nov09
# uncertainties: n
# # energies =    52
#   E(MeV)       xs(mb) 
 1.16286E+00    0.00000E+00
 1.17317E+00    6.82330E-03
 1.20000E+00    3.34062E-02
 1.23268E+00    8.41394E-02
 1.26906E+00    1.57270E-01
 1.30000E+00    2.43072E-01
 1.31062E+00    2.77260E-01
 1.40000E+00    6.86209E-01
 1.50000E+00    1.42242E+00
 1.60000E+00    2.41080E+00
 1.70000E+00    3.58583E+00
 1.80000E+00    4.85531E+00
 1.90000E+00    6.10766E+00
 2.00000E+00    7.24261E+00
 2.25000E+00    8.73393E+00
 2.50000E+00    9.53717E+00
 2.75000E+00    8.83048E+00
 3.00000E+00    8.16062E+00
 3.50000E+00    5.66403E+00
 4.00000E+00    3.52258E+00
 4.50000E+00    2.06651E+00
 5.00000E+00    1.18549E+00
 5.50000E+00    6.91404E-01
 6.00000E+00    4.27309E-01
 6.50000E+00    2.88423E-01
 7.00000E+00    2.14355E-01
 7.50000E+00    1.73102E-01
 8.00000E+00    1.48482E-01
 8.50000E+00    1.32327E-01
 9.00000E+00    1.20574E-01
 9.50000E+00    1.11252E-01
 1.00000E+01    1.03422E-01
 1.05000E+01    9.66477E-02
 1.10000E+01    9.05464E-02
 1.15000E+01    8.51194E-02
 1.20000E+01    8.01228E-02
 1.25000E+01    7.56157E-02
 1.30000E+01    7.14446E-02
 1.35000E+01    6.76656E-02
 1.40000E+01    6.41411E-02
 1.45000E+01    6.09103E-02
 1.50000E+01    5.79094E-02
 1.55000E+01    5.53983E-02
 1.60000E+01    5.29736E-02
 1.65000E+01    5.03374E-02
 1.70000E+01    4.80992E-02
 1.75000E+01    4.60251E-02
 1.80000E+01    4.42793E-02
 1.85000E+01    4.25417E-02
 1.90000E+01    4.08032E-02
 1.95000E+01    3.90320E-02
 2.00000E+01    3.73919E-02
