# n + Dy164 : (n,n'11)  
# jendl4.0   N.Iwamoto,S.Chiba                 EVAL-Nov09
# uncertainties: n
# # energies =    53
#   E(MeV)       xs(mb) 
 1.12968E+00    0.00000E+00
 1.16286E+00    1.22232E+01
 1.17317E+00    1.45728E+01
 1.20000E+00    2.03015E+01
 1.23268E+00    2.67757E+01
 1.26906E+00    3.34277E+01
 1.30000E+00    3.86965E+01
 1.31062E+00    4.04840E+01
 1.40000E+00    5.41086E+01
 1.50000E+00    6.64764E+01
 1.60000E+00    7.44443E+01
 1.70000E+00    7.90582E+01
 1.80000E+00    8.07523E+01
 1.90000E+00    7.99662E+01
 2.00000E+00    7.71775E+01
 2.25000E+00    6.20157E+01
 2.50000E+00    5.03114E+01
 2.75000E+00    3.70887E+01
 3.00000E+00    2.84685E+01
 3.50000E+00    1.53867E+01
 4.00000E+00    8.11539E+00
 4.50000E+00    4.27519E+00
 5.00000E+00    2.31431E+00
 5.50000E+00    1.33317E+00
 6.00000E+00    8.46007E-01
 6.50000E+00    6.00480E-01
 7.00000E+00    4.70959E-01
 7.50000E+00    3.97098E-01
 8.00000E+00    3.50466E-01
 8.50000E+00    3.17567E-01
 9.00000E+00    2.92001E-01
 9.50000E+00    2.70727E-01
 1.00000E+01    2.52305E-01
 1.05000E+01    2.36087E-01
 1.10000E+01    2.21328E-01
 1.15000E+01    2.08128E-01
 1.20000E+01    1.95937E-01
 1.25000E+01    1.84924E-01
 1.30000E+01    1.74702E-01
 1.35000E+01    1.65434E-01
 1.40000E+01    1.56790E-01
 1.45000E+01    1.48869E-01
 1.50000E+01    1.41512E-01
 1.55000E+01    1.35309E-01
 1.60000E+01    1.29376E-01
 1.65000E+01    1.22981E-01
 1.70000E+01    1.17458E-01
 1.75000E+01    1.12366E-01
 1.80000E+01    1.08134E-01
 1.85000E+01    1.03920E-01
 1.90000E+01    9.95889E-02
 1.95000E+01    9.52658E-02
 2.00000E+01    9.12826E-02
