# n + Dy164 : (n,g)     
# jendl4.0   N.Iwamoto,S.Chiba                 EVAL-Nov09
# uncertainties: n
# # energies =    69
#   E(MeV)       xs(mb) 
 1.00000E-10    1.89941E+07
 5.00000E-09    5.13702E+06
 1.00000E-08    3.86925E+06
 1.50000E-08    3.23351E+06
 2.00000E-08    2.82980E+06
 2.50000E-08    2.54315E+06
 3.00000E-08    2.32551E+06
 3.50000E-08    2.12488E+06
 4.20000E-08    1.92845E+06
 5.00000E-08    1.76409E+06
 5.80000E-08    1.62534E+06
 6.70000E-08    1.48330E+06
 8.00000E-08    1.32023E+06
 1.00000E-07    1.11578E+06
 1.40000E-07    9.25017E+05
 1.80000E-07    7.94327E+05
 2.20000E-07    7.07139E+05
 2.50000E-07    6.47242E+05
 2.80000E-07    6.04044E+05
 3.00000E-07    5.73586E+05
 3.20000E-07    5.39645E+05
 3.50000E-07    4.92737E+05
 4.00000E-07    4.23162E+05
 5.00000E-07    3.44687E+05
 6.25000E-07    2.76131E+05
 7.80000E-07    2.33903E+05
 8.50000E-07    2.14541E+05
 9.10000E-07    2.01247E+05
 9.50000E-07    1.93637E+05
 9.72000E-07    1.88304E+05
 9.96000E-07    1.82975E+05
 1.02000E-06    1.77771E+05
 1.04500E-06    1.72586E+05
 1.07100E-06    1.67531E+05
 1.09700E-06    1.62702E+05
 1.12300E-06    1.57993E+05
 1.15000E-06    1.44089E+05
 1.30000E-06    1.20998E+05
 1.50000E-06    8.68957E+04
 2.10000E-06    5.67336E+04
 2.60000E-06    3.90678E+04
 3.30000E-06    2.66827E+04
 4.00000E-06    1.04748E+04
 9.87700E-06    2.24806E+03
 1.59680E-05    7.48461E+02
 2.77000E-05    2.52404E+02
 4.80520E-05    1.38981E+02
 7.55014E-05    2.43297E+04
 1.48728E-04    1.55520E+03
 3.67262E-04    3.45046E+03
 9.06898E-04    2.35954E+03
 1.42510E-03    1.00662E+03
 2.23945E-03    1.01578E+03
 3.51910E-03    5.23813E+02
 5.53000E-03    3.42252E+02
 9.11800E-03    3.54650E+02
 1.50300E-02    2.76322E+02
 2.47800E-02    2.13148E+02
 4.08500E-02    1.69527E+02
 6.73400E-02    1.10203E+02
 1.11000E-01    6.29717E+01
 1.83000E-01    4.60380E+01
 3.02000E-01    3.76617E+01
 5.00000E-01    3.59140E+01
 8.21000E-01    3.07724E+01
 1.35300E+00    2.37213E+01
 2.23100E+00    1.03921E+01
 3.67900E+00    2.30858E+00
 6.06500E+00    5.89974E-01
