# n + Dy164 : (n,n'16)  
# jendl4.0   N.Iwamoto,S.Chiba                 EVAL-Nov09
# uncertainties: n
# # energies =    46
#   E(MeV)       xs(mb) 
 1.31061E+00    0.00000E+00
 1.40000E+00    4.77224E-02
 1.50000E+00    1.71670E-01
 1.60000E+00    3.81273E-01
 1.70000E+00    6.75360E-01
 1.80000E+00    1.03866E+00
 1.90000E+00    1.44245E+00
 2.00000E+00    1.85135E+00
 2.25000E+00    2.58553E+00
 2.50000E+00    3.09988E+00
 2.75000E+00    3.06357E+00
 3.00000E+00    3.23733E+00
 3.50000E+00    2.56953E+00
 4.00000E+00    1.84027E+00
 4.50000E+00    1.24708E+00
 5.00000E+00    8.28234E-01
 5.50000E+00    5.60141E-01
 6.00000E+00    3.99663E-01
 6.50000E+00    3.05705E-01
 7.00000E+00    2.49594E-01
 7.50000E+00    2.14347E-01
 8.00000E+00    1.90575E-01
 8.50000E+00    1.73176E-01
 9.00000E+00    1.59440E-01
 9.50000E+00    1.47950E-01
 1.00000E+01    1.37992E-01
 1.05000E+01    1.29226E-01
 1.10000E+01    1.21248E-01
 1.15000E+01    1.14109E-01
 1.20000E+01    1.07513E-01
 1.25000E+01    1.01544E-01
 1.30000E+01    9.60107E-02
 1.35000E+01    9.09883E-02
 1.40000E+01    8.62988E-02
 1.45000E+01    8.19925E-02
 1.50000E+01    7.79910E-02
 1.55000E+01    7.45951E-02
 1.60000E+01    7.13860E-02
 1.65000E+01    6.78574E-02
 1.70000E+01    6.48375E-02
 1.75000E+01    6.20830E-02
 1.80000E+01    5.97508E-02
 1.85000E+01    5.74112E-02
 1.90000E+01    5.50662E-02
 1.95000E+01    5.27156E-02
 2.00000E+01    5.05096E-02
