# n + Dy164 : (n,h)     
# jendl4.0   N.Iwamoto,S.Chiba                 EVAL-Nov09
# uncertainties: n
# # energies =    23
#   E(MeV)       xs(mb) 
 8.59849E+00    0.00000E+00
 8.67053E+00    1.44990E-35
 8.83634E+00    6.47330E-35
 9.09150E+00    1.42040E-34
 1.10000E+01    1.60940E-33
 1.15000E+01    6.68260E-29
 1.20000E+01    3.27500E-25
 1.25000E+01    2.25850E-22
 1.30000E+01    3.86860E-20
 1.35000E+01    2.39010E-18
 1.40000E+01    6.77410E-17
 1.45000E+01    1.05370E-15
 1.50000E+01    1.01860E-14
 1.55000E+01    7.05560E-14
 1.60000E+01    4.13270E-13
 1.65000E+01    2.77100E-12
 1.70000E+01    3.05460E-11
 1.75000E+01    2.53350E-10
 1.80000E+01    1.76800E-09
 1.85000E+01    9.28450E-09
 1.90000E+01    4.01120E-08
 1.95000E+01    1.50620E-07
 2.00000E+01    4.96750E-07
