# n + Er168 : (n,n'20)  
# jeff3.3    A.J. Koning and D. Rochman        EVAL-DEC15
# uncertainties: n
# # energies =    73
#   E(MeV)       xs(mb) 
 1.43066E+00    0.00000E+00
 1.44006E+00    2.06225E+00
 1.44156E+00    2.39134E+00
 1.45766E+00    5.92347E+00
 1.50210E+00    1.56731E+01
 1.55082E+00    2.63617E+01
 1.56492E+00    2.94551E+01
 1.57888E+00    3.25177E+01
 1.58357E+00    3.35466E+01
 1.60000E+00    3.71512E+01
 1.61550E+00    3.73495E+01
 1.62504E+00    3.74715E+01
 1.80000E+00    3.97093E+01
 2.00000E+00    3.45321E+01
 2.20000E+00    2.65549E+01
 2.40000E+00    1.89478E+01
 2.60000E+00    1.30442E+01
 2.80000E+00    8.84288E+00
 3.00000E+00    5.96495E+00
 3.20000E+00    4.07718E+00
 3.40000E+00    2.76901E+00
 3.60000E+00    1.89530E+00
 3.80000E+00    1.30984E+00
 4.00000E+00    9.13881E-01
 4.20000E+00    6.43440E-01
 4.40000E+00    4.62398E-01
 4.60000E+00    3.32550E-01
 4.80000E+00    2.37945E-01
 5.00000E+00    1.71236E-01
 5.20000E+00    1.23742E-01
 5.40000E+00    8.97807E-02
 5.60000E+00    6.54006E-02
 5.80000E+00    4.75861E-02
 6.00000E+00    3.48510E-02
 6.20000E+00    2.56121E-02
 6.40000E+00    1.88866E-02
 6.60000E+00    1.40242E-02
 6.80000E+00    1.04586E-02
 7.00000E+00    7.83799E-03
 7.20000E+00    5.90330E-03
 7.40000E+00    4.46001E-03
 7.60000E+00    3.38748E-03
 7.80000E+00    2.58004E-03
 8.00000E+00    1.97103E-03
 8.50000E+00    1.01627E-03
 9.00000E+00    5.29966E-04
 9.50000E+00    2.79419E-04
 1.00000E+01    1.49031E-04
 1.05000E+01    8.04430E-05
 1.10000E+01    4.39544E-05
 1.15000E+01    2.43156E-05
 1.20000E+01    1.36163E-05
 1.25000E+01    7.71194E-06
 1.30000E+01    4.41454E-06
 1.35000E+01    2.55411E-06
 1.40000E+01    1.49204E-06
 1.45000E+01    8.78930E-07
 1.50000E+01    5.22900E-07
 1.60000E+01    1.89300E-07
 1.70000E+01    7.08010E-08
 1.80000E+01    2.70280E-08
 1.90000E+01    1.06610E-08
 2.00000E+01    4.31200E-09
 2.10000E+01    1.78090E-09
 2.20000E+01    7.50220E-10
 2.30000E+01    3.23090E-10
 2.40000E+01    1.41720E-10
 2.50000E+01    6.32810E-11
 2.60000E+01    2.86630E-11
 2.70000E+01    1.31260E-11
 2.80000E+01    6.10390E-12
 2.90000E+01    2.88450E-12
 3.00000E+01    1.37990E-12
