# n + Er168 : (n,n'15)  
# jeff3.3    A.J. Koning and D. Rochman        EVAL-DEC15
# uncertainties: n
# # energies =    79
#   E(MeV)       xs(mb) 
 1.31934E+00    0.00000E+00
 1.36706E+00    3.90729E-01
 1.40000E+00    6.60440E-01
 1.40522E+00    7.27665E-01
 1.41217E+00    8.17168E-01
 1.41957E+00    9.12465E-01
 1.43066E+00    1.05528E+00
 1.44006E+00    1.17634E+00
 1.44156E+00    1.19566E+00
 1.45766E+00    1.40299E+00
 1.50210E+00    1.97530E+00
 1.55082E+00    2.60272E+00
 1.56492E+00    2.78430E+00
 1.57888E+00    2.96408E+00
 1.58357E+00    3.02448E+00
 1.60000E+00    3.23607E+00
 1.61550E+00    3.43486E+00
 1.62504E+00    3.55722E+00
 1.80000E+00    5.80113E+00
 2.00000E+00    6.90652E+00
 2.20000E+00    6.71712E+00
 2.40000E+00    5.97472E+00
 2.60000E+00    5.09107E+00
 2.80000E+00    4.22630E+00
 3.00000E+00    3.44610E+00
 3.20000E+00    2.86805E+00
 3.40000E+00    2.28601E+00
 3.60000E+00    1.81095E+00
 3.80000E+00    1.42931E+00
 4.00000E+00    1.12423E+00
 4.20000E+00    8.87769E-01
 4.40000E+00    7.12710E-01
 4.60000E+00    5.52832E-01
 4.80000E+00    4.28846E-01
 5.00000E+00    3.31990E-01
 5.20000E+00    2.56722E-01
 5.40000E+00    1.98397E-01
 5.60000E+00    1.53277E-01
 5.80000E+00    1.17810E-01
 6.00000E+00    9.08012E-02
 6.20000E+00    6.99692E-02
 6.40000E+00    5.39231E-02
 6.60000E+00    4.17176E-02
 6.80000E+00    3.23170E-02
 7.00000E+00    2.50962E-02
 7.20000E+00    1.95378E-02
 7.40000E+00    1.52264E-02
 7.60000E+00    1.19079E-02
 7.80000E+00    9.32293E-03
 8.00000E+00    7.31131E-03
 8.50000E+00    4.00512E-03
 9.00000E+00    2.20729E-03
 9.50000E+00    1.22497E-03
 1.00000E+01    6.85400E-04
 1.05000E+01    3.86933E-04
 1.10000E+01    2.20460E-04
 1.15000E+01    1.26784E-04
 1.20000E+01    7.35759E-05
 1.25000E+01    4.30523E-05
 1.30000E+01    2.53871E-05
 1.35000E+01    1.50913E-05
 1.40000E+01    9.03683E-06
 1.45000E+01    5.44566E-06
 1.50000E+01    3.30803E-06
 1.60000E+01    1.24253E-06
 1.70000E+01    4.79600E-07
 1.80000E+01    1.88160E-07
 1.90000E+01    7.60410E-08
 2.00000E+01    3.14360E-08
 2.10000E+01    1.32440E-08
 2.20000E+01    5.67900E-09
 2.30000E+01    2.48430E-09
 2.40000E+01    1.10460E-09
 2.50000E+01    4.99060E-10
 2.60000E+01    2.28450E-10
 2.70000E+01    1.05660E-10
 2.80000E+01    4.96000E-11
 2.90000E+01    2.36560E-11
 3.00000E+01    1.14180E-11
