# n + Nb 91 : (n,n'06)  
# jeff3.3    A.J. Koning and D. Rochman        EVAL-DEC15
# uncertainties: n
# # energies =    86
#   E(MeV)       xs(mb) 
 1.63055E+00    0.00000E+00
 1.65517E+00    1.37072E+00
 1.80000E+00    9.43415E+00
 1.81050E+00    9.67803E+00
 1.86540E+00    1.09532E+01
 1.90592E+00    1.18943E+01
 1.98489E+00    1.37285E+01
 2.00000E+00    1.40795E+01
 2.00628E+00    1.41140E+01
 2.05699E+00    1.43923E+01
 2.08791E+00    1.45620E+01
 2.14440E+00    1.48721E+01
 2.19408E+00    1.51448E+01
 2.20000E+00    1.51773E+01
 2.30024E+00    1.55848E+01
 2.31618E+00    1.56496E+01
 2.35034E+00    1.57884E+01
 2.35588E+00    1.58109E+01
 2.37138E+00    1.58740E+01
 2.40000E+00    1.59903E+01
 2.41653E+00    1.59908E+01
 2.44027E+00    1.59916E+01
 2.55929E+00    1.59956E+01
 2.60000E+00    1.59969E+01
 2.60816E+00    1.60009E+01
 2.64159E+00    1.60173E+01
 2.66118E+00    1.60269E+01
 2.68977E+00    1.60410E+01
 2.80000E+00    1.60951E+01
 2.82354E+00    1.61218E+01
 2.91388E+00    1.62241E+01
 3.00000E+00    1.63217E+01
 3.20000E+00    1.55690E+01
 3.40000E+00    1.42172E+01
 3.60000E+00    1.27077E+01
 3.80000E+00    1.12049E+01
 4.00000E+00    9.77393E+00
 4.20000E+00    8.44756E+00
 4.40000E+00    7.24981E+00
 4.60000E+00    6.18526E+00
 4.80000E+00    5.25209E+00
 5.00000E+00    4.44517E+00
 5.20000E+00    3.75137E+00
 5.40000E+00    3.16047E+00
 5.60000E+00    2.65877E+00
 5.80000E+00    2.23432E+00
 6.00000E+00    1.87615E+00
 6.20000E+00    1.57336E+00
 6.40000E+00    1.31855E+00
 6.60000E+00    1.10393E+00
 6.80000E+00    9.22951E-01
 7.00000E+00    7.70876E-01
 7.20000E+00    6.39651E-01
 7.40000E+00    5.31539E-01
 7.60000E+00    4.40629E-01
 7.80000E+00    3.64758E-01
 8.00000E+00    3.01800E-01
 8.50000E+00    1.86678E-01
 9.00000E+00    1.14827E-01
 9.50000E+00    7.04593E-02
 1.00000E+01    4.32685E-02
 1.05000E+01    2.66622E-02
 1.10000E+01    1.65020E-02
 1.15000E+01    1.02683E-02
 1.20000E+01    6.42423E-03
 1.25000E+01    4.04133E-03
 1.30000E+01    2.55763E-03
 1.35000E+01    1.62787E-03
 1.40000E+01    1.04169E-03
 1.45000E+01    6.69669E-04
 1.50000E+01    4.33021E-04
 1.60000E+01    1.84259E-04
 1.70000E+01    7.97587E-05
 1.80000E+01    3.51586E-05
 1.90000E+01    1.57405E-05
 2.00000E+01    7.15741E-06
 2.10000E+01    3.28954E-06
 2.20000E+01    1.51301E-06
 2.30000E+01    7.10990E-07
 2.40000E+01    3.38490E-07
 2.50000E+01    1.62940E-07
 2.60000E+01    7.94330E-08
 2.70000E+01    3.92370E-08
 2.80000E+01    1.95710E-08
 2.90000E+01    9.86910E-09
 3.00000E+01    5.02750E-09
