# n + Nb 91 : (n,el)    
# jeff3.3    A.J. Koning and D. Rochman        EVAL-DEC15
# uncertainties: y
# # energies =    69
#   E(MeV)       xs(mb)       xslow(mb)      xsupp(mb)
 1.00000E-10    5.41991E+03    5.41991E+03    5.41991E+03
 5.00000E-09    4.19905E+03    4.19905E+03    4.19905E+03
 1.00000E-08    4.16304E+03    4.16304E+03    4.16304E+03
 1.50000E-08    4.14879E+03    4.14879E+03    4.14879E+03
 2.00000E-08    4.14107E+03    4.14107E+03    4.14107E+03
 2.50000E-08    4.13609E+03    4.13609E+03    4.13609E+03
 3.00000E-08    4.13254E+03    4.13254E+03    4.13254E+03
 3.50000E-08    4.12969E+03    4.12969E+03    4.12969E+03
 4.20000E-08    4.12676E+03    4.12676E+03    4.12676E+03
 5.00000E-08    4.12471E+03    4.12471E+03    4.12471E+03
 5.80000E-08    4.12289E+03    4.12289E+03    4.12289E+03
 6.70000E-08    4.12088E+03    4.12088E+03    4.12088E+03
 8.00000E-08    4.11901E+03    4.11901E+03    4.11901E+03
 1.00000E-07    4.11604E+03    4.11604E+03    4.11604E+03
 1.40000E-07    4.11330E+03    4.11330E+03    4.11330E+03
 1.80000E-07    4.11078E+03    4.11078E+03    4.11078E+03
 2.20000E-07    4.10860E+03    4.10860E+03    4.10860E+03
 2.50000E-07    4.10706E+03    4.10706E+03    4.10706E+03
 2.80000E-07    4.10583E+03    4.10583E+03    4.10583E+03
 3.00000E-07    4.10485E+03    4.10485E+03    4.10485E+03
 3.20000E-07    4.10364E+03    4.10364E+03    4.10364E+03
 3.50000E-07    4.10169E+03    4.10169E+03    4.10169E+03
 4.00000E-07    4.09809E+03    4.09809E+03    4.09809E+03
 5.00000E-07    4.09261E+03    4.09261E+03    4.09261E+03
 6.25000E-07    4.08578E+03    4.08578E+03    4.08578E+03
 7.80000E-07    4.08016E+03    4.08016E+03    4.08016E+03
 8.50000E-07    4.07698E+03    4.07698E+03    4.07698E+03
 9.10000E-07    4.07452E+03    4.07452E+03    4.07452E+03
 9.50000E-07    4.07300E+03    4.07300E+03    4.07300E+03
 9.72000E-07    4.07187E+03    4.07187E+03    4.07187E+03
 9.96000E-07    4.07070E+03    4.07070E+03    4.07070E+03
 1.02000E-06    4.06950E+03    4.06950E+03    4.06950E+03
 1.04500E-06    4.06825E+03    4.06825E+03    4.06825E+03
 1.07100E-06    4.06698E+03    4.06698E+03    4.06698E+03
 1.09700E-06    4.06562E+03    4.06562E+03    4.06562E+03
 1.12300E-06    4.06405E+03    4.06405E+03    4.06405E+03
 1.15000E-06    4.05886E+03    4.05886E+03    4.05886E+03
 1.30000E-06    4.04848E+03    4.04848E+03    4.04848E+03
 1.50000E-06    4.02550E+03    4.02550E+03    4.02550E+03
 2.10000E-06    3.99021E+03    3.99021E+03    3.99021E+03
 2.60000E-06    3.94264E+03    3.94264E+03    3.94264E+03
 3.30000E-06    3.87816E+03    3.87816E+03    3.87816E+03
 4.00000E-06    9.26143E+03    9.26143E+03    9.26143E+03
 9.87700E-06    5.59858E+03    5.59858E+03    5.59858E+03
 1.59680E-05    4.62966E+03    4.62966E+03    4.62966E+03
 2.77000E-05    4.32120E+03    4.32120E+03    4.32120E+03
 4.80520E-05    7.59496E+03    7.59496E+03    7.59496E+03
 7.55014E-05    1.09533E+04    1.09533E+04    1.09533E+04
 1.48728E-04    4.62065E+03    4.62065E+03    4.62065E+03
 3.67262E-04    5.27247E+03    5.27247E+03    5.27247E+03
 9.06898E-04    5.03703E+03    5.03703E+03    5.03703E+03
 1.42510E-03    6.26279E+03    6.26279E+03    6.26279E+03
 2.23945E-03    6.02466E+03    6.02466E+03    6.02466E+03
 3.51910E-03    5.70405E+03    5.70405E+03    5.70405E+03
 5.53000E-03    8.56468E+03    7.84337E+03    9.28599E+03
 9.11800E-03    8.35935E+03    7.65533E+03    9.06336E+03
 1.50300E-02    8.31795E+03    7.61742E+03    9.01847E+03
 2.47800E-02    8.42323E+03    7.71384E+03    9.13263E+03
 4.08500E-02    8.67271E+03    7.04952E+03    1.02959E+04
 6.73400E-02    9.00631E+03    7.32068E+03    1.06919E+04
 1.11000E-01    9.26569E+03    7.53152E+03    1.09999E+04
 1.83000E-01    9.37350E+03    7.61914E+03    1.11278E+04
 3.02000E-01    8.90106E+03    7.22610E+03    1.05760E+04
 5.00000E-01    7.79454E+03    6.32780E+03    9.26128E+03
 8.21000E-01    6.28712E+03    5.13378E+03    7.44047E+03
 1.35300E+00    4.44311E+03    3.74351E+03    5.14272E+03
 2.23100E+00    2.41718E+03    2.15400E+03    2.68036E+03
 3.67900E+00    1.82200E+03    1.64738E+03    1.99663E+03
 6.06500E+00    2.17129E+03    1.94830E+03    2.39429E+03
