# n + Nb 91 : (n,n'05)  
# jeff3.3    A.J. Koning and D. Rochman        EVAL-DEC15
# uncertainties: n
# # energies =    88
#   E(MeV)       xs(mb) 
 1.59856E+00    0.00000E+00
 1.60000E+00    1.16171E+00
 1.63055E+00    2.80032E+01
 1.65517E+00    4.96344E+01
 1.80000E+00    1.76883E+02
 1.81050E+00    1.78649E+02
 1.86540E+00    1.87880E+02
 1.90592E+00    1.94694E+02
 1.98489E+00    2.07973E+02
 2.00000E+00    2.10514E+02
 2.00628E+00    2.09928E+02
 2.05699E+00    2.05191E+02
 2.08791E+00    2.02303E+02
 2.14440E+00    1.97027E+02
 2.19408E+00    1.92387E+02
 2.20000E+00    1.91834E+02
 2.30024E+00    1.78228E+02
 2.31618E+00    1.76065E+02
 2.35034E+00    1.71428E+02
 2.35588E+00    1.70676E+02
 2.37138E+00    1.68573E+02
 2.40000E+00    1.64688E+02
 2.41653E+00    1.62379E+02
 2.44027E+00    1.59062E+02
 2.55929E+00    1.42435E+02
 2.60000E+00    1.36748E+02
 2.60816E+00    1.36132E+02
 2.64159E+00    1.33609E+02
 2.66118E+00    1.32130E+02
 2.68977E+00    1.29973E+02
 2.80000E+00    1.21653E+02
 2.82354E+00    1.20339E+02
 2.91388E+00    1.15297E+02
 3.00000E+00    1.10490E+02
 3.20000E+00    9.44168E+01
 3.40000E+00    7.85851E+01
 3.60000E+00    6.47105E+01
 3.80000E+00    5.29027E+01
 4.00000E+00    4.29614E+01
 4.20000E+00    3.46734E+01
 4.40000E+00    2.78639E+01
 4.60000E+00    2.23244E+01
 4.80000E+00    1.78598E+01
 5.00000E+00    1.42938E+01
 5.20000E+00    1.14528E+01
 5.40000E+00    9.20020E+00
 5.60000E+00    7.41276E+00
 5.80000E+00    5.99350E+00
 6.00000E+00    4.86348E+00
 6.20000E+00    3.95883E+00
 6.40000E+00    3.23405E+00
 6.60000E+00    2.64982E+00
 6.80000E+00    2.17650E+00
 7.00000E+00    1.79252E+00
 7.20000E+00    1.47171E+00
 7.40000E+00    1.21427E+00
 7.60000E+00    1.00276E+00
 7.80000E+00    8.29592E-01
 8.00000E+00    6.88336E-01
 8.50000E+00    4.35614E-01
 9.00000E+00    2.81789E-01
 9.50000E+00    1.88484E-01
 1.00000E+01    1.32016E-01
 1.05000E+01    9.78245E-02
 1.10000E+01    7.70114E-02
 1.15000E+01    6.42619E-02
 1.20000E+01    5.63832E-02
 1.25000E+01    5.14664E-02
 1.30000E+01    4.83670E-02
 1.35000E+01    4.63885E-02
 1.40000E+01    4.51106E-02
 1.45000E+01    4.42772E-02
 1.50000E+01    4.37341E-02
 1.60000E+01    4.31617E-02
 1.70000E+01    4.29543E-02
 1.80000E+01    4.29076E-02
 1.90000E+01    4.29032E-02
 2.00000E+01    4.28687E-02
 2.10000E+01    4.27642E-02
 2.20000E+01    4.25772E-02
 2.30000E+01    4.23154E-02
 2.40000E+01    4.19967E-02
 2.50000E+01    4.16393E-02
 2.60000E+01    4.12564E-02
 2.70000E+01    4.08536E-02
 2.80000E+01    4.04312E-02
 2.90000E+01    3.99864E-02
 3.00000E+01    3.95155E-02
