# n + Nb 91 : (n,xa)    
# jeff3.3    A.J. Koning and D. Rochman        EVAL-DEC15
# 
# # energies =   133
#   E(MeV)        xs(mb) 
 1.05761E-01    4.09243E-09
 2.00000E-01    7.17970E-09
 3.00000E-01    1.10470E-08
 4.00000E-01    2.51330E-08
 5.00000E-01    4.21180E-08
 6.00000E-01    9.36433E-08
 7.00000E-01    1.59150E-07
 8.00000E-01    5.26890E-07
 9.00000E-01    1.02670E-06
 1.00000E+00    1.76776E-06
 1.05154E+00    2.26586E-06
 1.20000E+00    3.70063E-06
 1.20005E+00    3.70329E-06
 1.32729E+00    1.04820E-05
 1.40000E+00    1.43556E-05
 1.59856E+00    3.53924E-05
 1.60000E+00    3.55450E-05
 1.63055E+00    4.15931E-05
 1.65517E+00    4.64672E-05
 1.80000E+00    7.51398E-05
 1.81050E+00    7.88616E-05
 1.86540E+00    9.83210E-05
 1.90592E+00    1.12683E-04
 1.98489E+00    1.40675E-04
 2.00000E+00    1.46030E-04
 2.00628E+00    1.48256E-04
 2.05699E+00    1.65894E-04
 2.08791E+00    1.76611E-04
 2.14440E+00    1.96191E-04
 2.19408E+00    2.13410E-04
 2.20000E+00    2.15462E-04
 2.30024E+00    3.01740E-04
 2.31618E+00    3.15460E-04
 2.35034E+00    3.44862E-04
 2.35588E+00    3.49630E-04
 2.37138E+00    3.62971E-04
 2.40000E+00    3.87605E-04
 2.41653E+00    4.07958E-04
 2.44027E+00    4.37189E-04
 2.55929E+00    5.83736E-04
 2.60000E+00    6.33862E-04
 2.60816E+00    6.51487E-04
 2.64159E+00    7.23692E-04
 2.66118E+00    7.66004E-04
 2.68977E+00    8.27755E-04
 2.80000E+00    1.06584E-03
 2.82354E+00    1.16204E-03
 2.91388E+00    1.53123E-03
 3.00000E+00    1.88317E-03
 3.20000E+00    2.96747E-03
 3.40000E+00    4.47648E-03
 3.60000E+00    6.77501E-03
 3.80000E+00    9.67092E-03
 4.00000E+00    1.36962E-02
 4.20000E+00    1.94727E-02
 4.40000E+00    2.66150E-02
 4.60000E+00    3.70471E-02
 4.80000E+00    4.96898E-02
 5.00000E+00    6.54010E-02
 5.20000E+00    8.76172E-02
 5.40000E+00    1.11712E-01
 5.60000E+00    1.45478E-01
 5.80000E+00    1.84552E-01
 6.00000E+00    2.28716E-01
 6.20000E+00    2.90142E-01
 6.40000E+00    3.47933E-01
 6.60000E+00    4.30093E-01
 6.80000E+00    5.17791E-01
 7.00000E+00    6.13939E-01
 7.20000E+00    7.39618E-01
 7.40000E+00    8.39298E-01
 7.60000E+00    9.96254E-01
 7.80000E+00    1.15321E+00
 8.00000E+00    1.31905E+00
 8.50000E+00    1.82733E+00
 9.00000E+00    2.46775E+00
 9.50000E+00    3.26866E+00
 1.00000E+01    4.25147E+00
 1.05000E+01    5.44419E+00
 1.10000E+01    6.85582E+00
 1.15000E+01    8.47708E+00
 1.20000E+01    1.01901E+01
 1.25000E+01    1.22012E+01
 1.30000E+01    1.43833E+01
 1.35000E+01    1.67247E+01
 1.40000E+01    1.92155E+01
 1.45000E+01    2.18453E+01
 1.50000E+01    2.46504E+01
 1.60000E+01    3.09331E+01
 1.70000E+01    3.80254E+01
 1.80000E+01    4.44714E+01
 1.90000E+01    5.05120E+01
 2.00000E+01    5.35838E+01
 2.10000E+01    5.71873E+01
 2.20000E+01    6.03988E+01
 2.30000E+01    6.35129E+01
 2.40000E+01    6.63624E+01
 2.50000E+01    6.88975E+01
 2.60000E+01    7.11953E+01
 2.70000E+01    7.33223E+01
 2.80000E+01    7.53838E+01
 2.90000E+01    7.70096E+01
 3.00000E+01    7.84718E+01
 3.00000E+01    7.84941E+01
 3.20000E+01    8.09956E+01
 3.40000E+01    8.29689E+01
 3.60000E+01    8.46235E+01
 3.80000E+01    8.59471E+01
 4.00000E+01    8.72877E+01
 4.20000E+01    8.84570E+01
 4.40000E+01    8.91981E+01
 4.60000E+01    8.99372E+01
 4.80000E+01    9.04629E+01
 5.00000E+01    9.06728E+01
 5.20000E+01    9.08416E+01
 5.40000E+01    9.08091E+01
 5.60000E+01    9.03394E+01
 5.80000E+01    8.98467E+01
 6.00000E+01    8.93512E+01
 6.50000E+01    8.75792E+01
 7.00000E+01    8.58122E+01
 7.50000E+01    8.35176E+01
 8.00000E+01    8.63263E+01
 9.00000E+01    9.48219E+01
 1.00000E+02    1.05314E+02
 1.10000E+02    1.13323E+02
 1.20000E+02    1.23211E+02
 1.30000E+02    1.33593E+02
 1.40000E+02    1.42331E+02
 1.50000E+02    1.51370E+02
 1.60000E+02    1.62325E+02
 1.80000E+02    2.01656E+02
 2.00000E+02    2.82298E+02
