# n + Sn122 : (n,a)g    
# jendl.ad   N.Iwamoto                         EVAL-Apr14
# uncertainties: n
# # energies =    61
#   E(MeV)       xs(mb) 
 3.95300E-01    0.00000E+00
 5.43053E-01    4.41040E-27
 2.42896E+00    6.07040E-26
 2.43553E+00    7.34330E-26
 2.50000E+00    5.64900E-25
 2.51330E+00    8.10820E-25
 2.55127E+00    2.20000E-24
 2.57656E+00    4.19220E-24
 2.67331E+00    4.55620E-23
 2.67495E+00    4.73910E-23
 2.67898E+00    5.21820E-23
 2.69771E+00    8.07650E-23
 2.71230E+00    1.12920E-22
 2.75000E+00    2.66470E-22
 2.75713E+00    3.12790E-22
 2.77377E+00    4.49270E-22
 2.78848E+00    6.19280E-22
 2.79852E+00    7.69700E-22
 2.86136E+00    2.86920E-21
 2.87910E+00    4.13350E-21
 2.89146E+00    5.31540E-21
 2.90362E+00    6.78070E-21
 2.96933E+00    2.41890E-20
 2.98360E+00    3.16540E-20
 2.99568E+00    3.96920E-20
 2.99799E+00    4.13480E-20
 3.00000E+00    4.20530E-20
 3.50000E+00    1.21220E-16
 4.00000E+00    4.38610E-14
 4.50000E+00    4.00940E-12
 5.00000E+00    1.36380E-10
 5.50000E+00    2.24970E-09
 6.00000E+00    2.16890E-08
 6.50000E+00    1.40320E-07
 7.00000E+00    6.76650E-07
 7.50000E+00    2.63961E-06
 8.00000E+00    8.90142E-06
 8.50000E+00    2.71889E-05
 9.00000E+00    7.72355E-05
 9.50000E+00    2.06065E-04
 1.00000E+01    5.20207E-04
 1.05000E+01    1.24219E-03
 1.10000E+01    2.80021E-03
 1.15000E+01    5.96356E-03
 1.20000E+01    1.19524E-02
 1.25000E+01    2.24744E-02
 1.30000E+01    3.94412E-02
 1.35000E+01    6.43760E-02
 1.40000E+01    9.79696E-02
 1.45000E+01    1.40064E-01
 1.50000E+01    1.91045E-01
 1.55000E+01    2.51826E-01
 1.60000E+01    3.24621E-01
 1.65000E+01    4.11114E-01
 1.70000E+01    5.15519E-01
 1.75000E+01    6.33167E-01
 1.80000E+01    7.63516E-01
 1.85000E+01    9.01437E-01
 1.90000E+01    1.04083E+00
 1.95000E+01    1.17502E+00
 2.00000E+01    1.29802E+00
