# n + Sn122 : (n,g)     
# jendl.ad   N.Iwamoto                         EVAL-Apr14
# uncertainties: n
# # energies =    69
#   E(MeV)       xs(mb) 
 1.00000E-10    9.78436E+02
 5.00000E-09    2.66144E+02
 1.00000E-08    2.01416E+02
 1.50000E-08    1.69091E+02
 2.00000E-08    1.48639E+02
 2.50000E-08    1.34176E+02
 3.00000E-08    1.23226E+02
 3.50000E-08    1.13167E+02
 4.20000E-08    1.03372E+02
 5.00000E-08    9.52321E+01
 5.80000E-08    8.83818E+01
 6.70000E-08    8.14002E+01
 8.00000E-08    7.34513E+01
 1.00000E-07    6.35971E+01
 1.40000E-07    5.44859E+01
 1.80000E-07    4.83182E+01
 2.20000E-07    4.42392E+01
 2.50000E-07    4.14331E+01
 2.80000E-07    3.94122E+01
 3.00000E-07    3.79880E+01
 3.20000E-07    3.63996E+01
 3.50000E-07    3.41994E+01
 4.00000E-07    3.09204E+01
 5.00000E-07    2.71524E+01
 6.25000E-07    2.37508E+01
 7.80000E-07    2.15791E+01
 8.50000E-07    2.05589E+01
 9.10000E-07    1.98350E+01
 9.50000E-07    1.94174E+01
 9.72000E-07    1.91211E+01
 9.96000E-07    1.88186E+01
 1.02000E-06    1.85249E+01
 1.04500E-06    1.82292E+01
 1.07100E-06    1.79360E+01
 1.09700E-06    1.76543E+01
 1.12300E-06    1.73772E+01
 1.15000E-06    1.65376E+01
 1.30000E-06    1.50801E+01
 1.50000E-06    1.26836E+01
 2.10000E-06    1.02280E+01
 2.60000E-06    8.46747E+00
 3.30000E-06    6.98489E+00
 4.00000E-06    4.18398E+00
 9.87700E-06    1.92102E+00
 1.59680E-05    1.11939E+00
 2.77000E-05    7.26595E-01
 4.80520E-05    7.39456E-01
 7.55014E-05    4.12739E+02
 1.48728E-04    1.18152E+02
 3.67262E-04    2.62641E-01
 9.06898E-04    6.48949E-01
 1.42510E-03    5.13254E+02
 2.23945E-03    1.43606E+02
 3.51910E-03    1.24433E+02
 5.53000E-03    9.62522E+01
 9.11800E-03    4.04086E+01
 1.50300E-02    5.51877E+01
 2.47800E-02    2.32681E+01
 4.08500E-02    2.14701E+01
 6.73400E-02    1.39979E+01
 1.11000E-01    1.32008E+01
 1.83000E-01    1.25341E+01
 3.02000E-01    1.25858E+01
 5.00000E-01    1.42100E+01
 8.21000E-01    1.79165E+01
 1.35300E+00    1.56235E+01
 2.23100E+00    9.25354E+00
 3.67900E+00    3.43367E+00
 6.06500E+00    9.14244E-01
