# n + Sn122 : (n,p)m    
# jendl.ad   N.Iwamoto                         EVAL-Apr14
# uncertainties: n
# # energies =    29
#   E(MeV)       xs(mb) 
 5.67280E+00    0.00000E+00
 5.92487E+00    0.00000E+00
 7.00000E+00    0.00000E+00
 7.50000E+00    1.66650E-11
 8.00000E+00    5.59400E-07
 8.50000E+00    6.54775E-06
 9.00000E+00    4.35042E-05
 9.50000E+00    2.13695E-04
 1.00000E+01    8.56951E-04
 1.05000E+01    2.92596E-03
 1.10000E+01    8.64591E-03
 1.15000E+01    2.23825E-02
 1.20000E+01    5.11246E-02
 1.25000E+01    1.03021E-01
 1.30000E+01    1.90296E-01
 1.35000E+01    3.22400E-01
 1.40000E+01    5.08941E-01
 1.45000E+01    7.57097E-01
 1.50000E+01    1.07410E+00
 1.55000E+01    1.46074E+00
 1.60000E+01    1.91915E+00
 1.65000E+01    2.43556E+00
 1.70000E+01    3.00098E+00
 1.75000E+01    3.58945E+00
 1.80000E+01    4.18479E+00
 1.85000E+01    4.76364E+00
 1.90000E+01    5.32207E+00
 1.95000E+01    5.84526E+00
 2.00000E+01    6.33228E+00
