# n + Sn122 : (n,na)    
# jendl.ad   N.Iwamoto                         EVAL-Apr14
# uncertainties: n
# # energies =    26
#   E(MeV)       xs(mb) 
 5.70916E+00    0.00000E+00
 8.00000E+00    7.68560E-23
 8.50000E+00    3.06360E-18
 9.00000E+00    3.80500E-15
 9.50000E+00    5.67220E-14
 1.00000E+01    3.93700E-12
 1.05000E+01    1.25370E-10
 1.10000E+01    2.28490E-09
 1.15000E+01    2.62180E-08
 1.20000E+01    2.08780E-07
 1.25000E+01    1.25294E-06
 1.30000E+01    5.99551E-06
 1.35000E+01    2.40756E-05
 1.40000E+01    8.39246E-05
 1.45000E+01    2.61217E-04
 1.50000E+01    7.39088E-04
 1.55000E+01    1.93268E-03
 1.60000E+01    4.71443E-03
 1.65000E+01    1.07947E-02
 1.70000E+01    2.29197E-02
 1.75000E+01    4.73319E-02
 1.80000E+01    9.25317E-02
 1.85000E+01    1.71200E-01
 1.90000E+01    2.99680E-01
 1.95000E+01    4.94752E-01
 2.00000E+01    7.71266E-01
