# n + Rh101 : (n,n')m   
# jendl.ad   N.Iwamoto                         EVAL-Apr14
# uncertainties: n
# # energies =   101
#   E(MeV)       xs(mb) 
 1.58893E-01    0.00000E+00
 1.60000E-01    1.49206E-01
 1.70000E-01    1.11380E+00
 1.80000E-01    2.20978E+00
 1.83597E-01    2.60672E+00
 1.90000E-01    5.30626E+00
 2.00000E-01    9.57635E+00
 2.25000E-01    1.92950E+01
 2.50000E-01    2.83849E+01
 2.75000E-01    3.75605E+01
 3.00000E-01    4.71087E+01
 3.08473E-01    5.04501E+01
 3.58791E-01    6.58737E+01
 4.00000E-01    7.37573E+01
 4.82839E-01    9.48638E+01
 5.00000E-01    1.23890E+02
 6.00000E-01    2.06736E+02
 7.00000E-01    2.59350E+02
 7.55245E-01    2.84009E+02
 7.55275E-01    2.84022E+02
 8.00000E-01    3.07499E+02
 8.59860E-01    3.36065E+02
 9.00000E-01    3.50358E+02
 9.02330E-01    3.51146E+02
 9.08340E-01    3.53167E+02
 9.14743E-01    3.55148E+02
 9.86766E-01    3.80783E+02
 9.87938E-01    3.80803E+02
 1.00000E+00    3.85408E+02
 1.00636E+00    3.87614E+02
 1.04598E+00    3.96227E+02
 1.06858E+00    4.08988E+02
 1.10000E+00    4.19539E+02
 1.20000E+00    4.51294E+02
 1.30000E+00    4.82124E+02
 1.33346E+00    4.92332E+02
 1.37296E+00    5.00136E+02
 1.39723E+00    5.06034E+02
 1.40000E+00    5.06413E+02
 1.47863E+00    5.15840E+02
 1.48551E+00    5.16524E+02
 1.50000E+00    5.21329E+02
 1.54630E+00    5.32306E+02
 1.55640E+00    5.34282E+02
 1.59266E+00    5.40602E+02
 1.60000E+00    5.41821E+02
 1.62003E+00    5.45134E+02
 1.62054E+00    5.45637E+02
 1.62347E+00    5.46823E+02
 1.62508E+00    5.48036E+02
 1.65639E+00    5.60151E+02
 1.70000E+00    5.73332E+02
 1.71329E+00    5.77097E+02
 1.74729E+00    5.89711E+02
 1.79567E+00    6.03582E+02
 1.79658E+00    6.03776E+02
 1.80000E+00    6.04614E+02
 1.80738E+00    6.06441E+02
 1.83879E+00    6.16417E+02
 1.86142E+00    6.24701E+02
 1.86378E+00    6.25462E+02
 1.90000E+00    6.37738E+02
 2.00000E+00    6.72339E+02
 2.25000E+00    7.71202E+02
 2.50000E+00    8.83622E+02
 2.75000E+00    9.45873E+02
 3.00000E+00    9.94907E+02
 3.50000E+00    1.03561E+03
 4.00000E+00    1.05327E+03
 4.50000E+00    1.06905E+03
 5.00000E+00    1.08849E+03
 5.50000E+00    1.10953E+03
 6.00000E+00    1.12262E+03
 6.50000E+00    1.13776E+03
 7.00000E+00    1.14828E+03
 7.50000E+00    1.15467E+03
 8.00000E+00    1.15788E+03
 8.50000E+00    1.15903E+03
 9.00000E+00    1.15884E+03
 9.50000E+00    1.15747E+03
 1.00000E+01    1.15460E+03
 1.05000E+01    1.09605E+03
 1.10000E+01    9.23623E+02
 1.15000E+01    7.43733E+02
 1.20000E+01    6.03234E+02
 1.25000E+01    4.85115E+02
 1.30000E+01    3.96437E+02
 1.35000E+01    3.31638E+02
 1.40000E+01    2.84633E+02
 1.45000E+01    2.50227E+02
 1.50000E+01    2.24529E+02
 1.55000E+01    2.05077E+02
 1.60000E+01    1.88289E+02
 1.65000E+01    1.75192E+02
 1.70000E+01    1.66889E+02
 1.75000E+01    1.57230E+02
 1.80000E+01    1.50970E+02
 1.85000E+01    1.43095E+02
 1.90000E+01    1.37268E+02
 1.95000E+01    1.32795E+02
 2.00000E+01    1.27733E+02
