# n + Rh101 : (n,d)     
# jendl.ad   N.Iwamoto                         EVAL-Apr14
# uncertainties: n
# # energies =    73
#   E(MeV)       xs(mb) 
 3.28596E+00    0.00000E+00
 3.83086E+00    4.10190E-12
 4.42756E+00    1.15560E-11
 4.50000E+00    1.24660E-11
 4.52469E+00    8.96930E-10
 4.66174E+00    5.85220E-09
 5.00000E+00    1.80970E-08
 5.04436E+00    1.49790E-07
 5.16971E+00    5.21920E-07
 5.18581E+00    5.69720E-07
 5.35812E+00    1.08127E-06
 5.36910E+00    1.11387E-06
 5.38181E+00    1.15160E-06
 5.38282E+00    1.15460E-06
 5.40605E+00    1.22357E-06
 5.43826E+00    1.31919E-06
 5.47449E+00    1.42675E-06
 5.50000E+00    1.50249E-06
 5.50189E+00    1.59675E-06
 5.54916E+00    3.95420E-06
 5.57663E+00    5.32419E-06
 5.62259E+00    7.61632E-06
 5.63380E+00    8.17539E-06
 5.66087E+00    9.52543E-06
 5.67612E+00    1.02860E-05
 5.69699E+00    1.13268E-05
 5.72187E+00    1.25676E-05
 5.74833E+00    1.38873E-05
 5.78003E+00    1.54682E-05
 5.80377E+00    1.66522E-05
 5.82353E+00    1.76377E-05
 5.82794E+00    1.78576E-05
 5.83943E+00    1.84306E-05
 5.84748E+00    1.88321E-05
 5.85509E+00    1.92116E-05
 5.88156E+00    2.05318E-05
 5.90372E+00    2.16369E-05
 5.92921E+00    2.29082E-05
 5.94629E+00    2.37600E-05
 5.97268E+00    2.50761E-05
 5.97322E+00    2.51031E-05
 5.97907E+00    2.53948E-05
 6.00000E+00    2.64386E-05
 6.00790E+00    2.90507E-05
 6.05900E+00    4.59467E-05
 6.50000E+00    1.91762E-04
 7.00000E+00    7.90917E-04
 7.50000E+00    2.22823E-03
 8.00000E+00    5.03469E-03
 8.50000E+00    1.10114E-02
 9.00000E+00    2.64219E-02
 9.50000E+00    6.61927E-02
 1.00000E+01    1.55490E-01
 1.05000E+01    3.25496E-01
 1.10000E+01    6.05049E-01
 1.15000E+01    1.01325E+00
 1.20000E+01    1.45824E+00
 1.25000E+01    2.11206E+00
 1.30000E+01    2.88275E+00
 1.35000E+01    3.75313E+00
 1.40000E+01    4.70544E+00
 1.45000E+01    5.72356E+00
 1.50000E+01    6.79343E+00
 1.55000E+01    7.87384E+00
 1.60000E+01    8.97620E+00
 1.65000E+01    1.01534E+01
 1.70000E+01    1.12424E+01
 1.75000E+01    1.23714E+01
 1.80000E+01    1.35272E+01
 1.85000E+01    1.46795E+01
 1.90000E+01    1.58187E+01
 1.95000E+01    1.66696E+01
 2.00000E+01    1.75177E+01
