# n + Sm144 : (n,na)    
# jendl.ad   N.Iwamoto                         EVAL-Apr14
# uncertainties: n
# # energies =    55
#   E(MeV)       xs(mb) 
 1.46121E-01    0.00000E+00
 2.18219E+00    1.11650E-33
 2.20625E+00    1.48100E-33
 2.25000E+00    1.75890E-33
 2.33989E+00    1.30760E-31
 2.44019E+00    3.97130E-30
 2.49502E+00    6.52240E-29
 2.50000E+00    6.83880E-29
 2.60592E+00    1.32480E-27
 2.66324E+00    1.72560E-27
 2.67934E+00    1.33350E-26
 2.70723E+00    1.94390E-26
 2.72601E+00    2.16220E-26
 2.74813E+00    2.33880E-26
 2.75000E+00    2.34060E-26
 2.81927E+00    2.53050E-25
 2.82365E+00    2.57700E-25
 2.84230E+00    2.75080E-25
 2.84552E+00    2.76980E-25
 2.84681E+00    2.77930E-25
 3.00000E+00    2.73560E-21
 3.50000E+00    3.11530E-17
 4.00000E+00    2.08890E-14
 4.50000E+00    3.72520E-12
 5.00000E+00    2.52110E-10
 5.50000E+00    8.12510E-09
 6.00000E+00    1.46770E-07
 6.50000E+00    1.67657E-06
 7.00000E+00    1.32499E-05
 7.50000E+00    7.77998E-05
 8.00000E+00    3.57940E-04
 8.50000E+00    1.34383E-03
 9.00000E+00    4.23609E-03
 9.50000E+00    1.15917E-02
 1.00000E+01    2.82445E-02
 1.05000E+01    6.27951E-02
 1.10000E+01    1.14000E-01
 1.15000E+01    1.70396E-01
 1.20000E+01    2.47062E-01
 1.25000E+01    3.64634E-01
 1.30000E+01    5.41174E-01
 1.35000E+01    7.87560E-01
 1.40000E+01    1.12517E+00
 1.45000E+01    1.59627E+00
 1.50000E+01    2.25921E+00
 1.55000E+01    3.19159E+00
 1.60000E+01    4.46292E+00
 1.65000E+01    6.09326E+00
 1.70000E+01    8.22623E+00
 1.75000E+01    1.07854E+01
 1.80000E+01    1.39282E+01
 1.85000E+01    1.76755E+01
 1.90000E+01    2.18111E+01
 1.95000E+01    2.61834E+01
 2.00000E+01    3.13072E+01
