# n + Tl205 : (n,n'11)  
# jeff3.3    A.J. Koning and D. Rochman        EVAL-DEC15
# uncertainties: n
# # energies =    82
#   E(MeV)       xs(mb) 
 1.49123E+00    0.00000E+00
 1.56064E+00    4.12227E+00
 1.56226E+00    4.21849E+00
 1.58178E+00    5.37778E+00
 1.60000E+00    6.45987E+00
 1.65209E+00    9.35241E+00
 1.67621E+00    1.06918E+01
 1.70234E+00    1.21428E+01
 1.71946E+00    1.30934E+01
 1.77369E+00    1.61048E+01
 1.80000E+00    1.75658E+01
 1.83800E+00    1.96439E+01
 1.85709E+00    2.06879E+01
 1.87528E+00    2.16826E+01
 1.92543E+00    2.44251E+01
 1.95558E+00    2.60739E+01
 1.97607E+00    2.71945E+01
 2.00000E+00    2.85031E+01
 2.01228E+00    2.89491E+01
 2.04602E+00    3.01745E+01
 2.06459E+00    3.08489E+01
 2.09930E+00    3.21095E+01
 2.10855E+00    3.24455E+01
 2.20000E+00    3.57668E+01
 2.40000E+00    3.73744E+01
 2.60000E+00    3.55683E+01
 2.80000E+00    3.23677E+01
 3.00000E+00    2.87617E+01
 3.20000E+00    2.51826E+01
 3.40000E+00    2.18175E+01
 3.60000E+00    1.87157E+01
 3.80000E+00    1.59071E+01
 4.00000E+00    1.34103E+01
 4.20000E+00    1.12162E+01
 4.40000E+00    9.33112E+00
 4.60000E+00    7.72716E+00
 4.80000E+00    6.37227E+00
 5.00000E+00    5.23558E+00
 5.20000E+00    4.28851E+00
 5.40000E+00    3.49784E+00
 5.60000E+00    2.84972E+00
 5.80000E+00    2.32060E+00
 6.00000E+00    1.88996E+00
 6.20000E+00    1.53931E+00
 6.40000E+00    1.25151E+00
 6.60000E+00    1.01948E+00
 6.80000E+00    8.27942E-01
 7.00000E+00    6.72428E-01
 7.20000E+00    5.45998E-01
 7.40000E+00    4.42209E-01
 7.60000E+00    3.58929E-01
 7.80000E+00    2.90701E-01
 8.00000E+00    2.35270E-01
 8.50000E+00    1.37868E-01
 9.00000E+00    8.00167E-02
 9.50000E+00    4.60090E-02
 1.00000E+01    2.62416E-02
 1.05000E+01    1.48799E-02
 1.10000E+01    8.41119E-03
 1.15000E+01    4.75176E-03
 1.20000E+01    2.68949E-03
 1.25000E+01    1.52778E-03
 1.30000E+01    8.71967E-04
 1.35000E+01    5.00274E-04
 1.40000E+01    2.88507E-04
 1.45000E+01    1.67196E-04
 1.50000E+01    9.73049E-05
 1.60000E+01    3.33010E-05
 1.70000E+01    1.14743E-05
 1.80000E+01    4.01448E-06
 1.90000E+01    1.42310E-06
 2.00000E+01    5.12330E-07
 2.10000E+01    1.87660E-07
 2.20000E+01    6.98650E-08
 2.30000E+01    2.64480E-08
 2.40000E+01    1.01360E-08
 2.50000E+01    3.93160E-09
 2.60000E+01    1.54280E-09
 2.70000E+01    6.12460E-10
 2.80000E+01    2.46370E-10
 2.90000E+01    1.00230E-10
 3.00000E+01    4.12900E-11
