# n + Tl205 : (n,n'10)  
# jeff3.3    A.J. Koning and D. Rochman        EVAL-DEC15
# uncertainties: n
# # energies =    83
#   E(MeV)       xs(mb) 
 1.44550E+00    0.00000E+00
 1.49123E+00    1.45284E+01
 1.56064E+00    3.65798E+01
 1.56226E+00    3.70945E+01
 1.58178E+00    4.32960E+01
 1.60000E+00    4.90845E+01
 1.65209E+00    5.68054E+01
 1.67621E+00    6.03805E+01
 1.70234E+00    6.42535E+01
 1.71946E+00    6.67911E+01
 1.77369E+00    7.48292E+01
 1.80000E+00    7.87289E+01
 1.83800E+00    8.08774E+01
 1.85709E+00    8.19567E+01
 1.87528E+00    8.29852E+01
 1.92543E+00    8.58206E+01
 1.95558E+00    8.75252E+01
 1.97607E+00    8.86837E+01
 2.00000E+00    9.00367E+01
 2.01228E+00    9.00510E+01
 2.04602E+00    9.00904E+01
 2.06459E+00    9.01121E+01
 2.09930E+00    9.01526E+01
 2.10855E+00    9.01634E+01
 2.20000E+00    9.02701E+01
 2.40000E+00    8.40360E+01
 2.60000E+00    7.56461E+01
 2.80000E+00    6.72120E+01
 3.00000E+00    5.92989E+01
 3.20000E+00    5.19396E+01
 3.40000E+00    4.50715E+01
 3.60000E+00    3.86172E+01
 3.80000E+00    3.26378E+01
 4.00000E+00    2.72271E+01
 4.20000E+00    2.24308E+01
 4.40000E+00    1.83080E+01
 4.60000E+00    1.48256E+01
 4.80000E+00    1.19248E+01
 5.00000E+00    9.53622E+00
 5.20000E+00    7.58953E+00
 5.40000E+00    6.00515E+00
 5.60000E+00    4.73889E+00
 5.80000E+00    3.73246E+00
 6.00000E+00    2.93559E+00
 6.20000E+00    2.30592E+00
 6.40000E+00    1.80647E+00
 6.60000E+00    1.41636E+00
 6.80000E+00    1.10675E+00
 7.00000E+00    8.64942E-01
 7.20000E+00    6.76005E-01
 7.40000E+00    5.27404E-01
 7.60000E+00    4.13008E-01
 7.80000E+00    3.23140E-01
 8.00000E+00    2.53143E-01
 8.50000E+00    1.38067E-01
 9.00000E+00    7.56927E-02
 9.50000E+00    4.16852E-02
 1.00000E+01    2.30275E-02
 1.05000E+01    1.27469E-02
 1.10000E+01    7.06913E-03
 1.15000E+01    3.92890E-03
 1.20000E+01    2.19065E-03
 1.25000E+01    1.22652E-03
 1.30000E+01    6.90078E-04
 1.35000E+01    3.90329E-04
 1.40000E+01    2.21967E-04
 1.45000E+01    1.26890E-04
 1.50000E+01    7.28873E-05
 1.60000E+01    2.43568E-05
 1.70000E+01    8.22554E-06
 1.80000E+01    2.83077E-06
 1.90000E+01    9.89700E-07
 2.00000E+01    3.51960E-07
 2.10000E+01    1.27430E-07
 2.20000E+01    4.69160E-08
 2.30000E+01    1.75750E-08
 2.40000E+01    6.67290E-09
 2.50000E+01    2.56820E-09
 2.60000E+01    1.00130E-09
 2.70000E+01    3.95270E-10
 2.80000E+01    1.58140E-10
 2.90000E+01    6.39870E-11
 3.00000E+01    2.62180E-11
