# n + Tl205 : (n,n'12)  
# jeff3.3    A.J. Koning and D. Rochman        EVAL-DEC15
# uncertainties: n
# # energies =    81
#   E(MeV)       xs(mb) 
 1.56064E+00    0.00000E+00
 1.56226E+00    2.23263E-01
 1.58178E+00    2.91334E+00
 1.60000E+00    5.42428E+00
 1.65209E+00    1.16797E+01
 1.67621E+00    1.45762E+01
 1.70234E+00    1.77141E+01
 1.71946E+00    1.97700E+01
 1.77369E+00    2.62824E+01
 1.80000E+00    2.94419E+01
 1.83800E+00    3.26960E+01
 1.85709E+00    3.43308E+01
 1.87528E+00    3.58885E+01
 1.92543E+00    4.01830E+01
 1.95558E+00    4.27649E+01
 1.97607E+00    4.45196E+01
 2.00000E+00    4.65688E+01
 2.01228E+00    4.71119E+01
 2.04602E+00    4.86039E+01
 2.06459E+00    4.94251E+01
 2.09930E+00    5.09600E+01
 2.10855E+00    5.13691E+01
 2.20000E+00    5.54132E+01
 2.40000E+00    5.65117E+01
 2.60000E+00    5.37655E+01
 2.80000E+00    4.97690E+01
 3.00000E+00    4.55201E+01
 3.20000E+00    4.12607E+01
 3.40000E+00    3.70023E+01
 3.60000E+00    3.27018E+01
 3.80000E+00    2.84235E+01
 4.00000E+00    2.43087E+01
 4.20000E+00    2.04708E+01
 4.40000E+00    1.70343E+01
 4.60000E+00    1.40304E+01
 4.80000E+00    1.14529E+01
 5.00000E+00    9.27614E+00
 5.20000E+00    7.46403E+00
 5.40000E+00    5.96327E+00
 5.60000E+00    4.74801E+00
 5.80000E+00    3.77139E+00
 6.00000E+00    2.99126E+00
 6.20000E+00    2.37025E+00
 6.40000E+00    1.87209E+00
 6.60000E+00    1.48097E+00
 6.80000E+00    1.16686E+00
 7.00000E+00    9.19359E-01
 7.20000E+00    7.24196E-01
 7.40000E+00    5.69495E-01
 7.60000E+00    4.49133E-01
 7.80000E+00    3.54043E-01
 8.00000E+00    2.79395E-01
 8.50000E+00    1.55019E-01
 9.00000E+00    8.63735E-02
 9.50000E+00    4.82905E-02
 1.00000E+01    2.70510E-02
 1.05000E+01    1.51680E-02
 1.10000E+01    8.51246E-03
 1.15000E+01    4.78378E-03
 1.20000E+01    2.69531E-03
 1.25000E+01    1.52417E-03
 1.30000E+01    8.65756E-04
 1.35000E+01    4.94184E-04
 1.40000E+01    2.83472E-04
 1.45000E+01    1.63378E-04
 1.50000E+01    9.45635E-05
 1.60000E+01    3.20314E-05
 1.70000E+01    1.09414E-05
 1.80000E+01    3.80186E-06
 1.90000E+01    1.34035E-06
 2.00000E+01    4.80250E-07
 2.10000E+01    1.75110E-07
 2.20000E+01    6.48930E-08
 2.30000E+01    2.44560E-08
 2.40000E+01    9.33600E-09
 2.50000E+01    3.60990E-09
 2.60000E+01    1.41320E-09
 2.70000E+01    5.59930E-10
 2.80000E+01    2.24830E-10
 2.90000E+01    9.12900E-11
 3.00000E+01    3.75330E-11
