# n + Tl205 : (n,n'16)  
# jeff3.3    A.J. Koning and D. Rochman        EVAL-DEC15
# uncertainties: n
# # energies =    76
#   E(MeV)       xs(mb) 
 1.67621E+00    0.00000E+00
 1.70234E+00    7.13942E+00
 1.71946E+00    1.18171E+01
 1.77369E+00    2.66342E+01
 1.80000E+00    3.38228E+01
 1.83800E+00    3.79693E+01
 1.85709E+00    4.00524E+01
 1.87528E+00    4.20372E+01
 1.92543E+00    4.75095E+01
 1.95558E+00    5.07995E+01
 1.97607E+00    5.30353E+01
 2.00000E+00    5.56465E+01
 2.01228E+00    5.62675E+01
 2.04602E+00    5.79739E+01
 2.06459E+00    5.89131E+01
 2.09930E+00    6.06685E+01
 2.10855E+00    6.11363E+01
 2.20000E+00    6.57613E+01
 2.40000E+00    6.52973E+01
 2.60000E+00    5.93768E+01
 2.80000E+00    5.17554E+01
 3.00000E+00    4.42647E+01
 3.20000E+00    3.76005E+01
 3.40000E+00    3.18889E+01
 3.60000E+00    2.69758E+01
 3.80000E+00    2.26939E+01
 4.00000E+00    1.89532E+01
 4.20000E+00    1.56872E+01
 4.40000E+00    1.28918E+01
 4.60000E+00    1.05305E+01
 4.80000E+00    8.55901E+00
 5.00000E+00    6.92836E+00
 5.20000E+00    5.59026E+00
 5.40000E+00    4.49106E+00
 5.60000E+00    3.60392E+00
 5.80000E+00    2.89111E+00
 6.00000E+00    2.31968E+00
 6.20000E+00    1.86330E+00
 6.40000E+00    1.49360E+00
 6.60000E+00    1.20014E+00
 6.80000E+00    9.62096E-01
 7.00000E+00    7.71256E-01
 7.20000E+00    6.17939E-01
 7.40000E+00    4.94095E-01
 7.60000E+00    3.95900E-01
 7.80000E+00    3.16410E-01
 8.00000E+00    2.52932E-01
 8.50000E+00    1.43743E-01
 9.00000E+00    8.11697E-02
 9.50000E+00    4.55949E-02
 1.00000E+01    2.55108E-02
 1.05000E+01    1.42410E-02
 1.10000E+01    7.94607E-03
 1.15000E+01    4.43845E-03
 1.20000E+01    2.48610E-03
 1.25000E+01    1.39814E-03
 1.30000E+01    7.90128E-04
 1.35000E+01    4.48917E-04
 1.40000E+01    2.56439E-04
 1.45000E+01    1.47270E-04
 1.50000E+01    8.49893E-05
 1.60000E+01    2.86694E-05
 1.70000E+01    9.76724E-06
 1.80000E+01    3.38593E-06
 1.90000E+01    1.19044E-06
 2.00000E+01    4.25160E-07
 2.10000E+01    1.54500E-07
 2.20000E+01    5.70810E-08
 2.30000E+01    2.14550E-08
 2.40000E+01    8.17090E-09
 2.50000E+01    3.15220E-09
 2.60000E+01    1.23130E-09
 2.70000E+01    4.86860E-10
 2.80000E+01    1.95130E-10
 2.90000E+01    7.91070E-11
 3.00000E+01    3.24770E-11
