# n + Tl205 : (n,n'17)  
# jeff3.3    A.J. Koning and D. Rochman        EVAL-DEC15
# uncertainties: n
# # energies =    75
#   E(MeV)       xs(mb) 
 1.70234E+00    0.00000E+00
 1.71946E+00    3.90233E+00
 1.77369E+00    1.62635E+01
 1.80000E+00    2.22606E+01
 1.83800E+00    2.71468E+01
 1.85709E+00    2.96014E+01
 1.87528E+00    3.19403E+01
 1.92543E+00    3.83888E+01
 1.95558E+00    4.22655E+01
 1.97607E+00    4.49002E+01
 2.00000E+00    4.79772E+01
 2.01228E+00    4.86926E+01
 2.04602E+00    5.06584E+01
 2.06459E+00    5.17403E+01
 2.09930E+00    5.37626E+01
 2.10855E+00    5.43015E+01
 2.20000E+00    5.96295E+01
 2.40000E+00    6.09765E+01
 2.60000E+00    5.72468E+01
 2.80000E+00    5.18514E+01
 3.00000E+00    4.63145E+01
 3.20000E+00    4.11595E+01
 3.40000E+00    3.64444E+01
 3.60000E+00    3.20189E+01
 3.80000E+00    2.77784E+01
 4.00000E+00    2.37513E+01
 4.20000E+00    1.99893E+01
 4.40000E+00    1.66018E+01
 4.60000E+00    1.36317E+01
 4.80000E+00    1.10844E+01
 5.00000E+00    8.93882E+00
 5.20000E+00    7.15897E+00
 5.40000E+00    5.69111E+00
 5.60000E+00    4.50778E+00
 5.80000E+00    3.56209E+00
 6.00000E+00    2.81043E+00
 6.20000E+00    2.21667E+00
 6.40000E+00    1.74241E+00
 6.60000E+00    1.37138E+00
 6.80000E+00    1.07611E+00
 7.00000E+00    8.43795E-01
 7.20000E+00    6.61195E-01
 7.40000E+00    5.17137E-01
 7.60000E+00    4.05582E-01
 7.80000E+00    3.17521E-01
 8.00000E+00    2.48967E-01
 8.50000E+00    1.35707E-01
 9.00000E+00    7.42887E-02
 9.50000E+00    4.08665E-02
 1.00000E+01    2.25732E-02
 1.05000E+01    1.25072E-02
 1.10000E+01    6.94707E-03
 1.15000E+01    3.86765E-03
 1.20000E+01    2.15978E-03
 1.25000E+01    1.21068E-03
 1.30000E+01    6.81733E-04
 1.35000E+01    3.85815E-04
 1.40000E+01    2.19472E-04
 1.45000E+01    1.25493E-04
 1.50000E+01    7.21029E-05
 1.60000E+01    2.41140E-05
 1.70000E+01    8.15290E-06
 1.80000E+01    2.80890E-06
 1.90000E+01    9.82820E-07
 2.00000E+01    3.49640E-07
 2.10000E+01    1.26610E-07
 2.20000E+01    4.66160E-08
 2.30000E+01    1.74630E-08
 2.40000E+01    6.63180E-09
 2.50000E+01    2.55320E-09
 2.60000E+01    9.95930E-10
 2.70000E+01    3.93320E-10
 2.80000E+01    1.57430E-10
 2.90000E+01    6.37140E-11
 3.00000E+01    2.61090E-11
