# n + Cm247 : (n,el)    
# endfb8.0   O.Iwamoto, T.Nakagawa, et al.     EVAL-FEB10
# uncertainties: y
# # energies =   143
#   E(MeV)       xs(mb)       xslow(mb)      xsupp(mb)
 1.00000E-11    0.00000E+00    0.00000E+00    0.00000E+00
 2.53000E-08    0.00000E+00    0.00000E+00    0.00000E+00
 6.00000E-05    0.00000E+00    0.00000E+00    0.00000E+00
 6.00000E-05    1.40613E+04    8.99919E+03    1.91234E+04
 8.00000E-05    1.40038E+04    8.96239E+03    1.90452E+04
 1.00000E-04    1.39288E+04    8.91439E+03    1.89432E+04
 1.41421E-04    1.38387E+04    8.85670E+03    1.88206E+04
 2.00000E-04    1.37491E+04    8.79939E+03    1.86988E+04
 3.00000E-04    1.36224E+04    8.71830E+03    1.85265E+04
 5.00000E-04    1.34384E+04    8.60054E+03    1.82763E+04
 7.00000E-04    1.33014E+04    8.51286E+03    1.80899E+04
 1.00000E-03    1.31420E+04    8.41084E+03    1.78732E+04
 1.41421E-03    1.29647E+04    8.29734E+03    1.76320E+04
 2.00000E-03    1.27897E+04    8.81190E+03    1.67675E+04
 3.00000E-03    1.25569E+04    8.65150E+03    1.64623E+04
 3.87298E-03    1.23950E+04    8.53996E+03    1.62501E+04
 5.00000E-03    1.22352E+04    9.29857E+03    1.51718E+04
 7.00000E-03    1.20058E+04    9.12423E+03    1.48874E+04
 8.36660E-03    1.18761E+04    9.44128E+03    1.43109E+04
 1.00000E-02    1.17478E+04    9.56256E+03    1.39330E+04
 1.18921E-02    1.16102E+04    9.45058E+03    1.37699E+04
 1.54221E-02    1.14069E+04    9.28506E+03    1.35287E+04
 2.00000E-02    1.12071E+04    9.70500E+03    1.27092E+04
 2.44949E-02    1.10379E+04    9.55845E+03    1.25173E+04
 3.00000E-02    1.08712E+04    9.69692E+03    1.20455E+04
 3.87298E-02    1.06466E+04    9.49661E+03    1.17966E+04
 5.00000E-02    1.04267E+04    9.46194E+03    1.13915E+04
 6.19218E-02    1.02334E+04    9.47999E+03    1.09868E+04
 7.00000E-02    1.00762E+04    9.33436E+03    1.08180E+04
 8.36660E-02    9.86096E+03    9.23259E+03    1.04893E+04
 1.00000E-01    9.65031E+03    9.07208E+03    1.02285E+04
 1.14018E-01    9.47774E+03    8.90985E+03    1.00456E+04
 1.30000E-01    9.30826E+03    8.75052E+03    9.86600E+03
 1.35200E-01    9.24943E+03    8.69522E+03    9.80364E+03
 1.50000E-01    9.06380E+03    8.52071E+03    9.60689E+03
 1.50000E-01    9.09023E+03    8.54556E+03    9.63490E+03
 1.70000E-01    8.80553E+03    8.27792E+03    9.33315E+03
 1.84391E-01    8.59162E+03    8.07682E+03    9.10642E+03
 2.00000E-01    8.38290E+03    7.98110E+03    8.78471E+03
 2.19894E-01    8.18034E+03    7.78825E+03    8.57244E+03
 2.28308E-01    8.09345E+03    7.70552E+03    8.48138E+03
 2.50000E-01    7.85573E+03    7.47920E+03    8.23227E+03
 2.66945E-01    7.70289E+03    7.33368E+03    8.07209E+03
 2.86575E-01    7.49134E+03    7.13227E+03    7.85041E+03
 3.00000E-01    7.33391E+03    7.03973E+03    7.62809E+03
 3.10261E-01    7.25336E+03    6.96241E+03    7.54431E+03
 3.10262E-01    7.25335E+03    6.96240E+03    7.54430E+03
 3.19599E-01    7.15853E+03    6.87138E+03    7.44567E+03
 3.19600E-01    7.15852E+03    6.87137E+03    7.44566E+03
 3.37372E-01    6.97578E+03    6.69597E+03    7.25560E+03
 3.47312E-01    6.87281E+03    6.59713E+03    7.14850E+03
 3.50000E-01    6.84541E+03    6.57082E+03    7.11999E+03
 3.71510E-01    6.63678E+03    6.37056E+03    6.90300E+03
 3.71511E-01    6.63677E+03    6.37056E+03    6.90299E+03
 3.82555E-01    6.53889E+03    6.27660E+03    6.80118E+03
 3.99625E-01    6.38283E+03    6.12680E+03    6.63886E+03
 4.00000E-01    6.37750E+03    6.15414E+03    6.60086E+03
 4.06553E-01    6.31513E+03    6.09395E+03    6.53630E+03
 4.18702E-01    6.21068E+03    5.99316E+03    6.42819E+03
 4.34768E-01    6.06747E+03    5.85497E+03    6.27997E+03
 4.40792E-01    6.01848E+03    5.80770E+03    6.22927E+03
 4.49829E-01    5.94407E+03    5.73589E+03    6.15224E+03
 4.50000E-01    5.94275E+03    5.73462E+03    6.15088E+03
 4.74342E-01    5.75400E+03    5.55248E+03    5.95552E+03
 5.00000E-01    5.57126E+03    5.37614E+03    5.76638E+03
 5.08066E-01    5.53549E+03    5.34162E+03    5.72935E+03
 5.18809E-01    5.48970E+03    5.29744E+03    5.68197E+03
 5.20697E-01    5.47965E+03    5.28774E+03    5.67156E+03
 5.52245E-01    5.34677E+03    5.15952E+03    5.53403E+03
 5.84075E-01    5.21566E+03    5.03300E+03    5.39833E+03
 5.94417E-01    5.17544E+03    4.99418E+03    5.35669E+03
 6.00000E-01    5.15084E+03    4.97097E+03    5.33071E+03
 6.06466E-01    5.12118E+03    4.94235E+03    5.30001E+03
 6.51557E-01    4.92451E+03    4.75254E+03    5.09647E+03
 7.00000E-01    4.73539E+03    4.57003E+03    4.90075E+03
 8.00000E-01    4.53828E+03    4.35481E+03    4.72175E+03
 8.48528E-01    4.39194E+03    4.21438E+03    4.56950E+03
 9.00000E-01    4.25032E+03    4.07849E+03    4.42215E+03
 9.48683E-01    4.09880E+03    3.93309E+03    4.26450E+03
 1.00000E+00    3.95268E+03    3.74071E+03    4.16465E+03
 1.07500E+00    3.81849E+03    3.61372E+03    4.02327E+03
 1.15000E+00    3.68971E+03    3.49184E+03    3.88758E+03
 1.22270E+00    3.56578E+03    3.31575E+03    3.81582E+03
 1.30000E+00    3.44602E+03    3.20438E+03    3.68766E+03
 1.40000E+00    3.37984E+03    3.14285E+03    3.61684E+03
 1.50000E+00    3.31389E+03    3.05304E+03    3.57474E+03
 1.60000E+00    3.28585E+03    3.02721E+03    3.54450E+03
 1.80000E+00    3.35072E+03    3.08697E+03    3.61447E+03
 2.00000E+00    3.45963E+03    3.20907E+03    3.71018E+03
 2.15000E+00    3.64888E+03    3.38462E+03    3.91314E+03
 2.30000E+00    3.82551E+03    3.54845E+03    4.10256E+03
 2.40000E+00    3.93942E+03    3.65412E+03    4.22472E+03
 2.50000E+00    4.04909E+03    3.74697E+03    4.35121E+03
 2.70000E+00    4.22604E+03    3.91073E+03    4.54136E+03
 2.85000E+00    4.32263E+03    4.00010E+03    4.64516E+03
 3.00000E+00    4.41463E+03    4.07550E+03    4.75376E+03
 3.50000E+00    4.53553E+03    4.21844E+03    4.85262E+03
 3.75000E+00    4.58437E+03    4.26387E+03    4.90487E+03
 4.00000E+00    4.63102E+03    4.32432E+03    4.93772E+03
 4.25000E+00    4.57468E+03    4.27171E+03    4.87765E+03
 4.50000E+00    4.52212E+03    4.22263E+03    4.82161E+03
 4.75000E+00    4.46383E+03    4.16820E+03    4.75946E+03
 5.00000E+00    4.40911E+03    4.14621E+03    4.67201E+03
 5.17690E+00    4.33833E+03    4.07965E+03    4.59702E+03
 5.50000E+00    4.18526E+03    3.93571E+03    4.43482E+03
 5.75000E+00    4.10048E+03    3.85598E+03    4.34498E+03
 6.00000E+00    4.02074E+03    3.68734E+03    4.35414E+03
 6.25000E+00    3.87218E+03    3.55110E+03    4.19327E+03
 6.50000E+00    3.72685E+03    3.41782E+03    4.03588E+03
 6.56250E+00    3.69161E+03    3.38550E+03    3.99772E+03
 6.62500E+00    3.65659E+03    3.35338E+03    3.95979E+03
 6.75000E+00    3.58718E+03    3.28973E+03    3.88463E+03
 7.00000E+00    3.44309E+03    3.05398E+03    3.83219E+03
 7.12500E+00    3.38659E+03    3.00387E+03    3.76931E+03
 7.25000E+00    3.33126E+03    2.95479E+03    3.70773E+03
 7.50000E+00    3.22396E+03    2.85962E+03    3.58830E+03
 7.75000E+00    3.10104E+03    2.75059E+03    3.45149E+03
 8.00000E+00    2.98242E+03    2.60660E+03    3.35824E+03
 8.50000E+00    2.81882E+03    2.46361E+03    3.17402E+03
 9.00000E+00    2.65724E+03    2.35160E+03    2.96287E+03
 9.50000E+00    2.58033E+03    2.28355E+03    2.87712E+03
 1.00000E+01    2.49230E+03    2.27641E+03    2.70819E+03
 1.05000E+01    2.45335E+03    2.24084E+03    2.66587E+03
 1.10000E+01    2.40105E+03    2.19307E+03    2.60904E+03
 1.15000E+01    2.40033E+03    2.19241E+03    2.60826E+03
 1.16609E+01    2.40520E+03    2.19686E+03    2.61355E+03
 1.20000E+01    2.41410E+03    2.32258E+03    2.50561E+03
 1.25000E+01    2.47128E+03    2.37759E+03    2.56496E+03
 1.30000E+01    2.53895E+03    2.44270E+03    2.63520E+03
 1.35000E+01    2.62620E+03    2.52665E+03    2.72576E+03
 1.40000E+01    2.70367E+03    2.54465E+03    2.86269E+03
 1.45000E+01    2.78531E+03    2.62149E+03    2.94913E+03
 1.50000E+01    2.84520E+03    2.65964E+03    3.03075E+03
 1.55000E+01    2.91269E+03    2.72273E+03    3.10265E+03
 1.60000E+01    2.97643E+03    2.78084E+03    3.17202E+03
 1.65000E+01    3.03171E+03    2.83248E+03    3.23093E+03
 1.70000E+01    3.08162E+03    2.87911E+03    3.28412E+03
 1.72036E+01    3.09904E+03    2.89539E+03    3.30269E+03
 1.75000E+01    3.12410E+03    2.91881E+03    3.32939E+03
 1.80000E+01    3.16395E+03    2.98390E+03    3.34401E+03
 1.85000E+01    3.19678E+03    3.01485E+03    3.37870E+03
 1.95000E+01    3.25715E+03    3.07179E+03    3.44251E+03
 2.00000E+01    3.28234E+03    3.09555E+03    3.46913E+03
