# n + Cm247 : (n,xn)    
# endfb8.0   O.Iwamoto, T.Nakagawa, et al.     EVAL-FEB10
# 
# # energies =    83
#   E(MeV)        xs(mb) 
 6.19218E-02    0.00000E+00
 7.00000E-02    8.07113E+01
 1.00000E-01    1.92908E+02
 1.15000E-01    2.36229E+02
 1.30000E-01    2.79555E+02
 1.35200E-01    2.92228E+02
 1.70000E-01    4.02953E+02
 2.00000E-01    4.75294E+02
 2.19894E-01    5.16271E+02
 2.28308E-01    5.34675E+02
 2.66945E-01    6.30840E+02
 2.86575E-01    7.04294E+02
 3.00000E-01    7.66515E+02
 3.10261E-01    8.02370E+02
 3.10262E-01    8.02377E+02
 3.19599E-01    8.56965E+02
 3.19600E-01    8.56973E+02
 3.37372E-01    9.60584E+02
 3.47312E-01    1.01829E+03
 3.71510E-01    1.14793E+03
 3.71511E-01    1.14793E+03
 3.82555E-01    1.19596E+03
 3.99625E-01    1.27333E+03
 4.00000E-01    1.27700E+03
 4.06553E-01    1.30775E+03
 4.18702E-01    1.35247E+03
 4.34768E-01    1.41558E+03
 4.40792E-01    1.43406E+03
 4.49829E-01    1.46246E+03
 5.00000E-01    1.56754E+03
 5.08066E-01    1.57839E+03
 5.18809E-01    1.59050E+03
 5.20697E-01    1.59465E+03
 5.52245E-01    1.62568E+03
 5.84075E-01    1.65058E+03
 5.94417E-01    1.65554E+03
 6.00000E-01    1.66107E+03
 6.06466E-01    1.66438E+03
 7.00000E-01    1.66308E+03
 8.00000E-01    1.64930E+03
 9.00000E-01    1.66105E+03
 1.00000E+00    1.68478E+03
 1.30000E+00    1.81685E+03
 1.60000E+00    1.91937E+03
 1.80000E+00    1.94638E+03
 2.00000E+00    1.94277E+03
 2.30000E+00    1.89722E+03
 2.50000E+00    1.85175E+03
 2.70000E+00    1.80439E+03
 3.00000E+00    1.78131E+03
 3.50000E+00    1.72569E+03
 4.00000E+00    1.68954E+03
 4.50000E+00    1.68545E+03
 5.00000E+00    1.68109E+03
 5.50000E+00    1.70367E+03
 6.00000E+00    1.86751E+03
 6.50000E+00    1.88080E+03
 7.00000E+00    1.77701E+03
 7.50000E+00    1.71203E+03
 8.00000E+00    1.63305E+03
 8.50000E+00    1.64823E+03
 9.00000E+00    1.64052E+03
 9.50000E+00    1.64605E+03
 1.00000E+01    1.66568E+03
 1.05000E+01    1.66897E+03
 1.10000E+01    1.69549E+03
 1.15000E+01    1.69442E+03
 1.20000E+01    1.66308E+03
 1.25000E+01    1.58403E+03
 1.30000E+01    1.49403E+03
 1.35000E+01    1.41566E+03
 1.40000E+01    1.36559E+03
 1.45000E+01    1.31527E+03
 1.50000E+01    1.32387E+03
 1.55000E+01    1.30740E+03
 1.60000E+01    1.29550E+03
 1.65000E+01    1.29419E+03
 1.70000E+01    1.30174E+03
 1.75000E+01    1.30856E+03
 1.80000E+01    1.32087E+03
 1.85000E+01    1.33082E+03
 1.95000E+01    1.33338E+03
 2.00000E+01    1.32759E+03
