# n + Ba130 : (n,xd)    
# jendl.ad   N.Iwamoto                         EVAL-Apr14
# 
# # energies =    98
#   E(MeV)        xs(mb) 
 1.05000E-01    0.00000E+00
 1.10000E-01    0.00000E+00
 1.20000E-01    0.00000E+00
 1.30000E-01    0.00000E+00
 1.40000E-01    0.00000E+00
 1.50000E-01    0.00000E+00
 1.60000E-01    0.00000E+00
 1.70000E-01    0.00000E+00
 1.80000E-01    0.00000E+00
 1.90000E-01    0.00000E+00
 2.00000E-01    0.00000E+00
 2.25000E-01    0.00000E+00
 2.50000E-01    0.00000E+00
 2.75000E-01    0.00000E+00
 3.00000E-01    0.00000E+00
 3.60155E-01    0.00000E+00
 4.00000E-01    0.00000E+00
 5.00000E-01    0.00000E+00
 6.00000E-01    0.00000E+00
 7.00000E-01    0.00000E+00
 8.00000E-01    0.00000E+00
 8.95792E-01    0.00000E+00
 9.00000E-01    0.00000E+00
 9.08852E-01    0.00000E+00
 9.15070E-01    0.00000E+00
 1.00000E+00    0.00000E+00
 1.10000E+00    0.00000E+00
 1.18866E+00    0.00000E+00
 1.20000E+00    0.00000E+00
 1.30000E+00    0.00000E+00
 1.37163E+00    0.00000E+00
 1.40000E+00    0.00000E+00
 1.48900E+00    0.00000E+00
 1.50000E+00    0.00000E+00
 1.55639E+00    0.00000E+00
 1.56964E+00    0.00000E+00
 1.60000E+00    0.00000E+00
 1.60521E+00    0.00000E+00
 1.70000E+00    0.00000E+00
 1.80000E+00    0.00000E+00
 1.85897E+00    0.00000E+00
 1.89759E+00    0.00000E+00
 1.90000E+00    0.00000E+00
 1.93350E+00    0.00000E+00
 1.96312E+00    0.00000E+00
 1.96313E+00    0.00000E+00
 2.00000E+00    0.00000E+00
 2.02820E+00    0.00000E+00
 2.06965E+00    0.00000E+00
 2.09532E+00    0.00000E+00
 2.11747E+00    0.00000E+00
 2.11748E+00    0.00000E+00
 2.18523E+00    0.00000E+00
 2.19985E+00    0.00000E+00
 2.24721E+00    0.00000E+00
 2.25000E+00    0.00000E+00
 2.26563E+00    0.00000E+00
 2.28682E+00    0.00000E+00
 2.29720E+00    0.00000E+00
 2.33599E+00    0.00000E+00
 2.36509E+00    0.00000E+00
 2.50000E+00    0.00000E+00
 2.75000E+00    0.00000E+00
 3.00000E+00    0.00000E+00
 3.50000E+00    0.00000E+00
 4.00000E+00    0.00000E+00
 4.50000E+00    0.00000E+00
 5.00000E+00    8.93059E-17
 5.50000E+00    1.91877E-13
 6.00000E+00    4.53020E-13
 6.50000E+00    7.08750E-12
 7.00000E+00    3.53380E-09
 7.50000E+00    2.12210E-07
 8.00000E+00    4.02540E-06
 8.50000E+00    4.32373E-05
 9.00000E+00    2.99104E-04
 9.50000E+00    1.54485E-03
 1.00000E+01    6.25529E-03
 1.05000E+01    2.05422E-02
 1.10000E+01    5.62411E-02
 1.15000E+01    1.31386E-01
 1.20000E+01    2.67428E-01
 1.25000E+01    4.83777E-01
 1.30000E+01    7.92693E-01
 1.35000E+01    1.19719E+00
 1.40000E+01    1.69240E+00
 1.45000E+01    2.26862E+00
 1.50000E+01    2.81652E+00
 1.55000E+01    3.55179E+00
 1.60000E+01    4.28780E+00
 1.65000E+01    5.06583E+00
 1.70000E+01    5.79944E+00
 1.75000E+01    6.70041E+00
 1.80000E+01    7.53171E+00
 1.85000E+01    8.40387E+00
 1.90000E+01    9.31436E+00
 1.95000E+01    1.00962E+01
 2.00000E+01    1.09097E+01
