# n + Ba130 : (n,tot)   
# jendl.ad   N.Iwamoto                         EVAL-Apr14
# uncertainties: n
# # energies =    69
#   E(MeV)       xs(mb) 
 1.00000E-10    6.07448E+04
 5.00000E-09    1.65406E+04
 1.00000E-08    1.25273E+04
 1.50000E-08    1.05266E+04
 2.00000E-08    9.26137E+03
 2.50000E-08    8.36799E+03
 3.00000E-08    7.69319E+03
 3.50000E-08    7.07309E+03
 4.20000E-08    6.46945E+03
 5.00000E-08    5.96857E+03
 5.80000E-08    5.54864E+03
 6.70000E-08    5.12062E+03
 8.00000E-08    4.63379E+03
 1.00000E-07    4.03312E+03
 1.40000E-07    3.48171E+03
 1.80000E-07    3.10992E+03
 2.20000E-07    2.86560E+03
 2.50000E-07    2.69919E+03
 2.80000E-07    2.57920E+03
 3.00000E-07    2.49492E+03
 3.20000E-07    2.40124E+03
 3.50000E-07    2.27205E+03
 4.00000E-07    2.08124E+03
 5.00000E-07    1.86427E+03
 6.25000E-07    1.67073E+03
 7.80000E-07    1.54826E+03
 8.50000E-07    1.49117E+03
 9.10000E-07    1.45123E+03
 9.50000E-07    1.42809E+03
 9.72000E-07    1.41170E+03
 9.96000E-07    1.39515E+03
 1.02000E-06    1.37934E+03
 1.04500E-06    1.36290E+03
 1.07100E-06    1.34634E+03
 1.09700E-06    1.33120E+03
 1.12300E-06    1.31605E+03
 1.15000E-06    1.26993E+03
 1.30000E-06    1.19116E+03
 1.50000E-06    1.06282E+03
 2.10000E-06    9.32418E+02
 2.60000E-06    8.39787E+02
 3.30000E-06    7.61723E+02
 4.00000E-06    6.11687E+02
 9.87700E-06    4.97423E+02
 1.59680E-05    5.35003E+02
 2.77000E-05    9.52414E+04
 4.80520E-05    1.78544E+05
 7.55014E-05    2.09591E+04
 1.48728E-04    1.32832E+04
 3.67262E-04    5.39154E+03
 9.06898E-04    1.63844E+03
 1.42510E-03    3.01936E+03
 2.23945E-03    1.97993E+03
 3.51910E-03    1.73605E+03
 5.53000E-03    1.36126E+03
 9.11800E-03    1.08188E+03
 1.50300E-02    8.65568E+02
 2.47800E-02    6.83791E+02
 4.08500E-02    5.40126E+02
 6.73400E-02    4.42470E+02
 1.11000E-01    3.85477E+02
 1.83000E-01    3.54773E+02
 3.02000E-01    2.72299E+02
 5.00000E-01    1.83636E+02
 8.21000E-01    1.63365E+02
 1.35300E+00    1.44224E+02
 2.23100E+00    1.32077E+02
 3.67900E+00    7.90298E+01
 6.06500E+00    2.08955E+03
