# n + Ba130 : (n,pa)    
# jendl.ad   N.Iwamoto                         EVAL-Apr14
# uncertainties: n
# # energies =    33
#   E(MeV)       xs(mb) 
 1.00135E+00    0.00000E+00
 4.50000E+00    9.91010E-34
 5.00000E+00    7.17170E-29
 5.50000E+00    4.55390E-25
 6.00000E+00    5.64000E-22
 6.50000E+00    2.07280E-19
 7.00000E+00    2.96730E-17
 7.50000E+00    1.99840E-15
 8.00000E+00    7.39970E-14
 8.50000E+00    1.69060E-12
 9.00000E+00    2.68590E-11
 9.50000E+00    2.87670E-10
 1.00000E+01    2.23700E-09
 1.05000E+01    1.33970E-08
 1.10000E+01    6.53890E-08
 1.15000E+01    2.70510E-07
 1.20000E+01    9.71010E-07
 1.25000E+01    3.07478E-06
 1.30000E+01    8.71082E-06
 1.35000E+01    2.23596E-05
 1.40000E+01    5.26467E-05
 1.45000E+01    1.15001E-04
 1.50000E+01    2.13791E-04
 1.55000E+01    4.33810E-04
 1.60000E+01    7.94485E-04
 1.65000E+01    1.36767E-03
 1.70000E+01    2.36831E-03
 1.75000E+01    3.76642E-03
 1.80000E+01    6.03771E-03
 1.85000E+01    9.67280E-03
 1.90000E+01    1.41564E-02
 1.95000E+01    1.90842E-02
 2.00000E+01    2.55933E-02
