# n + Ba130 : (n,na)    
# jendl.ad   N.Iwamoto                         EVAL-Apr14
# uncertainties: n
# # energies =    37
#   E(MeV)       xs(mb) 
 5.22005E-01    0.00000E+00
 2.75000E+00    2.48110E-22
 3.00000E+00    1.71620E-19
 3.50000E+00    5.37950E-15
 4.00000E+00    1.09280E-11
 4.50000E+00    3.56500E-09
 5.00000E+00    3.23090E-07
 5.50000E+00    1.15193E-05
 6.00000E+00    2.02967E-04
 6.50000E+00    2.06603E-03
 7.00000E+00    1.36880E-02
 7.50000E+00    6.19897E-02
 8.00000E+00    2.09608E-01
 8.50000E+00    5.63414E-01
 9.00000E+00    1.26638E+00
 9.50000E+00    2.48366E+00
 1.00000E+01    4.39746E+00
 1.05000E+01    7.13515E+00
 1.10000E+01    8.44569E+00
 1.15000E+01    8.46161E+00
 1.20000E+01    8.39727E+00
 1.25000E+01    8.73951E+00
 1.30000E+01    9.70562E+00
 1.35000E+01    1.15949E+01
 1.40000E+01    1.39539E+01
 1.45000E+01    1.69522E+01
 1.50000E+01    2.04866E+01
 1.55000E+01    2.44985E+01
 1.60000E+01    2.86286E+01
 1.65000E+01    3.26453E+01
 1.70000E+01    3.69587E+01
 1.75000E+01    4.14487E+01
 1.80000E+01    4.54190E+01
 1.85000E+01    4.89529E+01
 1.90000E+01    5.25504E+01
 1.95000E+01    5.61009E+01
 2.00000E+01    5.93298E+01
