# n + Ag108m: (n,n'24)  
# tendl.2019 A.J. Koning and D. Rochman        EVAL-NOV19
# uncertainties: n
# # energies =    78
#   E(MeV)       xs(mb) 
 3.91409E-01    0.00000E+00
 4.00000E-01    2.13289E+01
 4.02740E-01    2.21687E+01
 4.11185E-01    2.49301E+01
 4.16865E-01    2.69419E+01
 4.27443E-01    3.10450E+01
 4.32035E-01    3.29796E+01
 4.37432E-01    3.53790E+01
 5.00000E-01    7.53678E+01
 6.00000E-01    8.16834E+01
 7.00000E-01    7.81197E+01
 8.00000E-01    7.21669E+01
 9.00000E-01    6.58101E+01
 1.00000E+00    5.95953E+01
 1.20000E+00    4.85787E+01
 1.40000E+00    3.93242E+01
 1.60000E+00    3.15768E+01
 1.80000E+00    2.51166E+01
 2.00000E+00    1.97824E+01
 2.20000E+00    1.54465E+01
 2.40000E+00    1.19784E+01
 2.60000E+00    9.24577E+00
 2.80000E+00    7.11830E+00
 3.00000E+00    5.47652E+00
 3.20000E+00    4.21450E+00
 3.40000E+00    3.24767E+00
 3.60000E+00    2.50736E+00
 3.80000E+00    1.93885E+00
 4.00000E+00    1.50057E+00
 4.20000E+00    1.16199E+00
 4.40000E+00    8.99581E-01
 4.60000E+00    6.95561E-01
 4.80000E+00    5.36905E-01
 5.00000E+00    4.13573E-01
 5.20000E+00    3.17680E-01
 5.40000E+00    2.43787E-01
 5.60000E+00    1.86638E-01
 5.80000E+00    1.42788E-01
 6.00000E+00    1.09236E-01
 6.20000E+00    8.35628E-02
 6.40000E+00    6.39997E-02
 6.60000E+00    4.90588E-02
 6.80000E+00    3.76709E-02
 7.00000E+00    2.89817E-02
 7.20000E+00    2.23433E-02
 7.40000E+00    1.72745E-02
 7.60000E+00    1.33891E-02
 7.80000E+00    1.04074E-02
 8.00000E+00    8.11185E-03
 8.50000E+00    4.40898E-03
 9.00000E+00    2.44246E-03
 9.50000E+00    1.37811E-03
 1.00000E+01    7.91063E-04
 1.05000E+01    4.61201E-04
 1.10000E+01    2.72668E-04
 1.15000E+01    1.63177E-04
 1.20000E+01    9.87360E-05
 1.25000E+01    6.02570E-05
 1.30000E+01    3.70920E-05
 1.35000E+01    2.30118E-05
 1.40000E+01    1.43802E-05
 1.45000E+01    9.04581E-06
 1.50000E+01    5.72310E-06
 1.60000E+01    2.32394E-06
 1.70000E+01    9.64440E-07
 1.80000E+01    4.08850E-07
 1.90000E+01    1.77560E-07
 2.00000E+01    7.89170E-08
 2.10000E+01    3.54820E-08
 2.20000E+01    1.63940E-08
 2.30000E+01    7.70690E-09
 2.40000E+01    3.67600E-09
 2.50000E+01    1.77530E-09
 2.60000E+01    8.66170E-10
 2.70000E+01    4.27480E-10
 2.80000E+01    2.13230E-10
 2.90000E+01    1.07500E-10
 3.00000E+01    5.47690E-11
