# n + Ag108m: (n,n'27)  
# tendl.2019 A.J. Koning and D. Rochman        EVAL-NOV19
# uncertainties: n
# # energies =    74
#   E(MeV)       xs(mb) 
 4.16865E-01    0.00000E+00
 4.27443E-01    1.63792E+01
 4.32035E-01    2.34896E+01
 4.37432E-01    3.18464E+01
 5.00000E-01    1.28728E+02
 6.00000E-01    1.80880E+02
 7.00000E-01    1.72931E+02
 8.00000E-01    1.48898E+02
 9.00000E-01    1.24136E+02
 1.00000E+00    1.02599E+02
 1.20000E+00    7.10887E+01
 1.40000E+00    5.08008E+01
 1.60000E+00    3.72622E+01
 1.80000E+00    2.77595E+01
 2.00000E+00    2.08213E+01
 2.20000E+00    1.56469E+01
 2.40000E+00    1.17582E+01
 2.60000E+00    8.83655E+00
 2.80000E+00    6.64742E+00
 3.00000E+00    5.01207E+00
 3.20000E+00    3.79168E+00
 3.40000E+00    2.88178E+00
 3.60000E+00    2.20284E+00
 3.80000E+00    1.69370E+00
 4.00000E+00    1.30936E+00
 4.20000E+00    1.01741E+00
 4.40000E+00    7.93643E-01
 4.60000E+00    6.20402E-01
 4.80000E+00    4.85341E-01
 5.00000E+00    3.79536E-01
 5.20000E+00    2.95946E-01
 5.40000E+00    2.30520E-01
 5.60000E+00    1.78936E-01
 5.80000E+00    1.38552E-01
 6.00000E+00    1.07117E-01
 6.20000E+00    8.26310E-02
 6.40000E+00    6.37060E-02
 6.60000E+00    4.90716E-02
 6.80000E+00    3.78023E-02
 7.00000E+00    2.91345E-02
 7.20000E+00    2.24752E-02
 7.40000E+00    1.73694E-02
 7.60000E+00    1.34451E-02
 7.80000E+00    1.04312E-02
 8.00000E+00    8.11009E-03
 8.50000E+00    4.37530E-03
 9.00000E+00    2.40416E-03
 9.50000E+00    1.34590E-03
 1.00000E+01    7.67053E-04
 1.05000E+01    4.44307E-04
 1.10000E+01    2.61090E-04
 1.15000E+01    1.55329E-04
 1.20000E+01    9.34356E-05
 1.25000E+01    5.66928E-05
 1.30000E+01    3.47082E-05
 1.35000E+01    2.14318E-05
 1.40000E+01    1.33445E-05
 1.45000E+01    8.37486E-06
 1.50000E+01    5.29319E-06
 1.60000E+01    2.15133E-06
 1.70000E+01    8.95100E-07
 1.80000E+01    3.80190E-07
 1.90000E+01    1.65160E-07
 2.00000E+01    7.33050E-08
 2.10000E+01    3.28840E-08
 2.20000E+01    1.51600E-08
 2.30000E+01    7.11720E-09
 2.40000E+01    3.39340E-09
 2.50000E+01    1.63930E-09
 2.60000E+01    8.00080E-10
 2.70000E+01    3.94870E-10
 2.80000E+01    1.96870E-10
 2.90000E+01    9.91620E-11
 3.00000E+01    5.04690E-11
