# n + Ag108m: (n,xn)    
# tendl.2019 A.J. Koning and D. Rochman        EVAL-NOV19
# 
# # energies =   291
#   E(MeV)        xs(mb) 
 6.71603E-05    0.00000E+00
 6.77929E-05    6.85860E-09
 6.78720E-05    3.67940E-08
 6.79115E-05    7.98370E-08
 6.79214E-05    9.62490E-08
 6.79263E-05    1.05570E-07
 6.79313E-05    1.15730E-07
 6.79362E-05    1.26770E-07
 6.79412E-05    1.38770E-07
 6.79461E-05    1.51820E-07
 6.79510E-05    1.65970E-07
 6.79560E-05    1.81330E-07
 6.79609E-05    1.97980E-07
 6.79659E-05    2.16020E-07
 6.79708E-05    2.35540E-07
 6.79758E-05    2.56660E-07
 6.79807E-05    2.79500E-07
 6.79856E-05    3.04160E-07
 6.79906E-05    3.30790E-07
 6.79955E-05    3.59510E-07
 6.80005E-05    3.90480E-07
 6.80054E-05    4.23840E-07
 6.80103E-05    4.59750E-07
 6.80153E-05    4.98380E-07
 6.80202E-05    5.39910E-07
 6.80252E-05    5.84530E-07
 6.80301E-05    6.32440E-07
 6.80351E-05    6.83830E-07
 6.80400E-05    7.38930E-07
 6.80449E-05    7.97960E-07
 6.80499E-05    8.61160E-07
 6.80548E-05    9.28790E-07
 6.80598E-05    1.00109E-06
 6.80647E-05    1.07834E-06
 6.80697E-05    1.16082E-06
 6.80746E-05    1.24884E-06
 6.80795E-05    1.34269E-06
 6.80845E-05    1.44270E-06
 6.80894E-05    1.54920E-06
 6.80944E-05    1.66253E-06
 6.80993E-05    1.78305E-06
 6.81043E-05    1.91114E-06
 6.81092E-05    2.04716E-06
 6.81141E-05    2.19154E-06
 6.81216E-05    2.42466E-06
 6.81290E-05    2.67890E-06
 6.81364E-05    2.95581E-06
 6.81438E-05    3.25693E-06
 6.81512E-05    3.58391E-06
 6.81586E-05    3.93845E-06
 6.81660E-05    4.32232E-06
 6.81734E-05    4.73733E-06
 6.81809E-05    5.18538E-06
 6.81883E-05    5.66838E-06
 6.81957E-05    6.18834E-06
 6.82031E-05    6.74726E-06
 6.82105E-05    7.34724E-06
 6.82179E-05    7.99036E-06
 6.82253E-05    8.67878E-06
 6.82328E-05    9.41465E-06
 6.82402E-05    1.02002E-05
 6.82476E-05    1.10375E-05
 6.82550E-05    1.19289E-05
 6.82624E-05    1.28764E-05
 6.82723E-05    1.42311E-05
 6.82822E-05    1.56947E-05
 6.82921E-05    1.72723E-05
 6.83019E-05    1.89687E-05
 6.83118E-05    2.07888E-05
 6.83217E-05    2.27370E-05
 6.83316E-05    2.48176E-05
 6.83415E-05    2.70347E-05
 6.83514E-05    2.93920E-05
 6.83613E-05    3.18928E-05
 6.83711E-05    3.45403E-05
 6.83810E-05    3.73371E-05
 6.83959E-05    4.18168E-05
 6.84107E-05    4.66429E-05
 6.84255E-05    5.18188E-05
 6.84391E-05    5.68724E-05
 6.84527E-05    6.22198E-05
 6.84708E-05    6.98022E-05
 6.84889E-05    7.78917E-05
 6.85071E-05    8.64728E-05
 6.85297E-05    9.78601E-05
 6.85524E-05    1.09937E-04
 6.85796E-05    1.25265E-04
 6.86068E-05    1.41407E-04
 6.86430E-05    1.64010E-04
 6.86883E-05    1.93650E-04
 6.87458E-05    2.32823E-04
 6.88367E-05    2.96785E-04
 6.99307E-05    1.08355E-03
 9.97279E-05    2.25166E-02
 1.00000E-04    2.26553E-02
 1.00353E-04    2.27054E-02
 2.00071E-04    1.95347E-02
 3.00350E-04    1.79899E-02
 6.00000E-04    1.71997E-02
 1.00705E-03    1.81857E-02
 2.07134E-03    2.23318E-02
 3.37947E-03    2.78394E-02
 6.17049E-03    3.98164E-02
 1.00705E-02    5.74791E-02
 2.00000E-02    1.09197E-01
 3.00000E-02    1.77704E-01
 4.68551E-02    3.15452E-01
 4.68605E-02    3.16231E-01
 4.68626E-02    3.17564E-01
 4.68648E-02    3.20343E-01
 4.68669E-02    3.25294E-01
 4.68686E-02    3.31158E-01
 4.68706E-02    3.39818E-01
 4.68725E-02    3.50387E-01
 4.68757E-02    3.70873E-01
 4.68887E-02    4.61270E-01
 6.00000E-02    9.29311E+01
 8.43885E-02    2.19882E+02
 9.80561E-02    3.21261E+02
 1.00000E-01    3.37577E+02
 1.18753E-01    3.81816E+02
 1.94843E-01    5.64184E+02
 2.00000E-01    5.76622E+02
 2.20103E-01    5.72051E+02
 2.31094E-01    5.71700E+02
 2.57153E-01    5.73250E+02
 2.62732E-01    5.78375E+02
 2.67572E-01    5.95725E+02
 3.00000E-01    8.24950E+02
 3.13033E-01    8.35018E+02
 3.32322E-01    8.81171E+02
 3.45736E-01    9.35810E+02
 3.65172E-01    1.02710E+03
 3.79115E-01    1.10416E+03
 3.91409E-01    1.17955E+03
 4.00000E-01    1.25565E+03
 4.16865E-01    1.24759E+03
 4.29739E-01    1.26525E+03
 4.37432E-01    1.27963E+03
 5.00000E-01    1.48748E+03
 5.99882E-01    1.60517E+03
 7.04906E-01    1.67117E+03
 8.17009E-01    1.71529E+03
 1.00000E+00    1.76803E+03
 1.25151E+00    1.82232E+03
 1.44994E+00    1.85602E+03
 1.63402E+00    1.87878E+03
 1.85115E+00    1.89281E+03
 2.00000E+00    1.89764E+03
 2.34322E+00    1.89392E+03
 2.98069E+00    1.88158E+03
 3.00000E+00    1.88140E+03
 3.33736E+00    1.88867E+03
 3.70230E+00    1.90969E+03
 4.20000E+00    1.95654E+03
 4.86772E+00    2.02347E+03
 5.27336E+00    2.05086E+03
 5.67901E+00    2.06362E+03
 5.80000E+00    2.06492E+03
 6.28747E+00    2.05717E+03
 6.94458E+00    2.02860E+03
 7.20000E+00    2.01469E+03
 7.40000E+00    2.02659E+03
 7.60000E+00    2.06350E+03
 7.80000E+00    2.13063E+03
 8.00000E+00    2.17071E+03
 8.55996E+00    2.37982E+03
 9.00000E+00    2.56180E+03
 9.50000E+00    2.73685E+03
 1.00000E+01    2.88261E+03
 1.01411E+01    2.91575E+03
 1.02842E+01    2.94937E+03
 1.04292E+01    2.98346E+03
 1.05000E+01    3.00009E+03
 1.06481E+01    3.02846E+03
 1.07984E+01    3.05723E+03
 1.09507E+01    3.08640E+03
 1.10000E+01    3.09584E+03
 1.11552E+01    3.12104E+03
 1.13126E+01    3.14660E+03
 1.14722E+01    3.17252E+03
 1.15000E+01    3.17704E+03
 1.16622E+01    3.19724E+03
 1.18268E+01    3.21774E+03
 1.19936E+01    3.23852E+03
 1.20000E+01    3.23931E+03
 1.21693E+01    3.25394E+03
 1.23410E+01    3.26877E+03
 1.25000E+01    3.28251E+03
 1.26764E+01    3.29545E+03
 1.28552E+01    3.30858E+03
 1.30000E+01    3.31921E+03
 1.31834E+01    3.32833E+03
 1.33694E+01    3.33758E+03
 1.35000E+01    3.34408E+03
 1.36905E+01    3.34967E+03
 1.38836E+01    3.35534E+03
 1.40000E+01    3.35875E+03
 1.41975E+01    3.36218E+03
 1.43978E+01    3.36565E+03
 1.45000E+01    3.36742E+03
 1.47046E+01    3.36713E+03
 1.49120E+01    3.36683E+03
 1.50000E+01    3.36671E+03
 1.52116E+01    3.36273E+03
 1.54262E+01    3.35869E+03
 1.56439E+01    3.35460E+03
 1.58646E+01    3.35044E+03
 1.60000E+01    3.34790E+03
 1.62257E+01    3.34052E+03
 1.64546E+01    3.33304E+03
 1.66868E+01    3.32546E+03
 1.69222E+01    3.31827E+03
 1.70000E+01    3.31629E+03
 1.72398E+01    3.31818E+03
 1.74831E+01    3.32009E+03
 1.77297E+01    3.32203E+03
 1.79799E+01    3.32400E+03
 1.80000E+01    3.32416E+03
 1.82539E+01    3.34734E+03
 1.85115E+01    3.37085E+03
 1.87726E+01    3.39469E+03
 1.90000E+01    3.41544E+03
 1.92681E+01    3.45100E+03
 1.95399E+01    3.48706E+03
 1.98156E+01    3.52362E+03
 2.00000E+01    3.54809E+03
 2.02822E+01    3.58159E+03
 2.05683E+01    3.61557E+03
 2.08585E+01    3.65003E+03
 2.10000E+01    3.66683E+03
 2.12963E+01    3.69962E+03
 2.15967E+01    3.73288E+03
 2.19014E+01    3.76660E+03
 2.20000E+01    3.77752E+03
 2.23104E+01    3.80312E+03
 2.26251E+01    3.82908E+03
 2.29443E+01    3.85541E+03
 2.30000E+01    3.86000E+03
 2.33245E+01    3.87838E+03
 2.36536E+01    3.89702E+03
 2.39873E+01    3.91592E+03
 2.40000E+01    3.91665E+03
 2.43386E+01    3.92623E+03
 2.46820E+01    3.93595E+03
 2.50000E+01    3.94564E+03
 2.53527E+01    3.95077E+03
 2.57104E+01    3.95596E+03
 2.60000E+01    3.96017E+03
 2.63668E+01    3.96365E+03
 2.67388E+01    3.96718E+03
 2.70000E+01    3.96966E+03
 2.73809E+01    3.97597E+03
 2.77672E+01    3.98236E+03
 2.80000E+01    3.98622E+03
 2.83950E+01    3.99732E+03
 2.87956E+01    4.00859E+03
 2.90000E+01    4.01433E+03
 2.94091E+01    4.02796E+03
 2.98240E+01    4.04178E+03
 3.00000E+01    4.04765E+03
 3.00000E+01    4.05424E+03
 3.20000E+01    4.13083E+03
 3.40000E+01    4.19597E+03
 3.60000E+01    4.25391E+03
 3.80000E+01    4.28970E+03
 4.00000E+01    4.32347E+03
 4.20000E+01    4.37677E+03
 4.40000E+01    4.42865E+03
 4.60000E+01    4.47084E+03
 4.80000E+01    4.51240E+03
 5.00000E+01    4.54571E+03
 5.20000E+01    4.57277E+03
 5.40000E+01    4.60836E+03
 5.60000E+01    4.63950E+03
 5.80000E+01    4.66652E+03
 6.00000E+01    4.69624E+03
 6.50000E+01    4.75355E+03
 7.00000E+01    4.81019E+03
 7.50000E+01    4.84949E+03
 8.00000E+01    4.89203E+03
 9.00000E+01    4.99377E+03
 1.00000E+02    5.28241E+03
 1.10000E+02    5.58864E+03
 1.20000E+02    5.91628E+03
 1.30000E+02    6.26101E+03
 1.40000E+02    6.64930E+03
 1.50000E+02    7.09404E+03
 1.60000E+02    7.60261E+03
 1.80000E+02    8.72900E+03
 2.00000E+02    9.50033E+03
