# n + Pt193 : (n,xd)    
# jendl.ad   K.Shibata (JAEA)                  EVAL-Jun15
# 
# # energies =    66
#   E(MeV)        xs(mb) 
 1.50563E-01    0.00000E+00
 1.88792E-01    0.00000E+00
 2.00000E-01    0.00000E+00
 2.00040E-01    0.00000E+00
 2.33374E-01    0.00000E+00
 2.71240E-01    0.00000E+00
 3.00000E-01    0.00000E+00
 3.09610E-01    0.00000E+00
 3.32730E-01    0.00000E+00
 3.41777E-01    0.00000E+00
 4.00000E-01    0.00000E+00
 4.27222E-01    0.00000E+00
 4.41345E-01    0.00000E+00
 4.61399E-01    0.00000E+00
 4.93567E-01    0.00000E+00
 4.93808E-01    0.00000E+00
 5.00000E-01    0.00000E+00
 5.22316E-01    0.00000E+00
 5.25261E-01    0.00000E+00
 5.32770E-01    0.00000E+00
 5.46844E-01    0.00000E+00
 5.65943E-01    0.00000E+00
 6.00000E-01    0.00000E+00
 6.02131E-01    0.00000E+00
 6.06454E-01    0.00000E+00
 6.25251E-01    0.00000E+00
 6.33293E-01    0.00000E+00
 6.45356E-01    0.00000E+00
 6.68476E-01    0.00000E+00
 6.95617E-01    0.00000E+00
 7.00000E-01    0.00000E+00
 8.00000E-01    0.00000E+00
 9.00000E-01    0.00000E+00
 1.00000E+00    0.00000E+00
 1.50000E+00    0.00000E+00
 2.00000E+00    0.00000E+00
 2.50000E+00    0.00000E+00
 2.53000E+00    0.00000E+00
 3.00000E+00    0.00000E+00
 3.50000E+00    0.00000E+00
 4.00000E+00    0.00000E+00
 4.50000E+00    0.00000E+00
 4.55000E+00    0.00000E+00
 4.64000E+00    0.00000E+00
 5.00000E+00    4.69028E-24
 5.50000E+00    1.36316E-23
 6.00000E+00    2.25730E-23
 6.50000E+00    2.11420E-17
 7.00000E+00    1.28700E-13
 7.50000E+00    5.80310E-11
 8.00000E+00    4.16130E-09
 8.50000E+00    1.49900E-07
 9.00000E+00    2.59966E-06
 9.50000E+00    2.61054E-05
 1.00000E+01    1.74525E-04
 1.10000E+01    3.21829E-03
 1.20000E+01    2.64393E-02
 1.30000E+01    1.24993E-01
 1.40000E+01    3.81542E-01
 1.45000E+01    5.90901E-01
 1.50000E+01    8.79216E-01
 1.60000E+01    1.63156E+00
 1.70000E+01    2.52264E+00
 1.80000E+01    3.60734E+00
 1.90000E+01    4.76281E+00
 2.00000E+01    6.04529E+00
