# n + Pt193 : (n,xt)    
# jendl.ad   K.Shibata (JAEA)                  EVAL-Jun15
# 
# # energies =    66
#   E(MeV)        xs(mb) 
 1.50563E-01    0.00000E+00
 1.88792E-01    0.00000E+00
 2.00000E-01    0.00000E+00
 2.00040E-01    0.00000E+00
 2.33374E-01    0.00000E+00
 2.71240E-01    0.00000E+00
 3.00000E-01    0.00000E+00
 3.09610E-01    0.00000E+00
 3.32730E-01    0.00000E+00
 3.41777E-01    0.00000E+00
 4.00000E-01    0.00000E+00
 4.27222E-01    0.00000E+00
 4.41345E-01    0.00000E+00
 4.61399E-01    0.00000E+00
 4.93567E-01    0.00000E+00
 4.93808E-01    0.00000E+00
 5.00000E-01    0.00000E+00
 5.22316E-01    0.00000E+00
 5.25261E-01    0.00000E+00
 5.32770E-01    0.00000E+00
 5.46844E-01    0.00000E+00
 5.65943E-01    0.00000E+00
 6.00000E-01    0.00000E+00
 6.02131E-01    0.00000E+00
 6.06454E-01    0.00000E+00
 6.25251E-01    0.00000E+00
 6.33293E-01    0.00000E+00
 6.45356E-01    0.00000E+00
 6.68476E-01    0.00000E+00
 6.95617E-01    0.00000E+00
 7.00000E-01    0.00000E+00
 8.00000E-01    0.00000E+00
 9.00000E-01    0.00000E+00
 1.00000E+00    0.00000E+00
 1.50000E+00    0.00000E+00
 2.00000E+00    0.00000E+00
 2.50000E+00    0.00000E+00
 2.53000E+00    0.00000E+00
 3.00000E+00    0.00000E+00
 3.50000E+00    0.00000E+00
 4.00000E+00    0.00000E+00
 4.50000E+00    0.00000E+00
 4.55000E+00    0.00000E+00
 4.64000E+00    0.00000E+00
 5.00000E+00    5.26073E-28
 5.50000E+00    1.33224E-27
 6.00000E+00    2.13840E-27
 6.50000E+00    8.12040E-21
 7.00000E+00    1.02590E-16
 7.50000E+00    6.23310E-14
 8.00000E+00    6.00520E-12
 8.50000E+00    1.73580E-10
 9.00000E+00    2.25900E-09
 9.50000E+00    1.88510E-08
 1.00000E+01    1.40290E-07
 1.10000E+01    6.23196E-06
 1.20000E+01    1.22728E-04
 1.30000E+01    1.20245E-03
 1.40000E+01    7.10408E-03
 1.45000E+01    1.42365E-02
 1.50000E+01    2.71740E-02
 1.60000E+01    7.49393E-02
 1.70000E+01    1.59252E-01
 1.80000E+01    2.80172E-01
 1.90000E+01    4.34242E-01
 2.00000E+01    6.10909E-01
