# n + Si 28 : (n,p01)   
# jendl4.0   K.Shibata, S.Kunieda              EVAL-AUG07
# uncertainties: n
# # energies =   182
#   E(MeV)       xs(mb) 
 4.03191E+00    0.00000E+00
 4.50000E+00    4.78800E-03
 5.00000E+00    1.37400E+00
 5.50000E+00    2.72900E+01
 5.51300E+00    2.76886E+01
 5.51300E+00    2.19000E+01
 5.52800E+00    2.30500E+01
 5.54300E+00    1.02500E+01
 5.55800E+00    9.12000E+01
 5.57300E+00    5.85500E+01
 5.58800E+00    4.41000E+01
 5.60300E+00    2.47500E+01
 5.61800E+00    5.10000E+01
 5.63300E+00    4.55500E+01
 5.64900E+00    3.72000E+01
 5.66400E+00    2.08500E+01
 5.67900E+00    2.24000E+01
 5.69500E+00    4.20000E+01
 5.71100E+00    4.21500E+01
 5.72600E+00    5.54500E+01
 5.74200E+00    2.12500E+01
 5.75800E+00    2.12500E+01
 5.77300E+00    3.14000E+01
 5.78900E+00    5.27000E+01
 5.80500E+00    6.63500E+01
 5.82100E+00    3.65000E+01
 5.83700E+00    3.16000E+01
 5.85300E+00    7.26000E+01
 5.87000E+00    6.98500E+01
 5.88600E+00    5.27000E+01
 5.90200E+00    2.44500E+01
 5.91900E+00    2.24500E+01
 5.93500E+00    3.63500E+01
 5.95200E+00    7.38500E+01
 5.96800E+00    8.16500E+01
 5.98500E+00    4.37000E+01
 6.00200E+00    1.79500E+01
 6.01900E+00    1.36000E+01
 6.03600E+00    1.92500E+01
 6.05300E+00    3.33000E+01
 6.07000E+00    3.30500E+01
 6.08700E+00    2.48000E+01
 6.10400E+00    2.91000E+01
 6.12100E+00    2.84500E+01
 6.13900E+00    2.47000E+01
 6.15600E+00    2.36000E+01
 6.17300E+00    2.10000E+01
 6.19100E+00    2.19500E+01
 6.20900E+00    2.45500E+01
 6.22600E+00    2.29000E+01
 6.24400E+00    2.38500E+01
 6.26200E+00    3.36500E+01
 6.28000E+00    2.72500E+01
 6.29800E+00    1.30500E+01
 6.31600E+00    1.49500E+01
 6.33400E+00    2.58500E+01
 6.35300E+00    3.09000E+01
 6.37100E+00    4.57500E+01
 6.38900E+00    7.12000E+01
 6.40800E+00    6.30500E+01
 6.42600E+00    5.44500E+01
 6.44500E+00    5.01000E+01
 6.46400E+00    6.13000E+01
 6.48300E+00    6.73000E+01
 6.50200E+00    4.15500E+01
 6.52100E+00    4.29000E+01
 6.54000E+00    3.46000E+01
 6.55900E+00    3.00500E+01
 6.57800E+00    3.07000E+01
 6.59700E+00    2.86500E+01
 6.61700E+00    3.27500E+01
 6.63600E+00    3.36000E+01
 6.65600E+00    3.34000E+01
 6.67600E+00    3.89000E+01
 6.69500E+00    4.29000E+01
 6.71500E+00    4.02000E+01
 6.73500E+00    3.65500E+01
 6.75500E+00    4.76000E+01
 6.77500E+00    5.70500E+01
 6.79500E+00    6.33000E+01
 6.81600E+00    5.09000E+01
 6.83600E+00    3.89500E+01
 6.85700E+00    4.78500E+01
 6.87700E+00    4.09000E+01
 6.89800E+00    3.50000E+01
 6.91900E+00    3.11000E+01
 6.93900E+00    3.48000E+01
 6.96000E+00    5.09000E+01
 6.98100E+00    4.11000E+01
 7.00300E+00    8.75500E+01
 7.02400E+00    9.20500E+01
 7.04500E+00    9.22500E+01
 7.06700E+00    9.71000E+01
 7.08800E+00    9.15000E+01
 7.11000E+00    5.87500E+01
 7.13200E+00    5.80500E+01
 7.15300E+00    5.23500E+01
 7.17500E+00    8.00000E+01
 7.19700E+00    9.34000E+01
 7.21900E+00    8.51000E+01
 7.24200E+00    9.08500E+01
 7.26400E+00    9.46000E+01
 7.28600E+00    8.94000E+01
 7.30900E+00    8.20500E+01
 7.33200E+00    6.73500E+01
 7.35400E+00    5.83000E+01
 7.37700E+00    5.76500E+01
 7.40000E+00    5.72000E+01
 7.42300E+00    5.98500E+01
 7.44700E+00    8.09500E+01
 7.47000E+00    5.85000E+01
 7.49300E+00    4.60000E+01
 7.51700E+00    5.92000E+01
 7.54000E+00    6.78500E+01
 7.56400E+00    8.33000E+01
 7.58800E+00    7.90000E+01
 7.61200E+00    9.08000E+01
 7.63600E+00    8.04500E+01
 7.66000E+00    9.06500E+01
 7.68500E+00    7.70000E+01
 7.70900E+00    8.05000E+01
 7.73400E+00    5.82000E+01
 7.75800E+00    7.27000E+01
 7.78300E+00    7.35000E+01
 7.80800E+00    7.76500E+01
 7.83300E+00    6.17000E+01
 7.85800E+00    8.01000E+01
 7.88300E+00    7.78000E+01
 7.90900E+00    7.14500E+01
 7.93400E+00    6.13000E+01
 7.96000E+00    6.25000E+01
 7.98600E+00    5.88500E+01
 8.01200E+00    3.78500E+01
 8.03800E+00    3.99500E+01
 8.06400E+00    3.59500E+01
 8.09000E+00    2.96500E+01
 8.11600E+00    2.49500E+01
 8.14300E+00    3.08500E+01
 8.17000E+00    3.44000E+01
 8.19600E+00    3.95000E+01
 8.22300E+00    4.76500E+01
 8.25000E+00    2.47000E+01
 8.27800E+00    2.51000E+01
 8.30500E+00    2.49000E+01
 8.33200E+00    2.82000E+01
 8.36000E+00    4.01000E+01
 8.38800E+00    3.97500E+01
 8.41600E+00    4.92000E+01
 8.44400E+00    5.32500E+01
 8.47200E+00    4.85500E+01
 8.50000E+00    4.37000E+01
 8.52900E+00    4.84000E+01
 8.55700E+00    4.59000E+01
 8.58600E+00    4.56500E+01
 8.61500E+00    4.11500E+01
 8.64400E+00    5.13000E+01
 8.67300E+00    5.57000E+01
 8.70200E+00    4.61000E+01
 8.73200E+00    3.71500E+01
 8.76100E+00    3.85000E+01
 8.79100E+00    4.19500E+01
 8.82100E+00    4.57000E+01
 8.85100E+00    5.01000E+01
 8.88100E+00    4.14500E+01
 8.91200E+00    3.92000E+01
 8.94200E+00    2.84500E+01
 8.97300E+00    2.79500E+01
 8.97300E+00    3.40371E+01
 9.00000E+00    3.35900E+01
 9.50000E+00    2.69600E+01
 1.00000E+01    2.24900E+01
 1.10000E+01    1.59500E+01
 1.20000E+01    1.11500E+01
 1.30000E+01    7.56100E+00
 1.40000E+01    4.89100E+00
 1.45000E+01    3.84700E+00
 1.50000E+01    3.01100E+00
 1.60000E+01    1.83100E+00
 1.70000E+01    1.10600E+00
 1.80000E+01    6.63800E-01
 1.90000E+01    3.95700E-01
 2.00000E+01    2.29400E-01
