# n + Si 28 : (n,a00)   
# jendl4.0   K.Shibata, S.Kunieda              EVAL-AUG07
# uncertainties: n
# # energies =   127
#   E(MeV)       xs(mb) 
 4.00000E+00    0.00000E+00
 4.50000E+00    9.90200E-03
 5.00000E+00    3.46100E-01
 5.50000E+00    3.37100E+00
 5.85300E+00    1.27530E+01
 5.85300E+00    1.05000E+01
 5.87000E+00    3.55000E+01
 5.88600E+00    5.26000E+01
 5.90200E+00    2.15000E+01
 5.91900E+00    1.50000E+01
 5.93500E+00    9.30000E+00
 5.95200E+00    1.97000E+01
 5.96800E+00    2.64000E+01
 5.98500E+00    2.49000E+01
 6.00200E+00    1.28000E+01
 6.01900E+00    6.80000E+00
 6.03600E+00    1.04000E+01
 6.05300E+00    1.22000E+01
 6.07000E+00    8.10000E+00
 6.08700E+00    1.12000E+01
 6.10400E+00    1.23000E+01
 6.12100E+00    4.90000E+00
 6.13900E+00    3.30000E+00
 6.15600E+00    3.40000E+00
 6.17300E+00    4.70000E+00
 6.19100E+00    7.00000E+00
 6.20900E+00    1.33000E+01
 6.22600E+00    2.48000E+01
 6.24400E+00    3.08000E+01
 6.26200E+00    1.71000E+01
 6.28000E+00    1.49000E+01
 6.29800E+00    8.80000E+00
 6.31600E+00    6.20000E+00
 6.33400E+00    1.17000E+01
 6.35300E+00    2.44000E+01
 6.37100E+00    2.68000E+01
 6.38900E+00    2.41000E+01
 6.40800E+00    2.94000E+01
 6.42600E+00    3.65000E+01
 6.44500E+00    2.77000E+01
 6.46400E+00    2.57000E+01
 6.48300E+00    3.90000E+01
 6.50200E+00    2.16000E+01
 6.52100E+00    1.34000E+01
 6.54000E+00    2.34000E+01
 6.55900E+00    2.35000E+01
 6.57800E+00    1.71000E+01
 6.59700E+00    2.00000E+01
 6.61700E+00    2.01000E+01
 6.63600E+00    2.10000E+01
 6.65600E+00    2.78000E+01
 6.67600E+00    2.91000E+01
 6.69500E+00    2.00000E+01
 6.71500E+00    1.97000E+01
 6.73500E+00    1.97000E+01
 6.75500E+00    2.31000E+01
 6.77500E+00    2.34000E+01
 6.79500E+00    2.46000E+01
 6.81600E+00    2.25000E+01
 6.83600E+00    2.61000E+01
 6.85700E+00    3.98000E+01
 6.87700E+00    3.13000E+01
 6.89800E+00    2.95000E+01
 6.91900E+00    2.60000E+01
 6.93900E+00    2.92000E+01
 6.96000E+00    5.36000E+01
 6.98100E+00    3.13000E+01
 7.00300E+00    6.28000E+01
 7.02400E+00    5.49000E+01
 7.04500E+00    5.19000E+01
 7.06700E+00    7.17000E+01
 7.08800E+00    6.57000E+01
 7.11000E+00    4.68000E+01
 7.13200E+00    5.07000E+01
 7.15300E+00    3.88000E+01
 7.17500E+00    5.47000E+01
 7.19700E+00    5.09000E+01
 7.21900E+00    6.55000E+01
 7.24200E+00    7.16000E+01
 7.26400E+00    1.63800E+02
 7.28600E+00    1.18600E+02
 7.30900E+00    6.04000E+01
 7.33200E+00    4.63000E+01
 7.35400E+00    5.62000E+01
 7.37700E+00    7.29000E+01
 7.40000E+00    8.02000E+01
 7.42300E+00    8.38000E+01
 7.44700E+00    7.78000E+01
 7.47000E+00    6.42000E+01
 7.49300E+00    8.59000E+01
 7.51700E+00    1.01300E+02
 7.54000E+00    1.02300E+02
 7.56400E+00    1.44900E+02
 7.58800E+00    1.48400E+02
 7.61200E+00    1.36500E+02
 7.63600E+00    1.64000E+02
 7.66000E+00    1.55400E+02
 7.68500E+00    6.71000E+01
 7.70900E+00    4.38000E+01
 7.73400E+00    5.19000E+01
 7.75800E+00    8.71000E+01
 7.78300E+00    8.77000E+01
 7.80800E+00    9.31000E+01
 7.83300E+00    1.13000E+02
 7.85800E+00    2.04100E+02
 7.88300E+00    1.98300E+02
 7.90900E+00    1.55000E+02
 7.93400E+00    1.10900E+02
 7.96000E+00    1.35500E+02
 7.98600E+00    1.50500E+02
 7.98600E+00    9.15037E+01
 8.00000E+00    9.15600E+01
 8.50000E+00    8.70100E+01
 9.00000E+00    7.69800E+01
 9.50000E+00    6.42300E+01
 1.00000E+01    5.39900E+01
 1.10000E+01    3.64800E+01
 1.20000E+01    2.39500E+01
 1.30000E+01    1.50300E+01
 1.40000E+01    9.06400E+00
 1.45000E+01    6.99500E+00
 1.50000E+01    5.37800E+00
 1.60000E+01    3.16800E+00
 1.70000E+01    1.86600E+00
 1.80000E+01    1.10100E+00
 1.90000E+01    6.50900E-01
 2.00000E+01    3.88500E-01
