# n + Si 28 : (n,el)    
# jendl4.0   K.Shibata, S.Kunieda              EVAL-AUG07
# uncertainties: n
# # energies =   171
#   E(MeV)       xs(mb) 
 1.00000E-11    5.33433E+03
 1.00000E-07    1.96086E+03
 4.13990E-07    1.95803E+03
 5.31580E-07    1.95763E+03
 6.82560E-07    1.95719E+03
 8.76420E-07    1.95706E+03
 1.12540E-06    1.95697E+03
 1.44500E-06    1.95686E+03
 1.85540E-06    1.95672E+03
 2.37240E-06    1.95653E+03
 3.05900E-06    1.95629E+03
 3.92790E-06    1.95617E+03
 5.04350E-06    1.95616E+03
 6.47600E-06    1.95614E+03
 8.31530E-06    1.95612E+03
 1.06770E-05    1.95610E+03
 1.37100E-05    1.95607E+03
 1.76030E-05    1.95602E+03
 2.26030E-05    1.95597E+03
 2.92030E-05    1.95590E+03
 3.72670E-05    1.95581E+03
 4.78510E-05    1.95569E+03
 6.14420E-05    1.95554E+03
 7.88930E-05    1.95535E+03
 1.01300E-04    1.95511E+03
 1.30070E-04    1.95480E+03
 1.67020E-04    1.95439E+03
 2.14450E-04    1.95387E+03
 2.75360E-04    1.95321E+03
 3.53580E-04    1.95236E+03
 4.54000E-04    1.95126E+03
 5.82950E-04    1.94985E+03
 7.48520E-04    1.94804E+03
 9.61120E-04    1.94572E+03
 1.23410E-03    1.94274E+03
 1.58460E-03    1.93892E+03
 2.03470E-03    1.93565E+03
 2.24870E-03    1.93349E+03
 2.48520E-03    1.93173E+03
 2.61260E-03    1.93048E+03
 2.74650E-03    1.92846E+03
 3.03540E-03    1.92554E+03
 3.35460E-03    1.92232E+03
 3.70740E-03    1.91778E+03
 4.30740E-03    1.90920E+03
 5.53080E-03    1.89584E+03
 7.10170E-03    1.87869E+03
 9.11880E-03    1.85639E+03
 1.17090E-02    1.82425E+03
 1.50340E-02    1.78184E+03
 1.93050E-02    1.73930E+03
 2.18750E-02    1.71090E+03
 2.35790E-02    1.69561E+03
 2.41760E-02    1.68763E+03
 2.47880E-02    1.67446E+03
 2.60580E-02    1.65722E+03
 2.70000E-02    1.63815E+03
 2.85000E-02    1.60000E+03
 3.18280E-02    1.54635E+03
 3.43070E-02    1.44557E+03
 4.08680E-02    1.24556E+03
 4.63090E-02    8.10977E+02
 5.24750E-02    9.65892E+03
 5.65620E-02    3.36137E+03
 6.73790E-02    1.86280E+03
 7.20000E-02    1.60165E+03
 7.95000E-02    1.45421E+03
 8.25000E-02    1.36820E+03
 8.65170E-02    1.19578E+03
 9.80370E-02    9.13015E+02
 1.11090E-01    6.83528E+02
 1.16790E-01    5.34232E+02
 1.22770E-01    3.74113E+02
 1.29070E-01    2.10492E+02
 1.35690E-01    6.93819E+01
 1.42640E-01    2.42499E+01
 1.49960E-01    2.88274E+02
 1.57640E-01    1.48004E+03
 1.65730E-01    5.03915E+03
 1.74220E-01    1.13045E+04
 1.83160E-01    1.46029E+04
 1.92550E-01    1.30027E+04
 2.02420E-01    1.05177E+04
 2.12800E-01    8.63850E+03
 2.23710E-01    7.34140E+03
 2.35180E-01    6.42950E+03
 2.47240E-01    5.51572E+03
 2.73240E-01    4.87422E+03
 2.87250E-01    4.63145E+03
 2.94520E-01    4.53033E+03
 2.97200E-01    4.49426E+03
 2.98500E-01    4.55507E+03
 3.01970E-01    4.19520E+03
 3.33730E-01    3.83229E+03
 3.68830E-01    3.59260E+03
 3.87740E-01    3.46113E+03
 4.07620E-01    3.28815E+03
 4.50490E-01    3.07967E+03
 4.97870E-01    2.95874E+03
 5.23400E-01    3.30394E+03
 5.50230E-01    7.24434E+03
 5.78440E-01    3.65143E+03
 6.08100E-01    2.94205E+03
 6.39280E-01    2.71766E+03
 6.72060E-01    2.56606E+03
 7.06510E-01    2.43679E+03
 7.42740E-01    2.46954E+03
 7.80820E-01    5.73120E+03
 8.20850E-01    5.35208E+03
 8.62940E-01    3.11872E+03
 9.07180E-01    4.98473E+03
 9.61640E-01    5.27933E+03
 1.00260E+00    3.58398E+03
 1.10800E+00    2.34515E+03
 1.16480E+00    2.92717E+03
 1.22460E+00    2.69163E+03
 1.28730E+00    2.88831E+03
 1.35340E+00    2.89627E+03
 1.42270E+00    2.97289E+03
 1.49570E+00    2.65196E+03
 1.57240E+00    4.72801E+03
 1.65300E+00    3.30714E+03
 1.73770E+00    2.22230E+03
 1.82680E+00    4.59687E+03
 1.92050E+00    3.58339E+03
 2.01900E+00    2.66882E+03
 2.12250E+00    2.48761E+03
 2.23130E+00    2.26621E+03
 2.30690E+00    2.02559E+03
 2.34570E+00    2.08241E+03
 2.36530E+00    2.39982E+03
 2.38520E+00    1.74344E+03
 2.46600E+00    2.89797E+03
 2.59240E+00    2.44119E+03
 2.72530E+00    2.27562E+03
 2.86500E+00    1.83560E+03
 3.01190E+00    2.22669E+03
 3.16640E+00    1.66754E+03
 3.32870E+00    1.64658E+03
 3.67880E+00    1.63448E+03
 4.06570E+00    1.82212E+03
 4.49330E+00    1.94652E+03
 4.72370E+00    2.15447E+03
 4.96590E+00    1.89365E+03
 5.22050E+00    1.24367E+03
 5.48810E+00    1.60867E+03
 5.76950E+00    1.53538E+03
 6.06530E+00    1.48882E+03
 6.37630E+00    1.06425E+03
 6.59240E+00    1.27143E+03
 6.70320E+00    1.26241E+03
 7.04690E+00    1.19374E+03
 7.40820E+00    1.17253E+03
 7.78800E+00    1.05313E+03
 8.18730E+00    1.03362E+03
 8.60710E+00    9.84769E+02
 9.04840E+00    9.42688E+02
 9.51230E+00    8.76456E+02
 1.00000E+01    8.84335E+02
 1.05130E+01    8.29906E+02
 1.10520E+01    8.17178E+02
 1.16180E+01    7.77972E+02
 1.22140E+01    7.16171E+02
 1.28400E+01    7.14373E+02
 1.34990E+01    7.29760E+02
 1.38400E+01    7.36982E+02
 1.41910E+01    7.51926E+02
 1.45500E+01    7.65350E+02
 1.49180E+01    7.78187E+02
 1.56830E+01    7.91411E+02
 1.64870E+01    8.12844E+02
