# n + Si 28 : (n,tot)   
# jendl4.0   K.Shibata, S.Kunieda              EVAL-AUG07
# uncertainties: n
# # energies =   171
#   E(MeV)       xs(mb) 
 1.00000E-11    7.16334E+03
 1.00000E-07    2.02177E+03
 4.13990E-07    1.99732E+03
 5.31580E-07    1.99228E+03
 6.82560E-07    1.98787E+03
 8.76420E-07    1.98407E+03
 1.12540E-06    1.98090E+03
 1.44500E-06    1.97810E+03
 1.85540E-06    1.97657E+03
 2.37240E-06    1.97462E+03
 3.05900E-06    1.97211E+03
 3.92790E-06    1.96927E+03
 5.04350E-06    1.96831E+03
 6.47600E-06    1.96760E+03
 8.31530E-06    1.96669E+03
 1.06770E-05    1.96551E+03
 1.37100E-05    1.96401E+03
 1.76030E-05    1.96220E+03
 2.26030E-05    1.96162E+03
 2.92030E-05    1.96143E+03
 3.72670E-05    1.96120E+03
 4.78510E-05    1.96089E+03
 6.14420E-05    1.96050E+03
 7.88930E-05    1.95999E+03
 1.01300E-04    1.95934E+03
 1.30070E-04    1.95851E+03
 1.67020E-04    1.95744E+03
 2.14450E-04    1.95607E+03
 2.75360E-04    1.95478E+03
 3.53580E-04    1.95390E+03
 4.54000E-04    1.95278E+03
 5.82950E-04    1.95134E+03
 7.48520E-04    1.94950E+03
 9.61120E-04    1.94713E+03
 1.23410E-03    1.94409E+03
 1.58460E-03    1.94018E+03
 2.03470E-03    1.93685E+03
 2.24870E-03    1.93464E+03
 2.48520E-03    1.93284E+03
 2.61260E-03    1.93156E+03
 2.74650E-03    1.92951E+03
 3.03540E-03    1.92653E+03
 3.35460E-03    1.92323E+03
 3.70740E-03    1.91861E+03
 4.30740E-03    1.90984E+03
 5.53080E-03    1.89621E+03
 7.10170E-03    1.87870E+03
 9.11880E-03    1.85623E+03
 1.17090E-02    1.82498E+03
 1.50340E-02    1.78175E+03
 1.93050E-02    1.73999E+03
 2.18750E-02    1.71116E+03
 2.35790E-02    1.69561E+03
 2.41760E-02    1.68751E+03
 2.47880E-02    1.67466E+03
 2.60580E-02    1.65768E+03
 2.70000E-02    1.63852E+03
 2.85000E-02    1.60212E+03
 3.18280E-02    1.54658E+03
 3.43070E-02    1.44568E+03
 4.08680E-02    1.24591E+03
 4.63090E-02    8.11573E+02
 5.24750E-02    9.68483E+03
 5.65620E-02    3.36282E+03
 6.73790E-02    1.90126E+03
 7.20000E-02    1.60183E+03
 7.95000E-02    1.45442E+03
 8.25000E-02    1.36967E+03
 8.65170E-02    1.20093E+03
 9.80370E-02    9.13245E+02
 1.11090E-01    6.83782E+02
 1.16790E-01    5.34518E+02
 1.22770E-01    3.74443E+02
 1.29070E-01    2.10882E+02
 1.35690E-01    6.98656E+01
 1.42640E-01    2.48838E+01
 1.49960E-01    2.89161E+02
 1.57640E-01    1.48136E+03
 1.65730E-01    5.04116E+03
 1.74220E-01    1.13069E+04
 1.83160E-01    1.46048E+04
 1.92550E-01    1.30039E+04
 2.02420E-01    1.05184E+04
 2.12800E-01    8.63891E+03
 2.23710E-01    7.34167E+03
 2.35180E-01    6.42969E+03
 2.47240E-01    5.51584E+03
 2.73240E-01    4.87430E+03
 2.87250E-01    4.63154E+03
 2.94520E-01    4.53042E+03
 2.97200E-01    4.49465E+03
 2.98500E-01    4.57242E+03
 3.01970E-01    4.19538E+03
 3.33730E-01    3.83329E+03
 3.68830E-01    3.59291E+03
 3.87740E-01    3.46158E+03
 4.07620E-01    3.28810E+03
 4.50490E-01    3.07967E+03
 4.97870E-01    2.95876E+03
 5.23400E-01    3.30562E+03
 5.50230E-01    7.24560E+03
 5.78440E-01    3.65622E+03
 6.08100E-01    2.94212E+03
 6.39280E-01    2.71772E+03
 6.72060E-01    2.56613E+03
 7.06510E-01    2.43719E+03
 7.42740E-01    2.47021E+03
 7.80820E-01    5.73261E+03
 8.20850E-01    5.35326E+03
 8.62940E-01    3.11948E+03
 9.07180E-01    4.98535E+03
 9.61640E-01    5.27983E+03
 1.00260E+00    3.58451E+03
 1.10800E+00    2.34556E+03
 1.16480E+00    2.92783E+03
 1.22460E+00    2.69211E+03
 1.28730E+00    2.88835E+03
 1.35340E+00    2.89677E+03
 1.42270E+00    2.97307E+03
 1.49570E+00    2.65231E+03
 1.57240E+00    4.72877E+03
 1.65300E+00    3.30760E+03
 1.73770E+00    2.22257E+03
 1.82680E+00    4.63476E+03
 1.92050E+00    3.71523E+03
 2.01900E+00    2.90464E+03
 2.12250E+00    2.79128E+03
 2.23130E+00    2.69192E+03
 2.30690E+00    2.45314E+03
 2.34570E+00    2.62657E+03
 2.36530E+00    2.99956E+03
 2.38520E+00    2.40402E+03
 2.46600E+00    3.37587E+03
 2.59240E+00    2.76420E+03
 2.72530E+00    2.77638E+03
 2.86500E+00    2.34037E+03
 3.01190E+00    2.66898E+03
 3.16640E+00    2.35511E+03
 3.32870E+00    2.19524E+03
 3.67880E+00    2.26355E+03
 4.06570E+00    2.36069E+03
 4.49330E+00    2.46586E+03
 4.72370E+00    2.68698E+03
 4.96590E+00    2.46440E+03
 5.22050E+00    1.85577E+03
 5.48810E+00    2.27380E+03
 5.76950E+00    2.22944E+03
 6.06530E+00    2.13965E+03
 6.37630E+00    1.76946E+03
 6.59240E+00    1.95192E+03
 6.70320E+00    1.99744E+03
 7.04690E+00    2.04180E+03
 7.40820E+00    2.08904E+03
 7.78800E+00    1.99487E+03
 8.18730E+00    1.96375E+03
 8.60710E+00    1.94681E+03
 9.04840E+00    1.91341E+03
 9.51230E+00    1.86009E+03
 1.00000E+01    1.87682E+03
 1.05130E+01    1.82950E+03
 1.10520E+01    1.83005E+03
 1.16180E+01    1.80814E+03
 1.22140E+01    1.75539E+03
 1.28400E+01    1.75270E+03
 1.34990E+01    1.75401E+03
 1.38400E+01    1.75530E+03
 1.41910E+01    1.75796E+03
 1.45500E+01    1.76087E+03
 1.49180E+01    1.76689E+03
 1.56830E+01    1.77750E+03
 1.64870E+01    1.79057E+03
