# n + Si 28 : (n,xa)    
# jendl4.0   K.Shibata, S.Kunieda              EVAL-AUG07
# 
# # energies =    83
#   E(MeV)        xs(mb) 
 1.84314E+00    0.00000E+00
 1.96000E+00    0.00000E+00
 2.01000E+00    0.00000E+00
 2.06000E+00    0.00000E+00
 2.11000E+00    0.00000E+00
 2.16000E+00    0.00000E+00
 2.20000E+00    0.00000E+00
 2.25000E+00    0.00000E+00
 2.30000E+00    0.00000E+00
 2.35000E+00    0.00000E+00
 2.40000E+00    0.00000E+00
 2.45000E+00    0.00000E+00
 2.51000E+00    0.00000E+00
 2.56000E+00    0.00000E+00
 2.61000E+00    0.00000E+00
 2.66000E+00    0.00000E+00
 2.76000E+00    0.00000E+00
 2.81000E+00    0.00000E+00
 2.86000E+00    0.00000E+00
 2.91000E+00    0.00000E+00
 2.96000E+00    0.00000E+00
 3.01000E+00    0.00000E+00
 3.06000E+00    0.00000E+00
 3.11000E+00    0.00000E+00
 3.16000E+00    0.00000E+00
 3.21000E+00    0.00000E+00
 3.26000E+00    0.00000E+00
 3.31000E+00    0.00000E+00
 3.36000E+00    0.00000E+00
 3.41000E+00    0.00000E+00
 3.46000E+00    0.00000E+00
 3.51000E+00    0.00000E+00
 3.56000E+00    0.00000E+00
 3.61000E+00    0.00000E+00
 3.66000E+00    0.00000E+00
 3.71000E+00    0.00000E+00
 3.76000E+00    0.00000E+00
 3.81000E+00    0.00000E+00
 3.86000E+00    0.00000E+00
 3.91000E+00    0.00000E+00
 3.96000E+00    0.00000E+00
 4.05000E+00    9.90204E-04
 4.15000E+00    2.97060E-03
 4.15000E+00    2.97080E-03
 4.50000E+00    9.90200E-03
 4.78439E+00    2.02103E-01
 5.00000E+00    3.47819E-01
 5.15944E+00    1.33627E+00
 5.50000E+00    3.44755E+00
 6.00000E+00    1.52839E+01
 6.50000E+00    2.98143E+01
 6.50248E+00    2.78473E+01
 6.93265E+00    4.69636E+01
 7.00000E+00    7.92144E+01
 7.12680E+00    7.63527E+01
 7.13603E+00    7.54189E+01
 7.50000E+00    1.34224E+02
 7.64670E+00    2.11517E+02
 7.68368E+00    1.24996E+02
 8.00000E+00    1.61014E+02
 8.08018E+00    1.64740E+02
 8.21953E+00    1.71214E+02
 8.50000E+00    1.84246E+02
 8.55645E+00    1.85857E+02
 8.62867E+00    1.87917E+02
 8.71663E+00    1.90426E+02
 8.85163E+00    1.94276E+02
 8.89835E+00    1.95609E+02
 9.00000E+00    1.98509E+02
 9.13696E+00    1.99626E+02
 9.50000E+00    2.06110E+02
 1.00000E+01    2.16835E+02
 1.10000E+01    2.27933E+02
 1.20000E+01    2.36551E+02
 1.30000E+01    2.38472E+02
 1.40000E+01    2.33046E+02
 1.45000E+01    2.29932E+02
 1.50000E+01    2.30162E+02
 1.60000E+01    2.34758E+02
 1.70000E+01    2.35487E+02
 1.80000E+01    2.30443E+02
 1.90000E+01    2.26090E+02
 2.00000E+01    2.21191E+02
