# n + Zn 66 : (n,xa)    
# jeff3.3    A.J. Koning and D. Rochman        EVAL-DEC15
# 
# # energies =   124
#   E(MeV)        xs(mb) 
 1.05513E+00    9.27620E-05
 1.20000E+00    1.53712E-04
 1.40000E+00    4.47223E-04
 1.60000E+00    1.29760E-03
 1.80000E+00    3.72102E-03
 1.90142E+00    7.39490E-03
 2.00000E+00    1.09659E-02
 2.20000E+00    2.31124E-02
 2.40000E+00    4.86421E-02
 2.40865E+00    5.12135E-02
 2.48851E+00    7.49538E-02
 2.60000E+00    1.08097E-01
 2.74496E+00    1.56578E-01
 2.80000E+00    1.74986E-01
 2.80507E+00    1.77906E-01
 2.80787E+00    1.79518E-01
 2.82269E+00    1.88053E-01
 2.86994E+00    2.15263E-01
 2.98303E+00    2.80390E-01
 3.00000E+00    2.90163E-01
 3.07636E+00    3.51133E-01
 3.12482E+00    3.89826E-01
 3.15255E+00    4.11967E-01
 3.20000E+00    4.49854E-01
 3.26173E+00    4.97365E-01
 3.27556E+00    5.08009E-01
 3.27829E+00    5.10110E-01
 3.29079E+00    5.19731E-01
 3.38241E+00    5.90247E-01
 3.40000E+00    6.03785E-01
 3.43267E+00    6.50970E-01
 3.47985E+00    7.19111E-01
 3.48492E+00    7.26434E-01
 3.56091E+00    8.36185E-01
 3.57751E+00    8.60160E-01
 3.58573E+00    8.72033E-01
 3.60000E+00    8.92642E-01
 3.63109E+00    9.37671E-01
 3.72688E+00    1.07814E+00
 3.74545E+00    1.10537E+00
 3.76615E+00    1.13572E+00
 3.78230E+00    1.15940E+00
 3.78869E+00    1.16877E+00
 3.80000E+00    1.18536E+00
 4.00000E+00    1.63353E+00
 4.20000E+00    2.18436E+00
 4.40000E+00    2.73518E+00
 4.60000E+00    3.57930E+00
 4.80000E+00    4.38244E+00
 5.00000E+00    5.33467E+00
 5.20000E+00    6.40520E+00
 5.40000E+00    7.46702E+00
 5.60000E+00    8.59629E+00
 5.80000E+00    9.70441E+00
 6.00000E+00    1.07369E+01
 6.20000E+00    1.16032E+01
 6.40000E+00    1.27037E+01
 6.60000E+00    1.33506E+01
 6.80000E+00    1.40351E+01
 7.00000E+00    1.46266E+01
 7.20000E+00    1.48839E+01
 7.40000E+00    1.58405E+01
 7.60000E+00    1.60770E+01
 7.80000E+00    1.65233E+01
 8.00000E+00    1.70125E+01
 8.50000E+00    1.82823E+01
 9.00000E+00    1.99735E+01
 9.50000E+00    2.27580E+01
 1.00000E+01    2.73418E+01
 1.05000E+01    3.61750E+01
 1.10000E+01    5.19718E+01
 1.15000E+01    6.96069E+01
 1.20000E+01    7.66761E+01
 1.25000E+01    7.83381E+01
 1.30000E+01    7.81027E+01
 1.35000E+01    7.64385E+01
 1.40000E+01    7.56821E+01
 1.45000E+01    7.46026E+01
 1.50000E+01    7.49935E+01
 1.60000E+01    7.70097E+01
 1.70000E+01    7.93866E+01
 1.80000E+01    8.28737E+01
 1.90000E+01    8.58323E+01
 2.00000E+01    8.82416E+01
 2.10000E+01    8.99453E+01
 2.20000E+01    9.09216E+01
 2.30000E+01    9.17282E+01
 2.40000E+01    9.23483E+01
 2.50000E+01    9.19800E+01
 2.60000E+01    9.18717E+01
 2.70000E+01    9.09564E+01
 2.80000E+01    8.94094E+01
 2.90000E+01    8.84270E+01
 3.00000E+01    8.66010E+01
 3.00000E+01    8.63068E+01
 3.20000E+01    8.36866E+01
 3.40000E+01    8.25774E+01
 3.60000E+01    8.27341E+01
 3.80000E+01    8.26561E+01
 4.00000E+01    8.18947E+01
 4.20000E+01    8.08816E+01
 4.40000E+01    7.94466E+01
 4.60000E+01    7.80831E+01
 4.80000E+01    7.88629E+01
 5.00000E+01    7.98953E+01
 5.20000E+01    8.12174E+01
 5.40000E+01    8.21401E+01
 5.60000E+01    8.33904E+01
 5.80000E+01    8.44283E+01
 6.00000E+01    8.50755E+01
 6.50000E+01    8.80547E+01
 7.00000E+01    9.18337E+01
 7.50000E+01    9.64829E+01
 8.00000E+01    1.01758E+02
 9.00000E+01    1.14107E+02
 1.00000E+02    1.27594E+02
 1.10000E+02    1.38916E+02
 1.20000E+02    1.48425E+02
 1.30000E+02    1.55255E+02
 1.40000E+02    1.61005E+02
 1.50000E+02    1.68579E+02
 1.60000E+02    1.78492E+02
 1.80000E+02    2.01785E+02
 2.00000E+02    2.28976E+02
