# n + Zn 66 : (n,n'06)  
# jeff3.3    A.J. Koning and D. Rochman        EVAL-DEC15
# uncertainties: n
# # energies =    80
#   E(MeV)       xs(mb) 
 2.80507E+00    0.00000E+00
 2.80787E+00    1.09148E+00
 2.82269E+00    6.86857E+00
 2.86994E+00    2.52873E+01
 2.98303E+00    6.93715E+01
 3.00000E+00    7.59866E+01
 3.07636E+00    8.61999E+01
 3.12482E+00    9.26815E+01
 3.15255E+00    9.63905E+01
 3.20000E+00    1.02737E+02
 3.26173E+00    1.04825E+02
 3.27556E+00    1.05292E+02
 3.27829E+00    1.05385E+02
 3.29079E+00    1.05807E+02
 3.38241E+00    1.08906E+02
 3.40000E+00    1.09501E+02
 3.43267E+00    1.08795E+02
 3.47985E+00    1.07776E+02
 3.48492E+00    1.07666E+02
 3.56091E+00    1.06025E+02
 3.57751E+00    1.05666E+02
 3.58573E+00    1.05488E+02
 3.60000E+00    1.05180E+02
 3.63109E+00    1.04250E+02
 3.72688E+00    1.01383E+02
 3.74545E+00    1.00827E+02
 3.76615E+00    1.00208E+02
 3.78230E+00    9.97247E+01
 3.78869E+00    9.95335E+01
 3.80000E+00    9.91950E+01
 4.00000E+00    8.77383E+01
 4.20000E+00    7.54984E+01
 4.40000E+00    6.38323E+01
 4.60000E+00    5.33259E+01
 4.80000E+00    4.41352E+01
 5.00000E+00    3.62961E+01
 5.20000E+00    2.97823E+01
 5.40000E+00    2.44074E+01
 5.60000E+00    2.00153E+01
 5.80000E+00    1.64443E+01
 6.00000E+00    1.35406E+01
 6.20000E+00    1.11624E+01
 6.40000E+00    9.21336E+00
 6.60000E+00    7.61626E+00
 6.80000E+00    6.30312E+00
 7.00000E+00    5.22194E+00
 7.20000E+00    4.33332E+00
 7.40000E+00    3.59804E+00
 7.60000E+00    2.99131E+00
 7.80000E+00    2.49127E+00
 8.00000E+00    2.07795E+00
 8.50000E+00    1.32630E+00
 9.00000E+00    8.53138E-01
 9.50000E+00    5.53130E-01
 1.00000E+01    3.61555E-01
 1.05000E+01    2.38215E-01
 1.10000E+01    1.58163E-01
 1.15000E+01    1.05735E-01
 1.20000E+01    7.10266E-02
 1.25000E+01    4.79083E-02
 1.30000E+01    3.23889E-02
 1.35000E+01    2.19611E-02
 1.40000E+01    1.49365E-02
 1.45000E+01    1.01956E-02
 1.50000E+01    6.98221E-03
 1.60000E+01    3.30869E-03
 1.70000E+01    1.58941E-03
 1.80000E+01    7.75638E-04
 1.90000E+01    3.82341E-04
 2.00000E+01    1.90888E-04
 2.10000E+01    9.66626E-05
 2.20000E+01    4.94316E-05
 2.30000E+01    2.55956E-05
 2.40000E+01    1.34180E-05
 2.50000E+01    7.01138E-06
 2.60000E+01    3.73978E-06
 2.70000E+01    2.01287E-06
 2.80000E+01    1.08171E-06
 2.90000E+01    5.90250E-07
 3.00000E+01    3.23770E-07
