# n + Zn 66 : (n,xp)    
# jeff3.3    A.J. Koning and D. Rochman        EVAL-DEC15
# 
# # energies =   124
#   E(MeV)        xs(mb) 
 1.05513E+00    0.00000E+00
 1.20000E+00    0.00000E+00
 1.40000E+00    0.00000E+00
 1.60000E+00    0.00000E+00
 1.80000E+00    0.00000E+00
 1.90142E+00    3.33060E-10
 2.00000E+00    2.62266E-09
 2.20000E+00    7.26783E-09
 2.40000E+00    1.19130E-08
 2.40865E+00    1.21875E-07
 2.48851E+00    1.13710E-06
 2.60000E+00    2.55443E-06
 2.74496E+00    7.54357E-05
 2.80000E+00    1.03108E-04
 2.80507E+00    1.32338E-04
 2.80787E+00    1.48481E-04
 2.82269E+00    2.33923E-04
 2.86994E+00    5.06334E-04
 2.98303E+00    1.15833E-03
 3.00000E+00    1.25617E-03
 3.07636E+00    3.78660E-03
 3.12482E+00    5.39247E-03
 3.15255E+00    6.31139E-03
 3.20000E+00    7.88380E-03
 3.26173E+00    1.51214E-02
 3.27556E+00    1.67429E-02
 3.27829E+00    1.70629E-02
 3.29079E+00    1.85285E-02
 3.38241E+00    2.92705E-02
 3.40000E+00    3.13329E-02
 3.43267E+00    4.15381E-02
 3.47985E+00    5.62761E-02
 3.48492E+00    5.78598E-02
 3.56091E+00    8.15973E-02
 3.57751E+00    8.67827E-02
 3.58573E+00    8.93504E-02
 3.60000E+00    9.38080E-02
 3.63109E+00    1.14111E-01
 3.72688E+00    1.76667E-01
 3.74545E+00    1.88794E-01
 3.76615E+00    2.02312E-01
 3.78230E+00    2.12859E-01
 3.78869E+00    2.17032E-01
 3.80000E+00    2.24418E-01
 4.00000E+00    4.61269E-01
 4.20000E+00    8.42435E-01
 4.40000E+00    1.38654E+00
 4.60000E+00    2.10607E+00
 4.80000E+00    3.00416E+00
 5.00000E+00    4.07017E+00
 5.20000E+00    5.28702E+00
 5.40000E+00    6.63435E+00
 5.60000E+00    8.08733E+00
 5.80000E+00    9.62326E+00
 6.00000E+00    1.12291E+01
 6.20000E+00    1.28666E+01
 6.40000E+00    1.45231E+01
 6.60000E+00    1.61870E+01
 6.80000E+00    1.78457E+01
 7.00000E+00    1.95691E+01
 7.20000E+00    2.11576E+01
 7.40000E+00    2.25882E+01
 7.60000E+00    2.45366E+01
 7.80000E+00    2.58917E+01
 8.00000E+00    2.78097E+01
 8.50000E+00    3.19440E+01
 9.00000E+00    3.61785E+01
 9.50000E+00    4.05396E+01
 1.00000E+01    4.50322E+01
 1.05000E+01    4.98978E+01
 1.10000E+01    5.86551E+01
 1.15000E+01    7.21585E+01
 1.20000E+01    8.05658E+01
 1.25000E+01    8.47079E+01
 1.30000E+01    8.88999E+01
 1.35000E+01    9.25352E+01
 1.40000E+01    9.62291E+01
 1.45000E+01    1.00308E+02
 1.50000E+01    1.05460E+02
 1.60000E+01    1.16101E+02
 1.70000E+01    1.26712E+02
 1.80000E+01    1.37759E+02
 1.90000E+01    1.48234E+02
 2.00000E+01    1.59304E+02
 2.10000E+01    1.69273E+02
 2.20000E+01    1.78894E+02
 2.30000E+01    1.88600E+02
 2.40000E+01    1.98801E+02
 2.50000E+01    2.09619E+02
 2.60000E+01    2.19925E+02
 2.70000E+01    2.29696E+02
 2.80000E+01    2.38121E+02
 2.90000E+01    2.47329E+02
 3.00000E+01    2.55468E+02
 3.00000E+01    2.55519E+02
 3.20000E+01    2.72320E+02
 3.40000E+01    2.91833E+02
 3.60000E+01    3.13050E+02
 3.80000E+01    3.32677E+02
 4.00000E+01    3.49235E+02
 4.20000E+01    3.64075E+02
 4.40000E+01    3.77523E+02
 4.60000E+01    3.92008E+02
 4.80000E+01    4.06608E+02
 5.00000E+01    4.24778E+02
 5.20000E+01    4.40195E+02
 5.40000E+01    4.56745E+02
 5.60000E+01    4.70373E+02
 5.80000E+01    4.83162E+02
 6.00000E+01    4.94819E+02
 6.50000E+01    5.24824E+02
 7.00000E+01    5.53073E+02
 7.50000E+01    5.77570E+02
 8.00000E+01    6.00479E+02
 9.00000E+01    6.44822E+02
 1.00000E+02    6.85684E+02
 1.10000E+02    7.28871E+02
 1.20000E+02    7.75267E+02
 1.30000E+02    8.25277E+02
 1.40000E+02    8.81761E+02
 1.50000E+02    9.49077E+02
 1.60000E+02    1.02762E+03
 1.80000E+02    1.20435E+03
 2.00000E+02    1.39311E+03
