# n + Zn 66 : (n,n'11)  
# jeff3.3    A.J. Koning and D. Rochman        EVAL-DEC15
# uncertainties: n
# # energies =    74
#   E(MeV)       xs(mb) 
 3.07636E+00    0.00000E+00
 3.12482E+00    7.11390E+00
 3.15255E+00    1.11846E+01
 3.20000E+00    1.81503E+01
 3.26173E+00    2.00147E+01
 3.27556E+00    2.04324E+01
 3.27829E+00    2.05149E+01
 3.29079E+00    2.08924E+01
 3.38241E+00    2.36596E+01
 3.40000E+00    2.41909E+01
 3.43267E+00    2.42173E+01
 3.47985E+00    2.42554E+01
 3.48492E+00    2.42595E+01
 3.56091E+00    2.43209E+01
 3.57751E+00    2.43343E+01
 3.58573E+00    2.43410E+01
 3.60000E+00    2.43525E+01
 3.63109E+00    2.41210E+01
 3.72688E+00    2.34078E+01
 3.74545E+00    2.32696E+01
 3.76615E+00    2.31154E+01
 3.78230E+00    2.29952E+01
 3.78869E+00    2.29476E+01
 3.80000E+00    2.28634E+01
 4.00000E+00    2.02422E+01
 4.20000E+00    1.75775E+01
 4.40000E+00    1.49493E+01
 4.60000E+00    1.25769E+01
 4.80000E+00    1.05325E+01
 5.00000E+00    8.80131E+00
 5.20000E+00    7.33635E+00
 5.40000E+00    6.11872E+00
 5.60000E+00    5.10109E+00
 5.80000E+00    4.25140E+00
 6.00000E+00    3.54754E+00
 6.20000E+00    2.95799E+00
 6.40000E+00    2.46407E+00
 6.60000E+00    2.05105E+00
 6.80000E+00    1.70533E+00
 7.00000E+00    1.41647E+00
 7.20000E+00    1.17635E+00
 7.40000E+00    9.76047E-01
 7.60000E+00    8.09827E-01
 7.80000E+00    6.72539E-01
 8.00000E+00    5.58929E-01
 8.50000E+00    3.52831E-01
 9.00000E+00    2.24237E-01
 9.50000E+00    1.43719E-01
 1.00000E+01    9.29985E-02
 1.05000E+01    6.07633E-02
 1.10000E+01    4.00726E-02
 1.15000E+01    2.66415E-02
 1.20000E+01    1.78079E-02
 1.25000E+01    1.19534E-02
 1.30000E+01    8.04044E-03
 1.35000E+01    5.42299E-03
 1.40000E+01    3.66882E-03
 1.45000E+01    2.49198E-03
 1.50000E+01    1.69956E-03
 1.60000E+01    8.01904E-04
 1.70000E+01    3.85735E-04
 1.80000E+01    1.89150E-04
 1.90000E+01    9.36734E-05
 2.00000E+01    4.68455E-05
 2.10000E+01    2.36677E-05
 2.20000E+01    1.20364E-05
 2.30000E+01    6.18781E-06
 2.40000E+01    3.22107E-06
 2.50000E+01    1.67363E-06
 2.60000E+01    8.89350E-07
 2.70000E+01    4.77710E-07
 2.80000E+01    2.56480E-07
 2.90000E+01    1.39870E-07
 3.00000E+01    7.66570E-08
