# n + Zn 66 : (n,el)    
# jeff3.3    A.J. Koning and D. Rochman        EVAL-DEC15
# uncertainties: y
# # energies =    69
#   E(MeV)       xs(mb)       xslow(mb)      xsupp(mb)
 1.00000E-10    5.42013E+03    5.42013E+03    5.42013E+03
 5.00000E-09    3.93237E+03    3.93237E+03    3.93237E+03
 1.00000E-08    3.88646E+03    3.88646E+03    3.88646E+03
 1.50000E-08    3.86855E+03    3.86855E+03    3.86855E+03
 2.00000E-08    3.85877E+03    3.85877E+03    3.85877E+03
 2.50000E-08    3.85273E+03    3.85273E+03    3.85273E+03
 3.00000E-08    3.84844E+03    3.84844E+03    3.84844E+03
 3.50000E-08    3.84503E+03    3.84503E+03    3.84503E+03
 4.20000E-08    3.84180E+03    3.84180E+03    3.84180E+03
 5.00000E-08    3.83942E+03    3.83942E+03    3.83942E+03
 5.80000E-08    3.83745E+03    3.83745E+03    3.83745E+03
 6.70000E-08    3.83584E+03    3.83584E+03    3.83584E+03
 8.00000E-08    3.83382E+03    3.83382E+03    3.83382E+03
 1.00000E-07    3.83189E+03    3.83189E+03    3.83189E+03
 1.40000E-07    3.83022E+03    3.83022E+03    3.83022E+03
 1.80000E-07    3.82935E+03    3.82935E+03    3.82935E+03
 2.20000E-07    3.82858E+03    3.82858E+03    3.82858E+03
 2.50000E-07    3.82806E+03    3.82806E+03    3.82806E+03
 2.80000E-07    3.82791E+03    3.82791E+03    3.82791E+03
 3.00000E-07    3.82780E+03    3.82780E+03    3.82780E+03
 3.20000E-07    3.82767E+03    3.82767E+03    3.82767E+03
 3.50000E-07    3.82745E+03    3.82745E+03    3.82745E+03
 4.00000E-07    3.82705E+03    3.82705E+03    3.82705E+03
 5.00000E-07    3.82644E+03    3.82644E+03    3.82644E+03
 6.25000E-07    3.82596E+03    3.82596E+03    3.82596E+03
 7.80000E-07    3.82584E+03    3.82584E+03    3.82584E+03
 8.50000E-07    3.82577E+03    3.82577E+03    3.82577E+03
 9.10000E-07    3.82572E+03    3.82572E+03    3.82572E+03
 9.50000E-07    3.82569E+03    3.82569E+03    3.82569E+03
 9.72000E-07    3.82567E+03    3.82567E+03    3.82567E+03
 9.96000E-07    3.82564E+03    3.82564E+03    3.82564E+03
 1.02000E-06    3.82562E+03    3.82562E+03    3.82562E+03
 1.04500E-06    3.82559E+03    3.82559E+03    3.82559E+03
 1.07100E-06    3.82556E+03    3.82556E+03    3.82556E+03
 1.09700E-06    3.82554E+03    3.82554E+03    3.82554E+03
 1.12300E-06    3.82551E+03    3.82551E+03    3.82551E+03
 1.15000E-06    3.82542E+03    3.82542E+03    3.82542E+03
 1.30000E-06    3.82524E+03    3.82524E+03    3.82524E+03
 1.50000E-06    3.82485E+03    3.82485E+03    3.82485E+03
 2.10000E-06    3.82427E+03    3.82427E+03    3.82427E+03
 2.60000E-06    3.82366E+03    3.82366E+03    3.82366E+03
 3.30000E-06    3.82294E+03    3.82294E+03    3.82294E+03
 4.00000E-06    3.82000E+03    3.82000E+03    3.82000E+03
 9.87700E-06    3.81396E+03    3.81396E+03    3.81396E+03
 1.59680E-05    3.80651E+03    3.80651E+03    3.80651E+03
 2.77000E-05    3.79301E+03    3.79301E+03    3.79301E+03
 4.80520E-05    3.77249E+03    3.77249E+03    3.77249E+03
 7.55014E-05    3.73172E+03    3.73172E+03    3.73172E+03
 1.48728E-04    3.63154E+03    3.63154E+03    3.63154E+03
 3.67262E-04    3.34823E+03    3.34823E+03    3.34823E+03
 9.06898E-04    2.99030E+03    2.99030E+03    2.99030E+03
 1.42510E-03    2.63329E+03    2.63329E+03    2.63329E+03
 2.23945E-03    2.11355E+03    2.11355E+03    2.11355E+03
 3.51910E-03    4.60000E+03    4.60000E+03    4.60000E+03
 5.53000E-03    8.41450E+02    8.41450E+02    8.41450E+02
 9.11800E-03    2.63837E+04    2.63837E+04    2.63837E+04
 1.50300E-02    1.60008E+04    1.60008E+04    1.60008E+04
 2.47800E-02    7.35414E+03    7.35414E+03    7.35414E+03
 4.08500E-02    4.57554E+03    4.57554E+03    4.57554E+03
 6.73400E-02    4.35524E+03    4.35524E+03    4.35524E+03
 1.11000E-01    5.96610E+03    5.96610E+03    5.96610E+03
 1.83000E-01    6.32870E+03    6.32870E+03    6.32870E+03
 3.02000E-01    7.27399E+03    7.27399E+03    7.27399E+03
 5.00000E-01    4.80838E+03    4.80838E+03    4.80838E+03
 8.21000E-01    3.81490E+03    3.42832E+03    4.20149E+03
 1.35300E+00    2.69970E+03    2.50161E+03    2.89779E+03
 2.23100E+00    2.07236E+03    1.87499E+03    2.26973E+03
 3.67900E+00    1.94754E+03    1.78362E+03    2.11145E+03
 6.06500E+00    2.01630E+03    1.89408E+03    2.13852E+03
