# n + Se 77 : (n,tot)   
# endfb8.0   JNDC FP Nuclear Data W.G.         EVAL-MAR90
# uncertainties: n
# # energies =   171
#   E(MeV)       xs(mb) 
 1.00000E-11    4.70847E+05
 1.00000E-07    2.33914E+04
 4.13990E-07    1.79093E+04
 5.31580E-07    1.67147E+04
 6.82560E-07    1.56485E+04
 8.76420E-07    1.46935E+04
 1.12540E-06    1.38366E+04
 1.44500E-06    1.30628E+04
 1.85540E-06    1.23630E+04
 2.37240E-06    1.17164E+04
 3.05900E-06    1.11113E+04
 3.92790E-06    1.05566E+04
 5.04350E-06    1.00344E+04
 6.47600E-06    9.54537E+03
 8.31530E-06    9.08016E+03
 1.06770E-05    8.64260E+03
 1.37100E-05    8.22823E+03
 1.76030E-05    7.83879E+03
 2.26030E-05    7.47259E+03
 2.92030E-05    7.13525E+03
 3.72670E-05    6.82874E+03
 4.78510E-05    6.53880E+03
 6.14420E-05    6.26192E+03
 7.88930E-05    5.98773E+03
 1.01300E-04    7.28151E+03
 1.30070E-04    5.50760E+03
 1.67020E-04    1.28594E+05
 2.14450E-04    2.40576E+04
 2.75360E-04    2.13686E+04
 3.53580E-04    7.25512E+03
 4.54000E-04    6.67591E+03
 5.82950E-04    2.57486E+04
 7.48520E-04    1.55099E+04
 9.61120E-04    4.13149E+04
 1.23410E-03    1.94715E+04
 1.58460E-03    1.01757E+04
 2.03470E-03    7.35262E+03
 2.24870E-03    4.25474E+04
 2.48520E-03    3.97949E+04
 2.61260E-03    2.23594E+04
 2.74650E-03    1.71895E+04
 3.03540E-03    1.66984E+04
 3.35460E-03    1.62278E+04
 3.70740E-03    1.56714E+04
 4.30740E-03    1.48518E+04
 5.53080E-03    1.39268E+04
 7.10170E-03    1.31028E+04
 9.11880E-03    1.23698E+04
 1.17090E-02    1.17132E+04
 1.50340E-02    1.11211E+04
 1.93050E-02    1.07134E+04
 2.18750E-02    1.05083E+04
 2.35790E-02    1.04083E+04
 2.41760E-02    1.03596E+04
 2.47880E-02    1.02866E+04
 2.60580E-02    1.02047E+04
 2.70000E-02    1.01209E+04
 2.85000E-02    9.96971E+03
 3.18280E-02    9.80260E+03
 3.43070E-02    9.58566E+03
 4.08680E-02    9.33449E+03
 4.63090E-02    9.13269E+03
 5.24750E-02    8.97562E+03
 5.65620E-02    8.78487E+03
 6.73790E-02    8.60374E+03
 7.20000E-02    8.48219E+03
 7.95000E-02    8.38307E+03
 8.25000E-02    8.32217E+03
 8.65170E-02    8.19920E+03
 9.80370E-02    8.07334E+03
 1.11090E-01    8.05201E+03
 1.16790E-01    8.04036E+03
 1.22770E-01    8.02810E+03
 1.29070E-01    8.01521E+03
 1.35690E-01    8.00167E+03
 1.42640E-01    7.98743E+03
 1.49960E-01    7.97246E+03
 1.57640E-01    7.95672E+03
 1.65730E-01    7.94017E+03
 1.74220E-01    7.92278E+03
 1.83160E-01    7.90423E+03
 1.92550E-01    7.88001E+03
 2.02420E-01    7.85274E+03
 2.12800E-01    7.82407E+03
 2.23710E-01    7.79394E+03
 2.35180E-01    7.76225E+03
 2.47240E-01    7.71073E+03
 2.73240E-01    7.64989E+03
 2.87250E-01    7.61635E+03
 2.94520E-01    7.60068E+03
 2.97200E-01    7.59443E+03
 2.98500E-01    7.58695E+03
 3.01970E-01    7.52798E+03
 3.33730E-01    7.40421E+03
 3.68830E-01    7.30447E+03
 3.87740E-01    7.24303E+03
 4.07620E-01    7.14631E+03
 4.50490E-01    6.99909E+03
 4.97870E-01    6.87153E+03
 5.23400E-01    6.78061E+03
 5.50230E-01    6.68504E+03
 5.78440E-01    6.58456E+03
 6.08100E-01    6.47892E+03
 6.39280E-01    6.36882E+03
 6.72060E-01    6.26168E+03
 7.06510E-01    6.15107E+03
 7.42740E-01    6.03477E+03
 7.80820E-01    5.91860E+03
 8.20850E-01    5.80298E+03
 8.62940E-01    5.68145E+03
 9.07180E-01    5.55189E+03
 9.61640E-01    5.43301E+03
 1.00260E+00    5.26150E+03
 1.10800E+00    5.08429E+03
 1.16480E+00    4.97161E+03
 1.22460E+00    4.85820E+03
 1.28730E+00    4.75243E+03
 1.35340E+00    4.64676E+03
 1.42270E+00    4.54855E+03
 1.49570E+00    4.45334E+03
 1.57240E+00    4.36744E+03
 1.65300E+00    4.27976E+03
 1.73770E+00    4.19990E+03
 1.82680E+00    4.12673E+03
 1.92050E+00    4.05568E+03
 2.01900E+00    4.00362E+03
 2.12250E+00    3.96049E+03
 2.23130E+00    3.92292E+03
 2.30690E+00    3.89961E+03
 2.34570E+00    3.88773E+03
 2.36530E+00    3.88057E+03
 2.38520E+00    3.86395E+03
 2.46600E+00    3.82970E+03
 2.59240E+00    3.78673E+03
 2.72530E+00    3.74245E+03
 2.86500E+00    3.70062E+03
 3.01190E+00    3.68223E+03
 3.16640E+00    3.68169E+03
 3.32870E+00    3.68083E+03
 3.67880E+00    3.68051E+03
 4.06570E+00    3.72657E+03
 4.49330E+00    3.78358E+03
 4.72370E+00    3.82420E+03
 4.96590E+00    3.87255E+03
 5.22050E+00    3.93878E+03
 5.48810E+00    4.00927E+03
 5.76950E+00    4.08339E+03
 6.06530E+00    4.16130E+03
 6.37630E+00    4.22684E+03
 6.59240E+00    4.26562E+03
 6.70320E+00    4.31909E+03
 7.04690E+00    4.38612E+03
 7.40820E+00    4.43946E+03
 7.78800E+00    4.49077E+03
 8.18730E+00    4.50798E+03
 8.60710E+00    4.51808E+03
 9.04840E+00    4.50134E+03
 9.51230E+00    4.46513E+03
 1.00000E+01    4.40443E+03
 1.05130E+01    4.32119E+03
 1.10520E+01    4.23953E+03
 1.16180E+01    4.15792E+03
 1.22140E+01    4.06054E+03
 1.28400E+01    3.96041E+03
 1.34990E+01    3.88695E+03
 1.38400E+01    3.83908E+03
 1.41910E+01    3.79354E+03
 1.45500E+01    3.74894E+03
 1.49180E+01    3.68478E+03
 1.56830E+01    3.60013E+03
 1.64870E+01    3.50687E+03
