# n + Se 77 : (n,el)    
# endfb8.0   JNDC FP Nuclear Data W.G.         EVAL-MAR90
# uncertainties: n
# # energies =   171
#   E(MeV)       xs(mb) 
 1.00000E-11    1.60510E+04
 1.00000E-07    8.41849E+03
 4.13990E-07    8.38965E+03
 5.31580E-07    8.37633E+03
 6.82560E-07    8.35924E+03
 8.76420E-07    8.33786E+03
 1.12540E-06    8.31346E+03
 1.44500E-06    8.28257E+03
 1.85540E-06    8.24329E+03
 2.37240E-06    8.19242E+03
 3.05900E-06    8.12656E+03
 3.92790E-06    8.04428E+03
 5.04350E-06    7.95420E+03
 6.47600E-06    7.84231E+03
 8.31530E-06    7.70916E+03
 1.06770E-05    7.56051E+03
 1.37100E-05    7.39180E+03
 1.76030E-05    7.20540E+03
 2.26030E-05    7.00445E+03
 2.92030E-05    6.79571E+03
 3.72670E-05    6.58243E+03
 4.78510E-05    6.36001E+03
 6.14420E-05    6.12727E+03
 7.88930E-05    5.86019E+03
 1.01300E-04    5.59911E+03
 1.30070E-04    5.20192E+03
 1.67020E-04    1.04431E+05
 2.14450E-04    2.15743E+04
 2.75360E-04    9.41518E+03
 3.53580E-04    6.67568E+03
 4.54000E-04    5.71530E+03
 5.82950E-04    2.32031E+04
 7.48520E-04    1.14715E+04
 9.61120E-04    3.77187E+04
 1.23410E-03    1.57069E+04
 1.58460E-03    8.44386E+03
 2.03470E-03    6.63765E+03
 2.24870E-03    3.87893E+04
 2.48520E-03    3.68184E+04
 2.61260E-03    1.93136E+04
 2.74650E-03    1.58449E+04
 3.03540E-03    1.54237E+04
 3.35460E-03    1.50175E+04
 3.70740E-03    1.45350E+04
 4.30740E-03    1.38165E+04
 5.53080E-03    1.30016E+04
 7.10170E-03    1.22687E+04
 9.11880E-03    1.16176E+04
 1.17090E-02    1.10354E+04
 1.50340E-02    1.05145E+04
 1.93050E-02    1.01583E+04
 2.18750E-02    9.97764E+03
 2.35790E-02    9.88924E+03
 2.41760E-02    9.84609E+03
 2.47880E-02    9.78212E+03
 2.60580E-02    9.71117E+03
 2.70000E-02    9.63840E+03
 2.85000E-02    9.50704E+03
 3.18280E-02    9.36270E+03
 3.43070E-02    9.17445E+03
 4.08680E-02    8.95639E+03
 4.63090E-02    8.78092E+03
 5.24750E-02    8.64422E+03
 5.65620E-02    8.47727E+03
 6.73790E-02    8.31766E+03
 7.20000E-02    8.20997E+03
 7.95000E-02    8.12186E+03
 8.25000E-02    8.06753E+03
 8.65170E-02    7.95741E+03
 9.80370E-02    7.84825E+03
 1.11090E-01    7.83592E+03
 1.16790E-01    7.82965E+03
 1.22770E-01    7.82306E+03
 1.29070E-01    7.81612E+03
 1.35690E-01    7.80883E+03
 1.42640E-01    7.80117E+03
 1.49960E-01    7.79312E+03
 1.57640E-01    7.78465E+03
 1.65730E-01    7.77186E+03
 1.74220E-01    7.75294E+03
 1.83160E-01    7.73300E+03
 1.92550E-01    7.71205E+03
 2.02420E-01    7.69003E+03
 2.12800E-01    7.66652E+03
 2.23710E-01    7.64007E+03
 2.35180E-01    7.60564E+03
 2.47240E-01    7.45647E+03
 2.73240E-01    7.27640E+03
 2.87250E-01    7.18070E+03
 2.94520E-01    7.13821E+03
 2.97200E-01    7.12160E+03
 2.98500E-01    7.10175E+03
 3.01970E-01    6.95708E+03
 3.33730E-01    6.68865E+03
 3.68830E-01    6.49372E+03
 3.87740E-01    6.36803E+03
 4.07620E-01    6.18160E+03
 4.50490E-01    5.93070E+03
 4.97870E-01    5.73199E+03
 5.23400E-01    5.59372E+03
 5.50230E-01    5.45216E+03
 5.78440E-01    5.30546E+03
 6.08100E-01    5.15712E+03
 6.39280E-01    5.01458E+03
 6.72060E-01    4.87196E+03
 7.06510E-01    4.73011E+03
 7.42740E-01    4.59188E+03
 7.80820E-01    4.45583E+03
 8.20850E-01    4.31465E+03
 8.62940E-01    4.16708E+03
 9.07180E-01    4.00383E+03
 9.61640E-01    3.85126E+03
 1.00260E+00    3.64357E+03
 1.10800E+00    3.43380E+03
 1.16480E+00    3.29376E+03
 1.22460E+00    3.15629E+03
 1.28730E+00    3.02425E+03
 1.35340E+00    2.89718E+03
 1.42270E+00    2.77739E+03
 1.49570E+00    2.66363E+03
 1.57240E+00    2.55574E+03
 1.65300E+00    2.45259E+03
 1.73770E+00    2.35520E+03
 1.82680E+00    2.26545E+03
 1.92050E+00    2.17985E+03
 2.01900E+00    2.12272E+03
 2.12250E+00    2.07846E+03
 2.23130E+00    2.04154E+03
 2.30690E+00    2.02110E+03
 2.34570E+00    2.01071E+03
 2.36530E+00    2.00370E+03
 2.38520E+00    1.98588E+03
 2.46600E+00    1.94955E+03
 2.59240E+00    1.90846E+03
 2.72530E+00    1.86661E+03
 2.86500E+00    1.82419E+03
 3.01190E+00    1.81989E+03
 3.16640E+00    1.84357E+03
 3.32870E+00    1.88071E+03
 3.67880E+00    1.92954E+03
 4.06570E+00    2.02596E+03
 4.49330E+00    2.11940E+03
 4.72370E+00    2.18235E+03
 4.96590E+00    2.24924E+03
 5.22050E+00    2.32271E+03
 5.48810E+00    2.40022E+03
 5.76950E+00    2.47742E+03
 6.06530E+00    2.55386E+03
 6.37630E+00    2.61601E+03
 6.59240E+00    2.65446E+03
 6.70320E+00    2.70748E+03
 7.04690E+00    2.79680E+03
 7.40820E+00    2.87602E+03
 7.78800E+00    2.89723E+03
 8.18730E+00    2.92847E+03
 8.60710E+00    2.96066E+03
 9.04840E+00    2.96333E+03
 9.51230E+00    2.95639E+03
 1.00000E+01    2.93206E+03
 1.05130E+01    2.85812E+03
 1.10520E+01    2.81606E+03
 1.16180E+01    2.79076E+03
 1.22140E+01    2.70852E+03
 1.28400E+01    2.61323E+03
 1.34990E+01    2.54472E+03
 1.38400E+01    2.49882E+03
 1.41910E+01    2.44704E+03
 1.45500E+01    2.39211E+03
 1.49180E+01    2.30987E+03
 1.56830E+01    2.20281E+03
 1.64870E+01    2.09732E+03
