# n + Se 77 : (n,g)     
# endfb8.0   JNDC FP Nuclear Data W.G.         EVAL-MAR90
# uncertainties: n
# # energies =    69
#   E(MeV)       xs(mb) 
 1.00000E-10    2.93648E+05
 5.00000E-09    7.99266E+04
 1.00000E-08    6.05149E+04
 1.50000E-08    5.08295E+04
 2.00000E-08    4.47077E+04
 2.50000E-08    4.03796E+04
 3.00000E-08    3.71076E+04
 3.50000E-08    3.41056E+04
 4.20000E-08    3.11820E+04
 5.00000E-08    2.87493E+04
 5.80000E-08    2.67078E+04
 6.70000E-08    2.46318E+04
 8.00000E-08    2.22689E+04
 1.00000E-07    1.93430E+04
 1.40000E-07    1.66525E+04
 1.80000E-07    1.48362E+04
 2.20000E-07    1.36358E+04
 2.50000E-07    1.28157E+04
 2.80000E-07    1.22261E+04
 3.00000E-07    1.18113E+04
 3.20000E-07    1.13494E+04
 3.50000E-07    1.07109E+04
 4.00000E-07    9.76069E+03
 5.00000E-07    8.67574E+03
 6.25000E-07    7.70290E+03
 7.80000E-07    7.08429E+03
 8.50000E-07    6.79174E+03
 9.10000E-07    6.58703E+03
 9.50000E-07    6.46806E+03
 9.72000E-07    6.38397E+03
 9.96000E-07    6.29913E+03
 1.02000E-06    6.21592E+03
 1.04500E-06    6.13180E+03
 1.07100E-06    6.04915E+03
 1.09700E-06    5.97000E+03
 1.12300E-06    5.89118E+03
 1.15000E-06    5.65438E+03
 1.30000E-06    5.24223E+03
 1.50000E-06    4.56176E+03
 2.10000E-06    3.85751E+03
 2.60000E-06    3.33999E+03
 3.30000E-06    2.89158E+03
 4.00000E-06    1.95605E+03
 9.87700E-06    1.04781E+03
 1.59680E-05    6.01621E+02
 2.77000E-05    3.03102E+02
 4.80520E-05    1.59372E+02
 7.55014E-05    7.00290E+02
 1.48728E-04    1.07503E+04
 3.67262E-04    2.21766E+03
 9.06898E-04    3.75707E+03
 1.42510E-03    1.46071E+03
 2.23945E-03    2.21006E+03
 3.51910E-03    1.08731E+03
 5.53000E-03    8.79709E+02
 9.11800E-03    7.15061E+02
 1.50300E-02    5.73412E+02
 2.47800E-02    4.49847E+02
 4.08500E-02    3.39940E+02
 6.73400E-02    2.52004E+02
 1.11000E-01    1.89034E+02
 1.83000E-01    1.28006E+02
 3.02000E-01    5.67945E+01
 5.00000E-01    2.82750E+01
 8.21000E-01    1.61884E+01
 1.35300E+00    1.08041E+01
 2.23100E+00    6.91675E+00
 3.67900E+00    2.99789E+00
 6.06500E+00    1.28730E+00
