# n + Eu155 : (n,n'16)  
# tendl.2019 A.J. Koning and D. Rochman        EVAL-NOV19
# uncertainties: n
# # energies =    83
#   E(MeV)       xs(mb) 
 6.31382E-01    0.00000E+00
 7.00000E-01    5.53228E+01
 7.73431E-01    5.86913E+01
 7.87084E-01    5.93176E+01
 7.90332E-01    5.94666E+01
 8.00000E-01    5.99101E+01
 8.06386E-01    6.02640E+01
 8.22993E-01    6.11843E+01
 8.82540E-01    6.44843E+01
 8.87429E-01    6.47553E+01
 9.00000E-01    6.54519E+01
 9.17146E-01    6.67660E+01
 9.29158E-01    6.76865E+01
 9.50519E-01    6.93236E+01
 9.62577E-01    7.02477E+01
 9.73457E-01    7.10816E+01
 9.80333E-01    7.16085E+01
 9.83560E-01    7.18559E+01
 1.00000E+00    7.31158E+01
 1.20000E+00    8.31753E+01
 1.40000E+00    7.96107E+01
 1.60000E+00    6.52629E+01
 1.80000E+00    4.92888E+01
 2.00000E+00    3.60415E+01
 2.20000E+00    2.61961E+01
 2.40000E+00    1.91301E+01
 2.60000E+00    1.40650E+01
 2.80000E+00    1.03880E+01
 3.00000E+00    7.68736E+00
 3.20000E+00    5.68545E+00
 3.40000E+00    4.19389E+00
 3.60000E+00    3.08476E+00
 3.80000E+00    2.26684E+00
 4.00000E+00    1.66836E+00
 4.20000E+00    1.23485E+00
 4.40000E+00    9.22569E-01
 4.60000E+00    6.98975E-01
 4.80000E+00    5.39897E-01
 5.00000E+00    4.26590E-01
 5.20000E+00    3.45783E-01
 5.40000E+00    2.88588E-01
 5.60000E+00    2.48025E-01
 5.80000E+00    2.19455E-01
 6.00000E+00    1.99414E-01
 6.20000E+00    1.85680E-01
 6.40000E+00    1.76416E-01
 6.60000E+00    1.70246E-01
 6.80000E+00    1.66216E-01
 7.00000E+00    1.63650E-01
 7.20000E+00    1.61972E-01
 7.40000E+00    1.60811E-01
 7.60000E+00    1.59889E-01
 7.80000E+00    1.59009E-01
 8.00000E+00    1.58060E-01
 8.50000E+00    1.54980E-01
 9.00000E+00    1.50806E-01
 9.50000E+00    1.45872E-01
 1.00000E+01    1.40644E-01
 1.05000E+01    1.35504E-01
 1.10000E+01    1.30697E-01
 1.15000E+01    1.26317E-01
 1.20000E+01    1.22354E-01
 1.25000E+01    1.18730E-01
 1.30000E+01    1.15351E-01
 1.35000E+01    1.12142E-01
 1.40000E+01    1.09055E-01
 1.45000E+01    1.06075E-01
 1.50000E+01    1.03207E-01
 1.60000E+01    9.78608E-02
 1.70000E+01    9.31461E-02
 1.80000E+01    8.91632E-02
 1.90000E+01    8.59159E-02
 2.00000E+01    8.33002E-02
 2.10000E+01    8.11655E-02
 2.20000E+01    7.93504E-02
 2.30000E+01    7.76875E-02
 2.40000E+01    7.60163E-02
 2.50000E+01    7.42361E-02
 2.60000E+01    7.23523E-02
 2.70000E+01    7.04535E-02
 2.80000E+01    6.86469E-02
 2.90000E+01    6.70065E-02
 3.00000E+01    6.55500E-02
