# n + Eu155 : (n,n'18)  
# tendl.2019 A.J. Koning and D. Rochman        EVAL-NOV19
# uncertainties: n
# # energies =    80
#   E(MeV)       xs(mb) 
 7.87084E-01    0.00000E+00
 7.90332E-01    2.46525E-01
 8.00000E-01    9.80322E-01
 8.06386E-01    1.11749E+00
 8.22993E-01    1.47420E+00
 8.82540E-01    2.75322E+00
 8.87429E-01    2.85823E+00
 9.00000E-01    3.12825E+00
 9.17146E-01    3.85324E+00
 9.29158E-01    4.36114E+00
 9.50519E-01    5.26435E+00
 9.62577E-01    5.77419E+00
 9.73457E-01    6.23423E+00
 9.80333E-01    6.52497E+00
 9.83560E-01    6.66142E+00
 1.00000E+00    7.35655E+00
 1.20000E+00    1.95558E+01
 1.40000E+00    2.81061E+01
 1.60000E+00    2.84773E+01
 1.80000E+00    2.42289E+01
 2.00000E+00    1.91199E+01
 2.20000E+00    1.46782E+01
 2.40000E+00    1.11805E+01
 2.60000E+00    8.50477E+00
 2.80000E+00    6.46586E+00
 3.00000E+00    4.91298E+00
 3.20000E+00    3.72795E+00
 3.40000E+00    2.82205E+00
 3.60000E+00    2.13161E+00
 3.80000E+00    1.61003E+00
 4.00000E+00    1.21945E+00
 4.20000E+00    9.30464E-01
 4.40000E+00    7.18249E-01
 4.60000E+00    5.63689E-01
 4.80000E+00    4.51998E-01
 5.00000E+00    3.71428E-01
 5.20000E+00    3.13264E-01
 5.40000E+00    2.71579E-01
 5.60000E+00    2.41850E-01
 5.80000E+00    2.20790E-01
 6.00000E+00    2.06053E-01
 6.20000E+00    1.96077E-01
 6.40000E+00    1.89532E-01
 6.60000E+00    1.85390E-01
 6.80000E+00    1.82933E-01
 7.00000E+00    1.81609E-01
 7.20000E+00    1.80949E-01
 7.40000E+00    1.80638E-01
 7.60000E+00    1.80421E-01
 7.80000E+00    1.80129E-01
 8.00000E+00    1.79654E-01
 8.50000E+00    1.77317E-01
 9.00000E+00    1.73346E-01
 9.50000E+00    1.68215E-01
 1.00000E+01    1.62533E-01
 1.05000E+01    1.56802E-01
 1.10000E+01    1.51358E-01
 1.15000E+01    1.46354E-01
 1.20000E+01    1.41806E-01
 1.25000E+01    1.37646E-01
 1.30000E+01    1.33776E-01
 1.35000E+01    1.30106E-01
 1.40000E+01    1.26579E-01
 1.45000E+01    1.23171E-01
 1.50000E+01    1.19884E-01
 1.60000E+01    1.13734E-01
 1.70000E+01    1.08282E-01
 1.80000E+01    1.03654E-01
 1.90000E+01    9.98660E-02
 2.00000E+01    9.68122E-02
 2.10000E+01    9.43236E-02
 2.20000E+01    9.22154E-02
 2.30000E+01    9.02965E-02
 2.40000E+01    8.83807E-02
 2.50000E+01    8.63444E-02
 2.60000E+01    8.41831E-02
 2.70000E+01    8.19917E-02
 2.80000E+01    7.98945E-02
 2.90000E+01    7.79818E-02
 3.00000E+01    7.62804E-02
