# n + Cm247 : (n,tot)   
# jendl.ad   O.Iwamoto, T.Nakagawa, et al.     EVAL-FEB10
# uncertainties: n
# # energies =   171
#   E(MeV)       xs(mb) 
 1.00000E-11    1.67624E+06
 1.00000E-07    6.00539E+04
 4.13990E-07    5.23979E+04
 5.31580E-07    6.10222E+04
 6.82560E-07    9.18365E+04
 8.76420E-07    3.26815E+05
 1.12540E-06    2.62075E+06
 1.44500E-06    1.09824E+05
 1.85540E-06    3.86963E+04
 2.37240E-06    2.45590E+05
 3.05900E-06    7.98042E+05
 3.92790E-06    4.27627E+05
 5.04350E-06    6.47034E+04
 6.47600E-06    1.56246E+05
 8.31530E-06    8.52944E+04
 1.06770E-05    2.07151E+04
 1.37100E-05    1.07667E+04
 1.76030E-05    9.90573E+04
 2.26030E-05    2.59825E+03
 2.92030E-05    4.53998E+04
 3.72670E-05    2.02798E+04
 4.78510E-05    9.92905E+04
 6.14420E-05    9.62271E+04
 7.88930E-05    4.27595E+04
 1.01300E-04    3.10012E+04
 1.30070E-04    2.60689E+04
 1.67020E-04    3.43220E+04
 2.14450E-04    3.07572E+04
 2.75360E-04    2.08714E+04
 3.53580E-04    1.84968E+04
 4.54000E-04    1.96292E+04
 5.82950E-04    1.56710E+04
 7.48520E-04    1.38408E+04
 9.61120E-04    1.10534E+04
 1.23410E-03    9.87974E+03
 1.58460E-03    9.45951E+03
 2.03470E-03    8.83273E+03
 2.24870E-03    7.99777E+03
 2.48520E-03    7.42276E+03
 2.61260E-03    7.06528E+03
 2.74650E-03    6.56967E+03
 3.03540E-03    6.32582E+03
 3.35460E-03    6.34893E+03
 3.70740E-03    6.27468E+03
 4.30740E-03    5.37122E+03
 5.53080E-03    4.93046E+03
 7.10170E-03    4.29054E+03
 9.11880E-03    3.93200E+03
 1.17090E-02    3.64803E+03
 1.50340E-02    3.36858E+03
 1.93050E-02    3.17765E+03
 2.18750E-02    3.11801E+03
 2.35790E-02    3.08864E+03
 2.41760E-02    3.07453E+03
 2.47880E-02    3.05443E+03
 2.60580E-02    3.03125E+03
 2.70000E-02    3.00694E+03
 2.85000E-02    2.96140E+03
 3.18280E-02    2.91480E+03
 3.43070E-02    2.85035E+03
 4.08680E-02    2.77160E+03
 4.63090E-02    2.70431E+03
 5.24750E-02    2.65339E+03
 5.65620E-02    2.59377E+03
 6.73790E-02    2.53509E+03
 7.20000E-02    2.50221E+03
 7.95000E-02    2.47681E+03
 8.25000E-02    2.46435E+03
 8.65170E-02    2.43807E+03
 9.80370E-02    2.40525E+03
 1.11090E-01    2.39005E+03
 1.16790E-01    2.38207E+03
 1.22770E-01    2.37923E+03
 1.29070E-01    2.37734E+03
 1.35690E-01    2.37502E+03
 1.42640E-01    2.37234E+03
 1.49960E-01    2.37170E+03
 1.57640E-01    2.37331E+03
 1.65730E-01    2.37544E+03
 1.74220E-01    2.37798E+03
 1.83160E-01    2.38100E+03
 1.92550E-01    2.38419E+03
 2.02420E-01    2.38090E+03
 2.12800E-01    2.37457E+03
 2.23710E-01    2.36779E+03
 2.35180E-01    2.36047E+03
 2.47240E-01    2.33815E+03
 2.73240E-01    2.30428E+03
 2.87250E-01    2.28591E+03
 2.94520E-01    2.27726E+03
 2.97200E-01    2.27380E+03
 2.98500E-01    2.26942E+03
 3.01970E-01    2.23105E+03
 3.33730E-01    2.15625E+03
 3.68830E-01    2.09654E+03
 3.87740E-01    2.05524E+03
 4.07620E-01    2.00062E+03
 4.50490E-01    1.93269E+03
 4.97870E-01    1.88253E+03
 5.23400E-01    1.84536E+03
 5.50230E-01    1.80688E+03
 5.78440E-01    1.76992E+03
 6.08100E-01    1.74808E+03
 6.39280E-01    1.73152E+03
 6.72060E-01    1.71444E+03
 7.06510E-01    1.69864E+03
 7.42740E-01    1.68318E+03
 7.80820E-01    1.67046E+03
 8.20850E-01    1.67660E+03
 8.62940E-01    1.68635E+03
 9.07180E-01    1.69749E+03
 9.61640E-01    1.70847E+03
 1.00260E+00    1.74757E+03
 1.10800E+00    1.80033E+03
 1.16480E+00    1.83595E+03
 1.22460E+00    1.87269E+03
 1.28730E+00    1.91130E+03
 1.35340E+00    1.95007E+03
 1.42270E+00    1.98967E+03
 1.49570E+00    2.01745E+03
 1.57240E+00    2.02890E+03
 1.65300E+00    2.04082E+03
 1.73770E+00    2.05359E+03
 1.82680E+00    2.06703E+03
 1.92050E+00    2.07906E+03
 2.01900E+00    2.05138E+03
 2.12250E+00    2.00213E+03
 2.23130E+00    1.96219E+03
 2.30690E+00    1.93930E+03
 2.34570E+00    1.92763E+03
 2.36530E+00    1.91976E+03
 2.38520E+00    1.89988E+03
 2.46600E+00    1.86665E+03
 2.59240E+00    1.83937E+03
 2.72530E+00    1.81163E+03
 2.86500E+00    1.78458E+03
 3.01190E+00    1.76717E+03
 3.16640E+00    1.75624E+03
 3.32870E+00    1.73897E+03
 3.67880E+00    1.71481E+03
 4.06570E+00    1.68927E+03
 4.49330E+00    1.66823E+03
 4.72370E+00    1.65330E+03
 4.96590E+00    1.64745E+03
 5.22050E+00    1.65789E+03
 5.48810E+00    1.66915E+03
 5.76950E+00    1.68981E+03
 6.06530E+00    1.96716E+03
 6.37630E+00    2.29348E+03
 6.59240E+00    2.41259E+03
 6.70320E+00    2.54576E+03
 7.04690E+00    2.71052E+03
 7.40820E+00    2.84532E+03
 7.78800E+00    2.96135E+03
 8.18730E+00    3.03814E+03
 8.60710E+00    3.09664E+03
 9.04840E+00    3.12347E+03
 9.51230E+00    3.13378E+03
 1.00000E+01    3.14061E+03
 1.05130E+01    3.14766E+03
 1.10520E+01    3.15012E+03
 1.16180E+01    3.13225E+03
 1.22140E+01    3.09319E+03
 1.28400E+01    3.03855E+03
 1.34990E+01    2.99839E+03
 1.38400E+01    2.97483E+03
 1.41910E+01    2.95189E+03
 1.45500E+01    2.94025E+03
 1.49180E+01    2.92891E+03
 1.56830E+01    2.91446E+03
 1.64870E+01    2.91273E+03
