# n + W 186 : (n,xn)    
# jeff3.3    P.Pereslavtsev et al., +          EVAL-OCT13
# 
# # energies =   134
#   E(MeV)        xs(mb) 
 1.23245E-01    0.00000E+00
 1.50000E-01    1.46200E+02
 2.00000E-01    4.30000E+02
 3.00000E-01    7.31000E+02
 3.98700E-01    1.01480E+03
 3.98701E-01    1.01481E+03
 4.00000E-01    1.03300E+03
 5.00000E-01    1.20310E+03
 6.00000E-01    1.34700E+03
 7.00000E-01    1.43000E+03
 7.41500E-01    1.45651E+03
 7.41862E-01    1.45666E+03
 7.50000E-01    1.49134E+03
 8.00000E-01    1.60255E+03
 8.12900E-01    1.62778E+03
 8.12996E-01    1.62796E+03
 8.50000E-01    1.69626E+03
 8.66500E-01    1.70874E+03
 8.66756E-01    1.70890E+03
 8.86784E-01    1.76944E+03
 8.86800E-01    1.76954E+03
 9.00000E-01    1.84867E+03
 9.57600E-01    1.94533E+03
 9.57908E-01    1.94565E+03
 1.00000E+00    2.04581E+03
 1.01100E+00    2.05258E+03
 1.01213E+00    2.05324E+03
 1.02040E+00    2.07463E+03
 1.02100E+00    2.07695E+03
 1.03629E+00    2.13149E+03
 1.03700E+00    2.13411E+03
 1.05100E+00    2.18590E+03
 1.10000E+00    2.34436E+03
 1.15600E+00    2.50235E+03
 1.15923E+00    2.50379E+03
 1.20000E+00    2.56702E+03
 1.28600E+00    2.58148E+03
 1.28624E+00    2.58154E+03
 1.29100E+00    2.58391E+03
 1.29263E+00    2.58426E+03
 1.30000E+00    2.61648E+03
 1.30500E+00    2.63735E+03
 1.30586E+00    2.63790E+03
 1.32467E+00    2.66705E+03
 1.32600E+00    2.66920E+03
 1.40000E+00    2.72549E+03
 1.47100E+00    2.72458E+03
 1.47150E+00    2.72440E+03
 1.50000E+00    2.73186E+03
 1.52800E+00    2.73415E+03
 1.52842E+00    2.73390E+03
 1.60000E+00    2.82717E+03
 1.70000E+00    2.85412E+03
 1.80000E+00    2.87561E+03
 2.00000E+00    2.80946E+03
 2.10000E+00    2.74527E+03
 2.20000E+00    2.68715E+03
 2.30000E+00    2.64004E+03
 2.40000E+00    2.59703E+03
 2.50000E+00    2.57248E+03
 2.60000E+00    2.55793E+03
 2.75000E+00    2.56870E+03
 2.80000E+00    2.57412E+03
 3.00000E+00    2.62807E+03
 3.20000E+00    2.59787E+03
 3.40000E+00    2.58861E+03
 3.50000E+00    2.59337E+03
 3.60000E+00    2.60642E+03
 3.80000E+00    2.64512E+03
 4.00000E+00    2.69579E+03
 4.20000E+00    2.69152E+03
 4.40000E+00    2.69233E+03
 4.50000E+00    2.69484E+03
 4.60000E+00    2.69949E+03
 4.80000E+00    2.71097E+03
 5.00000E+00    2.72484E+03
 5.50000E+00    2.73496E+03
 6.00000E+00    2.75202E+03
 6.50000E+00    2.70692E+03
 7.00000E+00    2.66211E+03
 7.50000E+00    2.61654E+03
 8.00000E+00    3.11896E+03
 8.20000E+00    3.26253E+03
 8.40000E+00    3.40611E+03
 8.50000E+00    3.47790E+03
 8.60000E+00    3.54970E+03
 9.00000E+00    3.83691E+03
 9.50000E+00    4.08142E+03
 1.00000E+01    4.10427E+03
 1.05000E+01    4.16130E+03
 1.10000E+01    4.22819E+03
 1.15000E+01    4.22355E+03
 1.20000E+01    4.24532E+03
 1.25000E+01    4.27126E+03
 1.30000E+01    4.29923E+03
 1.35000E+01    4.32005E+03
 1.40000E+01    4.33748E+03
 1.45000E+01    4.35797E+03
 1.50000E+01    4.38295E+03
 1.55000E+01    4.53311E+03
 1.60000E+01    4.68293E+03
 1.65000E+01    4.85615E+03
 1.70000E+01    5.05647E+03
 1.75000E+01    5.22308E+03
 1.80000E+01    5.41615E+03
 1.85000E+01    5.44001E+03
 1.90000E+01    5.51066E+03
 1.95000E+01    5.47507E+03
 2.00000E+01    5.47263E+03
 2.00000E+01    5.47263E+03
 2.20000E+01    5.56935E+03
 2.40000E+01    5.79344E+03
 2.60000E+01    6.12163E+03
 2.80000E+01    6.37402E+03
 3.00000E+01    6.52075E+03
 3.50000E+01    6.79022E+03
 4.00000E+01    7.09466E+03
 4.50000E+01    7.27585E+03
 5.00000E+01    7.49054E+03
 5.50000E+01    7.67564E+03
 6.00000E+01    7.96858E+03
 6.50000E+01    8.21544E+03
 7.00000E+01    8.46253E+03
 7.50000E+01    8.57381E+03
 8.00000E+01    8.78148E+03
 8.50000E+01    8.95324E+03
 9.00000E+01    9.07024E+03
 9.50000E+01    9.22081E+03
 1.00000E+02    9.33716E+03
 1.10000E+02    9.55487E+03
 1.20000E+02    9.76811E+03
 1.30000E+02    9.94259E+03
 1.40000E+02    1.00889E+04
 1.50000E+02    1.02754E+04
