# n + Sr  0 : (n,xa)
# jeff3.3    A.J. Koning and D. Rochman        EVAL-DEC15
#
# # energies =   131
#   E(MeV)          xs(mb) 
 3.93042E-01    1.15770E-09
 4.00000E-01    1.19070E-09
 5.00000E-01    1.92199E-09
 6.00000E-01    3.30734E-09
 7.00000E-01    6.13368E-09
 8.00000E-01    1.27974E-08
 8.83479E-01    2.82152E-08
 9.00000E-01    3.12034E-08
 1.00000E+00    5.29226E-08
 1.20000E+00    1.06979E-07
 1.24268E+00    1.51160E-07
 1.26849E+00    1.77877E-07
 1.40000E+00    3.14013E-07
 1.60000E+00    6.52929E-07
 1.76019E+00    1.07086E-06
 1.76222E+00    1.07615E-06
 1.79101E+00    1.15127E-06
 1.80000E+00    1.17472E-06
 1.94277E+00    2.42079E-06
 2.00000E+00    2.92029E-06
 2.13454E+00    4.22232E-06
 2.17849E+00    4.64688E-06
 2.19460E+00    4.80250E-06
 2.20000E+00    4.85466E-06
 2.26165E+00    6.27645E-06
 2.28825E+00    6.88991E-06
 2.40000E+00    9.46712E-06
 2.44252E+00    1.10156E-05
 2.44849E+00    1.12330E-05
 2.51688E+00    1.37235E-05
 2.56220E+00    1.53740E-05
 2.56574E+00    1.55029E-05
 2.56847E+00    1.56023E-05
 2.57960E+00    1.60077E-05
 2.58465E+00    1.61916E-05
 2.60000E+00    1.67506E-05
 2.62613E+00    1.77213E-05
 2.66154E+00    1.90367E-05
 2.68683E+00    1.99762E-05
 2.70791E+00    2.07593E-05
 2.71009E+00    2.08403E-05
 2.71313E+00    2.09532E-05
 2.73892E+00    2.19113E-05
 2.80000E+00    2.41804E-05
 2.83568E+00    2.77432E-05
 2.85161E+00    2.93340E-05
 3.00000E+00    4.41518E-05
 3.20000E+00    6.69299E-05
 3.40000E+00    1.04848E-04
 3.60000E+00    1.67131E-04
 3.80000E+00    2.41966E-04
 4.00000E+00    3.59293E-04
 4.20000E+00    4.79398E-04
 4.40000E+00    6.16221E-04
 4.60000E+00    8.15074E-04
 4.80000E+00    1.02367E-03
 5.00000E+00    1.31452E-03
 5.20000E+00    1.67289E-03
 5.40000E+00    2.09619E-03
 5.60000E+00    2.69642E-03
 5.80000E+00    3.34939E-03
 6.00000E+00    4.21007E-03
 6.20000E+00    5.23152E-03
 6.40000E+00    6.52900E-03
 6.60000E+00    8.35790E-03
 6.80000E+00    1.01100E-02
 7.00000E+00    1.28224E-02
 7.20000E+00    1.60759E-02
 7.40000E+00    1.93651E-02
 7.60000E+00    2.52191E-02
 7.80000E+00    2.95438E-02
 8.00000E+00    3.84417E-02
 8.50000E+00    6.62467E-02
 9.00000E+00    1.12216E-01
 9.50000E+00    1.84487E-01
 1.00000E+01    2.91918E-01
 1.05000E+01    4.44712E-01
 1.10000E+01    6.46613E-01
 1.15000E+01    9.43676E-01
 1.20000E+01    1.35321E+00
 1.25000E+01    1.90016E+00
 1.30000E+01    2.60748E+00
 1.35000E+01    3.49162E+00
 1.40000E+01    4.57189E+00
 1.45000E+01    5.86223E+00
 1.50000E+01    7.37496E+00
 1.60000E+01    1.11296E+01
 1.70000E+01    1.59138E+01
 1.80000E+01    2.18759E+01
 1.90000E+01    2.89681E+01
 2.00000E+01    3.70118E+01
 2.10000E+01    4.51525E+01
 2.20000E+01    5.33237E+01
 2.30000E+01    6.00065E+01
 2.40000E+01    6.73018E+01
 2.50000E+01    7.47736E+01
 2.60000E+01    8.19269E+01
 2.70000E+01    8.87734E+01
 2.80000E+01    9.51025E+01
 2.90000E+01    1.00877E+02
 3.00000E+01    9.25959E+00
 3.00000E+01    9.25959E+00
 3.20000E+01    1.13989E+02
 3.40000E+01    1.19134E+02
 3.60000E+01    1.21229E+02
 3.80000E+01    1.21354E+02
 4.00000E+01    1.19692E+02
 4.20000E+01    1.16967E+02
 4.40000E+01    1.12006E+02
 4.60000E+01    1.06419E+02
 4.80000E+01    1.01034E+02
 5.00000E+01    9.53100E+01
 5.20000E+01    8.95310E+01
 5.40000E+01    8.32979E+01
 5.60000E+01    7.64552E+01
 5.80000E+01    6.97203E+01
 6.00000E+01    6.30883E+01
 6.50000E+01    6.17548E+01
 7.00000E+01    6.57713E+01
 7.50000E+01    7.01229E+01
 8.00000E+01    7.46778E+01
 9.00000E+01    8.70326E+01
 1.00000E+02    1.03547E+02
 1.10000E+02    1.20403E+02
 1.20000E+02    1.39980E+02
 1.30000E+02    1.60588E+02
 1.40000E+02    1.81571E+02
 1.50000E+02    2.03440E+02
 1.60000E+02    2.25106E+02
 1.80000E+02    2.80285E+02
 2.00000E+02    3.45867E+02
