# n + Sr  0 : (n,n'01)
# jeff3.3    A.J. Koning and D. Rochman        EVAL-DEC15
# uncertainties: y
# # energies =   101
#   E(MeV)          xs(mb) 
 3.93042E-01    0.00000E+00
 4.00000E-01    4.83711E-02
 5.00000E-01    2.99239E-01
 6.00000E-01    5.15728E-01
 7.00000E-01    7.68824E-01
 8.00000E-01    1.05902E+00
 8.83479E-01    2.78619E+00
 9.00000E-01    3.13832E+00
 1.00000E+00    4.80431E+00
 1.20000E+00    4.56784E+01
 1.24268E+00    5.32659E+01
 1.26849E+00    5.78543E+01
 1.40000E+00    8.12336E+01
 1.60000E+00    9.72653E+01
 1.76019E+00    1.04145E+02
 1.76222E+00    1.04232E+02
 1.79101E+00    1.05468E+02
 1.80000E+00    1.05854E+02
 1.94277E+00    3.73843E+02
 2.00000E+00    5.53606E+02
 2.13454E+00    7.31626E+02
 2.17849E+00    7.89779E+02
 2.19460E+00    8.11096E+02
 2.20000E+00    8.18241E+02
 2.26165E+00    8.42180E+02
 2.28825E+00    8.52509E+02
 2.40000E+00    8.95903E+02
 2.44252E+00    8.99326E+02
 2.44849E+00    8.99807E+02
 2.51688E+00    9.05313E+02
 2.56220E+00    9.08962E+02
 2.56574E+00    9.09247E+02
 2.56847E+00    9.09467E+02
 2.57960E+00    9.10363E+02
 2.58465E+00    9.10769E+02
 2.60000E+00    9.12005E+02
 2.62613E+00    9.09544E+02
 2.66154E+00    9.06208E+02
 2.68683E+00    9.03825E+02
 2.70791E+00    9.01840E+02
 2.71009E+00    9.01634E+02
 2.71313E+00    9.01348E+02
 2.73892E+00    8.98918E+02
 2.80000E+00    8.93167E+02
 2.83568E+00    8.82859E+02
 2.85161E+00    8.78257E+02
 3.00000E+00    8.35387E+02
 3.20000E+00    8.06750E+02
 3.40000E+00    7.04417E+02
 3.60000E+00    5.86016E+02
 3.80000E+00    4.71900E+02
 4.00000E+00    4.14954E+02
 4.20000E+00    3.64881E+02
 4.40000E+00    3.00574E+02
 4.60000E+00    2.38961E+02
 4.80000E+00    1.94860E+02
 5.00000E+00    1.64475E+02
 5.20000E+00    1.40794E+02
 5.40000E+00    1.21227E+02
 5.60000E+00    1.04919E+02
 5.80000E+00    9.15016E+01
 6.00000E+00    8.06275E+01
 6.20000E+00    7.18919E+01
 6.40000E+00    6.48693E+01
 6.60000E+00    5.92718E+01
 6.80000E+00    5.47516E+01
 7.00000E+00    5.10533E+01
 7.20000E+00    4.82096E+01
 7.40000E+00    4.59094E+01
 7.60000E+00    4.40590E+01
 7.80000E+00    4.26238E+01
 8.00000E+00    4.15816E+01
 8.50000E+00    4.05991E+01
 9.00000E+00    4.10245E+01
 9.50000E+00    4.04942E+01
 1.00000E+01    3.90005E+01
 1.05000E+01    3.74984E+01
 1.10000E+01    3.59895E+01
 1.15000E+01    3.43271E+01
 1.20000E+01    3.24945E+01
 1.25000E+01    3.07217E+01
 1.30000E+01    2.92111E+01
 1.35000E+01    2.79775E+01
 1.40000E+01    2.69502E+01
 1.45000E+01    2.60637E+01
 1.50000E+01    2.52773E+01
 1.60000E+01    2.41687E+01
 1.70000E+01    2.35273E+01
 1.80000E+01    2.35275E+01
 1.90000E+01    2.32896E+01
 2.00000E+01    2.24736E+01
 2.10000E+01    2.16410E+01
 2.20000E+01    2.08213E+01
 2.30000E+01    2.00056E+01
 2.40000E+01    1.92120E+01
 2.50000E+01    1.84680E+01
 2.60000E+01    1.77957E+01
 2.70000E+01    1.72051E+01
 2.80000E+01    1.66932E+01
 2.90000E+01    1.62470E+01
 3.00000E+01    1.58481E+01
