# n + Sr  0 : (n,xp)
# jeff3.3    A.J. Koning and D. Rochman        EVAL-DEC15
#
# # energies =   131
#   E(MeV)          xs(mb) 
 3.93042E-01    1.88014E-08
 4.00000E-01    2.00326E-08
 5.00000E-01    1.10601E-07
 6.00000E-01    4.71641E-07
 7.00000E-01    1.67705E-06
 8.00000E-01    5.18278E-06
 8.83479E-01    1.06578E-05
 9.00000E-01    1.17413E-05
 1.00000E+00    2.55381E-05
 1.20000E+00    1.19263E-04
 1.24268E+00    1.60682E-04
 1.26849E+00    1.85731E-04
 1.40000E+00    3.13358E-04
 1.60000E+00    8.55166E-04
 1.76019E+00    1.91151E-03
 1.76222E+00    1.92489E-03
 1.79101E+00    2.11474E-03
 1.80000E+00    2.17402E-03
 1.94277E+00    3.59620E-03
 2.00000E+00    4.16629E-03
 2.13454E+00    6.52811E-03
 2.17849E+00    7.29961E-03
 2.19460E+00    7.58248E-03
 2.20000E+00    7.67724E-03
 2.26165E+00    9.38667E-03
 2.28825E+00    1.01242E-02
 2.40000E+00    1.32228E-02
 2.44252E+00    1.49588E-02
 2.44849E+00    1.52026E-02
 2.51688E+00    1.79949E-02
 2.56220E+00    1.98452E-02
 2.56574E+00    1.99897E-02
 2.56847E+00    2.01012E-02
 2.57960E+00    2.05556E-02
 2.58465E+00    2.07618E-02
 2.60000E+00    2.13885E-02
 2.62613E+00    2.27391E-02
 2.66154E+00    2.45695E-02
 2.68683E+00    2.58768E-02
 2.70791E+00    2.69664E-02
 2.71009E+00    2.70791E-02
 2.71313E+00    2.72362E-02
 2.73892E+00    2.85693E-02
 2.80000E+00    3.17266E-02
 2.83568E+00    3.39499E-02
 2.85161E+00    3.49495E-02
 3.00000E+00    4.42609E-02
 3.20000E+00    6.02742E-02
 3.40000E+00    8.13413E-02
 3.60000E+00    1.09643E-01
 3.80000E+00    1.48070E-01
 4.00000E+00    1.90595E-01
 4.20000E+00    2.32300E-01
 4.40000E+00    2.76412E-01
 4.60000E+00    3.23616E-01
 4.80000E+00    3.76788E-01
 5.00000E+00    4.36925E-01
 5.20000E+00    5.01170E-01
 5.40000E+00    5.81248E-01
 5.60000E+00    6.65778E-01
 5.80000E+00    7.60008E-01
 6.00000E+00    8.62768E-01
 6.20000E+00    9.59813E-01
 6.40000E+00    1.09066E+00
 6.60000E+00    1.21789E+00
 6.80000E+00    1.35370E+00
 7.00000E+00    1.49489E+00
 7.20000E+00    1.64114E+00
 7.40000E+00    1.79772E+00
 7.60000E+00    1.97171E+00
 7.80000E+00    2.15539E+00
 8.00000E+00    2.34684E+00
 8.50000E+00    2.90836E+00
 9.00000E+00    3.54864E+00
 9.50000E+00    4.24980E+00
 1.00000E+01    4.99817E+00
 1.05000E+01    5.89584E+00
 1.10000E+01    6.97134E+00
 1.15000E+01    8.27806E+00
 1.20000E+01    9.85397E+00
 1.25000E+01    1.17081E+01
 1.30000E+01    1.37609E+01
 1.35000E+01    1.60356E+01
 1.40000E+01    1.85670E+01
 1.45000E+01    2.14812E+01
 1.50000E+01    2.47009E+01
 1.60000E+01    3.22325E+01
 1.70000E+01    4.04471E+01
 1.80000E+01    4.95807E+01
 1.90000E+01    5.93742E+01
 2.00000E+01    6.95804E+01
 2.10000E+01    8.00730E+01
 2.20000E+01    9.05235E+01
 2.30000E+01    1.01834E+02
 2.40000E+01    1.11624E+02
 2.50000E+01    1.21494E+02
 2.60000E+01    1.31679E+02
 2.70000E+01    1.41220E+02
 2.80000E+01    1.50771E+02
 2.90000E+01    1.60253E+02
 3.00000E+01    3.30191E+01
 3.00000E+01    3.30191E+01
 3.20000E+01    1.88104E+02
 3.40000E+01    2.04461E+02
 3.60000E+01    2.19663E+02
 3.80000E+01    2.34283E+02
 4.00000E+01    2.48523E+02
 4.20000E+01    2.62083E+02
 4.40000E+01    2.75600E+02
 4.60000E+01    2.88297E+02
 4.80000E+01    3.00810E+02
 5.00000E+01    3.13080E+02
 5.20000E+01    3.25679E+02
 5.40000E+01    3.37962E+02
 5.60000E+01    3.49747E+02
 5.80000E+01    3.61507E+02
 6.00000E+01    3.73173E+02
 6.50000E+01    4.00195E+02
 7.00000E+01    4.23072E+02
 7.50000E+01    4.42952E+02
 8.00000E+01    4.61696E+02
 9.00000E+01    4.96671E+02
 1.00000E+02    5.26214E+02
 1.10000E+02    5.55900E+02
 1.20000E+02    5.86861E+02
 1.30000E+02    6.22937E+02
 1.40000E+02    6.66639E+02
 1.50000E+02    7.23560E+02
 1.60000E+02    7.94659E+02
 1.80000E+02    1.00614E+03
 2.00000E+02    1.29700E+03
