# n + Os184 : (n,n'01)  
# endfb8.0   N.Iwamoto                         EVAL-Jan10
# uncertainties: n
# # energies =    88
#   E(MeV)       xs(mb) 
 1.20457E-01    0.00000E+00
 1.30000E-01    1.53123E+02
 1.40000E-01    2.16934E+02
 1.50000E-01    2.79041E+02
 1.60000E-01    3.38280E+02
 1.70000E-01    3.93871E+02
 1.80000E-01    4.47352E+02
 1.90000E-01    4.98130E+02
 2.00000E-01    5.47159E+02
 2.25000E-01    6.63687E+02
 2.50000E-01    7.71129E+02
 2.75000E-01    8.73656E+02
 3.00000E-01    9.65749E+02
 3.85874E-01    1.24376E+03
 4.00000E-01    1.28142E+03
 5.00000E-01    1.49926E+03
 6.00000E-01    1.63517E+03
 7.00000E-01    1.70810E+03
 7.78385E-01    1.72984E+03
 8.00000E-01    1.72892E+03
 9.00000E-01    1.71956E+03
 9.47950E-01    1.71168E+03
 1.00000E+00    1.61249E+03
 1.04771E+00    1.57295E+03
 1.08695E+00    1.52090E+03
 1.10000E+00    1.49089E+03
 1.20000E+00    1.37846E+03
 1.21462E+00    1.36501E+03
 1.23176E+00    1.33885E+03
 1.28185E+00    1.28353E+03
 1.30000E+00    1.26469E+03
 1.40000E+00    1.17311E+03
 1.41441E+00    1.16163E+03
 1.43613E+00    1.14141E+03
 1.45365E+00    1.12656E+03
 1.50000E+00    1.06971E+03
 1.50886E+00    1.06204E+03
 1.55241E+00    1.01812E+03
 1.60000E+00    9.73605E+02
 1.62203E+00    9.56970E+02
 1.62961E+00    9.51437E+02
 1.64050E+00    9.42635E+02
 1.64668E+00    9.35295E+02
 1.70000E+00    8.89260E+02
 1.70729E+00    8.84172E+02
 1.71693E+00    8.72865E+02
 1.72759E+00    8.62142E+02
 1.80000E+00    8.10971E+02
 1.90000E+00    7.50961E+02
 2.00000E+00    6.95996E+02
 2.25000E+00    5.80139E+02
 2.50000E+00    5.10245E+02
 2.75000E+00    4.54888E+02
 3.00000E+00    4.20246E+02
 3.50000E+00    3.79773E+02
 4.00000E+00    3.61052E+02
 4.50000E+00    3.50322E+02
 5.00000E+00    3.41339E+02
 5.50000E+00    3.31527E+02
 6.00000E+00    3.20555E+02
 6.50000E+00    3.08659E+02
 7.00000E+00    2.96567E+02
 7.50000E+00    2.85003E+02
 8.00000E+00    2.74498E+02
 8.50000E+00    2.65426E+02
 9.00000E+00    2.57610E+02
 9.50000E+00    2.50800E+02
 1.00000E+01    2.44518E+02
 1.05000E+01    2.38452E+02
 1.10000E+01    2.32379E+02
 1.15000E+01    2.26222E+02
 1.20000E+01    2.20003E+02
 1.25000E+01    2.13796E+02
 1.30000E+01    2.07689E+02
 1.35000E+01    2.01763E+02
 1.40000E+01    1.96077E+02
 1.45000E+01    1.90664E+02
 1.50000E+01    1.85534E+02
 1.55000E+01    1.80678E+02
 1.60000E+01    1.76072E+02
 1.65000E+01    1.71689E+02
 1.70000E+01    1.67497E+02
 1.75000E+01    1.63469E+02
 1.80000E+01    1.59588E+02
 1.85000E+01    1.55843E+02
 1.90000E+01    1.52234E+02
 1.95000E+01    1.48769E+02
 2.00000E+01    1.45460E+02
