# n + Ga 71 : (n,g)     
# jendl4.0   T.WATANABE                        EVAL-MAR94
# uncertainties: n
# # energies =   171
#   E(MeV)       xs(mb) 
 1.00000E-11    4.01005E+04
 1.00000E-07    1.33769E+03
 4.13990E-07    8.65209E+02
 5.31580E-07    7.64392E+02
 6.82560E-07    6.75535E+02
 8.76420E-07    5.97276E+02
 1.12540E-06    5.28468E+02
 1.44500E-06    4.67946E+02
 1.85540E-06    4.15134E+02
 2.37240E-06    3.68217E+02
 3.05900E-06    3.26839E+02
 3.92790E-06    2.90870E+02
 5.04350E-06    2.59573E+02
 6.47600E-06    2.32465E+02
 8.31530E-06    2.09111E+02
 1.06770E-05    1.89301E+02
 1.37100E-05    1.72836E+02
 1.76030E-05    1.59774E+02
 2.26030E-05    1.50313E+02
 2.92030E-05    1.45725E+02
 3.72670E-05    1.48693E+02
 4.78510E-05    1.69547E+02
 6.14420E-05    2.76952E+02
 7.88930E-05    7.90263E+04
 1.01300E-04    6.04482E+02
 1.30070E-04    1.81055E+02
 1.67020E-04    2.76018E+02
 2.14450E-04    2.10203E+03
 2.75360E-04    2.23337E+04
 3.53580E-04    8.68863E+03
 4.54000E-04    6.01684E+01
 5.82950E-04    3.19658E+03
 7.48520E-04    1.19611E+01
 9.61120E-04    1.50974E+02
 1.23410E-03    1.46247E+03
 1.58460E-03    2.81579E+02
 2.03470E-03    5.03943E+00
 2.24870E-03    6.48513E+02
 2.48520E-03    1.17129E+01
 2.61260E-03    9.68557E+00
 2.74650E-03    1.04987E+03
 3.03540E-03    5.77769E+02
 3.35460E-03    3.99171E+02
 3.70740E-03    2.51484E+02
 4.30740E-03    4.38142E+02
 5.53080E-03    3.18859E+02
 7.10170E-03    2.23442E+02
 9.11880E-03    1.91585E+02
 1.17090E-02    1.64872E+02
 1.50340E-02    1.41933E+02
 1.93050E-02    1.26760E+02
 2.18750E-02    1.19368E+02
 2.35790E-02    1.15835E+02
 2.41760E-02    1.14113E+02
 2.47880E-02    1.11533E+02
 2.60580E-02    1.08595E+02
 2.70000E-02    1.05601E+02
 2.85000E-02    1.00328E+02
 3.18280E-02    9.46759E+01
 3.43070E-02    8.75997E+01
 4.08680E-02    7.97474E+01
 4.63090E-02    7.37742E+01
 5.24750E-02    6.94218E+01
 5.65620E-02    6.44241E+01
 6.73790E-02    5.99162E+01
 7.20000E-02    5.72521E+01
 7.95000E-02    5.51721E+01
 8.25000E-02    5.39195E+01
 8.65170E-02    5.14623E+01
 9.80370E-02    4.82899E+01
 1.11090E-01    4.64290E+01
 1.16790E-01    4.54064E+01
 1.22770E-01    4.44046E+01
 1.29070E-01    4.34241E+01
 1.35690E-01    4.24663E+01
 1.42640E-01    4.15293E+01
 1.49960E-01    4.06145E+01
 1.57640E-01    3.97186E+01
 1.65730E-01    3.88417E+01
 1.74220E-01    3.79863E+01
 1.83160E-01    3.71473E+01
 1.92550E-01    3.63340E+01
 2.02420E-01    3.56733E+01
 2.12800E-01    3.50831E+01
 2.23710E-01    3.45010E+01
 2.35180E-01    3.39286E+01
 2.47240E-01    3.30896E+01
 2.73240E-01    3.22699E+01
 2.87250E-01    3.18678E+01
 2.94520E-01    3.16874E+01
 2.97200E-01    3.16154E+01
 2.98500E-01    3.15368E+01
 3.01970E-01    3.11473E+01
 3.33730E-01    3.04649E+01
 3.68830E-01    2.99633E+01
 3.87740E-01    2.94484E+01
 4.07620E-01    2.86644E+01
 4.50490E-01    2.78031E+01
 4.97870E-01    2.42287E+01
 5.23400E-01    2.25247E+01
 5.50230E-01    2.10913E+01
 5.78440E-01    1.97712E+01
 6.08100E-01    1.89368E+01
 6.39280E-01    1.82916E+01
 6.72060E-01    1.76711E+01
 7.06510E-01    1.70652E+01
 7.42740E-01    1.59489E+01
 7.80820E-01    1.48762E+01
 8.20850E-01    1.41955E+01
 8.62940E-01    1.35977E+01
 9.07180E-01    1.30392E+01
 9.61640E-01    1.23960E+01
 1.00260E+00    1.15027E+01
 1.10800E+00    1.06194E+01
 1.16480E+00    1.01109E+01
 1.22460E+00    9.69526E+00
 1.28730E+00    9.29648E+00
 1.35340E+00    8.91107E+00
 1.42270E+00    8.53512E+00
 1.49570E+00    8.04974E+00
 1.57240E+00    7.62854E+00
 1.65300E+00    7.34232E+00
 1.73770E+00    7.16215E+00
 1.82680E+00    7.05478E+00
 1.92050E+00    6.95125E+00
 2.01900E+00    6.73743E+00
 2.12250E+00    6.47082E+00
 2.23130E+00    6.25601E+00
 2.30690E+00    6.13107E+00
 2.34570E+00    6.07160E+00
 2.36530E+00    6.03144E+00
 2.38520E+00    5.92948E+00
 2.46600E+00    5.73350E+00
 2.59240E+00    5.50619E+00
 2.72530E+00    5.29008E+00
 2.86500E+00    5.07754E+00
 3.01190E+00    4.75851E+00
 3.16640E+00    4.37479E+00
 3.32870E+00    3.86034E+00
 3.67880E+00    3.26020E+00
 4.06570E+00    2.61026E+00
 4.49330E+00    2.15343E+00
 4.72370E+00    1.89667E+00
 4.96590E+00    1.64666E+00
 5.22050E+00    1.39395E+00
 5.48810E+00    1.17987E+00
 5.76950E+00    9.97568E-01
 6.06530E+00    8.22767E-01
 6.37630E+00    6.92961E-01
 6.59240E+00    6.25152E-01
 6.70320E+00    5.46011E-01
 7.04690E+00    4.37903E-01
 7.40820E+00    3.47565E-01
 7.78800E+00    2.76226E-01
 8.18730E+00    2.21928E-01
 8.60710E+00    1.82337E-01
 9.04840E+00    1.60593E-01
 9.51230E+00    1.52726E-01
 1.00000E+01    1.67430E-01
 1.05130E+01    2.05186E-01
 1.10520E+01    2.82502E-01
 1.16180E+01    3.93189E-01
 1.22140E+01    5.29127E-01
 1.28400E+01    6.55462E-01
 1.34990E+01    7.09829E-01
 1.38400E+01    7.40806E-01
 1.41910E+01    7.43946E-01
 1.45500E+01    7.35057E-01
 1.49180E+01    7.09351E-01
 1.56830E+01    6.70500E-01
 1.64870E+01    6.35479E-01
