# n + Ga 71 : (n,n'10)  
# jendl4.0   T.WATANABE                        EVAL-MAR94
# uncertainties: n
# # energies =   169
#   E(MeV)       xs(mb) 
 1.49687E+00    0.00000E+00
 1.49690E+00    3.59386E-02
 1.49729E+00    5.13527E-01
 1.49796E+00    1.34930E+00
 1.49898E+00    2.60293E+00
 1.50000E+00    3.85656E+00
 1.50372E+00    5.12327E+00
 1.50651E+00    6.07330E+00
 1.51071E+00    7.49834E+00
 1.51492E+00    8.92338E+00
 1.51989E+00    1.00727E+01
 1.52799E+00    1.12563E+01
 1.53562E+00    1.23658E+01
 1.54281E+00    1.34061E+01
 1.54958E+00    1.43813E+01
 1.55596E+00    1.52955E+01
 1.56195E+00    1.61527E+01
 1.57327E+00    1.77598E+01
 1.58323E+00    1.91660E+01
 1.59200E+00    2.03964E+01
 1.59972E+00    2.14731E+01
 1.61331E+00    2.33572E+01
 1.62358E+00    2.47703E+01
 1.63911E+00    2.68899E+01
 1.65478E+00    2.90095E+01
 1.67240E+00    3.08264E+01
 1.68573E+00    3.21891E+01
 1.70594E+00    3.42332E+01
 1.72638E+00    3.62772E+01
 1.74423E+00    3.79082E+01
 1.75000E+00    3.83369E+01
 1.77730E+00    4.03303E+01
 1.79583E+00    4.15662E+01
 1.81220E+00    4.26477E+01
 1.84121E+00    4.45402E+01
 1.86327E+00    4.59596E+01
 1.87999E+00    4.70241E+01
 1.90535E+00    4.86209E+01
 1.93105E+00    5.02177E+01
 1.96857E+00    5.18702E+01
 2.00000E+00    5.30960E+01
 2.02334E+00    5.39818E+01
 2.05803E+00    5.49231E+01
 2.09332E+00    5.58645E+01
 2.12772E+00    5.68418E+01
 2.16269E+00    5.78191E+01
 2.22243E+00    5.91160E+01
 2.23734E+00    5.92543E+01
 2.27912E+00    5.96499E+01
 2.32700E+00    5.99177E+01
 2.36036E+00    6.01930E+01
 2.36310E+00    6.02075E+01
 2.43465E+00    5.95391E+01
 2.49904E+00    5.89543E+01
 2.61583E+00    5.79308E+01
 2.70700E+00    5.71631E+01
 2.77745E+00    5.65874E+01
 2.88658E+00    5.57239E+01
 3.00000E+00    5.48603E+01
 3.05443E+00    5.36874E+01
 3.10635E+00    5.25877E+01
 3.15583E+00    5.15568E+01
 3.20293E+00    5.05903E+01
 3.24773E+00    4.96843E+01
 3.29029E+00    4.88348E+01
 3.33071E+00    4.80385E+01
 3.40782E+00    4.65453E+01
 3.47676E+00    4.52388E+01
 3.53822E+00    4.40956E+01
 3.59290E+00    4.30953E+01
 3.64143E+00    4.22200E+01
 3.68443E+00    4.14542E+01
 3.76091E+00    4.01139E+01
 3.81931E+00    3.91088E+01
 3.86370E+00    3.83549E+01
 3.93126E+00    3.72240E+01
 4.00000E+00    3.60932E+01
 4.05618E+00    3.52713E+01
 4.10956E+00    3.45008E+01
 4.16024E+00    3.37784E+01
 4.20833E+00    3.31012E+01
 4.25391E+00    3.24663E+01
 4.34071E+00    3.12758E+01
 4.41812E+00    3.02342E+01
 4.48698E+00    2.93228E+01
 4.54811E+00    2.85253E+01
 4.60228E+00    2.78275E+01
 4.65021E+00    2.72169E+01
 4.73529E+00    2.61484E+01
 4.80013E+00    2.53470E+01
 4.84933E+00    2.47459E+01
 4.92409E+00    2.38444E+01
 5.00000E+00    2.29428E+01
 5.05730E+00    2.25293E+01
 5.16652E+00    2.17540E+01
 5.26401E+00    2.10756E+01
 5.35083E+00    2.04820E+01
 5.42797E+00    1.99626E+01
 5.49638E+00    1.95081E+01
 5.55694E+00    1.91105E+01
 5.66454E+00    1.84145E+01
 5.74661E+00    1.78926E+01
 5.80893E+00    1.75012E+01
 5.90369E+00    1.69140E+01
 6.00000E+00    1.63268E+01
 6.11673E+00    1.58967E+01
 6.22074E+00    1.55203E+01
 6.31319E+00    1.51910E+01
 6.39521E+00    1.49028E+01
 6.54133E+00    1.43985E+01
 6.65310E+00    1.40203E+01
 6.73818E+00    1.37367E+01
 6.86784E+00    1.33112E+01
 7.00000E+00    1.28857E+01
 7.11782E+00    1.26260E+01
 7.22254E+00    1.23987E+01
 7.31543E+00    1.21998E+01
 7.48088E+00    1.18518E+01
 7.60741E+00    1.15908E+01
 7.70371E+00    1.13950E+01
 7.85046E+00    1.11013E+01
 8.00000E+00    1.08077E+01
 8.11865E+00    1.06243E+01
 8.33055E+00    1.03034E+01
 8.49309E+00    1.00626E+01
 8.61708E+00    9.88211E+00
 8.80646E+00    9.61131E+00
 9.00000E+00    9.34051E+00
 9.24021E+00    9.11067E+00
 9.42457E+00    8.93829E+00
 9.56524E+00    8.80900E+00
 9.78021E+00    8.61507E+00
 1.00000E+01    8.42114E+00
 1.02411E+01    8.25838E+00
 1.04258E+01    8.13632E+00
 1.07091E+01    7.95322E+00
 1.10000E+01    7.77012E+00
 1.12419E+01    7.62492E+00
 1.14268E+01    7.51602E+00
 1.17099E+01    7.35266E+00
 1.20000E+01    7.18931E+00
 1.22425E+01    7.04277E+00
 1.24277E+01    6.93286E+00
 1.27106E+01    6.76800E+00
 1.30000E+01    6.60314E+00
 1.32431E+01    6.46078E+00
 1.34284E+01    6.35402E+00
 1.37112E+01    6.19387E+00
 1.40000E+01    6.03372E+00
 1.42478E+01    5.90050E+00
 1.45000E+01    5.76728E+00
 1.47479E+01    5.64164E+00
 1.50000E+01    5.51600E+00
 1.52440E+01    5.40178E+00
 1.56174E+01    5.23046E+00
 1.58076E+01    5.14480E+00
 1.60000E+01    5.05914E+00
 1.62443E+01    4.95888E+00
 1.66179E+01    4.80850E+00
 1.70000E+01    4.65811E+00
 1.72447E+01    4.57041E+00
 1.76183E+01    4.43886E+00
 1.80000E+01    4.30731E+00
 1.82450E+01    4.23091E+00
 1.86187E+01    4.11630E+00
 1.90000E+01    4.00170E+00
 1.92452E+01    3.93528E+00
 1.96190E+01    3.83564E+00
 2.00000E+01    3.73600E+00
