# n + Ga 71 :  n        
# jendl4.0   T.WATANABE                        EVAL-MAR94
# uncertainties: n
# # energies =   154
#   E(MeV)       xs(mb) 
 2.36310E+00    0.00000E+00
 2.36365E+00    2.88609E-01
 2.36475E+00    8.65257E-01
 2.36695E+00    2.01630E+00
 2.36914E+00    3.16284E+00
 2.37133E+00    4.30490E+00
 2.37569E+00    6.58010E+00
 2.38002E+00    8.83753E+00
 2.38433E+00    1.10773E+01
 2.38861E+00    1.32996E+01
 2.39287E+00    1.55045E+01
 2.39710E+00    1.76922E+01
 2.40552E+00    2.20335E+01
 2.41384E+00    2.63069E+01
 2.42205E+00    3.05135E+01
 2.43016E+00    3.46544E+01
 2.43817E+00    3.87305E+01
 2.44609E+00    4.27430E+01
 2.45390E+00    4.66928E+01
 2.46162E+00    5.05809E+01
 2.46924E+00    5.44083E+01
 2.48431E+00    6.19433E+01
 2.49899E+00    6.92429E+01
 2.51330E+00    7.63144E+01
 2.52724E+00    8.31649E+01
 2.54082E+00    8.98013E+01
 2.55405E+00    9.62303E+01
 2.56693E+00    1.02458E+02
 2.57946E+00    1.08492E+02
 2.59166E+00    1.14337E+02
 2.60354E+00    1.19999E+02
 2.62671E+00    1.30970E+02
 2.64861E+00    1.41255E+02
 2.66932E+00    1.50897E+02
 2.68887E+00    1.59937E+02
 2.70734E+00    1.68411E+02
 2.72476E+00    1.76356E+02
 2.74120E+00    1.83805E+02
 2.75670E+00    1.90787E+02
 2.78600E+00    2.03880E+02
 2.81189E+00    2.15336E+02
 2.83474E+00    2.25361E+02
 2.85489E+00    2.34132E+02
 2.89050E+00    2.49481E+02
 2.91749E+00    2.60993E+02
 2.93790E+00    2.69628E+02
 2.96879E+00    2.82579E+02
 3.00000E+00    2.95530E+02
 3.02709E+00    3.14319E+02
 3.05357E+00    3.32520E+02
 3.07944E+00    3.50153E+02
 3.10471E+00    3.67235E+02
 3.12940E+00    3.83783E+02
 3.15349E+00    3.99813E+02
 3.17701E+00    4.15343E+02
 3.19996E+00    4.30388E+02
 3.22236E+00    4.44962E+02
 3.24420E+00    4.59081E+02
 3.28694E+00    4.86437E+02
 3.32753E+00    5.12082E+02
 3.36603E+00    5.36125E+02
 3.40253E+00    5.58665E+02
 3.43710E+00    5.79797E+02
 3.46984E+00    5.99607E+02
 3.50081E+00    6.18180E+02
 3.53010E+00    6.35592E+02
 3.58568E+00    6.68239E+02
 3.63502E+00    6.96805E+02
 3.67876E+00    7.21800E+02
 3.71746E+00    7.43671E+02
 3.75165E+00    7.62808E+02
 3.81226E+00    7.96298E+02
 3.85835E+00    8.21416E+02
 3.89329E+00    8.40254E+02
 3.94628E+00    8.68511E+02
 4.00000E+00    8.96768E+02
 4.05618E+00    9.15902E+02
 4.10956E+00    9.33841E+02
 4.16024E+00    9.50659E+02
 4.25696E+00    9.82191E+02
 4.34344E+00    1.00978E+03
 4.42055E+00    1.03392E+03
 4.48913E+00    1.05505E+03
 4.55002E+00    1.07353E+03
 4.65857E+00    1.10588E+03
 4.74168E+00    1.13014E+03
 4.80498E+00    1.14833E+03
 4.90152E+00    1.17563E+03
 5.00000E+00    1.20292E+03
 5.11526E+00    1.21809E+03
 5.21829E+00    1.23137E+03
 5.40361E+00    1.25460E+03
 5.54691E+00    1.27203E+03
 5.76901E+00    1.29816E+03
 6.00000E+00    1.32430E+03
 6.23574E+00    1.33629E+03
 6.60683E+00    1.35428E+03
 7.00000E+00    1.37227E+03
 7.48331E+00    1.38426E+03
 8.00000E+00    1.39624E+03
 8.48528E+00    1.40432E+03
 9.00000E+00    1.41241E+03
 9.48683E+00    1.40115E+03
 1.00000E+01    1.38989E+03
 1.02411E+01    1.34651E+03
 1.04258E+01    1.31398E+03
 1.05665E+01    1.28958E+03
 1.07811E+01    1.25298E+03
 1.10000E+01    1.21638E+03
 1.11203E+01    1.18248E+03
 1.12266E+01    1.15282E+03
 1.14152E+01    1.10091E+03
 1.15586E+01    1.06198E+03
 1.16674E+01    1.03278E+03
 1.18326E+01    9.88988E+02
 1.20000E+01    9.45191E+02
 1.21207E+01    9.16966E+02
 1.22272E+01    8.92270E+02
 1.24160E+01    8.49050E+02
 1.25595E+01    8.16636E+02
 1.26682E+01    7.92325E+02
 1.28330E+01    7.55859E+02
 1.30000E+01    7.19393E+02
 1.31210E+01    6.99218E+02
 1.32278E+01    6.81564E+02
 1.34167E+01    6.50671E+02
 1.35602E+01    6.27501E+02
 1.36689E+01    6.10124E+02
 1.38334E+01    5.84057E+02
 1.40000E+01    5.57991E+02
 1.41234E+01    5.42960E+02
 1.43104E+01    5.20414E+02
 1.45000E+01    4.97868E+02
 1.46234E+01    4.86135E+02
 1.48105E+01    4.68536E+02
 1.50000E+01    4.50937E+02
 1.52440E+01    4.34583E+02
 1.54296E+01    4.22318E+02
 1.55702E+01    4.13119E+02
 1.57837E+01    3.99320E+02
 1.60000E+01    3.85522E+02
 1.62443E+01    3.75353E+02
 1.64300E+01    3.67725E+02
 1.67126E+01    3.56285E+02
 1.70000E+01    3.44844E+02
 1.72447E+01    3.37353E+02
 1.76183E+01    3.26118E+02
 1.80000E+01    3.14882E+02
 1.82450E+01    3.08991E+02
 1.86187E+01    3.00153E+02
 1.90000E+01    2.91316E+02
 1.92452E+01    2.86317E+02
 1.96190E+01    2.78819E+02
 2.00000E+01    2.71321E+02
