# n + Ga 71 : (n,tot)   
# jendl4.0   T.WATANABE                        EVAL-MAR94
# uncertainties: n
# # energies =    69
#   E(MeV)       xs(mb) 
 1.00000E-10    3.31823E+04
 5.00000E-09    1.24231E+04
 1.00000E-08    1.06540E+04
 1.50000E-08    9.77785E+03
 2.00000E-08    9.22637E+03
 2.50000E-08    8.83751E+03
 3.00000E-08    8.54422E+03
 3.50000E-08    8.27557E+03
 4.20000E-08    8.01433E+03
 5.00000E-08    7.79740E+03
 5.80000E-08    7.61553E+03
 6.70000E-08    7.43096E+03
 8.00000E-08    7.22115E+03
 1.00000E-07    6.96194E+03
 1.40000E-07    6.72424E+03
 1.80000E-07    6.56410E+03
 2.20000E-07    6.45850E+03
 2.50000E-07    6.38650E+03
 2.80000E-07    6.33481E+03
 3.00000E-07    6.29840E+03
 3.20000E-07    6.25793E+03
 3.50000E-07    6.20200E+03
 4.00000E-07    6.11896E+03
 5.00000E-07    6.02431E+03
 6.25000E-07    5.93949E+03
 7.80000E-07    5.88561E+03
 8.50000E-07    5.86006E+03
 9.10000E-07    5.84222E+03
 9.50000E-07    5.83170E+03
 9.72000E-07    5.82464E+03
 9.96000E-07    5.81728E+03
 1.02000E-06    5.80977E+03
 1.04500E-06    5.80239E+03
 1.07100E-06    5.79572E+03
 1.09700E-06    5.78907E+03
 1.12300E-06    5.78230E+03
 1.15000E-06    5.76116E+03
 1.30000E-06    5.72602E+03
 1.50000E-06    5.66658E+03
 2.10000E-06    5.60336E+03
 2.60000E-06    5.55498E+03
 3.30000E-06    5.51240E+03
 4.00000E-06    5.40456E+03
 9.87700E-06    5.25711E+03
 1.59680E-05    5.10887E+03
 2.77000E-05    4.86667E+03
 4.80520E-05    4.53030E+03
 7.55014E-05    4.88508E+04
 1.48728E-04    2.12085E+05
 3.67262E-04    5.95962E+04
 9.06898E-04    7.88662E+03
 1.42510E-03    1.63590E+04
 2.23945E-03    1.40973E+04
 3.51910E-03    1.50483E+04
 5.53000E-03    1.11110E+04
 9.11800E-03    9.69066E+03
 1.50300E-02    8.85665E+03
 2.47800E-02    8.14783E+03
 4.08500E-02    7.55134E+03
 6.73400E-02    7.00586E+03
 1.11000E-01    6.44657E+03
 1.83000E-01    5.86528E+03
 3.02000E-01    5.18352E+03
 5.00000E-01    4.40640E+03
 8.21000E-01    3.62135E+03
 1.35300E+00    3.09729E+03
 2.23100E+00    3.25101E+03
 3.67900E+00    3.73057E+03
 6.06500E+00    3.90137E+03
