# n + Ga 71 : (n,el)    
# jendl4.0   T.WATANABE                        EVAL-MAR94
# uncertainties: n
# # energies =    69
#   E(MeV)       xs(mb) 
 1.00000E-10    7.28925E+03
 5.00000E-09    5.37253E+03
 1.00000E-08    5.31404E+03
 1.50000E-08    5.29121E+03
 2.00000E-08    5.27863E+03
 2.50000E-08    5.27094E+03
 3.00000E-08    5.26542E+03
 3.50000E-08    5.26106E+03
 4.20000E-08    5.25677E+03
 5.00000E-08    5.25377E+03
 5.80000E-08    5.25101E+03
 6.70000E-08    5.24893E+03
 8.00000E-08    5.24613E+03
 1.00000E-07    5.24342E+03
 1.40000E-07    5.24059E+03
 1.80000E-07    5.23915E+03
 2.20000E-07    5.23796E+03
 2.50000E-07    5.23696E+03
 2.80000E-07    5.23612E+03
 3.00000E-07    5.23556E+03
 3.20000E-07    5.23513E+03
 3.50000E-07    5.23447E+03
 4.00000E-07    5.23325E+03
 5.00000E-07    5.23138E+03
 6.25000E-07    5.22905E+03
 7.80000E-07    5.22714E+03
 8.50000E-07    5.22608E+03
 9.10000E-07    5.22536E+03
 9.50000E-07    5.22493E+03
 9.72000E-07    5.22461E+03
 9.96000E-07    5.22428E+03
 1.02000E-06    5.22394E+03
 1.04500E-06    5.22358E+03
 1.07100E-06    5.22322E+03
 1.09700E-06    5.22286E+03
 1.12300E-06    5.22249E+03
 1.15000E-06    5.22129E+03
 1.30000E-06    5.21887E+03
 1.50000E-06    5.21352E+03
 2.10000E-06    5.20578E+03
 2.60000E-06    5.19753E+03
 3.30000E-06    5.18778E+03
 4.00000E-06    5.14806E+03
 9.87700E-06    5.06235E+03
 1.59680E-05    4.94279E+03
 2.77000E-05    4.71418E+03
 4.80520E-05    4.31839E+03
 7.55014E-05    1.94260E+04
 1.48728E-04    2.05099E+05
 3.67262E-04    5.64157E+04
 9.06898E-04    7.53251E+03
 1.42510E-03    1.56622E+04
 2.23945E-03    1.35030E+04
 3.51910E-03    1.47218E+04
 5.53000E-03    1.08387E+04
 9.11800E-03    9.51081E+03
 1.50300E-02    8.72269E+03
 2.47800E-02    8.04960E+03
 4.08500E-02    7.47969E+03
 6.73400E-02    6.95230E+03
 1.11000E-01    6.40432E+03
 1.83000E-01    5.83097E+03
 3.02000E-01    5.13513E+03
 5.00000E-01    4.08518E+03
 8.21000E-01    3.01275E+03
 1.35300E+00    2.10740E+03
 2.23100E+00    1.80995E+03
 3.67900E+00    2.03943E+03
 6.06500E+00    2.26456E+03
