# n + Ga 71 : (n,p)     
# jendl4.0   T.WATANABE                        EVAL-MAR94
# uncertainties: n
# # energies =    20
#   E(MeV)       xs(mb) 
 2.05213E+00    0.00000E+00
 3.00000E+00    7.49594E-06
 4.00000E+00    2.96854E-02
 5.00000E+00    3.99376E-01
 6.00000E+00    1.15670E+00
 7.00000E+00    1.76376E+00
 8.00000E+00    2.51381E+00
 9.00000E+00    3.85887E+00
 1.00000E+01    6.06169E+00
 1.10000E+01    9.12862E+00
 1.20000E+01    1.31383E+01
 1.30000E+01    1.65409E+01
 1.40000E+01    1.93746E+01
 1.45000E+01    2.04958E+01
 1.50000E+01    2.15443E+01
 1.60000E+01    2.32324E+01
 1.70000E+01    2.42415E+01
 1.80000E+01    2.48355E+01
 1.90000E+01    2.49988E+01
 2.00000E+01    2.48379E+01
