# n + Ga 71 : (n,n'08)  
# jendl4.0   T.WATANABE                        EVAL-MAR94
# uncertainties: n
# # energies =   193
#   E(MeV)       xs(mb) 
 1.12506E+00    0.00000E+00
 1.12510E+00    4.26875E-03
 1.12556E+00    5.69481E-02
 1.12649E+00    1.61894E-01
 1.12740E+00    2.66020E-01
 1.12831E+00    3.69333E-01
 1.13012E+00    5.74343E-01
 1.13190E+00    7.76150E-01
 1.13366E+00    9.74803E-01
 1.13539E+00    1.17035E+00
 1.13710E+00    1.36285E+00
 1.14046E+00    1.74182E+00
 1.14374E+00    2.10895E+00
 1.14692E+00    2.46460E+00
 1.15001E+00    2.80914E+00
 1.15301E+00    3.14292E+00
 1.15592E+00    3.46626E+00
 1.15875E+00    3.77950E+00
 1.16425E+00    4.38640E+00
 1.16944E+00    4.95537E+00
 1.17432E+00    5.48878E+00
 1.17891E+00    5.98885E+00
 1.18323E+00    6.45767E+00
 1.18730E+00    6.89718E+00
 1.19496E+00    7.72128E+00
 1.20170E+00    8.44235E+00
 1.20764E+00    9.07330E+00
 1.21285E+00    9.62538E+00
 1.22204E+00    1.05915E+01
 1.22897E+00    1.13161E+01
 1.23944E+00    1.24030E+01
 1.25000E+00    1.34899E+01
 1.25973E+00    1.44807E+01
 1.26891E+00    1.54095E+01
 1.27758E+00    1.62803E+01
 1.28577E+00    1.70966E+01
 1.29349E+00    1.78620E+01
 1.30077E+00    1.85795E+01
 1.31453E+00    1.99248E+01
 1.32669E+00    2.11019E+01
 1.33742E+00    2.21320E+01
 1.34688E+00    2.30332E+01
 1.35522E+00    2.38218E+01
 1.36993E+00    2.52019E+01
 1.38106E+00    2.62369E+01
 1.39794E+00    2.77894E+01
 1.41502E+00    2.93420E+01
 1.43505E+00    3.04309E+01
 1.45026E+00    3.12475E+01
 1.47338E+00    3.24725E+01
 1.49687E+00    3.36975E+01
 1.50000E+00    3.38094E+01
 1.51492E+00    3.44690E+01
 1.51989E+00    3.46816E+01
 1.55254E+00    3.57916E+01
 1.57750E+00    3.66242E+01
 1.59647E+00    3.72486E+01
 1.62536E+00    3.81852E+01
 1.65478E+00    3.91218E+01
 1.69020E+00    3.96644E+01
 1.72638E+00    4.02070E+01
 1.74423E+00    4.03035E+01
 1.75000E+00    4.03572E+01
 1.77730E+00    4.05796E+01
 1.85258E+00    4.08621E+01
 1.93105E+00    4.11446E+01
 1.96857E+00    4.11833E+01
 2.00000E+00    4.09295E+01
 2.02334E+00    4.08525E+01
 2.09332E+00    4.05447E+01
 2.16269E+00    4.00385E+01
 2.22243E+00    3.96832E+01
 2.23734E+00    3.95632E+01
 2.27912E+00    3.92141E+01
 2.32700E+00    3.88638E+01
 2.36036E+00    3.85221E+01
 2.36310E+00    3.84616E+01
 2.43465E+00    3.76775E+01
 2.49904E+00    3.69914E+01
 2.55677E+00    3.63911E+01
 2.60837E+00    3.58658E+01
 2.65438E+00    3.54062E+01
 2.73686E+00    3.46018E+01
 2.80040E+00    3.39986E+01
 2.84902E+00    3.35461E+01
 2.92354E+00    3.28675E+01
 3.00000E+00    3.21888E+01
 3.05443E+00    3.15601E+01
 3.10635E+00    3.09707E+01
 3.15583E+00    3.04181E+01
 3.20293E+00    2.99000E+01
 3.24773E+00    2.94144E+01
 3.29029E+00    2.89591E+01
 3.37161E+00    2.81054E+01
 3.44442E+00    2.73584E+01
 3.50941E+00    2.67047E+01
 3.56728E+00    2.61328E+01
 3.61870E+00    2.56324E+01
 3.66430E+00    2.51945E+01
 3.74549E+00    2.44282E+01
 3.80755E+00    2.38535E+01
 3.85478E+00    2.34225E+01
 3.92672E+00    2.27759E+01
 4.00000E+00    2.21294E+01
 4.05618E+00    2.16961E+01
 4.10956E+00    2.12900E+01
 4.16024E+00    2.09092E+01
 4.25696E+00    2.01952E+01
 4.34344E+00    1.95704E+01
 4.42055E+00    1.90238E+01
 4.48913E+00    1.85454E+01
 4.55002E+00    1.81269E+01
 4.60398E+00    1.77607E+01
 4.69994E+00    1.71198E+01
 4.77322E+00    1.66392E+01
 4.82893E+00    1.62787E+01
 4.91372E+00    1.57379E+01
 5.00000E+00    1.51972E+01
 5.11526E+00    1.47537E+01
 5.21829E+00    1.43656E+01
 5.31014E+00    1.40261E+01
 5.39184E+00    1.37289E+01
 5.46435E+00    1.34690E+01
 5.52860E+00    1.32415E+01
 5.64286E+00    1.28434E+01
 5.73010E+00    1.25448E+01
 5.79641E+00    1.23209E+01
 5.89733E+00    1.19850E+01
 6.00000E+00    1.16491E+01
 6.11673E+00    1.13849E+01
 6.22074E+00    1.11538E+01
 6.31319E+00    1.09516E+01
 6.39521E+00    1.07746E+01
 6.54133E+00    1.04649E+01
 6.65310E+00    1.02327E+01
 6.73818E+00    1.00585E+01
 6.86784E+00    9.79719E+00
 7.00000E+00    9.53590E+00
 7.11782E+00    9.34889E+00
 7.22254E+00    9.18525E+00
 7.31543E+00    9.04207E+00
 7.48088E+00    8.79151E+00
 7.60741E+00    8.60358E+00
 7.70371E+00    8.46264E+00
 7.85046E+00    8.25122E+00
 8.00000E+00    8.03981E+00
 8.11865E+00    7.91309E+00
 8.33055E+00    7.69133E+00
 8.49309E+00    7.52501E+00
 8.61708E+00    7.40027E+00
 8.80646E+00    7.21316E+00
 9.00000E+00    7.02605E+00
 9.24021E+00    6.86509E+00
 9.42457E+00    6.74437E+00
 9.56524E+00    6.65384E+00
 9.78021E+00    6.51803E+00
 1.00000E+01    6.38222E+00
 1.02411E+01    6.26231E+00
 1.04258E+01    6.17237E+00
 1.07091E+01    6.03746E+00
 1.10000E+01    5.90256E+00
 1.12419E+01    5.78895E+00
 1.14268E+01    5.70374E+00
 1.17099E+01    5.57593E+00
 1.20000E+01    5.44812E+00
 1.22425E+01    5.33260E+00
 1.24277E+01    5.24596E+00
 1.27106E+01    5.11600E+00
 1.30000E+01    4.98604E+00
 1.32431E+01    4.87596E+00
 1.34284E+01    4.79340E+00
 1.37112E+01    4.66957E+00
 1.40000E+01    4.54573E+00
 1.42478E+01    4.44390E+00
 1.45000E+01    4.34207E+00
 1.47479E+01    4.24646E+00
 1.50000E+01    4.15084E+00
 1.52440E+01    4.06419E+00
 1.56174E+01    3.93420E+00
 1.58076E+01    3.86921E+00
 1.60000E+01    3.80422E+00
 1.62443E+01    3.72832E+00
 1.66179E+01    3.61446E+00
 1.70000E+01    3.50061E+00
 1.72447E+01    3.43443E+00
 1.76183E+01    3.33517E+00
 1.80000E+01    3.23590E+00
 1.82450E+01    3.17840E+00
 1.86187E+01    3.09215E+00
 1.90000E+01    3.00590E+00
 1.92452E+01    2.95603E+00
 1.96190E+01    2.88121E+00
 2.00000E+01    2.80640E+00
