# n + Ga 71 : (n,a)     
# jendl4.0   T.WATANABE                        EVAL-MAR94
# uncertainties: n
# # energies =    22
#   E(MeV)       xs(mb) 
 1.00000E+00    0.00000E+00
 1.50000E+00    9.93060E-11
 2.00000E+00    1.60880E-08
 3.00000E+00    1.26434E-05
 4.00000E+00    9.74919E-04
 5.00000E+00    1.03595E-02
 6.00000E+00    5.61335E-02
 7.00000E+00    2.01070E-01
 8.00000E+00    4.88347E-01
 9.00000E+00    9.07499E-01
 1.00000E+01    1.41240E+00
 1.10000E+01    1.96922E+00
 1.20000E+01    2.54143E+00
 1.30000E+01    3.04307E+00
 1.40000E+01    3.41084E+00
 1.45000E+01    3.50012E+00
 1.50000E+01    3.53294E+00
 1.60000E+01    3.46108E+00
 1.70000E+01    3.28611E+00
 1.80000E+01    3.04698E+00
 1.90000E+01    2.77926E+00
 2.00000E+01    2.51457E+00
