# n + Ga 71 : (n,n'01)  
# jendl4.0   T.WATANABE                        EVAL-MAR94
# uncertainties: n
# # energies =   216
#   E(MeV)       xs(mb) 
 3.95541E-01    0.00000E+00
 3.95550E-01    3.16145E-02
 3.95688E-01    5.18899E-01
 3.95956E-01    1.46301E+00
 3.96208E-01    2.34811E+00
 3.96680E-01    4.00768E+00
 3.97093E-01    5.45979E+00
 3.97818E-01    8.00100E+00
 3.98362E-01    9.90690E+00
 3.99180E-01    1.27658E+01
 4.00000E-01    1.56246E+01
 4.02650E-01    1.71142E+01
 4.05234E-01    1.85573E+01
 4.07753E-01    1.99553E+01
 4.10209E-01    2.13096E+01
 4.12602E-01    2.26215E+01
 4.14933E-01    2.38925E+01
 4.17204E-01    2.51237E+01
 4.19416E-01    2.63165E+01
 4.21570E-01    2.74720E+01
 4.25774E-01    2.97108E+01
 4.29755E-01    3.18097E+01
 4.33520E-01    3.37773E+01
 4.37079E-01    3.56220E+01
 4.40443E-01    3.73514E+01
 4.43620E-01    3.89728E+01
 4.46620E-01    4.04927E+01
 4.49450E-01    4.19177E+01
 4.54805E-01    4.45896E+01
 4.59543E-01    4.69274E+01
 4.63729E-01    4.89731E+01
 4.67424E-01    5.07630E+01
 4.70680E-01    5.23292E+01
 4.76434E-01    5.50700E+01
 4.80796E-01    5.71256E+01
 4.87413E-01    6.02091E+01
 4.94121E-01    6.32925E+01
 5.00000E-01    6.49859E+01
 5.09347E-01    6.77141E+01
 5.18868E-01    7.04422E+01
 5.28377E-01    7.17145E+01
 5.36840E-01    7.28278E+01
 5.51977E-01    7.47760E+01
 5.63610E-01    7.62371E+01
 5.72495E-01    7.73330E+01
 5.86086E-01    7.89768E+01
 6.00000E-01    8.06206E+01
 6.11673E-01    8.18920E+01
 6.22074E-01    8.30045E+01
 6.40702E-01    8.49514E+01
 6.55038E-01    8.64115E+01
 6.66000E-01    8.75067E+01
 6.82788E-01    8.91493E+01
 7.00000E-01    9.07920E+01
 7.24143E-01    9.27291E+01
 7.50000E-01    9.45810E+01
 7.74597E-01    9.62598E+01
 8.00000E-01    9.79387E+01
 8.23907E-01    9.92795E+01
 8.42305E-01    1.00285E+02
 8.70675E-01    1.01794E+02
 9.00000E-01    1.03302E+02
 9.23232E-01    1.04333E+02
 9.78506E-01    1.03129E+02
 1.00000E+00    1.02527E+02
 1.05978E+00    1.01925E+02
 1.12313E+00    1.01324E+02
 1.12506E+00    1.01178E+02
 1.15507E+00    1.00406E+02
 1.20160E+00    9.92478E+01
 1.25000E+00    9.80897E+01
 1.28936E+00    9.71090E+01
 1.35073E+00    9.56379E+01
 1.41502E+00    9.41669E+01
 1.49687E+00    9.29380E+01
 1.50000E+00    9.26853E+01
 1.51492E+00    9.22564E+01
 1.51989E+00    9.20944E+01
 1.55254E+00    9.10844E+01
 1.60285E+00    8.95695E+01
 1.65478E+00    8.80545E+01
 1.69020E+00    8.68291E+01
 1.72638E+00    8.56037E+01
 1.74423E+00    8.48013E+01
 1.75000E+00    8.45695E+01
 1.77730E+00    8.34644E+01
 1.81455E+00    8.21486E+01
 1.87189E+00    8.01748E+01
 1.93105E+00    7.82011E+01
 1.96857E+00    7.70695E+01
 2.00000E+00    7.58663E+01
 2.02334E+00    7.52264E+01
 2.05803E+00    7.42896E+01
 2.09332E+00    7.33529E+01
 2.16269E+00    7.15797E+01
 2.22243E+00    7.02408E+01
 2.23734E+00    6.98657E+01
 2.27912E+00    6.88928E+01
 2.32700E+00    6.78225E+01
 2.36036E+00    6.70465E+01
 2.36310E+00    6.69457E+01
 2.43465E+00    6.52524E+01
 2.49904E+00    6.37708E+01
 2.55677E+00    6.24743E+01
 2.60837E+00    6.13399E+01
 2.65438E+00    6.03474E+01
 2.69531E+00    5.94789E+01
 2.76845E+00    5.79590E+01
 2.82461E+00    5.68190E+01
 2.86747E+00    5.59641E+01
 2.93299E+00    5.46817E+01
 3.00000E+00    5.33993E+01
 3.05443E+00    5.23147E+01
 3.10635E+00    5.12979E+01
 3.15583E+00    5.03446E+01
 3.20293E+00    4.94509E+01
 3.24773E+00    4.86131E+01
 3.29029E+00    4.78276E+01
 3.37161E+00    4.63548E+01
 3.44442E+00    4.50662E+01
 3.50941E+00    4.39386E+01
 3.56728E+00    4.29519E+01
 3.61870E+00    4.20886E+01
 3.66430E+00    4.13332E+01
 3.74549E+00    4.00113E+01
 3.80755E+00    3.90199E+01
 3.85478E+00    3.82763E+01
 3.92672E+00    3.71609E+01
 4.00000E+00    3.60455E+01
 4.05618E+00    3.54082E+01
 4.10956E+00    3.48106E+01
 4.16024E+00    3.42505E+01
 4.25696E+00    3.32002E+01
 4.34344E+00    3.22812E+01
 4.42055E+00    3.14770E+01
 4.48913E+00    3.07734E+01
 4.55002E+00    3.01577E+01
 4.60398E+00    2.96190E+01
 4.69994E+00    2.86762E+01
 4.77322E+00    2.79692E+01
 4.82893E+00    2.74389E+01
 4.91372E+00    2.66434E+01
 5.00000E+00    2.58480E+01
 5.11526E+00    2.51852E+01
 5.21829E+00    2.46052E+01
 5.31014E+00    2.40977E+01
 5.39184E+00    2.36536E+01
 5.46435E+00    2.32651E+01
 5.59360E+00    2.25852E+01
 5.69255E+00    2.20752E+01
 5.76790E+00    2.16927E+01
 5.88281E+00    2.11190E+01
 6.00000E+00    2.05453E+01
 6.11673E+00    2.00928E+01
 6.22074E+00    1.96968E+01
 6.31319E+00    1.93504E+01
 6.39521E+00    1.90472E+01
 6.54133E+00    1.85167E+01
 6.65310E+00    1.81188E+01
 6.73818E+00    1.78204E+01
 6.86784E+00    1.73728E+01
 7.00000E+00    1.69252E+01
 7.11782E+00    1.65926E+01
 7.22254E+00    1.63016E+01
 7.31543E+00    1.60469E+01
 7.48088E+00    1.56012E+01
 7.60741E+00    1.52670E+01
 7.70371E+00    1.50163E+01
 7.85046E+00    1.46403E+01
 8.00000E+00    1.42643E+01
 8.11865E+00    1.40599E+01
 8.33055E+00    1.37022E+01
 8.49309E+00    1.34339E+01
 8.61708E+00    1.32327E+01
 8.80646E+00    1.29309E+01
 9.00000E+00    1.26291E+01
 9.24021E+00    1.23626E+01
 9.42457E+00    1.21627E+01
 9.70802E+00    1.18629E+01
 1.00000E+01    1.15631E+01
 1.02411E+01    1.13430E+01
 1.04258E+01    1.11779E+01
 1.07091E+01    1.09303E+01
 1.10000E+01    1.06827E+01
 1.12419E+01    1.04606E+01
 1.14268E+01    1.02940E+01
 1.17099E+01    1.00442E+01
 1.20000E+01    9.79429E+00
 1.22425E+01    9.57368E+00
 1.24277E+01    9.40822E+00
 1.27106E+01    9.16004E+00
 1.30000E+01    8.91185E+00
 1.32431E+01    8.70927E+00
 1.34284E+01    8.55734E+00
 1.37112E+01    8.32944E+00
 1.40000E+01    8.10154E+00
 1.42478E+01    7.91721E+00
 1.45000E+01    7.73288E+00
 1.47479E+01    7.56061E+00
 1.50000E+01    7.38834E+00
 1.52440E+01    7.23261E+00
 1.56174E+01    6.99901E+00
 1.58076E+01    6.88222E+00
 1.60000E+01    6.76542E+00
 1.62443E+01    6.62969E+00
 1.66179E+01    6.42610E+00
 1.70000E+01    6.22251E+00
 1.72447E+01    6.10478E+00
 1.76183E+01    5.92819E+00
 1.80000E+01    5.75160E+00
 1.82450E+01    5.64975E+00
 1.86187E+01    5.49697E+00
 1.90000E+01    5.34420E+00
 1.92452E+01    5.25603E+00
 1.96190E+01    5.12376E+00
 2.00000E+01    4.99150E+00
