# n + Ga 71 : (n,n'09)  
# jendl4.0   T.WATANABE                        EVAL-MAR94
# uncertainties: n
# # energies =   164
#   E(MeV)       xs(mb) 
 1.41500E+00    0.00000E+00
 1.41502E+00    5.53365E-04
 1.41533E+00    9.17299E-02
 1.41595E+00    2.73368E-01
 1.41718E+00    6.33802E-01
 1.41839E+00    9.88605E-01
 1.41959E+00    1.33786E+00
 1.42194E+00    2.02547E+00
 1.42422E+00    2.69158E+00
 1.42644E+00    3.33688E+00
 1.42859E+00    3.96201E+00
 1.43276E+00    5.17320E+00
 1.43669E+00    6.30869E+00
 1.44038E+00    7.37321E+00
 1.44385E+00    8.37120E+00
 1.44710E+00    9.30681E+00
 1.45323E+00    1.10611E+01
 1.45862E+00    1.25961E+01
 1.46335E+00    1.39392E+01
 1.46749E+00    1.51144E+01
 1.47478E+00    1.71711E+01
 1.48027E+00    1.87136E+01
 1.48855E+00    2.10273E+01
 1.49687E+00    2.33410E+01
 1.50000E+00    2.37783E+01
 1.50744E+00    2.49617E+01
 1.51492E+00    2.61450E+01
 1.51989E+00    2.67639E+01
 1.52799E+00    2.78316E+01
 1.54329E+00    2.98335E+01
 1.55681E+00    3.15851E+01
 1.56873E+00    3.31178E+01
 1.57923E+00    3.44589E+01
 1.59779E+00    3.68058E+01
 1.61185E+00    3.85660E+01
 1.62248E+00    3.98862E+01
 1.63855E+00    4.18664E+01
 1.65478E+00    4.38466E+01
 1.67240E+00    4.57775E+01
 1.68573E+00    4.72256E+01
 1.70594E+00    4.93979E+01
 1.72638E+00    5.15701E+01
 1.74423E+00    5.33799E+01
 1.75000E+00    5.38937E+01
 1.77730E+00    5.62466E+01
 1.79583E+00    5.77434E+01
 1.81220E+00    5.90530E+01
 1.84121E+00    6.13449E+01
 1.86327E+00    6.30639E+01
 1.89686E+00    6.56423E+01
 1.93105E+00    6.82207E+01
 1.96857E+00    7.04212E+01
 2.00000E+00    7.23602E+01
 2.02334E+00    7.33739E+01
 2.05803E+00    7.49616E+01
 2.09332E+00    7.65494E+01
 2.12772E+00    7.80794E+01
 2.16269E+00    7.96094E+01
 2.22243E+00    8.16659E+01
 2.23734E+00    8.20712E+01
 2.27912E+00    8.31785E+01
 2.32700E+00    8.40442E+01
 2.36036E+00    8.47680E+01
 2.36310E+00    8.48232E+01
 2.50837E+00    8.38843E+01
 2.62316E+00    8.31802E+01
 2.71268E+00    8.26520E+01
 2.85272E+00    8.18599E+01
 3.00000E+00    8.10677E+01
 3.05443E+00    7.98010E+01
 3.10635E+00    7.86134E+01
 3.15583E+00    7.75001E+01
 3.20293E+00    7.64564E+01
 3.29315E+00    7.44993E+01
 3.37418E+00    7.27869E+01
 3.44671E+00    7.12886E+01
 3.51145E+00    6.99776E+01
 3.56909E+00    6.88304E+01
 3.62031E+00    6.78266E+01
 3.71171E+00    6.60700E+01
 3.78178E+00    6.47526E+01
 3.83519E+00    6.37645E+01
 3.91673E+00    6.22823E+01
 4.00000E+00    6.08002E+01
 4.11314E+00    5.93456E+01
 4.21476E+00    5.80728E+01
 4.30574E+00    5.69591E+01
 4.38695E+00    5.59846E+01
 4.45927E+00    5.51320E+01
 4.58871E+00    5.36398E+01
 4.68825E+00    5.25207E+01
 4.76431E+00    5.16813E+01
 4.88073E+00    5.04223E+01
 5.00000E+00    4.91633E+01
 5.11526E+00    4.83095E+01
 5.21829E+00    4.75625E+01
 5.31014E+00    4.69088E+01
 5.47479E+00    4.57649E+01
 5.60162E+00    4.49069E+01
 5.69866E+00    4.42635E+01
 5.84739E+00    4.32983E+01
 6.00000E+00    4.23331E+01
 6.11673E+00    4.16121E+01
 6.22074E+00    4.09813E+01
 6.31319E+00    4.04293E+01
 6.47830E+00    3.94633E+01
 6.60496E+00    3.87388E+01
 6.70158E+00    3.81955E+01
 6.84917E+00    3.73804E+01
 7.00000E+00    3.65654E+01
 7.11782E+00    3.59613E+01
 7.22254E+00    3.54326E+01
 7.40952E+00    3.45075E+01
 7.55292E+00    3.38137E+01
 7.66229E+00    3.32933E+01
 7.82933E+00    3.25128E+01
 8.00000E+00    3.17322E+01
 8.11865E+00    3.12450E+01
 8.33055E+00    3.03923E+01
 8.49309E+00    2.97527E+01
 8.61708E+00    2.92731E+01
 8.80646E+00    2.85537E+01
 9.00000E+00    2.78342E+01
 9.24021E+00    2.71897E+01
 9.42457E+00    2.67064E+01
 9.56524E+00    2.63439E+01
 9.78021E+00    2.58001E+01
 1.00000E+01    2.52563E+01
 1.02411E+01    2.47822E+01
 1.04258E+01    2.44267E+01
 1.07091E+01    2.38934E+01
 1.10000E+01    2.33601E+01
 1.12419E+01    2.29246E+01
 1.14268E+01    2.25979E+01
 1.17099E+01    2.21080E+01
 1.20000E+01    2.16180E+01
 1.22425E+01    2.11741E+01
 1.24277E+01    2.08411E+01
 1.27106E+01    2.03416E+01
 1.30000E+01    1.98422E+01
 1.32431E+01    1.94122E+01
 1.34284E+01    1.90898E+01
 1.37112E+01    1.86061E+01
 1.40000E+01    1.81224E+01
 1.42478E+01    1.77208E+01
 1.45000E+01    1.73192E+01
 1.47479E+01    1.69412E+01
 1.50000E+01    1.65631E+01
 1.52440E+01    1.62193E+01
 1.56174E+01    1.57037E+01
 1.58076E+01    1.54458E+01
 1.60000E+01    1.51880E+01
 1.62443E+01    1.48865E+01
 1.66179E+01    1.44342E+01
 1.70000E+01    1.39820E+01
 1.72447E+01    1.37185E+01
 1.76183E+01    1.33232E+01
 1.80000E+01    1.29280E+01
 1.82450E+01    1.26985E+01
 1.86187E+01    1.23542E+01
 1.90000E+01    1.20100E+01
 1.92452E+01    1.18108E+01
 1.96190E+01    1.15119E+01
 2.00000E+01    1.12130E+01
