# n + Am243 : (n,n'09)  
# jeff3.3    O.Iwamoto,T.Nakagawa,T.Ohsawa,+   EVAL-JAN10
# uncertainties: y
# # energies =    51
#   E(MeV)       xs(mb)       xslow(mb)      xsupp(mb)
 2.45013E-01    0.00000E+00    0.00000E+00    0.00000E+00
 2.67104E-01    8.53868E-01    3.44963E-01    1.36277E+00
 3.00000E-01    2.41354E+00    9.75070E-01    3.85201E+00
 4.00000E-01    6.71924E+00    2.48612E+00    1.09524E+01
 5.00000E-01    1.05335E+01    3.89740E+00    1.71696E+01
 6.00000E-01    1.24307E+01    4.93499E+00    1.99264E+01
 7.00000E-01    1.36722E+01    5.42786E+00    2.19165E+01
 8.00000E-01    1.34231E+01    6.63101E+00    2.02152E+01
 9.00000E-01    1.25715E+01    6.21032E+00    1.89327E+01
 1.00000E+00    1.13471E+01    7.14867E+00    1.55455E+01
 1.30000E+00    7.83742E+00    5.61159E+00    1.00632E+01
 1.60000E+00    5.30209E+00    4.01898E+00    6.58520E+00
 1.80000E+00    3.96986E+00    3.00915E+00    4.93057E+00
 2.00000E+00    2.89197E+00    2.27887E+00    3.50507E+00
 2.30000E+00    1.71417E+00    1.35077E+00    2.07757E+00
 2.50000E+00    1.17880E+00    9.64258E-01    1.39334E+00
 2.70000E+00    7.96804E-01    6.51786E-01    9.41822E-01
 3.00000E+00    4.87077E-01    4.04274E-01    5.69880E-01
 3.50000E+00    2.05582E-01    1.70427E-01    2.40737E-01
 4.00000E+00    1.05007E-01    8.50557E-02    1.24958E-01
 4.50000E+00    6.73100E-02    5.45211E-02    8.00989E-02
 5.00000E+00    5.15336E-02    3.91655E-02    6.39017E-02
 5.50000E+00    4.39941E-02    3.34355E-02    5.45527E-02
 6.00000E+00    3.99296E-02    2.93483E-02    5.05109E-02
 6.50000E+00    3.72397E-02    2.73712E-02    4.71082E-02
 7.00000E+00    3.54202E-02    2.58213E-02    4.50191E-02
 7.50000E+00    3.35868E-02    2.44848E-02    4.26888E-02
 8.00000E+00    3.21568E-02    2.38603E-02    4.04533E-02
 8.50000E+00    3.05122E-02    2.26401E-02    3.83843E-02
 9.00000E+00    2.90722E-02    2.19495E-02    3.61949E-02
 9.50000E+00    2.75181E-02    2.07762E-02    3.42600E-02
 1.00000E+01    2.61350E-02    1.99149E-02    3.23551E-02
 1.05000E+01    2.47918E-02    1.88913E-02    3.06922E-02
 1.10000E+01    2.35954E-02    1.79797E-02    2.92111E-02
 1.15000E+01    2.24915E-02    1.71385E-02    2.78445E-02
 1.20000E+01    2.15028E-02    1.64711E-02    2.65345E-02
 1.25000E+01    2.05716E-02    1.57578E-02    2.53854E-02
 1.30000E+01    1.97251E-02    1.51094E-02    2.43408E-02
 1.35000E+01    1.89425E-02    1.45100E-02    2.33750E-02
 1.40000E+01    1.82172E-02    1.40455E-02    2.23889E-02
 1.45000E+01    1.75445E-02    1.35268E-02    2.15622E-02
 1.50000E+01    1.69138E-02    1.31082E-02    2.07194E-02
 1.55000E+01    1.63355E-02    1.26600E-02    2.00110E-02
 1.60000E+01    1.58497E-02    1.23311E-02    1.93683E-02
 1.65000E+01    1.54001E-02    1.19813E-02    1.88189E-02
 1.70000E+01    1.49716E-02    1.16479E-02    1.82953E-02
 1.75000E+01    1.45665E-02    1.13327E-02    1.78003E-02
 1.80000E+01    1.41763E-02    1.11142E-02    1.72384E-02
 1.85000E+01    1.38071E-02    1.08248E-02    1.67894E-02
 1.95000E+01    1.31095E-02    1.02778E-02    1.59412E-02
 2.00000E+01    1.27790E-02    1.00187E-02    1.55393E-02
