# n + Eu  0 : (n,h)
# jendl4.0   N.Iwamoto                         EVAL-Nov09
# uncertainties: n
# # energies =    61
#   E(MeV)          xs(mb) 
 5.59923E+00    0.00000E+00
 5.67405E+00    6.23299E-33
 5.69688E+00    8.32898E-33
 5.72598E+00    1.11761E-32
 5.75613E+00    1.42053E-32
 5.77429E+00    1.60527E-32
 5.84661E+00    2.34623E-32
 5.87430E+00    2.63012E-32
 5.88358E+00    2.72531E-32
 5.90238E+00    2.91813E-32
 5.91227E+00    3.01958E-32
 5.94944E+00    3.40092E-32
 5.98507E+00    3.76647E-32
 5.99765E+00    3.89556E-32
 6.00325E+00    4.10817E-32
 6.02561E+00    5.91840E-32
 6.03495E+00    6.88368E-32
 6.03985E+00    7.48705E-32
 6.04619E+00    8.36818E-32
 6.12491E+00    2.04770E-31
 6.13953E+00    2.27365E-31
 6.14338E+00    2.33361E-31
 6.15516E+00    2.51854E-31
 6.20567E+00    3.31605E-31
 6.20998E+00    3.38418E-31
 6.23371E+00    3.75983E-31
 6.23955E+00    3.85234E-31
 6.24068E+00    3.87022E-31
 6.24788E+00    3.98439E-31
 6.25748E+00    4.13666E-31
 6.26066E+00    4.18710E-31
 6.26824E+00    4.30739E-31
 6.27613E+00    4.43266E-31
 6.28045E+00    4.50122E-31
 6.29820E+00    4.78291E-31
 7.50000E+00    3.03631E-30
 8.00000E+00    8.89498E-30
 8.50000E+00    7.81001E-26
 9.00000E+00    1.18282E-22
 9.50000E+00    3.42124E-20
 1.00000E+01    3.05688E-18
 1.05000E+01    1.18383E-16
 1.10000E+01    2.84340E-15
 1.15000E+01    6.23459E-14
 1.20000E+01    1.26941E-12
 1.25000E+01    1.95678E-11
 1.30000E+01    2.14073E-10
 1.35000E+01    1.70566E-09
 1.40000E+01    1.03504E-08
 1.45000E+01    4.99149E-08
 1.50000E+01    1.98446E-07
 1.55000E+01    6.70148E-07
 1.60000E+01    1.99918E-06
 1.65000E+01    5.07017E-06
 1.70000E+01    1.26180E-05
 1.75000E+01    2.77185E-05
 1.80000E+01    5.49919E-05
 1.85000E+01    1.07759E-04
 1.90000E+01    1.96081E-04
 1.95000E+01    3.48890E-04
 2.00000E+01    5.82352E-04
