# n + Eu  0 : (n,t)
# jendl4.0   N.Iwamoto                         EVAL-Nov09
# uncertainties: n
# # energies =    69
#   E(MeV)          xs(mb) 
 4.42504E+00    0.00000E+00
 4.44770E+00    4.11888E-27
 4.70397E+00    5.63202E-26
 4.71289E+00    1.04771E-24
 4.77742E+00    1.36015E-23
 4.82680E+00    2.35350E-23
 4.95717E+00    4.98324E-23
 4.98715E+00    5.58803E-23
 5.01987E+00    6.24829E-23
 5.06575E+00    5.40396E-22
 5.08804E+00    8.40787E-22
 5.09353E+00    9.23020E-22
 5.12670E+00    1.45691E-21
 5.13964E+00    1.66986E-21
 5.17759E+00    2.30377E-21
 5.21552E+00    2.93988E-21
 5.21979E+00    3.01160E-21
 5.26100E+00    3.70470E-21
 5.26384E+00    3.75251E-21
 5.26621E+00    3.79238E-21
 5.30955E+00    4.52206E-21
 5.31287E+00    4.57800E-21
 5.35670E+00    5.31599E-21
 5.38419E+00    5.77879E-21
 5.39850E+00    6.01976E-21
 5.42629E+00    6.48782E-21
 5.44380E+00    6.78281E-21
 5.47098E+00    7.24035E-21
 5.48004E+00    7.39286E-21
 5.50000E+00    7.72896E-21
 5.51528E+00    3.14815E-20
 5.54548E+00    7.93311E-20
 5.55554E+00    9.53857E-20
 5.56506E+00    1.10632E-19
 5.58675E+00    1.45491E-19
 5.60608E+00    1.76605E-19
 5.61393E+00    1.89251E-19
 5.61997E+00    1.98980E-19
 5.62573E+00    2.08265E-19
 5.62803E+00    2.11970E-19
 6.00000E+00    8.11836E-19
 6.50000E+00    6.15128E-15
 7.00000E+00    1.78083E-12
 7.50000E+00    8.10954E-11
 8.00000E+00    1.20114E-09
 8.50000E+00    9.28918E-09
 9.00000E+00    6.65929E-08
 9.50000E+00    6.09494E-07
 1.00000E+01    4.98045E-06
 1.05000E+01    3.02686E-05
 1.10000E+01    1.39608E-04
 1.15000E+01    5.14344E-04
 1.20000E+01    1.55250E-03
 1.25000E+01    4.10602E-03
 1.30000E+01    9.49465E-03
 1.35000E+01    1.95426E-02
 1.40000E+01    3.63272E-02
 1.45000E+01    6.18824E-02
 1.50000E+01    9.78845E-02
 1.55000E+01    1.45523E-01
 1.60000E+01    2.04169E-01
 1.65000E+01    2.74970E-01
 1.70000E+01    3.55739E-01
 1.75000E+01    4.45458E-01
 1.80000E+01    5.41566E-01
 1.85000E+01    6.39450E-01
 1.90000E+01    7.35298E-01
 1.95000E+01    8.27225E-01
 2.00000E+01    9.13406E-01
