# p + Te  0 : Production of I 120
# IAEA-MED for    25.400 MeV <     56.000 MeV, extended with TENDL-2019   EVAL-2019
# uncertainties: y
# # energies =   324
#   E(MeV)          xs(mb) 
 2.36805E+01    0.00000E+00
 2.40000E+01    7.93773E-05
 2.54000E+01    1.00000E-02
 2.55000E+01    3.80000E+00
 2.56000E+01    9.80000E+00
 2.57000E+01    2.03000E+01
 2.58000E+01    3.68000E+01
 2.59000E+01    5.71000E+01
 2.60000E+01    7.85000E+01
 2.61000E+01    9.85000E+01
 2.62000E+01    1.16700E+02
 2.63000E+01    1.33400E+02
 2.64000E+01    1.48800E+02
 2.65000E+01    1.63000E+02
 2.66000E+01    1.76200E+02
 2.67000E+01    1.88600E+02
 2.68000E+01    2.00400E+02
 2.69000E+01    2.11700E+02
 2.70000E+01    2.22800E+02
 2.71000E+01    2.33700E+02
 2.72000E+01    2.44600E+02
 2.73000E+01    2.55400E+02
 2.74000E+01    2.66000E+02
 2.75000E+01    2.76500E+02
 2.76000E+01    2.86800E+02
 2.77000E+01    2.96900E+02
 2.78000E+01    3.06800E+02
 2.79000E+01    3.16500E+02
 2.80000E+01    3.26000E+02
 2.81000E+01    3.35200E+02
 2.82000E+01    3.44200E+02
 2.83000E+01    3.53000E+02
 2.84000E+01    3.61600E+02
 2.85000E+01    3.70000E+02
 2.86000E+01    3.78200E+02
 2.87000E+01    3.86200E+02
 2.88000E+01    3.94100E+02
 2.89000E+01    4.01900E+02
 2.90000E+01    4.09600E+02
 2.91000E+01    4.17200E+02
 2.92000E+01    4.24700E+02
 2.93000E+01    4.32100E+02
 2.94000E+01    4.39500E+02
 2.95000E+01    4.46700E+02
 2.96000E+01    4.53900E+02
 2.97000E+01    4.61000E+02
 2.98000E+01    4.67900E+02
 2.99000E+01    4.74800E+02
 3.00000E+01    4.81600E+02
 3.01000E+01    4.88400E+02
 3.02000E+01    4.95000E+02
 3.03000E+01    5.01600E+02
 3.04000E+01    5.08000E+02
 3.05000E+01    5.14400E+02
 3.06000E+01    5.20700E+02
 3.07000E+01    5.26900E+02
 3.08000E+01    5.33000E+02
 3.09000E+01    5.39100E+02
 3.10000E+01    5.45000E+02
 3.11000E+01    5.50900E+02
 3.12000E+01    5.56700E+02
 3.13000E+01    5.62400E+02
 3.14000E+01    5.68100E+02
 3.15000E+01    5.73600E+02
 3.16000E+01    5.79000E+02
 3.17000E+01    5.84400E+02
 3.18000E+01    5.89600E+02
 3.19000E+01    5.94700E+02
 3.20000E+01    5.99800E+02
 3.21000E+01    6.04700E+02
 3.22000E+01    6.09600E+02
 3.23000E+01    6.14300E+02
 3.24000E+01    6.18900E+02
 3.25000E+01    6.23400E+02
 3.26000E+01    6.27800E+02
 3.27000E+01    6.32000E+02
 3.28000E+01    6.36100E+02
 3.29000E+01    6.40100E+02
 3.30000E+01    6.44000E+02
 3.31000E+01    6.47700E+02
 3.32000E+01    6.51300E+02
 3.33000E+01    6.54800E+02
 3.34000E+01    6.58100E+02
 3.35000E+01    6.61200E+02
 3.36000E+01    6.64200E+02
 3.37000E+01    6.67100E+02
 3.38000E+01    6.69800E+02
 3.39000E+01    6.72300E+02
 3.40000E+01    6.74700E+02
 3.41000E+01    6.76800E+02
 3.42000E+01    6.78900E+02
 3.43000E+01    6.80700E+02
 3.44000E+01    6.82400E+02
 3.45000E+01    6.83900E+02
 3.46000E+01    6.85200E+02
 3.47000E+01    6.86300E+02
 3.48000E+01    6.87200E+02
 3.49000E+01    6.88000E+02
 3.50000E+01    6.88500E+02
 3.51000E+01    6.88900E+02
 3.52000E+01    6.89100E+02
 3.53000E+01    6.89000E+02
 3.54000E+01    6.88800E+02
 3.55000E+01    6.88400E+02
 3.56000E+01    6.87800E+02
 3.57000E+01    6.87000E+02
 3.58000E+01    6.86000E+02
 3.59000E+01    6.84700E+02
 3.60000E+01    6.83300E+02
 3.61000E+01    6.81700E+02
 3.62000E+01    6.79900E+02
 3.63000E+01    6.77900E+02
 3.64000E+01    6.75800E+02
 3.65000E+01    6.73400E+02
 3.66000E+01    6.70800E+02
 3.67000E+01    6.68100E+02
 3.68000E+01    6.65200E+02
 3.69000E+01    6.62000E+02
 3.70000E+01    6.58800E+02
 3.71000E+01    6.55300E+02
 3.72000E+01    6.51700E+02
 3.73000E+01    6.47900E+02
 3.74000E+01    6.43900E+02
 3.75000E+01    6.39800E+02
 3.76000E+01    6.35500E+02
 3.77000E+01    6.31100E+02
 3.78000E+01    6.26500E+02
 3.79000E+01    6.21800E+02
 3.80000E+01    6.17000E+02
 3.81000E+01    6.12000E+02
 3.82000E+01    6.06900E+02
 3.83000E+01    6.01700E+02
 3.84000E+01    5.96400E+02
 3.85000E+01    5.90900E+02
 3.86000E+01    5.85400E+02
 3.87000E+01    5.79800E+02
 3.88000E+01    5.74000E+02
 3.89000E+01    5.68200E+02
 3.90000E+01    5.62400E+02
 3.91000E+01    5.56400E+02
 3.92000E+01    5.50400E+02
 3.93000E+01    5.44300E+02
 3.94000E+01    5.38100E+02
 3.95000E+01    5.32000E+02
 3.96000E+01    5.25700E+02
 3.97000E+01    5.19400E+02
 3.98000E+01    5.13100E+02
 3.99000E+01    5.06800E+02
 4.00000E+01    5.00400E+02
 4.01000E+01    4.94000E+02
 4.02000E+01    4.87600E+02
 4.03000E+01    4.81200E+02
 4.04000E+01    4.74800E+02
 4.05000E+01    4.68400E+02
 4.06000E+01    4.61900E+02
 4.07000E+01    4.55500E+02
 4.08000E+01    4.49100E+02
 4.09000E+01    4.42700E+02
 4.10000E+01    4.36400E+02
 4.11000E+01    4.30000E+02
 4.12000E+01    4.23700E+02
 4.13000E+01    4.17400E+02
 4.14000E+01    4.11200E+02
 4.15000E+01    4.04900E+02
 4.16000E+01    3.98800E+02
 4.17000E+01    3.92600E+02
 4.18000E+01    3.86500E+02
 4.19000E+01    3.80500E+02
 4.20000E+01    3.74500E+02
 4.21000E+01    3.68500E+02
 4.22000E+01    3.62600E+02
 4.23000E+01    3.56800E+02
 4.24000E+01    3.51000E+02
 4.25000E+01    3.45300E+02
 4.26000E+01    3.39600E+02
 4.27000E+01    3.34000E+02
 4.28000E+01    3.28500E+02
 4.29000E+01    3.23000E+02
 4.30000E+01    3.17600E+02
 4.31000E+01    3.12200E+02
 4.32000E+01    3.06900E+02
 4.33000E+01    3.01600E+02
 4.34000E+01    2.96500E+02
 4.35000E+01    2.91300E+02
 4.36000E+01    2.86300E+02
 4.37000E+01    2.81300E+02
 4.38000E+01    2.76400E+02
 4.39000E+01    2.71600E+02
 4.40000E+01    2.66800E+02
 4.41000E+01    2.62100E+02
 4.42000E+01    2.57500E+02
 4.43000E+01    2.52900E+02
 4.44000E+01    2.48400E+02
 4.45000E+01    2.44000E+02
 4.46000E+01    2.39600E+02
 4.47000E+01    2.35300E+02
 4.48000E+01    2.31100E+02
 4.49000E+01    2.26900E+02
 4.50000E+01    2.22800E+02
 4.51000E+01    2.18800E+02
 4.52000E+01    2.14800E+02
 4.53000E+01    2.10900E+02
 4.54000E+01    2.07100E+02
 4.55000E+01    2.03300E+02
 4.56000E+01    1.99600E+02
 4.57000E+01    1.96000E+02
 4.58000E+01    1.92400E+02
 4.59000E+01    1.88800E+02
 4.60000E+01    1.85400E+02
 4.61000E+01    1.81900E+02
 4.62000E+01    1.78600E+02
 4.63000E+01    1.75300E+02
 4.64000E+01    1.72100E+02
 4.65000E+01    1.68900E+02
 4.66000E+01    1.65800E+02
 4.67000E+01    1.62700E+02
 4.68000E+01    1.59700E+02
 4.69000E+01    1.56700E+02
 4.70000E+01    1.53800E+02
 4.71000E+01    1.51000E+02
 4.72000E+01    1.48100E+02
 4.73000E+01    1.45400E+02
 4.74000E+01    1.42700E+02
 4.75000E+01    1.40000E+02
 4.76000E+01    1.37400E+02
 4.77000E+01    1.34900E+02
 4.78000E+01    1.32400E+02
 4.79000E+01    1.29900E+02
 4.80000E+01    1.27500E+02
 4.81000E+01    1.25100E+02
 4.82000E+01    1.22800E+02
 4.83000E+01    1.20500E+02
 4.84000E+01    1.18200E+02
 4.85000E+01    1.16000E+02
 4.86000E+01    1.13900E+02
 4.87000E+01    1.11700E+02
 4.88000E+01    1.09600E+02
 4.89000E+01    1.07600E+02
 4.90000E+01    1.05600E+02
 4.91000E+01    1.03600E+02
 4.92000E+01    1.01700E+02
 4.93000E+01    9.98000E+01
 4.94000E+01    9.79000E+01
 4.95000E+01    9.61000E+01
 4.96000E+01    9.43000E+01
 4.97000E+01    9.26000E+01
 4.98000E+01    9.08000E+01
 4.99000E+01    8.91000E+01
 5.00000E+01    8.75000E+01
 5.01000E+01    8.58000E+01
 5.02000E+01    8.42000E+01
 5.03000E+01    8.26000E+01
 5.04000E+01    8.11000E+01
 5.05000E+01    7.96000E+01
 5.06000E+01    7.81000E+01
 5.07000E+01    7.66000E+01
 5.08000E+01    7.52000E+01
 5.09000E+01    7.38000E+01
 5.10000E+01    7.24000E+01
 5.11000E+01    7.10000E+01
 5.12000E+01    6.97000E+01
 5.13000E+01    6.84000E+01
 5.14000E+01    6.71000E+01
 5.15000E+01    6.59000E+01
 5.16000E+01    6.46000E+01
 5.17000E+01    6.34000E+01
 5.18000E+01    6.23000E+01
 5.19000E+01    6.11000E+01
 5.20000E+01    6.00000E+01
 5.21000E+01    5.88000E+01
 5.22000E+01    5.78000E+01
 5.23000E+01    5.67000E+01
 5.24000E+01    5.56000E+01
 5.25000E+01    5.46000E+01
 5.26000E+01    5.36000E+01
 5.27000E+01    5.26000E+01
 5.28000E+01    5.16000E+01
 5.29000E+01    5.07000E+01
 5.30000E+01    4.98000E+01
 5.31000E+01    4.89000E+01
 5.32000E+01    4.80000E+01
 5.33000E+01    4.71000E+01
 5.34000E+01    4.62000E+01
 5.35000E+01    4.54000E+01
 5.36000E+01    4.46000E+01
 5.37000E+01    4.38000E+01
 5.38000E+01    4.30000E+01
 5.39000E+01    4.22000E+01
 5.40000E+01    4.15000E+01
 5.41000E+01    4.07000E+01
 5.42000E+01    4.00000E+01
 5.43000E+01    3.93000E+01
 5.44000E+01    3.86000E+01
 5.45000E+01    3.79000E+01
 5.46000E+01    3.72000E+01
 5.47000E+01    3.66000E+01
 5.48000E+01    3.59000E+01
 5.49000E+01    3.53000E+01
 5.50000E+01    3.47000E+01
 5.51000E+01    3.40000E+01
 5.52000E+01    3.34000E+01
 5.53000E+01    3.29000E+01
 5.54000E+01    3.23000E+01
 5.55000E+01    3.17000E+01
 5.56000E+01    3.11000E+01
 5.57000E+01    3.06000E+01
 5.58000E+01    3.01000E+01
 5.59000E+01    2.95000E+01
 5.60000E+01    2.90000E+01
 6.00000E+01    2.37917E+01
 6.50000E+01    2.03479E+01
 7.00000E+01    1.77469E+01
 7.50000E+01    1.55059E+01
 8.00000E+01    1.37420E+01
 9.00000E+01    1.10134E+01
 1.00000E+02    9.17355E+00
 1.10000E+02    7.71826E+00
 1.20000E+02    6.59577E+00
 1.30000E+02    5.75357E+00
 1.40000E+02    5.09317E+00
 1.50000E+02    4.49234E+00
 1.60000E+02    4.04202E+00
 1.80000E+02    3.31500E+00
 2.00000E+02    2.77779E+00
