# n + Te122 : (n,el)    
# endfb8.0   JNDC FPND W.G., Mughabghab        EVAL-MAR90
# uncertainties: n
# # energies =   171
#   E(MeV)       xs(mb) 
 1.00000E-11    2.84689E+03
 1.00000E-07    1.71439E+03
 4.13990E-07    1.71188E+03
 5.31580E-07    1.71073E+03
 6.82560E-07    1.70932E+03
 8.76420E-07    1.70750E+03
 1.12540E-06    1.70518E+03
 1.44500E-06    1.70219E+03
 1.85540E-06    1.69840E+03
 2.37240E-06    1.69348E+03
 3.05900E-06    1.68711E+03
 3.92790E-06    1.67900E+03
 5.04350E-06    1.66858E+03
 6.47600E-06    1.65514E+03
 8.31530E-06    1.63563E+03
 1.06770E-05    1.60931E+03
 1.37100E-05    1.57371E+03
 1.76030E-05    1.52131E+03
 2.26030E-05    1.44106E+03
 2.92030E-05    1.31225E+03
 3.72670E-05    1.07705E+03
 4.78510E-05    5.36527E+02
 6.14420E-05    1.47393E+05
 7.88930E-05    5.45293E+03
 1.01300E-04    3.01551E+03
 1.30070E-04    2.46924E+03
 1.67020E-04    2.10942E+03
 2.14450E-04    2.45536E+03
 2.75360E-04    5.13239E+04
 3.53580E-04    3.93714E+03
 4.54000E-04    8.16805E+03
 5.82950E-04    4.29550E+04
 7.48520E-04    1.55768E+04
 9.61120E-04    9.76781E+03
 1.23410E-03    6.27418E+03
 1.58460E-03    8.50278E+03
 2.03470E-03    2.18303E+03
 2.24870E-03    1.75129E+04
 2.48520E-03    7.73522E+03
 2.61260E-03    2.81635E+03
 2.74650E-03    1.02993E+04
 3.03540E-03    8.29761E+03
 3.35460E-03    7.68379E+03
 3.70740E-03    6.69918E+03
 4.30740E-03    1.25798E+04
 5.53080E-03    1.01484E+04
 7.10170E-03    8.74931E+03
 9.11880E-03    7.08875E+03
 1.17090E-02    6.21070E+03
 1.50340E-02    1.56482E+04
 1.93050E-02    1.14762E+04
 2.18750E-02    6.28080E+03
 2.35790E-02    6.24299E+03
 2.41760E-02    6.22359E+03
 2.47880E-02    6.19576E+03
 2.60580E-02    6.16579E+03
 2.70000E-02    6.13429E+03
 2.85000E-02    6.08047E+03
 3.18280E-02    6.02267E+03
 3.43070E-02    5.95146E+03
 4.08680E-02    5.87363E+03
 4.63090E-02    5.81518E+03
 5.24750E-02    5.77148E+03
 5.65620E-02    5.72049E+03
 6.73790E-02    5.67388E+03
 7.20000E-02    5.64358E+03
 7.95000E-02    5.61936E+03
 8.25000E-02    5.60475E+03
 8.65170E-02    5.57598E+03
 9.80370E-02    5.55134E+03
 1.11090E-01    5.53951E+03
 1.16790E-01    5.53144E+03
 1.22770E-01    5.52296E+03
 1.29070E-01    5.51404E+03
 1.35690E-01    5.50467E+03
 1.42640E-01    5.49482E+03
 1.49960E-01    5.49065E+03
 1.57640E-01    5.49271E+03
 1.65730E-01    5.49487E+03
 1.74220E-01    5.49715E+03
 1.83160E-01    5.49954E+03
 1.92550E-01    5.50205E+03
 2.02420E-01    5.50587E+03
 2.12800E-01    5.51599E+03
 2.23710E-01    5.52752E+03
 2.35180E-01    5.53964E+03
 2.47240E-01    5.55944E+03
 2.73240E-01    5.58547E+03
 2.87250E-01    5.60080E+03
 2.94520E-01    5.60796E+03
 2.97200E-01    5.61081E+03
 2.98500E-01    5.61423E+03
 3.01970E-01    5.64127E+03
 3.33730E-01    5.69765E+03
 3.68830E-01    5.74386E+03
 3.87740E-01    5.77678E+03
 4.07620E-01    5.82502E+03
 4.50490E-01    5.88922E+03
 4.97870E-01    5.94147E+03
 5.23400E-01    5.97869E+03
 5.50230E-01    6.01406E+03
 5.78440E-01    6.00353E+03
 6.08100E-01    5.97791E+03
 6.39280E-01    5.95098E+03
 6.72060E-01    5.92329E+03
 7.06510E-01    5.91784E+03
 7.42740E-01    5.92439E+03
 7.80820E-01    5.93128E+03
 8.20850E-01    5.93852E+03
 8.62940E-01    5.94612E+03
 9.07180E-01    5.95415E+03
 9.61640E-01    5.95719E+03
 1.00260E+00    5.94450E+03
 1.10800E+00    5.92440E+03
 1.16480E+00    5.90947E+03
 1.22460E+00    5.87965E+03
 1.28730E+00    5.80560E+03
 1.35340E+00    5.71504E+03
 1.42270E+00    5.61990E+03
 1.49570E+00    5.52520E+03
 1.57240E+00    5.42984E+03
 1.65300E+00    5.33010E+03
 1.73770E+00    5.22519E+03
 1.82680E+00    5.10157E+03
 1.92050E+00    4.97048E+03
 2.01900E+00    4.80191E+03
 2.12250E+00    4.61409E+03
 2.23130E+00    4.46271E+03
 2.30690E+00    4.37462E+03
 2.34570E+00    4.33269E+03
 2.36530E+00    4.30436E+03
 2.38520E+00    4.23246E+03
 2.46600E+00    4.09419E+03
 2.59240E+00    3.93376E+03
 2.72530E+00    3.78115E+03
 2.86500E+00    3.62955E+03
 3.01190E+00    3.46953E+03
 3.16640E+00    3.29844E+03
 3.32870E+00    3.05857E+03
 3.67880E+00    2.76529E+03
 4.06570E+00    2.53935E+03
 4.49330E+00    2.39657E+03
 4.72370E+00    2.30643E+03
 4.96590E+00    2.24025E+03
 5.22050E+00    2.21231E+03
 5.48810E+00    2.18354E+03
 5.76950E+00    2.15515E+03
 6.06530E+00    2.16580E+03
 6.37630E+00    2.19017E+03
 6.59240E+00    2.20528E+03
 6.70320E+00    2.22648E+03
 7.04690E+00    2.28520E+03
 7.40820E+00    2.36295E+03
 7.78800E+00    2.44727E+03
 8.18730E+00    2.54852E+03
 8.60710E+00    2.65725E+03
 9.04840E+00    2.76985E+03
 9.51230E+00    2.88498E+03
 1.00000E+01    3.01648E+03
 1.05130E+01    3.16110E+03
 1.10520E+01    3.24583E+03
 1.16180E+01    3.28614E+03
 1.22140E+01    3.30376E+03
 1.28400E+01    3.33827E+03
 1.34990E+01    3.40715E+03
 1.38400E+01    3.44982E+03
 1.41910E+01    3.46271E+03
 1.45500E+01    3.47353E+03
 1.49180E+01    3.48318E+03
 1.56830E+01    3.48086E+03
 1.64870E+01    3.44847E+03
