# n + Te122 : (n,tot)   
# endfb8.0   JNDC FPND W.G., Mughabghab        EVAL-MAR90
# uncertainties: n
# # energies =   171
#   E(MeV)       xs(mb) 
 1.00000E-11    3.82090E+04
 1.00000E-07    2.89826E+03
 4.13990E-07    2.48134E+03
 5.31580E-07    2.39224E+03
 6.82560E-07    2.31356E+03
 8.76420E-07    2.24403E+03
 1.12540E-06    2.18274E+03
 1.44500E-06    2.12865E+03
 1.85540E-06    2.08046E+03
 2.37240E-06    2.03668E+03
 3.05900E-06    1.99650E+03
 3.92790E-06    1.95988E+03
 5.04350E-06    1.92557E+03
 6.47600E-06    1.89255E+03
 8.31530E-06    1.85960E+03
 1.06770E-05    1.82417E+03
 1.37100E-05    1.78625E+03
 1.76030E-05    1.73997E+03
 2.26030E-05    1.68374E+03
 2.92030E-05    1.61261E+03
 3.72670E-05    1.53543E+03
 4.78510E-05    1.80140E+03
 6.14420E-05    4.19113E+05
 7.88930E-05    6.96862E+03
 1.01300E-04    3.16812E+03
 1.30070E-04    2.51471E+03
 1.67020E-04    2.13522E+03
 2.14450E-04    6.82742E+03
 2.75360E-04    5.89909E+04
 3.53580E-04    4.96435E+03
 4.54000E-04    1.15323E+04
 5.82950E-04    5.03545E+04
 7.48520E-04    1.68983E+04
 9.61120E-04    1.15334E+04
 1.23410E-03    6.84913E+03
 1.58460E-03    9.65648E+03
 2.03470E-03    2.18685E+03
 2.24870E-03    1.89904E+04
 2.48520E-03    8.55723E+03
 2.61260E-03    3.16694E+03
 2.74650E-03    1.14095E+04
 3.03540E-03    9.21792E+03
 3.35460E-03    8.60465E+03
 3.70740E-03    7.26140E+03
 4.30740E-03    1.31969E+04
 5.53080E-03    1.05286E+04
 7.10170E-03    9.05654E+03
 9.11880E-03    7.30283E+03
 1.17090E-02    6.34825E+03
 1.50340E-02    1.58303E+04
 1.93050E-02    1.17309E+04
 2.18750E-02    6.58347E+03
 2.35790E-02    6.53820E+03
 2.41760E-02    6.51495E+03
 2.47880E-02    6.48150E+03
 2.60580E-02    6.44533E+03
 2.70000E-02    6.40725E+03
 2.85000E-02    6.34190E+03
 3.18280E-02    6.27173E+03
 3.43070E-02    6.18477E+03
 4.08680E-02    6.08912E+03
 4.63090E-02    6.01699E+03
 5.24750E-02    5.96351E+03
 5.65620E-02    5.90162E+03
 6.73790E-02    5.84564E+03
 7.20000E-02    5.80986E+03
 7.95000E-02    5.78142E+03
 8.25000E-02    5.76435E+03
 8.65170E-02    5.73095E+03
 9.80370E-02    5.70066E+03
 1.11090E-01    5.68614E+03
 1.16790E-01    5.67646E+03
 1.22770E-01    5.66629E+03
 1.29070E-01    5.65559E+03
 1.35690E-01    5.64435E+03
 1.42640E-01    5.63253E+03
 1.49960E-01    5.62698E+03
 1.57640E-01    5.62831E+03
 1.65730E-01    5.62970E+03
 1.74220E-01    5.63117E+03
 1.83160E-01    5.63271E+03
 1.92550E-01    5.63433E+03
 2.02420E-01    5.63729E+03
 2.12800E-01    5.64696E+03
 2.23710E-01    5.65807E+03
 2.35180E-01    5.66974E+03
 2.47240E-01    5.68908E+03
 2.73240E-01    5.71520E+03
 2.87250E-01    5.73035E+03
 2.94520E-01    5.73742E+03
 2.97200E-01    5.74025E+03
 2.98500E-01    5.74363E+03
 3.01970E-01    5.77154E+03
 3.33730E-01    5.82995E+03
 3.68830E-01    5.87774E+03
 3.87740E-01    5.91179E+03
 4.07620E-01    5.96034E+03
 4.50490E-01    6.02558E+03
 4.97870E-01    6.07874E+03
 5.23400E-01    6.11661E+03
 5.50230E-01    6.15642E+03
 5.78440E-01    6.19827E+03
 6.08100E-01    6.24228E+03
 6.39280E-01    6.28852E+03
 6.72060E-01    6.33125E+03
 7.06510E-01    6.37110E+03
 7.42740E-01    6.41300E+03
 7.80820E-01    6.45698E+03
 8.20850E-01    6.49503E+03
 8.62940E-01    6.52918E+03
 9.07180E-01    6.56737E+03
 9.61640E-01    6.59538E+03
 1.00260E+00    6.62499E+03
 1.10800E+00    6.64663E+03
 1.16480E+00    6.66134E+03
 1.22460E+00    6.66574E+03
 1.28730E+00    6.65442E+03
 1.35340E+00    6.64093E+03
 1.42270E+00    6.61586E+03
 1.49570E+00    6.58257E+03
 1.57240E+00    6.53696E+03
 1.65300E+00    6.48738E+03
 1.73770E+00    6.43255E+03
 1.82680E+00    6.36144E+03
 1.92050E+00    6.28482E+03
 2.01900E+00    6.19136E+03
 2.12250E+00    6.08224E+03
 2.23130E+00    5.98789E+03
 2.30690E+00    5.93545E+03
 2.34570E+00    5.91005E+03
 2.36530E+00    5.89289E+03
 2.38520E+00    5.84933E+03
 2.46600E+00    5.75978E+03
 2.59240E+00    5.65801E+03
 2.72530E+00    5.55720E+03
 2.86500E+00    5.45242E+03
 3.01190E+00    5.33484E+03
 3.16640E+00    5.19814E+03
 3.32870E+00    4.99980E+03
 3.67880E+00    4.74646E+03
 4.06570E+00    4.51551E+03
 4.49330E+00    4.35349E+03
 4.72370E+00    4.24634E+03
 4.96590E+00    4.16342E+03
 5.22050E+00    4.11546E+03
 5.48810E+00    4.06562E+03
 5.76950E+00    4.01596E+03
 6.06530E+00    4.01550E+03
 6.37630E+00    4.03391E+03
 6.59240E+00    4.04532E+03
 6.70320E+00    4.06145E+03
 7.04690E+00    4.11287E+03
 7.40820E+00    4.18333E+03
 7.78800E+00    4.25741E+03
 8.18730E+00    4.33529E+03
 8.60710E+00    4.41717E+03
 9.04840E+00    4.49807E+03
 9.51230E+00    4.57324E+03
 1.00000E+01    4.64024E+03
 1.05130E+01    4.69751E+03
 1.10520E+01    4.75226E+03
 1.16180E+01    4.81226E+03
 1.22140E+01    4.86460E+03
 1.28400E+01    4.91400E+03
 1.34990E+01    4.95131E+03
 1.38400E+01    4.97680E+03
 1.41910E+01    5.00447E+03
 1.45500E+01    5.03255E+03
 1.49180E+01    5.07075E+03
 1.56830E+01    5.10333E+03
 1.64870E+01    5.07754E+03
