# n + Zn 67 : (n,n'09)  
# jeff3.3    A.J. Koning and D. Rochman        EVAL-JAN16
# uncertainties: n
# # energies =    86
#   E(MeV)       xs(mb) 
 1.00492E+00    0.00000E+00
 1.07598E+00    5.57002E+00
 1.16003E+00    1.21583E+01
 1.20000E+00    1.52913E+01
 1.38414E+00    2.33500E+01
 1.40000E+00    2.40441E+01
 1.42820E+00    2.47286E+01
 1.46788E+00    2.56918E+01
 1.54000E+00    2.74425E+01
 1.56676E+00    2.80920E+01
 1.60000E+00    2.88989E+01
 1.62785E+00    2.90732E+01
 1.66483E+00    2.93047E+01
 1.66776E+00    2.93231E+01
 1.68168E+00    2.94102E+01
 1.70281E+00    2.95424E+01
 1.71223E+00    2.96014E+01
 1.75876E+00    2.98927E+01
 1.80000E+00    3.01508E+01
 1.80707E+00    3.00605E+01
 1.81003E+00    3.00227E+01
 1.82764E+00    2.97979E+01
 1.82916E+00    2.97785E+01
 1.83514E+00    2.97021E+01
 1.87058E+00    2.92497E+01
 1.90368E+00    2.88271E+01
 2.00000E+00    2.75973E+01
 2.20000E+00    2.36558E+01
 2.40000E+00    1.95043E+01
 2.60000E+00    1.57805E+01
 2.80000E+00    1.27010E+01
 3.00000E+00    1.02378E+01
 3.20000E+00    8.29307E+00
 3.40000E+00    6.72579E+00
 3.60000E+00    5.50566E+00
 3.80000E+00    4.53087E+00
 4.00000E+00    3.74403E+00
 4.20000E+00    3.10168E+00
 4.40000E+00    2.57301E+00
 4.60000E+00    2.13514E+00
 4.80000E+00    1.77076E+00
 5.00000E+00    1.46785E+00
 5.20000E+00    1.21537E+00
 5.40000E+00    1.00523E+00
 5.60000E+00    8.31552E-01
 5.80000E+00    6.86851E-01
 6.00000E+00    5.67992E-01
 6.20000E+00    4.69041E-01
 6.40000E+00    3.88261E-01
 6.60000E+00    3.21497E-01
 6.80000E+00    2.66010E-01
 7.00000E+00    2.20933E-01
 7.20000E+00    1.83377E-01
 7.40000E+00    1.52625E-01
 7.60000E+00    1.27289E-01
 7.80000E+00    1.06004E-01
 8.00000E+00    8.84011E-02
 8.50000E+00    5.65992E-02
 9.00000E+00    3.65798E-02
 9.50000E+00    2.38668E-02
 1.00000E+01    1.57091E-02
 1.05000E+01    1.04218E-02
 1.10000E+01    6.95829E-03
 1.15000E+01    4.67719E-03
 1.20000E+01    3.16226E-03
 1.25000E+01    2.14983E-03
 1.30000E+01    1.46959E-03
 1.35000E+01    1.01014E-03
 1.40000E+01    6.98501E-04
 1.45000E+01    4.85857E-04
 1.50000E+01    3.39956E-04
 1.60000E+01    1.69320E-04
 1.70000E+01    8.59631E-05
 1.80000E+01    4.43271E-05
 1.90000E+01    2.31470E-05
 2.00000E+01    1.22229E-05
 2.10000E+01    6.53295E-06
 2.20000E+01    3.53693E-06
 2.30000E+01    1.93790E-06
 2.40000E+01    1.07291E-06
 2.50000E+01    5.94760E-07
 2.60000E+01    3.36830E-07
 2.70000E+01    1.92800E-07
 2.80000E+01    1.11110E-07
 2.90000E+01    6.47440E-08
 3.00000E+01    3.80270E-08
