# n + Zn 67 : (n,n'07)  
# jeff3.3    A.J. Koning and D. Rochman        EVAL-JAN16
# uncertainties: n
# # energies =    89
#   E(MeV)       xs(mb) 
 9.01080E-01    0.00000E+00
 9.94607E-01    7.78664E+01
 1.00000E+00    8.23564E+01
 1.00492E+00    8.32456E+01
 1.07598E+00    9.60889E+01
 1.16003E+00    1.11280E+02
 1.20000E+00    1.18504E+02
 1.38414E+00    1.33644E+02
 1.40000E+00    1.34948E+02
 1.42820E+00    1.35145E+02
 1.46788E+00    1.35423E+02
 1.54000E+00    1.35927E+02
 1.56676E+00    1.36114E+02
 1.60000E+00    1.36347E+02
 1.62785E+00    1.34619E+02
 1.66483E+00    1.32324E+02
 1.66776E+00    1.32142E+02
 1.68168E+00    1.31278E+02
 1.70281E+00    1.29967E+02
 1.71223E+00    1.29383E+02
 1.75876E+00    1.26495E+02
 1.80000E+00    1.23936E+02
 1.80707E+00    1.23199E+02
 1.81003E+00    1.22890E+02
 1.82764E+00    1.21054E+02
 1.82916E+00    1.20896E+02
 1.83514E+00    1.20273E+02
 1.87058E+00    1.16578E+02
 1.90368E+00    1.13127E+02
 2.00000E+00    1.03086E+02
 2.20000E+00    8.24767E+01
 2.40000E+00    6.45231E+01
 2.60000E+00    5.01321E+01
 2.80000E+00    3.90983E+01
 3.00000E+00    3.07499E+01
 3.20000E+00    2.44294E+01
 3.40000E+00    1.95070E+01
 3.60000E+00    1.57674E+01
 3.80000E+00    1.28386E+01
 4.00000E+00    1.05116E+01
 4.20000E+00    8.63672E+00
 4.40000E+00    7.11077E+00
 4.60000E+00    5.85942E+00
 4.80000E+00    4.82786E+00
 5.00000E+00    3.97773E+00
 5.20000E+00    3.27500E+00
 5.40000E+00    2.69518E+00
 5.60000E+00    2.21916E+00
 5.80000E+00    1.82544E+00
 6.00000E+00    1.50404E+00
 6.20000E+00    1.23818E+00
 6.40000E+00    1.02207E+00
 6.60000E+00    8.44505E-01
 6.80000E+00    6.97404E-01
 7.00000E+00    5.78285E-01
 7.20000E+00    4.79490E-01
 7.40000E+00    3.98713E-01
 7.60000E+00    3.32370E-01
 7.80000E+00    2.76715E-01
 8.00000E+00    2.30751E-01
 8.50000E+00    1.47887E-01
 9.00000E+00    9.57718E-02
 9.50000E+00    6.26551E-02
 1.00000E+01    4.13657E-02
 1.05000E+01    2.75308E-02
 1.10000E+01    1.84404E-02
 1.15000E+01    1.24339E-02
 1.20000E+01    8.43203E-03
 1.25000E+01    5.74939E-03
 1.30000E+01    3.94173E-03
 1.35000E+01    2.71742E-03
 1.40000E+01    1.88471E-03
 1.45000E+01    1.31493E-03
 1.50000E+01    9.22851E-04
 1.60000E+01    4.62305E-04
 1.70000E+01    2.35883E-04
 1.80000E+01    1.22113E-04
 1.90000E+01    6.39582E-05
 2.00000E+01    3.38541E-05
 2.10000E+01    1.81323E-05
 2.20000E+01    9.83628E-06
 2.30000E+01    5.40008E-06
 2.40000E+01    2.99568E-06
 2.50000E+01    1.66385E-06
 2.60000E+01    9.43970E-07
 2.70000E+01    5.41200E-07
 2.80000E+01    3.12330E-07
 2.90000E+01    1.82210E-07
 3.00000E+01    1.07120E-07
