# n + Zn 67 : (n,n'05)  
# jeff3.3    A.J. Koning and D. Rochman        EVAL-JAN16
# uncertainties: n
# # energies =    92
#   E(MeV)       xs(mb) 
 8.27049E-01    0.00000E+00
 8.84036E-01    8.83720E+01
 9.00000E-01    1.13128E+02
 9.01080E-01    1.13481E+02
 9.94607E-01    1.44050E+02
 1.00000E+00    1.45813E+02
 1.00492E+00    1.46488E+02
 1.07598E+00    1.56236E+02
 1.16003E+00    1.67766E+02
 1.20000E+00    1.73249E+02
 1.38414E+00    1.83461E+02
 1.40000E+00    1.84340E+02
 1.42820E+00    1.83300E+02
 1.46788E+00    1.81836E+02
 1.54000E+00    1.79176E+02
 1.56676E+00    1.78189E+02
 1.60000E+00    1.76963E+02
 1.62785E+00    1.73936E+02
 1.66483E+00    1.69917E+02
 1.66776E+00    1.69598E+02
 1.68168E+00    1.68085E+02
 1.70281E+00    1.65789E+02
 1.71223E+00    1.64765E+02
 1.75876E+00    1.59707E+02
 1.80000E+00    1.55225E+02
 1.80707E+00    1.54195E+02
 1.81003E+00    1.53763E+02
 1.82764E+00    1.51197E+02
 1.82916E+00    1.50975E+02
 1.83514E+00    1.50104E+02
 1.87058E+00    1.44939E+02
 1.90368E+00    1.40115E+02
 2.00000E+00    1.26078E+02
 2.20000E+00    9.87817E+01
 2.40000E+00    7.61557E+01
 2.60000E+00    5.86294E+01
 2.80000E+00    4.54909E+01
 3.00000E+00    3.56898E+01
 3.20000E+00    2.83274E+01
 3.40000E+00    2.26144E+01
 3.60000E+00    1.82777E+01
 3.80000E+00    1.48796E+01
 4.00000E+00    1.21777E+01
 4.20000E+00    1.00001E+01
 4.40000E+00    8.22849E+00
 4.60000E+00    6.77749E+00
 4.80000E+00    5.58362E+00
 5.00000E+00    4.60178E+00
 5.20000E+00    3.79243E+00
 5.40000E+00    3.12630E+00
 5.60000E+00    2.58022E+00
 5.80000E+00    2.12954E+00
 6.00000E+00    1.76234E+00
 6.20000E+00    1.45879E+00
 6.40000E+00    1.21222E+00
 6.60000E+00    1.00995E+00
 6.80000E+00    8.42246E-01
 7.00000E+00    7.06546E-01
 7.20000E+00    5.93906E-01
 7.40000E+00    5.01767E-01
 7.60000E+00    4.26123E-01
 7.80000E+00    3.62586E-01
 8.00000E+00    3.10097E-01
 8.50000E+00    2.15356E-01
 9.00000E+00    1.55664E-01
 9.50000E+00    1.17665E-01
 1.00000E+01    9.32043E-02
 1.05000E+01    7.73057E-02
 1.10000E+01    6.68818E-02
 1.15000E+01    6.00393E-02
 1.20000E+01    5.55442E-02
 1.25000E+01    5.26096E-02
 1.30000E+01    5.07224E-02
 1.35000E+01    4.95421E-02
 1.40000E+01    4.88403E-02
 1.45000E+01    4.84586E-02
 1.50000E+01    4.82889E-02
 1.60000E+01    4.82963E-02
 1.70000E+01    4.84709E-02
 1.80000E+01    4.86222E-02
 1.90000E+01    4.86761E-02
 2.00000E+01    4.86235E-02
 2.10000E+01    4.84838E-02
 2.20000E+01    4.82815E-02
 2.30000E+01    4.80332E-02
 2.40000E+01    4.77466E-02
 2.50000E+01    4.74210E-02
 2.60000E+01    4.70524E-02
 2.70000E+01    4.66362E-02
 2.80000E+01    4.61708E-02
 2.90000E+01    4.56569E-02
 3.00000E+01    4.50986E-02
