# n + Zn 67 : (n,xn)    
# jeff3.3    A.J. Koning and D. Rochman        EVAL-JAN16
# 
# # energies =   132
#   E(MeV)        xs(mb) 
 1.90000E-01    0.00000E+00
 2.00000E-01    1.51978E+02
 3.00000E-01    2.72872E+02
 3.99462E-01    3.42127E+02
 4.00000E-01    3.42502E+02
 5.00000E-01    4.60081E+02
 6.00000E-01    5.28575E+02
 6.13590E-01    5.35117E+02
 7.00000E-01    6.75603E+02
 8.00000E-01    7.59771E+02
 8.27049E-01    7.62825E+02
 8.84036E-01    8.57632E+02
 9.00000E-01    9.03156E+02
 9.01080E-01    9.03451E+02
 9.94607E-01    1.00683E+03
 1.00000E+00    1.03292E+03
 1.00492E+00    1.03480E+03
 1.07598E+00    1.06766E+03
 1.16003E+00    1.15500E+03
 1.20000E+00    1.20175E+03
 1.38414E+00    1.26023E+03
 1.40000E+00    1.28179E+03
 1.42820E+00    1.27992E+03
 1.46788E+00    1.28238E+03
 1.54000E+00    1.29689E+03
 1.56676E+00    1.31529E+03
 1.60000E+00    1.34666E+03
 1.62785E+00    1.33723E+03
 1.66483E+00    1.33231E+03
 1.66776E+00    1.33208E+03
 1.68168E+00    1.33346E+03
 1.70281E+00    1.34098E+03
 1.71223E+00    1.34470E+03
 1.75876E+00    1.37386E+03
 1.80000E+00    1.40641E+03
 1.80707E+00    1.40260E+03
 1.81003E+00    1.40133E+03
 1.82764E+00    1.39575E+03
 1.82916E+00    1.39550E+03
 1.83514E+00    1.39467E+03
 1.87058E+00    1.39391E+03
 1.90368E+00    1.39573E+03
 2.00000E+00    1.46347E+03
 2.20000E+00    1.51035E+03
 2.40000E+00    1.54954E+03
 2.60000E+00    1.58339E+03
 2.80000E+00    1.61355E+03
 3.00000E+00    1.64112E+03
 3.20000E+00    1.66620E+03
 3.40000E+00    1.68885E+03
 3.60000E+00    1.70801E+03
 3.80000E+00    1.72350E+03
 4.00000E+00    1.73518E+03
 4.20000E+00    1.74296E+03
 4.40000E+00    1.74713E+03
 4.60000E+00    1.74797E+03
 4.80000E+00    1.74581E+03
 5.00000E+00    1.74168E+03
 5.20000E+00    1.73551E+03
 5.40000E+00    1.72766E+03
 5.60000E+00    1.71971E+03
 5.80000E+00    1.70968E+03
 6.00000E+00    1.70051E+03
 6.20000E+00    1.69086E+03
 6.40000E+00    1.68054E+03
 6.60000E+00    1.67211E+03
 6.80000E+00    1.66149E+03
 7.00000E+00    1.65290E+03
 7.20000E+00    1.64601E+03
 7.40000E+00    1.64551E+03
 7.60000E+00    1.65466E+03
 7.80000E+00    1.66751E+03
 8.00000E+00    1.68857E+03
 8.50000E+00    1.75971E+03
 9.00000E+00    1.85857E+03
 9.50000E+00    1.96308E+03
 1.00000E+01    2.06148E+03
 1.05000E+01    2.15638E+03
 1.10000E+01    2.24213E+03
 1.15000E+01    2.31750E+03
 1.20000E+01    2.38030E+03
 1.25000E+01    2.43057E+03
 1.30000E+01    2.46988E+03
 1.35000E+01    2.49964E+03
 1.40000E+01    2.52230E+03
 1.45000E+01    2.53867E+03
 1.50000E+01    2.54898E+03
 1.60000E+01    2.55530E+03
 1.70000E+01    2.54456E+03
 1.80000E+01    2.51912E+03
 1.90000E+01    2.48577E+03
 2.00000E+01    2.46153E+03
 2.10000E+01    2.47142E+03
 2.20000E+01    2.51548E+03
 2.30000E+01    2.57349E+03
 2.40000E+01    2.62884E+03
 2.50000E+01    2.66923E+03
 2.60000E+01    2.70021E+03
 2.70000E+01    2.71937E+03
 2.80000E+01    2.72210E+03
 2.90000E+01    2.71915E+03
 3.00000E+01    2.71057E+03
 3.00000E+01    2.70691E+03
 3.20000E+01    2.69279E+03
 3.40000E+01    2.69193E+03
 3.60000E+01    2.70888E+03
 3.80000E+01    2.73022E+03
 4.00000E+01    2.74772E+03
 4.20000E+01    2.75660E+03
 4.40000E+01    2.76727E+03
 4.60000E+01    2.76365E+03
 4.80000E+01    2.76017E+03
 5.00000E+01    2.75824E+03
 5.20000E+01    2.76097E+03
 5.40000E+01    2.77081E+03
 5.60000E+01    2.77278E+03
 5.80000E+01    2.77452E+03
 6.00000E+01    2.77550E+03
 6.50000E+01    2.78759E+03
 7.00000E+01    2.79228E+03
 7.50000E+01    2.81048E+03
 8.00000E+01    2.80855E+03
 9.00000E+01    2.83927E+03
 1.00000E+02    2.90606E+03
 1.10000E+02    3.01530E+03
 1.20000E+02    3.13002E+03
 1.30000E+02    3.25378E+03
 1.40000E+02    3.38849E+03
 1.50000E+02    3.53623E+03
 1.60000E+02    3.69193E+03
 1.80000E+02    4.01212E+03
 2.00000E+02    4.40315E+03
