# n + Zn 67 : (n,n'22)  
# jeff3.3    A.J. Koning and D. Rochman        EVAL-JAN16
# uncertainties: n
# # energies =    70
#   E(MeV)       xs(mb) 
 1.71223E+00    0.00000E+00
 1.75876E+00    1.07326E+01
 1.80000E+00    2.02449E+01
 1.80707E+00    2.06268E+01
 1.81003E+00    2.07867E+01
 1.82764E+00    2.17381E+01
 1.82916E+00    2.18202E+01
 1.83514E+00    2.21432E+01
 1.87058E+00    2.40578E+01
 1.90368E+00    2.58459E+01
 2.00000E+00    3.10493E+01
 2.20000E+00    3.46036E+01
 2.40000E+00    3.34946E+01
 2.60000E+00    2.98685E+01
 2.80000E+00    2.54459E+01
 3.00000E+00    2.11575E+01
 3.20000E+00    1.73967E+01
 3.40000E+00    1.41907E+01
 3.60000E+00    1.16325E+01
 3.80000E+00    9.57829E+00
 4.00000E+00    7.93149E+00
 4.20000E+00    6.60427E+00
 4.40000E+00    5.52698E+00
 4.60000E+00    4.64439E+00
 4.80000E+00    3.91411E+00
 5.00000E+00    3.30678E+00
 5.20000E+00    2.79747E+00
 5.40000E+00    2.36873E+00
 5.60000E+00    2.00897E+00
 5.80000E+00    1.70424E+00
 6.00000E+00    1.44950E+00
 6.20000E+00    1.23363E+00
 6.40000E+00    1.05443E+00
 6.60000E+00    9.03900E-01
 6.80000E+00    7.76538E-01
 7.00000E+00    6.71688E-01
 7.20000E+00    5.82979E-01
 7.40000E+00    5.09291E-01
 7.60000E+00    4.47837E-01
 7.80000E+00    3.95425E-01
 8.00000E+00    3.51568E-01
 8.50000E+00    2.70399E-01
 9.00000E+00    2.17292E-01
 9.50000E+00    1.81999E-01
 1.00000E+01    1.58077E-01
 1.05000E+01    1.41492E-01
 1.10000E+01    1.29677E-01
 1.15000E+01    1.21016E-01
 1.20000E+01    1.14436E-01
 1.25000E+01    1.09243E-01
 1.30000E+01    1.04999E-01
 1.35000E+01    1.01420E-01
 1.40000E+01    9.83320E-02
 1.45000E+01    9.56275E-02
 1.50000E+01    9.32315E-02
 1.60000E+01    8.91631E-02
 1.70000E+01    8.57669E-02
 1.80000E+01    8.27355E-02
 1.90000E+01    7.98582E-02
 2.00000E+01    7.70540E-02
 2.10000E+01    7.43440E-02
 2.20000E+01    7.17934E-02
 2.30000E+01    6.94614E-02
 2.40000E+01    6.73783E-02
 2.50000E+01    6.55389E-02
 2.60000E+01    6.39090E-02
 2.70000E+01    6.24387E-02
 2.80000E+01    6.10738E-02
 2.90000E+01    5.97715E-02
 3.00000E+01    5.85031E-02
