# n + Zn 67 : (n,n'16)  
# jeff3.3    A.J. Koning and D. Rochman        EVAL-JAN16
# uncertainties: n
# # energies =    77
#   E(MeV)       xs(mb) 
 1.56676E+00    0.00000E+00
 1.60000E+00    8.50451E+00
 1.62785E+00    1.02531E+01
 1.66483E+00    1.25749E+01
 1.66776E+00    1.27589E+01
 1.68168E+00    1.36329E+01
 1.70281E+00    1.49595E+01
 1.71223E+00    1.55510E+01
 1.75876E+00    1.84724E+01
 1.80000E+00    2.10617E+01
 1.80707E+00    2.12607E+01
 1.81003E+00    2.13440E+01
 1.82764E+00    2.18397E+01
 1.82916E+00    2.18825E+01
 1.83514E+00    2.20508E+01
 1.87058E+00    2.30483E+01
 1.90368E+00    2.39800E+01
 2.00000E+00    2.66911E+01
 2.20000E+00    2.78826E+01
 2.40000E+00    2.59772E+01
 2.60000E+00    2.26387E+01
 2.80000E+00    1.90341E+01
 3.00000E+00    1.57163E+01
 3.20000E+00    1.28824E+01
 3.40000E+00    1.04978E+01
 3.60000E+00    8.60566E+00
 3.80000E+00    7.08689E+00
 4.00000E+00    5.86593E+00
 4.20000E+00    4.87694E+00
 4.40000E+00    4.06914E+00
 4.60000E+00    3.40325E+00
 4.80000E+00    2.84931E+00
 5.00000E+00    2.38685E+00
 5.20000E+00    1.99817E+00
 5.40000E+00    1.67085E+00
 5.60000E+00    1.39649E+00
 5.80000E+00    1.16459E+00
 6.00000E+00    9.71559E-01
 6.20000E+00    8.08660E-01
 6.40000E+00    6.73993E-01
 6.60000E+00    5.61511E-01
 6.80000E+00    4.66984E-01
 7.00000E+00    3.89595E-01
 7.20000E+00    3.24579E-01
 7.40000E+00    2.71051E-01
 7.60000E+00    2.26712E-01
 7.80000E+00    1.89268E-01
 8.00000E+00    1.58201E-01
 8.50000E+00    1.01781E-01
 9.00000E+00    6.60592E-02
 9.50000E+00    4.32713E-02
 1.00000E+01    2.85914E-02
 1.05000E+01    1.90416E-02
 1.10000E+01    1.27632E-02
 1.15000E+01    8.61255E-03
 1.20000E+01    5.84504E-03
 1.25000E+01    3.98778E-03
 1.30000E+01    2.73463E-03
 1.35000E+01    1.88480E-03
 1.40000E+01    1.30626E-03
 1.45000E+01    9.10282E-04
 1.50000E+01    6.37926E-04
 1.60000E+01    3.18630E-04
 1.70000E+01    1.62275E-04
 1.80000E+01    8.39852E-05
 1.90000E+01    4.40248E-05
 2.00000E+01    2.33288E-05
 2.10000E+01    1.25042E-05
 2.20000E+01    6.78398E-06
 2.30000E+01    3.72268E-06
 2.40000E+01    2.06342E-06
 2.50000E+01    1.14495E-06
 2.60000E+01    6.49000E-07
 2.70000E+01    3.71830E-07
 2.80000E+01    2.14490E-07
 2.90000E+01    1.25100E-07
 3.00000E+01    7.35450E-08
