# n + Zn 67 : (n,xa)    
# jeff3.3    A.J. Koning and D. Rochman        EVAL-JAN16
# 
# # energies =   132
#   E(MeV)        xs(mb) 
 1.90000E-01    2.79484E-01
 2.00000E-01    2.70471E-01
 3.00000E-01    2.63603E-01
 3.99462E-01    2.77396E-01
 4.00000E-01    2.77471E-01
 5.00000E-01    2.83121E-01
 6.00000E-01    2.97666E-01
 6.13590E-01    2.99491E-01
 7.00000E-01    3.09562E-01
 8.00000E-01    3.73015E-01
 8.27049E-01    3.82726E-01
 8.84036E-01    4.03186E-01
 9.00000E-01    4.08917E-01
 9.01080E-01    4.09053E-01
 9.94607E-01    4.20797E-01
 1.00000E+00    4.21474E-01
 1.00492E+00    4.22872E-01
 1.07598E+00    4.43069E-01
 1.16003E+00    4.66957E-01
 1.20000E+00    4.78317E-01
 1.38414E+00    6.30685E-01
 1.40000E+00    6.43809E-01
 1.42820E+00    6.64221E-01
 1.46788E+00    6.92942E-01
 1.54000E+00    7.45144E-01
 1.56676E+00    7.64514E-01
 1.60000E+00    7.88574E-01
 1.62785E+00    8.17581E-01
 1.66483E+00    8.56098E-01
 1.66776E+00    8.59150E-01
 1.68168E+00    8.73648E-01
 1.70281E+00    8.95656E-01
 1.71223E+00    9.05468E-01
 1.75876E+00    9.53931E-01
 1.80000E+00    9.96885E-01
 1.80707E+00    1.00196E+00
 1.81003E+00    1.00409E+00
 1.82764E+00    1.01673E+00
 1.82916E+00    1.01782E+00
 1.83514E+00    1.02211E+00
 1.87058E+00    1.04756E+00
 1.90368E+00    1.07132E+00
 2.00000E+00    1.14047E+00
 2.20000E+00    1.27458E+00
 2.40000E+00    1.43624E+00
 2.60000E+00    1.55277E+00
 2.80000E+00    1.69433E+00
 3.00000E+00    1.79993E+00
 3.20000E+00    1.94517E+00
 3.40000E+00    2.04921E+00
 3.60000E+00    2.15802E+00
 3.80000E+00    2.27817E+00
 4.00000E+00    2.35189E+00
 4.20000E+00    2.47817E+00
 4.40000E+00    2.60548E+00
 4.60000E+00    2.73584E+00
 4.80000E+00    2.93073E+00
 5.00000E+00    3.02165E+00
 5.20000E+00    3.21482E+00
 5.40000E+00    3.48497E+00
 5.60000E+00    3.34041E+00
 5.80000E+00    4.13959E+00
 6.00000E+00    4.31409E+00
 6.20000E+00    4.55938E+00
 6.40000E+00    5.14688E+00
 6.60000E+00    4.80488E+00
 6.80000E+00    6.11599E+00
 7.00000E+00    6.43804E+00
 7.20000E+00    6.67910E+00
 7.40000E+00    7.59982E+00
 7.60000E+00    7.17383E+00
 7.80000E+00    8.71675E+00
 8.00000E+00    9.15210E+00
 8.50000E+00    1.06408E+01
 9.00000E+00    1.21705E+01
 9.50000E+00    1.37182E+01
 1.00000E+01    1.53080E+01
 1.05000E+01    1.68800E+01
 1.10000E+01    1.84578E+01
 1.15000E+01    2.00615E+01
 1.20000E+01    2.16796E+01
 1.25000E+01    2.33695E+01
 1.30000E+01    2.51565E+01
 1.35000E+01    2.70145E+01
 1.40000E+01    2.88366E+01
 1.45000E+01    3.06509E+01
 1.50000E+01    3.24299E+01
 1.60000E+01    3.58220E+01
 1.70000E+01    3.88881E+01
 1.80000E+01    4.22842E+01
 1.90000E+01    4.75856E+01
 2.00000E+01    5.40942E+01
 2.10000E+01    6.02192E+01
 2.20000E+01    6.41401E+01
 2.30000E+01    6.68937E+01
 2.40000E+01    6.90184E+01
 2.50000E+01    6.96653E+01
 2.60000E+01    7.13547E+01
 2.70000E+01    7.29942E+01
 2.80000E+01    7.43036E+01
 2.90000E+01    7.59497E+01
 3.00000E+01    7.74456E+01
 3.00000E+01    7.73905E+01
 3.20000E+01    8.05886E+01
 3.40000E+01    8.41977E+01
 3.60000E+01    8.74420E+01
 3.80000E+01    8.99359E+01
 4.00000E+01    9.20267E+01
 4.20000E+01    9.43935E+01
 4.40000E+01    9.82069E+01
 4.60000E+01    1.02494E+02
 4.80000E+01    1.05552E+02
 5.00000E+01    1.08673E+02
 5.20000E+01    1.10248E+02
 5.40000E+01    1.11706E+02
 5.60000E+01    1.11992E+02
 5.80000E+01    1.12213E+02
 6.00000E+01    1.12168E+02
 6.50000E+01    1.12207E+02
 7.00000E+01    1.10956E+02
 7.50000E+01    1.10407E+02
 8.00000E+01    1.09213E+02
 9.00000E+01    1.08860E+02
 1.00000E+02    1.15422E+02
 1.10000E+02    1.27960E+02
 1.20000E+02    1.39990E+02
 1.30000E+02    1.50749E+02
 1.40000E+02    1.61927E+02
 1.50000E+02    1.72200E+02
 1.60000E+02    1.82613E+02
 1.80000E+02    2.10029E+02
 2.00000E+02    2.49959E+02
