# n + Zn 67 : (n,n'14)  
# jeff3.3    A.J. Koning and D. Rochman        EVAL-JAN16
# uncertainties: n
# # energies =    79
#   E(MeV)       xs(mb) 
 1.46788E+00    0.00000E+00
 1.54000E+00    1.00194E+01
 1.56676E+00    1.37371E+01
 1.60000E+00    1.83551E+01
 1.62785E+00    1.98044E+01
 1.66483E+00    2.17289E+01
 1.66776E+00    2.18814E+01
 1.68168E+00    2.26058E+01
 1.70281E+00    2.37054E+01
 1.71223E+00    2.41956E+01
 1.75876E+00    2.66171E+01
 1.80000E+00    2.87632E+01
 1.80707E+00    2.89054E+01
 1.81003E+00    2.89649E+01
 1.82764E+00    2.93190E+01
 1.82916E+00    2.93496E+01
 1.83514E+00    2.94698E+01
 1.87058E+00    3.01824E+01
 1.90368E+00    3.08480E+01
 2.00000E+00    3.27848E+01
 2.20000E+00    3.21973E+01
 2.40000E+00    2.88444E+01
 2.60000E+00    2.45147E+01
 2.80000E+00    2.02827E+01
 3.00000E+00    1.65776E+01
 3.20000E+00    1.35026E+01
 3.40000E+00    1.09612E+01
 3.60000E+00    8.96571E+00
 3.80000E+00    7.37296E+00
 4.00000E+00    6.09606E+00
 4.20000E+00    5.06285E+00
 4.40000E+00    4.21895E+00
 4.60000E+00    3.52314E+00
 4.80000E+00    2.94436E+00
 5.00000E+00    2.46145E+00
 5.20000E+00    2.05614E+00
 5.40000E+00    1.71551E+00
 5.60000E+00    1.43066E+00
 5.80000E+00    1.19061E+00
 6.00000E+00    9.91446E-01
 6.20000E+00    8.23728E-01
 6.40000E+00    6.85478E-01
 6.60000E+00    5.70310E-01
 6.80000E+00    4.73746E-01
 7.00000E+00    3.94790E-01
 7.20000E+00    3.28667E-01
 7.40000E+00    2.74241E-01
 7.60000E+00    2.29227E-01
 7.80000E+00    1.91281E-01
 8.00000E+00    1.59798E-01
 8.50000E+00    1.02723E-01
 9.00000E+00    6.66305E-02
 9.50000E+00    4.36257E-02
 1.00000E+01    2.88146E-02
 1.05000E+01    1.91834E-02
 1.10000E+01    1.28535E-02
 1.15000E+01    8.67015E-03
 1.20000E+01    5.88178E-03
 1.25000E+01    4.01126E-03
 1.30000E+01    2.74974E-03
 1.35000E+01    1.89464E-03
 1.40000E+01    1.31276E-03
 1.45000E+01    9.14658E-04
 1.50000E+01    6.40919E-04
 1.60000E+01    3.20073E-04
 1.70000E+01    1.62976E-04
 1.80000E+01    8.43193E-05
 1.90000E+01    4.41808E-05
 2.00000E+01    2.34013E-05
 2.10000E+01    1.25386E-05
 2.20000E+01    6.80090E-06
 2.30000E+01    3.73134E-06
 2.40000E+01    2.06801E-06
 2.50000E+01    1.14741E-06
 2.60000E+01    6.50350E-07
 2.70000E+01    3.72580E-07
 2.80000E+01    2.14910E-07
 2.90000E+01    1.25330E-07
 3.00000E+01    7.36720E-08
