# n + Zn 67 : (n,xp)    
# jeff3.3    A.J. Koning and D. Rochman        EVAL-JAN16
# 
# # energies =   132
#   E(MeV)        xs(mb) 
 1.90000E-01    6.32307E-03
 2.00000E-01    7.02588E-03
 3.00000E-01    5.48737E-03
 3.99462E-01    4.60240E-03
 4.00000E-01    4.59761E-03
 5.00000E-01    4.02118E-03
 6.00000E-01    3.73229E-03
 6.13590E-01    3.72546E-03
 7.00000E-01    3.68199E-03
 8.00000E-01    3.67101E-03
 8.27049E-01    3.67000E-03
 8.84036E-01    3.67000E-03
 9.00000E-01    3.67000E-03
 9.01080E-01    3.67000E-03
 9.94607E-01    3.67002E-03
 1.00000E+00    3.67002E-03
 1.00492E+00    3.67322E-03
 1.07598E+00    3.71942E-03
 1.16003E+00    3.77407E-03
 1.20000E+00    3.80006E-03
 1.38414E+00    4.90568E-03
 1.40000E+00    5.00091E-03
 1.42820E+00    7.11808E-03
 1.46788E+00    1.00971E-02
 1.54000E+00    1.55117E-02
 1.56676E+00    1.75207E-02
 1.60000E+00    2.00163E-02
 1.62785E+00    5.47744E-02
 1.66483E+00    1.00927E-01
 1.66776E+00    1.04584E-01
 1.68168E+00    1.21957E-01
 1.70281E+00    1.48328E-01
 1.71223E+00    1.60085E-01
 1.75876E+00    2.18156E-01
 1.80000E+00    2.69626E-01
 1.80707E+00    2.75805E-01
 1.81003E+00    2.78392E-01
 1.82764E+00    2.93782E-01
 1.82916E+00    2.95110E-01
 1.83514E+00    3.00337E-01
 1.87058E+00    3.31309E-01
 1.90368E+00    3.60237E-01
 2.00000E+00    4.44416E-01
 2.20000E+00    6.27032E-01
 2.40000E+00    8.16759E-01
 2.60000E+00    1.01439E+00
 2.80000E+00    1.22025E+00
 3.00000E+00    1.43466E+00
 3.20000E+00    1.65798E+00
 3.40000E+00    1.89135E+00
 3.60000E+00    2.13354E+00
 3.80000E+00    2.38579E+00
 4.00000E+00    2.64843E+00
 4.20000E+00    2.92186E+00
 4.40000E+00    3.20650E+00
 4.60000E+00    3.50353E+00
 4.80000E+00    3.81186E+00
 5.00000E+00    4.13259E+00
 5.20000E+00    4.46503E+00
 5.40000E+00    4.81395E+00
 5.60000E+00    5.17430E+00
 5.80000E+00    5.54507E+00
 6.00000E+00    5.94076E+00
 6.20000E+00    6.34500E+00
 6.40000E+00    6.76433E+00
 6.60000E+00    7.20422E+00
 6.80000E+00    7.65107E+00
 7.00000E+00    8.12818E+00
 7.20000E+00    8.61318E+00
 7.40000E+00    9.12111E+00
 7.60000E+00    9.64546E+00
 7.80000E+00    1.01878E+01
 8.00000E+00    1.07488E+01
 8.50000E+00    1.22330E+01
 9.00000E+00    1.38368E+01
 9.50000E+00    1.55570E+01
 1.00000E+01    1.73767E+01
 1.05000E+01    1.93122E+01
 1.10000E+01    2.13398E+01
 1.15000E+01    2.34800E+01
 1.20000E+01    2.58535E+01
 1.25000E+01    2.87368E+01
 1.30000E+01    3.24253E+01
 1.35000E+01    3.70412E+01
 1.40000E+01    4.25211E+01
 1.45000E+01    4.86329E+01
 1.50000E+01    5.50322E+01
 1.60000E+01    6.77067E+01
 1.70000E+01    7.98196E+01
 1.80000E+01    9.04371E+01
 1.90000E+01    9.99436E+01
 2.00000E+01    1.10386E+02
 2.10000E+01    1.19957E+02
 2.20000E+01    1.29669E+02
 2.30000E+01    1.38223E+02
 2.40000E+01    1.47224E+02
 2.50000E+01    1.56894E+02
 2.60000E+01    1.65920E+02
 2.70000E+01    1.74704E+02
 2.80000E+01    1.83096E+02
 2.90000E+01    1.91432E+02
 3.00000E+01    1.99473E+02
 3.00000E+01    1.98664E+02
 3.20000E+01    2.14100E+02
 3.40000E+01    2.29349E+02
 3.60000E+01    2.44428E+02
 3.80000E+01    2.59288E+02
 4.00000E+01    2.74481E+02
 4.20000E+01    2.90919E+02
 4.40000E+01    3.09687E+02
 4.60000E+01    3.28174E+02
 4.80000E+01    3.45404E+02
 5.00000E+01    3.62088E+02
 5.20000E+01    3.77273E+02
 5.40000E+01    3.92867E+02
 5.60000E+01    4.06859E+02
 5.80000E+01    4.20379E+02
 6.00000E+01    4.32910E+02
 6.50000E+01    4.62703E+02
 7.00000E+01    4.87032E+02
 7.50000E+01    5.08549E+02
 8.00000E+01    5.21577E+02
 9.00000E+01    5.44904E+02
 1.00000E+02    5.70425E+02
 1.10000E+02    6.12882E+02
 1.20000E+02    6.57021E+02
 1.30000E+02    7.05879E+02
 1.40000E+02    7.61002E+02
 1.50000E+02    8.24885E+02
 1.60000E+02    8.96869E+02
 1.80000E+02    1.05738E+03
 2.00000E+02    1.28540E+03
