# n + Zn 67 : (n,n'15)  
# jeff3.3    A.J. Koning and D. Rochman        EVAL-JAN16
# uncertainties: n
# # energies =    78
#   E(MeV)       xs(mb) 
 1.54000E+00    0.00000E+00
 1.56676E+00    1.30267E+01
 1.60000E+00    2.92079E+01
 1.62785E+00    3.17584E+01
 1.66483E+00    3.51450E+01
 1.66776E+00    3.54133E+01
 1.68168E+00    3.66881E+01
 1.70281E+00    3.86231E+01
 1.71223E+00    3.94858E+01
 1.75876E+00    4.37470E+01
 1.80000E+00    4.75237E+01
 1.80707E+00    4.76992E+01
 1.81003E+00    4.77727E+01
 1.82764E+00    4.82098E+01
 1.82916E+00    4.82475E+01
 1.83514E+00    4.83960E+01
 1.87058E+00    4.92757E+01
 1.90368E+00    5.00973E+01
 2.00000E+00    5.24882E+01
 2.20000E+00    4.99814E+01
 2.40000E+00    4.40177E+01
 2.60000E+00    3.71377E+01
 2.80000E+00    3.06925E+01
 3.00000E+00    2.51449E+01
 3.20000E+00    2.05602E+01
 3.40000E+00    1.67580E+01
 3.60000E+00    1.37544E+01
 3.80000E+00    1.13413E+01
 4.00000E+00    9.39562E+00
 4.20000E+00    7.81540E+00
 4.40000E+00    6.52287E+00
 4.60000E+00    5.45736E+00
 4.80000E+00    4.57269E+00
 5.00000E+00    3.83637E+00
 5.20000E+00    3.21985E+00
 5.40000E+00    2.70282E+00
 5.60000E+00    2.27108E+00
 5.80000E+00    1.90727E+00
 6.00000E+00    1.60523E+00
 6.20000E+00    1.35061E+00
 6.40000E+00    1.14024E+00
 6.60000E+00    9.64346E-01
 6.80000E+00    8.16300E-01
 7.00000E+00    6.94717E-01
 7.20000E+00    5.92254E-01
 7.40000E+00    5.07504E-01
 7.60000E+00    4.36960E-01
 7.80000E+00    3.77091E-01
 8.00000E+00    3.27088E-01
 8.50000E+00    2.35212E-01
 9.00000E+00    1.75795E-01
 9.50000E+00    1.36909E-01
 1.00000E+01    1.11080E-01
 1.05000E+01    9.36439E-02
 1.10000E+01    8.16388E-02
 1.15000E+01    7.32143E-02
 1.20000E+01    6.71449E-02
 1.25000E+01    6.26447E-02
 1.30000E+01    5.92071E-02
 1.35000E+01    5.65047E-02
 1.40000E+01    5.43278E-02
 1.45000E+01    5.25404E-02
 1.50000E+01    5.10489E-02
 1.60000E+01    4.87102E-02
 1.70000E+01    4.69364E-02
 1.80000E+01    4.54684E-02
 1.90000E+01    4.41437E-02
 2.00000E+01    4.28905E-02
 2.10000E+01    4.17029E-02
 2.20000E+01    4.06034E-02
 2.30000E+01    3.96145E-02
 2.40000E+01    3.87455E-02
 2.50000E+01    3.79880E-02
 2.60000E+01    3.73201E-02
 2.70000E+01    3.67132E-02
 2.80000E+01    3.61381E-02
 2.90000E+01    3.55733E-02
 3.00000E+01    3.50052E-02
