# n + Nb 94 : (n,a)     
# jendl.ad   A.Ichihara, K.Shibata, S.Kunieda+ EVAL-AUG13
# uncertainties: n
# # energies =    27
#   E(MeV)       xs(mb) 
 7.00000E-01    0.00000E+00
 8.00000E-01    1.28000E-08
 9.00000E-01    7.60400E-08
 1.00000E+00    1.89000E-07
 1.50000E+00    9.31700E-04
 2.00000E+00    6.16490E-03
 2.50000E+00    1.64810E-02
 3.00000E+00    3.60600E-02
 3.50000E+00    6.00200E-02
 4.00000E+00    9.72200E-02
 5.00000E+00    2.23100E-01
 6.00000E+00    4.95300E-01
 7.00000E+00    1.02210E+00
 7.30000E+00    1.27430E+00
 8.00000E+00    2.05290E+00
 9.00000E+00    3.60700E+00
 1.00000E+01    5.63300E+00
 1.10000E+01    7.81700E+00
 1.20000E+01    9.92000E+00
 1.30000E+01    1.16600E+01
 1.40000E+01    1.26520E+01
 1.50000E+01    1.27340E+01
 1.60000E+01    1.20190E+01
 1.70000E+01    1.09570E+01
 1.80000E+01    9.77000E+00
 1.90000E+01    8.63300E+00
 2.00000E+01    7.57300E+00
