# n + Nb 94 : (n,a)m    
# jendl.ad   A.Ichihara, K.Shibata, S.Kunieda+ EVAL-AUG13
# uncertainties: n
# # energies =    25
#   E(MeV)       xs(mb) 
 1.00000E-11    0.00000E+00
 1.00000E+00    0.00000E+00
 1.50000E+00    6.73600E-04
 2.00000E+00    5.36800E-03
 2.50000E+00    1.14500E-02
 3.00000E+00    2.33700E-02
 3.50000E+00    3.58100E-02
 4.00000E+00    5.50300E-02
 5.00000E+00    1.16700E-01
 6.00000E+00    2.55700E-01
 7.00000E+00    5.83600E-01
 7.30000E+00    7.52000E-01
 8.00000E+00    1.31200E+00
 9.00000E+00    2.51900E+00
 1.00000E+01    4.26200E+00
 1.10000E+01    6.09500E+00
 1.20000E+01    7.87900E+00
 1.30000E+01    9.33700E+00
 1.40000E+01    1.02400E+01
 1.50000E+01    1.03900E+01
 1.60000E+01    9.88300E+00
 1.70000E+01    9.04500E+00
 1.80000E+01    8.08600E+00
 1.90000E+01    7.15400E+00
 2.00000E+01    6.29700E+00
