# n + Sn121m: (n,any)   
# endfb8.0      G. Nobre, D. Brown, M. Herman  EVAL-Jul17
# uncertainties: n
# # energies =    78
#   E(MeV)       xs(mb) 
 1.00000E-11    1.77090E-13
 2.00000E-11    1.25220E-13
 4.00000E-11    8.85440E-14
 8.00000E-11    6.26100E-14
 1.60000E-10    4.42720E-14
 3.20000E-10    3.13050E-14
 6.40000E-10    2.21360E-14
 1.28000E-09    1.56530E-14
 2.56000E-09    1.10680E-14
 5.12000E-09    7.82630E-15
 1.02400E-08    5.53400E-15
 2.04800E-08    3.91310E-15
 2.53000E-08    3.52070E-15
 5.06000E-08    2.48950E-15
 1.01200E-07    1.76030E-15
 2.02400E-07    1.24480E-15
 4.04800E-07    8.80170E-16
 8.09600E-07    6.22380E-16
 1.61920E-06    4.40090E-16
 3.23840E-06    3.11190E-16
 6.47680E-06    2.20040E-16
 1.29536E-05    1.55590E-16
 2.59072E-05    1.10020E-16
 5.18144E-05    7.77970E-17
 1.00000E-04    5.60000E-17
 2.00000E-04    3.39550E-17
 5.00000E-04    7.51900E-18
 7.00000E-04    1.26350E-17
 1.00000E-03    7.99900E-18
 2.00000E-03    0.00000E+00
 5.00000E-03    3.07010E-18
 7.00000E-03    0.00000E+00
 1.00000E-02    1.55700E-18
 2.00000E-02    0.00000E+00
 5.00000E-02    0.00000E+00
 7.00000E-02    0.00000E+00
 1.00000E-01    0.00000E+00
 2.00000E-01    0.00000E+00
 3.00000E-01    0.00000E+00
 4.00000E-01    0.00000E+00
 5.00000E-01    0.00000E+00
 7.00000E-01    0.00000E+00
 8.50000E-01    0.00000E+00
 1.00000E+00    4.32000E-15
 1.30000E+00    1.15960E-14
 1.50000E+00    1.86490E-14
 1.80000E+00    9.76390E-12
 2.00000E+00    2.73760E-11
 2.25000E+00    7.03430E-11
 2.50000E+00    1.25190E-10
 2.75000E+00    2.21280E-10
 3.00000E+00    4.31770E-10
 3.20000E+00    8.63900E-10
 3.40000E+00    2.00730E-09
 3.60000E+00    4.92260E-09
 3.80000E+00    1.16580E-08
 4.00000E+00    2.64760E-08
 4.20000E+00    5.72840E-08
 4.40000E+00    1.18660E-07
 4.60000E+00    2.35150E-07
 4.80000E+00    4.47860E-07
 5.00000E+00    8.21610E-07
 5.50000E+00    3.25353E-06
 6.00000E+00    1.08927E-05
 7.00000E+00    8.45719E-05
 8.00000E+00    4.74609E-04
 9.00000E+00    2.15610E-03
 1.00000E+01    8.44894E-03
 1.10000E+01    2.96334E-02
 1.20000E+01    8.80002E-02
 1.30000E+01    2.54124E-01
 1.40000E+01    7.00031E-01
 1.50000E+01    1.63481E+00
 1.60000E+01    4.12800E+00
 1.70000E+01    3.08904E+01
 1.80000E+01    1.09670E+02
 1.90000E+01    2.45666E+02
 2.00000E+01    4.09793E+02
