# n + Ra226 : (n,f)     
# jendl4.0   N.TAKAGI                          EVAL-AUG88
# uncertainties: n
# # energies =   171
#   E(MeV)       xs(mb) 
 1.00000E-11    7.56956E-02
 1.00000E-07    2.51583E-03
 4.13990E-07    1.62211E-03
 5.31580E-07    1.43115E-03
 6.82560E-07    1.26268E-03
 8.76420E-07    1.11403E-03
 1.12540E-06    9.83008E-04
 1.44500E-06    8.67485E-04
 1.85540E-06    7.66250E-04
 2.37240E-06    6.76139E-04
 3.05900E-06    5.95845E-04
 3.92790E-06    5.25746E-04
 5.04350E-06    4.63825E-04
 6.47600E-06    4.09236E-04
 8.31530E-06    3.62482E-04
 1.06770E-05    3.50014E-04
 1.37100E-05    3.50013E-04
 1.76030E-05    3.50013E-04
 2.26030E-05    3.50012E-04
 2.92030E-05    3.50011E-04
 3.72670E-05    3.50010E-04
 4.78510E-05    3.50008E-04
 6.14420E-05    3.50006E-04
 7.88930E-05    3.50003E-04
 1.01300E-04    3.50000E-04
 1.30070E-04    3.50000E-04
 1.67020E-04    3.50000E-04
 2.14450E-04    3.50000E-04
 2.75360E-04    3.50000E-04
 3.53580E-04    3.50000E-04
 4.54000E-04    3.50000E-04
 5.82950E-04    3.50000E-04
 7.48520E-04    3.50000E-04
 9.61120E-04    3.50000E-04
 1.23410E-03    3.50000E-04
 1.58460E-03    3.50000E-04
 2.03470E-03    3.50000E-04
 2.24870E-03    3.50000E-04
 2.48520E-03    3.50000E-04
 2.61260E-03    3.50000E-04
 2.74650E-03    3.50000E-04
 3.03540E-03    3.50000E-04
 3.35460E-03    3.50000E-04
 3.70740E-03    3.50000E-04
 4.30740E-03    3.50000E-04
 5.53080E-03    3.50000E-04
 7.10170E-03    3.50000E-04
 9.11880E-03    3.50000E-04
 1.17090E-02    3.50000E-04
 1.50340E-02    3.50000E-04
 1.93050E-02    3.50000E-04
 2.18750E-02    3.50000E-04
 2.35790E-02    3.50000E-04
 2.41760E-02    3.50000E-04
 2.47880E-02    3.50000E-04
 2.60580E-02    3.50000E-04
 2.70000E-02    3.50000E-04
 2.85000E-02    3.50000E-04
 3.18280E-02    3.50000E-04
 3.43070E-02    3.50000E-04
 4.08680E-02    3.50000E-04
 4.63090E-02    3.50000E-04
 5.24750E-02    3.50000E-04
 5.65620E-02    3.50000E-04
 6.73790E-02    3.50000E-04
 7.20000E-02    3.50000E-04
 7.95000E-02    3.50000E-04
 8.25000E-02    3.50000E-04
 8.65170E-02    3.50000E-04
 9.80370E-02    3.50000E-04
 1.11090E-01    3.50000E-04
 1.16790E-01    3.50000E-04
 1.22770E-01    3.50000E-04
 1.29070E-01    3.50000E-04
 1.35690E-01    3.50000E-04
 1.42640E-01    3.50000E-04
 1.49960E-01    3.50000E-04
 1.57640E-01    3.50000E-04
 1.65730E-01    3.50000E-04
 1.74220E-01    3.50000E-04
 1.83160E-01    3.50000E-04
 1.92550E-01    3.50000E-04
 2.02420E-01    3.50000E-04
 2.12800E-01    3.50000E-04
 2.23710E-01    3.50000E-04
 2.35180E-01    3.50000E-04
 2.47240E-01    3.50000E-04
 2.73240E-01    3.50000E-04
 2.87250E-01    3.50000E-04
 2.94520E-01    3.50000E-04
 2.97200E-01    3.50000E-04
 2.98500E-01    3.50000E-04
 3.01970E-01    3.50000E-04
 3.33730E-01    3.50000E-04
 3.68830E-01    3.50000E-04
 3.87740E-01    3.50000E-04
 4.07620E-01    3.50000E-04
 4.50490E-01    3.50000E-04
 4.97870E-01    3.61568E-04
 5.23400E-01    3.89969E-04
 5.50230E-01    4.20544E-04
 5.78440E-01    4.53674E-04
 6.08100E-01    4.89399E-04
 6.39280E-01    5.27851E-04
 6.72060E-01    5.69489E-04
 7.06510E-01    6.14163E-04
 7.42740E-01    6.62578E-04
 7.80820E-01    7.14594E-04
 8.20850E-01    7.70979E-04
 8.62940E-01    8.31433E-04
 9.07180E-01    9.02784E-04
 9.61640E-01    9.73287E-04
 1.00260E+00    1.16359E-03
 1.10800E+00    1.43244E-03
 1.16480E+00    1.64879E-03
 1.22460E+00    1.89731E-03
 1.28730E+00    2.18260E-03
 1.35340E+00    2.51212E-03
 1.42270E+00    2.89075E-03
 1.49570E+00    3.32611E-03
 1.57240E+00    3.82774E-03
 1.65300E+00    4.40427E-03
 1.73770E+00    5.06702E-03
 1.82680E+00    5.83163E-03
 1.92050E+00    6.71876E-03
 2.01900E+00    8.13858E-03
 2.12250E+00    1.00896E-02
 2.23130E+00    1.20532E-02
 2.30690E+00    1.34138E-02
 2.34570E+00    1.41510E-02
 2.36530E+00    1.46701E-02
 2.38520E+00    1.60560E-02
 2.46600E+00    1.92262E-02
 2.59240E+00    2.38346E-02
 2.72530E+00    2.95496E-02
 2.86500E+00    3.67202E-02
 3.01190E+00    6.87460E-02
 3.16640E+00    1.65475E-01
 3.32870E+00    5.65752E-01
 3.67880E+00    1.32586E+00
 4.06570E+00    1.86838E+00
 4.49330E+00    2.07373E+00
 4.72370E+00    2.22469E+00
 4.96590E+00    2.38508E+00
 5.22050E+00    2.55944E+00
 5.48810E+00    2.74360E+00
 5.76950E+00    2.93708E+00
 6.06530E+00    2.99999E+00
 6.37630E+00    2.99999E+00
 6.59240E+00    2.99999E+00
 6.70320E+00    3.00000E+00
 7.04690E+00    3.00000E+00
 7.40820E+00    3.00000E+00
 7.78800E+00    3.00864E+00
 8.18730E+00    3.07910E+00
 8.60710E+00    3.16736E+00
 9.04840E+00    3.48955E+00
 9.51230E+00    4.01408E+00
 1.00000E+01    4.47495E+00
 1.05130E+01    4.84790E+00
 1.10520E+01    5.88774E+00
 1.16180E+01    7.64433E+00
 1.22140E+01    9.01810E+00
 1.28400E+01    1.03279E+01
 1.34990E+01    1.11688E+01
 1.38400E+01    1.16696E+01
 1.41910E+01    1.30350E+01
 1.45500E+01    1.46906E+01
 1.49180E+01    1.72684E+01
 1.56830E+01    2.01546E+01
 1.64870E+01    2.02658E+01
