# n + Ru 98 : (n,tot)   
# endfb8.0   JNDC FP Nuclear Data W.G.         EVAL-MAR90
# uncertainties: n
# # energies =   171
#   E(MeV)       xs(mb) 
 1.00000E-11    9.58326E+04
 1.00000E-07    8.03332E+03
 4.13990E-07    7.00197E+03
 5.31580E-07    6.75495E+03
 6.82560E-07    6.57039E+03
 8.76420E-07    6.41330E+03
 1.12540E-06    6.26095E+03
 1.44500E-06    6.11252E+03
 1.85540E-06    5.99215E+03
 2.37240E-06    5.89977E+03
 3.05900E-06    5.80929E+03
 3.92790E-06    5.72173E+03
 5.04350E-06    5.63982E+03
 6.47600E-06    5.58457E+03
 8.31530E-06    5.53178E+03
 1.06770E-05    5.48094E+03
 1.37100E-05    5.42930E+03
 1.76030E-05    5.40072E+03
 2.26030E-05    5.37354E+03
 2.92030E-05    5.35004E+03
 3.72670E-05    5.32709E+03
 4.78510E-05    5.29996E+03
 6.14420E-05    5.27888E+03
 7.88930E-05    5.25375E+03
 1.01300E-04    5.22719E+03
 1.30070E-04    1.55043E+04
 1.67020E-04    1.83102E+04
 2.14450E-04    1.67587E+04
 2.75360E-04    1.53934E+04
 3.53580E-04    1.41944E+04
 4.54000E-04    1.31406E+04
 5.82950E-04    1.22191E+04
 7.48520E-04    1.14113E+04
 9.61120E-04    1.07074E+04
 1.23410E-03    1.00959E+04
 1.58460E-03    9.56622E+03
 2.03470E-03    9.23732E+03
 2.24870E-03    9.06804E+03
 2.48520E-03    8.94547E+03
 2.61260E-03    8.86820E+03
 2.74650E-03    8.75603E+03
 3.03540E-03    8.61527E+03
 3.35460E-03    8.48384E+03
 3.70740E-03    8.33346E+03
 4.30740E-03    8.12026E+03
 5.53080E-03    7.89646E+03
 7.10170E-03    7.71966E+03
 9.11880E-03    7.58509E+03
 1.17090E-02    7.49049E+03
 1.50340E-02    7.43218E+03
 1.93050E-02    7.41020E+03
 2.18750E-02    7.40617E+03
 2.35790E-02    7.40628E+03
 2.41760E-02    7.40666E+03
 2.47880E-02    7.40773E+03
 2.60580E-02    7.40986E+03
 2.70000E-02    7.41314E+03
 2.85000E-02    7.42150E+03
 3.18280E-02    7.43397E+03
 3.43070E-02    7.45686E+03
 4.08680E-02    7.49127E+03
 4.63090E-02    7.52579E+03
 5.24750E-02    7.55651E+03
 5.65620E-02    7.59858E+03
 6.73790E-02    7.64160E+03
 7.20000E-02    7.67245E+03
 7.95000E-02    7.69830E+03
 8.25000E-02    7.71451E+03
 8.65170E-02    7.74766E+03
 9.80370E-02    7.77055E+03
 1.11090E-01    7.77423E+03
 1.16790E-01    7.77741E+03
 1.22770E-01    7.78074E+03
 1.29070E-01    7.78425E+03
 1.35690E-01    7.78794E+03
 1.42640E-01    7.79182E+03
 1.49960E-01    7.79091E+03
 1.57640E-01    7.78477E+03
 1.65730E-01    7.77831E+03
 1.74220E-01    7.77152E+03
 1.83160E-01    7.76438E+03
 1.92550E-01    7.75687E+03
 2.02420E-01    7.74898E+03
 2.12800E-01    7.73732E+03
 2.23710E-01    7.72135E+03
 2.35180E-01    7.70456E+03
 2.47240E-01    7.67763E+03
 2.73240E-01    7.64885E+03
 2.87250E-01    7.63360E+03
 2.94520E-01    7.62648E+03
 2.97200E-01    7.62364E+03
 2.98500E-01    7.61988E+03
 3.01970E-01    7.58435E+03
 3.33730E-01    7.51555E+03
 3.68830E-01    7.45949E+03
 3.87740E-01    7.42124E+03
 4.07620E-01    7.36999E+03
 4.50490E-01    7.29654E+03
 4.97870E-01    7.23659E+03
 5.23400E-01    7.19123E+03
 5.50230E-01    7.14232E+03
 5.78440E-01    7.09089E+03
 6.08100E-01    7.03682E+03
 6.39280E-01    6.98179E+03
 6.72060E-01    6.92582E+03
 7.06510E-01    6.86698E+03
 7.42740E-01    6.80513E+03
 7.80820E-01    6.74010E+03
 8.20850E-01    6.67248E+03
 8.62940E-01    6.60580E+03
 9.07180E-01    6.53046E+03
 9.61640E-01    6.45732E+03
 1.00260E+00    6.34654E+03
 1.10800E+00    6.22181E+03
 1.16480E+00    6.14148E+03
 1.22460E+00    6.06128E+03
 1.28730E+00    5.97697E+03
 1.35340E+00    5.88833E+03
 1.42270E+00    5.79518E+03
 1.49570E+00    5.69718E+03
 1.57240E+00    5.59673E+03
 1.65300E+00    5.50198E+03
 1.73770E+00    5.40359E+03
 1.82680E+00    5.30010E+03
 1.92050E+00    5.19230E+03
 2.01900E+00    5.08803E+03
 2.12250E+00    4.98060E+03
 2.23130E+00    4.88992E+03
 2.30690E+00    4.83844E+03
 2.34570E+00    4.81228E+03
 2.36530E+00    4.79461E+03
 2.38520E+00    4.74975E+03
 2.46600E+00    4.66023E+03
 2.59240E+00    4.55954E+03
 2.72530E+00    4.45837E+03
 2.86500E+00    4.36314E+03
 3.01190E+00    4.28435E+03
 3.16640E+00    4.21696E+03
 3.32870E+00    4.11470E+03
 3.67880E+00    3.98393E+03
 4.06570E+00    3.91177E+03
 4.49330E+00    3.88018E+03
 4.72370E+00    3.85768E+03
 4.96590E+00    3.84438E+03
 5.22050E+00    3.84787E+03
 5.48810E+00    3.85181E+03
 5.76950E+00    3.85599E+03
 6.06530E+00    3.86883E+03
 6.37630E+00    3.88568E+03
 6.59240E+00    3.89614E+03
 6.70320E+00    3.91055E+03
 7.04690E+00    3.93812E+03
 7.40820E+00    3.97601E+03
 7.78800E+00    4.01623E+03
 8.18730E+00    4.06729E+03
 8.60710E+00    4.12557E+03
 9.04840E+00    4.18840E+03
 9.51230E+00    4.25928E+03
 1.00000E+01    4.32787E+03
 1.05130E+01    4.39207E+03
 1.10520E+01    4.45730E+03
 1.16180E+01    4.51944E+03
 1.22140E+01    4.53464E+03
 1.28400E+01    4.53613E+03
 1.34990E+01    4.53723E+03
 1.38400E+01    4.53509E+03
 1.41910E+01    4.51799E+03
 1.45500E+01    4.49883E+03
 1.49180E+01    4.46737E+03
 1.56830E+01    4.42333E+03
 1.64870E+01    4.38337E+03
