# n + Ru 98 : (n,el)    
# endfb8.0   JNDC FP Nuclear Data W.G.         EVAL-MAR90
# uncertainties: n
# # energies =   171
#   E(MeV)       xs(mb) 
 1.00000E-11    9.01591E+03
 1.00000E-07    5.10377E+03
 4.13990E-07    5.10177E+03
 5.31580E-07    5.10142E+03
 6.82560E-07    5.10097E+03
 8.76420E-07    5.10078E+03
 1.12540E-06    5.10078E+03
 1.44500E-06    5.10078E+03
 1.85540E-06    5.10078E+03
 2.37240E-06    5.10077E+03
 3.05900E-06    5.10077E+03
 3.92790E-06    5.10076E+03
 5.04350E-06    5.10075E+03
 6.47600E-06    5.10074E+03
 8.31530E-06    5.10072E+03
 1.06770E-05    5.10070E+03
 1.37100E-05    5.10068E+03
 1.76030E-05    5.10064E+03
 2.26030E-05    5.10060E+03
 2.92030E-05    5.10054E+03
 3.72670E-05    5.10047E+03
 4.78510E-05    5.10038E+03
 6.14420E-05    5.10027E+03
 7.88930E-05    5.10012E+03
 1.01300E-04    5.10001E+03
 1.30070E-04    1.20860E+04
 1.67020E-04    1.42203E+04
 2.14450E-04    1.33646E+04
 2.75360E-04    1.25702E+04
 3.53580E-04    1.18362E+04
 4.54000E-04    1.11597E+04
 5.82950E-04    1.05413E+04
 7.48520E-04    9.97659E+03
 9.61120E-04    9.46536E+03
 1.23410E-03    9.00601E+03
 1.58460E-03    8.59959E+03
 2.03470E-03    8.34414E+03
 2.24870E-03    8.21193E+03
 2.48520E-03    8.11607E+03
 2.61260E-03    8.05562E+03
 2.74650E-03    7.96796E+03
 3.03540E-03    7.85807E+03
 3.35460E-03    7.75593E+03
 3.70740E-03    7.64035E+03
 4.30740E-03    7.48018E+03
 5.53080E-03    7.31964E+03
 7.10170E-03    7.20345E+03
 9.11880E-03    7.12767E+03
 1.17090E-02    7.08932E+03
 1.50340E-02    7.08414E+03
 1.93050E-02    7.09941E+03
 2.18750E-02    7.11428E+03
 2.35790E-02    7.12342E+03
 2.41760E-02    7.12833E+03
 2.47880E-02    7.13612E+03
 2.60580E-02    7.14563E+03
 2.70000E-02    7.15641E+03
 2.85000E-02    7.17816E+03
 3.18280E-02    7.20512E+03
 3.43070E-02    7.24627E+03
 4.08680E-02    7.30089E+03
 4.63090E-02    7.35067E+03
 5.24750E-02    7.39253E+03
 5.65620E-02    7.44714E+03
 6.73790E-02    7.50130E+03
 7.20000E-02    7.53902E+03
 7.95000E-02    7.57009E+03
 8.25000E-02    7.58904E+03
 8.65170E-02    7.62743E+03
 9.80370E-02    7.65678E+03
 1.11090E-01    7.66373E+03
 1.16790E-01    7.66885E+03
 1.22770E-01    7.67423E+03
 1.29070E-01    7.67989E+03
 1.35690E-01    7.68584E+03
 1.42640E-01    7.69209E+03
 1.49960E-01    7.69283E+03
 1.57640E-01    7.68752E+03
 1.65730E-01    7.68193E+03
 1.74220E-01    7.67607E+03
 1.83160E-01    7.66989E+03
 1.92550E-01    7.66341E+03
 2.02420E-01    7.65653E+03
 2.12800E-01    7.64453E+03
 2.23710E-01    7.62881E+03
 2.35180E-01    7.61228E+03
 2.47240E-01    7.58577E+03
 2.73240E-01    7.55686E+03
 2.87250E-01    7.53764E+03
 2.94520E-01    7.52804E+03
 2.97200E-01    7.52421E+03
 2.98500E-01    7.51963E+03
 3.01970E-01    7.48566E+03
 3.33730E-01    7.41802E+03
 3.68830E-01    7.36265E+03
 3.87740E-01    7.32320E+03
 4.07620E-01    7.26617E+03
 4.50490E-01    7.19136E+03
 4.97870E-01    7.13013E+03
 5.23400E-01    7.08220E+03
 5.50230E-01    7.03059E+03
 5.78440E-01    6.97633E+03
 6.08100E-01    6.91956E+03
 6.39280E-01    6.85484E+03
 6.72060E-01    6.68582E+03
 7.06510E-01    6.51177E+03
 7.42740E-01    6.35463E+03
 7.80820E-01    6.20385E+03
 8.20850E-01    6.07885E+03
 8.62940E-01    5.95678E+03
 9.07180E-01    5.83296E+03
 9.61640E-01    5.72441E+03
 1.00260E+00    5.56878E+03
 1.10800E+00    5.40620E+03
 1.16480E+00    5.29968E+03
 1.22460E+00    5.19344E+03
 1.28730E+00    5.08150E+03
 1.35340E+00    4.94826E+03
 1.42270E+00    4.77689E+03
 1.49570E+00    4.59015E+03
 1.57240E+00    4.42661E+03
 1.65300E+00    4.27051E+03
 1.73770E+00    4.11706E+03
 1.82680E+00    3.95895E+03
 1.92050E+00    3.78466E+03
 2.01900E+00    3.62231E+03
 2.12250E+00    3.46711E+03
 2.23130E+00    3.34394E+03
 2.30690E+00    3.27121E+03
 2.34570E+00    3.23413E+03
 2.36530E+00    3.20943E+03
 2.38520E+00    3.15096E+03
 2.46600E+00    3.03088E+03
 2.59240E+00    2.88743E+03
 2.72530E+00    2.74637E+03
 2.86500E+00    2.60927E+03
 3.01190E+00    2.48221E+03
 3.16640E+00    2.36346E+03
 3.32870E+00    2.19661E+03
 3.67880E+00    1.99260E+03
 4.06570E+00    1.86500E+03
 4.49330E+00    1.79615E+03
 4.72370E+00    1.74927E+03
 4.96590E+00    1.72272E+03
 5.22050E+00    1.73024E+03
 5.48810E+00    1.73867E+03
 5.76950E+00    1.74694E+03
 6.06530E+00    1.77841E+03
 6.37630E+00    1.81520E+03
 6.59240E+00    1.83795E+03
 6.70320E+00    1.86668E+03
 7.04690E+00    1.91985E+03
 7.40820E+00    1.98133E+03
 7.78800E+00    2.04485E+03
 8.18730E+00    2.10976E+03
 8.60710E+00    2.17793E+03
 9.04840E+00    2.24428E+03
 9.51230E+00    2.31043E+03
 1.00000E+01    2.45193E+03
 1.05130E+01    2.58726E+03
 1.10520E+01    2.60503E+03
 1.16180E+01    2.56086E+03
 1.22140E+01    2.54047E+03
 1.28400E+01    2.55357E+03
 1.34990E+01    2.61267E+03
 1.38400E+01    2.64828E+03
 1.41910E+01    2.65013E+03
 1.45500E+01    2.65494E+03
 1.49180E+01    2.65579E+03
 1.56830E+01    2.64163E+03
 1.64870E+01    2.61090E+03
