# n + Dy161 : (n,n'22)  
# tendl.2019 A.J. Koning and D. Rochman        EVAL-NOV19
# uncertainties: n
# # energies =    78
#   E(MeV)       xs(mb) 
 5.24266E-01    0.00000E+00
 5.37548E-01    3.09688E+00
 5.53703E-01    6.86363E+00
 5.71502E-01    1.10137E+01
 5.90579E-01    1.54618E+01
 6.00000E-01    1.76584E+01
 6.11389E-01    1.85072E+01
 6.13654E-01    1.86761E+01
 6.20968E-01    1.92212E+01
 6.32172E-01    2.00562E+01
 7.00000E-01    2.51115E+01
 8.00000E-01    2.90402E+01
 9.00000E-01    3.19002E+01
 1.00000E+00    3.41324E+01
 1.20000E+00    3.63913E+01
 1.40000E+00    3.52015E+01
 1.60000E+00    3.11780E+01
 1.80000E+00    2.57135E+01
 2.00000E+00    1.99811E+01
 2.20000E+00    1.48218E+01
 2.40000E+00    1.06395E+01
 2.60000E+00    7.48134E+00
 2.80000E+00    5.20334E+00
 3.00000E+00    3.60376E+00
 3.20000E+00    2.54344E+00
 3.40000E+00    1.77532E+00
 3.60000E+00    1.26146E+00
 3.80000E+00    8.82376E-01
 4.00000E+00    6.20611E-01
 4.20000E+00    4.37964E-01
 4.40000E+00    3.10154E-01
 4.60000E+00    2.20425E-01
 4.80000E+00    1.57294E-01
 5.00000E+00    1.12668E-01
 5.20000E+00    8.10849E-02
 5.40000E+00    5.85669E-02
 5.60000E+00    4.25497E-02
 5.80000E+00    3.10506E-02
 6.00000E+00    2.26160E-02
 6.20000E+00    1.66199E-02
 6.40000E+00    1.22582E-02
 6.60000E+00    9.09660E-03
 6.80000E+00    6.78288E-03
 7.00000E+00    5.08006E-03
 7.20000E+00    3.82205E-03
 7.40000E+00    2.88421E-03
 7.60000E+00    2.18562E-03
 7.80000E+00    1.66102E-03
 8.00000E+00    1.26592E-03
 8.50000E+00    6.50488E-04
 9.00000E+00    3.40146E-04
 9.50000E+00    1.80760E-04
 1.00000E+01    9.75498E-05
 1.05000E+01    5.33859E-05
 1.10000E+01    2.96156E-05
 1.15000E+01    1.66332E-05
 1.20000E+01    9.46196E-06
 1.25000E+01    5.43912E-06
 1.30000E+01    3.16124E-06
 1.35000E+01    1.85754E-06
 1.40000E+01    1.10172E-06
 1.45000E+01    6.59010E-07
 1.50000E+01    3.98080E-07
 1.60000E+01    1.48790E-07
 1.70000E+01    5.71240E-08
 1.80000E+01    2.25090E-08
 1.90000E+01    9.04780E-09
 2.00000E+01    3.73840E-09
 2.10000E+01    1.57840E-09
 2.20000E+01    6.78930E-10
 2.30000E+01    2.98290E-10
 2.40000E+01    1.33480E-10
 2.50000E+01    6.07240E-11
 2.60000E+01    2.80470E-11
 2.70000E+01    1.31430E-11
 2.80000E+01    6.23950E-12
 2.90000E+01    2.99870E-12
 3.00000E+01    1.45830E-12
