# n + Dy161 : (n,xn)    
# tendl.2019 A.J. Koning and D. Rochman        EVAL-NOV19
# 
# # energies =   136
#   E(MeV)        xs(mb) 
 2.58118E-02    1.00000E-17
 3.00000E-02    2.33048E+02
 4.40947E-02    3.92585E+02
 6.00000E-02    9.11065E+02
 7.50344E-02    9.93634E+02
 1.00000E-01    1.32838E+03
 1.01032E-01    1.32769E+03
 1.03708E-01    1.32944E+03
 1.32585E-01    1.44323E+03
 1.85385E-01    1.86255E+03
 2.00000E-01    1.98774E+03
 2.02347E-01    1.98552E+03
 2.14287E-01    1.98453E+03
 2.68996E-01    2.08729E+03
 3.00000E-01    2.14590E+03
 3.16914E-01    2.14005E+03
 3.22700E-01    2.14179E+03
 3.69275E-01    2.16290E+03
 4.00000E-01    2.19629E+03
 4.09440E-01    2.19119E+03
 4.20855E-01    2.18506E+03
 4.46079E-01    2.19334E+03
 4.54261E-01    2.19719E+03
 4.60096E-01    2.20814E+03
 4.88603E-01    2.26303E+03
 5.00000E-01    2.28669E+03
 5.10902E-01    2.28005E+03
 5.15209E-01    2.27743E+03
 5.24266E-01    2.27720E+03
 5.37548E-01    2.27996E+03
 5.53703E-01    2.29673E+03
 5.71502E-01    2.32768E+03
 5.90579E-01    2.38114E+03
 6.00000E-01    2.40807E+03
 6.11389E-01    2.40811E+03
 6.13654E-01    2.40850E+03
 6.20968E-01    2.41471E+03
 6.32172E-01    2.42424E+03
 7.00000E-01    2.51945E+03
 8.00000E-01    2.59727E+03
 9.00000E-01    2.66121E+03
 1.00000E+00    2.71730E+03
 1.20000E+00    2.80252E+03
 1.40000E+00    2.86006E+03
 1.60000E+00    2.89290E+03
 1.80000E+00    2.91246E+03
 2.00000E+00    2.92040E+03
 2.20000E+00    2.92594E+03
 2.40000E+00    2.92715E+03
 2.60000E+00    2.92959E+03
 2.80000E+00    2.92974E+03
 3.00000E+00    2.92964E+03
 3.20000E+00    2.99205E+03
 3.40000E+00    2.98740E+03
 3.60000E+00    2.97899E+03
 3.80000E+00    2.96626E+03
 4.00000E+00    2.95098E+03
 4.20000E+00    2.93369E+03
 4.40000E+00    2.91498E+03
 4.60000E+00    2.89600E+03
 4.80000E+00    2.87717E+03
 5.00000E+00    2.85911E+03
 5.20000E+00    2.84221E+03
 5.40000E+00    2.82676E+03
 5.60000E+00    2.81303E+03
 5.80000E+00    2.80053E+03
 6.00000E+00    2.78969E+03
 6.20000E+00    2.77977E+03
 6.40000E+00    2.77063E+03
 6.60000E+00    2.78309E+03
 6.80000E+00    2.83321E+03
 7.00000E+00    2.94510E+03
 7.20000E+00    3.12045E+03
 7.40000E+00    3.24791E+03
 7.60000E+00    3.42712E+03
 7.80000E+00    3.60117E+03
 8.00000E+00    3.71905E+03
 8.50000E+00    4.04840E+03
 9.00000E+00    4.26592E+03
 9.50000E+00    4.40107E+03
 1.00000E+01    4.48246E+03
 1.05000E+01    4.52763E+03
 1.10000E+01    4.55030E+03
 1.15000E+01    4.55835E+03
 1.20000E+01    4.56288E+03
 1.25000E+01    4.56036E+03
 1.30000E+01    4.55378E+03
 1.35000E+01    4.54985E+03
 1.40000E+01    4.54290E+03
 1.45000E+01    4.53683E+03
 1.50000E+01    4.52871E+03
 1.60000E+01    4.54327E+03
 1.70000E+01    4.71412E+03
 1.80000E+01    5.01300E+03
 1.90000E+01    5.30345E+03
 2.00000E+01    5.51991E+03
 2.10000E+01    5.66182E+03
 2.20000E+01    5.74611E+03
 2.30000E+01    5.78815E+03
 2.40000E+01    5.83093E+03
 2.50000E+01    5.90825E+03
 2.60000E+01    6.02878E+03
 2.70000E+01    6.17258E+03
 2.80000E+01    6.32224E+03
 2.90000E+01    6.45961E+03
 3.00000E+01    6.57000E+03
 3.00000E+01    6.57278E+03
 3.20000E+01    6.71174E+03
 3.40000E+01    6.79636E+03
 3.60000E+01    6.93151E+03
 3.80000E+01    7.13321E+03
 4.00000E+01    7.32427E+03
 4.20000E+01    7.47206E+03
 4.40000E+01    7.59940E+03
 4.60000E+01    7.72630E+03
 4.80000E+01    7.85830E+03
 5.00000E+01    7.98044E+03
 5.20000E+01    8.09232E+03
 5.40000E+01    8.19541E+03
 5.60000E+01    8.31363E+03
 5.80000E+01    8.44214E+03
 6.00000E+01    8.56776E+03
 6.50000E+01    8.86197E+03
 7.00000E+01    9.11963E+03
 7.50000E+01    9.41442E+03
 8.00000E+01    9.71292E+03
 9.00000E+01    1.03682E+04
 1.00000E+02    1.10162E+04
 1.10000E+02    1.16592E+04
 1.20000E+02    1.22239E+04
 1.30000E+02    1.27100E+04
 1.40000E+02    1.31396E+04
 1.50000E+02    1.36093E+04
 1.60000E+02    1.41026E+04
 1.80000E+02    1.52596E+04
 2.00000E+02    1.69710E+04
