# n + Dy161 : (n,n'28)  
# tendl.2019 A.J. Koning and D. Rochman        EVAL-NOV19
# uncertainties: n
# # energies =    71
#   E(MeV)       xs(mb) 
 6.13654E-01    0.00000E+00
 6.20968E-01    4.94141E+00
 6.32172E-01    1.25110E+01
 7.00000E-01    5.83364E+01
 8.00000E-01    7.64954E+01
 9.00000E-01    8.25940E+01
 1.00000E+00    8.46071E+01
 1.20000E+00    8.44065E+01
 1.40000E+00    7.95400E+01
 1.60000E+00    7.00354E+01
 1.80000E+00    5.77876E+01
 2.00000E+00    4.49835E+01
 2.20000E+00    3.34323E+01
 2.40000E+00    2.40507E+01
 2.60000E+00    1.69546E+01
 2.80000E+00    1.18285E+01
 3.00000E+00    8.22151E+00
 3.20000E+00    5.83590E+00
 3.40000E+00    4.07512E+00
 3.60000E+00    2.90203E+00
 3.80000E+00    2.05577E+00
 4.00000E+00    1.45173E+00
 4.20000E+00    1.02977E+00
 4.40000E+00    7.32923E-01
 4.60000E+00    5.23430E-01
 4.80000E+00    3.75280E-01
 5.00000E+00    2.70048E-01
 5.20000E+00    1.95200E-01
 5.40000E+00    1.41613E-01
 5.60000E+00    1.03323E-01
 5.80000E+00    7.57064E-02
 6.00000E+00    5.53739E-02
 6.20000E+00    4.08511E-02
 6.40000E+00    3.02503E-02
 6.60000E+00    2.25358E-02
 6.80000E+00    1.68667E-02
 7.00000E+00    1.26796E-02
 7.20000E+00    9.57419E-03
 7.40000E+00    7.25038E-03
 7.60000E+00    5.51303E-03
 7.80000E+00    4.20360E-03
 8.00000E+00    3.21383E-03
 8.50000E+00    1.66359E-03
 9.00000E+00    8.75631E-04
 9.50000E+00    4.68054E-04
 1.00000E+01    2.53922E-04
 1.05000E+01    1.39626E-04
 1.10000E+01    7.77959E-05
 1.15000E+01    4.38699E-05
 1.20000E+01    2.50502E-05
 1.25000E+01    1.44511E-05
 1.30000E+01    8.42722E-06
 1.35000E+01    4.96756E-06
 1.40000E+01    2.95515E-06
 1.45000E+01    1.77271E-06
 1.50000E+01    1.07370E-06
 1.60000E+01    4.03310E-07
 1.70000E+01    1.55510E-07
 1.80000E+01    6.15110E-08
 1.90000E+01    2.48070E-08
 2.00000E+01    1.02800E-08
 2.10000E+01    4.35170E-09
 2.20000E+01    1.87650E-09
 2.30000E+01    8.26350E-10
 2.40000E+01    3.70580E-10
 2.50000E+01    1.68940E-10
 2.60000E+01    7.81780E-11
 2.70000E+01    3.66960E-11
 2.80000E+01    1.74480E-11
 2.90000E+01    8.39630E-12
 3.00000E+01    4.08820E-12
