# n + Dy161 : (n,n'24)  
# tendl.2019 A.J. Koning and D. Rochman        EVAL-NOV19
# uncertainties: n
# # energies =    76
#   E(MeV)       xs(mb) 
 5.53703E-01    0.00000E+00
 5.71502E-01    1.24852E+01
 5.90579E-01    2.58668E+01
 6.00000E-01    3.24753E+01
 6.11389E-01    3.49001E+01
 6.13654E-01    3.53823E+01
 6.20968E-01    3.69394E+01
 6.32172E-01    3.93248E+01
 7.00000E-01    5.37656E+01
 8.00000E-01    6.12561E+01
 9.00000E-01    6.45843E+01
 1.00000E+00    6.64684E+01
 1.20000E+00    6.74236E+01
 1.40000E+00    6.39023E+01
 1.60000E+00    5.62207E+01
 1.80000E+00    4.62832E+01
 2.00000E+00    3.59534E+01
 2.20000E+00    2.66741E+01
 2.40000E+00    1.91560E+01
 2.60000E+00    1.34795E+01
 2.80000E+00    9.38489E+00
 3.00000E+00    6.50877E+00
 3.20000E+00    4.60435E+00
 3.40000E+00    3.21282E+00
 3.60000E+00    2.29075E+00
 3.80000E+00    1.60721E+00
 4.00000E+00    1.13298E+00
 4.20000E+00    8.01295E-01
 4.40000E+00    5.68642E-01
 4.60000E+00    4.04934E-01
 4.80000E+00    2.89497E-01
 5.00000E+00    2.07732E-01
 5.20000E+00    1.49748E-01
 5.40000E+00    1.08337E-01
 5.60000E+00    7.88265E-02
 5.80000E+00    5.76097E-02
 6.00000E+00    4.20228E-02
 6.20000E+00    3.09235E-02
 6.40000E+00    2.28398E-02
 6.60000E+00    1.69718E-02
 6.80000E+00    1.26720E-02
 7.00000E+00    9.50328E-03
 7.20000E+00    7.15910E-03
 7.40000E+00    5.40926E-03
 7.60000E+00    4.10414E-03
 7.80000E+00    3.12279E-03
 8.00000E+00    2.38273E-03
 8.50000E+00    1.22769E-03
 9.00000E+00    6.43537E-04
 9.50000E+00    3.42732E-04
 1.00000E+01    1.85319E-04
 1.05000E+01    1.01595E-04
 1.10000E+01    5.64472E-05
 1.15000E+01    3.17477E-05
 1.20000E+01    1.80835E-05
 1.25000E+01    1.04077E-05
 1.30000E+01    6.05594E-06
 1.35000E+01    3.56231E-06
 1.40000E+01    2.11500E-06
 1.45000E+01    1.26637E-06
 1.50000E+01    7.65670E-07
 1.60000E+01    2.86680E-07
 1.70000E+01    1.10230E-07
 1.80000E+01    4.34920E-08
 1.90000E+01    1.75020E-08
 2.00000E+01    7.23930E-09
 2.10000E+01    3.05940E-09
 2.20000E+01    1.31720E-09
 2.30000E+01    5.79200E-10
 2.40000E+01    2.59380E-10
 2.50000E+01    1.18090E-10
 2.60000E+01    5.45790E-11
 2.70000E+01    2.55910E-11
 2.80000E+01    1.21550E-11
 2.90000E+01    5.84450E-12
 3.00000E+01    2.84350E-12
