# n + Dy161 : (n,n'14)  
# tendl.2019 A.J. Koning and D. Rochman        EVAL-NOV19
# uncertainties: n
# # energies =    87
#   E(MeV)       xs(mb) 
 4.09440E-01    0.00000E+00
 4.20855E-01    5.37337E-02
 4.46079E-01    1.72471E-01
 4.54261E-01    2.10986E-01
 4.60096E-01    2.38453E-01
 4.88603E-01    3.72644E-01
 5.00000E-01    4.26293E-01
 5.10902E-01    4.99654E-01
 5.15209E-01    5.28637E-01
 5.24266E-01    5.89583E-01
 5.37548E-01    6.78960E-01
 5.53703E-01    7.87670E-01
 5.71502E-01    9.07442E-01
 5.90579E-01    1.03581E+00
 6.00000E-01    1.09921E+00
 6.11389E-01    1.20365E+00
 6.13654E-01    1.22442E+00
 6.20968E-01    1.29149E+00
 6.32172E-01    1.39423E+00
 7.00000E-01    2.01622E+00
 8.00000E-01    3.17698E+00
 9.00000E-01    4.50805E+00
 1.00000E+00    5.87887E+00
 1.20000E+00    8.24511E+00
 1.40000E+00    9.60623E+00
 1.60000E+00    9.86686E+00
 1.80000E+00    9.29081E+00
 2.00000E+00    8.18712E+00
 2.20000E+00    6.85972E+00
 2.40000E+00    5.53843E+00
 2.60000E+00    4.35408E+00
 2.80000E+00    3.35798E+00
 3.00000E+00    2.55365E+00
 3.20000E+00    1.99402E+00
 3.40000E+00    1.52581E+00
 3.60000E+00    1.14114E+00
 3.80000E+00    8.42826E-01
 4.00000E+00    6.22393E-01
 4.20000E+00    4.59681E-01
 4.40000E+00    3.40373E-01
 4.60000E+00    2.53388E-01
 4.80000E+00    1.90352E-01
 5.00000E+00    1.44956E-01
 5.20000E+00    1.12746E-01
 5.40000E+00    9.01720E-02
 5.60000E+00    7.50085E-02
 5.80000E+00    6.52317E-02
 6.00000E+00    5.92855E-02
 6.20000E+00    5.64995E-02
 6.40000E+00    5.57875E-02
 6.60000E+00    5.64994E-02
 6.80000E+00    5.80335E-02
 7.00000E+00    5.99509E-02
 7.20000E+00    6.19279E-02
 7.40000E+00    6.37335E-02
 7.60000E+00    6.52393E-02
 7.80000E+00    6.63718E-02
 8.00000E+00    6.71157E-02
 8.50000E+00    6.74608E-02
 9.00000E+00    6.63014E-02
 9.50000E+00    6.45049E-02
 1.00000E+01    6.27131E-02
 1.05000E+01    6.12637E-02
 1.10000E+01    6.02402E-02
 1.15000E+01    5.95637E-02
 1.20000E+01    5.90887E-02
 1.25000E+01    5.86787E-02
 1.30000E+01    5.82470E-02
 1.35000E+01    5.77560E-02
 1.40000E+01    5.72014E-02
 1.45000E+01    5.65951E-02
 1.50000E+01    5.59574E-02
 1.60000E+01    5.46883E-02
 1.70000E+01    5.35840E-02
 1.80000E+01    5.27419E-02
 1.90000E+01    5.21395E-02
 2.00000E+01    5.16933E-02
 2.10000E+01    5.13049E-02
 2.20000E+01    5.08486E-02
 2.30000E+01    5.01807E-02
 2.40000E+01    4.92240E-02
 2.50000E+01    4.80336E-02
 2.60000E+01    4.67531E-02
 2.70000E+01    4.55243E-02
 2.80000E+01    4.44311E-02
 2.90000E+01    4.34911E-02
 3.00000E+01    4.26676E-02
