# n + Dy161 : (n,n'21)  
# tendl.2019 A.J. Koning and D. Rochman        EVAL-NOV19
# uncertainties: n
# # energies =    79
#   E(MeV)       xs(mb) 
 5.15209E-01    0.00000E+00
 5.24266E-01    5.28343E+00
 5.37548E-01    1.30315E+01
 5.53703E-01    2.24556E+01
 5.71502E-01    3.28387E+01
 5.90579E-01    4.39674E+01
 6.00000E-01    4.94632E+01
 6.11389E-01    5.10037E+01
 6.13654E-01    5.13100E+01
 6.20968E-01    5.22993E+01
 6.32172E-01    5.38147E+01
 7.00000E-01    6.29890E+01
 8.00000E-01    6.77058E+01
 9.00000E-01    7.00230E+01
 1.00000E+00    7.13752E+01
 1.20000E+00    7.13965E+01
 1.40000E+00    6.68236E+01
 1.60000E+00    5.81835E+01
 1.80000E+00    4.75249E+01
 2.00000E+00    3.67087E+01
 2.20000E+00    2.71257E+01
 2.40000E+00    1.94267E+01
 2.60000E+00    1.36455E+01
 2.80000E+00    9.48928E+00
 3.00000E+00    6.57602E+00
 3.20000E+00    4.64945E+00
 3.40000E+00    3.25230E+00
 3.60000E+00    2.31323E+00
 3.80000E+00    1.62047E+00
 4.00000E+00    1.14158E+00
 4.20000E+00    8.06863E-01
 4.40000E+00    5.72245E-01
 4.60000E+00    4.07269E-01
 4.80000E+00    2.91017E-01
 5.00000E+00    2.08725E-01
 5.20000E+00    1.50410E-01
 5.40000E+00    1.08777E-01
 5.60000E+00    7.91297E-02
 5.80000E+00    5.78179E-02
 6.00000E+00    4.21657E-02
 6.20000E+00    3.10270E-02
 6.40000E+00    2.29135E-02
 6.60000E+00    1.70257E-02
 6.80000E+00    1.27113E-02
 7.00000E+00    9.53213E-03
 7.20000E+00    7.18050E-03
 7.40000E+00    5.42514E-03
 7.60000E+00    4.11595E-03
 7.80000E+00    3.13160E-03
 8.00000E+00    2.38932E-03
 8.50000E+00    1.23090E-03
 9.00000E+00    6.45127E-04
 9.50000E+00    3.43531E-04
 1.00000E+01    1.85726E-04
 1.05000E+01    1.01805E-04
 1.10000E+01    5.65578E-05
 1.15000E+01    3.18067E-05
 1.20000E+01    1.81155E-05
 1.25000E+01    1.04254E-05
 1.30000E+01    6.06580E-06
 1.35000E+01    3.56790E-06
 1.40000E+01    2.11820E-06
 1.45000E+01    1.26821E-06
 1.50000E+01    7.66740E-07
 1.60000E+01    2.87050E-07
 1.70000E+01    1.10360E-07
 1.80000E+01    4.35390E-08
 1.90000E+01    1.75200E-08
 2.00000E+01    7.24600E-09
 2.10000E+01    3.06210E-09
 2.20000E+01    1.31830E-09
 2.30000E+01    5.79660E-10
 2.40000E+01    2.59580E-10
 2.50000E+01    1.18180E-10
 2.60000E+01    5.46190E-11
 2.70000E+01    2.56080E-11
 2.80000E+01    1.21630E-11
 2.90000E+01    5.84810E-12
 3.00000E+01    2.84520E-12
