# n + Dy161 : (n,xa)    
# tendl.2019 A.J. Koning and D. Rochman        EVAL-NOV19
# 
# # energies =   136
#   E(MeV)        xs(mb) 
 2.58118E-02    6.45344E-05
 3.00000E-02    5.81511E-05
 4.40947E-02    4.89741E-05
 6.00000E-02    3.86182E-05
 7.50344E-02    3.42350E-05
 1.00000E-01    2.69565E-05
 1.01032E-01    2.68329E-05
 1.03708E-01    2.65125E-05
 1.32585E-01    2.30551E-05
 1.85385E-01    1.67334E-05
 2.00000E-01    1.49836E-05
 2.02347E-01    1.49264E-05
 2.14287E-01    1.46352E-05
 2.68996E-01    1.33011E-05
 3.00000E-01    1.25451E-05
 3.16914E-01    1.28337E-05
 3.22700E-01    1.29324E-05
 3.69275E-01    1.37271E-05
 4.00000E-01    1.42513E-05
 4.09440E-01    1.43516E-05
 4.20855E-01    1.44728E-05
 4.46079E-01    1.47407E-05
 4.54261E-01    1.48276E-05
 4.60096E-01    1.48896E-05
 4.88603E-01    1.51924E-05
 5.00000E-01    1.53134E-05
 5.10902E-01    1.54292E-05
 5.15209E-01    1.54738E-05
 5.24266E-01    1.55600E-05
 5.37548E-01    1.56864E-05
 5.53703E-01    1.58401E-05
 5.71502E-01    1.60095E-05
 5.90579E-01    1.61910E-05
 6.00000E-01    1.62807E-05
 6.11389E-01    1.63844E-05
 6.13654E-01    1.64024E-05
 6.20968E-01    1.64606E-05
 6.32172E-01    1.65496E-05
 7.00000E-01    1.70890E-05
 8.00000E-01    1.93045E-05
 9.00000E-01    2.47541E-05
 1.00000E+00    3.04744E-05
 1.20000E+00    4.44645E-05
 1.40000E+00    6.55026E-05
 1.60000E+00    9.49462E-05
 1.80000E+00    1.23867E-04
 2.00000E+00    1.67456E-04
 2.20000E+00    2.11044E-04
 2.40000E+00    2.53876E-04
 2.60000E+00    2.99217E-04
 2.80000E+00    3.38666E-04
 3.00000E+00    3.98326E-04
 3.20000E+00    4.74463E-04
 3.40000E+00    5.48991E-04
 3.60000E+00    6.36359E-04
 3.80000E+00    7.20837E-04
 4.00000E+00    8.30461E-04
 4.20000E+00    9.54053E-04
 4.40000E+00    1.09168E-03
 4.60000E+00    1.25949E-03
 4.80000E+00    1.42805E-03
 5.00000E+00    1.65474E-03
 5.20000E+00    1.92360E-03
 5.40000E+00    2.23288E-03
 5.60000E+00    2.65640E-03
 5.80000E+00    3.04524E-03
 6.00000E+00    3.60558E-03
 6.20000E+00    4.29245E-03
 6.40000E+00    5.02493E-03
 6.60000E+00    6.01430E-03
 6.80000E+00    6.84150E-03
 7.00000E+00    8.43882E-03
 7.20000E+00    1.08047E-02
 7.40000E+00    1.28128E-02
 7.60000E+00    1.61115E-02
 7.80000E+00    1.87493E-02
 8.00000E+00    2.32665E-02
 8.50000E+00    3.93558E-02
 9.00000E+00    6.55596E-02
 9.50000E+00    1.11392E-01
 1.00000E+01    1.72391E-01
 1.05000E+01    2.57480E-01
 1.10000E+01    3.71231E-01
 1.15000E+01    5.18147E-01
 1.20000E+01    6.97890E-01
 1.25000E+01    9.29893E-01
 1.30000E+01    1.20336E+00
 1.35000E+01    1.57288E+00
 1.40000E+01    1.91360E+00
 1.45000E+01    2.40124E+00
 1.50000E+01    2.87224E+00
 1.60000E+01    4.20381E+00
 1.70000E+01    6.10099E+00
 1.80000E+01    8.86995E+00
 1.90000E+01    1.20702E+01
 2.00000E+01    1.43239E+01
 2.10000E+01    1.63630E+01
 2.20000E+01    1.53284E+01
 2.30000E+01    1.57177E+01
 2.40000E+01    1.62751E+01
 2.50000E+01    1.69347E+01
 2.60000E+01    1.76510E+01
 2.70000E+01    1.83850E+01
 2.80000E+01    1.91101E+01
 2.90000E+01    1.98345E+01
 3.00000E+01    2.05231E+01
 3.00000E+01    2.05236E+01
 3.20000E+01    2.15464E+01
 3.40000E+01    2.28066E+01
 3.60000E+01    2.39016E+01
 3.80000E+01    2.49080E+01
 4.00000E+01    2.58006E+01
 4.20000E+01    2.66706E+01
 4.40000E+01    2.76288E+01
 4.60000E+01    2.83521E+01
 4.80000E+01    2.90815E+01
 5.00000E+01    2.97219E+01
 5.20000E+01    3.03642E+01
 5.40000E+01    3.10343E+01
 5.60000E+01    3.16830E+01
 5.80000E+01    3.22465E+01
 6.00000E+01    3.28314E+01
 6.50000E+01    3.43709E+01
 7.00000E+01    3.60593E+01
 7.50000E+01    3.73644E+01
 8.00000E+01    3.94628E+01
 9.00000E+01    4.48805E+01
 1.00000E+02    5.35416E+01
 1.10000E+02    6.18002E+01
 1.20000E+02    7.04329E+01
 1.30000E+02    7.85719E+01
 1.40000E+02    8.62557E+01
 1.50000E+02    9.30046E+01
 1.60000E+02    1.07563E+02
 1.80000E+02    1.53756E+02
 2.00000E+02    2.78851E+02
