# n + Dy161 : (n,n'15)  
# tendl.2019 A.J. Koning and D. Rochman        EVAL-NOV19
# uncertainties: n
# # energies =    86
#   E(MeV)       xs(mb) 
 4.20855E-01    0.00000E+00
 4.46079E-01    2.18165E+01
 4.54261E-01    2.88933E+01
 4.60096E-01    3.39400E+01
 4.88603E-01    5.85961E+01
 5.00000E-01    6.84535E+01
 5.10902E-01    7.04325E+01
 5.15209E-01    7.12144E+01
 5.24266E-01    7.28585E+01
 5.37548E-01    7.52695E+01
 5.53703E-01    7.82021E+01
 5.71502E-01    8.14331E+01
 5.90579E-01    8.48961E+01
 6.00000E-01    8.66063E+01
 6.11389E-01    8.66368E+01
 6.13654E-01    8.66428E+01
 6.20968E-01    8.66624E+01
 6.32172E-01    8.66923E+01
 7.00000E-01    8.68737E+01
 8.00000E-01    8.58935E+01
 9.00000E-01    8.40005E+01
 1.00000E+00    8.12275E+01
 1.20000E+00    7.38090E+01
 1.40000E+00    6.45108E+01
 1.60000E+00    5.40430E+01
 1.80000E+00    4.33922E+01
 2.00000E+00    3.33584E+01
 2.20000E+00    2.46842E+01
 2.40000E+00    1.77445E+01
 2.60000E+00    1.25141E+01
 2.80000E+00    8.73132E+00
 3.00000E+00    6.06351E+00
 3.20000E+00    4.27032E+00
 3.40000E+00    3.00453E+00
 3.60000E+00    2.10957E+00
 3.80000E+00    1.47866E+00
 4.00000E+00    1.04212E+00
 4.20000E+00    7.37624E-01
 4.40000E+00    5.24440E-01
 4.60000E+00    3.74568E-01
 4.80000E+00    2.68826E-01
 5.00000E+00    1.93799E-01
 5.20000E+00    1.40444E-01
 5.40000E+00    1.02166E-01
 5.60000E+00    7.47848E-02
 5.80000E+00    5.49693E-02
 6.00000E+00    4.03237E-02
 6.20000E+00    2.98389E-02
 6.40000E+00    2.21497E-02
 6.60000E+00    1.65380E-02
 6.80000E+00    1.24006E-02
 7.00000E+00    9.33538E-03
 7.20000E+00    7.05662E-03
 7.40000E+00    5.34778E-03
 7.60000E+00    4.06799E-03
 7.80000E+00    3.10221E-03
 8.00000E+00    2.37158E-03
 8.50000E+00    1.22633E-03
 9.00000E+00    6.44280E-04
 9.50000E+00    3.43578E-04
 1.00000E+01    1.85898E-04
 1.05000E+01    1.01934E-04
 1.10000E+01    5.66327E-05
 1.15000E+01    3.18458E-05
 1.20000E+01    1.81349E-05
 1.25000E+01    1.04349E-05
 1.30000E+01    6.07069E-06
 1.35000E+01    3.57064E-06
 1.40000E+01    2.11993E-06
 1.45000E+01    1.26941E-06
 1.50000E+01    7.67610E-07
 1.60000E+01    2.87500E-07
 1.70000E+01    1.10560E-07
 1.80000E+01    4.36220E-08
 1.90000E+01    1.75520E-08
 2.00000E+01    7.25860E-09
 2.10000E+01    3.06750E-09
 2.20000E+01    1.32070E-09
 2.30000E+01    5.80830E-10
 2.40000E+01    2.60140E-10
 2.50000E+01    1.18440E-10
 2.60000E+01    5.47440E-11
 2.70000E+01    2.56670E-11
 2.80000E+01    1.21910E-11
 2.90000E+01    5.86090E-12
 3.00000E+01    2.85130E-12
