# n + Mo 94 : (n,xn)    
# jeff3.3    K.Shibata, A.Ichihara, S.Kunieda+ EVAL-MAR09
# 
# # energies =    52
#   E(MeV)        xs(mb) 
 8.80453E-01    0.00000E+00
 9.00000E-01    1.49800E+02
 1.00000E+00    5.69100E+02
 1.50000E+00    1.09200E+03
 1.59062E+00    1.06773E+03
 1.76122E+00    1.12731E+03
 1.88432E+00    1.22979E+03
 2.00000E+00    1.51040E+03
 2.08983E+00    1.47447E+03
 2.14378E+00    1.48456E+03
 2.31985E+00    1.60978E+03
 2.34694E+00    1.63889E+03
 2.41893E+00    1.71686E+03
 2.44949E+00    1.77278E+03
 2.50000E+00    1.86555E+03
 2.56132E+00    1.83081E+03
 2.59437E+00    1.82066E+03
 2.60771E+00    1.81867E+03
 2.63955E+00    1.82101E+03
 2.73203E+00    1.83195E+03
 2.76925E+00    1.84543E+03
 2.79783E+00    1.86457E+03
 2.83594E+00    1.89684E+03
 2.86636E+00    1.93363E+03
 2.88365E+00    1.95901E+03
 2.89375E+00    1.97559E+03
 3.00000E+00    2.15462E+03
 3.50000E+00    2.13656E+03
 4.00000E+00    2.09039E+03
 4.50000E+00    2.05416E+03
 5.00000E+00    2.03234E+03
 5.50000E+00    2.02085E+03
 6.00000E+00    2.01480E+03
 6.50000E+00    2.00883E+03
 7.00000E+00    2.00119E+03
 7.50000E+00    1.99048E+03
 8.00000E+00    1.97801E+03
 8.50000E+00    1.96314E+03
 9.00000E+00    1.94746E+03
 9.50000E+00    1.93129E+03
 1.00000E+01    1.95442E+03
 1.10000E+01    2.37308E+03
 1.20000E+01    2.70973E+03
 1.30000E+01    2.94741E+03
 1.40000E+01    3.07973E+03
 1.45000E+01    3.12968E+03
 1.50000E+01    3.14234E+03
 1.60000E+01    3.14541E+03
 1.70000E+01    3.14686E+03
 1.80000E+01    3.13371E+03
 1.90000E+01    3.11758E+03
 2.00000E+01    3.12012E+03
