# n + Mo 94 : (n,xh)    
# jeff3.3    K.Shibata, A.Ichihara, S.Kunieda+ EVAL-MAR09
# 
# # energies =    52
#   E(MeV)        xs(mb) 
 8.80453E-01    0.00000E+00
 9.00000E-01    0.00000E+00
 1.00000E+00    0.00000E+00
 1.50000E+00    0.00000E+00
 1.59062E+00    0.00000E+00
 1.76122E+00    0.00000E+00
 1.88432E+00    0.00000E+00
 2.00000E+00    0.00000E+00
 2.08983E+00    0.00000E+00
 2.14378E+00    0.00000E+00
 2.31985E+00    0.00000E+00
 2.34694E+00    0.00000E+00
 2.41893E+00    0.00000E+00
 2.44949E+00    0.00000E+00
 2.50000E+00    0.00000E+00
 2.56132E+00    0.00000E+00
 2.59437E+00    0.00000E+00
 2.60771E+00    0.00000E+00
 2.63955E+00    0.00000E+00
 2.73203E+00    0.00000E+00
 2.76925E+00    0.00000E+00
 2.79783E+00    0.00000E+00
 2.83594E+00    0.00000E+00
 2.86636E+00    0.00000E+00
 2.88365E+00    0.00000E+00
 2.89375E+00    0.00000E+00
 3.00000E+00    0.00000E+00
 3.50000E+00    0.00000E+00
 4.00000E+00    0.00000E+00
 4.50000E+00    0.00000E+00
 5.00000E+00    0.00000E+00
 5.50000E+00    0.00000E+00
 6.00000E+00    0.00000E+00
 6.50000E+00    0.00000E+00
 7.00000E+00    0.00000E+00
 7.50000E+00    0.00000E+00
 8.00000E+00    0.00000E+00
 8.50000E+00    0.00000E+00
 9.00000E+00    0.00000E+00
 9.50000E+00    0.00000E+00
 1.00000E+01    0.00000E+00
 1.10000E+01    0.00000E+00
 1.20000E+01    9.33000E-09
 1.30000E+01    4.66700E-07
 1.40000E+01    2.39700E-06
 1.45000E+01    4.75600E-06
 1.50000E+01    8.35200E-06
 1.60000E+01    9.91500E-04
 1.70000E+01    5.02600E-04
 1.80000E+01    1.54100E-03
 1.90000E+01    4.23000E-03
 2.00000E+01    9.80200E-03
