# n + Pt190 : (n,n'18)  
# jeff3.3    A.J. Koning and D. Rochman        EVAL-DEC15
# uncertainties: n
# # energies =    74
#   E(MeV)       xs(mb) 
 1.63675E+00    0.00000E+00
 1.63976E+00    3.32406E-01
 1.67887E+00    4.65141E+00
 1.74190E+00    1.16120E+01
 1.74622E+00    1.20890E+01
 1.80000E+00    1.80281E+01
 1.84364E+00    2.06633E+01
 1.85178E+00    2.11548E+01
 1.88677E+00    2.32677E+01
 1.92547E+00    2.56045E+01
 2.00000E+00    3.01050E+01
 2.05465E+00    3.18798E+01
 2.08934E+00    3.30064E+01
 2.20000E+00    3.66002E+01
 2.23440E+00    3.67529E+01
 2.30960E+00    3.70868E+01
 2.40000E+00    3.74881E+01
 2.60000E+00    2.96464E+01
 2.80000E+00    2.06119E+01
 3.00000E+00    1.39273E+01
 3.20000E+00    9.53795E+00
 3.40000E+00    6.67955E+00
 3.60000E+00    4.76836E+00
 3.80000E+00    3.44949E+00
 4.00000E+00    2.51439E+00
 4.20000E+00    1.83912E+00
 4.40000E+00    1.34646E+00
 4.60000E+00    9.86081E-01
 4.80000E+00    7.22391E-01
 5.00000E+00    5.29565E-01
 5.20000E+00    3.88528E-01
 5.40000E+00    2.85267E-01
 5.60000E+00    2.08769E-01
 5.80000E+00    1.53086E-01
 6.00000E+00    1.12355E-01
 6.20000E+00    8.25705E-02
 6.40000E+00    6.07728E-02
 6.60000E+00    4.47366E-02
 6.80000E+00    3.30278E-02
 7.00000E+00    2.43851E-02
 7.20000E+00    1.80417E-02
 7.40000E+00    1.33684E-02
 7.60000E+00    9.90819E-03
 7.80000E+00    7.37271E-03
 8.00000E+00    5.48881E-03
 8.50000E+00    2.65486E-03
 9.00000E+00    1.30619E-03
 9.50000E+00    6.53125E-04
 1.00000E+01    3.30513E-04
 1.05000E+01    1.69162E-04
 1.10000E+01    8.75902E-05
 1.15000E+01    4.58607E-05
 1.20000E+01    2.42665E-05
 1.25000E+01    1.29746E-05
 1.30000E+01    7.01018E-06
 1.35000E+01    3.82631E-06
 1.40000E+01    2.11002E-06
 1.45000E+01    1.17507E-06
 1.50000E+01    6.60840E-07
 1.60000E+01    2.14690E-07
 1.70000E+01    7.20310E-08
 1.80000E+01    2.47300E-08
 1.90000E+01    8.74180E-09
 2.00000E+01    3.15910E-09
 2.10000E+01    1.16640E-09
 2.20000E+01    4.40940E-10
 2.30000E+01    1.70330E-10
 2.40000E+01    6.74630E-11
 2.50000E+01    2.72160E-11
 2.60000E+01    1.11740E-11
 2.70000E+01    4.66260E-12
 2.80000E+01    1.97470E-12
 2.90000E+01    8.47800E-13
 3.00000E+01    3.68860E-13
