# n + Pt190 : (n,n'17)  
# jeff3.3    A.J. Koning and D. Rochman        EVAL-DEC15
# uncertainties: n
# # energies =    75
#   E(MeV)       xs(mb) 
 1.63423E+00    0.00000E+00
 1.63675E+00    2.77893E-01
 1.63976E+00    6.09828E-01
 1.67887E+00    4.92273E+00
 1.74190E+00    1.18735E+01
 1.74622E+00    1.23498E+01
 1.80000E+00    1.82805E+01
 1.84364E+00    2.09062E+01
 1.85178E+00    2.13959E+01
 1.88677E+00    2.35011E+01
 1.92547E+00    2.58295E+01
 2.00000E+00    3.03137E+01
 2.05465E+00    3.20733E+01
 2.08934E+00    3.31902E+01
 2.20000E+00    3.67532E+01
 2.23440E+00    3.68985E+01
 2.30960E+00    3.72163E+01
 2.40000E+00    3.75982E+01
 2.60000E+00    2.97156E+01
 2.80000E+00    2.06538E+01
 3.00000E+00    1.39535E+01
 3.20000E+00    9.55503E+00
 3.40000E+00    6.69100E+00
 3.60000E+00    4.77610E+00
 3.80000E+00    3.45471E+00
 4.00000E+00    2.51787E+00
 4.20000E+00    1.84142E+00
 4.40000E+00    1.34797E+00
 4.60000E+00    9.87077E-01
 4.80000E+00    7.23052E-01
 5.00000E+00    5.30009E-01
 5.20000E+00    3.88827E-01
 5.40000E+00    2.85470E-01
 5.60000E+00    2.08906E-01
 5.80000E+00    1.53178E-01
 6.00000E+00    1.12418E-01
 6.20000E+00    8.26125E-02
 6.40000E+00    6.08012E-02
 6.60000E+00    4.47558E-02
 6.80000E+00    3.30407E-02
 7.00000E+00    2.43938E-02
 7.20000E+00    1.80474E-02
 7.40000E+00    1.33723E-02
 7.60000E+00    9.91074E-03
 7.80000E+00    7.37441E-03
 8.00000E+00    5.48995E-03
 8.50000E+00    2.65531E-03
 9.00000E+00    1.30639E-03
 9.50000E+00    6.53224E-04
 1.00000E+01    3.30564E-04
 1.05000E+01    1.69189E-04
 1.10000E+01    8.76035E-05
 1.15000E+01    4.58673E-05
 1.20000E+01    2.42697E-05
 1.25000E+01    1.29762E-05
 1.30000E+01    7.01099E-06
 1.35000E+01    3.82673E-06
 1.40000E+01    2.11024E-06
 1.45000E+01    1.17519E-06
 1.50000E+01    6.60910E-07
 1.60000E+01    2.14710E-07
 1.70000E+01    7.20380E-08
 1.80000E+01    2.47320E-08
 1.90000E+01    8.74240E-09
 2.00000E+01    3.15930E-09
 2.10000E+01    1.16650E-09
 2.20000E+01    4.40970E-10
 2.30000E+01    1.70340E-10
 2.40000E+01    6.74670E-11
 2.50000E+01    2.72170E-11
 2.60000E+01    1.11740E-11
 2.70000E+01    4.66280E-12
 2.80000E+01    1.97480E-12
 2.90000E+01    8.47830E-13
 3.00000E+01    3.68880E-13
