# n + Pt190 : (n,n'20)  
# jeff3.3    A.J. Koning and D. Rochman        EVAL-DEC15
# uncertainties: n
# # energies =    72
#   E(MeV)       xs(mb) 
 1.67887E+00    0.00000E+00
 1.74190E+00    5.61786E+00
 1.74622E+00    6.00290E+00
 1.80000E+00    1.07963E+01
 1.84364E+00    1.16849E+01
 1.85178E+00    1.18507E+01
 1.88677E+00    1.25632E+01
 1.92547E+00    1.33512E+01
 2.00000E+00    1.48688E+01
 2.05465E+00    1.51726E+01
 2.08934E+00    1.53653E+01
 2.20000E+00    1.59804E+01
 2.23440E+00    1.58151E+01
 2.30960E+00    1.54536E+01
 2.40000E+00    1.50191E+01
 2.60000E+00    1.11871E+01
 2.80000E+00    7.38030E+00
 3.00000E+00    4.74084E+00
 3.20000E+00    3.09383E+00
 3.40000E+00    2.07040E+00
 3.60000E+00    1.41595E+00
 3.80000E+00    9.83457E-01
 4.00000E+00    6.89809E-01
 4.20000E+00    4.86726E-01
 4.40000E+00    3.44713E-01
 4.60000E+00    2.44949E-01
 4.80000E+00    1.74663E-01
 5.00000E+00    1.25024E-01
 5.20000E+00    8.98493E-02
 5.40000E+00    6.48179E-02
 5.60000E+00    4.67472E-02
 5.80000E+00    3.38727E-02
 6.00000E+00    2.46249E-02
 6.20000E+00    1.79666E-02
 6.40000E+00    1.31491E-02
 6.60000E+00    9.63765E-03
 6.80000E+00    7.09144E-03
 7.00000E+00    5.21970E-03
 7.20000E+00    3.85113E-03
 7.40000E+00    2.84489E-03
 7.60000E+00    2.10160E-03
 7.80000E+00    1.55818E-03
 8.00000E+00    1.15551E-03
 8.50000E+00    5.53043E-04
 9.00000E+00    2.69362E-04
 9.50000E+00    1.33586E-04
 1.00000E+01    6.71952E-05
 1.05000E+01    3.42346E-05
 1.10000E+01    1.76488E-05
 1.15000E+01    9.19172E-06
 1.20000E+01    4.83050E-06
 1.25000E+01    2.56098E-06
 1.30000E+01    1.37027E-06
 1.35000E+01    7.40090E-07
 1.40000E+01    4.03770E-07
 1.45000E+01    2.22560E-07
 1.50000E+01    1.24000E-07
 1.60000E+01    3.96990E-08
 1.70000E+01    1.31930E-08
 1.80000E+01    4.49970E-09
 1.90000E+01    1.58070E-09
 2.00000E+01    5.67180E-10
 2.10000E+01    2.07770E-10
 2.20000E+01    7.79470E-11
 2.30000E+01    2.99270E-11
 2.40000E+01    1.18060E-11
 2.50000E+01    4.75390E-12
 2.60000E+01    1.95110E-12
 2.70000E+01    8.14190E-13
 2.80000E+01    3.44580E-13
 2.90000E+01    1.47630E-13
 3.00000E+01    6.40130E-14
