# n + Ge  0 : (n,xa)
# jeff3.3    A.J. Koning and D. Rochman        EVAL-DEC15
#
# # energies =   137
#   E(MeV)          xs(mb) 
 1.34688E-02    1.99817E-05
 2.00000E-02    1.53511E-05
 3.00000E-02    1.21781E-05
 6.00000E-02    8.34774E-06
 6.76489E-02    7.83341E-06
 6.97030E-02    7.69526E-06
 1.00000E-01    5.65792E-06
 2.00000E-01    6.39094E-06
 3.00000E-01    7.85405E-06
 3.58572E-01    8.51994E-06
 3.69085E-01    8.63820E-06
 3.97888E-01    8.96210E-06
 4.00000E-01    8.98585E-06
 5.00000E-01    1.01261E-05
 5.05993E-01    1.01433E-05
 5.08305E-01    1.01499E-05
 5.58621E-01    1.02941E-05
 5.62616E-01    1.03056E-05
 6.00000E-01    1.04190E-05
 6.06059E-01    1.07627E-05
 6.68014E-01    1.42768E-05
 7.00000E-01    1.60910E-05
 7.52091E-01    1.85362E-05
 7.88356E-01    2.02385E-05
 8.00000E-01    2.07851E-05
 8.20190E-01    2.12853E-05
 8.31342E-01    2.15617E-05
 8.37131E-01    2.17051E-05
 8.80026E-01    2.27679E-05
 9.00000E-01    2.32627E-05
 9.06467E-01    2.34230E-05
 9.16504E-01    2.36717E-05
 9.19221E-01    2.37390E-05
 9.28487E-01    2.39686E-05
 9.44455E-01    2.43642E-05
 1.00000E+00    2.57405E-05
 1.00777E+00    2.63178E-05
 1.02412E+00    2.75326E-05
 1.04019E+00    2.87265E-05
 1.05337E+00    2.97057E-05
 1.05770E+00    2.92286E-04
 1.14590E+00    3.94206E-04
 1.14721E+00    3.95720E-04
 1.20000E+00    4.56722E-04
 1.40000E+00    9.26425E-04
 1.60000E+00    1.73041E-03
 1.80000E+00    3.67342E-03
 2.00000E+00    6.27385E-03
 2.20000E+00    1.14745E-02
 2.40000E+00    1.96173E-02
 2.60000E+00    3.04137E-02
 2.80000E+00    4.83637E-02
 3.00000E+00    7.40058E-02
 3.20000E+00    1.10653E-01
 3.40000E+00    1.57928E-01
 3.60000E+00    2.02229E-01
 3.80000E+00    2.61912E-01
 4.00000E+00    3.25938E-01
 4.20000E+00    4.03468E-01
 4.40000E+00    4.93254E-01
 4.60000E+00    5.90465E-01
 4.80000E+00    7.05383E-01
 5.00000E+00    8.20851E-01
 5.20000E+00    9.59589E-01
 5.40000E+00    1.09534E+00
 5.60000E+00    1.24512E+00
 5.80000E+00    1.39790E+00
 6.00000E+00    1.54213E+00
 6.20000E+00    1.74321E+00
 6.40000E+00    1.89373E+00
 6.60000E+00    2.09873E+00
 6.80000E+00    2.27784E+00
 7.00000E+00    2.43294E+00
 7.20000E+00    2.72706E+00
 7.40000E+00    2.89312E+00
 7.60000E+00    3.19050E+00
 7.80000E+00    3.39952E+00
 8.00000E+00    3.60272E+00
 8.50000E+00    4.31992E+00
 9.00000E+00    5.16722E+00
 9.50000E+00    6.12020E+00
 1.00000E+01    7.35440E+00
 1.05000E+01    9.06700E+00
 1.10000E+01    1.14690E+01
 1.15000E+01    1.45914E+01
 1.20000E+01    1.77797E+01
 1.25000E+01    1.97228E+01
 1.30000E+01    2.06345E+01
 1.35000E+01    2.17022E+01
 1.40000E+01    2.28235E+01
 1.45000E+01    2.41985E+01
 1.50000E+01    2.55801E+01
 1.60000E+01    2.86070E+01
 1.70000E+01    3.18603E+01
 1.80000E+01    3.51203E+01
 1.90000E+01    3.85267E+01
 2.00000E+01    4.18494E+01
 2.10000E+01    4.51097E+01
 2.20000E+01    4.84200E+01
 2.30000E+01    5.17934E+01
 2.40000E+01    5.49651E+01
 2.50000E+01    5.83232E+01
 2.60000E+01    6.15520E+01
 2.70000E+01    6.46484E+01
 2.80000E+01    6.77249E+01
 2.90000E+01    7.06784E+01
 3.00000E+01    7.35261E+01
 3.00000E+01    7.35261E+01
 3.20000E+01    7.91080E+01
 3.40000E+01    8.48073E+01
 3.60000E+01    9.00304E+01
 3.80000E+01    9.49559E+01
 4.00000E+01    9.95514E+01
 4.20000E+01    1.03855E+02
 4.40000E+01    1.07948E+02
 4.60000E+01    1.11444E+02
 4.80000E+01    1.15219E+02
 5.00000E+01    1.18568E+02
 5.20000E+01    1.21643E+02
 5.40000E+01    1.24675E+02
 5.60000E+01    1.27824E+02
 5.80000E+01    1.30902E+02
 6.00000E+01    1.33583E+02
 6.50000E+01    1.40242E+02
 7.00000E+01    1.44554E+02
 7.50000E+01    1.46847E+02
 8.00000E+01    1.48322E+02
 9.00000E+01    1.53077E+02
 1.00000E+02    1.51106E+02
 1.10000E+02    1.47879E+02
 1.20000E+02    1.46359E+02
 1.30000E+02    1.55948E+02
 1.40000E+02    1.66193E+02
 1.50000E+02    1.77913E+02
 1.60000E+02    1.91060E+02
 1.80000E+02    2.22080E+02
 2.00000E+02    2.65789E+02
