# n + Ge  0 : (n,n'01)
# jeff3.3    A.J. Koning and D. Rochman        EVAL-DEC15
# uncertainties: y
# # energies =   107
#   E(MeV)          xs(mb) 
 1.34688E-02    0.00000E+00
 2.00000E-02    4.50906E-01
 3.00000E-02    1.31200E+00
 6.00000E-02    3.41124E+00
 6.76489E-02    3.69278E+00
 6.97030E-02    3.76839E+00
 1.00000E-01    4.88354E+00
 2.00000E-01    7.36681E+00
 3.00000E-01    9.29074E+00
 3.58572E-01    9.92233E+00
 3.69085E-01    1.00356E+01
 3.97888E-01    1.03463E+01
 4.00000E-01    1.03690E+01
 5.00000E-01    1.10104E+01
 5.05993E-01    1.09664E+01
 5.08305E-01    1.09495E+01
 5.58621E-01    1.05809E+01
 5.62616E-01    1.05517E+01
 6.00000E-01    2.78118E+01
 6.06059E-01    3.28432E+01
 6.68014E-01    1.52998E+02
 7.00000E-01    2.15032E+02
 7.52091E-01    2.91540E+02
 7.88356E-01    3.45252E+02
 8.00000E-01    3.62498E+02
 8.20190E-01    3.78974E+02
 8.31342E-01    3.88074E+02
 8.37131E-01    3.92798E+02
 8.80026E-01    4.27801E+02
 9.00000E-01    4.44100E+02
 9.06467E-01    4.47011E+02
 9.16504E-01    4.51530E+02
 9.19221E-01    4.52753E+02
 9.28487E-01    4.56925E+02
 9.44455E-01    4.64114E+02
 1.00000E+00    4.89121E+02
 1.00777E+00    4.90486E+02
 1.02412E+00    4.93359E+02
 1.04019E+00    4.96183E+02
 1.05337E+00    4.98500E+02
 1.05770E+00    5.01148E+02
 1.14590E+00    5.68354E+02
 1.14721E+00    5.69352E+02
 1.20000E+00    6.09577E+02
 1.40000E+00    6.11921E+02
 1.60000E+00    5.90730E+02
 1.80000E+00    5.46962E+02
 2.00000E+00    5.04623E+02
 2.20000E+00    4.68981E+02
 2.40000E+00    4.05105E+02
 2.60000E+00    3.54626E+02
 2.80000E+00    3.05980E+02
 3.00000E+00    2.67092E+02
 3.20000E+00    2.35131E+02
 3.40000E+00    2.07791E+02
 3.60000E+00    1.84081E+02
 3.80000E+00    1.65166E+02
 4.00000E+00    1.49985E+02
 4.20000E+00    1.37792E+02
 4.40000E+00    1.28021E+02
 4.60000E+00    1.20212E+02
 4.80000E+00    1.13972E+02
 5.00000E+00    1.08986E+02
 5.20000E+00    1.05000E+02
 5.40000E+00    1.01818E+02
 5.60000E+00    9.92702E+01
 5.80000E+00    9.72312E+01
 6.00000E+00    9.55930E+01
 6.20000E+00    9.42724E+01
 6.40000E+00    9.32069E+01
 6.60000E+00    9.23410E+01
 6.80000E+00    9.16332E+01
 7.00000E+00    9.10462E+01
 7.20000E+00    9.05491E+01
 7.40000E+00    9.01177E+01
 7.60000E+00    8.97277E+01
 7.80000E+00    8.93597E+01
 8.00000E+00    8.90030E+01
 8.50000E+00    8.80697E+01
 9.00000E+00    8.69925E+01
 9.50000E+00    8.57393E+01
 1.00000E+01    8.43467E+01
 1.05000E+01    8.28895E+01
 1.10000E+01    8.14490E+01
 1.15000E+01    8.00913E+01
 1.20000E+01    7.88529E+01
 1.25000E+01    7.77392E+01
 1.30000E+01    7.67339E+01
 1.35000E+01    7.58079E+01
 1.40000E+01    7.49339E+01
 1.45000E+01    7.40918E+01
 1.50000E+01    7.32713E+01
 1.60000E+01    7.16840E+01
 1.70000E+01    7.01665E+01
 1.80000E+01    6.87125E+01
 1.90000E+01    6.73191E+01
 2.00000E+01    6.59899E+01
 2.10000E+01    6.47189E+01
 2.20000E+01    6.34753E+01
 2.30000E+01    6.22214E+01
 2.40000E+01    6.09327E+01
 2.50000E+01    5.96051E+01
 2.60000E+01    5.82520E+01
 2.70000E+01    5.68966E+01
 2.80000E+01    5.55611E+01
 2.90000E+01    5.42634E+01
 3.00000E+01    5.30128E+01
