# n + Ge  0 : (n,p)
# jeff3.3    A.J. Koning and D. Rochman        EVAL-DEC15
# uncertainties: y
# # energies =    94
#   E(MeV)          xs(mb) 
 8.81891E-01    1.09092E-13
 1.40000E+00    2.33848E-10
 1.60000E+00    5.46298E-08
 1.80000E+00    2.25573E-06
 2.00000E+00    3.30314E-05
 2.20000E+00    2.49142E-04
 2.40000E+00    1.16257E-03
 2.60000E+00    4.01510E-03
 2.80000E+00    1.08821E-02
 3.00000E+00    2.57725E-02
 3.20000E+00    5.28565E-02
 3.40000E+00    9.37372E-02
 3.60000E+00    1.50654E-01
 3.80000E+00    2.29029E-01
 4.00000E+00    3.39260E-01
 4.20000E+00    4.91167E-01
 4.40000E+00    6.94652E-01
 4.60000E+00    9.58733E-01
 4.80000E+00    1.28806E+00
 5.00000E+00    1.68177E+00
 5.20000E+00    2.13467E+00
 5.40000E+00    2.64004E+00
 5.60000E+00    3.18606E+00
 5.80000E+00    3.76637E+00
 6.00000E+00    4.38507E+00
 6.20000E+00    4.97424E+00
 6.40000E+00    5.59910E+00
 6.60000E+00    6.18833E+00
 6.80000E+00    6.75854E+00
 7.00000E+00    7.38074E+00
 7.20000E+00    7.92042E+00
 7.40000E+00    8.50768E+00
 7.60000E+00    9.04860E+00
 7.80000E+00    9.52626E+00
 8.00000E+00    1.01276E+01
 8.50000E+00    1.14185E+01
 9.00000E+00    1.27365E+01
 9.50000E+00    1.41470E+01
 1.00000E+01    1.56782E+01
 1.05000E+01    1.73685E+01
 1.10000E+01    1.92035E+01
 1.15000E+01    2.11380E+01
 1.20000E+01    2.31180E+01
 1.25000E+01    2.50779E+01
 1.30000E+01    2.68580E+01
 1.35000E+01    2.83708E+01
 1.40000E+01    2.96437E+01
 1.45000E+01    3.03026E+01
 1.50000E+01    3.06943E+01
 1.60000E+01    3.02400E+01
 1.70000E+01    2.93767E+01
 1.80000E+01    2.84263E+01
 1.90000E+01    2.77074E+01
 2.00000E+01    2.70598E+01
 2.10000E+01    2.65125E+01
 2.20000E+01    2.61834E+01
 2.30000E+01    2.56043E+01
 2.40000E+01    2.56402E+01
 2.50000E+01    2.48363E+01
 2.60000E+01    2.43995E+01
 2.70000E+01    2.34600E+01
 2.80000E+01    2.28157E+01
 2.90000E+01    2.20633E+01
 3.00000E+01    2.12464E+01
 3.00000E+01    2.12464E+01
 3.20000E+01    1.98241E+01
 3.40000E+01    1.82215E+01
 3.60000E+01    1.67914E+01
 3.80000E+01    1.53625E+01
 4.00000E+01    1.40216E+01
 4.20000E+01    1.27619E+01
 4.40000E+01    1.17445E+01
 4.60000E+01    1.07846E+01
 4.80000E+01    9.88262E+00
 5.00000E+01    9.03543E+00
 5.20000E+01    8.27589E+00
 5.40000E+01    7.66265E+00
 5.60000E+01    7.02036E+00
 5.80000E+01    6.57566E+00
 6.00000E+01    6.17128E+00
 6.50000E+01    4.97260E+00
 7.00000E+01    4.27564E+00
 7.50000E+01    3.58044E+00
 8.00000E+01    3.18916E+00
 9.00000E+01    2.48657E+00
 1.00000E+02    1.98708E+00
 1.10000E+02    1.67118E+00
 1.20000E+02    1.37896E+00
 1.30000E+02    1.16794E+00
 1.40000E+02    9.87741E-01
 1.50000E+02    8.44888E-01
 1.60000E+02    7.44028E-01
 1.80000E+02    5.62461E-01
 2.00000E+02    4.60156E-01
