# n + Sn114 : (n,p)     
# jendl4.0   N.Iwamoto                         EVAL-Dec09
# uncertainties: n
# # energies =   109
#   E(MeV)       xs(mb) 
 1.21708E+00    0.00000E+00
 1.40904E+00    2.59720E-11
 1.44010E+00    3.01750E-11
 1.50736E+00    3.92750E-11
 1.71864E+00    6.78610E-11
 1.72348E+00    6.85160E-11
 1.75813E+00    7.32040E-11
 1.79659E+00    7.84070E-11
 1.82275E+00    8.19470E-11
 1.85068E+00    8.57260E-11
 1.86451E+00    8.75970E-11
 1.86452E+00    8.75980E-11
 1.91070E+00    9.38470E-11
 1.91615E+00    9.45840E-11
 1.91963E+00    9.50550E-11
 1.94861E+00    9.89760E-11
 1.95206E+00    9.94420E-11
 1.99928E+00    1.05830E-10
 2.04938E+00    1.12620E-10
 2.06015E+00    1.14080E-10
 2.13123E+00    1.23720E-10
 2.13464E+00    1.24190E-10
 2.19625E+00    1.32560E-10
 2.22910E+00    1.37030E-10
 2.23240E+00    1.37480E-10
 2.24477E+00    1.39170E-10
 2.24586E+00    1.39310E-10
 2.25000E+00    1.39880E-10
 2.25827E+00    1.41000E-10
 2.25878E+00    1.41070E-10
 2.26345E+00    1.41710E-10
 2.27125E+00    1.42770E-10
 2.27357E+00    1.43090E-10
 2.28595E+00    1.44800E-10
 2.28902E+00    1.45230E-10
 2.29514E+00    1.46080E-10
 2.29515E+00    1.46080E-10
 2.30062E+00    1.46850E-10
 2.30937E+00    1.48080E-10
 2.32188E+00    1.49850E-10
 2.33873E+00    1.52260E-10
 2.36627E+00    1.56220E-10
 2.44312E+00    1.67330E-10
 2.47580E+00    1.72050E-10
 2.50000E+00    1.75550E-10
 2.53703E+00    1.80900E-10
 2.59881E+00    1.89830E-10
 2.63761E+00    1.95440E-10
 2.75000E+00    2.11690E-10
 2.76265E+00    2.13520E-10
 2.78414E+00    2.16620E-10
 2.78985E+00    2.17450E-10
 2.84008E+00    2.24710E-10
 2.88514E+00    2.31220E-10
 2.93085E+00    2.37830E-10
 2.94155E+00    2.39380E-10
 2.96950E+00    2.43420E-10
 3.00000E+00    3.32500E-10
 3.05179E+00    4.46400E-10
 3.05208E+00    4.47040E-10
 3.05490E+00    4.53130E-10
 3.09860E+00    5.93210E-10
 3.11471E+00    7.08590E-10
 3.12755E+00    7.99570E-10
 3.13462E+00    8.49230E-10
 3.17768E+00    1.14630E-09
 3.21434E+00    1.74890E-09
 3.21716E+00    4.59680E-05
 3.21864E+00    4.63868E-05
 3.23237E+00    5.04905E-05
 3.23602E+00    5.15403E-05
 3.24020E+00    5.27505E-05
 3.25457E+00    5.71978E-05
 3.27076E+00    6.26304E-05
 3.27312E+00    6.34809E-05
 3.50000E+00    2.73028E-04
 4.00000E+00    3.16855E-03
 4.50000E+00    1.79106E-02
 5.00000E+00    6.67027E-02
 5.50000E+00    1.83595E-01
 6.00000E+00    4.02396E-01
 6.50000E+00    7.12031E-01
 7.00000E+00    1.14243E+00
 7.50000E+00    1.67393E+00
 8.00000E+00    2.31485E+00
 8.50000E+00    3.10064E+00
 9.00000E+00    4.08671E+00
 9.50000E+00    5.33272E+00
 1.00000E+01    6.88773E+00
 1.05000E+01    8.78867E+00
 1.10000E+01    1.10363E+01
 1.15000E+01    1.36478E+01
 1.20000E+01    1.65730E+01
 1.25000E+01    1.97734E+01
 1.30000E+01    2.31240E+01
 1.35000E+01    2.65192E+01
 1.40000E+01    2.97897E+01
 1.45000E+01    3.27710E+01
 1.50000E+01    3.54449E+01
 1.55000E+01    3.77459E+01
 1.60000E+01    3.98125E+01
 1.65000E+01    4.15844E+01
 1.70000E+01    4.32042E+01
 1.75000E+01    4.45505E+01
 1.80000E+01    4.58477E+01
 1.85000E+01    4.68147E+01
 1.90000E+01    4.76613E+01
 1.95000E+01    4.82804E+01
 2.00000E+01    4.87743E+01
