# n + Os188 : (n,xa)    
# endfb8.0   N.Iwamoto                         EVAL-Jan10
# 
# # energies =   114
#   E(MeV)        xs(mb) 
 1.05000E-01    2.55136E-05
 1.10000E-01    2.56736E-05
 1.20000E-01    2.59935E-05
 1.30000E-01    2.64164E-05
 1.40000E-01    2.68602E-05
 1.50000E-01    2.75652E-05
 1.55853E-01    2.78932E-05
 1.60000E-01    2.01895E-05
 1.70000E-01    1.87008E-05
 1.80000E-01    1.79119E-05
 1.90000E-01    1.73889E-05
 2.00000E-01    1.70290E-05
 2.25000E-01    1.65822E-05
 2.50000E-01    1.67412E-05
 2.75000E-01    1.70363E-05
 3.00000E-01    1.74943E-05
 4.00000E-01    2.11580E-05
 4.80505E-01    2.60433E-05
 5.00000E-01    2.71066E-05
 6.00000E-01    3.44853E-05
 6.36412E-01    3.77887E-05
 7.00000E-01    3.94976E-05
 7.94219E-01    4.80205E-05
 8.00000E-01    4.77634E-05
 9.00000E-01    5.81915E-05
 9.45356E-01    6.40016E-05
 9.70832E-01    6.86032E-05
 1.00000E+00    7.26887E-05
 1.09219E+00    9.02736E-05
 1.10000E+00    9.06316E-05
 1.18720E+00    1.10618E-04
 1.20000E+00    1.13653E-04
 1.28595E+00    1.40624E-04
 1.30000E+00    1.45170E-04
 1.31182E+00    1.48995E-04
 1.40000E+00    1.77711E-04
 1.42137E+00    1.85466E-04
 1.43249E+00    1.86309E-04
 1.45125E+00    1.96659E-04
 1.46535E+00    1.95602E-04
 1.47036E+00    1.95031E-04
 1.48597E+00    1.93414E-04
 1.50000E+00    1.94861E-04
 1.52283E+00    2.00205E-04
 1.52424E+00    2.00547E-04
 1.57511E+00    2.21398E-04
 1.58546E+00    2.24858E-04
 1.60000E+00    2.27246E-04
 1.62918E+00    2.36918E-04
 1.67761E+00    2.57575E-04
 1.67762E+00    2.57579E-04
 1.69433E+00    2.63831E-04
 1.69454E+00    2.63717E-04
 1.69455E+00    2.63720E-04
 1.70000E+00    2.65095E-04
 1.71342E+00    2.69909E-04
 1.73870E+00    2.78976E-04
 1.75587E+00    2.91367E-04
 1.77487E+00    2.95398E-04
 1.78050E+00    2.96593E-04
 1.80000E+00    3.03601E-04
 1.81731E+00    3.10795E-04
 1.83473E+00    3.16287E-04
 1.85281E+00    3.32116E-04
 1.86495E+00    3.37147E-04
 1.86496E+00    3.37152E-04
 1.88798E+00    3.47136E-04
 1.90000E+00    3.52581E-04
 1.90316E+00    3.54013E-04
 1.94729E+00    3.77382E-04
 1.95144E+00    3.79580E-04
 1.95906E+00    3.94685E-04
 1.96759E+00    3.99130E-04
 1.97552E+00    4.03263E-04
 1.97553E+00    4.03268E-04
 2.00000E+00    4.16020E-04
 2.25000E+00    6.21623E-04
 2.50000E+00    8.53322E-04
 2.75000E+00    1.15612E-03
 3.00000E+00    1.47528E-03
 3.50000E+00    2.24254E-03
 4.00000E+00    3.11288E-03
 4.50000E+00    4.05509E-03
 5.00000E+00    5.05810E-03
 5.50000E+00    6.13481E-03
 6.00000E+00    7.42029E-03
 6.50000E+00    9.21384E-03
 7.00000E+00    1.21877E-02
 7.50000E+00    1.73190E-02
 8.00000E+00    2.59802E-02
 8.50000E+00    3.78013E-02
 9.00000E+00    5.25153E-02
 9.50000E+00    7.56035E-02
 1.00000E+01    1.11832E-01
 1.05000E+01    1.66763E-01
 1.10000E+01    2.47337E-01
 1.15000E+01    3.62440E-01
 1.20000E+01    5.21904E-01
 1.25000E+01    7.35754E-01
 1.30000E+01    1.01295E+00
 1.35000E+01    1.36023E+00
 1.40000E+01    1.78132E+00
 1.45000E+01    2.27679E+00
 1.50000E+01    2.84365E+00
 1.55000E+01    3.47852E+00
 1.60000E+01    4.17286E+00
 1.65000E+01    4.91895E+00
 1.70000E+01    5.70810E+00
 1.75000E+01    6.53160E+00
 1.80000E+01    7.38112E+00
 1.85000E+01    8.24903E+00
 1.90000E+01    9.12860E+00
 1.95000E+01    1.00139E+01
 2.00000E+01    1.08999E+01
