# n + Os188 : (n,n'07)  
# endfb8.0   N.Iwamoto                         EVAL-Jan10
# uncertainties: n
# # energies =    82
#   E(MeV)       xs(mb) 
 1.09219E+00    0.00000E+00
 1.10000E+00    4.33398E+01
 1.18720E+00    9.23326E+01
 1.20000E+00    9.54249E+01
 1.28595E+00    1.11528E+02
 1.30000E+00    1.13650E+02
 1.31182E+00    1.15484E+02
 1.40000E+00    1.22939E+02
 1.42137E+00    1.24267E+02
 1.43249E+00    1.24922E+02
 1.45125E+00    1.25993E+02
 1.46535E+00    1.22788E+02
 1.47036E+00    1.22036E+02
 1.48597E+00    1.19750E+02
 1.50000E+00    1.14352E+02
 1.52283E+00    1.11069E+02
 1.52424E+00    1.10902E+02
 1.57511E+00    1.06223E+02
 1.58546E+00    1.05427E+02
 1.60000E+00    1.03550E+02
 1.62918E+00    1.01174E+02
 1.67762E+00    9.66211E+01
 1.69433E+00    9.53378E+01
 1.69454E+00    9.52747E+01
 1.70000E+00    9.46940E+01
 1.71342E+00    9.36437E+01
 1.73870E+00    8.92178E+01
 1.75587E+00    8.65933E+01
 1.77487E+00    8.36808E+01
 1.78050E+00    8.20861E+01
 1.80000E+00    7.92420E+01
 1.81731E+00    7.72497E+01
 1.83473E+00    7.49368E+01
 1.85281E+00    7.20577E+01
 1.86496E+00    6.99933E+01
 1.88798E+00    6.67655E+01
 1.90000E+00    6.50459E+01
 1.90316E+00    6.47170E+01
 1.94729E+00    6.02875E+01
 1.95144E+00    5.97390E+01
 1.95906E+00    5.87756E+01
 1.96759E+00    5.77366E+01
 1.97552E+00    5.67887E+01
 2.00000E+00    5.44228E+01
 2.25000E+00    4.00207E+01
 2.50000E+00    2.77662E+01
 2.75000E+00    1.98029E+01
 3.00000E+00    1.39640E+01
 3.50000E+00    6.52022E+00
 4.00000E+00    3.21963E+00
 4.50000E+00    1.84744E+00
 5.00000E+00    1.27475E+00
 5.50000E+00    1.01533E+00
 6.00000E+00    8.78112E-01
 6.50000E+00    7.89297E-01
 7.00000E+00    7.22763E-01
 7.50000E+00    6.68592E-01
 8.00000E+00    6.23553E-01
 8.50000E+00    5.85610E-01
 9.00000E+00    5.53048E-01
 9.50000E+00    5.24110E-01
 1.00000E+01    4.97438E-01
 1.05000E+01    4.72092E-01
 1.10000E+01    4.47698E-01
 1.15000E+01    4.24194E-01
 1.20000E+01    4.01802E-01
 1.25000E+01    3.80659E-01
 1.30000E+01    3.60831E-01
 1.35000E+01    3.42444E-01
 1.40000E+01    3.25479E-01
 1.45000E+01    3.09865E-01
 1.50000E+01    2.95485E-01
 1.55000E+01    2.82198E-01
 1.60000E+01    2.69861E-01
 1.65000E+01    2.58334E-01
 1.70000E+01    2.47497E-01
 1.75000E+01    2.37255E-01
 1.80000E+01    2.27545E-01
 1.85000E+01    2.18327E-01
 1.90000E+01    2.09587E-01
 1.95000E+01    2.01315E-01
 2.00000E+01    1.93512E-01
