# n + Os188 : (n,n'21)  
# endfb8.0   N.Iwamoto                         EVAL-Jan10
# uncertainties: n
# # energies =    62
#   E(MeV)       xs(mb) 
 1.62918E+00    0.00000E+00
 1.67762E+00    5.29532E+01
 1.69433E+00    5.87015E+01
 1.69454E+00    5.86560E+01
 1.70000E+00    5.98453E+01
 1.71342E+00    6.31986E+01
 1.73870E+00    6.90100E+01
 1.75587E+00    7.09829E+01
 1.77487E+00    7.37390E+01
 1.78050E+00    7.45844E+01
 1.80000E+00    7.72500E+01
 1.81731E+00    7.94529E+01
 1.83473E+00    8.03133E+01
 1.85281E+00    8.20713E+01
 1.86496E+00    8.32811E+01
 1.88798E+00    8.53645E+01
 1.90000E+00    8.60960E+01
 1.90316E+00    8.63074E+01
 1.94729E+00    8.91155E+01
 1.95144E+00    8.93415E+01
 1.95906E+00    8.97499E+01
 1.96759E+00    9.01906E+01
 1.97552E+00    9.05853E+01
 2.00000E+00    9.08428E+01
 2.25000E+00    8.81539E+01
 2.50000E+00    6.74504E+01
 2.75000E+00    5.18225E+01
 3.00000E+00    3.58021E+01
 3.50000E+00    1.67493E+01
 4.00000E+00    7.65434E+00
 4.50000E+00    3.66819E+00
 5.00000E+00    1.99030E+00
 5.50000E+00    1.28357E+00
 6.00000E+00    9.72589E-01
 6.50000E+00    8.20366E-01
 7.00000E+00    7.33470E-01
 7.50000E+00    6.73898E-01
 8.00000E+00    6.27714E-01
 8.50000E+00    5.89525E-01
 9.00000E+00    5.56960E-01
 9.50000E+00    5.28405E-01
 1.00000E+01    5.02650E-01
 1.05000E+01    4.78631E-01
 1.10000E+01    4.55702E-01
 1.15000E+01    4.33570E-01
 1.20000E+01    4.12188E-01
 1.25000E+01    3.91773E-01
 1.30000E+01    3.72370E-01
 1.35000E+01    3.54169E-01
 1.40000E+01    3.37213E-01
 1.45000E+01    3.21495E-01
 1.50000E+01    3.06940E-01
 1.55000E+01    2.93437E-01
 1.60000E+01    2.80882E-01
 1.65000E+01    2.69148E-01
 1.70000E+01    2.58123E-01
 1.75000E+01    2.47711E-01
 1.80000E+01    2.37839E-01
 1.85000E+01    2.28460E-01
 1.90000E+01    2.19548E-01
 1.95000E+01    2.11087E-01
 2.00000E+01    2.03078E-01
