# n + Os188 : (n,n'08)  
# endfb8.0   N.Iwamoto                         EVAL-Jan10
# uncertainties: n
# # energies =    80
#   E(MeV)       xs(mb) 
 1.18720E+00    0.00000E+00
 1.20000E+00    1.88720E+00
 1.28595E+00    7.82029E+00
 1.30000E+00    8.69305E+00
 1.31182E+00    9.59617E+00
 1.40000E+00    1.68241E+01
 1.42137E+00    1.87451E+01
 1.43249E+00    1.91497E+01
 1.45125E+00    2.04868E+01
 1.46535E+00    2.15227E+01
 1.47036E+00    2.17523E+01
 1.48597E+00    2.28033E+01
 1.50000E+00    2.38188E+01
 1.52283E+00    2.55166E+01
 1.52424E+00    2.56211E+01
 1.57511E+00    2.90855E+01
 1.58546E+00    2.96150E+01
 1.60000E+00    3.00134E+01
 1.62918E+00    3.13167E+01
 1.67762E+00    3.31498E+01
 1.69433E+00    3.37703E+01
 1.69454E+00    3.37355E+01
 1.70000E+00    3.38086E+01
 1.71342E+00    3.42496E+01
 1.73870E+00    3.52179E+01
 1.75587E+00    3.56585E+01
 1.77487E+00    3.62806E+01
 1.78050E+00    3.64777E+01
 1.80000E+00    3.71767E+01
 1.81731E+00    3.78091E+01
 1.83473E+00    3.78945E+01
 1.85281E+00    3.81390E+01
 1.86496E+00    3.83197E+01
 1.88798E+00    3.86890E+01
 1.90000E+00    3.88849E+01
 1.90316E+00    3.89369E+01
 1.94729E+00    3.96990E+01
 1.95144E+00    3.97774E+01
 1.95906E+00    3.99203E+01
 1.96759E+00    4.00783E+01
 1.97552E+00    4.02277E+01
 2.00000E+00    4.05272E+01
 2.25000E+00    4.11998E+01
 2.50000E+00    3.33460E+01
 2.75000E+00    2.69921E+01
 3.00000E+00    2.05526E+01
 3.50000E+00    1.12016E+01
 4.00000E+00    5.96571E+00
 4.50000E+00    3.30072E+00
 5.00000E+00    2.01473E+00
 5.50000E+00    1.39922E+00
 6.00000E+00    1.09559E+00
 6.50000E+00    9.30919E-01
 7.00000E+00    8.29757E-01
 7.50000E+00    7.58393E-01
 8.00000E+00    7.03598E-01
 8.50000E+00    6.59266E-01
 9.00000E+00    6.22018E-01
 9.50000E+00    5.89365E-01
 1.00000E+01    5.59536E-01
 1.05000E+01    5.31334E-01
 1.10000E+01    5.04234E-01
 1.15000E+01    4.78083E-01
 1.20000E+01    4.53145E-01
 1.25000E+01    4.29548E-01
 1.30000E+01    4.07367E-01
 1.35000E+01    3.86760E-01
 1.40000E+01    3.67716E-01
 1.45000E+01    3.50168E-01
 1.50000E+01    3.33991E-01
 1.55000E+01    3.19036E-01
 1.60000E+01    3.05147E-01
 1.65000E+01    2.92169E-01
 1.70000E+01    2.79968E-01
 1.75000E+01    2.68438E-01
 1.80000E+01    2.57506E-01
 1.85000E+01    2.47125E-01
 1.90000E+01    2.37278E-01
 1.95000E+01    2.27952E-01
 2.00000E+01    2.19148E-01
