# n + Dy162 : (n,n'18)  
# jendl4.0   N.Iwamoto,S.Chiba                 EVAL-Nov09
# uncertainties: n
# # energies =    67
#   E(MeV)       xs(mb) 
 1.46252E+00    0.00000E+00
 1.49492E+00    4.56963E+01
 1.49967E+00    4.90142E+01
 1.50000E+00    4.92365E+01
 1.52789E+00    6.59012E+01
 1.53966E+00    7.19830E+01
 1.54523E+00    7.46416E+01
 1.58070E+00    8.97771E+01
 1.58410E+00    9.09740E+01
 1.58544E+00    9.14639E+01
 1.60000E+00    9.64049E+01
 1.64460E+00    1.09164E+02
 1.64740E+00    1.09894E+02
 1.64812E+00    1.09852E+02
 1.67665E+00    1.15058E+02
 1.67948E+00    1.15490E+02
 1.68092E+00    1.15680E+02
 1.69384E+00    1.17597E+02
 1.70000E+00    1.18499E+02
 1.70188E+00    1.18770E+02
 1.73909E+00    1.22565E+02
 1.74983E+00    1.22901E+02
 1.75659E+00    1.23178E+02
 1.76279E+00    1.23180E+02
 1.76575E+00    1.23180E+02
 1.77761E+00    1.23308E+02
 1.80000E+00    1.23362E+02
 1.90000E+00    1.21341E+02
 2.00000E+00    1.14909E+02
 2.25000E+00    9.65931E+01
 2.50000E+00    6.95542E+01
 2.75000E+00    5.11464E+01
 3.00000E+00    3.48189E+01
 3.50000E+00    1.65946E+01
 4.00000E+00    7.97411E+00
 4.50000E+00    3.95870E+00
 5.00000E+00    2.09382E+00
 5.50000E+00    1.22402E+00
 6.00000E+00    8.09975E-01
 6.50000E+00    6.07039E-01
 7.00000E+00    5.00329E-01
 7.50000E+00    4.37733E-01
 8.00000E+00    3.96030E-01
 8.50000E+00    3.64813E-01
 9.00000E+00    3.39317E-01
 9.50000E+00    3.17342E-01
 1.00000E+01    2.97862E-01
 1.05000E+01    2.80439E-01
 1.10000E+01    2.64358E-01
 1.15000E+01    2.49882E-01
 1.20000E+01    2.36495E-01
 1.25000E+01    2.24320E-01
 1.30000E+01    2.12956E-01
 1.35000E+01    2.02537E-01
 1.40000E+01    1.92804E-01
 1.45000E+01    1.83835E-01
 1.50000E+01    1.75452E-01
 1.55000E+01    1.67121E-01
 1.60000E+01    1.59957E-01
 1.65000E+01    1.53655E-01
 1.70000E+01    1.47026E-01
 1.75000E+01    1.40630E-01
 1.80000E+01    1.34862E-01
 1.85000E+01    1.29843E-01
 1.90000E+01    1.25231E-01
 1.95000E+01    1.20303E-01
 2.00000E+01    1.15608E-01
