# n + Dy162 : (n,d)     
# jendl4.0   N.Iwamoto,S.Chiba                 EVAL-Nov09
# uncertainties: n
# # energies =    43
#   E(MeV)       xs(mb) 
 5.81905E+00    0.00000E+00
 5.87569E+00    2.34830E-22
 5.95356E+00    6.12100E-22
 6.05121E+00    1.08940E-21
 6.13592E+00    2.41770E-18
 6.21587E+00    4.94760E-18
 6.23888E+00    5.68030E-18
 6.30217E+00    7.70320E-18
 6.31087E+00    7.98130E-18
 6.32116E+00    8.31040E-18
 6.34229E+00    8.98610E-18
 6.38053E+00    1.02090E-17
 6.40669E+00    1.10460E-17
 6.40847E+00    1.11030E-17
 6.42480E+00    1.16250E-17
 6.46102E+00    1.27840E-17
 7.00000E+00    3.00220E-17
 7.50000E+00    1.20670E-15
 8.00000E+00    2.43540E-12
 8.50000E+00    5.91360E-10
 9.00000E+00    3.84560E-08
 9.50000E+00    1.11499E-06
 1.00000E+01    1.39117E-05
 1.05000E+01    1.07048E-04
 1.10000E+01    5.75588E-04
 1.15000E+01    2.35806E-03
 1.20000E+01    7.77792E-03
 1.25000E+01    1.84500E-02
 1.30000E+01    4.51995E-02
 1.35000E+01    9.67983E-02
 1.40000E+01    1.84302E-01
 1.45000E+01    3.17173E-01
 1.50000E+01    5.00727E-01
 1.55000E+01    7.31030E-01
 1.60000E+01    1.02228E+00
 1.65000E+01    1.37663E+00
 1.70000E+01    1.68594E+00
 1.75000E+01    2.09341E+00
 1.80000E+01    2.53933E+00
 1.85000E+01    2.95997E+00
 1.90000E+01    3.41125E+00
 1.95000E+01    3.81524E+00
 2.00000E+01    4.31378E+00
