# n + Dy162 : (n,n'36)  
# jendl4.0   N.Iwamoto,S.Chiba                 EVAL-Nov09
# uncertainties: n
# # energies =    46
#   E(MeV)       xs(mb) 
 1.74983E+00    0.00000E+00
 1.75659E+00    5.53214E+00
 1.76279E+00    7.81171E+00
 1.76575E+00    8.75507E+00
 1.77761E+00    1.21577E+01
 1.80000E+00    1.75703E+01
 1.90000E+00    3.56092E+01
 2.00000E+00    4.51469E+01
 2.25000E+00    5.12851E+01
 2.50000E+00    4.30419E+01
 2.75000E+00    3.54029E+01
 3.00000E+00    2.57336E+01
 3.50000E+00    1.34405E+01
 4.00000E+00    6.76916E+00
 4.50000E+00    3.34775E+00
 5.00000E+00    1.66073E+00
 5.50000E+00    8.49210E-01
 6.00000E+00    4.60951E-01
 6.50000E+00    2.76934E-01
 7.00000E+00    1.88798E-01
 7.50000E+00    1.45011E-01
 8.00000E+00    1.21755E-01
 8.50000E+00    1.07984E-01
 9.00000E+00    9.86627E-02
 9.50000E+00    9.15563E-02
 1.00000E+01    8.56742E-02
 1.05000E+01    8.05940E-02
 1.10000E+01    7.59867E-02
 1.15000E+01    7.18720E-02
 1.20000E+01    6.80782E-02
 1.25000E+01    6.46353E-02
 1.30000E+01    6.14137E-02
 1.35000E+01    5.84619E-02
 1.40000E+01    5.56967E-02
 1.45000E+01    5.31482E-02
 1.50000E+01    5.07603E-02
 1.55000E+01    4.83729E-02
 1.60000E+01    4.63398E-02
 1.65000E+01    4.45348E-02
 1.70000E+01    4.26399E-02
 1.75000E+01    4.08119E-02
 1.80000E+01    3.91451E-02
 1.85000E+01    3.77213E-02
 1.90000E+01    3.63944E-02
 1.95000E+01    3.49715E-02
 2.00000E+01    3.36302E-02
