# n + Dy162 : (n,xt)    
# jendl4.0   N.Iwamoto,S.Chiba                 EVAL-Nov09
# 
# # energies =   114
#   E(MeV)        xs(mb) 
 8.11634E-02    0.00000E+00
 9.00000E-02    0.00000E+00
 1.00000E-01    0.00000E+00
 1.05000E-01    0.00000E+00
 1.10000E-01    0.00000E+00
 1.20000E-01    0.00000E+00
 1.30000E-01    0.00000E+00
 1.40000E-01    0.00000E+00
 1.50000E-01    0.00000E+00
 1.60000E-01    0.00000E+00
 1.70000E-01    0.00000E+00
 1.80000E-01    0.00000E+00
 1.90000E-01    0.00000E+00
 2.00000E-01    0.00000E+00
 2.25000E-01    0.00000E+00
 2.50000E-01    0.00000E+00
 2.67319E-01    0.00000E+00
 2.75000E-01    0.00000E+00
 3.00000E-01    0.00000E+00
 4.00000E-01    0.00000E+00
 5.00000E-01    0.00000E+00
 5.51937E-01    0.00000E+00
 6.00000E-01    0.00000E+00
 7.00000E-01    0.00000E+00
 8.00000E-01    0.00000E+00
 8.93693E-01    0.00000E+00
 8.93694E-01    0.00000E+00
 9.00000E-01    0.00000E+00
 9.27019E-01    0.00000E+00
 9.68938E-01    0.00000E+00
 1.00000E+00    0.00000E+00
 1.06760E+00    0.00000E+00
 1.10000E+00    0.00000E+00
 1.15538E+00    0.00000E+00
 1.19013E+00    0.00000E+00
 1.20000E+00    0.00000E+00
 1.21763E+00    0.00000E+00
 1.28372E+00    0.00000E+00
 1.30000E+00    0.00000E+00
 1.30509E+00    0.00000E+00
 1.33271E+00    0.00000E+00
 1.36639E+00    0.00000E+00
 1.38365E+00    0.00000E+00
 1.39917E+00    0.00000E+00
 1.40000E+00    0.00000E+00
 1.40898E+00    0.00000E+00
 1.46252E+00    0.00000E+00
 1.49492E+00    0.00000E+00
 1.49967E+00    0.00000E+00
 1.50000E+00    0.00000E+00
 1.52789E+00    0.00000E+00
 1.53966E+00    0.00000E+00
 1.54523E+00    0.00000E+00
 1.58070E+00    0.00000E+00
 1.58410E+00    0.00000E+00
 1.58543E+00    0.00000E+00
 1.58544E+00    0.00000E+00
 1.60000E+00    0.00000E+00
 1.64460E+00    0.00000E+00
 1.64740E+00    0.00000E+00
 1.64812E+00    0.00000E+00
 1.67665E+00    0.00000E+00
 1.67948E+00    0.00000E+00
 1.68092E+00    0.00000E+00
 1.69384E+00    0.00000E+00
 1.70000E+00    0.00000E+00
 1.70188E+00    0.00000E+00
 1.73909E+00    0.00000E+00
 1.74983E+00    0.00000E+00
 1.75659E+00    0.00000E+00
 1.76279E+00    0.00000E+00
 1.76575E+00    0.00000E+00
 1.77761E+00    0.00000E+00
 1.80000E+00    0.00000E+00
 1.90000E+00    0.00000E+00
 2.00000E+00    0.00000E+00
 2.25000E+00    0.00000E+00
 2.50000E+00    0.00000E+00
 2.75000E+00    0.00000E+00
 3.00000E+00    0.00000E+00
 3.50000E+00    0.00000E+00
 4.00000E+00    0.00000E+00
 4.50000E+00    0.00000E+00
 5.00000E+00    0.00000E+00
 5.50000E+00    0.00000E+00
 6.00000E+00    0.00000E+00
 6.50000E+00    0.00000E+00
 7.00000E+00    0.00000E+00
 7.50000E+00    1.11802E-25
 8.00000E+00    2.75963E-21
 8.50000E+00    5.62620E-21
 9.00000E+00    1.10440E-18
 9.50000E+00    9.13740E-15
 1.00000E+01    4.73080E-12
 1.05000E+01    4.75790E-10
 1.10000E+01    1.65230E-08
 1.15000E+01    2.75010E-07
 1.20000E+01    2.68800E-06
 1.25000E+01    1.77286E-05
 1.30000E+01    8.65380E-05
 1.35000E+01    3.34077E-04
 1.40000E+01    1.06799E-03
 1.45000E+01    2.87963E-03
 1.50000E+01    6.87396E-03
 1.55000E+01    1.48610E-02
 1.60000E+01    2.79113E-02
 1.65000E+01    4.70872E-02
 1.70000E+01    7.53782E-02
 1.75000E+01    1.11406E-01
 1.80000E+01    1.56295E-01
 1.85000E+01    2.09696E-01
 1.90000E+01    2.69519E-01
 1.95000E+01    3.37891E-01
 2.00000E+01    4.10665E-01
