# n + Dy162 : (n,el)    
# jendl4.0   N.Iwamoto,S.Chiba                 EVAL-Nov09
# uncertainties: n
# # energies =    69
#   E(MeV)       xs(mb) 
 1.00000E-10    4.25806E-01
 5.00000E-09    3.51751E-01
 1.00000E-08    3.47016E-01
 1.50000E-08    3.47331E-01
 2.00000E-08    3.51638E-01
 2.50000E-08    3.59642E-01
 3.00000E-08    3.71240E-01
 3.50000E-08    3.89785E-01
 4.20000E-08    4.20089E-01
 5.00000E-08    4.61147E-01
 5.80000E-08    5.14587E-01
 6.70000E-08    5.98659E-01
 8.00000E-08    7.56690E-01
 1.00000E-07    1.14167E+00
 1.40000E-07    1.87107E+00
 1.80000E-07    2.84883E+00
 2.20000E-07    3.91991E+00
 2.50000E-07    4.99861E+00
 2.80000E-07    6.01913E+00
 3.00000E-07    6.91371E+00
 3.20000E-07    8.13191E+00
 3.50000E-07    1.03214E+01
 4.00000E-07    1.52580E+01
 5.00000E-07    2.49599E+01
 6.25000E-07    4.13201E+01
 7.80000E-07    5.85216E+01
 8.50000E-07    7.02154E+01
 9.10000E-07    8.01908E+01
 9.50000E-07    8.68265E+01
 9.72000E-07    9.19778E+01
 9.96000E-07    9.75702E+01
 1.02000E-06    1.03516E+02
 1.04500E-06    1.09962E+02
 1.07100E-06    1.16817E+02
 1.09700E-06    1.23969E+02
 1.12300E-06    1.31577E+02
 1.15000E-06    1.59304E+02
 1.30000E-06    2.26433E+02
 1.50000E-06    4.63176E+02
 2.10000E-06    1.09279E+03
 2.60000E-06    2.68304E+03
 3.30000E-06    8.06178E+03
 4.00000E-06    3.96007E+05
 9.87700E-06    5.32005E+03
 1.59680E-05    2.49197E+03
 2.77000E-05    9.17986E+02
 4.80520E-05    5.35113E+05
 7.55014E-05    1.55983E+04
 1.48728E-04    3.81242E+04
 3.67262E-04    5.26092E+04
 9.06898E-04    1.48648E+04
 1.42510E-03    1.84565E+04
 2.23945E-03    1.78049E+04
 3.51910E-03    1.70687E+04
 5.53000E-03    1.60358E+04
 9.11800E-03    1.39678E+04
 1.50300E-02    1.23616E+04
 2.47800E-02    1.10582E+04
 4.08500E-02    1.00181E+04
 6.73400E-02    9.11791E+03
 1.11000E-01    8.10569E+03
 1.83000E-01    7.18166E+03
 3.02000E-01    6.39340E+03
 5.00000E-01    5.79134E+03
 8.21000E-01    5.14749E+03
 1.35300E+00    4.14985E+03
 2.23100E+00    3.19601E+03
 3.67900E+00    2.38925E+03
 6.06500E+00    2.11211E+03
