# n + Dy162 : (n,p)     
# jendl4.0   N.Iwamoto,S.Chiba                 EVAL-Nov09
# uncertainties: n
# # energies =    44
#   E(MeV)       xs(mb) 
 1.73391E+00    0.00000E+00
 1.77325E+00    8.37510E-18
 1.83151E+00    1.96810E-15
 1.91100E+00    5.23300E-15
 1.95125E+00    6.91210E-15
 2.00257E+00    9.06370E-15
 2.04584E+00    4.79710E-14
 2.07744E+00    8.94680E-14
 2.75000E+00    1.09730E-12
 3.00000E+00    1.55870E-12
 3.50000E+00    3.51430E-10
 4.00000E+00    4.13610E-08
 4.50000E+00    9.91740E-07
 5.00000E+00    9.31806E-06
 5.50000E+00    4.84585E-05
 6.00000E+00    1.56646E-04
 6.50000E+00    4.39583E-04
 7.00000E+00    1.09834E-03
 7.50000E+00    2.62294E-03
 8.00000E+00    6.16873E-03
 8.50000E+00    1.41625E-02
 9.00000E+00    3.10668E-02
 9.50000E+00    6.41455E-02
 1.00000E+01    1.23911E-01
 1.05000E+01    2.23946E-01
 1.10000E+01    3.79098E-01
 1.15000E+01    6.04645E-01
 1.20000E+01    9.12269E-01
 1.25000E+01    1.31217E+00
 1.30000E+01    1.80819E+00
 1.35000E+01    2.40382E+00
 1.40000E+01    3.09504E+00
 1.45000E+01    3.87811E+00
 1.50000E+01    4.74004E+00
 1.55000E+01    5.66390E+00
 1.60000E+01    6.62185E+00
 1.65000E+01    7.58695E+00
 1.70000E+01    8.53626E+00
 1.75000E+01    9.42882E+00
 1.80000E+01    1.02672E+01
 1.85000E+01    1.10164E+01
 1.90000E+01    1.17084E+01
 1.95000E+01    1.22958E+01
 2.00000E+01    1.27913E+01
