# n + Dy162 : (n,n'35)  
# jendl4.0   N.Iwamoto,S.Chiba                 EVAL-Nov09
# uncertainties: n
# # energies =    47
#   E(MeV)       xs(mb) 
 1.73909E+00    0.00000E+00
 1.74983E+00    1.56531E+01
 1.75659E+00    1.98456E+01
 1.76279E+00    2.30068E+01
 1.76575E+00    2.43788E+01
 1.77761E+00    2.92727E+01
 1.80000E+00    3.69513E+01
 1.90000E+00    5.76597E+01
 2.00000E+00    6.56862E+01
 2.25000E+00    6.70392E+01
 2.50000E+00    5.37582E+01
 2.75000E+00    4.28053E+01
 3.00000E+00    3.03051E+01
 3.50000E+00    1.49995E+01
 4.00000E+00    7.29734E+00
 4.50000E+00    3.60375E+00
 5.00000E+00    1.86910E+00
 5.50000E+00    1.05886E+00
 6.00000E+00    6.74895E-01
 6.50000E+00    4.89255E-01
 7.00000E+00    3.94355E-01
 7.50000E+00    3.40942E-01
 8.00000E+00    3.06940E-01
 8.50000E+00    2.82368E-01
 9.00000E+00    2.62722E-01
 9.50000E+00    2.45966E-01
 1.00000E+01    2.31162E-01
 1.05000E+01    2.17927E-01
 1.10000E+01    2.05695E-01
 1.15000E+01    1.94666E-01
 1.20000E+01    1.84436E-01
 1.25000E+01    1.75127E-01
 1.30000E+01    1.66404E-01
 1.35000E+01    1.58406E-01
 1.40000E+01    1.50912E-01
 1.45000E+01    1.44004E-01
 1.50000E+01    1.37530E-01
 1.55000E+01    1.31050E-01
 1.60000E+01    1.25550E-01
 1.65000E+01    1.20648E-01
 1.70000E+01    1.15520E-01
 1.75000E+01    1.10556E-01
 1.80000E+01    1.06045E-01
 1.85000E+01    1.02182E-01
 1.90000E+01    9.85867E-02
 1.95000E+01    9.47358E-02
 2.00000E+01    9.10920E-02
