# n + Tl  0 : (n,n')
# endfb8.0                                     EVAL-Oct11
# uncertainties: n
# # energies =    87
#   E(MeV)          xs(mb) 
 2.80587E-01    8.57415E+01
 4.00000E-01    2.99322E+02
 6.00000E-01    4.15957E+02
 6.83902E-01    4.65498E+02
 8.00000E-01    5.73011E+02
 9.90000E-01    6.79814E+02
 1.00000E+00    6.85456E+02
 1.04933E+00    7.40893E+02
 1.07071E+00    7.68382E+02
 1.07770E+00    7.78622E+02
 1.07927E+00    7.81182E+02
 1.11933E+00    8.51797E+02
 1.19025E+00    9.89249E+02
 1.20000E+00    1.00945E+03
 1.22163E+00    1.01919E+03
 1.22378E+00    1.02029E+03
 1.22908E+00    1.02323E+03
 1.23848E+00    1.02930E+03
 1.27933E+00    1.05927E+03
 1.30033E+00    1.07611E+03
 1.31227E+00    1.08685E+03
 1.32670E+00    1.10134E+03
 1.34153E+00    1.11765E+03
 1.40000E+00    1.18752E+03
 1.41419E+00    1.19778E+03
 1.45525E+00    1.22903E+03
 1.45693E+00    1.23040E+03
 1.49573E+00    1.26246E+03
 1.57667E+00    1.33136E+03
 1.60000E+00    1.35269E+03
 1.61905E+00    1.36418E+03
 1.62604E+00    1.36868E+03
 1.64704E+00    1.38292E+03
 1.66423E+00    1.39499E+03
 1.67753E+00    1.40487E+03
 1.69211E+00    1.41629E+03
 1.70443E+00    1.42641E+03
 1.72436E+00    1.44358E+03
 1.75166E+00    1.46782E+03
 1.76161E+00    1.47698E+03
 1.76875E+00    1.48381E+03
 1.80000E+00    1.51400E+03
 1.82603E+00    1.53054E+03
 1.83909E+00    1.53920E+03
 1.84573E+00    1.54380E+03
 1.84911E+00    1.54621E+03
 1.85919E+00    1.55367E+03
 1.89718E+00    1.58287E+03
 2.00000E+00    1.66451E+03
 2.25000E+00    1.83024E+03
 2.50000E+00    1.96695E+03
 2.75000E+00    2.08154E+03
 3.00000E+00    2.16797E+03
 3.30000E+00    2.24463E+03
 3.60000E+00    2.29094E+03
 4.00000E+00    2.32462E+03
 4.50000E+00    2.35232E+03
 5.00000E+00    2.35938E+03
 6.00000E+00    2.28577E+03
 7.00000E+00    2.21366E+03
 8.00000E+00    2.17684E+03
 8.30000E+00    2.06817E+03
 8.70000E+00    1.85745E+03
 9.00000E+00    1.72258E+03
 9.20000E+00    1.60875E+03
 1.00000E+01    1.13649E+03
 1.03000E+01    1.01215E+03
 1.10000E+01    7.45456E+02
 1.20000E+01    4.62324E+02
 1.30000E+01    3.03532E+02
 1.40000E+01    2.27059E+02
 1.50000E+01    1.82254E+02
 1.60000E+01    1.57525E+02
 1.70000E+01    1.40074E+02
 1.80000E+01    1.29936E+02
 1.90000E+01    1.21739E+02
 2.00000E+01    1.15053E+02
 2.10000E+01    1.07750E+02
 2.20000E+01    1.05326E+02
 2.30000E+01    1.00055E+02
 2.40000E+01    9.68784E+01
 2.50000E+01    9.27748E+01
 2.60000E+01    8.75357E+01
 2.70000E+01    8.47946E+01
 2.80000E+01    8.10870E+01
 2.90000E+01    7.95228E+01
 3.00000E+01    7.52412E+01
