# n + Ca 40 : (n,g)     
# jendl.ad   K.Shibata                         EVAL-JUN06
# uncertainties: n
# # energies =    69
#   E(MeV)       xs(mb) 
 1.00000E-10    2.84525E+03
 5.00000E-09    7.74712E+02
 1.00000E-08    5.86723E+02
 1.50000E-08    4.92972E+02
 2.00000E-08    4.33768E+02
 2.50000E-08    3.91931E+02
 3.00000E-08    3.60295E+02
 3.50000E-08    3.31272E+02
 4.20000E-08    3.03025E+02
 5.00000E-08    2.79514E+02
 5.80000E-08    2.59773E+02
 6.70000E-08    2.39712E+02
 8.00000E-08    2.16929E+02
 1.00000E-07    1.88741E+02
 1.40000E-07    1.62846E+02
 1.80000E-07    1.45441E+02
 2.20000E-07    1.33930E+02
 2.50000E-07    1.26078E+02
 2.80000E-07    1.20442E+02
 3.00000E-07    1.16483E+02
 3.20000E-07    1.12083E+02
 3.50000E-07    1.06030E+02
 4.00000E-07    9.70232E+01
 5.00000E-07    8.67656E+01
 6.25000E-07    7.76406E+01
 7.80000E-07    7.18787E+01
 8.50000E-07    6.91535E+01
 9.10000E-07    6.72512E+01
 9.50000E-07    6.61504E+01
 9.72000E-07    6.53715E+01
 9.96000E-07    6.45863E+01
 1.02000E-06    6.38143E+01
 1.04500E-06    6.30419E+01
 1.07100E-06    6.22814E+01
 1.09700E-06    6.15455E+01
 1.12300E-06    6.08282E+01
 1.15000E-06    5.86487E+01
 1.30000E-06    5.48842E+01
 1.50000E-06    4.87519E+01
 2.10000E-06    4.24548E+01
 2.60000E-06    3.79243E+01
 3.30000E-06    3.40492E+01
 4.00000E-06    2.60927E+01
 9.87700E-06    1.83433E+01
 1.59680E-05    1.41813E+01
 2.77000E-05    1.07619E+01
 4.80520E-05    8.36109E+00
 7.55014E-05    6.31083E+00
 1.48728E-04    4.24793E+00
 3.67262E-04    2.67399E+00
 9.06898E-04    1.86031E+00
 1.42510E-03    1.45473E+00
 2.23945E-03    3.48942E+00
 3.51910E-03    1.29463E+00
 5.53000E-03    3.01800E+00
 9.11800E-03    2.32238E+01
 1.50300E-02    1.29062E+01
 2.47800E-02    1.73448E-01
 4.08500E-02    4.68779E+00
 6.73400E-02    1.76328E+00
 1.11000E-01    3.61443E+00
 1.83000E-01    3.44595E+00
 3.02000E-01    4.49805E-01
 5.00000E-01    1.40095E+00
 8.21000E-01    1.36702E+00
 1.35300E+00    1.44256E+00
 2.23100E+00    1.35966E+00
 3.67900E+00    7.93615E-01
 6.06500E+00    4.49879E-01
