# n + Pt196 : (n,n'18)  
# endfb8.0   A.J. Koning and D. Rochman        EVAL-DEC15
# uncertainties: n
# # energies =    74
#   E(MeV)       xs(mb) 
 1.68846E+00    0.00000E+00
 1.76369E+00    9.75448E-01
 1.80000E+00    1.44625E+00
 1.80433E+00    1.51041E+00
 1.81158E+00    1.61782E+00
 1.81409E+00    1.65501E+00
 1.83006E+00    1.89163E+00
 1.83261E+00    1.92941E+00
 1.83511E+00    1.96645E+00
 1.84142E+00    2.05995E+00
 1.85686E+00    2.28871E+00
 1.86320E+00    2.38265E+00
 1.89303E+00    2.82462E+00
 1.89786E+00    2.89618E+00
 2.00000E+00    4.40953E+00
 2.20000E+00    6.49404E+00
 2.40000E+00    7.15392E+00
 2.60000E+00    6.92537E+00
 2.80000E+00    6.30894E+00
 3.00000E+00    5.56693E+00
 3.20000E+00    4.80936E+00
 3.40000E+00    4.08096E+00
 3.60000E+00    3.40227E+00
 3.80000E+00    2.78830E+00
 4.00000E+00    2.25053E+00
 4.20000E+00    1.79484E+00
 4.40000E+00    1.41908E+00
 4.60000E+00    1.11578E+00
 4.80000E+00    8.74404E-01
 5.00000E+00    6.83916E-01
 5.20000E+00    5.34165E-01
 5.40000E+00    4.16609E-01
 5.60000E+00    3.22946E-01
 5.80000E+00    2.50627E-01
 6.00000E+00    1.94601E-01
 6.20000E+00    1.51067E-01
 6.40000E+00    1.17583E-01
 6.60000E+00    9.15319E-02
 6.80000E+00    7.14096E-02
 7.00000E+00    5.57917E-02
 7.20000E+00    4.36009E-02
 7.40000E+00    3.41741E-02
 7.60000E+00    2.67796E-02
 7.80000E+00    2.10183E-02
 8.00000E+00    1.65198E-02
 8.50000E+00    9.05689E-03
 9.00000E+00    4.96493E-03
 9.50000E+00    2.72101E-03
 1.00000E+01    1.49212E-03
 1.05000E+01    8.19565E-04
 1.10000E+01    4.51260E-04
 1.15000E+01    2.49347E-04
 1.20000E+01    1.38441E-04
 1.25000E+01    7.73418E-05
 1.30000E+01    4.35187E-05
 1.35000E+01    2.46789E-05
 1.40000E+01    1.41111E-05
 1.45000E+01    8.13425E-06
 1.50000E+01    4.72574E-06
 1.60000E+01    1.62911E-06
 1.70000E+01    5.72550E-07
 1.80000E+01    2.06030E-07
 1.90000E+01    7.54080E-08
 2.00000E+01    2.80730E-08
 2.10000E+01    1.06420E-08
 2.20000E+01    4.11160E-09
 2.30000E+01    1.61890E-09
 2.40000E+01    6.48990E-10
 2.50000E+01    2.64770E-10
 2.60000E+01    1.09660E-10
 2.70000E+01    4.61680E-11
 2.80000E+01    1.96450E-11
 2.90000E+01    8.45920E-12
 3.00000E+01    3.68660E-12
