# n + Ga 71 : (n,el)    
# endfb8.0   Song-Bai Zhang,B.S.Yu,Z.J.Zhang   EVAL-OCT98
# uncertainties: n
# # energies =   171
#   E(MeV)       xs(mb) 
 1.00000E-11    1.02360E+04
 1.00000E-07    5.24174E+03
 4.13990E-07    5.23561E+03
 5.31580E-07    5.23338E+03
 6.82560E-07    5.23052E+03
 8.76420E-07    5.22717E+03
 1.12540E-06    5.22325E+03
 1.44500E-06    5.21820E+03
 1.85540E-06    5.21179E+03
 2.37240E-06    5.20349E+03
 3.05900E-06    5.19274E+03
 3.92790E-06    5.17903E+03
 5.04350E-06    5.16143E+03
 6.47600E-06    5.13883E+03
 8.31530E-06    5.10981E+03
 1.06770E-05    5.07255E+03
 1.37100E-05    5.02471E+03
 1.76030E-05    4.96328E+03
 2.26030E-05    4.88325E+03
 2.92030E-05    4.77658E+03
 3.72670E-05    4.63312E+03
 4.78510E-05    4.43719E+03
 6.14420E-05    4.15063E+03
 7.88930E-05    4.56019E+04
 1.01300E-04    4.47556E+03
 1.30070E-04    3.42053E+03
 1.67020E-04    3.41458E+03
 2.14450E-04    4.06898E+04
 2.75360E-04    6.88709E+05
 3.53580E-04    1.72098E+05
 4.54000E-04    1.51706E+04
 5.82950E-04    1.65680E+04
 7.48520E-04    9.37120E+03
 9.61120E-04    7.73191E+03
 1.23410E-03    2.16010E+04
 1.58460E-03    8.27506E+03
 2.03470E-03    6.12528E+03
 2.24870E-03    2.35257E+04
 2.48520E-03    8.18647E+03
 2.61260E-03    6.55693E+03
 2.74650E-03    1.07426E+04
 3.03540E-03    1.44185E+04
 3.35460E-03    8.34716E+03
 3.70740E-03    6.05492E+03
 4.30740E-03    2.16943E+04
 5.53080E-03    1.09240E+04
 7.10170E-03    1.03241E+04
 9.11880E-03    9.78838E+03
 1.17090E-02    9.58494E+03
 1.50340E-02    9.37250E+03
 1.93050E-02    9.17668E+03
 2.18750E-02    9.05561E+03
 2.35790E-02    8.99040E+03
 2.41760E-02    8.95641E+03
 2.47880E-02    8.90373E+03
 2.60580E-02    8.84140E+03
 2.70000E-02    8.77297E+03
 2.85000E-02    8.63858E+03
 3.18280E-02    8.47447E+03
 3.43070E-02    8.22483E+03
 4.08680E-02    7.88522E+03
 4.63090E-02    7.57922E+03
 5.24750E-02    7.45718E+03
 5.65620E-02    7.35234E+03
 6.73790E-02    7.23988E+03
 7.20000E-02    7.15359E+03
 7.95000E-02    7.07764E+03
 8.25000E-02    7.02748E+03
 8.65170E-02    6.91770E+03
 9.80370E-02    6.77684E+03
 1.11090E-01    6.72099E+03
 1.16790E-01    6.68817E+03
 1.22770E-01    6.65366E+03
 1.29070E-01    6.61735E+03
 1.35690E-01    6.57922E+03
 1.42640E-01    6.53912E+03
 1.49960E-01    6.49696E+03
 1.57640E-01    6.45265E+03
 1.65730E-01    6.40606E+03
 1.74220E-01    6.35708E+03
 1.83160E-01    6.30556E+03
 1.92550E-01    6.25144E+03
 2.02420E-01    6.19454E+03
 2.12800E-01    6.13471E+03
 2.23710E-01    6.07182E+03
 2.35180E-01    6.00569E+03
 2.47240E-01    5.89965E+03
 2.73240E-01    5.78631E+03
 2.87250E-01    5.72625E+03
 2.94520E-01    5.69821E+03
 2.97200E-01    5.68701E+03
 2.98500E-01    5.67362E+03
 3.01970E-01    5.57607E+03
 3.33730E-01    5.38830E+03
 3.68830E-01    5.23529E+03
 3.87740E-01    5.12968E+03
 4.07620E-01    4.99980E+03
 4.50490E-01    4.81795E+03
 4.97870E-01    4.64553E+03
 5.23400E-01    4.51256E+03
 5.50230E-01    4.38332E+03
 5.78440E-01    4.24870E+03
 6.08100E-01    4.13186E+03
 6.39280E-01    4.01870E+03
 6.72060E-01    3.89978E+03
 7.06510E-01    3.78756E+03
 7.42740E-01    3.68050E+03
 7.80820E-01    3.56940E+03
 8.20850E-01    3.46803E+03
 8.62940E-01    3.36565E+03
 9.07180E-01    3.24876E+03
 9.61640E-01    3.13738E+03
 1.00260E+00    2.98600E+03
 1.10800E+00    2.82073E+03
 1.16480E+00    2.71737E+03
 1.22460E+00    2.62209E+03
 1.28730E+00    2.52943E+03
 1.35340E+00    2.44056E+03
 1.42270E+00    2.35512E+03
 1.49570E+00    2.27559E+03
 1.57240E+00    2.20043E+03
 1.65300E+00    2.12235E+03
 1.73770E+00    2.04139E+03
 1.82680E+00    1.97491E+03
 1.92050E+00    1.91167E+03
 2.01900E+00    1.85074E+03
 2.12250E+00    1.81218E+03
 2.23130E+00    1.78121E+03
 2.30690E+00    1.76199E+03
 2.34570E+00    1.75219E+03
 2.36530E+00    1.74558E+03
 2.38520E+00    1.72878E+03
 2.46600E+00    1.70270E+03
 2.59240E+00    1.69124E+03
 2.72530E+00    1.68045E+03
 2.86500E+00    1.66919E+03
 3.01190E+00    1.67340E+03
 3.16640E+00    1.68990E+03
 3.32870E+00    1.72382E+03
 3.67880E+00    1.81707E+03
 4.06570E+00    1.92223E+03
 4.49330E+00    2.00374E+03
 4.72370E+00    2.06192E+03
 4.96590E+00    2.11878E+03
 5.22050E+00    2.16657E+03
 5.48810E+00    2.21593E+03
 5.76950E+00    2.26328E+03
 6.06530E+00    2.29512E+03
 6.37630E+00    2.31651E+03
 6.59240E+00    2.32947E+03
 6.70320E+00    2.34410E+03
 7.04690E+00    2.34920E+03
 7.40820E+00    2.34364E+03
 7.78800E+00    2.33394E+03
 8.18730E+00    2.30507E+03
 8.60710E+00    2.27054E+03
 9.04840E+00    2.22475E+03
 9.51230E+00    2.17016E+03
 1.00000E+01    2.10909E+03
 1.05130E+01    2.04112E+03
 1.10520E+01    1.96481E+03
 1.16180E+01    1.88985E+03
 1.22140E+01    1.81012E+03
 1.28400E+01    1.72638E+03
 1.34990E+01    1.66339E+03
 1.38400E+01    1.62101E+03
 1.41910E+01    1.58113E+03
 1.45500E+01    1.54080E+03
 1.49180E+01    1.48415E+03
 1.56830E+01    1.41610E+03
 1.64870E+01    1.36000E+03
