# n + Ga 71 : (n,tot)   
# endfb8.0   Song-Bai Zhang,B.S.Yu,Z.J.Zhang   EVAL-OCT98
# uncertainties: n
# # energies =   171
#   E(MeV)       xs(mb) 
 1.00000E-11    6.13799E+04
 1.00000E-07    6.94700E+03
 4.13990E-07    6.33775E+03
 5.31580E-07    6.20682E+03
 6.82560E-07    6.09074E+03
 8.76420E-07    5.98768E+03
 1.12540E-06    5.89642E+03
 1.44500E-06    5.81528E+03
 1.85540E-06    5.74284E+03
 2.37240E-06    5.67358E+03
 3.05900E-06    5.61058E+03
 3.92790E-06    5.55210E+03
 5.04350E-06    5.49277E+03
 6.47600E-06    5.43798E+03
 8.31530E-06    5.37685E+03
 1.06770E-05    5.31671E+03
 1.37100E-05    5.24441E+03
 1.76030E-05    5.16740E+03
 2.26030E-05    5.06926E+03
 2.92030E-05    4.95347E+03
 3.72670E-05    4.81324E+03
 4.78510E-05    4.63211E+03
 6.14420E-05    4.44896E+03
 7.88930E-05    1.24642E+05
 1.01300E-04    5.09255E+03
 1.30070E-04    3.61218E+03
 1.67020E-04    3.69942E+03
 2.14450E-04    4.27987E+04
 2.75360E-04    7.11068E+05
 3.53580E-04    1.80794E+05
 4.54000E-04    1.52343E+04
 5.82950E-04    1.97669E+04
 7.48520E-04    9.38471E+03
 9.61120E-04    7.88444E+03
 1.23410E-03    2.30645E+04
 1.58460E-03    8.55823E+03
 2.03470E-03    6.13110E+03
 2.24870E-03    2.41741E+04
 2.48520E-03    8.19876E+03
 2.61260E-03    6.56730E+03
 2.74650E-03    1.17930E+04
 3.03540E-03    1.49982E+04
 3.35460E-03    8.74671E+03
 3.70740E-03    6.30756E+03
 4.30740E-03    2.21404E+04
 5.53080E-03    1.15091E+04
 7.10170E-03    1.05575E+04
 9.11880E-03    9.98141E+03
 1.17090E-02    9.76659E+03
 1.50340E-02    9.54363E+03
 1.93050E-02    9.33811E+03
 2.18750E-02    9.21105E+03
 2.35790E-02    9.14261E+03
 2.41760E-02    9.10693E+03
 2.47880E-02    9.05164E+03
 2.60580E-02    8.98623E+03
 2.70000E-02    8.91441E+03
 2.85000E-02    8.77336E+03
 3.18280E-02    8.60113E+03
 3.43070E-02    8.33913E+03
 4.08680E-02    7.98270E+03
 4.63090E-02    7.66163E+03
 5.24750E-02    7.53436E+03
 5.65620E-02    7.42578E+03
 6.73790E-02    7.30932E+03
 7.20000E-02    7.21996E+03
 7.95000E-02    7.14131E+03
 8.25000E-02    7.08936E+03
 8.65170E-02    6.97567E+03
 9.80370E-02    6.83025E+03
 1.11090E-01    6.77347E+03
 1.16790E-01    6.74014E+03
 1.22770E-01    6.70510E+03
 1.29070E-01    6.66823E+03
 1.35690E-01    6.62951E+03
 1.42640E-01    6.58880E+03
 1.49960E-01    6.54599E+03
 1.57640E-01    6.50100E+03
 1.65730E-01    6.45369E+03
 1.74220E-01    6.40395E+03
 1.83160E-01    6.35165E+03
 1.92550E-01    6.29670E+03
 2.02420E-01    6.23891E+03
 2.12800E-01    6.17817E+03
 2.23710E-01    6.11431E+03
 2.35180E-01    6.04717E+03
 2.47240E-01    5.93949E+03
 2.73240E-01    5.82440E+03
 2.87250E-01    5.76342E+03
 2.94520E-01    5.73495E+03
 2.97200E-01    5.72358E+03
 2.98500E-01    5.70999E+03
 3.01970E-01    5.61093E+03
 3.33730E-01    5.42028E+03
 3.68830E-01    5.26491E+03
 3.87740E-01    5.16255E+03
 4.07620E-01    5.05310E+03
 4.50490E-01    4.89965E+03
 4.97870E-01    4.77701E+03
 5.23400E-01    4.70100E+03
 5.50230E-01    4.62234E+03
 5.78440E-01    4.53963E+03
 6.08100E-01    4.45692E+03
 6.39280E-01    4.37753E+03
 6.72060E-01    4.29423E+03
 7.06510E-01    4.21005E+03
 7.42740E-01    4.12957E+03
 7.80820E-01    4.04567E+03
 8.20850E-01    3.96628E+03
 8.62940E-01    3.88669E+03
 9.07180E-01    3.79677E+03
 9.61640E-01    3.71917E+03
 1.00260E+00    3.61422E+03
 1.10800E+00    3.50312E+03
 1.16480E+00    3.44079E+03
 1.22460E+00    3.37744E+03
 1.28730E+00    3.31359E+03
 1.35340E+00    3.25214E+03
 1.42270E+00    3.19603E+03
 1.49570E+00    3.15224E+03
 1.57240E+00    3.12096E+03
 1.65300E+00    3.08879E+03
 1.73770E+00    3.05617E+03
 1.82680E+00    3.04174E+03
 1.92050E+00    3.03365E+03
 2.01900E+00    3.03026E+03
 2.12250E+00    3.05025E+03
 2.23130E+00    3.07008E+03
 2.30690E+00    3.08239E+03
 2.34570E+00    3.08866E+03
 2.36530E+00    3.09290E+03
 2.38520E+00    3.10365E+03
 2.46600E+00    3.12834E+03
 2.59240E+00    3.16992E+03
 2.72530E+00    3.21495E+03
 2.86500E+00    3.26229E+03
 3.01190E+00    3.31207E+03
 3.16640E+00    3.36369E+03
 3.32870E+00    3.44295E+03
 3.67880E+00    3.55743E+03
 4.06570E+00    3.65465E+03
 4.49330E+00    3.71815E+03
 4.72370E+00    3.76339E+03
 4.96590E+00    3.80318E+03
 5.22050E+00    3.83192E+03
 5.48810E+00    3.86193E+03
 5.76950E+00    3.89342E+03
 6.06530E+00    3.91525E+03
 6.37630E+00    3.92715E+03
 6.59240E+00    3.93453E+03
 6.70320E+00    3.94450E+03
 7.04690E+00    3.94585E+03
 7.40820E+00    3.93839E+03
 7.78800E+00    3.92952E+03
 8.18730E+00    3.90563E+03
 8.60710E+00    3.87578E+03
 9.04840E+00    3.83811E+03
 9.51230E+00    3.79123E+03
 1.00000E+01    3.73765E+03
 1.05130E+01    3.67691E+03
 1.10520E+01    3.60719E+03
 1.16180E+01    3.53740E+03
 1.22140E+01    3.46120E+03
 1.28400E+01    3.38016E+03
 1.34990E+01    3.31804E+03
 1.38400E+01    3.27591E+03
 1.41910E+01    3.23595E+03
 1.45500E+01    3.19549E+03
 1.49180E+01    3.13859E+03
 1.56830E+01    3.07022E+03
 1.64870E+01    3.01413E+03
