# n + Cm248 : (n,n'15)  
# endfb8.0   O.Iwamoto,T.Nakagawa,T.Ohsawa+    EVAL-JAN10
# uncertainties: y
# # energies =    42
#   E(MeV)       xs(mb)       xslow(mb)      xsupp(mb)
 1.24002E+00    0.00000E+00    0.00000E+00    0.00000E+00
 1.30000E+00    3.45056E+01    2.51201E+01    4.38911E+01
 1.60000E+00    8.28456E+01    6.03116E+01    1.05380E+02
 1.80000E+00    7.36816E+01    5.36402E+01    9.37230E+01
 2.00000E+00    5.70043E+01    4.66294E+01    6.73792E+01
 2.30000E+00    3.46169E+01    2.83165E+01    4.09173E+01
 2.50000E+00    2.37184E+01    1.87608E+01    2.86760E+01
 2.70000E+00    1.57623E+01    1.24677E+01    1.90569E+01
 3.00000E+00    8.19430E+00    6.71927E+00    9.66933E+00
 3.50000E+00    2.69689E+00    2.29498E+00    3.09880E+00
 4.00000E+00    9.67840E-01    8.30398E-01    1.10528E+00
 4.50000E+00    4.37371E-01    3.75260E-01    4.99482E-01
 5.00000E+00    2.61044E-01    2.07787E-01    3.14301E-01
 5.50000E+00    1.96365E-01    1.56304E-01    2.36426E-01
 6.00000E+00    1.62791E-01    1.22744E-01    2.02838E-01
 6.50000E+00    1.47478E-01    1.11198E-01    1.83758E-01
 7.00000E+00    1.35109E-01    1.00115E-01    1.70103E-01
 7.50000E+00    1.25286E-01    9.28362E-02    1.57736E-01
 8.00000E+00    1.18028E-01    8.76921E-02    1.48364E-01
 8.50000E+00    1.10388E-01    8.20158E-02    1.38760E-01
 9.00000E+00    1.05045E-01    7.90974E-02    1.30993E-01
 9.50000E+00    9.90201E-02    7.45607E-02    1.23479E-01
 1.00000E+01    9.30969E-02    7.09387E-02    1.15255E-01
 1.05000E+01    8.66142E-02    6.59990E-02    1.07229E-01
 1.10000E+01    8.10830E-02    6.17843E-02    1.00382E-01
 1.15000E+01    7.65277E-02    5.83132E-02    9.47422E-02
 1.20000E+01    7.26883E-02    5.62596E-02    8.91170E-02
 1.25000E+01    6.94488E-02    5.37523E-02    8.51453E-02
 1.30000E+01    6.65932E-02    5.15421E-02    8.16443E-02
 1.35000E+01    6.39362E-02    4.94856E-02    7.83868E-02
 1.40000E+01    6.07588E-02    4.75736E-02    7.39440E-02
 1.45000E+01    5.73588E-02    4.49115E-02    6.98061E-02
 1.50000E+01    5.43282E-02    4.27557E-02    6.59007E-02
 1.55000E+01    5.16607E-02    4.06564E-02    6.26650E-02
 1.60000E+01    4.92951E-02    3.89425E-02    5.96477E-02
 1.65000E+01    4.71516E-02    3.72492E-02    5.70540E-02
 1.70000E+01    4.51712E-02    3.56847E-02    5.46577E-02
 1.75000E+01    4.33864E-02    3.42747E-02    5.24981E-02
 1.80000E+01    4.17582E-02    3.33225E-02    5.01939E-02
 1.85000E+01    4.02643E-02    3.21304E-02    4.83982E-02
 1.95000E+01    3.75136E-02    2.99353E-02    4.50919E-02
 2.00000E+01    3.62919E-02    2.89604E-02    4.36234E-02
