# n + Yb172 : (n,n'04)  
# jendl4.0   S.Kunieda, A.Ichihara, K.Shibata+ EVAL-FEB10
# uncertainties: n
# # energies =    41
#   E(MeV)       xs(mb) 
 9.17471E-01    0.00000E+00
 9.50000E-01    7.00200E-08
 1.00000E+00    9.30900E-07
 1.20000E+00    3.36100E-03
 1.40000E+00    2.87300E-02
 1.60000E+00    9.26900E-02
 1.80000E+00    1.81000E-01
 2.00000E+00    3.13400E-01
 2.20000E+00    5.02000E-01
 2.40000E+00    7.36400E-01
 2.60000E+00    9.98800E-01
 2.80000E+00    1.26000E+00
 3.00000E+00    1.50100E+00
 3.25000E+00    1.78100E+00
 3.50000E+00    1.99700E+00
 3.75000E+00    2.16200E+00
 4.00000E+00    2.32800E+00
 4.25000E+00    2.47000E+00
 4.50000E+00    2.59900E+00
 4.75000E+00    2.72500E+00
 5.00000E+00    2.85200E+00
 5.50000E+00    3.08900E+00
 6.00000E+00    3.26400E+00
 6.50000E+00    3.31800E+00
 7.00000E+00    3.23700E+00
 7.50000E+00    3.05400E+00
 8.00000E+00    2.82900E+00
 8.50000E+00    2.60800E+00
 9.00000E+00    2.41700E+00
 9.50000E+00    2.26100E+00
 1.00000E+01    2.13400E+00
 1.10000E+01    1.92600E+00
 1.20000E+01    1.74100E+00
 1.30000E+01    1.56300E+00
 1.40000E+01    1.39800E+00
 1.50000E+01    1.25500E+00
 1.60000E+01    1.14000E+00
 1.70000E+01    1.05100E+00
 1.80000E+01    9.80700E-01
 1.90000E+01    9.22500E-01
 2.00000E+01    8.71500E-01
