# n + Yb172 : (n,n'09)  
# jendl4.0   S.Kunieda, A.Ichihara, K.Shibata+ EVAL-FEB10
# uncertainties: n
# # energies =    38
#   E(MeV)       xs(mb) 
 1.20550E+00    0.00000E+00
 1.40000E+00    1.72800E+02
 1.60000E+00    2.05900E+02
 1.80000E+00    1.95500E+02
 2.00000E+00    1.58800E+02
 2.20000E+00    1.27100E+02
 2.40000E+00    1.00700E+02
 2.60000E+00    7.87000E+01
 2.80000E+00    6.06100E+01
 3.00000E+00    4.59800E+01
 3.25000E+00    3.23600E+01
 3.50000E+00    2.22700E+01
 3.75000E+00    1.46600E+01
 4.00000E+00    9.91100E+00
 4.25000E+00    6.70900E+00
 4.50000E+00    4.54300E+00
 4.75000E+00    3.08800E+00
 5.00000E+00    2.14500E+00
 5.50000E+00    1.14400E+00
 6.00000E+00    6.77000E-01
 6.50000E+00    4.84000E-01
 7.00000E+00    3.65500E-01
 7.50000E+00    3.16600E-01
 8.00000E+00    2.66500E-01
 8.50000E+00    2.46600E-01
 9.00000E+00    2.15300E-01
 9.50000E+00    2.03400E-01
 1.00000E+01    1.80100E-01
 1.10000E+01    1.53100E-01
 1.20000E+01    1.31500E-01
 1.30000E+01    1.13700E-01
 1.40000E+01    9.90900E-02
 1.50000E+01    8.74800E-02
 1.60000E+01    7.88300E-02
 1.70000E+01    7.14200E-02
 1.80000E+01    6.50000E-02
 1.90000E+01    5.93700E-02
 2.00000E+01    5.43800E-02
