# n + Yb172 : (n,p)     
# jendl4.0   S.Kunieda, A.Ichihara, K.Shibata+ EVAL-FEB10
# uncertainties: n
# # energies =    21
#   E(MeV)       xs(mb) 
 5.00000E+00    0.00000E+00
 5.50000E+00    6.51100E-05
 6.00000E+00    7.09300E-04
 6.50000E+00    1.79600E-03
 7.00000E+00    5.32600E-03
 7.50000E+00    1.21800E-02
 8.00000E+00    3.21400E-02
 8.50000E+00    6.27700E-02
 9.00000E+00    1.39900E-01
 9.50000E+00    2.39600E-01
 1.00000E+01    4.52500E-01
 1.10000E+01    1.13500E+00
 1.20000E+01    2.15400E+00
 1.30000E+01    3.87000E+00
 1.40000E+01    6.14300E+00
 1.50000E+01    8.89000E+00
 1.60000E+01    1.19800E+01
 1.70000E+01    1.49500E+01
 1.80000E+01    1.75600E+01
 1.90000E+01    1.97300E+01
 2.00000E+01    2.14400E+01
