# n + Yb172 : (n,el)    
# jendl4.0   S.Kunieda, A.Ichihara, K.Shibata+ EVAL-FEB10
# uncertainties: n
# # energies =    69
#   E(MeV)       xs(mb) 
 1.00000E-10    1.34981E+04
 5.00000E-09    1.15763E+04
 1.00000E-08    1.15233E+04
 1.50000E-08    1.15027E+04
 2.00000E-08    1.14915E+04
 2.50000E-08    1.14842E+04
 3.00000E-08    1.14796E+04
 3.50000E-08    1.14748E+04
 4.20000E-08    1.14716E+04
 5.00000E-08    1.14686E+04
 5.80000E-08    1.14656E+04
 6.70000E-08    1.14637E+04
 8.00000E-08    1.14616E+04
 1.00000E-07    1.14579E+04
 1.40000E-07    1.14553E+04
 1.80000E-07    1.14536E+04
 2.20000E-07    1.14520E+04
 2.50000E-07    1.14508E+04
 2.80000E-07    1.14497E+04
 3.00000E-07    1.14488E+04
 3.20000E-07    1.14477E+04
 3.50000E-07    1.14462E+04
 4.00000E-07    1.14442E+04
 5.00000E-07    1.14413E+04
 6.25000E-07    1.14378E+04
 7.80000E-07    1.14348E+04
 8.50000E-07    1.14332E+04
 9.10000E-07    1.14319E+04
 9.50000E-07    1.14311E+04
 9.72000E-07    1.14305E+04
 9.96000E-07    1.14299E+04
 1.02000E-06    1.14293E+04
 1.04500E-06    1.14286E+04
 1.07100E-06    1.14279E+04
 1.09700E-06    1.14273E+04
 1.12300E-06    1.14266E+04
 1.15000E-06    1.14244E+04
 1.30000E-06    1.14199E+04
 1.50000E-06    1.14101E+04
 2.10000E-06    1.13958E+04
 2.60000E-06    1.13806E+04
 3.30000E-06    1.13626E+04
 4.00000E-06    1.12896E+04
 9.87700E-06    1.11324E+04
 1.59680E-05    1.09130E+04
 2.77000E-05    1.05146E+04
 4.80520E-05    9.85948E+03
 7.55014E-05    3.39835E+04
 1.48728E-04    3.36419E+04
 3.67262E-04    1.96484E+04
 9.06898E-04    9.92115E+03
 1.42510E-03    2.64493E+04
 2.23945E-03    2.56036E+04
 3.51910E-03    1.92722E+04
 5.53000E-03    1.64618E+04
 9.11800E-03    1.43332E+04
 1.50300E-02    1.25960E+04
 2.47800E-02    1.11744E+04
 4.08500E-02    1.00626E+04
 6.73400E-02    9.08068E+03
 1.11000E-01    8.03305E+03
 1.83000E-01    7.05866E+03
 3.02000E-01    6.19004E+03
 5.00000E-01    5.42580E+03
 8.21000E-01    4.68515E+03
 1.35300E+00    3.69309E+03
 2.23100E+00    3.17488E+03
 3.67900E+00    2.57499E+03
 6.06500E+00    2.14839E+03
