# n + Am242m: (n,n'04)  
# endfb8.0   Talou,Young,Kawano                EVAL-SEP05
# uncertainties: n
# # energies =    85
#   E(MeV)       xs(mb) 
 2.73133E-02    0.00000E+00
 3.00000E-02    6.99201E-02
 3.50000E-02    2.05629E-01
 4.00000E-02    4.08246E-01
 4.50000E-02    6.13162E-01
 5.00000E-02    8.20480E-01
 5.50000E-02    1.03031E+00
 6.00000E-02    1.24274E+00
 6.50000E-02    1.45789E+00
 7.50000E-02    1.89673E+00
 8.00000E-02    2.12064E+00
 8.50000E-02    2.34767E+00
 9.00000E-02    2.57793E+00
 9.50000E-02    2.81153E+00
 1.00000E-01    3.04856E+00
 1.10000E-01    3.52929E+00
 1.20000E-01    4.02302E+00
 1.30000E-01    4.48191E+00
 1.40000E-01    4.92672E+00
 1.50000E-01    5.29473E+00
 1.60000E-01    5.60987E+00
 1.70000E-01    5.88549E+00
 1.80000E-01    6.11955E+00
 1.90000E-01    6.30672E+00
 2.00000E-01    6.41809E+00
 2.50000E-01    6.60103E+00
 3.00000E-01    6.43266E+00
 3.50000E-01    6.22547E+00
 4.00000E-01    6.06768E+00
 4.50000E-01    6.09058E+00
 5.00000E-01    6.32380E+00
 5.50000E-01    6.74268E+00
 6.00000E-01    7.25335E+00
 6.50000E-01    7.60256E+00
 7.00000E-01    7.71833E+00
 7.50000E-01    7.62495E+00
 8.00000E-01    7.36511E+00
 8.50000E-01    7.05491E+00
 9.00000E-01    6.71723E+00
 9.50000E-01    6.40531E+00
 1.00000E+00    6.08166E+00
 1.10000E+00    5.40889E+00
 1.20000E+00    4.68605E+00
 1.30000E+00    3.96159E+00
 1.40000E+00    3.29543E+00
 1.50000E+00    2.70367E+00
 1.60000E+00    2.19180E+00
 1.70000E+00    1.75020E+00
 1.80000E+00    1.38535E+00
 1.90000E+00    1.09816E+00
 2.00000E+00    8.73767E-01
 2.20000E+00    5.52503E-01
 2.40000E+00    3.46965E-01
 2.60000E+00    2.18624E-01
 2.80000E+00    1.38157E-01
 3.00000E+00    8.68392E-02
 3.20000E+00    5.49579E-02
 3.40000E+00    3.52443E-02
 3.60000E+00    2.30925E-02
 3.80000E+00    1.52279E-02
 4.00000E+00    1.00976E-02
 4.20000E+00    6.70560E-03
 4.40000E+00    4.50192E-03
 4.60000E+00    3.04600E-03
 4.80000E+00    2.07887E-03
 5.00000E+00    1.42885E-03
 5.20000E+00    9.75593E-04
 5.40000E+00    6.72415E-04
 5.60000E+00    4.64008E-04
 5.80000E+00    3.20005E-04
 6.00000E+00    2.21285E-04
 6.20000E+00    1.51384E-04
 6.40000E+00    1.03864E-04
 6.60000E+00    7.20109E-05
 6.80000E+00    4.81332E-05
 7.00000E+00    3.23880E-05
 7.20000E+00    2.14793E-05
 7.40000E+00    1.44089E-05
 7.60000E+00    1.06977E-05
 7.80000E+00    7.50751E-06
 8.00000E+00    4.73691E-06
 8.20000E+00    2.26613E-06
 8.40000E+00    2.18370E-06
 8.60000E+00    2.11799E-06
 8.80000E+00    2.05860E-06
