# n + Na 22 : (n,el)    
# endfb8.0   Scientific Co-ordination Group    RCOM-JUN83
# uncertainties: n
# # energies =   171
#   E(MeV)       xs(mb) 
 1.00000E-11    2.18004E+05
 1.00000E-07    7.28044E+04
 4.13990E-07    7.28314E+04
 5.31580E-07    7.29078E+04
 6.82560E-07    7.30247E+04
 8.76420E-07    7.31868E+04
 1.12540E-06    7.34220E+04
 1.44500E-06    7.37508E+04
 1.85540E-06    7.41687E+04
 2.37240E-06    7.47099E+04
 3.05900E-06    7.54108E+04
 3.92790E-06    7.63059E+04
 5.04350E-06    7.75548E+04
 6.47600E-06    7.92225E+04
 8.31530E-06    8.13900E+04
 1.06770E-05    8.43813E+04
 1.37100E-05    8.83576E+04
 1.76030E-05    9.39395E+04
 2.26030E-05    1.01829E+05
 2.92030E-05    1.13216E+05
 3.72670E-05    1.29963E+05
 4.78510E-05    1.56175E+05
 6.14420E-05    1.98770E+05
 7.88930E-05    2.70066E+05
 1.01300E-04    3.72212E+05
 1.30070E-04    4.58812E+05
 1.67020E-04    3.42058E+05
 2.14450E-04    1.88703E+05
 2.75360E-04    9.72906E+04
 3.53580E-04    5.39875E+04
 4.54000E-04    3.27385E+04
 5.82950E-04    2.15988E+04
 7.48520E-04    1.53516E+04
 9.61120E-04    1.16234E+04
 1.23410E-03    9.28813E+03
 1.58460E-03    7.76584E+03
 2.03470E-03    6.99727E+03
 2.24870E-03    6.64905E+03
 2.48520E-03    6.41325E+03
 2.61260E-03    6.27804E+03
 2.74650E-03    6.08413E+03
 3.03540E-03    5.85528E+03
 3.35460E-03    5.65629E+03
 3.70740E-03    5.44236E+03
 4.30740E-03    5.16362E+03
 5.53080E-03    4.89508E+03
 7.10170E-03    4.69564E+03
 9.11880E-03    4.54272E+03
 1.17090E-02    4.42784E+03
 1.50340E-02    4.67613E+03
 1.93050E-02    5.12924E+03
 2.18750E-02    5.18989E+03
 2.35790E-02    5.14911E+03
 2.41760E-02    5.13134E+03
 2.47880E-02    5.10639E+03
 2.60580E-02    5.08134E+03
 2.70000E-02    5.05947E+03
 2.85000E-02    5.02154E+03
 3.18280E-02    4.95731E+03
 3.43070E-02    4.88425E+03
 4.08680E-02    4.78151E+03
 4.63090E-02    4.70387E+03
 5.24750E-02    4.64772E+03
 5.65620E-02    4.57358E+03
 6.73790E-02    4.49442E+03
 7.20000E-02    4.45096E+03
 7.95000E-02    4.41735E+03
 8.25000E-02    4.39293E+03
 8.65170E-02    4.34314E+03
 9.80370E-02    4.25760E+03
 1.11090E-01    4.18640E+03
 1.16790E-01    4.14260E+03
 1.22770E-01    4.09655E+03
 1.29070E-01    4.04810E+03
 1.35690E-01    3.99722E+03
 1.42640E-01    3.94371E+03
 1.49960E-01    3.89785E+03
 1.57640E-01    3.86777E+03
 1.65730E-01    3.83645E+03
 1.74220E-01    3.80353E+03
 1.83160E-01    3.76891E+03
 1.92550E-01    3.73253E+03
 2.02420E-01    3.70009E+03
 2.12800E-01    3.67287E+03
 2.23710E-01    3.64426E+03
 2.35180E-01    3.61419E+03
 2.47240E-01    3.56596E+03
 2.73240E-01    3.51440E+03
 2.87250E-01    3.48709E+03
 2.94520E-01    3.47434E+03
 2.97200E-01    3.46924E+03
 2.98500E-01    3.46315E+03
 3.01970E-01    3.42929E+03
 3.33730E-01    3.36994E+03
 3.68830E-01    3.32163E+03
 3.87740E-01    3.28722E+03
 4.07620E-01    3.23883E+03
 4.50490E-01    3.17399E+03
 4.97870E-01    3.12126E+03
 5.23400E-01    3.08687E+03
 5.50230E-01    3.05220E+03
 5.78440E-01    3.01575E+03
 6.08100E-01    2.97743E+03
 6.39280E-01    2.93714E+03
 6.72060E-01    2.89561E+03
 7.06510E-01    2.85519E+03
 7.42740E-01    2.81304E+03
 7.80820E-01    2.76875E+03
 8.20850E-01    2.72510E+03
 8.62940E-01    2.68096E+03
 9.07180E-01    2.61978E+03
 9.61640E-01    2.55631E+03
 1.00260E+00    2.47087E+03
 1.10800E+00    2.38079E+03
 1.16480E+00    2.31709E+03
 1.22460E+00    2.26048E+03
 1.28730E+00    2.20505E+03
 1.35340E+00    2.14678E+03
 1.42270E+00    2.08555E+03
 1.49570E+00    2.02135E+03
 1.57240E+00    1.95467E+03
 1.65300E+00    1.88465E+03
 1.73770E+00    1.81185E+03
 1.82680E+00    1.74864E+03
 1.92050E+00    1.68681E+03
 2.01900E+00    1.61970E+03
 2.12250E+00    1.54866E+03
 2.23130E+00    1.49477E+03
 2.30690E+00    1.46471E+03
 2.34570E+00    1.44939E+03
 2.36530E+00    1.43904E+03
 2.38520E+00    1.41276E+03
 2.46600E+00    1.36057E+03
 2.59240E+00    1.30681E+03
 2.72530E+00    1.25470E+03
 2.86500E+00    1.20001E+03
 3.01190E+00    1.14899E+03
 3.16640E+00    1.10091E+03
 3.32870E+00    1.02759E+03
 3.67880E+00    9.41796E+02
 4.06570E+00    8.60738E+02
 4.49330E+00    8.02795E+02
 4.72370E+00    7.67806E+02
 4.96590E+00    7.36401E+02
 5.22050E+00    7.12455E+02
 5.48810E+00    6.90051E+02
 5.76950E+00    6.69671E+02
 6.06530E+00    6.50001E+02
 6.37630E+00    6.34307E+02
 6.59240E+00    6.26579E+02
 6.70320E+00    6.16777E+02
 7.04690E+00    6.03575E+02
 7.40820E+00    5.92651E+02
 7.78800E+00    5.85219E+02
 8.18730E+00    5.84577E+02
 8.60710E+00    5.85243E+02
 9.04840E+00    5.86097E+02
 9.51230E+00    5.87769E+02
 1.00000E+01    5.92402E+02
 1.05130E+01    6.02004E+02
 1.10520E+01    6.25201E+02
 1.16180E+01    6.61266E+02
 1.22140E+01    6.82504E+02
 1.28400E+01    7.00803E+02
 1.34990E+01    7.16627E+02
 1.38400E+01    7.27594E+02
 1.41910E+01    7.38853E+02
 1.45500E+01    7.50771E+02
 1.49180E+01    7.69625E+02
 1.56830E+01    7.95840E+02
 1.64870E+01    8.23268E+02
