# n + O  17 : (n,xp)    
# endfb8.0   B.A.Magurno                       EVAL-JAN78
# 
# # energies =    75
#   E(MeV)        xs(mb) 
 9.22470E-01    0.00000E+00
 9.60000E-01    0.00000E+00
 1.00000E+00    0.00000E+00
 1.20000E+00    0.00000E+00
 1.40000E+00    0.00000E+00
 1.60000E+00    0.00000E+00
 1.80000E+00    0.00000E+00
 2.00000E+00    0.00000E+00
 2.20000E+00    0.00000E+00
 2.40000E+00    0.00000E+00
 2.60000E+00    0.00000E+00
 2.80000E+00    0.00000E+00
 3.10000E+00    0.00000E+00
 3.20000E+00    0.00000E+00
 3.23627E+00    0.00000E+00
 3.40000E+00    0.00000E+00
 3.60000E+00    0.00000E+00
 3.80000E+00    0.00000E+00
 3.90000E+00    0.00000E+00
 4.00000E+00    0.00000E+00
 4.06980E+00    0.00000E+00
 4.30000E+00    0.00000E+00
 4.40000E+00    0.00000E+00
 4.60000E+00    0.00000E+00
 4.80000E+00    0.00000E+00
 4.82316E+00    0.00000E+00
 5.00000E+00    0.00000E+00
 5.10000E+00    0.00000E+00
 5.20000E+00    0.00000E+00
 5.30000E+00    0.00000E+00
 5.38778E+00    0.00000E+00
 5.40000E+00    0.00000E+00
 5.50000E+00    0.00000E+00
 5.52444E+00    0.00000E+00
 5.60000E+00    0.00000E+00
 5.69923E+00    0.00000E+00
 5.70000E+00    0.00000E+00
 5.80000E+00    0.00000E+00
 5.90000E+00    0.00000E+00
 6.00000E+00    0.00000E+00
 6.03610E+00    0.00000E+00
 6.07423E+00    0.00000E+00
 6.10000E+00    0.00000E+00
 6.20000E+00    0.00000E+00
 6.21830E+00    0.00000E+00
 6.29246E+00    0.00000E+00
 6.30000E+00    0.00000E+00
 6.40000E+00    0.00000E+00
 6.50000E+00    0.00000E+00
 6.60000E+00    0.00000E+00
 6.70000E+00    0.00000E+00
 6.73420E+00    0.00000E+00
 6.80000E+00    0.00000E+00
 6.90000E+00    0.00000E+00
 7.00000E+00    0.00000E+00
 7.10000E+00    0.00000E+00
 7.20000E+00    0.00000E+00
 7.30000E+00    0.00000E+00
 7.40000E+00    0.00000E+00
 7.50000E+00    0.00000E+00
 7.60000E+00    0.00000E+00
 7.80000E+00    0.00000E+00
 8.00000E+00    0.00000E+00
 9.00000E+00    1.30291E-01
 1.00000E+01    1.02500E+00
 1.10000E+01    3.84250E+00
 1.20000E+01    1.28323E+01
 1.30000E+01    2.51740E+01
 1.40000E+01    4.02125E+01
 1.50000E+01    5.58150E+01
 1.60000E+01    6.65053E+01
 1.70000E+01    7.33462E+01
 1.80000E+01    7.77386E+01
 1.90000E+01    7.99130E+01
 2.00000E+01    7.90000E+01
