# n + O  17 : (n,n')    
# endfb8.0   B.A.Magurno                       EVAL-JAN78
# uncertainties: n
# # energies =    75
#   E(MeV)       xs(mb) 
 9.22470E-01    0.00000E+00
 9.60000E-01    7.16100E+00
 1.00000E+00    1.04400E+01
 1.20000E+00    2.53600E+01
 1.40000E+00    3.72500E+01
 1.60000E+00    4.67200E+01
 1.80000E+00    5.44700E+01
 2.00000E+00    6.05900E+01
 2.20000E+00    6.54800E+01
 2.40000E+00    6.93800E+01
 2.60000E+00    7.25100E+01
 2.80000E+00    7.50600E+01
 3.10000E+00    7.80400E+01
 3.20000E+00    7.81800E+01
 3.23627E+00    7.82072E+01
 3.40000E+00    8.42870E+01
 3.60000E+00    8.95700E+01
 3.80000E+00    9.45100E+01
 3.90000E+00    9.47600E+01
 4.00000E+00    9.63200E+01
 4.06980E+00    9.70529E+01
 4.30000E+00    1.34390E+02
 4.40000E+00    1.44090E+02
 4.60000E+00    1.59880E+02
 4.80000E+00    1.73280E+02
 4.82316E+00    1.74094E+02
 5.00000E+00    1.91293E+02
 5.10000E+00    1.98598E+02
 5.20000E+00    2.05290E+02
 5.30000E+00    2.11533E+02
 5.38778E+00    2.16060E+02
 5.40000E+00    2.18465E+02
 5.50000E+00    2.25588E+02
 5.52444E+00    2.26851E+02
 5.60000E+00    2.49247E+02
 5.69923E+00    2.66171E+02
 5.70000E+00    2.66344E+02
 5.80000E+00    2.81433E+02
 5.90000E+00    2.93654E+02
 6.00000E+00    3.05034E+02
 6.03610E+00    3.08189E+02
 6.07423E+00    3.18201E+02
 6.10000E+00    3.25666E+02
 6.20000E+00    3.40950E+02
 6.21830E+00    3.44324E+02
 6.29246E+00    3.61054E+02
 6.30000E+00    3.63119E+02
 6.40000E+00    3.83633E+02
 6.50000E+00    3.97567E+02
 6.60000E+00    4.07989E+02
 6.70000E+00    4.21106E+02
 6.73420E+00    4.24750E+02
 6.80000E+00    4.32579E+02
 6.90000E+00    4.46391E+02
 7.00000E+00    4.53979E+02
 7.10000E+00    4.60580E+02
 7.20000E+00    4.65867E+02
 7.30000E+00    4.69936E+02
 7.40000E+00    4.73068E+02
 7.50000E+00    4.75835E+02
 7.60000E+00    4.78605E+02
 7.80000E+00    4.79474E+02
 8.00000E+00    4.80513E+02
 9.00000E+00    4.86638E+02
 1.00000E+01    5.11486E+02
 1.10000E+01    5.26356E+02
 1.20000E+01    5.33919E+02
 1.30000E+01    5.34680E+02
 1.40000E+01    5.29893E+02
 1.50000E+01    5.27164E+02
 1.60000E+01    5.24564E+02
 1.70000E+01    5.19151E+02
 1.80000E+01    5.12961E+02
 1.90000E+01    5.05760E+02
 2.00000E+01    4.98598E+02
