# n + Cr 53 : (n,tot)   
# jendl4.0   N.Iwamoto,L.Leal+                 EVAL-Jan10
# uncertainties: n
# # energies =   171
#   E(MeV)       xs(mb) 
 1.00000E-11    2.15904E+05
 1.00000E-07    1.44569E+04
 4.13990E-07    1.21015E+04
 5.31580E-07    1.15985E+04
 6.82560E-07    1.11553E+04
 8.76420E-07    1.07644E+04
 1.12540E-06    1.04217E+04
 1.44500E-06    1.01202E+04
 1.85540E-06    9.85692E+03
 2.37240E-06    9.62161E+03
 3.05900E-06    9.41323E+03
 3.92790E-06    9.23259E+03
 5.04350E-06    9.07425E+03
 6.47600E-06    8.93719E+03
 8.31530E-06    8.81849E+03
 1.06770E-05    8.71599E+03
 1.37100E-05    8.63101E+03
 1.76030E-05    8.56406E+03
 2.26030E-05    8.50752E+03
 2.92030E-05    8.46958E+03
 3.72670E-05    8.44766E+03
 4.78510E-05    8.44590E+03
 6.14420E-05    8.46588E+03
 7.88930E-05    8.50808E+03
 1.01300E-04    8.58415E+03
 1.30070E-04    8.69448E+03
 1.67020E-04    8.86046E+03
 2.14450E-04    9.08699E+03
 2.75360E-04    9.40759E+03
 3.53580E-04    9.85437E+03
 4.54000E-04    1.04803E+04
 5.82950E-04    1.13787E+04
 7.48520E-04    1.27059E+04
 9.61120E-04    1.47453E+04
 1.23410E-03    1.80820E+04
 1.58460E-03    2.40691E+04
 2.03470E-03    3.12466E+04
 2.24870E-03    3.78360E+04
 2.48520E-03    4.45595E+04
 2.61260E-03    5.04442E+04
 2.74650E-03    6.24698E+04
 3.03540E-03    8.71211E+04
 3.35460E-03    1.29617E+05
 3.70740E-03    2.09122E+05
 4.30740E-03    1.30808E+05
 5.53080E-03    1.15452E+05
 7.10170E-03    1.75422E+05
 9.11880E-03    5.39783E+04
 1.17090E-02    1.91215E+04
 1.50340E-02    8.59213E+03
 1.93050E-02    1.20982E+04
 2.18750E-02    4.56653E+03
 2.35790E-02    3.10296E+03
 2.41760E-02    2.20366E+03
 2.47880E-02    1.13024E+04
 2.60580E-02    1.84108E+04
 2.70000E-02    2.49537E+04
 2.85000E-02    1.74480E+04
 3.18280E-02    7.01276E+03
 3.43070E-02    4.47002E+03
 4.08680E-02    2.94398E+03
 4.63090E-02    2.43264E+03
 5.24750E-02    1.31037E+03
 5.65620E-02    7.33528E+03
 6.73790E-02    1.24397E+04
 7.20000E-02    1.19652E+04
 7.95000E-02    7.66113E+03
 8.25000E-02    9.53386E+03
 8.65170E-02    1.17745E+04
 9.80370E-02    6.73064E+03
 1.11090E-01    4.95724E+03
 1.16790E-01    5.04780E+03
 1.22770E-01    7.40059E+03
 1.29070E-01    7.75214E+03
 1.35690E-01    8.52723E+03
 1.42640E-01    8.62548E+03
 1.49960E-01    5.17235E+03
 1.57640E-01    9.62215E+03
 1.65730E-01    5.06752E+03
 1.74220E-01    6.88635E+03
 1.83160E-01    6.73879E+03
 1.92550E-01    4.86573E+03
 2.02420E-01    3.31232E+03
 2.12800E-01    3.98028E+03
 2.23710E-01    4.27462E+03
 2.35180E-01    4.97694E+03
 2.47240E-01    2.62612E+03
 2.73240E-01    2.42471E+03
 2.87250E-01    4.10686E+03
 2.94520E-01    7.61149E+03
 2.97200E-01    7.55852E+03
 2.98500E-01    5.29185E+03
 3.01970E-01    5.05388E+03
 3.33730E-01    5.63907E+03
 3.68830E-01    4.00511E+03
 3.87740E-01    3.44376E+03
 4.07620E-01    3.96220E+03
 4.50490E-01    4.85664E+03
 4.97870E-01    4.23975E+03
 5.23400E-01    4.01730E+03
 5.50230E-01    3.73346E+03
 5.78440E-01    3.75054E+03
 6.08100E-01    3.71369E+03
 6.39280E-01    3.67882E+03
 6.72060E-01    3.64371E+03
 7.06510E-01    3.62455E+03
 7.42740E-01    3.61080E+03
 7.80820E-01    3.60097E+03
 8.20850E-01    3.60361E+03
 8.62940E-01    3.60844E+03
 9.07180E-01    3.61731E+03
 9.61640E-01    3.63111E+03
 1.00260E+00    3.65266E+03
 1.10800E+00    3.68312E+03
 1.16480E+00    3.70664E+03
 1.22460E+00    3.72759E+03
 1.28730E+00    3.74920E+03
 1.35340E+00    3.77193E+03
 1.42270E+00    3.79582E+03
 1.49570E+00    3.81836E+03
 1.57240E+00    3.83667E+03
 1.65300E+00    3.85575E+03
 1.73770E+00    3.87539E+03
 1.82680E+00    3.88908E+03
 1.92050E+00    3.90099E+03
 2.01900E+00    3.91292E+03
 2.12250E+00    3.91920E+03
 2.23130E+00    3.92328E+03
 2.30690E+00    3.92581E+03
 2.34570E+00    3.92710E+03
 2.36530E+00    3.92797E+03
 2.38520E+00    3.92915E+03
 2.46600E+00    3.92782E+03
 2.59240E+00    3.92236E+03
 2.72530E+00    3.91641E+03
 2.86500E+00    3.91016E+03
 3.01190E+00    3.90210E+03
 3.16640E+00    3.88915E+03
 3.32870E+00    3.86791E+03
 3.67880E+00    3.83712E+03
 4.06570E+00    3.80305E+03
 4.49330E+00    3.77291E+03
 4.72370E+00    3.74948E+03
 4.96590E+00    3.72485E+03
 5.22050E+00    3.69895E+03
 5.48810E+00    3.67148E+03
 5.76950E+00    3.63782E+03
 6.06530E+00    3.60063E+03
 6.37630E+00    3.56759E+03
 6.59240E+00    3.54338E+03
 6.70320E+00    3.50841E+03
 7.04690E+00    3.45379E+03
 7.40820E+00    3.39290E+03
 7.78800E+00    3.32693E+03
 8.18730E+00    3.25757E+03
 8.60710E+00    3.18466E+03
 9.04840E+00    3.10825E+03
 9.51230E+00    3.03292E+03
 1.00000E+01    2.95778E+03
 1.05130E+01    2.88380E+03
 1.10520E+01    2.81028E+03
 1.16180E+01    2.73690E+03
 1.22140E+01    2.66376E+03
 1.28400E+01    2.59159E+03
 1.34990E+01    2.53873E+03
 1.38400E+01    2.50446E+03
 1.41910E+01    2.47121E+03
 1.45500E+01    2.43923E+03
 1.49180E+01    2.39390E+03
 1.56830E+01    2.33932E+03
 1.64870E+01    2.29262E+03
