# n + Cr 53 : (n,el)    
# jendl4.0   N.Iwamoto,L.Leal+                 EVAL-Jan10
# uncertainties: n
# # energies =   171
#   E(MeV)       xs(mb) 
 1.00000E-11    1.68554E+04
 1.00000E-07    7.83301E+03
 4.13990E-07    7.82811E+03
 5.31580E-07    7.82748E+03
 6.82560E-07    7.82745E+03
 8.76420E-07    7.82828E+03
 1.12540E-06    7.82934E+03
 1.44500E-06    7.83070E+03
 1.85540E-06    7.83243E+03
 2.37240E-06    7.83468E+03
 3.05900E-06    7.83758E+03
 3.92790E-06    7.84129E+03
 5.04350E-06    7.84604E+03
 6.47600E-06    7.85215E+03
 8.31530E-06    7.86022E+03
 1.06770E-05    7.87162E+03
 1.37100E-05    7.88638E+03
 1.76030E-05    7.90534E+03
 2.26030E-05    7.93003E+03
 2.92030E-05    7.96135E+03
 3.72670E-05    8.00106E+03
 4.78510E-05    8.05258E+03
 6.14420E-05    8.11874E+03
 7.88930E-05    8.20369E+03
 1.01300E-04    8.31277E+03
 1.30070E-04    8.45367E+03
 1.67020E-04    8.64880E+03
 2.14450E-04    8.90466E+03
 2.75360E-04    9.24295E+03
 3.53580E-04    9.70932E+03
 4.54000E-04    1.03534E+04
 5.82950E-04    1.12671E+04
 7.48520E-04    1.26064E+04
 9.61120E-04    1.46541E+04
 1.23410E-03    1.79960E+04
 1.58460E-03    2.39868E+04
 2.03470E-03    3.11586E+04
 2.24870E-03    3.77462E+04
 2.48520E-03    4.44648E+04
 2.61260E-03    5.03388E+04
 2.74650E-03    6.23549E+04
 3.03540E-03    8.69765E+04
 3.35460E-03    1.29414E+05
 3.70740E-03    2.08799E+05
 4.30740E-03    1.30497E+05
 5.53080E-03    1.15077E+05
 7.10170E-03    1.75153E+05
 9.11880E-03    5.39393E+04
 1.17090E-02    1.90752E+04
 1.50340E-02    8.58645E+03
 1.93050E-02    1.20391E+04
 2.18750E-02    4.55447E+03
 2.35790E-02    3.09990E+03
 2.41760E-02    2.19239E+03
 2.47880E-02    1.12742E+04
 2.60580E-02    1.83871E+04
 2.70000E-02    2.49256E+04
 2.85000E-02    1.74017E+04
 3.18280E-02    7.00178E+03
 3.43070E-02    4.46240E+03
 4.08680E-02    2.93592E+03
 4.63090E-02    2.42244E+03
 5.24750E-02    1.30224E+03
 5.65620E-02    7.32660E+03
 6.73790E-02    1.24279E+04
 7.20000E-02    1.19539E+04
 7.95000E-02    7.65912E+03
 8.25000E-02    9.52873E+03
 8.65170E-02    1.17679E+04
 9.80370E-02    6.71967E+03
 1.11090E-01    4.95299E+03
 1.16790E-01    5.04378E+03
 1.22770E-01    7.38965E+03
 1.29070E-01    7.74674E+03
 1.35690E-01    8.52184E+03
 1.42640E-01    8.61638E+03
 1.49960E-01    5.16661E+03
 1.57640E-01    9.61383E+03
 1.65730E-01    5.06195E+03
 1.74220E-01    6.87988E+03
 1.83160E-01    6.73229E+03
 1.92550E-01    4.86027E+03
 2.02420E-01    3.30862E+03
 2.12800E-01    3.97408E+03
 2.23710E-01    4.26805E+03
 2.35180E-01    4.97279E+03
 2.47240E-01    2.62207E+03
 2.73240E-01    2.42138E+03
 2.87250E-01    4.10212E+03
 2.94520E-01    7.60426E+03
 2.97200E-01    7.54998E+03
 2.98500E-01    5.28699E+03
 3.01970E-01    5.04956E+03
 3.33730E-01    5.63477E+03
 3.68830E-01    4.00138E+03
 3.87740E-01    3.44013E+03
 4.07620E-01    3.95685E+03
 4.50490E-01    4.85229E+03
 4.97870E-01    4.23492E+03
 5.23400E-01    4.01269E+03
 5.50230E-01    3.72675E+03
 5.78440E-01    3.64024E+03
 6.08100E-01    3.54836E+03
 6.39280E-01    3.50436E+03
 6.72060E-01    3.45865E+03
 7.06510E-01    3.43154E+03
 7.42740E-01    3.41391E+03
 7.80820E-01    3.39631E+03
 8.20850E-01    3.38786E+03
 8.62940E-01    3.38179E+03
 9.07180E-01    3.37993E+03
 9.61640E-01    3.38049E+03
 1.00260E+00    3.25244E+03
 1.10800E+00    3.07708E+03
 1.16480E+00    3.07364E+03
 1.22460E+00    3.07337E+03
 1.28730E+00    3.04870E+03
 1.35340E+00    2.92555E+03
 1.42270E+00    2.88929E+03
 1.49570E+00    2.88500E+03
 1.57240E+00    2.82149E+03
 1.65300E+00    2.80357E+03
 1.73770E+00    2.79763E+03
 1.82680E+00    2.79415E+03
 1.92050E+00    2.79050E+03
 2.01900E+00    2.77843E+03
 2.12250E+00    2.75538E+03
 2.23130E+00    2.74634E+03
 2.30690E+00    2.74069E+03
 2.34570E+00    2.73690E+03
 2.36530E+00    2.73434E+03
 2.38520E+00    2.72673E+03
 2.46600E+00    2.71206E+03
 2.59240E+00    2.70751E+03
 2.72530E+00    2.67722E+03
 2.86500E+00    2.64974E+03
 3.01190E+00    2.63334E+03
 3.16640E+00    2.61871E+03
 3.32870E+00    2.58598E+03
 3.67880E+00    2.54747E+03
 4.06570E+00    2.50001E+03
 4.49330E+00    2.46081E+03
 4.72370E+00    2.42931E+03
 4.96590E+00    2.39544E+03
 5.22050E+00    2.35726E+03
 5.48810E+00    2.31581E+03
 5.76950E+00    2.27039E+03
 6.06530E+00    2.22081E+03
 6.37630E+00    2.17761E+03
 6.59240E+00    2.15078E+03
 6.70320E+00    2.11237E+03
 7.04690E+00    2.05217E+03
 7.40820E+00    1.98889E+03
 7.78800E+00    1.92373E+03
 8.18730E+00    1.85316E+03
 8.60710E+00    1.77887E+03
 9.04840E+00    1.70573E+03
 9.51230E+00    1.62991E+03
 1.00000E+01    1.55509E+03
 1.05130E+01    1.48147E+03
 1.10520E+01    1.40972E+03
 1.16180E+01    1.34047E+03
 1.22140E+01    1.27428E+03
 1.28400E+01    1.21185E+03
 1.34990E+01    1.16774E+03
 1.38400E+01    1.13994E+03
 1.41910E+01    1.11350E+03
 1.45500E+01    1.08849E+03
 1.49180E+01    1.05390E+03
 1.56830E+01    1.01341E+03
 1.64870E+01    9.80160E+02
