# n + Nd142 : (n,n'13)  
# tendl.2019 A.J. Koning and D. Rochman        EVAL-NOV19
# uncertainties: n
# # energies =    75
#   E(MeV)       xs(mb) 
 2.56538E+00    0.00000E+00
 2.60000E+00    6.41633E+01
 2.60145E+00    6.43957E+01
 2.60393E+00    6.47932E+01
 2.67488E+00    7.61647E+01
 2.75672E+00    8.92815E+01
 2.79573E+00    9.55339E+01
 2.80000E+00    9.62182E+01
 2.86609E+00    9.99602E+01
 2.89342E+00    1.01508E+02
 2.90683E+00    1.02267E+02
 2.97903E+00    1.06355E+02
 2.99705E+00    1.07375E+02
 3.00000E+00    1.07542E+02
 3.00430E+00    1.07699E+02
 3.03136E+00    1.08687E+02
 3.06683E+00    1.09981E+02
 3.10296E+00    1.11299E+02
 3.10778E+00    1.11475E+02
 3.15029E+00    1.13027E+02
 3.20000E+00    1.14841E+02
 3.26567E+00    1.13199E+02
 3.40000E+00    1.09841E+02
 3.60000E+00    8.67361E+01
 3.80000E+00    6.31080E+01
 4.00000E+00    4.34679E+01
 4.20000E+00    2.90840E+01
 4.40000E+00    1.93230E+01
 4.60000E+00    1.29169E+01
 4.80000E+00    8.74564E+00
 5.00000E+00    6.00781E+00
 5.20000E+00    4.18708E+00
 5.40000E+00    2.95641E+00
 5.60000E+00    2.11195E+00
 5.80000E+00    1.52375E+00
 6.00000E+00    1.10807E+00
 6.20000E+00    8.09448E-01
 6.40000E+00    5.94804E-01
 6.60000E+00    4.39083E-01
 6.80000E+00    3.25649E-01
 7.00000E+00    2.42529E-01
 7.20000E+00    1.81497E-01
 7.40000E+00    1.36692E-01
 7.60000E+00    1.03188E-01
 7.80000E+00    7.85071E-02
 8.00000E+00    5.98630E-02
 8.50000E+00    3.11245E-02
 9.00000E+00    1.66050E-02
 9.50000E+00    9.05424E-03
 1.00000E+01    5.02300E-03
 1.05000E+01    2.82409E-03
 1.10000E+01    1.60381E-03
 1.15000E+01    9.19352E-04
 1.20000E+01    5.31621E-04
 1.25000E+01    3.10106E-04
 1.30000E+01    1.82644E-04
 1.35000E+01    1.08584E-04
 1.40000E+01    6.51239E-05
 1.45000E+01    3.94262E-05
 1.50000E+01    2.40702E-05
 1.60000E+01    9.18050E-06
 1.70000E+01    3.58663E-06
 1.80000E+01    1.42698E-06
 1.90000E+01    5.74200E-07
 2.00000E+01    2.36930E-07
 2.10000E+01    9.94870E-08
 2.20000E+01    4.26710E-08
 2.30000E+01    1.86880E-08
 2.40000E+01    8.31330E-09
 2.50000E+01    3.74600E-09
 2.60000E+01    1.71900E-09
 2.70000E+01    7.98920E-10
 2.80000E+01    3.75620E-10
 2.90000E+01    1.78460E-10
 3.00000E+01    8.55750E-11
