# n + Cd110 : (n,xa)    
# jendl.ad   kunieda                           EVAL-Mar14
# 
# # energies =    74
#   E(MeV)        xs(mb) 
 1.50000E-01    0.00000E+00
 2.00000E-01    0.00000E+00
 3.00000E-01    0.00000E+00
 4.00000E-01    0.00000E+00
 5.00000E-01    0.00000E+00
 6.00000E-01    0.00000E+00
 6.63801E-01    0.00000E+00
 7.00000E-01    0.00000E+00
 8.00000E-01    0.00000E+00
 9.00000E-01    0.00000E+00
 1.00000E+00    0.00000E+00
 1.20000E+00    0.00000E+00
 1.40000E+00    0.00000E+00
 1.48664E+00    0.00000E+00
 1.48934E+00    0.00000E+00
 1.55661E+00    0.00000E+00
 1.60000E+00    0.00000E+00
 1.74722E+00    7.24450E-10
 1.79985E+00    1.58470E-09
 1.80000E+00    1.58810E-09
 1.82609E+00    2.19140E-09
 2.00000E+00    9.49200E-09
 2.09774E+00    2.10870E-08
 2.09794E+00    2.11210E-08
 2.18267E+00    3.92140E-08
 2.20000E+00    4.40270E-08
 2.24046E+00    5.75050E-08
 2.27120E+00    6.88880E-08
 2.27121E+00    6.88922E-08
 2.30844E+00    8.46430E-08
 2.35348E+00    1.09880E-07
 2.37757E+00    1.24150E-07
 2.40000E+00    1.38240E-07
 2.45558E+00    1.86800E-07
 2.50271E+00    2.32660E-07
 2.50422E+00    2.34290E-07
 2.50448E+00    2.34550E-07
 2.50882E+00    2.39050E-07
 2.70000E+00    5.84920E-07
 3.00000E+00    2.19422E-06
 3.50000E+00    2.34954E-05
 4.00000E+00    1.58412E-04
 4.50000E+00    8.23655E-04
 5.00000E+00    3.55821E-03
 5.50000E+00    1.21478E-02
 6.00000E+00    3.04381E-02
 6.50000E+00    5.52988E-02
 7.00000E+00    9.72128E-02
 7.50000E+00    1.35335E-01
 8.00000E+00    1.80129E-01
 8.50000E+00    2.52154E-01
 9.00000E+00    3.35173E-01
 9.50000E+00    3.94375E-01
 1.00000E+01    4.91278E-01
 1.05000E+01    5.94398E-01
 1.10000E+01    7.05698E-01
 1.15000E+01    8.75843E-01
 1.20000E+01    1.08564E+00
 1.25000E+01    1.34748E+00
 1.30000E+01    1.66782E+00
 1.35000E+01    2.05033E+00
 1.40000E+01    2.49368E+00
 1.45000E+01    2.98930E+00
 1.50000E+01    3.55096E+00
 1.55000E+01    4.16769E+00
 1.60000E+01    4.82945E+00
 1.65000E+01    5.54413E+00
 1.70000E+01    6.29590E+00
 1.75000E+01    7.04939E+00
 1.80000E+01    7.87393E+00
 1.85000E+01    8.71302E+00
 1.90000E+01    9.52669E+00
 1.95000E+01    1.03954E+01
 2.00000E+01    1.12240E+01
