# n + Cd110 : (n,xd)    
# jendl.ad   kunieda                           EVAL-Mar14
# 
# # energies =    74
#   E(MeV)        xs(mb) 
 1.50000E-01    0.00000E+00
 2.00000E-01    0.00000E+00
 3.00000E-01    0.00000E+00
 4.00000E-01    0.00000E+00
 5.00000E-01    0.00000E+00
 6.00000E-01    0.00000E+00
 6.63801E-01    0.00000E+00
 7.00000E-01    0.00000E+00
 8.00000E-01    0.00000E+00
 9.00000E-01    0.00000E+00
 1.00000E+00    0.00000E+00
 1.20000E+00    0.00000E+00
 1.40000E+00    0.00000E+00
 1.48664E+00    0.00000E+00
 1.48934E+00    0.00000E+00
 1.55661E+00    0.00000E+00
 1.60000E+00    0.00000E+00
 1.74722E+00    0.00000E+00
 1.79985E+00    0.00000E+00
 1.80000E+00    0.00000E+00
 1.82609E+00    0.00000E+00
 2.00000E+00    0.00000E+00
 2.09774E+00    0.00000E+00
 2.09794E+00    0.00000E+00
 2.18267E+00    0.00000E+00
 2.20000E+00    0.00000E+00
 2.24046E+00    0.00000E+00
 2.27120E+00    0.00000E+00
 2.27121E+00    0.00000E+00
 2.30844E+00    0.00000E+00
 2.35348E+00    0.00000E+00
 2.37757E+00    0.00000E+00
 2.40000E+00    0.00000E+00
 2.45558E+00    0.00000E+00
 2.50271E+00    0.00000E+00
 2.50422E+00    0.00000E+00
 2.50448E+00    0.00000E+00
 2.50882E+00    0.00000E+00
 2.70000E+00    0.00000E+00
 3.00000E+00    0.00000E+00
 3.50000E+00    0.00000E+00
 4.00000E+00    0.00000E+00
 4.50000E+00    0.00000E+00
 5.00000E+00    0.00000E+00
 5.50000E+00    0.00000E+00
 6.00000E+00    0.00000E+00
 6.50000E+00    0.00000E+00
 7.00000E+00    2.94832E-15
 7.50000E+00    9.64669E-15
 8.00000E+00    1.63450E-14
 8.50000E+00    7.78470E-11
 9.00000E+00    1.30800E-08
 9.50000E+00    8.94310E-07
 1.00000E+01    1.62807E-05
 1.05000E+01    1.34257E-04
 1.10000E+01    7.90745E-04
 1.15000E+01    3.87564E-03
 1.20000E+01    1.60654E-02
 1.25000E+01    5.63433E-02
 1.30000E+01    1.17554E-01
 1.35000E+01    2.82844E-01
 1.40000E+01    5.24324E-01
 1.45000E+01    8.12709E-01
 1.50000E+01    1.20305E+00
 1.55000E+01    2.19995E+00
 1.60000E+01    2.92784E+00
 1.65000E+01    3.78203E+00
 1.70000E+01    4.40962E+00
 1.75000E+01    5.47737E+00
 1.80000E+01    6.66527E+00
 1.85000E+01    7.31492E+00
 1.90000E+01    8.66440E+00
 1.95000E+01    9.65247E+00
 2.00000E+01    1.11917E+01
