# n + Pb  0 : (n,n')
# jendl4.0   O.Iwamoto, N.Iwamoto              EVAL-MAR10
# uncertainties: n
# # energies =    74
#   E(MeV)          xs(mb) 
 1.50000E-01    0.00000E+00
 2.00000E-01    2.96204E-05
 4.00000E-01    7.75689E-04
 5.00000E-01    2.00982E-03
 6.00000E-01    2.34751E+01
 8.00000E-01    7.08501E+01
 1.00000E+00    2.11290E+02
 1.20000E+00    3.01460E+02
 1.40000E+00    3.84380E+02
 1.50000E+00    4.31651E+02
 1.60000E+00    4.78570E+02
 1.80000E+00    5.71507E+02
 2.00000E+00    6.60503E+02
 2.50000E+00    8.45167E+02
 2.62723E+00    8.79914E+02
 3.00000E+00    1.28303E+03
 3.21325E+00    1.41066E+03
 3.49196E+00    1.60985E+03
 3.50000E+00    1.62145E+03
 3.72643E+00    1.76534E+03
 3.93881E+00    1.89388E+03
 3.96558E+00    1.91056E+03
 3.98017E+00    1.92244E+03
 4.00000E+00    1.93791E+03
 4.01508E+00    1.94718E+03
 4.05658E+00    1.97425E+03
 4.06462E+00    1.97895E+03
 4.07014E+00    1.98283E+03
 4.10521E+00    2.01048E+03
 4.12591E+00    2.02687E+03
 4.14532E+00    2.04512E+03
 4.16108E+00    2.05965E+03
 4.17917E+00    2.07621E+03
 4.20068E+00    2.09609E+03
 4.22580E+00    2.11879E+03
 4.25001E+00    2.13956E+03
 4.25052E+00    2.14055E+03
 4.27413E+00    2.16413E+03
 4.28307E+00    2.17362E+03
 4.31701E+00    2.20352E+03
 4.33894E+00    2.22139E+03
 4.34417E+00    2.22583E+03
 4.50000E+00    2.33127E+03
 5.00000E+00    2.50195E+03
 5.50000E+00    2.55328E+03
 6.00000E+00    2.55359E+03
 6.50000E+00    2.53916E+03
 7.00000E+00    2.52732E+03
 7.50000E+00    2.50162E+03
 8.00000E+00    2.40463E+03
 8.50000E+00    2.20044E+03
 9.00000E+00    1.89961E+03
 9.50000E+00    1.57012E+03
 1.00000E+01    1.24975E+03
 1.05000E+01    9.84057E+02
 1.10000E+01    7.79628E+02
 1.15000E+01    6.24227E+02
 1.20000E+01    5.16191E+02
 1.25000E+01    4.43692E+02
 1.30000E+01    3.90123E+02
 1.35000E+01    3.53472E+02
 1.40000E+01    3.23999E+02
 1.45000E+01    3.03707E+02
 1.50000E+01    2.85349E+02
 1.55000E+01    2.71881E+02
 1.60000E+01    2.59099E+02
 1.65000E+01    2.48525E+02
 1.70000E+01    2.37608E+02
 1.75000E+01    2.27558E+02
 1.80000E+01    2.19397E+02
 1.85000E+01    2.12164E+02
 1.90000E+01    2.04184E+02
 1.95000E+01    1.97491E+02
 2.00000E+01    1.90605E+02
