# n + Rh103 : (n,xa)    
# jendl.ad   N.Iwamoto                         EVAL-Apr14
# 
# # energies =   118
#   E(MeV)        xs(mb) 
 4.01457E-02    5.93270E-10
 5.00000E-02    5.73350E-10
 6.00000E-02    5.63968E-10
 7.00000E-02    5.62540E-10
 8.00000E-02    5.66270E-10
 9.00000E-02    5.76501E-10
 9.39530E-02    5.81801E-10
 1.00000E-01    5.90817E-10
 1.05000E-01    5.99627E-10
 1.10000E-01    6.08970E-10
 1.20000E-01    6.30805E-10
 1.30000E-01    6.56217E-10
 1.40000E-01    6.85155E-10
 1.50000E-01    7.17636E-10
 1.60000E-01    7.53735E-10
 1.70000E-01    7.93409E-10
 1.80000E-01    8.35660E-10
 1.90000E-01    8.83290E-10
 2.00000E-01    9.35200E-10
 2.25000E-01    1.08530E-09
 2.50000E-01    1.26850E-09
 2.75000E-01    1.49190E-09
 2.97871E-01    1.73300E-09
 3.00000E-01    1.72940E-09
 3.60911E-01    2.16270E-09
 4.00000E-01    2.47500E-09
 5.00000E-01    4.05940E-09
 5.42100E-01    5.19040E-09
 6.00000E-01    7.04400E-09
 6.13404E-01    7.58970E-09
 6.56457E-01    9.65636E-09
 6.58187E-01    9.73940E-09
 6.64167E-01    9.97280E-09
 7.00000E-01    1.17180E-08
 7.88150E-01    1.88220E-08
 8.00000E-01    2.01290E-08
 8.10942E-01    2.14415E-08
 8.29512E-01    2.36690E-08
 8.55888E-01    2.73490E-08
 8.89100E-01    3.28240E-08
 9.00000E-01    3.47050E-08
 9.29119E-01    4.02110E-08
 1.00000E+00    5.81280E-08
 1.08831E+00    9.43650E-08
 1.10000E+00    1.00614E-07
 1.11755E+00    1.10774E-07
 1.14703E+00    1.29768E-07
 1.20000E+00    1.71080E-07
 1.26403E+00    2.38113E-07
 1.26802E+00    2.42850E-07
 1.28956E+00    2.72428E-07
 1.30000E+00    2.86782E-07
 1.30613E+00    2.95171E-07
 1.33991E+00    3.44615E-07
 1.35808E+00    3.73956E-07
 1.36273E+00    3.81700E-07
 1.40000E+00    4.56388E-07
 1.41705E+00    4.93705E-07
 1.41706E+00    4.93727E-07
 1.42472E+00    5.10762E-07
 1.44311E+00    5.54311E-07
 1.45223E+00    5.76450E-07
 1.45704E+00    5.88689E-07
 1.48108E+00    6.51210E-07
 1.49451E+00    6.96312E-07
 1.49651E+00    7.02694E-07
 1.50000E+00    7.13247E-07
 1.50584E+00    7.30905E-07
 1.53086E+00    8.09972E-07
 1.53959E+00    8.38480E-07
 1.54561E+00    8.60287E-07
 1.59547E+00    1.07098E-06
 1.60000E+00    1.09189E-06
 1.61578E+00    1.16576E-06
 1.62101E+00    1.19171E-06
 1.62102E+00    1.19175E-06
 1.70000E+00    1.68879E-06
 1.80000E+00    2.64173E-06
 1.90000E+00    4.08012E-06
 2.00000E+00    6.20279E-06
 2.25000E+00    1.58356E-05
 2.50000E+00    4.05912E-05
 2.75000E+00    8.93573E-05
 3.00000E+00    2.63473E-04
 3.50000E+00    9.39591E-04
 4.00000E+00    2.93578E-03
 4.50000E+00    7.92629E-03
 5.00000E+00    1.87723E-02
 5.50000E+00    3.96795E-02
 6.00000E+00    7.60443E-02
 6.50000E+00    1.34207E-01
 7.00000E+00    2.21635E-01
 7.50000E+00    3.46934E-01
 8.00000E+00    5.11505E-01
 8.50000E+00    7.48904E-01
 9.00000E+00    1.06724E+00
 9.50000E+00    1.48542E+00
 1.00000E+01    2.01578E+00
 1.05000E+01    2.67158E+00
 1.10000E+01    3.45767E+00
 1.15000E+01    4.37319E+00
 1.20000E+01    5.41141E+00
 1.25000E+01    6.56118E+00
 1.30000E+01    7.80819E+00
 1.35000E+01    9.13633E+00
 1.40000E+01    1.05322E+01
 1.45000E+01    1.19772E+01
 1.50000E+01    1.34568E+01
 1.55000E+01    1.49473E+01
 1.60000E+01    1.64564E+01
 1.65000E+01    1.79356E+01
 1.70000E+01    1.94216E+01
 1.75000E+01    2.08818E+01
 1.80000E+01    2.22879E+01
 1.85000E+01    2.36910E+01
 1.90000E+01    2.50351E+01
 1.95000E+01    2.63628E+01
 2.00000E+01    2.76264E+01
