# n + Rh103 : (n,xn)    
# jendl.ad   N.Iwamoto                         EVAL-Apr14
# 
# # energies =   118
#   E(MeV)        xs(mb) 
 4.01457E-02    0.00000E+00
 5.00000E-02    7.59273E-01
 6.00000E-02    1.99761E+00
 7.00000E-02    3.52608E+00
 8.00000E-02    5.29011E+00
 9.00000E-02    7.30258E+00
 9.39530E-02    8.15964E+00
 1.00000E-01    9.64169E+00
 1.05000E-01    1.09555E+01
 1.10000E-01    1.22695E+01
 1.20000E-01    1.51112E+01
 1.30000E-01    1.81540E+01
 1.40000E-01    2.13961E+01
 1.50000E-01    2.48213E+01
 1.60000E-01    2.84252E+01
 1.70000E-01    3.21995E+01
 1.80000E-01    3.60834E+01
 1.90000E-01    4.01699E+01
 2.00000E-01    4.44021E+01
 2.25000E-01    5.55716E+01
 2.50000E-01    6.74947E+01
 2.75000E-01    8.00689E+01
 2.97871E-01    9.19660E+01
 3.00000E-01    1.08590E+02
 3.60911E-01    4.89412E+02
 4.00000E-01    7.40799E+02
 5.00000E-01    1.09818E+03
 5.42100E-01    1.17037E+03
 6.00000E-01    1.26109E+03
 6.13404E-01    1.27596E+03
 6.56457E-01    1.31553E+03
 6.58187E-01    1.31835E+03
 6.64167E-01    1.33238E+03
 7.00000E-01    1.38328E+03
 7.88150E-01    1.45309E+03
 8.00000E-01    1.45946E+03
 8.10942E-01    1.46483E+03
 8.29512E-01    1.48072E+03
 8.55888E-01    1.50320E+03
 8.89100E-01    1.53125E+03
 9.00000E-01    1.54138E+03
 9.29119E-01    1.56891E+03
 1.00000E+00    1.62393E+03
 1.08831E+00    1.66906E+03
 1.10000E+00    1.67389E+03
 1.11755E+00    1.68063E+03
 1.14703E+00    1.69348E+03
 1.20000E+00    1.72305E+03
 1.26403E+00    1.75349E+03
 1.26802E+00    1.75527E+03
 1.28956E+00    1.76546E+03
 1.30000E+00    1.77101E+03
 1.30613E+00    1.77429E+03
 1.33991E+00    1.79420E+03
 1.35808E+00    1.80437E+03
 1.36273E+00    1.80698E+03
 1.40000E+00    1.82580E+03
 1.41705E+00    1.83349E+03
 1.41706E+00    1.83349E+03
 1.42472E+00    1.83694E+03
 1.44311E+00    1.84542E+03
 1.45223E+00    1.84974E+03
 1.45704E+00    1.85200E+03
 1.48108E+00    1.86356E+03
 1.49451E+00    1.86943E+03
 1.49651E+00    1.87032E+03
 1.50000E+00    1.87181E+03
 1.50584E+00    1.87425E+03
 1.53086E+00    1.88503E+03
 1.53959E+00    1.88885E+03
 1.54561E+00    1.89140E+03
 1.59547E+00    1.91067E+03
 1.60000E+00    1.91249E+03
 1.61578E+00    1.91796E+03
 1.62101E+00    1.91996E+03
 1.62102E+00    1.91996E+03
 1.70000E+00    1.94309E+03
 1.80000E+00    1.96351E+03
 1.90000E+00    1.98034E+03
 2.00000E+00    1.99467E+03
 2.25000E+00    2.02380E+03
 2.50000E+00    2.03466E+03
 2.75000E+00    2.04269E+03
 3.00000E+00    2.04503E+03
 3.50000E+00    2.04983E+03
 4.00000E+00    2.05936E+03
 4.50000E+00    2.07020E+03
 5.00000E+00    2.07584E+03
 5.50000E+00    2.07243E+03
 6.00000E+00    2.06024E+03
 6.50000E+00    2.04195E+03
 7.00000E+00    2.02088E+03
 7.50000E+00    1.99950E+03
 8.00000E+00    1.97965E+03
 8.50000E+00    1.96236E+03
 9.00000E+00    1.94810E+03
 9.50000E+00    1.97635E+03
 1.00000E+01    2.11181E+03
 1.05000E+01    2.41692E+03
 1.10000E+01    2.68447E+03
 1.15000E+01    2.89248E+03
 1.20000E+01    3.04568E+03
 1.25000E+01    3.15425E+03
 1.30000E+01    3.22939E+03
 1.35000E+01    3.28110E+03
 1.40000E+01    3.31472E+03
 1.45000E+01    3.33925E+03
 1.50000E+01    3.35593E+03
 1.55000E+01    3.36488E+03
 1.60000E+01    3.37069E+03
 1.65000E+01    3.37502E+03
 1.70000E+01    3.37666E+03
 1.75000E+01    3.37470E+03
 1.80000E+01    3.38516E+03
 1.85000E+01    3.41419E+03
 1.90000E+01    3.46572E+03
 1.95000E+01    3.54015E+03
 2.00000E+01    3.62894E+03
