# n + Rh103 : (n,xp)    
# jendl.ad   N.Iwamoto                         EVAL-Apr14
# 
# # energies =   118
#   E(MeV)        xs(mb) 
 4.01457E-02    0.00000E+00
 5.00000E-02    0.00000E+00
 6.00000E-02    0.00000E+00
 7.00000E-02    0.00000E+00
 8.00000E-02    0.00000E+00
 9.00000E-02    0.00000E+00
 9.39530E-02    0.00000E+00
 1.00000E-01    0.00000E+00
 1.05000E-01    0.00000E+00
 1.10000E-01    0.00000E+00
 1.20000E-01    4.90514E-12
 1.30000E-01    3.36070E-11
 1.40000E-01    6.23089E-11
 1.50000E-01    9.10107E-11
 1.60000E-01    1.32459E-10
 1.70000E-01    2.01576E-10
 1.80000E-01    2.70693E-10
 1.90000E-01    3.39810E-10
 2.00000E-01    4.17963E-10
 2.25000E-01    6.56576E-10
 2.50000E-01    8.99372E-10
 2.75000E-01    1.14217E-09
 2.97871E-01    1.42278E-09
 3.00000E-01    1.45100E-09
 3.60911E-01    2.34180E-09
 4.00000E-01    2.99101E-09
 5.00000E-01    5.05003E-09
 5.42100E-01    6.04268E-09
 6.00000E-01    7.83204E-09
 6.13404E-01    8.26677E-09
 6.56457E-01    9.70326E-09
 6.58187E-01    9.76392E-09
 6.64167E-01    9.97360E-09
 7.00000E-01    1.12385E-08
 7.88150E-01    1.47929E-08
 8.00000E-01    1.53095E-08
 8.10942E-01    1.57865E-08
 8.29512E-01    1.65961E-08
 8.55888E-01    1.77604E-08
 8.89100E-01    1.92797E-08
 9.00000E-01    1.98253E-08
 9.29119E-01    2.15110E-08
 1.00000E+00    3.38010E-08
 1.08831E+00    6.88430E-08
 1.10000E+00    7.75200E-08
 1.11755E+00    9.35280E-08
 1.14703E+00    1.30330E-07
 1.20000E+00    2.47540E-07
 1.26403E+00    5.54650E-07
 1.26802E+00    5.82960E-07
 1.28956E+00    7.58460E-07
 1.30000E+00    8.58940E-07
 1.30613E+00    9.23990E-07
 1.33991E+00    1.36346E-06
 1.35808E+00    1.67128E-06
 1.36273E+00    1.75937E-06
 1.40000E+00    2.64167E-06
 1.41705E+00    3.17091E-06
 1.41706E+00    3.17124E-06
 1.42472E+00    3.43802E-06
 1.44311E+00    4.15658E-06
 1.45223E+00    4.55613E-06
 1.45704E+00    4.78100E-06
 1.48108E+00    6.04686E-06
 1.49451E+00    6.87622E-06
 1.49651E+00    7.00795E-06
 1.50000E+00    7.24462E-06
 1.50584E+00    7.65695E-06
 1.53086E+00    9.66075E-06
 1.53959E+00    1.04591E-05
 1.54561E+00    1.10459E-05
 1.59547E+00    1.72157E-05
 1.60000E+00    1.79059E-05
 1.61578E+00    2.05354E-05
 1.62101E+00    2.14708E-05
 1.62102E+00    2.14726E-05
 1.70000E+00    4.15106E-05
 1.80000E+00    9.13106E-05
 1.90000E+00    1.88376E-04
 2.00000E+00    3.65882E-04
 2.25000E+00    1.50158E-03
 2.50000E+00    5.07644E-03
 2.75000E+00    1.34571E-02
 3.00000E+00    3.14190E-02
 3.50000E+00    1.18333E-01
 4.00000E+00    3.14462E-01
 4.50000E+00    6.49271E-01
 5.00000E+00    1.10870E+00
 5.50000E+00    1.63446E+00
 6.00000E+00    2.15031E+00
 6.50000E+00    2.59942E+00
 7.00000E+00    2.87647E+00
 7.50000E+00    3.23427E+00
 8.00000E+00    3.64773E+00
 8.50000E+00    4.19507E+00
 9.00000E+00    4.95998E+00
 9.50000E+00    6.08686E+00
 1.00000E+01    7.47943E+00
 1.05000E+01    9.07830E+00
 1.10000E+01    1.10323E+01
 1.15000E+01    1.33851E+01
 1.20000E+01    1.61593E+01
 1.25000E+01    1.93628E+01
 1.30000E+01    2.29913E+01
 1.35000E+01    2.70313E+01
 1.40000E+01    3.14716E+01
 1.45000E+01    3.62636E+01
 1.50000E+01    4.13946E+01
 1.55000E+01    4.68152E+01
 1.60000E+01    5.25406E+01
 1.65000E+01    5.85279E+01
 1.70000E+01    6.47538E+01
 1.75000E+01    7.11675E+01
 1.80000E+01    7.78236E+01
 1.85000E+01    8.46269E+01
 1.90000E+01    9.16130E+01
 1.95000E+01    9.87534E+01
 2.00000E+01    1.06071E+02
