# n + Rh103 : (n,t)     
# jendl.ad   N.Iwamoto                         EVAL-Apr14
# uncertainties: n
# # energies =    54
#   E(MeV)       xs(mb) 
 7.01909E+00    0.00000E+00
 7.14756E+00    3.59660E-14
 7.32895E+00    9.01760E-14
 7.33351E+00    9.15400E-14
 7.34750E+00    9.57290E-14
 7.44544E+00    1.25070E-13
 7.55182E+00    1.56930E-13
 7.55933E+00    1.59600E-13
 7.56954E+00    1.63800E-13
 7.62329E+00    1.89080E-13
 7.64143E+00    1.97960E-13
 7.64819E+00    2.01350E-13
 7.64879E+00    2.01660E-13
 7.70979E+00    2.33140E-13
 7.74614E+00    2.51990E-13
 7.74616E+00    2.52010E-13
 7.76836E+00    2.63570E-13
 7.85116E+00    3.06780E-13
 7.87011E+00    3.16670E-13
 7.93498E+00    3.50530E-13
 7.95517E+00    3.61070E-13
 7.95696E+00    3.62010E-13
 7.96665E+00    3.67060E-13
 7.98688E+00    3.77620E-13
 8.00203E+00    3.85530E-13
 8.03005E+00    4.02560E-13
 8.06726E+00    4.26900E-13
 8.08039E+00    4.35830E-13
 8.12785E+00    4.69290E-13
 8.14098E+00    4.78610E-13
 8.50000E+00    7.34610E-13
 9.00000E+00    4.16000E-10
 9.50000E+00    3.13480E-08
 1.00000E+01    6.11860E-07
 1.05000E+01    5.29302E-06
 1.10000E+01    2.68768E-05
 1.15000E+01    9.63195E-05
 1.20000E+01    2.85852E-04
 1.25000E+01    8.02628E-04
 1.30000E+01    2.24199E-03
 1.35000E+01    5.98955E-03
 1.40000E+01    1.44807E-02
 1.45000E+01    3.05834E-02
 1.50000E+01    5.80975E-02
 1.55000E+01    9.71816E-02
 1.60000E+01    1.55135E-01
 1.65000E+01    2.26458E-01
 1.70000E+01    3.09766E-01
 1.75000E+01    4.11876E-01
 1.80000E+01    5.23020E-01
 1.85000E+01    6.45219E-01
 1.90000E+01    7.75868E-01
 1.95000E+01    9.06299E-01
 2.00000E+01    1.04049E+00
