# n + Rh103 : (n,d)     
# jendl.ad   N.Iwamoto                         EVAL-Apr14
# uncertainties: n
# # energies =    71
#   E(MeV)       xs(mb) 
 4.02764E+00    0.00000E+00
 4.50738E+00    4.95360E-11
 4.98058E+00    2.14910E-10
 5.14160E+00    2.71190E-10
 5.14484E+00    2.72370E-10
 5.50000E+00    4.05680E-10
 5.56422E+00    5.80840E-09
 5.62369E+00    1.08400E-08
 5.64625E+00    1.27490E-08
 5.84398E+00    2.94980E-08
 5.88275E+00    3.27820E-08
 5.91921E+00    3.58700E-08
 6.00000E+00    4.27140E-08
 6.01559E+00    8.51820E-08
 6.08460E+00    2.73180E-07
 6.09117E+00    2.91080E-07
 6.20148E+00    5.91610E-07
 6.23911E+00    6.94120E-07
 6.26855E+00    7.74330E-07
 6.29014E+00    8.33150E-07
 6.31104E+00    8.90090E-07
 6.35291E+00    1.00416E-06
 6.41815E+00    1.18190E-06
 6.42148E+00    1.19097E-06
 6.43673E+00    1.23251E-06
 6.47237E+00    1.32961E-06
 6.49338E+00    1.38685E-06
 6.50000E+00    1.40488E-06
 6.51175E+00    1.72380E-06
 6.51922E+00    1.92655E-06
 6.61980E+00    4.65650E-06
 6.64525E+00    5.34726E-06
 6.66448E+00    5.86920E-06
 6.66726E+00    5.94466E-06
 6.70240E+00    6.89843E-06
 6.70634E+00    7.00537E-06
 6.72997E+00    7.64673E-06
 6.75500E+00    8.32610E-06
 6.75734E+00    8.38961E-06
 6.75845E+00    8.41974E-06
 6.76537E+00    8.60756E-06
 6.77339E+00    8.82524E-06
 6.84483E+00    1.07643E-05
 6.85607E+00    1.10694E-05
 7.00000E+00    1.49759E-05
 7.50000E+00    8.03449E-05
 8.00000E+00    2.82734E-04
 8.50000E+00    8.61735E-04
 9.00000E+00    2.38766E-03
 9.50000E+00    8.38070E-03
 1.00000E+01    2.81595E-02
 1.05000E+01    8.08763E-02
 1.10000E+01    1.94966E-01
 1.15000E+01    4.01429E-01
 1.20000E+01    7.24586E-01
 1.25000E+01    1.17611E+00
 1.30000E+01    1.75453E+00
 1.35000E+01    2.44895E+00
 1.40000E+01    3.24366E+00
 1.45000E+01    4.12193E+00
 1.50000E+01    4.98428E+00
 1.55000E+01    6.09750E+00
 1.60000E+01    6.93217E+00
 1.65000E+01    8.13404E+00
 1.70000E+01    9.21710E+00
 1.75000E+01    1.02313E+01
 1.80000E+01    1.12813E+01
 1.85000E+01    1.23460E+01
 1.90000E+01    1.34095E+01
 1.95000E+01    1.44304E+01
 2.00000E+01    1.51625E+01
