# n + Ga 71 : (n,n'09)  
# tendl.2019 A.J. Koning and D. Rochman        EVAL-NOV19
# uncertainties: n
# # energies =    84
#   E(MeV)       xs(mb) 
 1.41490E+00    0.00000E+00
 1.49695E+00    1.80200E+01
 1.51498E+00    2.19797E+01
 1.51970E+00    2.30164E+01
 1.60000E+00    4.06520E+01
 1.65460E+00    4.56715E+01
 1.72336E+00    5.19927E+01
 1.74395E+00    5.38856E+01
 1.77724E+00    5.69460E+01
 1.80000E+00    5.90384E+01
 1.93246E+00    6.63257E+01
 1.96926E+00    6.83502E+01
 2.00000E+00    7.00414E+01
 2.02337E+00    7.05177E+01
 2.09342E+00    7.19452E+01
 2.09873E+00    7.20534E+01
 2.11165E+00    7.23167E+01
 2.16447E+00    7.33931E+01
 2.20000E+00    7.41172E+01
 2.22216E+00    7.41822E+01
 2.27914E+00    7.43493E+01
 2.32702E+00    7.44898E+01
 2.36009E+00    7.45867E+01
 2.40000E+00    7.47038E+01
 2.43007E+00    7.41407E+01
 2.45543E+00    7.36658E+01
 2.48546E+00    7.31035E+01
 2.60000E+00    7.09587E+01
 2.80000E+00    6.30565E+01
 3.00000E+00    5.36141E+01
 3.20000E+00    4.43925E+01
 3.40000E+00    3.62299E+01
 3.60000E+00    2.94132E+01
 3.80000E+00    2.38761E+01
 4.00000E+00    1.94075E+01
 4.20000E+00    1.57996E+01
 4.40000E+00    1.28548E+01
 4.60000E+00    1.04738E+01
 4.80000E+00    8.53493E+00
 5.00000E+00    6.95370E+00
 5.20000E+00    5.66335E+00
 5.40000E+00    4.61141E+00
 5.60000E+00    3.75558E+00
 5.80000E+00    3.06001E+00
 6.00000E+00    2.49593E+00
 6.20000E+00    2.03893E+00
 6.40000E+00    1.66858E+00
 6.60000E+00    1.37013E+00
 6.80000E+00    1.12530E+00
 7.00000E+00    9.30310E-01
 7.20000E+00    7.70037E-01
 7.40000E+00    6.39991E-01
 7.60000E+00    5.34649E-01
 7.80000E+00    4.46261E-01
 8.00000E+00    3.76130E-01
 8.50000E+00    2.50167E-01
 9.00000E+00    1.72771E-01
 9.50000E+00    1.24464E-01
 1.00000E+01    9.38058E-02
 1.05000E+01    7.40613E-02
 1.10000E+01    6.12580E-02
 1.15000E+01    5.29268E-02
 1.20000E+01    4.75198E-02
 1.25000E+01    4.40305E-02
 1.30000E+01    4.18020E-02
 1.35000E+01    4.04005E-02
 1.40000E+01    3.95366E-02
 1.45000E+01    3.90159E-02
 1.50000E+01    3.87078E-02
 1.60000E+01    3.84066E-02
 1.70000E+01    3.82258E-02
 1.80000E+01    3.80070E-02
 1.90000E+01    3.77129E-02
 2.00000E+01    3.73578E-02
 2.10000E+01    3.69681E-02
 2.20000E+01    3.65635E-02
 2.30000E+01    3.61523E-02
 2.40000E+01    3.57334E-02
 2.50000E+01    3.53007E-02
 2.60000E+01    3.48475E-02
 2.70000E+01    3.43689E-02
 2.80000E+01    3.38639E-02
 2.90000E+01    3.33342E-02
 3.00000E+01    3.27845E-02
