# n + In115 : (n,n')    
# jeff3.3    S.Kunieda, A.Ichihara, K.Shibata+ EVAL-FEB22
# uncertainties: n
# # energies =    71
#   E(MeV)       xs(mb) 
 3.39192E-01    0.00000E+00
 3.50000E-01    5.88600E-01
 4.00000E-01    2.56400E+00
 4.50000E-01    4.13800E+00
 5.00000E-01    5.77000E+00
 5.50000E-01    7.58400E+00
 6.00000E-01    9.60500E+00
 6.02382E-01    9.64097E+00
 6.50000E-01    2.00230E+01
 7.00000E-01    2.80200E+01
 7.50000E-01    3.50400E+01
 8.00000E-01    4.18100E+01
 8.35854E-01    4.60407E+01
 8.50000E-01    5.06480E+01
 8.71716E-01    5.76891E+01
 9.00000E-01    6.76116E+01
 9.41977E-01    7.90230E+01
 9.49694E-01    9.37312E+01
 9.50000E-01    9.48722E+01
 1.00000E+00    1.87690E+02
 1.05064E+00    2.26891E+02
 1.08766E+00    2.65563E+02
 1.14251E+00    3.39898E+02
 1.20000E+00    5.15953E+02
 1.20297E+00    5.19036E+02
 1.29870E+00    6.22860E+02
 1.30192E+00    6.26497E+02
 1.35933E+00    7.43096E+02
 1.40000E+00    8.33261E+02
 1.43070E+00    8.53463E+02
 1.46150E+00    8.91023E+02
 1.47615E+00    9.17236E+02
 1.48290E+00    9.31549E+02
 1.49148E+00    9.49977E+02
 1.50157E+00    9.72992E+02
 1.60000E+00    1.29558E+03
 1.80000E+00    1.48372E+03
 2.00000E+00    1.59507E+03
 2.20000E+00    1.67834E+03
 2.40000E+00    1.74245E+03
 2.60000E+00    1.78325E+03
 2.80000E+00    1.82332E+03
 3.00000E+00    1.85739E+03
 3.25000E+00    1.89865E+03
 3.50000E+00    1.93810E+03
 3.75000E+00    1.98020E+03
 4.00000E+00    2.02087E+03
 4.25000E+00    2.05918E+03
 4.50000E+00    2.09153E+03
 4.75000E+00    2.11686E+03
 5.00000E+00    2.13444E+03
 5.50000E+00    2.14847E+03
 6.00000E+00    2.13987E+03
 6.50000E+00    2.11853E+03
 7.00000E+00    2.09224E+03
 7.50000E+00    2.06738E+03
 8.00000E+00    2.04712E+03
 8.50000E+00    2.03284E+03
 9.00000E+00    2.02418E+03
 9.50000E+00    2.00164E+03
 1.00000E+01    1.79535E+03
 1.10000E+01    1.21088E+03
 1.20000E+01    8.02475E+02
 1.30000E+01    5.66204E+02
 1.40000E+01    4.32350E+02
 1.50000E+01    3.55460E+02
 1.60000E+01    3.08674E+02
 1.70000E+01    2.78330E+02
 1.80000E+01    2.57257E+02
 1.90000E+01    2.41471E+02
 2.00000E+01    2.27010E+02
