# n + Th228 : (n,n'26)  
# endfb8.0   O.Iwamoto, T.Nakagawa, et al.     EVAL-FEB10
# uncertainties: y
# # energies =    51
#   E(MeV)       xs(mb)       xslow(mb)      xsupp(mb)
 1.17970E+00    0.00000E+00    0.00000E+00    0.00000E+00
 1.18059E+00    1.12962E-01    8.23493E-02    1.43575E-01
 1.19506E+00    8.38361E-01    6.11165E-01    1.06556E+00
 1.20000E+00    1.09989E+00    8.01820E-01    1.39796E+00
 1.20585E+00    1.41851E+00    1.03409E+00    1.80293E+00
 1.30000E+00    6.55768E+00    4.78055E+00    8.33481E+00
 1.40000E+00    1.08430E+01    7.90455E+00    1.37815E+01
 1.50000E+00    1.36516E+01    7.98617E+00    1.93170E+01
 1.60000E+00    1.53470E+01    8.97797E+00    2.17160E+01
 1.70000E+00    1.63673E+01    9.57485E+00    2.31598E+01
 1.80000E+00    1.66580E+01    9.74491E+00    2.35711E+01
 1.90000E+00    1.65324E+01    9.67143E+00    2.33934E+01
 2.00000E+00    1.59200E+01    8.85150E+00    2.29885E+01
 2.30000E+00    1.32091E+01    7.34424E+00    1.90740E+01
 2.50000E+00    1.07929E+01    7.13403E+00    1.44518E+01
 2.70000E+00    8.46607E+00    5.59601E+00    1.13361E+01
 3.00000E+00    5.50210E+00    4.11548E+00    6.88872E+00
 3.50000E+00    2.32842E+00    1.94654E+00    2.71030E+00
 4.00000E+00    9.23043E-01    8.27957E-01    1.01813E+00
 4.50000E+00    3.76562E-01    3.37771E-01    4.15353E-01
 5.00000E+00    1.86016E-01    1.61833E-01    2.10199E-01
 5.50000E+00    1.13254E-01    9.85302E-02    1.27978E-01
 6.00000E+00    8.42475E-02    6.73134E-02    1.01182E-01
 6.50000E+00    6.97451E-02    5.57261E-02    8.37641E-02
 7.00000E+00    6.16639E-02    4.74184E-02    7.59094E-02
 7.50000E+00    5.59352E-02    4.30131E-02    6.88573E-02
 8.00000E+00    5.18537E-02    3.94087E-02    6.42987E-02
 8.50000E+00    4.83405E-02    3.67387E-02    5.99423E-02
 9.00000E+00    4.54758E-02    3.45154E-02    5.64362E-02
 9.50000E+00    4.28005E-02    3.24849E-02    5.31161E-02
 1.00000E+01    4.04456E-02    3.08592E-02    5.00320E-02
 1.05000E+01    3.82998E-02    2.92220E-02    4.73776E-02
 1.10000E+01    3.63820E-02    2.77588E-02    4.50052E-02
 1.15000E+01    3.43898E-02    2.62388E-02    4.25408E-02
 1.20000E+01    3.26224E-02    2.52820E-02    3.99628E-02
 1.25000E+01    3.10939E-02    2.40974E-02    3.80904E-02
 1.30000E+01    2.95102E-02    2.28700E-02    3.61504E-02
 1.35000E+01    2.81237E-02    2.17955E-02    3.44519E-02
 1.40000E+01    2.68312E-02    2.10623E-02    3.26001E-02
 1.45000E+01    2.57049E-02    2.01781E-02    3.12317E-02
 1.50000E+01    2.46290E-02    1.94321E-02    2.98259E-02
 1.55000E+01    2.35269E-02    1.85625E-02    2.84913E-02
 1.60000E+01    2.24377E-02    1.78155E-02    2.70599E-02
 1.65000E+01    2.14824E-02    1.70570E-02    2.59078E-02
 1.70000E+01    2.06557E-02    1.64006E-02    2.49108E-02
 1.75000E+01    1.99228E-02    1.58187E-02    2.40269E-02
 1.80000E+01    1.91432E-02    1.53336E-02    2.29528E-02
 1.85000E+01    1.83947E-02    1.47341E-02    2.20553E-02
 1.90000E+01    1.77007E-02    1.41782E-02    2.12232E-02
 1.95000E+01    1.70738E-02    1.36760E-02    2.04716E-02
 2.00000E+01    1.64088E-02    1.31434E-02    1.96742E-02
