# n + Th228 : (n,n')    
# endfb8.0   O.Iwamoto, T.Nakagawa, et al.     EVAL-FEB10
# uncertainties: y
# # energies =    93
#   E(MeV)       xs(mb)       xslow(mb)      xsupp(mb)
 5.80145E-02    0.00000E+00    0.00000E+00    0.00000E+00
 7.00000E-02    1.30886E+02    1.30886E+02    1.30886E+02
 1.00000E-01    4.04518E+02    4.04518E+02    4.04518E+02
 1.10975E-01    4.65916E+02    4.65916E+02    4.65916E+02
 1.20000E-01    5.16417E+02    5.16417E+02    5.16417E+02
 1.40000E-01    6.06921E+02    6.06921E+02    6.06921E+02
 1.70000E-01    7.27666E+02    7.27666E+02    7.27666E+02
 1.87649E-01    7.95937E+02    7.95937E+02    7.95937E+02
 2.00000E-01    8.45735E+02    8.45735E+02    8.45735E+02
 2.50000E-01    9.57796E+02    9.57796E+02    9.57796E+02
 3.00000E-01    1.07951E+03    1.07951E+03    1.07951E+03
 3.29454E-01    1.10611E+03    1.10611E+03    1.10611E+03
 3.79852E-01    1.35227E+03    1.35227E+03    1.35227E+03
 3.97830E-01    1.40366E+03    1.40366E+03    1.40366E+03
 4.00000E-01    1.41064E+03    1.41064E+03    1.41064E+03
 5.00000E-01    1.69850E+03    1.69850E+03    1.69850E+03
 5.21489E-01    1.72554E+03    1.72554E+03    1.72554E+03
 6.00000E-01    1.82058E+03    1.82058E+03    1.82058E+03
 6.25254E-01    1.85231E+03    1.85231E+03    1.85231E+03
 6.98677E-01    1.94709E+03    1.94709E+03    1.94709E+03
 7.00000E-01    1.94881E+03    1.94881E+03    1.94881E+03
 8.00000E-01    2.00084E+03    2.00084E+03    2.00084E+03
 8.35502E-01    2.01651E+03    2.01651E+03    2.01651E+03
 8.78341E-01    2.05003E+03    2.05003E+03    2.05003E+03
 9.00000E-01    2.07564E+03    2.07564E+03    2.07564E+03
 9.15833E-01    2.09167E+03    2.09167E+03    2.09167E+03
 9.24873E-01    2.10039E+03    2.10039E+03    2.10039E+03
 9.42732E-01    2.11661E+03    2.11661E+03    2.11661E+03
 9.48373E-01    2.12458E+03    2.12458E+03    2.12458E+03
 9.72652E-01    2.16308E+03    2.16308E+03    2.16308E+03
 9.73254E-01    2.16452E+03    2.16452E+03    2.16452E+03
 9.83832E-01    2.18642E+03    2.18642E+03    2.18642E+03
 1.00000E+00    2.22138E+03    2.22138E+03    2.22138E+03
 1.02090E+00    2.25560E+03    2.25560E+03    2.25560E+03
 1.02705E+00    2.26774E+03    2.26774E+03    2.26774E+03
 1.06462E+00    2.32988E+03    2.32988E+03    2.32988E+03
 1.09584E+00    2.37186E+03    2.37186E+03    2.37186E+03
 1.10000E+00    2.37679E+03    2.37679E+03    2.37679E+03
 1.12792E+00    2.40680E+03    2.40680E+03    2.40680E+03
 1.15857E+00    2.43982E+03    2.43982E+03    2.43982E+03
 1.16513E+00    2.44856E+03    2.44856E+03    2.44856E+03
 1.17354E+00    2.45753E+03    2.45753E+03    2.45753E+03
 1.17970E+00    2.46486E+03    2.46486E+03    2.46486E+03
 1.18059E+00    2.46583E+03    2.46583E+03    2.46583E+03
 1.19506E+00    2.48341E+03    2.48341E+03    2.48341E+03
 1.20000E+00    2.48871E+03    2.48871E+03    2.48871E+03
 1.20585E+00    2.49498E+03    2.49498E+03    2.49498E+03
 1.30000E+00    2.57530E+03    2.57530E+03    2.57530E+03
 1.40000E+00    2.63264E+03    2.63264E+03    2.63264E+03
 1.50000E+00    2.68406E+03    2.68406E+03    2.68406E+03
 1.60000E+00    2.72828E+03    2.72828E+03    2.72828E+03
 1.70000E+00    2.76742E+03    2.76742E+03    2.76742E+03
 1.80000E+00    2.80145E+03    2.80145E+03    2.80145E+03
 1.90000E+00    2.83031E+03    2.83031E+03    2.83031E+03
 2.00000E+00    2.85609E+03    2.85609E+03    2.85609E+03
 2.30000E+00    2.90392E+03    2.90392E+03    2.90392E+03
 2.50000E+00    2.91731E+03    2.91731E+03    2.91731E+03
 2.70000E+00    2.92212E+03    2.92212E+03    2.92212E+03
 3.00000E+00    2.91670E+03    2.91670E+03    2.91670E+03
 3.50000E+00    2.88831E+03    2.88831E+03    2.88831E+03
 4.00000E+00    2.85887E+03    2.85887E+03    2.85887E+03
 4.50000E+00    2.83039E+03    2.83039E+03    2.83039E+03
 5.00000E+00    2.83358E+03    2.83358E+03    2.83358E+03
 5.50000E+00    2.81787E+03    2.81787E+03    2.81787E+03
 6.00000E+00    2.82480E+03    2.82480E+03    2.82480E+03
 6.50000E+00    2.80649E+03    2.80649E+03    2.80649E+03
 7.00000E+00    2.71469E+03    2.71469E+03    2.71469E+03
 7.50000E+00    2.50388E+03    2.50388E+03    2.50388E+03
 8.00000E+00    2.14090E+03    2.14090E+03    2.14090E+03
 8.50000E+00    1.72692E+03    1.72692E+03    1.72692E+03
 9.00000E+00    1.39062E+03    1.39062E+03    1.39062E+03
 9.50000E+00    1.13799E+03    1.13799E+03    1.13799E+03
 1.00000E+01    9.59548E+02    9.59548E+02    9.59548E+02
 1.05000E+01    8.40089E+02    8.40089E+02    8.40089E+02
 1.10000E+01    7.48990E+02    7.48990E+02    7.48990E+02
 1.15000E+01    6.79167E+02    6.79167E+02    6.79167E+02
 1.20000E+01    6.24153E+02    6.24153E+02    6.24153E+02
 1.25000E+01    5.86057E+02    5.86057E+02    5.86057E+02
 1.30000E+01    5.49068E+02    5.49068E+02    5.49068E+02
 1.35000E+01    5.22430E+02    5.22430E+02    5.22430E+02
 1.40000E+01    4.98414E+02    4.98414E+02    4.98414E+02
 1.45000E+01    4.81233E+02    4.81233E+02    4.81233E+02
 1.50000E+01    4.61355E+02    4.61355E+02    4.61355E+02
 1.55000E+01    4.43274E+02    4.43274E+02    4.43274E+02
 1.60000E+01    4.29436E+02    4.29436E+02    4.29436E+02
 1.65000E+01    4.13100E+02    4.13100E+02    4.13100E+02
 1.70000E+01    4.00600E+02    4.00600E+02    4.00600E+02
 1.75000E+01    3.89268E+02    3.89268E+02    3.89268E+02
 1.80000E+01    3.77853E+02    3.77853E+02    3.77853E+02
 1.85000E+01    3.67274E+02    3.67274E+02    3.67274E+02
 1.90000E+01    3.56800E+02    3.56800E+02    3.56800E+02
 1.95000E+01    3.47095E+02    3.47095E+02    3.47095E+02
 2.00000E+01    3.37507E+02    3.37507E+02    3.37507E+02
