# n + Th228 : (n,n'29)  
# endfb8.0   O.Iwamoto, T.Nakagawa, et al.     EVAL-FEB10
# uncertainties: y
# # energies =    47
#   E(MeV)       xs(mb)       xslow(mb)      xsupp(mb)
 1.20585E+00    0.00000E+00    0.00000E+00    0.00000E+00
 1.30000E+00    2.75306E+01    1.97945E+01    3.52667E+01
 1.40000E+00    4.47258E+01    3.21579E+01    5.72938E+01
 1.50000E+00    5.39806E+01    3.88120E+01    6.91491E+01
 1.60000E+00    5.74914E+01    4.13363E+01    7.36465E+01
 1.70000E+00    5.82908E+01    4.19111E+01    7.46705E+01
 1.80000E+00    5.60405E+01    4.02931E+01    7.17879E+01
 1.90000E+00    5.26537E+01    3.78580E+01    6.74494E+01
 2.00000E+00    4.77610E+01    3.03281E+01    6.51939E+01
 2.30000E+00    3.32525E+01    2.11152E+01    4.53898E+01
 2.50000E+00    2.44452E+01    1.81134E+01    3.07770E+01
 2.70000E+00    1.74652E+01    1.29413E+01    2.19891E+01
 3.00000E+00    1.00983E+01    8.09877E+00    1.20978E+01
 3.50000E+00    3.74371E+00    3.20461E+00    4.28281E+00
 4.00000E+00    1.34054E+00    1.20245E+00    1.47863E+00
 4.50000E+00    5.24685E-01    4.70636E-01    5.78734E-01
 5.00000E+00    2.59684E-01    2.23583E-01    2.95785E-01
 5.50000E+00    1.65120E-01    1.42165E-01    1.88075E-01
 6.00000E+00    1.27843E-01    1.00994E-01    1.54692E-01
 6.50000E+00    1.08680E-01    8.58556E-02    1.31504E-01
 7.00000E+00    9.74319E-02    7.46302E-02    1.20234E-01
 7.50000E+00    8.89984E-02    6.81704E-02    1.09826E-01
 8.00000E+00    8.28038E-02    6.29306E-02    1.02677E-01
 8.50000E+00    7.73297E-02    5.87703E-02    9.58891E-02
 9.00000E+00    7.28252E-02    5.52739E-02    9.03765E-02
 9.50000E+00    6.85844E-02    5.20552E-02    8.51136E-02
 1.00000E+01    6.48383E-02    4.94699E-02    8.02067E-02
 1.05000E+01    6.14450E-02    4.68809E-02    7.60091E-02
 1.10000E+01    5.83499E-02    4.45194E-02    7.21804E-02
 1.15000E+01    5.51950E-02    4.21123E-02    6.82777E-02
 1.20000E+01    5.23437E-02    4.05656E-02    6.41218E-02
 1.25000E+01    4.99163E-02    3.86844E-02    6.11482E-02
 1.30000E+01    4.73729E-02    3.67133E-02    5.80325E-02
 1.35000E+01    4.51362E-02    3.49799E-02    5.52926E-02
 1.40000E+01    4.30907E-02    3.38256E-02    5.23558E-02
 1.45000E+01    4.12774E-02    3.24021E-02    5.01527E-02
 1.50000E+01    3.95423E-02    3.11986E-02    4.78860E-02
 1.55000E+01    3.77655E-02    2.97967E-02    4.57343E-02
 1.60000E+01    3.60465E-02    2.86207E-02    4.34723E-02
 1.65000E+01    3.45070E-02    2.73983E-02    4.16157E-02
 1.70000E+01    3.31744E-02    2.63403E-02    4.00085E-02
 1.75000E+01    3.19927E-02    2.54020E-02    3.85834E-02
 1.80000E+01    3.07436E-02    2.46252E-02    3.68620E-02
 1.85000E+01    2.95600E-02    2.36771E-02    3.54429E-02
 1.90000E+01    2.84420E-02    2.27816E-02    3.41024E-02
 1.95000E+01    2.74320E-02    2.19726E-02    3.28914E-02
 2.00000E+01    2.63608E-02    2.11146E-02    3.16070E-02
