# n + Sr 84 : (n,el)    
# endfb8.0   Herman,Oblozinsky,Mughabghab      EVAL-MAR06
# uncertainties: n
# # energies =   171
#   E(MeV)       xs(mb) 
 1.00000E-11    1.01033E+04
 1.00000E-07    5.45826E+03
 4.13990E-07    5.45463E+03
 5.31580E-07    5.45389E+03
 6.82560E-07    5.45327E+03
 8.76420E-07    5.45247E+03
 1.12540E-06    5.45145E+03
 1.44500E-06    5.45013E+03
 1.85540E-06    5.44846E+03
 2.37240E-06    5.44630E+03
 3.05900E-06    5.44362E+03
 3.92790E-06    5.44028E+03
 5.04350E-06    5.43600E+03
 6.47600E-06    5.43049E+03
 8.31530E-06    5.42343E+03
 1.06770E-05    5.41436E+03
 1.37100E-05    5.40272E+03
 1.76030E-05    5.38777E+03
 2.26030E-05    5.36829E+03
 2.92030E-05    5.34358E+03
 3.72670E-05    5.31226E+03
 4.78510E-05    5.27162E+03
 6.14420E-05    5.21546E+03
 7.88930E-05    5.13268E+03
 1.01300E-04    5.01855E+03
 1.30070E-04    4.83968E+03
 1.67020E-04    4.53359E+03
 2.14450E-04    3.88007E+03
 2.75360E-04    1.87596E+03
 3.53580E-04    1.46030E+05
 4.54000E-04    7.28189E+03
 5.82950E-04    2.17320E+04
 7.48520E-04    7.08589E+03
 9.61120E-04    6.46374E+03
 1.23410E-03    5.85735E+03
 1.58460E-03    8.81581E+03
 2.03470E-03    5.72753E+03
 2.24870E-03    1.04667E+04
 2.48520E-03    5.64411E+03
 2.61260E-03    5.19030E+03
 2.74650E-03    2.31952E+04
 3.03540E-03    1.78842E+04
 3.35460E-03    1.36484E+04
 3.70740E-03    9.23707E+03
 4.30740E-03    9.01682E+03
 5.53080E-03    8.77899E+03
 7.10170E-03    8.58566E+03
 9.11880E-03    8.43146E+03
 1.17090E-02    8.31554E+03
 1.50340E-02    8.23459E+03
 1.93050E-02    8.19258E+03
 2.18750E-02    8.17673E+03
 2.35790E-02    8.17017E+03
 2.41760E-02    8.16752E+03
 2.47880E-02    8.16380E+03
 2.60580E-02    8.16009E+03
 2.70000E-02    8.15694E+03
 2.85000E-02    8.15301E+03
 3.18280E-02    8.15080E+03
 3.43070E-02    8.15200E+03
 4.08680E-02    8.15787E+03
 4.63090E-02    8.16625E+03
 5.24750E-02    8.17468E+03
 5.65620E-02    8.18704E+03
 6.73790E-02    8.19999E+03
 7.20000E-02    8.20933E+03
 7.95000E-02    8.21713E+03
 8.25000E-02    8.22191E+03
 8.65170E-02    8.23160E+03
 9.80370E-02    8.24495E+03
 1.11090E-01    8.25357E+03
 1.16790E-01    8.25804E+03
 1.22770E-01    8.26208E+03
 1.29070E-01    8.26561E+03
 1.35690E-01    8.26900E+03
 1.42640E-01    8.27167E+03
 1.49960E-01    8.27359E+03
 1.57640E-01    8.27504E+03
 1.65730E-01    8.27563E+03
 1.74220E-01    8.27552E+03
 1.83160E-01    8.27450E+03
 1.92550E-01    8.27245E+03
 2.02420E-01    8.26901E+03
 2.12800E-01    8.26490E+03
 2.23710E-01    8.25964E+03
 2.35180E-01    8.25265E+03
 2.47240E-01    8.23952E+03
 2.73240E-01    8.22291E+03
 2.87250E-01    8.21279E+03
 2.94520E-01    8.20805E+03
 2.97200E-01    8.20616E+03
 2.98500E-01    8.20382E+03
 3.01970E-01    8.18475E+03
 3.33730E-01    8.14420E+03
 3.68830E-01    8.10722E+03
 3.87740E-01    8.07857E+03
 4.07620E-01    8.02916E+03
 4.50490E-01    7.95058E+03
 4.97870E-01    7.88220E+03
 5.23400E-01    7.83062E+03
 5.50230E-01    7.77438E+03
 5.78440E-01    7.71316E+03
 6.08100E-01    7.64635E+03
 6.39280E-01    7.57440E+03
 6.72060E-01    7.49620E+03
 7.06510E-01    7.41189E+03
 7.42740E-01    7.32135E+03
 7.80820E-01    7.15459E+03
 8.20850E-01    6.75921E+03
 8.62940E-01    6.35395E+03
 9.07180E-01    5.89127E+03
 9.61640E-01    5.44260E+03
 1.00260E+00    5.10633E+03
 1.10800E+00    4.85624E+03
 1.16480E+00    4.67791E+03
 1.22460E+00    4.49054E+03
 1.28730E+00    4.29355E+03
 1.35340E+00    4.08646E+03
 1.42270E+00    3.86179E+03
 1.49570E+00    3.63718E+03
 1.57240E+00    3.50330E+03
 1.65300E+00    3.36065E+03
 1.73770E+00    3.20598E+03
 1.82680E+00    3.00250E+03
 1.92050E+00    2.78303E+03
 2.01900E+00    2.69474E+03
 2.12250E+00    2.62223E+03
 2.23130E+00    2.54588E+03
 2.30690E+00    2.49588E+03
 2.34570E+00    2.46118E+03
 2.36530E+00    2.43643E+03
 2.38520E+00    2.36634E+03
 2.46600E+00    2.22047E+03
 2.59240E+00    2.14600E+03
 2.72530E+00    2.07574E+03
 2.86500E+00    2.00204E+03
 3.01190E+00    1.95463E+03
 3.16640E+00    1.92743E+03
 3.32870E+00    1.89301E+03
 3.67880E+00    1.89785E+03
 4.06570E+00    1.93671E+03
 4.49330E+00    1.97825E+03
 4.72370E+00    2.00784E+03
 4.96590E+00    2.05029E+03
 5.22050E+00    2.11404E+03
 5.48810E+00    2.18136E+03
 5.76950E+00    2.25150E+03
 6.06530E+00    2.30660E+03
 6.37630E+00    2.34739E+03
 6.59240E+00    2.37270E+03
 6.70320E+00    2.40739E+03
 7.04690E+00    2.44751E+03
 7.40820E+00    2.48097E+03
 7.78800E+00    2.51311E+03
 8.18730E+00    2.52536E+03
 8.60710E+00    2.53385E+03
 9.04840E+00    2.52539E+03
 9.51230E+00    2.50468E+03
 1.00000E+01    2.46942E+03
 1.05130E+01    2.41857E+03
 1.10520E+01    2.35448E+03
 1.16180E+01    2.28172E+03
 1.22140E+01    2.19782E+03
 1.28400E+01    2.10100E+03
 1.34990E+01    2.02998E+03
 1.38400E+01    1.98149E+03
 1.41910E+01    1.93314E+03
 1.45500E+01    1.88383E+03
 1.49180E+01    1.80893E+03
 1.56830E+01    1.70826E+03
 1.64870E+01    1.61005E+03
