# n + Sr 84 : (n,tot)   
# endfb8.0   Herman,Oblozinsky,Mughabghab      EVAL-MAR06
# uncertainties: n
# # energies =   171
#   E(MeV)       xs(mb) 
 1.00000E-11    1.89911E+04
 1.00000E-07    5.75435E+03
 4.13990E-07    5.64599E+03
 5.31580E-07    5.62286E+03
 6.82560E-07    5.60223E+03
 8.76420E-07    5.58381E+03
 1.12540E-06    5.56877E+03
 1.44500E-06    5.55345E+03
 1.85540E-06    5.54225E+03
 2.37240E-06    5.53171E+03
 3.05900E-06    5.51807E+03
 3.92790E-06    5.50478E+03
 5.04350E-06    5.49649E+03
 6.47600E-06    5.48608E+03
 8.31530E-06    5.47273E+03
 1.06770E-05    5.45636E+03
 1.37100E-05    5.44190E+03
 1.76030E-05    5.42480E+03
 2.26030E-05    5.40253E+03
 2.92030E-05    5.37428E+03
 3.72670E-05    5.33846E+03
 4.78510E-05    5.29199E+03
 6.14420E-05    5.23231E+03
 7.88930E-05    5.15440E+03
 1.01300E-04    5.03734E+03
 1.30070E-04    4.86210E+03
 1.67020E-04    4.56173E+03
 2.14450E-04    3.93230E+03
 2.75360E-04    2.42763E+03
 3.53580E-04    1.70457E+05
 4.54000E-04    8.13463E+03
 5.82950E-04    3.01789E+04
 7.48520E-04    7.09315E+03
 9.61120E-04    6.46373E+03
 1.23410E-03    5.86501E+03
 1.58460E-03    1.03977E+04
 2.03470E-03    6.03856E+03
 2.24870E-03    1.16132E+04
 2.48520E-03    5.64571E+03
 2.61260E-03    5.19382E+03
 2.74650E-03    2.42117E+04
 3.03540E-03    1.86026E+04
 3.35460E-03    1.44551E+04
 3.70740E-03    9.99556E+03
 4.30740E-03    9.72311E+03
 5.53080E-03    9.42629E+03
 7.10170E-03    9.17854E+03
 9.11880E-03    8.97152E+03
 1.17090E-02    8.80365E+03
 1.50340E-02    8.67173E+03
 1.93050E-02    8.59225E+03
 2.18750E-02    8.55692E+03
 2.35790E-02    8.54069E+03
 2.41760E-02    8.53337E+03
 2.47880E-02    8.52262E+03
 2.60580E-02    8.51096E+03
 2.70000E-02    8.49958E+03
 2.85000E-02    8.48094E+03
 3.18280E-02    8.46261E+03
 3.43070E-02    8.44325E+03
 4.08680E-02    8.42595E+03
 4.63090E-02    8.41663E+03
 5.24750E-02    8.41186E+03
 5.65620E-02    8.40921E+03
 6.73790E-02    8.40894E+03
 7.20000E-02    8.41007E+03
 7.95000E-02    8.41146E+03
 8.25000E-02    8.41257E+03
 8.65170E-02    8.41513E+03
 9.80370E-02    8.41910E+03
 1.11090E-01    8.42173E+03
 1.16790E-01    8.42301E+03
 1.22770E-01    8.42402E+03
 1.29070E-01    8.42469E+03
 1.35690E-01    8.42521E+03
 1.42640E-01    8.42519E+03
 1.49960E-01    8.42456E+03
 1.57640E-01    8.42348E+03
 1.65730E-01    8.42168E+03
 1.74220E-01    8.41920E+03
 1.83160E-01    8.41590E+03
 1.92550E-01    8.41164E+03
 2.02420E-01    8.40604E+03
 2.12800E-01    8.39971E+03
 2.23710E-01    8.39226E+03
 2.35180E-01    8.38318E+03
 2.47240E-01    8.36695E+03
 2.73240E-01    8.34733E+03
 2.87250E-01    8.33578E+03
 2.94520E-01    8.33038E+03
 2.97200E-01    8.32822E+03
 2.98500E-01    8.32557E+03
 3.01970E-01    8.30433E+03
 3.33730E-01    8.25998E+03
 3.68830E-01    8.22031E+03
 3.87740E-01    8.18996E+03
 4.07620E-01    8.13797E+03
 4.50490E-01    8.05627E+03
 4.97870E-01    7.98568E+03
 5.23400E-01    7.93266E+03
 5.50230E-01    7.87509E+03
 5.78440E-01    7.81265E+03
 6.08100E-01    7.74467E+03
 6.39280E-01    7.67159E+03
 6.72060E-01    7.59246E+03
 7.06510E-01    7.50725E+03
 7.42740E-01    7.41589E+03
 7.80820E-01    7.30091E+03
 8.20850E-01    7.04777E+03
 8.62940E-01    6.75397E+03
 9.07180E-01    6.41855E+03
 9.61640E-01    6.09328E+03
 1.00260E+00    5.84448E+03
 1.10800E+00    5.65562E+03
 1.16480E+00    5.52095E+03
 1.22460E+00    5.37947E+03
 1.28730E+00    5.23071E+03
 1.35340E+00    5.07432E+03
 1.42270E+00    4.90997E+03
 1.49570E+00    4.78097E+03
 1.57240E+00    4.70110E+03
 1.65300E+00    4.61734E+03
 1.73770E+00    4.52927E+03
 1.82680E+00    4.43665E+03
 1.92050E+00    4.34028E+03
 2.01900E+00    4.27704E+03
 2.12250E+00    4.23005E+03
 2.23130E+00    4.18912E+03
 2.30690E+00    4.16372E+03
 2.34570E+00    4.15077E+03
 2.36530E+00    4.14203E+03
 2.38520E+00    4.11983E+03
 2.46600E+00    4.07818E+03
 2.59240E+00    4.04308E+03
 2.72530E+00    4.00830E+03
 2.86500E+00    3.97173E+03
 3.01190E+00    3.94079E+03
 3.16640E+00    3.91793E+03
 3.32870E+00    3.88296E+03
 3.67880E+00    3.85157E+03
 4.06570E+00    3.85267E+03
 4.49330E+00    3.86622E+03
 4.72370E+00    3.87587E+03
 4.96590E+00    3.89304E+03
 5.22050E+00    3.93027E+03
 5.48810E+00    3.97047E+03
 5.76950E+00    4.01274E+03
 6.06530E+00    4.05774E+03
 6.37630E+00    4.09952E+03
 6.59240E+00    4.12574E+03
 6.70320E+00    4.16189E+03
 7.04690E+00    4.20873E+03
 7.40820E+00    4.24797E+03
 7.78800E+00    4.28561E+03
 8.18730E+00    4.29939E+03
 8.60710E+00    4.30865E+03
 9.04840E+00    4.30001E+03
 9.51230E+00    4.27845E+03
 1.00000E+01    4.24364E+03
 1.05130E+01    4.19463E+03
 1.10520E+01    4.13072E+03
 1.16180E+01    4.05361E+03
 1.22140E+01    3.96027E+03
 1.28400E+01    3.85630E+03
 1.34990E+01    3.77098E+03
 1.38400E+01    3.71202E+03
 1.41910E+01    3.65153E+03
 1.45500E+01    3.58959E+03
 1.49180E+01    3.49676E+03
 1.56830E+01    3.37404E+03
 1.64870E+01    3.25648E+03
