# n + Th230 : (n,n'25)  
# tendl.2019 A.J. Koning and D. Rochman        EVAL-NOV19
# uncertainties: n
# # energies =    70
#   E(MeV)       xs(mb) 
 1.05675E+00    0.00000E+00
 1.06997E+00    4.98520E+00
 1.08395E+00    1.02570E+01
 1.09378E+00    1.39639E+01
 1.11306E+00    2.12343E+01
 1.11803E+00    2.31084E+01
 1.20000E+00    5.40191E+01
 1.40000E+00    7.38959E+01
 1.60000E+00    6.95837E+01
 1.80000E+00    5.93925E+01
 2.00000E+00    4.81898E+01
 2.20000E+00    3.77554E+01
 2.40000E+00    2.89139E+01
 2.60000E+00    2.16734E+01
 2.80000E+00    1.59444E+01
 3.00000E+00    1.15358E+01
 3.20000E+00    8.22197E+00
 3.40000E+00    5.76104E+00
 3.60000E+00    3.98591E+00
 3.80000E+00    2.72822E+00
 4.00000E+00    1.86353E+00
 4.20000E+00    1.26116E+00
 4.40000E+00    8.42339E-01
 4.60000E+00    5.60838E-01
 4.80000E+00    3.72217E-01
 5.00000E+00    2.46806E-01
 5.20000E+00    1.64272E-01
 5.40000E+00    1.09158E-01
 5.60000E+00    7.28583E-02
 5.80000E+00    4.85608E-02
 6.00000E+00    3.24946E-02
 6.20000E+00    2.06920E-02
 6.40000E+00    1.30998E-02
 6.60000E+00    8.46357E-03
 6.80000E+00    5.57567E-03
 7.00000E+00    3.85372E-03
 7.20000E+00    2.65912E-03
 7.40000E+00    1.86289E-03
 7.60000E+00    1.30525E-03
 7.80000E+00    8.97055E-04
 8.00000E+00    6.20759E-04
 8.50000E+00    2.38697E-04
 9.00000E+00    9.18246E-05
 9.50000E+00    3.57379E-05
 1.00000E+01    1.42820E-05
 1.05000E+01    5.90313E-06
 1.10000E+01    2.50754E-06
 1.15000E+01    1.09601E-06
 1.20000E+01    4.90930E-07
 1.25000E+01    2.26560E-07
 1.30000E+01    1.06720E-07
 1.35000E+01    5.13900E-08
 1.40000E+01    2.51600E-08
 1.45000E+01    1.25540E-08
 1.50000E+01    6.36610E-09
 1.60000E+01    1.71920E-09
 1.70000E+01    4.83200E-10
 1.80000E+01    1.44520E-10
 1.90000E+01    4.54130E-11
 2.00000E+01    1.50150E-11
 2.10000E+01    5.29960E-12
 2.20000E+01    1.96210E-12
 2.30000E+01    7.61060E-13
 2.40000E+01    3.09750E-13
 2.50000E+01    1.32290E-13
 2.60000E+01    5.95100E-14
 2.70000E+01    2.82240E-14
 2.80000E+01    1.40460E-14
 2.90000E+01    7.33550E-15
 3.00000E+01    4.01370E-15
