# n + Th230 : (n,n'13)  
# tendl.2019 A.J. Koning and D. Rochman        EVAL-NOV19
# uncertainties: n
# # energies =    84
#   E(MeV)       xs(mb) 
 8.29284E-01    0.00000E+00
 8.55877E-01    2.12578E+01
 8.83156E-01    4.30641E+01
 8.87474E-01    4.65158E+01
 9.00000E-01    5.65288E+01
 9.26997E-01    6.95066E+01
 9.56072E-01    8.34833E+01
 9.59228E-01    8.50004E+01
 9.75987E-01    9.30567E+01
 1.00000E+00    1.04600E+02
 1.01403E+00    1.05537E+02
 1.01690E+00    1.05729E+02
 1.02648E+00    1.06369E+02
 1.04401E+00    1.07541E+02
 1.05675E+00    1.08392E+02
 1.06997E+00    1.09275E+02
 1.08395E+00    1.10210E+02
 1.09378E+00    1.10866E+02
 1.11306E+00    1.12155E+02
 1.11803E+00    1.12487E+02
 1.20000E+00    1.17964E+02
 1.40000E+00    1.06303E+02
 1.60000E+00    8.98513E+01
 1.80000E+00    7.32127E+01
 2.00000E+00    5.78622E+01
 2.20000E+00    4.44950E+01
 2.40000E+00    3.35416E+01
 2.60000E+00    2.47776E+01
 2.80000E+00    1.79753E+01
 3.00000E+00    1.28319E+01
 3.20000E+00    9.03292E+00
 3.40000E+00    6.26006E+00
 3.60000E+00    4.29120E+00
 3.80000E+00    2.93872E+00
 4.00000E+00    1.99221E+00
 4.20000E+00    1.33208E+00
 4.40000E+00    8.86275E-01
 4.60000E+00    5.87606E-01
 4.80000E+00    3.88523E-01
 5.00000E+00    2.56735E-01
 5.20000E+00    1.70345E-01
 5.40000E+00    1.12864E-01
 5.60000E+00    7.51166E-02
 5.80000E+00    4.99385E-02
 6.00000E+00    3.33370E-02
 6.20000E+00    2.11815E-02
 6.40000E+00    1.33836E-02
 6.60000E+00    8.63580E-03
 6.80000E+00    5.68090E-03
 7.00000E+00    3.92320E-03
 7.20000E+00    2.70545E-03
 7.40000E+00    1.89408E-03
 7.60000E+00    1.32690E-03
 7.80000E+00    9.11597E-04
 8.00000E+00    6.30688E-04
 8.50000E+00    2.42402E-04
 9.00000E+00    9.31980E-05
 9.50000E+00    3.62464E-05
 1.00000E+01    1.44731E-05
 1.05000E+01    5.97693E-06
 1.10000E+01    2.53681E-06
 1.15000E+01    1.10798E-06
 1.20000E+01    4.95960E-07
 1.25000E+01    2.28750E-07
 1.30000E+01    1.07700E-07
 1.35000E+01    5.18370E-08
 1.40000E+01    2.53690E-08
 1.45000E+01    1.26540E-08
 1.50000E+01    6.41460E-09
 1.60000E+01    1.73130E-09
 1.70000E+01    4.86360E-10
 1.80000E+01    1.45400E-10
 1.90000E+01    4.56710E-11
 2.00000E+01    1.50950E-11
 2.10000E+01    5.32640E-12
 2.20000E+01    1.97150E-12
 2.30000E+01    7.64520E-13
 2.40000E+01    3.11090E-13
 2.50000E+01    1.32830E-13
 2.60000E+01    5.97420E-14
 2.70000E+01    2.83300E-14
 2.80000E+01    1.40960E-14
 2.90000E+01    7.36070E-15
 3.00000E+01    4.02700E-15
