# n + Th230 : (n,n'19)  
# tendl.2019 A.J. Koning and D. Rochman        EVAL-NOV19
# uncertainties: n
# # energies =    77
#   E(MeV)       xs(mb) 
 9.59228E-01    0.00000E+00
 9.75987E-01    1.39506E+00
 1.00000E+00    3.39395E+00
 1.01403E+00    4.42103E+00
 1.01690E+00    4.63112E+00
 1.02648E+00    5.33244E+00
 1.04401E+00    6.61574E+00
 1.05675E+00    7.54838E+00
 1.06997E+00    8.51616E+00
 1.08395E+00    9.53958E+00
 1.09378E+00    1.02592E+01
 1.11306E+00    1.16706E+01
 1.11803E+00    1.20344E+01
 1.20000E+00    1.80351E+01
 1.40000E+00    2.28233E+01
 1.60000E+00    2.36144E+01
 1.80000E+00    2.25142E+01
 2.00000E+00    2.03507E+01
 2.20000E+00    1.75945E+01
 2.40000E+00    1.46850E+01
 2.60000E+00    1.18483E+01
 2.80000E+00    9.28137E+00
 3.00000E+00    7.08826E+00
 3.20000E+00    5.31235E+00
 3.40000E+00    3.88169E+00
 3.60000E+00    2.78979E+00
 3.80000E+00    1.97999E+00
 4.00000E+00    1.40587E+00
 4.20000E+00    9.74489E-01
 4.40000E+00    6.69742E-01
 4.60000E+00    4.57263E-01
 4.80000E+00    3.10491E-01
 5.00000E+00    2.10168E-01
 5.20000E+00    1.42533E-01
 5.40000E+00    9.63539E-02
 5.60000E+00    6.53319E-02
 5.80000E+00    4.41876E-02
 6.00000E+00    2.99813E-02
 6.20000E+00    1.93432E-02
 6.40000E+00    1.24007E-02
 6.60000E+00    8.11200E-03
 6.80000E+00    5.40838E-03
 7.00000E+00    3.78207E-03
 7.20000E+00    2.64073E-03
 7.40000E+00    1.87095E-03
 7.60000E+00    1.32558E-03
 7.80000E+00    9.20788E-04
 8.00000E+00    6.43767E-04
 8.50000E+00    2.53569E-04
 9.00000E+00    9.96500E-05
 9.50000E+00    3.95169E-05
 1.00000E+01    1.60534E-05
 1.05000E+01    6.73198E-06
 1.10000E+01    2.89666E-06
 1.15000E+01    1.28080E-06
 1.20000E+01    5.79710E-07
 1.25000E+01    2.70080E-07
 1.30000E+01    1.28330E-07
 1.35000E+01    6.22870E-08
 1.40000E+01    3.07200E-08
 1.45000E+01    1.54330E-08
 1.50000E+01    7.87610E-09
 1.60000E+01    2.15160E-09
 1.70000E+01    6.10910E-10
 1.80000E+01    1.84380E-10
 1.90000E+01    5.84120E-11
 2.00000E+01    1.94560E-11
 2.10000E+01    6.91350E-12
 2.20000E+01    2.57520E-12
 2.30000E+01    1.00440E-12
 2.40000E+01    4.10810E-13
 2.50000E+01    1.76240E-13
 2.60000E+01    7.96120E-14
 2.70000E+01    3.79050E-14
 2.80000E+01    1.89320E-14
 2.90000E+01    9.92090E-15
 3.00000E+01    5.44560E-15
