# n + Th230 : (n,n'20)  
# tendl.2019 A.J. Koning and D. Rochman        EVAL-NOV19
# uncertainties: n
# # energies =    76
#   E(MeV)       xs(mb) 
 9.75987E-01    0.00000E+00
 1.00000E+00    2.55140E+01
 1.01403E+00    3.05480E+01
 1.01690E+00    3.15778E+01
 1.02648E+00    3.50151E+01
 1.04401E+00    4.13049E+01
 1.05675E+00    4.58761E+01
 1.06997E+00    5.06194E+01
 1.08395E+00    5.56355E+01
 1.09378E+00    5.91625E+01
 1.11306E+00    6.60803E+01
 1.11803E+00    6.78635E+01
 1.20000E+00    9.72746E+01
 1.40000E+00    9.69707E+01
 1.60000E+00    8.26725E+01
 1.80000E+00    6.59460E+01
 2.00000E+00    5.05076E+01
 2.20000E+00    3.76048E+01
 2.40000E+00    2.75531E+01
 2.60000E+00    1.98984E+01
 2.80000E+00    1.41979E+01
 3.00000E+00    1.00225E+01
 3.20000E+00    7.00313E+00
 3.40000E+00    4.83290E+00
 3.60000E+00    3.30613E+00
 3.80000E+00    2.24526E+00
 4.00000E+00    1.53369E+00
 4.20000E+00    1.02661E+00
 4.40000E+00    6.83842E-01
 4.60000E+00    4.54139E-01
 4.80000E+00    3.00921E-01
 5.00000E+00    1.99394E-01
 5.20000E+00    1.32725E-01
 5.40000E+00    8.82629E-02
 5.60000E+00    5.89866E-02
 5.80000E+00    3.93838E-02
 6.00000E+00    2.64058E-02
 6.20000E+00    1.68498E-02
 6.40000E+00    1.06889E-02
 6.60000E+00    6.91982E-03
 6.80000E+00    4.56580E-03
 7.00000E+00    3.15938E-03
 7.20000E+00    2.18221E-03
 7.40000E+00    1.52931E-03
 7.60000E+00    1.07160E-03
 7.80000E+00    7.36160E-04
 8.00000E+00    5.09005E-04
 8.50000E+00    1.95112E-04
 9.00000E+00    7.47371E-05
 9.50000E+00    2.89513E-05
 1.00000E+01    1.15166E-05
 1.05000E+01    4.73976E-06
 1.10000E+01    2.00562E-06
 1.15000E+01    8.73640E-07
 1.20000E+01    3.90140E-07
 1.25000E+01    1.79570E-07
 1.30000E+01    8.43890E-08
 1.35000E+01    4.05510E-08
 1.40000E+01    1.98160E-08
 1.45000E+01    9.87010E-09
 1.50000E+01    4.99670E-09
 1.60000E+01    1.34500E-09
 1.70000E+01    3.76760E-10
 1.80000E+01    1.12310E-10
 1.90000E+01    3.51870E-11
 2.00000E+01    1.16040E-11
 2.10000E+01    4.08640E-12
 2.20000E+01    1.51000E-12
 2.30000E+01    5.84620E-13
 2.40000E+01    2.37530E-13
 2.50000E+01    1.01280E-13
 2.60000E+01    4.54920E-14
 2.70000E+01    2.15450E-14
 2.80000E+01    1.07080E-14
 2.90000E+01    5.58510E-15
 3.00000E+01    3.05240E-15
