# n + Te120 : (n,n'06)  
# jeff3.3    A.J. Koning and D. Rochman        EVAL-DEC15
# uncertainties: n
# # energies =    86
#   E(MeV)       xs(mb) 
 1.62697E+00    0.00000E+00
 1.79117E+00    5.26285E+01
 1.80000E+00    5.54586E+01
 1.83039E+00    5.79731E+01
 1.87896E+00    6.19918E+01
 1.94059E+00    6.70912E+01
 1.95289E+00    6.81089E+01
 2.00000E+00    7.20068E+01
 2.10058E+00    7.38542E+01
 2.20000E+00    7.56802E+01
 2.22000E+00    7.56397E+01
 2.37784E+00    7.53203E+01
 2.40000E+00    7.52754E+01
 2.44348E+00    7.39899E+01
 2.44853E+00    7.38406E+01
 2.46617E+00    7.33191E+01
 2.47646E+00    7.30149E+01
 2.48208E+00    7.28488E+01
 2.54110E+00    7.11039E+01
 2.58890E+00    6.96907E+01
 2.60000E+00    6.93625E+01
 2.63478E+00    6.78634E+01
 2.67529E+00    6.61172E+01
 2.71253E+00    6.45121E+01
 2.77162E+00    6.19651E+01
 2.80000E+00    6.07418E+01
 2.83092E+00    5.91685E+01
 2.85919E+00    5.77300E+01
 2.90184E+00    5.55598E+01
 2.92359E+00    5.44530E+01
 2.96151E+00    5.25235E+01
 3.00000E+00    5.05650E+01
 3.20000E+00    3.86108E+01
 3.40000E+00    2.75516E+01
 3.60000E+00    1.90138E+01
 3.80000E+00    1.29791E+01
 4.00000E+00    8.87824E+00
 4.20000E+00    6.12905E+00
 4.40000E+00    4.28520E+00
 4.60000E+00    3.03440E+00
 4.80000E+00    2.17350E+00
 5.00000E+00    1.57244E+00
 5.20000E+00    1.14626E+00
 5.40000E+00    8.40412E-01
 5.60000E+00    6.18975E-01
 5.80000E+00    4.57376E-01
 6.00000E+00    3.38923E-01
 6.20000E+00    2.51838E-01
 6.40000E+00    1.87517E-01
 6.60000E+00    1.39144E-01
 6.80000E+00    1.03893E-01
 7.00000E+00    7.79054E-02
 7.20000E+00    5.85217E-02
 7.40000E+00    4.42285E-02
 7.60000E+00    3.35001E-02
 7.80000E+00    2.54156E-02
 8.00000E+00    1.94300E-02
 8.50000E+00    1.00360E-02
 9.00000E+00    5.30370E-03
 9.50000E+00    2.86180E-03
 1.00000E+01    1.57435E-03
 1.05000E+01    8.80156E-04
 1.10000E+01    4.98049E-04
 1.15000E+01    2.84105E-04
 1.20000E+01    1.63269E-04
 1.25000E+01    9.45470E-05
 1.30000E+01    5.51684E-05
 1.35000E+01    3.24548E-05
 1.40000E+01    1.92527E-05
 1.45000E+01    1.15154E-05
 1.50000E+01    6.94245E-06
 1.60000E+01    2.58136E-06
 1.70000E+01    9.89080E-07
 1.80000E+01    3.90720E-07
 1.90000E+01    1.58620E-07
 2.00000E+01    6.56360E-08
 2.10000E+01    2.80100E-08
 2.20000E+01    1.21580E-08
 2.30000E+01    5.37140E-09
 2.40000E+01    2.41040E-09
 2.50000E+01    1.09240E-09
 2.60000E+01    5.01470E-10
 2.70000E+01    2.33450E-10
 2.80000E+01    1.10050E-10
 2.90000E+01    5.25720E-11
 3.00000E+01    2.54290E-11
