# n + Te120 : (n,n'14)  
# jeff3.3    A.J. Koning and D. Rochman        EVAL-DEC15
# uncertainties: n
# # energies =    75
#   E(MeV)       xs(mb) 
 2.37784E+00    0.00000E+00
 2.40000E+00    5.73519E+00
 2.44348E+00    1.05611E+01
 2.44853E+00    1.11216E+01
 2.46617E+00    1.30795E+01
 2.47646E+00    1.42216E+01
 2.48208E+00    1.48454E+01
 2.54110E+00    2.13962E+01
 2.58890E+00    2.67016E+01
 2.60000E+00    2.79336E+01
 2.63478E+00    3.00373E+01
 2.67529E+00    3.24876E+01
 2.71253E+00    3.47401E+01
 2.77162E+00    3.83142E+01
 2.80000E+00    4.00308E+01
 2.83092E+00    4.14006E+01
 2.85919E+00    4.26530E+01
 2.90184E+00    4.45425E+01
 2.92359E+00    4.55060E+01
 2.96151E+00    4.71859E+01
 3.00000E+00    4.88911E+01
 3.20000E+00    4.89095E+01
 3.40000E+00    4.27263E+01
 3.60000E+00    3.41846E+01
 3.80000E+00    2.59531E+01
 4.00000E+00    1.92531E+01
 4.20000E+00    1.41524E+01
 4.40000E+00    1.03908E+01
 4.60000E+00    7.64497E+00
 4.80000E+00    5.64574E+00
 5.00000E+00    4.18984E+00
 5.20000E+00    3.12482E+00
 5.40000E+00    2.34233E+00
 5.60000E+00    1.76496E+00
 5.80000E+00    1.33628E+00
 6.00000E+00    1.01614E+00
 6.20000E+00    7.75602E-01
 6.40000E+00    5.93936E-01
 6.60000E+00    4.53369E-01
 6.80000E+00    3.48202E-01
 7.00000E+00    2.68490E-01
 7.20000E+00    2.07259E-01
 7.40000E+00    1.60730E-01
 7.60000E+00    1.24832E-01
 7.80000E+00    9.69770E-02
 8.00000E+00    7.58048E-02
 8.50000E+00    4.11914E-02
 9.00000E+00    2.27417E-02
 9.50000E+00    1.27436E-02
 1.00000E+01    7.24495E-03
 1.05000E+01    4.16955E-03
 1.10000E+01    2.42200E-03
 1.15000E+01    1.41546E-03
 1.20000E+01    8.32029E-04
 1.25000E+01    4.92027E-04
 1.30000E+01    2.92657E-04
 1.35000E+01    1.75171E-04
 1.40000E+01    1.05540E-04
 1.45000E+01    6.40129E-05
 1.50000E+01    3.90820E-05
 1.60000E+01    1.48518E-05
 1.70000E+01    5.79422E-06
 1.80000E+01    2.32369E-06
 1.90000E+01    9.55220E-07
 2.00000E+01    3.99220E-07
 2.10000E+01    1.71640E-07
 2.20000E+01    7.49340E-08
 2.30000E+01    3.32830E-08
 2.40000E+01    1.50310E-08
 2.50000E+01    6.86480E-09
 2.60000E+01    3.17890E-09
 2.70000E+01    1.49250E-09
 2.80000E+01    7.08850E-10
 2.90000E+01    3.40690E-10
 3.00000E+01    1.65560E-10
