# n + Te120 : (n,n'18)  
# jeff3.3    A.J. Koning and D. Rochman        EVAL-DEC15
# uncertainties: n
# # energies =    70
#   E(MeV)       xs(mb) 
 2.47646E+00    0.00000E+00
 2.48208E+00    1.52980E+00
 2.54110E+00    1.75955E+01
 2.58890E+00    3.06070E+01
 2.60000E+00    3.36284E+01
 2.63478E+00    3.71020E+01
 2.67529E+00    4.11479E+01
 2.71253E+00    4.48672E+01
 2.77162E+00    5.07687E+01
 2.80000E+00    5.36031E+01
 2.83092E+00    5.45601E+01
 2.85919E+00    5.54351E+01
 2.90184E+00    5.67551E+01
 2.92359E+00    5.74283E+01
 2.96151E+00    5.86019E+01
 3.00000E+00    5.97932E+01
 3.20000E+00    5.56597E+01
 3.40000E+00    4.56717E+01
 3.60000E+00    3.46932E+01
 3.80000E+00    2.49502E+01
 4.00000E+00    1.76472E+01
 4.20000E+00    1.24286E+01
 4.40000E+00    8.79117E+00
 4.60000E+00    6.26763E+00
 4.80000E+00    4.50890E+00
 5.00000E+00    3.27445E+00
 5.20000E+00    2.39858E+00
 5.40000E+00    1.77087E+00
 5.60000E+00    1.31687E+00
 5.80000E+00    9.85222E-01
 6.00000E+00    7.40787E-01
 6.20000E+00    5.59165E-01
 6.40000E+00    4.23347E-01
 6.60000E+00    3.19353E-01
 6.80000E+00    2.42190E-01
 7.00000E+00    1.84320E-01
 7.20000E+00    1.40336E-01
 7.40000E+00    1.07299E-01
 7.60000E+00    8.21200E-02
 7.80000E+00    6.28606E-02
 8.00000E+00    4.84059E-02
 8.50000E+00    2.53466E-02
 9.00000E+00    1.35073E-02
 9.50000E+00    7.32590E-03
 1.00000E+01    4.04432E-03
 1.05000E+01    2.26776E-03
 1.10000E+01    1.28726E-03
 1.15000E+01    7.36989E-04
 1.20000E+01    4.25337E-04
 1.25000E+01    2.47470E-04
 1.30000E+01    1.45110E-04
 1.35000E+01    8.57867E-05
 1.40000E+01    5.11362E-05
 1.45000E+01    3.07300E-05
 1.50000E+01    1.86109E-05
 1.60000E+01    6.97500E-06
 1.70000E+01    2.68661E-06
 1.80000E+01    1.06343E-06
 1.90000E+01    4.31380E-07
 2.00000E+01    1.78060E-07
 2.10000E+01    7.57650E-08
 2.20000E+01    3.28220E-08
 2.30000E+01    1.44990E-08
 2.40000E+01    6.51890E-09
 2.50000E+01    2.96420E-09
 2.60000E+01    1.36560E-09
 2.70000E+01    6.37520E-10
 2.80000E+01    3.00990E-10
 2.90000E+01    1.43850E-10
 3.00000E+01    6.95690E-11
