# n + Ce138 : (n,n'11)  
# jeff3.3    A.J. Koning and D. Rochman        EVAL-DEC15
# uncertainties: n
# # energies =    78
#   E(MeV)       xs(mb) 
 2.35696E+00    0.00000E+00
 2.40000E+00    1.38013E+01
 2.41134E+00    1.45471E+01
 2.41361E+00    1.46964E+01
 2.46155E+00    1.78494E+01
 2.48906E+00    1.96587E+01
 2.51701E+00    2.14969E+01
 2.54448E+00    2.33036E+01
 2.60000E+00    2.69551E+01
 2.61175E+00    2.73216E+01
 2.66173E+00    2.88806E+01
 2.73889E+00    3.12875E+01
 2.75328E+00    3.17364E+01
 2.76866E+00    3.22161E+01
 2.78506E+00    3.27277E+01
 2.80000E+00    3.31937E+01
 2.90610E+00    3.50072E+01
 2.92035E+00    3.52508E+01
 2.92444E+00    3.53207E+01
 2.92845E+00    3.53892E+01
 2.96352E+00    3.59887E+01
 2.97198E+00    3.61333E+01
 3.00000E+00    3.66122E+01
 3.01760E+00    3.63153E+01
 3.20000E+00    3.32377E+01
 3.40000E+00    2.68042E+01
 3.60000E+00    2.01970E+01
 3.80000E+00    1.45346E+01
 4.00000E+00    1.02007E+01
 4.20000E+00    7.10739E+00
 4.40000E+00    4.97366E+00
 4.60000E+00    3.51597E+00
 4.80000E+00    2.51462E+00
 5.00000E+00    1.81847E+00
 5.20000E+00    1.32793E+00
 5.40000E+00    9.77138E-01
 5.60000E+00    7.23669E-01
 5.80000E+00    5.38520E-01
 6.00000E+00    4.02229E-01
 6.20000E+00    3.00703E-01
 6.40000E+00    2.25414E-01
 6.60000E+00    1.69335E-01
 6.80000E+00    1.27472E-01
 7.00000E+00    9.62126E-02
 7.20000E+00    7.28482E-02
 7.40000E+00    5.53015E-02
 7.60000E+00    4.21927E-02
 7.80000E+00    3.22509E-02
 8.00000E+00    2.48212E-02
 8.50000E+00    1.31060E-02
 9.00000E+00    7.09816E-03
 9.50000E+00    3.92703E-03
 1.00000E+01    2.20812E-03
 1.05000E+01    1.25307E-03
 1.10000E+01    7.14301E-04
 1.15000E+01    4.08540E-04
 1.20000E+01    2.34658E-04
 1.25000E+01    1.35563E-04
 1.30000E+01    7.88836E-05
 1.35000E+01    4.62832E-05
 1.40000E+01    2.74057E-05
 1.45000E+01    1.63813E-05
 1.50000E+01    9.88394E-06
 1.60000E+01    3.69199E-06
 1.70000E+01    1.42120E-06
 1.80000E+01    5.60910E-07
 1.90000E+01    2.26040E-07
 2.00000E+01    9.23600E-08
 2.10000E+01    3.86040E-08
 2.20000E+01    1.64340E-08
 2.30000E+01    7.12920E-09
 2.40000E+01    3.14770E-09
 2.50000E+01    1.41400E-09
 2.60000E+01    6.46650E-10
 2.70000E+01    3.00570E-10
 2.80000E+01    1.41670E-10
 2.90000E+01    6.75560E-11
 3.00000E+01    3.25240E-11
