# n + Ce138 : (n,n'15)  
# jeff3.3    A.J. Koning and D. Rochman        EVAL-DEC15
# uncertainties: n
# # energies =    73
#   E(MeV)       xs(mb) 
 2.48906E+00    0.00000E+00
 2.51701E+00    1.06416E+01
 2.54448E+00    2.11005E+01
 2.60000E+00    4.22389E+01
 2.61175E+00    4.33049E+01
 2.66173E+00    4.78393E+01
 2.73889E+00    5.48395E+01
 2.75328E+00    5.61450E+01
 2.76866E+00    5.75403E+01
 2.78506E+00    5.90282E+01
 2.80000E+00    6.03836E+01
 2.90610E+00    6.52511E+01
 2.92035E+00    6.59048E+01
 2.92444E+00    6.60925E+01
 2.92845E+00    6.62765E+01
 2.96352E+00    6.78853E+01
 2.97198E+00    6.82734E+01
 3.00000E+00    6.95589E+01
 3.01760E+00    6.92579E+01
 3.20000E+00    6.61390E+01
 3.40000E+00    5.66769E+01
 3.60000E+00    4.53831E+01
 3.80000E+00    3.43817E+01
 4.00000E+00    2.50821E+01
 4.20000E+00    1.79476E+01
 4.40000E+00    1.27720E+01
 4.60000E+00    9.11747E+00
 4.80000E+00    6.55375E+00
 5.00000E+00    4.75037E+00
 5.20000E+00    3.47250E+00
 5.40000E+00    2.55674E+00
 5.60000E+00    1.89488E+00
 5.80000E+00    1.41172E+00
 6.00000E+00    1.05624E+00
 6.20000E+00    7.91382E-01
 6.40000E+00    5.94738E-01
 6.60000E+00    4.47930E-01
 6.80000E+00    3.38017E-01
 7.00000E+00    2.55615E-01
 7.20000E+00    1.93873E-01
 7.40000E+00    1.47393E-01
 7.60000E+00    1.12455E-01
 7.80000E+00    8.59805E-02
 8.00000E+00    6.61297E-02
 8.50000E+00    3.48147E-02
 9.00000E+00    1.87809E-02
 9.50000E+00    1.03581E-02
 1.00000E+01    5.81895E-03
 1.05000E+01    3.30828E-03
 1.10000E+01    1.89416E-03
 1.15000E+01    1.09020E-03
 1.20000E+01    6.30867E-04
 1.25000E+01    3.67319E-04
 1.30000E+01    2.15360E-04
 1.35000E+01    1.27205E-04
 1.40000E+01    7.57285E-05
 1.45000E+01    4.54390E-05
 1.50000E+01    2.74774E-05
 1.60000E+01    1.02679E-05
 1.70000E+01    3.94139E-06
 1.80000E+01    1.55013E-06
 1.90000E+01    6.23300E-07
 2.00000E+01    2.54760E-07
 2.10000E+01    1.06790E-07
 2.20000E+01    4.56560E-08
 2.30000E+01    1.98800E-08
 2.40000E+01    8.79410E-09
 2.50000E+01    3.94930E-09
 2.60000E+01    1.80220E-09
 2.70000E+01    8.35130E-10
 2.80000E+01    3.92510E-10
 2.90000E+01    1.86840E-10
 3.00000E+01    8.99280E-11
