# n + Sn  0 : (n,xa)
# jendl4.0   N.Iwamoto,K.Shibata               EVAL-Dec09
#
# # energies =   111
#   E(MeV)          xs(mb) 
 1.05000E-01    3.99715E-06
 1.10000E-01    3.98292E-06
 1.20000E-01    3.97102E-06
 1.30000E-01    3.98115E-06
 1.40000E-01    4.00551E-06
 1.50000E-01    4.04092E-06
 1.60000E-01    4.07885E-06
 1.70000E-01    4.09254E-06
 1.80000E-01    4.13463E-06
 1.90000E-01    4.19000E-06
 2.00000E-01    4.25272E-06
 2.25000E-01    4.51487E-06
 2.50000E-01    4.82208E-06
 2.75000E-01    5.16647E-06
 3.00000E-01    5.54298E-06
 4.00000E-01    7.67888E-06
 5.00000E-01    1.08232E-05
 6.00000E-01    1.37822E-05
 7.00000E-01    1.86559E-05
 8.00000E-01    2.59770E-05
 9.00000E-01    3.64414E-05
 1.00000E+00    5.09750E-05
 1.10000E+00    6.98542E-05
 1.20000E+00    9.65310E-05
 1.30000E+00    1.15688E-04
 1.30482E+00    1.16619E-04
 1.40000E+00    1.35080E-04
 1.50000E+00    1.69482E-04
 1.60000E+00    2.13746E-04
 1.70000E+00    2.72342E-04
 1.77215E+00    3.27575E-04
 1.80000E+00    3.48895E-04
 1.90000E+00    4.48693E-04
 2.00000E+00    5.78637E-04
 2.04512E+00    6.56230E-04
 2.13070E+00    8.04104E-04
 2.24475E+00    9.79862E-04
 2.25000E+00    9.88432E-04
 2.28588E+00    1.04790E-03
 2.38657E+00    1.21196E-03
 2.41169E+00    1.25455E-03
 2.50000E+00    1.40111E-03
 2.55121E+00    1.48448E-03
 2.56786E+00    1.51446E-03
 2.60806E+00    1.57910E-03
 2.67351E+00    1.70177E-03
 2.75000E+00    1.86862E-03
 2.79747E+00    1.99406E-03
 2.81484E+00    2.03340E-03
 2.82566E+00    2.06186E-03
 2.86857E+00    2.17489E-03
 2.93416E+00    2.34464E-03
 2.93417E+00    2.34467E-03
 2.98579E+00    2.48914E-03
 3.00000E+00    2.50661E-03
 3.02235E+00    2.56579E-03
 3.04269E+00    2.63321E-03
 3.05909E+00    2.68758E-03
 3.07291E+00    2.73337E-03
 3.11551E+00    2.87507E-03
 3.12388E+00    2.90267E-03
 3.13220E+00    2.92846E-03
 3.18521E+00    3.15606E-03
 3.20735E+00    3.25259E-03
 3.21171E+00    3.27161E-03
 3.22212E+00    3.31714E-03
 3.23794E+00    3.38640E-03
 3.25554E+00    3.46307E-03
 3.25604E+00    3.46529E-03
 3.25615E+00    3.46577E-03
 3.26418E+00    3.50073E-03
 3.28602E+00    3.59631E-03
 3.30612E+00    3.68461E-03
 3.31761E+00    3.73510E-03
 3.33780E+00    3.82387E-03
 3.34384E+00    3.85042E-03
 3.36279E+00    3.93385E-03
 3.50000E+00    4.53881E-03
 4.00000E+00    7.80628E-03
 4.50000E+00    1.28703E-02
 5.00000E+00    2.00142E-02
 5.50000E+00    2.92554E-02
 6.00000E+00    4.07488E-02
 6.50000E+00    5.34921E-02
 7.00000E+00    6.77996E-02
 7.50000E+00    8.37584E-02
 8.00000E+00    1.02422E-01
 8.50000E+00    1.23476E-01
 9.00000E+00    1.54372E-01
 9.50000E+00    1.96436E-01
 1.00000E+01    2.55434E-01
 1.05000E+01    3.37311E-01
 1.10000E+01    4.49050E-01
 1.15000E+01    5.89819E-01
 1.20000E+01    7.64380E-01
 1.25000E+01    9.85601E-01
 1.30000E+01    1.26240E+00
 1.35000E+01    1.60429E+00
 1.40000E+01    2.01947E+00
 1.45000E+01    2.51429E+00
 1.50000E+01    3.09510E+00
 1.55000E+01    3.76179E+00
 1.60000E+01    4.51875E+00
 1.65000E+01    5.36170E+00
 1.70000E+01    6.29309E+00
 1.75000E+01    7.30091E+00
 1.80000E+01    8.39078E+00
 1.85000E+01    9.54882E+00
 1.90000E+01    1.07810E+01
 1.95000E+01    1.20740E+01
 2.00000E+01    1.34352E+01
