# n + As 75 : (n,g)     
# jendl4.0   K.Shibata, G.Chiba, A.Ichihara+   EVAL-APR09
# uncertainties: n
# # energies =    69
#   E(MeV)       xs(mb) 
 1.00000E-10    2.89722E+04
 5.00000E-09    7.88944E+03
 1.00000E-08    5.97559E+03
 1.50000E-08    5.02106E+03
 2.00000E-08    4.41796E+03
 2.50000E-08    3.99172E+03
 3.00000E-08    3.66961E+03
 3.50000E-08    3.37421E+03
 4.20000E-08    3.08667E+03
 5.00000E-08    2.84752E+03
 5.80000E-08    2.64694E+03
 6.70000E-08    2.44314E+03
 8.00000E-08    2.21141E+03
 1.00000E-07    1.92488E+03
 1.40000E-07    1.66204E+03
 1.80000E-07    1.48511E+03
 2.20000E-07    1.36847E+03
 2.50000E-07    1.28899E+03
 2.80000E-07    1.23195E+03
 3.00000E-07    1.19189E+03
 3.20000E-07    1.14735E+03
 3.50000E-07    1.08594E+03
 4.00000E-07    9.94831E+02
 5.00000E-07    8.91452E+02
 6.25000E-07    7.99533E+02
 7.80000E-07    7.41511E+02
 8.50000E-07    7.14240E+02
 9.10000E-07    6.95222E+02
 9.50000E-07    6.84219E+02
 9.72000E-07    6.76447E+02
 9.96000E-07    6.68607E+02
 1.02000E-06    6.60905E+02
 1.04500E-06    6.53204E+02
 1.07100E-06    6.45633E+02
 1.09700E-06    6.38315E+02
 1.12300E-06    6.31178E+02
 1.15000E-06    6.09496E+02
 1.30000E-06    5.72215E+02
 1.50000E-06    5.11581E+02
 2.10000E-06    4.50125E+02
 2.60000E-06    4.06587E+02
 3.30000E-06    3.69938E+02
 4.00000E-06    3.00342E+02
 9.87700E-06    2.49733E+02
 1.59680E-05    2.80483E+02
 2.77000E-05    6.40376E+04
 4.80520E-05    3.28314E+03
 7.55014E-05    5.40331E+03
 1.48728E-04    1.04865E+04
 3.67262E-04    7.21721E+03
 9.06898E-04    2.56978E+03
 1.42510E-03    2.06612E+03
 2.23945E-03    1.63711E+03
 3.51910E-03    1.54670E+03
 5.53000E-03    1.14156E+03
 9.11800E-03    7.93997E+02
 1.50300E-02    5.66618E+02
 2.47800E-02    4.19794E+02
 4.08500E-02    3.17512E+02
 6.73400E-02    2.43945E+02
 1.11000E-01    1.99421E+02
 1.83000E-01    1.44148E+02
 3.02000E-01    7.39432E+01
 5.00000E-01    3.30993E+01
 8.21000E-01    1.93739E+01
 1.35300E+00    1.32944E+01
 2.23100E+00    1.19620E+01
 3.67900E+00    5.67096E+00
 6.06500E+00    1.60513E+00
