# n + As 75 : (n,xd)    
# jendl4.0   K.Shibata, G.Chiba, A.Ichihara+   EVAL-APR09
# 
# # energies =    68
#   E(MeV)        xs(mb) 
 2.01280E-01    0.00000E+00
 2.68221E-01    0.00000E+00
 2.83307E-01    0.00000E+00
 3.00000E-01    0.00000E+00
 3.08016E-01    0.00000E+00
 4.00000E-01    0.00000E+00
 4.06053E-01    0.00000E+00
 4.74909E-01    0.00000E+00
 5.00000E-01    0.00000E+00
 5.79924E-01    0.00000E+00
 5.92876E-01    0.00000E+00
 6.00000E-01    0.00000E+00
 6.26016E-01    0.00000E+00
 7.00000E-01    0.00000E+00
 8.00000E-01    0.00000E+00
 8.32621E-01    0.00000E+00
 8.71477E-01    0.00000E+00
 8.76443E-01    0.00000E+00
 8.97928E-01    0.00000E+00
 9.00000E-01    0.00000E+00
 1.00000E+00    0.00000E+00
 1.05583E+00    0.00000E+00
 1.07863E+00    0.00000E+00
 1.09008E+00    0.00000E+00
 1.09494E+00    0.00000E+00
 1.11025E+00    0.00000E+00
 1.11582E+00    0.00000E+00
 1.14288E+00    0.00000E+00
 1.14319E+00    0.00000E+00
 1.18737E+00    0.00000E+00
 1.22072E+00    0.00000E+00
 1.28010E+00    0.00000E+00
 1.31872E+00    0.00000E+00
 1.32662E+00    0.00000E+00
 1.36747E+00    0.00000E+00
 1.38844E+00    0.00000E+00
 1.43892E+00    0.00000E+00
 1.44956E+00    0.00000E+00
 1.45969E+00    0.00000E+00
 1.50000E+00    0.00000E+00
 2.00000E+00    0.00000E+00
 2.50000E+00    0.00000E+00
 3.00000E+00    0.00000E+00
 3.50000E+00    0.00000E+00
 4.00000E+00    0.00000E+00
 4.50000E+00    0.00000E+00
 5.00000E+00    0.00000E+00
 5.50000E+00    0.00000E+00
 6.00000E+00    0.00000E+00
 6.50000E+00    0.00000E+00
 7.00000E+00    8.70800E-05
 7.50000E+00    6.16700E-04
 8.00000E+00    2.35300E-03
 8.50000E+00    6.01700E-03
 9.00000E+00    1.13500E-02
 9.50000E+00    1.74700E-02
 1.00000E+01    2.34800E-02
 1.10000E+01    4.21100E-02
 1.20000E+01    2.11900E-01
 1.30000E+01    1.02800E+00
 1.40000E+01    2.82200E+00
 1.45000E+01    3.75000E+00
 1.50000E+01    5.47200E+00
 1.60000E+01    8.66300E+00
 1.70000E+01    1.21400E+01
 1.80000E+01    1.57257E+01
 1.90000E+01    1.93215E+01
 2.00000E+01    2.28697E+01
