# n + As 75 : (n,non)   
# jendl4.0   K.Shibata, G.Chiba, A.Ichihara+   EVAL-APR09
# uncertainties: n
# # energies =    90
#   E(MeV)       xs(mb) 
 9.70000E-03    0.00000E+00
 9.70000E-03    8.26240E+02
 1.00000E-02    8.09200E+02
 2.00000E-02    5.36800E+02
 3.00000E-02    4.28500E+02
 4.00000E-02    3.65900E+02
 5.00000E-02    3.23800E+02
 6.00000E-02    2.93300E+02
 7.00000E-02    2.70400E+02
 8.00000E-02    2.52100E+02
 9.00000E-02    2.37400E+02
 1.00000E-01    2.25300E+02
 2.00000E-01    1.66500E+02
 2.01280E-01    1.65738E+02
 2.68221E-01    2.42472E+02
 2.83307E-01    3.60306E+02
 3.00000E-01    6.24900E+02
 3.08016E-01    6.45219E+02
 3.98936E-01    9.04338E+02
 4.00000E-01    9.07370E+02
 4.06053E-01    9.09490E+02
 4.74909E-01    1.08458E+03
 5.00000E-01    1.18341E+03
 5.79924E-01    1.23744E+03
 5.92876E-01    1.28168E+03
 6.00000E-01    1.34160E+03
 6.26016E-01    1.36106E+03
 7.00000E-01    1.49487E+03
 8.00000E-01    1.56903E+03
 8.32621E-01    1.56320E+03
 8.71477E-01    1.57891E+03
 8.76443E-01    1.58378E+03
 8.97928E-01    1.61582E+03
 9.00000E-01    1.63167E+03
 1.00000E+00    1.67498E+03
 1.05583E+00    1.63342E+03
 1.07863E+00    1.61961E+03
 1.09008E+00    1.61420E+03
 1.09494E+00    1.61255E+03
 1.11025E+00    1.60989E+03
 1.11582E+00    1.60971E+03
 1.14288E+00    1.61065E+03
 1.14319E+00    1.61068E+03
 1.18737E+00    1.61838E+03
 1.22072E+00    1.62570E+03
 1.28010E+00    1.64706E+03
 1.31872E+00    1.66392E+03
 1.32662E+00    1.66894E+03
 1.36747E+00    1.70221E+03
 1.38844E+00    1.72272E+03
 1.43892E+00    1.78066E+03
 1.44956E+00    1.79552E+03
 1.45969E+00    1.81213E+03
 1.50000E+00    1.87889E+03
 2.00000E+00    1.90635E+03
 2.50000E+00    1.97376E+03
 3.00000E+00    2.02273E+03
 3.50000E+00    2.03027E+03
 4.00000E+00    1.99900E+03
 4.50000E+00    1.94923E+03
 4.73731E+00    1.92336E+03
 5.00000E+00    1.89472E+03
 5.38867E+00    1.85584E+03
 5.50000E+00    1.84471E+03
 6.00000E+00    1.80314E+03
 6.50000E+00    1.77153E+03
 6.99182E+00    1.74833E+03
 7.00000E+00    1.74795E+03
 7.50000E+00    1.73095E+03
 8.00000E+00    1.71823E+03
 8.50000E+00    1.70805E+03
 8.72933E+00    1.70406E+03
 9.00000E+00    1.69934E+03
 9.50000E+00    1.69169E+03
 1.00000E+01    1.68450E+03
 1.03302E+01    1.65390E+03
 1.03817E+01    1.64913E+03
 1.10000E+01    1.67265E+03
 1.20000E+01    1.66345E+03
 1.30000E+01    1.65519E+03
 1.40000E+01    1.64646E+03
 1.45000E+01    1.64123E+03
 1.50000E+01    1.63599E+03
 1.50708E+01    1.63501E+03
 1.60000E+01    1.62212E+03
 1.70000E+01    1.60542E+03
 1.80000E+01    1.58773E+03
 1.84636E+01    1.57973E+03
 1.90000E+01    1.57072E+03
 2.00000E+01    1.55447E+03
