# n + As 75 : (n,a)     
# jendl4.0   K.Shibata, G.Chiba, A.Ichihara+   EVAL-APR09
# uncertainties: n
# # energies =    25
#   E(MeV)       xs(mb) 
 3.50000E+00    0.00000E+00
 4.00000E+00    2.49100E-05
 4.50000E+00    1.99000E-04
 5.00000E+00    9.41200E-03
 5.50000E+00    1.70900E-01
 6.00000E+00    1.61900E-01
 6.50000E+00    3.31900E-01
 7.00000E+00    6.28600E-01
 7.50000E+00    1.02900E+00
 8.00000E+00    1.50300E+00
 8.50000E+00    2.03600E+00
 9.00000E+00    2.55000E+00
 9.50000E+00    3.09900E+00
 1.00000E+01    3.67800E+00
 1.10000E+01    4.99300E+00
 1.20000E+01    6.55600E+00
 1.30000E+01    8.25700E+00
 1.40000E+01    9.81900E+00
 1.45000E+01    1.03600E+01
 1.50000E+01    1.06900E+01
 1.60000E+01    1.06700E+01
 1.70000E+01    9.98800E+00
 1.80000E+01    9.02300E+00
 1.90000E+01    8.00100E+00
 2.00000E+01    7.02200E+00
