# n + Ag107 : (n,d)     
# jendl.ad   N.Iwamoto                         EVAL-Apr14
# uncertainties: n
# # energies =    72
#   E(MeV)       xs(mb) 
 3.59729E+00    0.00000E+00
 4.11397E+00    6.91570E-12
 4.73595E+00    2.05070E-11
 4.74176E+00    2.06380E-11
 4.83814E+00    2.28220E-11
 5.00000E+00    2.65020E-11
 5.16964E+00    3.35340E-09
 5.17428E+00    3.44440E-09
 5.31978E+00    6.29860E-09
 5.50000E+00    9.83390E-09
 5.51957E+00    2.60580E-08
 5.52476E+00    3.03610E-08
 5.54780E+00    4.94630E-08
 5.61767E+00    1.07390E-07
 5.69317E+00    1.69990E-07
 5.69352E+00    1.70280E-07
 5.70081E+00    1.76330E-07
 5.86094E+00    3.09100E-07
 5.89690E+00    3.38920E-07
 5.90177E+00    3.42950E-07
 5.92461E+00    3.61890E-07
 5.92789E+00    3.64610E-07
 5.97028E+00    3.99760E-07
 5.98558E+00    4.12440E-07
 6.00000E+00    4.24400E-07
 6.01741E+00    5.80350E-07
 6.02135E+00    6.15650E-07
 6.05941E+00    9.56580E-07
 6.09332E+00    1.26033E-06
 6.10540E+00    1.36854E-06
 6.11583E+00    1.46197E-06
 6.12088E+00    1.50721E-06
 6.12119E+00    1.50999E-06
 6.20004E+00    2.21630E-06
 6.20164E+00    2.23064E-06
 6.21294E+00    2.33186E-06
 6.24645E+00    2.63203E-06
 6.24895E+00    2.65443E-06
 6.27119E+00    2.85365E-06
 6.32212E+00    3.30987E-06
 6.32812E+00    3.36361E-06
 6.33488E+00    3.42417E-06
 6.33650E+00    3.43868E-06
 6.34049E+00    3.47442E-06
 6.50000E+00    4.90327E-06
 7.00000E+00    2.61566E-05
 7.50000E+00    8.73041E-05
 8.00000E+00    2.43263E-04
 8.50000E+00    8.02422E-04
 9.00000E+00    3.21891E-03
 9.50000E+00    1.21954E-02
 1.00000E+01    3.86910E-02
 1.05000E+01    9.78830E-02
 1.10000E+01    2.16479E-01
 1.15000E+01    4.16121E-01
 1.20000E+01    7.12659E-01
 1.25000E+01    1.11110E+00
 1.30000E+01    1.60737E+00
 1.35000E+01    2.19055E+00
 1.40000E+01    2.84847E+00
 1.45000E+01    3.56571E+00
 1.50000E+01    4.33317E+00
 1.55000E+01    5.06955E+00
 1.60000E+01    5.99386E+00
 1.65000E+01    6.72319E+00
 1.70000E+01    7.63429E+00
 1.75000E+01    8.43804E+00
 1.80000E+01    9.27532E+00
 1.85000E+01    1.01219E+01
 1.90000E+01    1.08264E+01
 1.95000E+01    1.16677E+01
 2.00000E+01    1.23134E+01
