# n + Ag107 : (n,xd)    
# jendl.ad   N.Iwamoto                         EVAL-Apr14
# 
# # energies =    90
#   E(MeV)        xs(mb) 
 9.40036E-02    0.00000E+00
 1.00000E-01    0.00000E+00
 1.05000E-01    0.00000E+00
 1.10000E-01    0.00000E+00
 1.20000E-01    0.00000E+00
 1.26775E-01    0.00000E+00
 1.30000E-01    0.00000E+00
 1.40000E-01    0.00000E+00
 1.50000E-01    0.00000E+00
 1.60000E-01    0.00000E+00
 1.70000E-01    0.00000E+00
 1.80000E-01    0.00000E+00
 1.90000E-01    0.00000E+00
 2.00000E-01    0.00000E+00
 2.25000E-01    0.00000E+00
 2.50000E-01    0.00000E+00
 2.75000E-01    0.00000E+00
 3.00000E-01    0.00000E+00
 3.27875E-01    0.00000E+00
 4.00000E-01    0.00000E+00
 4.27142E-01    0.00000E+00
 5.00000E-01    0.00000E+00
 6.00000E-01    0.00000E+00
 7.00000E-01    0.00000E+00
 7.80606E-01    0.00000E+00
 7.94012E-01    0.00000E+00
 8.00000E-01    0.00000E+00
 9.00000E-01    0.00000E+00
 9.30760E-01    0.00000E+00
 9.58661E-01    0.00000E+00
 9.82483E-01    0.00000E+00
 1.00000E+00    0.00000E+00
 1.00035E+00    0.00000E+00
 1.07121E+00    0.00000E+00
 1.10000E+00    0.00000E+00
 1.15277E+00    0.00000E+00
 1.15278E+00    0.00000E+00
 1.15384E+00    0.00000E+00
 1.15772E+00    0.00000E+00
 1.20000E+00    0.00000E+00
 1.23353E+00    0.00000E+00
 1.23455E+00    0.00000E+00
 1.27077E+00    0.00000E+00
 1.30000E+00    0.00000E+00
 1.33831E+00    0.00000E+00
 1.40000E+00    0.00000E+00
 1.50000E+00    0.00000E+00
 1.60000E+00    0.00000E+00
 1.70000E+00    0.00000E+00
 1.80000E+00    0.00000E+00
 1.90000E+00    0.00000E+00
 2.00000E+00    0.00000E+00
 2.25000E+00    0.00000E+00
 2.50000E+00    0.00000E+00
 2.75000E+00    0.00000E+00
 3.00000E+00    0.00000E+00
 3.50000E+00    0.00000E+00
 4.00000E+00    5.39023E-12
 4.50000E+00    1.53511E-11
 5.00000E+00    2.65020E-11
 5.50000E+00    9.83390E-09
 6.00000E+00    4.24400E-07
 6.50000E+00    4.90327E-06
 7.00000E+00    2.61566E-05
 7.50000E+00    8.73041E-05
 8.00000E+00    2.43263E-04
 8.50000E+00    8.02422E-04
 9.00000E+00    3.21891E-03
 9.50000E+00    1.21954E-02
 1.00000E+01    3.86910E-02
 1.05000E+01    9.78830E-02
 1.10000E+01    2.16479E-01
 1.15000E+01    4.16121E-01
 1.20000E+01    7.12659E-01
 1.25000E+01    1.11110E+00
 1.30000E+01    1.60737E+00
 1.35000E+01    2.19055E+00
 1.40000E+01    2.84847E+00
 1.45000E+01    3.56571E+00
 1.50000E+01    4.33317E+00
 1.55000E+01    5.06955E+00
 1.60000E+01    5.99386E+00
 1.65000E+01    6.72325E+00
 1.70000E+01    7.63483E+00
 1.75000E+01    8.44095E+00
 1.80000E+01    9.28680E+00
 1.85000E+01    1.01552E+01
 1.90000E+01    1.09094E+01
 1.95000E+01    1.18324E+01
 2.00000E+01    1.26066E+01
