# n + Sn124 : (n,xa)    
# jendl4.0   N.Iwamoto,K.Shibata               EVAL-Dec09
# 
# # energies =    97
#   E(MeV)        xs(mb) 
 1.05000E-01    0.00000E+00
 1.10000E-01    0.00000E+00
 1.20000E-01    0.00000E+00
 1.30000E-01    0.00000E+00
 1.40000E-01    0.00000E+00
 1.50000E-01    0.00000E+00
 1.60000E-01    0.00000E+00
 1.70000E-01    0.00000E+00
 1.80000E-01    0.00000E+00
 1.90000E-01    0.00000E+00
 2.00000E-01    0.00000E+00
 2.25000E-01    0.00000E+00
 2.50000E-01    0.00000E+00
 2.75000E-01    0.00000E+00
 3.00000E-01    0.00000E+00
 4.00000E-01    0.00000E+00
 5.00000E-01    0.00000E+00
 6.00000E-01    0.00000E+00
 7.00000E-01    0.00000E+00
 8.00000E-01    0.00000E+00
 9.00000E-01    0.00000E+00
 1.00000E+00    0.00000E+00
 1.10000E+00    0.00000E+00
 1.14095E+00    0.00000E+00
 1.20000E+00    0.00000E+00
 1.30000E+00    0.00000E+00
 1.40000E+00    0.00000E+00
 1.50000E+00    0.00000E+00
 1.60000E+00    6.19070E-24
 1.70000E+00    1.73245E-23
 1.80000E+00    2.84682E-23
 1.90000E+00    3.96276E-23
 2.00000E+00    5.07920E-23
 2.11882E+00    6.64588E-23
 2.12617E+00    6.75359E-23
 2.14663E+00    7.05341E-23
 2.14694E+00    7.05795E-23
 2.21001E+00    7.98219E-23
 2.22257E+00    8.16625E-23
 2.23985E+00    8.41947E-23
 2.25000E+00    8.56821E-23
 2.34394E+00    9.94482E-23
 2.38576E+00    1.05577E-22
 2.44607E+00    1.14415E-22
 2.46793E+00    1.17618E-22
 2.47432E+00    1.18554E-22
 2.50000E+00    1.22318E-22
 2.58906E+00    1.35369E-22
 2.59943E+00    1.36888E-22
 2.62369E+00    1.40443E-22
 2.63573E+00    1.42208E-22
 2.67823E+00    1.48436E-22
 2.71041E+00    1.53151E-22
 2.72377E+00    1.55109E-22
 2.72520E+00    1.55319E-22
 2.72803E+00    1.55733E-22
 2.75000E+00    1.58953E-22
 2.77546E+00    1.62684E-22
 2.85967E+00    1.75024E-22
 2.87837E+00    1.77765E-22
 2.89878E+00    1.80755E-22
 2.90210E+00    1.81242E-22
 3.00000E+00    1.95588E-22
 3.50000E+00    2.68859E-22
 4.00000E+00    3.42130E-22
 4.50000E+00    1.98190E-18
 5.00000E+00    1.38880E-15
 5.50000E+00    2.06080E-13
 6.00000E+00    1.03470E-11
 6.50000E+00    2.36980E-10
 7.00000E+00    3.02520E-09
 7.50000E+00    2.47790E-08
 8.00000E+00    1.37030E-07
 8.50000E+00    6.08720E-07
 9.00000E+00    2.22542E-06
 9.50000E+00    7.03817E-06
 1.00000E+01    1.99950E-05
 1.05000E+01    5.24929E-05
 1.10000E+01    1.29357E-04
 1.15000E+01    3.03724E-04
 1.20000E+01    6.81440E-04
 1.25000E+01    1.46567E-03
 1.30000E+01    3.01532E-03
 1.35000E+01    5.91547E-03
 1.40000E+01    1.10358E-02
 1.45000E+01    1.95405E-02
 1.50000E+01    3.29842E-02
 1.55000E+01    5.34519E-02
 1.60000E+01    8.39795E-02
 1.65000E+01    1.28423E-01
 1.70000E+01    1.91488E-01
 1.75000E+01    2.76832E-01
 1.80000E+01    3.90390E-01
 1.85000E+01    5.34348E-01
 1.90000E+01    7.11067E-01
 1.95000E+01    9.21117E-01
 2.00000E+01    1.16492E+00
