# n + Sn124 : (n,el)    
# jendl4.0   N.Iwamoto,K.Shibata               EVAL-Dec09
# uncertainties: n
# # energies =   171
#   E(MeV)       xs(mb) 
 1.00000E-11    7.15086E+03
 1.00000E-07    4.32937E+03
 4.13990E-07    4.32749E+03
 5.31580E-07    4.32704E+03
 6.82560E-07    4.32685E+03
 8.76420E-07    4.32662E+03
 1.12540E-06    4.32631E+03
 1.44500E-06    4.32592E+03
 1.85540E-06    4.32542E+03
 2.37240E-06    4.32478E+03
 3.05900E-06    4.32394E+03
 3.92790E-06    4.32288E+03
 5.04350E-06    4.32152E+03
 6.47600E-06    4.32065E+03
 8.31530E-06    4.32006E+03
 1.06770E-05    4.31929E+03
 1.37100E-05    4.31830E+03
 1.76030E-05    4.31704E+03
 2.26030E-05    4.31539E+03
 2.92030E-05    4.31329E+03
 3.72670E-05    4.31140E+03
 4.78510E-05    4.37550E+03
 6.14420E-05    5.14729E+03
 7.88930E-05    4.30877E+03
 1.01300E-04    4.30712E+03
 1.30070E-04    4.30665E+03
 1.67020E-04    4.30604E+03
 2.14450E-04    4.30525E+03
 2.75360E-04    4.30425E+03
 3.53580E-04    4.30296E+03
 4.54000E-04    4.30220E+03
 5.82950E-04    4.30163E+03
 7.48520E-04    4.30462E+03
 9.61120E-04    4.29856E+03
 1.23410E-03    4.29780E+03
 1.58460E-03    4.30253E+03
 2.03470E-03    4.33373E+03
 2.24870E-03    2.28494E+04
 2.48520E-03    4.38304E+03
 2.61260E-03    4.32035E+03
 2.74650E-03    4.30063E+03
 3.03540E-03    4.30666E+03
 3.35460E-03    8.87035E+03
 3.70740E-03    4.29872E+03
 4.30740E-03    4.62410E+03
 5.53080E-03    4.51238E+03
 7.10170E-03    4.48815E+03
 9.11880E-03    5.42834E+03
 1.17090E-02    4.89634E+03
 1.50340E-02    4.67695E+03
 1.93050E-02    4.93478E+03
 2.18750E-02    5.29690E+03
 2.35790E-02    4.37079E+03
 2.41760E-02    9.77099E+03
 2.47880E-02    5.91077E+03
 2.60580E-02    4.25503E+03
 2.70000E-02    4.22461E+03
 2.85000E-02    5.18307E+03
 3.18280E-02    4.99434E+03
 3.43070E-02    5.74420E+03
 4.08680E-02    4.73214E+03
 4.63090E-02    5.01475E+03
 5.24750E-02    4.84757E+03
 5.65620E-02    5.91625E+03
 6.73790E-02    4.89210E+03
 7.20000E-02    5.38417E+03
 7.95000E-02    5.89226E+03
 8.25000E-02    6.22703E+03
 8.65170E-02    6.23402E+03
 9.80370E-02    6.25075E+03
 1.11090E-01    6.27059E+03
 1.16790E-01    6.28225E+03
 1.22770E-01    6.29379E+03
 1.29070E-01    6.30544E+03
 1.35690E-01    6.31704E+03
 1.42640E-01    6.32866E+03
 1.49960E-01    6.34035E+03
 1.57640E-01    6.35207E+03
 1.65730E-01    6.36380E+03
 1.74220E-01    6.37555E+03
 1.83160E-01    6.38733E+03
 1.92550E-01    6.39925E+03
 2.02420E-01    6.41447E+03
 2.12800E-01    6.43173E+03
 2.23710E-01    6.44988E+03
 2.35180E-01    6.46896E+03
 2.47240E-01    6.49956E+03
 2.73240E-01    6.53227E+03
 2.87250E-01    6.54941E+03
 2.94520E-01    6.55660E+03
 2.97200E-01    6.55940E+03
 2.98500E-01    6.56274E+03
 3.01970E-01    6.58710E+03
 3.33730E-01    6.63399E+03
 3.68830E-01    6.67220E+03
 3.87740E-01    6.69942E+03
 4.07620E-01    6.73666E+03
 4.50490E-01    6.78084E+03
 4.97870E-01    6.81666E+03
 5.23400E-01    6.84099E+03
 5.50230E-01    6.85975E+03
 5.78440E-01    6.87838E+03
 6.08100E-01    6.89478E+03
 6.39280E-01    6.90291E+03
 6.72060E-01    6.91090E+03
 7.06510E-01    6.91929E+03
 7.42740E-01    6.92811E+03
 7.80820E-01    6.93550E+03
 8.20850E-01    6.93236E+03
 8.62940E-01    6.92732E+03
 9.07180E-01    6.92037E+03
 9.61640E-01    6.90507E+03
 1.00260E+00    6.84332E+03
 1.10800E+00    6.73227E+03
 1.16480E+00    6.45727E+03
 1.22460E+00    6.25387E+03
 1.28730E+00    6.09255E+03
 1.35340E+00    5.96265E+03
 1.42270E+00    5.84151E+03
 1.49570E+00    5.71080E+03
 1.57240E+00    5.55117E+03
 1.65300E+00    5.39589E+03
 1.73770E+00    5.24311E+03
 1.82680E+00    5.09286E+03
 1.92050E+00    4.94088E+03
 2.01900E+00    4.77898E+03
 2.12250E+00    4.55795E+03
 2.23130E+00    4.31992E+03
 2.30690E+00    4.18923E+03
 2.34570E+00    4.12613E+03
 2.36530E+00    4.08708E+03
 2.38520E+00    3.98788E+03
 2.46600E+00    3.78918E+03
 2.59240E+00    3.56772E+03
 2.72530E+00    3.34193E+03
 2.86500E+00    3.11703E+03
 3.01190E+00    2.91463E+03
 3.16640E+00    2.73644E+03
 3.32870E+00    2.49884E+03
 3.67880E+00    2.25508E+03
 4.06570E+00    2.08895E+03
 4.49330E+00    2.00678E+03
 4.72370E+00    1.97766E+03
 4.96590E+00    1.95919E+03
 5.22050E+00    1.96025E+03
 5.48810E+00    1.97259E+03
 5.76950E+00    1.99905E+03
 6.06530E+00    2.03784E+03
 6.37630E+00    2.07601E+03
 6.59240E+00    2.10231E+03
 6.70320E+00    2.14116E+03
 7.04690E+00    2.20176E+03
 7.40820E+00    2.26618E+03
 7.78800E+00    2.33430E+03
 8.18730E+00    2.40984E+03
 8.60710E+00    2.48701E+03
 9.04840E+00    2.54429E+03
 9.51230E+00    2.61029E+03
 1.00000E+01    2.66821E+03
 1.05130E+01    2.72106E+03
 1.10520E+01    2.76342E+03
 1.16180E+01    2.79711E+03
 1.22140E+01    2.81464E+03
 1.28400E+01    2.82113E+03
 1.34990E+01    2.81399E+03
 1.38400E+01    2.80703E+03
 1.41910E+01    2.79200E+03
 1.45500E+01    2.77550E+03
 1.49180E+01    2.74295E+03
 1.56830E+01    2.68714E+03
 1.64870E+01    2.61747E+03
