# n + Sn124 :  n        
# jendl4.0   N.Iwamoto,K.Shibata               EVAL-Dec09
# uncertainties: n
# # energies =    97
#   E(MeV)       xs(mb) 
 1.05000E-01    0.00000E+00
 1.10000E-01    8.97416E-05
 1.20000E-01    9.33678E-05
 1.30000E-01    9.99866E-05
 1.40000E-01    1.08089E-04
 1.50000E-01    1.16812E-04
 1.60000E-01    1.24530E-04
 1.70000E-01    1.30885E-04
 1.80000E-01    1.35908E-04
 1.90000E-01    1.39749E-04
 2.00000E-01    1.42791E-04
 2.25000E-01    6.49184E-04
 2.50000E-01    8.19674E-04
 2.75000E-01    9.64081E-04
 3.00000E-01    1.05197E-03
 4.00000E-01    3.79243E-03
 5.00000E-01    9.64631E-03
 6.00000E-01    2.04840E-02
 7.00000E-01    3.84346E-02
 8.00000E-01    6.68640E-02
 9.00000E-01    1.09056E-01
 1.00000E+00    1.69145E-01
 1.10000E+00    2.54371E-01
 1.14095E+00    3.06571E-01
 1.20000E+00    2.49482E-01
 1.30000E+00    2.83035E-01
 1.40000E+00    3.38532E-01
 1.50000E+00    4.11875E-01
 1.60000E+00    5.00274E-01
 1.70000E+00    6.11144E-01
 1.80000E+00    7.50560E-01
 1.90000E+00    9.22815E-01
 2.00000E+00    1.13375E+00
 2.11882E+00    1.43969E+00
 2.12617E+00    1.40018E+00
 2.14663E+00    1.37188E+00
 2.14694E+00    1.36924E+00
 2.21001E+00    1.30523E+00
 2.22257E+00    1.31328E+00
 2.23985E+00    1.29815E+00
 2.25000E+00    1.28049E+00
 2.34394E+00    1.29672E+00
 2.38576E+00    1.32579E+00
 2.44607E+00    1.38027E+00
 2.46793E+00    1.37213E+00
 2.47432E+00    1.37358E+00
 2.50000E+00    1.38029E+00
 2.58906E+00    1.45513E+00
 2.59943E+00    1.46255E+00
 2.62369E+00    1.50261E+00
 2.63573E+00    1.50665E+00
 2.67823E+00    1.52459E+00
 2.71041E+00    1.53917E+00
 2.72377E+00    1.56078E+00
 2.72520E+00    1.56492E+00
 2.72803E+00    1.56253E+00
 2.75000E+00    1.56010E+00
 2.77546E+00    1.56562E+00
 2.85967E+00    1.61434E+00
 2.87837E+00    1.62083E+00
 2.89878E+00    1.63018E+00
 2.90210E+00    1.62731E+00
 3.00000E+00    1.62947E+00
 3.50000E+00    4.90914E+02
 4.00000E+00    1.09193E+03
 4.50000E+00    1.51929E+03
 5.00000E+00    1.76970E+03
 5.50000E+00    1.88994E+03
 6.00000E+00    1.93327E+03
 6.50000E+00    1.93849E+03
 7.00000E+00    1.92938E+03
 7.50000E+00    1.91857E+03
 8.00000E+00    1.91139E+03
 8.50000E+00    1.90817E+03
 9.00000E+00    1.70393E+03
 9.50000E+00    1.31096E+03
 1.00000E+01    9.82232E+02
 1.05000E+01    7.49963E+02
 1.10000E+01    5.97135E+02
 1.15000E+01    4.91023E+02
 1.20000E+01    4.17772E+02
 1.25000E+01    3.64551E+02
 1.30000E+01    3.24025E+02
 1.35000E+01    2.92318E+02
 1.40000E+01    2.68349E+02
 1.45000E+01    2.47425E+02
 1.50000E+01    2.30704E+02
 1.55000E+01    2.16585E+02
 1.60000E+01    2.04918E+02
 1.65000E+01    1.94509E+02
 1.70000E+01    1.85482E+02
 1.75000E+01    1.77096E+02
 1.80000E+01    1.69588E+02
 1.85000E+01    1.62529E+02
 1.90000E+01    1.56112E+02
 1.95000E+01    1.50035E+02
 2.00000E+01    1.44457E+02
