# n + Os186 : (n,2na)   
# jendl.ad   N.Iwamoto                         EVAL-Apr14
# uncertainties: n
# # energies =    26
#   E(MeV)       xs(mb) 
 7.50000E+00    0.00000E+00
 8.00000E+00    4.35740E-32
 8.50000E+00    2.54520E-26
 9.00000E+00    1.56190E-22
 9.50000E+00    2.44860E-16
 1.00000E+01    2.15040E-14
 1.05000E+01    1.44820E-12
 1.10000E+01    6.53880E-11
 1.15000E+01    1.80140E-09
 1.20000E+01    3.14400E-08
 1.25000E+01    3.70160E-07
 1.30000E+01    3.10739E-06
 1.35000E+01    1.95043E-05
 1.40000E+01    9.50535E-05
 1.45000E+01    3.74677E-04
 1.50000E+01    1.22402E-03
 1.55000E+01    3.33785E-03
 1.60000E+01    7.22118E-03
 1.65000E+01    1.27130E-02
 1.70000E+01    1.99840E-02
 1.75000E+01    2.99400E-02
 1.80000E+01    4.38962E-02
 1.85000E+01    6.23929E-02
 1.90000E+01    8.65227E-02
 1.95000E+01    1.17768E-01
 2.00000E+01    1.58019E-01
