# n + Dy160 : (n,n'15)  
# jeff3.3    A.J. Koning and D. Rochman        EVAL-DEC15
# uncertainties: n
# # energies =    79
#   E(MeV)       xs(mb) 
 1.39520E+00    0.00000E+00
 1.40000E+00    9.99135E+00
 1.40779E+00    1.08171E+01
 1.41735E+00    1.18306E+01
 1.43704E+00    1.39178E+01
 1.44762E+00    1.50394E+01
 1.46594E+00    1.69814E+01
 1.49889E+00    2.04744E+01
 1.52799E+00    2.35591E+01
 1.53193E+00    2.39768E+01
 1.54483E+00    2.53443E+01
 1.56641E+00    2.76319E+01
 1.59675E+00    3.08482E+01
 1.60000E+00    3.11927E+01
 1.60443E+00    3.13210E+01
 1.61390E+00    3.15954E+01
 1.61697E+00    3.16844E+01
 1.61800E+00    3.17142E+01
 1.80000E+00    3.69872E+01
 2.00000E+00    3.90134E+01
 2.20000E+00    3.72594E+01
 2.40000E+00    3.27839E+01
 2.60000E+00    2.69706E+01
 2.80000E+00    2.10083E+01
 3.00000E+00    1.57079E+01
 3.20000E+00    1.17475E+01
 3.40000E+00    8.37007E+00
 3.60000E+00    5.89857E+00
 3.80000E+00    4.13971E+00
 4.00000E+00    2.90445E+00
 4.20000E+00    2.04230E+00
 4.40000E+00    1.46878E+00
 4.60000E+00    1.04289E+00
 4.80000E+00    7.40187E-01
 5.00000E+00    5.27263E-01
 5.20000E+00    3.76861E-01
 5.40000E+00    2.70191E-01
 5.60000E+00    1.94465E-01
 5.80000E+00    1.40529E-01
 6.00000E+00    1.01397E-01
 6.20000E+00    7.36608E-02
 6.40000E+00    5.36176E-02
 6.60000E+00    3.92709E-02
 6.80000E+00    2.88633E-02
 7.00000E+00    2.13228E-02
 7.20000E+00    1.58262E-02
 7.40000E+00    1.17842E-02
 7.60000E+00    8.82432E-03
 7.80000E+00    6.62576E-03
 8.00000E+00    4.99163E-03
 8.50000E+00    2.49559E-03
 9.00000E+00    1.27059E-03
 9.50000E+00    6.55145E-04
 1.00000E+01    3.41477E-04
 1.05000E+01    1.79986E-04
 1.10000E+01    9.59981E-05
 1.15000E+01    5.18319E-05
 1.20000E+01    2.83312E-05
 1.25000E+01    1.56638E-05
 1.30000E+01    8.75512E-06
 1.35000E+01    4.94967E-06
 1.40000E+01    2.82784E-06
 1.45000E+01    1.63084E-06
 1.50000E+01    9.50230E-07
 1.60000E+01    3.30420E-07
 1.70000E+01    1.18660E-07
 1.80000E+01    4.37460E-08
 1.90000E+01    1.64580E-08
 2.00000E+01    6.38980E-09
 2.10000E+01    2.53960E-09
 2.20000E+01    1.03150E-09
 2.30000E+01    4.29530E-10
 2.40000E+01    1.82610E-10
 2.50000E+01    7.90050E-11
 2.60000E+01    3.47350E-11
 2.70000E+01    1.54520E-11
 2.80000E+01    6.98450E-12
 2.90000E+01    3.20850E-12
 3.00000E+01    1.49280E-12
