# n + Dy160 : (n,n'10)  
# jeff3.3    A.J. Koning and D. Rochman        EVAL-DEC15
# uncertainties: n
# # energies =    84
#   E(MeV)       xs(mb) 
 1.29371E+00    0.00000E+00
 1.29483E+00    1.17403E+00
 1.29679E+00    3.22867E+00
 1.35827E+00    6.76760E+01
 1.36724E+00    7.70788E+01
 1.39520E+00    1.06388E+02
 1.40000E+00    1.11420E+02
 1.40779E+00    1.11309E+02
 1.41735E+00    1.11173E+02
 1.43704E+00    1.10892E+02
 1.44762E+00    1.10741E+02
 1.46594E+00    1.10480E+02
 1.49889E+00    1.10010E+02
 1.52799E+00    1.09595E+02
 1.53193E+00    1.09539E+02
 1.54483E+00    1.09355E+02
 1.56641E+00    1.09048E+02
 1.59675E+00    1.08615E+02
 1.60000E+00    1.08569E+02
 1.60443E+00    1.08329E+02
 1.61390E+00    1.07816E+02
 1.61697E+00    1.07649E+02
 1.61800E+00    1.07594E+02
 1.80000E+00    9.77315E+01
 2.00000E+00    8.33366E+01
 2.20000E+00    6.73606E+01
 2.40000E+00    5.19326E+01
 2.60000E+00    3.83635E+01
 2.80000E+00    2.73368E+01
 3.00000E+00    1.89967E+01
 3.20000E+00    1.31549E+01
 3.40000E+00    9.00159E+00
 3.60000E+00    6.20221E+00
 3.80000E+00    4.34340E+00
 4.00000E+00    3.11448E+00
 4.20000E+00    2.31015E+00
 4.40000E+00    1.78203E+00
 4.60000E+00    1.41435E+00
 4.80000E+00    1.16897E+00
 5.00000E+00    1.00401E+00
 5.20000E+00    8.93331E-01
 5.40000E+00    8.19329E-01
 5.60000E+00    7.70409E-01
 5.80000E+00    7.38578E-01
 6.00000E+00    7.18056E-01
 6.20000E+00    7.05808E-01
 6.40000E+00    6.98971E-01
 6.60000E+00    6.95981E-01
 6.80000E+00    6.95579E-01
 7.00000E+00    6.97016E-01
 7.20000E+00    6.99719E-01
 7.40000E+00    7.03265E-01
 7.60000E+00    7.07348E-01
 7.80000E+00    7.11684E-01
 8.00000E+00    7.16052E-01
 8.50000E+00    7.26010E-01
 9.00000E+00    7.33354E-01
 9.50000E+00    7.37614E-01
 1.00000E+01    7.39103E-01
 1.05000E+01    7.38477E-01
 1.10000E+01    7.36503E-01
 1.15000E+01    7.33922E-01
 1.20000E+01    7.31383E-01
 1.25000E+01    7.29354E-01
 1.30000E+01    7.28044E-01
 1.35000E+01    7.27447E-01
 1.40000E+01    7.27366E-01
 1.45000E+01    7.27532E-01
 1.50000E+01    7.27672E-01
 1.60000E+01    7.27018E-01
 1.70000E+01    7.24476E-01
 1.80000E+01    7.20560E-01
 1.90000E+01    7.17017E-01
 2.00000E+01    7.15976E-01
 2.10000E+01    7.19026E-01
 2.20000E+01    7.26691E-01
 2.30000E+01    7.38304E-01
 2.40000E+01    7.52248E-01
 2.50000E+01    7.66545E-01
 2.60000E+01    7.79605E-01
 2.70000E+01    7.90721E-01
 2.80000E+01    7.99980E-01
 2.90000E+01    8.07893E-01
 3.00000E+01    8.14978E-01
