# n + Dy160 : (n,xn)    
# jeff3.3    A.J. Koning and D. Rochman        EVAL-DEC15
# 
# # energies =   134
#   E(MeV)        xs(mb) 
 8.73354E-02    2.00000E-17
 1.00000E-01    1.00578E+02
 2.00000E-01    4.45866E+02
 2.85612E-01    6.71369E+02
 3.00000E-01    7.10001E+02
 4.00000E-01    9.45120E+02
 5.00000E-01    1.15377E+03
 5.84727E-01    1.30652E+03
 6.00000E-01    1.33406E+03
 7.00000E-01    1.48383E+03
 8.00000E-01    1.60285E+03
 9.00000E-01    1.69314E+03
 9.72263E-01    1.65316E+03
 1.00000E+00    1.84550E+03
 1.01433E+00    1.84805E+03
 1.05572E+00    1.85541E+03
 1.16313E+00    1.99320E+03
 1.20000E+00    2.04935E+03
 1.27272E+00    1.96402E+03
 1.28801E+00    1.95745E+03
 1.29371E+00    1.95845E+03
 1.29483E+00    1.95983E+03
 1.29679E+00    1.96338E+03
 1.35827E+00    2.08034E+03
 1.36724E+00    2.12463E+03
 1.39520E+00    2.30530E+03
 1.40000E+00    2.34630E+03
 1.40779E+00    2.33987E+03
 1.41735E+00    2.33472E+03
 1.43704E+00    2.32455E+03
 1.44762E+00    2.31908E+03
 1.46594E+00    2.30966E+03
 1.49889E+00    2.30261E+03
 1.52799E+00    2.31496E+03
 1.53193E+00    2.32200E+03
 1.54483E+00    2.34705E+03
 1.56641E+00    2.39551E+03
 1.59675E+00    2.51531E+03
 1.60000E+00    2.52838E+03
 1.60443E+00    2.52627E+03
 1.61390E+00    2.52182E+03
 1.61697E+00    2.52065E+03
 1.61800E+00    2.52026E+03
 1.80000E+00    2.62145E+03
 2.00000E+00    2.66709E+03
 2.20000E+00    2.70174E+03
 2.40000E+00    2.73414E+03
 2.60000E+00    2.76449E+03
 2.80000E+00    2.79500E+03
 3.00000E+00    2.82378E+03
 3.20000E+00    2.92589E+03
 3.40000E+00    2.94073E+03
 3.60000E+00    2.94605E+03
 3.80000E+00    2.94307E+03
 4.00000E+00    2.93390E+03
 4.20000E+00    2.92027E+03
 4.40000E+00    2.90451E+03
 4.60000E+00    2.88740E+03
 4.80000E+00    2.87025E+03
 5.00000E+00    2.85340E+03
 5.20000E+00    2.83774E+03
 5.40000E+00    2.82316E+03
 5.60000E+00    2.81000E+03
 5.80000E+00    2.79791E+03
 6.00000E+00    2.78724E+03
 6.20000E+00    2.77763E+03
 6.40000E+00    2.76868E+03
 6.60000E+00    2.76076E+03
 6.80000E+00    2.75325E+03
 7.00000E+00    2.74624E+03
 7.20000E+00    2.73964E+03
 7.40000E+00    2.73312E+03
 7.60000E+00    2.72674E+03
 7.80000E+00    2.72046E+03
 8.00000E+00    2.71414E+03
 8.50000E+00    2.69840E+03
 9.00000E+00    2.80433E+03
 9.50000E+00    3.15228E+03
 1.00000E+01    3.53494E+03
 1.05000E+01    3.85660E+03
 1.10000E+01    4.08108E+03
 1.15000E+01    4.23197E+03
 1.20000E+01    4.33493E+03
 1.25000E+01    4.40436E+03
 1.30000E+01    4.44949E+03
 1.35000E+01    4.47868E+03
 1.40000E+01    4.49597E+03
 1.45000E+01    4.50434E+03
 1.50000E+01    4.50592E+03
 1.60000E+01    4.50008E+03
 1.70000E+01    4.55855E+03
 1.80000E+01    4.72962E+03
 1.90000E+01    4.95221E+03
 2.00000E+01    5.16365E+03
 2.10000E+01    5.33641E+03
 2.20000E+01    5.45340E+03
 2.30000E+01    5.53194E+03
 2.40000E+01    5.58051E+03
 2.50000E+01    5.59941E+03
 2.60000E+01    5.61255E+03
 2.70000E+01    5.65112E+03
 2.80000E+01    5.72994E+03
 2.90000E+01    5.83946E+03
 3.00000E+01    5.95930E+03
 3.00000E+01    5.96241E+03
 3.20000E+01    6.17214E+03
 3.40000E+01    6.30352E+03
 3.60000E+01    6.39134E+03
 3.80000E+01    6.51803E+03
 4.00000E+01    6.66329E+03
 4.20000E+01    6.79788E+03
 4.40000E+01    6.89863E+03
 4.60000E+01    6.98237E+03
 4.80000E+01    7.07597E+03
 5.00000E+01    7.17486E+03
 5.20000E+01    7.27124E+03
 5.40000E+01    7.35406E+03
 5.60000E+01    7.43909E+03
 5.80000E+01    7.52575E+03
 6.00000E+01    7.61009E+03
 6.50000E+01    7.77984E+03
 7.00000E+01    7.96425E+03
 7.50000E+01    8.13817E+03
 8.00000E+01    8.31788E+03
 9.00000E+01    8.67406E+03
 1.00000E+02    8.99989E+03
 1.10000E+02    9.32466E+03
 1.20000E+02    9.60336E+03
 1.30000E+02    1.00981E+04
 1.40000E+02    1.07745E+04
 1.50000E+02    1.14878E+04
 1.60000E+02    1.22571E+04
 1.80000E+02    1.39969E+04
 2.00000E+02    1.55069E+04
