# n + Dy160 : (n,n'05)  
# jeff3.3    A.J. Koning and D. Rochman        EVAL-DEC15
# uncertainties: n
# # energies =    90
#   E(MeV)       xs(mb) 
 1.01433E+00    0.00000E+00
 1.05572E+00    3.13625E-04
 1.16313E+00    1.12750E-03
 1.20000E+00    1.40688E-03
 1.27272E+00    5.78965E-03
 1.28801E+00    6.71116E-03
 1.29371E+00    7.05470E-03
 1.29483E+00    7.12220E-03
 1.29679E+00    7.24033E-03
 1.35827E+00    1.09457E-02
 1.36724E+00    1.14863E-02
 1.39520E+00    1.31714E-02
 1.40000E+00    1.34607E-02
 1.40779E+00    1.46184E-02
 1.41735E+00    1.60392E-02
 1.43704E+00    1.89654E-02
 1.44762E+00    2.05378E-02
 1.46594E+00    2.32604E-02
 1.49889E+00    2.81573E-02
 1.52799E+00    3.24820E-02
 1.53193E+00    3.30675E-02
 1.54483E+00    3.49847E-02
 1.56641E+00    3.81918E-02
 1.59675E+00    4.27008E-02
 1.60000E+00    4.31838E-02
 1.60443E+00    4.43209E-02
 1.61390E+00    4.67518E-02
 1.61697E+00    4.75399E-02
 1.61800E+00    4.78043E-02
 1.80000E+00    9.45227E-02
 2.00000E+00    1.88776E-01
 2.20000E+00    3.17798E-01
 2.40000E+00    4.65562E-01
 2.60000E+00    6.04885E-01
 2.80000E+00    7.08021E-01
 3.00000E+00    7.60423E-01
 3.20000E+00    8.15749E-01
 3.40000E+00    7.72753E-01
 3.60000E+00    7.06790E-01
 3.80000E+00    6.33086E-01
 4.00000E+00    5.82242E-01
 4.20000E+00    5.19628E-01
 4.40000E+00    4.63073E-01
 4.60000E+00    4.23072E-01
 4.80000E+00    3.97985E-01
 5.00000E+00    3.86487E-01
 5.20000E+00    3.87055E-01
 5.40000E+00    3.98030E-01
 5.60000E+00    4.17964E-01
 5.80000E+00    4.45452E-01
 6.00000E+00    4.78839E-01
 6.20000E+00    5.16916E-01
 6.40000E+00    5.57954E-01
 6.60000E+00    6.00369E-01
 6.80000E+00    6.42488E-01
 7.00000E+00    6.82803E-01
 7.20000E+00    7.19980E-01
 7.40000E+00    7.52972E-01
 7.60000E+00    7.81083E-01
 7.80000E+00    8.03936E-01
 8.00000E+00    8.21473E-01
 8.50000E+00    8.43865E-01
 9.00000E+00    8.41950E-01
 9.50000E+00    8.24838E-01
 1.00000E+01    8.00405E-01
 1.05000E+01    7.74162E-01
 1.10000E+01    7.49260E-01
 1.15000E+01    7.26959E-01
 1.20000E+01    7.07277E-01
 1.25000E+01    6.89595E-01
 1.30000E+01    6.73165E-01
 1.35000E+01    6.57431E-01
 1.40000E+01    6.42095E-01
 1.45000E+01    6.27103E-01
 1.50000E+01    6.12544E-01
 1.60000E+01    5.85366E-01
 1.70000E+01    5.61958E-01
 1.80000E+01    5.43168E-01
 1.90000E+01    5.28758E-01
 2.00000E+01    5.17656E-01
 2.10000E+01    5.08550E-01
 2.20000E+01    5.00129E-01
 2.30000E+01    4.91029E-01
 2.40000E+01    4.80192E-01
 2.50000E+01    4.67492E-01
 2.60000E+01    4.53792E-01
 2.70000E+01    4.40313E-01
 2.80000E+01    4.27977E-01
 2.90000E+01    4.17168E-01
 3.00000E+01    4.07743E-01
