# n + Dy160 : (n,n'08)  
# jeff3.3    A.J. Koning and D. Rochman        EVAL-DEC15
# uncertainties: n
# # energies =    86
#   E(MeV)       xs(mb) 
 1.27272E+00    0.00000E+00
 1.28801E+00    1.13672E+01
 1.29371E+00    1.56048E+01
 1.29483E+00    1.64375E+01
 1.29679E+00    1.78946E+01
 1.35827E+00    6.36014E+01
 1.36724E+00    7.02700E+01
 1.39520E+00    9.10566E+01
 1.40000E+00    9.46251E+01
 1.40779E+00    9.50939E+01
 1.41735E+00    9.56693E+01
 1.43704E+00    9.68543E+01
 1.44762E+00    9.74911E+01
 1.46594E+00    9.85937E+01
 1.49889E+00    1.00577E+02
 1.52799E+00    1.02328E+02
 1.53193E+00    1.02565E+02
 1.54483E+00    1.03342E+02
 1.56641E+00    1.04640E+02
 1.59675E+00    1.06466E+02
 1.60000E+00    1.06662E+02
 1.60443E+00    1.06639E+02
 1.61390E+00    1.06589E+02
 1.61697E+00    1.06573E+02
 1.61800E+00    1.06567E+02
 1.80000E+00    1.05609E+02
 2.00000E+00    9.47840E+01
 2.20000E+00    7.89532E+01
 2.40000E+00    6.21117E+01
 2.60000E+00    4.65483E+01
 2.80000E+00    3.34881E+01
 3.00000E+00    2.33720E+01
 3.20000E+00    1.62500E+01
 3.40000E+00    1.09943E+01
 3.60000E+00    7.40147E+00
 3.80000E+00    4.98624E+00
 4.00000E+00    3.37156E+00
 4.20000E+00    2.30987E+00
 4.40000E+00    1.59961E+00
 4.60000E+00    1.09898E+00
 4.80000E+00    7.60705E-01
 5.00000E+00    5.29362E-01
 5.20000E+00    3.70377E-01
 5.40000E+00    2.60409E-01
 5.60000E+00    1.84071E-01
 5.80000E+00    1.30798E-01
 6.00000E+00    9.29340E-02
 6.20000E+00    6.65303E-02
 6.40000E+00    4.77742E-02
 6.60000E+00    3.45457E-02
 6.80000E+00    2.50828E-02
 7.00000E+00    1.83243E-02
 7.20000E+00    1.34554E-02
 7.40000E+00    9.91882E-03
 7.60000E+00    7.35767E-03
 7.80000E+00    5.47519E-03
 8.00000E+00    4.09047E-03
 8.50000E+00    2.00646E-03
 9.00000E+00    1.00466E-03
 9.50000E+00    5.10364E-04
 1.00000E+01    2.62446E-04
 1.05000E+01    1.36629E-04
 1.10000E+01    7.20451E-05
 1.15000E+01    3.84886E-05
 1.20000E+01    2.08311E-05
 1.25000E+01    1.14119E-05
 1.30000E+01    6.32433E-06
 1.35000E+01    3.54723E-06
 1.40000E+01    2.01177E-06
 1.45000E+01    1.15234E-06
 1.50000E+01    6.67200E-07
 1.60000E+01    2.29410E-07
 1.70000E+01    8.15950E-08
 1.80000E+01    2.98320E-08
 1.90000E+01    1.11430E-08
 2.00000E+01    4.29870E-09
 2.10000E+01    1.69880E-09
 2.20000E+01    6.86400E-10
 2.30000E+01    2.84410E-10
 2.40000E+01    1.20360E-10
 2.50000E+01    5.18550E-11
 2.60000E+01    2.27120E-11
 2.70000E+01    1.00680E-11
 2.80000E+01    4.53700E-12
 2.90000E+01    2.07810E-12
 3.00000E+01    9.64230E-13
