# n + Dy160 : (n,n'06)  
# jeff3.3    A.J. Koning and D. Rochman        EVAL-DEC15
# uncertainties: n
# # energies =    89
#   E(MeV)       xs(mb) 
 1.05572E+00    0.00000E+00
 1.16313E+00    1.18690E+02
 1.20000E+00    1.59432E+02
 1.27272E+00    1.64669E+02
 1.28801E+00    1.65770E+02
 1.29371E+00    1.66180E+02
 1.29483E+00    1.66261E+02
 1.29679E+00    1.66402E+02
 1.35827E+00    1.70829E+02
 1.36724E+00    1.71475E+02
 1.39520E+00    1.73488E+02
 1.40000E+00    1.73834E+02
 1.40779E+00    1.73580E+02
 1.41735E+00    1.73269E+02
 1.43704E+00    1.72628E+02
 1.44762E+00    1.72284E+02
 1.46594E+00    1.71688E+02
 1.49889E+00    1.70615E+02
 1.52799E+00    1.69668E+02
 1.53193E+00    1.69540E+02
 1.54483E+00    1.69120E+02
 1.56641E+00    1.68417E+02
 1.59675E+00    1.67430E+02
 1.60000E+00    1.67324E+02
 1.60443E+00    1.67112E+02
 1.61390E+00    1.66658E+02
 1.61697E+00    1.66510E+02
 1.61800E+00    1.66461E+02
 1.80000E+00    1.57736E+02
 2.00000E+00    1.37367E+02
 2.20000E+00    1.12007E+02
 2.40000E+00    8.69755E+01
 2.60000E+00    6.47115E+01
 2.80000E+00    4.63719E+01
 3.00000E+00    3.22940E+01
 3.20000E+00    2.27443E+01
 3.40000E+00    1.53528E+01
 3.60000E+00    1.03156E+01
 3.80000E+00    6.93709E+00
 4.00000E+00    4.73994E+00
 4.20000E+00    3.25726E+00
 4.40000E+00    2.20993E+00
 4.60000E+00    1.50928E+00
 4.80000E+00    1.03526E+00
 5.00000E+00    7.13353E-01
 5.20000E+00    4.94077E-01
 5.40000E+00    3.43875E-01
 5.60000E+00    2.40638E-01
 5.80000E+00    1.69440E-01
 6.00000E+00    1.19322E-01
 6.20000E+00    8.47443E-02
 6.40000E+00    6.04327E-02
 6.60000E+00    4.34212E-02
 6.80000E+00    3.13696E-02
 7.00000E+00    2.28147E-02
 7.20000E+00    1.66928E-02
 7.40000E+00    1.22720E-02
 7.60000E+00    9.08310E-03
 7.80000E+00    6.74938E-03
 8.00000E+00    5.03723E-03
 8.50000E+00    2.46907E-03
 9.00000E+00    1.23770E-03
 9.50000E+00    6.30270E-04
 1.00000E+01    3.25167E-04
 1.05000E+01    1.69924E-04
 1.10000E+01    8.99634E-05
 1.15000E+01    4.82561E-05
 1.20000E+01    2.62197E-05
 1.25000E+01    1.44161E-05
 1.30000E+01    8.01520E-06
 1.35000E+01    4.50817E-06
 1.40000E+01    2.56266E-06
 1.45000E+01    1.47061E-06
 1.50000E+01    8.52740E-07
 1.60000E+01    2.93870E-07
 1.70000E+01    1.04720E-07
 1.80000E+01    3.83670E-08
 1.90000E+01    1.43620E-08
 2.00000E+01    5.55290E-09
 2.10000E+01    2.19880E-09
 2.20000E+01    8.90040E-10
 2.30000E+01    3.69410E-10
 2.40000E+01    1.56570E-10
 2.50000E+01    6.75490E-11
 2.60000E+01    2.96220E-11
 2.70000E+01    1.31470E-11
 2.80000E+01    5.93070E-12
 2.90000E+01    2.71950E-12
 3.00000E+01    1.26320E-12
