# n + Dy160 : (n,xa)    
# jeff3.3    A.J. Koning and D. Rochman        EVAL-DEC15
# 
# # energies =   134
#   E(MeV)        xs(mb) 
 8.73354E-02    4.26654E-06
 1.00000E-01    4.00229E-06
 2.00000E-01    3.32808E-06
 2.85612E-01    4.10551E-06
 3.00000E-01    4.23617E-06
 4.00000E-01    6.03995E-06
 5.00000E-01    8.31431E-06
 5.84727E-01    1.06051E-05
 6.00000E-01    1.10181E-05
 7.00000E-01    1.43291E-05
 8.00000E-01    2.00060E-05
 9.00000E-01    2.90746E-05
 9.72263E-01    3.55775E-05
 1.00000E+00    3.80629E-05
 1.01433E+00    3.95662E-05
 1.05572E+00    4.39083E-05
 1.16313E+00    5.51764E-05
 1.20000E+00    5.90443E-05
 1.27272E+00    6.64958E-05
 1.28801E+00    6.80512E-05
 1.29371E+00    6.86310E-05
 1.29483E+00    6.87450E-05
 1.29679E+00    6.89443E-05
 1.35827E+00    7.51985E-05
 1.36724E+00    7.61110E-05
 1.39520E+00    7.89553E-05
 1.40000E+00    7.94436E-05
 1.40779E+00    8.04991E-05
 1.41735E+00    8.17944E-05
 1.43704E+00    8.44622E-05
 1.44762E+00    8.58957E-05
 1.46594E+00    8.83779E-05
 1.49889E+00    9.28424E-05
 1.52799E+00    9.67852E-05
 1.53193E+00    9.73191E-05
 1.54483E+00    9.90669E-05
 1.56641E+00    1.01991E-04
 1.59675E+00    1.06102E-04
 1.60000E+00    1.06542E-04
 1.60443E+00    1.07512E-04
 1.61390E+00    1.09586E-04
 1.61697E+00    1.10258E-04
 1.61800E+00    1.10484E-04
 1.80000E+00    1.50342E-04
 2.00000E+00    2.22938E-04
 2.20000E+00    3.05837E-04
 2.40000E+00    4.19790E-04
 2.60000E+00    5.55401E-04
 2.80000E+00    6.94728E-04
 3.00000E+00    8.63553E-04
 3.20000E+00    1.05393E-03
 3.40000E+00    1.23335E-03
 3.60000E+00    1.42508E-03
 3.80000E+00    1.61681E-03
 4.00000E+00    1.84104E-03
 4.20000E+00    2.07402E-03
 4.40000E+00    2.33061E-03
 4.60000E+00    2.61815E-03
 4.80000E+00    2.94370E-03
 5.00000E+00    3.31266E-03
 5.20000E+00    3.74250E-03
 5.40000E+00    4.20387E-03
 5.60000E+00    4.71822E-03
 5.80000E+00    5.36823E-03
 6.00000E+00    6.05825E-03
 6.20000E+00    6.93734E-03
 6.40000E+00    7.76824E-03
 6.60000E+00    8.82929E-03
 6.80000E+00    1.02606E-02
 7.00000E+00    1.17767E-02
 7.20000E+00    1.38349E-02
 7.40000E+00    1.57346E-02
 7.60000E+00    1.80559E-02
 7.80000E+00    2.15488E-02
 8.00000E+00    2.52344E-02
 8.50000E+00    3.80404E-02
 9.00000E+00    5.79836E-02
 9.50000E+00    8.82778E-02
 1.00000E+01    1.34000E-01
 1.05000E+01    2.01749E-01
 1.10000E+01    2.95046E-01
 1.15000E+01    4.28998E-01
 1.20000E+01    6.08182E-01
 1.25000E+01    8.40695E-01
 1.30000E+01    1.13158E+00
 1.35000E+01    1.47608E+00
 1.40000E+01    1.92646E+00
 1.45000E+01    2.41393E+00
 1.50000E+01    3.00198E+00
 1.60000E+01    4.41546E+00
 1.70000E+01    6.27618E+00
 1.80000E+01    8.80448E+00
 1.90000E+01    1.23483E+01
 2.00000E+01    1.70150E+01
 2.10000E+01    2.07368E+01
 2.20000E+01    2.37803E+01
 2.30000E+01    2.49987E+01
 2.40000E+01    2.43449E+01
 2.50000E+01    2.42873E+01
 2.60000E+01    2.44662E+01
 2.70000E+01    2.48342E+01
 2.80000E+01    2.53264E+01
 2.90000E+01    2.58960E+01
 3.00000E+01    2.65081E+01
 3.00000E+01    2.64094E+01
 3.20000E+01    2.76743E+01
 3.40000E+01    2.84999E+01
 3.60000E+01    2.97013E+01
 3.80000E+01    3.07949E+01
 4.00000E+01    3.17802E+01
 4.20000E+01    3.26901E+01
 4.40000E+01    3.35094E+01
 4.60000E+01    3.42634E+01
 4.80000E+01    3.49740E+01
 5.00000E+01    3.56628E+01
 5.20000E+01    3.63151E+01
 5.40000E+01    3.69442E+01
 5.60000E+01    3.76000E+01
 5.80000E+01    3.83110E+01
 6.00000E+01    3.90173E+01
 6.50000E+01    4.06757E+01
 7.00000E+01    4.26283E+01
 7.50000E+01    4.47378E+01
 8.00000E+01    4.73952E+01
 9.00000E+01    5.47859E+01
 1.00000E+02    6.10366E+01
 1.10000E+02    6.56105E+01
 1.20000E+02    6.85692E+01
 1.30000E+02    7.44999E+01
 1.40000E+02    8.28875E+01
 1.50000E+02    9.65227E+01
 1.60000E+02    1.20150E+02
 1.80000E+02    1.84623E+02
 2.00000E+02    3.15109E+02
