# n + Dy160 : (n,n'12)  
# jeff3.3    A.J. Koning and D. Rochman        EVAL-DEC15
# uncertainties: n
# # energies =    82
#   E(MeV)       xs(mb) 
 1.29679E+00    0.00000E+00
 1.35827E+00    5.37645E+00
 1.36724E+00    6.16087E+00
 1.39520E+00    8.60599E+00
 1.40000E+00    9.02575E+00
 1.40779E+00    9.33319E+00
 1.41735E+00    9.71050E+00
 1.43704E+00    1.04876E+01
 1.44762E+00    1.09052E+01
 1.46594E+00    1.16282E+01
 1.49889E+00    1.29286E+01
 1.52799E+00    1.40771E+01
 1.53193E+00    1.42326E+01
 1.54483E+00    1.47417E+01
 1.56641E+00    1.55934E+01
 1.59675E+00    1.67908E+01
 1.60000E+00    1.69191E+01
 1.60443E+00    1.70683E+01
 1.61390E+00    1.73871E+01
 1.61697E+00    1.74905E+01
 1.61800E+00    1.75252E+01
 1.80000E+00    2.36536E+01
 2.00000E+00    2.87547E+01
 2.20000E+00    2.97903E+01
 2.40000E+00    2.76013E+01
 2.60000E+00    2.35281E+01
 2.80000E+00    1.87892E+01
 3.00000E+00    1.42931E+01
 3.20000E+00    1.10397E+01
 3.40000E+00    7.90690E+00
 3.60000E+00    5.59021E+00
 3.80000E+00    3.93301E+00
 4.00000E+00    2.76505E+00
 4.20000E+00    1.96671E+00
 4.40000E+00    1.42195E+00
 4.60000E+00    1.00095E+00
 4.80000E+00    7.07994E-01
 5.00000E+00    5.01753E-01
 5.20000E+00    3.56612E-01
 5.40000E+00    2.54233E-01
 5.60000E+00    1.82001E-01
 5.80000E+00    1.30880E-01
 6.00000E+00    9.40769E-02
 6.20000E+00    6.81273E-02
 6.40000E+00    4.94872E-02
 6.60000E+00    3.62081E-02
 6.80000E+00    2.66061E-02
 7.00000E+00    1.96728E-02
 7.20000E+00    1.46240E-02
 7.40000E+00    1.09140E-02
 7.60000E+00    8.19632E-03
 7.80000E+00    6.17474E-03
 8.00000E+00    4.66936E-03
 8.50000E+00    2.35894E-03
 9.00000E+00    1.21455E-03
 9.50000E+00    6.33422E-04
 1.00000E+01    3.33878E-04
 1.05000E+01    1.77896E-04
 1.10000E+01    9.58649E-05
 1.15000E+01    5.22620E-05
 1.20000E+01    2.88227E-05
 1.25000E+01    1.60663E-05
 1.30000E+01    9.04639E-06
 1.35000E+01    5.14786E-06
 1.40000E+01    2.95794E-06
 1.45000E+01    1.71435E-06
 1.50000E+01    1.00319E-06
 1.60000E+01    3.51330E-07
 1.70000E+01    1.26920E-07
 1.80000E+01    4.70430E-08
 1.90000E+01    1.77890E-08
 2.00000E+01    6.93990E-09
 2.10000E+01    2.77060E-09
 2.20000E+01    1.13000E-09
 2.30000E+01    4.72300E-10
 2.40000E+01    2.01470E-10
 2.50000E+01    8.74310E-11
 2.60000E+01    3.85420E-11
 2.70000E+01    1.71850E-11
 2.80000E+01    7.78470E-12
 2.90000E+01    3.58310E-12
 3.00000E+01    1.67020E-12
