# n + Dy160 : (n,n'09)  
# jeff3.3    A.J. Koning and D. Rochman        EVAL-DEC15
# uncertainties: n
# # energies =    85
#   E(MeV)       xs(mb) 
 1.28801E+00    0.00000E+00
 1.29371E+00    3.45718E+00
 1.29483E+00    4.13647E+00
 1.29679E+00    5.32527E+00
 1.35827E+00    4.26143E+01
 1.36724E+00    4.80548E+01
 1.39520E+00    6.50132E+01
 1.40000E+00    6.79245E+01
 1.40779E+00    6.74873E+01
 1.41735E+00    6.69509E+01
 1.43704E+00    6.58459E+01
 1.44762E+00    6.52522E+01
 1.46594E+00    6.42241E+01
 1.49889E+00    6.23750E+01
 1.52799E+00    6.07420E+01
 1.53193E+00    6.05209E+01
 1.54483E+00    5.97969E+01
 1.56641E+00    5.85859E+01
 1.59675E+00    5.68833E+01
 1.60000E+00    5.67009E+01
 1.60443E+00    5.66024E+01
 1.61390E+00    5.63919E+01
 1.61697E+00    5.63236E+01
 1.61800E+00    5.63007E+01
 1.80000E+00    5.22547E+01
 2.00000E+00    4.64860E+01
 2.20000E+00    3.82204E+01
 2.40000E+00    2.92944E+01
 2.60000E+00    2.11781E+01
 2.80000E+00    1.46075E+01
 3.00000E+00    9.74698E+00
 3.20000E+00    6.43913E+00
 3.40000E+00    4.18076E+00
 3.60000E+00    2.71286E+00
 3.80000E+00    1.77018E+00
 4.00000E+00    1.16474E+00
 4.20000E+00    7.79010E-01
 4.40000E+00    5.30063E-01
 4.60000E+00    3.57330E-01
 4.80000E+00    2.42950E-01
 5.00000E+00    1.66117E-01
 5.20000E+00    1.14214E-01
 5.40000E+00    7.89203E-02
 5.60000E+00    5.48370E-02
 5.80000E+00    3.83201E-02
 6.00000E+00    2.67909E-02
 6.20000E+00    1.88878E-02
 6.40000E+00    1.33692E-02
 6.60000E+00    9.54003E-03
 6.80000E+00    6.84370E-03
 7.00000E+00    4.94527E-03
 7.20000E+00    3.59618E-03
 7.40000E+00    2.62815E-03
 7.60000E+00    1.93466E-03
 7.80000E+00    1.43003E-03
 8.00000E+00    1.06194E-03
 8.50000E+00    5.14420E-04
 9.00000E+00    2.54935E-04
 9.50000E+00    1.28311E-04
 1.00000E+01    6.54030E-05
 1.05000E+01    3.37611E-05
 1.10000E+01    1.76590E-05
 1.15000E+01    9.36286E-06
 1.20000E+01    5.03246E-06
 1.25000E+01    2.73972E-06
 1.30000E+01    1.50981E-06
 1.35000E+01    8.42540E-07
 1.40000E+01    4.75620E-07
 1.45000E+01    2.71260E-07
 1.50000E+01    1.56430E-07
 1.60000E+01    5.34060E-08
 1.70000E+01    1.88860E-08
 1.80000E+01    6.87410E-09
 1.90000E+01    2.55810E-09
 2.00000E+01    9.83520E-10
 2.10000E+01    3.87350E-10
 2.20000E+01    1.55990E-10
 2.30000E+01    6.44530E-11
 2.40000E+01    2.72180E-11
 2.50000E+01    1.17110E-11
 2.60000E+01    5.12480E-12
 2.70000E+01    2.27010E-12
 2.80000E+01    1.02190E-12
 2.90000E+01    4.67360E-13
 3.00000E+01    2.16470E-13
