# n + Tl203 : (n,tot)   
# endfb8.0                                     EVAL-Oct11
# uncertainties: n
# # energies =    99
#   E(MeV)       xs(mb) 
 1.00000E-11    0.00000E+00
 2.53000E-08    0.00000E+00
 1.88700E-02    0.00000E+00
 1.88700E-02    1.49031E+04
 2.00000E-02    1.47516E+04
 5.00000E-02    1.30966E+04
 8.00000E-02    1.21395E+04
 1.00000E-01    1.16283E+04
 2.00000E-01    9.71665E+03
 2.80587E-01    8.75870E+03
 4.00000E-01    7.33922E+03
 6.00000E-01    5.97313E+03
 6.83902E-01    5.60595E+03
 8.00000E-01    5.22984E+03
 9.90000E-01    4.91574E+03
 1.00000E+00    4.89928E+03
 1.04933E+00    4.80343E+03
 1.07071E+00    4.77361E+03
 1.07770E+00    4.76811E+03
 1.07927E+00    4.76776E+03
 1.11933E+00    4.77661E+03
 1.19025E+00    4.83442E+03
 1.20000E+00    4.84679E+03
 1.22163E+00    4.82913E+03
 1.22378E+00    4.82783E+03
 1.22908E+00    4.82536E+03
 1.23848E+00    4.82391E+03
 1.27933E+00    4.82981E+03
 1.30033E+00    4.83768E+03
 1.31227E+00    4.84609E+03
 1.32670E+00    4.86140E+03
 1.34153E+00    4.88192E+03
 1.40000E+00    4.98167E+03
 1.41419E+00    4.99498E+03
 1.45525E+00    5.03871E+03
 1.45693E+00    5.04081E+03
 1.49573E+00    5.09072E+03
 1.57667E+00    5.20164E+03
 1.60000E+00    5.23860E+03
 1.61905E+00    5.25666E+03
 1.62604E+00    5.26423E+03
 1.64704E+00    5.28948E+03
 1.66423E+00    5.31154E+03
 1.67753E+00    5.33044E+03
 1.69211E+00    5.35316E+03
 1.70443E+00    5.37391E+03
 1.72436E+00    5.41026E+03
 1.75166E+00    5.46249E+03
 1.76161E+00    5.48259E+03
 1.76875E+00    5.49791E+03
 1.80000E+00    5.56595E+03
 1.82603E+00    5.60175E+03
 1.83909E+00    5.62096E+03
 1.84573E+00    5.63135E+03
 1.84911E+00    5.63690E+03
 1.85919E+00    5.65435E+03
 1.89718E+00    5.72374E+03
 2.00000E+00    5.92036E+03
 2.25000E+00    6.34887E+03
 2.50000E+00    6.71987E+03
 2.75000E+00    7.01275E+03
 3.00000E+00    7.22392E+03
 3.30000E+00    7.37652E+03
 3.60000E+00    7.43456E+03
 4.00000E+00    7.40048E+03
 4.50000E+00    7.23971E+03
 5.00000E+00    6.99087E+03
 6.00000E+00    6.33822E+03
 7.00000E+00    5.71755E+03
 7.88801E+00    5.34736E+03
 8.00000E+00    5.30067E+03
 8.30000E+00    5.21650E+03
 8.70000E+00    5.12792E+03
 9.00000E+00    5.07631E+03
 9.20000E+00    5.04788E+03
 1.00000E+01    4.97308E+03
 1.03000E+01    4.95884E+03
 1.10000E+01    4.95155E+03
 1.20000E+01    4.99901E+03
 1.30000E+01    5.10297E+03
 1.40000E+01    5.24179E+03
 1.47942E+01    5.35759E+03
 1.50000E+01    5.38761E+03
 1.60000E+01    5.51600E+03
 1.70000E+01    5.61360E+03
 1.80000E+01    5.67863E+03
 1.90000E+01    5.71590E+03
 2.00000E+01    5.73122E+03
 2.10000E+01    5.72850E+03
 2.20000E+01    5.70926E+03
 2.30000E+01    5.67317E+03
 2.30379E+01    5.67112E+03
 2.40000E+01    5.61900E+03
 2.50000E+01    5.54627E+03
 2.60000E+01    5.45699E+03
 2.70000E+01    5.35576E+03
 2.80000E+01    5.24845E+03
 2.90000E+01    5.14046E+03
 3.00000E+01    5.03568E+03
