# n + Bi209 : (n,tot)   
# jendl.ad   N.YAMAMURO,A.ZUKERAN,JENDL-3 C.G. EVAL-MAY89
# uncertainties: n
# # energies =    69
#   E(MeV)       xs(mb) 
 1.00000E-10    2.38865E+02
 5.00000E-09    6.50378E+01
 1.00000E-08    4.92544E+01
 1.50000E-08    4.13848E+01
 2.00000E-08    3.64093E+01
 2.50000E-08    3.28964E+01
 3.00000E-08    3.02368E+01
 3.50000E-08    2.77966E+01
 4.20000E-08    2.54256E+01
 5.00000E-08    2.34565E+01
 5.80000E-08    2.17992E+01
 6.70000E-08    2.01147E+01
 8.00000E-08    1.82024E+01
 1.00000E-07    1.58376E+01
 1.40000E-07    1.36627E+01
 1.80000E-07    1.22032E+01
 2.20000E-07    1.12363E+01
 2.50000E-07    1.05770E+01
 2.80000E-07    1.01039E+01
 3.00000E-07    9.77217E+00
 3.20000E-07    9.40217E+00
 3.50000E-07    8.89399E+00
 4.00000E-07    8.13961E+00
 5.00000E-07    7.27945E+00
 6.25000E-07    6.51132E+00
 7.80000E-07    6.02719E+00
 8.50000E-07    5.79766E+00
 9.10000E-07    5.63820E+00
 9.50000E-07    5.54627E+00
 9.72000E-07    5.48083E+00
 9.96000E-07    5.41492E+00
 1.02000E-06    5.35221E+00
 1.04500E-06    5.28704E+00
 1.07100E-06    5.22070E+00
 1.09700E-06    5.15942E+00
 1.12300E-06    5.09978E+00
 1.15000E-06    4.91503E+00
 1.30000E-06    4.59814E+00
 1.50000E-06    4.08194E+00
 2.10000E-06    3.55189E+00
 2.60000E-06    3.17068E+00
 3.30000E-06    2.84481E+00
 4.00000E-06    2.17411E+00
 9.87700E-06    1.52057E+00
 1.59680E-05    1.17092E+00
 2.77000E-05    8.88044E-01
 4.80520E-05    6.97931E-01
 7.55014E-05    5.57133E-01
 1.48728E-04    5.07145E-01
 3.67262E-04    1.28719E+02
 9.06898E-04    1.09359E+00
 1.42510E-03    8.16787E-01
 2.23945E-03    2.62847E+01
 3.51910E-03    1.75419E+01
 5.53000E-03    4.46486E+00
 9.11800E-03    8.22758E+00
 1.50300E-02    5.38682E+00
 2.47800E-02    2.48514E+00
 4.08500E-02    1.61923E+00
 6.73400E-02    1.14782E+00
 1.11000E-01    1.17849E+00
 1.83000E-01    1.65094E+00
 3.02000E-01    1.47893E+00
 5.00000E-01    1.51194E+00
 8.21000E-01    1.88134E+00
 1.35300E+00    2.61815E+00
 2.23100E+00    3.35960E+00
 3.67900E+00    1.46051E+00
 6.06500E+00    2.01804E+03
