# n + Cm245 : (n,n'20)  
# jendl4.0   O.Iwamoto,T.Nakagawa,T.Ohsawa,+   EVAL-JAN10
# uncertainties: y
# # energies =    47
#   E(MeV)       xs(mb)       xslow(mb)      xsupp(mb)
 5.90420E-01    0.00000E+00   -0.00000E+00    0.00000E+00
 6.00000E-01    4.55390E-01    0.00000E+00    9.28996E-01
 7.00000E-01    3.15126E+00    0.00000E+00    6.42857E+00
 8.00000E-01    5.32245E+00    2.29930E+00    8.34560E+00
 9.00000E-01    6.62157E+00    2.86052E+00    1.03826E+01
 1.00000E+00    7.22431E+00    3.92280E+00    1.05258E+01
 1.30000E+00    7.18943E+00    4.70908E+00    9.66978E+00
 1.60000E+00    5.37001E+00    4.03825E+00    6.70177E+00
 1.80000E+00    4.08771E+00    3.07396E+00    5.10146E+00
 2.00000E+00    2.97661E+00    2.38129E+00    3.57193E+00
 2.30000E+00    1.73431E+00    1.38745E+00    2.08117E+00
 2.50000E+00    1.17161E+00    9.77123E-01    1.36610E+00
 2.70000E+00    7.76141E-01    6.47302E-01    9.04980E-01
 3.00000E+00    7.01551E-01    5.82989E-01    8.20113E-01
 3.50000E+00    4.13524E-01    3.33300E-01    4.93748E-01
 4.00000E+00    2.99922E-01    2.33639E-01    3.66205E-01
 4.50000E+00    2.48000E-01    1.93192E-01    3.02808E-01
 5.00000E+00    2.17779E-01    1.64641E-01    2.70917E-01
 5.50000E+00    1.97678E-01    1.49445E-01    2.45911E-01
 6.00000E+00    1.82836E-01    1.36944E-01    2.28728E-01
 6.50000E+00    1.71148E-01    1.28190E-01    2.14106E-01
 7.00000E+00    1.61592E-01    1.20709E-01    2.02475E-01
 7.50000E+00    1.53129E-01    1.14387E-01    1.91871E-01
 8.00000E+00    1.45138E-01    1.09434E-01    1.80842E-01
 8.50000E+00    1.37216E-01    1.03461E-01    1.70971E-01
 9.00000E+00    1.29664E-01    9.91930E-02    1.60135E-01
 9.50000E+00    1.22438E-01    9.36651E-02    1.51211E-01
 1.00000E+01    1.16209E-01    8.99458E-02    1.42472E-01
 1.05000E+01    1.09353E-01    8.46392E-02    1.34067E-01
 1.10000E+01    1.03288E-01    7.99449E-02    1.26631E-01
 1.15000E+01    9.77662E-02    7.56710E-02    1.19861E-01
 1.20000E+01    9.26913E-02    7.26700E-02    1.12713E-01
 1.25000E+01    8.80429E-02    6.90256E-02    1.07060E-01
 1.30000E+01    8.37222E-02    6.56382E-02    1.01806E-01
 1.35000E+01    8.06656E-02    6.32418E-02    9.80894E-02
 1.40000E+01    7.75131E-02    6.13904E-02    9.36358E-02
 1.45000E+01    7.42469E-02    5.88035E-02    8.96902E-02
 1.50000E+01    7.09202E-02    5.64525E-02    8.53879E-02
 1.55000E+01    6.75760E-02    5.37905E-02    8.13615E-02
 1.60000E+01    6.42180E-02    5.13744E-02    7.70616E-02
 1.65000E+01    6.10748E-02    4.88598E-02    7.32898E-02
 1.70000E+01    5.85604E-02    4.68483E-02    7.02725E-02
 1.75000E+01    5.62053E-02    4.49642E-02    6.74464E-02
 1.80000E+01    5.39901E-02    4.36240E-02    6.43562E-02
 1.85000E+01    5.19085E-02    4.19421E-02    6.18749E-02
 1.95000E+01    4.80538E-02    3.88275E-02    5.72801E-02
 2.00000E+01    4.62794E-02    3.73938E-02    5.51650E-02
