# n + Cm245 : (n,el)    
# jendl4.0   O.Iwamoto,T.Nakagawa,T.Ohsawa,+   EVAL-JAN10
# uncertainties: y
# # energies =    69
#   E(MeV)       xs(mb)       xslow(mb)      xsupp(mb)
 1.00000E-10    1.15993E+04    1.15993E+04    1.15993E+04
 5.00000E-09    1.03534E+04    1.03534E+04    1.03534E+04
 1.00000E-08    1.03096E+04    1.03096E+04    1.03096E+04
 1.50000E-08    1.02843E+04    1.02843E+04    1.02843E+04
 2.00000E-08    1.02622E+04    1.02622E+04    1.02622E+04
 2.50000E-08    1.02411E+04    1.02411E+04    1.02411E+04
 3.00000E-08    1.02201E+04    1.02201E+04    1.02201E+04
 3.50000E-08    1.01951E+04    1.01951E+04    1.01951E+04
 4.20000E-08    1.01637E+04    1.01637E+04    1.01637E+04
 5.00000E-08    1.01290E+04    1.01290E+04    1.01290E+04
 5.80000E-08    1.00915E+04    1.00915E+04    1.00915E+04
 6.70000E-08    1.00432E+04    1.00432E+04    1.00432E+04
 8.00000E-08    9.97095E+03    9.97095E+03    9.97095E+03
 1.00000E-07    9.84657E+03    9.84657E+03    9.84657E+03
 1.40000E-07    9.69159E+03    9.69159E+03    9.69159E+03
 1.80000E-07    9.55757E+03    9.55757E+03    9.55757E+03
 2.20000E-07    9.45448E+03    9.45448E+03    9.45448E+03
 2.50000E-07    9.37687E+03    9.37687E+03    9.37687E+03
 2.80000E-07    9.31752E+03    9.31752E+03    9.31752E+03
 3.00000E-07    9.27415E+03    9.27415E+03    9.27415E+03
 3.20000E-07    9.22410E+03    9.22410E+03    9.22410E+03
 3.50000E-07    9.15219E+03    9.15219E+03    9.15219E+03
 4.00000E-07    9.04265E+03    9.04265E+03    9.04265E+03
 5.00000E-07    8.92789E+03    8.92789E+03    8.92789E+03
 6.25000E-07    8.88082E+03    8.88082E+03    8.88082E+03
 7.80000E-07    8.91077E+03    8.91077E+03    8.91077E+03
 8.50000E-07    8.94192E+03    8.94192E+03    8.94192E+03
 9.10000E-07    8.96246E+03    8.96246E+03    8.96246E+03
 9.50000E-07    8.97046E+03    8.97046E+03    8.97046E+03
 9.72000E-07    8.97379E+03    8.97379E+03    8.97379E+03
 9.96000E-07    8.97343E+03    8.97343E+03    8.97343E+03
 1.02000E-06    8.96998E+03    8.96998E+03    8.96998E+03
 1.04500E-06    8.96268E+03    8.96268E+03    8.96268E+03
 1.07100E-06    8.95088E+03    8.95088E+03    8.95088E+03
 1.09700E-06    8.93660E+03    8.93660E+03    8.93660E+03
 1.12300E-06    8.91691E+03    8.91691E+03    8.91691E+03
 1.15000E-06    8.82966E+03    8.82966E+03    8.82966E+03
 1.30000E-06    8.57466E+03    8.57466E+03    8.57466E+03
 1.50000E-06    8.33292E+03    8.33292E+03    8.33292E+03
 2.10000E-06    9.72018E+03    9.72018E+03    9.72018E+03
 2.60000E-06    8.97967E+03    8.97967E+03    8.97967E+03
 3.30000E-06    7.56518E+03    7.56518E+03    7.56518E+03
 4.00000E-06    1.22764E+04    1.22764E+04    1.22764E+04
 9.87700E-06    1.12685E+04    1.12685E+04    1.12685E+04
 1.59680E-05    1.02790E+04    1.02790E+04    1.02790E+04
 2.77000E-05    1.06815E+04    1.06815E+04    1.06815E+04
 4.80520E-05    1.26249E+04    1.26249E+04    1.26249E+04
 7.55014E-05    1.24066E+04    1.24066E+04    1.24066E+04
 1.48728E-04    1.20259E+04    1.03302E+04    1.37216E+04
 3.67262E-04    1.18970E+04    1.02195E+04    1.35745E+04
 9.06898E-04    1.17660E+04    1.01070E+04    1.34250E+04
 1.42510E-03    1.16587E+04    1.00148E+04    1.33025E+04
 2.23945E-03    1.15331E+04    1.01145E+04    1.29517E+04
 3.51910E-03    1.13839E+04    9.98364E+03    1.27841E+04
 5.53000E-03    1.12025E+04    1.00845E+04    1.23205E+04
 9.11800E-03    1.09790E+04    9.97992E+03    1.19781E+04
 1.50300E-02    1.07336E+04    9.79764E+03    1.16696E+04
 2.47800E-02    1.04658E+04    9.57828E+03    1.13533E+04
 4.08500E-02    1.01941E+04    9.28069E+03    1.11075E+04
 6.73400E-02    9.71813E+03    8.79880E+03    1.06375E+04
 1.11000E-01    8.95781E+03    8.10055E+03    9.81508E+03
 1.83000E-01    8.00927E+03    7.24279E+03    8.77576E+03
 3.02000E-01    6.69417E+03    6.31997E+03    7.06838E+03
 5.00000E-01    5.05645E+03    4.83549E+03    5.27742E+03
 8.21000E-01    3.79319E+03    3.63539E+03    3.95099E+03
 1.35300E+00    3.46873E+03    3.23944E+03    3.69801E+03
 2.23100E+00    4.28931E+03    3.96847E+03    4.61016E+03
 3.67900E+00    4.35095E+03    4.07249E+03    4.62941E+03
 6.06500E+00    3.25779E+03    2.98478E+03    3.53079E+03
