# n + Cm245 : (n,n'19)  
# jendl4.0   O.Iwamoto,T.Nakagawa,T.Ohsawa,+   EVAL-JAN10
# uncertainties: y
# # energies =    48
#   E(MeV)       xs(mb)       xslow(mb)      xsupp(mb)
 5.60297E-01    0.00000E+00    0.00000E+00    0.00000E+00
 5.90420E-01    6.84101E+00    3.27684E+00    1.04052E+01
 6.00000E-01    8.69203E+00    4.16348E+00    1.32206E+01
 7.00000E-01    2.23920E+01    1.07258E+01    3.40582E+01
 8.00000E-01    2.81178E+01    1.58584E+01    4.03772E+01
 9.00000E-01    2.88502E+01    1.62715E+01    4.14289E+01
 1.00000E+00    2.71442E+01    1.71823E+01    3.71061E+01
 1.30000E+00    1.91788E+01    1.28498E+01    2.55078E+01
 1.60000E+00    1.21135E+01    8.24929E+00    1.59777E+01
 1.80000E+00    8.60572E+00    5.86050E+00    1.13509E+01
 2.00000E+00    5.90686E+00    4.35926E+00    7.45446E+00
 2.30000E+00    3.15232E+00    2.32641E+00    3.97823E+00
 2.50000E+00    2.00079E+00    1.69267E+00    2.30891E+00
 2.70000E+00    1.24599E+00    1.05411E+00    1.43787E+00
 3.00000E+00    9.06723E-01    7.77062E-01    1.03638E+00
 3.50000E+00    4.66372E-01    3.81492E-01    5.51252E-01
 4.00000E+00    3.19987E-01    2.50550E-01    3.89424E-01
 4.50000E+00    2.60279E-01    2.03798E-01    3.16760E-01
 5.00000E+00    2.28004E-01    1.72371E-01    2.83637E-01
 5.50000E+00    2.06991E-01    1.56485E-01    2.57497E-01
 6.00000E+00    1.91564E-01    1.43290E-01    2.39838E-01
 6.50000E+00    1.79316E-01    1.34128E-01    2.24504E-01
 7.00000E+00    1.69466E-01    1.26591E-01    2.12341E-01
 7.50000E+00    1.60535E-01    1.19920E-01    2.01150E-01
 8.00000E+00    1.51994E-01    1.14603E-01    1.89385E-01
 8.50000E+00    1.43730E-01    1.08372E-01    1.79088E-01
 9.00000E+00    1.35823E-01    1.03905E-01    1.67741E-01
 9.50000E+00    1.28278E-01    9.81327E-02    1.58423E-01
 1.00000E+01    1.21142E-01    9.37639E-02    1.48520E-01
 1.05000E+01    1.14325E-01    8.84875E-02    1.40162E-01
 1.10000E+01    1.08026E-01    8.36121E-02    1.32440E-01
 1.15000E+01    1.02259E-01    7.91485E-02    1.25370E-01
 1.20000E+01    9.69589E-02    7.60158E-02    1.17902E-01
 1.25000E+01    9.21039E-02    7.22095E-02    1.11998E-01
 1.30000E+01    8.75925E-02    6.86725E-02    1.06512E-01
 1.35000E+01    8.41528E-02    6.59758E-02    1.02330E-01
 1.40000E+01    8.06215E-02    6.38522E-02    9.73908E-02
 1.45000E+01    7.69904E-02    6.09764E-02    9.30044E-02
 1.50000E+01    7.33166E-02    5.83600E-02    8.82732E-02
 1.55000E+01    6.96398E-02    5.54333E-02    8.38463E-02
 1.60000E+01    6.65951E-02    5.32761E-02    7.99141E-02
 1.65000E+01    6.38076E-02    5.10461E-02    7.65691E-02
 1.70000E+01    6.11823E-02    4.89458E-02    7.34188E-02
 1.75000E+01    5.87233E-02    4.69786E-02    7.04680E-02
 1.80000E+01    5.64103E-02    4.55795E-02    6.72411E-02
 1.85000E+01    5.42368E-02    4.38233E-02    6.46503E-02
 1.95000E+01    5.02115E-02    4.05709E-02    5.98521E-02
 2.00000E+01    4.83586E-02    3.90737E-02    5.76435E-02
