# n + Cm245 : (n,n'03)  
# jendl4.0   O.Iwamoto,T.Nakagawa,T.Ohsawa,+   EVAL-JAN10
# uncertainties: y
# # energies =    68
#   E(MeV)       xs(mb)       xslow(mb)      xsupp(mb)
 1.98212E-01    0.00000E+00   -0.00000E+00    0.00000E+00
 2.00000E-01    9.77419E-01    0.00000E+00    2.49242E+00
 2.53840E-01    1.74386E+01    0.00000E+00    4.44684E+01
 2.96937E-01    2.81606E+01    0.00000E+00    7.18095E+01
 3.00000E-01    2.88431E+01    1.23737E+01    4.53125E+01
 3.52083E-01    4.05300E+01    1.73874E+01    6.36726E+01
 3.57365E-01    4.14339E+01    1.77751E+01    6.50927E+01
 3.62888E-01    4.23583E+01    1.81717E+01    6.65449E+01
 3.89778E-01    4.62841E+01    1.98559E+01    7.27123E+01
 4.00000E-01    4.72471E+01    1.97493E+01    7.47449E+01
 4.18315E-01    4.92072E+01    2.05686E+01    7.78458E+01
 4.20423E-01    4.93156E+01    2.06139E+01    7.80173E+01
 4.32774E-01    5.02664E+01    2.10114E+01    7.95214E+01
 4.44663E-01    5.10238E+01    2.13279E+01    8.07197E+01
 5.00000E-01    5.27160E+01    2.20353E+01    8.33967E+01
 5.00050E-01    5.27210E+01    2.20374E+01    8.34046E+01
 5.11095E-01    5.36253E+01    2.24154E+01    8.48352E+01
 5.34190E-01    5.51424E+01    2.30495E+01    8.72353E+01
 5.47243E-01    5.57687E+01    2.33113E+01    8.82261E+01
 5.57284E-01    5.61236E+01    2.34597E+01    8.87875E+01
 5.60297E-01    5.61555E+01    2.34730E+01    8.88380E+01
 5.90420E-01    5.67383E+01    2.37166E+01    8.97600E+01
 6.00000E-01    5.68290E+01    3.06308E+01    8.30272E+01
 7.00000E-01    5.66264E+01    3.05216E+01    8.27312E+01
 8.00000E-01    5.83069E+01    3.65001E+01    8.01137E+01
 9.00000E-01    5.76169E+01    3.60682E+01    7.91656E+01
 1.00000E+00    5.66404E+01    3.80057E+01    7.52751E+01
 1.30000E+00    5.29915E+01    3.72000E+01    6.87830E+01
 1.60000E+00    4.86537E+01    3.47874E+01    6.25200E+01
 1.80000E+00    4.57468E+01    3.27090E+01    5.87846E+01
 2.00000E+00    4.33409E+01    2.84316E+01    5.82502E+01
 2.30000E+00    4.09945E+01    2.68924E+01    5.50966E+01
 2.50000E+00    4.00949E+01    2.41371E+01    5.60527E+01
 2.70000E+00    3.95269E+01    2.37952E+01    5.52586E+01
 3.00000E+00    3.94699E+01    2.29715E+01    5.59683E+01
 3.50000E+00    3.74527E+01    2.15353E+01    5.33701E+01
 4.00000E+00    3.57958E+01    2.04394E+01    5.11522E+01
 4.50000E+00    3.36511E+01    1.92148E+01    4.80874E+01
 5.00000E+00    3.15416E+01    1.79787E+01    4.51045E+01
 5.50000E+00    2.99345E+01    1.70627E+01    4.28063E+01
 6.00000E+00    2.83333E+01    1.56400E+01    4.10266E+01
 6.50000E+00    2.68465E+01    1.48193E+01    3.88737E+01
 7.00000E+00    2.53627E+01    1.35437E+01    3.71817E+01
 7.50000E+00    2.38785E+01    1.27511E+01    3.50059E+01
 8.00000E+00    2.23957E+01    1.18025E+01    3.29889E+01
 8.50000E+00    2.10891E+01    1.11140E+01    3.10642E+01
 9.00000E+00    1.97834E+01    1.04456E+01    2.91212E+01
 9.50000E+00    1.86789E+01    9.86246E+00    2.74953E+01
 1.00000E+01    1.75754E+01    9.36769E+00    2.57831E+01
 1.05000E+01    1.65931E+01    8.84412E+00    2.43421E+01
 1.10000E+01    1.56116E+01    8.32098E+00    2.29022E+01
 1.15000E+01    1.47180E+01    7.84469E+00    2.15913E+01
 1.20000E+01    1.38250E+01    7.65905E+00    1.99909E+01
 1.25000E+01    1.30336E+01    7.22061E+00    1.88466E+01
 1.30000E+01    1.22434E+01    6.78284E+00    1.77040E+01
 1.35000E+01    1.15668E+01    6.40801E+00    1.67256E+01
 1.40000E+01    1.08907E+01    6.24037E+00    1.55410E+01
 1.45000E+01    1.03211E+01    5.91399E+00    1.47282E+01
 1.50000E+01    9.75187E+00    5.66584E+00    1.38379E+01
 1.55000E+01    9.27085E+00    5.38636E+00    1.31553E+01
 1.60000E+01    8.79003E+00    5.15975E+00    1.24203E+01
 1.65000E+01    8.37988E+00    4.91899E+00    1.18408E+01
 1.70000E+01    7.96990E+00    4.67833E+00    1.12615E+01
 1.75000E+01    7.61882E+00    4.47225E+00    1.07654E+01
 1.80000E+01    7.26791E+00    4.35348E+00    1.01823E+01
 1.85000E+01    6.96879E+00    4.17430E+00    9.76328E+00
 1.95000E+01    6.41663E+00    3.84356E+00    8.98970E+00
 2.00000E+01    6.16360E+00    3.69200E+00    8.63520E+00
