# n + Cm245 : (n,f)     
# jendl4.0   O.Iwamoto,T.Nakagawa,T.Ohsawa,+   EVAL-JAN10
# uncertainties: y
# # energies =    69
#   E(MeV)       xs(mb)       xslow(mb)      xsupp(mb)
 1.00000E-10    1.71828E+07    1.71828E+07    1.71828E+07
 5.00000E-09    4.46257E+06    4.46257E+06    4.46257E+06
 1.00000E-08    3.25263E+06    3.25263E+06    3.25263E+06
 1.50000E-08    2.63276E+06    2.63276E+06    2.63276E+06
 2.00000E-08    2.23277E+06    2.23277E+06    2.23277E+06
 2.50000E-08    1.94545E+06    1.94545E+06    1.94545E+06
 3.00000E-08    1.72566E+06    1.72566E+06    1.72566E+06
 3.50000E-08    1.52216E+06    1.52216E+06    1.52216E+06
 4.20000E-08    1.32282E+06    1.32282E+06    1.32282E+06
 5.00000E-08    1.15676E+06    1.15676E+06    1.15676E+06
 5.80000E-08    1.01814E+06    1.01814E+06    1.01814E+06
 6.70000E-08    8.79015E+05    8.79015E+05    8.79015E+05
 8.00000E-08    7.24967E+05    7.24967E+05    7.24967E+05
 1.00000E-07    5.46136E+05    5.46136E+05    5.46136E+05
 1.40000E-07    3.99645E+05    3.99645E+05    3.99645E+05
 1.80000E-07    3.16256E+05    3.16256E+05    3.16256E+05
 2.20000E-07    2.69985E+05    2.69985E+05    2.69985E+05
 2.50000E-07    2.43371E+05    2.43371E+05    2.43371E+05
 2.80000E-07    2.26894E+05    2.26894E+05    2.26894E+05
 3.00000E-07    2.16844E+05    2.16844E+05    2.16844E+05
 3.20000E-07    2.07276E+05    2.07276E+05    2.07276E+05
 3.50000E-07    1.97093E+05    1.97093E+05    1.97093E+05
 4.00000E-07    1.89675E+05    1.89675E+05    1.89675E+05
 5.00000E-07    1.94144E+05    1.94144E+05    1.94144E+05
 6.25000E-07    2.08141E+05    2.08141E+05    2.08141E+05
 7.80000E-07    2.11081E+05    2.11081E+05    2.11081E+05
 8.50000E-07    2.03650E+05    2.03650E+05    2.03650E+05
 9.10000E-07    1.93629E+05    1.93629E+05    1.93629E+05
 9.50000E-07    1.85929E+05    1.85929E+05    1.85929E+05
 9.72000E-07    1.79704E+05    1.79704E+05    1.79704E+05
 9.96000E-07    1.72910E+05    1.72910E+05    1.72910E+05
 1.02000E-06    1.65820E+05    1.65820E+05    1.65820E+05
 1.04500E-06    1.58428E+05    1.58428E+05    1.58428E+05
 1.07100E-06    1.50976E+05    1.50976E+05    1.50976E+05
 1.09700E-06    1.43765E+05    1.43765E+05    1.43765E+05
 1.12300E-06    1.36737E+05    1.36737E+05    1.36737E+05
 1.15000E-06    1.17499E+05    1.17499E+05    1.17499E+05
 1.30000E-06    9.51683E+04    9.51683E+04    9.51683E+04
 1.50000E-06    2.54932E+05    2.54932E+05    2.54932E+05
 2.10000E-06    1.90380E+05    1.90380E+05    1.90380E+05
 2.60000E-06    6.03721E+04    6.03721E+04    6.03721E+04
 3.30000E-06    6.64465E+04    6.64465E+04    6.64465E+04
 4.00000E-06    2.96375E+05    2.96375E+05    2.96375E+05
 9.87700E-06    5.85510E+04    5.85510E+04    5.85510E+04
 1.59680E-05    4.48115E+04    4.48115E+04    4.48115E+04
 2.77000E-05    6.35461E+04    6.35461E+04    6.35461E+04
 4.80520E-05    8.42320E+04    8.42320E+04    8.42320E+04
 7.55014E-05    4.47048E+04    4.47048E+04    4.47048E+04
 1.48728E-04    2.22883E+04    2.11160E+04    2.34607E+04
 3.67262E-04    1.47434E+04    1.40151E+04    1.54718E+04
 9.06898E-04    1.00665E+04    9.43578E+03    1.06973E+04
 1.42510E-03    8.28344E+03    7.55847E+03    9.00840E+03
 2.23945E-03    6.72134E+03    5.96828E+03    7.47440E+03
 3.51910E-03    5.57495E+03    4.77528E+03    6.37462E+03
 5.53000E-03    4.76752E+03    4.03695E+03    5.49810E+03
 9.11800E-03    3.80859E+03    3.23487E+03    4.38232E+03
 1.50300E-02    3.06138E+03    2.79737E+03    3.32539E+03
 2.47800E-02    2.69927E+03    2.29794E+03    3.10060E+03
 4.08500E-02    2.47935E+03    2.20816E+03    2.75055E+03
 6.73400E-02    2.27459E+03    1.96238E+03    2.58679E+03
 1.11000E-01    2.21557E+03    1.98506E+03    2.44608E+03
 1.83000E-01    2.03186E+03    1.91657E+03    2.14715E+03
 3.02000E-01    1.80565E+03    1.74429E+03    1.86700E+03
 5.00000E-01    1.63771E+03    1.58203E+03    1.69339E+03
 8.21000E-01    1.67275E+03    1.58566E+03    1.75983E+03
 1.35300E+00    1.82716E+03    1.75996E+03    1.89437E+03
 2.23100E+00    1.70137E+03    1.64407E+03    1.75868E+03
 3.67900E+00    1.61122E+03    1.55215E+03    1.67028E+03
 6.06500E+00    2.11490E+03    2.02286E+03    2.20694E+03
