# n + Cm245 : (n,n'18)  
# jendl4.0   O.Iwamoto,T.Nakagawa,T.Ohsawa,+   EVAL-JAN10
# uncertainties: y
# # energies =    49
#   E(MeV)       xs(mb)       xslow(mb)      xsupp(mb)
 5.57284E-01    0.00000E+00    0.00000E+00    0.00000E+00
 5.60297E-01    2.02688E+00    9.34392E-01    3.11937E+00
 5.90420E-01    1.06717E+01    4.91965E+00    1.64237E+01
 6.00000E-01    1.31813E+01    6.07658E+00    2.02860E+01
 7.00000E-01    3.15865E+01    1.45614E+01    4.86116E+01
 8.00000E-01    3.97591E+01    2.21061E+01    5.74121E+01
 9.00000E-01    4.10595E+01    2.28291E+01    5.92899E+01
 1.00000E+00    3.88360E+01    2.37288E+01    5.39432E+01
 1.30000E+00    2.79502E+01    1.78322E+01    3.80682E+01
 1.60000E+00    1.75832E+01    1.15346E+01    2.36318E+01
 1.80000E+00    1.23860E+01    8.12522E+00    1.66468E+01
 2.00000E+00    8.42799E+00    6.16086E+00    1.06951E+01
 2.30000E+00    4.45478E+00    3.25644E+00    5.65312E+00
 2.50000E+00    2.81861E+00    2.38454E+00    3.25268E+00
 2.70000E+00    1.75385E+00    1.48376E+00    2.02394E+00
 3.00000E+00    9.53795E-01    8.27894E-01    1.07970E+00
 3.50000E+00    3.64493E-01    3.06903E-01    4.22083E-01
 4.00000E+00    1.83976E-01    1.49756E-01    2.18196E-01
 4.50000E+00    1.22431E-01    9.96588E-02    1.45203E-01
 5.00000E+00    9.69332E-02    7.44447E-02    1.19422E-01
 5.50000E+00    8.41195E-02    6.46038E-02    1.03635E-01
 6.00000E+00    7.63185E-02    5.73152E-02    9.53218E-02
 6.50000E+00    7.08207E-02    5.31863E-02    8.84551E-02
 7.00000E+00    6.66713E-02    4.98035E-02    8.35391E-02
 7.50000E+00    6.30300E-02    4.70834E-02    7.89766E-02
 8.00000E+00    5.96261E-02    4.49581E-02    7.42941E-02
 8.50000E+00    5.63613E-02    4.24964E-02    7.02262E-02
 9.00000E+00    5.32499E-02    4.07362E-02    6.57636E-02
 9.50000E+00    5.02873E-02    3.84698E-02    6.21048E-02
 1.00000E+01    4.74779E-02    3.67479E-02    5.82079E-02
 1.05000E+01    4.48051E-02    3.46791E-02    5.49310E-02
 1.10000E+01    4.23361E-02    3.27681E-02    5.19041E-02
 1.15000E+01    4.00760E-02    3.10188E-02    4.91332E-02
 1.20000E+01    3.79991E-02    2.97913E-02    4.62069E-02
 1.25000E+01    3.60966E-02    2.82997E-02    4.38935E-02
 1.30000E+01    3.43288E-02    2.69138E-02    4.17438E-02
 1.35000E+01    3.29707E-02    2.58490E-02    4.00924E-02
 1.40000E+01    3.15771E-02    2.50091E-02    3.81451E-02
 1.45000E+01    3.01452E-02    2.38750E-02    3.64154E-02
 1.50000E+01    2.86973E-02    2.28431E-02    3.45515E-02
 1.55000E+01    2.72684E-02    2.17056E-02    3.28312E-02
 1.60000E+01    2.60956E-02    2.08765E-02    3.13147E-02
 1.65000E+01    2.50034E-02    2.00027E-02    3.00041E-02
 1.70000E+01    2.39747E-02    1.91798E-02    2.87696E-02
 1.75000E+01    2.30112E-02    1.84090E-02    2.76134E-02
 1.80000E+01    2.21049E-02    1.78608E-02    2.63490E-02
 1.85000E+01    2.12532E-02    1.71726E-02    2.53338E-02
 1.95000E+01    1.96760E-02    1.58982E-02    2.34538E-02
 2.00000E+01    1.89500E-02    1.53116E-02    2.25884E-02
