# n + Cm245 :  n        
# jendl4.0   O.Iwamoto,T.Nakagawa,T.Ohsawa,+   EVAL-JAN10
# uncertainties: n
# # energies =    48
#   E(MeV)       xs(mb) 
 2.30000E+00    0.00000E+00
 2.50000E+00    5.66390E-14
 2.70000E+00    9.91150E-13
 2.85000E+00    1.69980E-11
 3.00000E+00    3.32520E-11
 3.25000E+00    4.16560E-09
 3.50000E+00    8.28420E-09
 3.75000E+00    8.01860E-07
 4.00000E+00    1.60549E-06
 4.25000E+00    1.26779E-04
 4.50000E+00    2.56690E-04
 4.75000E+00    1.84357E-02
 5.00000E+00    3.73420E-02
 5.25000E+00    2.34456E+00
 5.50000E+00    4.61351E+00
 5.62500E+00    2.83411E+01
 5.75000E+00    5.26680E+01
 6.00000E+00    1.01344E+02
 6.25000E+00    1.99314E+02
 6.50000E+00    2.94639E+02
 6.75000E+00    4.08392E+02
 7.00000E+00    5.16469E+02
 7.50000E+00    7.18471E+02
 8.00000E+00    8.78743E+02
 8.50000E+00    9.83255E+02
 9.00000E+00    1.04046E+03
 9.50000E+00    1.07396E+03
 1.00000E+01    1.09679E+03
 1.05000E+01    1.10802E+03
 1.10000E+01    1.11756E+03
 1.15000E+01    1.11835E+03
 1.20000E+01    1.10790E+03
 1.25000E+01    1.08736E+03
 1.30000E+01    1.05770E+03
 1.35000E+01    1.02531E+03
 1.40000E+01    9.95247E+02
 1.45000E+01    9.73441E+02
 1.50000E+01    9.52396E+02
 1.55000E+01    9.40451E+02
 1.60000E+01    9.28521E+02
 1.65000E+01    9.23243E+02
 1.70000E+01    9.17877E+02
 1.75000E+01    9.17880E+02
 1.80000E+01    9.17150E+02
 1.85000E+01    9.20597E+02
 1.90000E+01    9.23968E+02
 1.95000E+01    9.27939E+02
 2.00000E+01    9.31009E+02
