# n + Yb176 : (n,n'05)  
# jeff3.3    A.J. Koning and D. Rochman        EVAL-DEC15
# uncertainties: n
# # energies =    90
#   E(MeV)       xs(mb) 
 1.05582E+00    0.00000E+00
 1.09447E+00    7.18749E-03
 1.13859E+00    1.53922E-02
 1.14548E+00    1.66735E-02
 1.20000E+00    2.68122E-02
 1.20015E+00    2.69404E-02
 1.20646E+00    3.23354E-02
 1.26812E+00    8.50541E-02
 1.29063E+00    1.04300E-01
 1.34404E+00    1.49965E-01
 1.34877E+00    1.54009E-01
 1.40000E+00    1.97810E-01
 1.41769E+00    2.13480E-01
 1.43920E+00    2.32533E-01
 1.44182E+00    2.34854E-01
 1.44373E+00    2.36546E-01
 1.50007E+00    2.86452E-01
 1.50732E+00    2.92874E-01
 1.52764E+00    3.10873E-01
 1.54994E+00    3.30626E-01
 1.56727E+00    3.45977E-01
 1.58435E+00    3.61106E-01
 1.59768E+00    3.72914E-01
 1.60000E+00    3.74969E-01
 1.61920E+00    3.95928E-01
 1.63937E+00    4.17945E-01
 1.68103E+00    4.63421E-01
 1.70170E+00    4.85984E-01
 1.74796E+00    5.36481E-01
 1.80000E+00    5.93287E-01
 2.00000E+00    7.18286E-01
 2.20000E+00    7.45848E-01
 2.40000E+00    7.21798E-01
 2.60000E+00    6.65430E-01
 2.80000E+00    5.91271E-01
 3.00000E+00    5.10796E-01
 3.20000E+00    4.37897E-01
 3.40000E+00    3.64683E-01
 3.60000E+00    2.99355E-01
 3.80000E+00    2.42896E-01
 4.00000E+00    1.98983E-01
 4.20000E+00    1.61625E-01
 4.40000E+00    1.27418E-01
 4.60000E+00    1.00253E-01
 4.80000E+00    7.85082E-02
 5.00000E+00    6.12010E-02
 5.20000E+00    4.75018E-02
 5.40000E+00    3.67280E-02
 5.60000E+00    2.83087E-02
 5.80000E+00    2.15951E-02
 6.00000E+00    1.64842E-02
 6.20000E+00    1.25895E-02
 6.40000E+00    9.61335E-03
 6.60000E+00    7.34723E-03
 6.80000E+00    5.63256E-03
 7.00000E+00    4.31863E-03
 7.20000E+00    3.32203E-03
 7.40000E+00    2.55728E-03
 7.60000E+00    1.96941E-03
 7.80000E+00    1.52147E-03
 8.00000E+00    1.17530E-03
 8.50000E+00    6.22457E-04
 9.00000E+00    3.33493E-04
 9.50000E+00    1.80640E-04
 1.00000E+01    9.88148E-05
 1.05000E+01    5.45338E-05
 1.10000E+01    3.03411E-05
 1.15000E+01    1.70137E-05
 1.20000E+01    9.61144E-06
 1.25000E+01    5.46780E-06
 1.30000E+01    3.13438E-06
 1.35000E+01    1.80906E-06
 1.40000E+01    1.05296E-06
 1.45000E+01    6.16910E-07
 1.50000E+01    3.64220E-07
 1.60000E+01    1.29730E-07
 1.70000E+01    4.74260E-08
 1.80000E+01    1.76700E-08
 1.90000E+01    6.76750E-09
 2.00000E+01    2.65430E-09
 2.10000E+01    1.06080E-09
 2.20000E+01    4.29990E-10
 2.30000E+01    1.77980E-10
 2.40000E+01    7.48680E-11
 2.50000E+01    3.20260E-11
 2.60000E+01    1.39250E-11
 2.70000E+01    6.12760E-12
 2.80000E+01    2.72880E-12
 2.90000E+01    1.23660E-12
 3.00000E+01    5.67700E-13
