# n + Yb176 : (n,n'19)  
# jeff3.3    A.J. Koning and D. Rochman        EVAL-DEC15
# uncertainties: n
# # energies =    74
#   E(MeV)       xs(mb) 
 1.50007E+00    0.00000E+00
 1.50732E+00    5.66412E-01
 1.52764E+00    2.15391E+00
 1.54994E+00    3.89609E+00
 1.56727E+00    5.25000E+00
 1.58435E+00    6.58437E+00
 1.59768E+00    7.62578E+00
 1.60000E+00    7.80703E+00
 1.61920E+00    8.65116E+00
 1.63937E+00    9.53792E+00
 1.68103E+00    1.13695E+01
 1.70170E+00    1.22783E+01
 1.74796E+00    1.43121E+01
 1.80000E+00    1.66000E+01
 2.00000E+00    1.81187E+01
 2.20000E+00    1.58120E+01
 2.40000E+00    1.27189E+01
 2.60000E+00    9.79254E+00
 2.80000E+00    7.32623E+00
 3.00000E+00    5.38421E+00
 3.20000E+00    4.08151E+00
 3.40000E+00    2.96036E+00
 3.60000E+00    2.14764E+00
 3.80000E+00    1.56032E+00
 4.00000E+00    1.13443E+00
 4.20000E+00    8.25101E-01
 4.40000E+00    6.05402E-01
 4.60000E+00    4.50223E-01
 4.80000E+00    3.26261E-01
 5.00000E+00    2.37476E-01
 5.20000E+00    1.73147E-01
 5.40000E+00    1.26501E-01
 5.60000E+00    9.26039E-02
 5.80000E+00    6.74540E-02
 6.00000E+00    4.93725E-02
 6.20000E+00    3.62857E-02
 6.40000E+00    2.67487E-02
 6.60000E+00    1.97852E-02
 6.80000E+00    1.47088E-02
 7.00000E+00    1.09536E-02
 7.20000E+00    8.19388E-03
 7.40000E+00    6.13854E-03
 7.60000E+00    4.60427E-03
 7.80000E+00    3.46537E-03
 8.00000E+00    2.60894E-03
 8.50000E+00    1.29791E-03
 9.00000E+00    6.54932E-04
 9.50000E+00    3.35244E-04
 1.00000E+01    1.73969E-04
 1.05000E+01    9.14460E-05
 1.10000E+01    4.86542E-05
 1.15000E+01    2.61918E-05
 1.20000E+01    1.42563E-05
 1.25000E+01    7.83938E-06
 1.30000E+01    4.35585E-06
 1.35000E+01    2.44246E-06
 1.40000E+01    1.38385E-06
 1.45000E+01    7.90580E-07
 1.50000E+01    4.55840E-07
 1.60000E+01    1.55510E-07
 1.70000E+01    5.47170E-08
 1.80000E+01    1.96990E-08
 1.90000E+01    7.31580E-09
 2.00000E+01    2.79140E-09
 2.10000E+01    1.08860E-09
 2.20000E+01    4.31850E-10
 2.30000E+01    1.75380E-10
 2.40000E+01    7.25490E-11
 2.50000E+01    3.05740E-11
 2.60000E+01    1.31170E-11
 2.70000E+01    5.70230E-12
 2.80000E+01    2.51120E-12
 2.90000E+01    1.12630E-12
 3.00000E+01    5.12140E-13
