# n + Yb176 : (n,n'06)  
# jeff3.3    A.J. Koning and D. Rochman        EVAL-DEC15
# uncertainties: n
# # energies =    89
#   E(MeV)       xs(mb) 
 1.09447E+00    0.00000E+00
 1.13859E+00    7.76274E+01
 1.14548E+00    8.97501E+01
 1.20000E+00    1.85676E+02
 1.20015E+00    1.85703E+02
 1.20646E+00    1.86839E+02
 1.26812E+00    1.97937E+02
 1.29063E+00    2.01988E+02
 1.34404E+00    2.11601E+02
 1.34877E+00    2.12452E+02
 1.40000E+00    2.21673E+02
 1.41769E+00    2.19912E+02
 1.43920E+00    2.17771E+02
 1.44182E+00    2.17510E+02
 1.44373E+00    2.17320E+02
 1.50007E+00    2.11712E+02
 1.50732E+00    2.10990E+02
 1.52764E+00    2.08968E+02
 1.54994E+00    2.06748E+02
 1.56727E+00    2.05023E+02
 1.58435E+00    2.03323E+02
 1.59768E+00    2.01996E+02
 1.60000E+00    2.01765E+02
 1.61920E+00    1.97258E+02
 1.63937E+00    1.92523E+02
 1.68103E+00    1.82743E+02
 1.70170E+00    1.77890E+02
 1.74796E+00    1.67031E+02
 1.80000E+00    1.54814E+02
 2.00000E+00    1.06231E+02
 2.20000E+00    6.94536E+01
 2.40000E+00    4.46411E+01
 2.60000E+00    2.86626E+01
 2.80000E+00    1.85470E+01
 3.00000E+00    1.21695E+01
 3.20000E+00    8.27344E+00
 3.40000E+00    5.65871E+00
 3.60000E+00    3.98027E+00
 3.80000E+00    2.89157E+00
 4.00000E+00    2.18700E+00
 4.20000E+00    1.72665E+00
 4.40000E+00    1.40069E+00
 4.60000E+00    1.18395E+00
 4.80000E+00    1.03808E+00
 5.00000E+00    9.39708E-01
 5.20000E+00    8.73499E-01
 5.40000E+00    8.29292E-01
 5.60000E+00    8.00312E-01
 5.80000E+00    7.81648E-01
 6.00000E+00    7.70916E-01
 6.20000E+00    7.65749E-01
 6.40000E+00    7.64473E-01
 6.60000E+00    7.65880E-01
 6.80000E+00    7.69036E-01
 7.00000E+00    7.73229E-01
 7.20000E+00    7.77988E-01
 7.40000E+00    7.82962E-01
 7.60000E+00    7.87954E-01
 7.80000E+00    7.92853E-01
 8.00000E+00    7.97592E-01
 8.50000E+00    8.08629E-01
 9.00000E+00    8.18509E-01
 9.50000E+00    8.27313E-01
 1.00000E+01    8.35087E-01
 1.05000E+01    8.41821E-01
 1.10000E+01    8.47381E-01
 1.15000E+01    8.51524E-01
 1.20000E+01    8.53964E-01
 1.25000E+01    8.54485E-01
 1.30000E+01    8.53024E-01
 1.35000E+01    8.49676E-01
 1.40000E+01    8.44650E-01
 1.45000E+01    8.38254E-01
 1.50000E+01    8.30864E-01
 1.60000E+01    8.14821E-01
 1.70000E+01    8.00213E-01
 1.80000E+01    7.90470E-01
 1.90000E+01    7.87712E-01
 2.00000E+01    7.92054E-01
 2.10000E+01    8.01651E-01
 2.20000E+01    8.13523E-01
 2.30000E+01    8.24944E-01
 2.40000E+01    8.34574E-01
 2.50000E+01    8.42532E-01
 2.60000E+01    8.49727E-01
 2.70000E+01    8.57103E-01
 2.80000E+01    8.65165E-01
 2.90000E+01    8.73809E-01
 3.00000E+01    8.82452E-01
