# n + Yb176 : (n,n'23)  
# jeff3.3    A.J. Koning and D. Rochman        EVAL-DEC15
# uncertainties: n
# # energies =    70
#   E(MeV)       xs(mb) 
 1.56727E+00    0.00000E+00
 1.58435E+00    1.44029E+00
 1.59768E+00    2.56437E+00
 1.60000E+00    2.76001E+00
 1.61920E+00    3.73685E+00
 1.63937E+00    4.76303E+00
 1.68103E+00    6.88257E+00
 1.70170E+00    7.93420E+00
 1.74796E+00    1.02878E+01
 1.80000E+00    1.29354E+01
 2.00000E+00    1.57141E+01
 2.20000E+00    1.42797E+01
 2.40000E+00    1.17303E+01
 2.60000E+00    9.16927E+00
 2.80000E+00    6.93943E+00
 3.00000E+00    5.14225E+00
 3.20000E+00    3.92145E+00
 3.40000E+00    2.85545E+00
 3.60000E+00    2.07767E+00
 3.80000E+00    1.51342E+00
 4.00000E+00    1.10306E+00
 4.20000E+00    8.04216E-01
 4.40000E+00    5.87020E-01
 4.60000E+00    4.39889E-01
 4.80000E+00    3.20027E-01
 5.00000E+00    2.33273E-01
 5.20000E+00    1.70297E-01
 5.40000E+00    1.24562E-01
 5.60000E+00    9.12853E-02
 5.80000E+00    6.65603E-02
 6.00000E+00    4.87624E-02
 6.20000E+00    3.58709E-02
 6.40000E+00    2.64639E-02
 6.60000E+00    1.95885E-02
 6.80000E+00    1.45721E-02
 7.00000E+00    1.08585E-02
 7.20000E+00    8.12645E-03
 7.40000E+00    6.09094E-03
 7.60000E+00    4.57015E-03
 7.80000E+00    3.44090E-03
 8.00000E+00    2.59138E-03
 8.50000E+00    1.28984E-03
 9.00000E+00    6.51092E-04
 9.50000E+00    3.33385E-04
 1.00000E+01    1.73061E-04
 1.05000E+01    9.09983E-05
 1.10000E+01    4.84311E-05
 1.15000E+01    2.60794E-05
 1.20000E+01    1.41990E-05
 1.25000E+01    7.81004E-06
 1.30000E+01    4.34067E-06
 1.35000E+01    2.43451E-06
 1.40000E+01    1.37962E-06
 1.45000E+01    7.88290E-07
 1.50000E+01    4.54580E-07
 1.60000E+01    1.55110E-07
 1.70000E+01    5.45870E-08
 1.80000E+01    1.96560E-08
 1.90000E+01    7.30060E-09
 2.00000E+01    2.78590E-09
 2.10000E+01    1.08660E-09
 2.20000E+01    4.31100E-10
 2.30000E+01    1.75100E-10
 2.40000E+01    7.24380E-11
 2.50000E+01    3.05300E-11
 2.60000E+01    1.30990E-11
 2.70000E+01    5.69490E-12
 2.80000E+01    2.50800E-12
 2.90000E+01    1.12500E-12
 3.00000E+01    5.11550E-13
