# n + Yb176 : (n,n'15)  
# jeff3.3    A.J. Koning and D. Rochman        EVAL-DEC15
# uncertainties: n
# # energies =    78
#   E(MeV)       xs(mb) 
 1.41769E+00    0.00000E+00
 1.43920E+00    9.69962E-01
 1.44182E+00    1.08811E+00
 1.44373E+00    1.17423E+00
 1.50007E+00    3.71480E+00
 1.50732E+00    4.04173E+00
 1.52764E+00    4.95803E+00
 1.54994E+00    5.96362E+00
 1.56727E+00    6.74509E+00
 1.58435E+00    7.51529E+00
 1.59768E+00    8.11638E+00
 1.60000E+00    8.22100E+00
 1.61920E+00    8.91223E+00
 1.63937E+00    9.63838E+00
 1.68103E+00    1.11382E+01
 1.70170E+00    1.18823E+01
 1.74796E+00    1.35478E+01
 1.80000E+00    1.54213E+01
 2.00000E+00    1.72331E+01
 2.20000E+00    1.55438E+01
 2.40000E+00    1.28856E+01
 2.60000E+00    1.01971E+01
 2.80000E+00    7.85736E+00
 3.00000E+00    5.98516E+00
 3.20000E+00    4.70464E+00
 3.40000E+00    3.61838E+00
 3.60000E+00    2.83773E+00
 3.80000E+00    2.28540E+00
 4.00000E+00    1.89960E+00
 4.20000E+00    1.63564E+00
 4.40000E+00    1.47312E+00
 4.60000E+00    1.36062E+00
 4.80000E+00    1.28821E+00
 5.00000E+00    1.24756E+00
 5.20000E+00    1.22668E+00
 5.40000E+00    1.21774E+00
 5.60000E+00    1.21550E+00
 5.80000E+00    1.21627E+00
 6.00000E+00    1.21897E+00
 6.20000E+00    1.22218E+00
 6.40000E+00    1.22498E+00
 6.60000E+00    1.22678E+00
 6.80000E+00    1.22724E+00
 7.00000E+00    1.22617E+00
 7.20000E+00    1.22368E+00
 7.40000E+00    1.22001E+00
 7.60000E+00    1.21558E+00
 7.80000E+00    1.21080E+00
 8.00000E+00    1.20608E+00
 8.50000E+00    1.19650E+00
 9.00000E+00    1.19189E+00
 9.50000E+00    1.19205E+00
 1.00000E+01    1.19500E+00
 1.05000E+01    1.19819E+00
 1.10000E+01    1.19931E+00
 1.15000E+01    1.19672E+00
 1.20000E+01    1.18964E+00
 1.25000E+01    1.17808E+00
 1.30000E+01    1.16263E+00
 1.35000E+01    1.14429E+00
 1.40000E+01    1.12412E+00
 1.45000E+01    1.10310E+00
 1.50000E+01    1.08203E+00
 1.60000E+01    1.04163E+00
 1.70000E+01    1.00472E+00
 1.80000E+01    9.70951E-01
 1.90000E+01    9.39190E-01
 2.00000E+01    9.08197E-01
 2.10000E+01    8.77118E-01
 2.20000E+01    8.45830E-01
 2.30000E+01    8.14879E-01
 2.40000E+01    7.85121E-01
 2.50000E+01    7.57249E-01
 2.60000E+01    7.31542E-01
 2.70000E+01    7.07887E-01
 2.80000E+01    6.85904E-01
 2.90000E+01    6.65112E-01
 3.00000E+01    6.45111E-01
