# n + Yb176 : (n,n'12)  
# jeff3.3    A.J. Koning and D. Rochman        EVAL-DEC15
# uncertainties: n
# # energies =    82
#   E(MeV)       xs(mb) 
 1.29063E+00    0.00000E+00
 1.34404E+00    1.94771E+01
 1.34877E+00    2.12020E+01
 1.40000E+00    3.98841E+01
 1.41769E+00    4.18064E+01
 1.43920E+00    4.41438E+01
 1.44182E+00    4.44285E+01
 1.44373E+00    4.46361E+01
 1.50007E+00    5.07583E+01
 1.50732E+00    5.15461E+01
 1.52764E+00    5.37542E+01
 1.54994E+00    5.61775E+01
 1.56727E+00    5.80607E+01
 1.58435E+00    5.99167E+01
 1.59768E+00    6.13652E+01
 1.60000E+00    6.16173E+01
 1.61920E+00    6.17435E+01
 1.63937E+00    6.18761E+01
 1.68103E+00    6.21500E+01
 1.70170E+00    6.22859E+01
 1.74796E+00    6.25901E+01
 1.80000E+00    6.29322E+01
 2.00000E+00    5.25807E+01
 2.20000E+00    3.94655E+01
 2.40000E+00    2.84460E+01
 2.60000E+00    2.00954E+01
 2.80000E+00    1.40448E+01
 3.00000E+00    9.76940E+00
 3.20000E+00    7.01594E+00
 3.40000E+00    4.88421E+00
 3.60000E+00    3.41268E+00
 3.80000E+00    2.39460E+00
 4.00000E+00    1.68580E+00
 4.20000E+00    1.20134E+00
 4.40000E+00    8.67067E-01
 4.60000E+00    6.13397E-01
 4.80000E+00    4.36674E-01
 5.00000E+00    3.11887E-01
 5.20000E+00    2.23491E-01
 5.40000E+00    1.60670E-01
 5.60000E+00    1.15856E-01
 5.80000E+00    8.32122E-02
 6.00000E+00    6.00956E-02
 6.20000E+00    4.36131E-02
 6.40000E+00    3.17692E-02
 6.60000E+00    2.32363E-02
 6.80000E+00    1.70892E-02
 7.00000E+00    1.26002E-02
 7.20000E+00    9.33577E-03
 7.40000E+00    6.93072E-03
 7.60000E+00    5.15477E-03
 7.80000E+00    3.84790E-03
 8.00000E+00    2.87505E-03
 8.50000E+00    1.40528E-03
 9.00000E+00    6.97999E-04
 9.50000E+00    3.52197E-04
 1.00000E+01    1.80386E-04
 1.05000E+01    9.36923E-05
 1.10000E+01    4.93123E-05
 1.15000E+01    2.62879E-05
 1.20000E+01    1.41831E-05
 1.25000E+01    7.73753E-06
 1.30000E+01    4.26865E-06
 1.35000E+01    2.37819E-06
 1.40000E+01    1.33961E-06
 1.45000E+01    7.61250E-07
 1.50000E+01    4.36800E-07
 1.60000E+01    1.47720E-07
 1.70000E+01    5.15770E-08
 1.80000E+01    1.84430E-08
 1.90000E+01    6.80870E-09
 2.00000E+01    2.58400E-09
 2.10000E+01    1.00280E-09
 2.20000E+01    3.96060E-10
 2.30000E+01    1.60210E-10
 2.40000E+01    6.60350E-11
 2.50000E+01    2.77410E-11
 2.60000E+01    1.18670E-11
 2.70000E+01    5.14580E-12
 2.80000E+01    2.26070E-12
 2.90000E+01    1.01170E-12
 3.00000E+01    4.59080E-13
