# n + Fe 55 : (n,el)    
# jeff3.3    A.J. Koning and D. Rochman        EVAL-DEC15
# uncertainties: y
# # energies =    69
#   E(MeV)       xs(mb)       xslow(mb)      xsupp(mb)
 1.00000E-10    7.39686E+03    7.39686E+03    7.39686E+03
 5.00000E-09    5.14850E+03    5.14850E+03    5.14850E+03
 1.00000E-08    5.07679E+03    5.07679E+03    5.07679E+03
 1.50000E-08    5.04868E+03    5.04868E+03    5.04868E+03
 2.00000E-08    5.03341E+03    5.03341E+03    5.03341E+03
 2.50000E-08    5.02396E+03    5.02396E+03    5.02396E+03
 3.00000E-08    5.01729E+03    5.01729E+03    5.01729E+03
 3.50000E-08    5.01178E+03    5.01178E+03    5.01178E+03
 4.20000E-08    5.00693E+03    5.00693E+03    5.00693E+03
 5.00000E-08    5.00288E+03    5.00288E+03    5.00288E+03
 5.80000E-08    5.00016E+03    5.00016E+03    5.00016E+03
 6.70000E-08    4.99709E+03    4.99709E+03    4.99709E+03
 8.00000E-08    4.99436E+03    4.99436E+03    4.99436E+03
 1.00000E-07    4.99089E+03    4.99089E+03    4.99089E+03
 1.40000E-07    4.98818E+03    4.98818E+03    4.98818E+03
 1.80000E-07    4.98632E+03    4.98632E+03    4.98632E+03
 2.20000E-07    4.98545E+03    4.98545E+03    4.98545E+03
 2.50000E-07    4.98471E+03    4.98471E+03    4.98471E+03
 2.80000E-07    4.98409E+03    4.98409E+03    4.98409E+03
 3.00000E-07    4.98360E+03    4.98360E+03    4.98360E+03
 3.20000E-07    4.98299E+03    4.98299E+03    4.98299E+03
 3.50000E-07    4.98238E+03    4.98238E+03    4.98238E+03
 4.00000E-07    4.98165E+03    4.98165E+03    4.98165E+03
 5.00000E-07    4.98054E+03    4.98054E+03    4.98054E+03
 6.25000E-07    4.97916E+03    4.97916E+03    4.97916E+03
 7.80000E-07    4.97802E+03    4.97802E+03    4.97802E+03
 8.50000E-07    4.97737E+03    4.97737E+03    4.97737E+03
 9.10000E-07    4.97690E+03    4.97690E+03    4.97690E+03
 9.50000E-07    4.97669E+03    4.97669E+03    4.97669E+03
 9.72000E-07    4.97656E+03    4.97656E+03    4.97656E+03
 9.96000E-07    4.97641E+03    4.97641E+03    4.97641E+03
 1.02000E-06    4.97627E+03    4.97627E+03    4.97627E+03
 1.04500E-06    4.97611E+03    4.97611E+03    4.97611E+03
 1.07100E-06    4.97596E+03    4.97596E+03    4.97596E+03
 1.09700E-06    4.97580E+03    4.97580E+03    4.97580E+03
 1.12300E-06    4.97564E+03    4.97564E+03    4.97564E+03
 1.15000E-06    4.97512E+03    4.97512E+03    4.97512E+03
 1.30000E-06    4.97408E+03    4.97408E+03    4.97408E+03
 1.50000E-06    4.97177E+03    4.97177E+03    4.97177E+03
 2.10000E-06    4.96843E+03    4.96843E+03    4.96843E+03
 2.60000E-06    4.96486E+03    4.96486E+03    4.96486E+03
 3.30000E-06    4.96065E+03    4.96065E+03    4.96065E+03
 4.00000E-06    4.94350E+03    4.94350E+03    4.94350E+03
 9.87700E-06    4.90649E+03    4.90649E+03    4.90649E+03
 1.59680E-05    4.85486E+03    4.85486E+03    4.85486E+03
 2.77000E-05    4.76112E+03    4.76112E+03    4.76112E+03
 4.80520E-05    4.62820E+03    4.62820E+03    4.62820E+03
 7.55014E-05    4.38719E+03    4.38719E+03    4.38719E+03
 1.48728E-04    3.82761E+03    3.82761E+03    3.82761E+03
 3.67262E-04    2.79438E+03    2.79438E+03    2.79438E+03
 9.06898E-04    1.63646E+03    1.63646E+03    1.63646E+03
 1.42510E-03    1.77135E+03    1.77135E+03    1.77135E+03
 2.23945E-03    6.60289E+04    6.60289E+04    6.60289E+04
 3.51910E-03    2.21463E+03    2.21463E+03    2.21463E+03
 5.53000E-03    4.44400E+04    4.44400E+04    4.44400E+04
 9.11800E-03    1.21471E+04    1.21471E+04    1.21471E+04
 1.50300E-02    1.19368E+04    1.19368E+04    1.19368E+04
 2.47800E-02    1.53656E+04    1.53656E+04    1.53656E+04
 4.08500E-02    1.40786E+04    1.09190E+04    1.72382E+04
 6.73400E-02    1.10083E+04    8.53771E+03    1.34788E+04
 1.11000E-01    8.74455E+03    6.78204E+03    1.07071E+04
 1.83000E-01    6.65212E+03    5.15921E+03    8.14503E+03
 3.02000E-01    5.14164E+03    4.13202E+03    6.15127E+03
 5.00000E-01    4.02877E+03    3.23767E+03    4.81987E+03
 8.21000E-01    3.26720E+03    2.88489E+03    3.64951E+03
 1.35300E+00    2.57436E+03    2.40017E+03    2.74855E+03
 2.23100E+00    2.20768E+03    1.95948E+03    2.45589E+03
 3.67900E+00    2.12016E+03    1.95948E+03    2.28083E+03
 6.06500E+00    1.87370E+03    1.68358E+03    2.06382E+03
