# p + Hg201 : (p,el)    
# endfb8.0   S.CHIBA,M.CHADWICK,P.YOUNG        EVAL-FEB98
# uncertainties: n
# # energies =    82
#   E(MeV)       xs(mb) 
 1.00000E+00   -1.50935E+04
 2.00000E+00   -4.02970E+03
 3.00000E+00   -2.09336E+03
 4.00000E+00   -9.64336E+02
 5.00000E+00   -5.45963E+02
 6.00000E+00   -3.77980E+02
 7.00000E+00   -2.87222E+02
 8.00000E+00   -1.95557E+02
 9.00000E+00   -2.20858E+02
 1.00000E+01   -2.30452E+02
 1.10000E+01   -1.71764E+02
 1.20000E+01   -6.35264E+01
 1.30000E+01   -1.57498E+02
 1.40000E+01   -3.28525E+02
 1.50000E+01   -3.42194E+02
 1.60000E+01   -2.02976E+02
 1.70000E+01   -9.43863E+01
 1.80000E+01   -1.25506E+02
 1.90000E+01   -2.70549E+02
 2.00000E+01   -4.33736E+02
 2.10000E+01   -4.99284E+02
 2.20000E+01   -5.60398E+02
 2.30000E+01   -5.22980E+02
 2.40000E+01   -4.04035E+02
 2.50000E+01   -2.41998E+02
 2.60000E+01   -8.51682E+01
 2.70000E+01    4.35699E+01
 2.80000E+01    1.20693E+02
 2.90000E+01    1.59383E+02
 3.00000E+01    1.50073E+02
 3.10000E+01    1.08359E+02
 3.20000E+01    3.31712E+01
 3.30000E+01   -6.14084E+01
 3.40000E+01   -1.65262E+02
 3.50000E+01   -2.69533E+02
 3.60000E+01   -3.67853E+02
 3.70000E+01   -4.54260E+02
 3.80000E+01   -5.26867E+02
 3.90000E+01   -5.83232E+02
 4.00000E+01   -6.23778E+02
 4.10000E+01   -6.48684E+02
 4.20000E+01   -6.59308E+02
 4.30000E+01   -6.56128E+02
 4.40000E+01   -6.40478E+02
 4.50000E+01   -6.15784E+02
 4.60000E+01   -5.82989E+02
 4.70000E+01   -5.42784E+02
 4.80000E+01   -4.98536E+02
 4.90000E+01   -4.51141E+02
 5.00000E+01   -4.00538E+02
 5.10000E+01   -3.49890E+02
 5.20000E+01   -2.99945E+02
 5.30000E+01   -2.50247E+02
 5.40000E+01   -2.01953E+02
 5.50000E+01   -1.55915E+02
 5.60000E+01   -1.13100E+02
 5.70000E+01   -7.34250E+01
 5.80000E+01   -3.68451E+01
 5.90000E+01   -2.56219E+00
 6.00000E+01    2.74184E+01
 6.10000E+01    5.33104E+01
 6.20000E+01    7.67836E+01
 6.30000E+01    9.62510E+01
 6.40000E+01    1.12841E+02
 6.50000E+01    1.26053E+02
 6.60000E+01    1.35522E+02
 6.70000E+01    1.43162E+02
 6.80000E+01    1.47405E+02
 6.90000E+01    1.48979E+02
 7.00000E+01    1.49119E+02
 7.10000E+01    1.46017E+02
 7.20000E+01    1.41237E+02
 7.30000E+01    1.33601E+02
 7.40000E+01    1.25129E+02
 7.50000E+01    1.14823E+02
 7.60000E+01    1.03555E+02
 7.70000E+01    9.02039E+01
 7.80000E+01    7.64177E+01
 7.90000E+01    6.10193E+01
 8.00000E+01    4.46425E+01
 8.10000E+01    2.78786E+01
 8.20000E+01    1.03975E+01
