# n + Ce138 : (n,n'11)  
# tendl.2019 A.J. Koning and D. Rochman        EVAL-NOV19
# uncertainties: n
# # energies =    78
#   E(MeV)       xs(mb) 
 2.35696E+00    0.00000E+00
 2.40000E+00    1.38070E+01
 2.41134E+00    1.45534E+01
 2.41361E+00    1.47028E+01
 2.46155E+00    1.78580E+01
 2.48906E+00    1.96687E+01
 2.51701E+00    2.15083E+01
 2.54448E+00    2.33162E+01
 2.60000E+00    2.69704E+01
 2.61175E+00    2.73372E+01
 2.66173E+00    2.88974E+01
 2.73889E+00    3.13061E+01
 2.75328E+00    3.17553E+01
 2.76866E+00    3.22355E+01
 2.78506E+00    3.27474E+01
 2.80000E+00    3.32138E+01
 2.90610E+00    3.50286E+01
 2.92035E+00    3.52724E+01
 2.92444E+00    3.53424E+01
 2.92845E+00    3.54109E+01
 2.96352E+00    3.60108E+01
 2.97198E+00    3.61555E+01
 3.00000E+00    3.66348E+01
 3.01760E+00    3.63377E+01
 3.20000E+00    3.32588E+01
 3.40000E+00    2.68231E+01
 3.60000E+00    2.02130E+01
 3.80000E+00    1.45474E+01
 4.00000E+00    1.02104E+01
 4.20000E+00    7.11462E+00
 4.40000E+00    4.97898E+00
 4.60000E+00    3.51989E+00
 4.80000E+00    2.51752E+00
 5.00000E+00    1.82061E+00
 5.20000E+00    1.32953E+00
 5.40000E+00    9.78338E-01
 5.60000E+00    7.24569E-01
 5.80000E+00    5.39200E-01
 6.00000E+00    4.02747E-01
 6.20000E+00    3.01095E-01
 6.40000E+00    2.25712E-01
 6.60000E+00    1.69560E-01
 6.80000E+00    1.27641E-01
 7.00000E+00    9.63435E-02
 7.20000E+00    7.29482E-02
 7.40000E+00    5.53770E-02
 7.60000E+00    4.22516E-02
 7.80000E+00    3.22968E-02
 8.00000E+00    2.48573E-02
 8.50000E+00    1.31251E-02
 9.00000E+00    7.10877E-03
 9.50000E+00    3.93289E-03
 1.00000E+01    2.21145E-03
 1.05000E+01    1.25498E-03
 1.10000E+01    7.15406E-04
 1.15000E+01    4.09178E-04
 1.20000E+01    2.35024E-04
 1.25000E+01    1.35773E-04
 1.30000E+01    7.90028E-05
 1.35000E+01    4.63523E-05
 1.40000E+01    2.74456E-05
 1.45000E+01    1.64044E-05
 1.50000E+01    9.89733E-06
 1.60000E+01    3.69653E-06
 1.70000E+01    1.42271E-06
 1.80000E+01    5.61360E-07
 1.90000E+01    2.26110E-07
 2.00000E+01    9.23600E-08
 2.10000E+01    3.85910E-08
 2.20000E+01    1.64290E-08
 2.30000E+01    7.12770E-09
 2.40000E+01    3.14680E-09
 2.50000E+01    1.41340E-09
 2.60000E+01    6.46280E-10
 2.70000E+01    3.00350E-10
 2.80000E+01    1.41550E-10
 2.90000E+01    6.74850E-11
 3.00000E+01    3.24850E-11
