# n + Ga 71 : (n,n'09)  
# jeff3.3    A.J. Koning and D. Rochman        EVAL-DEC15
# uncertainties: n
# # energies =    84
#   E(MeV)       xs(mb) 
 1.41490E+00    0.00000E+00
 1.49695E+00    1.80188E+01
 1.51498E+00    2.19783E+01
 1.51970E+00    2.30149E+01
 1.60000E+00    4.06493E+01
 1.65460E+00    4.56685E+01
 1.72336E+00    5.19895E+01
 1.74395E+00    5.38823E+01
 1.77724E+00    5.69425E+01
 1.80000E+00    5.90348E+01
 1.93246E+00    6.63218E+01
 1.96926E+00    6.83463E+01
 2.00000E+00    7.00374E+01
 2.02337E+00    7.05137E+01
 2.09342E+00    7.19412E+01
 2.09873E+00    7.20494E+01
 2.11165E+00    7.23127E+01
 2.16447E+00    7.33891E+01
 2.20000E+00    7.41132E+01
 2.22216E+00    7.41782E+01
 2.27914E+00    7.43454E+01
 2.32702E+00    7.44858E+01
 2.36009E+00    7.45828E+01
 2.40000E+00    7.46999E+01
 2.43007E+00    7.41369E+01
 2.45543E+00    7.36620E+01
 2.48546E+00    7.30997E+01
 2.60000E+00    7.09551E+01
 2.80000E+00    6.30535E+01
 3.00000E+00    5.36117E+01
 3.20000E+00    4.43908E+01
 3.40000E+00    3.62286E+01
 3.60000E+00    2.94123E+01
 3.80000E+00    2.38754E+01
 4.00000E+00    1.94070E+01
 4.20000E+00    1.57992E+01
 4.40000E+00    1.28546E+01
 4.60000E+00    1.04736E+01
 4.80000E+00    8.53475E+00
 5.00000E+00    6.95357E+00
 5.20000E+00    5.66324E+00
 5.40000E+00    4.61134E+00
 5.60000E+00    3.75551E+00
 5.80000E+00    3.05995E+00
 6.00000E+00    2.49588E+00
 6.20000E+00    2.03889E+00
 6.40000E+00    1.66854E+00
 6.60000E+00    1.37009E+00
 6.80000E+00    1.12527E+00
 7.00000E+00    9.30277E-01
 7.20000E+00    7.70006E-01
 7.40000E+00    6.39957E-01
 7.60000E+00    5.34623E-01
 7.80000E+00    4.46232E-01
 8.00000E+00    3.76107E-01
 8.50000E+00    2.50145E-01
 9.00000E+00    1.72753E-01
 9.50000E+00    1.24448E-01
 1.00000E+01    9.37928E-02
 1.05000E+01    7.40505E-02
 1.10000E+01    6.12488E-02
 1.15000E+01    5.29193E-02
 1.20000E+01    4.75139E-02
 1.25000E+01    4.40258E-02
 1.30000E+01    4.17983E-02
 1.35000E+01    4.03977E-02
 1.40000E+01    3.95344E-02
 1.45000E+01    3.90142E-02
 1.50000E+01    3.87066E-02
 1.60000E+01    3.84059E-02
 1.70000E+01    3.82254E-02
 1.80000E+01    3.80068E-02
 1.90000E+01    3.77127E-02
 2.00000E+01    3.73577E-02
 2.10000E+01    3.69680E-02
 2.20000E+01    3.65635E-02
 2.30000E+01    3.61523E-02
 2.40000E+01    3.57334E-02
 2.50000E+01    3.53007E-02
 2.60000E+01    3.48475E-02
 2.70000E+01    3.43689E-02
 2.80000E+01    3.38639E-02
 2.90000E+01    3.33342E-02
 3.00000E+01    3.27845E-02
