# n + Ga 71 : (n,n'11)  
# jeff3.3    A.J. Koning and D. Rochman        EVAL-DEC15
# uncertainties: n
# # energies =    82
#   E(MeV)       xs(mb) 
 1.51498E+00    0.00000E+00
 1.51970E+00    7.88847E-01
 1.60000E+00    1.42090E+01
 1.65460E+00    1.81237E+01
 1.72336E+00    2.30537E+01
 1.74395E+00    2.45300E+01
 1.77724E+00    2.69169E+01
 1.80000E+00    2.85487E+01
 1.93246E+00    3.64219E+01
 1.96926E+00    3.86093E+01
 2.00000E+00    4.04364E+01
 2.02337E+00    4.12319E+01
 2.09342E+00    4.36163E+01
 2.09873E+00    4.37971E+01
 2.11165E+00    4.42369E+01
 2.16447E+00    4.60348E+01
 2.20000E+00    4.72442E+01
 2.22216E+00    4.76520E+01
 2.27914E+00    4.87005E+01
 2.32702E+00    4.95816E+01
 2.36009E+00    5.01902E+01
 2.40000E+00    5.09246E+01
 2.43007E+00    5.08872E+01
 2.45543E+00    5.08557E+01
 2.48546E+00    5.08184E+01
 2.60000E+00    5.06760E+01
 2.80000E+00    4.66990E+01
 3.00000E+00    4.07017E+01
 3.20000E+00    3.42503E+01
 3.40000E+00    2.82117E+01
 3.60000E+00    2.29842E+01
 3.80000E+00    1.86435E+01
 4.00000E+00    1.51017E+01
 4.20000E+00    1.22373E+01
 4.40000E+00    9.91295E+00
 4.60000E+00    8.05277E+00
 4.80000E+00    6.55669E+00
 5.00000E+00    5.35205E+00
 5.20000E+00    4.37991E+00
 5.40000E+00    3.59433E+00
 5.60000E+00    2.95892E+00
 5.80000E+00    2.44389E+00
 6.00000E+00    2.02612E+00
 6.20000E+00    1.68653E+00
 6.40000E+00    1.41011E+00
 6.60000E+00    1.18544E+00
 6.80000E+00    9.99490E-01
 7.00000E+00    8.49971E-01
 7.20000E+00    7.25276E-01
 7.40000E+00    6.22916E-01
 7.60000E+00    5.38776E-01
 7.80000E+00    4.67106E-01
 8.00000E+00    4.09403E-01
 8.50000E+00    3.02812E-01
 9.00000E+00    2.34419E-01
 9.50000E+00    1.89662E-01
 1.00000E+01    1.59703E-01
 1.05000E+01    1.39152E-01
 1.10000E+01    1.24715E-01
 1.15000E+01    1.14286E-01
 1.20000E+01    1.06528E-01
 1.25000E+01    1.00573E-01
 1.30000E+01    9.58709E-02
 1.35000E+01    9.20694E-02
 1.40000E+01    8.89400E-02
 1.45000E+01    8.63246E-02
 1.50000E+01    8.41071E-02
 1.60000E+01    8.05094E-02
 1.70000E+01    7.75771E-02
 1.80000E+01    7.49669E-02
 1.90000E+01    7.25387E-02
 2.00000E+01    7.02813E-02
 2.10000E+01    6.82369E-02
 2.20000E+01    6.64409E-02
 2.30000E+01    6.48991E-02
 2.40000E+01    6.35817E-02
 2.50000E+01    6.24326E-02
 2.60000E+01    6.13854E-02
 2.70000E+01    6.03801E-02
 2.80000E+01    5.93764E-02
 2.90000E+01    5.83558E-02
 3.00000E+01    5.73194E-02
