# n + Ga 71 : (n,n'12)  
# jeff3.3    A.J. Koning and D. Rochman        EVAL-DEC15
# uncertainties: n
# # energies =    81
#   E(MeV)       xs(mb) 
 1.51970E+00    0.00000E+00
 1.60000E+00    1.21384E+01
 1.65460E+00    1.60899E+01
 1.72336E+00    2.10662E+01
 1.74395E+00    2.25563E+01
 1.77724E+00    2.49656E+01
 1.80000E+00    2.66128E+01
 1.93246E+00    3.42647E+01
 1.96926E+00    3.63905E+01
 2.00000E+00    3.81663E+01
 2.02337E+00    3.89455E+01
 2.09342E+00    4.12811E+01
 2.09873E+00    4.14581E+01
 2.11165E+00    4.18889E+01
 2.16447E+00    4.36500E+01
 2.20000E+00    4.48346E+01
 2.22216E+00    4.52362E+01
 2.27914E+00    4.62688E+01
 2.32702E+00    4.71365E+01
 2.36009E+00    4.77358E+01
 2.40000E+00    4.84590E+01
 2.43007E+00    4.84444E+01
 2.45543E+00    4.84321E+01
 2.48546E+00    4.84176E+01
 2.60000E+00    4.83621E+01
 2.80000E+00    4.47104E+01
 3.00000E+00    3.92132E+01
 3.20000E+00    3.33050E+01
 3.40000E+00    2.77703E+01
 3.60000E+00    2.29639E+01
 3.80000E+00    1.89447E+01
 4.00000E+00    1.56233E+01
 4.20000E+00    1.28879E+01
 4.40000E+00    1.06147E+01
 4.60000E+00    8.74798E+00
 4.80000E+00    7.20518E+00
 5.00000E+00    5.92961E+00
 5.20000E+00    4.87498E+00
 5.40000E+00    4.00478E+00
 5.60000E+00    3.28886E+00
 5.80000E+00    2.70095E+00
 6.00000E+00    2.21975E+00
 6.20000E+00    1.82645E+00
 6.40000E+00    1.50551E+00
 6.60000E+00    1.24464E+00
 6.80000E+00    1.02946E+00
 7.00000E+00    8.57180E-01
 7.20000E+00    7.14424E-01
 7.40000E+00    5.98188E-01
 7.60000E+00    5.03465E-01
 7.80000E+00    4.23608E-01
 8.00000E+00    3.60035E-01
 8.50000E+00    2.44927E-01
 9.00000E+00    1.73530E-01
 9.50000E+00    1.28585E-01
 1.00000E+01    9.98527E-02
 1.05000E+01    8.12363E-02
 1.10000E+01    6.91069E-02
 1.15000E+01    6.11887E-02
 1.20000E+01    5.60448E-02
 1.25000E+01    5.27324E-02
 1.30000E+01    5.06314E-02
 1.35000E+01    4.93280E-02
 1.40000E+01    4.85435E-02
 1.45000E+01    4.80889E-02
 1.50000E+01    4.78357E-02
 1.60000E+01    4.76128E-02
 1.70000E+01    4.74679E-02
 1.80000E+01    4.72438E-02
 1.90000E+01    4.69087E-02
 2.00000E+01    4.64870E-02
 2.10000E+01    4.60147E-02
 2.20000E+01    4.55189E-02
 2.30000E+01    4.50121E-02
 2.40000E+01    4.44944E-02
 2.50000E+01    4.39593E-02
 2.60000E+01    4.33990E-02
 2.70000E+01    4.28076E-02
 2.80000E+01    4.21835E-02
 2.90000E+01    4.15288E-02
 3.00000E+01    4.08488E-02
