# n + Ga 71 : (n,xp)    
# jeff3.3    A.J. Koning and D. Rochman        EVAL-DEC15
# 
# # energies =   131
#   E(MeV)        xs(mb) 
 3.95496E-01    0.00000E+00
 4.00000E-01    0.00000E+00
 4.94291E-01    0.00000E+00
 5.00000E-01    0.00000E+00
 5.18776E-01    0.00000E+00
 6.00000E-01    0.00000E+00
 7.00000E-01    0.00000E+00
 7.24154E-01    0.00000E+00
 8.00000E-01    0.00000E+00
 9.00000E-01    0.00000E+00
 9.23104E-01    0.00000E+00
 9.78379E-01    0.00000E+00
 1.00000E+00    0.00000E+00
 1.12327E+00    0.00000E+00
 1.12509E+00    0.00000E+00
 1.20000E+00    0.00000E+00
 1.40000E+00    0.00000E+00
 1.41490E+00    0.00000E+00
 1.49695E+00    0.00000E+00
 1.51498E+00    0.00000E+00
 1.51970E+00    0.00000E+00
 1.60000E+00    0.00000E+00
 1.65460E+00    0.00000E+00
 1.72336E+00    0.00000E+00
 1.74395E+00    0.00000E+00
 1.77724E+00    0.00000E+00
 1.80000E+00    0.00000E+00
 1.93246E+00    0.00000E+00
 1.96926E+00    0.00000E+00
 2.00000E+00    0.00000E+00
 2.02337E+00    0.00000E+00
 2.09342E+00    3.92589E-11
 2.09873E+00    4.49531E-11
 2.11165E+00    5.88078E-11
 2.16447E+00    1.15449E-10
 2.20000E+00    1.53550E-10
 2.22216E+00    1.77313E-10
 2.27914E+00    2.38416E-10
 2.32702E+00    2.89760E-10
 2.36009E+00    3.25223E-10
 2.40000E+00    3.68020E-10
 2.43007E+00    4.00266E-10
 2.45543E+00    4.27460E-10
 2.48546E+00    4.59663E-10
 2.60000E+00    5.82490E-10
 2.80000E+00    8.31370E-08
 3.00000E+00    2.53219E-06
 3.20000E+00    3.11511E-05
 3.40000E+00    2.12073E-04
 3.60000E+00    9.58871E-04
 3.80000E+00    3.22603E-03
 4.00000E+00    8.69897E-03
 4.20000E+00    1.99280E-02
 4.40000E+00    3.97586E-02
 4.60000E+00    7.11972E-02
 4.80000E+00    1.17040E-01
 5.00000E+00    1.79804E-01
 5.20000E+00    2.60592E-01
 5.40000E+00    3.59720E-01
 5.60000E+00    4.75967E-01
 5.80000E+00    6.06570E-01
 6.00000E+00    7.47140E-01
 6.20000E+00    8.91961E-01
 6.40000E+00    1.03595E+00
 6.60000E+00    1.17868E+00
 6.80000E+00    1.31617E+00
 7.00000E+00    1.54966E+00
 7.20000E+00    1.66421E+00
 7.40000E+00    1.72358E+00
 7.60000E+00    2.07743E+00
 7.80000E+00    2.24171E+00
 8.00000E+00    2.63732E+00
 8.50000E+00    3.56864E+00
 9.00000E+00    4.81869E+00
 9.50000E+00    6.43808E+00
 1.00000E+01    8.37630E+00
 1.05000E+01    1.06333E+01
 1.10000E+01    1.27845E+01
 1.15000E+01    1.55652E+01
 1.20000E+01    1.86091E+01
 1.25000E+01    2.19127E+01
 1.30000E+01    2.54939E+01
 1.35000E+01    2.93528E+01
 1.40000E+01    3.34533E+01
 1.45000E+01    3.77701E+01
 1.50000E+01    4.24994E+01
 1.60000E+01    5.19761E+01
 1.70000E+01    6.21489E+01
 1.80000E+01    7.31214E+01
 1.90000E+01    8.50831E+01
 2.00000E+01    9.85480E+01
 2.10000E+01    1.12406E+02
 2.20000E+01    1.26994E+02
 2.30000E+01    1.42297E+02
 2.40000E+01    1.58606E+02
 2.50000E+01    1.74512E+02
 2.60000E+01    1.90753E+02
 2.70000E+01    2.06937E+02
 2.80000E+01    2.23083E+02
 2.90000E+01    2.39377E+02
 3.00000E+01    2.55693E+02
 3.00000E+01    2.55176E+02
 3.20000E+01    2.87049E+02
 3.40000E+01    3.16243E+02
 3.60000E+01    3.40477E+02
 3.80000E+01    3.61159E+02
 4.00000E+01    3.79118E+02
 4.20000E+01    3.95362E+02
 4.40000E+01    4.10627E+02
 4.60000E+01    4.24270E+02
 4.80000E+01    4.38459E+02
 5.00000E+01    4.52441E+02
 5.20000E+01    4.66413E+02
 5.40000E+01    4.80147E+02
 5.60000E+01    4.92992E+02
 5.80000E+01    5.04155E+02
 6.00000E+01    5.13388E+02
 6.50000E+01    5.34663E+02
 7.00000E+01    5.55126E+02
 7.50000E+01    5.66996E+02
 8.00000E+01    5.77678E+02
 9.00000E+01    5.94274E+02
 1.00000E+02    5.99234E+02
 1.10000E+02    6.09501E+02
 1.20000E+02    6.18441E+02
 1.30000E+02    6.65735E+02
 1.40000E+02    7.21845E+02
 1.50000E+02    7.88397E+02
 1.60000E+02    8.68141E+02
 1.80000E+02    1.05699E+03
 2.00000E+02    1.30662E+03
