# n + Ga 71 : (n,xa)    
# jeff3.3    A.J. Koning and D. Rochman        EVAL-DEC15
# 
# # energies =   131
#   E(MeV)        xs(mb) 
 3.95496E-01    1.00004E-17
 4.00000E-01    1.00004E-17
 4.94291E-01    1.00000E-17
 5.00000E-01    1.01270E-17
 5.18776E-01    3.25123E-16
 6.00000E-01    1.69741E-15
 7.00000E-01    1.16440E-14
 7.24154E-01    2.41548E-14
 8.00000E-01    6.34400E-14
 9.00000E-01    3.27070E-13
 9.23104E-01    8.96498E-13
 9.78379E-01    2.25882E-12
 1.00000E+00    2.79170E-12
 1.12327E+00    2.56998E-11
 1.12509E+00    2.60380E-11
 1.20000E+00    3.99590E-11
 1.40000E+00    3.91760E-10
 1.41490E+00    5.80143E-10
 1.49695E+00    1.61752E-09
 1.51498E+00    1.84547E-09
 1.51970E+00    1.90515E-09
 1.60000E+00    2.92040E-09
 1.65460E+00    6.86596E-09
 1.72336E+00    1.18348E-08
 1.74395E+00    1.33227E-08
 1.77724E+00    1.57283E-08
 1.80000E+00    1.73730E-08
 1.93246E+00    6.29525E-08
 1.96926E+00    7.56154E-08
 2.00000E+00    8.61930E-08
 2.02337E+00    1.18809E-07
 2.09342E+00    2.16573E-07
 2.09873E+00    2.23984E-07
 2.11165E+00    2.42016E-07
 2.16447E+00    3.15733E-07
 2.20000E+00    3.65320E-07
 2.22216E+00    4.75398E-07
 2.27914E+00    7.58440E-07
 2.32702E+00    9.96278E-07
 2.36009E+00    1.16055E-06
 2.40000E+00    1.35880E-06
 2.43007E+00    1.81756E-06
 2.45543E+00    2.20446E-06
 2.48546E+00    2.66261E-06
 2.60000E+00    4.41007E-06
 2.80000E+00    1.22541E-05
 3.00000E+00    3.14263E-05
 3.20000E+00    8.80231E-05
 3.40000E+00    1.57533E-04
 3.60000E+00    3.05776E-04
 3.80000E+00    5.84903E-04
 4.00000E+00    8.63721E-04
 4.20000E+00    1.56208E-03
 4.40000E+00    2.38579E-03
 4.60000E+00    3.46697E-03
 4.80000E+00    5.42031E-03
 5.00000E+00    7.50626E-03
 5.20000E+00    1.08566E-02
 5.40000E+00    1.52360E-02
 5.60000E+00    2.01893E-02
 5.80000E+00    2.77623E-02
 6.00000E+00    3.71985E-02
 6.20000E+00    4.83636E-02
 6.40000E+00    6.41469E-02
 6.60000E+00    8.15604E-02
 6.80000E+00    1.04559E-01
 7.00000E+00    1.34879E-01
 7.20000E+00    1.68734E-01
 7.40000E+00    2.14619E-01
 7.60000E+00    2.64752E-01
 7.80000E+00    3.23943E-01
 8.00000E+00    4.01241E-01
 8.50000E+00    6.44662E-01
 9.00000E+00    9.86201E-01
 9.50000E+00    1.43471E+00
 1.00000E+01    1.98391E+00
 1.05000E+01    2.60821E+00
 1.10000E+01    3.27525E+00
 1.15000E+01    3.95798E+00
 1.20000E+01    4.64386E+00
 1.25000E+01    5.32651E+00
 1.30000E+01    6.00511E+00
 1.35000E+01    6.68835E+00
 1.40000E+01    7.37268E+00
 1.45000E+01    8.04688E+00
 1.50000E+01    8.75625E+00
 1.60000E+01    1.01831E+01
 1.70000E+01    1.16961E+01
 1.80000E+01    1.32598E+01
 1.90000E+01    1.48750E+01
 2.00000E+01    1.66831E+01
 2.10000E+01    1.86443E+01
 2.20000E+01    2.06888E+01
 2.30000E+01    2.28199E+01
 2.40000E+01    2.47886E+01
 2.50000E+01    2.68879E+01
 2.60000E+01    2.89682E+01
 2.70000E+01    3.10325E+01
 2.80000E+01    3.29587E+01
 2.90000E+01    3.48909E+01
 3.00000E+01    3.67831E+01
 3.00000E+01    3.67875E+01
 3.20000E+01    4.03083E+01
 3.40000E+01    4.36288E+01
 3.60000E+01    4.64299E+01
 3.80000E+01    4.88355E+01
 4.00000E+01    5.09498E+01
 4.20000E+01    5.29035E+01
 4.40000E+01    5.46082E+01
 4.60000E+01    5.58260E+01
 4.80000E+01    5.71683E+01
 5.00000E+01    5.83258E+01
 5.20000E+01    5.93804E+01
 5.40000E+01    6.04407E+01
 5.60000E+01    6.14525E+01
 5.80000E+01    6.23951E+01
 6.00000E+01    6.32139E+01
 6.50000E+01    6.55693E+01
 7.00000E+01    6.80173E+01
 7.50000E+01    6.92735E+01
 8.00000E+01    7.06277E+01
 9.00000E+01    7.28308E+01
 1.00000E+02    7.19980E+01
 1.10000E+02    7.14644E+01
 1.20000E+02    7.22779E+01
 1.30000E+02    7.94316E+01
 1.40000E+02    8.53878E+01
 1.50000E+02    9.02753E+01
 1.60000E+02    9.53843E+01
 1.80000E+02    1.12793E+02
 2.00000E+02    1.40903E+02
