# n + Ar 36 : (n,xp)    
# endfb8.0   Scientific Co-ordination Group    EVAL-JUN83
# 
# # energies =    69
#   E(MeV)        xs(mb) 
 2.02525E+00    1.54345E+02
 2.10000E+00    1.55870E+02
 2.20000E+00    1.57910E+02
 2.30000E+00    1.70540E+02
 2.50000E+00    1.98650E+02
 3.00000E+00    2.83250E+02
 4.00000E+00    4.48430E+02
 4.17830E+00    4.69869E+02
 4.29517E+00    4.83921E+02
 4.32910E+00    4.88001E+02
 4.41440E+00    4.98257E+02
 4.44050E+00    5.01396E+02
 4.45040E+00    5.02586E+02
 4.53779E+00    5.10083E+02
 4.56554E+00    5.11210E+02
 4.60000E+00    5.12608E+02
 4.95120E+00    5.26860E+02
 5.00000E+00    5.28840E+02
 5.08984E+00    5.30853E+02
 5.11349E+00    5.31383E+02
 5.17110E+00    5.32674E+02
 5.19440E+00    5.33197E+02
 5.31601E+00    5.35922E+02
 5.33966E+00    5.36452E+02
 5.83600E+00    5.47575E+02
 5.85660E+00    5.48036E+02
 5.89590E+00    5.48917E+02
 5.99966E+00    5.51242E+02
 6.02125E+00    5.50440E+02
 6.06135E+00    5.48911E+02
 6.13650E+00    5.46047E+02
 6.21730E+00    5.42967E+02
 6.30910E+00    5.39467E+02
 6.35600E+00    5.37679E+02
 6.39135E+00    5.36332E+02
 6.50000E+00    5.32190E+02
 6.53425E+00    5.36710E+02
 6.61120E+00    5.46866E+02
 6.64560E+00    5.51406E+02
 6.73000E+00    5.62545E+02
 6.79640E+00    5.71309E+02
 6.83238E+00    5.76057E+02
 6.83520E+00    5.76430E+02
 6.83650E+00    5.76601E+02
 6.86700E+00    5.80627E+02
 6.91873E+00    5.87454E+02
 7.02668E+00    5.97950E+02
 7.02874E+00    5.97933E+02
 7.05958E+00    5.97667E+02
 7.09350E+00    5.97375E+02
 8.00000E+00    5.89570E+02
 9.00000E+00    5.97272E+02
 1.00000E+01    6.01610E+02
 1.05000E+01    6.21340E+02
 1.10000E+01    6.41070E+02
 1.15000E+01    6.64320E+02
 1.20000E+01    6.87570E+02
 1.25000E+01    6.87039E+02
 1.30000E+01    6.86509E+02
 1.35000E+01    6.75970E+02
 1.40000E+01    6.65430E+02
 1.45000E+01    6.47750E+02
 1.50000E+01    6.32850E+02
 1.52539E+01    6.21706E+02
 1.60000E+01    5.88960E+02
 1.70000E+01    5.53150E+02
 1.80000E+01    5.10390E+02
 1.90000E+01    4.70130E+02
 2.00000E+01    4.38640E+02
