# n + Cl 35 : (n,tot)   
# jeff3.3    Sayer,Guber,Leal,Larson,Young+    EVAL-OCT03
# uncertainties: n
# # energies =   171
#   E(MeV)       xs(mb) 
 1.00000E-11    5.28601E+05
 1.00000E-07    3.65331E+04
 4.13990E-07    3.08162E+04
 5.31580E-07    2.95779E+04
 6.82560E-07    2.84745E+04
 8.76420E-07    2.74873E+04
 1.12540E-06    2.66031E+04
 1.44500E-06    2.58030E+04
 1.85540E-06    2.50741E+04
 2.37240E-06    2.43863E+04
 3.05900E-06    2.37313E+04
 3.92790E-06    2.31066E+04
 5.04350E-06    2.24860E+04
 6.47600E-06    2.18560E+04
 8.31530E-06    2.11999E+04
 1.06770E-05    2.04985E+04
 1.37100E-05    1.97357E+04
 1.76030E-05    1.88943E+04
 2.26030E-05    1.79450E+04
 2.92030E-05    1.69009E+04
 3.72670E-05    1.57625E+04
 4.78510E-05    1.45061E+04
 6.14420E-05    1.31689E+04
 7.88930E-05    1.17749E+04
 1.01300E-04    1.03700E+04
 1.30070E-04    9.00025E+03
 1.67020E-04    7.71164E+03
 2.14450E-04    6.54374E+03
 2.75360E-04    5.52642E+03
 3.53580E-04    8.07957E+03
 4.54000E-04    3.93885E+03
 5.82950E-04    3.35641E+03
 7.48520E-04    2.89920E+03
 9.61120E-04    2.54266E+03
 1.23410E-03    2.26662E+03
 1.58460E-03    2.05364E+03
 2.03470E-03    1.93311E+03
 2.24870E-03    1.87425E+03
 2.48520E-03    1.83376E+03
 2.61260E-03    1.80851E+03
 2.74650E-03    1.77294E+03
 3.03540E-03    1.72929E+03
 3.35460E-03    1.68979E+03
 3.70740E-03    2.02012E+03
 4.30740E-03    1.58575E+03
 5.53080E-03    1.51867E+03
 7.10170E-03    1.45864E+03
 9.11880E-03    1.38933E+03
 1.17090E-02    2.72432E+03
 1.50340E-02    2.70749E+03
 1.93050E-02    1.36627E+03
 2.18750E-02    1.28044E+03
 2.35790E-02    1.17653E+03
 2.41760E-02    1.09789E+03
 2.47880E-02    8.45596E+02
 2.60580E-02    1.21845E+04
 2.70000E-02    3.08465E+03
 2.85000E-02    1.73537E+03
 3.18280E-02    1.57306E+03
 3.43070E-02    1.50378E+03
 4.08680E-02    1.64607E+03
 4.63090E-02    1.42213E+03
 5.24750E-02    1.70913E+03
 5.65620E-02    2.12941E+03
 6.73790E-02    2.62172E+03
 7.20000E-02    1.49923E+03
 7.95000E-02    1.44200E+03
 8.25000E-02    1.42325E+03
 8.65170E-02    1.46926E+03
 9.80370E-02    1.83362E+03
 1.11090E-01    3.54076E+03
 1.16790E-01    1.37252E+03
 1.22770E-01    1.33311E+03
 1.29070E-01    2.69735E+03
 1.35690E-01    1.73636E+03
 1.42640E-01    2.25641E+03
 1.49960E-01    1.30455E+03
 1.57640E-01    1.40454E+03
 1.65730E-01    1.12435E+03
 1.74220E-01    1.73689E+03
 1.83160E-01    4.16810E+03
 1.92550E-01    1.61089E+03
 2.02420E-01    1.16723E+03
 2.12800E-01    2.89683E+03
 2.23710E-01    2.20344E+03
 2.35180E-01    1.70144E+03
 2.47240E-01    1.66811E+03
 2.73240E-01    3.08387E+03
 2.87250E-01    2.09900E+03
 2.94520E-01    2.71957E+03
 2.97200E-01    1.31452E+03
 2.98500E-01    1.18182E+03
 3.01970E-01    1.77952E+03
 3.33730E-01    3.14534E+03
 3.68830E-01    2.27558E+03
 3.87740E-01    3.00683E+03
 4.07620E-01    2.08004E+03
 4.50490E-01    2.82274E+03
 4.97870E-01    2.25286E+03
 5.23400E-01    2.81003E+03
 5.50230E-01    2.20389E+03
 5.78440E-01    2.06927E+03
 6.08100E-01    2.44192E+03
 6.39280E-01    2.30361E+03
 6.72060E-01    2.20823E+03
 7.06510E-01    2.48616E+03
 7.42740E-01    2.62308E+03
 7.80820E-01    2.57895E+03
 8.20850E-01    2.68148E+03
 8.62940E-01    2.93322E+03
 9.07180E-01    2.59577E+03
 9.61640E-01    2.54003E+03
 1.00260E+00    2.88019E+03
 1.10800E+00    3.46356E+03
 1.16480E+00    3.00622E+03
 1.22460E+00    2.57566E+03
 1.28730E+00    2.61668E+03
 1.35340E+00    2.65980E+03
 1.42270E+00    2.70513E+03
 1.49570E+00    2.75217E+03
 1.57240E+00    2.79802E+03
 1.65300E+00    2.84565E+03
 1.73770E+00    2.89573E+03
 1.82680E+00    2.94397E+03
 1.92050E+00    2.99016E+03
 2.01900E+00    3.03760E+03
 2.12250E+00    3.08033E+03
 2.23130E+00    3.11633E+03
 2.30690E+00    3.13546E+03
 2.34570E+00    3.14402E+03
 2.36530E+00    3.14980E+03
 2.38520E+00    3.16448E+03
 2.46600E+00    3.19245E+03
 2.59240E+00    3.21803E+03
 2.72530E+00    3.24188E+03
 2.86500E+00    3.25664E+03
 3.01190E+00    3.26742E+03
 3.16640E+00    3.26981E+03
 3.32870E+00    3.25903E+03
 3.67880E+00    3.22441E+03
 4.06570E+00    3.16567E+03
 4.49330E+00    3.11064E+03
 4.72370E+00    3.06600E+03
 4.96590E+00    3.01825E+03
 5.22050E+00    2.96807E+03
 5.48810E+00    2.91531E+03
 5.76950E+00    2.85985E+03
 6.06530E+00    2.80153E+03
 6.37630E+00    2.75074E+03
 6.59240E+00    2.71923E+03
 6.70320E+00    2.67845E+03
 7.04690E+00    2.61761E+03
 7.40820E+00    2.55468E+03
 7.78800E+00    2.49524E+03
 8.18730E+00    2.43485E+03
 8.60710E+00    2.37886E+03
 9.04840E+00    2.32287E+03
 9.51230E+00    2.27156E+03
 1.00000E+01    2.22247E+03
 1.05130E+01    2.17855E+03
 1.10520E+01    2.13901E+03
 1.16180E+01    2.10421E+03
 1.22140E+01    2.07393E+03
 1.28400E+01    2.04857E+03
 1.34990E+01    2.03244E+03
 1.38400E+01    2.02349E+03
 1.41910E+01    2.01583E+03
 1.45500E+01    2.00931E+03
 1.49180E+01    2.00202E+03
 1.56830E+01    1.99636E+03
 1.64870E+01    1.99510E+03
