# n + Hf182 : (n,g)     
# endfb8.0   K. Shibata (JAEA)                 EVAL-JUL09
# uncertainties: n
# # energies =    69
#   E(MeV)       xs(mb) 
 1.00000E-10    9.28642E+05
 5.00000E-09    2.52861E+05
 1.00000E-08    1.91503E+05
 1.50000E-08    1.60898E+05
 2.00000E-08    1.41559E+05
 2.50000E-08    1.27890E+05
 3.00000E-08    1.17562E+05
 3.50000E-08    1.08088E+05
 4.20000E-08    9.88641E+04
 5.00000E-08    9.11912E+04
 5.80000E-08    8.47573E+04
 6.70000E-08    7.82178E+04
 8.00000E-08    7.07799E+04
 1.00000E-07    6.15795E+04
 1.40000E-07    5.31362E+04
 1.80000E-07    4.74476E+04
 2.20000E-07    4.36957E+04
 2.50000E-07    4.11380E+04
 2.80000E-07    3.93009E+04
 3.00000E-07    3.80108E+04
 3.20000E-07    3.65753E+04
 3.50000E-07    3.45946E+04
 4.00000E-07    3.16538E+04
 5.00000E-07    2.83117E+04
 6.25000E-07    2.53329E+04
 7.80000E-07    2.34485E+04
 8.50000E-07    2.25610E+04
 9.10000E-07    2.19419E+04
 9.50000E-07    2.15835E+04
 9.72000E-07    2.13299E+04
 9.96000E-07    2.10738E+04
 1.02000E-06    2.08221E+04
 1.04500E-06    2.05702E+04
 1.07100E-06    2.03223E+04
 1.09700E-06    2.00825E+04
 1.12300E-06    1.98488E+04
 1.15000E-06    1.91392E+04
 1.30000E-06    1.79113E+04
 1.50000E-06    1.59067E+04
 2.10000E-06    1.38541E+04
 2.60000E-06    1.23760E+04
 3.30000E-06    1.11100E+04
 4.00000E-06    8.51563E+03
 9.87700E-06    5.98776E+03
 1.59680E-05    4.63063E+03
 2.77000E-05    3.51565E+03
 4.80520E-05    4.71720E+03
 7.55014E-05    6.16941E+03
 1.48728E-04    3.14827E+03
 3.67262E-04    1.39878E+03
 9.06898E-04    8.31669E+02
 1.42510E-03    6.17056E+02
 2.23945E-03    4.55557E+02
 3.51910E-03    3.55974E+02
 5.53000E-03    2.80606E+02
 9.11800E-03    2.25438E+02
 1.50300E-02    1.75172E+02
 2.47800E-02    1.36778E+02
 4.08500E-02    1.14254E+02
 6.73400E-02    9.30237E+01
 1.11000E-01    5.61940E+01
 1.83000E-01    3.50485E+01
 3.02000E-01    2.93361E+01
 5.00000E-01    3.01355E+01
 8.21000E-01    3.48539E+01
 1.35300E+00    3.66335E+01
 2.23100E+00    2.30643E+01
 3.67900E+00    5.47171E+00
 6.06500E+00    1.47276E+00
