# n + Xe130 : (n,n'08)  
# jendl4.0   S.Kunieda, A.Ichihara, K.Shibata+ EVAL-FEB22
# uncertainties: n
# # energies =    35
#   E(MeV)       xs(mb) 
 1.95919E+00    0.00000E+00
 2.00000E+00    2.70200E-01
 2.20000E+00    1.74300E+00
 2.40000E+00    4.29100E+00
 2.60000E+00    7.50900E+00
 2.80000E+00    1.09600E+01
 3.00000E+00    1.35900E+01
 3.25000E+00    1.55500E+01
 3.50000E+00    1.48300E+01
 3.75000E+00    1.38000E+01
 4.00000E+00    1.17000E+01
 4.25000E+00    1.00600E+01
 4.50000E+00    8.25800E+00
 4.75000E+00    6.86100E+00
 5.00000E+00    5.55200E+00
 5.50000E+00    3.62300E+00
 6.00000E+00    2.32100E+00
 6.50000E+00    1.47700E+00
 7.00000E+00    9.54600E-01
 7.50000E+00    6.42900E-01
 8.00000E+00    4.60900E-01
 8.50000E+00    3.56700E-01
 9.00000E+00    2.97500E-01
 9.50000E+00    2.62800E-01
 1.00000E+01    2.40400E-01
 1.10000E+01    2.07100E-01
 1.20000E+01    1.75800E-01
 1.30000E+01    1.46300E-01
 1.40000E+01    1.21100E-01
 1.50000E+01    1.01600E-01
 1.60000E+01    8.79800E-02
 1.70000E+01    7.86300E-02
 1.80000E+01    7.17400E-02
 1.90000E+01    6.62900E-02
 2.00000E+01    6.17400E-02
