# n + Xe130 : (n,el)    
# jendl4.0   S.Kunieda, A.Ichihara, K.Shibata+ EVAL-FEB22
# uncertainties: n
# # energies =   171
#   E(MeV)       xs(mb) 
 1.00000E-11    2.06796E+04
 1.00000E-07    1.26727E+04
 4.13990E-07    1.26562E+04
 5.31580E-07    1.26482E+04
 6.82560E-07    1.26391E+04
 8.76420E-07    1.26280E+04
 1.12540E-06    1.26136E+04
 1.44500E-06    1.25952E+04
 1.85540E-06    1.25718E+04
 2.37240E-06    1.25415E+04
 3.05900E-06    1.25023E+04
 3.92790E-06    1.24522E+04
 5.04350E-06    1.23880E+04
 6.47600E-06    1.23055E+04
 8.31530E-06    1.21995E+04
 1.06770E-05    1.20635E+04
 1.37100E-05    1.18888E+04
 1.76030E-05    1.16646E+04
 2.26030E-05    1.13724E+04
 2.92030E-05    1.10013E+04
 3.72670E-05    1.05014E+04
 4.78510E-05    9.80573E+03
 6.14420E-05    8.73729E+03
 7.88930E-05    6.67399E+03
 1.01300E-04    3.33003E+05
 1.30070E-04    2.80537E+04
 1.67020E-04    1.27830E+04
 2.14450E-04    1.03217E+04
 2.75360E-04    8.71434E+03
 3.53580E-04    1.64974E+04
 4.54000E-04    6.75183E+03
 5.82950E-04    2.69265E+04
 7.48520E-04    6.86288E+03
 9.61120E-04    5.85820E+03
 1.23410E-03    2.17814E+04
 1.58460E-03    6.05776E+03
 2.03470E-03    4.05488E+03
 2.24870E-03    1.66962E+04
 2.48520E-03    1.34097E+04
 2.61260E-03    2.45181E+04
 2.74650E-03    2.18965E+04
 3.03540E-03    1.11195E+04
 3.35460E-03    2.13858E+04
 3.70740E-03    1.29888E+04
 4.30740E-03    1.20158E+04
 5.53080E-03    1.09803E+04
 7.10170E-03    1.01406E+04
 9.11880E-03    9.44920E+03
 1.17090E-02    8.86399E+03
 1.50340E-02    8.31871E+03
 1.93050E-02    7.94101E+03
 2.18750E-02    7.77090E+03
 2.35790E-02    7.68799E+03
 2.41760E-02    7.64706E+03
 2.47880E-02    7.58611E+03
 2.60580E-02    7.51680E+03
 2.70000E-02    7.44514E+03
 2.85000E-02    7.32021E+03
 3.18280E-02    7.20127E+03
 3.43070E-02    7.04904E+03
 4.08680E-02    6.88503E+03
 4.63090E-02    6.76221E+03
 5.24750E-02    6.67256E+03
 5.65620E-02    6.56841E+03
 6.73790E-02    6.47563E+03
 7.20000E-02    6.41879E+03
 7.95000E-02    6.37379E+03
 8.25000E-02    6.34820E+03
 8.65170E-02    6.29776E+03
 9.80370E-02    6.23219E+03
 1.11090E-01    6.19093E+03
 1.16790E-01    6.16758E+03
 1.22770E-01    6.14726E+03
 1.29070E-01    6.12741E+03
 1.35690E-01    6.10788E+03
 1.42640E-01    6.09103E+03
 1.49960E-01    6.07494E+03
 1.57640E-01    6.05983E+03
 1.65730E-01    6.04759E+03
 1.74220E-01    6.03523E+03
 1.83160E-01    6.02557E+03
 1.92550E-01    6.01662E+03
 2.02420E-01    6.01188E+03
 2.12800E-01    6.00890E+03
 2.23710E-01    6.00577E+03
 2.35180E-01    6.00248E+03
 2.47240E-01    6.00350E+03
 2.73240E-01    6.01026E+03
 2.87250E-01    6.01390E+03
 2.94520E-01    6.01559E+03
 2.97200E-01    6.01627E+03
 2.98500E-01    6.01730E+03
 3.01970E-01    6.03068E+03
 3.33730E-01    6.05674E+03
 3.68830E-01    6.07798E+03
 3.87740E-01    6.09311E+03
 4.07620E-01    6.11738E+03
 4.50490E-01    6.15445E+03
 4.97870E-01    6.15448E+03
 5.23400E-01    6.09949E+03
 5.50230E-01    6.02923E+03
 5.78440E-01    5.93555E+03
 6.08100E-01    5.86571E+03
 6.39280E-01    5.81239E+03
 6.72060E-01    5.77435E+03
 7.06510E-01    5.74073E+03
 7.42740E-01    5.71651E+03
 7.80820E-01    5.69306E+03
 8.20850E-01    5.66840E+03
 8.62940E-01    5.64335E+03
 9.07180E-01    5.61714E+03
 9.61640E-01    5.59180E+03
 1.00260E+00    5.52617E+03
 1.10800E+00    5.43601E+03
 1.16480E+00    5.37041E+03
 1.22460E+00    5.29371E+03
 1.28730E+00    5.21175E+03
 1.35340E+00    5.12622E+03
 1.42270E+00    5.04048E+03
 1.49570E+00    4.95101E+03
 1.57240E+00    4.85083E+03
 1.65300E+00    4.73023E+03
 1.73770E+00    4.60188E+03
 1.82680E+00    4.46699E+03
 1.92050E+00    4.32568E+03
 2.01900E+00    4.18032E+03
 2.12250E+00    4.02741E+03
 2.23130E+00    3.89228E+03
 2.30690E+00    3.80987E+03
 2.34570E+00    3.76789E+03
 2.36530E+00    3.73954E+03
 2.38520E+00    3.64875E+03
 2.46600E+00    3.43400E+03
 2.59240E+00    3.23356E+03
 2.72530E+00    3.09466E+03
 2.86500E+00    2.96275E+03
 3.01190E+00    2.83757E+03
 3.16640E+00    2.71764E+03
 3.32870E+00    2.54705E+03
 3.67880E+00    2.34696E+03
 4.06570E+00    2.18388E+03
 4.49330E+00    2.08735E+03
 4.72370E+00    2.03721E+03
 4.96590E+00    2.00095E+03
 5.22050E+00    1.97468E+03
 5.48810E+00    1.95696E+03
 5.76950E+00    1.95045E+03
 6.06530E+00    1.95622E+03
 6.37630E+00    1.96631E+03
 6.59240E+00    1.97628E+03
 6.70320E+00    1.99367E+03
 7.04690E+00    2.02619E+03
 7.40820E+00    2.06685E+03
 7.78800E+00    2.11524E+03
 8.18730E+00    2.16834E+03
 8.60710E+00    2.22618E+03
 9.04840E+00    2.28702E+03
 9.51230E+00    2.35081E+03
 1.00000E+01    2.41159E+03
 1.05130E+01    2.46983E+03
 1.10520E+01    2.52096E+03
 1.16180E+01    2.56600E+03
 1.22140E+01    2.59890E+03
 1.28400E+01    2.62307E+03
 1.34990E+01    2.63170E+03
 1.38400E+01    2.63574E+03
 1.41910E+01    2.63219E+03
 1.45500E+01    2.62747E+03
 1.49180E+01    2.61270E+03
 1.56830E+01    2.58115E+03
 1.64870E+01    2.53584E+03
