# n + Xe130 : (n,na)    
# jendl4.0   S.Kunieda, A.Ichihara, K.Shibata+ EVAL-FEB22
# uncertainties: n
# # energies =    31
#   E(MeV)       xs(mb) 
 2.60000E+00    0.00000E+00
 2.80000E+00    3.39100E-35
 3.00000E+00    5.86600E-31
 3.25000E+00    3.15600E-27
 3.50000E+00    2.67100E-24
 3.75000E+00    4.93600E-22
 4.00000E+00    4.33700E-20
 4.25000E+00    1.89000E-18
 4.50000E+00    5.42100E-17
 4.75000E+00    1.03900E-15
 5.00000E+00    1.51200E-14
 5.50000E+00    1.56500E-12
 6.00000E+00    7.99800E-11
 6.50000E+00    2.42400E-09
 7.00000E+00    4.99000E-08
 7.50000E+00    7.41500E-07
 8.00000E+00    7.76600E-06
 8.50000E+00    5.85200E-05
 9.00000E+00    3.17700E-04
 9.50000E+00    1.22500E-03
 1.00000E+01    2.02200E-03
 1.10000E+01    4.45300E-03
 1.20000E+01    1.60100E-02
 1.30000E+01    5.33500E-02
 1.40000E+01    1.48700E-01
 1.50000E+01    3.55000E-01
 1.60000E+01    7.49400E-01
 1.70000E+01    1.42700E+00
 1.80000E+01    2.47300E+00
 1.90000E+01    3.92800E+00
 2.00000E+01    5.78500E+00
