# n + Pd107 : (n,tot)   
# jeff3.3    JNDC FP Nuclear Data W.G.         EVAL-MAR90
# uncertainties: n
# # energies =   171
#   E(MeV)       xs(mb) 
 1.00000E-11    2.73908E+04
 1.00000E-07    4.05081E+03
 4.13990E-07    3.79649E+03
 5.31580E-07    3.74262E+03
 6.82560E-07    3.69542E+03
 8.76420E-07    3.65427E+03
 1.12540E-06    3.61914E+03
 1.44500E-06    3.59053E+03
 1.85540E-06    3.56960E+03
 2.37240E-06    3.56462E+03
 3.05900E-06    4.13624E+03
 3.92790E-06    4.90157E+03
 5.04350E-06    9.81819E+03
 6.47600E-06    1.15037E+04
 8.31530E-06    3.41170E+03
 1.06770E-05    3.31434E+03
 1.37100E-05    3.24515E+03
 1.76030E-05    3.16150E+03
 2.26030E-05    9.70702E+03
 2.92030E-05    2.98251E+03
 3.72670E-05    2.56251E+05
 4.78510E-05    2.95355E+04
 6.14420E-05    5.75226E+03
 7.88930E-05    5.21665E+04
 1.01300E-04    1.51723E+04
 1.30070E-04    3.35460E+04
 1.67020E-04    4.12616E+04
 2.14450E-04    2.04600E+04
 2.75360E-04    2.19247E+04
 3.53580E-04    1.52189E+04
 4.54000E-04    2.75307E+04
 5.82950E-04    2.16422E+04
 7.48520E-04    4.50722E+04
 9.61120E-04    1.36204E+04
 1.23410E-03    1.38459E+04
 1.58460E-03    1.28163E+04
 2.03470E-03    1.21685E+04
 2.24870E-03    1.18272E+04
 2.48520E-03    1.15827E+04
 2.61260E-03    1.14256E+04
 2.74650E-03    1.12005E+04
 3.03540E-03    1.09111E+04
 3.35460E-03    1.06375E+04
 3.70740E-03    1.03170E+04
 4.30740E-03    9.85179E+03
 5.53080E-03    9.34146E+03
 7.10170E-03    8.90275E+03
 9.11880E-03    8.53026E+03
 1.17090E-02    8.21779E+03
 1.50340E-02    7.95686E+03
 1.93050E-02    7.79263E+03
 2.18750E-02    7.71493E+03
 2.35790E-02    7.67950E+03
 2.41760E-02    7.66147E+03
 2.47880E-02    7.63582E+03
 2.60580E-02    7.60851E+03
 2.70000E-02    7.57996E+03
 2.85000E-02    7.53214E+03
 3.18280E-02    7.48207E+03
 3.43070E-02    7.42275E+03
 4.08680E-02    7.36150E+03
 4.63090E-02    7.31759E+03
 5.24750E-02    7.28675E+03
 5.65620E-02    7.25381E+03
 6.73790E-02    7.22572E+03
 7.20000E-02    7.20888E+03
 7.95000E-02    7.19594E+03
 8.25000E-02    7.18840E+03
 8.65170E-02    7.17399E+03
 9.80370E-02    7.14678E+03
 1.11090E-01    7.12972E+03
 1.16790E-01    7.11997E+03
 1.22770E-01    7.10971E+03
 1.29070E-01    7.09892E+03
 1.35690E-01    7.08758E+03
 1.42640E-01    7.07566E+03
 1.49960E-01    7.06313E+03
 1.57640E-01    7.05021E+03
 1.65730E-01    7.04031E+03
 1.74220E-01    7.03114E+03
 1.83160E-01    7.02150E+03
 1.92550E-01    7.01137E+03
 2.02420E-01    7.00072E+03
 2.12800E-01    6.98952E+03
 2.23710E-01    6.97775E+03
 2.35180E-01    6.96538E+03
 2.47240E-01    6.94553E+03
 2.73240E-01    6.92431E+03
 2.87250E-01    6.91357E+03
 2.94520E-01    6.90972E+03
 2.97200E-01    6.90823E+03
 2.98500E-01    6.90644E+03
 3.01970E-01    6.89347E+03
 3.33730E-01    6.86848E+03
 3.68830E-01    6.84813E+03
 3.87740E-01    6.83363E+03
 4.07620E-01    6.81037E+03
 4.50490E-01    6.77664E+03
 4.97870E-01    6.74916E+03
 5.23400E-01    6.72959E+03
 5.50230E-01    6.70901E+03
 5.78440E-01    6.68737E+03
 6.08100E-01    6.66463E+03
 6.39280E-01    6.64072E+03
 6.72060E-01    6.61558E+03
 7.06510E-01    6.58915E+03
 7.42740E-01    6.56137E+03
 7.80820E-01    6.53217E+03
 8.20850E-01    6.50147E+03
 8.62940E-01    6.46667E+03
 9.07180E-01    6.42259E+03
 9.61640E-01    6.37976E+03
 1.00260E+00    6.31471E+03
 1.10800E+00    6.23826E+03
 1.16480E+00    6.18221E+03
 1.22460E+00    6.12333E+03
 1.28730E+00    6.05887E+03
 1.35340E+00    5.98878E+03
 1.42270E+00    5.91512E+03
 1.49570E+00    5.83757E+03
 1.57240E+00    5.75480E+03
 1.65300E+00    5.66735E+03
 1.73770E+00    5.57541E+03
 1.82680E+00    5.47870E+03
 1.92050E+00    5.37702E+03
 2.01900E+00    5.27042E+03
 2.12250E+00    5.15923E+03
 2.23130E+00    5.06258E+03
 2.30690E+00    5.00719E+03
 2.34570E+00    4.98096E+03
 2.36530E+00    4.96325E+03
 2.38520E+00    4.91829E+03
 2.46600E+00    4.82644E+03
 2.59240E+00    4.72320E+03
 2.72530E+00    4.61894E+03
 2.86500E+00    4.51809E+03
 3.01190E+00    4.42859E+03
 3.16640E+00    4.34877E+03
 3.32870E+00    4.22829E+03
 3.67880E+00    4.07415E+03
 4.06570E+00    3.99015E+03
 4.49330E+00    3.95361E+03
 4.72370E+00    3.92757E+03
 4.96590E+00    3.91760E+03
 5.22050E+00    3.93647E+03
 5.48810E+00    3.95676E+03
 5.76950E+00    3.97816E+03
 6.06530E+00    4.01332E+03
 6.37630E+00    4.05195E+03
 6.59240E+00    4.07591E+03
 6.70320E+00    4.10894E+03
 7.04690E+00    4.16061E+03
 7.40820E+00    4.21603E+03
 7.78800E+00    4.27450E+03
 8.18730E+00    4.33597E+03
 8.60710E+00    4.39598E+03
 9.04840E+00    4.45193E+03
 9.51230E+00    4.50369E+03
 1.00000E+01    4.54035E+03
 1.05130E+01    4.56133E+03
 1.10520E+01    4.58241E+03
 1.16180E+01    4.59970E+03
 1.22140E+01    4.57148E+03
 1.28400E+01    4.53038E+03
 1.34990E+01    4.49964E+03
 1.38400E+01    4.47534E+03
 1.41910E+01    4.43078E+03
 1.45500E+01    4.38378E+03
 1.49180E+01    4.30088E+03
 1.56830E+01    4.17148E+03
 1.64870E+01    4.02032E+03
