# p + Hg198 : (p,el)    
# endfb8.0   S.CHIBA, M.CHADWICK,P.YOUNG       EVAL-FEB98
# uncertainties: n
# # energies =    83
#   E(MeV)       xs(mb) 
 1.00000E+00   -1.48295E+04
 2.00000E+00   -3.54052E+03
 3.00000E+00   -1.63732E+03
 4.00000E+00   -9.02397E+02
 5.00000E+00   -5.73790E+02
 6.00000E+00   -3.67928E+02
 7.00000E+00   -2.63734E+02
 8.00000E+00   -2.07308E+02
 9.00000E+00   -1.89967E+02
 1.00000E+01   -2.23411E+02
 1.10000E+01   -1.83590E+02
 1.20000E+01   -7.05799E+01
 1.30000E+01   -1.38907E+02
 1.40000E+01   -3.08639E+02
 1.50000E+01   -3.38329E+02
 1.60000E+01   -2.15124E+02
 1.70000E+01   -1.06414E+02
 1.80000E+01   -1.32653E+02
 1.90000E+01   -2.65971E+02
 2.00000E+01   -4.23655E+02
 2.10000E+01   -5.03367E+02
 2.20000E+01   -5.67468E+02
 2.30000E+01   -5.26281E+02
 2.40000E+01   -4.15036E+02
 2.50000E+01   -2.62567E+02
 2.60000E+01   -1.07274E+02
 2.70000E+01    2.93141E+01
 2.80000E+01    1.14527E+02
 2.90000E+01    1.52326E+02
 3.00000E+01    1.52037E+02
 3.10000E+01    1.11788E+02
 3.20000E+01    4.10597E+01
 3.30000E+01   -5.05779E+01
 3.40000E+01   -1.51451E+02
 3.50000E+01   -2.54355E+02
 3.60000E+01   -3.51838E+02
 3.70000E+01   -4.38132E+02
 3.80000E+01   -5.11735E+02
 3.90000E+01   -5.68325E+02
 4.00000E+01   -6.10485E+02
 4.10000E+01   -6.35921E+02
 4.20000E+01   -6.47870E+02
 4.30000E+01   -6.46077E+02
 4.40000E+01   -6.32952E+02
 4.50000E+01   -6.08780E+02
 4.60000E+01   -5.77736E+02
 4.70000E+01   -5.39060E+02
 4.80000E+01   -4.95804E+02
 4.90000E+01   -4.48478E+02
 5.00000E+01   -3.99857E+02
 5.10000E+01   -3.49275E+02
 5.20000E+01   -2.99523E+02
 5.30000E+01   -2.50244E+02
 5.40000E+01   -2.02370E+02
 5.50000E+01   -1.56754E+02
 5.60000E+01   -1.13716E+02
 5.70000E+01   -7.35605E+01
 5.80000E+01   -3.67711E+01
 5.90000E+01   -3.18715E+00
 6.00000E+01    2.79329E+01
 6.10000E+01    5.38495E+01
 6.20000E+01    7.73222E+01
 6.30000E+01    9.77073E+01
 6.40000E+01    1.14594E+02
 6.50000E+01    1.28477E+02
 6.60000E+01    1.38932E+02
 6.70000E+01    1.46563E+02
 6.80000E+01    1.51553E+02
 6.90000E+01    1.54112E+02
 7.00000E+01    1.54100E+02
 7.10000E+01    1.51965E+02
 7.20000E+01    1.47815E+02
 7.30000E+01    1.40980E+02
 7.40000E+01    1.33301E+02
 7.50000E+01    1.23779E+02
 7.60000E+01    1.12332E+02
 7.70000E+01    9.97158E+01
 7.80000E+01    8.57770E+01
 7.90000E+01    7.11338E+01
 8.00000E+01    5.55254E+01
 8.10000E+01    3.95030E+01
 8.20000E+01    2.18523E+01
 8.30000E+01    3.93928E+00
