# n + Pt193 : (n,n'27)  
# tendl.2019 A.J. Koning and D. Rochman        EVAL-NOV19
# uncertainties: n
# # energies =    72
#   E(MeV)       xs(mb) 
 6.45356E-01    0.00000E+00
 6.68476E-01    5.52402E-01
 6.95617E-01    1.20088E+00
 7.00000E-01    1.30560E+00
 7.03659E-01    1.37240E+00
 8.00000E-01    3.13132E+00
 9.00000E-01    4.87815E+00
 1.00000E+00    6.34245E+00
 1.20000E+00    8.25623E+00
 1.40000E+00    9.05544E+00
 1.60000E+00    9.08461E+00
 1.80000E+00    8.59913E+00
 2.00000E+00    7.80124E+00
 2.20000E+00    6.83132E+00
 2.40000E+00    5.80606E+00
 2.60000E+00    4.81251E+00
 2.80000E+00    3.90802E+00
 3.00000E+00    3.12105E+00
 3.20000E+00    2.45867E+00
 3.40000E+00    1.91461E+00
 3.60000E+00    1.47602E+00
 3.80000E+00    1.12737E+00
 4.00000E+00    8.53535E-01
 4.20000E+00    6.41039E-01
 4.40000E+00    4.77888E-01
 4.60000E+00    3.53802E-01
 4.80000E+00    2.60341E-01
 5.00000E+00    1.90236E-01
 5.20000E+00    1.38415E-01
 5.40000E+00    1.00052E-01
 5.60000E+00    7.17010E-02
 5.80000E+00    5.12394E-02
 6.00000E+00    3.64650E-02
 6.20000E+00    2.59511E-02
 6.40000E+00    1.84277E-02
 6.60000E+00    1.30974E-02
 6.80000E+00    9.32052E-03
 7.00000E+00    6.63763E-03
 7.20000E+00    4.74503E-03
 7.40000E+00    3.39901E-03
 7.60000E+00    2.44316E-03
 7.80000E+00    1.76227E-03
 8.00000E+00    1.27413E-03
 8.50000E+00    5.75503E-04
 9.00000E+00    2.64813E-04
 9.50000E+00    1.23751E-04
 1.00000E+01    5.85965E-05
 1.05000E+01    2.80772E-05
 1.10000E+01    1.36075E-05
 1.15000E+01    6.67073E-06
 1.20000E+01    3.30837E-06
 1.25000E+01    1.66061E-06
 1.30000E+01    8.43890E-07
 1.35000E+01    4.34110E-07
 1.40000E+01    2.25980E-07
 1.45000E+01    1.18960E-07
 1.50000E+01    6.32980E-08
 1.60000E+01    1.84350E-08
 1.70000E+01    5.54950E-09
 1.80000E+01    1.70830E-09
 1.90000E+01    5.41660E-10
 2.00000E+01    1.75850E-10
 2.10000E+01    5.85780E-11
 2.20000E+01    2.00080E-11
 2.30000E+01    7.01610E-12
 2.40000E+01    2.52060E-12
 2.50000E+01    9.24040E-13
 2.60000E+01    3.45140E-13
 2.70000E+01    1.31050E-13
 2.80000E+01    5.05480E-14
 2.90000E+01    1.98000E-14
 3.00000E+01    7.87800E-15
