# n + Pt193 : (n,n'28)  
# tendl.2019 A.J. Koning and D. Rochman        EVAL-NOV19
# uncertainties: n
# # energies =    71
#   E(MeV)       xs(mb) 
 6.68476E-01    0.00000E+00
 6.95617E-01    1.83035E-02
 7.00000E-01    2.12593E-02
 7.03659E-01    2.89702E-02
 8.00000E-01    2.31997E-01
 9.00000E-01    6.38998E-01
 1.00000E+00    1.14456E+00
 1.20000E+00    2.15148E+00
 1.40000E+00    2.92723E+00
 1.60000E+00    3.39693E+00
 1.80000E+00    3.57833E+00
 2.00000E+00    3.53011E+00
 2.20000E+00    3.31355E+00
 2.40000E+00    2.99138E+00
 2.60000E+00    2.61789E+00
 2.80000E+00    2.23499E+00
 3.00000E+00    1.87014E+00
 3.20000E+00    1.53859E+00
 3.40000E+00    1.24699E+00
 3.60000E+00    9.96764E-01
 3.80000E+00    7.86212E-01
 4.00000E+00    6.12202E-01
 4.20000E+00    4.71053E-01
 4.40000E+00    3.58501E-01
 4.60000E+00    2.70121E-01
 4.80000E+00    2.01763E-01
 5.00000E+00    1.49333E-01
 5.20000E+00    1.09890E-01
 5.40000E+00    8.02329E-02
 5.60000E+00    5.80254E-02
 5.80000E+00    4.18266E-02
 6.00000E+00    3.00129E-02
 6.20000E+00    2.15322E-02
 6.40000E+00    1.54139E-02
 6.60000E+00    1.10442E-02
 6.80000E+00    7.92341E-03
 7.00000E+00    5.68966E-03
 7.20000E+00    4.10121E-03
 7.40000E+00    2.96278E-03
 7.60000E+00    2.14779E-03
 7.80000E+00    1.56227E-03
 8.00000E+00    1.13905E-03
 8.50000E+00    5.24941E-04
 9.00000E+00    2.45999E-04
 9.50000E+00    1.16796E-04
 1.00000E+01    5.60458E-05
 1.05000E+01    2.71538E-05
 1.10000E+01    1.32820E-05
 1.15000E+01    6.56256E-06
 1.20000E+01    3.27735E-06
 1.25000E+01    1.65549E-06
 1.30000E+01    8.46320E-07
 1.35000E+01    4.37870E-07
 1.40000E+01    2.29210E-07
 1.45000E+01    1.21320E-07
 1.50000E+01    6.48860E-08
 1.60000E+01    1.90780E-08
 1.70000E+01    5.79010E-09
 1.80000E+01    1.79450E-09
 1.90000E+01    5.72220E-10
 2.00000E+01    1.86670E-10
 2.10000E+01    6.24570E-11
 2.20000E+01    2.14220E-11
 2.30000E+01    7.54110E-12
 2.40000E+01    2.71920E-12
 2.50000E+01    1.00030E-12
 2.60000E+01    3.74760E-13
 2.70000E+01    1.42690E-13
 2.80000E+01    5.51700E-14
 2.90000E+01    2.16580E-14
 3.00000E+01    8.63460E-15
