# n + Ag109 : (n,g)     
# irdff2.0   LIU T.J.,T.NAKAGAWA,K.SHIBATA     EVAL-MAR87
# uncertainties: n
# # energies =    69
#   E(MeV)       xs(mb) 
 1.00000E-10    2.91320E+04
 5.00000E-09    7.95152E+03
 1.00000E-08    6.03470E+03
 1.50000E-08    5.07993E+03
 2.00000E-08    4.47808E+03
 2.50000E-08    4.05349E+03
 3.00000E-08    3.73320E+03
 3.50000E-08    3.43997E+03
 4.20000E-08    3.15565E+03
 5.00000E-08    2.91983E+03
 5.80000E-08    2.72249E+03
 6.70000E-08    2.52291E+03
 8.00000E-08    2.29730E+03
 1.00000E-07    2.02125E+03
 1.40000E-07    1.77182E+03
 1.80000E-07    1.60719E+03
 2.20000E-07    1.50112E+03
 2.50000E-07    1.43040E+03
 2.80000E-07    1.38039E+03
 3.00000E-07    1.34585E+03
 3.20000E-07    1.30808E+03
 3.50000E-07    1.25728E+03
 4.00000E-07    1.18572E+03
 5.00000E-07    1.11175E+03
 6.25000E-07    1.05655E+03
 7.80000E-07    1.02956E+03
 8.50000E-07    1.02051E+03
 9.10000E-07    1.01601E+03
 9.50000E-07    1.01367E+03
 9.72000E-07    1.01266E+03
 9.96000E-07    1.01202E+03
 1.02000E-06    1.01136E+03
 1.04500E-06    1.01133E+03
 1.07100E-06    1.01194E+03
 1.09700E-06    1.01255E+03
 1.12300E-06    1.01354E+03
 1.15000E-06    1.02033E+03
 1.30000E-06    1.04365E+03
 1.50000E-06    1.14940E+03
 2.10000E-06    1.43058E+03
 2.60000E-06    2.06542E+03
 3.30000E-06    4.01389E+03
 4.00000E-06    6.74569E+04
 9.87700E-06    1.15515E+02
 1.59680E-05    3.99279E+01
 2.77000E-05    2.92717E+03
 4.80520E-05    2.37940E+03
 7.55014E-05    7.72025E+02
 1.48728E-04    4.43533E+02
 3.67262E-04    2.88722E+02
 9.06898E-04    1.79701E+02
 1.42510E-03    1.35277E+02
 2.23945E-03    1.18505E+02
 3.51910E-03    7.92938E+01
 5.53000E-03    7.30940E+01
 9.11800E-03    6.76500E+01
 1.50300E-02    6.30827E+01
 2.47800E-02    5.75555E+01
 4.08500E-02    5.09958E+01
 6.73400E-02    4.10209E+01
 1.11000E-01    3.34011E+01
 1.83000E-01    2.73431E+01
 3.02000E-01    2.13774E+01
 5.00000E-01    1.57170E+01
 8.21000E-01    1.09244E+01
 1.35300E+00    7.06132E+00
 2.23100E+00    3.42254E+00
 3.67900E+00    5.60643E-01
 6.06500E+00    1.89060E-01
