# n + Ag109 : (n,el)    
# irdff2.0   LIU T.J.,T.NAKAGAWA,K.SHIBATA     EVAL-MAR87
# uncertainties: n
# # energies =   171
#   E(MeV)       xs(mb) 
 1.00000E-11    4.23894E+03
 1.00000E-07    2.39993E+03
 4.13990E-07    2.30864E+03
 5.31580E-07    2.25850E+03
 6.82560E-07    2.19099E+03
 8.76420E-07    2.10073E+03
 1.12540E-06    1.97814E+03
 1.44500E-06    1.81076E+03
 1.85540E-06    1.59015E+03
 2.37240E-06    1.33936E+03
 3.05900E-06    1.63884E+03
 3.92790E-06    5.72423E+04
 5.04350E-06    4.35176E+05
 6.47600E-06    1.57646E+04
 8.31530E-06    8.99690E+03
 1.06770E-05    6.97188E+03
 1.37100E-05    5.97870E+03
 1.76030E-05    5.30070E+03
 2.26030E-05    4.34458E+03
 2.92030E-05    1.05726E+04
 3.72670E-05    6.73042E+03
 4.78510E-05    1.51223E+04
 6.14420E-05    1.71578E+04
 7.88930E-05    6.00703E+03
 1.01300E-04    4.18763E+03
 1.30070E-04    2.79902E+04
 1.67020E-04    1.11920E+04
 2.14450E-04    5.39031E+03
 2.75360E-04    1.73859E+04
 3.53580E-04    9.49101E+03
 4.54000E-04    1.52680E+04
 5.82950E-04    8.37842E+03
 7.48520E-04    9.14688E+03
 9.61120E-04    1.78332E+04
 1.23410E-03    8.92510E+03
 1.58460E-03    8.33816E+03
 2.03470E-03    7.85934E+03
 2.24870E-03    7.01251E+03
 2.48520E-03    8.97158E+03
 2.61260E-03    6.64974E+03
 2.74650E-03    7.30507E+03
 3.03540E-03    9.02049E+03
 3.35460E-03    7.80448E+03
 3.70740E-03    8.15636E+03
 4.30740E-03    7.14625E+03
 5.53080E-03    7.70062E+03
 7.10170E-03    6.81797E+03
 9.11880E-03    7.28674E+03
 1.17090E-02    7.19557E+03
 1.50340E-02    7.07103E+03
 1.93050E-02    6.98775E+03
 2.18750E-02    7.01457E+03
 2.35790E-02    7.03155E+03
 2.41760E-02    7.04040E+03
 2.47880E-02    7.05412E+03
 2.60580E-02    7.07035E+03
 2.70000E-02    7.08817E+03
 2.85000E-02    7.12316E+03
 3.18280E-02    7.16132E+03
 3.43070E-02    7.21097E+03
 4.08680E-02    7.27851E+03
 4.63090E-02    7.34333E+03
 5.24750E-02    7.40109E+03
 5.65620E-02    7.45428E+03
 6.73790E-02    7.45261E+03
 7.20000E-02    7.45939E+03
 7.95000E-02    7.46726E+03
 8.25000E-02    7.47245E+03
 8.65170E-02    7.48382E+03
 9.80370E-02    7.50374E+03
 1.11090E-01    7.52746E+03
 1.16790E-01    7.54358E+03
 1.22770E-01    7.56054E+03
 1.29070E-01    7.57838E+03
 1.35690E-01    7.59711E+03
 1.42640E-01    7.61682E+03
 1.49960E-01    7.63753E+03
 1.57640E-01    7.65908E+03
 1.65730E-01    7.67841E+03
 1.74220E-01    7.69761E+03
 1.83160E-01    7.71781E+03
 1.92550E-01    7.73830E+03
 2.02420E-01    7.74218E+03
 2.12800E-01    7.73867E+03
 2.23710E-01    7.73499E+03
 2.35180E-01    7.73111E+03
 2.47240E-01    7.71798E+03
 2.73240E-01    7.68964E+03
 2.87250E-01    7.67383E+03
 2.94520E-01    7.66645E+03
 2.97200E-01    7.66350E+03
 2.98500E-01    7.65998E+03
 3.01970E-01    7.60465E+03
 3.33730E-01    7.39605E+03
 3.68830E-01    7.18137E+03
 3.87740E-01    7.02741E+03
 4.07620E-01    6.82526E+03
 4.50490E-01    6.43180E+03
 4.97870E-01    6.13809E+03
 5.23400E-01    5.98946E+03
 5.50230E-01    5.83354E+03
 5.78440E-01    5.67048E+03
 6.08100E-01    5.53275E+03
 6.39280E-01    5.40538E+03
 6.72060E-01    5.27356E+03
 7.06510E-01    5.16248E+03
 7.42740E-01    4.95795E+03
 7.80820E-01    4.73930E+03
 8.20850E-01    4.60553E+03
 8.62940E-01    4.46778E+03
 9.07180E-01    4.33508E+03
 9.61640E-01    4.23327E+03
 1.00260E+00    4.10312E+03
 1.10800E+00    3.96836E+03
 1.16480E+00    3.86369E+03
 1.22460E+00    3.77304E+03
 1.28730E+00    3.67145E+03
 1.35340E+00    3.53268E+03
 1.42270E+00    3.43286E+03
 1.49570E+00    3.32982E+03
 1.57240E+00    3.19978E+03
 1.65300E+00    3.08153E+03
 1.73770E+00    2.96018E+03
 1.82680E+00    2.84379E+03
 1.92050E+00    2.73083E+03
 2.01900E+00    2.62314E+03
 2.12250E+00    2.51866E+03
 2.23130E+00    2.43572E+03
 2.30690E+00    2.38543E+03
 2.34570E+00    2.36156E+03
 2.36530E+00    2.34596E+03
 2.38520E+00    2.30646E+03
 2.46600E+00    2.23047E+03
 2.59240E+00    2.15522E+03
 2.72530E+00    2.08217E+03
 2.86500E+00    2.00096E+03
 3.01190E+00    1.93076E+03
 3.16640E+00    1.87772E+03
 3.32870E+00    1.83399E+03
 3.67880E+00    1.79547E+03
 4.06570E+00    1.76639E+03
 4.49330E+00    1.75605E+03
 4.72370E+00    1.76012E+03
 4.96590E+00    1.77041E+03
 5.22050E+00    1.79138E+03
 5.48810E+00    1.81802E+03
 5.76950E+00    1.86064E+03
 6.06530E+00    1.90729E+03
 6.37630E+00    1.94792E+03
 6.59240E+00    1.97312E+03
 6.70320E+00    2.00787E+03
 7.04690E+00    2.06110E+03
 7.40820E+00    2.11256E+03
 7.78800E+00    2.16483E+03
 8.18730E+00    2.21088E+03
 8.60710E+00    2.25725E+03
 9.04840E+00    2.31577E+03
 9.51230E+00    2.32607E+03
 1.00000E+01    2.35133E+03
 1.05130E+01    2.36991E+03
 1.10520E+01    2.37795E+03
 1.16180E+01    2.38241E+03
 1.22140E+01    2.37608E+03
 1.28400E+01    2.36308E+03
 1.34990E+01    2.34600E+03
 1.38400E+01    2.33468E+03
 1.41910E+01    2.32158E+03
 1.45500E+01    2.30298E+03
 1.49180E+01    2.27358E+03
 1.56830E+01    2.22226E+03
 1.64870E+01    2.16666E+03
