# n + Ag109 : (n,tot)   
# irdff2.0   LIU T.J.,T.NAKAGAWA,K.SHIBATA     EVAL-MAR87
# uncertainties: n
# # energies =   171
#   E(MeV)       xs(mb) 
 1.00000E-11    9.74837E+05
 1.00000E-07    3.73984E+04
 4.13990E-07    2.74490E+04
 5.31580E-07    2.57336E+04
 6.82560E-07    2.45212E+04
 8.76420E-07    2.39018E+04
 1.12540E-06    2.40672E+04
 1.44500E-06    2.54685E+04
 1.85540E-06    2.92074E+04
 2.37240E-06    3.90874E+04
 3.05900E-06    7.46371E+04
 3.92790E-06    9.24034E+05
 5.04350E-06    4.77754E+06
 6.47600E-06    5.28627E+04
 8.31530E-06    1.67861E+04
 1.06770E-05    9.68846E+03
 1.37100E-05    7.24232E+03
 1.76030E-05    6.11650E+03
 2.26030E-05    6.33695E+03
 2.92030E-05    1.04951E+05
 3.72670E-05    5.33796E+04
 4.78510E-05    5.41794E+04
 6.14420E-05    7.10904E+04
 7.88930E-05    1.59635E+04
 1.01300E-04    4.87217E+03
 1.30070E-04    6.38500E+04
 1.67020E-04    3.37812E+04
 2.14450E-04    8.60249E+03
 2.75360E-04    2.75627E+04
 3.53580E-04    1.67466E+04
 4.54000E-04    2.53435E+04
 5.82950E-04    1.17823E+04
 7.48520E-04    1.32444E+04
 9.61120E-04    1.35831E+04
 1.23410E-03    1.30264E+04
 1.58460E-03    1.13151E+04
 2.03470E-03    1.12025E+04
 2.24870E-03    9.78516E+03
 2.48520E-03    1.25763E+04
 2.61260E-03    9.46458E+03
 2.74650E-03    9.75851E+03
 3.03540E-03    1.16014E+04
 3.35460E-03    9.92674E+03
 3.70740E-03    1.05126E+04
 4.30740E-03    1.06075E+04
 5.53080E-03    1.06959E+04
 7.10170E-03    9.04228E+03
 9.11880E-03    8.69741E+03
 1.17090E-02    8.43426E+03
 1.50340E-02    8.18457E+03
 1.93050E-02    8.03502E+03
 2.18750E-02    7.96576E+03
 2.35790E-02    7.94479E+03
 2.41760E-02    7.95232E+03
 2.47880E-02    7.96399E+03
 2.60580E-02    7.97779E+03
 2.70000E-02    7.99306E+03
 2.85000E-02    8.02386E+03
 3.18280E-02    8.04449E+03
 3.43070E-02    8.04090E+03
 4.08680E-02    8.04134E+03
 4.63090E-02    8.05448E+03
 5.24750E-02    8.06829E+03
 5.65620E-02    8.07234E+03
 6.73790E-02    8.03466E+03
 7.20000E-02    8.03405E+03
 7.95000E-02    8.00995E+03
 8.25000E-02    7.99856E+03
 8.65170E-02    7.98048E+03
 9.80370E-02    7.95001E+03
 1.11090E-01    7.96529E+03
 1.16790E-01    7.97753E+03
 1.22770E-01    7.99040E+03
 1.29070E-01    8.00394E+03
 1.35690E-01    8.01816E+03
 1.42640E-01    8.03312E+03
 1.49960E-01    8.04884E+03
 1.57640E-01    8.06537E+03
 1.65730E-01    8.08275E+03
 1.74220E-01    8.10101E+03
 1.83160E-01    8.11350E+03
 1.92550E-01    8.11361E+03
 2.02420E-01    8.11341E+03
 2.12800E-01    8.11321E+03
 2.23710E-01    8.11299E+03
 2.35180E-01    8.11275E+03
 2.47240E-01    8.10222E+03
 2.73240E-01    8.07181E+03
 2.87250E-01    8.05477E+03
 2.94520E-01    8.04682E+03
 2.97200E-01    8.04364E+03
 2.98500E-01    8.03984E+03
 3.01970E-01    8.02878E+03
 3.33730E-01    8.01649E+03
 3.68830E-01    7.97425E+03
 3.87740E-01    7.92673E+03
 4.07620E-01    7.84575E+03
 4.50490E-01    7.69925E+03
 4.97870E-01    7.57579E+03
 5.23400E-01    7.48785E+03
 5.50230E-01    7.39828E+03
 5.78440E-01    7.31382E+03
 6.08100E-01    7.22581E+03
 6.39280E-01    7.13329E+03
 6.72060E-01    7.03700E+03
 7.06510E-01    6.94554E+03
 7.42740E-01    6.85859E+03
 7.80820E-01    6.78327E+03
 8.20850E-01    6.70478E+03
 8.62940E-01    6.62343E+03
 9.07180E-01    6.55611E+03
 9.61640E-01    6.49898E+03
 1.00260E+00    6.39796E+03
 1.10800E+00    6.30013E+03
 1.16480E+00    6.23833E+03
 1.22460E+00    6.16319E+03
 1.28730E+00    6.08154E+03
 1.35340E+00    5.99570E+03
 1.42270E+00    5.90549E+03
 1.49570E+00    5.81059E+03
 1.57240E+00    5.71131E+03
 1.65300E+00    5.61358E+03
 1.73770E+00    5.51307E+03
 1.82680E+00    5.40735E+03
 1.92050E+00    5.29620E+03
 2.01900E+00    5.17938E+03
 2.12250E+00    5.05975E+03
 2.23130E+00    4.97601E+03
 2.30690E+00    4.92745E+03
 2.34570E+00    4.90269E+03
 2.36530E+00    4.88596E+03
 2.38520E+00    4.84351E+03
 2.46600E+00    4.75671E+03
 2.59240E+00    4.68383E+03
 2.72530E+00    4.59776E+03
 2.86500E+00    4.50491E+03
 3.01190E+00    4.40726E+03
 3.16640E+00    4.32154E+03
 3.32870E+00    4.24205E+03
 3.67880E+00    4.15984E+03
 4.06570E+00    4.09802E+03
 4.49330E+00    4.06565E+03
 4.72370E+00    4.06044E+03
 4.96590E+00    4.06058E+03
 5.22050E+00    4.07020E+03
 5.48810E+00    4.08505E+03
 5.76950E+00    4.11252E+03
 6.06530E+00    4.14199E+03
 6.37630E+00    4.16767E+03
 6.59240E+00    4.18360E+03
 6.70320E+00    4.20555E+03
 7.04690E+00    4.23980E+03
 7.40820E+00    4.27579E+03
 7.78800E+00    4.31247E+03
 8.18730E+00    4.34274E+03
 8.60710E+00    4.37294E+03
 9.04840E+00    4.40226E+03
 9.51230E+00    4.41840E+03
 1.00000E+01    4.43288E+03
 1.05130E+01    4.44052E+03
 1.10520E+01    4.43668E+03
 1.16180E+01    4.42818E+03
 1.22140E+01    4.40807E+03
 1.28400E+01    4.37999E+03
 1.34990E+01    4.35142E+03
 1.38400E+01    4.33146E+03
 1.41910E+01    4.30948E+03
 1.45500E+01    4.28251E+03
 1.49180E+01    4.23988E+03
 1.56830E+01    4.17265E+03
 1.64870E+01    4.09842E+03
