# n + Sr 86 : (n,n'06)  
# jendl4.0   K.Shibata, A.Ichihara, S.Kunieda  EVAL-AUG09
# uncertainties: n
# # energies =    28
#   E(MeV)       xs(mb) 
 2.39277E+00    0.00000E+00
 2.50000E+00    5.29200E+01
 3.00000E+00    9.60500E+01
 3.50000E+00    8.74100E+01
 4.00000E+00    7.46600E+01
 4.50000E+00    5.67700E+01
 5.00000E+00    3.98600E+01
 5.50000E+00    2.64800E+01
 6.00000E+00    1.69500E+01
 6.50000E+00    1.15300E+01
 7.00000E+00    6.99800E+00
 7.50000E+00    5.46600E+00
 8.00000E+00    3.36800E+00
 8.50000E+00    3.33400E+00
 9.00000E+00    2.10200E+00
 9.50000E+00    2.57200E+00
 1.00000E+01    1.63100E+00
 1.10000E+01    1.40200E+00
 1.20000E+01    1.24800E+00
 1.30000E+01    1.12900E+00
 1.40000E+01    1.03700E+00
 1.45000E+01    9.78500E-01
 1.50000E+01    1.49100E+00
 1.60000E+01    1.37600E+00
 1.70000E+01    1.27100E+00
 1.80000E+01    1.17600E+00
 1.90000E+01    1.09000E+00
 2.00000E+01    1.01100E+00
