# n + Sr 86 : (n,n'10)  
# jendl4.0   K.Shibata, A.Ichihara, S.Kunieda  EVAL-AUG09
# uncertainties: n
# # energies =    27
#   E(MeV)       xs(mb) 
 2.70422E+00    0.00000E+00
 3.00000E+00    1.27000E+01
 3.50000E+00    2.42300E+01
 4.00000E+00    2.99000E+01
 4.50000E+00    2.71100E+01
 5.00000E+00    2.20200E+01
 5.50000E+00    1.61500E+01
 6.00000E+00    1.11600E+01
 6.50000E+00    8.02200E+00
 7.00000E+00    5.09300E+00
 7.50000E+00    4.12300E+00
 8.00000E+00    2.62000E+00
 8.50000E+00    2.66700E+00
 9.00000E+00    1.72400E+00
 9.50000E+00    2.16000E+00
 1.00000E+01    1.40000E+00
 1.10000E+01    1.24900E+00
 1.20000E+01    1.14600E+00
 1.30000E+01    1.06200E+00
 1.40000E+01    9.96400E-01
 1.45000E+01    9.48200E-01
 1.50000E+01    1.45700E+00
 1.60000E+01    1.36500E+00
 1.70000E+01    1.27700E+00
 1.80000E+01    1.19400E+00
 1.90000E+01    1.11800E+00
 2.00000E+01    1.04700E+00
