# n + Sr 86 : (n,n'02)  
# jendl4.0   K.Shibata, A.Ichihara, S.Kunieda  EVAL-AUG09
# uncertainties: n
# # energies =    29
#   E(MeV)       xs(mb) 
 1.87594E+00    0.00000E+00
 2.00000E+00    1.92500E+02
 2.50000E+00    4.56500E+02
 3.00000E+00    3.52100E+02
 3.50000E+00    2.56100E+02
 4.00000E+00    1.79600E+02
 4.50000E+00    1.17400E+02
 5.00000E+00    7.03200E+01
 5.50000E+00    4.13700E+01
 6.00000E+00    2.36900E+01
 6.50000E+00    1.46800E+01
 7.00000E+00    8.22800E+00
 7.50000E+00    6.01700E+00
 8.00000E+00    3.50200E+00
 8.50000E+00    3.30100E+00
 9.00000E+00    1.99400E+00
 9.50000E+00    2.35300E+00
 1.00000E+01    1.44600E+00
 1.10000E+01    1.18300E+00
 1.20000E+01    1.01600E+00
 1.30000E+01    8.95700E-01
 1.40000E+01    8.08200E-01
 1.45000E+01    7.56500E-01
 1.50000E+01    1.14400E+00
 1.60000E+01    1.04100E+00
 1.70000E+01    9.46400E-01
 1.80000E+01    8.61300E-01
 1.90000E+01    7.86000E-01
 2.00000E+01    7.20100E-01
