# n + Sr 86 : (n,non)   
# jendl4.0   K.Shibata, A.Ichihara, S.Kunieda  EVAL-AUG09
# uncertainties: n
# # energies =    72
#   E(MeV)       xs(mb) 
 3.71200E-02    0.00000E+00
 3.71200E-02    5.57821E+01
 4.00000E-02    5.26400E+01
 5.00000E-02    4.62300E+01
 6.00000E-02    4.20800E+01
 7.00000E-02    3.91400E+01
 8.00000E-02    3.69200E+01
 9.00000E-02    3.51700E+01
 1.00000E-01    3.42100E+01
 2.00000E-01    2.83100E+01
 3.00000E-01    2.72000E+01
 4.00000E-01    2.75200E+01
 5.00000E-01    2.82300E+01
 6.00000E-01    2.95200E+01
 7.00000E-01    3.08100E+01
 8.00000E-01    3.23000E+01
 9.00000E-01    3.40100E+01
 1.00000E+00    3.61000E+01
 1.00589E+00    3.59149E+01
 1.08932E+00    3.32917E+01
 1.50000E+00    8.71180E+02
 1.87594E+00    9.73233E+02
 2.00000E+00    1.19941E+03
 2.13073E+00    1.21254E+03
 2.22887E+00    1.24572E+03
 2.25592E+00    1.26156E+03
 2.39277E+00    1.41505E+03
 2.50000E+00    1.58825E+03
 2.51105E+00    1.58328E+03
 2.52834E+00    1.58095E+03
 2.67321E+00    1.57888E+03
 2.70422E+00    1.59347E+03
 2.82124E+00    1.65355E+03
 2.89054E+00    1.72301E+03
 2.91207E+00    1.74474E+03
 2.99038E+00    1.84150E+03
 3.00000E+00    1.85338E+03
 3.03255E+00    1.84467E+03
 3.08075E+00    1.84010E+03
 3.09166E+00    1.84081E+03
 3.10177E+00    1.84176E+03
 3.50000E+00    2.10117E+03
 4.00000E+00    2.07431E+03
 4.50000E+00    2.02714E+03
 5.00000E+00    1.97736E+03
 5.50000E+00    1.93494E+03
 6.00000E+00    1.90414E+03
 6.43364E+00    1.88639E+03
 6.50000E+00    1.88367E+03
 7.00000E+00    1.87104E+03
 7.50000E+00    1.86171E+03
 7.50778E+00    1.86160E+03
 8.00000E+00    1.85465E+03
 8.50000E+00    1.84753E+03
 9.00000E+00    1.84084E+03
 9.05760E+00    1.84004E+03
 9.50000E+00    1.83387E+03
 9.75846E+00    1.83045E+03
 1.00000E+01    1.82725E+03
 1.10000E+01    1.81354E+03
 1.16272E+01    1.78517E+03
 1.17888E+01    1.79152E+03
 1.20000E+01    1.79982E+03
 1.30000E+01    1.78581E+03
 1.40000E+01    1.77077E+03
 1.45000E+01    1.76260E+03
 1.50000E+01    1.75426E+03
 1.60000E+01    1.73859E+03
 1.70000E+01    1.72367E+03
 1.80000E+01    1.71211E+03
 1.90000E+01    1.70212E+03
 2.00000E+01    1.69329E+03
