# n + Sr 86 : (n,n'09)  
# jendl4.0   K.Shibata, A.Ichihara, S.Kunieda  EVAL-AUG09
# uncertainties: n
# # energies =    27
#   E(MeV)       xs(mb) 
 2.67321E+00    0.00000E+00
 3.00000E+00    1.58400E+02
 3.50000E+00    1.83400E+02
 4.00000E+00    1.35500E+02
 4.50000E+00    8.98300E+01
 5.00000E+00    5.69800E+01
 5.50000E+00    3.56800E+01
 6.00000E+00    2.13600E+01
 6.50000E+00    1.36000E+01
 7.00000E+00    7.72000E+00
 7.50000E+00    5.66800E+00
 8.00000E+00    3.29800E+00
 8.50000E+00    3.10500E+00
 9.00000E+00    1.87500E+00
 9.50000E+00    2.21400E+00
 1.00000E+01    1.36400E+00
 1.10000E+01    1.12300E+00
 1.20000E+01    9.69900E-01
 1.30000E+01    8.59000E-01
 1.40000E+01    7.77800E-01
 1.45000E+01    7.29100E-01
 1.50000E+01    1.10500E+00
 1.60000E+01    1.00800E+00
 1.70000E+01    9.19800E-01
 1.80000E+01    8.39300E-01
 1.90000E+01    7.67400E-01
 2.00000E+01    7.03700E-01
