# n + Sr 86 : (n,n'13)  
# jendl4.0   K.Shibata, A.Ichihara, S.Kunieda  EVAL-AUG09
# uncertainties: n
# # energies =    27
#   E(MeV)       xs(mb) 
 2.91207E+00    0.00000E+00
 3.00000E+00    1.99000E+01
 3.50000E+00    8.75300E+01
 4.00000E+00    7.84600E+01
 4.50000E+00    5.65600E+01
 5.00000E+00    3.99900E+01
 5.50000E+00    2.73600E+01
 6.00000E+00    1.77100E+01
 6.50000E+00    1.19800E+01
 7.00000E+00    7.16900E+00
 7.50000E+00    5.50100E+00
 8.00000E+00    3.32900E+00
 8.50000E+00    3.24800E+00
 9.00000E+00    2.02500E+00
 9.50000E+00    2.46200E+00
 1.00000E+01    1.55700E+00
 1.10000E+01    1.33900E+00
 1.20000E+01    1.19800E+00
 1.30000E+01    1.09100E+00
 1.40000E+01    1.01100E+00
 1.45000E+01    9.56900E-01
 1.50000E+01    1.46300E+00
 1.60000E+01    1.35600E+00
 1.70000E+01    1.25500E+00
 1.80000E+01    1.16000E+00
 1.90000E+01    1.07300E+00
 2.00000E+01    9.93900E-01
