# n + Sr 86 : (n,n'01)  
# jendl4.0   K.Shibata, A.Ichihara, S.Kunieda  EVAL-AUG09
# uncertainties: n
# # energies =    30
#   E(MeV)       xs(mb) 
 1.08932E+00    0.00000E+00
 1.50000E+00    8.50800E+02
 2.00000E+00    9.84400E+02
 2.50000E+00    7.75100E+02
 3.00000E+00    5.53700E+02
 3.50000E+00    4.23500E+02
 4.00000E+00    3.14800E+02
 4.50000E+00    2.24000E+02
 5.00000E+00    1.58300E+02
 5.50000E+00    1.17500E+02
 6.00000E+00    9.17600E+01
 6.50000E+00    7.58600E+01
 7.00000E+00    6.59200E+01
 7.50000E+00    5.94900E+01
 8.00000E+00    5.51800E+01
 8.50000E+00    5.20400E+01
 9.00000E+00    4.95500E+01
 9.50000E+00    4.74100E+01
 1.00000E+01    4.54700E+01
 1.10000E+01    4.20300E+01
 1.20000E+01    3.91600E+01
 1.30000E+01    3.67900E+01
 1.40000E+01    3.47800E+01
 1.45000E+01    3.38900E+01
 1.50000E+01    3.30700E+01
 1.60000E+01    3.15800E+01
 1.70000E+01    3.02700E+01
 1.80000E+01    2.91000E+01
 1.90000E+01    2.80900E+01
 2.00000E+01    2.72200E+01
