# n + Sr 86 : (n,n'08)  
# jendl4.0   K.Shibata, A.Ichihara, S.Kunieda  EVAL-AUG09
# uncertainties: n
# # energies =    27
#   E(MeV)       xs(mb) 
 2.52834E+00    0.00000E+00
 3.00000E+00    5.66500E+01
 3.50000E+00    5.30700E+01
 4.00000E+00    4.72400E+01
 4.50000E+00    3.87300E+01
 5.00000E+00    2.94600E+01
 5.50000E+00    2.03800E+01
 6.00000E+00    1.33600E+01
 6.50000E+00    9.18200E+00
 7.00000E+00    5.62400E+00
 7.50000E+00    4.43100E+00
 8.00000E+00    2.76200E+00
 8.50000E+00    2.77000E+00
 9.00000E+00    1.77200E+00
 9.50000E+00    2.20200E+00
 1.00000E+01    1.41900E+00
 1.10000E+01    1.25700E+00
 1.20000E+01    1.15100E+00
 1.30000E+01    1.06900E+00
 1.40000E+01    1.00700E+00
 1.45000E+01    9.60300E-01
 1.50000E+01    1.47800E+00
 1.60000E+01    1.38600E+00
 1.70000E+01    1.29600E+00
 1.80000E+01    1.20800E+00
 1.90000E+01    1.12700E+00
 2.00000E+01    1.05200E+00
