# n + Sr 86 : (n,xd)    
# jendl4.0   K.Shibata, A.Ichihara, S.Kunieda  EVAL-AUG09
# 
# # energies =    47
#   E(MeV)        xs(mb) 
 1.08932E+00    0.00000E+00
 1.50000E+00    0.00000E+00
 1.87594E+00    0.00000E+00
 2.00000E+00    0.00000E+00
 2.13073E+00    0.00000E+00
 2.22887E+00    0.00000E+00
 2.25592E+00    0.00000E+00
 2.39277E+00    0.00000E+00
 2.50000E+00    0.00000E+00
 2.51105E+00    0.00000E+00
 2.52834E+00    0.00000E+00
 2.67321E+00    0.00000E+00
 2.70422E+00    0.00000E+00
 2.82124E+00    0.00000E+00
 2.89054E+00    0.00000E+00
 2.91207E+00    0.00000E+00
 2.99038E+00    0.00000E+00
 3.00000E+00    0.00000E+00
 3.03255E+00    0.00000E+00
 3.08075E+00    0.00000E+00
 3.09166E+00    0.00000E+00
 3.10177E+00    0.00000E+00
 3.50000E+00    0.00000E+00
 4.00000E+00    0.00000E+00
 4.50000E+00    0.00000E+00
 5.00000E+00    0.00000E+00
 5.50000E+00    0.00000E+00
 6.00000E+00    0.00000E+00
 6.50000E+00    0.00000E+00
 7.00000E+00    0.00000E+00
 7.50000E+00    0.00000E+00
 8.00000E+00    0.00000E+00
 8.50000E+00    0.00000E+00
 9.00000E+00    0.00000E+00
 9.50000E+00    0.00000E+00
 1.00000E+01    3.13100E-05
 1.10000E+01    1.30600E-03
 1.20000E+01    8.38300E-02
 1.30000E+01    2.73100E-01
 1.40000E+01    8.68800E-01
 1.45000E+01    1.20300E+00
 1.50000E+01    1.99400E+00
 1.60000E+01    3.61800E+00
 1.70000E+01    4.63200E+00
 1.80000E+01    6.64700E+00
 1.90000E+01    8.82300E+00
 2.00000E+01    1.10700E+01
