# n + Sr 86 : (n,el)    
# jendl4.0   K.Shibata, A.Ichihara, S.Kunieda  EVAL-AUG09
# uncertainties: n
# # energies =    69
#   E(MeV)       xs(mb) 
 1.00000E-10    5.50847E+03
 5.00000E-09    4.22179E+03
 1.00000E-08    4.18371E+03
 1.50000E-08    4.16885E+03
 2.00000E-08    4.16068E+03
 2.50000E-08    4.15572E+03
 3.00000E-08    4.15214E+03
 3.50000E-08    4.14936E+03
 4.20000E-08    4.14654E+03
 5.00000E-08    4.14472E+03
 5.80000E-08    4.14305E+03
 6.70000E-08    4.14148E+03
 8.00000E-08    4.14010E+03
 1.00000E-07    4.13819E+03
 1.40000E-07    4.13693E+03
 1.80000E-07    4.13579E+03
 2.20000E-07    4.13526E+03
 2.50000E-07    4.13502E+03
 2.80000E-07    4.13482E+03
 3.00000E-07    4.13465E+03
 3.20000E-07    4.13445E+03
 3.50000E-07    4.13413E+03
 4.00000E-07    4.13353E+03
 5.00000E-07    4.13278E+03
 6.25000E-07    4.13234E+03
 7.80000E-07    4.13201E+03
 8.50000E-07    4.13182E+03
 9.10000E-07    4.13167E+03
 9.50000E-07    4.13158E+03
 9.72000E-07    4.13151E+03
 9.96000E-07    4.13144E+03
 1.02000E-06    4.13137E+03
 1.04500E-06    4.13130E+03
 1.07100E-06    4.13122E+03
 1.09700E-06    4.13115E+03
 1.12300E-06    4.13107E+03
 1.15000E-06    4.13082E+03
 1.30000E-06    4.13031E+03
 1.50000E-06    4.12919E+03
 2.10000E-06    4.12757E+03
 2.60000E-06    4.12583E+03
 3.30000E-06    4.12379E+03
 4.00000E-06    4.11538E+03
 9.87700E-06    4.09712E+03
 1.59680E-05    4.07164E+03
 2.77000E-05    4.02539E+03
 4.80520E-05    3.95378E+03
 7.55014E-05    3.78531E+03
 1.48728E-04    3.05896E+03
 3.67262E-04    8.74371E+04
 9.06898E-04    7.96155E+03
 1.42510E-03    6.54661E+03
 2.23945E-03    8.33383E+03
 3.51910E-03    6.39516E+03
 5.53000E-03    5.59743E+03
 9.11800E-03    9.90262E+03
 1.50300E-02    1.10257E+04
 2.47800E-02    8.85873E+03
 4.08500E-02    8.49939E+03
 6.73400E-02    8.31995E+03
 1.11000E-01    8.18796E+03
 1.83000E-01    7.98031E+03
 3.02000E-01    7.53539E+03
 5.00000E-01    6.68289E+03
 8.21000E-01    5.41602E+03
 1.35300E+00    3.49425E+03
 2.23100E+00    2.20326E+03
 3.67900E+00    1.86651E+03
 6.06500E+00    2.19775E+03
