# n + Sr 86 : (n,n'07)  
# jendl4.0   K.Shibata, A.Ichihara, S.Kunieda  EVAL-AUG09
# uncertainties: n
# # energies =    27
#   E(MeV)       xs(mb) 
 2.51105E+00    0.00000E+00
 3.00000E+00    1.54400E+02
 3.50000E+00    1.44600E+02
 4.00000E+00    1.14800E+02
 4.50000E+00    8.68300E+01
 5.00000E+00    6.47000E+01
 5.50000E+00    4.92100E+01
 6.00000E+00    3.87000E+01
 6.50000E+00    3.21600E+01
 7.00000E+00    2.82800E+01
 7.50000E+00    2.59600E+01
 8.00000E+00    2.46100E+01
 8.50000E+00    2.37800E+01
 9.00000E+00    2.32600E+01
 9.50000E+00    2.28900E+01
 1.00000E+01    2.26200E+01
 1.10000E+01    2.21500E+01
 1.20000E+01    2.17400E+01
 1.30000E+01    2.14100E+01
 1.40000E+01    2.11500E+01
 1.45000E+01    2.10400E+01
 1.50000E+01    2.09500E+01
 1.60000E+01    2.08100E+01
 1.70000E+01    2.07400E+01
 1.80000E+01    2.07300E+01
 1.90000E+01    2.07400E+01
 2.00000E+01    2.07600E+01
