# n + Sr 86 : (n,n'05)  
# jendl4.0   K.Shibata, A.Ichihara, S.Kunieda  EVAL-AUG09
# uncertainties: n
# # energies =    28
#   E(MeV)       xs(mb) 
 2.25592E+00    0.00000E+00
 2.50000E+00    1.30900E+02
 3.00000E+00    1.75300E+02
 3.50000E+00    1.38100E+02
 4.00000E+00    1.07100E+02
 4.50000E+00    7.73800E+01
 5.00000E+00    5.17700E+01
 5.50000E+00    3.28300E+01
 6.00000E+00    2.01000E+01
 6.50000E+00    1.31300E+01
 7.00000E+00    7.71700E+00
 7.50000E+00    5.87800E+00
 8.00000E+00    3.55300E+00
 8.50000E+00    3.46800E+00
 9.00000E+00    2.16200E+00
 9.50000E+00    2.62400E+00
 1.00000E+01    1.65400E+00
 1.10000E+01    1.41200E+00
 1.20000E+01    1.25500E+00
 1.30000E+01    1.13700E+00
 1.40000E+01    1.04800E+00
 1.45000E+01    9.90200E-01
 1.50000E+01    1.51100E+00
 1.60000E+01    1.39600E+00
 1.70000E+01    1.28700E+00
 1.80000E+01    1.18700E+00
 1.90000E+01    1.09600E+00
 2.00000E+01    1.01400E+00
