# n + Sr 86 : (n,n'12)  
# jendl4.0   K.Shibata, A.Ichihara, S.Kunieda  EVAL-AUG09
# uncertainties: n
# # energies =    27
#   E(MeV)       xs(mb) 
 2.89054E+00    0.00000E+00
 3.00000E+00    7.63600E-01
 3.50000E+00    4.24300E+00
 4.00000E+00    8.89400E+00
 4.50000E+00    1.14500E+01
 5.00000E+00    1.15900E+01
 5.50000E+00    9.53600E+00
 6.00000E+00    6.99300E+00
 6.50000E+00    5.18900E+00
 7.00000E+00    3.36600E+00
 7.50000E+00    2.77400E+00
 8.00000E+00    1.79600E+00
 8.50000E+00    1.86600E+00
 9.00000E+00    1.23400E+00
 9.50000E+00    1.58200E+00
 1.00000E+01    1.04900E+00
 1.10000E+01    9.77800E-01
 1.20000E+01    9.33500E-01
 1.30000E+01    8.97100E-01
 1.40000E+01    8.68700E-01
 1.45000E+01    8.38300E-01
 1.50000E+01    1.30400E+00
 1.60000E+01    1.24800E+00
 1.70000E+01    1.18800E+00
 1.80000E+01    1.12500E+00
 1.90000E+01    1.06500E+00
 2.00000E+01    1.00600E+00
