# n + Sr 86 : (n,n'15)  
# jendl4.0   K.Shibata, A.Ichihara, S.Kunieda  EVAL-AUG09
# uncertainties: n
# # energies =    26
#   E(MeV)       xs(mb) 
 3.03255E+00    0.00000E+00
 3.50000E+00    8.07100E+01
 4.00000E+00    7.76800E+01
 4.50000E+00    5.70800E+01
 5.00000E+00    3.93500E+01
 5.50000E+00    2.68100E+01
 6.00000E+00    1.74200E+01
 6.50000E+00    1.18800E+01
 7.00000E+00    7.15400E+00
 7.50000E+00    5.50800E+00
 8.00000E+00    3.32900E+00
 8.50000E+00    3.23300E+00
 9.00000E+00    2.00200E+00
 9.50000E+00    2.41500E+00
 1.00000E+01    1.51500E+00
 1.10000E+01    1.28300E+00
 1.20000E+01    1.13000E+00
 1.30000E+01    1.01400E+00
 1.40000E+01    9.25200E-01
 1.45000E+01    8.69800E-01
 1.50000E+01    1.32100E+00
 1.60000E+01    1.21300E+00
 1.70000E+01    1.11500E+00
 1.80000E+01    1.02600E+00
 1.90000E+01    9.47000E-01
 2.00000E+01    8.75400E-01
