# n + Sr 86 : (n,n'11)  
# jendl4.0   K.Shibata, A.Ichihara, S.Kunieda  EVAL-AUG09
# uncertainties: n
# # energies =    27
#   E(MeV)       xs(mb) 
 2.82124E+00    0.00000E+00
 3.00000E+00    8.74000E+01
 3.50000E+00    1.63700E+02
 4.00000E+00    1.28600E+02
 4.50000E+00    8.51700E+01
 5.00000E+00    5.41400E+01
 5.50000E+00    3.43300E+01
 6.00000E+00    2.07900E+01
 6.50000E+00    1.33400E+01
 7.00000E+00    7.61100E+00
 7.50000E+00    5.60000E+00
 8.00000E+00    3.26000E+00
 8.50000E+00    3.07000E+00
 9.00000E+00    1.85300E+00
 9.50000E+00    2.18800E+00
 1.00000E+01    1.34800E+00
 1.10000E+01    1.11100E+00
 1.20000E+01    9.61000E-01
 1.30000E+01    8.51900E-01
 1.40000E+01    7.71900E-01
 1.45000E+01    7.23900E-01
 1.50000E+01    1.09700E+00
 1.60000E+01    1.00200E+00
 1.70000E+01    9.14600E-01
 1.80000E+01    8.35000E-01
 1.90000E+01    7.63800E-01
 2.00000E+01    7.00600E-01
