# n + Xe126 : (n,el)    
# jendl4.0   S.Kunieda, A.Ichihara, K.Shibata+ EVAL-FEB22
# uncertainties: n
# # energies =   171
#   E(MeV)       xs(mb) 
 1.00000E-11    8.86191E+03
 1.00000E-07    5.38023E+03
 4.13990E-07    5.36786E+03
 5.31580E-07    5.36154E+03
 6.82560E-07    5.35355E+03
 8.76420E-07    5.34334E+03
 1.12540E-06    5.33022E+03
 1.44500E-06    5.31338E+03
 1.85540E-06    5.28979E+03
 2.37240E-06    5.25565E+03
 3.05900E-06    5.21140E+03
 3.92790E-06    5.14430E+03
 5.04350E-06    5.02627E+03
 6.47600E-06    4.72812E+03
 8.31530E-06    7.93791E+03
 1.06770E-05    6.19638E+03
 1.37100E-05    5.52986E+03
 1.76030E-05    5.32439E+03
 2.26030E-05    5.18127E+03
 2.92030E-05    5.05751E+03
 3.72670E-05    4.93788E+03
 4.78510E-05    4.81593E+03
 6.14420E-05    4.69207E+03
 7.88930E-05    4.56579E+03
 1.01300E-04    4.43443E+03
 1.30070E-04    4.28780E+03
 1.67020E-04    4.09432E+03
 2.14450E-04    6.27787E+03
 2.75360E-04    3.85676E+03
 3.53580E-04    2.42108E+03
 4.54000E-04    5.60502E+04
 5.82950E-04    5.00350E+03
 7.48520E-04    4.64802E+03
 9.61120E-04    4.49619E+03
 1.23410E-03    4.40422E+03
 1.58460E-03    4.32442E+03
 2.03470E-03    4.20963E+03
 2.24870E-03    1.25746E+04
 2.48520E-03    1.49772E+04
 2.61260E-03    1.47163E+04
 2.74650E-03    1.43328E+04
 3.03540E-03    1.38169E+04
 3.35460E-03    1.33069E+04
 3.70740E-03    1.26959E+04
 4.30740E-03    1.17801E+04
 5.53080E-03    1.08044E+04
 7.10170E-03    1.00025E+04
 9.11880E-03    9.34647E+03
 1.17090E-02    8.79078E+03
 1.50340E-02    8.27209E+03
 1.93050E-02    7.91359E+03
 2.18750E-02    7.75578E+03
 2.35790E-02    7.67893E+03
 2.41760E-02    7.64096E+03
 2.47880E-02    7.58440E+03
 2.60580E-02    7.52004E+03
 2.70000E-02    7.45345E+03
 2.85000E-02    7.33794E+03
 3.18280E-02    7.23069E+03
 3.43070E-02    7.09400E+03
 4.08680E-02    6.94794E+03
 4.63090E-02    6.83950E+03
 5.24750E-02    6.76056E+03
 5.65620E-02    6.66861E+03
 6.73790E-02    6.58609E+03
 7.20000E-02    6.53502E+03
 7.95000E-02    6.49440E+03
 8.25000E-02    6.47098E+03
 8.65170E-02    6.42483E+03
 9.80370E-02    6.36336E+03
 1.11090E-01    6.32265E+03
 1.16790E-01    6.29944E+03
 1.22770E-01    6.27833E+03
 1.29070E-01    6.25751E+03
 1.35690E-01    6.23689E+03
 1.42640E-01    6.21775E+03
 1.49960E-01    6.19905E+03
 1.57640E-01    6.18094E+03
 1.65730E-01    6.16462E+03
 1.74220E-01    6.14787E+03
 1.83160E-01    6.13328E+03
 1.92550E-01    6.11897E+03
 2.02420E-01    6.10729E+03
 2.12800E-01    6.09645E+03
 2.23710E-01    6.08570E+03
 2.35180E-01    6.07502E+03
 2.47240E-01    6.06246E+03
 2.73240E-01    6.05311E+03
 2.87250E-01    6.04820E+03
 2.94520E-01    6.04591E+03
 2.97200E-01    6.04499E+03
 2.98500E-01    6.04400E+03
 3.01970E-01    6.03997E+03
 3.33730E-01    6.02757E+03
 3.68830E-01    5.99249E+03
 3.87740E-01    5.95943E+03
 4.07620E-01    5.84976E+03
 4.50490E-01    5.70613E+03
 4.97870E-01    5.62015E+03
 5.23400E-01    5.57635E+03
 5.50230E-01    5.53324E+03
 5.78440E-01    5.49900E+03
 6.08100E-01    5.46530E+03
 6.39280E-01    5.43276E+03
 6.72060E-01    5.40808E+03
 7.06510E-01    5.38288E+03
 7.42740E-01    5.35638E+03
 7.80820E-01    5.32879E+03
 8.20850E-01    5.30086E+03
 8.62940E-01    5.25001E+03
 9.07180E-01    5.17778E+03
 9.61640E-01    5.10608E+03
 1.00260E+00    5.01867E+03
 1.10800E+00    4.92806E+03
 1.16480E+00    4.86224E+03
 1.22460E+00    4.78588E+03
 1.28730E+00    4.70217E+03
 1.35340E+00    4.61504E+03
 1.42270E+00    4.52607E+03
 1.49570E+00    4.43265E+03
 1.57240E+00    4.33276E+03
 1.65300E+00    4.22553E+03
 1.73770E+00    4.10817E+03
 1.82680E+00    3.90573E+03
 1.92050E+00    3.68427E+03
 2.01900E+00    3.54099E+03
 2.12250E+00    3.43282E+03
 2.23130E+00    3.34227E+03
 2.30690E+00    3.28675E+03
 2.34570E+00    3.25844E+03
 2.36530E+00    3.23932E+03
 2.38520E+00    3.19288E+03
 2.46600E+00    3.09859E+03
 2.59240E+00    2.98489E+03
 2.72530E+00    2.87080E+03
 2.86500E+00    2.75955E+03
 3.01190E+00    2.65027E+03
 3.16640E+00    2.54462E+03
 3.32870E+00    2.39574E+03
 3.67880E+00    2.21853E+03
 4.06570E+00    2.07600E+03
 4.49330E+00    1.99219E+03
 4.72370E+00    1.95081E+03
 4.96590E+00    1.92166E+03
 5.22050E+00    1.90184E+03
 5.48810E+00    1.89076E+03
 5.76950E+00    1.89056E+03
 6.06530E+00    1.90162E+03
 6.37630E+00    1.91578E+03
 6.59240E+00    1.92769E+03
 6.70320E+00    1.94721E+03
 7.04690E+00    1.98215E+03
 7.40820E+00    2.02388E+03
 7.78800E+00    2.07168E+03
 8.18730E+00    2.12316E+03
 8.60710E+00    2.17728E+03
 9.04840E+00    2.23418E+03
 9.51230E+00    2.29311E+03
 1.00000E+01    2.34753E+03
 1.05130E+01    2.39947E+03
 1.10520E+01    2.44494E+03
 1.16180E+01    2.48480E+03
 1.22140E+01    2.51267E+03
 1.28400E+01    2.53210E+03
 1.34990E+01    2.53769E+03
 1.38400E+01    2.53981E+03
 1.41910E+01    2.53508E+03
 1.45500E+01    2.52927E+03
 1.49180E+01    2.51341E+03
 1.56830E+01    2.48121E+03
 1.64870E+01    2.43597E+03
