# n + Xe126 : (n,na)    
# jendl4.0   S.Kunieda, A.Ichihara, K.Shibata+ EVAL-FEB22
# uncertainties: n
# # energies =    35
#   E(MeV)       xs(mb) 
 1.80000E+00    0.00000E+00
 2.00000E+00    1.18100E-30
 2.20000E+00    8.51800E-28
 2.40000E+00    1.60900E-25
 2.60000E+00    1.70400E-23
 2.80000E+00    9.84100E-22
 3.00000E+00    3.28900E-20
 3.25000E+00    1.88800E-18
 3.50000E+00    4.44500E-17
 3.75000E+00    1.01900E-15
 4.00000E+00    1.31800E-14
 4.25000E+00    1.70000E-13
 4.50000E+00    1.55900E-12
 4.75000E+00    1.26400E-11
 5.00000E+00    8.54900E-11
 5.50000E+00    2.83900E-09
 6.00000E+00    6.54500E-08
 6.50000E+00    1.10400E-06
 7.00000E+00    1.36500E-05
 7.50000E+00    1.20600E-04
 8.00000E+00    7.40500E-04
 8.50000E+00    3.25100E-03
 9.00000E+00    1.07500E-02
 9.50000E+00    2.84900E-02
 1.00000E+01    6.42300E-02
 1.10000E+01    1.53500E-01
 1.20000E+01    2.02700E-01
 1.30000E+01    3.25500E-01
 1.40000E+01    5.73900E-01
 1.50000E+01    1.01100E+00
 1.60000E+01    1.70300E+00
 1.70000E+01    2.72000E+00
 1.80000E+01    4.05600E+00
 1.90000E+01    5.67600E+00
 2.00000E+01    7.50900E+00
