# n + Si 29 : (n,el)    
# jendl4.0   K.Shibata, S.Kunieda              EVAL-AUG07
# uncertainties: n
# # energies =   171
#   E(MeV)       xs(mb) 
 1.00000E-11    6.95178E+03
 1.00000E-07    2.59038E+03
 4.13990E-07    2.58666E+03
 5.31580E-07    2.58627E+03
 6.82560E-07    2.58578E+03
 8.76420E-07    2.58537E+03
 1.12540E-06    2.58535E+03
 1.44500E-06    2.58535E+03
 1.85540E-06    2.58535E+03
 2.37240E-06    2.58535E+03
 3.05900E-06    2.58535E+03
 3.92790E-06    2.58534E+03
 5.04350E-06    2.58534E+03
 6.47600E-06    2.58533E+03
 8.31530E-06    2.58532E+03
 1.06770E-05    2.58531E+03
 1.37100E-05    2.58530E+03
 1.76030E-05    2.58528E+03
 2.26030E-05    2.58526E+03
 2.92030E-05    2.58523E+03
 3.72670E-05    2.58519E+03
 4.78510E-05    2.58515E+03
 6.14420E-05    2.58509E+03
 7.88930E-05    2.58501E+03
 1.01300E-04    2.58491E+03
 1.30070E-04    2.58478E+03
 1.67020E-04    2.58462E+03
 2.14450E-04    2.58441E+03
 2.75360E-04    2.58414E+03
 3.53580E-04    2.58379E+03
 4.54000E-04    2.58334E+03
 5.82950E-04    2.58277E+03
 7.48520E-04    2.58204E+03
 9.61120E-04    2.58109E+03
 1.23410E-03    2.57988E+03
 1.58460E-03    2.57833E+03
 2.03470E-03    2.57700E+03
 2.24870E-03    2.57612E+03
 2.48520E-03    2.57541E+03
 2.61260E-03    2.57490E+03
 2.74650E-03    2.57408E+03
 3.03540E-03    2.57289E+03
 3.35460E-03    2.57158E+03
 3.70740E-03    2.56974E+03
 4.30740E-03    2.56625E+03
 5.53080E-03    2.56082E+03
 7.10170E-03    2.55385E+03
 9.11880E-03    2.54490E+03
 1.17090E-02    2.53613E+03
 1.50340E-02    2.99681E+03
 1.93050E-02    2.50478E+03
 2.18750E-02    2.49686E+03
 2.35790E-02    2.49258E+03
 2.41760E-02    2.49036E+03
 2.47880E-02    2.48691E+03
 2.60580E-02    2.48283E+03
 2.70000E-02    2.47835E+03
 2.85000E-02    2.46954E+03
 3.18280E-02    2.45880E+03
 3.43070E-02    3.95454E+03
 4.08680E-02    2.43326E+03
 4.63090E-02    2.40310E+03
 5.24750E-02    2.38218E+03
 5.65620E-02    2.35582E+03
 6.73790E-02    2.32920E+03
 7.20000E-02    2.30877E+03
 7.95000E-02    2.29079E+03
 8.25000E-02    2.27892E+03
 8.65170E-02    2.25294E+03
 9.80370E-02    2.21134E+03
 1.11090E-01    2.18007E+03
 1.16790E-01    2.16251E+03
 1.22770E-01    2.14407E+03
 1.29070E-01    2.12466E+03
 1.35690E-01    2.10814E+03
 1.42640E-01    2.10341E+03
 1.49960E-01    2.28780E+03
 1.57640E-01    4.70411E+03
 1.65730E-01    2.02668E+03
 1.74220E-01    1.96027E+03
 1.83160E-01    2.18497E+03
 1.92550E-01    1.88896E+03
 2.02420E-01    1.84616E+03
 2.12800E-01    1.80192E+03
 2.23710E-01    1.75531E+03
 2.35180E-01    1.70209E+03
 2.47240E-01    1.60852E+03
 2.73240E-01    1.49292E+03
 2.87250E-01    1.42190E+03
 2.94520E-01    1.38620E+03
 2.97200E-01    1.37081E+03
 2.98500E-01    1.35241E+03
 3.01970E-01    1.27221E+03
 3.33730E-01    1.16482E+03
 3.68830E-01    1.71127E+03
 3.87740E-01    5.08204E+03
 4.07620E-01    3.30998E+03
 4.50490E-01    2.60329E+03
 4.97870E-01    2.84024E+03
 5.23400E-01    3.85834E+03
 5.50230E-01    5.78228E+03
 5.78440E-01    4.47610E+03
 6.08100E-01    3.58625E+03
 6.39280E-01    4.92876E+03
 6.72060E-01    2.96643E+03
 7.06510E-01    2.87394E+03
 7.42740E-01    2.75347E+03
 7.80820E-01    2.75475E+03
 8.20850E-01    2.10084E+03
 8.62940E-01    3.29924E+03
 9.07180E-01    2.42053E+03
 9.61640E-01    2.19441E+03
 1.00260E+00    2.35106E+03
 1.10800E+00    3.85425E+03
 1.16480E+00    3.87666E+03
 1.22460E+00    3.35589E+03
 1.28730E+00    3.38575E+03
 1.35340E+00    3.40246E+03
 1.42270E+00    3.28681E+03
 1.49570E+00    3.19268E+03
 1.57240E+00    3.12867E+03
 1.65300E+00    3.06151E+03
 1.73770E+00    2.99089E+03
 1.82680E+00    2.91663E+03
 1.92050E+00    2.83940E+03
 2.01900E+00    2.78920E+03
 2.12250E+00    2.72559E+03
 2.23130E+00    2.65995E+03
 2.30690E+00    2.61923E+03
 2.34570E+00    2.59847E+03
 2.36530E+00    2.58444E+03
 2.38520E+00    2.54884E+03
 2.46600E+00    2.47949E+03
 2.59240E+00    2.40410E+03
 2.72530E+00    2.32571E+03
 2.86500E+00    2.24343E+03
 3.01190E+00    2.18082E+03
 3.16640E+00    2.11616E+03
 3.32870E+00    1.98751E+03
 3.67880E+00    1.82273E+03
 4.06570E+00    1.67297E+03
 4.49330E+00    1.56430E+03
 4.72370E+00    1.49853E+03
 4.96590E+00    1.43122E+03
 5.22050E+00    1.35748E+03
 5.48810E+00    1.27841E+03
 5.76950E+00    1.21020E+03
 6.06530E+00    1.15788E+03
 6.37630E+00    1.10581E+03
 6.59240E+00    1.08383E+03
 6.70320E+00    1.04141E+03
 7.04690E+00    9.87934E+02
 7.40820E+00    9.33494E+02
 7.78800E+00    8.88626E+02
 8.18730E+00    8.52308E+02
 8.60710E+00    8.18189E+02
 9.04840E+00    7.89228E+02
 9.51230E+00    7.66900E+02
 1.00000E+01    7.52844E+02
 1.05130E+01    7.44733E+02
 1.10520E+01    7.41420E+02
 1.16180E+01    7.42121E+02
 1.22140E+01    7.48439E+02
 1.28400E+01    7.58395E+02
 1.34990E+01    7.69496E+02
 1.38400E+01    7.77743E+02
 1.41910E+01    7.88562E+02
 1.45500E+01    8.00063E+02
 1.49180E+01    8.20000E+02
 1.56830E+01    8.50428E+02
 1.64870E+01    8.83673E+02
