# n + Si 29 : (n,tot)   
# jendl4.0   K.Shibata, S.Kunieda              EVAL-AUG07
# uncertainties: n
# # energies =   171
#   E(MeV)       xs(mb) 
 1.00000E-11    8.24899E+03
 1.00000E-07    2.63357E+03
 4.13990E-07    2.61460E+03
 5.31580E-07    2.61079E+03
 6.82560E-07    2.60752E+03
 8.76420E-07    2.60465E+03
 1.12540E-06    2.60215E+03
 1.44500E-06    2.60070E+03
 1.85540E-06    2.59981E+03
 2.37240E-06    2.59867E+03
 3.05900E-06    2.59719E+03
 3.92790E-06    2.59530E+03
 5.04350E-06    2.59292E+03
 6.47600E-06    2.59185E+03
 8.31530E-06    2.59169E+03
 1.06770E-05    2.59148E+03
 1.37100E-05    2.59121E+03
 1.76030E-05    2.59087E+03
 2.26030E-05    2.59042E+03
 2.92030E-05    2.58985E+03
 3.72670E-05    2.58912E+03
 4.78510E-05    2.58818E+03
 6.14420E-05    2.58698E+03
 7.88930E-05    2.58591E+03
 1.01300E-04    2.58577E+03
 1.30070E-04    2.58564E+03
 1.67020E-04    2.58548E+03
 2.14450E-04    2.58526E+03
 2.75360E-04    2.58499E+03
 3.53580E-04    2.58464E+03
 4.54000E-04    2.58419E+03
 5.82950E-04    2.58361E+03
 7.48520E-04    2.58287E+03
 9.61120E-04    2.58192E+03
 1.23410E-03    2.58070E+03
 1.58460E-03    2.57912E+03
 2.03470E-03    2.57779E+03
 2.24870E-03    2.57690E+03
 2.48520E-03    2.57617E+03
 2.61260E-03    2.57566E+03
 2.74650E-03    2.57483E+03
 3.03540E-03    2.57364E+03
 3.35460E-03    2.57231E+03
 3.70740E-03    2.57045E+03
 4.30740E-03    2.56693E+03
 5.53080E-03    2.56145E+03
 7.10170E-03    2.55441E+03
 9.11880E-03    2.54537E+03
 1.17090E-02    2.53694E+03
 1.50340E-02    3.07650E+03
 1.93050E-02    2.50569E+03
 2.18750E-02    2.49699E+03
 2.35790E-02    2.49230E+03
 2.41760E-02    2.48986E+03
 2.47880E-02    2.48607E+03
 2.60580E-02    2.48159E+03
 2.70000E-02    2.47667E+03
 2.85000E-02    2.46812E+03
 3.18280E-02    2.45967E+03
 3.43070E-02    4.00268E+03
 4.08680E-02    2.43397E+03
 4.63090E-02    2.40199E+03
 5.24750E-02    2.38297E+03
 5.65620E-02    2.35726E+03
 6.73790E-02    2.32969E+03
 7.20000E-02    2.30853E+03
 7.95000E-02    2.28990E+03
 8.25000E-02    2.27760E+03
 8.65170E-02    2.25152E+03
 9.80370E-02    2.21206E+03
 1.11090E-01    2.18168E+03
 1.16790E-01    2.16298E+03
 1.22770E-01    2.14332E+03
 1.29070E-01    2.12422E+03
 1.35690E-01    2.10836E+03
 1.42640E-01    2.10335E+03
 1.49960E-01    2.28820E+03
 1.57640E-01    4.70844E+03
 1.65730E-01    2.02682E+03
 1.74220E-01    1.96040E+03
 1.83160E-01    2.18784E+03
 1.92550E-01    1.88902E+03
 2.02420E-01    1.84621E+03
 2.12800E-01    1.80197E+03
 2.23710E-01    1.75535E+03
 2.35180E-01    1.70214E+03
 2.47240E-01    1.60856E+03
 2.73240E-01    1.49297E+03
 2.87250E-01    1.42195E+03
 2.94520E-01    1.38626E+03
 2.97200E-01    1.37087E+03
 2.98500E-01    1.35246E+03
 3.01970E-01    1.27230E+03
 3.33730E-01    1.16519E+03
 3.68830E-01    1.71205E+03
 3.87740E-01    5.08264E+03
 4.07620E-01    3.31011E+03
 4.50490E-01    2.60336E+03
 4.97870E-01    2.84032E+03
 5.23400E-01    3.85867E+03
 5.50230E-01    5.78429E+03
 5.78440E-01    4.47626E+03
 6.08100E-01    3.58730E+03
 6.39280E-01    4.93019E+03
 6.72060E-01    2.96655E+03
 7.06510E-01    2.87403E+03
 7.42740E-01    2.75357E+03
 7.80820E-01    2.75505E+03
 8.20850E-01    2.10088E+03
 8.62940E-01    3.29927E+03
 9.07180E-01    2.42057E+03
 9.61640E-01    2.19442E+03
 1.00260E+00    2.35116E+03
 1.10800E+00    3.85429E+03
 1.16480E+00    3.87682E+03
 1.22460E+00    3.35590E+03
 1.28730E+00    3.39603E+03
 1.35340E+00    3.47754E+03
 1.42270E+00    3.43793E+03
 1.49570E+00    3.39627E+03
 1.57240E+00    3.35250E+03
 1.65300E+00    3.30649E+03
 1.73770E+00    3.25812E+03
 1.82680E+00    3.20725E+03
 1.92050E+00    3.15378E+03
 2.01900E+00    3.10840E+03
 2.12250E+00    3.06982E+03
 2.23130E+00    3.03622E+03
 2.30690E+00    3.01537E+03
 2.34570E+00    3.00474E+03
 2.36530E+00    2.99756E+03
 2.38520E+00    2.97934E+03
 2.46600E+00    2.94179E+03
 2.59240E+00    2.89467E+03
 2.72530E+00    2.84513E+03
 2.86500E+00    2.79305E+03
 3.01190E+00    2.73985E+03
 3.16640E+00    2.68871E+03
 3.32870E+00    2.60720E+03
 3.67880E+00    2.48961E+03
 4.06570E+00    2.38823E+03
 4.49330E+00    2.31761E+03
 4.72370E+00    2.26729E+03
 4.96590E+00    2.21658E+03
 5.22050E+00    2.17077E+03
 5.48810E+00    2.12321E+03
 5.76950E+00    2.07340E+03
 6.06530E+00    2.02987E+03
 6.37630E+00    1.99600E+03
 6.59240E+00    1.97500E+03
 6.70320E+00    1.94610E+03
 7.04690E+00    1.91113E+03
 7.40820E+00    1.88187E+03
 7.78800E+00    1.85287E+03
 8.18730E+00    1.83490E+03
 8.60710E+00    1.81845E+03
 9.04840E+00    1.80323E+03
 9.51230E+00    1.79118E+03
 1.00000E+01    1.77966E+03
 1.05130E+01    1.76863E+03
 1.10520E+01    1.75868E+03
 1.16180E+01    1.74969E+03
 1.22140E+01    1.74380E+03
 1.28400E+01    1.74016E+03
 1.34990E+01    1.74000E+03
 1.38400E+01    1.74031E+03
 1.41910E+01    1.74222E+03
 1.45500E+01    1.74440E+03
 1.49180E+01    1.74899E+03
 1.56830E+01    1.75740E+03
 1.64870E+01    1.76888E+03
