# n + Nd150 : (n,xd)    
# jendl4.0   N.Iwamoto,A.Zukeran,K.Shibata     EVAL-Dec09
# 
# # energies =    88
#   E(MeV)        xs(mb) 
 1.05000E-01    0.00000E+00
 1.10000E-01    0.00000E+00
 1.20000E-01    0.00000E+00
 1.30000E-01    0.00000E+00
 1.31086E-01    0.00000E+00
 1.40000E-01    0.00000E+00
 1.50000E-01    0.00000E+00
 1.60000E-01    0.00000E+00
 1.70000E-01    0.00000E+00
 1.80000E-01    0.00000E+00
 1.90000E-01    0.00000E+00
 2.00000E-01    0.00000E+00
 2.25000E-01    0.00000E+00
 2.50000E-01    0.00000E+00
 2.75000E-01    0.00000E+00
 3.00000E-01    0.00000E+00
 3.84016E-01    0.00000E+00
 4.00000E-01    0.00000E+00
 5.00000E-01    0.00000E+00
 6.00000E-01    0.00000E+00
 6.79914E-01    0.00000E+00
 7.00000E-01    0.00000E+00
 7.25247E-01    0.00000E+00
 8.00000E-01    0.00000E+00
 8.56383E-01    0.00000E+00
 8.58679E-01    0.00000E+00
 9.00000E-01    0.00000E+00
 9.41150E-01    0.00000E+00
 1.00000E+00    0.00000E+00
 1.06909E+00    0.00000E+00
 1.06910E+00    0.00000E+00
 1.10000E+00    0.00000E+00
 1.13660E+00    0.00000E+00
 1.13730E+00    0.00000E+00
 1.14546E+00    0.00000E+00
 1.19026E+00    0.00000E+00
 1.20000E+00    0.00000E+00
 1.20871E+00    0.00000E+00
 1.25841E+00    0.00000E+00
 1.29255E+00    0.00000E+00
 1.30000E+00    0.00000E+00
 1.31630E+00    0.00000E+00
 1.32687E+00    0.00000E+00
 1.40000E+00    0.00000E+00
 1.50000E+00    0.00000E+00
 1.60000E+00    0.00000E+00
 1.70000E+00    0.00000E+00
 1.80000E+00    0.00000E+00
 1.90000E+00    0.00000E+00
 2.00000E+00    0.00000E+00
 2.25000E+00    0.00000E+00
 2.50000E+00    0.00000E+00
 2.75000E+00    0.00000E+00
 3.00000E+00    0.00000E+00
 3.50000E+00    0.00000E+00
 4.00000E+00    0.00000E+00
 4.50000E+00    0.00000E+00
 5.00000E+00    0.00000E+00
 5.50000E+00    0.00000E+00
 6.00000E+00    0.00000E+00
 6.50000E+00    0.00000E+00
 7.00000E+00    0.00000E+00
 7.50000E+00    0.00000E+00
 8.00000E+00    4.05722E-20
 8.50000E+00    5.19151E-16
 9.00000E+00    1.05000E-15
 9.50000E+00    7.75400E-14
 1.00000E+01    1.57250E-10
 1.05000E+01    2.73850E-08
 1.10000E+01    6.88310E-07
 1.15000E+01    1.31755E-05
 1.20000E+01    1.31231E-04
 1.25000E+01    8.34123E-04
 1.30000E+01    3.79171E-03
 1.35000E+01    1.33312E-02
 1.40000E+01    3.80947E-02
 1.45000E+01    9.16681E-02
 1.50000E+01    1.90590E-01
 1.55000E+01    3.66870E-01
 1.60000E+01    5.89599E-01
 1.65000E+01    8.78637E-01
 1.70000E+01    1.24978E+00
 1.75000E+01    1.70489E+00
 1.80000E+01    2.13349E+00
 1.85000E+01    2.69532E+00
 1.90000E+01    3.24157E+00
 1.95000E+01    3.92762E+00
 2.00000E+01    4.58336E+00
