# n + Nd150 : (n,el)    
# jendl4.0   N.Iwamoto,A.Zukeran,K.Shibata     EVAL-Dec09
# uncertainties: n
# # energies =    69
#   E(MeV)       xs(mb) 
 1.00000E-10    5.74564E+03
 5.00000E-09    4.83646E+03
 1.00000E-08    4.81117E+03
 1.50000E-08    4.80128E+03
 2.00000E-08    4.79594E+03
 2.50000E-08    4.79245E+03
 3.00000E-08    4.79020E+03
 3.50000E-08    4.78798E+03
 4.20000E-08    4.78642E+03
 5.00000E-08    4.78482E+03
 5.80000E-08    4.78357E+03
 6.70000E-08    4.78274E+03
 8.00000E-08    4.78151E+03
 1.00000E-07    4.77986E+03
 1.40000E-07    4.77875E+03
 1.80000E-07    4.77770E+03
 2.20000E-07    4.77677E+03
 2.50000E-07    4.77606E+03
 2.80000E-07    4.77571E+03
 3.00000E-07    4.77545E+03
 3.20000E-07    4.77513E+03
 3.50000E-07    4.77463E+03
 4.00000E-07    4.77369E+03
 5.00000E-07    4.77226E+03
 6.25000E-07    4.77049E+03
 7.80000E-07    4.76902E+03
 8.50000E-07    4.76819E+03
 9.10000E-07    4.76755E+03
 9.50000E-07    4.76716E+03
 9.72000E-07    4.76687E+03
 9.96000E-07    4.76656E+03
 1.02000E-06    4.76626E+03
 1.04500E-06    4.76603E+03
 1.07100E-06    4.76583E+03
 1.09700E-06    4.76563E+03
 1.12300E-06    4.76542E+03
 1.15000E-06    4.76473E+03
 1.30000E-06    4.76337E+03
 1.50000E-06    4.76034E+03
 2.10000E-06    4.75596E+03
 2.60000E-06    4.75128E+03
 3.30000E-06    4.74577E+03
 4.00000E-06    4.72329E+03
 9.87700E-06    4.68053E+03
 1.59680E-05    4.62937E+03
 2.77000E-05    4.53097E+03
 4.80520E-05    4.13630E+03
 7.55014E-05    9.43682E+03
 1.48728E-04    2.02974E+04
 3.67262E-04    2.69442E+04
 9.06898E-04    1.90697E+04
 1.42510E-03    2.28634E+04
 2.23945E-03    2.86912E+04
 3.51910E-03    1.53572E+04
 5.53000E-03    2.80695E+04
 9.11800E-03    2.02640E+04
 1.50300E-02    1.35628E+04
 2.47800E-02    1.13513E+04
 4.08500E-02    9.57890E+03
 6.73400E-02    8.18184E+03
 1.11000E-01    7.00855E+03
 1.83000E-01    6.00645E+03
 3.02000E-01    5.43832E+03
 5.00000E-01    5.20023E+03
 8.21000E-01    4.82372E+03
 1.35300E+00    4.28034E+03
 2.23100E+00    3.41467E+03
 3.67900E+00    2.37861E+03
 6.06500E+00    2.12603E+03
