# n + Nd150 : (n,xh)    
# jendl4.0   N.Iwamoto,A.Zukeran,K.Shibata     EVAL-Dec09
# 
# # energies =    88
#   E(MeV)        xs(mb) 
 1.05000E-01    0.00000E+00
 1.10000E-01    0.00000E+00
 1.20000E-01    0.00000E+00
 1.30000E-01    0.00000E+00
 1.31086E-01    0.00000E+00
 1.40000E-01    0.00000E+00
 1.50000E-01    0.00000E+00
 1.60000E-01    0.00000E+00
 1.70000E-01    0.00000E+00
 1.80000E-01    0.00000E+00
 1.90000E-01    0.00000E+00
 2.00000E-01    0.00000E+00
 2.25000E-01    0.00000E+00
 2.50000E-01    0.00000E+00
 2.75000E-01    0.00000E+00
 3.00000E-01    0.00000E+00
 3.84016E-01    0.00000E+00
 4.00000E-01    0.00000E+00
 5.00000E-01    0.00000E+00
 6.00000E-01    0.00000E+00
 6.79914E-01    0.00000E+00
 7.00000E-01    0.00000E+00
 7.25247E-01    0.00000E+00
 8.00000E-01    0.00000E+00
 8.56383E-01    0.00000E+00
 8.58679E-01    0.00000E+00
 9.00000E-01    0.00000E+00
 9.41150E-01    0.00000E+00
 1.00000E+00    0.00000E+00
 1.06909E+00    0.00000E+00
 1.06910E+00    0.00000E+00
 1.10000E+00    0.00000E+00
 1.13660E+00    0.00000E+00
 1.13730E+00    0.00000E+00
 1.14546E+00    0.00000E+00
 1.19026E+00    0.00000E+00
 1.20000E+00    0.00000E+00
 1.20871E+00    0.00000E+00
 1.25841E+00    0.00000E+00
 1.29255E+00    0.00000E+00
 1.30000E+00    0.00000E+00
 1.31630E+00    0.00000E+00
 1.32687E+00    0.00000E+00
 1.40000E+00    0.00000E+00
 1.50000E+00    0.00000E+00
 1.60000E+00    0.00000E+00
 1.70000E+00    0.00000E+00
 1.80000E+00    0.00000E+00
 1.90000E+00    0.00000E+00
 2.00000E+00    0.00000E+00
 2.25000E+00    0.00000E+00
 2.50000E+00    0.00000E+00
 2.75000E+00    0.00000E+00
 3.00000E+00    0.00000E+00
 3.50000E+00    0.00000E+00
 4.00000E+00    0.00000E+00
 4.50000E+00    0.00000E+00
 5.00000E+00    0.00000E+00
 5.50000E+00    0.00000E+00
 6.00000E+00    0.00000E+00
 6.50000E+00    0.00000E+00
 7.00000E+00    0.00000E+00
 7.50000E+00    0.00000E+00
 8.00000E+00    0.00000E+00
 8.50000E+00    0.00000E+00
 9.00000E+00    0.00000E+00
 9.50000E+00    0.00000E+00
 1.00000E+01    0.00000E+00
 1.05000E+01    2.43112E-34
 1.10000E+01    4.08780E-33
 1.15000E+01    1.67426E-31
 1.20000E+01    3.38378E-31
 1.25000E+01    5.09330E-31
 1.30000E+01    1.20450E-28
 1.35000E+01    3.79100E-25
 1.40000E+01    1.75480E-22
 1.45000E+01    2.11380E-20
 1.50000E+01    9.43480E-19
 1.55000E+01    2.00140E-17
 1.60000E+01    2.41910E-16
 1.65000E+01    2.38260E-15
 1.70000E+01    4.70090E-14
 1.75000E+01    8.86820E-13
 1.80000E+01    1.39040E-11
 1.85000E+01    1.99630E-10
 1.90000E+01    1.58560E-09
 1.95000E+01    8.19020E-09
 2.00000E+01    4.17790E-08
