# n + Nd150 : (n,el)    
# jendl4.0   N.Iwamoto,A.Zukeran,K.Shibata     EVAL-Dec09
# uncertainties: n
# # energies =   171
#   E(MeV)       xs(mb) 
 1.00000E-11    7.50380E+03
 1.00000E-07    4.77745E+03
 4.13990E-07    4.77341E+03
 5.31580E-07    4.77171E+03
 6.82560E-07    4.76952E+03
 8.76420E-07    4.76679E+03
 1.12540E-06    4.76430E+03
 1.44500E-06    4.76145E+03
 1.85540E-06    4.75782E+03
 2.37240E-06    4.75313E+03
 3.05900E-06    4.74705E+03
 3.92790E-06    4.73930E+03
 5.04350E-06    4.72934E+03
 6.47600E-06    4.71656E+03
 8.31530E-06    4.70053E+03
 1.06770E-05    4.68379E+03
 1.37100E-05    4.66334E+03
 1.76030E-05    4.63708E+03
 2.26030E-05    4.60287E+03
 2.92030E-05    4.55948E+03
 3.72670E-05    4.49276E+03
 4.78510E-05    4.36084E+03
 6.14420E-05    8.44181E+03
 7.88930E-05    1.33400E+04
 1.01300E-04    4.62525E+03
 1.30070E-04    4.37004E+03
 1.67020E-04    4.06116E+03
 2.14450E-04    3.37512E+03
 2.75360E-04    6.31277E+04
 3.53580E-04    3.83698E+03
 4.54000E-04    7.39540E+04
 5.82950E-04    5.29036E+03
 7.48520E-04    1.60677E+04
 9.61120E-04    2.74809E+04
 1.23410E-03    1.68245E+04
 1.58460E-03    2.86514E+04
 2.03470E-03    5.05481E+03
 2.24870E-03    4.83418E+03
 2.48520E-03    1.67115E+04
 2.61260E-03    1.04643E+05
 2.74650E-03    3.80364E+04
 3.03540E-03    9.25119E+03
 3.35460E-03    2.17771E+04
 3.70740E-03    2.17995E+04
 4.30740E-03    1.26679E+04
 5.53080E-03    2.01359E+04
 7.10170E-03    3.60097E+04
 9.11880E-03    2.23446E+04
 1.17090E-02    1.81796E+04
 1.50340E-02    1.41786E+04
 1.93050E-02    1.32328E+04
 2.18750E-02    1.27680E+04
 2.35790E-02    1.25418E+04
 2.41760E-02    1.24304E+04
 2.47880E-02    1.22656E+04
 2.60580E-02    1.20802E+04
 2.70000E-02    1.18887E+04
 2.85000E-02    1.15484E+04
 3.18280E-02    1.11854E+04
 3.43070E-02    1.07189E+04
 4.08680E-02    1.01816E+04
 4.63090E-02    9.75706E+03
 5.24750E-02    9.44401E+03
 5.65620E-02    9.07440E+03
 6.73790E-02    8.72987E+03
 7.20000E-02    8.50782E+03
 7.95000E-02    8.33087E+03
 8.25000E-02    8.22645E+03
 8.65170E-02    8.01731E+03
 9.80370E-02    7.72923E+03
 1.11090E-01    7.54089E+03
 1.16790E-01    7.43561E+03
 1.22770E-01    7.33177E+03
 1.29070E-01    7.21537E+03
 1.35690E-01    7.04615E+03
 1.42640E-01    6.91943E+03
 1.49960E-01    6.80810E+03
 1.57640E-01    6.69814E+03
 1.65730E-01    6.58936E+03
 1.74220E-01    6.48112E+03
 1.83160E-01    6.37396E+03
 1.92550E-01    6.26835E+03
 2.02420E-01    6.18478E+03
 2.12800E-01    6.11084E+03
 2.23710E-01    6.03702E+03
 2.35180E-01    5.96342E+03
 2.47240E-01    5.85342E+03
 2.73240E-01    5.74308E+03
 2.87250E-01    5.68756E+03
 2.94520E-01    5.66257E+03
 2.97200E-01    5.65259E+03
 2.98500E-01    5.64195E+03
 3.01970E-01    5.59537E+03
 3.33730E-01    5.50727E+03
 3.68830E-01    5.44071E+03
 3.87740E-01    5.39940E+03
 4.07620E-01    5.36089E+03
 4.50490E-01    5.31461E+03
 4.97870E-01    5.28001E+03
 5.23400E-01    5.26793E+03
 5.50230E-01    5.25631E+03
 5.78440E-01    5.24408E+03
 6.08100E-01    5.23128E+03
 6.39280E-01    5.22082E+03
 6.72060E-01    5.18120E+03
 7.06510E-01    5.12608E+03
 7.42740E-01    5.10800E+03
 7.80820E-01    5.09459E+03
 8.20850E-01    5.07735E+03
 8.62940E-01    4.97939E+03
 9.07180E-01    4.90740E+03
 9.61640E-01    4.87141E+03
 1.00260E+00    4.82396E+03
 1.10800E+00    4.75706E+03
 1.16480E+00    4.72122E+03
 1.22460E+00    4.66544E+03
 1.28730E+00    4.60368E+03
 1.35340E+00    4.55057E+03
 1.42270E+00    4.50542E+03
 1.49570E+00    4.45505E+03
 1.57240E+00    4.38739E+03
 1.65300E+00    4.31842E+03
 1.73770E+00    4.25580E+03
 1.82680E+00    4.19103E+03
 1.92050E+00    4.12681E+03
 2.01900E+00    4.05014E+03
 2.12250E+00    3.96027E+03
 2.23130E+00    3.88411E+03
 2.30690E+00    3.84103E+03
 2.34570E+00    3.81918E+03
 2.36530E+00    3.80443E+03
 2.38520E+00    3.76697E+03
 2.46600E+00    3.68941E+03
 2.59240E+00    3.58925E+03
 2.72530E+00    3.48334E+03
 2.86500E+00    3.37289E+03
 3.01190E+00    3.26096E+03
 3.16640E+00    3.14476E+03
 3.32870E+00    2.97685E+03
 3.67880E+00    2.74939E+03
 4.06570E+00    2.53566E+03
 4.49330E+00    2.38838E+03
 4.72370E+00    2.30028E+03
 4.96590E+00    2.22131E+03
 5.22050E+00    2.15432E+03
 5.48810E+00    2.09760E+03
 5.76950E+00    2.05425E+03
 6.06530E+00    2.02704E+03
 6.37630E+00    2.01187E+03
 6.59240E+00    2.01106E+03
 6.70320E+00    2.01378E+03
 7.04690E+00    2.03062E+03
 7.40820E+00    2.03899E+03
 7.78800E+00    2.09954E+03
 8.18730E+00    2.15997E+03
 8.60710E+00    2.22239E+03
 9.04840E+00    2.29173E+03
 9.51230E+00    2.36470E+03
 1.00000E+01    2.43833E+03
 1.05130E+01    2.51219E+03
 1.10520E+01    2.58174E+03
 1.16180E+01    2.64794E+03
 1.22140E+01    2.70482E+03
 1.28400E+01    2.75531E+03
 1.34990E+01    2.78462E+03
 1.38400E+01    2.80292E+03
 1.41910E+01    2.81392E+03
 1.45500E+01    2.82403E+03
 1.49180E+01    2.83153E+03
 1.56830E+01    2.82861E+03
 1.64870E+01    2.80923E+03
