# n + Nd150 : (n,n'01)  
# jendl4.0   N.Iwamoto,A.Zukeran,K.Shibata     EVAL-Dec09
# uncertainties: n
# # energies =    83
#   E(MeV)       xs(mb) 
 1.31086E-01    0.00000E+00
 1.40000E-01    1.70406E+02
 1.50000E-01    2.23116E+02
 1.60000E-01    2.69844E+02
 1.70000E-01    3.12230E+02
 1.80000E-01    3.52172E+02
 1.90000E-01    3.89047E+02
 2.00000E-01    4.24281E+02
 2.25000E-01    5.10300E+02
 2.50000E-01    5.86450E+02
 2.75000E-01    6.55818E+02
 3.00000E-01    7.20572E+02
 3.84016E-01    9.22487E+02
 4.00000E-01    9.54068E+02
 5.00000E-01    1.12350E+03
 6.00000E-01    1.23347E+03
 6.79914E-01    1.28714E+03
 7.00000E-01    1.27266E+03
 7.25247E-01    1.27596E+03
 8.00000E-01    1.28261E+03
 8.56383E-01    1.28548E+03
 8.58679E-01    1.25643E+03
 9.00000E-01    1.15589E+03
 9.41150E-01    1.12516E+03
 1.00000E+00    1.08010E+03
 1.06910E+00    1.04528E+03
 1.10000E+00    9.93875E+02
 1.13660E+00    9.68248E+02
 1.13730E+00    9.67793E+02
 1.14546E+00    9.61756E+02
 1.19026E+00    9.36282E+02
 1.20000E+00    9.25841E+02
 1.20871E+00    9.19989E+02
 1.25841E+00    8.76068E+02
 1.29255E+00    8.51568E+02
 1.30000E+00    8.43417E+02
 1.31630E+00    8.32563E+02
 1.32687E+00    8.23243E+02
 1.40000E+00    7.74534E+02
 1.50000E+00    7.17538E+02
 1.60000E+00    6.57757E+02
 1.70000E+00    6.02943E+02
 1.80000E+00    5.55051E+02
 1.90000E+00    5.14654E+02
 2.00000E+00    4.80958E+02
 2.25000E+00    4.12031E+02
 2.50000E+00    3.78019E+02
 2.75000E+00    3.48178E+02
 3.00000E+00    3.30823E+02
 3.50000E+00    3.03716E+02
 4.00000E+00    2.82568E+02
 4.50000E+00    2.63959E+02
 5.00000E+00    2.47222E+02
 5.50000E+00    2.32833E+02
 6.00000E+00    2.21086E+02
 6.50000E+00    2.11673E+02
 7.00000E+00    2.03864E+02
 7.50000E+00    1.96856E+02
 8.00000E+00    1.90002E+02
 8.50000E+00    1.83004E+02
 9.00000E+00    1.75806E+02
 9.50000E+00    1.68536E+02
 1.00000E+01    1.61404E+02
 1.05000E+01    1.54846E+02
 1.10000E+01    1.48287E+02
 1.15000E+01    1.42777E+02
 1.20000E+01    1.37267E+02
 1.25000E+01    1.32699E+02
 1.30000E+01    1.28131E+02
 1.35000E+01    1.24188E+02
 1.40000E+01    1.20246E+02
 1.45000E+01    1.16698E+02
 1.50000E+01    1.13151E+02
 1.55000E+01    1.09927E+02
 1.60000E+01    1.06703E+02
 1.65000E+01    1.03822E+02
 1.70000E+01    1.00942E+02
 1.75000E+01    9.84298E+01
 1.80000E+01    9.59177E+01
 1.85000E+01    9.37738E+01
 1.90000E+01    9.16298E+01
 1.95000E+01    8.98217E+01
 2.00000E+01    8.80135E+01
