# n + Th229 : (n,n'09)  
# jendl4.0   O.Iwamoto, T.Nakagawa, et al.     EVAL-JAN10
# uncertainties: y
# # energies =    82
#   E(MeV)       xs(mb)       xslow(mb)      xsupp(mb)
 1.25962E-01    0.00000E+00    0.00000E+00    0.00000E+00
 1.40000E-01    9.46708E+00    5.06489E+00    1.38693E+01
 1.40617E-01    9.92670E+00    5.31078E+00    1.45426E+01
 1.46994E-01    1.48513E+01    7.94545E+00    2.17572E+01
 1.48812E-01    1.62185E+01    8.67690E+00    2.37601E+01
 1.63979E-01    2.73149E+01    1.46135E+01    4.00163E+01
 1.65255E-01    2.82224E+01    1.50990E+01    4.13458E+01
 1.70000E-01    3.16447E+01    1.69299E+01    4.63595E+01
 1.74364E-01    3.47941E+01    1.86148E+01    5.09734E+01
 1.87824E-01    4.34326E+01    2.32364E+01    6.36288E+01
 1.96572E-01    4.89749E+01    2.62016E+01    7.17482E+01
 2.00000E-01    5.09480E+01    2.72572E+01    7.46388E+01
 2.02890E-01    5.22201E+01    2.79378E+01    7.65024E+01
 2.13275E-01    5.64839E+01    3.02189E+01    8.27489E+01
 2.18116E-01    5.83301E+01    3.12066E+01    8.54536E+01
 2.35834E-01    6.34621E+01    3.39522E+01    9.29720E+01
 2.38405E-01    6.40998E+01    3.42934E+01    9.39062E+01
 2.42664E-01    6.46729E+01    3.46000E+01    9.47458E+01
 2.50000E-01    6.61579E+01    3.53945E+01    9.69213E+01
 2.57067E-01    6.76284E+01    3.61812E+01    9.90756E+01
 2.63084E-01    6.88729E+01    3.68470E+01    1.00899E+02
 2.89188E-01    7.43576E+01    3.97813E+01    1.08934E+02
 2.89791E-01    7.44580E+01    3.98350E+01    1.09081E+02
 3.00000E-01    7.64027E+01    4.88977E+01    1.03908E+02
 3.04224E-01    7.66285E+01    4.90422E+01    1.04215E+02
 3.18567E-01    7.66770E+01    4.90733E+01    1.04281E+02
 3.21952E-01    7.67473E+01    4.91183E+01    1.04376E+02
 4.00000E-01    7.54835E+01    5.08004E+01    1.00167E+02
 5.00000E-01    7.39657E+01    4.97789E+01    9.81525E+01
 6.00000E-01    6.52750E+01    4.61494E+01    8.44006E+01
 7.00000E-01    5.75539E+01    4.06906E+01    7.44172E+01
 8.00000E-01    4.93158E+01    3.46690E+01    6.39626E+01
 9.00000E-01    4.22753E+01    2.97195E+01    5.48311E+01
 1.00000E+00    3.65803E+01    2.55331E+01    4.76276E+01
 1.10000E+00    3.16626E+01    2.21005E+01    4.12247E+01
 1.20000E+00    2.73178E+01    1.88493E+01    3.57863E+01
 1.30000E+00    2.35531E+01    1.62516E+01    3.08546E+01
 1.40000E+00    2.02434E+01    1.39679E+01    2.65189E+01
 1.50000E+00    1.74353E+01    1.19781E+01    2.28925E+01
 1.60000E+00    1.49390E+01    1.02631E+01    1.96149E+01
 1.70000E+00    1.27919E+01    8.78804E+00    1.67958E+01
 1.80000E+00    1.08901E+01    7.48150E+00    1.42987E+01
 1.90000E+00    9.25037E+00    6.35500E+00    1.21457E+01
 2.00000E+00    7.81208E+00    5.71063E+00    9.91353E+00
 2.30000E+00    4.59672E+00    3.36020E+00    5.83324E+00
 2.50000E+00    3.18526E+00    2.61828E+00    3.75224E+00
 2.70000E+00    2.19104E+00    1.80103E+00    2.58105E+00
 3.00000E+00    1.24131E+00    1.09608E+00    1.38654E+00
 3.50000E+00    4.98734E-01    4.42377E-01    5.55091E-01
 4.00000E+00    2.29371E-01    1.97718E-01    2.61024E-01
 4.50000E+00    1.26989E-01    1.09465E-01    1.44513E-01
 5.00000E+00    8.75820E-02    7.00656E-02    1.05098E-01
 5.50000E+00    6.93115E-02    5.54492E-02    8.31738E-02
 6.00000E+00    6.00834E-02    4.60840E-02    7.40828E-02
 6.50000E+00    5.40697E-02    4.14715E-02    6.66679E-02
 7.00000E+00    5.00892E-02    3.78674E-02    6.23110E-02
 7.50000E+00    4.67052E-02    3.53091E-02    5.81013E-02
 8.00000E+00    4.40662E-02    3.32700E-02    5.48624E-02
 8.50000E+00    4.14830E-02    3.13197E-02    5.16463E-02
 9.00000E+00    3.92682E-02    2.98831E-02    4.86533E-02
 9.50000E+00    3.70671E-02    2.82081E-02    4.59261E-02
 1.00000E+01    3.50868E-02    2.69467E-02    4.32269E-02
 1.05000E+01    3.31921E-02    2.54915E-02    4.08927E-02
 1.10000E+01    3.14545E-02    2.41571E-02    3.87519E-02
 1.15000E+01    2.98429E-02    2.29193E-02    3.67665E-02
 1.20000E+01    2.83474E-02    2.21677E-02    3.45271E-02
 1.25000E+01    2.69721E-02    2.10922E-02    3.28520E-02
 1.30000E+01    2.56834E-02    2.00844E-02    3.12824E-02
 1.35000E+01    2.45019E-02    1.91605E-02    2.98433E-02
 1.40000E+01    2.33861E-02    1.85452E-02    2.82270E-02
 1.45000E+01    2.23604E-02    1.77318E-02    2.69890E-02
 1.50000E+01    2.13917E-02    1.70492E-02    2.57342E-02
 1.55000E+01    2.04957E-02    1.63351E-02    2.46563E-02
 1.60000E+01    1.96478E-02    1.57772E-02    2.35184E-02
 1.65000E+01    1.88583E-02    1.51432E-02    2.25734E-02
 1.70000E+01    1.81102E-02    1.45425E-02    2.16779E-02
 1.75000E+01    1.74064E-02    1.39773E-02    2.08355E-02
 1.80000E+01    1.67329E-02    1.35536E-02    1.99122E-02
 1.85000E+01    1.61000E-02    1.30410E-02    1.91590E-02
 1.90000E+01    1.55006E-02    1.25555E-02    1.84457E-02
 1.95000E+01    1.49344E-02    1.20969E-02    1.77719E-02
 2.00000E+01    1.43984E-02    1.16627E-02    1.71341E-02
