# n + Th229 : (n,n'30)  
# jendl4.0   O.Iwamoto, T.Nakagawa, et al.     EVAL-JAN10
# uncertainties: y
# # energies =    56
#   E(MeV)       xs(mb)       xslow(mb)      xsupp(mb)
 3.21952E-01    0.00000E+00    0.00000E+00    0.00000E+00
 4.00000E-01    4.99332E+01    3.49033E+01    6.49631E+01
 5.00000E-01    7.68565E+01    5.37227E+01    9.99903E+01
 6.00000E-01    7.76050E+01    5.61084E+01    9.91016E+01
 7.00000E-01    7.09759E+01    5.13156E+01    9.06362E+01
 8.00000E-01    6.14994E+01    4.56326E+01    7.73662E+01
 9.00000E-01    5.22292E+01    3.87541E+01    6.57043E+01
 1.00000E+00    4.43924E+01    3.31611E+01    5.56237E+01
 1.10000E+00    3.71132E+01    2.77236E+01    4.65028E+01
 1.20000E+00    3.11284E+01    2.33152E+01    3.89416E+01
 1.30000E+00    2.63651E+01    1.97475E+01    3.29827E+01
 1.40000E+00    2.22293E+01    1.66497E+01    2.78089E+01
 1.50000E+00    1.87623E+01    1.39967E+01    2.35279E+01
 1.60000E+00    1.57888E+01    1.17784E+01    1.97992E+01
 1.70000E+00    1.33413E+01    9.95261E+00    1.67300E+01
 1.80000E+00    1.12205E+01    8.37049E+00    1.40705E+01
 1.90000E+00    9.44633E+00    7.04696E+00    1.18457E+01
 2.00000E+00    7.90898E+00    6.03455E+00    9.78341E+00
 2.30000E+00    4.57343E+00    3.48953E+00    5.65733E+00
 2.50000E+00    3.11090E+00    2.57271E+00    3.64909E+00
 2.70000E+00    2.09955E+00    1.73633E+00    2.46277E+00
 3.00000E+00    1.14396E+00    1.00783E+00    1.28009E+00
 3.50000E+00    4.12416E-01    3.65813E-01    4.59019E-01
 4.00000E+00    1.52820E-01    1.32342E-01    1.73298E-01
 4.50000E+00    6.27369E-02    5.43302E-02    7.11436E-02
 5.00000E+00    3.06338E-02    2.57018E-02    3.55658E-02
 5.50000E+00    1.85696E-02    1.55799E-02    2.15593E-02
 6.00000E+00    1.36922E-02    1.08853E-02    1.64991E-02
 6.50000E+00    1.13541E-02    9.02651E-03    1.36817E-02
 7.00000E+00    1.01375E-02    7.75519E-03    1.25198E-02
 7.50000E+00    9.29434E-03    7.11017E-03    1.14785E-02
 8.00000E+00    8.71163E-03    6.59470E-03    1.08286E-02
 8.50000E+00    8.18292E-03    6.19447E-03    1.01714E-02
 9.00000E+00    7.74124E-03    5.89108E-03    9.59140E-03
 9.50000E+00    7.31282E-03    5.56506E-03    9.06058E-03
 1.00000E+01    6.92548E-03    5.31877E-03    8.53219E-03
 1.05000E+01    6.55946E-03    5.03767E-03    8.08125E-03
 1.10000E+01    6.22183E-03    4.77837E-03    7.66529E-03
 1.15000E+01    5.90949E-03    4.53849E-03    7.28049E-03
 1.20000E+01    5.61893E-03    4.39400E-03    6.84386E-03
 1.25000E+01    5.35162E-03    4.18497E-03    6.51827E-03
 1.30000E+01    5.09736E-03    3.98614E-03    6.20858E-03
 1.35000E+01    4.86395E-03    3.80361E-03    5.92429E-03
 1.40000E+01    4.64368E-03    3.68244E-03    5.60492E-03
 1.45000E+01    4.44110E-03    3.52179E-03    5.36041E-03
 1.50000E+01    4.24982E-03    3.38711E-03    5.11253E-03
 1.55000E+01    4.07290E-03    3.24610E-03    4.89970E-03
 1.60000E+01    3.90544E-03    3.13216E-03    4.67872E-03
 1.65000E+01    3.74957E-03    3.00715E-03    4.49198E-03
 1.70000E+01    3.60179E-03    2.88864E-03    4.31494E-03
 1.75000E+01    3.46279E-03    2.77716E-03    4.14842E-03
 1.80000E+01    3.32970E-03    2.69706E-03    3.96234E-03
 1.85000E+01    3.20465E-03    2.59577E-03    3.81353E-03
 1.90000E+01    3.08614E-03    2.49977E-03    3.67251E-03
 1.95000E+01    2.97425E-03    2.40914E-03    3.53936E-03
 2.00000E+01    2.86826E-03    2.32329E-03    3.41323E-03
