# n + Th229 : (n,el)    
# jendl4.0   O.Iwamoto, T.Nakagawa, et al.     EVAL-JAN10
# uncertainties: y
# # energies =    69
#   E(MeV)       xs(mb)       xslow(mb)      xsupp(mb)
 1.00000E-10    1.18843E+04    1.18843E+04    1.18843E+04
 5.00000E-09    1.05301E+04    1.05301E+04    1.05301E+04
 1.00000E-08    1.04831E+04    1.04831E+04    1.04831E+04
 1.50000E-08    1.04584E+04    1.04584E+04    1.04584E+04
 2.00000E-08    1.04395E+04    1.04395E+04    1.04395E+04
 2.50000E-08    1.04240E+04    1.04240E+04    1.04240E+04
 3.00000E-08    1.04102E+04    1.04102E+04    1.04102E+04
 3.50000E-08    1.03938E+04    1.03938E+04    1.03938E+04
 4.20000E-08    1.03740E+04    1.03740E+04    1.03740E+04
 5.00000E-08    1.03537E+04    1.03537E+04    1.03537E+04
 5.80000E-08    1.03322E+04    1.03322E+04    1.03322E+04
 6.70000E-08    1.03045E+04    1.03045E+04    1.03045E+04
 8.00000E-08    1.02631E+04    1.02631E+04    1.02631E+04
 1.00000E-07    1.01859E+04    1.01859E+04    1.01859E+04
 1.40000E-07    1.00705E+04    1.00705E+04    1.00705E+04
 1.80000E-07    9.94145E+03    9.94145E+03    9.94145E+03
 2.20000E-07    9.81347E+03    9.81347E+03    9.81347E+03
 2.50000E-07    9.68996E+03    9.68996E+03    9.68996E+03
 2.80000E-07    9.57457E+03    9.57457E+03    9.57457E+03
 3.00000E-07    9.47262E+03    9.47262E+03    9.47262E+03
 3.20000E-07    9.33023E+03    9.33023E+03    9.33023E+03
 3.50000E-07    9.05664E+03    9.05664E+03    9.05664E+03
 4.00000E-07    8.28367E+03    8.28367E+03    8.28367E+03
 5.00000E-07    1.32839E+04    1.32839E+04    1.32839E+04
 6.25000E-07    1.90216E+04    1.90216E+04    1.90216E+04
 7.80000E-07    1.25051E+04    1.25051E+04    1.25051E+04
 8.50000E-07    1.16265E+04    1.16265E+04    1.16265E+04
 9.10000E-07    1.11024E+04    1.11024E+04    1.11024E+04
 9.50000E-07    1.07981E+04    1.07981E+04    1.07981E+04
 9.72000E-07    1.05728E+04    1.05728E+04    1.05728E+04
 9.96000E-07    1.03289E+04    1.03289E+04    1.03289E+04
 1.02000E-06    1.00622E+04    1.00622E+04    1.00622E+04
 1.04500E-06    9.75607E+03    9.75607E+03    9.75607E+03
 1.07100E-06    9.39856E+03    9.39856E+03    9.39856E+03
 1.09700E-06    8.97629E+03    8.97629E+03    8.97629E+03
 1.12300E-06    8.45341E+03    8.45341E+03    8.45341E+03
 1.15000E-06    1.33415E+04    1.33415E+04    1.33415E+04
 1.30000E-06    1.47730E+04    1.47730E+04    1.47730E+04
 1.50000E-06    1.35511E+04    1.35511E+04    1.35511E+04
 2.10000E-06    1.28487E+04    1.28487E+04    1.28487E+04
 2.60000E-06    1.12382E+04    1.12382E+04    1.12382E+04
 3.30000E-06    9.29586E+03    9.29586E+03    9.29586E+03
 4.00000E-06    1.67270E+04    1.67270E+04    1.67270E+04
 9.87700E-06    1.36498E+04    1.09062E+04    1.63934E+04
 1.59680E-05    1.35586E+04    1.08333E+04    1.62839E+04
 2.77000E-05    1.35159E+04    1.07992E+04    1.62325E+04
 4.80520E-05    1.34943E+04    1.07820E+04    1.62067E+04
 7.55014E-05    1.35102E+04    1.07946E+04    1.62257E+04
 1.48728E-04    1.34228E+04    1.07248E+04    1.61208E+04
 3.67262E-04    1.33004E+04    1.06270E+04    1.59738E+04
 9.06898E-04    1.31917E+04    1.05402E+04    1.58433E+04
 1.42510E-03    1.30990E+04    1.04661E+04    1.57319E+04
 2.23945E-03    1.29860E+04    1.04147E+04    1.55572E+04
 3.51910E-03    1.28448E+04    1.03015E+04    1.53881E+04
 5.53000E-03    1.26635E+04    1.02194E+04    1.51075E+04
 9.11800E-03    1.24197E+04    1.00848E+04    1.47547E+04
 1.50300E-02    1.21327E+04    9.87604E+03    1.43894E+04
 2.47800E-02    1.17554E+04    9.72174E+03    1.37891E+04
 4.08500E-02    1.12540E+04    9.56592E+03    1.29421E+04
 6.73400E-02    1.05785E+04    9.17157E+03    1.19855E+04
 1.11000E-01    9.62797E+03    8.57852E+03    1.06774E+04
 1.83000E-01    8.25977E+03    7.35946E+03    9.16009E+03
 3.02000E-01    6.64430E+03    6.34929E+03    6.93930E+03
 5.00000E-01    5.01423E+03    4.85377E+03    5.17469E+03
 8.21000E-01    3.83513E+03    3.72889E+03    3.94136E+03
 1.35300E+00    3.60325E+03    3.40867E+03    3.79782E+03
 2.23100E+00    4.18317E+03    3.89788E+03    4.46846E+03
 3.67900E+00    4.15893E+03    3.96804E+03    4.34983E+03
 6.06500E+00    3.01455E+03    2.82011E+03    3.20899E+03
