# n + Ce140 : (n,p)     
# jendl.ad   kunieda                           EVAL-Mar14
# uncertainties: n
# # energies =    46
#   E(MeV)       xs(mb) 
 3.00138E+00    0.00000E+00
 3.03156E+00    1.01710E-11
 3.03628E+00    1.27100E-11
 3.04551E+00    1.86650E-11
 3.05060E+00    2.26120E-11
 3.06501E+00    3.43220E-11
 3.09485E+00    6.18370E-11
 3.10594E+00    7.26590E-11
 3.16521E+00    1.31410E-10
 3.27569E+00    2.43460E-10
 3.28811E+00    2.56090E-10
 3.32193E+00    2.90480E-10
 3.32576E+00    2.94380E-10
 3.47229E+00    4.43660E-10
 4.50000E+00    1.49070E-09
 5.00000E+00    3.98280E-07
 5.50000E+00    1.41760E-05
 6.00000E+00    1.61384E-04
 6.50000E+00    9.22121E-04
 7.00000E+00    3.25351E-03
 7.50000E+00    8.44386E-03
 8.00000E+00    1.81352E-02
 8.50000E+00    3.50045E-02
 9.00000E+00    6.03843E-02
 9.50000E+00    1.10060E-01
 1.00000E+01    1.88544E-01
 1.05000E+01    3.18586E-01
 1.10000E+01    5.20666E-01
 1.15000E+01    8.15088E-01
 1.20000E+01    1.21931E+00
 1.25000E+01    1.75400E+00
 1.30000E+01    2.44369E+00
 1.35000E+01    3.27803E+00
 1.40000E+01    4.28723E+00
 1.45000E+01    5.36138E+00
 1.50000E+01    6.59686E+00
 1.55000E+01    7.88490E+00
 1.60000E+01    9.24556E+00
 1.65000E+01    1.08420E+01
 1.70000E+01    1.21571E+01
 1.75000E+01    1.33272E+01
 1.80000E+01    1.44466E+01
 1.85000E+01    1.60168E+01
 1.90000E+01    1.66242E+01
 1.95000E+01    1.69851E+01
 2.00000E+01    1.83585E+01
