# n + Ce140 : (n,xd)    
# jendl.ad   kunieda                           EVAL-Mar14
# 
# # energies =    67
#   E(MeV)        xs(mb) 
 1.50000E-01    0.00000E+00
 2.00000E-01    0.00000E+00
 3.00000E-01    0.00000E+00
 4.00000E-01    0.00000E+00
 5.00000E-01    0.00000E+00
 6.00000E-01    0.00000E+00
 7.00000E-01    0.00000E+00
 8.00000E-01    0.00000E+00
 9.00000E-01    0.00000E+00
 1.00000E+00    0.00000E+00
 1.20000E+00    0.00000E+00
 1.40000E+00    0.00000E+00
 1.60000E+00    0.00000E+00
 1.60774E+00    0.00000E+00
 1.80000E+00    0.00000E+00
 1.91703E+00    0.00000E+00
 2.00000E+00    0.00000E+00
 2.09827E+00    0.00000E+00
 2.12305E+00    0.00000E+00
 2.20000E+00    0.00000E+00
 2.36481E+00    0.00000E+00
 2.36675E+00    0.00000E+00
 2.40000E+00    0.00000E+00
 2.42940E+00    0.00000E+00
 2.48184E+00    0.00000E+00
 2.48185E+00    0.00000E+00
 2.49881E+00    0.00000E+00
 2.53390E+00    0.00000E+00
 2.53961E+00    0.00000E+00
 2.56559E+00    0.00000E+00
 2.56560E+00    0.00000E+00
 2.70000E+00    0.00000E+00
 3.00000E+00    0.00000E+00
 3.50000E+00    0.00000E+00
 4.00000E+00    0.00000E+00
 4.50000E+00    0.00000E+00
 5.00000E+00    0.00000E+00
 5.50000E+00    0.00000E+00
 6.00000E+00    1.42981E-20
 6.50000E+00    7.89163E-16
 7.00000E+00    1.84420E-15
 7.50000E+00    1.04410E-13
 8.00000E+00    1.34770E-10
 8.50000E+00    1.58770E-08
 9.00000E+00    4.18070E-07
 9.50000E+00    4.73342E-06
 1.00000E+01    6.12676E-05
 1.05000E+01    3.34295E-04
 1.10000E+01    1.59492E-03
 1.15000E+01    6.69132E-03
 1.20000E+01    2.44717E-02
 1.25000E+01    5.32356E-02
 1.30000E+01    1.00490E-01
 1.35000E+01    2.73261E-01
 1.40000E+01    4.51227E-01
 1.45000E+01    7.09420E-01
 1.50000E+01    1.22225E+00
 1.55000E+01    1.73850E+00
 1.60000E+01    2.37623E+00
 1.65000E+01    3.13784E+00
 1.70000E+01    4.02245E+00
 1.75000E+01    4.57972E+00
 1.80000E+01    5.28565E+00
 1.85000E+01    6.42634E+00
 1.90000E+01    7.67391E+00
 1.95000E+01    7.96983E+00
 2.00000E+01    9.33028E+00
