# n + Ce140 : (n,d)     
# jendl.ad   kunieda                           EVAL-Mar14
# uncertainties: n
# # energies =    40
#   E(MeV)       xs(mb) 
 5.95897E+00    0.00000E+00
 6.12603E+00    5.82170E-20
 7.00000E+00    1.84420E-15
 7.17668E+00    3.79770E-14
 7.18671E+00    4.00350E-14
 7.22486E+00    4.78700E-14
 7.35022E+00    7.36310E-14
 7.38920E+00    8.16420E-14
 7.38975E+00    8.17550E-14
 7.44591E+00    9.32960E-14
 7.50000E+00    1.04410E-13
 7.50775E+00    2.19160E-12
 7.50792E+00    2.23740E-12
 7.52859E+00    7.80420E-12
 7.54683E+00    1.27170E-11
 8.00000E+00    1.34770E-10
 8.50000E+00    1.58770E-08
 9.00000E+00    4.18070E-07
 9.50000E+00    4.73342E-06
 1.00000E+01    6.12676E-05
 1.05000E+01    3.34295E-04
 1.10000E+01    1.59492E-03
 1.15000E+01    6.69132E-03
 1.20000E+01    2.44717E-02
 1.25000E+01    5.32356E-02
 1.30000E+01    1.00490E-01
 1.35000E+01    2.73261E-01
 1.40000E+01    4.51227E-01
 1.45000E+01    7.09420E-01
 1.50000E+01    1.22225E+00
 1.55000E+01    1.73850E+00
 1.60000E+01    2.37623E+00
 1.65000E+01    3.13784E+00
 1.70000E+01    4.02245E+00
 1.75000E+01    4.57972E+00
 1.80000E+01    5.28565E+00
 1.85000E+01    6.42632E+00
 1.90000E+01    7.67376E+00
 1.95000E+01    7.96914E+00
 2.00000E+01    9.32753E+00
