# n + Ce140 : (n,xn)    
# jendl.ad   kunieda                           EVAL-Mar14
# 
# # energies =    67
#   E(MeV)        xs(mb) 
 1.50000E-01    0.00000E+00
 2.00000E-01    1.65550E-04
 3.00000E-01    1.20881E-03
 4.00000E-01    4.27600E-03
 5.00000E-01    1.10085E-02
 6.00000E-01    2.36539E-02
 7.00000E-01    4.51361E-02
 8.00000E-01    7.91189E-02
 9.00000E-01    1.30096E-01
 1.00000E+00    2.03515E-01
 1.20000E+00    4.45125E-01
 1.40000E+00    8.72612E-01
 1.60000E+00    1.58122E+00
 1.60774E+00    1.60160E+00
 1.80000E+00    4.28953E+02
 1.91703E+00    5.24267E+02
 2.00000E+00    6.29944E+02
 2.09827E+00    7.14508E+02
 2.12305E+00    7.92568E+02
 2.20000E+00    8.88539E+02
 2.36481E+00    1.05694E+03
 2.36675E+00    1.07373E+03
 2.40000E+00    1.15657E+03
 2.42940E+00    1.20060E+03
 2.48184E+00    1.30214E+03
 2.48185E+00    1.30214E+03
 2.49881E+00    1.33871E+03
 2.53390E+00    1.40327E+03
 2.53961E+00    1.41670E+03
 2.56559E+00    1.47882E+03
 2.56560E+00    1.47884E+03
 2.70000E+00    1.69105E+03
 3.00000E+00    2.01832E+03
 3.50000E+00    2.28784E+03
 4.00000E+00    2.36983E+03
 4.50000E+00    2.36122E+03
 5.00000E+00    2.30836E+03
 5.50000E+00    2.25053E+03
 6.00000E+00    2.19784E+03
 6.50000E+00    2.16707E+03
 7.00000E+00    2.15542E+03
 7.50000E+00    2.15582E+03
 8.00000E+00    2.16077E+03
 8.50000E+00    2.16490E+03
 9.00000E+00    2.16520E+03
 9.50000E+00    2.19096E+03
 1.00000E+01    2.31565E+03
 1.05000E+01    2.55925E+03
 1.10000E+01    2.85928E+03
 1.15000E+01    3.13410E+03
 1.20000E+01    3.34304E+03
 1.25000E+01    3.46613E+03
 1.30000E+01    3.59080E+03
 1.35000E+01    3.66680E+03
 1.40000E+01    3.72614E+03
 1.45000E+01    3.77976E+03
 1.50000E+01    3.81162E+03
 1.55000E+01    3.83768E+03
 1.60000E+01    3.85911E+03
 1.65000E+01    3.87648E+03
 1.70000E+01    3.89203E+03
 1.75000E+01    3.90384E+03
 1.80000E+01    3.91429E+03
 1.85000E+01    3.92816E+03
 1.90000E+01    3.95702E+03
 1.95000E+01    3.99284E+03
 2.00000E+01    4.04398E+03
