# n + Ce140 : (n,xp)    
# jendl.ad   kunieda                           EVAL-Mar14
# 
# # energies =    67
#   E(MeV)        xs(mb) 
 1.50000E-01    0.00000E+00
 2.00000E-01    0.00000E+00
 3.00000E-01    0.00000E+00
 4.00000E-01    0.00000E+00
 5.00000E-01    0.00000E+00
 6.00000E-01    0.00000E+00
 7.00000E-01    0.00000E+00
 8.00000E-01    0.00000E+00
 9.00000E-01    0.00000E+00
 1.00000E+00    0.00000E+00
 1.20000E+00    0.00000E+00
 1.40000E+00    0.00000E+00
 1.60000E+00    0.00000E+00
 1.60774E+00    0.00000E+00
 1.80000E+00    0.00000E+00
 1.91703E+00    0.00000E+00
 2.00000E+00    0.00000E+00
 2.09827E+00    0.00000E+00
 2.12305E+00    0.00000E+00
 2.20000E+00    0.00000E+00
 2.36481E+00    0.00000E+00
 2.36675E+00    0.00000E+00
 2.40000E+00    0.00000E+00
 2.42940E+00    0.00000E+00
 2.48184E+00    0.00000E+00
 2.48185E+00    0.00000E+00
 2.49881E+00    0.00000E+00
 2.53390E+00    0.00000E+00
 2.53961E+00    0.00000E+00
 2.56559E+00    0.00000E+00
 2.56560E+00    0.00000E+00
 2.70000E+00    0.00000E+00
 3.00000E+00    0.00000E+00
 3.50000E+00    4.71891E-10
 4.00000E+00    9.81296E-10
 4.50000E+00    1.49070E-09
 5.00000E+00    3.98280E-07
 5.50000E+00    1.41760E-05
 6.00000E+00    1.61384E-04
 6.50000E+00    9.22121E-04
 7.00000E+00    3.25351E-03
 7.50000E+00    8.44386E-03
 8.00000E+00    1.81352E-02
 8.50000E+00    3.50045E-02
 9.00000E+00    6.03843E-02
 9.50000E+00    1.10060E-01
 1.00000E+01    1.88544E-01
 1.05000E+01    3.18600E-01
 1.10000E+01    5.20845E-01
 1.15000E+01    8.16237E-01
 1.20000E+01    1.22545E+00
 1.25000E+01    1.77506E+00
 1.30000E+01    2.49886E+00
 1.35000E+01    3.38614E+00
 1.40000E+01    4.48961E+00
 1.45000E+01    5.77587E+00
 1.50000E+01    7.28496E+00
 1.55000E+01    9.00183E+00
 1.60000E+01    1.09390E+01
 1.65000E+01    1.30467E+01
 1.70000E+01    1.53787E+01
 1.75000E+01    1.78830E+01
 1.80000E+01    2.04682E+01
 1.85000E+01    2.32955E+01
 1.90000E+01    2.62293E+01
 1.95000E+01    2.92605E+01
 2.00000E+01    3.23369E+01
