# n + Hf176 : (n,non)   
# jendl4.0   K. Shibata (JAEA)                 EVAL-JUL09
# uncertainties: n
# # energies =   111
#   E(MeV)       xs(mb) 
 7.00000E-04    0.00000E+00
 7.00000E-04    5.94200E+03
 8.00000E-04    5.30900E+03
 9.00000E-04    4.80800E+03
 1.00000E-03    4.40200E+03
 2.00000E-03    2.49400E+03
 3.00000E-03    1.82400E+03
 4.00000E-03    1.48300E+03
 5.00000E-03    1.27800E+03
 6.00000E-03    1.14100E+03
 7.00000E-03    1.04300E+03
 8.00000E-03    9.68500E+02
 9.00000E-03    9.10200E+02
 1.00000E-02    8.63000E+02
 2.00000E-02    6.41000E+02
 3.00000E-02    5.60000E+02
 4.00000E-02    5.17700E+02
 5.00000E-02    4.90700E+02
 6.00000E-02    4.79600E+02
 7.00000E-02    4.77100E+02
 8.00000E-02    4.63800E+02
 8.88575E-02    3.73808E+02
 9.00000E-02    4.68500E+02
 1.00000E-01    4.70800E+02
 2.00000E-01    9.16000E+02
 2.91844E-01    1.28751E+03
 3.00000E-01    1.32073E+03
 4.00000E-01    1.63353E+03
 4.10142E-01    1.65947E+03
 5.00000E-01    1.88931E+03
 6.00000E-01    2.09420E+03
 6.00241E-01    2.09456E+03
 7.00000E-01    2.24393E+03
 8.00000E-01    2.35575E+03
 9.00000E-01    2.43711E+03
 1.00000E+00    2.49877E+03
 1.00346E+00    2.49845E+03
 1.15653E+00    2.48411E+03
 1.23366E+00    2.54397E+03
 1.25000E+00    2.63898E+03
 1.25483E+00    2.62910E+03
 1.30053E+00    2.57086E+03
 1.32088E+00    2.55208E+03
 1.34070E+00    2.54568E+03
 1.34900E+00    2.54304E+03
 1.36981E+00    2.55798E+03
 1.38728E+00    2.58520E+03
 1.39816E+00    2.61388E+03
 1.41261E+00    2.65481E+03
 1.42103E+00    2.68195E+03
 1.45409E+00    2.80198E+03
 1.48956E+00    2.96682E+03
 1.50000E+00    3.01533E+03
 1.51444E+00    2.99910E+03
 1.51722E+00    2.99599E+03
 1.54139E+00    2.96984E+03
 1.54913E+00    2.96235E+03
 1.56824E+00    2.94586E+03
 1.58660E+00    2.93001E+03
 1.60062E+00    2.92066E+03
 1.61621E+00    2.91184E+03
 1.63789E+00    2.89958E+03
 1.65285E+00    2.89122E+03
 1.66254E+00    2.88800E+03
 1.68193E+00    2.88182E+03
 1.68556E+00    2.88147E+03
 1.70966E+00    2.88150E+03
 1.71437E+00    2.88151E+03
 1.72024E+00    2.88311E+03
 1.73192E+00    2.88862E+03
 1.73770E+00    2.89271E+03
 1.74238E+00    2.89621E+03
 1.75903E+00    2.90940E+03
 1.77156E+00    2.92064E+03
 1.77702E+00    2.92556E+03
 1.78708E+00    2.93552E+03
 2.00000E+00    3.42893E+03
 2.50000E+00    3.39794E+03
 3.00000E+00    3.31964E+03
 3.50000E+00    3.22792E+03
 4.00000E+00    3.15356E+03
 4.49685E+00    3.10137E+03
 4.50000E+00    3.10104E+03
 4.51354E+00    3.10001E+03
 5.00000E+00    3.06311E+03
 5.50000E+00    3.03303E+03
 5.91443E+00    3.00982E+03
 6.00000E+00    3.00503E+03
 6.50000E+00    2.97697E+03
 6.73417E+00    2.96383E+03
 7.00000E+00    2.94892E+03
 7.50000E+00    2.92094E+03
 8.00000E+00    2.89568E+03
 8.21179E+00    2.86860E+03
 8.50000E+00    2.87270E+03
 9.00000E+00    2.85342E+03
 9.50000E+00    2.83663E+03
 1.00000E+01    2.82150E+03
 1.10000E+01    2.79326E+03
 1.20000E+01    2.76620E+03
 1.22075E+01    2.76068E+03
 1.30000E+01    2.73960E+03
 1.40000E+01    2.71515E+03
 1.45000E+01    2.70356E+03
 1.49588E+01    2.69385E+03
 1.50000E+01    2.69298E+03
 1.60000E+01    2.67320E+03
 1.70000E+01    2.65618E+03
 1.80000E+01    2.63943E+03
 1.90000E+01    2.62373E+03
 2.00000E+01    2.60738E+03
