# n + Sn117 : (n,t)     
# jendl4.0   N.Iwamoto,K.Shibata               EVAL-Dec09
# uncertainties: n
# # energies =    47
#   E(MeV)       xs(mb) 
 7.80862E+00    0.00000E+00
 8.14777E+00    6.76940E-19
 8.41092E+00    1.03400E-17
 8.64436E+00    1.89190E-17
 8.68022E+00    2.14300E-17
 8.75046E+00    2.69190E-17
 8.75817E+00    2.75500E-17
 8.85905E+00    3.61430E-17
 8.89608E+00    3.93290E-17
 8.95097E+00    4.40580E-17
 9.00000E+00    4.82830E-17
 9.01140E+00    2.34300E-15
 9.10714E+00    2.18350E-14
 9.11035E+00    2.24890E-14
 9.16775E+00    3.42000E-14
 9.23911E+00    4.87660E-14
 9.26991E+00    5.50540E-14
 9.28475E+00    5.80840E-14
 9.29130E+00    5.94210E-14
 9.29987E+00    6.11710E-14
 9.30755E+00    6.27390E-14
 9.31874E+00    6.50240E-14
 9.42475E+00    8.66670E-14
 9.43060E+00    8.78610E-14
 9.47286E+00    9.64890E-14
 9.50000E+00    1.02030E-13
 1.00000E+01    4.99700E-11
 1.05000E+01    2.70010E-09
 1.10000E+01    4.13870E-08
 1.15000E+01    3.08550E-07
 1.20000E+01    1.54903E-06
 1.25000E+01    8.40094E-06
 1.30000E+01    4.79202E-05
 1.35000E+01    2.36958E-04
 1.40000E+01    9.42073E-04
 1.45000E+01    3.03022E-03
 1.50000E+01    8.06897E-03
 1.55000E+01    1.80548E-02
 1.60000E+01    3.55971E-02
 1.65000E+01    6.25265E-02
 1.70000E+01    1.00082E-01
 1.75000E+01    1.48724E-01
 1.80000E+01    2.08306E-01
 1.85000E+01    2.78179E-01
 1.90000E+01    3.57459E-01
 1.95000E+01    4.45035E-01
 2.00000E+01    5.39810E-01
