# n + N   0 : (n,n'01)
# jendl4.0   T.FUKAHORI                        EVAL-DEC88
# uncertainties: n
# # energies =   175
#   E(MeV)          xs(mb) 
 2.47950E+00    0.00000E+00
 2.48100E+00    7.71146E-02
 2.49490E+00    8.28280E-01
 2.50880E+00    1.35942E+00
 2.51900E+00    2.61604E+00
 2.52910E+00    4.63555E+00
 2.53920E+00    1.85781E+00
 2.54940E+00    1.45864E+00
 2.57470E+00    1.37550E+00
 2.60000E+00    1.45166E+00
 2.62540E+00    1.55565E+00
 2.65070E+00    1.66978E+00
 2.69250E+00    1.87137E+00
 2.73180E+00    2.07245E+00
 2.75710E+00    2.20800E+00
 2.77740E+00    2.32087E+00
 2.79770E+00    2.43840E+00
 2.81790E+00    2.56156E+00
 2.83820E+00    2.69455E+00
 2.85720E+00    2.83263E+00
 2.87620E+00    2.99480E+00
 2.89520E+00    3.20852E+00
 2.91420E+00    3.56220E+00
 2.92050E+00    3.75569E+00
 2.92690E+00    4.03612E+00
 2.93950E+00    5.13918E+00
 2.95220E+00    7.82504E+00
 2.95850E+00    8.69302E+00
 2.96490E+00    7.81111E+00
 2.97630E+00    5.72429E+00
 2.98770E+00    4.90234E+00
 2.99910E+00    4.68618E+00
 3.01050E+00    4.71517E+00
 3.02820E+00    5.18806E+00
 3.04590E+00    6.48180E+00
 3.06370E+00    8.44312E+00
 3.08140E+00    7.75132E+00
 3.08650E+00    7.27852E+00
 3.09150E+00    6.88129E+00
 3.09660E+00    6.56686E+00
 3.10170E+00    6.34134E+00
 3.12950E+00    6.21444E+00
 3.15740E+00    7.45463E+00
 3.18530E+00    1.03785E+01
 3.21320E+00    1.38732E+01
 3.22580E+00    1.41705E+01
 3.23850E+00    1.34096E+01
 3.26380E+00    1.08579E+01
 3.28920E+00    8.92678E+00
 3.31450E+00    7.80369E+00
 3.33980E+00    7.16674E+00
 3.36520E+00    6.80767E+00
 3.39050E+00    6.62173E+00
 3.41580E+00    6.56043E+00
 3.44120E+00    6.63421E+00
 3.46650E+00    7.00607E+00
 3.47280E+00    7.21707E+00
 3.47920E+00    7.53486E+00
 3.49180E+00    8.69532E+00
 3.50450E+00    1.05742E+01
 3.51080E+00    1.09820E+01
 3.51720E+00    1.06081E+01
 3.52350E+00    9.87621E+00
 3.52980E+00    9.20368E+00
 3.53620E+00    8.72143E+00
 3.54250E+00    8.44895E+00
 3.55010E+00    8.38838E+00
 3.55770E+00    8.73453E+00
 3.56530E+00    9.79819E+00
 3.57290E+00    1.10925E+01
 3.58680E+00    9.42286E+00
 3.60080E+00    8.30328E+00
 3.61470E+00    7.94771E+00
 3.62870E+00    7.82524E+00
 3.67430E+00    7.88006E+00
 3.71990E+00    8.14692E+00
 3.76550E+00    8.49319E+00
 3.81110E+00    8.88323E+00
 3.91750E+00    9.87608E+00
 3.95290E+00    1.02318E+01
 3.96810E+00    1.03999E+01
 3.98330E+00    1.05933E+01
 3.99850E+00    1.08483E+01
 4.01370E+00    1.12860E+01
 4.02390E+00    1.18921E+01
 4.03400E+00    1.32279E+01
 4.04410E+00    1.57118E+01
 4.05430E+00    1.61336E+01
 4.06320E+00    1.47166E+01
 4.07200E+00    1.38397E+01
 4.08090E+00    1.34784E+01
 4.08980E+00    1.34181E+01
 4.11510E+00    1.41294E+01
 4.14040E+00    1.58178E+01
 4.16580E+00    1.81895E+01
 4.19110E+00    2.01261E+01
 4.22660E+00    2.06201E+01
 4.26200E+00    1.98336E+01
 4.29750E+00    1.90864E+01
 4.33300E+00    1.86222E+01
 4.36590E+00    1.84004E+01
 4.39880E+00    1.83232E+01
 4.43180E+00    1.83579E+01
 4.47230E+00    1.85518E+01
 4.49510E+00    1.87725E+01
 4.51410E+00    1.90877E+01
 4.52050E+00    1.92381E+01
 4.53950E+00    1.98983E+01
 4.55850E+00    2.09605E+01
 4.57750E+00    2.18742E+01
 4.59650E+00    2.16642E+01
 4.61670E+00    2.09207E+01
 4.63700E+00    2.03565E+01
 4.65730E+00    1.99821E+01
 4.71300E+00    1.91879E+01
 4.74850E+00    1.85346E+01
 4.78390E+00    1.76755E+01
 4.81940E+00    1.66273E+01
 4.84470E+00    1.57923E+01
 4.87010E+00    1.48843E+01
 4.89540E+00    1.38862E+01
 4.92070E+00    1.27449E+01
 4.93720E+00    1.19003E+01
 4.95370E+00    1.09777E+01
 4.97020E+00    1.00104E+01
 4.98660E+00    9.07823E+00
 5.02040E+00    7.70749E+00
 5.07960E+00    8.02286E+00
 5.13870E+00    9.65745E+00
 5.19780E+00    1.09812E+01
 5.25690E+00    1.19199E+01
 5.30760E+00    1.25288E+01
 5.35820E+00    1.30245E+01
 5.40890E+00    1.34492E+01
 5.48700E+00    1.40200E+01
 5.68760E+00    1.54440E+01
 5.74670E+00    1.57973E+01
 5.80580E+00    1.60708E+01
 5.90720E+00    1.64391E+01
 5.95780E+00    1.66494E+01
 6.02330E+00    1.70113E+01
 6.06760E+00    1.73728E+01
 6.10770E+00    1.78791E+01
 6.14790E+00    1.86812E+01
 6.18800E+00    1.96693E+01
 6.22810E+00    1.99408E+01
 6.27030E+00    1.92747E+01
 6.31250E+00    1.86642E+01
 6.35480E+00    1.83321E+01
 6.39700E+00    1.81553E+01
 6.43080E+00    1.80526E+01
 6.46450E+00    1.80073E+01
 6.53210E+00    1.84755E+01
 6.61660E+00    1.86560E+01
 6.95440E+00    1.91709E+01
 7.03880E+00    1.92495E+01
 7.12330E+00    1.92895E+01
 7.26260E+00    1.92688E+01
 7.37240E+00    1.91657E+01
 7.47800E+00    1.89905E+01
 7.63000E+00    1.86082E+01
 7.76510E+00    1.81763E+01
 7.83260E+00    1.79947E+01
 7.94240E+00    1.78109E+01
 8.02680E+00    1.77197E+01
 8.06910E+00    1.77006E+01
 8.14510E+00    1.77309E+01
 8.50000E+00    1.76891E+01
 9.00000E+00    1.70308E+01
 9.50000E+00    1.63883E+01
 1.00000E+01    1.61514E+01
 1.20000E+01    1.57320E+01
 1.25000E+01    1.53909E+01
 1.55000E+01    1.44468E+01
 2.00000E+01    1.32232E+01
