# n + Hg200 : (n,n'18)  
# tendl.2019 A.J. Koning and D. Rochman        EVAL-NOV19
# uncertainties: n
# # energies =    73
#   E(MeV)       xs(mb) 
 1.85509E+00    0.00000E+00
 1.86082E+00    1.05789E+00
 1.86615E+00    2.04192E+00
 1.89235E+00    6.87901E+00
 1.97249E+00    2.16746E+01
 1.98222E+00    2.34710E+01
 1.98429E+00    2.38532E+01
 2.00000E+00    2.67536E+01
 2.05923E+00    3.24779E+01
 2.07165E+00    3.36782E+01
 2.08479E+00    3.49481E+01
 2.12502E+00    3.88361E+01
 2.12722E+00    3.90487E+01
 2.13758E+00    4.00499E+01
 2.20000E+00    4.60825E+01
 2.40000E+00    4.81896E+01
 2.60000E+00    4.24533E+01
 2.80000E+00    3.53012E+01
 3.00000E+00    2.90322E+01
 3.20000E+00    2.40280E+01
 3.40000E+00    2.00793E+01
 3.60000E+00    1.68829E+01
 3.80000E+00    1.41944E+01
 4.00000E+00    1.18647E+01
 4.20000E+00    9.83377E+00
 4.40000E+00    8.06883E+00
 4.60000E+00    6.55831E+00
 4.80000E+00    5.28694E+00
 5.00000E+00    4.23204E+00
 5.20000E+00    3.36728E+00
 5.40000E+00    2.66553E+00
 5.60000E+00    2.09268E+00
 5.80000E+00    1.64145E+00
 6.00000E+00    1.28529E+00
 6.20000E+00    1.00601E+00
 6.40000E+00    7.85298E-01
 6.60000E+00    6.14525E-01
 6.80000E+00    4.79791E-01
 7.00000E+00    3.74325E-01
 7.20000E+00    2.92228E-01
 7.40000E+00    2.27479E-01
 7.60000E+00    1.77656E-01
 7.80000E+00    1.38490E-01
 8.00000E+00    1.08021E-01
 8.50000E+00    5.83352E-02
 9.00000E+00    3.16483E-02
 9.50000E+00    1.72562E-02
 1.00000E+01    9.46313E-03
 1.05000E+01    5.21873E-03
 1.10000E+01    2.89274E-03
 1.15000E+01    1.61095E-03
 1.20000E+01    9.01441E-04
 1.25000E+01    5.07113E-04
 1.30000E+01    2.86917E-04
 1.35000E+01    1.63331E-04
 1.40000E+01    9.35677E-05
 1.45000E+01    5.39438E-05
 1.50000E+01    3.12896E-05
 1.60000E+01    1.07075E-05
 1.70000E+01    3.71174E-06
 1.80000E+01    1.31846E-06
 1.90000E+01    4.76320E-07
 2.00000E+01    1.75070E-07
 2.10000E+01    6.55290E-08
 2.20000E+01    2.49560E-08
 2.30000E+01    9.68030E-09
 2.40000E+01    3.81020E-09
 2.50000E+01    1.52410E-09
 2.60000E+01    6.18180E-10
 2.70000E+01    2.54500E-10
 2.80000E+01    1.06160E-10
 2.90000E+01    4.47550E-11
 3.00000E+01    1.90880E-11
