# n + Hg200 : (n,n'20)  
# tendl.2019 A.J. Koning and D. Rochman        EVAL-NOV19
# uncertainties: n
# # energies =    71
#   E(MeV)       xs(mb) 
 1.86615E+00    0.00000E+00
 1.89235E+00    2.02860E+00
 1.97249E+00    8.23366E+00
 1.98222E+00    8.98704E+00
 1.98429E+00    9.14731E+00
 2.00000E+00    1.03637E+01
 2.05923E+00    1.15841E+01
 2.07165E+00    1.18400E+01
 2.08479E+00    1.21108E+01
 2.12502E+00    1.29397E+01
 2.12722E+00    1.29851E+01
 2.13758E+00    1.31985E+01
 2.20000E+00    1.44847E+01
 2.40000E+00    1.38989E+01
 2.60000E+00    1.18409E+01
 2.80000E+00    9.71665E+00
 3.00000E+00    7.93214E+00
 3.20000E+00    6.50958E+00
 3.40000E+00    5.37117E+00
 3.60000E+00    4.43704E+00
 3.80000E+00    3.64995E+00
 4.00000E+00    2.97700E+00
 4.20000E+00    2.40490E+00
 4.40000E+00    1.92363E+00
 4.60000E+00    1.52618E+00
 4.80000E+00    1.20365E+00
 5.00000E+00    9.45388E-01
 5.20000E+00    7.40559E-01
 5.40000E+00    5.79145E-01
 5.60000E+00    4.50673E-01
 5.80000E+00    3.51394E-01
 6.00000E+00    2.74137E-01
 6.20000E+00    2.14131E-01
 6.40000E+00    1.66995E-01
 6.60000E+00    1.30572E-01
 6.80000E+00    1.01865E-01
 7.00000E+00    7.93824E-02
 7.20000E+00    6.18568E-02
 7.40000E+00    4.80385E-02
 7.60000E+00    3.74055E-02
 7.80000E+00    2.90624E-02
 8.00000E+00    2.25873E-02
 8.50000E+00    1.20926E-02
 9.00000E+00    6.51588E-03
 9.50000E+00    3.53739E-03
 1.00000E+01    1.93451E-03
 1.05000E+01    1.06369E-03
 1.10000E+01    5.86841E-04
 1.15000E+01    3.24479E-04
 1.20000E+01    1.79852E-04
 1.25000E+01    1.00046E-04
 1.30000E+01    5.59205E-05
 1.35000E+01    3.14470E-05
 1.40000E+01    1.78095E-05
 1.45000E+01    1.01640E-05
 1.50000E+01    5.84584E-06
 1.60000E+01    1.97641E-06
 1.70000E+01    6.79550E-07
 1.80000E+01    2.39560E-07
 1.90000E+01    8.57980E-08
 2.00000E+01    3.12390E-08
 2.10000E+01    1.15920E-08
 2.20000E+01    4.38630E-09
 2.30000E+01    1.69500E-09
 2.40000E+01    6.66210E-10
 2.50000E+01    2.66490E-10
 2.60000E+01    1.08090E-10
 2.70000E+01    4.44380E-11
 2.80000E+01    1.84810E-11
 2.90000E+01    7.75850E-12
 3.00000E+01    3.29470E-12
