# n + Te126 : (n,t)     
# jendl.ad   K.Shibata (JAEA)                  EVAL-Dec13
# uncertainties: n
# # energies =    51
#   E(MeV)       xs(mb) 
 9.39746E+00    0.00000E+00
 9.40841E+00    2.75630E-17
 9.43460E+00    1.33840E-16
 9.43859E+00    1.51230E-16
 9.47887E+00    3.26780E-16
 9.48577E+00    3.56860E-16
 9.50194E+00    4.27330E-16
 9.52369E+00    5.22120E-16
 9.53021E+00    5.50540E-16
 9.54866E+00    6.30950E-16
 9.57896E+00    7.63010E-16
 9.59501E+00    8.32960E-16
 9.61378E+00    9.14760E-16
 9.62074E+00    9.45100E-16
 9.63082E+00    9.89030E-16
 9.64782E+00    1.06310E-15
 9.68689E+00    1.23340E-15
 9.76875E+00    1.59020E-15
 9.77226E+00    1.60550E-15
 9.78508E+00    1.66130E-15
 9.78684E+00    1.66900E-15
 9.80357E+00    1.74190E-15
 9.81988E+00    1.81300E-15
 9.84015E+00    1.90140E-15
 9.84670E+00    1.92990E-15
 9.87250E+00    2.04240E-15
 9.88534E+00    2.09830E-15
 9.92434E+00    2.26830E-15
 9.96709E+00    2.45460E-15
 9.98404E+00    2.52850E-15
 9.99521E+00    2.57720E-15
 1.00009E+01    2.60200E-15
 1.00151E+01    2.66390E-15
 1.00447E+01    2.79290E-15
 1.00453E+01    2.79550E-15
 1.00557E+01    2.84080E-15
 1.01484E+01    3.24480E-15
 1.01607E+01    3.29840E-15
 1.01736E+01    3.35460E-15
 1.02082E+01    3.50540E-15
 1.10000E+01    6.95640E-15
 1.20000E+01    1.91320E-09
 1.30000E+01    1.13726E-06
 1.40000E+01    6.50119E-05
 1.45000E+01    2.54804E-04
 1.50000E+01    1.03134E-03
 1.60000E+01    7.10608E-03
 1.70000E+01    2.91286E-02
 1.80000E+01    7.78423E-02
 1.90000E+01    1.56948E-01
 2.00000E+01    2.67649E-01
