# n + Te126 : (n,d)     
# jendl.ad   K.Shibata (JAEA)                  EVAL-Dec13
# uncertainties: n
# # energies =    46
#   E(MeV)       xs(mb) 
 6.92854E+00    0.00000E+00
 7.26335E+00    1.96620E-17
 7.57690E+00    4.91050E-14
 7.85763E+00    6.42400E-13
 8.00000E+00    9.43680E-13
 8.00439E+00    9.75470E-13
 8.02690E+00    1.17800E-12
 8.28882E+00    4.12450E-12
 8.35979E+00    4.92350E-12
 8.42453E+00    5.65240E-12
 8.50000E+00    6.50220E-12
 8.50104E+00    9.77040E-12
 8.53288E+00    1.09840E-10
 8.60184E+00    3.26600E-10
 8.64307E+00    4.56200E-10
 8.67815E+00    5.66470E-10
 8.74296E+00    7.70200E-10
 8.74972E+00    7.91450E-10
 8.83354E+00    1.05490E-09
 8.83772E+00    1.06810E-09
 8.85737E+00    1.12980E-09
 8.89155E+00    1.23730E-09
 8.92731E+00    1.34970E-09
 8.94672E+00    1.41070E-09
 9.00000E+00    1.57820E-09
 9.05847E+00    1.79740E-08
 9.14720E+00    4.29010E-08
 9.17349E+00    5.02890E-08
 9.18729E+00    5.41680E-08
 9.20007E+00    5.77600E-08
 9.22255E+00    6.40790E-08
 9.23513E+00    6.76150E-08
 9.24596E+00    7.06600E-08
 9.50000E+00    1.42080E-07
 1.00000E+01    2.52907E-06
 1.10000E+01    4.73800E-04
 1.20000E+01    8.04876E-03
 1.30000E+01    7.45660E-02
 1.40000E+01    3.25748E-01
 1.45000E+01    4.99916E-01
 1.50000E+01    7.62583E-01
 1.60000E+01    1.62757E+00
 1.70000E+01    2.52489E+00
 1.80000E+01    3.73834E+00
 1.90000E+01    4.99512E+00
 2.00000E+01    6.21387E+00
