# n + Nb 93 : (n,xa)    
# jeff3.3    A.J. Koning and D. Rochman        EVAL-DEC15
# 
# # energies =   135
#   E(MeV)        xs(mb) 
 3.11041E-02    9.11766E-04
 6.00000E-02    5.83654E-04
 1.00000E-01    4.93896E-04
 2.00000E-01    5.21957E-04
 3.00000E-01    6.38292E-04
 4.00000E-01    8.77289E-04
 5.00000E-01    1.10882E-03
 6.00000E-01    1.42059E-03
 6.94246E-01    1.98441E-03
 7.00000E-01    2.01883E-03
 7.52027E-01    2.20702E-03
 8.00000E-01    2.38055E-03
 8.17601E-01    2.45299E-03
 8.19117E-01    2.45923E-03
 9.00000E-01    2.79212E-03
 9.60112E-01    2.88765E-03
 9.80531E-01    2.92010E-03
 9.89538E-01    2.93441E-03
 1.00000E+00    2.95104E-03
 1.09443E+00    3.20195E-03
 1.13933E+00    3.32126E-03
 1.20000E+00    3.48247E-03
 1.29820E+00    4.38162E-03
 1.30401E+00    4.43482E-03
 1.31130E+00    4.50157E-03
 1.32978E+00    4.67077E-03
 1.34953E+00    4.85161E-03
 1.38473E+00    5.17391E-03
 1.40000E+00    5.31373E-03
 1.41057E+00    5.39062E-03
 1.47080E+00    5.82873E-03
 1.49969E+00    6.03888E-03
 1.50718E+00    6.09336E-03
 1.51622E+00    6.15912E-03
 1.58888E+00    6.68765E-03
 1.60000E+00    6.76854E-03
 1.60530E+00    6.82022E-03
 1.62065E+00    6.96989E-03
 1.65230E+00    7.27849E-03
 1.68374E+00    7.58504E-03
 1.69773E+00    7.72145E-03
 1.70164E+00    7.75958E-03
 1.70465E+00    7.78893E-03
 1.71239E+00    7.86439E-03
 1.80000E+00    8.71863E-03
 2.00000E+00    1.12349E-02
 2.20000E+00    1.41650E-02
 2.40000E+00    1.90708E-02
 2.60000E+00    2.43298E-02
 2.80000E+00    3.08804E-02
 3.00000E+00    4.07430E-02
 3.20000E+00    5.01620E-02
 3.40000E+00    6.24235E-02
 3.60000E+00    7.73567E-02
 3.80000E+00    9.23309E-02
 4.00000E+00    1.16004E-01
 4.20000E+00    1.37727E-01
 4.40000E+00    1.64141E-01
 4.60000E+00    2.00854E-01
 4.80000E+00    2.29569E-01
 5.00000E+00    2.82119E-01
 5.20000E+00    3.30773E-01
 5.40000E+00    3.81591E-01
 5.60000E+00    4.61222E-01
 5.80000E+00    5.08405E-01
 6.00000E+00    6.07863E-01
 6.20000E+00    7.01482E-01
 6.40000E+00    7.83324E-01
 6.60000E+00    9.22220E-01
 6.80000E+00    9.92546E-01
 7.00000E+00    1.16204E+00
 7.20000E+00    1.30088E+00
 7.40000E+00    1.41522E+00
 7.60000E+00    1.61600E+00
 7.80000E+00    1.73985E+00
 8.00000E+00    1.98608E+00
 8.50000E+00    2.54325E+00
 9.00000E+00    3.21457E+00
 9.50000E+00    3.94403E+00
 1.00000E+01    4.61103E+00
 1.05000E+01    5.36256E+00
 1.10000E+01    6.16014E+00
 1.15000E+01    7.04062E+00
 1.20000E+01    8.00506E+00
 1.25000E+01    9.00234E+00
 1.30000E+01    1.01067E+01
 1.35000E+01    1.12727E+01
 1.40000E+01    1.25226E+01
 1.45000E+01    1.39065E+01
 1.50000E+01    1.54476E+01
 1.60000E+01    1.78916E+01
 1.70000E+01    2.01960E+01
 1.80000E+01    2.13874E+01
 1.90000E+01    2.22892E+01
 2.00000E+01    2.36122E+01
 2.10000E+01    2.49328E+01
 2.20000E+01    2.60439E+01
 2.30000E+01    2.70654E+01
 2.40000E+01    2.80172E+01
 2.50000E+01    2.88353E+01
 2.60000E+01    2.95630E+01
 2.70000E+01    3.02173E+01
 2.80000E+01    3.08149E+01
 2.90000E+01    3.13527E+01
 3.00000E+01    3.18392E+01
 3.00000E+01    3.18453E+01
 3.20000E+01    3.27425E+01
 3.40000E+01    3.35902E+01
 3.60000E+01    3.43891E+01
 3.80000E+01    3.52361E+01
 4.00000E+01    3.60703E+01
 4.20000E+01    3.69319E+01
 4.40000E+01    3.79408E+01
 4.60000E+01    3.87839E+01
 4.80000E+01    3.96442E+01
 5.00000E+01    4.03173E+01
 5.20000E+01    4.11094E+01
 5.40000E+01    4.15769E+01
 5.60000E+01    4.17064E+01
 5.80000E+01    4.24112E+01
 6.00000E+01    4.37247E+01
 6.50000E+01    4.72732E+01
 7.00000E+01    5.10338E+01
 7.50000E+01    5.53253E+01
 8.00000E+01    6.02424E+01
 9.00000E+01    7.32699E+01
 1.00000E+02    9.05376E+01
 1.10000E+02    1.14151E+02
 1.20000E+02    1.48910E+02
 1.30000E+02    1.89222E+02
 1.40000E+02    2.33365E+02
 1.50000E+02    2.83172E+02
 1.60000E+02    3.42733E+02
 1.80000E+02    4.40337E+02
 2.00000E+02    5.33012E+02
