# n + Nb 93 : (n,n'10)  
# jeff3.3    A.J. Koning and D. Rochman        EVAL-DEC15
# uncertainties: n
# # energies =    85
#   E(MeV)       xs(mb) 
 1.13933E+00    0.00000E+00
 1.20000E+00    1.22338E+01
 1.29820E+00    2.26725E+01
 1.30401E+00    2.32901E+01
 1.31130E+00    2.40651E+01
 1.32978E+00    2.60295E+01
 1.34953E+00    2.81289E+01
 1.38473E+00    3.18707E+01
 1.40000E+00    3.34939E+01
 1.41057E+00    3.33239E+01
 1.47080E+00    3.23554E+01
 1.49969E+00    3.18909E+01
 1.50718E+00    3.17704E+01
 1.51622E+00    3.16251E+01
 1.58888E+00    3.04567E+01
 1.60000E+00    3.02779E+01
 1.60530E+00    3.01532E+01
 1.62065E+00    2.97919E+01
 1.65230E+00    2.90469E+01
 1.68374E+00    2.83069E+01
 1.69773E+00    2.79776E+01
 1.70164E+00    2.78856E+01
 1.70465E+00    2.78147E+01
 1.71239E+00    2.76326E+01
 1.80000E+00    2.55705E+01
 2.00000E+00    2.12134E+01
 2.20000E+00    1.77528E+01
 2.40000E+00    1.49675E+01
 2.60000E+00    1.25804E+01
 2.80000E+00    1.05151E+01
 3.00000E+00    8.72665E+00
 3.20000E+00    7.19471E+00
 3.40000E+00    5.89978E+00
 3.60000E+00    4.81970E+00
 3.80000E+00    3.93050E+00
 4.00000E+00    3.20143E+00
 4.20000E+00    2.61269E+00
 4.40000E+00    2.13987E+00
 4.60000E+00    1.76100E+00
 4.80000E+00    1.45753E+00
 5.00000E+00    1.21516E+00
 5.20000E+00    1.02004E+00
 5.40000E+00    8.63107E-01
 5.60000E+00    7.35968E-01
 5.80000E+00    6.33192E-01
 6.00000E+00    5.48197E-01
 6.20000E+00    4.79908E-01
 6.40000E+00    4.22870E-01
 6.60000E+00    3.75826E-01
 6.80000E+00    3.37140E-01
 7.00000E+00    3.04373E-01
 7.20000E+00    2.76795E-01
 7.40000E+00    2.53735E-01
 7.60000E+00    2.34356E-01
 7.80000E+00    2.18160E-01
 8.00000E+00    2.04150E-01
 8.50000E+00    1.77387E-01
 9.00000E+00    1.58394E-01
 9.50000E+00    1.44306E-01
 1.00000E+01    1.33424E-01
 1.05000E+01    1.24725E-01
 1.10000E+01    1.17588E-01
 1.15000E+01    1.11613E-01
 1.20000E+01    1.06537E-01
 1.25000E+01    1.02164E-01
 1.30000E+01    9.83464E-02
 1.35000E+01    9.49599E-02
 1.40000E+01    9.19047E-02
 1.45000E+01    8.91036E-02
 1.50000E+01    8.65014E-02
 1.60000E+01    8.17696E-02
 1.70000E+01    7.75748E-02
 1.80000E+01    7.38416E-02
 1.90000E+01    7.04635E-02
 2.00000E+01    6.73279E-02
 2.10000E+01    6.43771E-02
 2.20000E+01    6.16189E-02
 2.30000E+01    5.90955E-02
 2.40000E+01    5.68405E-02
 2.50000E+01    5.48661E-02
 2.60000E+01    5.31535E-02
 2.70000E+01    5.16595E-02
 2.80000E+01    5.03281E-02
 2.90000E+01    4.91035E-02
 3.00000E+01    4.79417E-02
