# n + Nb 93 : (n,xp)    
# jeff3.3    A.J. Koning and D. Rochman        EVAL-DEC15
# 
# # energies =   135
#   E(MeV)        xs(mb) 
 3.11041E-02    3.02812E-09
 6.00000E-02    4.25150E-09
 1.00000E-01    6.36510E-09
 2.00000E-01    5.39340E-08
 3.00000E-01    3.47850E-07
 4.00000E-01    1.71150E-06
 5.00000E-01    6.80536E-06
 6.00000E-01    2.29158E-05
 6.94246E-01    6.31387E-05
 7.00000E-01    6.55963E-05
 7.52027E-01    9.43374E-05
 8.00000E-01    1.20839E-04
 8.17601E-01    1.32743E-04
 8.19117E-01    1.33768E-04
 9.00000E-01    1.88472E-04
 9.60112E-01    2.72133E-04
 9.80531E-01    3.00552E-04
 9.89538E-01    3.13087E-04
 1.00000E+00    3.27648E-04
 1.09443E+00    6.21726E-04
 1.13933E+00    7.61556E-04
 1.20000E+00    9.50497E-04
 1.29820E+00    1.76060E-03
 1.30401E+00    1.80853E-03
 1.31130E+00    1.86867E-03
 1.32978E+00    2.02112E-03
 1.34953E+00    2.18405E-03
 1.38473E+00    2.47443E-03
 1.40000E+00    2.60040E-03
 1.41057E+00    2.75379E-03
 1.47080E+00    3.62783E-03
 1.49969E+00    4.04707E-03
 1.50718E+00    4.15576E-03
 1.51622E+00    4.28694E-03
 1.58888E+00    5.34136E-03
 1.60000E+00    5.50273E-03
 1.60530E+00    5.63130E-03
 1.62065E+00    6.00369E-03
 1.65230E+00    6.77149E-03
 1.68374E+00    7.53421E-03
 1.69773E+00    7.87359E-03
 1.70164E+00    7.96845E-03
 1.70465E+00    8.04147E-03
 1.71239E+00    8.22924E-03
 1.80000E+00    1.03546E-02
 2.00000E+00    1.71898E-02
 2.20000E+00    2.74333E-02
 2.40000E+00    4.15527E-02
 2.60000E+00    5.93986E-02
 2.80000E+00    8.08593E-02
 3.00000E+00    1.05737E-01
 3.20000E+00    1.33891E-01
 3.40000E+00    1.65787E-01
 3.60000E+00    2.02469E-01
 3.80000E+00    2.41253E-01
 4.00000E+00    2.86570E-01
 4.20000E+00    3.62860E-01
 4.40000E+00    4.30280E-01
 4.60000E+00    5.12915E-01
 4.80000E+00    6.03599E-01
 5.00000E+00    6.48787E-01
 5.20000E+00    8.76047E-01
 5.40000E+00    1.06742E+00
 5.60000E+00    1.29344E+00
 5.80000E+00    1.54219E+00
 6.00000E+00    1.65206E+00
 6.20000E+00    2.26401E+00
 6.40000E+00    2.71960E+00
 6.60000E+00    3.23505E+00
 6.80000E+00    3.78318E+00
 7.00000E+00    3.98206E+00
 7.20000E+00    5.10809E+00
 7.40000E+00    5.85333E+00
 7.60000E+00    6.70373E+00
 7.80000E+00    7.60417E+00
 8.00000E+00    8.66391E+00
 8.50000E+00    1.13718E+01
 9.00000E+00    1.47880E+01
 9.50000E+00    1.84763E+01
 1.00000E+01    2.20298E+01
 1.05000E+01    2.58910E+01
 1.10000E+01    2.99934E+01
 1.15000E+01    3.43302E+01
 1.20000E+01    3.89822E+01
 1.25000E+01    4.39847E+01
 1.30000E+01    4.91979E+01
 1.35000E+01    5.46482E+01
 1.40000E+01    6.02864E+01
 1.45000E+01    6.60577E+01
 1.50000E+01    7.20707E+01
 1.60000E+01    8.45405E+01
 1.70000E+01    9.73505E+01
 1.80000E+01    1.10501E+02
 1.90000E+01    1.23453E+02
 2.00000E+01    1.37705E+02
 2.10000E+01    1.50462E+02
 2.20000E+01    1.63451E+02
 2.30000E+01    1.74749E+02
 2.40000E+01    1.86136E+02
 2.50000E+01    1.97186E+02
 2.60000E+01    2.08321E+02
 2.70000E+01    2.19861E+02
 2.80000E+01    2.32225E+02
 2.90000E+01    2.46035E+02
 3.00000E+01    2.61780E+02
 3.00000E+01    2.61458E+02
 3.20000E+01    2.94569E+02
 3.40000E+01    3.22145E+02
 3.60000E+01    3.42412E+02
 3.80000E+01    3.58597E+02
 4.00000E+01    3.72943E+02
 4.20000E+01    3.88441E+02
 4.40000E+01    4.05098E+02
 4.60000E+01    4.20076E+02
 4.80000E+01    4.34324E+02
 5.00000E+01    4.46314E+02
 5.20000E+01    4.58822E+02
 5.40000E+01    4.69678E+02
 5.60000E+01    4.77879E+02
 5.80000E+01    4.87811E+02
 6.00000E+01    4.98595E+02
 6.50000E+01    5.25333E+02
 7.00000E+01    5.47423E+02
 7.50000E+01    5.66166E+02
 8.00000E+01    5.83323E+02
 9.00000E+01    6.15312E+02
 1.00000E+02    6.46095E+02
 1.10000E+02    6.80992E+02
 1.20000E+02    7.16990E+02
 1.30000E+02    7.50467E+02
 1.40000E+02    7.87676E+02
 1.50000E+02    8.30469E+02
 1.60000E+02    8.95384E+02
 1.80000E+02    1.14587E+03
 2.00000E+02    1.53466E+03
