# n + Yb170 : (n,n'18)  
# tendl.2019 A.J. Koning and D. Rochman        EVAL-NOV19
# uncertainties: n
# # energies =    75
#   E(MeV)       xs(mb) 
 1.43370E+00    0.00000E+00
 1.44606E+00    5.33199E+00
 1.45896E+00    1.08970E+01
 1.46841E+00    1.49736E+01
 1.48869E+00    2.37222E+01
 1.51916E+00    3.68667E+01
 1.52135E+00    3.78115E+01
 1.53034E+00    4.16897E+01
 1.53781E+00    4.49121E+01
 1.54368E+00    4.74444E+01
 1.56121E+00    5.50067E+01
 1.57568E+00    6.12490E+01
 1.58207E+00    6.40055E+01
 1.60000E+00    7.17404E+01
 1.80000E+00    7.94181E+01
 2.00000E+00    6.79033E+01
 2.20000E+00    5.20851E+01
 2.40000E+00    3.82291E+01
 2.60000E+00    2.75547E+01
 2.80000E+00    1.96811E+01
 3.00000E+00    1.39992E+01
 3.20000E+00    1.01590E+01
 3.40000E+00    7.22740E+00
 3.60000E+00    5.16281E+00
 3.80000E+00    3.70658E+00
 4.00000E+00    2.67439E+00
 4.20000E+00    1.93865E+00
 4.40000E+00    1.43182E+00
 4.60000E+00    1.05505E+00
 4.80000E+00    7.70468E-01
 5.00000E+00    5.65714E-01
 5.20000E+00    4.16838E-01
 5.40000E+00    3.08143E-01
 5.60000E+00    2.28581E-01
 5.80000E+00    1.69088E-01
 6.00000E+00    1.25877E-01
 6.20000E+00    9.39078E-02
 6.40000E+00    7.02865E-02
 6.60000E+00    5.28901E-02
 6.80000E+00    3.99233E-02
 7.00000E+00    3.02720E-02
 7.20000E+00    2.30359E-02
 7.40000E+00    1.75812E-02
 7.60000E+00    1.34745E-02
 7.80000E+00    1.03508E-02
 8.00000E+00    7.98009E-03
 8.50000E+00    4.21677E-03
 9.00000E+00    2.26193E-03
 9.50000E+00    1.22473E-03
 1.00000E+01    6.68508E-04
 1.05000E+01    3.68077E-04
 1.10000E+01    2.04624E-04
 1.15000E+01    1.14932E-04
 1.20000E+01    6.52100E-05
 1.25000E+01    3.73755E-05
 1.30000E+01    2.16193E-05
 1.35000E+01    1.26352E-05
 1.40000E+01    7.44550E-06
 1.45000E+01    4.42444E-06
 1.50000E+01    2.65343E-06
 1.60000E+01    9.74300E-07
 1.70000E+01    3.68980E-07
 1.80000E+01    1.42260E-07
 1.90000E+01    5.66340E-08
 2.00000E+01    2.30670E-08
 2.10000E+01    9.60480E-09
 2.20000E+01    4.07830E-09
 2.30000E+01    1.77330E-09
 2.40000E+01    7.85240E-10
 2.50000E+01    3.52700E-10
 2.60000E+01    1.60690E-10
 2.70000E+01    7.39810E-11
 2.80000E+01    3.46430E-11
 2.90000E+01    1.64520E-11
 3.00000E+01    7.91150E-12
