# n + Yb170 : (n,n'09)  
# tendl.2019 A.J. Koning and D. Rochman        EVAL-NOV19
# uncertainties: n
# # energies =    85
#   E(MeV)       xs(mb) 
 1.23613E+00    0.00000E+00
 1.26593E+00    1.06822E+01
 1.30007E+00    2.29201E+01
 1.31414E+00    2.79636E+01
 1.33720E+00    3.62297E+01
 1.35316E+00    4.19508E+01
 1.37263E+00    4.89300E+01
 1.40000E+00    5.87411E+01
 1.40534E+00    5.87763E+01
 1.41709E+00    5.88539E+01
 1.43370E+00    5.89635E+01
 1.44606E+00    5.90451E+01
 1.45896E+00    5.91303E+01
 1.46841E+00    5.91926E+01
 1.48869E+00    5.93265E+01
 1.51916E+00    5.95276E+01
 1.52135E+00    5.95421E+01
 1.53034E+00    5.96014E+01
 1.53781E+00    5.96507E+01
 1.54368E+00    5.96895E+01
 1.56121E+00    5.98052E+01
 1.57568E+00    5.99007E+01
 1.58207E+00    5.99429E+01
 1.60000E+00    6.00612E+01
 1.80000E+00    5.00207E+01
 2.00000E+00    3.74002E+01
 2.20000E+00    2.63639E+01
 2.40000E+00    1.80736E+01
 2.60000E+00    1.22196E+01
 2.80000E+00    8.21712E+00
 3.00000E+00    5.53287E+00
 3.20000E+00    3.80145E+00
 3.40000E+00    2.59602E+00
 3.60000E+00    1.79060E+00
 3.80000E+00    1.24736E+00
 4.00000E+00    8.76586E-01
 4.20000E+00    6.28415E-01
 4.40000E+00    4.51170E-01
 4.60000E+00    3.22061E-01
 4.80000E+00    2.31446E-01
 5.00000E+00    1.67098E-01
 5.20000E+00    1.21194E-01
 5.40000E+00    8.82761E-02
 5.60000E+00    6.45904E-02
 5.80000E+00    4.71836E-02
 6.00000E+00    3.47317E-02
 6.20000E+00    2.56507E-02
 6.40000E+00    1.90333E-02
 6.60000E+00    1.42148E-02
 6.80000E+00    1.06592E-02
 7.00000E+00    8.03833E-03
 7.20000E+00    6.08574E-03
 7.40000E+00    4.62413E-03
 7.60000E+00    3.52941E-03
 7.80000E+00    2.70050E-03
 8.00000E+00    2.07422E-03
 8.50000E+00    1.08589E-03
 9.00000E+00    5.77088E-04
 9.50000E+00    3.09546E-04
 1.00000E+01    1.67397E-04
 1.05000E+01    9.13479E-05
 1.10000E+01    5.03637E-05
 1.15000E+01    2.80776E-05
 1.20000E+01    1.58251E-05
 1.25000E+01    9.01640E-06
 1.30000E+01    5.18697E-06
 1.35000E+01    3.01599E-06
 1.40000E+01    1.76859E-06
 1.45000E+01    1.04615E-06
 1.50000E+01    6.24720E-07
 1.60000E+01    2.27690E-07
 1.70000E+01    8.57150E-08
 1.80000E+01    3.28860E-08
 1.90000E+01    1.30370E-08
 2.00000E+01    5.28960E-09
 2.10000E+01    2.19510E-09
 2.20000E+01    9.29430E-10
 2.30000E+01    4.03250E-10
 2.40000E+01    1.78280E-10
 2.50000E+01    7.99650E-11
 2.60000E+01    3.63820E-11
 2.70000E+01    1.67250E-11
 2.80000E+01    7.81830E-12
 2.90000E+01    3.70630E-12
 3.00000E+01    1.77930E-12
