# n + Mo 95 : (n,n'08)  
# jendl4.0   K.Shibata, A.Ichihara, S.Kunieda+ EVAL-MAR09
# uncertainties: n
# # energies =    30
#   E(MeV)       xs(mb) 
 1.08513E+00    0.00000E+00
 1.50000E+00    2.13200E+02
 2.00000E+00    1.37100E+02
 2.50000E+00    9.61400E+01
 3.00000E+00    6.79700E+01
 3.50000E+00    4.28800E+01
 4.00000E+00    2.60700E+01
 4.50000E+00    1.57000E+01
 5.00000E+00    9.84600E+00
 5.50000E+00    6.70600E+00
 6.00000E+00    5.02900E+00
 6.50000E+00    4.12100E+00
 7.00000E+00    3.59300E+00
 7.50000E+00    3.28100E+00
 8.10000E+00    3.01900E+00
 8.50000E+00    2.88100E+00
 9.00000E+00    2.72000E+00
 9.50000E+00    2.59700E+00
 1.00000E+01    2.47200E+00
 1.10000E+01    2.26500E+00
 1.20000E+01    2.09100E+00
 1.30000E+01    1.95700E+00
 1.40000E+01    1.83700E+00
 1.45000E+01    1.75600E+00
 1.50000E+01    1.72900E+00
 1.60000E+01    1.63500E+00
 1.70000E+01    1.55500E+00
 1.80000E+01    1.48600E+00
 1.90000E+01    1.42300E+00
 2.00000E+01    1.36400E+00
