# n + Mo 95 : (n,n'10)  
# jendl4.0   K.Shibata, A.Ichihara, S.Kunieda+ EVAL-MAR09
# uncertainties: n
# # energies =    30
#   E(MeV)       xs(mb) 
 1.31643E+00    0.00000E+00
 1.50000E+00    2.27800E+01
 2.00000E+00    3.05400E+01
 2.50000E+00    2.54600E+01
 3.00000E+00    2.06800E+01
 3.50000E+00    1.44600E+01
 4.00000E+00    9.46800E+00
 4.50000E+00    5.84000E+00
 5.00000E+00    3.69600E+00
 5.50000E+00    2.48400E+00
 6.00000E+00    1.82900E+00
 6.50000E+00    1.46600E+00
 7.00000E+00    1.25300E+00
 7.50000E+00    1.12400E+00
 8.10000E+00    1.01900E+00
 8.50000E+00    9.64700E-01
 9.00000E+00    9.02600E-01
 9.50000E+00    8.54600E-01
 1.00000E+01    8.07000E-01
 1.10000E+01    7.28200E-01
 1.20000E+01    6.62800E-01
 1.30000E+01    6.12600E-01
 1.40000E+01    5.68500E-01
 1.45000E+01    5.40800E-01
 1.50000E+01    5.29800E-01
 1.60000E+01    4.96300E-01
 1.70000E+01    4.67800E-01
 1.80000E+01    4.43500E-01
 1.90000E+01    4.21900E-01
 2.00000E+01    4.02000E-01
