# n + Mo 95 : (n,g)     
# jendl4.0   K.Shibata, A.Ichihara, S.Kunieda+ EVAL-MAR09
# uncertainties: n
# # energies =   171
#   E(MeV)       xs(mb) 
 1.00000E-11    1.47146E+05
 1.00000E-07    4.87791E+03
 4.13990E-07    3.12971E+03
 5.31580E-07    2.75417E+03
 6.82560E-07    2.42203E+03
 8.76420E-07    2.12808E+03
 1.12540E-06    1.86835E+03
 1.44500E-06    1.63843E+03
 1.85540E-06    1.43697E+03
 2.37240E-06    1.25691E+03
 3.05900E-06    1.09768E+03
 3.92790E-06    9.59515E+02
 5.04350E-06    8.41117E+02
 6.47600E-06    7.41889E+02
 8.31530E-06    6.63616E+02
 1.06770E-05    6.10314E+02
 1.37100E-05    5.92527E+02
 1.76030E-05    6.38781E+02
 2.26030E-05    8.58924E+02
 2.92030E-05    2.00179E+03
 3.72670E-05    3.40881E+05
 4.78510E-05    3.92664E+03
 6.14420E-05    3.20370E+02
 7.88930E-05    9.38027E+01
 1.01300E-04    2.42608E+02
 1.30070E-04    4.60984E+03
 1.67020E-04    2.53538E+01
 2.14450E-04    6.08631E+02
 2.75360E-04    3.62992E+02
 3.53580E-04    7.22025E+03
 4.54000E-04    2.13170E+03
 5.82950E-04    3.65992E+03
 7.48520E-04    1.36043E+03
 9.61120E-04    2.49245E+03
 1.23410E-03    1.69477E+03
 1.58460E-03    1.78936E+03
 2.03470E-03    1.63926E+03
 2.24870E-03    1.57535E+03
 2.48520E-03    1.52326E+03
 2.61260E-03    1.48617E+03
 2.74650E-03    1.42690E+03
 3.03540E-03    1.36326E+03
 3.35460E-03    1.30787E+03
 3.70740E-03    1.23376E+03
 4.30740E-03    1.12997E+03
 5.53080E-03    1.00683E+03
 7.10170E-03    8.91176E+02
 9.11880E-03    7.88057E+02
 1.17090E-02    7.05372E+02
 1.50340E-02    6.03170E+02
 1.93050E-02    5.18446E+02
 2.18750E-02    4.89621E+02
 2.35790E-02    4.74855E+02
 2.41760E-02    4.67160E+02
 2.47880E-02    4.55233E+02
 2.60580E-02    4.41121E+02
 2.70000E-02    4.25629E+02
 2.85000E-02    3.97844E+02
 3.18280E-02    3.74681E+02
 3.43070E-02    3.42488E+02
 4.08680E-02    3.06935E+02
 4.63090E-02    2.79441E+02
 5.24750E-02    2.60044E+02
 5.65620E-02    2.36950E+02
 6.73790E-02    2.16534E+02
 7.20000E-02    2.04422E+02
 7.95000E-02    1.94601E+02
 8.25000E-02    1.89226E+02
 8.65170E-02    1.78313E+02
 9.80370E-02    1.66194E+02
 1.11090E-01    1.60916E+02
 1.16790E-01    1.57733E+02
 1.22770E-01    1.54388E+02
 1.29070E-01    1.50868E+02
 1.35690E-01    1.47171E+02
 1.42640E-01    1.43283E+02
 1.49960E-01    1.39196E+02
 1.57640E-01    1.34900E+02
 1.65730E-01    1.30383E+02
 1.74220E-01    1.25634E+02
 1.83160E-01    1.20640E+02
 1.92550E-01    1.15471E+02
 2.02420E-01    1.11918E+02
 2.12800E-01    1.08991E+02
 2.23710E-01    1.05913E+02
 2.35180E-01    1.02677E+02
 2.47240E-01    9.74876E+01
 2.73240E-01    9.19407E+01
 2.87250E-01    8.90017E+01
 2.94520E-01    8.76295E+01
 2.97200E-01    8.70816E+01
 2.98500E-01    8.65388E+01
 3.01970E-01    8.52045E+01
 3.33730E-01    8.27628E+01
 3.68830E-01    8.07731E+01
 3.87740E-01    7.94186E+01
 4.07620E-01    7.83473E+01
 4.50490E-01    7.70402E+01
 4.97870E-01    7.62796E+01
 5.23400E-01    7.62691E+01
 5.50230E-01    7.62608E+01
 5.78440E-01    7.62540E+01
 6.08100E-01    7.62853E+01
 6.39280E-01    7.63333E+01
 6.72060E-01    7.63550E+01
 7.06510E-01    7.52778E+01
 7.42740E-01    7.35769E+01
 7.80820E-01    7.15044E+01
 8.20850E-01    6.76870E+01
 8.62940E-01    6.34122E+01
 9.07180E-01    5.85181E+01
 9.61640E-01    5.37119E+01
 1.00260E+00    4.96451E+01
 1.10800E+00    4.62724E+01
 1.16480E+00    4.38674E+01
 1.22460E+00    4.13406E+01
 1.28730E+00    3.86841E+01
 1.35340E+00    3.58913E+01
 1.42270E+00    3.29562E+01
 1.49570E+00    3.05205E+01
 1.57240E+00    2.87882E+01
 1.65300E+00    2.69703E+01
 1.73770E+00    2.50589E+01
 1.82680E+00    2.30485E+01
 1.92050E+00    2.09582E+01
 2.01900E+00    1.96343E+01
 2.12250E+00    1.86898E+01
 2.23130E+00    1.78670E+01
 2.30690E+00    1.73565E+01
 2.34570E+00    1.70963E+01
 2.36530E+00    1.69205E+01
 2.38520E+00    1.64742E+01
 2.46600E+00    1.56789E+01
 2.59240E+00    1.49901E+01
 2.72530E+00    1.42841E+01
 2.86500E+00    1.35414E+01
 3.01190E+00    1.26424E+01
 3.16640E+00    1.16089E+01
 3.32870E+00    1.00415E+01
 3.67880E+00    8.30452E+00
 4.06570E+00    6.70209E+00
 4.49330E+00    5.59111E+00
 4.72370E+00    4.95172E+00
 4.96590E+00    4.33335E+00
 5.22050E+00    3.77390E+00
 5.48810E+00    3.26567E+00
 5.76950E+00    2.82883E+00
 6.06530E+00    2.45875E+00
 6.37630E+00    2.17638E+00
 6.59240E+00    2.03489E+00
 6.70320E+00    1.85641E+00
 7.04690E+00    1.73764E+00
 7.40820E+00    1.70018E+00
 7.78800E+00    1.63211E+00
 8.18730E+00    1.59320E+00
 8.60710E+00    1.41468E+00
 9.04840E+00    1.52172E+00
 9.51230E+00    1.55177E+00
 1.00000E+01    1.45894E+00
 1.05130E+01    1.54138E+00
 1.10520E+01    1.61259E+00
 1.16180E+01    1.67407E+00
 1.22140E+01    1.71012E+00
 1.28400E+01    1.72866E+00
 1.34990E+01    1.72331E+00
 1.38400E+01    1.71412E+00
 1.41910E+01    1.68075E+00
 1.45500E+01    1.65674E+00
 1.49180E+01    1.60234E+00
 1.56830E+01    1.49228E+00
 1.64870E+01    1.37412E+00
