# n + Mo 95 : (n,xh)    
# jendl4.0   K.Shibata, A.Ichihara, S.Kunieda+ EVAL-MAR09
# 
# # energies =    64
#   E(MeV)        xs(mb) 
 2.06287E-01    0.00000E+00
 3.00000E-01    0.00000E+00
 4.00000E-01    0.00000E+00
 5.00000E-01    0.00000E+00
 6.00000E-01    0.00000E+00
 7.00000E-01    0.00000E+00
 7.73936E-01    0.00000E+00
 7.94557E-01    0.00000E+00
 8.00000E-01    0.00000E+00
 8.29349E-01    0.00000E+00
 9.00000E-01    0.00000E+00
 9.57747E-01    0.00000E+00
 1.00000E+00    0.00000E+00
 1.05032E+00    0.00000E+00
 1.06799E+00    0.00000E+00
 1.08513E+00    0.00000E+00
 1.10361E+00    0.00000E+00
 1.31643E+00    0.00000E+00
 1.33807E+00    0.00000E+00
 1.38429E+00    0.00000E+00
 1.39063E+00    0.00000E+00
 1.44129E+00    0.00000E+00
 1.45581E+00    0.00000E+00
 1.50000E+00    0.00000E+00
 1.55717E+00    0.00000E+00
 1.56821E+00    0.00000E+00
 1.63744E+00    0.00000E+00
 1.66258E+00    0.00000E+00
 1.67794E+00    0.00000E+00
 1.68371E+00    0.00000E+00
 1.70089E+00    0.00000E+00
 1.71605E+00    0.00000E+00
 1.76179E+00    0.00000E+00
 1.81576E+00    0.00000E+00
 1.82746E+00    0.00000E+00
 1.83756E+00    0.00000E+00
 2.00000E+00    0.00000E+00
 2.50000E+00    0.00000E+00
 3.00000E+00    0.00000E+00
 3.50000E+00    0.00000E+00
 4.00000E+00    0.00000E+00
 4.50000E+00    0.00000E+00
 5.00000E+00    0.00000E+00
 5.50000E+00    0.00000E+00
 6.00000E+00    0.00000E+00
 6.50000E+00    0.00000E+00
 7.00000E+00    0.00000E+00
 7.50000E+00    0.00000E+00
 8.10000E+00    0.00000E+00
 8.50000E+00    0.00000E+00
 9.00000E+00    0.00000E+00
 9.50000E+00    0.00000E+00
 1.00000E+01    0.00000E+00
 1.10000E+01    0.00000E+00
 1.20000E+01    0.00000E+00
 1.30000E+01    5.96800E-09
 1.40000E+01    9.38400E-08
 1.45000E+01    6.05300E-05
 1.50000E+01    1.32100E-04
 1.60000E+01    2.88300E-04
 1.70000E+01    1.11900E-03
 1.80000E+01    3.66100E-03
 1.90000E+01    9.78200E-03
 2.00000E+01    2.19200E-02
