# n + Mo 95 : (n,n')    
# jendl4.0   K.Shibata, A.Ichihara, S.Kunieda+ EVAL-MAR09
# uncertainties: n
# # energies =    64
#   E(MeV)       xs(mb) 
 2.06287E-01    0.00000E+00
 3.00000E-01    4.63000E+02
 4.00000E-01    6.39300E+02
 5.00000E-01    6.79200E+02
 6.00000E-01    6.71900E+02
 7.00000E-01    6.51400E+02
 7.73936E-01    6.26484E+02
 7.94557E-01    6.87724E+02
 8.00000E-01    7.06180E+02
 8.29349E-01    7.66315E+02
 9.00000E-01    9.93750E+02
 9.57747E-01    1.07024E+03
 1.00000E+00    1.20279E+03
 1.05032E+00    1.18245E+03
 1.06799E+00    1.17706E+03
 1.08513E+00    1.17907E+03
 1.10361E+00    1.19073E+03
 1.31643E+00    1.37995E+03
 1.33807E+00    1.40187E+03
 1.38429E+00    1.46316E+03
 1.39063E+00    1.47356E+03
 1.44129E+00    1.59178E+03
 1.45581E+00    1.63321E+03
 1.50000E+00    1.78657E+03
 1.55717E+00    1.75288E+03
 1.56821E+00    1.74831E+03
 1.63744E+00    1.73468E+03
 1.66258E+00    1.73299E+03
 1.67794E+00    1.73562E+03
 1.68371E+00    1.73739E+03
 1.70089E+00    1.74682E+03
 1.71605E+00    1.75887E+03
 1.76179E+00    1.79805E+03
 1.81576E+00    1.85828E+03
 1.82746E+00    1.87384E+03
 1.83756E+00    1.88999E+03
 2.00000E+00    2.15272E+03
 2.50000E+00    2.18205E+03
 3.00000E+00    2.12635E+03
 3.50000E+00    2.05131E+03
 4.00000E+00    1.98417E+03
 4.50000E+00    1.94062E+03
 5.00000E+00    1.92030E+03
 5.50000E+00    1.91619E+03
 6.00000E+00    1.91883E+03
 6.50000E+00    1.92101E+03
 7.00000E+00    1.91998E+03
 7.50000E+00    1.91396E+03
 8.10000E+00    1.83001E+03
 8.50000E+00    1.73406E+03
 9.00000E+00    1.59011E+03
 9.50000E+00    1.41004E+03
 1.00000E+01    1.23311E+03
 1.10000E+01    9.20896E+02
 1.20000E+01    7.27549E+02
 1.30000E+01    6.16964E+02
 1.40000E+01    5.46728E+02
 1.45000E+01    5.21028E+02
 1.50000E+01    4.96838E+02
 1.60000E+01    4.58003E+02
 1.70000E+01    4.26361E+02
 1.80000E+01    3.99074E+02
 1.90000E+01    3.74826E+02
 2.00000E+01    3.52240E+02
