# n + I 127 : (n,d)     
# jendl.ad   K.Shibata (JAEA)                  EVAL-Sep14
# uncertainties: n
# # energies =    61
#   E(MeV)       xs(mb) 
 4.01463E+00    0.00000E+00
 4.68628E+00    3.36070E-13
 5.38685E+00    7.08940E-13
 5.44610E+00    7.40530E-13
 5.50000E+00    7.69280E-13
 5.80494E+00    3.40180E-10
 5.90292E+00    4.49230E-10
 6.00000E+00    5.57290E-10
 6.04380E+00    3.37910E-09
 6.07603E+00    5.45550E-09
 6.14500E+00    9.89890E-09
 6.15993E+00    1.08610E-08
 6.21348E+00    1.43110E-08
 6.21634E+00    1.44950E-08
 6.25046E+00    1.66930E-08
 6.34217E+00    2.26020E-08
 6.38411E+00    2.53040E-08
 6.41940E+00    2.75770E-08
 6.41957E+00    2.75880E-08
 6.43009E+00    2.82660E-08
 6.45502E+00    2.98720E-08
 6.50000E+00    3.27700E-08
 6.51407E+00    4.54670E-08
 6.53130E+00    6.10150E-08
 6.53808E+00    6.71340E-08
 6.54983E+00    7.77370E-08
 6.56862E+00    9.46930E-08
 6.61294E+00    1.34690E-07
 6.61362E+00    1.35300E-07
 6.62064E+00    1.41640E-07
 6.62410E+00    1.44760E-07
 6.67601E+00    1.91600E-07
 6.69721E+00    2.10730E-07
 6.71470E+00    2.26520E-07
 6.71797E+00    2.29470E-07
 6.72251E+00    2.33560E-07
 6.74061E+00    2.49900E-07
 6.76747E+00    2.74140E-07
 6.78064E+00    2.86020E-07
 6.80236E+00    3.05620E-07
 6.81947E+00    3.21060E-07
 6.83993E+00    3.39530E-07
 6.84857E+00    3.47320E-07
 7.00000E+00    4.83970E-07
 7.50000E+00    3.19624E-06
 8.00000E+00    1.34570E-05
 8.50000E+00    5.39743E-05
 9.00000E+00    2.75803E-04
 9.50000E+00    1.43779E-03
 1.00000E+01    6.16445E-03
 1.10000E+01    5.87242E-02
 1.20000E+01    2.77425E-01
 1.30000E+01    7.65531E-01
 1.40000E+01    1.63810E+00
 1.45000E+01    2.07381E+00
 1.50000E+01    2.64425E+00
 1.60000E+01    4.08386E+00
 1.70000E+01    5.40545E+00
 1.80000E+01    6.95212E+00
 1.90000E+01    8.44554E+00
 2.00000E+01    9.73162E+00
