# n + Ge  0 : (n,xa)
# jendl4.0   Iwamoto,Herman,Mughabghab+        EVAL-AUG04
#
# # energies =    80
#   E(MeV)          xs(mb) 
 1.34840E-02    3.11297E-04
 2.00000E-02    2.26748E-04
 5.00000E-02    1.30920E-04
 6.76226E-02    1.13322E-04
 6.97516E-02    1.11197E-04
 7.00000E-02    1.10949E-04
 1.00000E-01    7.66097E-05
 2.00000E-01    6.35983E-05
 3.00000E-01    7.41937E-05
 3.58491E-01    8.39710E-05
 3.69035E-01    8.57333E-05
 3.97929E-01    9.05631E-05
 4.00000E-01    9.09092E-05
 5.00000E-01    1.12820E-04
 5.06004E-01    1.14185E-04
 5.08335E-01    1.14715E-04
 5.58621E-01    1.26150E-04
 5.62575E-01    1.27049E-04
 6.00000E-01    1.35559E-04
 6.05866E-01    1.36952E-04
 6.68115E-01    1.51731E-04
 7.00000E-01    1.59300E-04
 7.51959E-01    1.78041E-04
 7.87747E-01    1.90949E-04
 8.00000E-01    1.95369E-04
 8.20190E-01    2.02257E-04
 8.31342E-01    2.06062E-04
 8.37222E-01    2.08069E-04
 8.80006E-01    2.22666E-04
 9.00000E-01    2.29488E-04
 9.06467E-01    2.31917E-04
 9.16504E-01    2.35686E-04
 9.28163E-01    2.40064E-04
 9.44587E-01    2.46232E-04
 1.00000E+00    2.67041E-04
 1.00744E+00    2.72343E-04
 1.04019E+00    2.95681E-04
 1.05337E+00    3.05073E-04
 1.05763E+00    3.47147E-03
 1.14614E+00    4.17405E-03
 1.14756E+00    4.18532E-03
 1.14766E+00    4.18612E-03
 1.14867E+00    4.19413E-03
 1.16895E+00    4.35512E-03
 1.20000E+00    4.60159E-03
 1.20849E+00    4.77601E-03
 1.28189E+00    6.28399E-03
 1.32913E+00    7.25452E-03
 1.33623E+00    7.40038E-03
 1.35843E+00    7.85647E-03
 1.40000E+00    8.71051E-03
 1.60000E+00    1.83191E-02
 1.80000E+00    3.42657E-02
 2.00000E+00    6.25300E-02
 2.20000E+00    1.11966E-01
 2.40000E+00    1.78738E-01
 2.60000E+00    2.84498E-01
 2.80000E+00    4.15836E-01
 3.00000E+00    6.34308E-01
 3.20000E+00    9.15955E-01
 3.50000E+00    1.42810E+00
 3.70000E+00    1.79380E+00
 4.00000E+00    2.37964E+00
 4.50000E+00    3.16744E+00
 5.00000E+00    4.25189E+00
 6.00000E+00    6.09186E+00
 7.00000E+00    8.28333E+00
 8.00000E+00    1.05823E+01
 9.00000E+00    1.23436E+01
 1.00000E+01    1.53538E+01
 1.10000E+01    2.61559E+01
 1.20000E+01    4.42630E+01
 1.30000E+01    4.74851E+01
 1.40000E+01    4.29932E+01
 1.50000E+01    3.91678E+01
 1.60000E+01    3.80952E+01
 1.70000E+01    3.96230E+01
 1.80000E+01    4.27127E+01
 1.90000E+01    4.58802E+01
 2.00000E+01    5.09413E+01
