# n + Ge  0 : (n,xn)
# jendl4.0   Iwamoto,Herman,Mughabghab+        EVAL-AUG04
#
# # energies =    80
#   E(MeV)          xs(mb) 
 1.34840E-02    0.00000E+00
 2.00000E-02    1.99536E+00
 5.00000E-02    5.19737E+00
 6.76226E-02    6.09832E+00
 6.97516E-02    6.21100E+00
 7.00000E-02    6.59546E+00
 1.00000E-01    2.11607E+01
 2.00000E-01    3.42583E+01
 3.00000E-01    3.97041E+01
 3.58491E-01    4.16104E+01
 3.69035E-01    4.23502E+01
 3.97929E-01    4.44794E+01
 4.00000E-01    4.46397E+01
 5.00000E-01    4.90451E+01
 5.06004E-01    4.89619E+01
 5.08335E-01    4.90785E+01
 5.58621E-01    5.24529E+01
 5.62575E-01    5.29843E+01
 6.00000E-01    7.27392E+01
 6.05866E-01    7.65843E+01
 6.68115E-01    1.73272E+02
 7.00000E-01    2.26927E+02
 7.51959E-01    2.89852E+02
 7.87747E-01    3.35001E+02
 8.00000E-01    3.50493E+02
 8.20190E-01    3.64917E+02
 8.31342E-01    3.72978E+02
 8.37222E-01    3.77277E+02
 8.80006E-01    4.54059E+02
 9.00000E-01    4.96868E+02
 9.06467E-01    5.03446E+02
 9.16504E-01    5.13667E+02
 9.28163E-01    5.25551E+02
 9.44587E-01    5.42403E+02
 1.00000E+00    5.99638E+02
 1.00744E+00    6.04083E+02
 1.04019E+00    6.23796E+02
 1.05337E+00    6.31744E+02
 1.05763E+00    6.36238E+02
 1.14614E+00    7.42592E+02
 1.14756E+00    7.44506E+02
 1.14766E+00    7.44641E+02
 1.14867E+00    7.46008E+02
 1.16895E+00    7.73771E+02
 1.20000E+00    8.16423E+02
 1.20849E+00    8.20001E+02
 1.28189E+00    8.86560E+02
 1.32913E+00    9.35303E+02
 1.33623E+00    9.42629E+02
 1.35843E+00    9.65556E+02
 1.40000E+00    1.00852E+03
 1.60000E+00    1.15906E+03
 1.80000E+00    1.28835E+03
 2.00000E+00    1.39602E+03
 2.20000E+00    1.48416E+03
 2.40000E+00    1.58227E+03
 2.60000E+00    1.66695E+03
 2.80000E+00    1.74945E+03
 3.00000E+00    1.80786E+03
 3.20000E+00    1.85654E+03
 3.50000E+00    1.90182E+03
 3.70000E+00    1.91797E+03
 4.00000E+00    1.92080E+03
 4.50000E+00    1.89152E+03
 5.00000E+00    1.83861E+03
 6.00000E+00    1.73526E+03
 7.00000E+00    1.65326E+03
 8.00000E+00    1.60447E+03
 9.00000E+00    1.59126E+03
 1.00000E+01    1.60547E+03
 1.10000E+01    1.71371E+03
 1.20000E+01    1.96927E+03
 1.30000E+01    2.23898E+03
 1.40000E+01    2.39604E+03
 1.50000E+01    2.46325E+03
 1.60000E+01    2.47614E+03
 1.70000E+01    2.46569E+03
 1.80000E+01    2.44736E+03
 1.90000E+01    2.43875E+03
 2.00000E+01    2.45912E+03
