# n + Ag  0 : (n,t)m
# jendl.ad   N.Iwamoto                         EVAL-Apr14
# uncertainties: n
# # energies =    24
#   E(MeV)          xs(mb) 
 7.51715E+00    0.00000E+00
 9.00000E+00    6.78360E-15
 9.50000E+00    8.24300E-12
 1.00000E+01    6.88530E-10
 1.05000E+01    1.27520E-08
 1.10000E+01    1.10290E-07
 1.15000E+01    6.62870E-07
 1.20000E+01    3.93869E-06
 1.25000E+01    2.32924E-05
 1.30000E+01    1.16322E-04
 1.35000E+01    4.61630E-04
 1.40000E+01    1.46944E-03
 1.45000E+01    3.84575E-03
 1.50000E+01    8.41511E-03
 1.55000E+01    1.63922E-02
 1.60000E+01    2.76973E-02
 1.65000E+01    4.44278E-02
 1.70000E+01    6.33141E-02
 1.75000E+01    8.86771E-02
 1.80000E+01    1.16122E-01
 1.85000E+01    1.47159E-01
 1.90000E+01    1.78603E-01
 1.95000E+01    2.11539E-01
 2.00000E+01    2.37963E-01
