# n + Ag  0 : (n,h)
# jendl.ad   N.Iwamoto                         EVAL-Apr14
# uncertainties: n
# # energies =    46
#   E(MeV)          xs(mb) 
 7.48597E+00    0.00000E+00
 7.61698E+00    1.90710E-21
 7.63651E+00    2.20260E-21
 7.88223E+00    5.92150E-21
 7.94614E+00    6.88870E-21
 7.95980E+00    7.09550E-21
 7.96444E+00    7.16570E-21
 7.99004E+00    7.55310E-21
 8.01492E+00    7.92970E-21
 8.09441E+00    9.13270E-21
 8.13070E+00    9.68190E-21
 8.21716E+00    1.09910E-20
 8.22715E+00    1.11420E-20
 8.25524E+00    1.15670E-20
 8.27636E+00    1.18860E-20
 8.27931E+00    1.19310E-20
 8.28841E+00    1.20690E-20
 8.29956E+00    1.22380E-20
 8.31068E+00    1.24060E-20
 8.32380E+00    1.26040E-20
 8.32750E+00    1.26600E-20
 8.33658E+00    1.27980E-20
 8.36014E+00    1.31540E-20
 8.36349E+00    1.32050E-20
 8.38884E+00    1.35890E-20
 1.00000E+01    3.79730E-20
 1.05000E+01    3.87210E-17
 1.10000E+01    6.31080E-15
 1.15000E+01    3.01650E-13
 1.20000E+01    6.10520E-12
 1.25000E+01    6.76590E-11
 1.30000E+01    5.07540E-10
 1.35000E+01    3.19570E-09
 1.40000E+01    1.92010E-08
 1.45000E+01    1.07110E-07
 1.50000E+01    5.15530E-07
 1.55000E+01    1.97346E-06
 1.60000E+01    6.66907E-06
 1.65000E+01    1.99681E-05
 1.70000E+01    5.36273E-05
 1.75000E+01    1.32057E-04
 1.80000E+01    2.80066E-04
 1.85000E+01    5.60481E-04
 1.90000E+01    1.06153E-03
 1.95000E+01    1.90470E-03
 2.00000E+01    3.14155E-03
