# n + Li  6 : (n,2na)   
# jeff3.3    G.M.Hale, P.G.Young               EVAL-APR06
# uncertainties: y
# # energies =    62
#   E(MeV)       xs(mb)       xslow(mb)      xsupp(mb)
 4.31800E+00    0.00000E+00    0.00000E+00    0.00000E+00
 4.35000E+00    2.00000E-01    1.40000E-01    2.60000E-01
 4.40000E+00    8.00000E-01    5.60000E-01    1.04000E+00
 4.45000E+00    1.40000E+00    9.80000E-01    1.82000E+00
 4.50000E+00    2.00000E+00    1.40000E+00    2.60000E+00
 4.55000E+00    2.50000E+00    1.75000E+00    3.25000E+00
 4.60000E+00    3.10000E+00    2.17000E+00    4.03000E+00
 4.65000E+00    3.65000E+00    2.55500E+00    4.74500E+00
 4.70000E+00    4.10000E+00    2.87000E+00    5.33000E+00
 4.75000E+00    4.60000E+00    3.22000E+00    5.98000E+00
 4.80000E+00    5.20000E+00    3.64000E+00    6.76000E+00
 4.85000E+00    5.70000E+00    3.99000E+00    7.41000E+00
 4.90000E+00    6.30000E+00    4.41000E+00    8.19000E+00
 5.00000E+00    7.30000E+00    5.11000E+00    9.49000E+00
 5.05000E+00    7.90000E+00    5.53000E+00    1.02700E+01
 5.10000E+00    8.40000E+00    5.88000E+00    1.09200E+01
 5.20000E+00    9.40000E+00    6.58000E+00    1.22200E+01
 5.30000E+00    1.05000E+01    7.35000E+00    1.36500E+01
 5.40000E+00    1.16000E+01    8.12000E+00    1.50800E+01
 5.50000E+00    1.26000E+01    8.82000E+00    1.63800E+01
 5.60000E+00    1.36000E+01    9.52000E+00    1.76800E+01
 5.80000E+00    1.57000E+01    1.09900E+01    2.04100E+01
 6.00000E+00    1.79000E+01    1.25300E+01    2.32700E+01
 6.20000E+00    2.00000E+01    1.40000E+01    2.60000E+01
 6.40000E+00    2.21000E+01    1.54700E+01    2.87300E+01
 6.60000E+00    2.42000E+01    1.69400E+01    3.14600E+01
 6.80000E+00    2.63000E+01    1.84100E+01    3.41900E+01
 7.00000E+00    2.83000E+01    1.98100E+01    3.67900E+01
 7.20000E+00    3.04000E+01    2.12800E+01    3.95200E+01
 7.40000E+00    3.24000E+01    2.26800E+01    4.21200E+01
 7.60000E+00    3.44000E+01    2.40800E+01    4.47200E+01
 8.00000E+00    3.83000E+01    2.68100E+01    4.97900E+01
 8.20000E+00    4.06000E+01    2.84200E+01    5.27800E+01
 8.40000E+00    4.22000E+01    2.95400E+01    5.48600E+01
 8.50000E+00    4.31000E+01    3.01700E+01    5.60300E+01
 8.60000E+00    4.40000E+01    3.08000E+01    5.72000E+01
 8.80000E+00    4.58000E+01    3.20600E+01    5.95400E+01
 9.00000E+00    4.76000E+01    3.33200E+01    6.18800E+01
 9.50000E+00    5.19000E+01    3.63300E+01    6.74700E+01
 1.00000E+01    5.61000E+01    3.92700E+01    7.29300E+01
 1.04000E+01    5.93000E+01    4.15100E+01    7.70900E+01
 1.05000E+01    6.01000E+01    4.20700E+01    7.81300E+01
 1.08000E+01    6.25000E+01    4.37500E+01    8.12500E+01
 1.10000E+01    6.40000E+01    4.48000E+01    8.32000E+01
 1.15000E+01    6.76000E+01    4.73200E+01    8.78800E+01
 1.20000E+01    7.10000E+01    4.97000E+01    9.23000E+01
 1.25000E+01    7.37000E+01    5.15900E+01    9.58100E+01
 1.30000E+01    7.60000E+01    5.32000E+01    9.88000E+01
 1.35000E+01    7.75000E+01    5.42500E+01    1.00750E+02
 1.40000E+01    7.82000E+01    5.47400E+01    1.01660E+02
 1.45000E+01    7.87000E+01    5.50900E+01    1.02310E+02
 1.50000E+01    7.87000E+01    5.50900E+01    1.02310E+02
 1.55000E+01    7.86000E+01    5.50200E+01    1.02180E+02
 1.60000E+01    7.84000E+01    5.48800E+01    1.01920E+02
 1.65000E+01    7.79000E+01    5.45300E+01    1.01270E+02
 1.70000E+01    7.74000E+01    5.41800E+01    1.00620E+02
 1.75000E+01    7.68000E+01    5.37600E+01    9.98400E+01
 1.80000E+01    7.63000E+01    5.34100E+01    9.91900E+01
 1.85000E+01    7.57000E+01    5.29900E+01    9.84100E+01
 1.90000E+01    7.51000E+01    5.25700E+01    9.76300E+01
 1.95000E+01    7.44000E+01    5.20800E+01    9.67200E+01
 2.00000E+01    7.36000E+01    5.15200E+01    9.56800E+01
