# n + Sn126 : (n,d)     
# jendl4.0   N.Iwamoto                         EVAL-Dec09
# uncertainties: n
# # energies =    57
#   E(MeV)       xs(mb) 
 1.06892E+01    0.00000E+00
 1.10522E+01    1.85070E-15
 1.14921E+01    4.49220E-12
 1.17247E+01    8.96850E-12
 1.17975E+01    1.03770E-11
 1.18717E+01    1.18130E-11
 1.19187E+01    1.27230E-11
 1.20000E+01    1.42970E-11
 1.22656E+01    2.74920E-11
 1.22795E+01    2.81840E-11
 1.22905E+01    2.87310E-11
 1.23561E+01    3.19930E-11
 1.25000E+01    3.91490E-11
 1.25141E+01    3.24810E-10
 1.26143E+01    2.35520E-09
 1.26632E+01    3.34600E-09
 1.26760E+01    3.60540E-09
 1.27704E+01    5.51830E-09
 1.28076E+01    6.27210E-09
 1.28536E+01    7.20420E-09
 1.29249E+01    8.64900E-09
 1.29557E+01    9.27310E-09
 1.29583E+01    9.32580E-09
 1.29599E+01    9.35820E-09
 1.29629E+01    9.41900E-09
 1.29978E+01    1.01260E-08
 1.30000E+01    1.01710E-08
 1.30575E+01    8.59640E-08
 1.30689E+01    1.00990E-07
 1.30791E+01    1.14440E-07
 1.30865E+01    1.24190E-07
 1.30896E+01    1.28280E-07
 1.31010E+01    1.43300E-07
 1.31201E+01    1.68480E-07
 1.31688E+01    2.32670E-07
 1.32067E+01    2.82630E-07
 1.32169E+01    2.96080E-07
 1.32826E+01    3.82680E-07
 1.32950E+01    3.99020E-07
 1.33265E+01    4.40550E-07
 1.33419E+01    4.60840E-07
 1.33507E+01    4.72440E-07
 1.33516E+01    4.73630E-07
 1.35000E+01    6.69240E-07
 1.40000E+01    1.68355E-05
 1.45000E+01    1.73899E-04
 1.50000E+01    7.79855E-04
 1.55000E+01    3.67717E-03
 1.60000E+01    1.29984E-02
 1.65000E+01    3.64439E-02
 1.70000E+01    8.46575E-02
 1.75000E+01    1.68242E-01
 1.80000E+01    2.95218E-01
 1.85000E+01    4.68613E-01
 1.90000E+01    6.88290E-01
 1.95000E+01    9.50351E-01
 2.00000E+01    1.25124E+00
