# n + Sn126 : (n,n'05)  
# jendl4.0   N.Iwamoto                         EVAL-Dec09
# uncertainties: n
# # energies =    56
#   E(MeV)       xs(mb) 
 2.17886E+00    0.00000E+00
 2.21180E+00    1.45728E+01
 2.23677E+00    2.14483E+01
 2.25000E+00    2.39627E+01
 2.27460E+00    2.76603E+01
 2.29509E+00    2.92590E+01
 2.31641E+00    3.05623E+01
 2.38945E+00    3.54766E+01
 2.49173E+00    4.17523E+01
 2.49736E+00    4.15405E+01
 2.50000E+00    4.15203E+01
 2.50817E+00    4.15712E+01
 2.57043E+00    4.32510E+01
 2.58504E+00    4.35556E+01
 2.65211E+00    4.49286E+01
 2.65776E+00    4.49899E+01
 2.68431E+00    4.56229E+01
 2.73379E+00    4.70831E+01
 2.74179E+00    4.69751E+01
 2.75000E+00    4.70078E+01
 2.76454E+00    4.71153E+01
 3.00000E+00    4.82069E+01
 3.50000E+00    4.02428E+01
 4.00000E+00    3.03537E+01
 4.50000E+00    2.11840E+01
 5.00000E+00    1.42139E+01
 5.50000E+00    9.47642E+00
 6.00000E+00    6.37929E+00
 6.50000E+00    4.33597E+00
 7.00000E+00    2.97051E+00
 7.50000E+00    2.06973E+00
 8.00000E+00    1.47937E+00
 8.50000E+00    1.10109E+00
 9.00000E+00    8.58743E-01
 9.50000E+00    7.02193E-01
 1.00000E+01    5.99156E-01
 1.05000E+01    5.29735E-01
 1.10000E+01    4.79894E-01
 1.15000E+01    4.42898E-01
 1.20000E+01    4.12994E-01
 1.25000E+01    3.87978E-01
 1.30000E+01    3.66426E-01
 1.35000E+01    3.46914E-01
 1.40000E+01    3.29530E-01
 1.45000E+01    3.13098E-01
 1.50000E+01    2.98067E-01
 1.55000E+01    2.83519E-01
 1.60000E+01    2.70060E-01
 1.65000E+01    2.57026E-01
 1.70000E+01    2.45040E-01
 1.75000E+01    2.33562E-01
 1.80000E+01    2.23062E-01
 1.85000E+01    2.13106E-01
 1.90000E+01    2.04029E-01
 1.95000E+01    1.95496E-01
 2.00000E+01    1.87749E-01
