# n + Sn126 : (n,el)    
# jendl4.0   N.Iwamoto                         EVAL-Dec09
# uncertainties: n
# # energies =    69
#   E(MeV)       xs(mb) 
 1.00000E-10    5.93980E+03
 5.00000E-09    4.87039E+03
 1.00000E-08    4.84027E+03
 1.50000E-08    4.82844E+03
 2.00000E-08    4.82197E+03
 2.50000E-08    4.81806E+03
 3.00000E-08    4.81536E+03
 3.50000E-08    4.81294E+03
 4.20000E-08    4.81105E+03
 5.00000E-08    4.80917E+03
 5.80000E-08    4.80816E+03
 6.70000E-08    4.80710E+03
 8.00000E-08    4.80561E+03
 1.00000E-07    4.80453E+03
 1.40000E-07    4.80339E+03
 1.80000E-07    4.80256E+03
 2.20000E-07    4.80238E+03
 2.50000E-07    4.80224E+03
 2.80000E-07    4.80213E+03
 3.00000E-07    4.80204E+03
 3.20000E-07    4.80193E+03
 3.50000E-07    4.80175E+03
 4.00000E-07    4.80142E+03
 5.00000E-07    4.80096E+03
 6.25000E-07    4.80084E+03
 7.80000E-07    4.80084E+03
 8.50000E-07    4.80084E+03
 9.10000E-07    4.80084E+03
 9.50000E-07    4.80084E+03
 9.72000E-07    4.80084E+03
 9.96000E-07    4.80084E+03
 1.02000E-06    4.80084E+03
 1.04500E-06    4.80084E+03
 1.07100E-06    4.80084E+03
 1.09700E-06    4.80084E+03
 1.12300E-06    4.80084E+03
 1.15000E-06    4.80084E+03
 1.30000E-06    4.80084E+03
 1.50000E-06    4.80084E+03
 2.10000E-06    4.80083E+03
 2.60000E-06    4.80083E+03
 3.30000E-06    4.80083E+03
 4.00000E-06    4.80082E+03
 9.87700E-06    4.80079E+03
 1.59680E-05    4.80076E+03
 2.77000E-05    4.80069E+03
 4.80520E-05    4.80059E+03
 7.55014E-05    4.80040E+03
 1.48728E-04    4.80004E+03
 3.67262E-04    4.80000E+03
 9.06898E-04    4.80000E+03
 1.42510E-03    4.80000E+03
 2.23945E-03    4.80000E+03
 3.51910E-03    4.80000E+03
 5.53000E-03    6.61256E+03
 9.11800E-03    7.38462E+03
 1.50300E-02    7.11621E+03
 2.47800E-02    6.96515E+03
 4.08500E-02    6.93896E+03
 6.73400E-02    6.99283E+03
 1.11000E-01    7.07173E+03
 1.83000E-01    7.15378E+03
 3.02000E-01    7.25156E+03
 5.00000E-01    7.30924E+03
 8.21000E-01    6.96871E+03
 1.35300E+00    5.55248E+03
 2.23100E+00    3.33994E+03
 3.67900E+00    2.14531E+03
 6.06500E+00    2.40122E+03
