# n + Sn126 : (n,n'13)  
# jendl4.0   N.Iwamoto                         EVAL-Dec09
# uncertainties: n
# # energies =    47
#   E(MeV)       xs(mb) 
 2.49736E+00    0.00000E+00
 2.50000E+00    2.14036E-01
 2.50817E+00    6.53889E-01
 2.57043E+00    4.56056E+00
 2.58504E+00    5.36768E+00
 2.65211E+00    8.24364E+00
 2.65776E+00    8.46425E+00
 2.68431E+00    9.49368E+00
 2.73379E+00    1.09981E+01
 2.74179E+00    1.11173E+01
 2.75000E+00    1.12850E+01
 2.76454E+00    1.15843E+01
 3.00000E+00    1.44329E+01
 3.50000E+00    1.48241E+01
 4.00000E+00    1.29253E+01
 4.50000E+00    9.94467E+00
 5.00000E+00    7.11677E+00
 5.50000E+00    4.97230E+00
 6.00000E+00    3.47730E+00
 6.50000E+00    2.43640E+00
 7.00000E+00    1.69303E+00
 7.50000E+00    1.16653E+00
 8.00000E+00    8.00859E-01
 8.50000E+00    5.58412E-01
 9.00000E+00    4.01084E-01
 9.50000E+00    3.00198E-01
 1.00000E+01    2.35627E-01
 1.05000E+01    1.94195E-01
 1.10000E+01    1.66851E-01
 1.15000E+01    1.48329E-01
 1.20000E+01    1.34892E-01
 1.25000E+01    1.24617E-01
 1.30000E+01    1.16443E-01
 1.35000E+01    1.09461E-01
 1.40000E+01    1.03568E-01
 1.45000E+01    9.82146E-02
 1.50000E+01    9.33922E-02
 1.55000E+01    8.88970E-02
 1.60000E+01    8.46645E-02
 1.65000E+01    8.06536E-02
 1.70000E+01    7.69108E-02
 1.75000E+01    7.33595E-02
 1.80000E+01    7.00881E-02
 1.85000E+01    6.70022E-02
 1.90000E+01    6.41735E-02
 1.95000E+01    6.15084E-02
 2.00000E+01    5.90923E-02
