# n + Sn126 : (n,xt)    
# jendl4.0   N.Iwamoto                         EVAL-Dec09
# 
# # energies =    92
#   E(MeV)        xs(mb) 
 1.05000E-01    0.00000E+00
 1.10000E-01    0.00000E+00
 1.20000E-01    0.00000E+00
 1.30000E-01    0.00000E+00
 1.40000E-01    0.00000E+00
 1.50000E-01    0.00000E+00
 1.60000E-01    0.00000E+00
 1.70000E-01    0.00000E+00
 1.80000E-01    0.00000E+00
 1.90000E-01    0.00000E+00
 2.00000E-01    0.00000E+00
 2.25000E-01    0.00000E+00
 2.50000E-01    0.00000E+00
 2.75000E-01    0.00000E+00
 3.00000E-01    0.00000E+00
 4.00000E-01    0.00000E+00
 5.00000E-01    0.00000E+00
 6.00000E-01    0.00000E+00
 7.00000E-01    0.00000E+00
 8.00000E-01    0.00000E+00
 9.00000E-01    0.00000E+00
 1.00000E+00    0.00000E+00
 1.10000E+00    0.00000E+00
 1.15029E+00    0.00000E+00
 1.20000E+00    0.00000E+00
 1.30000E+00    0.00000E+00
 1.40000E+00    0.00000E+00
 1.50000E+00    0.00000E+00
 1.60000E+00    0.00000E+00
 1.70000E+00    0.00000E+00
 1.80000E+00    0.00000E+00
 1.90000E+00    0.00000E+00
 2.00000E+00    0.00000E+00
 2.06616E+00    0.00000E+00
 2.12770E+00    0.00000E+00
 2.14715E+00    0.00000E+00
 2.17886E+00    0.00000E+00
 2.21180E+00    0.00000E+00
 2.23677E+00    0.00000E+00
 2.25000E+00    0.00000E+00
 2.27460E+00    0.00000E+00
 2.29509E+00    0.00000E+00
 2.31641E+00    0.00000E+00
 2.38945E+00    0.00000E+00
 2.49173E+00    0.00000E+00
 2.49736E+00    0.00000E+00
 2.50000E+00    0.00000E+00
 2.50817E+00    0.00000E+00
 2.57043E+00    0.00000E+00
 2.58504E+00    0.00000E+00
 2.65211E+00    0.00000E+00
 2.65776E+00    0.00000E+00
 2.68431E+00    0.00000E+00
 2.73379E+00    0.00000E+00
 2.74179E+00    0.00000E+00
 2.75000E+00    0.00000E+00
 2.76454E+00    0.00000E+00
 3.00000E+00    0.00000E+00
 3.50000E+00    0.00000E+00
 4.00000E+00    0.00000E+00
 4.50000E+00    0.00000E+00
 5.00000E+00    0.00000E+00
 5.50000E+00    0.00000E+00
 6.00000E+00    0.00000E+00
 6.50000E+00    0.00000E+00
 7.00000E+00    0.00000E+00
 7.50000E+00    0.00000E+00
 8.00000E+00    0.00000E+00
 8.50000E+00    0.00000E+00
 9.00000E+00    0.00000E+00
 9.50000E+00    0.00000E+00
 1.00000E+01    0.00000E+00
 1.05000E+01    0.00000E+00
 1.10000E+01    0.00000E+00
 1.15000E+01    0.00000E+00
 1.20000E+01    0.00000E+00
 1.25000E+01    1.60456E-17
 1.30000E+01    3.82548E-17
 1.35000E+01    6.04640E-17
 1.40000E+01    5.26390E-13
 1.45000E+01    1.79090E-10
 1.50000E+01    1.10090E-08
 1.55000E+01    2.42470E-07
 1.60000E+01    2.05237E-06
 1.65000E+01    1.55583E-05
 1.70000E+01    8.27567E-05
 1.75000E+01    3.32177E-04
 1.80000E+01    1.07443E-03
 1.85000E+01    2.86624E-03
 1.90000E+01    6.48246E-03
 1.95000E+01    1.26823E-02
 2.00000E+01    2.23324E-02
