# n + Ce140 : (n,tot)   
# endfb8.0   JNDC FPND W.G., Mughabghab        EVAL-JAN05
# uncertainties: n
# # energies =   171
#   E(MeV)       xs(mb) 
 1.00000E-11    1.20079E+04
 1.00000E-07    3.81009E+03
 4.13990E-07    3.73255E+03
 5.31580E-07    3.71512E+03
 6.82560E-07    3.69928E+03
 8.76420E-07    3.68471E+03
 1.12540E-06    3.67106E+03
 1.44500E-06    3.65940E+03
 1.85540E-06    3.64693E+03
 2.37240E-06    3.63161E+03
 3.05900E-06    3.61892E+03
 3.92790E-06    3.60442E+03
 5.04350E-06    3.58581E+03
 6.47600E-06    3.56562E+03
 8.31530E-06    3.54486E+03
 1.06770E-05    3.51822E+03
 1.37100E-05    3.48490E+03
 1.76030E-05    3.44975E+03
 2.26030E-05    3.40575E+03
 2.92030E-05    3.35461E+03
 3.72670E-05    3.29883E+03
 4.78510E-05    3.23429E+03
 6.14420E-05    3.16351E+03
 7.88930E-05    3.08851E+03
 1.01300E-04    3.01029E+03
 1.30070E-04    2.93115E+03
 1.67020E-04    2.85304E+03
 2.14450E-04    2.77846E+03
 2.75360E-04    2.70843E+03
 3.53580E-04    2.64382E+03
 4.54000E-04    2.58470E+03
 5.82950E-04    2.53045E+03
 7.48520E-04    2.47972E+03
 9.61120E-04    2.42993E+03
 1.23410E-03    2.37741E+03
 1.58460E-03    2.31194E+03
 2.03470E-03    2.24311E+03
 2.24870E-03    2.10914E+03
 2.48520E-03    9.40613E+03
 2.61260E-03    2.48233E+03
 2.74650E-03    2.31947E+03
 3.03540E-03    2.24513E+03
 3.35460E-03    2.19350E+03
 3.70740E-03    2.12640E+03
 4.30740E-03    1.99130E+03
 5.53080E-03    2.21321E+03
 7.10170E-03    1.28611E+03
 9.11880E-03    1.50312E+04
 1.17090E-02    5.02132E+03
 1.50340E-02    4.19693E+03
 1.93050E-02    2.31542E+04
 2.18750E-02    2.32023E+04
 2.35790E-02    6.97672E+03
 2.41760E-02    6.20268E+03
 2.47880E-02    1.66517E+04
 2.60580E-02    5.95867E+03
 2.70000E-02    9.15472E+03
 2.85000E-02    5.93936E+03
 3.18280E-02    4.14633E+03
 3.43070E-02    4.11604E+03
 4.08680E-02    9.04626E+03
 4.63090E-02    4.62116E+03
 5.24750E-02    6.32446E+03
 5.65620E-02    5.20226E+03
 6.73790E-02    4.01734E+03
 7.20000E-02    4.48996E+03
 7.95000E-02    3.72627E+03
 8.25000E-02    2.79092E+03
 8.65170E-02    6.26388E+03
 9.80370E-02    4.61953E+03
 1.11090E-01    3.33122E+03
 1.16790E-01    5.11165E+03
 1.22770E-01    3.29456E+03
 1.29070E-01    4.19210E+03
 1.35690E-01    4.42657E+03
 1.42640E-01    4.69759E+03
 1.49960E-01    4.60207E+03
 1.57640E-01    3.00060E+03
 1.65730E-01    4.65736E+03
 1.74220E-01    6.14624E+03
 1.83160E-01    4.29463E+03
 1.92550E-01    5.13509E+03
 2.02420E-01    5.13723E+03
 2.12800E-01    5.12097E+03
 2.23710E-01    5.10389E+03
 2.35180E-01    5.08592E+03
 2.47240E-01    5.07585E+03
 2.73240E-01    5.08192E+03
 2.87250E-01    5.08528E+03
 2.94520E-01    5.08685E+03
 2.97200E-01    5.08747E+03
 2.98500E-01    5.08966E+03
 3.01970E-01    5.13648E+03
 3.33730E-01    5.22800E+03
 3.68830E-01    5.30153E+03
 3.87740E-01    5.34673E+03
 4.07620E-01    5.41732E+03
 4.50490E-01    5.51955E+03
 4.97870E-01    5.61220E+03
 5.23400E-01    5.70391E+03
 5.50230E-01    5.80117E+03
 5.78440E-01    5.90331E+03
 6.08100E-01    6.00296E+03
 6.39280E-01    6.10313E+03
 6.72060E-01    6.20842E+03
 7.06510E-01    6.31911E+03
 7.42740E-01    6.43541E+03
 7.80820E-01    6.54740E+03
 8.20850E-01    6.65784E+03
 8.62940E-01    6.76988E+03
 9.07180E-01    6.88102E+03
 9.61640E-01    6.97849E+03
 1.00260E+00    7.08323E+03
 1.10800E+00    7.18038E+03
 1.16480E+00    7.24960E+03
 1.22460E+00    7.31182E+03
 1.28730E+00    7.33143E+03
 1.35340E+00    7.34674E+03
 1.42270E+00    7.36284E+03
 1.49570E+00    7.36167E+03
 1.57240E+00    7.33743E+03
 1.65300E+00    7.30152E+03
 1.73770E+00    7.25406E+03
 1.82680E+00    7.19074E+03
 1.92050E+00    7.12091E+03
 2.01900E+00    7.03360E+03
 2.12250E+00    6.93472E+03
 2.23130E+00    6.84627E+03
 2.30690E+00    6.78961E+03
 2.34570E+00    6.76073E+03
 2.36530E+00    6.74122E+03
 2.38520E+00    6.69170E+03
 2.46600E+00    6.58955E+03
 2.59240E+00    6.45780E+03
 2.72530E+00    6.31757E+03
 2.86500E+00    6.17014E+03
 3.01190E+00    6.01587E+03
 3.16640E+00    5.86136E+03
 3.32870E+00    5.61675E+03
 3.67880E+00    5.28949E+03
 4.06570E+00    4.98294E+03
 4.49330E+00    4.76598E+03
 4.72370E+00    4.62359E+03
 4.96590E+00    4.50923E+03
 5.22050E+00    4.43166E+03
 5.48810E+00    4.35125E+03
 5.76950E+00    4.27558E+03
 6.06530E+00    4.24963E+03
 6.37630E+00    4.24683E+03
 6.59240E+00    4.24508E+03
 6.70320E+00    4.24302E+03
 7.04690E+00    4.26357E+03
 7.40820E+00    4.29999E+03
 7.78800E+00    4.33830E+03
 8.18730E+00    4.38332E+03
 8.60710E+00    4.43432E+03
 9.04840E+00    4.48793E+03
 9.51230E+00    4.54429E+03
 1.00000E+01    4.60204E+03
 1.05130E+01    4.66005E+03
 1.10520E+01    4.71879E+03
 1.16180E+01    4.77676E+03
 1.22140E+01    4.81698E+03
 1.28400E+01    4.85232E+03
 1.34990E+01    4.87902E+03
 1.38400E+01    4.89424E+03
 1.41910E+01    4.89606E+03
 1.45500E+01    4.89598E+03
 1.49180E+01    4.88523E+03
 1.56830E+01    4.85118E+03
 1.64870E+01    4.78907E+03
