# n + Np237 : (n,g)     
# jendl.ad   O.Iwamoto,T.Nakagawa,S.Chiba,+    EVAL-JAN10
# uncertainties: n
# # energies =    69
#   E(MeV)       xs(mb) 
 1.00000E-10    1.31276E+06
 5.00000E-09    3.52286E+05
 1.00000E-08    2.63687E+05
 1.50000E-08    2.19108E+05
 2.00000E-08    1.90698E+05
 2.50000E-08    1.70505E+05
 3.00000E-08    1.55150E+05
 3.50000E-08    1.41002E+05
 4.20000E-08    1.27187E+05
 5.00000E-08    1.15698E+05
 5.80000E-08    1.06062E+05
 6.70000E-08    9.62867E+04
 8.00000E-08    8.53066E+04
 1.00000E-07    7.22830E+04
 1.40000E-07    6.15725E+04
 1.80000E-07    5.62923E+04
 2.20000E-07    5.49888E+04
 2.50000E-07    5.65677E+04
 2.80000E-07    6.01695E+04
 3.00000E-07    6.52433E+04
 3.20000E-07    7.58620E+04
 3.50000E-07    1.14181E+05
 4.00000E-07    9.04919E+05
 5.00000E-07    4.53846E+05
 6.25000E-07    3.62016E+04
 7.80000E-07    2.04089E+04
 8.50000E-07    1.83973E+04
 9.10000E-07    1.80832E+04
 9.50000E-07    1.83657E+04
 9.72000E-07    1.88335E+04
 9.96000E-07    1.95724E+04
 1.02000E-06    2.06407E+04
 1.04500E-06    2.21708E+04
 1.07100E-06    2.43081E+04
 1.09700E-06    2.72655E+04
 1.12300E-06    3.15428E+04
 1.15000E-06    1.30115E+05
 1.30000E-06    8.90652E+05
 1.50000E-06    1.45205E+05
 2.10000E-06    5.38811E+03
 2.60000E-06    3.37085E+03
 3.30000E-06    1.68902E+05
 4.00000E-06    8.19296E+04
 9.87700E-06    1.06975E+05
 1.59680E-05    1.12748E+05
 2.77000E-05    6.64913E+04
 4.80520E-05    7.92809E+04
 7.55014E-05    4.76358E+04
 1.48728E-04    3.23321E+04
 3.67262E-04    1.55230E+04
 9.06898E-04    9.75543E+03
 1.42510E-03    7.58140E+03
 2.23945E-03    5.92422E+03
 3.51910E-03    4.68276E+03
 5.53000E-03    3.72766E+03
 9.11800E-03    3.03662E+03
 1.50300E-02    2.54912E+03
 2.47800E-02    2.17916E+03
 4.08500E-02    1.79196E+03
 6.73400E-02    1.35035E+03
 1.11000E-01    9.22215E+02
 1.83000E-01    6.81694E+02
 3.02000E-01    4.42194E+02
 5.00000E-01    2.20628E+02
 8.21000E-01    1.15253E+02
 1.35300E+00    6.48511E+01
 2.23100E+00    2.21353E+01
 3.67900E+00    3.57348E+00
 6.06500E+00    1.22063E+00
