# n + Ag109 : (n,el)    
# jendl4.0   N.Iwamoto,K.Shibata               EVAL-Dec09
# uncertainties: n
# # energies =    69
#   E(MeV)       xs(mb) 
 1.00000E-10    3.18023E+03
 5.00000E-09    2.54370E+03
 1.00000E-08    2.52377E+03
 1.50000E-08    2.51491E+03
 2.00000E-08    2.50938E+03
 2.50000E-08    2.50521E+03
 3.00000E-08    2.50182E+03
 3.50000E-08    2.49839E+03
 4.20000E-08    2.49456E+03
 5.00000E-08    2.49076E+03
 5.80000E-08    2.48721E+03
 6.70000E-08    2.48264E+03
 8.00000E-08    2.47619E+03
 1.00000E-07    2.46525E+03
 1.40000E-07    2.45021E+03
 1.80000E-07    2.43533E+03
 2.20000E-07    2.42228E+03
 2.50000E-07    2.41119E+03
 2.80000E-07    2.40189E+03
 3.00000E-07    2.39450E+03
 3.20000E-07    2.38531E+03
 3.50000E-07    2.37041E+03
 4.00000E-07    2.34229E+03
 5.00000E-07    2.29876E+03
 6.25000E-07    2.24290E+03
 7.80000E-07    2.19551E+03
 8.50000E-07    2.16806E+03
 9.10000E-07    2.14658E+03
 9.50000E-07    2.13307E+03
 9.72000E-07    2.12308E+03
 9.96000E-07    2.11266E+03
 1.02000E-06    2.10193E+03
 1.04500E-06    2.09049E+03
 1.07100E-06    2.07880E+03
 1.09700E-06    2.06711E+03
 1.12300E-06    2.05520E+03
 1.15000E-06    2.01538E+03
 1.30000E-06    1.93337E+03
 1.50000E-06    1.74171E+03
 2.10000E-06    1.45693E+03
 2.60000E-06    1.23056E+03
 3.30000E-06    1.77407E+03
 4.00000E-06    1.41038E+05
 9.87700E-06    7.01683E+03
 1.59680E-05    5.25203E+03
 2.77000E-05    8.37857E+03
 4.80520E-05    1.27329E+04
 7.55014E-05    1.51461E+04
 1.48728E-04    1.14316E+04
 3.67262E-04    1.27691E+04
 9.06898E-04    9.64469E+03
 1.42510E-03    8.48621E+03
 2.23945E-03    7.78658E+03
 3.51910E-03    8.95441E+03
 5.53000E-03    7.90480E+03
 9.11800E-03    6.68868E+03
 1.50300E-02    6.67442E+03
 2.47800E-02    6.77044E+03
 4.08500E-02    6.97784E+03
 6.73400E-02    7.22794E+03
 1.11000E-01    7.40350E+03
 1.83000E-01    7.40484E+03
 3.02000E-01    6.79170E+03
 5.00000E-01    5.63656E+03
 8.21000E-01    4.39979E+03
 1.35300E+00    3.22857E+03
 2.23100E+00    2.15164E+03
 3.67900E+00    1.74457E+03
 6.06500E+00    2.19924E+03
