# n + Ag109 : (n,n'11)  
# jendl4.0   N.Iwamoto,K.Shibata               EVAL-Dec09
# uncertainties: n
# # energies =    60
#   E(MeV)       xs(mb) 
 7.80664E-01    0.00000E+00
 7.96308E-01    1.34410E-02
 8.00000E-01    1.71270E-02
 8.70751E-01    1.43143E-01
 8.77523E-01    1.60402E-01
 8.78058E-01    1.61773E-01
 8.98243E-01    2.16784E-01
 9.00000E-01    2.21457E-01
 9.19438E-01    2.78273E-01
 9.20548E-01    2.81205E-01
 9.39421E-01    3.36754E-01
 1.00000E+00    5.40277E-01
 1.10000E+00    9.68345E-01
 1.20000E+00    1.48788E+00
 1.30000E+00    2.05814E+00
 1.40000E+00    2.66228E+00
 1.50000E+00    3.28612E+00
 1.60000E+00    3.82112E+00
 1.70000E+00    4.31897E+00
 1.80000E+00    4.76086E+00
 1.90000E+00    5.13350E+00
 2.00000E+00    5.61397E+00
 2.25000E+00    5.88413E+00
 2.50000E+00    5.51993E+00
 2.75000E+00    5.02048E+00
 3.00000E+00    4.26899E+00
 3.50000E+00    2.91855E+00
 4.00000E+00    1.87287E+00
 4.50000E+00    1.16914E+00
 5.00000E+00    7.31310E-01
 5.50000E+00    4.71993E-01
 6.00000E+00    3.22485E-01
 6.50000E+00    2.36633E-01
 7.00000E+00    1.86537E-01
 7.50000E+00    1.56189E-01
 8.00000E+00    1.36651E-01
 8.50000E+00    1.23255E-01
 9.00000E+00    1.13550E-01
 9.50000E+00    1.06158E-01
 1.00000E+01    1.00215E-01
 1.05000E+01    9.51875E-02
 1.10000E+01    9.06601E-02
 1.15000E+01    8.64851E-02
 1.20000E+01    8.25740E-02
 1.25000E+01    7.88716E-02
 1.30000E+01    7.54228E-02
 1.35000E+01    7.21769E-02
 1.40000E+01    6.91788E-02
 1.45000E+01    6.62921E-02
 1.50000E+01    6.36180E-02
 1.55000E+01    6.09622E-02
 1.60000E+01    5.84747E-02
 1.65000E+01    5.59571E-02
 1.70000E+01    5.36464E-02
 1.75000E+01    5.13134E-02
 1.80000E+01    4.91491E-02
 1.85000E+01    4.70131E-02
 1.90000E+01    4.50466E-02
 1.95000E+01    4.31640E-02
 2.00000E+01    4.14389E-02
