# n + Ag109 : (n,n'10)  
# jendl4.0   N.Iwamoto,K.Shibata               EVAL-Dec09
# uncertainties: n
# # energies =    61
#   E(MeV)       xs(mb) 
 7.42100E-01    0.00000E+00
 7.80664E-01    2.93688E+01
 7.96308E-01    3.74196E+01
 8.00000E-01    3.91144E+01
 8.70751E-01    6.47327E+01
 8.77523E-01    6.62641E+01
 8.78058E-01    6.63464E+01
 8.98243E-01    6.97860E+01
 9.00000E-01    7.00749E+01
 9.19438E-01    7.31452E+01
 9.20548E-01    7.33037E+01
 9.39421E-01    7.58036E+01
 1.00000E+00    8.07428E+01
 1.10000E+00    8.53750E+01
 1.20000E+00    8.55762E+01
 1.30000E+00    8.25669E+01
 1.40000E+00    7.82535E+01
 1.50000E+00    7.35127E+01
 1.60000E+00    6.76446E+01
 1.70000E+00    6.21895E+01
 1.80000E+00    5.70708E+01
 1.90000E+00    5.24210E+01
 2.00000E+00    4.79773E+01
 2.25000E+00    3.78744E+01
 2.50000E+00    2.83917E+01
 2.75000E+00    2.15355E+01
 3.00000E+00    1.56698E+01
 3.50000E+00    8.29667E+00
 4.00000E+00    4.30738E+00
 4.50000E+00    2.23687E+00
 5.00000E+00    1.18528E+00
 5.50000E+00    6.56141E-01
 6.00000E+00    3.89849E-01
 6.50000E+00    2.54298E-01
 7.00000E+00    1.83734E-01
 7.50000E+00    1.45501E-01
 8.00000E+00    1.23326E-01
 8.50000E+00    1.09391E-01
 9.00000E+00    9.99302E-02
 9.50000E+00    9.30369E-02
 1.00000E+01    8.76474E-02
 1.05000E+01    8.31609E-02
 1.10000E+01    7.91539E-02
 1.15000E+01    7.54766E-02
 1.20000E+01    7.20387E-02
 1.25000E+01    6.87931E-02
 1.30000E+01    6.57724E-02
 1.35000E+01    6.29314E-02
 1.40000E+01    6.03123E-02
 1.45000E+01    5.77924E-02
 1.50000E+01    5.54569E-02
 1.55000E+01    5.31346E-02
 1.60000E+01    5.09644E-02
 1.65000E+01    4.87726E-02
 1.70000E+01    4.67436E-02
 1.75000E+01    4.46966E-02
 1.80000E+01    4.28090E-02
 1.85000E+01    4.09495E-02
 1.90000E+01    3.92364E-02
 1.95000E+01    3.75975E-02
 2.00000E+01    3.60877E-02
