# n + Ag109 : (n,p)     
# jendl4.0   N.Iwamoto,K.Shibata               EVAL-Dec09
# uncertainties: n
# # energies =    62
#   E(MeV)       xs(mb) 
 3.36822E-01    0.00000E+00
 4.51273E-01    8.65760E-11
 5.27563E-01    1.83220E-10
 5.84092E-01    2.58170E-10
 5.84173E-01    2.58290E-10
 6.05632E-01    2.94260E-10
 6.15671E-01    3.19360E-10
 6.26733E-01    3.51630E-10
 6.30956E-01    3.64600E-10
 6.65120E-01    4.92500E-10
 6.66719E-01    4.99040E-10
 6.79497E-01    5.54420E-10
 7.10249E-01    6.94270E-10
 7.22360E-01    7.57040E-10
 7.44564E-01    8.83580E-10
 7.66909E-01    1.01810E-09
 7.74400E-01    1.06410E-09
 1.40000E+00    5.05820E-09
 1.50000E+00    9.48440E-09
 1.60000E+00    2.91230E-08
 1.70000E+00    1.02130E-07
 1.80000E+00    3.48280E-07
 1.90000E+00    1.07152E-06
 2.00000E+00    2.96537E-06
 2.25000E+00    2.61114E-05
 2.50000E+00    1.51151E-04
 2.75000E+00    6.28429E-04
 3.00000E+00    2.10471E-03
 3.50000E+00    1.31849E-02
 4.00000E+00    4.46549E-02
 4.50000E+00    1.14827E-01
 5.00000E+00    2.28401E-01
 5.50000E+00    3.73306E-01
 6.00000E+00    5.23454E-01
 6.50000E+00    6.54576E-01
 7.00000E+00    7.64947E-01
 7.50000E+00    8.84008E-01
 8.00000E+00    1.05579E+00
 8.50000E+00    1.32523E+00
 9.00000E+00    1.73144E+00
 9.50000E+00    2.30404E+00
 1.00000E+01    3.06255E+00
 1.05000E+01    4.01531E+00
 1.10000E+01    5.15080E+00
 1.15000E+01    6.44530E+00
 1.20000E+01    7.85631E+00
 1.25000E+01    9.32699E+00
 1.30000E+01    1.07904E+01
 1.35000E+01    1.21979E+01
 1.40000E+01    1.35322E+01
 1.45000E+01    1.47594E+01
 1.50000E+01    1.59168E+01
 1.55000E+01    1.69667E+01
 1.60000E+01    1.79386E+01
 1.65000E+01    1.88306E+01
 1.70000E+01    1.96520E+01
 1.75000E+01    2.03410E+01
 1.80000E+01    2.09437E+01
 1.85000E+01    2.14973E+01
 1.90000E+01    2.19025E+01
 1.95000E+01    2.22586E+01
 2.00000E+01    2.24498E+01
