# n + Ag109 : (n,n'07)  
# jendl4.0   N.Iwamoto,K.Shibata               EVAL-Dec09
# uncertainties: n
# # energies =    64
#   E(MeV)       xs(mb) 
 7.12539E-01    0.00000E+00
 7.13548E-01    5.28782E+00
 7.31059E-01    2.87834E+01
 7.42100E-01    3.95479E+01
 7.80664E-01    6.65908E+01
 7.96308E-01    7.40821E+01
 8.00000E-01    7.56256E+01
 8.70751E-01    9.52563E+01
 8.77523E-01    9.63637E+01
 8.78058E-01    9.64491E+01
 8.98243E-01    9.89335E+01
 9.00000E-01    9.91187E+01
 9.19438E-01    1.00754E+02
 9.20548E-01    1.00809E+02
 9.39421E-01    1.01640E+02
 1.00000E+00    1.03483E+02
 1.10000E+00    1.01601E+02
 1.20000E+00    9.50046E+01
 1.30000E+00    8.61868E+01
 1.40000E+00    7.70439E+01
 1.50000E+00    6.84050E+01
 1.60000E+00    5.99916E+01
 1.70000E+00    5.26633E+01
 1.80000E+00    4.62320E+01
 1.90000E+00    4.07645E+01
 2.00000E+00    3.57198E+01
 2.25000E+00    2.60503E+01
 2.50000E+00    1.83204E+01
 2.75000E+00    1.31600E+01
 3.00000E+00    9.16461E+00
 3.50000E+00    4.50088E+00
 4.00000E+00    2.18384E+00
 4.50000E+00    1.05601E+00
 5.00000E+00    5.12862E-01
 5.50000E+00    2.52211E-01
 6.00000E+00    1.27069E-01
 6.50000E+00    6.68081E-02
 7.00000E+00    3.77513E-02
 7.50000E+00    2.36875E-02
 8.00000E+00    1.66999E-02
 8.50000E+00    1.30607E-02
 9.00000E+00    1.10400E-02
 9.50000E+00    9.82660E-03
 1.00000E+01    9.02676E-03
 1.05000E+01    8.44515E-03
 1.10000E+01    7.97428E-03
 1.15000E+01    7.56948E-03
 1.20000E+01    7.20541E-03
 1.25000E+01    6.87008E-03
 1.30000E+01    6.56210E-03
 1.35000E+01    6.27486E-03
 1.40000E+01    6.01143E-03
 1.45000E+01    5.75864E-03
 1.50000E+01    5.52469E-03
 1.55000E+01    5.29327E-03
 1.60000E+01    5.07669E-03
 1.65000E+01    4.85654E-03
 1.70000E+01    4.65369E-03
 1.75000E+01    4.44998E-03
 1.80000E+01    4.26191E-03
 1.85000E+01    4.07688E-03
 1.90000E+01    3.90591E-03
 1.95000E+01    3.74173E-03
 2.00000E+01    3.59129E-03
