# n + Ag109 : (n,tot)   
# jendl4.0   N.Iwamoto,K.Shibata               EVAL-Dec09
# uncertainties: n
# # energies =   171
#   E(MeV)       xs(mb) 
 1.00000E-11    9.71144E+05
 1.00000E-07    3.72798E+04
 4.13990E-07    2.73707E+04
 5.31580E-07    2.56638E+04
 6.82560E-07    2.44590E+04
 8.76420E-07    2.38430E+04
 1.12540E-06    2.40151E+04
 1.44500E-06    2.54211E+04
 1.85540E-06    2.91590E+04
 2.37240E-06    3.90237E+04
 3.05900E-06    7.45005E+04
 3.92790E-06    9.21588E+05
 5.04350E-06    4.76497E+06
 6.47600E-06    5.26326E+04
 8.31530E-06    1.66982E+04
 1.06770E-05    9.63824E+03
 1.37100E-05    7.21111E+03
 1.76030E-05    6.09958E+03
 2.26030E-05    6.13965E+03
 2.92030E-05    1.02646E+05
 3.72670E-05    5.03733E+04
 4.78510E-05    3.38753E+04
 6.14420E-05    6.74255E+04
 7.88930E-05    1.46251E+04
 1.01300E-04    4.74591E+03
 1.30070E-04    7.10748E+04
 1.67020E-04    3.18235E+04
 2.14450E-04    7.88518E+03
 2.75360E-04    3.24040E+04
 3.53580E-04    1.68020E+04
 4.54000E-04    3.41269E+04
 5.82950E-04    1.19518E+04
 7.48520E-04    1.33212E+04
 9.61120E-04    1.36252E+04
 1.23410E-03    1.30558E+04
 1.58460E-03    1.13364E+04
 2.03470E-03    1.12179E+04
 2.24870E-03    9.79885E+03
 2.48520E-03    1.25883E+04
 2.61260E-03    9.47627E+03
 2.74650E-03    9.76925E+03
 3.03540E-03    1.16112E+04
 3.35460E-03    9.93579E+03
 3.70740E-03    1.05203E+04
 4.30740E-03    1.06134E+04
 5.53080E-03    1.05666E+04
 7.10170E-03    8.19570E+03
 9.11880E-03    7.97849E+03
 1.17090E-02    7.85449E+03
 1.50340E-02    7.74060E+03
 1.93050E-02    7.66299E+03
 2.18750E-02    7.63853E+03
 2.35790E-02    7.62712E+03
 2.41760E-02    7.62119E+03
 2.47880E-02    7.61205E+03
 2.60580E-02    7.60220E+03
 2.70000E-02    7.59200E+03
 2.85000E-02    7.57635E+03
 3.18280E-02    7.57515E+03
 3.43070E-02    7.57816E+03
 4.08680E-02    7.58174E+03
 4.63090E-02    7.58644E+03
 5.24750E-02    7.60292E+03
 5.65620E-02    7.62881E+03
 6.73790E-02    7.65429E+03
 7.20000E-02    7.67218E+03
 7.95000E-02    7.68753E+03
 8.25000E-02    7.69710E+03
 8.65170E-02    7.71709E+03
 9.80370E-02    7.74372E+03
 1.11090E-01    7.75919E+03
 1.16790E-01    7.76812E+03
 1.22770E-01    7.77695E+03
 1.29070E-01    7.78276E+03
 1.35690E-01    7.78326E+03
 1.42640E-01    7.78371E+03
 1.49960E-01    7.78419E+03
 1.57640E-01    7.78468E+03
 1.65730E-01    7.78521E+03
 1.74220E-01    7.78576E+03
 1.83160E-01    7.78634E+03
 1.92550E-01    7.78655E+03
 2.02420E-01    7.77728E+03
 2.12800E-01    7.76346E+03
 2.23710E-01    7.74894E+03
 2.35180E-01    7.73366E+03
 2.47240E-01    7.70917E+03
 2.73240E-01    7.68299E+03
 2.87250E-01    7.66912E+03
 2.94520E-01    7.66265E+03
 2.97200E-01    7.66006E+03
 2.98500E-01    7.65697E+03
 3.01970E-01    7.63343E+03
 3.33730E-01    7.58341E+03
 3.68830E-01    7.54202E+03
 3.87740E-01    7.51254E+03
 4.07620E-01    7.46525E+03
 4.50490E-01    7.39670E+03
 4.97870E-01    7.34084E+03
 5.23400E-01    7.30104E+03
 5.50230E-01    7.25921E+03
 5.78440E-01    7.21523E+03
 6.08100E-01    7.16896E+03
 6.39280E-01    7.11814E+03
 6.72060E-01    7.06332E+03
 7.06510E-01    7.00568E+03
 7.42740E-01    6.94508E+03
 7.80820E-01    6.88139E+03
 8.20850E-01    6.81442E+03
 8.62940E-01    6.74402E+03
 9.07180E-01    6.66365E+03
 9.61640E-01    6.58562E+03
 1.00260E+00    6.46745E+03
 1.10800E+00    6.33668E+03
 1.16480E+00    6.25131E+03
 1.22460E+00    6.16200E+03
 1.28730E+00    6.06810E+03
 1.35340E+00    5.97059E+03
 1.42270E+00    5.87541E+03
 1.49570E+00    5.77661E+03
 1.57240E+00    5.67450E+03
 1.65300E+00    5.56780E+03
 1.73770E+00    5.46224E+03
 1.82680E+00    5.36225E+03
 1.92050E+00    5.25758E+03
 2.01900E+00    5.14979E+03
 2.12250E+00    5.03698E+03
 2.23130E+00    4.94205E+03
 2.30690E+00    4.88972E+03
 2.34570E+00    4.86323E+03
 2.36530E+00    4.84533E+03
 2.38520E+00    4.79991E+03
 2.46600E+00    4.70897E+03
 2.59240E+00    4.60595E+03
 2.72530E+00    4.50063E+03
 2.86500E+00    4.40144E+03
 3.01190E+00    4.31106E+03
 3.16640E+00    4.23106E+03
 3.32870E+00    4.11609E+03
 3.67880E+00    4.00829E+03
 4.06570E+00    3.94791E+03
 4.49330E+00    3.93348E+03
 4.72370E+00    3.94465E+03
 4.96590E+00    3.96142E+03
 5.22050E+00    3.99279E+03
 5.48810E+00    4.02665E+03
 5.76950E+00    4.06455E+03
 6.06530E+00    4.10526E+03
 6.37630E+00    4.14071E+03
 6.59240E+00    4.16271E+03
 6.70320E+00    4.19294E+03
 7.04690E+00    4.23393E+03
 7.40820E+00    4.27317E+03
 7.78800E+00    4.31442E+03
 8.18730E+00    4.35505E+03
 8.60710E+00    4.39123E+03
 9.04840E+00    4.42899E+03
 9.51230E+00    4.46404E+03
 1.00000E+01    4.48911E+03
 1.05130E+01    4.50848E+03
 1.10520E+01    4.51643E+03
 1.16180E+01    4.51503E+03
 1.22140E+01    4.49912E+03
 1.28400E+01    4.47385E+03
 1.34990E+01    4.44555E+03
 1.38400E+01    4.42518E+03
 1.41910E+01    4.39796E+03
 1.45500E+01    4.36992E+03
 1.49180E+01    4.32057E+03
 1.56830E+01    4.24359E+03
 1.64870E+01    4.15400E+03
