# p + Hg204 : (p,el)    
# endfb8.0   S.CHIBA,M.CHADWICK,P.YOUNG        EVAL-FEB98
# uncertainties: n
# # energies =    81
#   E(MeV)       xs(mb) 
 1.00000E+00   -1.48119E+04
 2.00000E+00   -3.71867E+03
 3.00000E+00   -1.65908E+03
 4.00000E+00   -9.32399E+02
 5.00000E+00   -6.02248E+02
 6.00000E+00   -4.01516E+02
 7.00000E+00   -3.24838E+02
 8.00000E+00   -1.90806E+02
 9.00000E+00   -1.65952E+02
 1.00000E+01   -2.33678E+02
 1.10000E+01   -1.63424E+02
 1.20000E+01   -6.69458E+01
 1.30000E+01   -1.82078E+02
 1.40000E+01   -3.50499E+02
 1.50000E+01   -3.44910E+02
 1.60000E+01   -2.02025E+02
 1.70000E+01   -9.29753E+01
 1.80000E+01   -1.24444E+02
 1.90000E+01   -2.76851E+02
 2.00000E+01   -4.36180E+02
 2.10000E+01   -5.07721E+02
 2.20000E+01   -5.54598E+02
 2.30000E+01   -5.08584E+02
 2.40000E+01   -3.82683E+02
 2.50000E+01   -2.29255E+02
 2.60000E+01   -7.10832E+01
 2.70000E+01    4.92174E+01
 2.80000E+01    1.35986E+02
 2.90000E+01    1.65780E+02
 3.00000E+01    1.57392E+02
 3.10000E+01    1.05006E+02
 3.20000E+01    2.49484E+01
 3.30000E+01   -7.32946E+01
 3.40000E+01   -1.79921E+02
 3.50000E+01   -2.85517E+02
 3.60000E+01   -3.84498E+02
 3.70000E+01   -4.71018E+02
 3.80000E+01   -5.42294E+02
 3.90000E+01   -5.98069E+02
 4.00000E+01   -6.37952E+02
 4.10000E+01   -6.61654E+02
 4.20000E+01   -6.70703E+02
 4.30000E+01   -6.66265E+02
 4.40000E+01   -6.49226E+02
 4.50000E+01   -6.22666E+02
 4.60000E+01   -5.88467E+02
 4.70000E+01   -5.47327E+02
 4.80000E+01   -5.02356E+02
 4.90000E+01   -4.53087E+02
 5.00000E+01   -4.02384E+02
 5.10000E+01   -3.51268E+02
 5.20000E+01   -3.00042E+02
 5.30000E+01   -2.50186E+02
 5.40000E+01   -2.02326E+02
 5.50000E+01   -1.55832E+02
 5.60000E+01   -1.13490E+02
 5.70000E+01   -7.31052E+01
 5.80000E+01   -3.65164E+01
 5.90000E+01   -3.61705E+00
 6.00000E+01    2.63319E+01
 6.10000E+01    5.29627E+01
 6.20000E+01    7.55196E+01
 6.30000E+01    9.47109E+01
 6.40000E+01    1.10661E+02
 6.50000E+01    1.22925E+02
 6.60000E+01    1.32357E+02
 6.70000E+01    1.39016E+02
 6.80000E+01    1.42550E+02
 6.90000E+01    1.44088E+02
 7.00000E+01    1.42557E+02
 7.10000E+01    1.39820E+02
 7.20000E+01    1.34067E+02
 7.30000E+01    1.26617E+02
 7.40000E+01    1.17328E+02
 7.50000E+01    1.06281E+02
 7.60000E+01    9.42184E+01
 7.70000E+01    8.10265E+01
 7.80000E+01    6.64648E+01
 7.90000E+01    5.03157E+01
 8.00000E+01    3.40809E+01
 8.10000E+01    1.65866E+01
