# n + U 234 : (n,n'16)  
# jendl4.0   O.Iwamoto, T.Nakagawa, et al.     EVAL-JAN10
# uncertainties: y
# # energies =    63
#   E(MeV)       xs(mb)       xslow(mb)      xsupp(mb)
 1.02821E+00    0.00000E+00    0.00000E+00    0.00000E+00
 1.02824E+00    2.62870E-08    9.69990E-09    4.28741E-08
 1.04903E+00    2.51515E-05    9.28090E-06    4.10221E-05
 1.07391E+00    5.86325E-05    2.16354E-05    9.56296E-05
 1.08998E+00    8.13299E-05    3.00107E-05    1.32649E-04
 1.09560E+00    9.01371E-05    3.32606E-05    1.47014E-04
 1.10000E+00    9.75294E-05    3.59884E-05    1.59070E-04
 1.10062E+00    9.86026E-05    3.63844E-05    1.60821E-04
 1.13012E+00    1.49373E-04    5.51186E-05    2.43627E-04
 1.13154E+00    1.49587E-04    5.51976E-05    2.43976E-04
 1.13246E+00    1.50568E-04    5.55596E-05    2.45576E-04
 1.15496E+00    1.75611E-04    6.48005E-05    2.86422E-04
 1.17022E+00    1.92764E-04    7.11299E-05    3.14398E-04
 1.17715E+00    2.00642E-04    7.40369E-05    3.27247E-04
 1.17926E+00    2.03105E-04    7.49458E-05    3.31264E-04
 1.19988E+00    2.31924E-04    8.55800E-05    3.78268E-04
 1.20000E+00    2.31382E-04    8.53800E-05    3.77384E-04
 1.30000E+00    3.72542E-04    1.37468E-04    6.07616E-04
 1.40000E+00    4.54553E-04    1.67730E-04    7.41376E-04
 1.50000E+00    5.46668E-04    2.08281E-04    8.85056E-04
 1.60000E+00    6.27013E-04    2.38892E-04    1.01513E-03
 1.70000E+00    6.97194E-04    2.65631E-04    1.12876E-03
 1.80000E+00    7.59388E-04    2.89327E-04    1.22945E-03
 1.90000E+00    8.13216E-04    3.09835E-04    1.31660E-03
 2.00000E+00    8.59820E-04    4.99555E-04    1.22008E-03
 2.30000E+00    9.79132E-04    5.68876E-04    1.38939E-03
 2.50000E+00    1.04504E-03    6.67781E-04    1.42230E-03
 2.70000E+00    1.37483E-03    8.78516E-04    1.87114E-03
 3.00000E+00    1.67162E-03    1.32225E-03    2.02099E-03
 3.50000E+00    2.01175E-03    1.70798E-03    2.31552E-03
 4.00000E+00    2.26763E-03    2.00685E-03    2.52841E-03
 4.50000E+00    2.43766E-03    2.15733E-03    2.71799E-03
 5.00000E+00    2.54696E-03    2.35696E-03    2.73696E-03
 5.50000E+00    2.59460E-03    2.40104E-03    2.78816E-03
 6.00000E+00    2.63738E-03    2.49813E-03    2.77663E-03
 6.50000E+00    2.65569E-03    2.51547E-03    2.79591E-03
 7.00000E+00    2.65768E-03    2.54579E-03    2.76957E-03
 7.50000E+00    2.62902E-03    2.51834E-03    2.73970E-03
 8.00000E+00    2.58220E-03    2.48563E-03    2.67877E-03
 8.50000E+00    2.51822E-03    2.42404E-03    2.61240E-03
 9.00000E+00    2.44699E-03    2.36379E-03    2.53019E-03
 9.50000E+00    2.36495E-03    2.28454E-03    2.44536E-03
 1.00000E+01    2.27499E-03    2.20378E-03    2.34620E-03
 1.05000E+01    2.17238E-03    2.10438E-03    2.24038E-03
 1.10000E+01    2.06888E-03    2.00412E-03    2.13364E-03
 1.15000E+01    1.96038E-03    1.89902E-03    2.02174E-03
 1.20000E+01    1.84800E-03    1.79441E-03    1.90159E-03
 1.25000E+01    1.73632E-03    1.68597E-03    1.78667E-03
 1.30000E+01    1.62900E-03    1.58176E-03    1.67624E-03
 1.35000E+01    1.52753E-03    1.48323E-03    1.57183E-03
 1.40000E+01    1.42881E-03    1.38723E-03    1.47039E-03
 1.45000E+01    1.33445E-03    1.29562E-03    1.37328E-03
 1.50000E+01    1.24572E-03    1.20885E-03    1.28259E-03
 1.55000E+01    1.16351E-03    1.12907E-03    1.19795E-03
 1.60000E+01    1.08758E-03    1.05474E-03    1.12042E-03
 1.65000E+01    1.01765E-03    9.86917E-04    1.04838E-03
 1.70000E+01    9.54236E-04    9.25418E-04    9.83054E-04
 1.75000E+01    8.97607E-04    8.70499E-04    9.24715E-04
 1.80000E+01    8.47178E-04    8.20661E-04    8.73695E-04
 1.85000E+01    8.02680E-04    7.77556E-04    8.27804E-04
 1.90000E+01    7.63281E-04    7.39390E-04    7.87172E-04
 1.95000E+01    7.28562E-04    7.05758E-04    7.51366E-04
 2.00000E+01    6.97461E-04    6.75630E-04    7.19292E-04
