# n + U 234 : (n,el)    
# jendl4.0   O.Iwamoto, T.Nakagawa, et al.     EVAL-JAN10
# uncertainties: y
# # energies =    69
#   E(MeV)       xs(mb)       xslow(mb)      xsupp(mb)
 1.00000E-10    2.04880E+04    2.04880E+04    2.04880E+04
 5.00000E-09    1.81406E+04    1.81406E+04    1.81406E+04
 1.00000E-08    1.80164E+04    1.80164E+04    1.80164E+04
 1.50000E-08    1.79307E+04    1.79307E+04    1.79307E+04
 2.00000E-08    1.78566E+04    1.78566E+04    1.78566E+04
 2.50000E-08    1.77891E+04    1.77891E+04    1.77891E+04
 3.00000E-08    1.77250E+04    1.77250E+04    1.77250E+04
 3.50000E-08    1.76501E+04    1.76501E+04    1.76501E+04
 4.20000E-08    1.75609E+04    1.75609E+04    1.75609E+04
 5.00000E-08    1.74663E+04    1.74663E+04    1.74663E+04
 5.80000E-08    1.73705E+04    1.73705E+04    1.73705E+04
 6.70000E-08    1.72493E+04    1.72493E+04    1.72493E+04
 8.00000E-08    1.70754E+04    1.70754E+04    1.70754E+04
 1.00000E-07    1.67796E+04    1.67796E+04    1.67796E+04
 1.40000E-07    1.63997E+04    1.63997E+04    1.63997E+04
 1.80000E-07    1.60502E+04    1.60502E+04    1.60502E+04
 2.20000E-07    1.57634E+04    1.57634E+04    1.57634E+04
 2.50000E-07    1.55340E+04    1.55340E+04    1.55340E+04
 2.80000E-07    1.53506E+04    1.53506E+04    1.53506E+04
 3.00000E-07    1.52109E+04    1.52109E+04    1.52109E+04
 3.20000E-07    1.50431E+04    1.50431E+04    1.50431E+04
 3.50000E-07    1.47898E+04    1.47898E+04    1.47898E+04
 4.00000E-07    1.43600E+04    1.43600E+04    1.43600E+04
 5.00000E-07    1.37854E+04    1.37854E+04    1.37854E+04
 6.25000E-07    1.31776E+04    1.31776E+04    1.31776E+04
 7.80000E-07    1.27417E+04    1.27417E+04    1.27417E+04
 8.50000E-07    1.25185E+04    1.25185E+04    1.25185E+04
 9.10000E-07    1.23558E+04    1.23558E+04    1.23558E+04
 9.50000E-07    1.22593E+04    1.22593E+04    1.22593E+04
 9.72000E-07    1.21891E+04    1.21891E+04    1.21891E+04
 9.96000E-07    1.21178E+04    1.21178E+04    1.21178E+04
 1.02000E-06    1.20470E+04    1.20470E+04    1.20470E+04
 1.04500E-06    1.19735E+04    1.19735E+04    1.19735E+04
 1.07100E-06    1.19018E+04    1.19018E+04    1.19018E+04
 1.09700E-06    1.18314E+04    1.18314E+04    1.18314E+04
 1.12300E-06    1.17597E+04    1.17597E+04    1.17597E+04
 1.15000E-06    1.15379E+04    1.15379E+04    1.15379E+04
 1.30000E-06    1.11292E+04    1.11292E+04    1.11292E+04
 1.50000E-06    1.03496E+04    1.03496E+04    1.03496E+04
 2.10000E-06    9.32488E+03    9.32488E+03    9.32488E+03
 2.60000E-06    8.20200E+03    8.20200E+03    8.20200E+03
 3.30000E-06    6.40600E+03    6.40600E+03    6.40600E+03
 4.00000E-06    6.54241E+04    6.54241E+04    6.54241E+04
 9.87700E-06    1.12369E+04    1.12369E+04    1.12369E+04
 1.59680E-05    9.83847E+03    9.83847E+03    9.83847E+03
 2.77000E-05    1.58234E+04    1.58234E+04    1.58234E+04
 4.80520E-05    1.44677E+04    1.44677E+04    1.44677E+04
 7.55014E-05    2.97140E+04    2.97140E+04    2.97140E+04
 1.48728E-04    2.60605E+04    2.60605E+04    2.60605E+04
 3.67262E-04    1.82740E+04    1.82740E+04    1.82740E+04
 9.06898E-04    1.78969E+04    1.78969E+04    1.78969E+04
 1.42510E-03    1.85095E+04    1.85095E+04    1.85095E+04
 2.23945E-03    1.71206E+04    1.30116E+04    2.12295E+04
 3.51910E-03    1.60997E+04    1.22358E+04    1.99636E+04
 5.53000E-03    1.51742E+04    1.17752E+04    1.85732E+04
 9.11800E-03    1.44062E+04    1.13233E+04    1.74891E+04
 1.50300E-02    1.37768E+04    1.08975E+04    1.66562E+04
 2.47800E-02    1.32239E+04    1.07775E+04    1.56703E+04
 4.08500E-02    1.26428E+04    1.07464E+04    1.45392E+04
 6.73400E-02    1.17835E+04    1.02635E+04    1.33036E+04
 1.11000E-01    1.06620E+04    9.59686E+03    1.17271E+04
 1.83000E-01    9.31798E+03    8.38711E+03    1.02488E+04
 3.02000E-01    7.61929E+03    7.41204E+03    7.82653E+03
 5.00000E-01    5.64029E+03    5.47898E+03    5.80160E+03
 8.21000E-01    4.09752E+03    3.92625E+03    4.26880E+03
 1.35300E+00    3.48993E+03    3.20446E+03    3.77541E+03
 2.23100E+00    4.11268E+03    3.62739E+03    4.59798E+03
 3.67900E+00    4.11045E+03    3.91192E+03    4.30899E+03
 6.06500E+00    2.97350E+03    2.67020E+03    3.27680E+03
