# n + Rb 87 : (n,n'10)  
# jeff3.3    A.J. Koning and D. Rochman        EVAL-DEC15
# uncertainties: n
# # energies =    81
#   E(MeV)       xs(mb) 
 1.97263E+00    0.00000E+00
 2.00000E+00    1.25978E+01
 2.03636E+00    2.68899E+01
 2.20000E+00    9.12120E+01
 2.31051E+00    1.16924E+02
 2.40000E+00    1.37745E+02
 2.40599E+00    1.37995E+02
 2.41572E+00    1.38400E+02
 2.42482E+00    1.38779E+02
 2.44246E+00    1.39515E+02
 2.50120E+00    1.41962E+02
 2.55936E+00    1.44386E+02
 2.58446E+00    1.45432E+02
 2.60000E+00    1.46080E+02
 2.76270E+00    1.41180E+02
 2.80000E+00    1.40057E+02
 2.84388E+00    1.38572E+02
 2.99498E+00    1.33457E+02
 3.00000E+00    1.33287E+02
 3.00852E+00    1.32954E+02
 3.03684E+00    1.31849E+02
 3.09061E+00    1.29750E+02
 3.09551E+00    1.29558E+02
 3.13497E+00    1.28018E+02
 3.20000E+00    1.25479E+02
 3.34689E+00    1.20536E+02
 3.37674E+00    1.19532E+02
 3.39495E+00    1.18919E+02
 3.40000E+00    1.18749E+02
 3.60000E+00    1.07521E+02
 3.80000E+00    9.04659E+01
 4.00000E+00    7.32993E+01
 4.20000E+00    5.85122E+01
 4.40000E+00    4.64260E+01
 4.60000E+00    3.67113E+01
 4.80000E+00    2.89515E+01
 5.00000E+00    2.27883E+01
 5.20000E+00    1.79083E+01
 5.40000E+00    1.40737E+01
 5.60000E+00    1.10790E+01
 5.80000E+00    8.73298E+00
 6.00000E+00    6.90773E+00
 6.20000E+00    5.48591E+00
 6.40000E+00    4.37730E+00
 6.60000E+00    3.50987E+00
 6.80000E+00    2.83038E+00
 7.00000E+00    2.29501E+00
 7.20000E+00    1.86831E+00
 7.40000E+00    1.52950E+00
 7.60000E+00    1.26031E+00
 7.80000E+00    1.04451E+00
 8.00000E+00    8.72480E-01
 8.50000E+00    5.68912E-01
 9.00000E+00    3.86401E-01
 9.50000E+00    2.74305E-01
 1.00000E+01    2.04415E-01
 1.05000E+01    1.60250E-01
 1.10000E+01    1.31960E-01
 1.15000E+01    1.13713E-01
 1.20000E+01    1.01906E-01
 1.25000E+01    9.42189E-02
 1.30000E+01    8.91742E-02
 1.35000E+01    8.58330E-02
 1.40000E+01    8.35872E-02
 1.45000E+01    8.20544E-02
 1.50000E+01    8.09886E-02
 1.60000E+01    7.97002E-02
 1.70000E+01    7.90499E-02
 1.80000E+01    7.87411E-02
 1.90000E+01    7.86006E-02
 2.00000E+01    7.85012E-02
 2.10000E+01    7.83456E-02
 2.20000E+01    7.80703E-02
 2.30000E+01    7.76440E-02
 2.40000E+01    7.70656E-02
 2.50000E+01    7.63550E-02
 2.60000E+01    7.55422E-02
 2.70000E+01    7.46568E-02
 2.80000E+01    7.37217E-02
 2.90000E+01    7.27506E-02
 3.00000E+01    7.17499E-02
