# n + Sm146 : (n,tot)   
# endfb8.0      G. Nobre, D. Brown, M. Herman  EVAL-Jul17
# uncertainties: n
# # energies =   171
#   E(MeV)       xs(mb) 
 1.00000E-11    7.95078E+02
 1.00000E-07    2.64767E+01
 4.13990E-07    1.70862E+01
 5.31580E-07    1.50795E+01
 6.82560E-07    1.33082E+01
 8.76420E-07    1.17426E+01
 1.12540E-06    1.03639E+01
 1.44500E-06    9.14620E+00
 1.85540E-06    8.07960E+00
 2.37240E-06    7.13012E+00
 3.05900E-06    6.28602E+00
 3.92790E-06    5.54745E+00
 5.04350E-06    4.89533E+00
 6.47600E-06    4.32004E+00
 8.31530E-06    3.81273E+00
 1.06770E-05    3.36472E+00
 1.37100E-05    2.96895E+00
 1.76030E-05    2.62052E+00
 2.26030E-05    2.30909E+00
 2.92030E-05    2.03753E+00
 3.72670E-05    1.80085E+00
 4.78510E-05    1.58937E+00
 6.14420E-05    1.40260E+00
 7.88930E-05    1.23776E+00
 1.01300E-04    1.09230E+00
 1.30070E-04    9.63998E-01
 1.67020E-04    8.50708E-01
 2.14450E-04    7.50704E-01
 2.75360E-04    6.62549E-01
 3.53580E-04    5.84716E-01
 4.54000E-04    5.15959E-01
 5.82950E-04    4.55355E-01
 7.48520E-04    4.01883E-01
 9.61120E-04    7.19495E+04
 1.23410E-03    7.82260E+04
 1.58460E-03    6.82080E+04
 2.03470E-03    6.21050E+04
 2.24870E-03    6.04207E+04
 2.48520E-03    5.90483E+04
 2.61260E-03    5.80708E+04
 2.74650E-03    5.65026E+04
 3.03540E-03    5.42291E+04
 3.35460E-03    5.17167E+04
 3.70740E-03    4.81856E+04
 4.30740E-03    4.19687E+04
 5.53080E-03    3.68451E+04
 7.10170E-03    3.27696E+04
 9.11880E-03    2.91703E+04
 1.17090E-02    2.66097E+04
 1.50340E-02    2.35292E+04
 1.93050E-02    2.10668E+04
 2.18750E-02    2.04810E+04
 2.35790E-02    2.01957E+04
 2.41760E-02    2.00470E+04
 2.47880E-02    1.98166E+04
 2.60580E-02    1.95440E+04
 2.70000E-02    1.92447E+04
 2.85000E-02    1.86568E+04
 3.18280E-02    1.79390E+04
 3.43070E-02    1.68471E+04
 4.08680E-02    1.53617E+04
 4.63090E-02    1.40056E+04
 5.24750E-02    1.33228E+04
 5.65620E-02    1.25929E+04
 6.73790E-02    1.18271E+04
 7.20000E-02    1.14407E+04
 7.95000E-02    1.11277E+04
 8.25000E-02    1.09211E+04
 8.65170E-02    1.04687E+04
 9.80370E-02    9.90148E+03
 1.11090E-01    9.66094E+03
 1.16790E-01    9.51621E+03
 1.22770E-01    9.36405E+03
 1.29070E-01    9.20395E+03
 1.35690E-01    9.03581E+03
 1.42640E-01    8.85899E+03
 1.49960E-01    8.67312E+03
 1.57640E-01    8.47771E+03
 1.65730E-01    8.27227E+03
 1.74220E-01    8.05629E+03
 1.83160E-01    7.82916E+03
 1.92550E-01    7.59531E+03
 2.02420E-01    7.46467E+03
 2.12800E-01    7.37679E+03
 2.23710E-01    7.28440E+03
 2.35180E-01    7.18727E+03
 2.47240E-01    7.03150E+03
 2.73240E-01    6.86500E+03
 2.87250E-01    6.77678E+03
 2.94520E-01    6.73559E+03
 2.97200E-01    6.71915E+03
 2.98500E-01    6.70247E+03
 3.01970E-01    6.65084E+03
 3.33730E-01    6.55482E+03
 3.68830E-01    6.47657E+03
 3.87740E-01    6.42398E+03
 4.07620E-01    6.39440E+03
 4.50490E-01    6.36374E+03
 4.97870E-01    6.34860E+03
 5.23400E-01    6.35498E+03
 5.50230E-01    6.36178E+03
 5.78440E-01    6.36893E+03
 6.08100E-01    6.37644E+03
 6.39280E-01    6.38434E+03
 6.72060E-01    6.39010E+03
 7.06510E-01    6.29444E+03
 7.42740E-01    6.21916E+03
 7.80820E-01    6.33830E+03
 8.20850E-01    6.46825E+03
 8.62940E-01    6.52844E+03
 9.07180E-01    6.56824E+03
 9.61640E-01    6.60686E+03
 1.00260E+00    6.64523E+03
 1.10800E+00    6.68095E+03
 1.16480E+00    6.70643E+03
 1.22460E+00    6.73319E+03
 1.28730E+00    6.73669E+03
 1.35340E+00    6.70078E+03
 1.42270E+00    6.74158E+03
 1.49570E+00    6.74346E+03
 1.57240E+00    6.67356E+03
 1.65300E+00    6.66481E+03
 1.73770E+00    6.73894E+03
 1.82680E+00    6.73542E+03
 1.92050E+00    6.70131E+03
 2.01900E+00    6.61076E+03
 2.12250E+00    6.52828E+03
 2.23130E+00    6.53425E+03
 2.30690E+00    6.47368E+03
 2.34570E+00    6.44611E+03
 2.36530E+00    6.43011E+03
 2.38520E+00    6.40349E+03
 2.46600E+00    6.36375E+03
 2.59240E+00    6.23787E+03
 2.72530E+00    6.23548E+03
 2.86500E+00    6.14235E+03
 3.01190E+00    6.03845E+03
 3.16640E+00    5.92713E+03
 3.32870E+00    5.74759E+03
 3.67880E+00    5.49313E+03
 4.06570E+00    5.23021E+03
 4.49330E+00    5.03505E+03
 4.72370E+00    4.91008E+03
 4.96590E+00    4.79526E+03
 5.22050E+00    4.68820E+03
 5.48810E+00    4.59090E+03
 5.76950E+00    4.50778E+03
 6.06530E+00    4.45065E+03
 6.37630E+00    4.41256E+03
 6.59240E+00    4.38894E+03
 6.70320E+00    4.35675E+03
 7.04690E+00    4.33387E+03
 7.40820E+00    4.32687E+03
 7.78800E+00    4.31597E+03
 8.18730E+00    4.28501E+03
 8.60710E+00    4.33236E+03
 9.04840E+00    4.38397E+03
 9.51230E+00    4.42010E+03
 1.00000E+01    4.46244E+03
 1.05130E+01    4.51138E+03
 1.10520E+01    4.56415E+03
 1.16180E+01    4.62029E+03
 1.22140E+01    4.67558E+03
 1.28400E+01    4.72916E+03
 1.34990E+01    4.76481E+03
 1.38400E+01    4.78785E+03
 1.41910E+01    4.80492E+03
 1.45500E+01    4.82146E+03
 1.49180E+01    4.83894E+03
 1.56830E+01    4.84958E+03
 1.64870E+01    4.84290E+03
