# n + Sm146 : (n,any)   
# endfb8.0      G. Nobre, D. Brown, M. Herman  EVAL-Jul17
# uncertainties: n
# # energies =    78
#   E(MeV)       xs(mb) 
 1.00000E-11    4.50110E-09
 2.00000E-11    3.18280E-09
 4.00000E-11    2.25060E-09
 8.00000E-11    1.59140E-09
 1.60000E-10    1.12530E-09
 3.20000E-10    7.95690E-10
 6.40000E-10    5.62640E-10
 1.28000E-09    3.97840E-10
 2.56000E-09    2.81320E-10
 5.12000E-09    1.98920E-10
 1.02400E-08    1.40660E-10
 2.04800E-08    9.94610E-11
 2.53000E-08    8.94870E-11
 5.06000E-08    6.32770E-11
 1.01200E-07    4.47430E-11
 2.02400E-07    3.16380E-11
 4.04800E-07    2.23720E-11
 8.09600E-07    1.58190E-11
 1.61920E-06    1.11860E-11
 3.23840E-06    7.90960E-12
 6.47680E-06    5.59290E-12
 1.29536E-05    3.95480E-12
 2.59072E-05    2.79650E-12
 5.18144E-05    1.97740E-12
 1.03629E-04    1.39820E-12
 2.07258E-04    9.88700E-13
 4.14515E-04    6.99110E-13
 8.29030E-04    4.94350E-13
 1.00000E-03    4.50110E-13
 2.00000E-03    3.00730E-13
 5.00000E-03    3.79120E-08
 7.00000E-03    1.22320E-13
 1.00000E-02    9.59520E-14
 2.00000E-02    7.84570E-14
 5.00000E-02    3.32650E-08
 7.00000E-02    5.87150E-14
 1.00000E-01    6.48610E-09
 2.00000E-01    6.96130E-14
 3.00000E-01    7.66870E-14
 4.00000E-01    2.95020E-08
 5.00000E-01    1.09320E-13
 7.00000E-01    5.41800E-08
 8.50000E-01    2.90900E-08
 1.00000E+00    3.43040E-09
 1.30000E+00    1.58630E-12
 1.50000E+00    2.07470E-12
 1.80000E+00    6.95740E-12
 2.00000E+00    1.45760E-11
 2.25000E+00    2.39210E-11
 2.50000E+00    9.08520E-08
 2.75000E+00    6.04280E-07
 3.00000E+00    1.71622E-04
 3.20000E+00    6.48273E-04
 3.40000E+00    5.18922E-03
 3.60000E+00    1.83074E-02
 3.80000E+00    4.92118E-02
 4.00000E+00    5.84383E-02
 4.20000E+00    1.40792E-01
 4.40000E+00    1.30853E-01
 4.60000E+00    2.16211E-01
 4.80000E+00    3.91933E-01
 5.00000E+00    4.74189E-01
 5.50000E+00    9.38453E-01
 6.00000E+00    1.98454E+00
 7.00000E+00    4.12355E+00
 8.00000E+00    8.07775E+00
 9.00000E+00    1.24976E+01
 1.00000E+01    2.45698E+01
 1.10000E+01    1.70199E+01
 1.20000E+01    3.26183E+01
 1.30000E+01    1.46800E+01
 1.40000E+01    1.33730E+01
 1.50000E+01    1.42928E+01
 1.60000E+01    2.02950E+01
 1.70000E+01    5.25360E+01
 1.80000E+01    1.12243E+02
 1.90000E+01    2.12287E+02
 2.00000E+01    3.68089E+02
