# n + U 234 : (n,tot)   
# jendl.ad   O.Iwamoto, T.Nakagawa, et al.     EVAL-JAN10
# uncertainties: n
# # energies =    69
#   E(MeV)       xs(mb) 
 1.00000E-10    7.32487E+05
 5.00000E-09    1.97147E+05
 1.00000E-08    1.47916E+05
 1.50000E-08    1.23159E+05
 2.00000E-08    1.07379E+05
 2.50000E-08    9.61489E+04
 3.00000E-08    8.76195E+04
 3.50000E-08    7.97295E+04
 4.20000E-08    7.19819E+04
 5.00000E-08    6.54834E+04
 5.80000E-08    5.99899E+04
 6.70000E-08    5.43758E+04
 8.00000E-08    4.79089E+04
 1.00000E-07    3.98078E+04
 1.40000E-07    3.22965E+04
 1.80000E-07    2.72019E+04
 2.20000E-07    2.38448E+04
 2.50000E-07    2.15743E+04
 2.80000E-07    1.99592E+04
 3.00000E-07    1.88283E+04
 3.20000E-07    1.75822E+04
 3.50000E-07    1.58869E+04
 4.00000E-07    1.34444E+04
 5.00000E-07    1.08113E+04
 6.25000E-07    8.65953E+03
 7.80000E-07    7.41192E+03
 8.50000E-07    6.86929E+03
 9.10000E-07    6.50941E+03
 9.50000E-07    6.30669E+03
 9.72000E-07    6.16912E+03
 9.96000E-07    6.03166E+03
 1.02000E-06    5.90265E+03
 1.04500E-06    5.77018E+03
 1.07100E-06    5.64866E+03
 1.09700E-06    5.53039E+03
 1.12300E-06    5.41929E+03
 1.15000E-06    5.10441E+03
 1.30000E-06    4.63185E+03
 1.50000E-06    4.15884E+03
 2.10000E-06    4.24175E+03
 2.60000E-06    5.44605E+03
 3.30000E-06    9.96437E+03
 4.00000E-06    5.64887E+05
 9.87700E-06    3.17770E+02
 1.59680E-05    2.88526E+03
 2.77000E-05    4.32195E+04
 4.80520E-05    2.53136E+04
 7.55014E-05    3.08033E+04
 1.48728E-04    1.65255E+04
 3.67262E-04    6.04583E+03
 9.06898E-04    3.65610E+03
 1.42510E-03    2.81512E+03
 2.23945E-03    2.07008E+03
 3.51910E-03    1.62848E+03
 5.53000E-03    1.32215E+03
 9.11800E-03    1.09241E+03
 1.50300E-02    9.09615E+02
 2.47800E-02    7.63529E+02
 4.08500E-02    5.84695E+02
 6.73400E-02    4.14637E+02
 1.11000E-01    3.26226E+02
 1.83000E-01    3.13598E+02
 3.02000E-01    5.05013E+02
 5.00000E-01    1.09487E+03
 8.21000E-01    1.35830E+03
 1.35300E+00    1.59193E+03
 2.23100E+00    1.54803E+03
 3.67900E+00    1.39400E+03
 6.06500E+00    2.14501E+03
