# n + U 234 : (n,g)     
# jendl.ad   O.Iwamoto, T.Nakagawa, et al.     EVAL-JAN10
# uncertainties: n
# # energies =    69
#   E(MeV)       xs(mb) 
 1.00000E-10    7.31735E+05
 5.00000E-09    1.97008E+05
 1.00000E-08    1.47812E+05
 1.50000E-08    1.23077E+05
 2.00000E-08    1.07308E+05
 2.50000E-08    9.60805E+04
 3.00000E-08    8.75596E+04
 3.50000E-08    7.96767E+04
 4.20000E-08    7.19308E+04
 5.00000E-08    6.54370E+04
 5.80000E-08    5.99490E+04
 6.70000E-08    5.43397E+04
 8.00000E-08    4.78774E+04
 1.00000E-07    3.97795E+04
 1.40000E-07    3.22747E+04
 1.80000E-07    2.71840E+04
 2.20000E-07    2.38281E+04
 2.50000E-07    2.15585E+04
 2.80000E-07    1.99451E+04
 3.00000E-07    1.88150E+04
 3.20000E-07    1.75694E+04
 3.50000E-07    1.58754E+04
 4.00000E-07    1.34344E+04
 5.00000E-07    1.08022E+04
 6.25000E-07    8.64962E+03
 7.80000E-07    7.40331E+03
 8.50000E-07    6.86177E+03
 9.10000E-07    6.50171E+03
 9.50000E-07    6.30052E+03
 9.72000E-07    6.16165E+03
 9.96000E-07    6.02505E+03
 1.02000E-06    5.89346E+03
 1.04500E-06    5.76449E+03
 1.07100E-06    5.64064E+03
 1.09700E-06    5.52429E+03
 1.12300E-06    5.41318E+03
 1.15000E-06    5.09903E+03
 1.30000E-06    4.62808E+03
 1.50000E-06    4.15621E+03
 2.10000E-06    4.23837E+03
 2.60000E-06    5.44212E+03
 3.30000E-06    9.95753E+03
 4.00000E-06    5.64449E+05
 9.87700E-06    3.17543E+02
 1.59680E-05    2.88476E+03
 2.77000E-05    4.32003E+04
 4.80520E-05    2.53121E+04
 7.55014E-05    3.07187E+04
 1.48728E-04    1.64892E+04
 3.67262E-04    5.87770E+03
 9.06898E-04    3.64576E+03
 1.42510E-03    2.80935E+03
 2.23945E-03    2.05975E+03
 3.51910E-03    1.61730E+03
 5.53000E-03    1.30357E+03
 9.11800E-03    1.07617E+03
 1.50300E-02    8.97990E+02
 2.47800E-02    7.42658E+02
 4.08500E-02    5.69908E+02
 6.73400E-02    3.92757E+02
 1.11000E-01    2.85744E+02
 1.83000E-01    2.37743E+02
 3.02000E-01    1.96054E+02
 5.00000E-01    1.76456E+02
 8.21000E-01    1.43086E+02
 1.35300E+00    9.35179E+01
 2.23100E+00    3.70613E+01
 3.67900E+00    5.25469E+00
 6.06500E+00    1.02991E+00
