# n + Br 79 : (n,el)    
# endfb8.0   JNDC FP Nuclear Data W.G.         EVAL-MAR90
# uncertainties: n
# # energies =   171
#   E(MeV)       xs(mb) 
 1.00000E-11    6.17325E+03
 1.00000E-07    3.26665E+03
 4.13990E-07    3.25832E+03
 5.31580E-07    3.25472E+03
 6.82560E-07    3.25009E+03
 8.76420E-07    3.24414E+03
 1.12540E-06    3.23650E+03
 1.44500E-06    3.22683E+03
 1.85540E-06    3.21462E+03
 2.37240E-06    3.19881E+03
 3.05900E-06    3.17834E+03
 3.92790E-06    3.15225E+03
 5.04350E-06    3.11873E+03
 6.47600E-06    3.07571E+03
 8.31530E-06    3.02038E+03
 1.06770E-05    2.94152E+03
 1.37100E-05    2.82803E+03
 1.76030E-05    2.64182E+03
 2.26030E-05    2.24873E+03
 2.92030E-05    4.37807E+04
 3.72670E-05    6.45014E+03
 4.78510E-05    9.63443E+03
 6.14420E-05    3.93297E+03
 7.88930E-05    3.42791E+03
 1.01300E-04    3.10055E+03
 1.30070E-04    2.67255E+03
 1.67020E-04    5.70270E+03
 2.14450E-04    6.55046E+04
 2.75360E-04    4.18567E+04
 3.53580E-04    6.19664E+03
 4.54000E-04    1.42968E+04
 5.82950E-04    1.38180E+04
 7.48520E-04    1.53678E+04
 9.61120E-04    1.60635E+04
 1.23410E-03    1.70188E+04
 1.58460E-03    2.50600E+04
 2.03470E-03    1.90857E+04
 2.24870E-03    9.99622E+03
 2.48520E-03    3.46136E+04
 2.61260E-03    8.66160E+03
 2.74650E-03    9.86086E+03
 3.03540E-03    1.98006E+04
 3.35460E-03    6.95733E+03
 3.70740E-03    1.38187E+04
 4.30740E-03    1.06541E+04
 5.53080E-03    9.01396E+03
 7.10170E-03    8.81351E+03
 9.11880E-03    8.63379E+03
 1.17090E-02    8.47577E+03
 1.50340E-02    8.33819E+03
 1.93050E-02    8.24788E+03
 2.18750E-02    8.20307E+03
 2.35790E-02    8.18177E+03
 2.41760E-02    8.17080E+03
 2.47880E-02    8.15532E+03
 2.60580E-02    8.13898E+03
 2.70000E-02    8.12172E+03
 2.85000E-02    8.09175E+03
 3.18280E-02    8.05962E+03
 3.43070E-02    8.01878E+03
 4.08680E-02    7.97234E+03
 4.63090E-02    7.93565E+03
 5.24750E-02    7.90672E+03
 5.65620E-02    7.87083E+03
 6.73790E-02    7.83553E+03
 7.20000E-02    7.81080E+03
 7.95000E-02    7.79009E+03
 8.25000E-02    7.77694E+03
 8.65170E-02    7.74942E+03
 9.80370E-02    7.71792E+03
 1.11090E-01    7.71272E+03
 1.16790E-01    7.71015E+03
 1.22770E-01    7.70744E+03
 1.29070E-01    7.70459E+03
 1.35690E-01    7.70159E+03
 1.42640E-01    7.69844E+03
 1.49960E-01    7.69503E+03
 1.57640E-01    7.68591E+03
 1.65730E-01    7.67311E+03
 1.74220E-01    7.65965E+03
 1.83160E-01    7.64550E+03
 1.92550E-01    7.63064E+03
 2.02420E-01    7.61500E+03
 2.12800E-01    7.59254E+03
 2.23710E-01    7.53646E+03
 2.35180E-01    7.46611E+03
 2.47240E-01    7.35119E+03
 2.73240E-01    7.19959E+03
 2.87250E-01    7.10993E+03
 2.94520E-01    7.06807E+03
 2.97200E-01    7.05135E+03
 2.98500E-01    7.03136E+03
 3.01970E-01    6.89248E+03
 3.33730E-01    6.63254E+03
 3.68830E-01    6.43847E+03
 3.87740E-01    6.30229E+03
 4.07620E-01    6.07987E+03
 4.50490E-01    5.79157E+03
 4.97870E-01    5.58595E+03
 5.23400E-01    5.44749E+03
 5.50230E-01    5.31075E+03
 5.78440E-01    5.17316E+03
 6.08100E-01    5.03561E+03
 6.39280E-01    4.89493E+03
 6.72060E-01    4.75723E+03
 7.06510E-01    4.62224E+03
 7.42740E-01    4.49025E+03
 7.80820E-01    4.35958E+03
 8.20850E-01    4.22249E+03
 8.62940E-01    4.08811E+03
 9.07180E-01    3.94073E+03
 9.61640E-01    3.80711E+03
 1.00260E+00    3.61737E+03
 1.10800E+00    3.41685E+03
 1.16480E+00    3.28463E+03
 1.22460E+00    3.15315E+03
 1.28730E+00    3.02887E+03
 1.35340E+00    2.91034E+03
 1.42270E+00    2.79653E+03
 1.49570E+00    2.68707E+03
 1.57240E+00    2.58363E+03
 1.65300E+00    2.48650E+03
 1.73770E+00    2.39412E+03
 1.82680E+00    2.30663E+03
 1.92050E+00    2.22296E+03
 2.01900E+00    2.16478E+03
 2.12250E+00    2.11789E+03
 2.23130E+00    2.07966E+03
 2.30690E+00    2.05799E+03
 2.34570E+00    2.04693E+03
 2.36530E+00    2.03947E+03
 2.38520E+00    2.02052E+03
 2.46600E+00    1.98221E+03
 2.59240E+00    1.93869E+03
 2.72530E+00    1.89377E+03
 2.86500E+00    1.84822E+03
 3.01190E+00    1.84111E+03
 3.16640E+00    1.86207E+03
 3.32870E+00    1.89478E+03
 3.67880E+00    1.93687E+03
 4.06570E+00    2.02710E+03
 4.49330E+00    2.11848E+03
 4.72370E+00    2.17934E+03
 4.96590E+00    2.24385E+03
 5.22050E+00    2.31568E+03
 5.48810E+00    2.39167E+03
 5.76950E+00    2.46806E+03
 6.06530E+00    2.54275E+03
 6.37630E+00    2.60337E+03
 6.59240E+00    2.64087E+03
 6.70320E+00    2.69234E+03
 7.04690E+00    2.75709E+03
 7.40820E+00    2.81545E+03
 7.78800E+00    2.87321E+03
 8.18730E+00    2.90845E+03
 8.60710E+00    2.94038E+03
 9.04840E+00    2.95556E+03
 9.51230E+00    2.95284E+03
 1.00000E+01    2.97001E+03
 1.05130E+01    2.97605E+03
 1.10520E+01    2.90375E+03
 1.16180E+01    2.78763E+03
 1.22140E+01    2.65703E+03
 1.28400E+01    2.54687E+03
 1.34990E+01    2.50147E+03
 1.38400E+01    2.46880E+03
 1.41910E+01    2.41497E+03
 1.45500E+01    2.36055E+03
 1.49180E+01    2.28205E+03
 1.56830E+01    2.17504E+03
 1.64870E+01    2.06826E+03
