# n + W   0 : (n,t)m
# jendl.ad   N.Iwamoto                         EVAL-Apr14
# uncertainties: n
# # energies =    28
#   E(MeV)          xs(mb) 
 6.20263E+00    0.00000E+00
 6.70870E+00    1.17871E-27
 7.50000E+00    3.02533E-27
 8.00000E+00    8.15391E-21
 8.50000E+00    9.88506E-17
 9.00000E+00    7.66286E-14
 9.50000E+00    1.11592E-11
 1.00000E+01    5.26859E-10
 1.05000E+01    1.12326E-08
 1.10000E+01    1.34342E-07
 1.15000E+01    1.04413E-06
 1.20000E+01    5.84158E-06
 1.25000E+01    2.53291E-05
 1.30000E+01    8.98040E-05
 1.35000E+01    2.64721E-04
 1.40000E+01    6.96029E-04
 1.45000E+01    1.62197E-03
 1.50000E+01    3.39137E-03
 1.55000E+01    6.42327E-03
 1.60000E+01    1.11386E-02
 1.65000E+01    1.78748E-02
 1.70000E+01    2.67211E-02
 1.75000E+01    3.79772E-02
 1.80000E+01    5.14947E-02
 1.85000E+01    6.71300E-02
 1.90000E+01    8.46485E-02
 1.95000E+01    1.03029E-01
 2.00000E+01    1.22980E-01
