# n + W   0 : (n,d)
# jendl.ad   N.Iwamoto                         EVAL-Apr14
# uncertainties: n
# # energies =    69
#   E(MeV)          xs(mb) 
 5.02573E+00    5.26566E-22
 5.04208E+00    1.03180E-21
 5.12410E+00    6.35483E-21
 5.14067E+00    7.47149E-21
 5.17670E+00    9.90003E-21
 5.18967E+00    1.07743E-20
 5.19993E+00    1.14659E-20
 5.26433E+00    1.58380E-20
 5.27708E+00    1.67050E-20
 5.29625E+00    1.80086E-20
 5.29762E+00    1.81018E-20
 5.32029E+00    1.96435E-20
 5.34387E+00    2.12470E-20
 5.36219E+00    2.24929E-20
 5.38824E+00    2.42645E-20
 5.39209E+00    2.45263E-20
 5.41802E+00    2.62898E-20
 5.42425E+00    2.67134E-20
 5.43057E+00    2.71433E-20
 5.43929E+00    2.77363E-20
 5.47178E+00    2.99458E-20
 5.50391E+00    3.23856E-20
 5.50841E+00    3.30447E-20
 5.51669E+00    3.43490E-20
 5.51986E+00    3.49364E-20
 5.53411E+00    3.75776E-20
 5.54817E+00    4.01835E-20
 5.57584E+00    4.60336E-20
 5.58709E+00    4.84333E-20
 5.59454E+00    5.00284E-20
 5.60052E+00    5.13082E-20
 5.60835E+00    5.29855E-20
 5.61013E+00    5.33657E-20
 5.61221E+00    5.38108E-20
 5.62196E+00    5.58985E-20
 5.65762E+00    6.35397E-20
 5.67673E+00    6.76435E-20
 5.67695E+00    6.76897E-20
 5.68053E+00    6.84587E-20
 5.68170E+00    6.87097E-20
 5.68923E+00    7.03270E-20
 6.50000E+00    1.82743E-16
 7.00000E+00    7.73594E-14
 7.50000E+00    1.29996E-11
 8.00000E+00    1.13414E-09
 8.50000E+00    4.55264E-08
 9.00000E+00    9.48966E-07
 9.50000E+00    1.10016E-05
 1.00000E+01    8.17624E-05
 1.05000E+01    4.32848E-04
 1.10000E+01    1.76348E-03
 1.15000E+01    5.83677E-03
 1.20000E+01    1.63139E-02
 1.25000E+01    3.95779E-02
 1.30000E+01    8.50012E-02
 1.35000E+01    1.64114E-01
 1.40000E+01    2.81521E-01
 1.45000E+01    4.58857E-01
 1.50000E+01    6.97309E-01
 1.55000E+01    9.98596E-01
 1.60000E+01    1.34892E+00
 1.65000E+01    1.76409E+00
 1.70000E+01    2.21414E+00
 1.75000E+01    2.71574E+00
 1.80000E+01    3.20593E+00
 1.85000E+01    3.75839E+00
 1.90000E+01    4.30901E+00
 1.95000E+01    4.87897E+00
 2.00000E+01    5.44325E+00
