# n + Xe128 : (n,p)     
# jendl.ad   kunieda                           EVAL-Mar14
# uncertainties: n
# # energies =    78
#   E(MeV)       xs(mb) 
 1.35032E+00    0.00000E+00
 1.37790E+00    2.10510E-13
 1.43646E+00    1.09170E-12
 1.47957E+00    1.92740E-12
 1.48498E+00    2.04840E-12
 1.48926E+00    2.16690E-12
 1.49545E+00    2.35430E-12
 1.50293E+00    2.60400E-12
 1.51215E+00    2.95200E-12
 1.51901E+00    3.23540E-12
 1.53212E+00    3.83870E-12
 1.57299E+00    5.85960E-12
 1.57820E+00    6.12810E-12
 1.58473E+00    6.46640E-12
 1.58665E+00    6.57060E-12
 1.61338E+00    8.02630E-12
 1.62216E+00    8.56060E-12
 1.64700E+00    1.00800E-11
 1.64832E+00    1.01640E-11
 1.69755E+00    1.35180E-11
 1.71326E+00    1.87020E-11
 1.72537E+00    2.49470E-11
 1.72991E+00    2.92260E-11
 1.73881E+00    3.79030E-11
 1.73996E+00    3.94720E-11
 1.74541E+00    4.75430E-11
 2.38042E+00    1.17890E-09
 2.40000E+00    1.21810E-09
 2.44017E+00    1.31820E-09
 2.44986E+00    1.34670E-09
 2.46319E+00    1.39120E-09
 2.50209E+00    1.56480E-09
 2.52049E+00    1.68550E-09
 2.53051E+00    1.76870E-09
 2.53235E+00    1.78500E-09
 2.54125E+00    1.87240E-09
 2.57078E+00    2.26820E-09
 2.58501E+00    2.53070E-09
 2.60354E+00    2.97340E-09
 2.61201E+00    3.22430E-09
 2.61907E+00    3.45580E-09
 2.65376E+00    5.05670E-09
 2.70000E+00    9.02070E-09
 3.00000E+00    4.46120E-07
 3.50000E+00    4.84215E-05
 4.00000E+00    1.05493E-03
 4.50000E+00    8.79007E-03
 5.00000E+00    3.93174E-02
 5.50000E+00    1.09649E-01
 6.00000E+00    2.33746E-01
 6.50000E+00    4.15941E-01
 7.00000E+00    6.50735E-01
 7.50000E+00    8.44476E-01
 8.00000E+00    1.05643E+00
 8.50000E+00    1.31121E+00
 9.00000E+00    1.64323E+00
 9.50000E+00    2.08582E+00
 1.00000E+01    2.65469E+00
 1.05000E+01    3.43131E+00
 1.10000E+01    4.39508E+00
 1.15000E+01    5.56580E+00
 1.20000E+01    6.94417E+00
 1.25000E+01    8.53419E+00
 1.30000E+01    1.02741E+01
 1.35000E+01    1.21516E+01
 1.40000E+01    1.41428E+01
 1.45000E+01    1.61547E+01
 1.50000E+01    1.80335E+01
 1.55000E+01    1.99672E+01
 1.60000E+01    2.19004E+01
 1.65000E+01    2.35436E+01
 1.70000E+01    2.50150E+01
 1.75000E+01    2.63677E+01
 1.80000E+01    2.77340E+01
 1.85000E+01    2.93103E+01
 1.90000E+01    2.99097E+01
 1.95000E+01    3.07726E+01
 2.00000E+01    3.17899E+01
