# n + Cd111 : (n,n')    
# jendl.ad   kunieda                           EVAL-Mar14
# uncertainties: n
# # energies =    94
#   E(MeV)       xs(mb) 
 1.50000E-01    0.00000E+00
 2.00000E-01    3.55162E-03
 2.47622E-01    2.39270E-02
 3.00000E-01    3.49633E+02
 3.45247E-01    5.05836E+02
 3.99818E-01    8.50513E+02
 4.00000E-01    8.51281E+02
 4.20510E-01    9.24844E+02
 5.00000E-01    1.09995E+03
 6.00000E-01    1.15712E+03
 6.25820E-01    1.16253E+03
 6.86669E-01    1.21383E+03
 7.00000E-01    1.22328E+03
 7.06366E-01    1.22747E+03
 7.11341E-01    1.23073E+03
 7.42694E-01    1.25344E+03
 7.59657E-01    1.28156E+03
 7.61766E-01    1.28599E+03
 8.00000E-01    1.37619E+03
 8.38820E-01    1.43780E+03
 8.61706E-01    1.46532E+03
 8.61707E-01    1.46532E+03
 8.63382E-01    1.46734E+03
 8.72665E-01    1.48271E+03
 8.74482E-01    1.48709E+03
 9.00000E-01    1.53848E+03
 9.76703E-01    1.62817E+03
 9.95502E-01    1.64083E+03
 1.00000E+00    1.64355E+03
 1.02601E+00    1.65747E+03
 1.02928E+00    1.66012E+03
 1.05628E+00    1.68159E+03
 1.06711E+00    1.68860E+03
 1.08806E+00    1.70177E+03
 1.12571E+00    1.72491E+03
 1.12858E+00    1.72701E+03
 1.14028E+00    1.73397E+03
 1.16147E+00    1.74754E+03
 1.19651E+00    1.76726E+03
 1.20000E+00    1.76972E+03
 1.20078E+00    1.77017E+03
 1.26802E+00    1.80057E+03
 1.28627E+00    1.80580E+03
 1.30061E+00    1.80980E+03
 1.31039E+00    1.81232E+03
 1.33363E+00    1.81787E+03
 1.33800E+00    1.81895E+03
 1.33869E+00    1.81928E+03
 1.34210E+00    1.82041E+03
 1.35190E+00    1.82366E+03
 1.35286E+00    1.82397E+03
 1.35353E+00    1.82434E+03
 1.40000E+00    1.84001E+03
 1.60000E+00    1.87173E+03
 1.80000E+00    1.87864E+03
 2.00000E+00    1.87329E+03
 2.20000E+00    1.86165E+03
 2.40000E+00    1.84769E+03
 2.70000E+00    1.82851E+03
 3.00000E+00    1.81734E+03
 3.50000E+00    1.82407E+03
 4.00000E+00    1.86391E+03
 4.50000E+00    1.92362E+03
 5.00000E+00    1.98170E+03
 5.50000E+00    2.02113E+03
 6.00000E+00    2.03581E+03
 6.50000E+00    2.03028E+03
 7.00000E+00    2.01237E+03
 7.50000E+00    1.91978E+03
 8.00000E+00    1.72841E+03
 8.50000E+00    1.44983E+03
 9.00000E+00    1.20340E+03
 9.50000E+00    9.92653E+02
 1.00000E+01    8.16701E+02
 1.05000E+01    6.64686E+02
 1.10000E+01    5.45325E+02
 1.15000E+01    4.44023E+02
 1.20000E+01    3.73219E+02
 1.25000E+01    3.30261E+02
 1.30000E+01    2.85855E+02
 1.35000E+01    2.61040E+02
 1.40000E+01    2.39766E+02
 1.45000E+01    2.22604E+02
 1.50000E+01    2.02312E+02
 1.55000E+01    1.91314E+02
 1.60000E+01    1.85702E+02
 1.65000E+01    1.74335E+02
 1.70000E+01    1.65467E+02
 1.75000E+01    1.57371E+02
 1.80000E+01    1.49212E+02
 1.85000E+01    1.46867E+02
 1.90000E+01    1.38610E+02
 1.95000E+01    1.33890E+02
 2.00000E+01    1.29252E+02
