# n + Cd111 : (n,tot)   
# jendl.ad   kunieda                           EVAL-Mar14
# uncertainties: n
# # energies =    69
#   E(MeV)       xs(mb) 
 1.00000E-10    5.03660E+04
 5.00000E-09    1.36741E+04
 1.00000E-08    1.03316E+04
 1.50000E-08    8.66067E+03
 2.00000E-08    7.60193E+03
 2.50000E-08    6.85236E+03
 3.00000E-08    6.28521E+03
 3.50000E-08    5.76333E+03
 4.20000E-08    5.25338E+03
 5.00000E-08    4.82801E+03
 5.80000E-08    4.47057E+03
 6.70000E-08    4.10616E+03
 8.00000E-08    3.68857E+03
 1.00000E-07    3.16828E+03
 1.40000E-07    2.68600E+03
 1.80000E-07    2.35716E+03
 2.20000E-07    2.13858E+03
 2.50000E-07    1.98772E+03
 2.80000E-07    1.87881E+03
 3.00000E-07    1.80193E+03
 3.20000E-07    1.71610E+03
 3.50000E-07    1.59700E+03
 4.00000E-07    1.41934E+03
 5.00000E-07    1.21555E+03
 6.25000E-07    1.03145E+03
 7.80000E-07    9.14776E+02
 8.50000E-07    8.60096E+02
 9.10000E-07    8.21701E+02
 9.50000E-07    7.99860E+02
 9.72000E-07    7.84065E+02
 9.96000E-07    7.68243E+02
 1.02000E-06    7.53356E+02
 1.04500E-06    7.37890E+02
 1.07100E-06    7.22308E+02
 1.09700E-06    7.08007E+02
 1.12300E-06    6.93676E+02
 1.15000E-06    6.50219E+02
 1.30000E-06    5.76253E+02
 1.50000E-06    4.59480E+02
 2.10000E-06    3.47569E+02
 2.60000E-06    2.77529E+02
 3.30000E-06    2.45648E+02
 4.00000E-06    4.46007E+02
 9.87700E-06    8.60257E+01
 1.59680E-05    2.83673E+04
 2.77000E-05    3.84981E+03
 4.80520E-05    2.28364E+02
 7.55014E-05    9.23333E+03
 1.48728E-04    1.12640E+04
 3.67262E-04    2.73346E+03
 9.06898E-04    1.67216E+03
 1.42510E-03    2.47729E+03
 2.23945E-03    2.08380E+03
 3.51910E-03    1.70364E+03
 5.53000E-03    1.41384E+03
 9.11800E-03    1.16545E+03
 1.50300E-02    9.43396E+02
 2.47800E-02    7.38299E+02
 4.08500E-02    5.58703E+02
 6.73400E-02    4.16726E+02
 1.11000E-01    3.19486E+02
 1.83000E-01    2.53052E+02
 3.02000E-01    1.50354E+02
 5.00000E-01    9.20197E+01
 8.21000E-01    4.49021E+01
 1.35300E+00    2.28495E+01
 2.23100E+00    1.32280E+01
 3.67900E+00    6.08401E+00
 6.06500E+00    1.73693E+03
