# n + Cd111 : (n,g)     
# jendl.ad   kunieda                           EVAL-Mar14
# uncertainties: n
# # energies =    69
#   E(MeV)       xs(mb) 
 1.00000E-10    5.03479E+04
 5.00000E-09    1.36701E+04
 1.00000E-08    1.03307E+04
 1.50000E-08    8.66067E+03
 2.00000E-08    7.60198E+03
 2.50000E-08    6.85211E+03
 3.00000E-08    6.28512E+03
 3.50000E-08    5.76340E+03
 4.20000E-08    5.25329E+03
 5.00000E-08    4.82783E+03
 5.80000E-08    4.47056E+03
 6.70000E-08    4.10620E+03
 8.00000E-08    3.68856E+03
 1.00000E-07    3.16817E+03
 1.40000E-07    2.68597E+03
 1.80000E-07    2.35710E+03
 2.20000E-07    2.13852E+03
 2.50000E-07    1.98770E+03
 2.80000E-07    1.87881E+03
 3.00000E-07    1.80195E+03
 3.20000E-07    1.71609E+03
 3.50000E-07    1.59700E+03
 4.00000E-07    1.41909E+03
 5.00000E-07    1.21492E+03
 6.25000E-07    1.03112E+03
 7.80000E-07    9.14516E+02
 8.50000E-07    8.59660E+02
 9.10000E-07    8.21411E+02
 9.50000E-07    7.99280E+02
 9.72000E-07    7.83667E+02
 9.96000E-07    7.67999E+02
 1.02000E-06    7.52692E+02
 1.04500E-06    7.37418E+02
 1.07100E-06    7.22182E+02
 1.09700E-06    7.07468E+02
 1.12300E-06    6.93171E+02
 1.15000E-06    6.49979E+02
 1.30000E-06    5.76156E+02
 1.50000E-06    4.59551E+02
 2.10000E-06    3.47678E+02
 2.60000E-06    2.77619E+02
 3.30000E-06    2.45700E+02
 4.00000E-06    4.46032E+02
 9.87700E-06    8.60462E+01
 1.59680E-05    2.83685E+04
 2.77000E-05    3.85049E+03
 4.80520E-05    2.28358E+02
 7.55014E-05    9.23266E+03
 1.48728E-04    1.12634E+04
 3.67262E-04    2.73324E+03
 9.06898E-04    1.67188E+03
 1.42510E-03    2.47684E+03
 2.23945E-03    2.08354E+03
 3.51910E-03    1.70312E+03
 5.53000E-03    1.41382E+03
 9.11800E-03    1.16516E+03
 1.50300E-02    9.43132E+02
 2.47800E-02    7.38136E+02
 4.08500E-02    5.58585E+02
 6.73400E-02    4.16707E+02
 1.11000E-01    3.19481E+02
 1.83000E-01    2.53074E+02
 3.02000E-01    1.50352E+02
 5.00000E-01    9.20394E+01
 8.21000E-01    4.49080E+01
 1.35300E+00    2.28540E+01
 2.23100E+00    1.32330E+01
 3.67900E+00    6.08437E+00
 6.06500E+00    1.31319E+00
