# n + Cd111 : (n,p)g    
# jendl.ad   kunieda                           EVAL-Mar14
# uncertainties: n
# # energies =    55
#   E(MeV)       xs(mb) 
 2.56768E-01    0.00000E+00
 3.17132E-01    1.57960E-11
 1.26802E+00    2.64630E-10
 1.28627E+00    3.78780E-10
 1.30061E+00    4.98770E-10
 1.31039E+00    6.00130E-10
 1.33363E+00    9.23440E-10
 1.33800E+00    9.99590E-10
 1.33869E+00    1.01130E-09
 1.34210E+00    1.07400E-09
 1.35190E+00    1.27320E-09
 1.35286E+00    1.29440E-09
 1.35353E+00    1.30840E-09
 1.40000E+00    2.80430E-09
 1.60000E+00    4.85310E-08
 1.80000E+00    4.67650E-07
 2.00000E+00    2.94390E-06
 2.20000E+00    1.36156E-05
 2.40000E+00    4.98971E-05
 2.70000E+00    2.50930E-04
 3.00000E+00    9.14340E-04
 3.50000E+00    4.84252E-03
 4.00000E+00    1.62861E-02
 4.50000E+00    3.99035E-02
 5.00000E+00    7.45933E-02
 5.50000E+00    1.25953E-01
 6.00000E+00    1.81617E-01
 6.50000E+00    2.39947E-01
 7.00000E+00    2.97916E-01
 7.50000E+00    3.56276E-01
 8.00000E+00    4.23826E-01
 8.50000E+00    5.49169E-01
 9.00000E+00    6.93348E-01
 9.50000E+00    9.53309E-01
 1.00000E+01    1.21790E+00
 1.05000E+01    1.67045E+00
 1.10000E+01    2.04992E+00
 1.15000E+01    2.71524E+00
 1.20000E+01    3.49730E+00
 1.25000E+01    4.40276E+00
 1.30000E+01    4.95621E+00
 1.35000E+01    6.02724E+00
 1.40000E+01    7.16637E+00
 1.45000E+01    8.33179E+00
 1.50000E+01    8.55141E+00
 1.55000E+01    9.65404E+00
 1.60000E+01    1.06752E+01
 1.65000E+01    1.16468E+01
 1.70000E+01    1.24515E+01
 1.75000E+01    1.30986E+01
 1.80000E+01    1.36262E+01
 1.85000E+01    1.25592E+01
 1.90000E+01    1.31542E+01
 1.95000E+01    1.36428E+01
 2.00000E+01    1.39389E+01
