# n + Cd111 : (n,p)     
# jendl.ad   kunieda                           EVAL-Mar14
# uncertainties: n
# # energies =    60
#   E(MeV)       xs(mb) 
 2.56768E-01    0.00000E+00
 3.17132E-01    1.57960E-11
 3.88233E-01    4.69450E-11
 5.49113E-01    1.17430E-10
 6.36904E-01    1.55890E-10
 6.51606E-01    1.62330E-10
 6.65310E-01    1.68330E-10
 1.26802E+00    4.32380E-10
 1.28627E+00    5.49750E-10
 1.30061E+00    6.72270E-10
 1.31039E+00    7.75350E-10
 1.33363E+00    1.10280E-09
 1.33800E+00    1.19540E-09
 1.33869E+00    1.20990E-09
 1.34210E+00    1.28670E-09
 1.35190E+00    1.53140E-09
 1.35286E+00    1.55750E-09
 1.35353E+00    1.57490E-09
 1.40000E+00    3.47840E-09
 1.60000E+00    6.48200E-08
 1.80000E+00    6.62020E-07
 2.00000E+00    4.36618E-06
 2.20000E+00    2.09072E-05
 2.40000E+00    7.85653E-05
 2.70000E+00    4.06009E-04
 3.00000E+00    1.51494E-03
 3.50000E+00    8.39212E-03
 4.00000E+00    2.97942E-02
 4.50000E+00    7.73877E-02
 5.00000E+00    1.45503E-01
 5.50000E+00    2.63686E-01
 6.00000E+00    3.91358E-01
 6.50000E+00    5.36595E-01
 7.00000E+00    6.96946E-01
 7.50000E+00    8.78707E-01
 8.00000E+00    1.10939E+00
 8.50000E+00    1.41333E+00
 9.00000E+00    1.88079E+00
 9.50000E+00    2.51951E+00
 1.00000E+01    3.38414E+00
 1.05000E+01    4.49902E+00
 1.10000E+01    5.86597E+00
 1.15000E+01    7.51291E+00
 1.20000E+01    9.40921E+00
 1.25000E+01    1.15839E+01
 1.30000E+01    1.39646E+01
 1.35000E+01    1.65302E+01
 1.40000E+01    1.91840E+01
 1.45000E+01    2.18421E+01
 1.50000E+01    2.44510E+01
 1.55000E+01    2.68642E+01
 1.60000E+01    2.89584E+01
 1.65000E+01    3.08176E+01
 1.70000E+01    3.22412E+01
 1.75000E+01    3.33345E+01
 1.80000E+01    3.41935E+01
 1.85000E+01    3.50467E+01
 1.90000E+01    3.56537E+01
 1.95000E+01    3.62615E+01
 2.00000E+01    3.65248E+01
