# n + Pd108 : (n,xa)    
# jendl.ad   N.Iwamoto                         EVAL-Apr14
# 
# # energies =   105
#   E(MeV)        xs(mb) 
 1.05000E-01    6.21810E-20
 1.10000E-01    6.82070E-20
 1.20000E-01    8.38930E-20
 1.30000E-01    1.03570E-19
 1.40000E-01    1.27420E-19
 1.50000E-01    1.57040E-19
 1.60000E-01    1.93800E-19
 1.70000E-01    2.39430E-19
 1.80000E-01    2.95950E-19
 1.90000E-01    3.65310E-19
 2.00000E-01    4.52070E-19
 2.25000E-01    7.79940E-19
 2.50000E-01    1.33620E-18
 2.75000E-01    2.27170E-18
 3.00000E-01    3.82060E-18
 4.00000E-01    2.61000E-17
 4.37994E-01    5.41690E-17
 5.00000E-01    1.24180E-16
 6.00000E-01    6.20099E-16
 7.00000E-01    3.01901E-15
 8.00000E-01    1.38590E-14
 9.00000E-01    5.95650E-14
 9.39844E-01    1.04340E-13
 1.00000E+00    2.16670E-13
 1.05805E+00    4.48480E-13
 1.06262E+00    4.71330E-13
 1.10000E+00    7.12980E-13
 1.20000E+00    2.23430E-12
 1.30000E+00    6.89230E-12
 1.32650E+00    9.19560E-12
 1.32651E+00    9.19666E-12
 1.34770E+00    1.14490E-11
 1.40000E+00    1.89530E-11
 1.45465E+00    3.22600E-11
 1.50000E+00    4.79790E-11
 1.55436E+00    7.79420E-11
 1.60000E+00    1.15860E-10
 1.64039E+00    1.63460E-10
 1.70000E+00    2.76050E-10
 1.78772E+00    5.75050E-10
 1.80000E+00    6.51290E-10
 1.90000E+00    1.50920E-09
 1.97529E+00    2.73760E-09
 2.00000E+00    3.41370E-09
 2.00846E+00    3.63520E-09
 2.03384E+00    4.37490E-09
 2.06578E+00    5.45690E-09
 2.11829E+00    7.87810E-09
 2.16101E+00    1.01310E-08
 2.23874E+00    1.68570E-08
 2.25000E+00    1.79690E-08
 2.30253E+00    2.57085E-08
 2.30383E+00    2.59000E-08
 2.34653E+00    3.30140E-08
 2.38408E+00    4.10430E-08
 2.41375E+00    5.05740E-08
 2.41991E+00    5.21810E-08
 2.42657E+00    5.40650E-08
 2.44060E+00    5.83136E-08
 2.44464E+00    5.95370E-08
 2.48905E+00    7.59280E-08
 2.50000E+00    8.44890E-08
 2.50073E+00    8.48289E-08
 2.55466E+00    1.11741E-07
 2.56011E+00    1.14921E-07
 2.56394E+00    1.17242E-07
 2.56395E+00    1.17248E-07
 2.57222E+00    1.22260E-07
 2.60210E+00    1.50820E-07
 2.75000E+00    3.35869E-07
 3.00000E+00    1.28339E-06
 3.50000E+00    1.05114E-05
 4.00000E+00    6.08477E-05
 4.50000E+00    2.75854E-04
 5.00000E+00    9.18257E-04
 5.50000E+00    2.32154E-03
 6.00000E+00    5.29609E-03
 6.50000E+00    1.05377E-02
 7.00000E+00    1.76011E-02
 7.50000E+00    2.80165E-02
 8.00000E+00    4.26467E-02
 8.50000E+00    6.27404E-02
 9.00000E+00    9.03729E-02
 9.50000E+00    1.25559E-01
 1.00000E+01    1.65400E-01
 1.05000E+01    2.27465E-01
 1.10000E+01    3.23461E-01
 1.15000E+01    4.69419E-01
 1.20000E+01    6.85589E-01
 1.25000E+01    9.89599E-01
 1.30000E+01    1.40151E+00
 1.35000E+01    1.93508E+00
 1.40000E+01    2.60184E+00
 1.45000E+01    3.40633E+00
 1.50000E+01    4.35366E+00
 1.55000E+01    5.43598E+00
 1.60000E+01    6.59638E+00
 1.65000E+01    7.80565E+00
 1.70000E+01    9.10544E+00
 1.75000E+01    1.04848E+01
 1.80000E+01    1.19586E+01
 1.85000E+01    1.35235E+01
 1.90000E+01    1.51538E+01
 1.95000E+01    1.68719E+01
 2.00000E+01    1.86766E+01
