# n + Ar 40 : (n,n'05)  
# jendl4.0   T.WATANABE                        EVAL-MAR94
# uncertainties: n
# # energies =   132
#   E(MeV)       xs(mb) 
 3.28920E+00    0.00000E+00
 3.28930E+00    3.54604E-02
 3.29029E+00    4.23844E-01
 3.29225E+00    1.19757E+00
 3.29421E+00    1.96526E+00
 3.29808E+00    3.48863E+00
 3.30191E+00    4.98820E+00
 3.30567E+00    6.46433E+00
 3.30939E+00    7.91740E+00
 3.31671E+00    1.07781E+01
 3.32381E+00    1.35495E+01
 3.33071E+00    1.62342E+01
 3.33741E+00    1.88350E+01
 3.34391E+00    2.13546E+01
 3.35655E+00    2.62362E+01
 3.36843E+00    3.08128E+01
 3.37961E+00    3.51033E+01
 3.39013E+00    3.91256E+01
 3.40002E+00    4.28965E+01
 3.40932E+00    4.64318E+01
 3.42682E+00    5.30604E+01
 3.44220E+00    5.88605E+01
 3.45572E+00    6.39355E+01
 3.46760E+00    6.83762E+01
 3.48847E+00    7.61473E+01
 3.50421E+00    8.19756E+01
 3.52796E+00    9.07182E+01
 3.55186E+00    9.94607E+01
 3.59984E+00    1.04588E+02
 3.60364E+00    1.04336E+02
 3.64545E+00    1.07865E+02
 3.67713E+00    1.10511E+02
 3.72516E+00    1.14481E+02
 3.77382E+00    1.18451E+02
 3.82914E+00    1.22870E+02
 3.87116E+00    1.26185E+02
 3.93505E+00    1.31156E+02
 4.00000E+00    1.36128E+02
 4.01772E+00    1.37527E+02
 4.04140E+00    1.37000E+02
 4.09234E+00    1.39373E+02
 4.14393E+00    1.41746E+02
 4.18545E+00    1.44414E+02
 4.28438E+00    1.49249E+02
 4.33257E+00    1.51108E+02
 4.33564E+00    1.51058E+02
 4.40966E+00    1.54463E+02
 4.43355E+00    1.54548E+02
 4.46789E+00    1.54156E+02
 4.53043E+00    1.55253E+02
 4.53863E+00    1.55116E+02
 4.59400E+00    1.55655E+02
 4.60732E+00    1.55484E+02
 4.67704E+00    1.56944E+02
 4.69344E+00    1.56722E+02
 4.69549E+00    1.56314E+02
 4.84535E+00    1.54198E+02
 5.00000E+00    1.52082E+02
 5.11526E+00    1.47799E+02
 5.21829E+00    1.44052E+02
 5.31014E+00    1.40774E+02
 5.39184E+00    1.37905E+02
 5.46435E+00    1.35394E+02
 5.59360E+00    1.31001E+02
 5.69255E+00    1.27706E+02
 5.76790E+00    1.25235E+02
 5.88281E+00    1.21529E+02
 6.00000E+00    1.17822E+02
 6.11673E+00    1.14156E+02
 6.22074E+00    1.10948E+02
 6.31319E+00    1.08141E+02
 6.39521E+00    1.05685E+02
 6.46786E+00    1.03536E+02
 6.59697E+00    9.97751E+01
 6.69550E+00    9.69545E+01
 6.77036E+00    9.48391E+01
 6.88422E+00    9.16659E+01
 7.00000E+00    8.84927E+01
 7.11782E+00    8.61497E+01
 7.22254E+00    8.40996E+01
 7.31543E+00    8.23057E+01
 7.39769E+00    8.07360E+01
 7.54388E+00    7.79892E+01
 7.65541E+00    7.59290E+01
 7.74014E+00    7.43839E+01
 7.86900E+00    7.20663E+01
 8.00000E+00    6.97486E+01
 8.11865E+00    6.83852E+01
 8.22392E+00    6.71922E+01
 8.41143E+00    6.51044E+01
 8.55486E+00    6.35386E+01
 8.66404E+00    6.23642E+01
 8.83042E+00    6.06026E+01
 9.00000E+00    5.88411E+01
 9.24021E+00    5.71266E+01
 9.42457E+00    5.58408E+01
 9.56524E+00    5.48764E+01
 9.78021E+00    5.34299E+01
 1.00000E+01    5.19833E+01
 1.02411E+01    5.06833E+01
 1.04258E+01    4.97083E+01
 1.05665E+01    4.89771E+01
 1.07811E+01    4.78803E+01
 1.10000E+01    4.67834E+01
 1.12419E+01    4.58450E+01
 1.14268E+01    4.51411E+01
 1.17099E+01    4.40854E+01
 1.20000E+01    4.30296E+01
 1.22425E+01    4.22635E+01
 1.24277E+01    4.16889E+01
 1.27106E+01    4.08271E+01
 1.30000E+01    3.99652E+01
 1.32431E+01    3.92678E+01
 1.36163E+01    3.82216E+01
 1.40000E+01    3.71755E+01
 1.42478E+01    3.65227E+01
 1.45000E+01    3.58699E+01
 1.47479E+01    3.52523E+01
 1.50000E+01    3.46346E+01
 1.52440E+01    3.40748E+01
 1.56174E+01    3.32350E+01
 1.60000E+01    3.23953E+01
 1.62443E+01    3.19068E+01
 1.66179E+01    3.11741E+01
 1.70000E+01    3.04413E+01
 1.72447E+01    3.00049E+01
 1.76183E+01    2.93502E+01
 1.80000E+01    2.86955E+01
 1.84932E+01    2.78921E+01
 1.90000E+01    2.70887E+01
 1.94936E+01    2.63375E+01
 2.00000E+01    2.55864E+01
