# n + Ar 40 : (n,xh)    
# jendl4.0   T.WATANABE                        EVAL-MAR94
# 
# # energies =   164
#   E(MeV)        xs(mb) 
 1.49774E+00    0.00000E+00
 1.49780E+00    0.00000E+00
 1.49835E+00    0.00000E+00
 1.49917E+00    0.00000E+00
 1.50000E+00    0.00000E+00
 1.50724E+00    0.00000E+00
 1.51429E+00    0.00000E+00
 1.52115E+00    0.00000E+00
 1.53454E+00    0.00000E+00
 1.54719E+00    0.00000E+00
 1.55915E+00    0.00000E+00
 1.57044E+00    0.00000E+00
 1.58110E+00    0.00000E+00
 1.59116E+00    0.00000E+00
 1.60065E+00    0.00000E+00
 1.60960E+00    0.00000E+00
 1.62652E+00    0.00000E+00
 1.64146E+00    0.00000E+00
 1.65465E+00    0.00000E+00
 1.66628E+00    0.00000E+00
 1.68683E+00    0.00000E+00
 1.70240E+00    0.00000E+00
 1.71418E+00    0.00000E+00
 1.73200E+00    0.00000E+00
 1.75000E+00    0.00000E+00
 1.76467E+00    0.00000E+00
 1.77853E+00    0.00000E+00
 1.80481E+00    0.00000E+00
 1.82813E+00    0.00000E+00
 1.84878E+00    0.00000E+00
 1.86704E+00    0.00000E+00
 1.88316E+00    0.00000E+00
 1.91171E+00    0.00000E+00
 1.93341E+00    0.00000E+00
 1.94985E+00    0.00000E+00
 1.97477E+00    0.00000E+00
 2.00000E+00    0.00000E+00
 2.04221E+00    0.00000E+00
 2.07446E+00    0.00000E+00
 2.12378E+00    0.00000E+00
 2.17428E+00    0.00000E+00
 2.19807E+00    0.00000E+00
 2.22060E+00    0.00000E+00
 2.26348E+00    0.00000E+00
 2.30168E+00    0.00000E+00
 2.33564E+00    0.00000E+00
 2.36576E+00    0.00000E+00
 2.39243E+00    0.00000E+00
 2.43983E+00    0.00000E+00
 2.47600E+00    0.00000E+00
 2.53126E+00    0.00000E+00
 2.58775E+00    0.00000E+00
 2.58780E+00    0.00000E+00
 2.63230E+00    0.00000E+00
 2.67186E+00    0.00000E+00
 2.70696E+00    0.00000E+00
 2.73806E+00    0.00000E+00
 2.76556E+00    0.00000E+00
 2.81435E+00    0.00000E+00
 2.85151E+00    0.00000E+00
 2.90817E+00    0.00000E+00
 2.96595E+00    0.00000E+00
 3.00000E+00    0.00000E+00
 3.06982E+00    0.00000E+00
 3.12326E+00    0.00000E+00
 3.20515E+00    0.00000E+00
 3.28920E+00    0.00000E+00
 3.28930E+00    0.00000E+00
 3.35306E+00    0.00000E+00
 3.40169E+00    0.00000E+00
 3.47597E+00    0.00000E+00
 3.55186E+00    0.00000E+00
 3.59984E+00    0.00000E+00
 3.60364E+00    0.00000E+00
 3.68775E+00    0.00000E+00
 3.77382E+00    0.00000E+00
 3.77390E+00    0.00000E+00
 3.82920E+00    0.00000E+00
 3.91367E+00    0.00000E+00
 4.00000E+00    0.00000E+00
 4.01770E+00    0.00000E+00
 4.01772E+00    0.00000E+00
 4.04140E+00    0.00000E+00
 4.14393E+00    0.00000E+00
 4.18545E+00    0.00000E+00
 4.18600E+00    0.00000E+00
 4.28438E+00    0.00000E+00
 4.33257E+00    0.00000E+00
 4.33564E+00    0.00000E+00
 4.40966E+00    0.00000E+00
 4.43355E+00    0.00000E+00
 4.43370E+00    0.00000E+00
 4.46789E+00    0.00000E+00
 4.53043E+00    0.00000E+00
 4.53050E+00    0.00000E+00
 4.53863E+00    0.00000E+00
 4.59400E+00    0.00000E+00
 4.60732E+00    0.00000E+00
 4.67704E+00    0.00000E+00
 4.69344E+00    0.00000E+00
 4.69549E+00    0.00000E+00
 4.76983E+00    0.00000E+00
 4.88356E+00    0.00000E+00
 5.00000E+00    0.00000E+00
 5.11526E+00    0.00000E+00
 5.32339E+00    0.00000E+00
 5.48503E+00    0.00000E+00
 5.60948E+00    0.00000E+00
 5.80145E+00    0.00000E+00
 6.00000E+00    0.00000E+00
 6.23574E+00    0.00000E+00
 6.60683E+00    0.00000E+00
 7.00000E+00    0.00000E+00
 8.00000E+00    0.00000E+00
 8.48528E+00    0.00000E+00
 9.00000E+00    0.00000E+00
 9.48683E+00    0.00000E+00
 1.00000E+01    0.00000E+00
 1.02411E+01    0.00000E+00
 1.04258E+01    0.00000E+00
 1.05665E+01    0.00000E+00
 1.07811E+01    0.00000E+00
 1.10000E+01    0.00000E+00
 1.11203E+01    0.00000E+00
 1.12266E+01    0.00000E+00
 1.13205E+01    0.00000E+00
 1.14867E+01    0.00000E+00
 1.16129E+01    0.00000E+00
 1.17085E+01    0.00000E+00
 1.18534E+01    0.00000E+00
 1.20000E+01    0.00000E+00
 1.21207E+01    0.00000E+00
 1.22272E+01    0.00000E+00
 1.23213E+01    0.00000E+00
 1.24876E+01    0.00000E+00
 1.26137E+01    0.00000E+00
 1.27092E+01    0.00000E+00
 1.28538E+01    0.00000E+00
 1.30000E+01    0.00000E+00
 1.31210E+01    0.00000E+00
 1.33354E+01    0.00000E+00
 1.34986E+01    0.00000E+00
 1.36222E+01    0.00000E+00
 1.38098E+01    0.00000E+00
 1.40000E+01    0.00000E+00
 1.42478E+01    0.00000E+00
 1.45000E+01    0.00000E+00
 1.47479E+01    0.00000E+00
 1.50000E+01    0.00000E+00
 1.52440E+01    0.00000E+00
 1.54296E+01    0.00000E+00
 1.57122E+01    0.00000E+00
 1.60000E+01    0.00000E+00
 1.62443E+01    8.59367E-10
 1.66179E+01    2.17308E-09
 1.70000E+01    3.51700E-09
 1.72447E+01    1.00771E-06
 1.76183E+01    2.54118E-06
 1.80000E+01    4.10786E-06
 1.82450E+01    3.45323E-05
 1.86187E+01    8.09474E-05
 1.90000E+01    1.28313E-04
 1.94936E+01    5.60280E-04
 2.00000E+01    1.00347E-03
