# n + Ar 40 : (n,el)    
# jendl4.0   T.WATANABE                        EVAL-MAR94
# uncertainties: n
# # energies =    69
#   E(MeV)       xs(mb) 
 1.00000E-10    1.05222E+03
 5.00000E-09    6.76821E+02
 1.00000E-08    6.64018E+02
 1.50000E-08    6.59008E+02
 2.00000E-08    6.56296E+02
 2.50000E-08    6.54598E+02
 3.00000E-08    6.53427E+02
 3.50000E-08    6.52437E+02
 4.20000E-08    6.51552E+02
 5.00000E-08    6.50898E+02
 5.80000E-08    6.50346E+02
 6.70000E-08    6.49878E+02
 8.00000E-08    6.49354E+02
 1.00000E-07    6.48787E+02
 1.40000E-07    6.48334E+02
 1.80000E-07    6.48061E+02
 2.20000E-07    6.47919E+02
 2.50000E-07    6.47798E+02
 2.80000E-07    6.47696E+02
 3.00000E-07    6.47636E+02
 3.20000E-07    6.47604E+02
 3.50000E-07    6.47554E+02
 4.00000E-07    6.47462E+02
 5.00000E-07    6.47321E+02
 6.25000E-07    6.47209E+02
 7.80000E-07    6.47171E+02
 8.50000E-07    6.47150E+02
 9.10000E-07    6.47133E+02
 9.50000E-07    6.47123E+02
 9.72000E-07    6.47116E+02
 9.96000E-07    6.47108E+02
 1.02000E-06    6.47100E+02
 1.04500E-06    6.47091E+02
 1.07100E-06    6.47083E+02
 1.09700E-06    6.47074E+02
 1.12300E-06    6.47066E+02
 1.15000E-06    6.47037E+02
 1.30000E-06    6.46980E+02
 1.50000E-06    6.46854E+02
 2.10000E-06    6.46702E+02
 2.60000E-06    6.46608E+02
 3.30000E-06    6.46498E+02
 4.00000E-06    6.46048E+02
 9.87700E-06    6.45077E+02
 1.59680E-05    6.43723E+02
 2.77000E-05    6.41264E+02
 4.80520E-05    6.37523E+02
 7.55014E-05    6.30188E+02
 1.48728E-04    6.13505E+02
 3.67262E-04    5.82602E+02
 9.06898E-04    5.53115E+02
 1.42510E-03    5.32511E+02
 2.23945E-03    5.11943E+02
 3.51910E-03    4.91210E+02
 5.53000E-03    4.66406E+02
 9.11800E-03    4.39759E+02
 1.50300E-02    3.83304E+02
 2.47800E-02    2.61883E+02
 4.08500E-02    1.28238E+02
 6.73400E-02    8.12559E+03
 1.11000E-01    2.23325E+03
 1.83000E-01    2.24673E+03
 3.02000E-01    1.59634E+03
 5.00000E-01    1.81547E+03
 8.21000E-01    2.42356E+03
 1.35300E+00    3.36653E+03
 2.23100E+00    2.88506E+03
 3.67900E+00    1.88682E+03
 6.06500E+00    1.13673E+03
