# n + Ar 40 : (n,xa)    
# jendl4.0   T.WATANABE                        EVAL-MAR94
# 
# # energies =   164
#   E(MeV)        xs(mb) 
 1.49774E+00    0.00000E+00
 1.49780E+00    0.00000E+00
 1.49835E+00    0.00000E+00
 1.49917E+00    0.00000E+00
 1.50000E+00    0.00000E+00
 1.50724E+00    0.00000E+00
 1.51429E+00    0.00000E+00
 1.52115E+00    0.00000E+00
 1.53454E+00    0.00000E+00
 1.54719E+00    0.00000E+00
 1.55915E+00    0.00000E+00
 1.57044E+00    0.00000E+00
 1.58110E+00    0.00000E+00
 1.59116E+00    0.00000E+00
 1.60065E+00    0.00000E+00
 1.60960E+00    0.00000E+00
 1.62652E+00    0.00000E+00
 1.64146E+00    0.00000E+00
 1.65465E+00    0.00000E+00
 1.66628E+00    0.00000E+00
 1.68683E+00    0.00000E+00
 1.70240E+00    0.00000E+00
 1.71418E+00    0.00000E+00
 1.73200E+00    0.00000E+00
 1.75000E+00    0.00000E+00
 1.76467E+00    0.00000E+00
 1.77853E+00    0.00000E+00
 1.80481E+00    0.00000E+00
 1.82813E+00    0.00000E+00
 1.84878E+00    0.00000E+00
 1.86704E+00    0.00000E+00
 1.88316E+00    0.00000E+00
 1.91171E+00    0.00000E+00
 1.93341E+00    0.00000E+00
 1.94985E+00    0.00000E+00
 1.97477E+00    0.00000E+00
 2.00000E+00    0.00000E+00
 2.04221E+00    0.00000E+00
 2.07446E+00    0.00000E+00
 2.12378E+00    0.00000E+00
 2.17428E+00    0.00000E+00
 2.19807E+00    0.00000E+00
 2.22060E+00    0.00000E+00
 2.26348E+00    0.00000E+00
 2.30168E+00    0.00000E+00
 2.33564E+00    0.00000E+00
 2.36576E+00    0.00000E+00
 2.39243E+00    0.00000E+00
 2.43983E+00    0.00000E+00
 2.47600E+00    0.00000E+00
 2.53126E+00    0.00000E+00
 2.58775E+00    0.00000E+00
 2.58780E+00    0.00000E+00
 2.63230E+00    0.00000E+00
 2.67186E+00    0.00000E+00
 2.70696E+00    0.00000E+00
 2.73806E+00    0.00000E+00
 2.76556E+00    0.00000E+00
 2.81435E+00    0.00000E+00
 2.85151E+00    0.00000E+00
 2.90817E+00    0.00000E+00
 2.96595E+00    0.00000E+00
 3.00000E+00    0.00000E+00
 3.06982E+00    3.29717E-08
 3.12326E+00    5.82031E-08
 3.20515E+00    9.68761E-08
 3.28920E+00    1.36563E-07
 3.28930E+00    1.36610E-07
 3.35306E+00    1.66719E-07
 3.40169E+00    1.89684E-07
 3.47597E+00    2.24756E-07
 3.55186E+00    2.60594E-07
 3.59984E+00    2.83250E-07
 3.60364E+00    2.85045E-07
 3.68775E+00    3.24762E-07
 3.77382E+00    3.65405E-07
 3.77390E+00    3.65443E-07
 3.82920E+00    3.91555E-07
 3.91367E+00    4.31443E-07
 4.00000E+00    4.72210E-07
 4.01770E+00    8.27152E-05
 4.01772E+00    8.28083E-05
 4.04140E+00    1.92835E-04
 4.14393E+00    6.69235E-04
 4.18545E+00    8.62156E-04
 4.18600E+00    8.64711E-04
 4.28438E+00    1.32183E-03
 4.33257E+00    1.54574E-03
 4.33564E+00    1.56001E-03
 4.40966E+00    1.90394E-03
 4.43355E+00    2.01494E-03
 4.43370E+00    2.01564E-03
 4.46789E+00    2.17450E-03
 4.53043E+00    2.46509E-03
 4.53050E+00    2.46541E-03
 4.53863E+00    2.50319E-03
 4.59400E+00    2.76046E-03
 4.60732E+00    2.82235E-03
 4.67704E+00    3.14630E-03
 4.69344E+00    3.22250E-03
 4.69549E+00    3.23203E-03
 4.76983E+00    3.57746E-03
 4.88356E+00    4.10589E-03
 5.00000E+00    4.64692E-03
 5.11526E+00    4.99365E-02
 5.32339E+00    1.31720E-01
 5.48503E+00    1.95233E-01
 5.60948E+00    2.44131E-01
 5.80145E+00    3.19566E-01
 6.00000E+00    3.97582E-01
 6.23574E+00    1.38115E+00
 6.60683E+00    2.92944E+00
 7.00000E+00    4.56986E+00
 8.00000E+00    1.43196E+01
 8.48528E+00    1.68339E+01
 9.00000E+00    1.95008E+01
 9.48683E+00    1.96147E+01
 1.00000E+01    1.97347E+01
 1.02411E+01    1.95551E+01
 1.04258E+01    1.94175E+01
 1.05665E+01    1.93127E+01
 1.07811E+01    1.91529E+01
 1.10000E+01    1.89898E+01
 1.11203E+01    1.87599E+01
 1.12266E+01    1.85566E+01
 1.13205E+01    1.83771E+01
 1.14867E+01    1.80594E+01
 1.16129E+01    1.78181E+01
 1.17085E+01    1.76354E+01
 1.18534E+01    1.73585E+01
 1.20000E+01    1.70782E+01
 1.21207E+01    1.68714E+01
 1.22272E+01    1.66888E+01
 1.23213E+01    1.65277E+01
 1.24876E+01    1.62428E+01
 1.26137E+01    1.60266E+01
 1.27092E+01    1.58630E+01
 1.28538E+01    1.56153E+01
 1.30000E+01    1.53647E+01
 1.31210E+01    1.51037E+01
 1.33354E+01    1.46411E+01
 1.34986E+01    1.42892E+01
 1.36222E+01    1.40225E+01
 1.38098E+01    1.36177E+01
 1.40000E+01    1.32075E+01
 1.42478E+01    1.26930E+01
 1.45000E+01    1.21694E+01
 1.47479E+01    1.17657E+01
 1.50000E+01    1.13550E+01
 1.52440E+01    1.09476E+01
 1.54296E+01    1.06377E+01
 1.57122E+01    1.01657E+01
 1.60000E+01    9.68512E+00
 1.62443E+01    9.37886E+00
 1.66179E+01    8.91068E+00
 1.70000E+01    8.43174E+00
 1.72447E+01    8.20580E+00
 1.76183E+01    7.86077E+00
 1.80000E+01    7.50827E+00
 1.82450E+01    7.29658E+00
 1.86187E+01    6.97363E+00
 1.90000E+01    6.64406E+00
 1.94936E+01    6.35481E+00
 2.00000E+01    6.05805E+00
