# n + Ar 40 : (n,n'20)  
# jendl4.0   T.WATANABE                        EVAL-MAR94
# uncertainties: n
# # energies =    94
#   E(MeV)       xs(mb) 
 4.53043E+00    0.00000E+00
 4.53050E+00    6.62593E-02
 4.53152E+00    1.03351E+00
 4.53329E+00    2.72620E+00
 4.53596E+00    5.26523E+00
 4.53863E+00    7.80424E+00
 4.55241E+00    9.97383E+00
 4.56277E+00    1.16010E+01
 4.57836E+00    1.40418E+01
 4.59400E+00    1.64826E+01
 4.60732E+00    1.74840E+01
 4.64205E+00    1.93052E+01
 4.67704E+00    2.11264E+01
 4.69344E+00    2.17690E+01
 4.69549E+00    2.18382E+01
 4.73252E+00    2.26621E+01
 4.76515E+00    2.33831E+01
 4.82281E+00    2.46447E+01
 4.86651E+00    2.55909E+01
 4.93280E+00    2.70103E+01
 5.00000E+00    2.84296E+01
 5.05730E+00    2.92237E+01
 5.11162E+00    2.99682E+01
 5.16307E+00    3.06662E+01
 5.26094E+00    3.19749E+01
 5.34810E+00    3.31200E+01
 5.42554E+00    3.41219E+01
 5.49423E+00    3.49987E+01
 5.55504E+00    3.57658E+01
 5.66309E+00    3.71083E+01
 5.74550E+00    3.81151E+01
 5.80809E+00    3.88703E+01
 5.90327E+00    4.00030E+01
 6.00000E+00    4.11357E+01
 6.11673E+00    4.00720E+01
 6.22074E+00    3.91413E+01
 6.31319E+00    3.83269E+01
 6.39521E+00    3.76144E+01
 6.54133E+00    3.63673E+01
 6.65310E+00    3.54321E+01
 6.73818E+00    3.47306E+01
 6.86784E+00    3.36785E+01
 7.00000E+00    3.26263E+01
 7.11782E+00    3.12378E+01
 7.22254E+00    3.00229E+01
 7.31543E+00    2.89599E+01
 7.39769E+00    2.80297E+01
 7.47043E+00    2.72158E+01
 7.53466E+00    2.65037E+01
 7.64839E+00    2.52574E+01
 7.73482E+00    2.43227E+01
 7.80028E+00    2.36217E+01
 7.89951E+00    2.25701E+01
 8.00000E+00    2.15186E+01
 8.11865E+00    2.07319E+01
 8.22392E+00    2.00435E+01
 8.31715E+00    1.94412E+01
 8.39958E+00    1.89141E+01
 8.47239E+00    1.84529E+01
 8.60132E+00    1.76459E+01
 8.69930E+00    1.70406E+01
 8.77352E+00    1.65867E+01
 8.88604E+00    1.59057E+01
 9.00000E+00    1.52248E+01
 9.11932E+00    1.48579E+01
 9.22501E+00    1.45368E+01
 9.41294E+00    1.39749E+01
 9.55639E+00    1.35535E+01
 9.66541E+00    1.32375E+01
 9.83128E+00    1.27634E+01
 1.00000E+01    1.22893E+01
 1.02411E+01    1.19313E+01
 1.04258E+01    1.16628E+01
 1.05665E+01    1.14614E+01
 1.07811E+01    1.11594E+01
 1.10000E+01    1.08573E+01
 1.12419E+01    1.06748E+01
 1.14268E+01    1.05380E+01
 1.17099E+01    1.03327E+01
 1.20000E+01    1.01274E+01
 1.24900E+01    1.00324E+01
 1.30000E+01    9.93734E+00
 1.40000E+01    9.92348E+00
 1.45000E+01    9.91896E+00
 1.50000E+01    9.90082E+00
 1.60000E+01    9.81237E+00
 1.64924E+01    9.73818E+00
 1.70000E+01    9.66399E+00
 1.74929E+01    9.57169E+00
 1.80000E+01    9.47939E+00
 1.84932E+01    9.37766E+00
 1.90000E+01    9.27593E+00
 1.94936E+01    9.16862E+00
 2.00000E+01    9.06132E+00
