# n + Ar 40 : (n,xn)    
# jendl4.0   T.WATANABE                        EVAL-MAR94
# 
# # energies =   164
#   E(MeV)        xs(mb) 
 1.49774E+00    0.00000E+00
 1.49780E+00    2.46200E+00
 1.49835E+00    2.56781E+01
 1.49917E+00    6.05017E+01
 1.50000E+00    9.53250E+01
 1.50724E+00    1.01081E+02
 1.51429E+00    1.06656E+02
 1.52115E+00    1.12058E+02
 1.53454E+00    1.22523E+02
 1.54719E+00    1.32335E+02
 1.55915E+00    1.41533E+02
 1.57044E+00    1.50156E+02
 1.58110E+00    1.58240E+02
 1.59116E+00    1.65819E+02
 1.60065E+00    1.72925E+02
 1.60960E+00    1.79586E+02
 1.62652E+00    1.92076E+02
 1.64146E+00    2.03005E+02
 1.65465E+00    2.12567E+02
 1.66628E+00    2.20934E+02
 1.68683E+00    2.35577E+02
 1.70240E+00    2.46559E+02
 1.71418E+00    2.54796E+02
 1.73200E+00    2.67150E+02
 1.75000E+00    2.79505E+02
 1.76467E+00    2.88969E+02
 1.77853E+00    2.97841E+02
 1.80481E+00    3.14476E+02
 1.82813E+00    3.29032E+02
 1.84878E+00    3.41769E+02
 1.86704E+00    3.52913E+02
 1.88316E+00    3.62665E+02
 1.91171E+00    3.79729E+02
 1.93341E+00    3.92528E+02
 1.94985E+00    4.02127E+02
 1.97477E+00    4.16526E+02
 2.00000E+00    4.30924E+02
 2.04221E+00    4.44336E+02
 2.07446E+00    4.54395E+02
 2.12378E+00    4.69483E+02
 2.17428E+00    4.84571E+02
 2.19807E+00    4.95669E+02
 2.22060E+00    5.06073E+02
 2.26348E+00    5.25581E+02
 2.30168E+00    5.42651E+02
 2.33564E+00    5.57587E+02
 2.36576E+00    5.70656E+02
 2.39243E+00    5.82091E+02
 2.43983E+00    6.02103E+02
 2.47600E+00    6.17112E+02
 2.53126E+00    6.39625E+02
 2.58775E+00    6.62138E+02
 2.58780E+00    6.62166E+02
 2.63230E+00    6.88878E+02
 2.67186E+00    7.12251E+02
 2.70696E+00    7.32703E+02
 2.73806E+00    7.50598E+02
 2.76556E+00    7.66256E+02
 2.81435E+00    7.93658E+02
 2.85151E+00    8.14209E+02
 2.90817E+00    8.45036E+02
 2.96595E+00    8.75863E+02
 3.00000E+00    8.88561E+02
 3.06982E+00    9.05460E+02
 3.12326E+00    9.18135E+02
 3.20515E+00    9.37147E+02
 3.28920E+00    9.56159E+02
 3.28930E+00    9.56194E+02
 3.35306E+00    9.81010E+02
 3.40169E+00    9.99623E+02
 3.47597E+00    1.02754E+03
 3.55186E+00    1.05546E+03
 3.59984E+00    1.06682E+03
 3.60364E+00    1.07226E+03
 3.68775E+00    1.09840E+03
 3.77382E+00    1.12453E+03
 3.77390E+00    1.12455E+03
 3.82920E+00    1.14140E+03
 3.91367E+00    1.16668E+03
 4.00000E+00    1.19196E+03
 4.01770E+00    1.19466E+03
 4.01772E+00    1.19466E+03
 4.04140E+00    1.20617E+03
 4.14393E+00    1.23752E+03
 4.18545E+00    1.24871E+03
 4.18600E+00    1.24885E+03
 4.28438E+00    1.27514E+03
 4.33257E+00    1.28916E+03
 4.33564E+00    1.29074E+03
 4.40966E+00    1.30876E+03
 4.43355E+00    1.31994E+03
 4.43370E+00    1.32000E+03
 4.46789E+00    1.33335E+03
 4.53043E+00    1.35563E+03
 4.53050E+00    1.35566E+03
 4.53863E+00    1.35893E+03
 4.59400E+00    1.37570E+03
 4.60732E+00    1.38045E+03
 4.67704E+00    1.39745E+03
 4.69344E+00    1.40361E+03
 4.69549E+00    1.40490E+03
 4.76983E+00    1.42331E+03
 4.88356E+00    1.45093E+03
 5.00000E+00    1.47854E+03
 5.11526E+00    1.49392E+03
 5.32339E+00    1.52085E+03
 5.48503E+00    1.54104E+03
 5.60948E+00    1.55619E+03
 5.80145E+00    1.57890E+03
 6.00000E+00    1.60162E+03
 6.23574E+00    1.61129E+03
 6.60683E+00    1.62579E+03
 7.00000E+00    1.64029E+03
 8.00000E+00    1.63326E+03
 8.48528E+00    1.62221E+03
 9.00000E+00    1.61116E+03
 9.48683E+00    1.59789E+03
 1.00000E+01    1.58462E+03
 1.02411E+01    1.58200E+03
 1.04258E+01    1.61043E+03
 1.05665E+01    1.63247E+03
 1.07811E+01    1.66671E+03
 1.10000E+01    1.70240E+03
 1.11203E+01    1.73450E+03
 1.12266E+01    1.76326E+03
 1.13205E+01    1.78893E+03
 1.14867E+01    1.83501E+03
 1.16129E+01    1.87056E+03
 1.17085E+01    1.89778E+03
 1.18534E+01    1.93952E+03
 1.20000E+01    1.98236E+03
 1.21207E+01    2.00804E+03
 1.22272E+01    2.03102E+03
 1.23213E+01    2.05151E+03
 1.24876E+01    2.08824E+03
 1.26137E+01    2.11652E+03
 1.27092E+01    2.13816E+03
 1.28538E+01    2.17128E+03
 1.30000E+01    2.20523E+03
 1.31210E+01    2.21723E+03
 1.33354E+01    2.23894E+03
 1.34986E+01    2.25584E+03
 1.36222E+01    2.26885E+03
 1.38098E+01    2.28895E+03
 1.40000E+01    2.30972E+03
 1.42478E+01    2.32145E+03
 1.45000E+01    2.33384E+03
 1.47479E+01    2.34015E+03
 1.50000E+01    2.34693E+03
 1.52440E+01    2.34834E+03
 1.54296E+01    2.34957E+03
 1.57122E+01    2.35170E+03
 1.60000E+01    2.35418E+03
 1.62443E+01    2.35184E+03
 1.66179E+01    2.34856E+03
 1.70000E+01    2.34614E+03
 1.72447E+01    2.34323E+03
 1.76183E+01    2.33899E+03
 1.80000E+01    2.33491E+03
 1.82450E+01    2.33691E+03
 1.86187E+01    2.34012E+03
 1.90000E+01    2.34358E+03
 1.94936E+01    2.36475E+03
 2.00000E+01    2.38672E+03
