# n + Nd142 : (n,xh)    
# jendl4.0   N.Iwamoto,A.Zukeran               EVAL-Dec09
# 
# # energies =   100
#   E(MeV)        xs(mb) 
 1.05000E-01    0.00000E+00
 1.10000E-01    0.00000E+00
 1.20000E-01    0.00000E+00
 1.30000E-01    0.00000E+00
 1.40000E-01    0.00000E+00
 1.50000E-01    0.00000E+00
 1.60000E-01    0.00000E+00
 1.70000E-01    0.00000E+00
 1.80000E-01    0.00000E+00
 1.90000E-01    0.00000E+00
 2.00000E-01    0.00000E+00
 2.25000E-01    0.00000E+00
 2.50000E-01    0.00000E+00
 2.75000E-01    0.00000E+00
 3.00000E-01    0.00000E+00
 4.00000E-01    0.00000E+00
 5.00000E-01    0.00000E+00
 6.00000E-01    0.00000E+00
 7.00000E-01    0.00000E+00
 8.00000E-01    0.00000E+00
 9.00000E-01    0.00000E+00
 1.00000E+00    0.00000E+00
 1.10000E+00    0.00000E+00
 1.20000E+00    0.00000E+00
 1.30000E+00    0.00000E+00
 1.40000E+00    0.00000E+00
 1.50000E+00    0.00000E+00
 1.58698E+00    0.00000E+00
 1.60000E+00    0.00000E+00
 1.70000E+00    0.00000E+00
 1.80000E+00    0.00000E+00
 1.90000E+00    0.00000E+00
 2.00000E+00    0.00000E+00
 2.09875E+00    0.00000E+00
 2.11572E+00    0.00000E+00
 2.22501E+00    0.00000E+00
 2.23325E+00    0.00000E+00
 2.25000E+00    0.00000E+00
 2.25995E+00    0.00000E+00
 2.35663E+00    0.00000E+00
 2.40129E+00    0.00000E+00
 2.45449E+00    0.00000E+00
 2.50000E+00    0.00000E+00
 2.53176E+00    0.00000E+00
 2.53288E+00    0.00000E+00
 2.54698E+00    0.00000E+00
 2.56539E+00    0.00000E+00
 2.60145E+00    0.00000E+00
 2.60393E+00    0.00000E+00
 2.67488E+00    0.00000E+00
 2.75000E+00    0.00000E+00
 2.75672E+00    0.00000E+00
 2.79573E+00    0.00000E+00
 2.86609E+00    0.00000E+00
 2.89342E+00    0.00000E+00
 2.90683E+00    0.00000E+00
 2.97902E+00    0.00000E+00
 2.97903E+00    0.00000E+00
 2.99705E+00    0.00000E+00
 3.00000E+00    0.00000E+00
 3.00430E+00    0.00000E+00
 3.03136E+00    0.00000E+00
 3.06684E+00    0.00000E+00
 3.10296E+00    0.00000E+00
 3.10778E+00    0.00000E+00
 3.15029E+00    0.00000E+00
 3.50000E+00    0.00000E+00
 4.00000E+00    0.00000E+00
 4.50000E+00    0.00000E+00
 5.00000E+00    7.82315E-29
 5.50000E+00    2.45001E-28
 6.00000E+00    4.11770E-28
 6.50000E+00    5.79412E-28
 7.00000E+00    8.41180E-28
 7.50000E+00    5.33240E-23
 8.00000E+00    1.75590E-19
 8.50000E+00    7.78960E-17
 9.00000E+00    8.61240E-15
 9.50000E+00    3.47240E-13
 1.00000E+01    6.55460E-12
 1.05000E+01    6.89510E-11
 1.10000E+01    4.54300E-10
 1.15000E+01    2.07330E-09
 1.20000E+01    6.98700E-09
 1.25000E+01    1.86270E-08
 1.30000E+01    4.14380E-08
 1.35000E+01    8.36240E-08
 1.40000E+01    1.69510E-07
 1.45000E+01    3.85470E-07
 1.50000E+01    1.00374E-06
 1.55000E+01    2.65002E-06
 1.60000E+01    6.96135E-06
 1.65000E+01    1.74473E-05
 1.70000E+01    3.88271E-05
 1.75000E+01    8.18138E-05
 1.80000E+01    1.63775E-04
 1.85000E+01    3.11997E-04
 1.90000E+01    5.46795E-04
 1.95000E+01    9.26310E-04
 2.00000E+01    1.51063E-03
