# n + Nd142 : (n,el)    
# jendl4.0   N.Iwamoto,A.Zukeran               EVAL-Dec09
# uncertainties: n
# # energies =   171
#   E(MeV)       xs(mb) 
 1.00000E-11    1.22494E+04
 1.00000E-07    7.69106E+03
 4.13990E-07    7.68778E+03
 5.31580E-07    7.68665E+03
 6.82560E-07    7.68520E+03
 8.76420E-07    7.68349E+03
 1.12540E-06    7.68201E+03
 1.44500E-06    7.68019E+03
 1.85540E-06    7.67788E+03
 2.37240E-06    7.67489E+03
 3.05900E-06    7.67102E+03
 3.92790E-06    7.66609E+03
 5.04350E-06    7.65975E+03
 6.47600E-06    7.65161E+03
 8.31530E-06    7.64116E+03
 1.06770E-05    7.62774E+03
 1.37100E-05    7.61052E+03
 1.76030E-05    7.58840E+03
 2.26030E-05    7.55958E+03
 2.92030E-05    7.52303E+03
 3.72670E-05    7.47669E+03
 4.78510E-05    7.41656E+03
 6.14420E-05    7.33986E+03
 7.88930E-05    7.25201E+03
 1.01300E-04    7.14363E+03
 1.30070E-04    7.00528E+03
 1.67020E-04    6.84482E+03
 2.14450E-04    6.66523E+03
 2.75360E-04    6.43566E+03
 3.53580E-04    6.18644E+03
 4.54000E-04    5.90838E+03
 5.82950E-04    5.60614E+03
 7.48520E-04    5.27523E+03
 9.61120E-04    4.91298E+03
 1.23410E-03    4.48271E+03
 1.58460E-03    4.01557E+03
 2.03470E-03    3.02481E+03
 2.24870E-03    1.32215E+03
 2.48520E-03    1.22463E+05
 2.61260E-03    1.01480E+04
 2.74650E-03    6.23149E+03
 3.03540E-03    5.02546E+03
 3.35460E-03    5.59527E+03
 3.70740E-03    5.21307E+03
 4.30740E-03    1.22204E+04
 5.53080E-03    5.40943E+03
 7.10170E-03    4.62865E+03
 9.11880E-03    6.93891E+03
 1.17090E-02    1.11946E+04
 1.50340E-02    8.74846E+03
 1.93050E-02    1.08774E+04
 2.18750E-02    6.54458E+03
 2.35790E-02    4.55523E+03
 2.41760E-02    3.94972E+03
 2.47880E-02    6.74758E+03
 2.60580E-02    9.93351E+03
 2.70000E-02    9.75190E+03
 2.85000E-02    9.43147E+03
 3.18280E-02    9.09430E+03
 3.43070E-02    8.66416E+03
 4.08680E-02    8.17231E+03
 4.63090E-02    7.78767E+03
 5.24750E-02    7.51533E+03
 5.65620E-02    7.19932E+03
 6.73790E-02    6.90604E+03
 7.20000E-02    6.72175E+03
 7.95000E-02    6.57626E+03
 8.25000E-02    6.49256E+03
 8.65170E-02    6.32504E+03
 9.80370E-02    6.10159E+03
 1.11090E-01    5.96422E+03
 1.16790E-01    5.88752E+03
 1.22770E-01    5.81179E+03
 1.29070E-01    5.74516E+03
 1.35690E-01    5.69349E+03
 1.42640E-01    5.64246E+03
 1.49960E-01    5.59191E+03
 1.57640E-01    5.54198E+03
 1.65730E-01    5.49222E+03
 1.74220E-01    5.44299E+03
 1.83160E-01    5.39420E+03
 1.92550E-01    5.34693E+03
 2.02420E-01    5.32550E+03
 2.12800E-01    5.31481E+03
 2.23710E-01    5.30358E+03
 2.35180E-01    5.29176E+03
 2.47240E-01    5.27281E+03
 2.73240E-01    5.25256E+03
 2.87250E-01    5.24183E+03
 2.94520E-01    5.23681E+03
 2.97200E-01    5.23481E+03
 2.98500E-01    5.23378E+03
 3.01970E-01    5.25784E+03
 3.33730E-01    5.30567E+03
 3.68830E-01    5.34465E+03
 3.87740E-01    5.37300E+03
 4.07620E-01    5.44374E+03
 4.50490E-01    5.55499E+03
 4.97870E-01    5.64776E+03
 5.23400E-01    5.72236E+03
 5.50230E-01    5.80151E+03
 5.78440E-01    5.88473E+03
 6.08100E-01    5.97222E+03
 6.39280E-01    6.06420E+03
 6.72060E-01    6.16087E+03
 7.06510E-01    6.26251E+03
 7.42740E-01    6.36937E+03
 7.80820E-01    6.47486E+03
 8.20850E-01    6.57752E+03
 8.62940E-01    6.68542E+03
 9.07180E-01    6.79552E+03
 9.61640E-01    6.89259E+03
 1.00260E+00    7.00894E+03
 1.10800E+00    7.12209E+03
 1.16480E+00    7.19764E+03
 1.22460E+00    7.23046E+03
 1.28730E+00    7.25364E+03
 1.35340E+00    7.27802E+03
 1.42270E+00    7.30364E+03
 1.49570E+00    7.28667E+03
 1.57240E+00    6.97010E+03
 1.65300E+00    6.63625E+03
 1.73770E+00    6.44937E+03
 1.82680E+00    6.28791E+03
 1.92050E+00    6.13122E+03
 2.01900E+00    5.94205E+03
 2.12250E+00    5.62876E+03
 2.23130E+00    5.35117E+03
 2.30690E+00    5.18471E+03
 2.34570E+00    5.10074E+03
 2.36530E+00    5.05131E+03
 2.38520E+00    4.91482E+03
 2.46600E+00    4.65081E+03
 2.59240E+00    4.33192E+03
 2.72530E+00    4.08825E+03
 2.86500E+00    3.87367E+03
 3.01190E+00    3.67742E+03
 3.16640E+00    3.49472E+03
 3.32870E+00    3.24003E+03
 3.67880E+00    2.93378E+03
 4.06570E+00    2.66437E+03
 4.49330E+00    2.48578E+03
 4.72370E+00    2.38043E+03
 4.96590E+00    2.28665E+03
 5.22050E+00    2.20621E+03
 5.48810E+00    2.13964E+03
 5.76950E+00    2.08651E+03
 6.06530E+00    2.05114E+03
 6.37630E+00    2.02912E+03
 6.59240E+00    2.02363E+03
 6.70320E+00    2.02133E+03
 7.04690E+00    2.03117E+03
 7.40820E+00    2.05509E+03
 7.78800E+00    2.09376E+03
 8.18730E+00    2.14444E+03
 8.60710E+00    2.20441E+03
 9.04840E+00    2.27190E+03
 9.51230E+00    2.34308E+03
 1.00000E+01    2.41596E+03
 1.05130E+01    2.48997E+03
 1.10520E+01    2.55943E+03
 1.16180E+01    2.62538E+03
 1.22140E+01    2.68091E+03
 1.28400E+01    2.72931E+03
 1.34990E+01    2.75638E+03
 1.38400E+01    2.77301E+03
 1.41910E+01    2.78190E+03
 1.45500E+01    2.78984E+03
 1.49180E+01    2.79364E+03
 1.56830E+01    2.78518E+03
 1.64870E+01    2.75988E+03
