# n + Nd142 : (n,n'11)  
# jendl4.0   N.Iwamoto,A.Zukeran               EVAL-Dec09
# uncertainties: n
# # energies =    55
#   E(MeV)       xs(mb) 
 2.53288E+00    0.00000E+00
 2.54698E+00    2.86539E+01
 2.56539E+00    4.02091E+01
 2.60145E+00    5.44700E+01
 2.60393E+00    5.50690E+01
 2.67488E+00    6.82604E+01
 2.75000E+00    7.56433E+01
 2.75672E+00    7.61273E+01
 2.79573E+00    7.87768E+01
 2.86609E+00    7.97491E+01
 2.89342E+00    7.96167E+01
 2.90683E+00    7.98564E+01
 2.97902E+00    8.11078E+01
 2.99705E+00    8.10770E+01
 3.00000E+00    8.05320E+01
 3.00430E+00    8.05836E+01
 3.03136E+00    8.06333E+01
 3.06684E+00    8.07334E+01
 3.10296E+00    8.02513E+01
 3.10778E+00    8.02588E+01
 3.15029E+00    8.03230E+01
 3.50000E+00    7.38840E+01
 4.00000E+00    5.36425E+01
 4.50000E+00    3.19468E+01
 5.00000E+00    1.79301E+01
 5.50000E+00    9.97873E+00
 6.00000E+00    5.53455E+00
 6.50000E+00    3.04682E+00
 7.00000E+00    1.66995E+00
 7.50000E+00    9.24756E-01
 8.00000E+00    5.30352E-01
 8.50000E+00    3.23369E-01
 9.00000E+00    2.13871E-01
 9.50000E+00    1.54665E-01
 1.00000E+01    1.21448E-01
 1.05000E+01    1.01866E-01
 1.10000E+01    8.93349E-02
 1.15000E+01    8.08602E-02
 1.20000E+01    7.44808E-02
 1.25000E+01    6.95499E-02
 1.30000E+01    6.53695E-02
 1.35000E+01    6.18782E-02
 1.40000E+01    5.87708E-02
 1.45000E+01    5.60178E-02
 1.50000E+01    5.35443E-02
 1.55000E+01    5.12780E-02
 1.60000E+01    4.92075E-02
 1.65000E+01    4.72847E-02
 1.70000E+01    4.54950E-02
 1.75000E+01    4.37561E-02
 1.80000E+01    4.21435E-02
 1.85000E+01    4.05648E-02
 1.90000E+01    3.90924E-02
 1.95000E+01    3.76117E-02
 2.00000E+01    3.62110E-02
