# n + Nd142 : (n,h)     
# jendl4.0   N.Iwamoto,A.Zukeran               EVAL-Dec09
# uncertainties: n
# # energies =    66
#   E(MeV)       xs(mb) 
 4.76545E+00    0.00000E+00
 6.37303E+00    5.36190E-28
 6.68230E+00    6.41470E-28
 6.86352E+00    7.54780E-28
 6.88829E+00    7.70420E-28
 7.00000E+00    8.41180E-28
 7.13002E+00    1.38670E-23
 7.13196E+00    1.40740E-23
 7.19461E+00    2.07550E-23
 7.24705E+00    2.63480E-23
 7.26401E+00    2.81570E-23
 7.29909E+00    3.18980E-23
 7.30480E+00    3.25070E-23
 7.33078E+00    3.52770E-23
 7.41302E+00    4.40480E-23
 7.44264E+00    4.72070E-23
 7.50000E+00    5.33240E-23
 7.68572E+00    6.52540E-20
 7.78790E+00    1.01130E-19
 7.80379E+00    1.06710E-19
 7.82706E+00    1.14870E-19
 7.90616E+00    1.42640E-19
 7.95627E+00    1.60240E-19
 8.00000E+00    1.75590E-19
 8.01438E+00    2.41080E-18
 8.04439E+00    7.07560E-18
 8.10945E+00    1.71890E-17
 8.12012E+00    1.88470E-17
 8.18085E+00    2.82870E-17
 8.18429E+00    2.88220E-17
 8.18468E+00    2.88820E-17
 8.21439E+00    3.35010E-17
 8.22265E+00    3.47840E-17
 8.26372E+00    4.11680E-17
 8.26706E+00    4.16880E-17
 8.27441E+00    4.28300E-17
 8.28328E+00    4.42090E-17
 8.30322E+00    4.73080E-17
 8.31134E+00    4.85700E-17
 8.31268E+00    4.87790E-17
 8.32517E+00    5.07200E-17
 8.34169E+00    5.32880E-17
 8.50000E+00    7.78960E-17
 9.00000E+00    8.61240E-15
 9.50000E+00    3.47240E-13
 1.00000E+01    6.55460E-12
 1.05000E+01    6.89510E-11
 1.10000E+01    4.54300E-10
 1.15000E+01    2.07330E-09
 1.20000E+01    6.98700E-09
 1.25000E+01    1.86270E-08
 1.30000E+01    4.14380E-08
 1.35000E+01    8.36240E-08
 1.40000E+01    1.69510E-07
 1.45000E+01    3.85470E-07
 1.50000E+01    1.00374E-06
 1.55000E+01    2.65002E-06
 1.60000E+01    6.96135E-06
 1.65000E+01    1.74473E-05
 1.70000E+01    3.88271E-05
 1.75000E+01    8.18138E-05
 1.80000E+01    1.63775E-04
 1.85000E+01    3.11997E-04
 1.90000E+01    5.46795E-04
 1.95000E+01    9.26310E-04
 2.00000E+01    1.51063E-03
