# n + Nd142 : (n,n')    
# jendl4.0   N.Iwamoto,A.Zukeran               EVAL-Dec09
# uncertainties: n
# # energies =   100
#   E(MeV)       xs(mb) 
 1.05000E-01    0.00000E+00
 1.10000E-01    4.29170E-04
 1.20000E-01    4.69147E-04
 1.30000E-01    4.99914E-04
 1.40000E-01    5.37114E-04
 1.50000E-01    5.70370E-04
 1.60000E-01    5.96164E-04
 1.70000E-01    6.11979E-04
 1.80000E-01    6.23815E-04
 1.90000E-01    6.30897E-04
 2.00000E-01    6.34646E-04
 2.25000E-01    3.16861E-03
 2.50000E-01    3.87447E-03
 2.75000E-01    4.36248E-03
 3.00000E-01    4.61942E-03
 4.00000E-01    1.63341E-02
 5.00000E-01    4.17971E-02
 6.00000E-01    8.89809E-02
 7.00000E-01    1.68205E-01
 8.00000E-01    2.92617E-01
 9.00000E-01    4.78305E-01
 1.00000E+00    7.44788E-01
 1.10000E+00    1.11889E+00
 1.20000E+00    1.61733E+00
 1.30000E+00    2.29237E+00
 1.40000E+00    3.16194E+00
 1.50000E+00    4.25907E+00
 1.58698E+00    5.54924E+00
 1.60000E+00    2.92471E+02
 1.70000E+00    5.68953E+02
 1.80000E+00    6.98585E+02
 1.90000E+00    8.02581E+02
 2.00000E+00    8.96686E+02
 2.09875E+00    9.86067E+02
 2.11572E+00    1.04917E+03
 2.22501E+00    1.29722E+03
 2.23325E+00    1.30893E+03
 2.25000E+00    1.35229E+03
 2.25995E+00    1.36906E+03
 2.35663E+00    1.56515E+03
 2.40129E+00    1.63710E+03
 2.45449E+00    1.75559E+03
 2.50000E+00    1.83042E+03
 2.53176E+00    1.86548E+03
 2.53288E+00    1.86827E+03
 2.54698E+00    1.89625E+03
 2.56539E+00    1.93439E+03
 2.60145E+00    1.99532E+03
 2.60393E+00    2.00478E+03
 2.67488E+00    2.10582E+03
 2.75000E+00    2.17206E+03
 2.75672E+00    2.17691E+03
 2.79573E+00    2.20813E+03
 2.86609E+00    2.25711E+03
 2.89342E+00    2.27953E+03
 2.90683E+00    2.29017E+03
 2.97902E+00    2.33226E+03
 2.97903E+00    2.33226E+03
 2.99705E+00    2.34272E+03
 3.00000E+00    2.34702E+03
 3.00430E+00    2.34867E+03
 3.03136E+00    2.35974E+03
 3.06684E+00    2.37436E+03
 3.10296E+00    2.38999E+03
 3.10778E+00    2.39238E+03
 3.15029E+00    2.40800E+03
 3.50000E+00    2.51254E+03
 4.00000E+00    2.55293E+03
 4.50000E+00    2.52753E+03
 5.00000E+00    2.47508E+03
 5.50000E+00    2.42297E+03
 6.00000E+00    2.38496E+03
 6.50000E+00    2.36363E+03
 7.00000E+00    2.35479E+03
 7.50000E+00    2.35188E+03
 8.00000E+00    2.34922E+03
 8.50000E+00    2.34370E+03
 9.00000E+00    2.33400E+03
 9.50000E+00    2.32079E+03
 1.00000E+01    2.30412E+03
 1.05000E+01    2.19669E+03
 1.10000E+01    1.98091E+03
 1.15000E+01    1.67094E+03
 1.20000E+01    1.35985E+03
 1.25000E+01    1.09825E+03
 1.30000E+01    8.84208E+02
 1.35000E+01    7.12001E+02
 1.40000E+01    5.77707E+02
 1.45000E+01    4.76617E+02
 1.50000E+01    4.01223E+02
 1.55000E+01    3.44404E+02
 1.60000E+01    3.01627E+02
 1.65000E+01    2.71365E+02
 1.70000E+01    2.47932E+02
 1.75000E+01    2.29722E+02
 1.80000E+01    2.15177E+02
 1.85000E+01    2.03603E+02
 1.90000E+01    1.93109E+02
 1.95000E+01    1.84668E+02
 2.00000E+01    1.77242E+02
