# n + Lu176 : (n,n'07)  
# jeff3.3    A.J. Koning and D. Rochman        EVAL-DEC15
# uncertainties: n
# # energies =    95
#   E(MeV)       xs(mb) 
 3.01065E-01    0.00000E+00
 3.07010E-01    2.20072E-01
 3.40787E-01    1.47043E+00
 3.74627E-01    2.72311E+00
 3.83528E-01    3.05261E+00
 3.88787E-01    3.24729E+00
 3.91106E-01    3.33313E+00
 4.00000E-01    3.66237E+00
 4.27327E-01    4.06604E+00
 4.35520E-01    4.18707E+00
 4.39831E-01    4.25075E+00
 4.52688E-01    4.44067E+00
 4.66422E-01    4.64355E+00
 4.90431E-01    4.99821E+00
 4.99196E-01    5.12768E+00
 5.00000E-01    5.13956E+00
 5.07755E-01    5.10839E+00
 5.36141E-01    4.99428E+00
 5.67161E-01    4.86959E+00
 5.81314E-01    4.81270E+00
 5.95166E-01    4.75702E+00
 5.99160E-01    4.74097E+00
 6.00000E-01    4.73759E+00
 6.16967E-01    4.57828E+00
 6.18626E-01    4.56270E+00
 6.38837E-01    4.37293E+00
 6.41416E-01    4.34871E+00
 7.00000E-01    3.79864E+00
 8.00000E-01    3.02137E+00
 9.00000E-01    2.44560E+00
 1.00000E+00    2.02304E+00
 1.20000E+00    1.46883E+00
 1.40000E+00    1.12543E+00
 1.60000E+00    8.85290E-01
 1.80000E+00    7.02129E-01
 2.00000E+00    5.55941E-01
 2.20000E+00    4.37327E-01
 2.40000E+00    3.41315E-01
 2.60000E+00    2.64592E-01
 2.80000E+00    2.04082E-01
 3.00000E+00    1.56826E-01
 3.20000E+00    1.20390E-01
 3.40000E+00    9.25011E-02
 3.60000E+00    7.12968E-02
 3.80000E+00    5.51329E-02
 4.00000E+00    4.28171E-02
 4.20000E+00    3.34062E-02
 4.40000E+00    2.61654E-02
 4.60000E+00    2.05339E-02
 4.80000E+00    1.61341E-02
 5.00000E+00    1.26570E-02
 5.20000E+00    9.92718E-03
 5.40000E+00    7.76512E-03
 5.60000E+00    6.05982E-03
 5.80000E+00    4.68862E-03
 6.00000E+00    3.63207E-03
 6.20000E+00    2.81269E-03
 6.40000E+00    2.17750E-03
 6.60000E+00    1.68788E-03
 6.80000E+00    1.30783E-03
 7.00000E+00    1.01357E-03
 7.20000E+00    7.86669E-04
 7.40000E+00    6.10578E-04
 7.60000E+00    4.75141E-04
 7.80000E+00    3.70196E-04
 8.00000E+00    2.88998E-04
 8.50000E+00    1.57373E-04
 9.00000E+00    8.70724E-05
 9.50000E+00    4.88679E-05
 1.00000E+01    2.77377E-05
 1.05000E+01    1.58798E-05
 1.10000E+01    9.14392E-06
 1.15000E+01    5.28948E-06
 1.20000E+01    3.07145E-06
 1.25000E+01    1.79081E-06
 1.30000E+01    1.05037E-06
 1.35000E+01    6.19730E-07
 1.40000E+01    3.68010E-07
 1.45000E+01    2.20090E-07
 1.50000E+01    1.32600E-07
 1.60000E+01    4.92440E-08
 1.70000E+01    1.88320E-08
 1.80000E+01    7.34260E-09
 1.90000E+01    2.93850E-09
 2.00000E+01    1.19710E-09
 2.10000E+01    4.95990E-10
 2.20000E+01    2.08230E-10
 2.30000E+01    8.89730E-11
 2.40000E+01    3.86140E-11
 2.50000E+01    1.70420E-11
 2.60000E+01    7.64300E-12
 2.70000E+01    3.48100E-12
 2.80000E+01    1.60670E-12
 2.90000E+01    7.50760E-13
 3.00000E+01    3.54610E-13
