# n + Lu176 : (n,n'16)  
# jeff3.3    A.J. Koning and D. Rochman        EVAL-DEC15
# uncertainties: n
# # energies =    85
#   E(MeV)       xs(mb) 
 4.39831E-01    0.00000E+00
 4.52688E-01    1.92388E+01
 4.66422E-01    3.97899E+01
 4.90431E-01    7.57161E+01
 4.99196E-01    8.88317E+01
 5.00000E-01    9.00348E+01
 5.07755E-01    9.11991E+01
 5.36141E-01    9.54607E+01
 5.67161E-01    1.00118E+02
 5.81314E-01    1.02243E+02
 5.95166E-01    1.04322E+02
 5.99160E-01    1.04922E+02
 6.00000E-01    1.05048E+02
 6.16967E-01    1.05188E+02
 6.18626E-01    1.05201E+02
 6.38837E-01    1.05368E+02
 6.41416E-01    1.05389E+02
 7.00000E-01    1.05871E+02
 8.00000E-01    9.13264E+01
 9.00000E-01    7.24152E+01
 1.00000E+00    5.45060E+01
 1.20000E+00    2.93979E+01
 1.40000E+00    1.61831E+01
 1.60000E+00    9.37814E+00
 1.80000E+00    5.74387E+00
 2.00000E+00    3.71547E+00
 2.20000E+00    2.53678E+00
 2.40000E+00    1.82957E+00
 2.60000E+00    1.39575E+00
 2.80000E+00    1.12601E+00
 3.00000E+00    9.57861E-01
 3.20000E+00    8.55472E-01
 3.40000E+00    7.97013E-01
 3.60000E+00    7.69139E-01
 3.80000E+00    7.62980E-01
 4.00000E+00    7.72705E-01
 4.20000E+00    7.93906E-01
 4.40000E+00    8.22841E-01
 4.60000E+00    8.56166E-01
 4.80000E+00    8.90912E-01
 5.00000E+00    9.24484E-01
 5.20000E+00    9.54816E-01
 5.40000E+00    9.80513E-01
 5.60000E+00    1.00086E+00
 5.80000E+00    1.01570E+00
 6.00000E+00    1.02554E+00
 6.20000E+00    1.03106E+00
 6.40000E+00    1.03311E+00
 6.60000E+00    1.03258E+00
 6.80000E+00    1.03028E+00
 7.00000E+00    1.02693E+00
 7.20000E+00    1.02317E+00
 7.40000E+00    1.01942E+00
 7.60000E+00    1.01609E+00
 7.80000E+00    1.01343E+00
 8.00000E+00    1.01157E+00
 8.50000E+00    1.01075E+00
 9.00000E+00    1.01455E+00
 9.50000E+00    1.02066E+00
 1.00000E+01    1.02628E+00
 1.05000E+01    1.02895E+00
 1.10000E+01    1.02718E+00
 1.15000E+01    1.02054E+00
 1.20000E+01    1.00944E+00
 1.25000E+01    9.94855E-01
 1.30000E+01    9.77919E-01
 1.35000E+01    9.59692E-01
 1.40000E+01    9.41020E-01
 1.45000E+01    9.22510E-01
 1.50000E+01    9.04528E-01
 1.60000E+01    8.70699E-01
 1.70000E+01    8.39582E-01
 1.80000E+01    8.10447E-01
 1.90000E+01    7.82550E-01
 2.00000E+01    7.55360E-01
 2.10000E+01    7.28702E-01
 2.20000E+01    7.02807E-01
 2.30000E+01    6.78103E-01
 2.40000E+01    6.54938E-01
 2.50000E+01    6.33437E-01
 2.60000E+01    6.13513E-01
 2.70000E+01    5.94947E-01
 2.80000E+01    5.77442E-01
 2.90000E+01    5.60727E-01
 3.00000E+01    5.44631E-01
