# n + Lu176 : (n,n'27)  
# jeff3.3    A.J. Koning and D. Rochman        EVAL-DEC15
# uncertainties: n
# # energies =    72
#   E(MeV)       xs(mb) 
 6.16967E-01    0.00000E+00
 6.18626E-01    5.71768E-01
 6.38837E-01    7.53750E+00
 6.41416E-01    8.42637E+00
 7.00000E-01    2.86174E+01
 8.00000E-01    3.81668E+01
 9.00000E-01    4.41108E+01
 1.00000E+00    4.40534E+01
 1.20000E+00    3.32535E+01
 1.40000E+00    2.13923E+01
 1.60000E+00    1.32301E+01
 1.80000E+00    8.20734E+00
 2.00000E+00    5.18058E+00
 2.20000E+00    3.33877E+00
 2.40000E+00    2.19700E+00
 2.60000E+00    1.47482E+00
 2.80000E+00    1.00826E+00
 3.00000E+00    7.00324E-01
 3.20000E+00    4.93775E-01
 3.40000E+00    3.52963E-01
 3.60000E+00    2.55749E-01
 3.80000E+00    1.87489E-01
 4.00000E+00    1.39030E-01
 4.20000E+00    1.04276E-01
 4.40000E+00    7.89926E-02
 4.60000E+00    6.03152E-02
 4.80000E+00    4.63531E-02
 5.00000E+00    3.57727E-02
 5.20000E+00    2.77004E-02
 5.40000E+00    2.14364E-02
 5.60000E+00    1.66170E-02
 5.80000E+00    1.27591E-02
 6.00000E+00    9.81509E-03
 6.20000E+00    7.54722E-03
 6.40000E+00    5.78916E-03
 6.60000E+00    4.44269E-03
 6.80000E+00    3.40470E-03
 7.00000E+00    2.60631E-03
 7.20000E+00    1.99635E-03
 7.40000E+00    1.52815E-03
 7.60000E+00    1.17122E-03
 7.80000E+00    8.98474E-04
 8.00000E+00    6.90063E-04
 8.50000E+00    3.60295E-04
 9.00000E+00    1.91246E-04
 9.50000E+00    1.03311E-04
 1.00000E+01    5.67273E-05
 1.05000E+01    3.15974E-05
 1.10000E+01    1.78007E-05
 1.15000E+01    1.01236E-05
 1.20000E+01    5.80247E-06
 1.25000E+01    3.34984E-06
 1.30000E+01    1.95013E-06
 1.35000E+01    1.14406E-06
 1.40000E+01    6.76460E-07
 1.45000E+01    4.03260E-07
 1.50000E+01    2.42390E-07
 1.60000E+01    8.97950E-08
 1.70000E+01    3.43260E-08
 1.80000E+01    1.33970E-08
 1.90000E+01    5.37210E-09
 2.00000E+01    2.19510E-09
 2.10000E+01    9.13070E-10
 2.20000E+01    3.84960E-10
 2.30000E+01    1.65190E-10
 2.40000E+01    7.19990E-11
 2.50000E+01    3.19180E-11
 2.60000E+01    1.43840E-11
 2.70000E+01    6.58670E-12
 2.80000E+01    3.05800E-12
 2.90000E+01    1.43750E-12
 3.00000E+01    6.82950E-13
