# n + Lu176 : (n,n'12)  
# jeff3.3    A.J. Koning and D. Rochman        EVAL-DEC15
# uncertainties: n
# # energies =    90
#   E(MeV)       xs(mb) 
 3.88787E-01    0.00000E+00
 3.91106E-01    3.61766E-06
 4.00000E-01    1.74923E-05
 4.27327E-01    3.98301E-02
 4.35520E-01    5.17664E-02
 4.39831E-01    5.80471E-02
 4.52688E-01    7.67784E-02
 4.66422E-01    9.67874E-02
 4.90431E-01    1.31766E-01
 4.99196E-01    1.44536E-01
 5.00000E-01    1.45707E-01
 5.07755E-01    1.48577E-01
 5.36141E-01    1.59080E-01
 5.67161E-01    1.70558E-01
 5.81314E-01    1.75795E-01
 5.95166E-01    1.80920E-01
 5.99160E-01    1.82398E-01
 6.00000E-01    1.82709E-01
 6.16967E-01    1.88138E-01
 6.18626E-01    1.88669E-01
 6.38837E-01    1.95136E-01
 6.41416E-01    1.95961E-01
 7.00000E-01    2.14707E-01
 8.00000E-01    2.44599E-01
 9.00000E-01    2.72737E-01
 1.00000E+00    2.98957E-01
 1.20000E+00    3.46996E-01
 1.40000E+00    3.91429E-01
 1.60000E+00    4.33169E-01
 1.80000E+00    4.71682E-01
 2.00000E+00    5.06285E-01
 2.20000E+00    5.36228E-01
 2.40000E+00    5.60974E-01
 2.60000E+00    5.80308E-01
 2.80000E+00    5.94329E-01
 3.00000E+00    6.03432E-01
 3.20000E+00    6.08327E-01
 3.40000E+00    6.09773E-01
 3.60000E+00    6.08689E-01
 3.80000E+00    6.05932E-01
 4.00000E+00    6.02308E-01
 4.20000E+00    5.98504E-01
 4.40000E+00    5.95062E-01
 4.60000E+00    5.92370E-01
 4.80000E+00    5.90672E-01
 5.00000E+00    5.90059E-01
 5.20000E+00    5.90512E-01
 5.40000E+00    5.91917E-01
 5.60000E+00    5.94089E-01
 5.80000E+00    5.96824E-01
 6.00000E+00    5.99953E-01
 6.20000E+00    6.03299E-01
 6.40000E+00    6.06744E-01
 6.60000E+00    6.10217E-01
 6.80000E+00    6.13660E-01
 7.00000E+00    6.17083E-01
 7.20000E+00    6.20503E-01
 7.40000E+00    6.23949E-01
 7.60000E+00    6.27458E-01
 7.80000E+00    6.31057E-01
 8.00000E+00    6.34767E-01
 8.50000E+00    6.44539E-01
 9.00000E+00    6.54840E-01
 9.50000E+00    6.65161E-01
 1.00000E+01    6.74840E-01
 1.05000E+01    6.83234E-01
 1.10000E+01    6.89821E-01
 1.15000E+01    6.94298E-01
 1.20000E+01    6.96572E-01
 1.25000E+01    6.96725E-01
 1.30000E+01    6.94952E-01
 1.35000E+01    6.91514E-01
 1.40000E+01    6.86705E-01
 1.45000E+01    6.80856E-01
 1.50000E+01    6.74323E-01
 1.60000E+01    6.60714E-01
 1.70000E+01    6.48846E-01
 1.80000E+01    6.41082E-01
 1.90000E+01    6.38609E-01
 2.00000E+01    6.41195E-01
 2.10000E+01    6.47366E-01
 2.20000E+01    6.55120E-01
 2.30000E+01    6.62870E-01
 2.40000E+01    6.69969E-01
 2.50000E+01    6.76585E-01
 2.60000E+01    6.83266E-01
 2.70000E+01    6.90516E-01
 2.80000E+01    6.98502E-01
 2.90000E+01    7.07002E-01
 3.00000E+01    7.15530E-01
