# n + Lu176 : (n,n'23)  
# jeff3.3    A.J. Koning and D. Rochman        EVAL-DEC15
# uncertainties: n
# # energies =    77
#   E(MeV)       xs(mb) 
 5.67161E-01    0.00000E+00
 5.81314E-01    4.55371E+01
 5.95166E-01    9.01057E+01
 5.99160E-01    1.02956E+02
 6.00000E-01    1.05659E+02
 6.16967E-01    1.08049E+02
 6.18626E-01    1.08283E+02
 6.38837E-01    1.11130E+02
 6.41416E-01    1.11493E+02
 7.00000E-01    1.19745E+02
 8.00000E-01    1.11251E+02
 9.00000E-01    9.79842E+01
 1.00000E+00    8.03914E+01
 1.20000E+00    4.74075E+01
 1.40000E+00    2.65763E+01
 1.60000E+00    1.51208E+01
 1.80000E+00    8.88334E+00
 2.00000E+00    5.40104E+00
 2.20000E+00    3.38930E+00
 2.40000E+00    2.18725E+00
 2.60000E+00    1.44708E+00
 2.80000E+00    9.78272E-01
 3.00000E+00    6.73307E-01
 3.20000E+00    4.70889E-01
 3.40000E+00    3.33967E-01
 3.60000E+00    2.40018E-01
 3.80000E+00    1.74464E-01
 4.00000E+00    1.28234E-01
 4.20000E+00    9.53291E-02
 4.40000E+00    7.16296E-02
 4.60000E+00    5.43210E-02
 4.80000E+00    4.15276E-02
 5.00000E+00    3.19540E-02
 5.20000E+00    2.47106E-02
 5.40000E+00    1.91380E-02
 5.60000E+00    1.48735E-02
 5.80000E+00    1.14520E-02
 6.00000E+00    8.84681E-03
 6.20000E+00    6.83130E-03
 6.40000E+00    5.26430E-03
 6.60000E+00    4.05824E-03
 6.80000E+00    3.12228E-03
 7.00000E+00    2.39838E-03
 7.20000E+00    1.84239E-03
 7.40000E+00    1.41349E-03
 7.60000E+00    1.08517E-03
 7.80000E+00    8.33618E-04
 8.00000E+00    6.40743E-04
 8.50000E+00    3.34701E-04
 9.00000E+00    1.77438E-04
 9.50000E+00    9.56373E-05
 1.00000E+01    5.23788E-05
 1.05000E+01    2.91037E-05
 1.10000E+01    1.63609E-05
 1.15000E+01    9.28827E-06
 1.20000E+01    5.31583E-06
 1.25000E+01    3.06495E-06
 1.30000E+01    1.78211E-06
 1.35000E+01    1.04421E-06
 1.40000E+01    6.16600E-07
 1.45000E+01    3.67040E-07
 1.50000E+01    2.20250E-07
 1.60000E+01    8.12730E-08
 1.70000E+01    3.09240E-08
 1.80000E+01    1.20060E-08
 1.90000E+01    4.78840E-09
 2.00000E+01    1.94640E-09
 2.10000E+01    8.05790E-10
 2.20000E+01    3.38280E-10
 2.30000E+01    1.44580E-10
 2.40000E+01    6.27540E-11
 2.50000E+01    2.77000E-11
 2.60000E+01    1.24270E-11
 2.70000E+01    5.66430E-12
 2.80000E+01    2.61800E-12
 2.90000E+01    1.22550E-12
 3.00000E+01    5.79980E-13
