# n + W 180 : (n,n'25)  
# jendl4.0   N.Iwamoto                         EVAL-Feb10
# uncertainties: n
# # energies =    55
#   E(MeV)       xs(mb) 
 1.67347E+00    0.00000E+00
 1.70000E+00    5.96460E-08
 1.70305E+00    7.88110E-08
 1.70450E+00    8.90810E-08
 1.71249E+00    1.60600E-07
 1.73521E+00    5.29020E-07
 1.73951E+00    6.34450E-07
 1.77429E+00    1.95185E-06
 1.79481E+00    3.20487E-06
 1.80000E+00    3.59120E-06
 1.82498E+00    5.90641E-06
 1.84107E+00    7.80846E-06
 1.84196E+00    7.91199E-06
 1.86150E+00    1.06609E-05
 1.86556E+00    1.13076E-05
 1.90000E+00    1.79658E-05
 2.00000E+00    5.68674E-05
 2.25000E+00    3.17772E-04
 2.50000E+00    9.77157E-04
 2.75000E+00    2.43389E-03
 3.00000E+00    8.04929E-01
 3.50000E+00    8.58825E-01
 4.00000E+00    8.64594E-01
 4.50000E+00    8.40601E-01
 5.00000E+00    8.01119E-01
 5.50000E+00    7.55474E-01
 6.00000E+00    7.09234E-01
 6.50000E+00    6.63511E-01
 7.00000E+00    6.19468E-01
 7.50000E+00    5.77598E-01
 8.00000E+00    5.38650E-01
 8.50000E+00    5.02886E-01
 9.00000E+00    4.70280E-01
 9.50000E+00    4.40556E-01
 1.00000E+01    4.13377E-01
 1.05000E+01    3.88462E-01
 1.10000E+01    3.65486E-01
 1.15000E+01    3.44211E-01
 1.20000E+01    3.24452E-01
 1.25000E+01    3.06148E-01
 1.30000E+01    2.89285E-01
 1.35000E+01    2.73903E-01
 1.40000E+01    2.60047E-01
 1.45000E+01    2.47715E-01
 1.50000E+01    2.36862E-01
 1.55000E+01    2.27407E-01
 1.60000E+01    2.19242E-01
 1.65000E+01    2.12220E-01
 1.70000E+01    2.06157E-01
 1.75000E+01    2.00845E-01
 1.80000E+01    1.96086E-01
 1.85000E+01    1.91746E-01
 1.90000E+01    1.87780E-01
 1.95000E+01    1.84218E-01
 2.00000E+01    1.81096E-01
