# n + W 180 : (n,d)     
# jendl4.0   N.Iwamoto                         EVAL-Feb10
# uncertainties: n
# # energies =    55
#   E(MeV)       xs(mb) 
 4.36691E+00    0.00000E+00
 4.39778E+00    3.06030E-25
 4.50144E+00    1.57630E-24
 4.54881E+00    2.93770E-20
 4.60686E+00    7.50550E-20
 4.66333E+00    1.21580E-19
 4.71286E+00    1.62730E-19
 4.72528E+00    1.73070E-19
 4.84685E+00    2.74330E-19
 4.85105E+00    2.77830E-19
 4.89010E+00    3.10360E-19
 4.89743E+00    3.16470E-19
 4.92585E+00    3.40140E-19
 4.99842E+00    4.00590E-19
 4.99846E+00    4.00630E-19
 5.00726E+00    4.12000E-19
 5.04374E+00    4.64770E-19
 5.06298E+00    4.94490E-19
 5.06688E+00    5.00590E-19
 5.11256E+00    5.74450E-19
 5.12131E+00    5.88680E-19
 5.12815E+00    5.99820E-19
 5.14934E+00    6.34450E-19
 5.15259E+00    6.39760E-19
 5.19261E+00    7.05330E-19
 5.50000E+00    1.20920E-18
 6.00000E+00    2.91690E-17
 6.50000E+00    1.50020E-13
 7.00000E+00    4.97760E-11
 7.50000E+00    3.93330E-09
 8.00000E+00    8.36190E-08
 8.50000E+00    1.43881E-06
 9.00000E+00    1.50593E-05
 9.50000E+00    1.05672E-04
 1.00000E+01    5.40468E-04
 1.05000E+01    2.15232E-03
 1.10000E+01    7.00290E-03
 1.15000E+01    1.92875E-02
 1.20000E+01    4.61418E-02
 1.25000E+01    9.77064E-02
 1.30000E+01    1.85855E-01
 1.35000E+01    3.21718E-01
 1.40000E+01    5.13088E-01
 1.45000E+01    7.63025E-01
 1.50000E+01    1.07008E+00
 1.55000E+01    1.42954E+00
 1.60000E+01    1.83485E+00
 1.65000E+01    2.27875E+00
 1.70000E+01    2.75394E+00
 1.75000E+01    3.25350E+00
 1.80000E+01    3.77112E+00
 1.85000E+01    4.30125E+00
 1.90000E+01    4.83818E+00
 1.95000E+01    5.28380E+00
 2.00000E+01    5.81294E+00
