# n + W 180 : (n,n'08)  
# jendl4.0   N.Iwamoto                         EVAL-Feb10
# uncertainties: n
# # energies =    77
#   E(MeV)       xs(mb) 
 1.19149E+00    0.00000E+00
 1.20000E+00    1.04561E+01
 1.23957E+00    2.41797E+01
 1.30000E+00    3.84053E+01
 1.31487E+00    4.15963E+01
 1.32948E+00    4.46928E+01
 1.36811E+00    5.19093E+01
 1.38975E+00    5.55694E+01
 1.40000E+00    5.73357E+01
 1.46998E+00    6.87936E+01
 1.47824E+00    6.99987E+01
 1.50000E+00    7.30342E+01
 1.52450E+00    7.65363E+01
 1.53758E+00    7.84066E+01
 1.54419E+00    7.93521E+01
 1.57692E+00    8.37646E+01
 1.59614E+00    8.60224E+01
 1.60000E+00    8.62590E+01
 1.63328E+00    8.91569E+01
 1.64202E+00    8.99400E+01
 1.64380E+00    8.99423E+01
 1.64896E+00    9.01664E+01
 1.67347E+00    9.17210E+01
 1.70000E+00    9.35239E+01
 1.70305E+00    9.37275E+01
 1.70450E+00    9.35689E+01
 1.71249E+00    9.37342E+01
 1.73521E+00    9.48706E+01
 1.73951E+00    9.51167E+01
 1.77429E+00    9.72569E+01
 1.79481E+00    9.85574E+01
 1.80000E+00    9.88733E+01
 1.82498E+00    1.00336E+02
 1.84107E+00    1.00681E+02
 1.84196E+00    1.00700E+02
 1.86150E+00    1.00641E+02
 1.86556E+00    1.00672E+02
 1.90000E+00    1.01080E+02
 2.00000E+00    1.00517E+02
 2.25000E+00    9.19598E+01
 2.50000E+00    6.94489E+01
 2.75000E+00    5.26750E+01
 3.00000E+00    3.64909E+01
 3.50000E+00    1.75701E+01
 4.00000E+00    8.25651E+00
 4.50000E+00    3.97131E+00
 5.00000E+00    2.06995E+00
 5.50000E+00    1.23338E+00
 6.00000E+00    8.58486E-01
 6.50000E+00    6.78077E-01
 7.00000E+00    5.80303E-01
 7.50000E+00    5.17848E-01
 8.00000E+00    4.71752E-01
 8.50000E+00    4.34358E-01
 9.00000E+00    4.02442E-01
 9.50000E+00    3.74418E-01
 1.00000E+01    3.49326E-01
 1.05000E+01    3.26601E-01
 1.10000E+01    3.05783E-01
 1.15000E+01    2.86592E-01
 1.20000E+01    2.68897E-01
 1.25000E+01    2.52600E-01
 1.30000E+01    2.37641E-01
 1.35000E+01    2.23958E-01
 1.40000E+01    2.11476E-01
 1.45000E+01    2.00092E-01
 1.50000E+01    1.89684E-01
 1.55000E+01    1.80128E-01
 1.60000E+01    1.71303E-01
 1.65000E+01    1.63098E-01
 1.70000E+01    1.55416E-01
 1.75000E+01    1.48178E-01
 1.80000E+01    1.41318E-01
 1.85000E+01    1.34796E-01
 1.90000E+01    1.28592E-01
 1.95000E+01    1.22700E-01
 2.00000E+01    1.17123E-01
