# n + W 180 : (n,n'10)  
# jendl4.0   N.Iwamoto                         EVAL-Feb10
# uncertainties: n
# # energies =    73
#   E(MeV)       xs(mb) 
 1.31487E+00    0.00000E+00
 1.32948E+00    4.18531E-01
 1.36811E+00    1.39437E+00
 1.38975E+00    2.04937E+00
 1.40000E+00    2.40603E+00
 1.46998E+00    5.44686E+00
 1.47824E+00    5.84132E+00
 1.50000E+00    6.85953E+00
 1.52450E+00    8.17014E+00
 1.53758E+00    8.91890E+00
 1.54419E+00    9.30922E+00
 1.57692E+00    1.11590E+01
 1.59614E+00    1.21798E+01
 1.60000E+00    1.24002E+01
 1.63328E+00    1.43753E+01
 1.64202E+00    1.49170E+01
 1.64380E+00    1.50096E+01
 1.64896E+00    1.52565E+01
 1.67347E+00    1.66151E+01
 1.70000E+00    1.82321E+01
 1.70305E+00    1.84216E+01
 1.70450E+00    1.84541E+01
 1.71249E+00    1.88715E+01
 1.73521E+00    1.99630E+01
 1.73951E+00    2.01767E+01
 1.77429E+00    2.19534E+01
 1.79481E+00    2.30220E+01
 1.80000E+00    2.32941E+01
 1.82498E+00    2.46111E+01
 1.84107E+00    2.54751E+01
 1.84196E+00    2.55228E+01
 1.86150E+00    2.64896E+01
 1.86556E+00    2.67007E+01
 1.90000E+00    2.85323E+01
 2.00000E+00    3.23456E+01
 2.25000E+00    3.63611E+01
 2.50000E+00    3.19044E+01
 2.75000E+00    2.67963E+01
 3.00000E+00    2.06219E+01
 3.50000E+00    1.13977E+01
 4.00000E+00    6.02234E+00
 4.50000E+00    3.23989E+00
 5.00000E+00    1.88876E+00
 5.50000E+00    1.24609E+00
 6.00000E+00    9.35157E-01
 6.50000E+00    7.72671E-01
 7.00000E+00    6.76526E-01
 7.50000E+00    6.10280E-01
 8.00000E+00    5.58819E-01
 8.50000E+00    5.15872E-01
 9.00000E+00    4.78679E-01
 9.50000E+00    4.45791E-01
 1.00000E+01    4.16249E-01
 1.05000E+01    3.89453E-01
 1.10000E+01    3.64884E-01
 1.15000E+01    3.42219E-01
 1.20000E+01    3.21296E-01
 1.25000E+01    3.02001E-01
 1.30000E+01    2.84261E-01
 1.35000E+01    2.68006E-01
 1.40000E+01    2.53156E-01
 1.45000E+01    2.39595E-01
 1.50000E+01    2.27188E-01
 1.55000E+01    2.15793E-01
 1.60000E+01    2.05270E-01
 1.65000E+01    1.95488E-01
 1.70000E+01    1.86323E-01
 1.75000E+01    1.77687E-01
 1.80000E+01    1.69506E-01
 1.85000E+01    1.61729E-01
 1.90000E+01    1.54329E-01
 1.95000E+01    1.47298E-01
 2.00000E+01    1.40638E-01
