# n + W 180 : (n,n'19)  
# jendl4.0   N.Iwamoto                         EVAL-Feb10
# uncertainties: n
# # energies =    62
#   E(MeV)       xs(mb) 
 1.57692E+00    0.00000E+00
 1.59614E+00    1.93236E+00
 1.60000E+00    2.14999E+00
 1.63328E+00    3.86179E+00
 1.64202E+00    4.30371E+00
 1.64380E+00    4.39211E+00
 1.64896E+00    4.61457E+00
 1.67347E+00    5.74627E+00
 1.70000E+00    7.02861E+00
 1.70305E+00    7.17901E+00
 1.70450E+00    7.23045E+00
 1.71249E+00    7.59725E+00
 1.73521E+00    8.71499E+00
 1.73951E+00    8.91570E+00
 1.77429E+00    1.05808E+01
 1.79481E+00    1.15966E+01
 1.80000E+00    1.18572E+01
 1.82498E+00    1.31336E+01
 1.84107E+00    1.38929E+01
 1.84196E+00    1.39338E+01
 1.86150E+00    1.48333E+01
 1.86556E+00    1.50210E+01
 1.90000E+00    1.66329E+01
 2.00000E+00    2.07596E+01
 2.25000E+00    2.62727E+01
 2.50000E+00    2.43239E+01
 2.75000E+00    2.15696E+01
 3.00000E+00    1.70512E+01
 3.50000E+00    9.82995E+00
 4.00000E+00    5.30904E+00
 4.50000E+00    2.86274E+00
 5.00000E+00    1.64513E+00
 5.50000E+00    1.06067E+00
 6.00000E+00    7.79246E-01
 6.50000E+00    6.35144E-01
 7.00000E+00    5.52803E-01
 7.50000E+00    4.97906E-01
 8.00000E+00    4.56099E-01
 8.50000E+00    4.21450E-01
 9.00000E+00    3.91477E-01
 9.50000E+00    3.64963E-01
 1.00000E+01    3.41140E-01
 1.05000E+01    3.19534E-01
 1.10000E+01    2.99727E-01
 1.15000E+01    2.81460E-01
 1.20000E+01    2.64563E-01
 1.25000E+01    2.48948E-01
 1.30000E+01    2.34550E-01
 1.35000E+01    2.21313E-01
 1.40000E+01    2.09182E-01
 1.45000E+01    1.98075E-01
 1.50000E+01    1.87895E-01
 1.55000E+01    1.78540E-01
 1.60000E+01    1.69900E-01
 1.65000E+01    1.61874E-01
 1.70000E+01    1.54363E-01
 1.75000E+01    1.47291E-01
 1.80000E+01    1.40593E-01
 1.85000E+01    1.34229E-01
 1.90000E+01    1.28171E-01
 1.95000E+01    1.22410E-01
 2.00000E+01    1.16944E-01
