# n + W 180 : (n,n'29)  
# jendl4.0   N.Iwamoto                         EVAL-Feb10
# uncertainties: n
# # energies =    50
#   E(MeV)       xs(mb) 
 1.73521E+00    0.00000E+00
 1.73951E+00    2.14880E-07
 1.77429E+00    9.56480E-06
 1.79481E+00    2.21871E-05
 1.80000E+00    2.64734E-05
 1.82498E+00    5.31725E-05
 1.84107E+00    7.66284E-05
 1.84196E+00    7.76825E-05
 1.86150E+00    1.11653E-04
 1.86556E+00    1.19874E-04
 1.90000E+00    2.06150E-04
 2.00000E+00    6.58284E-04
 2.25000E+00    3.73869E-03
 2.50000E+00    1.06496E-02
 2.75000E+00    2.41291E-02
 3.00000E+00    4.49715E-01
 3.50000E+00    5.14974E-01
 4.00000E+00    5.33759E-01
 4.50000E+00    5.10967E-01
 5.00000E+00    4.67758E-01
 5.50000E+00    4.22135E-01
 6.00000E+00    3.82472E-01
 6.50000E+00    3.49255E-01
 7.00000E+00    3.21215E-01
 7.50000E+00    2.96737E-01
 8.00000E+00    2.74980E-01
 8.50000E+00    2.55473E-01
 9.00000E+00    2.37949E-01
 9.50000E+00    2.22166E-01
 1.00000E+01    2.07869E-01
 1.05000E+01    1.94858E-01
 1.10000E+01    1.82914E-01
 1.15000E+01    1.71890E-01
 1.20000E+01    1.61681E-01
 1.25000E+01    1.52240E-01
 1.30000E+01    1.43522E-01
 1.35000E+01    1.35491E-01
 1.40000E+01    1.28114E-01
 1.45000E+01    1.21347E-01
 1.50000E+01    1.15137E-01
 1.55000E+01    1.09425E-01
 1.60000E+01    1.04150E-01
 1.65000E+01    9.92495E-02
 1.70000E+01    9.46662E-02
 1.75000E+01    9.03518E-02
 1.80000E+01    8.62675E-02
 1.85000E+01    8.23882E-02
 1.90000E+01    7.86969E-02
 1.95000E+01    7.51859E-02
 2.00000E+01    7.18521E-02
