# n + W 180 : (n,n'15)  
# jendl4.0   N.Iwamoto                         EVAL-Feb10
# uncertainties: n
# # energies =    67
#   E(MeV)       xs(mb) 
 1.47824E+00    0.00000E+00
 1.50000E+00    2.33915E+00
 1.52450E+00    3.77559E+00
 1.53758E+00    4.51956E+00
 1.54419E+00    4.89483E+00
 1.57692E+00    6.64889E+00
 1.59614E+00    7.62315E+00
 1.60000E+00    7.83390E+00
 1.63328E+00    9.73060E+00
 1.64202E+00    1.02265E+01
 1.64380E+00    1.03253E+01
 1.64896E+00    1.05594E+01
 1.67347E+00    1.17722E+01
 1.70000E+00    1.32155E+01
 1.70305E+00    1.33849E+01
 1.70450E+00    1.34266E+01
 1.71249E+00    1.38166E+01
 1.73521E+00    1.49990E+01
 1.73951E+00    1.52066E+01
 1.77429E+00    1.69250E+01
 1.79481E+00    1.79575E+01
 1.80000E+00    1.82202E+01
 1.82498E+00    1.94953E+01
 1.84107E+00    2.03282E+01
 1.84196E+00    2.03742E+01
 1.86150E+00    2.13798E+01
 1.86556E+00    2.15893E+01
 1.90000E+00    2.31240E+01
 2.00000E+00    2.66228E+01
 2.25000E+00    3.04896E+01
 2.50000E+00    2.75002E+01
 2.75000E+00    2.35173E+01
 3.00000E+00    1.82254E+01
 3.50000E+00    1.02652E+01
 4.00000E+00    5.44462E+00
 4.50000E+00    2.88735E+00
 5.00000E+00    1.63084E+00
 5.50000E+00    1.03306E+00
 6.00000E+00    7.47522E-01
 6.50000E+00    6.02870E-01
 7.00000E+00    5.21291E-01
 7.50000E+00    4.67787E-01
 8.00000E+00    4.27586E-01
 8.50000E+00    3.94601E-01
 9.00000E+00    3.66241E-01
 9.50000E+00    3.41237E-01
 1.00000E+01    3.18811E-01
 1.05000E+01    2.98486E-01
 1.10000E+01    2.79858E-01
 1.15000E+01    2.62680E-01
 1.20000E+01    2.46804E-01
 1.25000E+01    2.32140E-01
 1.30000E+01    2.18634E-01
 1.35000E+01    2.06232E-01
 1.40000E+01    1.94879E-01
 1.45000E+01    1.84495E-01
 1.50000E+01    1.74986E-01
 1.55000E+01    1.66250E-01
 1.60000E+01    1.58183E-01
 1.65000E+01    1.50687E-01
 1.70000E+01    1.43672E-01
 1.75000E+01    1.37065E-01
 1.80000E+01    1.30807E-01
 1.85000E+01    1.24860E-01
 1.90000E+01    1.19198E-01
 1.95000E+01    1.13815E-01
 2.00000E+01    1.08709E-01
