# n + W 180 : (n,n'27)  
# jendl4.0   N.Iwamoto                         EVAL-Feb10
# uncertainties: n
# # energies =    52
#   E(MeV)       xs(mb) 
 1.70450E+00    0.00000E+00
 1.71249E+00    8.24361E+00
 1.73521E+00    1.48015E+01
 1.73951E+00    1.56486E+01
 1.77429E+00    2.09418E+01
 1.79481E+00    2.33378E+01
 1.80000E+00    2.35764E+01
 1.82498E+00    2.56049E+01
 1.84107E+00    2.63808E+01
 1.84196E+00    2.64380E+01
 1.86150E+00    2.76326E+01
 1.86556E+00    2.76322E+01
 1.90000E+00    2.85534E+01
 2.00000E+00    3.18291E+01
 2.25000E+00    3.33964E+01
 2.50000E+00    2.66740E+01
 2.75000E+00    2.04520E+01
 3.00000E+00    1.35203E+01
 3.50000E+00    5.82452E+00
 4.00000E+00    2.42913E+00
 4.50000E+00    1.03869E+00
 5.00000E+00    4.84512E-01
 5.50000E+00    2.64199E-01
 6.00000E+00    1.74277E-01
 6.50000E+00    1.34746E-01
 7.00000E+00    1.14908E-01
 7.50000E+00    1.02866E-01
 8.00000E+00    9.41161E-02
 8.50000E+00    8.69893E-02
 9.00000E+00    8.08485E-02
 9.50000E+00    7.54160E-02
 1.00000E+01    7.05316E-02
 1.05000E+01    6.61002E-02
 1.10000E+01    6.20373E-02
 1.15000E+01    5.82896E-02
 1.20000E+01    5.48199E-02
 1.25000E+01    5.16121E-02
 1.30000E+01    4.86508E-02
 1.35000E+01    4.59244E-02
 1.40000E+01    4.34217E-02
 1.45000E+01    4.11266E-02
 1.50000E+01    3.90209E-02
 1.55000E+01    3.70844E-02
 1.60000E+01    3.52959E-02
 1.65000E+01    3.36345E-02
 1.70000E+01    3.20804E-02
 1.75000E+01    3.06173E-02
 1.80000E+01    2.92321E-02
 1.85000E+01    2.79163E-02
 1.90000E+01    2.66638E-02
 1.95000E+01    2.54722E-02
 2.00000E+01    2.43409E-02
