# n + W 180 : (n,n'18)  
# jendl4.0   N.Iwamoto                         EVAL-Feb10
# uncertainties: n
# # energies =    63
#   E(MeV)       xs(mb) 
 1.54419E+00    0.00000E+00
 1.57692E+00    2.79648E+00
 1.59614E+00    3.75219E+00
 1.60000E+00    3.94959E+00
 1.63328E+00    5.65888E+00
 1.64202E+00    6.12428E+00
 1.64380E+00    6.22052E+00
 1.64896E+00    6.44609E+00
 1.67347E+00    7.59879E+00
 1.70000E+00    8.97645E+00
 1.70305E+00    9.13776E+00
 1.70450E+00    9.18228E+00
 1.71249E+00    9.53691E+00
 1.73521E+00    1.06274E+01
 1.73951E+00    1.08396E+01
 1.77429E+00    1.26108E+01
 1.79481E+00    1.36914E+01
 1.80000E+00    1.39380E+01
 1.82498E+00    1.51169E+01
 1.84107E+00    1.58874E+01
 1.84196E+00    1.59300E+01
 1.86150E+00    1.68651E+01
 1.86556E+00    1.70601E+01
 1.90000E+00    1.87346E+01
 2.00000E+00    2.26237E+01
 2.25000E+00    2.76344E+01
 2.50000E+00    2.53882E+01
 2.75000E+00    2.22244E+01
 3.00000E+00    1.72528E+01
 3.50000E+00    9.78256E+00
 4.00000E+00    5.16548E+00
 4.50000E+00    2.69009E+00
 5.00000E+00    1.46935E+00
 5.50000E+00    8.90925E-01
 6.00000E+00    6.18521E-01
 6.50000E+00    4.84504E-01
 7.00000E+00    4.12271E-01
 7.50000E+00    3.67180E-01
 8.00000E+00    3.34566E-01
 8.50000E+00    3.08379E-01
 9.00000E+00    2.86106E-01
 9.50000E+00    2.66568E-01
 1.00000E+01    2.49086E-01
 1.05000E+01    2.33260E-01
 1.10000E+01    2.18765E-01
 1.15000E+01    2.05402E-01
 1.20000E+01    1.93038E-01
 1.25000E+01    1.81614E-01
 1.30000E+01    1.71085E-01
 1.35000E+01    1.61410E-01
 1.40000E+01    1.52546E-01
 1.45000E+01    1.44434E-01
 1.50000E+01    1.37002E-01
 1.55000E+01    1.30173E-01
 1.60000E+01    1.23867E-01
 1.65000E+01    1.18008E-01
 1.70000E+01    1.12526E-01
 1.75000E+01    1.07363E-01
 1.80000E+01    1.02474E-01
 1.85000E+01    9.78276E-02
 1.90000E+01    9.34050E-02
 1.95000E+01    8.91995E-02
 2.00000E+01    8.52090E-02
