# n + W 180 : (n,n'09)  
# jendl4.0   N.Iwamoto                         EVAL-Feb10
# uncertainties: n
# # energies =    75
#   E(MeV)       xs(mb) 
 1.23957E+00    0.00000E+00
 1.30000E+00    6.02176E+01
 1.31487E+00    6.71988E+01
 1.32948E+00    7.36544E+01
 1.36811E+00    8.66943E+01
 1.38975E+00    9.40629E+01
 1.40000E+00    9.74808E+01
 1.46998E+00    1.18352E+02
 1.47824E+00    1.20737E+02
 1.50000E+00    1.26560E+02
 1.52450E+00    1.32410E+02
 1.53758E+00    1.35194E+02
 1.54419E+00    1.36673E+02
 1.57692E+00    1.43793E+02
 1.59614E+00    1.47849E+02
 1.60000E+00    1.48371E+02
 1.63328E+00    1.54589E+02
 1.64202E+00    1.55961E+02
 1.64380E+00    1.55887E+02
 1.64896E+00    1.56179E+02
 1.67347E+00    1.58301E+02
 1.70000E+00    1.60588E+02
 1.70305E+00    1.60843E+02
 1.70450E+00    1.60817E+02
 1.71249E+00    1.61009E+02
 1.73521E+00    1.62392E+02
 1.73951E+00    1.62676E+02
 1.77429E+00    1.65089E+02
 1.79481E+00    1.66486E+02
 1.80000E+00    1.66648E+02
 1.82498E+00    1.68083E+02
 1.84107E+00    1.68763E+02
 1.84196E+00    1.68808E+02
 1.86150E+00    1.69087E+02
 1.86556E+00    1.69088E+02
 1.90000E+00    1.67831E+02
 2.00000E+00    1.61597E+02
 2.25000E+00    1.39142E+02
 2.50000E+00    1.00016E+02
 2.75000E+00    7.26172E+01
 3.00000E+00    4.83957E+01
 3.50000E+00    2.18968E+01
 4.00000E+00    9.88902E+00
 4.50000E+00    4.69758E+00
 5.00000E+00    2.49714E+00
 5.50000E+00    1.55723E+00
 6.00000E+00    1.13874E+00
 6.50000E+00    9.32543E-01
 7.00000E+00    8.14656E-01
 7.50000E+00    7.34549E-01
 8.00000E+00    6.72521E-01
 8.50000E+00    6.20751E-01
 9.00000E+00    5.75889E-01
 9.50000E+00    5.36194E-01
 1.00000E+01    5.00518E-01
 1.05000E+01    4.68144E-01
 1.10000E+01    4.38455E-01
 1.15000E+01    4.11065E-01
 1.20000E+01    3.85794E-01
 1.25000E+01    3.62482E-01
 1.30000E+01    3.41068E-01
 1.35000E+01    3.21468E-01
 1.40000E+01    3.03581E-01
 1.45000E+01    2.87259E-01
 1.50000E+01    2.72334E-01
 1.55000E+01    2.58629E-01
 1.60000E+01    2.45973E-01
 1.65000E+01    2.34208E-01
 1.70000E+01    2.23194E-01
 1.75000E+01    2.12817E-01
 1.80000E+01    2.02984E-01
 1.85000E+01    1.93637E-01
 1.90000E+01    1.84743E-01
 1.95000E+01    1.76297E-01
 2.00000E+01    1.68300E-01
