# n + W 180 : (n,t)     
# jendl4.0   N.Iwamoto                         EVAL-Feb10
# uncertainties: n
# # energies =    27
#   E(MeV)       xs(mb) 
 6.04942E+00    0.00000E+00
 7.50000E+00    1.89980E-24
 8.00000E+00    8.53410E-19
 8.50000E+00    4.46180E-15
 9.00000E+00    1.03370E-12
 9.50000E+00    1.17340E-10
 1.00000E+01    4.79590E-09
 1.05000E+01    9.26080E-08
 1.10000E+01    1.02452E-06
 1.15000E+01    7.45362E-06
 1.20000E+01    3.93855E-05
 1.25000E+01    1.62480E-04
 1.30000E+01    5.51152E-04
 1.35000E+01    1.57781E-03
 1.40000E+01    4.00211E-03
 1.45000E+01    9.02305E-03
 1.50000E+01    1.82953E-02
 1.55000E+01    3.36958E-02
 1.60000E+01    5.69615E-02
 1.65000E+01    8.93703E-02
 1.70000E+01    1.31594E-01
 1.75000E+01    1.83715E-01
 1.80000E+01    2.45336E-01
 1.85000E+01    3.15712E-01
 1.90000E+01    3.93852E-01
 1.95000E+01    4.78567E-01
 2.00000E+01    5.68431E-01
