# n + W 180 :  n        
# jendl4.0   N.Iwamoto                         EVAL-Feb10
# uncertainties: n
# # energies =   107
#   E(MeV)       xs(mb) 
 1.02056E-01    0.00000E+00
 1.04111E-01    3.65873E-03
 1.10000E-01    4.19478E-03
 1.20000E-01    4.94583E-03
 1.30000E-01    5.49528E-03
 1.40000E-01    5.89154E-03
 1.50000E-01    6.17651E-03
 1.60000E-01    6.39910E-03
 1.70000E-01    6.54438E-03
 1.80000E-01    6.67650E-03
 1.90000E-01    6.79314E-03
 2.00000E-01    6.89908E-03
 2.25000E-01    3.48317E-02
 2.50000E-01    4.29433E-02
 2.75000E-01    4.74394E-02
 3.00000E-01    5.07168E-02
 3.39408E-01    1.52894E-01
 4.00000E-01    1.92289E-01
 5.00000E-01    5.09098E-01
 6.00000E-01    1.10965E+00
 6.92273E-01    2.07436E+00
 7.00000E-01    2.10774E+00
 8.00000E-01    3.67220E+00
 9.00000E-01    5.98882E+00
 1.00000E+00    9.24289E+00
 1.01197E+00    1.04785E+01
 1.08841E+00    1.25426E+01
 1.10000E+00    1.25867E+01
 1.12354E+00    1.44583E+01
 1.14481E+00    1.49609E+01
 1.19149E+00    1.59173E+01
 1.20000E+00    1.59544E+01
 1.23957E+00    1.85447E+01
 1.30000E+00    1.98572E+01
 1.31487E+00    2.14740E+01
 1.32948E+00    2.22880E+01
 1.36811E+00    2.34076E+01
 1.38975E+00    2.37898E+01
 1.40000E+00    2.39603E+01
 1.46998E+00    2.82671E+01
 1.47824E+00    2.84923E+01
 1.50000E+00    2.90360E+01
 1.52450E+00    3.15389E+01
 1.53758E+00    3.21356E+01
 1.54419E+00    3.24419E+01
 1.57692E+00    3.39368E+01
 1.59614E+00    3.45137E+01
 1.60000E+00    3.44358E+01
 1.63328E+00    3.72997E+01
 1.64202E+00    3.77685E+01
 1.64380E+00    3.77659E+01
 1.64896E+00    3.81125E+01
 1.67347E+00    3.90425E+01
 1.70000E+00    3.97784E+01
 1.70305E+00    3.98593E+01
 1.70450E+00    3.98586E+01
 1.71249E+00    4.02104E+01
 1.73521E+00    4.26778E+01
 1.73951E+00    4.29156E+01
 1.77429E+00    4.48799E+01
 1.79481E+00    4.56472E+01
 1.80000E+00    4.57614E+01
 1.82498E+00    4.85026E+01
 1.84107E+00    4.95371E+01
 1.84196E+00    4.95907E+01
 1.86150E+00    5.07733E+01
 1.86556E+00    5.09138E+01
 1.90000E+00    5.20974E+01
 2.00000E+00    1.11830E+02
 2.25000E+00    4.39703E+02
 2.50000E+00    1.02841E+03
 2.75000E+00    1.44187E+03
 3.00000E+00    1.83590E+03
 3.50000E+00    2.26388E+03
 4.00000E+00    2.45630E+03
 4.50000E+00    2.53379E+03
 5.00000E+00    2.55748E+03
 5.50000E+00    2.55195E+03
 6.00000E+00    2.53273E+03
 6.50000E+00    2.50614E+03
 7.00000E+00    2.47855E+03
 7.50000E+00    2.45195E+03
 8.00000E+00    2.42798E+03
 8.50000E+00    2.40657E+03
 9.00000E+00    2.23867E+03
 9.50000E+00    1.81974E+03
 1.00000E+01    1.40479E+03
 1.05000E+01    1.09413E+03
 1.10000E+01    8.77342E+02
 1.15000E+01    7.25478E+02
 1.20000E+01    6.15820E+02
 1.25000E+01    5.33451E+02
 1.30000E+01    4.69360E+02
 1.35000E+01    4.18049E+02
 1.40000E+01    3.76157E+02
 1.45000E+01    3.41539E+02
 1.50000E+01    3.12746E+02
 1.55000E+01    2.88639E+02
 1.60000E+01    2.68236E+02
 1.65000E+01    2.50736E+02
 1.70000E+01    2.35525E+02
 1.75000E+01    2.22088E+02
 1.80000E+01    2.10043E+02
 1.85000E+01    1.99120E+02
 1.90000E+01    1.89135E+02
 1.95000E+01    1.79964E+02
 2.00000E+01    1.71514E+02
