# n + W 180 : (n,n'24)  
# jendl4.0   N.Iwamoto                         EVAL-Feb10
# uncertainties: n
# # energies =    56
#   E(MeV)       xs(mb) 
 1.64896E+00    0.00000E+00
 1.67347E+00    2.03054E+00
 1.70000E+00    3.27329E+00
 1.70305E+00    3.41300E+00
 1.70450E+00    3.47253E+00
 1.71249E+00    3.82712E+00
 1.73521E+00    4.83147E+00
 1.73951E+00    5.02585E+00
 1.77429E+00    6.59223E+00
 1.79481E+00    7.54327E+00
 1.80000E+00    7.78884E+00
 1.82498E+00    8.92841E+00
 1.84107E+00    9.66313E+00
 1.84196E+00    9.70393E+00
 1.86150E+00    1.06113E+01
 1.86556E+00    1.08021E+01
 1.90000E+00    1.24601E+01
 2.00000E+00    1.65365E+01
 2.25000E+00    2.30765E+01
 2.50000E+00    2.20852E+01
 2.75000E+00    2.01679E+01
 3.00000E+00    1.58875E+01
 3.50000E+00    9.18632E+00
 4.00000E+00    4.88672E+00
 4.50000E+00    2.53427E+00
 5.00000E+00    1.36143E+00
 5.50000E+00    8.04153E-01
 6.00000E+00    5.43159E-01
 6.50000E+00    4.16806E-01
 7.00000E+00    3.50575E-01
 7.50000E+00    3.10597E-01
 8.00000E+00    2.82437E-01
 8.50000E+00    2.60175E-01
 9.00000E+00    2.41373E-01
 9.50000E+00    2.24931E-01
 1.00000E+01    2.10241E-01
 1.05000E+01    1.96954E-01
 1.10000E+01    1.84788E-01
 1.15000E+01    1.73570E-01
 1.20000E+01    1.63192E-01
 1.25000E+01    1.53602E-01
 1.30000E+01    1.44755E-01
 1.35000E+01    1.36615E-01
 1.40000E+01    1.29149E-01
 1.45000E+01    1.22307E-01
 1.50000E+01    1.16033E-01
 1.55000E+01    1.10265E-01
 1.60000E+01    1.04939E-01
 1.65000E+01    9.99900E-02
 1.70000E+01    9.53606E-02
 1.75000E+01    9.10019E-02
 1.80000E+01    8.68748E-02
 1.85000E+01    8.29540E-02
 1.90000E+01    7.92225E-02
 1.95000E+01    7.56738E-02
 2.00000E+01    7.23051E-02
