# n + W 180 : (n,2na)   
# jendl4.0   N.Iwamoto                         EVAL-Feb10
# uncertainties: n
# # energies =    25
#   E(MeV)       xs(mb) 
 8.00000E+00    0.00000E+00
 8.50000E+00    8.00520E-31
 9.00000E+00    1.19750E-25
 9.50000E+00    9.83120E-22
 1.00000E+01    8.27970E-16
 1.05000E+01    1.43130E-13
 1.10000E+01    1.20380E-11
 1.15000E+01    5.34540E-10
 1.20000E+01    1.35660E-08
 1.25000E+01    2.13770E-07
 1.30000E+01    2.24573E-06
 1.35000E+01    1.66974E-05
 1.40000E+01    9.23322E-05
 1.45000E+01    3.97979E-04
 1.50000E+01    1.37376E-03
 1.55000E+01    3.91324E-03
 1.60000E+01    9.39100E-03
 1.65000E+01    1.83245E-02
 1.70000E+01    2.97921E-02
 1.75000E+01    4.34032E-02
 1.80000E+01    5.94054E-02
 1.85000E+01    7.81555E-02
 1.90000E+01    1.00314E-01
 1.95000E+01    1.27057E-01
 2.00000E+01    1.59816E-01
