# n + W 180 : (n,n'22)  
# jendl4.0   N.Iwamoto                         EVAL-Feb10
# uncertainties: n
# # energies =    58
#   E(MeV)       xs(mb) 
 1.64202E+00    0.00000E+00
 1.64380E+00    6.41226E+00
 1.64896E+00    1.23257E+01
 1.67347E+00    2.61906E+01
 1.70000E+00    3.66834E+01
 1.70305E+00    3.77954E+01
 1.70450E+00    3.83180E+01
 1.71249E+00    4.09804E+01
 1.73521E+00    4.83033E+01
 1.73951E+00    4.96476E+01
 1.77429E+00    5.95161E+01
 1.79481E+00    6.50270E+01
 1.80000E+00    6.62976E+01
 1.82498E+00    7.19074E+01
 1.84107E+00    7.52295E+01
 1.84196E+00    7.54136E+01
 1.86150E+00    7.86699E+01
 1.86556E+00    7.93386E+01
 1.90000E+00    8.50254E+01
 2.00000E+00    9.61551E+01
 2.25000E+00    1.01568E+02
 2.50000E+00    8.03719E+01
 2.75000E+00    6.24053E+01
 3.00000E+00    4.17147E+01
 3.50000E+00    1.86598E+01
 4.00000E+00    7.92634E+00
 4.50000E+00    3.31154E+00
 5.00000E+00    1.40521E+00
 5.50000E+00    6.33419E-01
 6.00000E+00    3.22689E-01
 6.50000E+00    1.95741E-01
 7.00000E+00    1.41753E-01
 7.50000E+00    1.16337E-01
 8.00000E+00    1.02175E-01
 8.50000E+00    9.27056E-02
 9.00000E+00    8.54407E-02
 9.50000E+00    7.93887E-02
 1.00000E+01    7.41056E-02
 1.05000E+01    6.93790E-02
 1.10000E+01    6.50745E-02
 1.15000E+01    6.11166E-02
 1.20000E+01    5.74590E-02
 1.25000E+01    5.40790E-02
 1.30000E+01    5.09618E-02
 1.35000E+01    4.80946E-02
 1.40000E+01    4.54651E-02
 1.45000E+01    4.30557E-02
 1.50000E+01    4.08466E-02
 1.55000E+01    3.88156E-02
 1.60000E+01    3.69400E-02
 1.65000E+01    3.51976E-02
 1.70000E+01    3.35675E-02
 1.75000E+01    3.20328E-02
 1.80000E+01    3.05796E-02
 1.85000E+01    2.91990E-02
 1.90000E+01    2.78851E-02
 1.95000E+01    2.66355E-02
 2.00000E+01    2.54494E-02
