# n + W 180 : (n,n'12)  
# jendl4.0   N.Iwamoto                         EVAL-Feb10
# uncertainties: n
# # energies =    71
#   E(MeV)       xs(mb) 
 1.36811E+00    0.00000E+00
 1.38975E+00    4.57419E+00
 1.40000E+00    6.00633E+00
 1.46998E+00    1.62675E+01
 1.47824E+00    1.75084E+01
 1.50000E+00    2.07277E+01
 1.52450E+00    2.46285E+01
 1.53758E+00    2.66400E+01
 1.54419E+00    2.76546E+01
 1.57692E+00    3.25914E+01
 1.59614E+00    3.54988E+01
 1.60000E+00    3.61038E+01
 1.63328E+00    4.11206E+01
 1.64202E+00    4.23524E+01
 1.64380E+00    4.25572E+01
 1.64896E+00    4.31269E+01
 1.67347E+00    4.61797E+01
 1.70000E+00    4.96176E+01
 1.70305E+00    5.00118E+01
 1.70450E+00    5.00869E+01
 1.71249E+00    5.09594E+01
 1.73521E+00    5.37144E+01
 1.73951E+00    5.42473E+01
 1.77429E+00    5.83867E+01
 1.79481E+00    6.03525E+01
 1.80000E+00    6.08428E+01
 1.82498E+00    6.31765E+01
 1.84107E+00    6.46598E+01
 1.84196E+00    6.47406E+01
 1.86150E+00    6.63298E+01
 1.86556E+00    6.66695E+01
 1.90000E+00    6.95399E+01
 2.00000E+00    7.57744E+01
 2.25000E+00    7.43620E+01
 2.50000E+00    5.99084E+01
 2.75000E+00    4.68100E+01
 3.00000E+00    3.29645E+01
 3.50000E+00    1.62404E+01
 4.00000E+00    7.71695E+00
 4.50000E+00    3.71164E+00
 5.00000E+00    1.91305E+00
 5.50000E+00    1.11791E+00
 6.00000E+00    7.62356E-01
 6.50000E+00    5.93480E-01
 7.00000E+00    5.04177E-01
 7.50000E+00    4.48677E-01
 8.00000E+00    4.08518E-01
 8.50000E+00    3.76259E-01
 9.00000E+00    3.48829E-01
 9.50000E+00    3.24774E-01
 1.00000E+01    3.03249E-01
 1.05000E+01    2.83761E-01
 1.10000E+01    2.65908E-01
 1.15000E+01    2.49444E-01
 1.20000E+01    2.34245E-01
 1.25000E+01    2.20221E-01
 1.30000E+01    2.07322E-01
 1.35000E+01    1.95494E-01
 1.40000E+01    1.84682E-01
 1.45000E+01    1.74803E-01
 1.50000E+01    1.65763E-01
 1.55000E+01    1.57460E-01
 1.60000E+01    1.49792E-01
 1.65000E+01    1.42666E-01
 1.70000E+01    1.35995E-01
 1.75000E+01    1.29711E-01
 1.80000E+01    1.23758E-01
 1.85000E+01    1.18099E-01
 1.90000E+01    1.12713E-01
 1.95000E+01    1.07595E-01
 2.00000E+01    1.02744E-01
