# n + Nd142 : (n,na)    
# jendl.ad   N.Iwamoto                         EVAL-Apr14
# uncertainties: n
# # energies =    47
#   E(MeV)       xs(mb) 
 8.17358E-01    0.00000E+00
 2.86609E+00    2.75170E-33
 2.89342E+00    3.14320E-33
 2.90683E+00    3.25450E-33
 2.97902E+00    1.98570E-31
 2.99705E+00    2.13960E-31
 3.00000E+00    2.14580E-31
 3.00430E+00    2.17330E-31
 3.03136E+00    2.29580E-31
 3.06684E+00    4.78300E-30
 3.10296E+00    5.64440E-30
 3.10778E+00    5.70900E-30
 3.15029E+00    7.95480E-29
 3.50000E+00    9.87280E-23
 4.00000E+00    1.78610E-18
 4.50000E+00    3.11050E-15
 5.00000E+00    1.05080E-12
 5.50000E+00    1.08660E-10
 6.00000E+00    4.67220E-09
 6.50000E+00    1.03100E-07
 7.00000E+00    1.35714E-06
 7.50000E+00    1.17505E-05
 8.00000E+00    7.26962E-05
 8.50000E+00    3.44373E-04
 9.00000E+00    1.31733E-03
 9.50000E+00    4.23917E-03
 1.00000E+01    1.17605E-02
 1.05000E+01    1.91705E-02
 1.10000E+01    2.53972E-02
 1.15000E+01    3.19087E-02
 1.20000E+01    4.20298E-02
 1.25000E+01    5.86356E-02
 1.30000E+01    8.50856E-02
 1.35000E+01    1.27676E-01
 1.40000E+01    1.95599E-01
 1.45000E+01    3.02064E-01
 1.50000E+01    4.61367E-01
 1.55000E+01    6.93790E-01
 1.60000E+01    1.01991E+00
 1.65000E+01    1.45007E+00
 1.70000E+01    2.02118E+00
 1.75000E+01    2.72173E+00
 1.80000E+01    3.54960E+00
 1.85000E+01    4.53814E+00
 1.90000E+01    5.62974E+00
 1.95000E+01    6.81204E+00
 2.00000E+01    8.05631E+00
