# n + Nd142 : (n,p)g    
# jendl.ad   N.Iwamoto                         EVAL-Apr14
# uncertainties: n
# # energies =    61
#   E(MeV)       xs(mb) 
 1.38993E+00    0.00000E+00
 1.39365E+00    2.98450E-15
 2.40129E+00    8.11390E-13
 2.45449E+00    4.85510E-12
 2.50000E+00    1.52730E-11
 2.53176E+00    3.17640E-11
 2.53288E+00    3.25030E-11
 2.54698E+00    4.42710E-11
 2.56539E+00    6.54010E-11
 2.60145E+00    1.34540E-10
 2.60393E+00    1.39660E-10
 2.67488E+00    5.27510E-10
 2.75000E+00    2.02100E-09
 2.75672E+00    2.26670E-09
 2.79573E+00    4.28420E-09
 2.86609E+00    1.29440E-08
 2.89342E+00    1.90560E-08
 2.90683E+00    2.33690E-08
 2.97902E+00    6.24450E-08
 2.99705E+00    7.90620E-08
 3.00000E+00    8.15160E-08
 3.00430E+00    8.86610E-08
 3.03136E+00    1.24010E-07
 3.06684E+00    1.89680E-07
 3.10296E+00    2.98300E-07
 3.10778E+00    3.13740E-07
 3.15029E+00    4.99120E-07
 3.50000E+00    1.46579E-05
 4.00000E+00    4.87705E-04
 4.50000E+00    5.88263E-03
 5.00000E+00    3.52630E-02
 5.50000E+00    1.29518E-01
 6.00000E+00    3.36560E-01
 6.50000E+00    6.80568E-01
 7.00000E+00    1.14111E+00
 7.50000E+00    1.66338E+00
 8.00000E+00    2.19217E+00
 8.50000E+00    2.69602E+00
 9.00000E+00    3.17193E+00
 9.50000E+00    3.64022E+00
 1.00000E+01    4.13663E+00
 1.05000E+01    4.70985E+00
 1.10000E+01    5.37945E+00
 1.15000E+01    6.18467E+00
 1.20000E+01    7.10390E+00
 1.25000E+01    8.14425E+00
 1.30000E+01    9.24757E+00
 1.35000E+01    1.04273E+01
 1.40000E+01    1.16372E+01
 1.45000E+01    1.28888E+01
 1.50000E+01    1.41414E+01
 1.55000E+01    1.54484E+01
 1.60000E+01    1.67389E+01
 1.65000E+01    1.77691E+01
 1.70000E+01    1.88024E+01
 1.75000E+01    1.99533E+01
 1.80000E+01    2.05443E+01
 1.85000E+01    2.11284E+01
 1.90000E+01    2.19880E+01
 1.95000E+01    2.21298E+01
 2.00000E+01    2.25635E+01
