# n + Cd114 : (n,a)     
# jendl4.0   S.Kunieda, A.Ichihara, K.Shibata+ EVAL-FEB22
# uncertainties: n
# # energies =    56
#   E(MeV)       xs(mb) 
 1.00000E-01    0.00000E+00
 2.00000E-01    4.34100E-18
 2.50000E-01    8.88000E-18
 3.00000E-01    1.79600E-17
 3.50000E-01    3.57100E-17
 4.00000E-01    6.99400E-17
 4.50000E-01    1.34700E-16
 5.00000E-01    2.56100E-16
 5.50000E-01    4.79600E-16
 6.00000E-01    4.20400E-16
 6.50000E-01    6.08600E-16
 7.00000E-01    9.78300E-16
 7.50000E-01    1.61600E-15
 8.00000E-01    2.69500E-15
 8.50000E-01    4.50100E-15
 9.00000E-01    7.51500E-15
 9.50000E-01    1.25100E-14
 1.00000E+00    2.08100E-14
 1.20000E+00    1.50200E-13
 1.40000E+00    7.40500E-13
 1.60000E+00    3.55800E-12
 1.80000E+00    1.73500E-11
 2.00000E+00    6.95900E-11
 2.20000E+00    2.50700E-10
 2.40000E+00    8.91700E-10
 2.60000E+00    2.72000E-09
 2.80000E+00    7.59400E-09
 3.00000E+00    2.12900E-08
 3.25000E+00    7.49000E-08
 3.50000E+00    2.27600E-07
 3.75000E+00    6.79800E-07
 4.00000E+00    1.80500E-06
 4.25000E+00    4.34600E-06
 4.50000E+00    9.46800E-06
 4.75000E+00    1.94600E-05
 5.00000E+00    3.61300E-05
 5.50000E+00    1.06800E-04
 6.00000E+00    2.57200E-04
 6.50000E+00    5.26300E-04
 7.00000E+00    9.49600E-04
 7.50000E+00    1.55800E-03
 8.00000E+00    2.40100E-03
 8.50000E+00    3.62500E-03
 9.00000E+00    5.48500E-03
 9.50000E+00    8.21500E-03
 1.00000E+01    1.29700E-02
 1.10000E+01    3.44200E-02
 1.20000E+01    9.38300E-02
 1.30000E+01    2.40400E-01
 1.40000E+01    5.45300E-01
 1.50000E+01    1.07100E+00
 1.60000E+01    1.82000E+00
 1.70000E+01    2.69300E+00
 1.80000E+01    3.50300E+00
 1.90000E+01    4.08700E+00
 2.00000E+01    4.39600E+00
