# n + Cd114 : (n,non)   
# jendl4.0   S.Kunieda, A.Ichihara, K.Shibata+ EVAL-FEB22
# uncertainties: n
# # energies =   116
#   E(MeV)       xs(mb) 
 8.00000E-03    0.00000E+00
 8.00000E-03    3.07900E+02
 9.00000E-03    2.87900E+02
 1.00000E-02    2.70500E+02
 1.25000E-02    2.34204E+02
 1.50000E-02    2.08193E+02
 1.75000E-02    1.88469E+02
 2.00000E-02    1.72900E+02
 2.50000E-02    1.48349E+02
 3.00000E-02    1.30900E+02
 3.50000E-02    1.18083E+02
 4.00000E-02    1.08000E+02
 5.00000E-02    9.37000E+01
 6.00000E-02    8.41100E+01
 7.00000E-02    7.75400E+01
 8.00000E-02    7.33800E+01
 9.00000E-02    7.05900E+01
 1.00000E-01    6.84400E+01
 1.20000E-01    6.49600E+01
 1.40000E-01    6.23600E+01
 1.60000E-01    6.04700E+01
 1.80000E-01    5.90200E+01
 2.00000E-01    5.81500E+01
 2.50000E-01    5.74100E+01
 3.00000E-01    5.77900E+01
 3.50000E-01    5.88100E+01
 4.00000E-01    5.98700E+01
 4.50000E-01    6.12400E+01
 5.00000E-01    6.25500E+01
 5.50000E-01    6.42300E+01
 5.63401E-01    5.71377E+01
 6.00000E-01    3.26580E+02
 6.50000E-01    5.94990E+02
 7.00000E-01    7.87410E+02
 7.50000E-01    9.22800E+02
 8.00000E-01    1.02008E+03
 8.50000E-01    1.09066E+03
 9.00000E-01    1.14230E+03
 9.50000E-01    1.18037E+03
 1.00000E+00    1.20760E+03
 1.14458E+00    1.22438E+03
 1.20000E+00    1.28995E+03
 1.22042E+00    1.27373E+03
 1.29511E+00    1.33360E+03
 1.31717E+00    1.36235E+03
 1.37642E+00    1.47792E+03
 1.40000E+00    1.56902E+03
 1.60000E+00    1.76818E+03
 1.74759E+00    1.82652E+03
 1.79980E+00    1.86188E+03
 1.80000E+00    1.86388E+03
 1.85826E+00    1.84438E+03
 1.87617E+00    1.84958E+03
 1.88077E+00    1.85189E+03
 1.94919E+00    1.91828E+03
 1.97543E+00    1.94946E+03
 2.00000E+00    1.99314E+03
 2.00793E+00    1.99509E+03
 2.06617E+00    2.00979E+03
 2.17133E+00    2.08310E+03
 2.20000E+00    2.11343E+03
 2.22408E+00    2.10838E+03
 2.23851E+00    2.10887E+03
 2.31929E+00    2.13778E+03
 2.33762E+00    2.14558E+03
 2.40000E+00    2.19263E+03
 2.40588E+00    2.18914E+03
 2.40844E+00    2.18821E+03
 2.41268E+00    2.18766E+03
 2.42145E+00    2.18740E+03
 2.43386E+00    2.18709E+03
 2.45923E+00    2.18720E+03
 2.47775E+00    2.18882E+03
 2.48255E+00    2.19046E+03
 2.48703E+00    2.19257E+03
 2.49712E+00    2.19953E+03
 2.60000E+00    2.34681E+03
 2.80000E+00    2.36412E+03
 3.00000E+00    2.36577E+03
 3.25000E+00    2.35800E+03
 3.50000E+00    2.35034E+03
 3.75000E+00    2.34561E+03
 4.00000E+00    2.34602E+03
 4.13296E+00    2.34844E+03
 4.25000E+00    2.35062E+03
 4.32778E+00    2.35258E+03
 4.50000E+00    2.35693E+03
 4.75000E+00    2.36244E+03
 5.00000E+00    2.36554E+03
 5.50000E+00    2.35851E+03
 6.00000E+00    2.33442E+03
 6.50000E+00    2.29873E+03
 7.00000E+00    2.25931E+03
 7.50000E+00    2.22275E+03
 8.00000E+00    2.19218E+03
 8.12398E+00    2.18636E+03
 8.50000E+00    2.16870E+03
 9.00000E+00    2.15117E+03
 9.12306E+00    2.13978E+03
 9.50000E+00    2.13886E+03
 1.00000E+01    2.12963E+03
 1.03660E+01    2.12468E+03
 1.03682E+01    2.12465E+03
 1.06378E+01    2.12100E+03
 1.10000E+01    2.11610E+03
 1.20000E+01    2.10588E+03
 1.30000E+01    2.09665E+03
 1.40000E+01    2.08461E+03
 1.50000E+01    2.07161E+03
 1.57211E+01    2.06110E+03
 1.60000E+01    2.05706E+03
 1.66786E+01    2.04737E+03
 1.70000E+01    2.04278E+03
 1.80000E+01    2.03038E+03
 1.90000E+01    2.01771E+03
 2.00000E+01    2.00558E+03
