# n + W 182 : (n,2na)   
# jendl.ad   N.Iwamoto                         EVAL-Apr14
# uncertainties: n
# # energies =    26
#   E(MeV)       xs(mb) 
 8.00000E+00    0.00000E+00
 8.50000E+00    5.56720E-34
 8.64177E+00    7.95090E-29
 9.00000E+00    2.80410E-28
 9.50000E+00    5.82770E-21
 1.00000E+01    6.84510E-18
 1.05000E+01    2.59340E-15
 1.10000E+01    3.71360E-13
 1.15000E+01    2.39270E-11
 1.20000E+01    8.04690E-10
 1.25000E+01    1.58610E-08
 1.30000E+01    2.00540E-07
 1.35000E+01    1.74865E-06
 1.40000E+01    1.11873E-05
 1.45000E+01    5.46437E-05
 1.50000E+01    2.09508E-04
 1.55000E+01    6.37616E-04
 1.60000E+01    1.43519E-03
 1.65000E+01    2.58266E-03
 1.70000E+01    4.16926E-03
 1.75000E+01    6.40930E-03
 1.80000E+01    9.73409E-03
 1.85000E+01    1.46510E-02
 1.90000E+01    2.18702E-02
 1.95000E+01    3.22882E-02
 2.00000E+01    4.68431E-02
