# n + W 182 : (n,xp)    
# jendl.ad   N.Iwamoto                         EVAL-Apr14
# 
# # energies =   110
#   E(MeV)        xs(mb) 
 1.00330E-01    0.00000E+00
 1.00661E-01    0.00000E+00
 1.10000E-01    0.00000E+00
 1.20000E-01    0.00000E+00
 1.30000E-01    0.00000E+00
 1.40000E-01    0.00000E+00
 1.50000E-01    0.00000E+00
 1.60000E-01    0.00000E+00
 1.70000E-01    0.00000E+00
 1.80000E-01    0.00000E+00
 1.90000E-01    0.00000E+00
 2.00000E-01    0.00000E+00
 2.25000E-01    0.00000E+00
 2.50000E-01    0.00000E+00
 2.75000E-01    0.00000E+00
 3.00000E-01    0.00000E+00
 3.31253E-01    0.00000E+00
 4.00000E-01    0.00000E+00
 5.00000E-01    0.00000E+00
 6.00000E-01    0.00000E+00
 6.84272E-01    0.00000E+00
 7.00000E-01    0.00000E+00
 8.00000E-01    0.00000E+00
 9.00000E-01    0.00000E+00
 1.00000E+00    0.00000E+00
 1.10000E+00    3.67626E-17
 1.14211E+00    6.26116E-17
 1.15074E+00    6.79093E-17
 1.20000E+00    9.81472E-17
 1.22818E+00    1.15450E-16
 1.26439E+00    1.37676E-16
 1.29631E+00    1.57264E-16
 1.30000E+00    1.59530E-16
 1.33851E+00    1.83173E-16
 1.38146E+00    2.09534E-16
 1.40000E+00    2.20922E-16
 1.45082E+00    2.52111E-16
 1.49576E+00    2.79702E-16
 1.50000E+00    2.82304E-16
 1.51856E+00    2.93694E-16
 1.56185E+00    3.20270E-16
 1.60000E+00    3.43691E-16
 1.63028E+00    3.62273E-16
 1.63255E+00    3.63665E-16
 1.66960E+00    3.86411E-16
 1.70000E+00    4.05074E-16
 1.72139E+00    4.18205E-16
 1.76654E+00    4.45921E-16
 1.77522E+00    4.51249E-16
 1.77878E+00    4.53434E-16
 1.77931E+00    4.53760E-16
 1.80000E+00    4.66461E-16
 1.81972E+00    4.78566E-16
 1.82095E+00    4.79321E-16
 1.82345E+00    4.80856E-16
 1.83969E+00    4.90825E-16
 1.84326E+00    4.93016E-16
 1.86632E+00    5.07172E-16
 1.86719E+00    5.07706E-16
 1.88154E+00    5.16515E-16
 1.89832E+00    5.26816E-16
 1.90000E+00    5.27847E-16
 1.92762E+00    5.44802E-16
 1.92924E+00    5.45797E-16
 1.97014E+00    5.70904E-16
 1.97122E+00    5.71567E-16
 1.97166E+00    5.71837E-16
 1.98205E+00    5.78215E-16
 1.98936E+00    5.82702E-16
 1.99282E+00    5.84826E-16
 2.00000E+00    5.89234E-16
 2.00484E+00    5.92205E-16
 2.25000E+00    7.42700E-16
 2.50000E+00    1.76570E-13
 2.75000E+00    1.03620E-11
 3.00000E+00    2.65480E-10
 3.50000E+00    2.96180E-08
 4.00000E+00    7.79960E-07
 4.50000E+00    8.25495E-06
 5.00000E+00    4.71038E-05
 5.50000E+00    1.74414E-04
 6.00000E+00    4.80613E-04
 6.50000E+00    1.10451E-03
 7.00000E+00    2.36989E-03
 7.50000E+00    5.13151E-03
 8.00000E+00    1.13703E-02
 8.50000E+00    2.50425E-02
 9.00000E+00    5.30613E-02
 9.50000E+00    1.06044E-01
 1.00000E+01    1.98271E-01
 1.05000E+01    3.46553E-01
 1.10000E+01    5.68225E-01
 1.15000E+01    8.79224E-01
 1.20000E+01    1.29297E+00
 1.25000E+01    1.82022E+00
 1.30000E+01    2.46954E+00
 1.35000E+01    3.24766E+00
 1.40000E+01    4.15976E+00
 1.45000E+01    5.20927E+00
 1.50000E+01    6.39790E+00
 1.55000E+01    7.72527E+00
 1.60000E+01    9.18905E+00
 1.65000E+01    1.07846E+01
 1.70000E+01    1.25056E+01
 1.75000E+01    1.43430E+01
 1.80000E+01    1.62873E+01
 1.85000E+01    1.83277E+01
 1.90000E+01    2.04560E+01
 1.95000E+01    2.26630E+01
 2.00000E+01    2.49442E+01
