# n + W 182 : (n,p)m    
# jendl.ad   N.Iwamoto                         EVAL-Apr14
# uncertainties: n
# # energies =    40
#   E(MeV)       xs(mb) 
 1.05399E+00    0.00000E+00
 1.56009E+00    4.69490E-17
 2.25000E+00    1.10950E-16
 2.50000E+00    3.12820E-14
 2.75000E+00    2.11500E-12
 3.00000E+00    6.15830E-11
 3.50000E+00    8.31570E-09
 4.00000E+00    2.43750E-07
 4.50000E+00    2.70556E-06
 5.00000E+00    1.56651E-05
 5.50000E+00    5.79836E-05
 6.00000E+00    1.59085E-04
 6.50000E+00    3.63971E-04
 7.00000E+00    7.76864E-04
 7.50000E+00    1.66904E-03
 8.00000E+00    3.66485E-03
 8.50000E+00    8.00925E-03
 9.00000E+00    1.68828E-02
 9.50000E+00    3.36511E-02
 1.00000E+01    6.28740E-02
 1.05000E+01    1.09974E-01
 1.10000E+01    1.80620E-01
 1.15000E+01    2.80098E-01
 1.20000E+01    4.12877E-01
 1.25000E+01    5.82426E-01
 1.30000E+01    7.91091E-01
 1.35000E+01    1.03976E+00
 1.40000E+01    1.32731E+00
 1.45000E+01    1.64975E+00
 1.50000E+01    1.99969E+00
 1.55000E+01    2.36655E+00
 1.60000E+01    2.73806E+00
 1.65000E+01    3.10326E+00
 1.70000E+01    3.45176E+00
 1.75000E+01    3.77826E+00
 1.80000E+01    4.08073E+00
 1.85000E+01    4.35006E+00
 1.90000E+01    4.59234E+00
 1.95000E+01    4.79629E+00
 2.00000E+01    4.91395E+00
