# n + W 182 : (n,t)     
# jendl.ad   N.Iwamoto                         EVAL-Apr14
# uncertainties: n
# # energies =    44
#   E(MeV)       xs(mb) 
 6.22413E+00    0.00000E+00
 6.26636E+00    1.05130E-28
 6.29984E+00    1.88480E-28
 6.33574E+00    2.79700E-28
 6.40110E+00    4.45790E-28
 6.41216E+00    4.73890E-28
 6.45641E+00    5.86330E-28
 6.48356E+00    6.55320E-28
 6.51071E+00    7.24310E-28
 6.53484E+00    7.85630E-28
 6.54590E+00    8.13730E-28
 6.58713E+00    9.18500E-28
 6.59417E+00    9.36390E-28
 6.64042E+00    1.05390E-27
 6.65249E+00    1.08460E-27
 6.66858E+00    1.12550E-27
 6.69170E+00    1.18420E-27
 6.70277E+00    1.21240E-27
 7.50000E+00    3.23820E-27
 8.00000E+00    1.59970E-20
 8.50000E+00    2.68710E-16
 9.00000E+00    2.41970E-13
 9.50000E+00    3.78760E-11
 1.00000E+01    1.87140E-09
 1.05000E+01    4.12360E-08
 1.10000E+01    5.04820E-07
 1.15000E+01    3.98424E-06
 1.20000E+01    2.25076E-05
 1.25000E+01    9.81691E-05
 1.30000E+01    3.49098E-04
 1.35000E+01    1.03716E-03
 1.40000E+01    2.73109E-03
 1.45000E+01    6.37213E-03
 1.50000E+01    1.33387E-02
 1.55000E+01    2.53010E-02
 1.60000E+01    4.39236E-02
 1.65000E+01    7.05482E-02
 1.70000E+01    1.04883E-01
 1.75000E+01    1.49327E-01
 1.80000E+01    2.02703E-01
 1.85000E+01    2.64447E-01
 1.90000E+01    3.33719E-01
 1.95000E+01    4.09453E-01
 2.00000E+01    4.90319E-01
