# n + W 182 : (n,p)g    
# jendl.ad   N.Iwamoto                         EVAL-Apr14
# uncertainties: n
# # energies =    41
#   E(MeV)       xs(mb) 
 1.03764E+00    0.00000E+00
 1.05399E+00    8.51970E-18
 1.56009E+00    2.72240E-16
 2.25000E+00    6.31740E-16
 2.50000E+00    1.45280E-13
 2.75000E+00    8.24740E-12
 3.00000E+00    2.03900E-10
 3.50000E+00    2.13020E-08
 4.00000E+00    5.36180E-07
 4.50000E+00    5.54771E-06
 5.00000E+00    3.14081E-05
 5.50000E+00    1.16130E-04
 6.00000E+00    3.19601E-04
 6.50000E+00    7.31522E-04
 7.00000E+00    1.55964E-03
 7.50000E+00    3.35929E-03
 8.00000E+00    7.42950E-03
 8.50000E+00    1.63787E-02
 9.00000E+00    3.47775E-02
 9.50000E+00    6.96543E-02
 1.00000E+01    1.30458E-01
 1.05000E+01    2.28280E-01
 1.10000E+01    3.74461E-01
 1.15000E+01    5.79235E-01
 1.20000E+01    8.50876E-01
 1.25000E+01    1.19540E+00
 1.30000E+01    1.61650E+00
 1.35000E+01    2.11500E+00
 1.40000E+01    2.68791E+00
 1.45000E+01    3.32697E+00
 1.50000E+01    4.01770E+00
 1.55000E+01    4.73972E+00
 1.60000E+01    5.46954E+00
 1.65000E+01    6.18624E+00
 1.70000E+01    6.86921E+00
 1.75000E+01    7.50784E+00
 1.80000E+01    8.09713E+00
 1.85000E+01    8.62302E+00
 1.90000E+01    9.09486E+00
 1.95000E+01    9.49132E+00
 2.00000E+01    9.85758E+00
