# n + W 182 : (n,p)n    
# jendl.ad   N.Iwamoto                         EVAL-Apr14
# uncertainties: n
# # energies =    37
#   E(MeV)       xs(mb) 
 1.56009E+00    0.00000E+00
 2.75000E+00    2.04590E-20
 3.00000E+00    7.68160E-17
 3.50000E+00    1.90570E-13
 4.00000E+00    3.70810E-11
 4.50000E+00    1.68160E-09
 5.00000E+00    3.05660E-08
 5.50000E+00    3.00850E-07
 6.00000E+00    1.92736E-06
 6.50000E+00    9.01688E-06
 7.00000E+00    3.33874E-05
 7.50000E+00    1.03178E-04
 8.00000E+00    2.75928E-04
 8.50000E+00    6.54589E-04
 9.00000E+00    1.40101E-03
 9.50000E+00    2.73862E-03
 1.00000E+01    4.93877E-03
 1.05000E+01    8.29415E-03
 1.10000E+01    1.31004E-02
 1.15000E+01    1.96533E-02
 1.20000E+01    2.82530E-02
 1.25000E+01    3.92000E-02
 1.30000E+01    5.27640E-02
 1.35000E+01    6.91916E-02
 1.40000E+01    8.85858E-02
 1.45000E+01    1.10870E-01
 1.50000E+01    1.35707E-01
 1.55000E+01    1.62478E-01
 1.60000E+01    1.90262E-01
 1.65000E+01    2.18489E-01
 1.70000E+01    2.45498E-01
 1.75000E+01    2.70808E-01
 1.80000E+01    2.93890E-01
 1.85000E+01    3.14400E-01
 1.90000E+01    3.32280E-01
 1.95000E+01    3.47472E-01
 2.00000E+01    3.75145E-01
