# n + Kr 82 : (n,tot)   
# endfb8.0   JNDC FPND W.G., Mughabghab        EVAL-FEB05
# uncertainties: n
# # energies =   171
#   E(MeV)       xs(mb) 
 1.00000E-11    2.34602E+05
 1.00000E-07    2.15785E+04
 4.13990E-07    1.90847E+04
 5.31580E-07    1.85389E+04
 6.82560E-07    1.80482E+04
 8.76420E-07    1.76039E+04
 1.12540E-06    1.71991E+04
 1.44500E-06    1.68249E+04
 1.85540E-06    1.64716E+04
 2.37240E-06    1.61239E+04
 3.05900E-06    1.57734E+04
 3.92790E-06    1.54078E+04
 5.04350E-06    1.50158E+04
 6.47600E-06    1.45813E+04
 8.31530E-06    1.40570E+04
 1.06770E-05    1.34193E+04
 1.37100E-05    1.26005E+04
 1.76030E-05    1.14683E+04
 2.26030E-05    9.75223E+03
 2.92030E-05    1.33040E+04
 3.72670E-05    1.15919E+06
 4.78510E-05    3.99475E+04
 6.14420E-05    3.60665E+04
 7.88930E-05    3.26479E+04
 1.01300E-04    2.96261E+04
 1.30070E-04    2.69627E+04
 1.67020E-04    2.46143E+04
 2.14450E-04    2.25407E+04
 2.75360E-04    2.07142E+04
 3.53580E-04    1.91035E+04
 4.54000E-04    1.76833E+04
 5.82950E-04    1.64330E+04
 7.48520E-04    1.53309E+04
 9.61120E-04    1.43609E+04
 1.23410E-03    1.35085E+04
 1.58460E-03    1.27586E+04
 2.03470E-03    1.22854E+04
 2.24870E-03    1.20354E+04
 2.48520E-03    1.18576E+04
 2.61260E-03    1.17428E+04
 2.74650E-03    1.15749E+04
 3.03540E-03    1.13615E+04
 3.35460E-03    1.11590E+04
 3.70740E-03    1.09210E+04
 4.30740E-03    1.05746E+04
 5.53080E-03    1.01879E+04
 7.10170E-03    9.85085E+03
 9.11880E-03    9.55814E+03
 1.17090E-02    9.30450E+03
 1.50340E-02    9.08388E+03
 1.93050E-02    8.93685E+03
 2.18750E-02    8.86485E+03
 2.35790E-02    8.83022E+03
 2.41760E-02    8.81350E+03
 2.47880E-02    8.78857E+03
 2.60580E-02    8.76079E+03
 2.70000E-02    8.73241E+03
 2.85000E-02    8.68225E+03
 3.18280E-02    8.62780E+03
 3.43070E-02    8.55833E+03
 4.08680E-02    8.47962E+03
 4.63090E-02    8.41770E+03
 5.24750E-02    8.37006E+03
 5.65620E-02    8.31282E+03
 6.73790E-02    8.25883E+03
 7.20000E-02    8.22247E+03
 7.95000E-02    8.19273E+03
 8.25000E-02    8.17439E+03
 8.65170E-02    8.13701E+03
 9.80370E-02    8.08042E+03
 1.11090E-01    8.05952E+03
 1.16790E-01    8.04838E+03
 1.22770E-01    8.03667E+03
 1.29070E-01    8.02434E+03
 1.35690E-01    8.01140E+03
 1.42640E-01    7.99779E+03
 1.49960E-01    7.98348E+03
 1.57640E-01    7.96843E+03
 1.65730E-01    7.95178E+03
 1.74220E-01    7.93192E+03
 1.83160E-01    7.91089E+03
 1.92550E-01    7.88879E+03
 2.02420E-01    7.86557E+03
 2.12800E-01    7.83936E+03
 2.23710E-01    7.80862E+03
 2.35180E-01    7.77623E+03
 2.47240E-01    7.72418E+03
 2.73240E-01    7.66489E+03
 2.87250E-01    7.63173E+03
 2.94520E-01    7.61625E+03
 2.97200E-01    7.61007E+03
 2.98500E-01    7.60268E+03
 3.01970E-01    7.53510E+03
 3.33730E-01    7.39742E+03
 3.68830E-01    7.29358E+03
 3.87740E-01    7.22947E+03
 4.07620E-01    7.12694E+03
 4.50490E-01    6.99201E+03
 4.97870E-01    6.87984E+03
 5.23400E-01    6.77904E+03
 5.50230E-01    6.67254E+03
 5.78440E-01    6.57205E+03
 6.08100E-01    6.47354E+03
 6.39280E-01    6.37048E+03
 6.72060E-01    6.26777E+03
 7.06510E-01    6.16166E+03
 7.42740E-01    6.05120E+03
 7.80820E-01    5.93522E+03
 8.20850E-01    5.81329E+03
 8.62940E-01    5.69207E+03
 9.07180E-01    5.56397E+03
 9.61640E-01    5.44082E+03
 1.00260E+00    5.27209E+03
 1.10800E+00    5.09609E+03
 1.16480E+00    4.98056E+03
 1.22460E+00    4.87101E+03
 1.28730E+00    4.76313E+03
 1.35340E+00    4.66020E+03
 1.42270E+00    4.55847E+03
 1.49570E+00    4.46235E+03
 1.57240E+00    4.37519E+03
 1.65300E+00    4.28703E+03
 1.73770E+00    4.20510E+03
 1.82680E+00    4.13228E+03
 1.92050E+00    4.06030E+03
 2.01900E+00    3.99706E+03
 2.12250E+00    3.93596E+03
 2.23130E+00    3.89290E+03
 2.30690E+00    3.86895E+03
 2.34570E+00    3.85675E+03
 2.36530E+00    3.84850E+03
 2.38520E+00    3.82757E+03
 2.46600E+00    3.78901E+03
 2.59240E+00    3.75238E+03
 2.72530E+00    3.71973E+03
 2.86500E+00    3.69310E+03
 3.01190E+00    3.68231E+03
 3.16640E+00    3.68121E+03
 3.32870E+00    3.67943E+03
 3.67880E+00    3.67782E+03
 4.06570E+00    3.72348E+03
 4.49330E+00    3.78060E+03
 4.72370E+00    3.82130E+03
 4.96590E+00    3.86981E+03
 5.22050E+00    3.93641E+03
 5.48810E+00    4.00730E+03
 5.76950E+00    4.08184E+03
 6.06530E+00    4.16013E+03
 6.37630E+00    4.22615E+03
 6.59240E+00    4.26614E+03
 6.70320E+00    4.32097E+03
 7.04690E+00    4.38470E+03
 7.40820E+00    4.43810E+03
 7.78800E+00    4.48902E+03
 8.18730E+00    4.50540E+03
 8.60710E+00    4.51507E+03
 9.04840E+00    4.49729E+03
 9.51230E+00    4.45959E+03
 1.00000E+01    4.40089E+03
 1.05130E+01    4.31823E+03
 1.10520E+01    4.23707E+03
 1.16180E+01    4.15550E+03
 1.22140E+01    4.05628E+03
 1.28400E+01    3.95999E+03
 1.34990E+01    3.88738E+03
 1.38400E+01    3.83994E+03
 1.41910E+01    3.79486E+03
 1.45500E+01    3.75092E+03
 1.49180E+01    3.68706E+03
 1.56830E+01    3.60268E+03
 1.64870E+01    3.50893E+03
