# n + Kr 82 : (n,el)    
# endfb8.0   JNDC FPND W.G., Mughabghab        EVAL-FEB05
# uncertainties: n
# # energies =   171
#   E(MeV)       xs(mb) 
 1.00000E-11    2.74274E+04
 1.00000E-07    1.46708E+04
 4.13990E-07    1.46184E+04
 5.31580E-07    1.45935E+04
 6.82560E-07    1.45616E+04
 8.76420E-07    1.45207E+04
 1.12540E-06    1.44682E+04
 1.44500E-06    1.44008E+04
 1.85540E-06    1.43150E+04
 2.37240E-06    1.42040E+04
 3.05900E-06    1.40603E+04
 3.92790E-06    1.38770E+04
 5.04350E-06    1.36416E+04
 6.47600E-06    1.33312E+04
 8.31530E-06    1.29027E+04
 1.06770E-05    1.23274E+04
 1.37100E-05    1.14971E+04
 1.76030E-05    1.02011E+04
 2.26030E-05    7.76978E+03
 2.92030E-05    2.77974E+03
 3.72670E-05    5.88774E+05
 4.78510E-05    3.33261E+04
 6.14420E-05    3.06912E+04
 7.88930E-05    2.82873E+04
 1.01300E-04    2.60927E+04
 1.30070E-04    2.40995E+04
 1.67020E-04    2.22927E+04
 2.14450E-04    2.06560E+04
 2.75360E-04    1.91797E+04
 3.53580E-04    1.78476E+04
 4.54000E-04    1.66420E+04
 5.82950E-04    1.55605E+04
 7.48520E-04    1.45918E+04
 9.61120E-04    1.37249E+04
 1.23410E-03    1.29535E+04
 1.58460E-03    1.22693E+04
 2.03470E-03    1.18358E+04
 2.24870E-03    1.16065E+04
 2.48520E-03    1.14430E+04
 2.61260E-03    1.13373E+04
 2.74650E-03    1.11826E+04
 3.03540E-03    1.09865E+04
 3.35460E-03    1.08008E+04
 3.70740E-03    1.05826E+04
 4.30740E-03    1.02672E+04
 5.53080E-03    9.91625E+03
 7.10170E-03    9.61229E+03
 9.11880E-03    9.35115E+03
 1.17090E-02    9.12662E+03
 1.50340E-02    8.93247E+03
 1.93050E-02    8.80349E+03
 2.18750E-02    8.74045E+03
 2.35790E-02    8.71012E+03
 2.41760E-02    8.69549E+03
 2.47880E-02    8.67363E+03
 2.60580E-02    8.64920E+03
 2.70000E-02    8.62424E+03
 2.85000E-02    8.58006E+03
 3.18280E-02    8.53196E+03
 3.43070E-02    8.47040E+03
 4.08680E-02    8.40025E+03
 4.63090E-02    8.34464E+03
 5.24750E-02    8.30157E+03
 5.65620E-02    8.24929E+03
 6.73790E-02    8.19948E+03
 7.20000E-02    8.16570E+03
 7.95000E-02    8.13794E+03
 8.25000E-02    8.12070E+03
 8.65170E-02    8.08543E+03
 9.80370E-02    8.03111E+03
 1.11090E-01    8.01136E+03
 1.16790E-01    8.00094E+03
 1.22770E-01    7.98998E+03
 1.29070E-01    7.97845E+03
 1.35690E-01    7.96634E+03
 1.42640E-01    7.95360E+03
 1.49960E-01    7.94022E+03
 1.57640E-01    7.92611E+03
 1.65730E-01    7.90889E+03
 1.74220E-01    7.88931E+03
 1.83160E-01    7.86873E+03
 1.92550E-01    7.84710E+03
 2.02420E-01    7.82435E+03
 2.12800E-01    7.79785E+03
 2.23710E-01    7.76719E+03
 2.35180E-01    7.73496E+03
 2.47240E-01    7.68301E+03
 2.73240E-01    7.62317E+03
 2.87250E-01    7.58991E+03
 2.94520E-01    7.57438E+03
 2.97200E-01    7.56819E+03
 2.98500E-01    7.56077E+03
 3.01970E-01    7.49277E+03
 3.33730E-01    7.35415E+03
 3.68830E-01    7.24962E+03
 3.87740E-01    7.18510E+03
 4.07620E-01    7.08192E+03
 4.50490E-01    6.94614E+03
 4.97870E-01    6.83320E+03
 5.23400E-01    6.73156E+03
 5.50230E-01    6.62417E+03
 5.78440E-01    6.52257E+03
 6.08100E-01    6.42279E+03
 6.39280E-01    6.31894E+03
 6.72060E-01    6.21607E+03
 7.06510E-01    6.10871E+03
 7.42740E-01    5.99466E+03
 7.80820E-01    5.82332E+03
 8.20850E-01    5.58993E+03
 8.62940E-01    5.36598E+03
 9.07180E-01    5.14455E+03
 9.61640E-01    4.95101E+03
 1.00260E+00    4.70693E+03
 1.10800E+00    4.46591E+03
 1.16480E+00    4.31045E+03
 1.22460E+00    4.16439E+03
 1.28730E+00    4.03176E+03
 1.35340E+00    3.90220E+03
 1.42270E+00    3.77691E+03
 1.49570E+00    3.62453E+03
 1.57240E+00    3.44788E+03
 1.65300E+00    3.27917E+03
 1.73770E+00    3.13047E+03
 1.82680E+00    3.00328E+03
 1.92050E+00    2.87569E+03
 2.01900E+00    2.74855E+03
 2.12250E+00    2.62904E+03
 2.23130E+00    2.54100E+03
 2.30690E+00    2.49222E+03
 2.34570E+00    2.46735E+03
 2.36530E+00    2.45055E+03
 2.38520E+00    2.40815E+03
 2.46600E+00    2.33406E+03
 2.59240E+00    2.25322E+03
 2.72530E+00    2.19461E+03
 2.86500E+00    2.15156E+03
 3.01190E+00    2.13256E+03
 3.16640E+00    2.12357E+03
 3.32870E+00    2.10915E+03
 3.67880E+00    2.08960E+03
 4.06570E+00    2.13234E+03
 4.49330E+00    2.19395E+03
 4.72370E+00    2.23720E+03
 4.96590E+00    2.28823E+03
 5.22050E+00    2.35460E+03
 5.48810E+00    2.42458E+03
 5.76950E+00    2.49483E+03
 6.06530E+00    2.56512E+03
 6.37630E+00    2.62635E+03
 6.59240E+00    2.66433E+03
 6.70320E+00    2.71333E+03
 7.04690E+00    2.77801E+03
 7.40820E+00    2.83641E+03
 7.78800E+00    2.89424E+03
 8.18730E+00    2.92978E+03
 8.60710E+00    2.96198E+03
 9.04840E+00    2.97458E+03
 9.51230E+00    2.97338E+03
 1.00000E+01    2.98482E+03
 1.05130E+01    3.00974E+03
 1.10520E+01    2.97870E+03
 1.16180E+01    2.83441E+03
 1.22140E+01    2.67836E+03
 1.28400E+01    2.56731E+03
 1.34990E+01    2.53031E+03
 1.38400E+01    2.50213E+03
 1.41910E+01    2.44643E+03
 1.45500E+01    2.39469E+03
 1.49180E+01    2.31871E+03
 1.56830E+01    2.21216E+03
 1.64870E+01    2.10434E+03
