# n + Zn 70 : (n,n'05)  
# jendl4.0   N.Iwamoto                         EVAL-Dec09
# uncertainties: n
# # energies =    44
#   E(MeV)       xs(mb) 
 1.81227E+00    0.00000E+00
 1.90000E+00    1.46117E+01
 1.98594E+00    2.78317E+01
 2.00000E+00    2.98124E+01
 2.17128E+00    5.42560E+01
 2.25000E+00    6.47842E+01
 2.40926E+00    8.45923E+01
 2.50000E+00    9.34596E+01
 2.75000E+00    1.12718E+02
 3.00000E+00    1.24060E+02
 3.50000E+00    1.13827E+02
 4.00000E+00    9.22305E+01
 4.50000E+00    7.56387E+01
 5.00000E+00    6.26512E+01
 5.50000E+00    5.01724E+01
 6.00000E+00    3.92195E+01
 6.50000E+00    3.06796E+01
 7.00000E+00    2.44512E+01
 7.50000E+00    2.00236E+01
 8.00000E+00    1.70358E+01
 8.50000E+00    1.46318E+01
 9.00000E+00    1.29708E+01
 9.50000E+00    1.17356E+01
 1.00000E+01    1.08115E+01
 1.05000E+01    1.01160E+01
 1.10000E+01    9.52462E+00
 1.15000E+01    9.00512E+00
 1.20000E+01    8.53031E+00
 1.25000E+01    8.05968E+00
 1.30000E+01    7.60980E+00
 1.35000E+01    7.20524E+00
 1.40000E+01    6.81120E+00
 1.45000E+01    6.49999E+00
 1.50000E+01    6.19450E+00
 1.55000E+01    5.95294E+00
 1.60000E+01    5.71479E+00
 1.65000E+01    5.49626E+00
 1.70000E+01    5.28005E+00
 1.75000E+01    5.05684E+00
 1.80000E+01    4.83538E+00
 1.85000E+01    4.60874E+00
 1.90000E+01    4.38346E+00
 1.95000E+01    4.16834E+00
 2.00000E+01    3.95436E+00
