# n + Zn 70 : (n,g)     
# jendl4.0   N.Iwamoto                         EVAL-Dec09
# uncertainties: n
# # energies =   171
#   E(MeV)       xs(mb) 
 1.00000E-11    9.91698E+02
 1.00000E-07    3.30197E+01
 4.13990E-07    2.13043E+01
 5.31580E-07    1.87992E+01
 6.82560E-07    1.65876E+01
 8.76420E-07    1.46358E+01
 1.12540E-06    1.29156E+01
 1.44500E-06    1.13988E+01
 1.85540E-06    1.00680E+01
 2.37240E-06    8.88027E+00
 3.05900E-06    7.82469E+00
 3.92790E-06    6.89811E+00
 5.04350E-06    6.08107E+00
 6.47600E-06    5.35971E+00
 8.31530E-06    4.72042E+00
 1.06770E-05    4.15670E+00
 1.37100E-05    3.65733E+00
 1.76030E-05    3.21531E+00
 2.26030E-05    2.81935E+00
 2.92030E-05    2.47241E+00
 3.72670E-05    2.16814E+00
 4.78510E-05    1.89437E+00
 6.14420E-05    1.65014E+00
 7.88930E-05    1.43253E+00
 1.01300E-04    1.23836E+00
 1.30070E-04    1.06430E+00
 1.67020E-04    9.08502E-01
 2.14450E-04    7.69259E-01
 2.75360E-04    6.44586E-01
 3.53580E-04    5.33600E-01
 4.54000E-04    4.35607E-01
 5.82950E-04    3.49809E-01
 7.48520E-04    2.75974E-01
 9.61120E-04    2.13683E-01
 1.23410E-03    1.62539E-01
 1.58460E-03    1.21725E-01
 2.03470E-03    9.85416E-02
 2.24870E-03    8.73952E-02
 2.48520E-03    7.98613E-02
 2.61260E-03    7.52664E-02
 2.74650E-03    6.89582E-02
 3.03540E-03    6.14653E-02
 3.35460E-03    5.50264E-02
 3.70740E-03    4.84047E-02
 4.30740E-03    4.07884E-02
 5.53080E-03    3.60887E-02
 7.10170E-03    4.01986E-02
 9.11880E-03    4.16941E+01
 1.17090E-02    1.08043E+02
 1.50340E-02    8.71424E+00
 1.93050E-02    1.97407E-01
 2.18750E-02    5.24836E+01
 2.35790E-02    1.59406E-01
 2.41760E-02    9.05986E-02
 2.47880E-02    7.28517E-02
 2.60580E-02    7.77935E-02
 2.70000E-02    1.09809E-01
 2.85000E-02    2.65083E+01
 3.18280E-02    5.53135E+00
 3.43070E-02    5.41841E+00
 4.08680E-02    2.89289E+00
 4.63090E-02    2.10724E+00
 5.24750E-02    1.47630E+01
 5.65620E-02    6.61734E+00
 6.73790E-02    1.97492E+00
 7.20000E-02    1.24359E+00
 7.95000E-02    3.83565E-02
 8.25000E-02    1.03768E+01
 8.65170E-02    4.80374E+00
 9.80370E-02    4.70481E+00
 1.11090E-01    1.38118E+01
 1.16790E-01    2.94675E+00
 1.22770E-01    9.11759E-01
 1.29070E-01    8.79833E+00
 1.35690E-01    5.14285E+00
 1.42640E-01    1.18566E+01
 1.49960E-01    6.04623E+00
 1.57640E-01    4.69038E+00
 1.65730E-01    4.93379E+00
 1.74220E-01    4.85594E+00
 1.83160E-01    2.36124E+00
 1.92550E-01    1.87214E+00
 2.02420E-01    5.02023E+00
 2.12800E-01    5.06425E+00
 2.23710E-01    5.01045E+00
 2.35180E-01    4.94738E+00
 2.47240E-01    4.86536E+00
 2.73240E-01    4.79939E+00
 2.87250E-01    4.77414E+00
 2.94520E-01    4.76279E+00
 2.97200E-01    4.75826E+00
 2.98500E-01    4.75296E+00
 3.01970E-01    4.71737E+00
 3.33730E-01    4.65370E+00
 3.68830E-01    4.60660E+00
 3.87740E-01    4.57672E+00
 4.07620E-01    4.55360E+00
 4.50490E-01    4.52736E+00
 4.97870E-01    4.51933E+00
 5.23400E-01    4.53506E+00
 5.50230E-01    4.55091E+00
 5.78440E-01    4.56802E+00
 6.08100E-01    4.60592E+00
 6.39280E-01    4.65214E+00
 6.72060E-01    4.69938E+00
 7.06510E-01    4.76680E+00
 7.42740E-01    4.84526E+00
 7.80820E-01    4.93002E+00
 8.20850E-01    5.04537E+00
 8.62940E-01    5.04498E+00
 9.07180E-01    3.84081E+00
 9.61640E-01    2.96862E+00
 1.00260E+00    2.39556E+00
 1.10800E+00    2.05698E+00
 1.16480E+00    1.92267E+00
 1.22460E+00    1.86120E+00
 1.28730E+00    1.82792E+00
 1.35340E+00    1.82117E+00
 1.42270E+00    1.83514E+00
 1.49570E+00    1.86742E+00
 1.57240E+00    1.64513E+00
 1.65300E+00    1.46587E+00
 1.73770E+00    1.39162E+00
 1.82680E+00    1.25486E+00
 1.92050E+00    1.16888E+00
 2.01900E+00    1.11220E+00
 2.12250E+00    1.07846E+00
 2.23130E+00    1.06195E+00
 2.30690E+00    1.06795E+00
 2.34570E+00    1.07146E+00
 2.36530E+00    1.07383E+00
 2.38520E+00    1.07592E+00
 2.46600E+00    1.07488E+00
 2.59240E+00    1.08856E+00
 2.72530E+00    1.12979E+00
 2.86500E+00    1.22366E+00
 3.01190E+00    1.26304E+00
 3.16640E+00    1.25883E+00
 3.32870E+00    1.24758E+00
 3.67880E+00    1.20442E+00
 4.06570E+00    1.13812E+00
 4.49330E+00    1.07879E+00
 4.72370E+00    1.03458E+00
 4.96590E+00    9.89871E-01
 5.22050E+00    9.43239E-01
 5.48810E+00    8.95153E-01
 5.76950E+00    8.44651E-01
 6.06530E+00    7.94383E-01
 6.37630E+00    7.52653E-01
 6.59240E+00    7.27765E-01
 6.70320E+00    6.94236E-01
 7.04690E+00    6.44783E-01
 7.40820E+00    5.96384E-01
 7.78800E+00    5.50338E-01
 8.18730E+00    5.08552E-01
 8.60710E+00    4.73343E-01
 9.04840E+00    4.46865E-01
 9.51230E+00    4.32873E-01
 1.00000E+01    4.28505E-01
 1.05130E+01    4.41907E-01
 1.10520E+01    4.75957E-01
 1.16180E+01    5.20055E-01
 1.22140E+01    5.71125E-01
 1.28400E+01    6.28722E-01
 1.34990E+01    6.73388E-01
 1.38400E+01    7.02979E-01
 1.41910E+01    7.28917E-01
 1.45500E+01    7.50658E-01
 1.49180E+01    7.70898E-01
 1.56830E+01    7.68824E-01
 1.64870E+01    7.28540E-01
