# n + Zn 70 : (n,t)     
# jendl4.0   N.Iwamoto                         EVAL-Dec09
# uncertainties: n
# # energies =    20
#   E(MeV)       xs(mb) 
 1.10330E+01    0.00000E+00
 1.11188E+01    1.93200E-09
 1.16523E+01    1.97780E-08
 1.17650E+01    2.42100E-08
 1.25000E+01    5.36910E-08
 1.30000E+01    4.23772E-06
 1.35000E+01    6.56869E-05
 1.40000E+01    4.16162E-04
 1.45000E+01    1.54826E-03
 1.50000E+01    4.49054E-03
 1.55000E+01    1.11642E-02
 1.60000E+01    2.43470E-02
 1.65000E+01    4.65557E-02
 1.70000E+01    7.95811E-02
 1.75000E+01    1.24308E-01
 1.80000E+01    1.81293E-01
 1.85000E+01    2.50122E-01
 1.90000E+01    3.31125E-01
 1.95000E+01    4.23382E-01
 2.00000E+01    5.26317E-01
