# n + Ni 60 : (n,n'11)  
# tendl.2019 A.J. Koning and D. Rochman        EVAL-NOV19
# uncertainties: n
# # energies =    73
#   E(MeV)       xs(mb) 
 3.37456E+00    0.00000E+00
 3.40000E+00    9.57271E+00
 3.43790E+00    1.15009E+01
 3.45061E+00    1.21475E+01
 3.60000E+00    1.97476E+01
 3.64849E+00    2.02714E+01
 3.68047E+00    2.06169E+01
 3.68388E+00    2.06537E+01
 3.73249E+00    2.11788E+01
 3.76431E+00    2.15226E+01
 3.79346E+00    2.18375E+01
 3.79898E+00    2.18971E+01
 3.80000E+00    2.19081E+01
 3.94022E+00    2.25471E+01
 3.95323E+00    2.26064E+01
 3.96055E+00    2.26397E+01
 3.99187E+00    2.27824E+01
 4.00000E+00    2.28195E+01
 4.07536E+00    2.23519E+01
 4.08812E+00    2.22728E+01
 4.10291E+00    2.21810E+01
 4.10766E+00    2.21515E+01
 4.14718E+00    2.19063E+01
 4.18527E+00    2.16700E+01
 4.20000E+00    2.15786E+01
 4.40000E+00    1.90519E+01
 4.60000E+00    1.65405E+01
 4.80000E+00    1.42534E+01
 5.00000E+00    1.22654E+01
 5.20000E+00    1.05735E+01
 5.40000E+00    9.14251E+00
 5.60000E+00    7.93271E+00
 5.80000E+00    6.90630E+00
 6.00000E+00    6.03077E+00
 6.20000E+00    5.28022E+00
 6.40000E+00    4.63418E+00
 6.60000E+00    4.07164E+00
 6.80000E+00    3.58054E+00
 7.00000E+00    3.15035E+00
 7.20000E+00    2.77245E+00
 7.40000E+00    2.43835E+00
 7.60000E+00    2.14426E+00
 7.80000E+00    1.88335E+00
 8.00000E+00    1.65315E+00
 8.50000E+00    1.18341E+00
 9.00000E+00    8.44894E-01
 9.50000E+00    6.01217E-01
 1.00000E+01    4.27279E-01
 1.05000E+01    3.03753E-01
 1.10000E+01    2.16214E-01
 1.15000E+01    1.54181E-01
 1.20000E+01    1.10013E-01
 1.25000E+01    7.84722E-02
 1.30000E+01    5.58966E-02
 1.35000E+01    3.97491E-02
 1.40000E+01    2.82281E-02
 1.45000E+01    2.00241E-02
 1.50000E+01    1.42007E-02
 1.60000E+01    7.14704E-03
 1.70000E+01    3.61347E-03
 1.80000E+01    1.84376E-03
 1.90000E+01    9.50111E-04
 2.00000E+01    4.94359E-04
 2.10000E+01    2.59562E-04
 2.20000E+01    1.36728E-04
 2.30000E+01    7.24709E-05
 2.40000E+01    3.85440E-05
 2.50000E+01    2.05206E-05
 2.60000E+01    1.08292E-05
 2.70000E+01    5.84224E-06
 2.80000E+01    3.17365E-06
 2.90000E+01    1.73174E-06
 3.00000E+01    9.52920E-07
