# n + Ni 60 : (n,n'05)  
# tendl.2019 A.J. Koning and D. Rochman        EVAL-NOV19
# uncertainties: n
# # energies =    82
#   E(MeV)       xs(mb) 
 2.67028E+00    0.00000E+00
 2.80000E+00    7.15420E+01
 3.00000E+00    1.11036E+02
 3.17221E+00    1.36220E+02
 3.17660E+00    1.36862E+02
 3.20000E+00    1.40284E+02
 3.23964E+00    1.41520E+02
 3.24778E+00    1.41774E+02
 3.32441E+00    1.44164E+02
 3.37456E+00    1.45728E+02
 3.40000E+00    1.46521E+02
 3.43790E+00    1.46293E+02
 3.45061E+00    1.46217E+02
 3.60000E+00    1.45318E+02
 3.64849E+00    1.43536E+02
 3.68047E+00    1.42361E+02
 3.68388E+00    1.42235E+02
 3.73249E+00    1.40449E+02
 3.76431E+00    1.39280E+02
 3.79346E+00    1.38208E+02
 3.79898E+00    1.38005E+02
 3.80000E+00    1.37968E+02
 3.94022E+00    1.27355E+02
 3.95323E+00    1.26370E+02
 3.96055E+00    1.25816E+02
 3.99187E+00    1.23445E+02
 4.00000E+00    1.22830E+02
 4.07536E+00    1.16210E+02
 4.08812E+00    1.15090E+02
 4.10291E+00    1.13790E+02
 4.10766E+00    1.13373E+02
 4.14718E+00    1.09902E+02
 4.18527E+00    1.06556E+02
 4.20000E+00    1.05262E+02
 4.40000E+00    9.00475E+01
 4.60000E+00    7.75870E+01
 4.80000E+00    6.69869E+01
 5.00000E+00    5.79856E+01
 5.20000E+00    5.03516E+01
 5.40000E+00    4.38544E+01
 5.60000E+00    3.82942E+01
 5.80000E+00    3.35098E+01
 6.00000E+00    2.93695E+01
 6.20000E+00    2.57727E+01
 6.40000E+00    2.26429E+01
 6.60000E+00    1.98953E+01
 6.80000E+00    1.74849E+01
 7.00000E+00    1.53675E+01
 7.20000E+00    1.35114E+01
 7.40000E+00    1.18729E+01
 7.60000E+00    1.04372E+01
 7.80000E+00    9.16959E+00
 8.00000E+00    8.05273E+00
 8.50000E+00    5.78975E+00
 9.00000E+00    4.16456E+00
 9.50000E+00    2.99079E+00
 1.00000E+01    2.14572E+00
 1.05000E+01    1.53859E+00
 1.10000E+01    1.10300E+00
 1.15000E+01    7.90752E-01
 1.20000E+01    5.66383E-01
 1.25000E+01    4.05090E-01
 1.30000E+01    2.89118E-01
 1.35000E+01    2.05929E-01
 1.40000E+01    1.46464E-01
 1.45000E+01    1.04065E-01
 1.50000E+01    7.39351E-02
 1.60000E+01    3.73716E-02
 1.70000E+01    1.89833E-02
 1.80000E+01    9.72385E-03
 1.90000E+01    5.02174E-03
 2.00000E+01    2.61418E-03
 2.10000E+01    1.37218E-03
 2.20000E+01    7.22939E-04
 2.30000E+01    3.83775E-04
 2.40000E+01    2.04773E-04
 2.50000E+01    1.09528E-04
 2.60000E+01    5.81183E-05
 2.70000E+01    3.15324E-05
 2.80000E+01    1.72210E-05
 2.90000E+01    9.44127E-06
 3.00000E+01    5.21624E-06
