# n + Dy164 : (n,tot)   
# endfb8.0   Kim,Herman,Oh,Oblozinsky          EVAL-FEB06
# uncertainties: n
# # energies =   171
#   E(MeV)       xs(mb) 
 1.00000E-11    2.99450E+07
 1.00000E-07    1.07947E+06
 4.13990E-07    6.32319E+05
 5.31580E-07    5.26699E+05
 6.82560E-07    4.31543E+05
 8.76420E-07    3.47170E+05
 1.12540E-06    2.73959E+05
 1.44500E-06    2.12011E+05
 1.85540E-06    1.61387E+05
 2.37240E-06    1.20603E+05
 3.05900E-06    8.87337E+04
 3.92790E-06    6.49462E+04
 5.04350E-06    4.74565E+04
 6.47600E-06    3.48469E+04
 8.31530E-06    2.58607E+04
 1.06770E-05    1.95116E+04
 1.37100E-05    1.50271E+04
 1.76030E-05    1.18361E+04
 2.26030E-05    9.50950E+03
 2.92030E-05    7.80558E+03
 3.72670E-05    6.50260E+03
 4.78510E-05    5.39745E+03
 6.14420E-05    4.33905E+03
 7.88930E-05    3.07563E+03
 1.01300E-04    1.43709E+03
 1.30070E-04    6.23810E+05
 1.67020E-04    1.57918E+04
 2.14450E-04    9.12059E+03
 2.75360E-04    7.14883E+03
 3.53580E-04    2.58439E+04
 4.54000E-04    1.49758E+04
 5.82950E-04    6.08535E+03
 7.48520E-04    1.82003E+04
 9.61120E-04    1.81064E+04
 1.23410E-03    1.47201E+04
 1.58460E-03    2.11527E+04
 2.03470E-03    6.84394E+03
 2.24870E-03    2.37083E+04
 2.48520E-03    1.46861E+04
 2.61260E-03    5.68184E+03
 2.74650E-03    3.22093E+04
 3.03540E-03    8.70783E+03
 3.35460E-03    1.30605E+04
 3.70740E-03    1.05077E+04
 4.30740E-03    2.79934E+04
 5.53080E-03    2.29275E+04
 7.10170E-03    1.56059E+04
 9.11880E-03    1.45668E+04
 1.17090E-02    1.36430E+04
 1.50340E-02    1.28184E+04
 1.93050E-02    1.22534E+04
 2.18750E-02    1.19711E+04
 2.35790E-02    1.18338E+04
 2.41760E-02    1.17672E+04
 2.47880E-02    1.16674E+04
 2.60580E-02    1.15557E+04
 2.70000E-02    1.14417E+04
 2.85000E-02    1.12368E+04
 3.18280E-02    1.10115E+04
 3.43070E-02    1.07212E+04
 4.08680E-02    1.03883E+04
 4.63090E-02    1.01238E+04
 5.24750E-02    9.91979E+03
 5.65620E-02    9.67428E+03
 6.73790E-02    9.44547E+03
 7.20000E-02    9.28585E+03
 7.95000E-02    9.14787E+03
 8.25000E-02    9.07724E+03
 8.65170E-02    8.93222E+03
 9.80370E-02    8.73469E+03
 1.11090E-01    8.60492E+03
 1.16790E-01    8.52747E+03
 1.22770E-01    8.45771E+03
 1.29070E-01    8.39445E+03
 1.35690E-01    8.32801E+03
 1.42640E-01    8.25814E+03
 1.49960E-01    8.19132E+03
 1.57640E-01    8.13967E+03
 1.65730E-01    8.08647E+03
 1.74220E-01    8.03054E+03
 1.83160E-01    7.97172E+03
 1.92550E-01    7.91009E+03
 2.02420E-01    7.86677E+03
 2.12800E-01    7.83622E+03
 2.23710E-01    7.80410E+03
 2.35180E-01    7.77033E+03
 2.47240E-01    7.71617E+03
 2.73240E-01    7.65828E+03
 2.87250E-01    7.62760E+03
 2.94520E-01    7.61328E+03
 2.97200E-01    7.60757E+03
 2.98500E-01    7.60073E+03
 3.01970E-01    7.57447E+03
 3.33730E-01    7.53701E+03
 3.68830E-01    7.50661E+03
 3.87740E-01    7.48495E+03
 4.07620E-01    7.46590E+03
 4.50490E-01    7.45054E+03
 4.97870E-01    7.44170E+03
 5.23400E-01    7.44181E+03
 5.50230E-01    7.44197E+03
 5.78440E-01    7.44213E+03
 6.08100E-01    7.44230E+03
 6.39280E-01    7.44247E+03
 6.72060E-01    7.44252E+03
 7.06510E-01    7.43739E+03
 7.42740E-01    7.42933E+03
 7.80820E-01    7.42085E+03
 8.20850E-01    7.41194E+03
 8.62940E-01    7.40257E+03
 9.07180E-01    7.39003E+03
 9.61640E-01    7.36976E+03
 1.00260E+00    7.33699E+03
 1.10800E+00    7.30002E+03
 1.16480E+00    7.27365E+03
 1.22460E+00    7.24595E+03
 1.28730E+00    7.21683E+03
 1.35340E+00    7.18617E+03
 1.42270E+00    7.15074E+03
 1.49570E+00    7.11140E+03
 1.57240E+00    7.07006E+03
 1.65300E+00    7.02661E+03
 1.73770E+00    6.98094E+03
 1.82680E+00    6.93290E+03
 1.92050E+00    6.88239E+03
 2.01900E+00    6.82930E+03
 2.12250E+00    6.77140E+03
 2.23130E+00    6.71862E+03
 2.30690E+00    6.68587E+03
 2.34570E+00    6.66917E+03
 2.36530E+00    6.65789E+03
 2.38520E+00    6.62926E+03
 2.46600E+00    6.57027E+03
 2.59240E+00    6.49625E+03
 2.72530E+00    6.41843E+03
 2.86500E+00    6.33662E+03
 3.01190E+00    6.25058E+03
 3.16640E+00    6.16015E+03
 3.32870E+00    6.01512E+03
 3.67880E+00    5.81137E+03
 4.06570E+00    5.61765E+03
 4.49330E+00    5.47419E+03
 4.72370E+00    5.37197E+03
 4.96590E+00    5.28159E+03
 5.22050E+00    5.21536E+03
 5.48810E+00    5.14618E+03
 5.76950E+00    5.07454E+03
 6.06530E+00    5.03092E+03
 6.37630E+00    5.00517E+03
 6.59240E+00    4.98920E+03
 6.70320E+00    4.96718E+03
 7.04690E+00    4.94816E+03
 7.40820E+00    4.94664E+03
 7.78800E+00    4.96071E+03
 8.18730E+00    4.98548E+03
 8.60710E+00    5.01775E+03
 9.04840E+00    5.05618E+03
 9.51230E+00    5.10520E+03
 1.00000E+01    5.15694E+03
 1.05130E+01    5.21131E+03
 1.10520E+01    5.26448E+03
 1.16180E+01    5.31653E+03
 1.22140E+01    5.35874E+03
 1.28400E+01    5.39289E+03
 1.34990E+01    5.40770E+03
 1.38400E+01    5.41549E+03
 1.41910E+01    5.41355E+03
 1.45500E+01    5.41015E+03
 1.49180E+01    5.39408E+03
 1.56830E+01    5.35431E+03
 1.64870E+01    5.29165E+03
