# n + Dy164 : (n,xa)    
# endfb8.0   Kim,Herman,Oh,Oblozinsky          EVAL-FEB06
# 
# # energies =    80
#   E(MeV)        xs(mb) 
 7.38416E-02    0.00000E+00
 8.00000E-02    0.00000E+00
 9.00000E-02    0.00000E+00
 1.00000E-01    0.00000E+00
 1.20000E-01    0.00000E+00
 1.50000E-01    0.00000E+00
 2.00000E-01    0.00000E+00
 2.43720E-01    0.00000E+00
 3.00000E-01    0.00000E+00
 4.00000E-01    0.00000E+00
 4.95000E-01    0.00000E+00
 5.00000E-01    0.00000E+00
 5.04405E-01    0.00000E+00
 6.00000E-01    0.00000E+00
 7.00000E-01    0.00000E+00
 7.66548E-01    0.00000E+00
 8.00000E-01    0.00000E+00
 8.33286E-01    0.00000E+00
 8.48861E-01    0.00000E+00
 9.00000E-01    0.00000E+00
 9.21656E-01    0.00000E+00
 9.82891E-01    0.00000E+00
 1.00000E+00    0.00000E+00
 1.03101E+00    0.00000E+00
 1.04571E+00    0.00000E+00
 1.10000E+00    0.00000E+00
 1.12971E+00    0.00000E+00
 1.16261E+00    0.00000E+00
 1.17317E+00    0.00000E+00
 1.20000E+00    0.00000E+00
 1.23274E+00    0.00000E+00
 1.26906E+00    0.00000E+00
 1.30000E+00    0.00000E+00
 1.40000E+00    0.00000E+00
 1.40328E+00    0.00000E+00
 1.50000E+00    0.00000E+00
 1.59757E+00    0.00000E+00
 1.60000E+00    0.00000E+00
 1.61759E+00    1.95829E-10
 1.66559E+00    7.30214E-10
 1.68531E+00    9.49756E-10
 1.69678E+00    1.07745E-09
 1.70000E+00    1.11330E-09
 1.72676E+00    7.48719E-09
 1.74708E+00    1.23271E-08
 1.75654E+00    1.45804E-08
 1.76862E+00    1.74577E-08
 1.78059E+00    2.03088E-08
 1.78793E+00    2.20571E-08
 1.80000E+00    2.49320E-08
 1.80806E+00    2.57901E-08
 1.81953E+00    2.70112E-08
 1.85172E+00    3.04381E-08
 1.85776E+00    3.10811E-08
 1.86511E+00    3.18636E-08
 1.90000E+00    3.55780E-08
 2.00000E+00    5.66610E-08
 2.50000E+00    3.35980E-07
 3.00000E+00    1.01725E-06
 3.50000E+00    2.48180E-06
 4.00000E+00    6.47921E-06
 5.00000E+00    4.68959E-05
 6.00000E+00    1.30401E-04
 7.00000E+00    3.40039E-04
 7.60000E+00    6.41653E-04
 7.80000E+00    8.00352E-04
 8.00000E+00    1.00643E-03
 9.00000E+00    3.21695E-03
 1.00000E+01    1.15517E-02
 1.10000E+01    3.79787E-02
 1.20000E+01    1.23744E-01
 1.30000E+01    3.43135E-01
 1.40000E+01    7.83112E-01
 1.45000E+01    1.10440E+00
 1.50000E+01    1.37039E+00
 1.60000E+01    2.21479E+00
 1.70000E+01    3.23706E+00
 1.80000E+01    4.37992E+00
 1.90000E+01    5.65820E+00
 2.00000E+01    6.93722E+00
