# n + Dy164 : (n,n')    
# endfb8.0   Kim,Herman,Oh,Oblozinsky          EVAL-FEB06
# uncertainties: n
# # energies =    80
#   E(MeV)       xs(mb) 
 7.38416E-02    0.00000E+00
 8.00000E-02    9.10597E+01
 9.00000E-02    1.52767E+02
 1.00000E-01    2.00020E+02
 1.20000E-01    2.80625E+02
 1.50000E-01    4.21404E+02
 2.00000E-01    6.33357E+02
 2.43720E-01    7.93291E+02
 3.00000E-01    1.00657E+03
 4.00000E-01    1.33465E+03
 4.95000E-01    1.58606E+03
 5.00000E-01    1.59941E+03
 5.04405E-01    1.60860E+03
 6.00000E-01    1.80806E+03
 7.00000E-01    1.95018E+03
 7.66548E-01    1.93975E+03
 8.00000E-01    2.10176E+03
 8.33286E-01    2.11208E+03
 8.48861E-01    2.14550E+03
 9.00000E-01    2.25522E+03
 9.21656E-01    2.26566E+03
 9.82891E-01    2.30547E+03
 1.00000E+00    2.40848E+03
 1.03101E+00    2.43571E+03
 1.04571E+00    2.44953E+03
 1.10000E+00    2.57662E+03
 1.12971E+00    2.58848E+03
 1.16261E+00    2.61930E+03
 1.17317E+00    2.62920E+03
 1.20000E+00    2.68287E+03
 1.23274E+00    2.71112E+03
 1.26906E+00    2.74325E+03
 1.30000E+00    2.77061E+03
 1.40000E+00    2.83430E+03
 1.40328E+00    2.83418E+03
 1.50000E+00    2.87885E+03
 1.59757E+00    2.90431E+03
 1.60000E+00    2.90574E+03
 1.61759E+00    2.90162E+03
 1.66559E+00    2.89589E+03
 1.68531E+00    2.90750E+03
 1.69678E+00    2.92845E+03
 1.70000E+00    2.93440E+03
 1.72676E+00    2.90623E+03
 1.74708E+00    2.90562E+03
 1.75654E+00    2.91439E+03
 1.76862E+00    2.92558E+03
 1.78059E+00    2.94201E+03
 1.78793E+00    2.95300E+03
 1.80000E+00    2.97642E+03
 1.80806E+00    2.96465E+03
 1.81953E+00    2.95520E+03
 1.85172E+00    2.94779E+03
 1.85776E+00    2.95037E+03
 1.86511E+00    2.95744E+03
 1.90000E+00    3.01770E+03
 2.00000E+00    3.03767E+03
 2.50000E+00    3.10219E+03
 3.00000E+00    3.11302E+03
 3.50000E+00    3.08994E+03
 4.00000E+00    3.04697E+03
 5.00000E+00    2.95532E+03
 6.00000E+00    2.87640E+03
 7.00000E+00    2.80468E+03
 7.60000E+00    2.76079E+03
 7.80000E+00    2.74728E+03
 8.00000E+00    2.65675E+03
 9.00000E+00    1.60248E+03
 1.00000E+01    9.64142E+02
 1.10000E+01    6.97248E+02
 1.20000E+01    5.69118E+02
 1.30000E+01    4.99723E+02
 1.40000E+01    4.56775E+02
 1.45000E+01    4.40251E+02
 1.50000E+01    4.25056E+02
 1.60000E+01    4.00334E+02
 1.70000E+01    3.78866E+02
 1.80000E+01    3.62327E+02
 1.90000E+01    3.46889E+02
 2.00000E+01    3.32392E+02
