# n + Dy164 : (n,el)    
# endfb8.0   Kim,Herman,Oh,Oblozinsky          EVAL-FEB06
# uncertainties: n
# # energies =   171
#   E(MeV)       xs(mb) 
 1.00000E-11    5.11388E+05
 1.00000E-07    2.76609E+05
 4.13990E-07    2.26350E+05
 5.31580E-07    2.05724E+05
 6.82560E-07    1.83485E+05
 8.76420E-07    1.60307E+05
 1.12540E-06    1.37057E+05
 1.44500E-06    1.14637E+05
 1.85540E-06    9.40254E+04
 2.37240E-06    7.55241E+04
 3.05900E-06    5.95768E+04
 3.92790E-06    4.65430E+04
 5.04350E-06    3.61239E+04
 6.47600E-06    2.80109E+04
 8.31530E-06    2.18129E+04
 1.06770E-05    1.71429E+04
 1.37100E-05    1.36495E+04
 1.76030E-05    1.10311E+04
 2.26030E-05    9.03325E+03
 2.92030E-05    7.51150E+03
 3.72670E-05    6.30544E+03
 4.78510E-05    5.24681E+03
 6.14420E-05    4.19699E+03
 7.88930E-05    2.88476E+03
 1.01300E-04    8.43708E+02
 1.30070E-04    5.48163E+05
 1.67020E-04    1.54915E+04
 2.14450E-04    8.96308E+03
 2.75360E-04    7.13290E+03
 3.53580E-04    1.96290E+04
 4.54000E-04    1.10139E+04
 5.82950E-04    5.98851E+03
 7.48520E-04    1.56951E+04
 9.61120E-04    1.48979E+04
 1.23410E-03    1.35926E+04
 1.58460E-03    1.95489E+04
 2.03470E-03    6.26163E+03
 2.24870E-03    2.19236E+04
 2.48520E-03    1.34341E+04
 2.61260E-03    5.43169E+03
 2.74650E-03    3.10705E+04
 3.03540E-03    8.09433E+03
 3.35460E-03    1.22044E+04
 3.70740E-03    9.86381E+03
 4.30740E-03    2.74136E+04
 5.53080E-03    2.24562E+04
 7.10170E-03    1.51447E+04
 9.11880E-03    1.41674E+04
 1.17090E-02    1.32961E+04
 1.50340E-02    1.25168E+04
 1.93050E-02    1.19819E+04
 2.18750E-02    1.17142E+04
 2.35790E-02    1.15840E+04
 2.41760E-02    1.15207E+04
 2.47880E-02    1.14260E+04
 2.60580E-02    1.13197E+04
 2.70000E-02    1.12113E+04
 2.85000E-02    1.10162E+04
 3.18280E-02    1.08012E+04
 3.43070E-02    1.05237E+04
 4.08680E-02    1.02043E+04
 4.63090E-02    9.94950E+03
 5.24750E-02    9.75226E+03
 5.65620E-02    9.51396E+03
 6.73790E-02    9.29108E+03
 7.20000E-02    9.12214E+03
 7.95000E-02    8.93871E+03
 8.25000E-02    8.85305E+03
 8.65170E-02    8.67622E+03
 9.80370E-02    8.43484E+03
 1.11090E-01    8.27370E+03
 1.16790E-01    8.17632E+03
 1.22770E-01    8.08058E+03
 1.29070E-01    7.98969E+03
 1.35690E-01    7.89431E+03
 1.42640E-01    7.79401E+03
 1.49960E-01    7.69558E+03
 1.57640E-01    7.61177E+03
 1.65730E-01    7.52481E+03
 1.74220E-01    7.43339E+03
 1.83160E-01    7.33725E+03
 1.92550E-01    7.23643E+03
 2.02420E-01    7.15430E+03
 2.12800E-01    7.08460E+03
 2.23710E-01    7.01133E+03
 2.35180E-01    6.93430E+03
 2.47240E-01    6.81077E+03
 2.73240E-01    6.67872E+03
 2.87250E-01    6.60876E+03
 2.94520E-01    6.57609E+03
 2.97200E-01    6.56305E+03
 2.98500E-01    6.54745E+03
 3.01970E-01    6.46721E+03
 3.33730E-01    6.32059E+03
 3.68830E-01    6.20111E+03
 3.87740E-01    6.11682E+03
 4.07620E-01    6.01696E+03
 4.50490E-01    5.88434E+03
 4.97870E-01    5.78257E+03
 5.23400E-01    5.72845E+03
 5.50230E-01    5.67237E+03
 5.78440E-01    5.61341E+03
 6.08100E-01    5.56053E+03
 6.39280E-01    5.51462E+03
 6.72060E-01    5.46723E+03
 7.06510E-01    5.44994E+03
 7.42740E-01    5.43547E+03
 7.80820E-01    5.30098E+03
 8.20850E-01    5.24098E+03
 8.62940E-01    5.14518E+03
 9.07180E-01    5.07490E+03
 9.61640E-01    5.00170E+03
 1.00260E+00    4.82218E+03
 1.10800E+00    4.67617E+03
 1.16480E+00    4.58414E+03
 1.22460E+00    4.49615E+03
 1.28730E+00    4.41602E+03
 1.35340E+00    4.33989E+03
 1.42270E+00    4.26869E+03
 1.49570E+00    4.20255E+03
 1.57240E+00    4.14806E+03
 1.65300E+00    4.09508E+03
 1.73770E+00    4.02074E+03
 1.82680E+00    3.93579E+03
 1.92050E+00    3.83700E+03
 2.01900E+00    3.76702E+03
 2.12250E+00    3.69348E+03
 2.23130E+00    3.62941E+03
 2.30690E+00    3.58967E+03
 2.34570E+00    3.56940E+03
 2.36530E+00    3.55572E+03
 2.38520E+00    3.52097E+03
 2.46600E+00    3.45184E+03
 2.59240E+00    3.37538E+03
 2.72530E+00    3.29627E+03
 2.86500E+00    3.21309E+03
 3.01190E+00    3.12867E+03
 3.16640E+00    3.04636E+03
 3.32870E+00    2.91676E+03
 3.67880E+00    2.74628E+03
 4.06570E+00    2.59263E+03
 4.49330E+00    2.48033E+03
 4.72370E+00    2.40033E+03
 4.96590E+00    2.33194E+03
 5.22050E+00    2.28657E+03
 5.48810E+00    2.23928E+03
 5.76950E+00    2.19056E+03
 6.06530E+00    2.16859E+03
 6.37630E+00    2.16073E+03
 6.59240E+00    2.15585E+03
 6.70320E+00    2.14943E+03
 7.04690E+00    2.16015E+03
 7.40820E+00    2.18525E+03
 7.78800E+00    2.22284E+03
 8.18730E+00    2.27467E+03
 8.60710E+00    2.33214E+03
 9.04840E+00    2.39738E+03
 9.51230E+00    2.47153E+03
 1.00000E+01    2.54708E+03
 1.05130E+01    2.62396E+03
 1.10520E+01    2.69811E+03
 1.16180E+01    2.77007E+03
 1.22140E+01    2.83047E+03
 1.28400E+01    2.88202E+03
 1.34990E+01    2.90881E+03
 1.38400E+01    2.92465E+03
 1.41910E+01    2.93011E+03
 1.45500E+01    2.93397E+03
 1.49180E+01    2.92837E+03
 1.56830E+01    2.90215E+03
 1.64870E+01    2.85248E+03
