# n + Np236 : (n,f)     
# jendl.ad   O.Iwamoto,T.Nakagawa,K.Furutaka,+ EVAL-FEB10
# uncertainties: n
# # energies =   171
#   E(MeV)       xs(mb) 
 1.00000E-11    2.94045E+07
 1.00000E-07    1.11700E+06
 4.13990E-07    5.79225E+05
 5.31580E-07    6.19780E+05
 6.82560E-07    5.87965E+05
 8.76420E-07    3.28193E+05
 1.12540E-06    2.63900E+05
 1.44500E-06    2.59841E+05
 1.85540E-06    3.40538E+05
 2.37240E-06    3.16176E+05
 3.05900E-06    1.96637E+05
 3.92790E-06    1.27253E+05
 5.04350E-06    1.40091E+05
 6.47600E-06    1.47261E+05
 8.31530E-06    1.29251E+05
 1.06770E-05    1.79068E+05
 1.37100E-05    2.02558E+05
 1.76030E-05    1.06960E+05
 2.26030E-05    6.57508E+04
 2.92030E-05    5.80119E+04
 3.72670E-05    5.12699E+04
 4.78510E-05    4.52390E+04
 6.14420E-05    3.99223E+04
 7.88930E-05    3.52325E+04
 1.01300E-04    3.10980E+04
 1.30070E-04    2.74479E+04
 1.67020E-04    2.42243E+04
 2.14450E-04    2.13901E+04
 2.75360E-04    1.88896E+04
 3.53580E-04    1.66909E+04
 4.54000E-04    1.47496E+04
 5.82950E-04    1.30482E+04
 7.48520E-04    1.15511E+04
 9.61120E-04    1.02416E+04
 1.23410E-03    9.09895E+03
 1.58460E-03    8.08147E+03
 2.03470E-03    7.44766E+03
 2.24870E-03    7.11877E+03
 2.48520E-03    6.87930E+03
 2.61260E-03    6.72546E+03
 2.74650E-03    6.50317E+03
 3.03540E-03    6.22596E+03
 3.35460E-03    5.96856E+03
 3.70740E-03    5.66188E+03
 4.30740E-03    5.20831E+03
 5.53080E-03    4.72103E+03
 7.10170E-03    4.31380E+03
 9.11880E-03    3.97429E+03
 1.17090E-02    3.71808E+03
 1.50340E-02    3.48074E+03
 1.93050E-02    3.32269E+03
 2.18750E-02    3.26908E+03
 2.35790E-02    3.24156E+03
 2.41760E-02    3.22721E+03
 2.47880E-02    3.20641E+03
 2.60580E-02    3.18523E+03
 2.70000E-02    3.16233E+03
 2.85000E-02    3.12159E+03
 3.18280E-02    3.09424E+03
 3.43070E-02    3.06044E+03
 4.08680E-02    3.02020E+03
 4.63090E-02    2.98714E+03
 5.24750E-02    2.96532E+03
 5.65620E-02    2.94524E+03
 6.73790E-02    2.93597E+03
 7.20000E-02    2.92295E+03
 7.95000E-02    2.91657E+03
 8.25000E-02    2.91559E+03
 8.65170E-02    2.91342E+03
 9.80370E-02    2.89175E+03
 1.11090E-01    2.84921E+03
 1.16790E-01    2.82284E+03
 1.22770E-01    2.80550E+03
 1.29070E-01    2.79180E+03
 1.35690E-01    2.77855E+03
 1.42640E-01    2.77682E+03
 1.49960E-01    2.77831E+03
 1.57640E-01    2.77987E+03
 1.65730E-01    2.78253E+03
 1.74220E-01    2.79765E+03
 1.83160E-01    2.81717E+03
 1.92550E-01    2.83634E+03
 2.02420E-01    2.82420E+03
 2.12800E-01    2.79757E+03
 2.23710E-01    2.76959E+03
 2.35180E-01    2.74017E+03
 2.47240E-01    2.72534E+03
 2.73240E-01    2.73696E+03
 2.87250E-01    2.74334E+03
 2.94520E-01    2.74632E+03
 2.97200E-01    2.74751E+03
 2.98500E-01    2.74734E+03
 3.01970E-01    2.70895E+03
 3.33730E-01    2.63429E+03
 3.68830E-01    2.57977E+03
 3.87740E-01    2.54472E+03
 4.07620E-01    2.52993E+03
 4.50490E-01    2.51770E+03
 4.97870E-01    2.49593E+03
 5.23400E-01    2.45981E+03
 5.50230E-01    2.42174E+03
 5.78440E-01    2.38378E+03
 6.08100E-01    2.36094E+03
 6.39280E-01    2.34370E+03
 6.72060E-01    2.32556E+03
 7.06510E-01    2.30041E+03
 7.42740E-01    2.26879E+03
 7.80820E-01    2.23655E+03
 8.20850E-01    2.21337E+03
 8.62940E-01    2.19190E+03
 9.07180E-01    2.17321E+03
 9.61640E-01    2.15944E+03
 1.00260E+00    2.13857E+03
 1.10800E+00    2.11653E+03
 1.16480E+00    2.10540E+03
 1.22460E+00    2.09394E+03
 1.28730E+00    2.08423E+03
 1.35340E+00    2.07604E+03
 1.42270E+00    2.06743E+03
 1.49570E+00    2.05838E+03
 1.57240E+00    2.04943E+03
 1.65300E+00    2.04042E+03
 1.73770E+00    2.03095E+03
 1.82680E+00    2.02099E+03
 1.92050E+00    2.01041E+03
 2.01900E+00    1.99563E+03
 2.12250E+00    1.97821E+03
 2.23130E+00    1.96304E+03
 2.30690E+00    1.95363E+03
 2.34570E+00    1.94883E+03
 2.36530E+00    1.94559E+03
 2.38520E+00    1.93736E+03
 2.46600E+00    1.92040E+03
 2.59240E+00    1.89913E+03
 2.72530E+00    1.87675E+03
 2.86500E+00    1.85321E+03
 3.01190E+00    1.82944E+03
 3.16640E+00    1.80778E+03
 3.32870E+00    1.77348E+03
 3.67880E+00    1.72714E+03
 4.06570E+00    1.68059E+03
 4.49330E+00    1.64838E+03
 4.72370E+00    1.63144E+03
 4.96590E+00    1.61373E+03
 5.22050E+00    1.59513E+03
 5.48810E+00    1.58964E+03
 5.76950E+00    1.60292E+03
 6.06530E+00    1.67831E+03
 6.37630E+00    1.76982E+03
 6.59240E+00    1.83916E+03
 6.70320E+00    1.93970E+03
 7.04690E+00    2.06907E+03
 7.40820E+00    2.17893E+03
 7.78800E+00    2.26744E+03
 8.18730E+00    2.32470E+03
 8.60710E+00    2.36939E+03
 9.04840E+00    2.39390E+03
 9.51230E+00    2.40829E+03
 1.00000E+01    2.41460E+03
 1.05130E+01    2.41225E+03
 1.10520E+01    2.40865E+03
 1.16180E+01    2.40164E+03
 1.22140E+01    2.40567E+03
 1.28400E+01    2.42646E+03
 1.34990E+01    2.44863E+03
 1.38400E+01    2.46508E+03
 1.41910E+01    2.48196E+03
 1.45500E+01    2.49924E+03
 1.49180E+01    2.52065E+03
 1.56830E+01    2.54214E+03
 1.64870E+01    2.55501E+03
