# n + Np236 : (n,tot)   
# jendl.ad   O.Iwamoto,T.Nakagawa,K.Furutaka,+ EVAL-FEB10
# uncertainties: n
# # energies =   171
#   E(MeV)       xs(mb) 
 1.00000E-11    3.05851E+07
 1.00000E-07    1.17948E+06
 4.13990E-07    6.11287E+05
 5.31580E-07    6.90884E+05
 6.82560E-07    6.69292E+05
 8.76420E-07    3.42990E+05
 1.12540E-06    2.71423E+05
 1.44500E-06    2.70577E+05
 1.85540E-06    3.65936E+05
 2.37240E-06    3.45696E+05
 3.05900E-06    2.10230E+05
 3.92790E-06    1.31773E+05
 5.04350E-06    1.52287E+05
 6.47600E-06    1.55803E+05
 8.31530E-06    1.32766E+05
 1.06770E-05    1.97134E+05
 1.37100E-05    2.14679E+05
 1.76030E-05    1.13104E+05
 2.26030E-05    7.40250E+04
 2.92030E-05    6.53141E+04
 3.72670E-05    5.77294E+04
 4.78510E-05    5.09284E+04
 6.14420E-05    4.49491E+04
 7.88930E-05    3.96667E+04
 1.01300E-04    3.50054E+04
 1.30070E-04    3.08993E+04
 1.67020E-04    2.72697E+04
 2.14450E-04    2.40850E+04
 2.75360E-04    2.12649E+04
 3.53580E-04    1.87940E+04
 4.54000E-04    1.66035E+04
 5.82950E-04    1.46896E+04
 7.48520E-04    1.30045E+04
 9.61120E-04    1.15271E+04
 1.23410E-03    1.02424E+04
 1.58460E-03    9.09857E+03
 2.03470E-03    8.38376E+03
 2.24870E-03    8.01224E+03
 2.48520E-03    7.74142E+03
 2.61260E-03    7.57188E+03
 2.74650E-03    7.32173E+03
 3.03540E-03    7.00703E+03
 3.35460E-03    6.71706E+03
 3.70740E-03    6.37272E+03
 4.30740E-03    5.86002E+03
 5.53080E-03    5.31251E+03
 7.10170E-03    4.85206E+03
 9.11880E-03    4.46897E+03
 1.17090E-02    4.17765E+03
 1.50340E-02    3.91047E+03
 1.93050E-02    3.73201E+03
 2.18750E-02    3.67052E+03
 2.35790E-02    3.63882E+03
 2.41760E-02    3.62229E+03
 2.47880E-02    3.59892E+03
 2.60580E-02    3.57420E+03
 2.70000E-02    3.54727E+03
 2.85000E-02    3.50098E+03
 3.18280E-02    3.46909E+03
 3.43070E-02    3.42836E+03
 4.08680E-02    3.38150E+03
 4.63090E-02    3.34194E+03
 5.24750E-02    3.31601E+03
 5.65620E-02    3.29095E+03
 6.73790E-02    3.27913E+03
 7.20000E-02    3.25934E+03
 7.95000E-02    3.25126E+03
 8.25000E-02    3.24870E+03
 8.65170E-02    3.24312E+03
 9.80370E-02    3.21355E+03
 1.11090E-01    3.16154E+03
 1.16790E-01    3.13057E+03
 1.22770E-01    3.11074E+03
 1.29070E-01    3.09280E+03
 1.35690E-01    3.07520E+03
 1.42640E-01    3.07003E+03
 1.49960E-01    3.06822E+03
 1.57640E-01    3.06635E+03
 1.65730E-01    3.06689E+03
 1.74220E-01    3.08184E+03
 1.83160E-01    3.10006E+03
 1.92550E-01    3.11771E+03
 2.02420E-01    3.10019E+03
 2.12800E-01    3.06629E+03
 2.23710E-01    3.03180E+03
 2.35180E-01    2.99735E+03
 2.47240E-01    2.97531E+03
 2.73240E-01    2.98153E+03
 2.87250E-01    2.98521E+03
 2.94520E-01    2.98701E+03
 2.97200E-01    2.98774E+03
 2.98500E-01    2.98680E+03
 3.01970E-01    2.93839E+03
 3.33730E-01    2.84771E+03
 3.68830E-01    2.78300E+03
 3.87740E-01    2.74081E+03
 4.07620E-01    2.71697E+03
 4.50490E-01    2.69356E+03
 4.97870E-01    2.66205E+03
 5.23400E-01    2.61698E+03
 5.50230E-01    2.57044E+03
 5.78440E-01    2.52591E+03
 6.08100E-01    2.49720E+03
 6.39280E-01    2.47386E+03
 6.72060E-01    2.44972E+03
 7.06510E-01    2.41584E+03
 7.42740E-01    2.37626E+03
 7.80820E-01    2.33732E+03
 8.20850E-01    2.30807E+03
 8.62940E-01    2.27994E+03
 9.07180E-01    2.25533E+03
 9.61640E-01    2.23530E+03
 1.00260E+00    2.20569E+03
 1.10800E+00    2.17654E+03
 1.16480E+00    2.15958E+03
 1.22460E+00    2.14298E+03
 1.28730E+00    2.12937E+03
 1.35340E+00    2.11586E+03
 1.42270E+00    2.10253E+03
 1.49570E+00    2.09060E+03
 1.57240E+00    2.07864E+03
 1.65300E+00    2.06655E+03
 1.73770E+00    2.05428E+03
 1.82680E+00    2.04177E+03
 1.92050E+00    2.02759E+03
 2.01900E+00    2.01016E+03
 2.12250E+00    1.99113E+03
 2.23130E+00    1.97486E+03
 2.30690E+00    1.96487E+03
 2.34570E+00    1.95980E+03
 2.36530E+00    1.95639E+03
 2.38520E+00    1.94746E+03
 2.46600E+00    1.92876E+03
 2.59240E+00    1.90551E+03
 2.72530E+00    1.88130E+03
 2.86500E+00    1.85608E+03
 3.01190E+00    1.83248E+03
 3.16640E+00    1.80988E+03
 3.32870E+00    1.77455E+03
 3.67880E+00    1.72760E+03
 4.06570E+00    1.68109E+03
 4.49330E+00    1.64910E+03
 4.72370E+00    1.63219E+03
 4.96590E+00    1.61445E+03
 5.22050E+00    1.59583E+03
 5.48810E+00    1.59035E+03
 5.76950E+00    1.60365E+03
 6.06530E+00    1.67909E+03
 6.37630E+00    1.77546E+03
 6.59240E+00    1.87647E+03
 6.70320E+00    2.02693E+03
 7.04690E+00    2.19841E+03
 7.40820E+00    2.34238E+03
 7.78800E+00    2.46065E+03
 8.18730E+00    2.54270E+03
 8.60710E+00    2.60576E+03
 9.04840E+00    2.64651E+03
 9.51230E+00    2.67475E+03
 1.00000E+01    2.69258E+03
 1.05130E+01    2.70186E+03
 1.10520E+01    2.70941E+03
 1.16180E+01    2.71326E+03
 1.22140E+01    2.71628E+03
 1.28400E+01    2.71834E+03
 1.34990E+01    2.71980E+03
 1.38400E+01    2.72002E+03
 1.41910E+01    2.71937E+03
 1.45500E+01    2.72015E+03
 1.49180E+01    2.72136E+03
 1.56830E+01    2.72351E+03
 1.64870E+01    2.72495E+03
