# n + Xe124 : (n,xa)    
# jeff3.3    A.J. Koning and D. Rochman        EVAL-DEC15
# 
# # energies =   131
#   E(MeV)        xs(mb) 
 3.56912E-01    6.03049E-04
 4.00000E-01    6.18861E-04
 5.00000E-01    6.96850E-04
 6.00000E-01    9.08439E-04
 7.00000E-01    1.18041E-03
 8.00000E-01    1.56369E-03
 8.53391E-01    1.72297E-03
 8.86075E-01    1.82048E-03
 9.00000E-01    1.86202E-03
 1.00000E+00    2.24187E-03
 1.20000E+00    3.69875E-03
 1.25779E+00    4.24771E-03
 1.27924E+00    4.45147E-03
 1.40000E+00    5.59860E-03
 1.44967E+00    6.38709E-03
 1.56107E+00    8.15552E-03
 1.60000E+00    8.77352E-03
 1.64183E+00    9.70204E-03
 1.70367E+00    1.10747E-02
 1.80000E+00    1.32130E-02
 1.85187E+00    1.48560E-02
 1.88865E+00    1.60211E-02
 1.91346E+00    1.68070E-02
 1.99462E+00    1.93778E-02
 2.00000E+00    1.95482E-02
 2.01051E+00    1.99960E-02
 2.03113E+00    2.08745E-02
 2.16119E+00    2.64155E-02
 2.18252E+00    2.73243E-02
 2.19976E+00    2.80588E-02
 2.20000E+00    2.80690E-02
 2.22330E+00    2.92996E-02
 2.24087E+00    3.02275E-02
 2.24445E+00    3.04166E-02
 2.29785E+00    3.32369E-02
 2.30007E+00    3.33541E-02
 2.30935E+00    3.38443E-02
 2.35002E+00    3.59922E-02
 2.37983E+00    3.75666E-02
 2.38647E+00    3.79173E-02
 2.39293E+00    3.82585E-02
 2.40000E+00    3.86319E-02
 2.40028E+00    3.86485E-02
 2.40148E+00    3.87196E-02
 2.60000E+00    5.04784E-02
 2.80000E+00    6.41446E-02
 3.00000E+00    7.87636E-02
 3.20000E+00    9.54053E-02
 3.40000E+00    1.13304E-01
 3.60000E+00    1.32447E-01
 3.80000E+00    1.53366E-01
 4.00000E+00    1.74635E-01
 4.20000E+00    1.97959E-01
 4.40000E+00    2.22439E-01
 4.60000E+00    2.47909E-01
 4.80000E+00    2.75747E-01
 5.00000E+00    3.04130E-01
 5.20000E+00    3.34477E-01
 5.40000E+00    3.68896E-01
 5.60000E+00    4.03874E-01
 5.80000E+00    4.40809E-01
 6.00000E+00    4.82824E-01
 6.20000E+00    5.26069E-01
 6.40000E+00    5.76850E-01
 6.60000E+00    6.27639E-01
 6.80000E+00    6.82378E-01
 7.00000E+00    7.46491E-01
 7.20000E+00    8.10644E-01
 7.40000E+00    8.94560E-01
 7.60000E+00    9.72699E-01
 7.80000E+00    1.05632E+00
 8.00000E+00    1.16024E+00
 8.50000E+00    1.44698E+00
 9.00000E+00    1.80580E+00
 9.50000E+00    2.24774E+00
 1.00000E+01    2.78668E+00
 1.05000E+01    3.44717E+00
 1.10000E+01    4.21866E+00
 1.15000E+01    5.04436E+00
 1.20000E+01    5.93914E+00
 1.25000E+01    6.90314E+00
 1.30000E+01    7.97981E+00
 1.35000E+01    9.14557E+00
 1.40000E+01    1.03968E+01
 1.45000E+01    1.18676E+01
 1.50000E+01    1.34295E+01
 1.60000E+01    1.71985E+01
 1.70000E+01    2.21237E+01
 1.80000E+01    2.72691E+01
 1.90000E+01    3.16159E+01
 2.00000E+01    3.48126E+01
 2.10000E+01    3.51114E+01
 2.20000E+01    3.70396E+01
 2.30000E+01    3.90716E+01
 2.40000E+01    4.11042E+01
 2.50000E+01    4.31346E+01
 2.60000E+01    4.51098E+01
 2.70000E+01    4.69768E+01
 2.80000E+01    4.87745E+01
 2.90000E+01    5.04765E+01
 3.00000E+01    5.20944E+01
 3.00000E+01    5.19278E+01
 3.20000E+01    5.50166E+01
 3.40000E+01    5.76862E+01
 3.60000E+01    6.02645E+01
 3.80000E+01    6.23900E+01
 4.00000E+01    6.40646E+01
 4.20000E+01    6.56896E+01
 4.40000E+01    6.70812E+01
 4.60000E+01    6.83819E+01
 4.80000E+01    6.95355E+01
 5.00000E+01    7.04512E+01
 5.20000E+01    7.13297E+01
 5.40000E+01    7.20654E+01
 5.60000E+01    7.27297E+01
 5.80000E+01    7.34139E+01
 6.00000E+01    7.41197E+01
 6.50000E+01    7.54574E+01
 7.00000E+01    7.62336E+01
 7.50000E+01    7.72799E+01
 8.00000E+01    7.81712E+01
 9.00000E+01    7.96342E+01
 1.00000E+02    8.45510E+01
 1.10000E+02    9.24729E+01
 1.20000E+02    1.02799E+02
 1.30000E+02    1.13757E+02
 1.40000E+02    1.25192E+02
 1.50000E+02    1.35283E+02
 1.60000E+02    1.46734E+02
 1.80000E+02    1.77298E+02
 2.00000E+02    2.73346E+02
