# n + Xe124 : (n,n'14)  
# jeff3.3    A.J. Koning and D. Rochman        EVAL-DEC15
# uncertainties: n
# # energies =    76
#   E(MeV)       xs(mb) 
 2.01051E+00    0.00000E+00
 2.03113E+00    4.19113E+00
 2.16119E+00    3.06264E+01
 2.18252E+00    3.49618E+01
 2.19976E+00    3.84659E+01
 2.20000E+00    3.85147E+01
 2.22330E+00    3.95885E+01
 2.24087E+00    4.03982E+01
 2.24445E+00    4.05632E+01
 2.29785E+00    4.30241E+01
 2.30007E+00    4.31264E+01
 2.30935E+00    4.35540E+01
 2.35002E+00    4.54283E+01
 2.37983E+00    4.68021E+01
 2.38647E+00    4.71081E+01
 2.39293E+00    4.74058E+01
 2.40000E+00    4.77316E+01
 2.40028E+00    4.77293E+01
 2.40148E+00    4.77192E+01
 2.60000E+00    4.60585E+01
 2.80000E+00    4.09532E+01
 3.00000E+00    3.45177E+01
 3.20000E+00    2.79414E+01
 3.40000E+00    2.19293E+01
 3.60000E+00    1.68229E+01
 3.80000E+00    1.27051E+01
 4.00000E+00    9.50445E+00
 4.20000E+00    7.07769E+00
 4.40000E+00    5.26626E+00
 4.60000E+00    3.92591E+00
 4.80000E+00    2.93608E+00
 5.00000E+00    2.20437E+00
 5.20000E+00    1.66109E+00
 5.40000E+00    1.25544E+00
 5.60000E+00    9.50937E-01
 5.80000E+00    7.21301E-01
 6.00000E+00    5.47641E-01
 6.20000E+00    4.15973E-01
 6.40000E+00    3.15600E-01
 6.60000E+00    2.39643E-01
 6.80000E+00    1.82208E-01
 7.00000E+00    1.38756E-01
 7.20000E+00    1.05655E-01
 7.40000E+00    8.07679E-02
 7.60000E+00    6.17637E-02
 7.80000E+00    4.73638E-02
 8.00000E+00    3.64239E-02
 8.50000E+00    1.91146E-02
 9.00000E+00    1.02299E-02
 9.50000E+00    5.58585E-03
 1.00000E+01    3.10914E-03
 1.05000E+01    1.76099E-03
 1.10000E+01    1.01189E-03
 1.15000E+01    5.87243E-04
 1.20000E+01    3.43393E-04
 1.25000E+01    2.02248E-04
 1.30000E+01    1.19929E-04
 1.35000E+01    7.16595E-05
 1.40000E+01    4.31524E-05
 1.45000E+01    2.61856E-05
 1.50000E+01    1.60178E-05
 1.60000E+01    6.13259E-06
 1.70000E+01    2.41550E-06
 1.80000E+01    9.77060E-07
 1.90000E+01    4.05140E-07
 2.00000E+01    1.70920E-07
 2.10000E+01    7.43950E-08
 2.20000E+01    3.29700E-08
 2.30000E+01    1.48600E-08
 2.40000E+01    6.80270E-09
 2.50000E+01    3.15850E-09
 2.60000E+01    1.48760E-09
 2.70000E+01    7.10140E-10
 2.80000E+01    3.43880E-10
 2.90000E+01    1.68810E-10
 3.00000E+01    8.39800E-11
