# n + Ge 72 : (n,el)    
# jendl4.0   Iwamoto,Herman,Mughabghab+        EVAL-AUG04
# uncertainties: n
# # energies =   171
#   E(MeV)       xs(mb) 
 1.00000E-11    1.72417E+04
 1.00000E-07    8.87240E+03
 4.13990E-07    8.86591E+03
 5.31580E-07    8.86428E+03
 6.82560E-07    8.86219E+03
 8.76420E-07    8.85991E+03
 1.12540E-06    8.85807E+03
 1.44500E-06    8.85577E+03
 1.85540E-06    8.85284E+03
 2.37240E-06    8.84905E+03
 3.05900E-06    8.84414E+03
 3.92790E-06    8.83788E+03
 5.04350E-06    8.82984E+03
 6.47600E-06    8.81952E+03
 8.31530E-06    8.80627E+03
 1.06770E-05    8.78925E+03
 1.37100E-05    8.76741E+03
 1.76030E-05    8.73936E+03
 2.26030E-05    8.70281E+03
 2.92030E-05    8.65646E+03
 3.72670E-05    8.59769E+03
 4.78510E-05    8.52144E+03
 6.14420E-05    8.42964E+03
 7.88930E-05    8.32297E+03
 1.01300E-04    8.18620E+03
 1.30070E-04    8.02094E+03
 1.67020E-04    7.82954E+03
 2.14450E-04    7.60195E+03
 2.75360E-04    7.34752E+03
 3.53580E-04    7.06171E+03
 4.54000E-04    6.74980E+03
 5.82950E-04    6.41756E+03
 7.48520E-04    6.07064E+03
 9.61120E-04    5.71109E+03
 1.23410E-03    5.33485E+03
 1.58460E-03    4.91097E+03
 2.03470E-03    4.62012E+03
 2.24870E-03    4.17124E+03
 2.48520E-03    2.91768E+03
 2.61260E-03    1.78130E+04
 2.74650E-03    6.10539E+03
 3.03540E-03    3.93114E+03
 3.35460E-03    6.75410E+03
 3.70740E-03    2.66629E+03
 4.30740E-03    3.57051E+04
 5.53080E-03    6.30720E+03
 7.10170E-03    1.06530E+04
 9.11880E-03    1.02731E+04
 1.17090E-02    1.19056E+04
 1.50340E-02    1.17784E+04
 1.93050E-02    1.10401E+04
 2.18750E-02    1.06776E+04
 2.35790E-02    1.05016E+04
 2.41760E-02    1.04161E+04
 2.47880E-02    1.02882E+04
 2.60580E-02    1.01448E+04
 2.70000E-02    9.99872E+03
 2.85000E-02    9.73736E+03
 3.18280E-02    9.45441E+03
 3.43070E-02    9.09217E+03
 4.08680E-02    8.68252E+03
 4.63090E-02    8.36401E+03
 5.24750E-02    8.11942E+03
 5.65620E-02    7.83111E+03
 6.73790E-02    7.56674E+03
 7.20000E-02    7.39631E+03
 7.95000E-02    7.25415E+03
 8.25000E-02    7.17381E+03
 8.65170E-02    7.00711E+03
 9.80370E-02    6.77883E+03
 1.11090E-01    6.62619E+03
 1.16790E-01    6.54335E+03
 1.22770E-01    6.45905E+03
 1.29070E-01    6.37883E+03
 1.35690E-01    6.29809E+03
 1.42640E-01    6.22036E+03
 1.49960E-01    6.14474E+03
 1.57640E-01    6.07177E+03
 1.65730E-01    6.00093E+03
 1.74220E-01    5.93094E+03
 1.83160E-01    5.86253E+03
 1.92550E-01    5.79597E+03
 2.02420E-01    5.73235E+03
 2.12800E-01    5.67074E+03
 2.23710E-01    5.61146E+03
 2.35180E-01    5.55365E+03
 2.47240E-01    5.46834E+03
 2.73240E-01    5.38688E+03
 2.87250E-01    5.34837E+03
 2.94520E-01    5.33043E+03
 2.97200E-01    5.32326E+03
 2.98500E-01    5.31501E+03
 3.01970E-01    5.26271E+03
 3.33730E-01    5.17275E+03
 3.68830E-01    5.10976E+03
 3.87740E-01    5.07061E+03
 4.07620E-01    5.01651E+03
 4.50490E-01    4.95092E+03
 4.97870E-01    4.90680E+03
 5.23400E-01    4.88013E+03
 5.50230E-01    4.85532E+03
 5.78440E-01    4.83236E+03
 6.08100E-01    4.81122E+03
 6.39280E-01    4.79241E+03
 6.72060E-01    4.77049E+03
 7.06510E-01    4.65939E+03
 7.42740E-01    4.51057E+03
 7.80820E-01    4.36260E+03
 8.20850E-01    4.24042E+03
 8.62940E-01    3.97949E+03
 9.07180E-01    3.75325E+03
 9.61640E-01    3.58428E+03
 1.00260E+00    3.38612E+03
 1.10800E+00    3.18429E+03
 1.16480E+00    3.04430E+03
 1.22460E+00    2.93324E+03
 1.28730E+00    2.82524E+03
 1.35340E+00    2.71511E+03
 1.42270E+00    2.64652E+03
 1.49570E+00    2.52560E+03
 1.57240E+00    2.38047E+03
 1.65300E+00    2.29641E+03
 1.73770E+00    2.20715E+03
 1.82680E+00    2.13213E+03
 1.92050E+00    2.06672E+03
 2.01900E+00    2.03244E+03
 2.12250E+00    1.95068E+03
 2.23130E+00    1.90084E+03
 2.30690E+00    1.88080E+03
 2.34570E+00    1.87059E+03
 2.36530E+00    1.86369E+03
 2.38520E+00    1.86445E+03
 2.46600E+00    1.85172E+03
 2.59240E+00    1.78248E+03
 2.72530E+00    1.74809E+03
 2.86500E+00    1.74723E+03
 3.01190E+00    1.74470E+03
 3.16640E+00    1.74972E+03
 3.32870E+00    1.77296E+03
 3.67880E+00    1.82362E+03
 4.06570E+00    1.90932E+03
 4.49330E+00    1.98141E+03
 4.72370E+00    2.03303E+03
 4.96590E+00    2.08147E+03
 5.22050E+00    2.12253E+03
 5.48810E+00    2.16555E+03
 5.76950E+00    2.21022E+03
 6.06530E+00    2.24111E+03
 6.37630E+00    2.26181E+03
 6.59240E+00    2.27464E+03
 6.70320E+00    2.29213E+03
 7.04690E+00    2.30476E+03
 7.40820E+00    2.30889E+03
 7.78800E+00    2.31084E+03
 8.18730E+00    2.29591E+03
 8.60710E+00    2.27689E+03
 9.04840E+00    2.25032E+03
 9.51230E+00    2.21476E+03
 1.00000E+01    2.17190E+03
 1.05130E+01    2.12124E+03
 1.10520E+01    2.06382E+03
 1.16180E+01    2.00022E+03
 1.22140E+01    1.93087E+03
 1.28400E+01    1.85607E+03
 1.34990E+01    1.79549E+03
 1.38400E+01    1.75406E+03
 1.41910E+01    1.71361E+03
 1.45500E+01    1.67248E+03
 1.49180E+01    1.60886E+03
 1.56830E+01    1.52211E+03
 1.64870E+01    1.43780E+03
