# n + Ge 72 : (n,xa)    
# jendl4.0   Iwamoto,Herman,Mughabghab+        EVAL-AUG04
# 
# # energies =    67
#   E(MeV)        xs(mb) 
 7.01096E-01    1.10963E-09
 8.00000E-01    2.07780E-09
 8.45696E-01    2.98729E-09
 9.00000E-01    4.06810E-09
 1.00000E+00    8.21350E-09
 1.20000E+00    3.59890E-08
 1.40000E+00    1.68340E-07
 1.48453E+00    5.25885E-07
 1.60000E+00    1.01430E-06
 1.75254E+00    3.84446E-06
 1.80000E+00    4.72501E-06
 2.00000E+00    1.83297E-05
 2.05746E+00    3.08301E-05
 2.07774E+00    3.52420E-05
 2.09386E+00    3.87489E-05
 2.20000E+00    6.18396E-05
 2.40000E+00    1.85300E-04
 2.42970E+00    2.31051E-04
 2.43599E+00    2.40740E-04
 2.49845E+00    3.36956E-04
 2.54013E+00    4.01162E-04
 2.55007E+00    4.16474E-04
 2.60000E+00    4.93388E-04
 2.60807E+00    5.17186E-04
 2.61973E+00    5.51571E-04
 2.79293E+00    1.06233E-03
 2.80000E+00    1.08318E-03
 2.81098E+00    1.15503E-03
 2.91593E+00    1.84174E-03
 2.93763E+00    1.98373E-03
 2.98123E+00    2.26901E-03
 2.98478E+00    2.29224E-03
 2.99178E+00    2.33804E-03
 3.00000E+00    2.39183E-03
 3.07655E+00    3.22226E-03
 3.07817E+00    3.23984E-03
 3.12350E+00    3.73159E-03
 3.13759E+00    3.88444E-03
 3.17288E+00    4.26727E-03
 3.17491E+00    4.28930E-03
 3.18302E+00    4.37727E-03
 3.20000E+00    4.56148E-03
 3.22663E+00    5.18149E-03
 3.26820E+00    6.14934E-03
 3.27327E+00    6.26738E-03
 3.29558E+00    6.78681E-03
 3.37163E+00    8.55744E-03
 3.50000E+00    1.15462E-02
 3.70000E+00    1.90328E-02
 4.00000E+00    3.85223E-02
 4.50000E+00    9.01130E-02
 5.00000E+00    2.13526E-01
 6.00000E+00    7.83275E-01
 7.00000E+00    2.00069E+00
 8.00000E+00    3.74826E+00
 9.00000E+00    5.61887E+00
 1.00000E+01    7.47951E+00
 1.10000E+01    1.21176E+01
 1.20000E+01    1.55981E+01
 1.30000E+01    1.51549E+01
 1.40000E+01    1.53645E+01
 1.50000E+01    1.64214E+01
 1.60000E+01    1.86280E+01
 1.70000E+01    2.16121E+01
 1.80000E+01    2.62917E+01
 1.90000E+01    3.13284E+01
 2.00000E+01    3.65451E+01
