# n + Ge 72 : (n,tot)   
# jendl4.0   Iwamoto,Herman,Mughabghab+        EVAL-AUG04
# uncertainties: n
# # energies =   171
#   E(MeV)       xs(mb) 
 1.00000E-11    2.68201E+04
 1.00000E-07    9.19124E+03
 4.13990E-07    9.07129E+03
 5.31580E-07    9.04546E+03
 6.82560E-07    9.02233E+03
 8.76420E-07    9.00166E+03
 1.12540E-06    8.98453E+03
 1.44500E-06    8.96596E+03
 1.85540E-06    8.95389E+03
 2.37240E-06    8.94106E+03
 3.05900E-06    8.92444E+03
 3.92790E-06    8.90364E+03
 5.04350E-06    8.88811E+03
 6.47600E-06    8.87355E+03
 8.31530E-06    8.85486E+03
 1.06770E-05    8.83085E+03
 1.37100E-05    8.80004E+03
 1.76030E-05    8.76315E+03
 2.26030E-05    8.72531E+03
 2.92030E-05    8.67824E+03
 3.72670E-05    8.61854E+03
 4.78510E-05    8.54109E+03
 6.14420E-05    8.44375E+03
 7.88930E-05    8.33451E+03
 1.01300E-04    8.19750E+03
 1.30070E-04    8.02909E+03
 1.67020E-04    7.83726E+03
 2.14450E-04    7.69834E+03
 2.75360E-04    7.35286E+03
 3.53580E-04    7.06494E+03
 4.54000E-04    6.75215E+03
 5.82950E-04    6.49590E+03
 7.48520E-04    6.07173E+03
 9.61120E-04    5.71223E+03
 1.23410E-03    5.33652E+03
 1.58460E-03    4.91387E+03
 2.03470E-03    4.94864E+03
 2.24870E-03    4.17292E+03
 2.48520E-03    2.95477E+03
 2.61260E-03    1.92724E+04
 2.74650E-03    6.90619E+03
 3.03540E-03    3.93307E+03
 3.35460E-03    7.09720E+03
 3.70740E-03    2.66958E+03
 4.30740E-03    3.59231E+04
 5.53080E-03    6.30831E+03
 7.10170E-03    1.06820E+04
 9.11880E-03    1.03206E+04
 1.17090E-02    1.19768E+04
 1.50340E-02    1.18474E+04
 1.93050E-02    1.11027E+04
 2.18750E-02    1.07372E+04
 2.35790E-02    1.05597E+04
 2.41760E-02    1.04735E+04
 2.47880E-02    1.03446E+04
 2.60580E-02    1.02002E+04
 2.70000E-02    1.00530E+04
 2.85000E-02    9.78972E+03
 3.18280E-02    9.50479E+03
 3.43070E-02    9.14023E+03
 4.08680E-02    8.72813E+03
 4.63090E-02    8.40786E+03
 5.24750E-02    8.16198E+03
 5.65620E-02    7.87217E+03
 6.73790E-02    7.60642E+03
 7.20000E-02    7.43509E+03
 7.95000E-02    7.29215E+03
 8.25000E-02    7.21135E+03
 8.65170E-02    7.04368E+03
 9.80370E-02    6.81399E+03
 1.11090E-01    6.66037E+03
 1.16790E-01    6.57698E+03
 1.22770E-01    6.49211E+03
 1.29070E-01    6.41134E+03
 1.35690E-01    6.33004E+03
 1.42640E-01    6.25176E+03
 1.49960E-01    6.17563E+03
 1.57640E-01    6.10221E+03
 1.65730E-01    6.03093E+03
 1.74220E-01    5.96051E+03
 1.83160E-01    5.89170E+03
 1.92550E-01    5.82476E+03
 2.02420E-01    5.76071E+03
 2.12800E-01    5.69865E+03
 2.23710E-01    5.63897E+03
 2.35180E-01    5.58077E+03
 2.47240E-01    5.49491E+03
 2.73240E-01    5.41296E+03
 2.87250E-01    5.37425E+03
 2.94520E-01    5.35620E+03
 2.97200E-01    5.34900E+03
 2.98500E-01    5.34071E+03
 3.01970E-01    5.28824E+03
 3.33730E-01    5.19809E+03
 3.68830E-01    5.13507E+03
 3.87740E-01    5.09595E+03
 4.07620E-01    5.04176E+03
 4.50490E-01    4.97616E+03
 4.97870E-01    4.93222E+03
 5.23400E-01    4.90583E+03
 5.50230E-01    4.88137E+03
 5.78440E-01    4.85883E+03
 6.08100E-01    4.83796E+03
 6.39280E-01    4.81943E+03
 6.72060E-01    4.79855E+03
 7.06510E-01    4.72660E+03
 7.42740E-01    4.64096E+03
 7.80820E-01    4.55130E+03
 8.20850E-01    4.46630E+03
 8.62940E-01    4.38101E+03
 9.07180E-01    4.28802E+03
 9.61640E-01    4.20593E+03
 1.00260E+00    4.09441E+03
 1.10800E+00    3.97900E+03
 1.16480E+00    3.89764E+03
 1.22460E+00    3.82796E+03
 1.28730E+00    3.76097E+03
 1.35340E+00    3.69090E+03
 1.42270E+00    3.63158E+03
 1.49570E+00    3.57669E+03
 1.57240E+00    3.52177E+03
 1.65300E+00    3.48011E+03
 1.73770E+00    3.43913E+03
 1.82680E+00    3.40873E+03
 1.92050E+00    3.38409E+03
 2.01900E+00    3.36755E+03
 2.12250E+00    3.35876E+03
 2.23130E+00    3.36070E+03
 2.30690E+00    3.36464E+03
 2.34570E+00    3.36665E+03
 2.36530E+00    3.36801E+03
 2.38520E+00    3.37205E+03
 2.46600E+00    3.38850E+03
 2.59240E+00    3.41264E+03
 2.72530E+00    3.44580E+03
 2.86500E+00    3.48209E+03
 3.01190E+00    3.52212E+03
 3.16640E+00    3.56473E+03
 3.32870E+00    3.63306E+03
 3.67880E+00    3.72612E+03
 4.06570E+00    3.80607E+03
 4.49330E+00    3.85957E+03
 4.72370E+00    3.88715E+03
 4.96590E+00    3.91307E+03
 5.22050E+00    3.92945E+03
 5.48810E+00    3.94539E+03
 5.76950E+00    3.96209E+03
 6.06530E+00    3.96979E+03
 6.37630E+00    3.97027E+03
 6.59240E+00    3.97056E+03
 6.70320E+00    3.97084E+03
 7.04690E+00    3.96190E+03
 7.40820E+00    3.94666E+03
 7.78800E+00    3.93045E+03
 8.18730E+00    3.90569E+03
 8.60710E+00    3.87563E+03
 9.04840E+00    3.84301E+03
 9.51230E+00    3.80357E+03
 1.00000E+01    3.75779E+03
 1.05130E+01    3.70597E+03
 1.10520E+01    3.64713E+03
 1.16180E+01    3.58156E+03
 1.22140E+01    3.50595E+03
 1.28400E+01    3.42160E+03
 1.34990E+01    3.35042E+03
 1.38400E+01    3.30115E+03
 1.41910E+01    3.25060E+03
 1.45500E+01    3.19885E+03
 1.49180E+01    3.11852E+03
 1.56830E+01    3.00899E+03
 1.64870E+01    2.90406E+03
