# n + Na 23 : (n,tot)   
# jendl4.0   K.SHIBATA (JAERI)                 EVAL-AUG00
# uncertainties: y
# # energies =    69
#   E(MeV)       xs(mb)       xslow(mb)      xsupp(mb)
 1.00000E-10    9.62114E+03    9.35925E+03    9.88302E+03
 5.00000E-09    4.27576E+03    4.15937E+03    4.39214E+03
 1.00000E-08    3.92665E+03    3.81976E+03    4.03353E+03
 1.50000E-08    3.76371E+03    3.66126E+03    3.86616E+03
 2.00000E-08    3.66446E+03    3.56471E+03    3.76420E+03
 2.50000E-08    3.59601E+03    3.49813E+03    3.69389E+03
 3.00000E-08    3.54525E+03    3.44875E+03    3.64176E+03
 3.50000E-08    3.49942E+03    3.40417E+03    3.59468E+03
 4.20000E-08    3.45541E+03    3.36135E+03    3.54947E+03
 5.00000E-08    3.41928E+03    3.32620E+03    3.51235E+03
 5.80000E-08    3.38937E+03    3.29711E+03    3.48163E+03
 6.70000E-08    3.35924E+03    3.26780E+03    3.45068E+03
 8.00000E-08    3.32539E+03    3.23487E+03    3.41591E+03
 1.00000E-07    3.28410E+03    3.19471E+03    3.37349E+03
 1.40000E-07    3.24673E+03    3.15835E+03    3.33510E+03
 1.80000E-07    3.22188E+03    3.13418E+03    3.30958E+03
 2.20000E-07    3.20561E+03    3.11836E+03    3.29287E+03
 2.50000E-07    3.19457E+03    3.10762E+03    3.28153E+03
 2.80000E-07    3.18677E+03    3.10003E+03    3.27351E+03
 3.00000E-07    3.18112E+03    3.09453E+03    3.26771E+03
 3.20000E-07    3.17510E+03    3.08867E+03    3.26152E+03
 3.50000E-07    3.16665E+03    3.08045E+03    3.25285E+03
 4.00000E-07    3.15416E+03    3.06831E+03    3.24002E+03
 5.00000E-07    3.14015E+03    3.05467E+03    3.22562E+03
 6.25000E-07    3.12767E+03    3.04254E+03    3.21281E+03
 7.80000E-07    3.11977E+03    3.03485E+03    3.20469E+03
 8.50000E-07    3.11625E+03    3.03142E+03    3.20107E+03
 9.10000E-07    3.11356E+03    3.02881E+03    3.19831E+03
 9.50000E-07    3.11195E+03    3.02724E+03    3.19666E+03
 9.72000E-07    3.11104E+03    3.02635E+03    3.19572E+03
 9.96000E-07    3.11011E+03    3.02545E+03    3.19476E+03
 1.02000E-06    3.10916E+03    3.02453E+03    3.19379E+03
 1.04500E-06    3.10817E+03    3.02357E+03    3.19278E+03
 1.07100E-06    3.10717E+03    3.02259E+03    3.19174E+03
 1.09700E-06    3.10616E+03    3.02161E+03    3.19071E+03
 1.12300E-06    3.10514E+03    3.02061E+03    3.18966E+03
 1.15000E-06    3.10216E+03    3.01772E+03    3.18660E+03
 1.30000E-06    3.09815E+03    3.01382E+03    3.18248E+03
 1.50000E-06    3.08988E+03    3.00577E+03    3.17399E+03
 2.10000E-06    3.08201E+03    2.99812E+03    3.16590E+03
 2.60000E-06    3.07751E+03    2.99374E+03    3.16128E+03
 3.30000E-06    3.07219E+03    2.98856E+03    3.15581E+03
 4.00000E-06    3.06207E+03    2.97872E+03    3.14542E+03
 9.87700E-06    3.05268E+03    2.96958E+03    3.13577E+03
 1.59680E-05    3.04969E+03    2.96668E+03    3.13271E+03
 2.77000E-05    3.05142E+03    2.96836E+03    3.13448E+03
 4.80520E-05    3.05760E+03    2.97438E+03    3.14083E+03
 7.55014E-05    3.07099E+03    2.98740E+03    3.15458E+03
 1.48728E-04    3.13088E+03    3.04566E+03    3.21610E+03
 3.67262E-04    3.42156E+03    3.24566E+03    3.59747E+03
 9.06898E-04    4.56610E+03    4.31909E+03    4.81310E+03
 1.42510E-03    1.20352E+04    1.07574E+04    1.33130E+04
 2.23945E-03    1.52516E+05    1.40062E+05    1.64971E+05
 3.51910E-03    1.90583E+04    1.68422E+04    2.12744E+04
 5.53000E-03    7.00195E+03    6.50936E+03    7.49454E+03
 9.11800E-03    5.00301E+03    4.86552E+03    5.14049E+03
 1.50300E-02    4.29145E+03    4.12949E+03    4.45341E+03
 2.47800E-02    3.98885E+03    3.54824E+03    4.42945E+03
 4.08500E-02    5.88872E+03    5.71712E+03    6.06033E+03
 6.73400E-02    3.62415E+03    3.54031E+03    3.70798E+03
 1.11000E-01    3.38771E+03    3.24034E+03    3.53509E+03
 1.83000E-01    4.31596E+03    3.88169E+03    4.75023E+03
 3.02000E-01    3.54642E+03    3.42315E+03    3.66969E+03
 5.00000E-01    5.03206E+03    4.90823E+03    5.15590E+03
 8.21000E-01    3.77873E+03    3.68255E+03    3.87491E+03
 1.35300E+00    2.77996E+03    2.72514E+03    2.83478E+03
 2.23100E+00    2.55364E+03    2.49961E+03    2.60767E+03
 3.67900E+00    2.04255E+03    1.99454E+03    2.09055E+03
 6.06500E+00    1.71195E+03    1.67493E+03    1.74898E+03
