# n + Ru104 : (n,el)    
# jendl4.0   JNDC FP NUCLEAR DATA W.G.         EVAL-MAR90
# uncertainties: n
# # energies =   171
#   E(MeV)       xs(mb) 
 1.00000E-11    1.11708E+04
 1.00000E-07    6.43411E+03
 4.13990E-07    6.43079E+03
 5.31580E-07    6.43003E+03
 6.82560E-07    6.42906E+03
 8.76420E-07    6.42782E+03
 1.12540E-06    6.42629E+03
 1.44500E-06    6.42489E+03
 1.85540E-06    6.42323E+03
 2.37240E-06    6.42109E+03
 3.05900E-06    6.41831E+03
 3.92790E-06    6.41478E+03
 5.04350E-06    6.41023E+03
 6.47600E-06    6.40440E+03
 8.31530E-06    6.39691E+03
 1.06770E-05    6.38729E+03
 1.37100E-05    6.37495E+03
 1.76030E-05    6.35909E+03
 2.26030E-05    6.33844E+03
 2.92030E-05    6.31224E+03
 3.72670E-05    6.27903E+03
 4.78510E-05    6.23593E+03
 6.14420E-05    6.19023E+03
 7.88930E-05    6.10449E+03
 1.01300E-04    6.00919E+03
 1.30070E-04    5.88021E+03
 1.67020E-04    5.58652E+03
 2.14450E-04    8.11689E+03
 2.75360E-04    5.56646E+03
 3.53580E-04    5.53680E+03
 4.54000E-04    4.56426E+03
 5.82950E-04    2.79319E+04
 7.48520E-04    5.15795E+03
 9.61120E-04    1.60226E+04
 1.23410E-03    1.14882E+04
 1.58460E-03    7.48581E+03
 2.03470E-03    9.53878E+03
 2.24870E-03    7.87974E+03
 2.48520E-03    4.85537E+03
 2.61260E-03    4.41803E+03
 2.74650E-03    4.54699E+03
 3.03540E-03    1.00327E+04
 3.35460E-03    4.09106E+03
 3.70740E-03    5.60498E+03
 4.30740E-03    4.18974E+04
 5.53080E-03    2.65195E+04
 7.10170E-03    9.56795E+03
 9.11880E-03    7.87198E+03
 1.17090E-02    6.52395E+03
 1.50340E-02    6.55925E+03
 1.93050E-02    6.60991E+03
 2.18750E-02    6.65257E+03
 2.35790E-02    6.67583E+03
 2.41760E-02    6.68796E+03
 2.47880E-02    6.70596E+03
 2.60580E-02    6.72621E+03
 2.70000E-02    6.74840E+03
 2.85000E-02    6.79134E+03
 3.18280E-02    6.84109E+03
 3.43070E-02    6.91904E+03
 4.08680E-02    7.02076E+03
 4.63090E-02    7.11219E+03
 5.24750E-02    7.18712E+03
 5.65620E-02    7.28658E+03
 6.73790E-02    7.38522E+03
 7.20000E-02    7.45310E+03
 7.95000E-02    7.50949E+03
 8.25000E-02    7.54027E+03
 8.65170E-02    7.60741E+03
 9.80370E-02    7.67844E+03
 1.11090E-01    7.68733E+03
 1.16790E-01    7.69204E+03
 1.22770E-01    7.69650E+03
 1.29070E-01    7.70076E+03
 1.35690E-01    7.70524E+03
 1.42640E-01    7.70995E+03
 1.49960E-01    7.71005E+03
 1.57640E-01    7.70511E+03
 1.65730E-01    7.69991E+03
 1.74220E-01    7.69491E+03
 1.83160E-01    7.68994E+03
 1.92550E-01    7.68450E+03
 2.02420E-01    7.67334E+03
 2.12800E-01    7.65927E+03
 2.23710E-01    7.64532E+03
 2.35180E-01    7.63148E+03
 2.47240E-01    7.60424E+03
 2.73240E-01    7.57159E+03
 2.87250E-01    7.55538E+03
 2.94520E-01    7.54781E+03
 2.97200E-01    7.54478E+03
 2.98500E-01    7.54099E+03
 3.01970E-01    7.51032E+03
 3.33730E-01    7.44771E+03
 3.68830E-01    7.32389E+03
 3.87740E-01    7.19787E+03
 4.07620E-01    7.01442E+03
 4.50490E-01    6.77534E+03
 4.97870E-01    6.61192E+03
 5.23400E-01    6.52650E+03
 5.50230E-01    6.43769E+03
 5.78440E-01    6.35019E+03
 6.08100E-01    6.26849E+03
 6.39280E-01    6.18278E+03
 6.72060E-01    6.09906E+03
 7.06510E-01    6.02002E+03
 7.42740E-01    5.93699E+03
 7.80820E-01    5.85314E+03
 8.20850E-01    5.77115E+03
 8.62940E-01    5.68472E+03
 9.07180E-01    5.55370E+03
 9.61640E-01    5.40954E+03
 1.00260E+00    5.20734E+03
 1.10800E+00    5.00054E+03
 1.16480E+00    4.86815E+03
 1.22460E+00    4.73705E+03
 1.28730E+00    4.60528E+03
 1.35340E+00    4.47398E+03
 1.42270E+00    4.34677E+03
 1.49570E+00    4.21546E+03
 1.57240E+00    4.07909E+03
 1.65300E+00    3.94193E+03
 1.73770E+00    3.80347E+03
 1.82680E+00    3.65384E+03
 1.92050E+00    3.50676E+03
 2.01900E+00    3.35649E+03
 2.12250E+00    3.20468E+03
 2.23130E+00    3.08361E+03
 2.30690E+00    3.01100E+03
 2.34570E+00    2.97608E+03
 2.36530E+00    2.95307E+03
 2.38520E+00    2.89465E+03
 2.46600E+00    2.77538E+03
 2.59240E+00    2.63147E+03
 2.72530E+00    2.49496E+03
 2.86500E+00    2.36553E+03
 3.01190E+00    2.25092E+03
 3.16640E+00    2.14763E+03
 3.32870E+00    2.00234E+03
 3.67880E+00    1.82386E+03
 4.06570E+00    1.71639E+03
 4.49330E+00    1.66023E+03
 4.72370E+00    1.62339E+03
 4.96590E+00    1.60326E+03
 5.22050E+00    1.61344E+03
 5.48810E+00    1.62462E+03
 5.76950E+00    1.63703E+03
 6.06530E+00    1.66897E+03
 6.37630E+00    1.70409E+03
 6.59240E+00    1.72588E+03
 6.70320E+00    1.75592E+03
 7.04690E+00    1.80703E+03
 7.40820E+00    1.86522E+03
 7.78800E+00    1.92639E+03
 8.18730E+00    1.99071E+03
 8.60710E+00    2.05770E+03
 9.04840E+00    2.12268E+03
 9.51230E+00    2.18970E+03
 1.00000E+01    2.19140E+03
 1.05130E+01    2.17716E+03
 1.10520E+01    2.26021E+03
 1.16180E+01    2.39971E+03
 1.22140E+01    2.44531E+03
 1.28400E+01    2.46917E+03
 1.34990E+01    2.50777E+03
 1.38400E+01    2.53041E+03
 1.41910E+01    2.53374E+03
 1.45500E+01    2.53572E+03
 1.49180E+01    2.53146E+03
 1.56830E+01    2.51375E+03
 1.64870E+01    2.48068E+03
