# n + Ru104 : (n,tot)   
# jendl4.0   JNDC FP NUCLEAR DATA W.G.         EVAL-MAR90
# uncertainties: n
# # energies =   171
#   E(MeV)       xs(mb) 
 1.00000E-11    1.62426E+04
 1.00000E-07    6.60301E+03
 4.13990E-07    6.53965E+03
 5.31580E-07    6.52597E+03
 6.82560E-07    6.51375E+03
 8.76420E-07    6.50276E+03
 1.12540E-06    6.49380E+03
 1.44500E-06    6.48709E+03
 1.85540E-06    6.47861E+03
 2.37240E-06    6.46771E+03
 3.05900E-06    6.45983E+03
 3.92790E-06    6.45399E+03
 5.04350E-06    6.44649E+03
 6.47600E-06    6.43686E+03
 8.31530E-06    6.42449E+03
 1.06770E-05    6.40866E+03
 1.37100E-05    6.39318E+03
 1.76030E-05    6.37684E+03
 2.26030E-05    6.35555E+03
 2.92030E-05    6.32855E+03
 3.72670E-05    6.29432E+03
 4.78510E-05    6.25491E+03
 6.14420E-05    9.11465E+03
 7.88930E-05    6.11699E+03
 1.01300E-04    6.01779E+03
 1.30070E-04    5.88712E+03
 1.67020E-04    5.60633E+03
 2.14450E-04    1.57827E+04
 2.75360E-04    5.57171E+03
 3.53580E-04    7.11423E+03
 4.54000E-04    4.72383E+03
 5.82950E-04    3.11019E+04
 7.48520E-04    5.62503E+03
 9.61120E-04    1.78783E+04
 1.23410E-03    1.32766E+04
 1.58460E-03    8.06050E+03
 2.03470E-03    1.04434E+04
 2.24870E-03    8.59963E+03
 2.48520E-03    4.96005E+03
 2.61260E-03    4.77269E+03
 2.74650E-03    5.34708E+03
 3.03540E-03    1.03767E+04
 3.35460E-03    4.66136E+03
 3.70740E-03    5.81231E+03
 4.30740E-03    4.24351E+04
 5.53080E-03    2.71332E+04
 7.10170E-03    9.90272E+03
 9.11880E-03    8.19593E+03
 1.17090E-02    6.80859E+03
 1.50340E-02    6.80225E+03
 1.93050E-02    6.82460E+03
 2.18750E-02    6.85434E+03
 2.35790E-02    6.87074E+03
 2.41760E-02    6.87929E+03
 2.47880E-02    6.89239E+03
 2.60580E-02    6.90768E+03
 2.70000E-02    6.92446E+03
 2.85000E-02    6.95728E+03
 3.18280E-02    6.99684E+03
 3.43070E-02    7.06187E+03
 4.08680E-02    7.15014E+03
 4.63090E-02    7.23054E+03
 5.24750E-02    7.29806E+03
 5.65620E-02    7.38893E+03
 6.73790E-02    7.48011E+03
 7.20000E-02    7.54361E+03
 7.95000E-02    7.59660E+03
 8.25000E-02    7.62593E+03
 8.65170E-02    7.68995E+03
 9.80370E-02    7.75685E+03
 1.11090E-01    7.76365E+03
 1.16790E-01    7.76709E+03
 1.22770E-01    7.77035E+03
 1.29070E-01    7.77346E+03
 1.35690E-01    7.77673E+03
 1.42640E-01    7.78017E+03
 1.49960E-01    7.77938E+03
 1.57640E-01    7.77398E+03
 1.65730E-01    7.76829E+03
 1.74220E-01    7.76282E+03
 1.83160E-01    7.75738E+03
 1.92550E-01    7.75146E+03
 2.02420E-01    7.74015E+03
 2.12800E-01    7.72608E+03
 2.23710E-01    7.71212E+03
 2.35180E-01    7.69826E+03
 2.47240E-01    7.67129E+03
 2.73240E-01    7.63914E+03
 2.87250E-01    7.62317E+03
 2.94520E-01    7.61572E+03
 2.97200E-01    7.61274E+03
 2.98500E-01    7.60894E+03
 3.01970E-01    7.57687E+03
 3.33730E-01    7.51496E+03
 3.68830E-01    7.46452E+03
 3.87740E-01    7.42866E+03
 4.07620E-01    7.37275E+03
 4.50490E-01    7.29207E+03
 4.97870E-01    7.22631E+03
 5.23400E-01    7.17959E+03
 5.50230E-01    7.13061E+03
 5.78440E-01    7.07911E+03
 6.08100E-01    7.02498E+03
 6.39280E-01    6.96944E+03
 6.72060E-01    6.91577E+03
 7.06510E-01    6.85973E+03
 7.42740E-01    6.80081E+03
 7.80820E-01    6.73888E+03
 8.20850E-01    6.67377E+03
 8.62940E-01    6.60532E+03
 9.07180E-01    6.52718E+03
 9.61640E-01    6.45178E+03
 1.00260E+00    6.34318E+03
 1.10800E+00    6.22120E+03
 1.16480E+00    6.13866E+03
 1.22460E+00    6.05729E+03
 1.28730E+00    5.97175E+03
 1.35340E+00    5.88183E+03
 1.42270E+00    5.78858E+03
 1.49570E+00    5.69665E+03
 1.57240E+00    5.60087E+03
 1.65300E+00    5.50049E+03
 1.73770E+00    5.40080E+03
 1.82680E+00    5.29837E+03
 1.92050E+00    5.19176E+03
 2.01900E+00    5.08588E+03
 2.12250E+00    4.97556E+03
 2.23130E+00    4.88557E+03
 2.30690E+00    4.83450E+03
 2.34570E+00    4.80846E+03
 2.36530E+00    4.79088E+03
 2.38520E+00    4.74623E+03
 2.46600E+00    4.66010E+03
 2.59240E+00    4.56101E+03
 2.72530E+00    4.46052E+03
 2.86500E+00    4.36457E+03
 3.01190E+00    4.28534E+03
 3.16640E+00    4.21796E+03
 3.32870E+00    4.11572E+03
 3.67880E+00    3.98496E+03
 4.06570E+00    3.91256E+03
 4.49330E+00    3.88066E+03
 4.72370E+00    3.85793E+03
 4.96590E+00    3.84434E+03
 5.22050E+00    3.84742E+03
 5.48810E+00    3.85093E+03
 5.76950E+00    3.85467E+03
 6.06530E+00    3.86744E+03
 6.37630E+00    3.88414E+03
 6.59240E+00    3.89450E+03
 6.70320E+00    3.90879E+03
 7.04690E+00    3.93629E+03
 7.40820E+00    3.97434E+03
 7.78800E+00    4.01471E+03
 8.18730E+00    4.06595E+03
 8.60710E+00    4.12442E+03
 9.04840E+00    4.18748E+03
 9.51230E+00    4.25871E+03
 1.00000E+01    4.32740E+03
 1.05130E+01    4.39148E+03
 1.10520E+01    4.45644E+03
 1.16180E+01    4.51823E+03
 1.22140E+01    4.53299E+03
 1.28400E+01    4.53397E+03
 1.34990E+01    4.53471E+03
 1.38400E+01    4.53232E+03
 1.41910E+01    4.51527E+03
 1.45500E+01    4.49626E+03
 1.49180E+01    4.46508E+03
 1.56830E+01    4.42166E+03
 1.64870E+01    4.38242E+03
