# n + Pm146 : (n,n'26)  
# tendl.2019 A.J. Koning and D. Rochman        EVAL-NOV19
# uncertainties: n
# # energies =    74
#   E(MeV)       xs(mb) 
 5.68322E-01    0.00000E+00
 5.85661E-01    4.35535E-01
 5.93575E-01    6.34326E-01
 6.00000E-01    7.95715E-01
 6.53517E-01    1.53115E+00
 6.70423E-01    1.76347E+00
 7.00000E-01    2.16992E+00
 8.00000E-01    3.16374E+00
 9.00000E-01    3.85726E+00
 1.00000E+00    4.05079E+00
 1.20000E+00    4.24906E+00
 1.40000E+00    3.92983E+00
 1.60000E+00    3.36729E+00
 1.80000E+00    2.77947E+00
 2.00000E+00    2.26220E+00
 2.20000E+00    1.83142E+00
 2.40000E+00    1.47731E+00
 2.60000E+00    1.18762E+00
 2.80000E+00    9.50236E-01
 3.00000E+00    7.55981E-01
 3.20000E+00    5.97544E-01
 3.40000E+00    4.68807E-01
 3.60000E+00    3.65063E-01
 3.80000E+00    2.82152E-01
 4.00000E+00    2.16637E-01
 4.20000E+00    1.65464E-01
 4.40000E+00    1.25800E-01
 4.60000E+00    9.52726E-02
 4.80000E+00    7.20949E-02
 5.00000E+00    5.44321E-02
 5.20000E+00    4.11637E-02
 5.40000E+00    3.11405E-02
 5.60000E+00    2.36056E-02
 5.80000E+00    1.79475E-02
 6.00000E+00    1.36520E-02
 6.20000E+00    1.03793E-02
 6.40000E+00    7.91719E-03
 6.60000E+00    6.04997E-03
 6.80000E+00    4.63057E-03
 7.00000E+00    3.54525E-03
 7.20000E+00    2.72099E-03
 7.40000E+00    2.08813E-03
 7.60000E+00    1.60478E-03
 7.80000E+00    1.23471E-03
 8.00000E+00    9.49806E-04
 8.50000E+00    4.96053E-04
 9.00000E+00    2.61105E-04
 9.50000E+00    1.38820E-04
 1.00000E+01    7.46692E-05
 1.05000E+01    4.07022E-05
 1.10000E+01    2.25036E-05
 1.15000E+01    1.26181E-05
 1.20000E+01    7.17254E-06
 1.25000E+01    4.12899E-06
 1.30000E+01    2.40345E-06
 1.35000E+01    1.41257E-06
 1.40000E+01    8.37910E-07
 1.45000E+01    5.00680E-07
 1.50000E+01    3.01290E-07
 1.60000E+01    1.10830E-07
 1.70000E+01    4.15440E-08
 1.80000E+01    1.58700E-08
 1.90000E+01    6.13390E-09
 2.00000E+01    2.44560E-09
 2.10000E+01    9.93510E-10
 2.20000E+01    4.11090E-10
 2.30000E+01    1.73350E-10
 2.40000E+01    7.43220E-11
 2.50000E+01    3.23550E-11
 2.60000E+01    1.42560E-11
 2.70000E+01    6.35250E-12
 2.80000E+01    2.86460E-12
 2.90000E+01    1.30680E-12
 3.00000E+01    6.03560E-13
