# n + Cd113m: (n,n'19)  
# tendl.2019 A.J. Koning and D. Rochman        EVAL-NOV19
# uncertainties: n
# # energies =    80
#   E(MeV)       xs(mb) 
 6.39654E-01    0.00000E+00
 6.82289E-01    1.48804E-01
 7.00000E-01    2.10618E-01
 7.02682E-01    2.16555E-01
 7.31336E-01    2.89568E-01
 7.42454E-01    3.23135E-01
 7.45935E-01    3.34312E-01
 7.50304E-01    3.48810E-01
 7.77434E-01    4.51573E-01
 7.80774E-01    4.65867E-01
 7.91115E-01    5.12626E-01
 7.93143E-01    5.22256E-01
 7.94065E-01    5.26685E-01
 8.00000E-01    5.55981E-01
 9.00000E-01    8.25049E-01
 1.00000E+00    1.07569E+00
 1.20000E+00    1.52449E+00
 1.40000E+00    1.85841E+00
 1.60000E+00    2.04687E+00
 1.80000E+00    2.09199E+00
 2.00000E+00    2.02088E+00
 2.20000E+00    1.87185E+00
 2.40000E+00    1.68139E+00
 2.60000E+00    1.47765E+00
 2.80000E+00    1.27894E+00
 3.00000E+00    1.09515E+00
 3.20000E+00    9.30507E-01
 3.40000E+00    7.85897E-01
 3.60000E+00    6.60156E-01
 3.80000E+00    5.51454E-01
 4.00000E+00    4.57725E-01
 4.20000E+00    3.77238E-01
 4.40000E+00    3.08546E-01
 4.60000E+00    2.50271E-01
 4.80000E+00    2.01132E-01
 5.00000E+00    1.60244E-01
 5.20000E+00    1.26698E-01
 5.40000E+00    9.92681E-02
 5.60000E+00    7.72872E-02
 5.80000E+00    5.97721E-02
 6.00000E+00    4.59694E-02
 6.20000E+00    3.51996E-02
 6.40000E+00    2.68852E-02
 6.60000E+00    2.05035E-02
 6.80000E+00    1.56212E-02
 7.00000E+00    1.19133E-02
 7.20000E+00    9.09188E-03
 7.40000E+00    6.95462E-03
 7.60000E+00    5.33163E-03
 7.80000E+00    4.09696E-03
 8.00000E+00    3.15832E-03
 8.50000E+00    1.66892E-03
 9.00000E+00    8.99427E-04
 9.50000E+00    4.93876E-04
 1.00000E+01    2.75826E-04
 1.05000E+01    1.56327E-04
 1.10000E+01    8.97078E-05
 1.15000E+01    5.20437E-05
 1.20000E+01    3.04873E-05
 1.25000E+01    1.80205E-05
 1.30000E+01    1.07393E-05
 1.35000E+01    6.45029E-06
 1.40000E+01    3.90312E-06
 1.45000E+01    2.37690E-06
 1.50000E+01    1.45700E-06
 1.60000E+01    5.57700E-07
 1.70000E+01    2.18850E-07
 1.80000E+01    8.81320E-08
 1.90000E+01    3.64030E-08
 2.00000E+01    1.54400E-08
 2.10000E+01    6.64720E-09
 2.20000E+01    2.94030E-09
 2.30000E+01    1.32280E-09
 2.40000E+01    6.04450E-10
 2.50000E+01    2.79990E-10
 2.60000E+01    1.31370E-10
 2.70000E+01    6.24460E-11
 2.80000E+01    3.00620E-11
 2.90000E+01    1.46550E-11
 3.00000E+01    7.23500E-12
