# n + Tl205 : (n,tot)   
# endfb8.0                                     EVAL-Oct11
# uncertainties: n
# # energies =   171
#   E(MeV)       xs(mb) 
 1.00000E-11    1.48316E+04
 1.00000E-07    9.27322E+03
 4.13990E-07    9.25495E+03
 5.31580E-07    9.25065E+03
 6.82560E-07    9.24760E+03
 8.76420E-07    9.24464E+03
 1.12540E-06    9.24198E+03
 1.44500E-06    9.24165E+03
 1.85540E-06    9.24138E+03
 2.37240E-06    9.24104E+03
 3.05900E-06    9.24059E+03
 3.92790E-06    9.24002E+03
 5.04350E-06    9.23929E+03
 6.47600E-06    9.23835E+03
 8.31530E-06    9.23715E+03
 1.06770E-05    9.23560E+03
 1.37100E-05    9.23362E+03
 1.76030E-05    9.23107E+03
 2.26030E-05    9.22775E+03
 2.92030E-05    9.22421E+03
 3.72670E-05    9.42206E+03
 4.78510E-05    9.22676E+03
 6.14420E-05    9.22412E+03
 7.88930E-05    9.22072E+03
 1.01300E-04    9.21635E+03
 1.30070E-04    9.21075E+03
 1.67020E-04    9.20355E+03
 2.14450E-04    9.19431E+03
 2.75360E-04    9.18244E+03
 3.53580E-04    9.16721E+03
 4.54000E-04    9.14764E+03
 5.82950E-04    9.12252E+03
 7.48520E-04    9.09027E+03
 9.61120E-04    9.04885E+03
 1.23410E-03    8.98733E+03
 1.58460E-03    8.85531E+03
 2.03470E-03    8.68335E+03
 2.24870E-03    8.46295E+03
 2.48520E-03    8.10874E+03
 2.61260E-03    7.40324E+03
 2.74650E-03    1.43914E+04
 3.03540E-03    2.62469E+04
 3.35460E-03    9.95763E+03
 3.70740E-03    9.50088E+03
 4.30740E-03    9.51675E+03
 5.53080E-03    9.10205E+03
 7.10170E-03    8.89728E+03
 9.11880E-03    8.65796E+03
 1.17090E-02    8.09715E+03
 1.50340E-02    1.11628E+04
 1.93050E-02    1.59517E+04
 2.18750E-02    1.24329E+04
 2.35790E-02    1.69063E+04
 2.41760E-02    1.10730E+04
 2.47880E-02    9.68546E+03
 2.60580E-02    9.57624E+03
 2.70000E-02    8.48368E+03
 2.85000E-02    1.03168E+04
 3.18280E-02    8.75874E+03
 3.43070E-02    7.99980E+03
 4.08680E-02    1.56077E+04
 4.63090E-02    1.29166E+04
 5.24750E-02    1.16611E+04
 5.65620E-02    1.18307E+04
 6.73790E-02    1.36082E+04
 7.20000E-02    1.58288E+04
 7.95000E-02    1.58102E+04
 8.25000E-02    1.28682E+04
 8.65170E-02    1.17157E+04
 9.80370E-02    1.14423E+04
 1.11090E-01    1.12634E+04
 1.16790E-01    1.11540E+04
 1.22770E-01    1.10389E+04
 1.29070E-01    1.09177E+04
 1.35690E-01    1.07905E+04
 1.42640E-01    1.06568E+04
 1.49960E-01    1.05162E+04
 1.57640E-01    1.03683E+04
 1.65730E-01    1.02129E+04
 1.74220E-01    1.00495E+04
 1.83160E-01    9.87772E+03
 1.92550E-01    9.69913E+03
 2.02420E-01    9.55813E+03
 2.12800E-01    9.43007E+03
 2.23710E-01    9.29547E+03
 2.35180E-01    9.15396E+03
 2.47240E-01    8.92702E+03
 2.73240E-01    8.68444E+03
 2.87250E-01    8.55591E+03
 2.94520E-01    8.49590E+03
 2.97200E-01    8.47194E+03
 2.98500E-01    8.44328E+03
 3.01970E-01    8.23450E+03
 3.33730E-01    7.83265E+03
 3.68830E-01    7.50519E+03
 3.87740E-01    7.27906E+03
 4.07620E-01    7.04104E+03
 4.50490E-01    6.72374E+03
 4.97870E-01    6.46517E+03
 5.23400E-01    6.28097E+03
 5.50230E-01    6.08735E+03
 5.78440E-01    5.88720E+03
 6.08100E-01    5.74441E+03
 6.39280E-01    5.62075E+03
 6.72060E-01    5.49077E+03
 7.06510E-01    5.35412E+03
 7.42740E-01    5.21045E+03
 7.80820E-01    5.07080E+03
 8.20850E-01    4.98948E+03
 8.62940E-01    4.91445E+03
 9.07180E-01    4.82880E+03
 9.61640E-01    4.74576E+03
 1.00260E+00    4.69864E+03
 1.10800E+00    4.67510E+03
 1.16480E+00    4.66325E+03
 1.22460E+00    4.69602E+03
 1.28730E+00    4.74146E+03
 1.35340E+00    4.79175E+03
 1.42270E+00    4.88004E+03
 1.49570E+00    4.98445E+03
 1.57240E+00    5.09850E+03
 1.65300E+00    5.24365E+03
 1.73770E+00    5.40037E+03
 1.82680E+00    5.57183E+03
 1.92050E+00    5.75843E+03
 2.01900E+00    5.95456E+03
 2.12250E+00    6.16068E+03
 2.23130E+00    6.33750E+03
 2.30690E+00    6.43665E+03
 2.34570E+00    6.48619E+03
 2.36530E+00    6.51965E+03
 2.38520E+00    6.60459E+03
 2.46600E+00    6.77225E+03
 2.59240E+00    6.95178E+03
 2.72530E+00    7.12575E+03
 2.86500E+00    7.27374E+03
 3.01190E+00    7.39189E+03
 3.16640E+00    7.48884E+03
 3.32870E+00    7.56726E+03
 3.67880E+00    7.56625E+03
 4.06570E+00    7.46686E+03
 4.49330E+00    7.34018E+03
 4.72370E+00    7.21778E+03
 4.96590E+00    7.07791E+03
 5.22050E+00    6.90203E+03
 5.48810E+00    6.71166E+03
 5.76950E+00    6.49921E+03
 6.06530E+00    6.27937E+03
 6.37630E+00    6.09559E+03
 6.59240E+00    5.98178E+03
 6.70320E+00    5.82560E+03
 7.04690E+00    5.63276E+03
 7.40820E+00    5.46174E+03
 7.78800E+00    5.29158E+03
 8.18730E+00    5.18114E+03
 8.60710E+00    5.07874E+03
 9.04840E+00    5.00233E+03
 9.51230E+00    4.95147E+03
 1.00000E+01    4.92648E+03
 1.05130E+01    4.91647E+03
 1.10520E+01    4.93120E+03
 1.16180E+01    4.96724E+03
 1.22140E+01    5.03540E+03
 1.28400E+01    5.12400E+03
 1.34990E+01    5.20785E+03
 1.38400E+01    5.26657E+03
 1.41910E+01    5.32855E+03
 1.45500E+01    5.39226E+03
 1.49180E+01    5.48293E+03
 1.56830E+01    5.59301E+03
 1.64870E+01    5.68010E+03
