# n + Ba136 : (n,xp)    
# jendl.ad   N.Iwamoto                         EVAL-Apr14
# 
# # energies =   109
#   E(MeV)        xs(mb) 
 1.05000E-01    0.00000E+00
 1.10000E-01    0.00000E+00
 1.20000E-01    0.00000E+00
 1.30000E-01    0.00000E+00
 1.40000E-01    0.00000E+00
 1.50000E-01    0.00000E+00
 1.60000E-01    0.00000E+00
 1.70000E-01    0.00000E+00
 1.80000E-01    0.00000E+00
 1.90000E-01    0.00000E+00
 2.00000E-01    0.00000E+00
 2.25000E-01    0.00000E+00
 2.50000E-01    0.00000E+00
 2.75000E-01    0.00000E+00
 3.00000E-01    0.00000E+00
 4.00000E-01    0.00000E+00
 5.00000E-01    0.00000E+00
 6.00000E-01    0.00000E+00
 7.00000E-01    0.00000E+00
 8.00000E-01    0.00000E+00
 8.24572E-01    0.00000E+00
 9.00000E-01    0.00000E+00
 1.00000E+00    0.00000E+00
 1.10000E+00    0.00000E+00
 1.20000E+00    0.00000E+00
 1.30000E+00    0.00000E+00
 1.40000E+00    0.00000E+00
 1.50000E+00    0.00000E+00
 1.56248E+00    0.00000E+00
 1.59071E+00    0.00000E+00
 1.60000E+00    0.00000E+00
 1.70000E+00    0.00000E+00
 1.80000E+00    8.35802E-15
 1.88040E+00    4.03269E-14
 1.90000E+00    4.81204E-14
 2.00000E+00    8.78827E-14
 2.04554E+00    1.05991E-13
 2.06906E+00    1.15343E-13
 2.09547E+00    1.25844E-13
 2.14463E+00    1.45391E-13
 2.15605E+00    1.49932E-13
 2.15723E+00    1.50401E-13
 2.16953E+00    1.55292E-13
 2.22346E+00    1.76736E-13
 2.23920E+00    1.82994E-13
 2.25000E+00    1.87289E-13
 2.31567E+00    2.30122E-13
 2.33250E+00    2.55651E-13
 2.36694E+00    3.07892E-13
 2.37396E+00    3.18541E-13
 2.39131E+00    3.44858E-13
 2.40853E+00    3.70979E-13
 2.40985E+00    3.72981E-13
 2.41768E+00    3.84858E-13
 2.44895E+00    4.32291E-13
 2.50000E+00    5.09727E-13
 2.50388E+00    5.15613E-13
 2.55137E+00    5.87649E-13
 2.56329E+00    6.05730E-13
 2.58101E+00    6.32609E-13
 2.58102E+00    6.32624E-13
 2.60629E+00    6.70956E-13
 2.66031E+00    7.52897E-13
 2.67946E+00    7.81945E-13
 2.68116E+00    7.84524E-13
 2.71358E+00    8.33701E-13
 2.71455E+00    8.35172E-13
 2.75000E+00    8.88945E-13
 2.79412E+00    9.55870E-13
 2.80052E+00    1.03300E-12
 2.80508E+00    1.09460E-12
 2.83278E+00    1.63180E-12
 2.84108E+00    1.86410E-12
 2.86169E+00    2.63530E-12
 3.00000E+00    3.44900E-11
 3.50000E+00    3.85600E-08
 4.00000E+00    2.74628E-06
 4.50000E+00    4.73094E-05
 5.00000E+00    3.79467E-04
 5.50000E+00    1.92434E-03
 6.00000E+00    6.93243E-03
 6.50000E+00    1.88406E-02
 7.00000E+00    4.08626E-02
 7.50000E+00    7.48287E-02
 8.00000E+00    1.21943E-01
 8.50000E+00    1.85498E-01
 9.00000E+00    2.72717E-01
 9.50000E+00    3.95467E-01
 1.00000E+01    5.69150E-01
 1.05000E+01    8.11592E-01
 1.10000E+01    1.14129E+00
 1.15000E+01    1.57563E+00
 1.20000E+01    2.12925E+00
 1.25000E+01    2.81299E+00
 1.30000E+01    3.63386E+00
 1.35000E+01    4.59476E+00
 1.40000E+01    5.69507E+00
 1.45000E+01    6.93067E+00
 1.50000E+01    8.29466E+00
 1.55000E+01    9.77909E+00
 1.60000E+01    1.13712E+01
 1.65000E+01    1.30631E+01
 1.70000E+01    1.48447E+01
 1.75000E+01    1.67079E+01
 1.80000E+01    1.86441E+01
 1.85000E+01    2.06420E+01
 1.90000E+01    2.27079E+01
 1.95000E+01    2.48272E+01
 2.00000E+01    2.70045E+01
