# n + Ba136 : (n,xa)    
# jendl.ad   N.Iwamoto                         EVAL-Apr14
# 
# # energies =   109
#   E(MeV)        xs(mb) 
 1.05000E-01    2.39323E-08
 1.10000E-01    2.44176E-08
 1.20000E-01    2.54209E-08
 1.30000E-01    2.64810E-08
 1.40000E-01    2.75410E-08
 1.50000E-01    2.87666E-08
 1.60000E-01    3.00760E-08
 1.70000E-01    3.18157E-08
 1.80000E-01    3.36479E-08
 1.90000E-01    3.55732E-08
 2.00000E-01    3.76084E-08
 2.25000E-01    4.31710E-08
 2.50000E-01    4.94690E-08
 2.75000E-01    5.83410E-08
 3.00000E-01    6.86740E-08
 4.00000E-01    1.27640E-07
 5.00000E-01    2.51060E-07
 6.00000E-01    4.70970E-07
 7.00000E-01    8.96890E-07
 8.00000E-01    1.69341E-06
 8.24572E-01    1.96915E-06
 9.00000E-01    1.93922E-06
 1.00000E+00    2.81054E-06
 1.10000E+00    4.42474E-06
 1.20000E+00    7.05534E-06
 1.30000E+00    1.12684E-05
 1.40000E+00    1.78397E-05
 1.50000E+00    2.81339E-05
 1.56248E+00    3.73888E-05
 1.59071E+00    4.03435E-05
 1.60000E+00    4.13158E-05
 1.70000E+00    5.81991E-05
 1.80000E+00    8.43194E-05
 1.88040E+00    1.14634E-04
 1.90000E+00    1.16456E-04
 2.00000E+00    1.59977E-04
 2.04554E+00    1.87383E-04
 2.06906E+00    2.03088E-04
 2.09547E+00    2.16592E-04
 2.14463E+00    2.43588E-04
 2.15605E+00    2.48505E-04
 2.15723E+00    2.48470E-04
 2.16953E+00    2.54084E-04
 2.22346E+00    2.84362E-04
 2.23920E+00    2.94778E-04
 2.25000E+00    2.99956E-04
 2.31567E+00    3.50862E-04
 2.33250E+00    3.65729E-04
 2.36694E+00    3.98019E-04
 2.37396E+00    4.02804E-04
 2.39131E+00    4.15722E-04
 2.40853E+00    4.28903E-04
 2.40985E+00    4.28562E-04
 2.41768E+00    4.31973E-04
 2.44895E+00    4.53925E-04
 2.50000E+00    4.98197E-04
 2.50388E+00    5.01947E-04
 2.55137E+00    5.47850E-04
 2.56329E+00    5.59318E-04
 2.58101E+00    5.77213E-04
 2.58102E+00    5.77224E-04
 2.60629E+00    6.05970E-04
 2.66031E+00    6.69517E-04
 2.67946E+00    6.93646E-04
 2.68116E+00    6.95882E-04
 2.71358E+00    7.40327E-04
 2.71455E+00    7.41657E-04
 2.75000E+00    7.90004E-04
 2.79412E+00    8.69176E-04
 2.80052E+00    8.78247E-04
 2.80508E+00    8.84710E-04
 2.83278E+00    9.30262E-04
 2.84108E+00    9.43912E-04
 2.86169E+00    9.77611E-04
 3.00000E+00    1.27518E-03
 3.50000E+00    3.32572E-03
 4.00000E+00    7.89209E-03
 4.50000E+00    1.59893E-02
 5.00000E+00    2.91518E-02
 5.50000E+00    4.83209E-02
 6.00000E+00    7.45592E-02
 6.50000E+00    1.08647E-01
 7.00000E+00    1.50624E-01
 7.50000E+00    1.99583E-01
 8.00000E+00    2.53318E-01
 8.50000E+00    3.10526E-01
 9.00000E+00    3.73772E-01
 9.50000E+00    4.47299E-01
 1.00000E+01    5.25738E-01
 1.05000E+01    6.19322E-01
 1.10000E+01    7.39758E-01
 1.15000E+01    8.96212E-01
 1.20000E+01    1.09480E+00
 1.25000E+01    1.34008E+00
 1.30000E+01    1.63682E+00
 1.35000E+01    1.98375E+00
 1.40000E+01    2.38335E+00
 1.45000E+01    2.83534E+00
 1.50000E+01    3.33808E+00
 1.55000E+01    3.88754E+00
 1.60000E+01    4.48200E+00
 1.65000E+01    5.11653E+00
 1.70000E+01    5.78816E+00
 1.75000E+01    6.48623E+00
 1.80000E+01    7.22573E+00
 1.85000E+01    7.99236E+00
 1.90000E+01    8.78954E+00
 1.95000E+01    9.64048E+00
 2.00000E+01    1.05101E+01
