# n + Ba136 : (n,t)     
# jendl.ad   N.Iwamoto                         EVAL-Apr14
# uncertainties: n
# # energies =    62
#   E(MeV)       xs(mb) 
 8.94011E+00    0.00000E+00
 8.95143E+00    1.28660E-24
 9.00058E+00    6.87300E-24
 9.07988E+00    1.58860E-23
 9.11519E+00    5.83970E-20
 9.11782E+00    6.27460E-20
 9.11806E+00    6.31430E-20
 9.13178E+00    8.58270E-20
 9.13516E+00    9.14160E-20
 9.13936E+00    9.83600E-20
 9.15121E+00    1.17950E-19
 9.17618E+00    1.59240E-19
 9.19912E+00    1.97170E-19
 9.20975E+00    2.14740E-19
 9.21347E+00    2.20890E-19
 9.23323E+00    2.53560E-19
 9.28702E+00    3.42500E-19
 9.32001E+00    3.97050E-19
 9.32593E+00    4.06830E-19
 9.37750E+00    4.92100E-19
 9.39369E+00    5.18870E-19
 9.39488E+00    5.20840E-19
 9.39756E+00    5.25270E-19
 9.42735E+00    5.74520E-19
 9.44668E+00    6.06480E-19
 9.46328E+00    6.33930E-19
 9.48377E+00    6.67810E-19
 9.51517E+00    7.19720E-19
 9.52354E+00    7.33560E-19
 9.52862E+00    7.41960E-19
 9.55768E+00    7.90010E-19
 9.56672E+00    8.04960E-19
 9.56874E+00    8.08300E-19
 9.58556E+00    8.36110E-19
 9.58885E+00    8.41550E-19
 9.59826E+00    8.57100E-19
 9.61004E+00    8.76580E-19
 9.62112E+00    8.94900E-19
 9.62586E+00    9.02740E-19
 9.62969E+00    9.09070E-19
 9.63384E+00    9.15930E-19
 1.00000E+01    1.52130E-18
 1.05000E+01    2.63280E-16
 1.10000E+01    1.19190E-12
 1.15000E+01    3.02000E-10
 1.20000E+01    1.52270E-08
 1.25000E+01    2.89120E-07
 1.30000E+01    2.96004E-06
 1.35000E+01    2.00079E-05
 1.40000E+01    1.00032E-04
 1.45000E+01    3.95045E-04
 1.50000E+01    1.28347E-03
 1.55000E+01    3.44669E-03
 1.60000E+01    8.16251E-03
 1.65000E+01    1.71481E-02
 1.70000E+01    3.16660E-02
 1.75000E+01    5.34168E-02
 1.80000E+01    8.17229E-02
 1.85000E+01    1.18123E-01
 1.90000E+01    1.62532E-01
 1.95000E+01    2.14660E-01
 2.00000E+01    2.71835E-01
