# n + Yb172 : (n,p)     
# jendl.ad   kunieda                           EVAL-Mar14
# uncertainties: n
# # energies =    42
#   E(MeV)       xs(mb) 
 1.10438E+00    0.00000E+00
 1.16728E+00    1.21540E-17
 1.25108E+00    3.02770E-17
 1.34571E+00    7.75700E-17
 2.20000E+00    5.30040E-16
 2.40000E+00    3.08890E-14
 2.70000E+00    6.81830E-12
 3.00000E+00    3.44140E-10
 3.50000E+00    3.41420E-08
 4.00000E+00    7.65920E-07
 4.50000E+00    6.98044E-06
 5.00000E+00    3.61140E-05
 5.50000E+00    1.30600E-04
 6.00000E+00    4.05877E-04
 6.50000E+00    1.10911E-03
 7.00000E+00    3.06110E-03
 7.50000E+00    7.73944E-03
 8.00000E+00    1.83719E-02
 8.50000E+00    4.04096E-02
 9.00000E+00    8.26067E-02
 9.50000E+00    1.59705E-01
 1.00000E+01    2.89074E-01
 1.05000E+01    4.93251E-01
 1.10000E+01    8.03728E-01
 1.15000E+01    1.24180E+00
 1.20000E+01    1.83667E+00
 1.25000E+01    2.60611E+00
 1.30000E+01    3.54413E+00
 1.35000E+01    4.67890E+00
 1.40000E+01    5.98159E+00
 1.45000E+01    7.42725E+00
 1.50000E+01    9.00357E+00
 1.55000E+01    1.06767E+01
 1.60000E+01    1.23706E+01
 1.65000E+01    1.40332E+01
 1.70000E+01    1.57686E+01
 1.75000E+01    1.74367E+01
 1.80000E+01    1.86767E+01
 1.85000E+01    1.98207E+01
 1.90000E+01    2.13286E+01
 1.95000E+01    2.19603E+01
 2.00000E+01    2.33498E+01
