# n + Yb172 : (n,np)    
# jendl.ad   kunieda                           EVAL-Mar14
# uncertainties: n
# # energies =    25
#   E(MeV)       xs(mb) 
 7.37668E+00    0.00000E+00
 8.50000E+00    8.08010E-18
 9.00000E+00    4.08030E-12
 9.50000E+00    1.80980E-09
 1.00000E+01    1.98650E-07
 1.05000E+01    4.19218E-06
 1.10000E+01    4.57428E-05
 1.15000E+01    2.77947E-04
 1.20000E+01    1.18051E-03
 1.25000E+01    3.99788E-03
 1.30000E+01    1.18772E-02
 1.35000E+01    2.74945E-02
 1.40000E+01    5.85726E-02
 1.45000E+01    1.18667E-01
 1.50000E+01    2.30565E-01
 1.55000E+01    4.30130E-01
 1.60000E+01    7.67805E-01
 1.65000E+01    1.29072E+00
 1.70000E+01    1.89868E+00
 1.75000E+01    2.76188E+00
 1.80000E+01    4.20188E+00
 1.85000E+01    5.88725E+00
 1.90000E+01    7.35210E+00
 1.95000E+01    9.81836E+00
 2.00000E+01    1.16681E+01
