# n + Yb172 : (n,xd)    
# jendl.ad   kunieda                           EVAL-Mar14
# 
# # energies =    91
#   E(MeV)        xs(mb) 
 7.92049E-02    0.00000E+00
 8.00000E-02    0.00000E+00
 9.00000E-02    0.00000E+00
 1.00000E-01    0.00000E+00
 1.50000E-01    0.00000E+00
 2.00000E-01    0.00000E+00
 2.61795E-01    0.00000E+00
 3.00000E-01    0.00000E+00
 4.00000E-01    0.00000E+00
 5.00000E-01    0.00000E+00
 5.43145E-01    0.00000E+00
 6.00000E-01    0.00000E+00
 7.00000E-01    0.00000E+00
 8.00000E-01    0.00000E+00
 9.00000E-01    0.00000E+00
 9.17471E-01    0.00000E+00
 1.00000E+00    0.00000E+00
 1.04903E+00    0.00000E+00
 1.12443E+00    0.00000E+00
 1.16172E+00    0.00000E+00
 1.17927E+00    0.00000E+00
 1.20000E+00    0.00000E+00
 1.20550E+00    0.00000E+00
 1.22889E+00    0.00000E+00
 1.27044E+00    0.00000E+00
 1.29409E+00    0.00000E+00
 1.33850E+00    0.00000E+00
 1.36089E+00    0.00000E+00
 1.37811E+00    0.00000E+00
 1.38388E+00    0.00000E+00
 1.40000E+00    0.00000E+00
 1.41325E+00    0.00000E+00
 1.47448E+00    0.00000E+00
 1.48544E+00    0.00000E+00
 1.50488E+00    0.00000E+00
 1.51904E+00    0.00000E+00
 1.54652E+00    0.00000E+00
 1.54965E+00    0.00000E+00
 1.55824E+00    0.00000E+00
 1.55953E+00    0.00000E+00
 1.55990E+00    0.00000E+00
 1.56672E+00    0.00000E+00
 1.60000E+00    0.00000E+00
 1.60926E+00    0.00000E+00
 1.61793E+00    0.00000E+00
 1.64272E+00    0.00000E+00
 1.65018E+00    0.00000E+00
 1.66752E+00    0.00000E+00
 1.67256E+00    0.00000E+00
 1.67589E+00    0.00000E+00
 1.68035E+00    0.00000E+00
 1.80000E+00    0.00000E+00
 2.00000E+00    0.00000E+00
 2.20000E+00    0.00000E+00
 2.40000E+00    0.00000E+00
 2.70000E+00    0.00000E+00
 3.00000E+00    0.00000E+00
 3.50000E+00    0.00000E+00
 4.00000E+00    0.00000E+00
 4.50000E+00    0.00000E+00
 5.00000E+00    0.00000E+00
 5.50000E+00    1.01700E-20
 6.00000E+00    1.39579E-19
 6.50000E+00    2.86630E-19
 7.00000E+00    1.85230E-15
 7.50000E+00    2.39110E-12
 8.00000E+00    2.28460E-10
 8.50000E+00    3.22740E-08
 9.00000E+00    3.29070E-07
 9.50000E+00    7.01887E-06
 1.00000E+01    4.96642E-05
 1.05000E+01    2.84043E-04
 1.10000E+01    1.39805E-03
 1.15000E+01    5.22277E-03
 1.20000E+01    1.30523E-02
 1.25000E+01    3.35888E-02
 1.30000E+01    8.68908E-02
 1.35000E+01    1.60317E-01
 1.40000E+01    3.38506E-01
 1.45000E+01    5.57458E-01
 1.50000E+01    8.69598E-01
 1.55000E+01    1.28931E+00
 1.60000E+01    1.82604E+00
 1.65000E+01    2.48442E+00
 1.70000E+01    2.69976E+00
 1.75000E+01    3.51185E+00
 1.80000E+01    4.44310E+00
 1.85000E+01    5.23779E+00
 1.90000E+01    5.79436E+00
 1.95000E+01    6.97669E+00
 2.00000E+01    7.30405E+00
