# n + Mo 93 : (n,xp)    
# jeff3.3    A.J. Koning and D. Rochman        EVAL-DEC15
# 
# # energies =   125
#   E(MeV)        xs(mb) 
 9.53521E-01    8.83294E-02
 1.00000E+00    1.06777E-01
 1.20000E+00    2.60755E-01
 1.37785E+00    5.18336E-01
 1.40000E+00    5.50416E-01
 1.49324E+00    6.26886E-01
 1.50868E+00    6.39549E-01
 1.53687E+00    6.62669E-01
 1.60000E+00    7.14444E-01
 1.71343E+00    9.16340E-01
 1.80000E+00    1.07043E+00
 2.00000E+00    1.72096E+00
 2.16523E+00    2.56135E+00
 2.16869E+00    2.57895E+00
 2.18537E+00    2.66379E+00
 2.20000E+00    2.73820E+00
 2.20476E+00    2.75787E+00
 2.27153E+00    3.03380E+00
 2.32920E+00    3.27212E+00
 2.38170E+00    3.48908E+00
 2.40000E+00    3.56470E+00
 2.42424E+00    3.58287E+00
 2.43531E+00    3.59117E+00
 2.45128E+00    3.60315E+00
 2.45618E+00    3.60682E+00
 2.45732E+00    3.60768E+00
 2.46386E+00    3.61258E+00
 2.46691E+00    3.61487E+00
 2.47191E+00    3.61861E+00
 2.47673E+00    3.62223E+00
 2.50595E+00    3.64414E+00
 2.55716E+00    3.68253E+00
 2.56241E+00    3.68647E+00
 2.56707E+00    3.68996E+00
 2.58274E+00    3.70171E+00
 2.60000E+00    3.71465E+00
 2.60086E+00    3.71746E+00
 2.64743E+00    3.86982E+00
 2.67054E+00    3.94542E+00
 2.80000E+00    4.36896E+00
 3.00000E+00    5.40785E+00
 3.20000E+00    6.63468E+00
 3.40000E+00    8.07301E+00
 3.60000E+00    9.71326E+00
 3.80000E+00    1.15301E+01
 4.00000E+00    1.34972E+01
 4.20000E+00    1.55382E+01
 4.40000E+00    1.78281E+01
 4.60000E+00    2.00509E+01
 4.80000E+00    2.24238E+01
 5.00000E+00    2.47967E+01
 5.20000E+00    2.71535E+01
 5.40000E+00    2.96919E+01
 5.60000E+00    3.19723E+01
 5.80000E+00    3.42980E+01
 6.00000E+00    3.63910E+01
 6.20000E+00    3.84840E+01
 6.40000E+00    4.05770E+01
 6.60000E+00    4.24204E+01
 6.80000E+00    4.42805E+01
 7.00000E+00    4.56978E+01
 7.20000E+00    4.71151E+01
 7.40000E+00    4.83120E+01
 7.60000E+00    4.95088E+01
 7.80000E+00    5.10140E+01
 8.00000E+00    5.18466E+01
 8.50000E+00    5.46446E+01
 9.00000E+00    5.74428E+01
 9.50000E+00    6.05586E+01
 1.00000E+01    6.44177E+01
 1.05000E+01    7.13633E+01
 1.10000E+01    8.22188E+01
 1.15000E+01    8.87315E+01
 1.20000E+01    9.38613E+01
 1.25000E+01    1.01775E+02
 1.30000E+01    1.09844E+02
 1.35000E+01    1.19178E+02
 1.40000E+01    1.29442E+02
 1.45000E+01    1.40072E+02
 1.50000E+01    1.50826E+02
 1.60000E+01    1.74397E+02
 1.70000E+01    1.99686E+02
 1.80000E+01    2.26226E+02
 1.90000E+01    2.64546E+02
 2.00000E+01    3.38624E+02
 2.10000E+01    4.42250E+02
 2.20000E+01    5.40301E+02
 2.30000E+01    6.13104E+02
 2.40000E+01    6.56149E+02
 2.50000E+01    6.76667E+02
 2.60000E+01    6.85343E+02
 2.70000E+01    6.86630E+02
 2.80000E+01    6.85171E+02
 2.90000E+01    6.81345E+02
 3.00000E+01    6.75896E+02
 3.00000E+01    6.79733E+02
 3.20000E+01    6.77098E+02
 3.40000E+01    6.97107E+02
 3.60000E+01    7.30137E+02
 3.80000E+01    7.54365E+02
 4.00000E+01    7.66429E+02
 4.20000E+01    7.71352E+02
 4.40000E+01    7.77901E+02
 4.60000E+01    7.87591E+02
 4.80000E+01    8.01889E+02
 5.00000E+01    8.13199E+02
 5.20000E+01    8.24445E+02
 5.40000E+01    8.33995E+02
 5.60000E+01    8.40026E+02
 5.80000E+01    8.47075E+02
 6.00000E+01    8.57443E+02
 6.50000E+01    8.82449E+02
 7.00000E+01    8.90890E+02
 7.50000E+01    9.22580E+02
 8.00000E+01    9.49609E+02
 9.00000E+01    1.00828E+03
 1.00000E+02    1.05349E+03
 1.10000E+02    1.11279E+03
 1.20000E+02    1.17711E+03
 1.30000E+02    1.25398E+03
 1.40000E+02    1.34668E+03
 1.50000E+02    1.46787E+03
 1.60000E+02    1.63273E+03
 1.80000E+02    2.07326E+03
 2.00000E+02    2.58134E+03
