# n + Mo 93 : (n,n'11)  
# jeff3.3    A.J. Koning and D. Rochman        EVAL-DEC15
# uncertainties: n
# # energies =    78
#   E(MeV)       xs(mb) 
 2.27153E+00    0.00000E+00
 2.32920E+00    2.56038E+01
 2.38170E+00    4.89123E+01
 2.40000E+00    5.70370E+01
 2.42424E+00    6.01608E+01
 2.43531E+00    6.15873E+01
 2.45128E+00    6.36454E+01
 2.45618E+00    6.42769E+01
 2.45732E+00    6.44238E+01
 2.46386E+00    6.52666E+01
 2.46691E+00    6.56596E+01
 2.47191E+00    6.63040E+01
 2.47673E+00    6.69251E+01
 2.50595E+00    7.06907E+01
 2.55716E+00    7.72901E+01
 2.56241E+00    7.79666E+01
 2.56707E+00    7.85671E+01
 2.58274E+00    8.05866E+01
 2.60000E+00    8.28108E+01
 2.60086E+00    8.27756E+01
 2.64743E+00    8.08719E+01
 2.67054E+00    7.99271E+01
 2.80000E+00    7.46348E+01
 3.00000E+00    6.25065E+01
 3.20000E+00    5.14170E+01
 3.40000E+00    4.26407E+01
 3.60000E+00    3.57996E+01
 3.80000E+00    3.03465E+01
 4.00000E+00    2.58502E+01
 4.20000E+00    2.20293E+01
 4.40000E+00    1.87146E+01
 4.60000E+00    1.58294E+01
 4.80000E+00    1.33199E+01
 5.00000E+00    1.11617E+01
 5.20000E+00    9.32162E+00
 5.40000E+00    7.76651E+00
 5.60000E+00    6.46604E+00
 5.80000E+00    5.38215E+00
 6.00000E+00    4.48288E+00
 6.20000E+00    3.73851E+00
 6.40000E+00    3.12246E+00
 6.60000E+00    2.61331E+00
 6.80000E+00    2.19256E+00
 7.00000E+00    1.84096E+00
 7.20000E+00    1.54579E+00
 7.40000E+00    1.30119E+00
 7.60000E+00    1.10046E+00
 7.80000E+00    9.33778E-01
 8.00000E+00    7.94070E-01
 8.50000E+00    5.40653E-01
 9.00000E+00    3.80413E-01
 9.50000E+00    2.79342E-01
 1.00000E+01    2.15493E-01
 1.05000E+01    1.74839E-01
 1.10000E+01    1.48583E-01
 1.15000E+01    1.31256E-01
 1.20000E+01    1.19518E-01
 1.25000E+01    1.11303E-01
 1.30000E+01    1.05349E-01
 1.35000E+01    1.00857E-01
 1.40000E+01    9.73295E-02
 1.45000E+01    9.44431E-02
 1.50000E+01    9.19921E-02
 1.60000E+01    8.79061E-02
 1.70000E+01    8.45057E-02
 1.80000E+01    8.15909E-02
 1.90000E+01    7.90606E-02
 2.00000E+01    7.68091E-02
 2.10000E+01    7.47339E-02
 2.20000E+01    7.27752E-02
 2.30000E+01    7.09335E-02
 2.40000E+01    6.92434E-02
 2.50000E+01    6.77382E-02
 2.60000E+01    6.64299E-02
 2.70000E+01    6.53011E-02
 2.80000E+01    6.43088E-02
 2.90000E+01    6.33978E-02
 3.00000E+01    6.25144E-02
