# n + Mo 93 : (n,xa)    
# jeff3.3    A.J. Koning and D. Rochman        EVAL-DEC15
# 
# # energies =   125
#   E(MeV)        xs(mb) 
 9.53521E-01    1.72919E+00
 1.00000E+00    1.80880E+00
 1.20000E+00    2.19882E+00
 1.37785E+00    2.57834E+00
 1.40000E+00    2.62580E+00
 1.49324E+00    2.61713E+00
 1.50868E+00    2.61569E+00
 1.53687E+00    2.61307E+00
 1.60000E+00    2.60721E+00
 1.71343E+00    2.65551E+00
 1.80000E+00    2.69238E+00
 2.00000E+00    3.11770E+00
 2.16523E+00    3.62895E+00
 2.16869E+00    3.63965E+00
 2.18537E+00    3.69126E+00
 2.20000E+00    3.73653E+00
 2.20476E+00    3.74144E+00
 2.27153E+00    3.81033E+00
 2.32920E+00    3.86983E+00
 2.38170E+00    3.92400E+00
 2.40000E+00    3.94288E+00
 2.42424E+00    3.90580E+00
 2.43531E+00    3.88887E+00
 2.45128E+00    3.86444E+00
 2.45618E+00    3.85694E+00
 2.45732E+00    3.85520E+00
 2.46386E+00    3.84519E+00
 2.46691E+00    3.84053E+00
 2.47191E+00    3.83288E+00
 2.47673E+00    3.82551E+00
 2.50595E+00    3.78081E+00
 2.55716E+00    3.70247E+00
 2.56241E+00    3.69444E+00
 2.56707E+00    3.68731E+00
 2.58274E+00    3.66334E+00
 2.60000E+00    3.63694E+00
 2.60086E+00    3.63562E+00
 2.64743E+00    3.56438E+00
 2.67054E+00    3.52994E+00
 2.80000E+00    3.33966E+00
 3.00000E+00    3.36068E+00
 3.20000E+00    3.47699E+00
 3.40000E+00    3.63430E+00
 3.60000E+00    3.77658E+00
 3.80000E+00    3.92400E+00
 4.00000E+00    4.07067E+00
 4.20000E+00    4.17148E+00
 4.40000E+00    4.34735E+00
 4.60000E+00    4.45563E+00
 4.80000E+00    4.62275E+00
 5.00000E+00    4.80118E+00
 5.20000E+00    4.96656E+00
 5.40000E+00    5.25200E+00
 5.60000E+00    5.44235E+00
 5.80000E+00    5.74253E+00
 6.00000E+00    6.00605E+00
 6.20000E+00    6.26958E+00
 6.40000E+00    6.71479E+00
 6.60000E+00    6.92129E+00
 6.80000E+00    7.40054E+00
 7.00000E+00    7.68519E+00
 7.20000E+00    8.14182E+00
 7.40000E+00    8.68850E+00
 7.60000E+00    8.94282E+00
 7.80000E+00    9.71268E+00
 8.00000E+00    1.03074E+01
 8.50000E+00    1.20853E+01
 9.00000E+00    1.42299E+01
 9.50000E+00    1.67256E+01
 1.00000E+01    1.95367E+01
 1.05000E+01    2.26644E+01
 1.10000E+01    2.59766E+01
 1.15000E+01    2.95245E+01
 1.20000E+01    3.31459E+01
 1.25000E+01    3.72547E+01
 1.30000E+01    4.15879E+01
 1.35000E+01    4.56564E+01
 1.40000E+01    4.97156E+01
 1.45000E+01    5.38023E+01
 1.50000E+01    5.76398E+01
 1.60000E+01    6.29927E+01
 1.70000E+01    6.88234E+01
 1.80000E+01    7.42850E+01
 1.90000E+01    7.92628E+01
 2.00000E+01    8.36771E+01
 2.10000E+01    8.76197E+01
 2.20000E+01    9.07096E+01
 2.30000E+01    9.35650E+01
 2.40000E+01    9.59844E+01
 2.50000E+01    9.80064E+01
 2.60000E+01    9.97403E+01
 2.70000E+01    1.01249E+02
 2.80000E+01    1.02461E+02
 2.90000E+01    1.03451E+02
 3.00000E+01    1.04239E+02
 3.00000E+01    1.04303E+02
 3.20000E+01    1.05444E+02
 3.40000E+01    1.06177E+02
 3.60000E+01    1.06605E+02
 3.80000E+01    1.06917E+02
 4.00000E+01    1.07109E+02
 4.20000E+01    1.06840E+02
 4.40000E+01    1.06589E+02
 4.60000E+01    1.06309E+02
 4.80000E+01    1.05875E+02
 5.00000E+01    1.05147E+02
 5.20000E+01    1.04442E+02
 5.40000E+01    1.03666E+02
 5.60000E+01    1.02481E+02
 5.80000E+01    1.01424E+02
 6.00000E+01    1.00336E+02
 6.50000E+01    9.78942E+01
 7.00000E+01    9.45889E+01
 7.50000E+01    9.57107E+01
 8.00000E+01    9.80691E+01
 9.00000E+01    1.05582E+02
 1.00000E+02    1.14822E+02
 1.10000E+02    1.23929E+02
 1.20000E+02    1.30912E+02
 1.30000E+02    1.37844E+02
 1.40000E+02    1.45959E+02
 1.50000E+02    1.53327E+02
 1.60000E+02    1.60097E+02
 1.80000E+02    1.81603E+02
 2.00000E+02    2.43301E+02
