# n + Mo 93 : (n,n'07)  
# jeff3.3    A.J. Koning and D. Rochman        EVAL-DEC15
# uncertainties: n
# # energies =    83
#   E(MeV)       xs(mb) 
 2.16523E+00    0.00000E+00
 2.16869E+00    1.81726E+00
 2.18537E+00    1.05781E+01
 2.20000E+00    1.82623E+01
 2.20476E+00    2.02170E+01
 2.27153E+00    4.76363E+01
 2.32920E+00    7.13187E+01
 2.38170E+00    9.28780E+01
 2.40000E+00    1.00393E+02
 2.42424E+00    1.01150E+02
 2.43531E+00    1.01496E+02
 2.45128E+00    1.01994E+02
 2.45618E+00    1.02147E+02
 2.45732E+00    1.02183E+02
 2.46386E+00    1.02387E+02
 2.46691E+00    1.02483E+02
 2.47191E+00    1.02639E+02
 2.47673E+00    1.02789E+02
 2.50595E+00    1.03702E+02
 2.55716E+00    1.05301E+02
 2.56241E+00    1.05465E+02
 2.56707E+00    1.05611E+02
 2.58274E+00    1.06100E+02
 2.60000E+00    1.06639E+02
 2.60086E+00    1.06574E+02
 2.64743E+00    1.03055E+02
 2.67054E+00    1.01308E+02
 2.80000E+00    9.15242E+01
 3.00000E+00    7.83076E+01
 3.20000E+00    6.64497E+01
 3.40000E+00    5.64820E+01
 3.60000E+00    4.80808E+01
 3.80000E+00    4.08978E+01
 4.00000E+00    3.46746E+01
 4.20000E+00    2.92365E+01
 4.40000E+00    2.44769E+01
 4.60000E+00    2.03461E+01
 4.80000E+00    1.67941E+01
 5.00000E+00    1.37893E+01
 5.20000E+00    1.12753E+01
 5.40000E+00    9.19302E+00
 5.60000E+00    7.48736E+00
 5.80000E+00    6.09566E+00
 6.00000E+00    4.96550E+00
 6.20000E+00    4.04993E+00
 6.40000E+00    3.30862E+00
 6.60000E+00    2.70817E+00
 6.80000E+00    2.22240E+00
 7.00000E+00    1.82486E+00
 7.20000E+00    1.49792E+00
 7.40000E+00    1.23198E+00
 7.60000E+00    1.01771E+00
 7.80000E+00    8.42727E-01
 8.00000E+00    6.98702E-01
 8.50000E+00    4.44907E-01
 9.00000E+00    2.91377E-01
 9.50000E+00    1.98607E-01
 1.00000E+01    1.42578E-01
 1.05000E+01    1.08683E-01
 1.10000E+01    8.81035E-02
 1.15000E+01    7.55257E-02
 1.20000E+01    6.77799E-02
 1.25000E+01    6.29564E-02
 1.30000E+01    5.99203E-02
 1.35000E+01    5.79802E-02
 1.40000E+01    5.67245E-02
 1.45000E+01    5.59035E-02
 1.50000E+01    5.53663E-02
 1.60000E+01    5.47950E-02
 1.70000E+01    5.45777E-02
 1.80000E+01    5.45038E-02
 1.90000E+01    5.44552E-02
 2.00000E+01    5.43667E-02
 2.10000E+01    5.42051E-02
 2.20000E+01    5.39595E-02
 2.30000E+01    5.36350E-02
 2.40000E+01    5.32477E-02
 2.50000E+01    5.28147E-02
 2.60000E+01    5.23486E-02
 2.70000E+01    5.18552E-02
 2.80000E+01    5.13345E-02
 2.90000E+01    5.07842E-02
 3.00000E+01    5.02006E-02
