# n + Ti 50 : (n,tot)   
# jendl.ad   K.KOBAYASHI(KUR),HASHIKURA(TOK)   EVAL-SEP88
# uncertainties: n
# # energies =    69
#   E(MeV)       xs(mb) 
 1.00000E-10    1.25369E+03
 5.00000E-09    3.41360E+02
 1.00000E-08    2.58528E+02
 1.50000E-08    2.17209E+02
 2.00000E-08    1.91098E+02
 2.50000E-08    1.72649E+02
 3.00000E-08    1.58707E+02
 3.50000E-08    1.45925E+02
 4.20000E-08    1.33472E+02
 5.00000E-08    1.23110E+02
 5.80000E-08    1.14419E+02
 6.70000E-08    1.05601E+02
 8.00000E-08    9.55611E+01
 1.00000E-07    8.31280E+01
 1.40000E-07    7.17372E+01
 1.80000E-07    6.40552E+01
 2.20000E-07    5.89852E+01
 2.50000E-07    5.55272E+01
 2.80000E-07    5.30485E+01
 3.00000E-07    5.13133E+01
 3.20000E-07    4.93815E+01
 3.50000E-07    4.67038E+01
 4.00000E-07    4.27349E+01
 5.00000E-07    3.82237E+01
 6.25000E-07    3.42083E+01
 7.80000E-07    3.16572E+01
 8.50000E-07    3.04675E+01
 9.10000E-07    2.96230E+01
 9.50000E-07    2.91462E+01
 9.72000E-07    2.87977E+01
 9.96000E-07    2.84480E+01
 1.02000E-06    2.81180E+01
 1.04500E-06    2.77751E+01
 1.07100E-06    2.74303E+01
 1.09700E-06    2.71157E+01
 1.12300E-06    2.68004E+01
 1.15000E-06    2.58420E+01
 1.30000E-06    2.41800E+01
 1.50000E-06    2.14672E+01
 2.10000E-06    1.86918E+01
 2.60000E-06    1.67015E+01
 3.30000E-06    1.49866E+01
 4.00000E-06    1.14862E+01
 9.87700E-06    8.07264E+00
 1.59680E-05    6.23700E+00
 2.77000E-05    4.72940E+00
 4.80520E-05    3.66887E+00
 7.55014E-05    2.76246E+00
 1.48728E-04    1.84594E+00
 3.67262E-04    1.13986E+00
 9.06898E-04    7.69021E-01
 1.42510E-03    5.81483E-01
 2.23945E-03    4.27784E-01
 3.51910E-03    3.03367E-01
 5.53000E-03    2.00609E-01
 9.11800E-03    1.22131E-01
 1.50300E-02    4.49633E+00
 2.47800E-02    5.65672E-02
 4.08500E-02    3.56143E+00
 6.73400E-02    5.09894E+00
 1.11000E-01    4.90727E-01
 1.83000E-01    1.11155E+00
 3.02000E-01    1.88498E-01
 5.00000E-01    3.62107E-01
 8.21000E-01    5.63463E-01
 1.35300E+00    4.32565E-01
 2.23100E+00    2.24040E-01
 3.67900E+00    2.10304E-01
 6.06500E+00    7.65648E-01
