# n + Nd148 : (n,tot)   
# jeff3.3    N.Iwamoto,A.Zukeran,K.Shibata     EVAL-Dec09
# uncertainties: n
# # energies =   171
#   E(MeV)       xs(mb) 
 1.00000E-11    3.46141E+04
 1.00000E-07    5.17883E+03
 4.13990E-07    4.83741E+03
 5.31580E-07    4.76096E+03
 6.82560E-07    4.69118E+03
 8.76420E-07    4.62661E+03
 1.12540E-06    4.56643E+03
 1.44500E-06    4.50840E+03
 1.85540E-06    4.45268E+03
 2.37240E-06    4.39122E+03
 3.05900E-06    4.32905E+03
 3.92790E-06    4.25748E+03
 5.04350E-06    4.17995E+03
 6.47600E-06    4.08527E+03
 8.31530E-06    3.97597E+03
 1.06770E-05    3.83747E+03
 1.37100E-05    3.66964E+03
 1.76030E-05    3.45665E+03
 2.26030E-05    3.17917E+03
 2.92030E-05    2.82797E+03
 3.72670E-05    2.38298E+03
 4.78510E-05    1.80501E+03
 6.14420E-05    1.07344E+03
 7.88930E-05    1.34650E+03
 1.01300E-04    2.39780E+03
 1.30070E-04    1.32544E+06
 1.67020E-04    4.44972E+04
 2.14450E-04    7.03416E+03
 2.75360E-04    6.08955E+05
 3.53580E-04    5.49277E+04
 4.54000E-04    1.18590E+04
 5.82950E-04    8.03948E+04
 7.48520E-04    1.76292E+04
 9.61120E-04    7.60567E+04
 1.23410E-03    5.26396E+04
 1.58460E-03    1.15335E+04
 2.03470E-03    5.34879E+04
 2.24870E-03    4.30240E+04
 2.48520E-03    1.27274E+05
 2.61260E-03    2.24734E+04
 2.74650E-03    2.83092E+04
 3.03540E-03    1.05350E+04
 3.35460E-03    7.67314E+03
 3.70740E-03    7.08175E+04
 4.30740E-03    2.35906E+04
 5.53080E-03    1.74777E+04
 7.10170E-03    2.44010E+04
 9.11880E-03    2.22422E+04
 1.17090E-02    1.99907E+04
 1.50340E-02    1.79706E+04
 1.93050E-02    1.65871E+04
 2.18750E-02    1.59022E+04
 2.35790E-02    1.55707E+04
 2.41760E-02    1.54075E+04
 2.47880E-02    1.51664E+04
 2.60580E-02    1.48966E+04
 2.70000E-02    1.46181E+04
 2.85000E-02    1.41236E+04
 3.18280E-02    1.35895E+04
 3.43070E-02    1.29064E+04
 4.08680E-02    1.21276E+04
 4.63090E-02    1.15171E+04
 5.24750E-02    1.10590E+04
 5.65620E-02    1.05183E+04
 6.73790E-02    1.00186E+04
 7.20000E-02    9.69652E+03
 7.95000E-02    9.43987E+03
 8.25000E-02    9.28696E+03
 8.65170E-02    8.98327E+03
 9.80370E-02    8.56858E+03
 1.11090E-01    8.30001E+03
 1.16790E-01    8.15107E+03
 1.22770E-01    8.00469E+03
 1.29070E-01    7.86787E+03
 1.35690E-01    7.74612E+03
 1.42640E-01    7.62631E+03
 1.49960E-01    7.50839E+03
 1.57640E-01    7.39229E+03
 1.65730E-01    7.27802E+03
 1.74220E-01    7.16547E+03
 1.83160E-01    7.05463E+03
 1.92550E-01    6.94636E+03
 2.02420E-01    6.85836E+03
 2.12800E-01    6.77911E+03
 2.23710E-01    6.70089E+03
 2.35180E-01    6.62342E+03
 2.47240E-01    6.50894E+03
 2.73240E-01    6.39622E+03
 2.87250E-01    6.34070E+03
 2.94520E-01    6.31571E+03
 2.97200E-01    6.30573E+03
 2.98500E-01    6.29595E+03
 3.01970E-01    6.27575E+03
 3.33730E-01    6.23936E+03
 3.68830E-01    6.20971E+03
 3.87740E-01    6.19127E+03
 4.07620E-01    6.20842E+03
 4.50490E-01    6.24370E+03
 4.97870E-01    6.27632E+03
 5.23400E-01    6.31519E+03
 5.50230E-01    6.35737E+03
 5.78440E-01    6.40173E+03
 6.08100E-01    6.44926E+03
 6.39280E-01    6.50298E+03
 6.72060E-01    6.55986E+03
 7.06510E-01    6.61965E+03
 7.42740E-01    6.68252E+03
 7.80820E-01    6.74860E+03
 8.20850E-01    6.81807E+03
 8.62940E-01    6.88524E+03
 9.07180E-01    6.95301E+03
 9.61640E-01    7.01875E+03
 1.00260E+00    7.09051E+03
 1.10800E+00    7.15600E+03
 1.16480E+00    7.19848E+03
 1.22460E+00    7.20476E+03
 1.28730E+00    7.20205E+03
 1.35340E+00    7.19919E+03
 1.42270E+00    7.19619E+03
 1.49570E+00    7.17850E+03
 1.57240E+00    7.12964E+03
 1.65300E+00    7.07738E+03
 1.73770E+00    7.02243E+03
 1.82680E+00    6.96541E+03
 1.92050E+00    6.90982E+03
 2.01900E+00    6.83956E+03
 2.12250E+00    6.75514E+03
 2.23130E+00    6.68160E+03
 2.30690E+00    6.63599E+03
 2.34570E+00    6.61354E+03
 2.36530E+00    6.59908E+03
 2.38520E+00    6.56239E+03
 2.46600E+00    6.48584E+03
 2.59240E+00    6.38277E+03
 2.72530E+00    6.27292E+03
 2.86500E+00    6.15889E+03
 3.01190E+00    6.04176E+03
 3.16640E+00    5.91850E+03
 3.32870E+00    5.72496E+03
 3.67880E+00    5.45778E+03
 4.06570E+00    5.18968E+03
 4.49330E+00    4.99551E+03
 4.72370E+00    4.87478E+03
 4.96590E+00    4.76370E+03
 5.22050E+00    4.66787E+03
 5.48810E+00    4.58552E+03
 5.76950E+00    4.52053E+03
 6.06530E+00    4.47792E+03
 6.37630E+00    4.45113E+03
 6.59240E+00    4.44251E+03
 6.70320E+00    4.43875E+03
 7.04690E+00    4.44933E+03
 7.40820E+00    4.47226E+03
 7.78800E+00    4.50926E+03
 8.18730E+00    4.55204E+03
 8.60710E+00    4.60319E+03
 9.04840E+00    4.65807E+03
 9.51230E+00    4.71577E+03
 1.00000E+01    4.77515E+03
 1.05130E+01    4.83431E+03
 1.10520E+01    4.89175E+03
 1.16180E+01    4.94792E+03
 1.22140E+01    4.99855E+03
 1.28400E+01    5.04390E+03
 1.34990E+01    5.07110E+03
 1.38400E+01    5.08771E+03
 1.41910E+01    5.09742E+03
 1.45500E+01    5.10617E+03
 1.49180E+01    5.11067E+03
 1.56830E+01    5.10208E+03
 1.64870E+01    5.07366E+03
