# n + Nd148 : (n,n'07)  
# jeff3.3    N.Iwamoto,A.Zukeran,K.Shibata     EVAL-Dec09
# uncertainties: n
# # energies =    73
#   E(MeV)       xs(mb) 
 1.25061E+00    0.00000E+00
 1.25733E+00    2.65071E-01
 1.28842E+00    9.92507E-01
 1.30000E+00    1.34612E+00
 1.40000E+00    5.56752E+00
 1.40955E+00    6.04633E+00
 1.44176E+00    7.76488E+00
 1.48506E+00    9.99524E+00
 1.50000E+00    1.07723E+01
 1.52182E+00    1.19331E+01
 1.52594E+00    1.20720E+01
 1.53184E+00    1.22597E+01
 1.58775E+00    1.49292E+01
 1.60000E+00    1.55139E+01
 1.61091E+00    1.60409E+01
 1.61292E+00    1.61383E+01
 1.65582E+00    1.71979E+01
 1.65680E+00    1.72400E+01
 1.66528E+00    1.76091E+01
 1.67123E+00    1.73871E+01
 1.69488E+00    1.80301E+01
 1.69942E+00    1.78406E+01
 1.70000E+00    1.78190E+01
 1.73676E+00    1.86570E+01
 1.74079E+00    1.84497E+01
 1.79012E+00    1.94024E+01
 1.80000E+00    1.92898E+01
 1.82093E+00    1.97256E+01
 1.83684E+00    2.01451E+01
 1.84953E+00    2.05038E+01
 1.86896E+00    2.10255E+01
 1.87127E+00    2.10899E+01
 1.89987E+00    2.19036E+01
 1.90000E+00    2.18626E+01
 2.00000E+00    2.41016E+01
 2.25000E+00    2.42554E+01
 2.50000E+00    2.23594E+01
 2.75000E+00    1.74263E+01
 3.00000E+00    1.48069E+01
 3.50000E+00    8.55615E+00
 4.00000E+00    4.85192E+00
 4.50000E+00    2.84138E+00
 5.00000E+00    1.80561E+00
 5.50000E+00    1.27694E+00
 6.00000E+00    9.97284E-01
 6.50000E+00    8.38511E-01
 7.00000E+00    7.38978E-01
 7.50000E+00    6.67847E-01
 8.00000E+00    6.11353E-01
 8.50000E+00    5.62717E-01
 9.00000E+00    5.18745E-01
 9.50000E+00    4.78330E-01
 1.00000E+01    4.41228E-01
 1.05000E+01    4.07883E-01
 1.10000E+01    3.77275E-01
 1.15000E+01    3.50775E-01
 1.20000E+01    3.26708E-01
 1.25000E+01    3.05960E-01
 1.30000E+01    2.87175E-01
 1.35000E+01    2.70678E-01
 1.40000E+01    2.55706E-01
 1.45000E+01    2.42188E-01
 1.50000E+01    2.29813E-01
 1.55000E+01    2.18468E-01
 1.60000E+01    2.08433E-01
 1.65000E+01    1.98326E-01
 1.70000E+01    1.88234E-01
 1.75000E+01    1.78796E-01
 1.80000E+01    1.70466E-01
 1.85000E+01    1.62780E-01
 1.90000E+01    1.55572E-01
 1.95000E+01    1.47701E-01
 2.00000E+01    1.40480E-01
