# n + Nd148 : (n,n'08)  
# jeff3.3    N.Iwamoto,A.Zukeran,K.Shibata     EVAL-Dec09
# uncertainties: n
# # energies =    72
#   E(MeV)       xs(mb) 
 1.25733E+00    0.00000E+00
 1.28842E+00    1.42565E+02
 1.30000E+00    1.56112E+02
 1.40000E+00    2.08334E+02
 1.40955E+00    2.11025E+02
 1.44176E+00    2.19021E+02
 1.48506E+00    2.24221E+02
 1.50000E+00    2.24536E+02
 1.52182E+00    2.26340E+02
 1.52594E+00    2.23682E+02
 1.53184E+00    2.22019E+02
 1.58775E+00    2.18763E+02
 1.60000E+00    2.11999E+02
 1.61091E+00    2.10292E+02
 1.61292E+00    2.09803E+02
 1.65582E+00    2.06188E+02
 1.65680E+00    2.06148E+02
 1.66528E+00    2.05541E+02
 1.67123E+00    2.04902E+02
 1.69488E+00    1.97642E+02
 1.69942E+00    1.96964E+02
 1.70000E+00    1.96217E+02
 1.73676E+00    1.90876E+02
 1.74079E+00    1.90373E+02
 1.79012E+00    1.84263E+02
 1.80000E+00    1.83460E+02
 1.82093E+00    1.82481E+02
 1.83684E+00    1.81438E+02
 1.84953E+00    1.80536E+02
 1.86896E+00    1.79001E+02
 1.87127E+00    1.78849E+02
 1.89987E+00    1.76803E+02
 1.90000E+00    1.76754E+02
 2.00000E+00    1.71465E+02
 2.25000E+00    1.39344E+02
 2.50000E+00    1.07538E+02
 2.75000E+00    7.36002E+01
 3.00000E+00    4.96216E+01
 3.50000E+00    2.11925E+01
 4.00000E+00    8.77864E+00
 4.50000E+00    3.71512E+00
 5.00000E+00    1.70802E+00
 5.50000E+00    9.12566E-01
 6.00000E+00    5.87337E-01
 6.50000E+00    4.44428E-01
 7.00000E+00    3.73450E-01
 7.50000E+00    3.31043E-01
 8.00000E+00    3.00696E-01
 8.50000E+00    2.75901E-01
 9.00000E+00    2.54051E-01
 9.50000E+00    2.34163E-01
 1.00000E+01    2.15974E-01
 1.05000E+01    1.99649E-01
 1.10000E+01    1.84672E-01
 1.15000E+01    1.71706E-01
 1.20000E+01    1.59931E-01
 1.25000E+01    1.49778E-01
 1.30000E+01    1.40588E-01
 1.35000E+01    1.32514E-01
 1.40000E+01    1.25190E-01
 1.45000E+01    1.18575E-01
 1.50000E+01    1.12520E-01
 1.55000E+01    1.06958E-01
 1.60000E+01    1.02062E-01
 1.65000E+01    9.71083E-02
 1.70000E+01    9.21696E-02
 1.75000E+01    8.75572E-02
 1.80000E+01    8.34742E-02
 1.85000E+01    7.97084E-02
 1.90000E+01    7.61916E-02
 1.95000E+01    7.23352E-02
 2.00000E+01    6.87966E-02
