# n + Nd148 : (n,el)    
# jeff3.3    N.Iwamoto,A.Zukeran,K.Shibata     EVAL-Dec09
# uncertainties: n
# # energies =   171
#   E(MeV)       xs(mb) 
 1.00000E-11    6.70787E+03
 1.00000E-07    4.24857E+03
 4.13990E-07    4.23639E+03
 5.31580E-07    4.23026E+03
 6.82560E-07    4.22238E+03
 8.76420E-07    4.21226E+03
 1.12540E-06    4.19931E+03
 1.44500E-06    4.18279E+03
 1.85540E-06    4.16181E+03
 2.37240E-06    4.13463E+03
 3.05900E-06    4.09944E+03
 3.92790E-06    4.05457E+03
 5.04350E-06    3.99696E+03
 6.47600E-06    3.92299E+03
 8.31530E-06    3.82801E+03
 1.06770E-05    3.70604E+03
 1.37100E-05    3.54944E+03
 1.76030E-05    3.34829E+03
 2.26030E-05    3.08051E+03
 2.92030E-05    2.73740E+03
 3.72670E-05    2.29585E+03
 4.78510E-05    1.71474E+03
 6.14420E-05    9.72500E+02
 7.88930E-05    2.10960E+02
 1.01300E-04    2.08307E+03
 1.30070E-04    1.29840E+06
 1.67020E-04    4.36393E+04
 2.14450E-04    6.62004E+03
 2.75360E-04    6.02340E+05
 3.53580E-04    4.96685E+04
 4.54000E-04    1.17294E+04
 5.82950E-04    7.89076E+04
 7.48520E-04    1.63410E+04
 9.61120E-04    7.46151E+04
 1.23410E-03    5.17400E+04
 1.58460E-03    1.11920E+04
 2.03470E-03    5.30889E+04
 2.24870E-03    4.23701E+04
 2.48520E-03    1.26721E+05
 2.61260E-03    2.22991E+04
 2.74650E-03    2.78934E+04
 3.03540E-03    1.03080E+04
 3.35460E-03    7.39917E+03
 3.70740E-03    7.04546E+04
 4.30740E-03    2.33433E+04
 5.53080E-03    1.72792E+04
 7.10170E-03    2.41659E+04
 9.11880E-03    2.20517E+04
 1.17090E-02    1.98197E+04
 1.50340E-02    1.78170E+04
 1.93050E-02    1.64451E+04
 2.18750E-02    1.57649E+04
 2.35790E-02    1.54358E+04
 2.41760E-02    1.52737E+04
 2.47880E-02    1.50344E+04
 2.60580E-02    1.47664E+04
 2.70000E-02    1.44900E+04
 2.85000E-02    1.39988E+04
 3.18280E-02    1.34679E+04
 3.43070E-02    1.27887E+04
 4.08680E-02    1.20141E+04
 4.63090E-02    1.14068E+04
 5.24750E-02    1.09512E+04
 5.65620E-02    1.04135E+04
 6.73790E-02    9.91665E+03
 7.20000E-02    9.59628E+03
 7.95000E-02    9.34108E+03
 8.25000E-02    9.18927E+03
 8.65170E-02    8.88782E+03
 9.80370E-02    8.47642E+03
 1.11090E-01    8.21019E+03
 1.16790E-01    8.06258E+03
 1.22770E-01    7.91752E+03
 1.29070E-01    7.78199E+03
 1.35690E-01    7.66148E+03
 1.42640E-01    7.54291E+03
 1.49960E-01    7.42622E+03
 1.57640E-01    7.31132E+03
 1.65730E-01    7.19819E+03
 1.74220E-01    7.08645E+03
 1.83160E-01    6.97664E+03
 1.92550E-01    6.86943E+03
 2.02420E-01    6.78232E+03
 2.12800E-01    6.70390E+03
 2.23710E-01    6.62645E+03
 2.35180E-01    6.54968E+03
 2.47240E-01    6.43613E+03
 2.73240E-01    6.32409E+03
 2.87250E-01    6.26870E+03
 2.94520E-01    6.24375E+03
 2.97200E-01    6.23380E+03
 2.98500E-01    6.22304E+03
 3.01970E-01    6.11342E+03
 3.33730E-01    5.86264E+03
 3.68830E-01    5.65768E+03
 3.87740E-01    5.52004E+03
 4.07620E-01    5.44515E+03
 4.50490E-01    5.36907E+03
 4.97870E-01    5.32160E+03
 5.23400E-01    5.31310E+03
 5.50230E-01    5.30430E+03
 5.78440E-01    5.29579E+03
 6.08100E-01    5.30127E+03
 6.39280E-01    5.31268E+03
 6.72060E-01    5.32468E+03
 7.06510E-01    5.33738E+03
 7.42740E-01    5.35360E+03
 7.80820E-01    5.37205E+03
 8.20850E-01    5.39144E+03
 8.62940E-01    5.41183E+03
 9.07180E-01    5.42102E+03
 9.61640E-01    5.39605E+03
 1.00260E+00    5.33482E+03
 1.10800E+00    5.26778E+03
 1.16480E+00    5.21846E+03
 1.22460E+00    5.13042E+03
 1.28730E+00    5.04801E+03
 1.35340E+00    5.00198E+03
 1.42270E+00    4.95003E+03
 1.49570E+00    4.87030E+03
 1.57240E+00    4.76027E+03
 1.65300E+00    4.65512E+03
 1.73770E+00    4.56522E+03
 1.82680E+00    4.48534E+03
 1.92050E+00    4.41511E+03
 2.01900E+00    4.32280E+03
 2.12250E+00    4.21539E+03
 2.23130E+00    4.12808E+03
 2.30690E+00    4.07642E+03
 2.34570E+00    4.05009E+03
 2.36530E+00    4.03230E+03
 2.38520E+00    3.98717E+03
 2.46600E+00    3.89469E+03
 2.59240E+00    3.77902E+03
 2.72530E+00    3.65747E+03
 2.86500E+00    3.53249E+03
 3.01190E+00    3.40741E+03
 3.16640E+00    3.27842E+03
 3.32870E+00    3.09305E+03
 3.67880E+00    2.84608E+03
 4.06570E+00    2.61427E+03
 4.49330E+00    2.45340E+03
 4.72370E+00    2.35629E+03
 4.96590E+00    2.26837E+03
 5.22050E+00    2.19226E+03
 5.48810E+00    2.12769E+03
 5.76950E+00    2.07621E+03
 6.06530E+00    2.04161E+03
 6.37630E+00    2.02043E+03
 6.59240E+00    2.01652E+03
 6.70320E+00    2.01533E+03
 7.04690E+00    2.03312E+03
 7.40820E+00    2.05468E+03
 7.78800E+00    2.09559E+03
 8.18730E+00    2.14977E+03
 8.60710E+00    2.21297E+03
 9.04840E+00    2.28362E+03
 9.51230E+00    2.35792E+03
 1.00000E+01    2.43392E+03
 1.05130E+01    2.51045E+03
 1.10520E+01    2.58249E+03
 1.16180E+01    2.65145E+03
 1.22140E+01    2.71083E+03
 1.28400E+01    2.76352E+03
 1.34990E+01    2.79440E+03
 1.38400E+01    2.81369E+03
 1.41910E+01    2.82546E+03
 1.45500E+01    2.83639E+03
 1.49180E+01    2.84481E+03
 1.56830E+01    2.84263E+03
 1.64870E+01    2.82339E+03
