# n + Dy164 : (n,n'13)  
# jeff3.3    A.J. Koning and D. Rochman        EVAL-DEC15
# uncertainties: n
# # energies =    82
#   E(MeV)       xs(mb) 
 1.17317E+00    0.00000E+00
 1.20000E+00    8.74184E+01
 1.23268E+00    9.80684E+01
 1.26906E+00    1.09924E+02
 1.31061E+00    1.23465E+02
 1.35428E+00    1.37696E+02
 1.40000E+00    1.52596E+02
 1.40228E+00    1.52666E+02
 1.47955E+00    1.55051E+02
 1.51426E+00    1.56122E+02
 1.59759E+00    1.58693E+02
 1.60000E+00    1.58767E+02
 1.61759E+00    1.56712E+02
 1.66538E+00    1.51129E+02
 1.67530E+00    1.49970E+02
 1.68500E+00    1.48836E+02
 1.69678E+00    1.47460E+02
 1.72676E+00    1.43958E+02
 1.73592E+00    1.42887E+02
 1.74879E+00    1.41384E+02
 1.75664E+00    1.40467E+02
 1.80000E+00    1.35401E+02
 2.00000E+00    9.94007E+01
 2.20000E+00    6.80526E+01
 2.40000E+00    4.51363E+01
 2.60000E+00    2.98482E+01
 2.80000E+00    1.99543E+01
 3.00000E+00    1.35577E+01
 3.20000E+00    9.49270E+00
 3.40000E+00    6.71262E+00
 3.60000E+00    4.85102E+00
 3.80000E+00    3.58965E+00
 4.00000E+00    2.72566E+00
 4.20000E+00    2.15073E+00
 4.40000E+00    1.72505E+00
 4.60000E+00    1.42458E+00
 4.80000E+00    1.21168E+00
 5.00000E+00    1.06064E+00
 5.20000E+00    9.53762E-01
 5.40000E+00    8.78535E-01
 5.60000E+00    8.25930E-01
 5.80000E+00    7.89150E-01
 6.00000E+00    7.64500E-01
 6.20000E+00    7.48416E-01
 6.40000E+00    7.38482E-01
 6.60000E+00    7.33031E-01
 6.80000E+00    7.30908E-01
 7.00000E+00    7.31094E-01
 7.20000E+00    7.32939E-01
 7.40000E+00    7.35851E-01
 7.60000E+00    7.39393E-01
 7.80000E+00    7.43216E-01
 8.00000E+00    7.47037E-01
 8.50000E+00    7.55494E-01
 9.00000E+00    7.61419E-01
 9.50000E+00    7.64706E-01
 1.00000E+01    7.65842E-01
 1.05000E+01    7.65499E-01
 1.10000E+01    7.64348E-01
 1.15000E+01    7.62991E-01
 1.20000E+01    7.61866E-01
 1.25000E+01    7.61182E-01
 1.30000E+01    7.60907E-01
 1.35000E+01    7.60846E-01
 1.40000E+01    7.60731E-01
 1.45000E+01    7.60316E-01
 1.50000E+01    7.59405E-01
 1.60000E+01    7.55741E-01
 1.70000E+01    7.49967E-01
 1.80000E+01    7.43708E-01
 1.90000E+01    7.39319E-01
 2.00000E+01    7.38943E-01
 2.10000E+01    7.43718E-01
 2.20000E+01    7.53434E-01
 2.30000E+01    7.66596E-01
 2.40000E+01    7.80982E-01
 2.50000E+01    7.94560E-01
 2.60000E+01    8.06217E-01
 2.70000E+01    8.15888E-01
 2.80000E+01    8.24109E-01
 2.90000E+01    8.31516E-01
 3.00000E+01    8.38523E-01
