# n + Dy164 : (n,xa)    
# jeff3.3    A.J. Koning and D. Rochman        EVAL-DEC15
# 
# # energies =   134
#   E(MeV)        xs(mb) 
 7.38436E-02    2.36488E-10
 1.00000E-01    1.56260E-10
 2.00000E-01    1.38690E-10
 2.43721E-01    1.53026E-10
 3.00000E-01    1.71480E-10
 4.00000E-01    3.74960E-10
 5.00000E-01    7.37093E-10
 5.04407E-01    7.55798E-10
 6.00000E-01    1.16153E-09
 7.00000E-01    1.73842E-09
 7.66508E-01    2.12991E-09
 8.00000E-01    2.32774E-09
 8.33286E-01    2.88447E-09
 8.48871E-01    3.14514E-09
 9.00000E-01    4.00030E-09
 9.21636E-01    4.57772E-09
 9.82901E-01    6.21273E-09
 1.00000E+00    6.66907E-09
 1.03094E+00    7.50117E-09
 1.04569E+00    7.90041E-09
 1.12968E+00    1.01738E-08
 1.16286E+00    1.10719E-08
 1.17317E+00    1.13510E-08
 1.20000E+00    1.20772E-08
 1.23268E+00    1.44125E-08
 1.26906E+00    1.70123E-08
 1.31061E+00    1.99815E-08
 1.35428E+00    2.31023E-08
 1.40000E+00    2.63695E-08
 1.40228E+00    2.67728E-08
 1.47955E+00    4.04416E-08
 1.51426E+00    4.65817E-08
 1.59759E+00    6.13225E-08
 1.60000E+00    6.17488E-08
 1.61759E+00    6.58563E-08
 1.66538E+00    7.70161E-08
 1.67530E+00    7.93326E-08
 1.68500E+00    8.15977E-08
 1.69678E+00    8.43485E-08
 1.72676E+00    9.13494E-08
 1.73592E+00    9.34884E-08
 1.74879E+00    9.64937E-08
 1.75664E+00    9.83268E-08
 1.80000E+00    1.08452E-07
 2.00000E+00    1.99912E-07
 2.20000E+00    2.97433E-07
 2.40000E+00    4.27823E-07
 2.60000E+00    6.56173E-07
 2.80000E+00    8.95174E-07
 3.00000E+00    1.32947E-06
 3.20000E+00    1.91691E-06
 3.40000E+00    2.63188E-06
 3.60000E+00    3.75411E-06
 3.80000E+00    5.03050E-06
 4.00000E+00    6.91024E-06
 4.20000E+00    9.26483E-06
 4.40000E+00    1.22365E-05
 4.60000E+00    1.64869E-05
 4.80000E+00    2.15692E-05
 5.00000E+00    2.83013E-05
 5.20000E+00    3.67218E-05
 5.40000E+00    4.77263E-05
 5.60000E+00    6.28739E-05
 5.80000E+00    8.18004E-05
 6.00000E+00    1.03039E-04
 6.20000E+00    1.34700E-04
 6.40000E+00    1.75416E-04
 6.60000E+00    2.31552E-04
 6.80000E+00    3.05981E-04
 7.00000E+00    3.80360E-04
 7.20000E+00    5.02933E-04
 7.40000E+00    6.54663E-04
 7.60000E+00    8.76805E-04
 7.80000E+00    1.17156E-03
 8.00000E+00    1.41525E-03
 8.50000E+00    2.66566E-03
 9.00000E+00    4.91948E-03
 9.50000E+00    8.92807E-03
 1.00000E+01    1.59280E-02
 1.05000E+01    2.79402E-02
 1.10000E+01    4.94481E-02
 1.15000E+01    8.26670E-02
 1.20000E+01    1.34026E-01
 1.25000E+01    2.09965E-01
 1.30000E+01    3.17430E-01
 1.35000E+01    4.63491E-01
 1.40000E+01    6.55192E-01
 1.45000E+01    8.98934E-01
 1.50000E+01    1.18889E+00
 1.60000E+01    2.05897E+00
 1.70000E+01    3.18382E+00
 1.80000E+01    4.73364E+00
 1.90000E+01    6.89841E+00
 2.00000E+01    1.00535E+01
 2.10000E+01    1.45060E+01
 2.20000E+01    1.91551E+01
 2.30000E+01    2.23350E+01
 2.40000E+01    2.48555E+01
 2.50000E+01    2.24604E+01
 2.60000E+01    2.23251E+01
 2.70000E+01    2.24797E+01
 2.80000E+01    2.28659E+01
 2.90000E+01    2.34216E+01
 3.00000E+01    2.47319E+01
 3.00000E+01    2.46506E+01
 3.20000E+01    2.60521E+01
 3.40000E+01    2.76527E+01
 3.60000E+01    2.88815E+01
 3.80000E+01    3.07331E+01
 4.00000E+01    3.25760E+01
 4.20000E+01    3.44903E+01
 4.40000E+01    3.64199E+01
 4.60000E+01    3.83246E+01
 4.80000E+01    4.01736E+01
 5.00000E+01    4.20687E+01
 5.20000E+01    4.39621E+01
 5.40000E+01    4.57204E+01
 5.60000E+01    4.73329E+01
 5.80000E+01    4.87884E+01
 6.00000E+01    5.01195E+01
 6.50000E+01    5.32421E+01
 7.00000E+01    5.45391E+01
 7.50000E+01    5.41251E+01
 8.00000E+01    5.47264E+01
 9.00000E+01    5.79223E+01
 1.00000E+02    6.13167E+01
 1.10000E+02    6.72166E+01
 1.20000E+02    7.15732E+01
 1.30000E+02    7.36948E+01
 1.40000E+02    7.85833E+01
 1.50000E+02    9.03129E+01
 1.60000E+02    1.05382E+02
 1.80000E+02    1.62476E+02
 2.00000E+02    3.07119E+02
