# n + Dy164 : (n,n'16)  
# jeff3.3    A.J. Koning and D. Rochman        EVAL-DEC15
# uncertainties: n
# # energies =    78
#   E(MeV)       xs(mb) 
 1.31061E+00    0.00000E+00
 1.35428E+00    2.52090E-02
 1.40000E+00    5.16015E-02
 1.40228E+00    5.70904E-02
 1.47955E+00    2.43112E-01
 1.51426E+00    3.26674E-01
 1.59759E+00    5.27284E-01
 1.60000E+00    5.33086E-01
 1.61759E+00    6.20395E-01
 1.66538E+00    8.57604E-01
 1.67530E+00    9.06843E-01
 1.68500E+00    9.54989E-01
 1.69678E+00    1.01346E+00
 1.72676E+00    1.16227E+00
 1.73592E+00    1.20773E+00
 1.74879E+00    1.27162E+00
 1.75664E+00    1.31058E+00
 1.80000E+00    1.52580E+00
 2.00000E+00    2.36486E+00
 2.20000E+00    2.72363E+00
 2.40000E+00    2.64509E+00
 2.60000E+00    2.34662E+00
 2.80000E+00    1.98900E+00
 3.00000E+00    1.64630E+00
 3.20000E+00    1.43385E+00
 3.40000E+00    1.16344E+00
 3.60000E+00    9.41738E-01
 3.80000E+00    7.61572E-01
 4.00000E+00    6.14860E-01
 4.20000E+00    5.01160E-01
 4.40000E+00    4.16718E-01
 4.60000E+00    3.29121E-01
 4.80000E+00    2.59529E-01
 5.00000E+00    2.03692E-01
 5.20000E+00    1.59404E-01
 5.40000E+00    1.24585E-01
 5.60000E+00    9.73263E-02
 5.80000E+00    7.57485E-02
 6.00000E+00    5.91037E-02
 6.20000E+00    4.61986E-02
 6.40000E+00    3.61412E-02
 6.60000E+00    2.83262E-02
 6.80000E+00    2.22962E-02
 7.00000E+00    1.75803E-02
 7.20000E+00    1.39179E-02
 7.40000E+00    1.10402E-02
 7.60000E+00    8.77216E-03
 7.80000E+00    6.99328E-03
 8.00000E+00    5.57678E-03
 8.50000E+00    3.18544E-03
 9.00000E+00    1.83001E-03
 9.50000E+00    1.05775E-03
 1.00000E+01    6.15580E-04
 1.05000E+01    3.60911E-04
 1.10000E+01    2.13183E-04
 1.15000E+01    1.26919E-04
 1.20000E+01    7.61326E-05
 1.25000E+01    4.59763E-05
 1.30000E+01    2.79560E-05
 1.35000E+01    1.70949E-05
 1.40000E+01    1.05268E-05
 1.45000E+01    6.51293E-06
 1.50000E+01    4.05251E-06
 1.60000E+01    1.59540E-06
 1.70000E+01    6.40950E-07
 1.80000E+01    2.61360E-07
 1.90000E+01    1.09170E-07
 2.00000E+01    4.66190E-08
 2.10000E+01    2.02660E-08
 2.20000E+01    8.93310E-09
 2.30000E+01    4.01900E-09
 2.40000E+01    1.83640E-09
 2.50000E+01    8.54180E-10
 2.60000E+01    4.01650E-10
 2.70000E+01    1.90810E-10
 2.80000E+01    9.14890E-11
 2.90000E+01    4.45650E-11
 3.00000E+01    2.19540E-11
