# n + Dy164 : (n,xn)    
# jeff3.3    A.J. Koning and D. Rochman        EVAL-DEC15
# 
# # energies =   134
#   E(MeV)        xs(mb) 
 7.38436E-02    0.00000E+00
 1.00000E-01    2.25702E+02
 2.00000E-01    6.23644E+02
 2.43721E-01    7.52833E+02
 3.00000E-01    9.26136E+02
 4.00000E-01    1.18368E+03
 5.00000E-01    1.40115E+03
 5.04407E-01    1.40909E+03
 6.00000E-01    1.58149E+03
 7.00000E-01    1.72817E+03
 7.66508E-01    1.70364E+03
 8.00000E-01    1.93694E+03
 8.33286E-01    1.95152E+03
 8.48871E-01    1.99169E+03
 9.00000E-01    2.12349E+03
 9.21636E-01    2.13359E+03
 9.82901E-01    2.17300E+03
 1.00000E+00    2.26307E+03
 1.03094E+00    2.26794E+03
 1.04569E+00    2.27117E+03
 1.12968E+00    2.33335E+03
 1.16286E+00    2.36981E+03
 1.17317E+00    2.38115E+03
 1.20000E+00    2.49808E+03
 1.23268E+00    2.51738E+03
 1.26906E+00    2.53968E+03
 1.31061E+00    2.56514E+03
 1.35428E+00    2.59193E+03
 1.40000E+00    2.62036E+03
 1.40228E+00    2.61953E+03
 1.47955E+00    2.64617E+03
 1.51426E+00    2.65814E+03
 1.59759E+00    2.68688E+03
 1.60000E+00    2.69199E+03
 1.61759E+00    2.67502E+03
 1.66538E+00    2.63366E+03
 1.67530E+00    2.62507E+03
 1.68500E+00    2.61910E+03
 1.69678E+00    2.61697E+03
 1.72676E+00    2.61208E+03
 1.73592E+00    2.61377E+03
 1.74879E+00    2.62090E+03
 1.75664E+00    2.63045E+03
 1.80000E+00    2.75297E+03
 2.00000E+00    2.82071E+03
 2.20000E+00    2.86506E+03
 2.40000E+00    2.89402E+03
 2.60000E+00    2.91411E+03
 2.80000E+00    2.93047E+03
 3.00000E+00    2.94361E+03
 3.20000E+00    3.03741E+03
 3.40000E+00    3.03974E+03
 3.60000E+00    3.03466E+03
 3.80000E+00    3.02397E+03
 4.00000E+00    3.00954E+03
 4.20000E+00    2.99282E+03
 4.40000E+00    2.97505E+03
 4.60000E+00    2.95702E+03
 4.80000E+00    2.93927E+03
 5.00000E+00    2.92210E+03
 5.20000E+00    2.90583E+03
 5.40000E+00    2.89059E+03
 5.60000E+00    2.87629E+03
 5.80000E+00    2.86306E+03
 6.00000E+00    2.85080E+03
 6.20000E+00    2.83947E+03
 6.40000E+00    2.82899E+03
 6.60000E+00    2.81917E+03
 6.80000E+00    2.80988E+03
 7.00000E+00    2.80119E+03
 7.20000E+00    2.79300E+03
 7.40000E+00    2.78496E+03
 7.60000E+00    2.77725E+03
 7.80000E+00    2.79730E+03
 8.00000E+00    2.88031E+03
 8.50000E+00    3.25147E+03
 9.00000E+00    3.66690E+03
 9.50000E+00    3.99657E+03
 1.00000E+01    4.21558E+03
 1.05000E+01    4.36842E+03
 1.10000E+01    4.46696E+03
 1.15000E+01    4.53531E+03
 1.20000E+01    4.58078E+03
 1.25000E+01    4.61012E+03
 1.30000E+01    4.62782E+03
 1.35000E+01    4.63768E+03
 1.40000E+01    4.64074E+03
 1.45000E+01    4.64650E+03
 1.50000E+01    4.68350E+03
 1.60000E+01    4.88210E+03
 1.70000E+01    5.18217E+03
 1.80000E+01    5.45711E+03
 1.90000E+01    5.66242E+03
 2.00000E+01    5.78897E+03
 2.10000E+01    5.86053E+03
 2.20000E+01    5.89589E+03
 2.30000E+01    5.91738E+03
 2.40000E+01    5.95759E+03
 2.50000E+01    6.05731E+03
 2.60000E+01    6.19291E+03
 2.70000E+01    6.34219E+03
 2.80000E+01    6.47379E+03
 2.90000E+01    6.58781E+03
 3.00000E+01    6.66522E+03
 3.00000E+01    6.68018E+03
 3.20000E+01    6.82307E+03
 3.40000E+01    6.97958E+03
 3.60000E+01    7.15588E+03
 3.80000E+01    7.31567E+03
 4.00000E+01    7.43974E+03
 4.20000E+01    7.54284E+03
 4.40000E+01    7.65150E+03
 4.60000E+01    7.75380E+03
 4.80000E+01    7.84957E+03
 5.00000E+01    7.93901E+03
 5.20000E+01    8.02851E+03
 5.40000E+01    8.10681E+03
 5.60000E+01    8.19149E+03
 5.80000E+01    8.27095E+03
 6.00000E+01    8.35284E+03
 6.50000E+01    8.55027E+03
 7.00000E+01    8.75078E+03
 7.50000E+01    8.93598E+03
 8.00000E+01    9.13508E+03
 9.00000E+01    9.61599E+03
 1.00000E+02    1.01558E+04
 1.10000E+02    1.06530E+04
 1.20000E+02    1.10870E+04
 1.30000E+02    1.15117E+04
 1.40000E+02    1.19866E+04
 1.50000E+02    1.27784E+04
 1.60000E+02    1.36334E+04
 1.80000E+02    1.55113E+04
 2.00000E+02    1.74537E+04
