# n + Dy164 : (n,n'23)  
# jeff3.3    A.J. Koning and D. Rochman        EVAL-DEC15
# uncertainties: n
# # energies =    69
#   E(MeV)       xs(mb) 
 1.66538E+00    0.00000E+00
 1.67530E+00    3.05710E-05
 1.68500E+00    6.04638E-05
 1.69678E+00    9.67668E-05
 1.72676E+00    1.89158E-04
 1.73592E+00    2.17387E-04
 1.74879E+00    2.57049E-04
 1.75664E+00    2.81240E-04
 1.80000E+00    4.14865E-04
 2.00000E+00    3.25595E-03
 2.20000E+00    9.86501E-03
 2.40000E+00    1.95789E-02
 2.60000E+00    3.05802E-02
 2.80000E+00    4.11452E-02
 3.00000E+00    5.00749E-02
 3.20000E+00    6.25895E-02
 3.40000E+00    6.62223E-02
 3.60000E+00    6.68936E-02
 3.80000E+00    6.51177E-02
 4.00000E+00    6.15072E-02
 4.20000E+00    5.66890E-02
 4.40000E+00    5.11356E-02
 4.60000E+00    4.64378E-02
 4.80000E+00    4.16147E-02
 5.00000E+00    3.54612E-02
 5.20000E+00    3.00304E-02
 5.40000E+00    2.52356E-02
 5.60000E+00    2.10886E-02
 5.80000E+00    1.74943E-02
 6.00000E+00    1.44992E-02
 6.20000E+00    1.19963E-02
 6.40000E+00    9.90964E-03
 6.60000E+00    8.17388E-03
 6.80000E+00    6.75203E-03
 7.00000E+00    5.57080E-03
 7.20000E+00    4.60192E-03
 7.40000E+00    3.79862E-03
 7.60000E+00    3.13276E-03
 7.80000E+00    2.58617E-03
 8.00000E+00    2.13085E-03
 8.50000E+00    1.31002E-03
 9.00000E+00    8.02267E-04
 9.50000E+00    4.90595E-04
 1.00000E+01    3.00237E-04
 1.05000E+01    1.84192E-04
 1.10000E+01    1.13379E-04
 1.15000E+01    7.00955E-05
 1.20000E+01    4.35302E-05
 1.25000E+01    2.71418E-05
 1.30000E+01    1.69994E-05
 1.35000E+01    1.06850E-05
 1.40000E+01    6.75044E-06
 1.45000E+01    4.27758E-06
 1.50000E+01    2.72169E-06
 1.60000E+01    1.11566E-06
 1.70000E+01    4.64480E-07
 1.80000E+01    1.95540E-07
 1.90000E+01    8.40610E-08
 2.00000E+01    3.68520E-08
 2.10000E+01    1.64140E-08
 2.20000E+01    7.39990E-09
 2.30000E+01    3.39930E-09
 2.40000E+01    1.58320E-09
 2.50000E+01    7.49240E-10
 2.60000E+01    3.57820E-10
 2.70000E+01    1.72370E-10
 2.80000E+01    8.36860E-11
 2.90000E+01    4.12300E-11
 3.00000E+01    2.05240E-11
