# n + Dy164 : (n,n'05)  
# jeff3.3    A.J. Koning and D. Rochman        EVAL-DEC15
# uncertainties: n
# # energies =    92
#   E(MeV)       xs(mb) 
 8.33286E-01    0.00000E+00
 8.48871E-01    3.33477E+01
 9.00000E-01    1.42750E+02
 9.21636E-01    1.52121E+02
 9.82901E-01    1.78657E+02
 1.00000E+00    1.86063E+02
 1.03094E+00    1.91573E+02
 1.04569E+00    1.94200E+02
 1.12968E+00    2.09157E+02
 1.16286E+00    2.15066E+02
 1.17317E+00    2.16902E+02
 1.20000E+00    2.21680E+02
 1.23268E+00    2.25929E+02
 1.26906E+00    2.30658E+02
 1.31061E+00    2.36060E+02
 1.35428E+00    2.41737E+02
 1.40000E+00    2.47681E+02
 1.40228E+00    2.47643E+02
 1.47955E+00    2.46336E+02
 1.51426E+00    2.45749E+02
 1.59759E+00    2.44341E+02
 1.60000E+00    2.44300E+02
 1.61759E+00    2.42461E+02
 1.66538E+00    2.37465E+02
 1.67530E+00    2.36427E+02
 1.68500E+00    2.35413E+02
 1.69678E+00    2.34182E+02
 1.72676E+00    2.31047E+02
 1.73592E+00    2.30090E+02
 1.74879E+00    2.28744E+02
 1.75664E+00    2.27923E+02
 1.80000E+00    2.23390E+02
 2.00000E+00    1.63672E+02
 2.20000E+00    1.11775E+02
 2.40000E+00    7.38818E+01
 2.60000E+00    4.86323E+01
 2.80000E+00    3.23565E+01
 3.00000E+00    2.18568E+01
 3.20000E+00    1.54281E+01
 3.40000E+00    1.07089E+01
 3.60000E+00    7.51494E+00
 3.80000E+00    5.40721E+00
 4.00000E+00    3.89367E+00
 4.20000E+00    2.78217E+00
 4.40000E+00    1.99993E+00
 4.60000E+00    1.44265E+00
 4.80000E+00    1.04451E+00
 5.00000E+00    7.59041E-01
 5.20000E+00    5.53747E-01
 5.40000E+00    4.05611E-01
 5.60000E+00    2.98308E-01
 5.80000E+00    2.19382E-01
 6.00000E+00    1.62246E-01
 6.20000E+00    1.20547E-01
 6.40000E+00    8.98637E-02
 6.60000E+00    6.72815E-02
 6.80000E+00    5.06980E-02
 7.00000E+00    3.83472E-02
 7.20000E+00    2.91811E-02
 7.40000E+00    2.22908E-02
 7.60000E+00    1.70865E-02
 7.80000E+00    1.31627E-02
 8.00000E+00    1.01584E-02
 8.50000E+00    5.37825E-03
 9.00000E+00    2.88490E-03
 9.50000E+00    1.56650E-03
 1.00000E+01    8.60887E-04
 1.05000E+01    4.78730E-04
 1.10000E+01    2.69253E-04
 1.15000E+01    1.53177E-04
 1.20000E+01    8.80952E-05
 1.25000E+01    5.11698E-05
 1.30000E+01    3.00170E-05
 1.35000E+01    1.77590E-05
 1.40000E+01    1.06092E-05
 1.45000E+01    6.38416E-06
 1.50000E+01    3.87275E-06
 1.60000E+01    1.45823E-06
 1.70000E+01    5.64190E-07
 1.80000E+01    2.22730E-07
 1.90000E+01    9.04220E-08
 2.00000E+01    3.76370E-08
 2.10000E+01    1.59860E-08
 2.20000E+01    6.89860E-09
 2.30000E+01    3.04440E-09
 2.40000E+01    1.36710E-09
 2.50000E+01    6.26110E-10
 2.60000E+01    2.90380E-10
 2.70000E+01    1.36270E-10
 2.80000E+01    6.46280E-11
 2.90000E+01    3.11650E-11
 3.00000E+01    1.52100E-11
