# n + Dy164 : (n,n'14)  
# jeff3.3    A.J. Koning and D. Rochman        EVAL-DEC15
# uncertainties: n
# # energies =    80
#   E(MeV)       xs(mb) 
 1.23268E+00    0.00000E+00
 1.26906E+00    8.12000E-01
 1.31061E+00    1.73939E+00
 1.35428E+00    2.71410E+00
 1.40000E+00    3.73457E+00
 1.40228E+00    3.82906E+00
 1.47955E+00    7.03145E+00
 1.51426E+00    8.46998E+00
 1.59759E+00    1.19235E+01
 1.60000E+00    1.20234E+01
 1.61759E+00    1.26282E+01
 1.66538E+00    1.42713E+01
 1.67530E+00    1.46123E+01
 1.68500E+00    1.49458E+01
 1.69678E+00    1.53508E+01
 1.72676E+00    1.63816E+01
 1.73592E+00    1.66965E+01
 1.74879E+00    1.71390E+01
 1.75664E+00    1.74089E+01
 1.80000E+00    1.88997E+01
 2.00000E+00    2.00662E+01
 2.20000E+00    1.78685E+01
 2.40000E+00    1.46161E+01
 2.60000E+00    1.15336E+01
 2.80000E+00    8.98807E+00
 3.00000E+00    6.98905E+00
 3.20000E+00    5.63813E+00
 3.40000E+00    4.42412E+00
 3.60000E+00    3.51101E+00
 3.80000E+00    2.82916E+00
 4.00000E+00    2.32250E+00
 4.20000E+00    1.97227E+00
 4.40000E+00    1.70414E+00
 4.60000E+00    1.49730E+00
 4.80000E+00    1.35264E+00
 5.00000E+00    1.25377E+00
 5.20000E+00    1.18948E+00
 5.40000E+00    1.15070E+00
 5.60000E+00    1.12995E+00
 5.80000E+00    1.12085E+00
 6.00000E+00    1.12002E+00
 6.20000E+00    1.12372E+00
 6.40000E+00    1.12943E+00
 6.60000E+00    1.13549E+00
 6.80000E+00    1.14090E+00
 7.00000E+00    1.14479E+00
 7.20000E+00    1.14689E+00
 7.40000E+00    1.14700E+00
 7.60000E+00    1.14518E+00
 7.80000E+00    1.14165E+00
 8.00000E+00    1.13667E+00
 8.50000E+00    1.12027E+00
 9.00000E+00    1.10236E+00
 9.50000E+00    1.08658E+00
 1.00000E+01    1.07447E+00
 1.05000E+01    1.06596E+00
 1.10000E+01    1.06000E+00
 1.15000E+01    1.05516E+00
 1.20000E+01    1.05005E+00
 1.25000E+01    1.04359E+00
 1.30000E+01    1.03508E+00
 1.35000E+01    1.02427E+00
 1.40000E+01    1.01124E+00
 1.45000E+01    9.96389E-01
 1.50000E+01    9.80221E-01
 1.60000E+01    9.46111E-01
 1.70000E+01    9.12536E-01
 1.80000E+01    8.81383E-01
 1.90000E+01    8.53001E-01
 2.00000E+01    8.26929E-01
 2.10000E+01    8.02365E-01
 2.20000E+01    7.78408E-01
 2.30000E+01    7.54327E-01
 2.40000E+01    7.29902E-01
 2.50000E+01    7.05480E-01
 2.60000E+01    6.81704E-01
 2.70000E+01    6.59163E-01
 2.80000E+01    6.38170E-01
 2.90000E+01    6.18720E-01
 3.00000E+01    6.00601E-01
