# n + Dy164 : (n,n'15)  
# jeff3.3    A.J. Koning and D. Rochman        EVAL-DEC15
# uncertainties: n
# # energies =    79
#   E(MeV)       xs(mb) 
 1.26906E+00    0.00000E+00
 1.31061E+00    5.08710E-07
 1.35428E+00    1.04337E-06
 1.40000E+00    1.60313E-06
 1.40228E+00    1.84029E-06
 1.47955E+00    9.87767E-06
 1.51426E+00    1.34881E-05
 1.59759E+00    2.21558E-05
 1.60000E+00    2.24065E-05
 1.61759E+00    3.09966E-05
 1.66538E+00    5.43350E-05
 1.67530E+00    5.91795E-05
 1.68500E+00    6.39164E-05
 1.69678E+00    6.96693E-05
 1.72676E+00    8.43101E-05
 1.73592E+00    8.87834E-05
 1.74879E+00    9.50685E-05
 1.75664E+00    9.89020E-05
 1.80000E+00    1.20077E-04
 2.00000E+00    3.33296E-04
 2.20000E+00    7.01395E-04
 2.40000E+00    1.24555E-03
 2.60000E+00    1.98131E-03
 2.80000E+00    2.92112E-03
 3.00000E+00    4.06654E-03
 3.20000E+00    6.25950E-03
 3.40000E+00    7.98386E-03
 3.60000E+00    9.85103E-03
 3.80000E+00    1.18563E-02
 4.00000E+00    1.40417E-02
 4.20000E+00    1.69637E-02
 4.40000E+00    2.04906E-02
 4.60000E+00    2.42548E-02
 4.80000E+00    2.94863E-02
 5.00000E+00    3.66923E-02
 5.20000E+00    4.65065E-02
 5.40000E+00    5.95476E-02
 5.60000E+00    7.63416E-02
 5.80000E+00    9.72297E-02
 6.00000E+00    1.22392E-01
 6.20000E+00    1.51646E-01
 6.40000E+00    1.84475E-01
 6.60000E+00    2.20038E-01
 6.80000E+00    2.57209E-01
 7.00000E+00    2.94651E-01
 7.20000E+00    3.30996E-01
 7.40000E+00    3.64950E-01
 7.60000E+00    3.95452E-01
 7.80000E+00    4.21762E-01
 8.00000E+00    4.43485E-01
 8.50000E+00    4.78041E-01
 9.00000E+00    4.89561E-01
 9.50000E+00    4.87020E-01
 1.00000E+01    4.78360E-01
 1.05000E+01    4.68788E-01
 1.10000E+01    4.60872E-01
 1.15000E+01    4.55308E-01
 1.20000E+01    4.51723E-01
 1.25000E+01    4.49308E-01
 1.30000E+01    4.47255E-01
 1.35000E+01    4.44992E-01
 1.40000E+01    4.42243E-01
 1.45000E+01    4.38976E-01
 1.50000E+01    4.35300E-01
 1.60000E+01    4.27463E-01
 1.70000E+01    4.20223E-01
 1.80000E+01    4.14534E-01
 1.90000E+01    4.10451E-01
 2.00000E+01    4.07403E-01
 2.10000E+01    4.04590E-01
 2.20000E+01    4.01084E-01
 2.30000E+01    3.95913E-01
 2.40000E+01    3.88561E-01
 2.50000E+01    3.79412E-01
 2.60000E+01    3.69516E-01
 2.70000E+01    3.59964E-01
 2.80000E+01    3.51437E-01
 2.90000E+01    3.44082E-01
 3.00000E+01    3.37624E-01
