# n + Dy164 : (n,n'11)  
# jeff3.3    A.J. Koning and D. Rochman        EVAL-DEC15
# uncertainties: n
# # energies =    84
#   E(MeV)       xs(mb) 
 1.12968E+00    0.00000E+00
 1.16286E+00    1.18958E+01
 1.17317E+00    1.55922E+01
 1.20000E+00    2.52114E+01
 1.23268E+00    2.89583E+01
 1.26906E+00    3.31295E+01
 1.31061E+00    3.78935E+01
 1.35428E+00    4.29005E+01
 1.40000E+00    4.81425E+01
 1.40228E+00    4.83245E+01
 1.47955E+00    5.44926E+01
 1.51426E+00    5.72634E+01
 1.59759E+00    6.39152E+01
 1.60000E+00    6.41076E+01
 1.61759E+00    6.43586E+01
 1.66538E+00    6.50406E+01
 1.67530E+00    6.51822E+01
 1.68500E+00    6.53206E+01
 1.69678E+00    6.54887E+01
 1.72676E+00    6.59165E+01
 1.73592E+00    6.60472E+01
 1.74879E+00    6.62309E+01
 1.75664E+00    6.63429E+01
 1.80000E+00    6.69617E+01
 2.00000E+00    5.59596E+01
 2.20000E+00    4.24873E+01
 2.40000E+00    3.08919E+01
 2.60000E+00    2.21861E+01
 2.80000E+00    1.59477E+01
 3.00000E+00    1.15177E+01
 3.20000E+00    8.62341E+00
 3.40000E+00    6.29186E+00
 3.60000E+00    4.61344E+00
 3.80000E+00    3.39910E+00
 4.00000E+00    2.52497E+00
 4.20000E+00    1.91471E+00
 4.40000E+00    1.42265E+00
 4.60000E+00    1.06068E+00
 4.80000E+00    7.92185E-01
 5.00000E+00    5.92712E-01
 5.20000E+00    4.44424E-01
 5.40000E+00    3.34074E-01
 5.60000E+00    2.51661E-01
 5.80000E+00    1.89305E-01
 6.00000E+00    1.42954E-01
 6.20000E+00    1.08262E-01
 6.40000E+00    8.21544E-02
 6.60000E+00    6.24933E-02
 6.80000E+00    4.77818E-02
 7.00000E+00    3.66205E-02
 7.20000E+00    2.81962E-02
 7.40000E+00    2.17720E-02
 7.60000E+00    1.68493E-02
 7.80000E+00    1.30932E-02
 8.00000E+00    1.01849E-02
 8.50000E+00    5.48343E-03
 9.00000E+00    2.98144E-03
 9.50000E+00    1.63716E-03
 1.00000E+01    9.08287E-04
 1.05000E+01    5.09255E-04
 1.10000E+01    2.88514E-04
 1.15000E+01    1.65218E-04
 1.20000E+01    9.55970E-05
 1.25000E+01    5.58430E-05
 1.30000E+01    3.29360E-05
 1.35000E+01    1.95880E-05
 1.40000E+01    1.17610E-05
 1.45000E+01    7.11161E-06
 1.50000E+01    4.33383E-06
 1.60000E+01    1.64522E-06
 1.70000E+01    6.40840E-07
 1.80000E+01    2.54370E-07
 1.90000E+01    1.03740E-07
 2.00000E+01    4.33540E-08
 2.10000E+01    1.84820E-08
 2.20000E+01    8.00420E-09
 2.30000E+01    3.54390E-09
 2.40000E+01    1.59630E-09
 2.50000E+01    7.33040E-10
 2.60000E+01    3.40800E-10
 2.70000E+01    1.60280E-10
 2.80000E+01    7.61550E-11
 2.90000E+01    3.67870E-11
 3.00000E+01    1.79820E-11
