# n + Dy164 : (n,n'08)  
# jeff3.3    A.J. Koning and D. Rochman        EVAL-DEC15
# uncertainties: n
# # energies =    88
#   E(MeV)       xs(mb) 
 9.82901E-01    0.00000E+00
 1.00000E+00    7.90709E+01
 1.03094E+00    9.40931E+01
 1.04569E+00    1.01255E+02
 1.12968E+00    1.42034E+02
 1.16286E+00    1.58144E+02
 1.17317E+00    1.63149E+02
 1.20000E+00    1.76176E+02
 1.23268E+00    1.81321E+02
 1.26906E+00    1.87049E+02
 1.31061E+00    1.93590E+02
 1.35428E+00    2.00466E+02
 1.40000E+00    2.07664E+02
 1.40228E+00    2.07688E+02
 1.47955E+00    2.08498E+02
 1.51426E+00    2.08863E+02
 1.59759E+00    2.09737E+02
 1.60000E+00    2.09762E+02
 1.61759E+00    2.07152E+02
 1.66538E+00    2.00062E+02
 1.67530E+00    1.98590E+02
 1.68500E+00    1.97151E+02
 1.69678E+00    1.95403E+02
 1.72676E+00    1.90955E+02
 1.73592E+00    1.89596E+02
 1.74879E+00    1.87686E+02
 1.75664E+00    1.86521E+02
 1.80000E+00    1.80088E+02
 2.00000E+00    1.30460E+02
 2.20000E+00    8.85626E+01
 2.40000E+00    5.84855E+01
 2.60000E+00    3.85511E+01
 2.80000E+00    2.56554E+01
 3.00000E+00    1.72931E+01
 3.20000E+00    1.20245E+01
 3.40000E+00    8.31965E+00
 3.60000E+00    5.81895E+00
 3.80000E+00    4.10948E+00
 4.00000E+00    2.97977E+00
 4.20000E+00    2.13873E+00
 4.40000E+00    1.54289E+00
 4.60000E+00    1.11837E+00
 4.80000E+00    8.14326E-01
 5.00000E+00    5.95409E-01
 5.20000E+00    4.37179E-01
 5.40000E+00    3.22308E-01
 5.60000E+00    2.38491E-01
 5.80000E+00    1.76434E-01
 6.00000E+00    1.31161E-01
 6.20000E+00    9.79078E-02
 6.40000E+00    7.32832E-02
 6.60000E+00    5.50357E-02
 6.80000E+00    4.15784E-02
 7.00000E+00    3.15045E-02
 7.20000E+00    2.40031E-02
 7.40000E+00    1.83489E-02
 7.60000E+00    1.40668E-02
 7.80000E+00    1.08348E-02
 8.00000E+00    8.35738E-03
 8.50000E+00    4.41422E-03
 9.00000E+00    2.35970E-03
 9.50000E+00    1.27617E-03
 1.00000E+01    6.98300E-04
 1.05000E+01    3.86604E-04
 1.10000E+01    2.16495E-04
 1.15000E+01    1.22652E-04
 1.20000E+01    7.02669E-05
 1.25000E+01    4.06720E-05
 1.30000E+01    2.37861E-05
 1.35000E+01    1.40361E-05
 1.40000E+01    8.36699E-06
 1.45000E+01    5.02576E-06
 1.50000E+01    3.04396E-06
 1.60000E+01    1.14304E-06
 1.70000E+01    4.41090E-07
 1.80000E+01    1.73670E-07
 1.90000E+01    7.03220E-08
 2.00000E+01    2.92010E-08
 2.10000E+01    1.23760E-08
 2.20000E+01    5.33080E-09
 2.30000E+01    2.34840E-09
 2.40000E+01    1.05290E-09
 2.50000E+01    4.81500E-10
 2.60000E+01    2.23020E-10
 2.70000E+01    1.04530E-10
 2.80000E+01    4.95140E-11
 2.90000E+01    2.38490E-11
 3.00000E+01    1.16250E-11
