# n + Dy164 : (n,n'12)  
# jeff3.3    A.J. Koning and D. Rochman        EVAL-DEC15
# uncertainties: n
# # energies =    83
#   E(MeV)       xs(mb) 
 1.16286E+00    0.00000E+00
 1.17317E+00    1.23709E-02
 1.20000E+00    4.45644E-02
 1.23268E+00    1.97120E-01
 1.26906E+00    3.66949E-01
 1.31061E+00    5.60912E-01
 1.35428E+00    7.64771E-01
 1.40000E+00    9.78200E-01
 1.40228E+00    1.00973E+00
 1.47955E+00    2.07829E+00
 1.51426E+00    2.55830E+00
 1.59759E+00    3.71066E+00
 1.60000E+00    3.74399E+00
 1.61759E+00    4.04607E+00
 1.66538E+00    4.86680E+00
 1.67530E+00    5.03716E+00
 1.68500E+00    5.20374E+00
 1.69678E+00    5.40605E+00
 1.72676E+00    5.92092E+00
 1.73592E+00    6.07823E+00
 1.74879E+00    6.29925E+00
 1.75664E+00    6.43406E+00
 1.80000E+00    7.17871E+00
 2.00000E+00    8.92460E+00
 2.20000E+00    9.08881E+00
 2.40000E+00    8.29121E+00
 2.60000E+00    7.15399E+00
 2.80000E+00    6.01515E+00
 3.00000E+00    5.00518E+00
 3.20000E+00    4.36471E+00
 3.40000E+00    3.62447E+00
 3.60000E+00    3.04336E+00
 3.80000E+00    2.59044E+00
 4.00000E+00    2.24055E+00
 4.20000E+00    2.00461E+00
 4.40000E+00    1.77870E+00
 4.60000E+00    1.60660E+00
 4.80000E+00    1.47757E+00
 5.00000E+00    1.38376E+00
 5.20000E+00    1.31870E+00
 5.40000E+00    1.27696E+00
 5.60000E+00    1.25391E+00
 5.80000E+00    1.24529E+00
 6.00000E+00    1.24865E+00
 6.20000E+00    1.26072E+00
 6.40000E+00    1.27867E+00
 6.60000E+00    1.29992E+00
 6.80000E+00    1.32221E+00
 7.00000E+00    1.34333E+00
 7.20000E+00    1.36169E+00
 7.40000E+00    1.37599E+00
 7.60000E+00    1.38551E+00
 7.80000E+00    1.38991E+00
 8.00000E+00    1.38924E+00
 8.50000E+00    1.36815E+00
 9.00000E+00    1.32697E+00
 9.50000E+00    1.27555E+00
 1.00000E+01    1.22166E+00
 1.05000E+01    1.17022E+00
 1.10000E+01    1.12357E+00
 1.15000E+01    1.08210E+00
 1.20000E+01    1.04501E+00
 1.25000E+01    1.01102E+00
 1.30000E+01    9.78985E-01
 1.35000E+01    9.48153E-01
 1.40000E+01    9.18270E-01
 1.45000E+01    8.89423E-01
 1.50000E+01    8.61888E-01
 1.60000E+01    8.12023E-01
 1.70000E+01    7.70782E-01
 1.80000E+01    7.38616E-01
 1.90000E+01    7.14101E-01
 2.00000E+01    6.94823E-01
 2.10000E+01    6.78352E-01
 2.20000E+01    6.62539E-01
 2.30000E+01    6.45576E-01
 2.40000E+01    6.26660E-01
 2.50000E+01    6.06466E-01
 2.60000E+01    5.86567E-01
 2.70000E+01    5.68413E-01
 2.80000E+01    5.52720E-01
 2.90000E+01    5.39401E-01
 3.00000E+01    5.27778E-01
