# n + Rb 85 : (n,tot)   
# endfb8.0   JNDC FPND WG + S.F. Mughabghab    EVAL-MAR90
# uncertainties: n
# # energies =   171
#   E(MeV)       xs(mb) 
 1.00000E-11    1.68765E+04
 1.00000E-07    6.43562E+03
 4.13990E-07    6.36908E+03
 5.31580E-07    6.35493E+03
 6.82560E-07    6.34236E+03
 8.76420E-07    6.33117E+03
 1.12540E-06    6.32186E+03
 1.44500E-06    6.31573E+03
 1.85540E-06    6.30830E+03
 2.37240E-06    6.29867E+03
 3.05900E-06    6.28966E+03
 3.92790E-06    6.28537E+03
 5.04350E-06    6.28004E+03
 6.47600E-06    6.27320E+03
 8.31530E-06    6.26442E+03
 1.06770E-05    6.25315E+03
 1.37100E-05    6.24149E+03
 1.76030E-05    6.23080E+03
 2.26030E-05    6.21691E+03
 2.92030E-05    6.19930E+03
 3.72670E-05    6.17697E+03
 4.78510E-05    6.14799E+03
 6.14420E-05    6.11078E+03
 7.88930E-05    6.06300E+03
 1.01300E-04    6.00166E+03
 1.30070E-04    5.92333E+03
 1.67020E-04    6.10990E+03
 2.14450E-04    8.22576E+03
 2.75360E-04    5.43694E+03
 3.53580E-04    4.94163E+03
 4.54000E-04    5.62908E+04
 5.82950E-04    1.27902E+04
 7.48520E-04    5.89497E+03
 9.61120E-04    2.11326E+04
 1.23410E-03    3.20495E+04
 1.58460E-03    1.10165E+04
 2.03470E-03    8.14977E+03
 2.24870E-03    3.25370E+04
 2.48520E-03    2.22242E+04
 2.61260E-03    8.87621E+03
 2.74650E-03    1.88732E+04
 3.03540E-03    1.44458E+04
 3.35460E-03    7.92973E+03
 3.70740E-03    1.47758E+04
 4.30740E-03    1.21646E+04
 5.53080E-03    1.03572E+04
 7.10170E-03    1.06169E+04
 9.11880E-03    1.04193E+04
 1.17090E-02    9.98395E+03
 1.50340E-02    9.60822E+03
 1.93050E-02    9.36014E+03
 2.18750E-02    9.23977E+03
 2.35790E-02    9.18218E+03
 2.41760E-02    9.15450E+03
 2.47880E-02    9.11331E+03
 2.60580E-02    9.06756E+03
 2.70000E-02    9.02147E+03
 2.85000E-02    8.93991E+03
 3.18280E-02    8.85183E+03
 3.43070E-02    8.74185E+03
 4.08680E-02    8.61980E+03
 4.63090E-02    8.52641E+03
 5.24750E-02    8.45627E+03
 5.65620E-02    8.37454E+03
 6.73790E-02    8.29951E+03
 7.20000E-02    8.25062E+03
 7.95000E-02    8.21136E+03
 8.25000E-02    8.18755E+03
 8.65170E-02    8.13995E+03
 9.80370E-02    8.08296E+03
 1.11090E-01    8.06388E+03
 1.16790E-01    8.05301E+03
 1.22770E-01    8.04158E+03
 1.29070E-01    8.02956E+03
 1.35690E-01    8.01693E+03
 1.42640E-01    8.00366E+03
 1.49960E-01    7.98970E+03
 1.57640E-01    7.97503E+03
 1.65730E-01    7.95928E+03
 1.74220E-01    7.93982E+03
 1.83160E-01    7.91866E+03
 1.92550E-01    7.89642E+03
 2.02420E-01    7.87304E+03
 2.12800E-01    7.84731E+03
 2.23710E-01    7.81688E+03
 2.35180E-01    7.78467E+03
 2.47240E-01    7.73302E+03
 2.73240E-01    7.67779E+03
 2.87250E-01    7.64476E+03
 2.94520E-01    7.62690E+03
 2.97200E-01    7.61978E+03
 2.98500E-01    7.61125E+03
 3.01970E-01    7.54324E+03
 3.33730E-01    7.40678E+03
 3.68830E-01    7.30177E+03
 3.87740E-01    7.23815E+03
 4.07620E-01    7.13629E+03
 4.50490E-01    7.00053E+03
 4.97870E-01    6.89165E+03
 5.23400E-01    6.79560E+03
 5.50230E-01    6.69307E+03
 5.78440E-01    6.58579E+03
 6.08100E-01    6.48520E+03
 6.39280E-01    6.38456E+03
 6.72060E-01    6.27963E+03
 7.06510E-01    6.17240E+03
 7.42740E-01    6.05994E+03
 7.80820E-01    5.94173E+03
 8.20850E-01    5.81928E+03
 8.62940E-01    5.70239E+03
 9.07180E-01    5.57127E+03
 9.61640E-01    5.44849E+03
 1.00260E+00    5.27912E+03
 1.10800E+00    5.10361E+03
 1.16480E+00    4.98692E+03
 1.22460E+00    4.87695E+03
 1.28730E+00    4.76696E+03
 1.35340E+00    4.66526E+03
 1.42270E+00    4.56265E+03
 1.49570E+00    4.46908E+03
 1.57240E+00    4.37806E+03
 1.65300E+00    4.29327E+03
 1.73770E+00    4.21034E+03
 1.82680E+00    4.13806E+03
 1.92050E+00    4.06450E+03
 2.01900E+00    4.01067E+03
 2.12250E+00    3.96611E+03
 2.23130E+00    3.92730E+03
 2.30690E+00    3.90322E+03
 2.34570E+00    3.89160E+03
 2.36530E+00    3.88482E+03
 2.38520E+00    3.86762E+03
 2.46600E+00    3.83218E+03
 2.59240E+00    3.78772E+03
 2.72530E+00    3.74236E+03
 2.86500E+00    3.69968E+03
 3.01190E+00    3.68051E+03
 3.16640E+00    3.67940E+03
 3.32870E+00    3.67761E+03
 3.67880E+00    3.67598E+03
 4.06570E+00    3.72169E+03
 4.49330E+00    3.77888E+03
 4.72370E+00    3.81963E+03
 4.96590E+00    3.86823E+03
 5.22050E+00    3.93505E+03
 5.48810E+00    4.00617E+03
 5.76950E+00    4.08096E+03
 6.06530E+00    4.15926E+03
 6.37630E+00    4.22486E+03
 6.59240E+00    4.26502E+03
 6.70320E+00    4.32008E+03
 7.04690E+00    4.38383E+03
 7.40820E+00    4.43704E+03
 7.78800E+00    4.48775E+03
 8.18730E+00    4.50390E+03
 8.60710E+00    4.51335E+03
 9.04840E+00    4.49617E+03
 9.51230E+00    4.45969E+03
 1.00000E+01    4.39912E+03
 1.05130E+01    4.31668E+03
 1.10520E+01    4.23570E+03
 1.16180E+01    4.15482E+03
 1.22140E+01    4.05879E+03
 1.28400E+01    3.96012E+03
 1.34990E+01    3.88770E+03
 1.38400E+01    3.84051E+03
 1.41910E+01    3.79569E+03
 1.45500E+01    3.75201E+03
 1.49180E+01    3.68835E+03
 1.56830E+01    3.60406E+03
 1.64870E+01    3.51008E+03
