# n + Rb 85 : (n,el)    
# endfb8.0   JNDC FPND WG + S.F. Mughabghab    EVAL-MAR90
# uncertainties: n
# # energies =   171
#   E(MeV)       xs(mb) 
 1.00000E-11    1.15407E+04
 1.00000E-07    6.25791E+03
 4.13990E-07    6.25418E+03
 5.31580E-07    6.25346E+03
 6.82560E-07    6.25301E+03
 8.76420E-07    6.25244E+03
 1.12540E-06    6.25170E+03
 1.44500E-06    6.25076E+03
 1.85540E-06    6.24956E+03
 2.37240E-06    6.24801E+03
 3.05900E-06    6.24605E+03
 3.92790E-06    6.24381E+03
 5.04350E-06    6.24098E+03
 6.47600E-06    6.23734E+03
 8.31530E-06    6.23267E+03
 1.06770E-05    6.22667E+03
 1.37100E-05    6.21897E+03
 1.76030E-05    6.20908E+03
 2.26030E-05    6.19620E+03
 2.92030E-05    6.17986E+03
 3.72670E-05    6.15915E+03
 4.78510E-05    6.13227E+03
 6.14420E-05    6.09775E+03
 7.88930E-05    6.05344E+03
 1.01300E-04    5.99615E+03
 1.30070E-04    5.91133E+03
 1.67020E-04    5.77860E+03
 2.14450E-04    5.79721E+03
 2.75360E-04    5.42421E+03
 3.53580E-04    4.75828E+03
 4.54000E-04    4.72003E+04
 5.82950E-04    1.01854E+04
 7.48520E-04    5.61187E+03
 9.61120E-04    1.75563E+04
 1.23410E-03    3.07035E+04
 1.58460E-03    9.97564E+03
 2.03470E-03    6.98544E+03
 2.24870E-03    3.13379E+04
 2.48520E-03    2.00452E+04
 2.61260E-03    8.40544E+03
 2.74650E-03    1.73568E+04
 3.03540E-03    1.35960E+04
 3.35460E-03    7.32613E+03
 3.70740E-03    1.42704E+04
 4.30740E-03    1.14188E+04
 5.53080E-03    9.79868E+03
 7.10170E-03    9.98637E+03
 9.11880E-03    9.84529E+03
 1.17090E-02    9.48784E+03
 1.50340E-02    9.18120E+03
 1.93050E-02    8.97979E+03
 2.18750E-02    8.88277E+03
 2.35790E-02    8.83650E+03
 2.41760E-02    8.81431E+03
 2.47880E-02    8.78131E+03
 2.60580E-02    8.74470E+03
 2.70000E-02    8.70788E+03
 2.85000E-02    8.64288E+03
 3.18280E-02    8.57288E+03
 3.43070E-02    8.48573E+03
 4.08680E-02    8.38915E+03
 4.63090E-02    8.31522E+03
 5.24750E-02    8.25957E+03
 5.65620E-02    8.19436E+03
 6.73790E-02    8.13404E+03
 7.20000E-02    8.09442E+03
 7.95000E-02    8.06240E+03
 8.25000E-02    8.04284E+03
 8.65170E-02    8.00342E+03
 9.80370E-02    7.95631E+03
 1.11090E-01    7.94307E+03
 1.16790E-01    7.93578E+03
 1.22770E-01    7.92813E+03
 1.29070E-01    7.92007E+03
 1.35690E-01    7.91161E+03
 1.42640E-01    7.90272E+03
 1.49960E-01    7.89030E+03
 1.57640E-01    7.85371E+03
 1.65730E-01    7.81030E+03
 1.74220E-01    7.76466E+03
 1.83160E-01    7.71667E+03
 1.92550E-01    7.66751E+03
 2.02420E-01    7.62067E+03
 2.12800E-01    7.57191E+03
 2.23710E-01    7.52066E+03
 2.35180E-01    7.46677E+03
 2.47240E-01    7.38090E+03
 2.73240E-01    7.29000E+03
 2.87250E-01    7.24187E+03
 2.94520E-01    7.21940E+03
 2.97200E-01    7.21043E+03
 2.98500E-01    7.19970E+03
 3.01970E-01    7.11142E+03
 3.33730E-01    6.93784E+03
 3.68830E-01    6.81288E+03
 3.87740E-01    6.72885E+03
 4.07620E-01    6.60520E+03
 4.50490E-01    6.44281E+03
 4.97870E-01    6.31192E+03
 5.23400E-01    6.19950E+03
 5.50230E-01    6.06888E+03
 5.78440E-01    5.94024E+03
 6.08100E-01    5.81714E+03
 6.39280E-01    5.69140E+03
 6.72060E-01    5.57178E+03
 7.06510E-01    5.44707E+03
 7.42740E-01    5.31606E+03
 7.80820E-01    5.17966E+03
 8.20850E-01    5.03666E+03
 8.62940E-01    4.88504E+03
 9.07180E-01    4.70013E+03
 9.61640E-01    4.51765E+03
 1.00260E+00    4.27194E+03
 1.10800E+00    4.03094E+03
 1.16480E+00    3.87505E+03
 1.22460E+00    3.72483E+03
 1.28730E+00    3.58764E+03
 1.35340E+00    3.45074E+03
 1.42270E+00    3.31897E+03
 1.49570E+00    3.18590E+03
 1.57240E+00    3.04931E+03
 1.65300E+00    2.91850E+03
 1.73770E+00    2.79283E+03
 1.82680E+00    2.66955E+03
 1.92050E+00    2.55231E+03
 2.01900E+00    2.46513E+03
 2.12250E+00    2.39068E+03
 2.23130E+00    2.33209E+03
 2.30690E+00    2.29648E+03
 2.34570E+00    2.27832E+03
 2.36530E+00    2.26614E+03
 2.38520E+00    2.23739E+03
 2.46600E+00    2.17854E+03
 2.59240E+00    2.10571E+03
 2.72530E+00    2.03666E+03
 2.86500E+00    1.96801E+03
 3.01190E+00    1.94398E+03
 3.16640E+00    1.95174E+03
 3.32870E+00    1.96418E+03
 3.67880E+00    1.98323E+03
 4.06570E+00    2.05949E+03
 4.49330E+00    2.14396E+03
 4.72370E+00    2.20027E+03
 4.96590E+00    2.26170E+03
 5.22050E+00    2.33304E+03
 5.48810E+00    2.40837E+03
 5.76950E+00    2.48350E+03
 6.06530E+00    2.55847E+03
 6.37630E+00    2.61974E+03
 6.59240E+00    2.65750E+03
 6.70320E+00    2.70934E+03
 7.04690E+00    2.77490E+03
 7.40820E+00    2.83426E+03
 7.78800E+00    2.89304E+03
 8.18730E+00    2.92913E+03
 8.60710E+00    2.96182E+03
 9.04840E+00    2.97486E+03
 9.51230E+00    2.97405E+03
 1.00000E+01    3.00419E+03
 1.05130E+01    3.04316E+03
 1.10520E+01    2.94065E+03
 1.16180E+01    2.77069E+03
 1.22140E+01    2.61156E+03
 1.28400E+01    2.48390E+03
 1.34990E+01    2.43133E+03
 1.38400E+01    2.39417E+03
 1.41910E+01    2.33562E+03
 1.45500E+01    2.27885E+03
 1.49180E+01    2.19584E+03
 1.56830E+01    2.08367E+03
 1.64870E+01    1.97369E+03
