# n + S  33 : (n,tot)   
# jendl4.0   H.NAKAMURA                        EVAL-MAY87
# uncertainties: n
# # energies =   171
#   E(MeV)       xs(mb) 
 1.00000E-11    1.15029E+04
 1.00000E-07    3.14709E+03
 4.13990E-07    3.09863E+03
 5.31580E-07    3.08846E+03
 6.82560E-07    3.07955E+03
 8.76420E-07    3.07174E+03
 1.12540E-06    3.06562E+03
 1.44500E-06    3.05938E+03
 1.85540E-06    3.05454E+03
 2.37240E-06    3.05125E+03
 3.05900E-06    3.04700E+03
 3.92790E-06    3.04160E+03
 5.04350E-06    3.03810E+03
 6.47600E-06    3.03631E+03
 8.31530E-06    3.03402E+03
 1.06770E-05    3.03107E+03
 1.37100E-05    3.02728E+03
 1.76030E-05    3.02372E+03
 2.26030E-05    3.02214E+03
 2.92030E-05    3.02024E+03
 3.72670E-05    3.01783E+03
 4.78510E-05    3.01471E+03
 6.14420E-05    3.01071E+03
 7.88930E-05    3.00556E+03
 1.01300E-04    2.99895E+03
 1.30070E-04    2.99162E+03
 1.67020E-04    2.98429E+03
 2.14450E-04    2.97493E+03
 2.75360E-04    2.96290E+03
 3.53580E-04    2.94745E+03
 4.54000E-04    2.92762E+03
 5.82950E-04    2.90234E+03
 7.48520E-04    2.87440E+03
 9.61120E-04    2.84054E+03
 1.23410E-03    2.79765E+03
 1.58460E-03    2.75064E+03
 2.03470E-03    2.71228E+03
 2.24870E-03    2.68791E+03
 2.48520E-03    2.67093E+03
 2.61260E-03    2.65909E+03
 2.74650E-03    2.64010E+03
 3.03540E-03    2.61256E+03
 3.35460E-03    2.58518E+03
 3.70740E-03    2.55105E+03
 4.30740E-03    2.49145E+03
 5.53080E-03    2.41467E+03
 7.10170E-03    2.33312E+03
 9.11880E-03    2.23834E+03
 1.17090E-02    2.75510E+03
 1.50340E-02    2.15514E+03
 1.93050E-02    2.03934E+03
 2.18750E-02    1.84212E+03
 2.35790E-02    7.42875E+03
 2.41760E-02    2.80159E+03
 2.47880E-02    2.28503E+03
 2.60580E-02    2.16519E+03
 2.70000E-02    2.11296E+03
 2.85000E-02    2.05438E+03
 3.18280E-02    2.00068E+03
 3.43070E-02    1.92338E+03
 4.08680E-02    1.77098E+03
 4.63090E-02    2.88715E+03
 5.24750E-02    5.16878E+03
 5.65620E-02    2.26026E+03
 6.73790E-02    1.94395E+03
 7.20000E-02    3.29421E+03
 7.95000E-02    2.79723E+03
 8.25000E-02    2.37583E+03
 8.65170E-02    2.17334E+03
 9.80370E-02    2.03094E+03
 1.11090E-01    1.91991E+03
 1.16790E-01    1.76652E+03
 1.22770E-01    3.25619E+03
 1.29070E-01    2.75399E+03
 1.35690E-01    2.26396E+03
 1.42640E-01    2.15764E+03
 1.49960E-01    2.10193E+03
 1.57640E-01    2.06331E+03
 1.65730E-01    2.02877E+03
 1.74220E-01    1.99414E+03
 1.83160E-01    1.95608E+03
 1.92550E-01    1.89950E+03
 2.02420E-01    1.77324E+03
 2.12800E-01    2.56002E+03
 2.23710E-01    2.57056E+03
 2.35180E-01    2.18801E+03
 2.47240E-01    2.29879E+03
 2.73240E-01    2.49067E+03
 2.87250E-01    2.48626E+03
 2.94520E-01    2.48420E+03
 2.97200E-01    2.48337E+03
 2.98500E-01    2.48239E+03
 3.01970E-01    2.47522E+03
 3.33730E-01    2.46142E+03
 3.68830E-01    2.45032E+03
 3.87740E-01    2.44406E+03
 4.07620E-01    2.44348E+03
 4.50490E-01    2.44466E+03
 4.97870E-01    2.44591E+03
 5.23400E-01    2.45014E+03
 5.50230E-01    2.45554E+03
 5.78440E-01    2.46121E+03
 6.08100E-01    2.46731E+03
 6.39280E-01    2.47599E+03
 6.72060E-01    2.48596E+03
 7.06510E-01    2.49643E+03
 7.42740E-01    2.50744E+03
 7.80820E-01    2.51941E+03
 8.20850E-01    2.53424E+03
 8.62940E-01    2.55019E+03
 9.07180E-01    2.56840E+03
 9.61640E-01    2.58607E+03
 1.00260E+00    2.61278E+03
 1.10800E+00    2.64200E+03
 1.16480E+00    2.66244E+03
 1.22460E+00    2.68392E+03
 1.28730E+00    2.70650E+03
 1.35340E+00    2.72920E+03
 1.42270E+00    2.74994E+03
 1.49570E+00    2.77156E+03
 1.57240E+00    2.79427E+03
 1.65300E+00    2.81814E+03
 1.73770E+00    2.84155E+03
 1.82680E+00    2.86328E+03
 1.92050E+00    2.88608E+03
 2.01900E+00    2.90833E+03
 2.12250E+00    2.92567E+03
 2.23130E+00    2.94035E+03
 2.30690E+00    2.94946E+03
 2.34570E+00    2.95411E+03
 2.36530E+00    2.95724E+03
 2.38520E+00    2.96388E+03
 2.46600E+00    2.97143E+03
 2.59240E+00    2.98016E+03
 2.72530E+00    2.98934E+03
 2.86500E+00    2.99896E+03
 3.01190E+00    3.00228E+03
 3.16640E+00    2.99756E+03
 3.32870E+00    2.98411E+03
 3.67880E+00    2.95240E+03
 4.06570E+00    2.89585E+03
 4.49330E+00    2.84373E+03
 4.72370E+00    2.80778E+03
 4.96590E+00    2.76919E+03
 5.22050E+00    2.72188E+03
 5.48810E+00    2.67187E+03
 5.76950E+00    2.62157E+03
 6.06530E+00    2.56962E+03
 6.37630E+00    2.52445E+03
 6.59240E+00    2.49643E+03
 6.70320E+00    2.45838E+03
 7.04690E+00    2.40187E+03
 7.40820E+00    2.34292E+03
 7.78800E+00    2.28423E+03
 8.18730E+00    2.22624E+03
 8.60710E+00    2.16779E+03
 9.04840E+00    2.11205E+03
 9.51230E+00    2.05617E+03
 1.00000E+01    2.00371E+03
 1.05130E+01    1.95394E+03
 1.10520E+01    1.90769E+03
 1.16180E+01    1.86447E+03
 1.22140E+01    1.82681E+03
 1.28400E+01    1.79386E+03
 1.34990E+01    1.77423E+03
 1.38400E+01    1.76202E+03
 1.41910E+01    1.75306E+03
 1.45500E+01    1.74647E+03
 1.49180E+01    1.74200E+03
 1.56830E+01    1.74246E+03
 1.64870E+01    1.75253E+03
