# n + Pu242 : (n,f)     
# jendl.ad   O.Iwamoto, T.Nakagawa, Murata, +  EVAL-JAN10
# uncertainties: n
# # energies =   171
#   E(MeV)       xs(mb) 
 1.00000E-11    2.60173E+01
 1.00000E-07    9.67939E-01
 4.13990E-07    7.34885E-01
 5.31580E-07    7.13042E-01
 6.82560E-07    7.20612E-01
 8.76420E-07    7.78317E-01
 1.12540E-06    9.46354E-01
 1.44500E-06    1.47057E+00
 1.85540E-06    4.80838E+00
 2.37240E-06    3.46951E+02
 3.05900E-06    2.31151E+00
 3.92790E-06    3.71909E-01
 5.04350E-06    1.48336E-01
 6.47600E-06    8.83514E-02
 8.31530E-06    6.67293E-02
 1.06770E-05    6.61363E-02
 1.37100E-05    2.77581E+00
 1.76030E-05    1.23488E+00
 2.26030E-05    6.35317E-01
 2.92030E-05    9.00584E-02
 3.72670E-05    1.25934E+00
 4.78510E-05    1.47055E+02
 6.14420E-05    2.67151E+01
 7.88930E-05    2.20066E+00
 1.01300E-04    3.16282E+01
 1.30070E-04    2.85479E+01
 1.67020E-04    1.54526E+01
 2.14450E-04    2.37178E+01
 2.75360E-04    1.01527E+01
 3.53580E-04    6.55359E+00
 4.54000E-04    2.40682E+01
 5.82950E-04    2.71424E+01
 7.48520E-04    1.91647E+02
 9.61120E-04    5.91021E+00
 1.23410E-03    8.02882E+00
 1.58460E-03    1.81618E+01
 2.03470E-03    9.90492E+00
 2.24870E-03    5.62697E+00
 2.48520E-03    4.60547E+00
 2.61260E-03    6.30715E+00
 2.74650E-03    1.02321E+01
 3.03540E-03    1.24842E+01
 3.35460E-03    1.18091E+01
 3.70740E-03    1.10189E+01
 4.30740E-03    9.55068E+00
 5.53080E-03    5.85188E+00
 7.10170E-03    5.59253E+00
 9.11880E-03    7.46991E+00
 1.17090E-02    6.98550E+00
 1.50340E-02    6.31581E+00
 1.93050E-02    6.21986E+00
 2.18750E-02    7.12528E+00
 2.35790E-02    7.66029E+00
 2.41760E-02    7.94020E+00
 2.47880E-02    8.39176E+00
 2.60580E-02    8.92957E+00
 2.70000E-02    9.52680E+00
 2.85000E-02    1.05750E+01
 3.18280E-02    1.11945E+01
 3.43070E-02    1.19319E+01
 4.08680E-02    1.28702E+01
 4.63090E-02    1.35397E+01
 5.24750E-02    1.28243E+01
 5.65620E-02    1.15153E+01
 6.73790E-02    1.05082E+01
 7.20000E-02    1.16074E+01
 7.95000E-02    1.28484E+01
 8.25000E-02    1.37027E+01
 8.65170E-02    1.56239E+01
 9.80370E-02    1.81142E+01
 1.11090E-01    1.91823E+01
 1.16790E-01    1.98252E+01
 1.22770E-01    2.04892E+01
 1.29070E-01    2.11576E+01
 1.35690E-01    2.18583E+01
 1.42640E-01    2.25950E+01
 1.49960E-01    2.39542E+01
 1.57640E-01    2.60015E+01
 1.65730E-01    2.82275E+01
 1.74220E-01    3.06542E+01
 1.83160E-01    3.32608E+01
 1.92550E-01    3.60976E+01
 2.02420E-01    3.93415E+01
 2.12800E-01    4.28842E+01
 2.23710E-01    4.67638E+01
 2.35180E-01    5.10073E+01
 2.47240E-01    5.81320E+01
 2.73240E-01    6.61314E+01
 2.87250E-01    7.05581E+01
 2.94520E-01    7.26684E+01
 2.97200E-01    7.35110E+01
 2.98500E-01    7.45188E+01
 3.01970E-01    8.19979E+01
 3.33730E-01    9.71208E+01
 3.68830E-01    1.10153E+02
 3.87740E-01    1.20514E+02
 4.07620E-01    1.51491E+02
 4.50490E-01    2.08467E+02
 4.97870E-01    2.64001E+02
 5.23400E-01    3.09661E+02
 5.50230E-01    3.63079E+02
 5.78440E-01    4.25132E+02
 6.08100E-01    4.83606E+02
 6.39280E-01    5.43912E+02
 6.72060E-01    6.11704E+02
 7.06510E-01    7.02460E+02
 7.42740E-01    8.14508E+02
 7.80820E-01    9.39969E+02
 8.20850E-01    1.05911E+03
 8.62940E-01    1.18798E+03
 9.07180E-01    1.32130E+03
 9.61640E-01    1.44286E+03
 1.00260E+00    1.49924E+03
 1.10800E+00    1.51314E+03
 1.16480E+00    1.52020E+03
 1.22460E+00    1.50145E+03
 1.28730E+00    1.47538E+03
 1.35340E+00    1.44910E+03
 1.42270E+00    1.42367E+03
 1.49570E+00    1.41257E+03
 1.57240E+00    1.42069E+03
 1.65300E+00    1.42928E+03
 1.73770E+00    1.43832E+03
 1.82680E+00    1.44782E+03
 1.92050E+00    1.45751E+03
 2.01900E+00    1.45672E+03
 2.12250E+00    1.45027E+03
 2.23130E+00    1.44466E+03
 2.30690E+00    1.44117E+03
 2.34570E+00    1.43939E+03
 2.36530E+00    1.43819E+03
 2.38520E+00    1.43514E+03
 2.46600E+00    1.42887E+03
 2.59240E+00    1.42099E+03
 2.72530E+00    1.41313E+03
 2.86500E+00    1.40536E+03
 3.01190E+00    1.39408E+03
 3.16640E+00    1.37824E+03
 3.32870E+00    1.35299E+03
 3.67880E+00    1.31942E+03
 4.06570E+00    1.27953E+03
 4.49330E+00    1.24474E+03
 4.72370E+00    1.22250E+03
 4.96590E+00    1.22740E+03
 5.22050E+00    1.27970E+03
 5.48810E+00    1.33542E+03
 5.76950E+00    1.39624E+03
 6.06530E+00    1.52549E+03
 6.37630E+00    1.66420E+03
 6.59240E+00    1.75553E+03
 6.70320E+00    1.88221E+03
 7.04690E+00    1.96730E+03
 7.40820E+00    1.98582E+03
 7.78800E+00    2.00155E+03
 8.18730E+00    1.99150E+03
 8.60710E+00    1.97572E+03
 9.04840E+00    1.95706E+03
 9.51230E+00    1.93348E+03
 1.00000E+01    1.90860E+03
 1.05130E+01    1.88244E+03
 1.10520E+01    1.85563E+03
 1.16180E+01    1.83486E+03
 1.22140E+01    1.87319E+03
 1.28400E+01    1.93101E+03
 1.34990E+01    1.97619E+03
 1.38400E+01    2.00661E+03
 1.41910E+01    2.03410E+03
 1.45500E+01    2.06173E+03
 1.49180E+01    2.10460E+03
 1.56830E+01    2.14626E+03
 1.64870E+01    2.11495E+03
