# n + Cs134 : (n,d)m    
# jendl.ad   N.Iwamoto                         EVAL-Apr14
# uncertainties: n
# # energies =    30
#   E(MeV)       xs(mb) 
 4.57945E+00    0.00000E+00
 6.00000E+00    4.55390E-14
 6.50000E+00    8.27230E-11
 7.00000E+00    8.47160E-09
 7.50000E+00    1.84660E-07
 8.00000E+00    1.60091E-06
 8.50000E+00    7.83345E-06
 9.00000E+00    2.77968E-05
 9.50000E+00    8.93815E-05
 1.00000E+01    2.93348E-04
 1.05000E+01    9.04883E-04
 1.10000E+01    2.76278E-03
 1.15000E+01    6.30883E-03
 1.20000E+01    1.35054E-02
 1.25000E+01    2.66873E-02
 1.30000E+01    4.88255E-02
 1.35000E+01    7.29580E-02
 1.40000E+01    1.16368E-01
 1.45000E+01    1.61651E-01
 1.50000E+01    2.16071E-01
 1.55000E+01    2.87658E-01
 1.60000E+01    3.44884E-01
 1.65000E+01    4.37154E-01
 1.70000E+01    5.42511E-01
 1.75000E+01    6.24672E-01
 1.80000E+01    7.14910E-01
 1.85000E+01    8.41363E-01
 1.90000E+01    9.27562E-01
 1.95000E+01    1.02393E+00
 2.00000E+01    1.09640E+00
