# n + Cs134 : (n,xp)    
# jendl.ad   N.Iwamoto                         EVAL-Apr14
# 
# # energies =   121
#   E(MeV)        xs(mb) 
 1.13287E-02    1.90242E-05
 2.00000E-02    1.82257E-05
 3.00000E-02    1.72923E-05
 4.00000E-02    1.66514E-05
 5.00000E-02    1.61959E-05
 6.00000E-02    1.61592E-05
 6.04822E-02    1.61619E-05
 7.00000E-02    1.51483E-05
 8.00000E-02    1.44771E-05
 9.00000E-02    1.41642E-05
 1.00000E-01    1.40962E-05
 1.05000E-01    1.42023E-05
 1.10000E-01    1.43084E-05
 1.20000E-01    1.46946E-05
 1.30000E-01    1.52044E-05
 1.39789E-01    1.60000E-05
 1.40000E-01    1.60171E-05
 1.50000E-01    1.69588E-05
 1.60000E-01    1.80241E-05
 1.70000E-01    1.92277E-05
 1.75103E-01    1.98500E-05
 1.77733E-01    1.97597E-05
 1.77971E-01    1.95988E-05
 1.80000E-01    1.86480E-05
 1.90000E-01    1.76067E-05
 1.91694E-01    1.75059E-05
 1.95074E-01    1.70682E-05
 1.99272E-01    1.63658E-05
 2.00000E-01    1.59955E-05
 2.11124E-01    1.47668E-05
 2.25000E-01    1.39310E-05
 2.36099E-01    1.36708E-05
 2.50000E-01    1.33449E-05
 2.59045E-01    1.33179E-05
 2.69678E-01    1.33950E-05
 2.73393E-01    1.33072E-05
 2.75000E-01    1.32692E-05
 2.93159E-01    1.34075E-05
 3.00000E-01    1.32283E-05
 3.46953E-01    1.46294E-05
 3.79943E-01    1.64302E-05
 3.85868E-01    1.68127E-05
 4.00000E-01    1.77541E-05
 4.37445E-01    2.12976E-05
 4.37446E-01    2.12977E-05
 4.53629E-01    2.30516E-05
 4.53630E-01    2.30517E-05
 4.54825E-01    2.31830E-05
 4.57508E-01    2.34819E-05
 4.87300E-01    2.68923E-05
 5.00000E-01    2.83702E-05
 5.06629E-01    2.93249E-05
 5.23234E-01    3.17162E-05
 5.43722E-01    3.49764E-05
 5.75127E-01    4.04241E-05
 5.83493E-01    4.19372E-05
 5.88580E-01    4.27263E-05
 6.00000E-01    4.46141E-05
 6.17639E-01    4.81664E-05
 6.26682E-01    5.00787E-05
 6.28707E-01    5.05138E-05
 6.45526E-01    5.42543E-05
 6.48815E-01    5.50103E-05
 6.58221E-01    5.71725E-05
 6.70009E-01    5.99845E-05
 6.81092E-01    6.27798E-05
 6.85827E-01    6.40457E-05
 6.89660E-01    6.50704E-05
 6.93813E-01    6.61807E-05
 7.00000E-01    6.78348E-05
 8.00000E-01    9.83580E-05
 9.00000E-01    1.34577E-04
 1.00000E+00    1.81318E-04
 1.10000E+00    2.41516E-04
 1.20000E+00    3.17904E-04
 1.30000E+00    4.12896E-04
 1.40000E+00    5.31738E-04
 1.50000E+00    6.79210E-04
 1.60000E+00    9.27332E-04
 1.70000E+00    1.14796E-03
 1.80000E+00    1.41545E-03
 1.90000E+00    1.73451E-03
 2.00000E+00    2.11707E-03
 2.25000E+00    3.23541E-03
 2.50000E+00    5.10473E-03
 2.75000E+00    7.48238E-03
 3.00000E+00    1.10258E-02
 3.50000E+00    2.20646E-02
 4.00000E+00    4.03212E-02
 4.50000E+00    6.73301E-02
 5.00000E+00    1.02611E-01
 5.50000E+00    1.45291E-01
 6.00000E+00    1.96310E-01
 6.50000E+00    2.60419E-01
 7.00000E+00    3.47725E-01
 7.50000E+00    4.74388E-01
 8.00000E+00    6.61105E-01
 8.50000E+00    9.27656E-01
 9.00000E+00    1.29493E+00
 9.50000E+00    1.77628E+00
 1.00000E+01    2.38463E+00
 1.05000E+01    3.12280E+00
 1.10000E+01    3.99890E+00
 1.15000E+01    5.00154E+00
 1.20000E+01    6.13709E+00
 1.25000E+01    7.39532E+00
 1.30000E+01    8.77192E+00
 1.35000E+01    1.02720E+01
 1.40000E+01    1.18760E+01
 1.45000E+01    1.36039E+01
 1.50000E+01    1.54370E+01
 1.55000E+01    1.73917E+01
 1.60000E+01    1.94465E+01
 1.65000E+01    2.15988E+01
 1.70000E+01    2.38638E+01
 1.75000E+01    2.62154E+01
 1.80000E+01    2.86831E+01
 1.85000E+01    3.11860E+01
 1.90000E+01    3.37989E+01
 1.95000E+01    3.63939E+01
 2.00000E+01    3.90840E+01
