# n + Cs134 : (n,tot)   
# jendl.ad   N.Iwamoto                         EVAL-Apr14
# uncertainties: n
# # energies =    69
#   E(MeV)       xs(mb) 
 1.00000E-10    9.85409E+05
 5.00000E-09    2.68063E+05
 1.00000E-08    2.02861E+05
 1.50000E-08    1.70332E+05
 2.00000E-08    1.49746E+05
 2.50000E-08    1.35192E+05
 3.00000E-08    1.24176E+05
 3.50000E-08    1.14070E+05
 4.20000E-08    1.04245E+05
 5.00000E-08    9.60441E+04
 5.80000E-08    8.91492E+04
 6.70000E-08    8.21404E+04
 8.00000E-08    7.41728E+04
 1.00000E-07    6.42645E+04
 1.40000E-07    5.51405E+04
 1.80000E-07    4.89678E+04
 2.20000E-07    4.48651E+04
 2.50000E-07    4.20596E+04
 2.80000E-07    4.00400E+04
 3.00000E-07    3.86193E+04
 3.20000E-07    3.70328E+04
 3.50000E-07    3.48344E+04
 4.00000E-07    3.15646E+04
 5.00000E-07    2.78166E+04
 6.25000E-07    2.44186E+04
 7.80000E-07    2.22478E+04
 8.50000E-07    2.12214E+04
 9.10000E-07    2.05076E+04
 9.50000E-07    2.00910E+04
 9.72000E-07    1.97924E+04
 9.96000E-07    1.94918E+04
 1.02000E-06    1.92058E+04
 1.04500E-06    1.89086E+04
 1.07100E-06    1.86076E+04
 1.09700E-06    1.83307E+04
 1.12300E-06    1.80559E+04
 1.15000E-06    1.72098E+04
 1.30000E-06    1.57446E+04
 1.50000E-06    1.33320E+04
 2.10000E-06    1.08379E+04
 2.60000E-06    9.02740E+03
 3.30000E-06    7.48880E+03
 4.00000E-06    4.54240E+03
 9.87700E-06    2.00883E+04
 1.59680E-05    8.61655E+02
 2.77000E-05    4.08614E+03
 4.80520E-05    6.47736E+02
 7.55014E-05    1.65623E+03
 1.48728E-04    6.07230E+03
 3.67262E-04    7.60302E+03
 9.06898E-04    4.57834E+03
 1.42510E-03    3.35611E+03
 2.23945E-03    2.46200E+03
 3.51910E-03    1.82210E+03
 5.53000E-03    1.36972E+03
 9.11800E-03    1.03435E+03
 1.50300E-02    7.42706E+02
 2.47800E-02    5.38315E+02
 4.08500E-02    3.82881E+02
 6.73400E-02    2.46872E+02
 1.11000E-01    1.67299E+02
 1.83000E-01    8.99736E+01
 3.02000E-01    4.26538E+01
 5.00000E-01    2.32174E+01
 8.21000E-01    1.38079E+01
 1.35300E+00    9.29790E+00
 2.23100E+00    6.29482E+00
 3.67900E+00    3.34878E+00
 6.06500E+00    1.60851E+03
