# n + Cs134 : (n,n')o   
# jendl.ad   N.Iwamoto                         EVAL-Apr14
# uncertainties: n
# # energies =   104
#   E(MeV)       xs(mb) 
 1.39789E-01    0.00000E+00
 1.40000E-01    7.48234E-02
 1.50000E-01    6.12088E-01
 1.60000E-01    1.20254E+00
 1.70000E-01    1.79400E+00
 1.75103E-01    2.08703E+00
 1.77733E-01    2.23867E+00
 1.77971E-01    2.25238E+00
 1.80000E-01    2.36937E+00
 1.90000E-01    2.94514E+00
 1.91694E-01    3.03811E+00
 1.95074E-01    3.22352E+00
 1.99272E-01    3.45358E+00
 2.00000E-01    3.49347E+00
 2.11124E-01    4.16411E+00
 2.25000E-01    4.99706E+00
 2.36099E-01    5.66830E+00
 2.50000E-01    6.50059E+00
 2.59045E-01    7.04074E+00
 2.69678E-01    1.92494E+01
 2.73393E-01    2.10127E+01
 2.75000E-01    2.17084E+01
 2.93159E-01    2.78933E+01
 3.00000E-01    2.97153E+01
 3.46953E-01    4.01177E+01
 3.79943E-01    4.76786E+01
 3.85868E-01    4.86617E+01
 4.00000E-01    6.03956E+01
 4.37446E-01    7.54402E+01
 4.53630E-01    8.14401E+01
 4.54825E-01    8.47176E+01
 4.57508E-01    8.78262E+01
 4.87300E-01    1.05550E+02
 5.00000E-01    1.11069E+02
 5.06629E-01    1.14056E+02
 5.23234E-01    1.20897E+02
 5.43722E-01    1.27683E+02
 5.75127E-01    1.36580E+02
 5.83493E-01    1.41511E+02
 5.88580E-01    1.43500E+02
 6.00000E-01    1.47446E+02
 6.17639E-01    1.53709E+02
 6.26682E-01    1.55625E+02
 6.28707E-01    1.56130E+02
 6.45526E-01    1.61717E+02
 6.48815E-01    1.62696E+02
 6.58221E-01    1.65596E+02
 6.70009E-01    1.68633E+02
 6.81092E-01    1.70904E+02
 6.85827E-01    1.71280E+02
 6.89660E-01    1.74629E+02
 6.93813E-01    1.76501E+02
 7.00000E-01    1.78612E+02
 8.00000E-01    2.02235E+02
 9.00000E-01    2.15475E+02
 1.00000E+00    2.24727E+02
 1.10000E+00    2.32176E+02
 1.20000E+00    2.38547E+02
 1.30000E+00    2.43698E+02
 1.40000E+00    2.49445E+02
 1.50000E+00    2.56189E+02
 1.60000E+00    2.63820E+02
 1.70000E+00    2.69504E+02
 1.80000E+00    2.77430E+02
 1.90000E+00    2.87230E+02
 2.00000E+00    2.98484E+02
 2.25000E+00    3.21266E+02
 2.50000E+00    3.59830E+02
 2.75000E+00    3.94315E+02
 3.00000E+00    4.45232E+02
 3.50000E+00    5.27632E+02
 4.00000E+00    5.84104E+02
 4.50000E+00    6.12136E+02
 5.00000E+00    6.19613E+02
 5.50000E+00    6.18347E+02
 6.00000E+00    6.18327E+02
 6.50000E+00    6.25244E+02
 7.00000E+00    6.40541E+02
 7.50000E+00    6.49801E+02
 8.00000E+00    6.36965E+02
 8.50000E+00    5.74060E+02
 9.00000E+00    4.88336E+02
 9.50000E+00    3.89616E+02
 1.00000E+01    3.04488E+02
 1.05000E+01    2.37301E+02
 1.10000E+01    1.84865E+02
 1.15000E+01    1.48780E+02
 1.20000E+01    1.25324E+02
 1.25000E+01    1.03116E+02
 1.30000E+01    8.98006E+01
 1.35000E+01    7.77577E+01
 1.40000E+01    6.94486E+01
 1.45000E+01    6.35594E+01
 1.50000E+01    5.90869E+01
 1.55000E+01    5.55836E+01
 1.60000E+01    5.20573E+01
 1.65000E+01    5.02575E+01
 1.70000E+01    4.76128E+01
 1.75000E+01    4.59850E+01
 1.80000E+01    4.41531E+01
 1.85000E+01    4.28530E+01
 1.90000E+01    4.05448E+01
 1.95000E+01    3.92511E+01
 2.00000E+01    3.80324E+01
