# n + Pu240 : (n,xn)    
# tendl.2019 A.J. Koning and D. Rochman        EVAL-DEC19
# 
# # energies =   145
#   E(MeV)        xs(mb) 
 4.30039E-02    1.00000E-17
 5.00000E-02    6.98937E+01
 1.00000E-01    5.07539E+02
 1.42285E-01    6.98894E+02
 2.00000E-01    9.65036E+02
 2.95556E-01    1.21863E+03
 3.00000E-01    1.23042E+03
 4.00000E-01    1.38330E+03
 4.99460E-01    1.44583E+03
 5.00000E-01    1.44617E+03
 5.99850E-01    1.42650E+03
 6.00000E-01    1.42647E+03
 6.51586E-01    1.44963E+03
 7.00000E-01    1.50551E+03
 7.45449E-01    1.49579E+03
 7.50540E-01    1.49477E+03
 8.00000E-01    1.48487E+03
 8.64327E-01    1.45076E+03
 8.81790E-01    1.45085E+03
 9.00000E-01    1.45095E+03
 9.04103E-01    1.44784E+03
 9.42002E-01    1.44354E+03
 9.62879E-01    1.45724E+03
 9.96570E-01    1.50406E+03
 1.00000E+00    1.50921E+03
 1.00615E+00    1.51127E+03
 1.03488E+00    1.53093E+03
 1.04191E+00    1.53881E+03
 1.04547E+00    1.54401E+03
 1.05000E+00    1.55063E+03
 1.06124E+00    1.55722E+03
 1.08074E+00    1.56866E+03
 1.09403E+00    1.57759E+03
 1.10000E+00    1.58462E+03
 1.12022E+00    1.59386E+03
 1.13570E+00    1.60109E+03
 1.14175E+00    1.60731E+03
 1.14308E+00    1.60958E+03
 1.15000E+00    1.62139E+03
 1.16641E+00    1.63209E+03
 1.18258E+00    1.64271E+03
 1.18546E+00    1.64540E+03
 1.20000E+00    1.66594E+03
 1.20404E+00    1.66891E+03
 1.22813E+00    1.68687E+03
 1.25000E+00    1.75048E+03
 1.30000E+00    1.79488E+03
 1.35000E+00    1.83506E+03
 1.40000E+00    1.87056E+03
 1.50000E+00    1.92718E+03
 1.60000E+00    1.96594E+03
 1.70000E+00    1.99092E+03
 1.80000E+00    2.01102E+03
 1.90000E+00    2.02504E+03
 2.00000E+00    2.03500E+03
 2.10000E+00    2.03878E+03
 2.20000E+00    2.03973E+03
 2.40000E+00    2.04064E+03
 2.60000E+00    2.03212E+03
 2.80000E+00    2.02134E+03
 3.00000E+00    2.01098E+03
 3.20000E+00    2.04576E+03
 3.40000E+00    2.04184E+03
 3.60000E+00    2.04187E+03
 3.80000E+00    2.04431E+03
 4.00000E+00    2.05132E+03
 4.20000E+00    2.05849E+03
 4.40000E+00    2.05310E+03
 4.60000E+00    2.06937E+03
 4.80000E+00    2.09887E+03
 5.00000E+00    1.98353E+03
 5.20000E+00    1.86992E+03
 5.40000E+00    1.75936E+03
 5.60000E+00    1.63250E+03
 5.80000E+00    1.54452E+03
 6.00000E+00    1.44159E+03
 6.20000E+00    1.32449E+03
 6.40000E+00    1.22636E+03
 6.60000E+00    1.13451E+03
 6.80000E+00    1.07357E+03
 7.00000E+00    1.05266E+03
 7.20000E+00    1.07510E+03
 7.40000E+00    1.12805E+03
 7.60000E+00    1.18862E+03
 7.80000E+00    1.25118E+03
 8.00000E+00    1.31430E+03
 8.50000E+00    1.44141E+03
 9.00000E+00    1.51602E+03
 9.50000E+00    1.54778E+03
 1.00000E+01    1.55908E+03
 1.05000E+01    1.58770E+03
 1.10000E+01    1.66769E+03
 1.15000E+01    1.74179E+03
 1.20000E+01    1.79264E+03
 1.25000E+01    1.72219E+03
 1.30000E+01    1.62169E+03
 1.35000E+01    1.46292E+03
 1.40000E+01    1.33125E+03
 1.45000E+01    1.20280E+03
 1.50000E+01    1.10396E+03
 1.60000E+01    1.02185E+03
 1.70000E+01    1.05766E+03
 1.80000E+01    1.18194E+03
 1.90000E+01    1.30179E+03
 2.00000E+01    1.34145E+03
 2.10000E+01    1.30539E+03
 2.20000E+01    1.27528E+03
 2.30000E+01    1.30025E+03
 2.40000E+01    1.38564E+03
 2.50000E+01    1.52875E+03
 2.60000E+01    1.67768E+03
 2.70000E+01    1.77821E+03
 2.80000E+01    1.83738E+03
 2.90000E+01    1.82812E+03
 3.00000E+01    1.77831E+03
 3.00000E+01    1.34008E+03
 3.20000E+01    1.31344E+03
 3.40000E+01    1.26202E+03
 3.60000E+01    1.21980E+03
 3.80000E+01    1.18883E+03
 4.00000E+01    1.16973E+03
 4.20000E+01    1.16583E+03
 4.40000E+01    1.17176E+03
 4.60000E+01    1.18846E+03
 4.80000E+01    1.21352E+03
 5.00000E+01    1.23611E+03
 5.20000E+01    1.26565E+03
 5.40000E+01    1.29023E+03
 5.60000E+01    1.31426E+03
 5.80000E+01    1.34678E+03
 6.00000E+01    1.37801E+03
 6.50000E+01    1.47377E+03
 7.00000E+01    1.58244E+03
 7.50000E+01    1.68274E+03
 8.00000E+01    1.78190E+03
 9.00000E+01    2.07644E+03
 1.00000E+02    2.55158E+03
 1.10000E+02    2.84928E+03
 1.20000E+02    3.14789E+03
 1.30000E+02    3.58313E+03
 1.40000E+02    3.89145E+03
 1.50000E+02    4.04145E+03
 1.60000E+02    4.15636E+03
 1.80000E+02    4.73847E+03
 2.00000E+02    5.64400E+03
