# n + Pu240 : (n,n'26)  
# tendl.2019 A.J. Koning and D. Rochman        EVAL-DEC19
# uncertainties: n
# # energies =    76
#   E(MeV)       xs(mb) 
 1.16641E+00    0.00000E+00
 1.18258E+00    7.52071E-02
 1.18546E+00    8.86019E-02
 1.20000E+00    1.56228E-01
 1.20404E+00    1.78424E-01
 1.22813E+00    3.10777E-01
 1.25000E+00    4.30933E-01
 1.30000E+00    7.53062E-01
 1.35000E+00    1.10154E+00
 1.40000E+00    1.46322E+00
 1.50000E+00    2.17129E+00
 1.60000E+00    2.78951E+00
 1.70000E+00    3.25528E+00
 1.80000E+00    3.54648E+00
 1.90000E+00    3.67629E+00
 2.00000E+00    3.67575E+00
 2.10000E+00    3.57910E+00
 2.20000E+00    3.41731E+00
 2.40000E+00    2.98519E+00
 2.60000E+00    2.49850E+00
 2.80000E+00    2.01721E+00
 3.00000E+00    1.57606E+00
 3.20000E+00    1.21325E+00
 3.40000E+00    9.00186E-01
 3.60000E+00    6.53747E-01
 3.80000E+00    4.67226E-01
 4.00000E+00    3.30020E-01
 4.20000E+00    2.33779E-01
 4.40000E+00    1.62072E-01
 4.60000E+00    1.11599E-01
 4.80000E+00    7.63857E-02
 5.00000E+00    5.20337E-02
 5.20000E+00    3.52408E-02
 5.40000E+00    2.38441E-02
 5.60000E+00    1.61385E-02
 5.80000E+00    1.09484E-02
 6.00000E+00    7.42525E-03
 6.20000E+00    5.08078E-03
 6.40000E+00    3.48065E-03
 6.60000E+00    2.39850E-03
 6.80000E+00    1.66268E-03
 7.00000E+00    1.15553E-03
 7.20000E+00    8.10955E-04
 7.40000E+00    5.70487E-04
 7.60000E+00    4.03827E-04
 7.80000E+00    2.87361E-04
 8.00000E+00    2.04955E-04
 8.50000E+00    9.02528E-05
 9.00000E+00    4.08079E-05
 9.50000E+00    1.89101E-05
 1.00000E+01    8.96825E-06
 1.05000E+01    4.34840E-06
 1.10000E+01    2.15356E-06
 1.15000E+01    1.08871E-06
 1.20000E+01    5.61310E-07
 1.25000E+01    2.95000E-07
 1.30000E+01    1.57880E-07
 1.35000E+01    8.59610E-08
 1.40000E+01    4.75990E-08
 1.45000E+01    2.67620E-08
 1.50000E+01    1.52730E-08
 1.60000E+01    5.16720E-09
 1.70000E+01    1.84900E-09
 1.80000E+01    6.95160E-10
 1.90000E+01    2.73360E-10
 2.00000E+01    1.11870E-10
 2.10000E+01    4.76500E-11
 2.20000E+01    2.10360E-11
 2.30000E+01    9.59220E-12
 2.40000E+01    4.51430E-12
 2.50000E+01    2.18700E-12
 2.60000E+01    1.09090E-12
 2.70000E+01    5.61490E-13
 2.80000E+01    2.96180E-13
 2.90000E+01    1.60220E-13
 3.00000E+01    8.87620E-14
