# n + Yb168 : (n,tot)   
# jendl.ad   kunieda                           EVAL-Mar14
# uncertainties: n
# # energies =    69
#   E(MeV)       xs(mb) 
 1.00000E-10    1.48179E+07
 5.00000E-09    4.12181E+06
 1.00000E-08    3.17706E+06
 1.50000E-08    2.71620E+06
 2.00000E-08    2.43141E+06
 2.50000E-08    2.23551E+06
 3.00000E-08    2.09137E+06
 3.50000E-08    1.96401E+06
 4.20000E-08    1.84551E+06
 5.00000E-08    1.75258E+06
 5.80000E-08    1.68082E+06
 6.70000E-08    1.61647E+06
 8.00000E-08    1.55773E+06
 1.00000E-07    1.52473E+06
 1.40000E-07    1.56895E+06
 1.80000E-07    1.69787E+06
 2.20000E-07    1.88182E+06
 2.50000E-07    2.10516E+06
 2.80000E-07    2.35088E+06
 3.00000E-07    2.59953E+06
 3.20000E-07    2.99880E+06
 3.50000E-07    3.95346E+06
 4.00000E-07    8.71858E+06
 5.00000E-07    6.99371E+07
 6.25000E-07    2.21863E+07
 7.80000E-07    2.86540E+06
 8.50000E-07    1.61492E+06
 9.10000E-07    1.12511E+06
 9.50000E-07    9.23747E+05
 9.72000E-07    8.08162E+05
 9.96000E-07    7.08416E+05
 1.02000E-06    6.23592E+05
 1.04500E-06    5.49898E+05
 1.07100E-06    4.86909E+05
 1.09700E-06    4.33748E+05
 1.12300E-06    3.87679E+05
 1.15000E-06    2.81847E+05
 1.30000E-06    1.62067E+05
 1.50000E-06    6.98485E+04
 2.10000E-06    2.69347E+04
 2.60000E-06    1.35986E+04
 3.30000E-06    7.30927E+03
 4.00000E-06    5.92072E+03
 9.87700E-06    1.46677E+03
 1.59680E-05    2.94007E+05
 2.77000E-05    8.08780E+02
 4.80520E-05    3.51767E+01
 7.55014E-05    1.51838E+01
 1.48728E-04    2.52206E+04
 3.67262E-04    1.49364E+04
 9.06898E-04    8.79913E+03
 1.42510E-03    6.25682E+03
 2.23945E-03    4.46115E+03
 3.51910E-03    3.20261E+03
 5.53000E-03    2.32493E+03
 9.11800E-03    1.75439E+03
 1.50300E-02    1.37804E+03
 2.47800E-02    1.12503E+03
 4.08500E-02    9.50789E+02
 6.73400E-02    8.05517E+02
 1.11000E-01    6.20878E+02
 1.83000E-01    5.15663E+02
 3.02000E-01    4.83452E+02
 5.00000E-01    5.10859E+02
 8.21000E-01    5.91126E+02
 1.35300E+00    5.10252E+02
 2.23100E+00    3.66473E+02
 3.67900E+00    1.41344E+02
 6.06500E+00    2.09968E+03
