# n + Yb168 : (n,g)     
# jendl.ad   kunieda                           EVAL-Mar14
# uncertainties: n
# # energies =    69
#   E(MeV)       xs(mb) 
 1.00000E-10    1.48126E+07
 5.00000E-09    4.12131E+06
 1.00000E-08    3.17696E+06
 1.50000E-08    2.71622E+06
 2.00000E-08    2.43144E+06
 2.50000E-08    2.23545E+06
 3.00000E-08    2.09136E+06
 3.50000E-08    1.96397E+06
 4.20000E-08    1.84545E+06
 5.00000E-08    1.75254E+06
 5.80000E-08    1.68082E+06
 6.70000E-08    1.61652E+06
 8.00000E-08    1.55766E+06
 1.00000E-07    1.52472E+06
 1.40000E-07    1.56895E+06
 1.80000E-07    1.69787E+06
 2.20000E-07    1.88185E+06
 2.50000E-07    2.10514E+06
 2.80000E-07    2.35082E+06
 3.00000E-07    2.59941E+06
 3.20000E-07    2.99865E+06
 3.50000E-07    3.95336E+06
 4.00000E-07    8.71812E+06
 5.00000E-07    6.99377E+07
 6.25000E-07    2.21794E+07
 7.80000E-07    2.86446E+06
 8.50000E-07    1.61433E+06
 9.10000E-07    1.12484E+06
 9.50000E-07    9.23447E+05
 9.72000E-07    8.07965E+05
 9.96000E-07    7.08055E+05
 1.02000E-06    6.23292E+05
 1.04500E-06    5.49655E+05
 1.07100E-06    4.86709E+05
 1.09700E-06    4.33634E+05
 1.12300E-06    3.87626E+05
 1.15000E-06    2.81828E+05
 1.30000E-06    1.62016E+05
 1.50000E-06    6.98493E+04
 2.10000E-06    2.69351E+04
 2.60000E-06    1.36007E+04
 3.30000E-06    7.31049E+03
 4.00000E-06    5.92082E+03
 9.87700E-06    1.46697E+03
 1.59680E-05    2.93994E+05
 2.77000E-05    8.08884E+02
 4.80520E-05    3.51807E+01
 7.55014E-05    1.51841E+01
 1.48728E-04    2.52137E+04
 3.67262E-04    1.49336E+04
 9.06898E-04    8.79712E+03
 1.42510E-03    6.25546E+03
 2.23945E-03    4.45982E+03
 3.51910E-03    3.20197E+03
 5.53000E-03    2.32457E+03
 9.11800E-03    1.75403E+03
 1.50300E-02    1.37787E+03
 2.47800E-02    1.12471E+03
 4.08500E-02    9.50620E+02
 6.73400E-02    8.05394E+02
 1.11000E-01    6.20810E+02
 1.83000E-01    5.15703E+02
 3.02000E-01    4.83602E+02
 5.00000E-01    5.11140E+02
 8.21000E-01    5.91196E+02
 1.35300E+00    5.10281E+02
 2.23100E+00    3.66505E+02
 3.67900E+00    1.41326E+02
 6.06500E+00    1.95316E+01
