# n + U 233 : (n,n'22)  
# jendl4.0   O.Iwamoto,N.Otuka,S.Chiba,et al.  EVAL-JAN10
# uncertainties: y
# # energies =    63
#   E(MeV)       xs(mb)       xslow(mb)      xsupp(mb)
 4.99151E-01    0.00000E+00    0.00000E+00    0.00000E+00
 5.00000E-01    6.89967E-02    4.13290E-02    9.66644E-02
 5.05800E-01    2.20779E-01    1.32247E-01    3.09311E-01
 5.19790E-01    5.03523E-01    3.01610E-01    7.05436E-01
 5.24259E-01    5.92922E-01    3.55160E-01    8.30684E-01
 5.48906E-01    1.09805E+00    6.57732E-01    1.53837E+00
 5.64031E-01    1.40951E+00    8.44296E-01    1.97472E+00
 5.69454E-01    1.51931E+00    9.10067E-01    2.12855E+00
 5.74476E-01    1.62016E+00    9.70476E-01    2.26984E+00
 5.77489E-01    1.68084E+00    1.00682E+00    2.35486E+00
 6.00000E-01    2.12408E+00    1.27232E+00    2.97584E+00
 7.00000E-01    3.73401E+00    2.23667E+00    5.23135E+00
 8.00000E-01    4.75969E+00    2.74158E+00    6.77780E+00
 9.00000E-01    5.23294E+00    3.01417E+00    7.45171E+00
 1.00000E+00    5.59249E+00    3.37786E+00    7.80712E+00
 1.10000E+00    5.52420E+00    3.33662E+00    7.71178E+00
 1.20000E+00    5.28310E+00    3.37062E+00    7.19558E+00
 1.30000E+00    4.93338E+00    3.14750E+00    6.71926E+00
 1.40000E+00    4.52407E+00    2.88636E+00    6.16178E+00
 1.50000E+00    4.08789E+00    2.81656E+00    5.35922E+00
 1.60000E+00    3.67413E+00    2.53148E+00    4.81678E+00
 1.70000E+00    3.27774E+00    2.25836E+00    4.29712E+00
 1.80000E+00    2.92178E+00    2.01311E+00    3.83045E+00
 1.90000E+00    2.57952E+00    1.77729E+00    3.38175E+00
 2.00000E+00    2.26594E+00    1.73344E+00    2.79844E+00
 2.30000E+00    1.47101E+00    1.12532E+00    1.81670E+00
 2.50000E+00    1.08703E+00    9.12018E-01    1.26204E+00
 2.70000E+00    8.88766E-01    7.45675E-01    1.03186E+00
 3.00000E+00    7.03872E-01    6.40312E-01    7.67432E-01
 3.50000E+00    5.93661E-01    5.61900E-01    6.25422E-01
 4.00000E+00    5.94238E-01    5.71182E-01    6.17294E-01
 4.50000E+00    6.24981E-01    6.00732E-01    6.49230E-01
 5.00000E+00    6.54329E-01    6.35812E-01    6.72847E-01
 5.50000E+00    6.78036E-01    6.58848E-01    6.97224E-01
 6.00000E+00    7.00705E-01    6.84519E-01    7.16891E-01
 6.50000E+00    7.17357E-01    7.00786E-01    7.33928E-01
 7.00000E+00    7.27559E-01    7.12644E-01    7.42474E-01
 7.50000E+00    7.26780E-01    7.11881E-01    7.41679E-01
 8.00000E+00    7.18811E-01    7.05225E-01    7.32397E-01
 8.50000E+00    7.04603E-01    6.91286E-01    7.17920E-01
 9.00000E+00    6.86480E-01    6.74535E-01    6.98425E-01
 9.50000E+00    6.65072E-01    6.53500E-01    6.76644E-01
 1.00000E+01    6.40528E-01    6.30344E-01    6.50712E-01
 1.05000E+01    6.13221E-01    6.03471E-01    6.22971E-01
 1.10000E+01    5.83804E-01    5.74521E-01    5.93086E-01
 1.15000E+01    5.53089E-01    5.44295E-01    5.61883E-01
 1.20000E+01    5.21940E-01    5.14268E-01    5.29613E-01
 1.25000E+01    4.91024E-01    4.83806E-01    4.98242E-01
 1.30000E+01    4.60744E-01    4.53971E-01    4.67517E-01
 1.35000E+01    4.31528E-01    4.25185E-01    4.37871E-01
 1.40000E+01    4.03516E-01    3.97504E-01    4.09528E-01
 1.45000E+01    3.76952E-01    3.71335E-01    3.82569E-01
 1.50000E+01    3.51952E-01    3.46638E-01    3.57266E-01
 1.55000E+01    3.28705E-01    3.23742E-01    3.33668E-01
 1.60000E+01    3.07226E-01    3.02464E-01    3.11988E-01
 1.65000E+01    2.87593E-01    2.83135E-01    2.92051E-01
 1.70000E+01    2.69753E-01    2.65572E-01    2.73934E-01
 1.75000E+01    2.53704E-01    2.49772E-01    2.57636E-01
 1.80000E+01    2.39322E-01    2.35469E-01    2.43175E-01
 1.85000E+01    2.26527E-01    2.22880E-01    2.30174E-01
 1.90000E+01    2.15170E-01    2.11706E-01    2.18634E-01
 1.95000E+01    2.05132E-01    2.01829E-01    2.08435E-01
 2.00000E+01    1.96267E-01    1.93107E-01    1.99427E-01
