# n + U 233 : (n,el)    
# jendl4.0   O.Iwamoto,N.Otuka,S.Chiba,et al.  EVAL-JAN10
# uncertainties: y
# # energies =    69
#   E(MeV)       xs(mb)       xslow(mb)      xsupp(mb)
 1.00000E-10    1.38084E+04    1.38084E+04    1.38084E+04
 5.00000E-09    1.22661E+04    1.22661E+04    1.22661E+04
 1.00000E-08    1.22197E+04    1.22197E+04    1.22197E+04
 1.50000E-08    1.21983E+04    1.21983E+04    1.21983E+04
 2.00000E-08    1.21842E+04    1.21842E+04    1.21842E+04
 2.50000E-08    1.21736E+04    1.21736E+04    1.21736E+04
 3.00000E-08    1.21652E+04    1.21652E+04    1.21652E+04
 3.50000E-08    1.21553E+04    1.21553E+04    1.21553E+04
 4.20000E-08    1.21445E+04    1.21445E+04    1.21445E+04
 5.00000E-08    1.21342E+04    1.21342E+04    1.21342E+04
 5.80000E-08    1.21233E+04    1.21233E+04    1.21233E+04
 6.70000E-08    1.21093E+04    1.21093E+04    1.21093E+04
 8.00000E-08    1.20883E+04    1.20883E+04    1.20883E+04
 1.00000E-07    1.20507E+04    1.20507E+04    1.20507E+04
 1.40000E-07    1.20012E+04    1.20012E+04    1.20012E+04
 1.80000E-07    1.19661E+04    1.19661E+04    1.19661E+04
 2.20000E-07    1.19402E+04    1.19402E+04    1.19402E+04
 2.50000E-07    1.19145E+04    1.19145E+04    1.19145E+04
 2.80000E-07    1.18890E+04    1.18890E+04    1.18890E+04
 3.00000E-07    1.18686E+04    1.18686E+04    1.18686E+04
 3.20000E-07    1.18433E+04    1.18433E+04    1.18433E+04
 3.50000E-07    1.18019E+04    1.18019E+04    1.18019E+04
 4.00000E-07    1.17236E+04    1.17236E+04    1.17236E+04
 5.00000E-07    1.16016E+04    1.16016E+04    1.16016E+04
 6.25000E-07    1.14164E+04    1.14164E+04    1.14164E+04
 7.80000E-07    1.12348E+04    1.12348E+04    1.12348E+04
 8.50000E-07    1.11226E+04    1.11226E+04    1.11226E+04
 9.10000E-07    1.10317E+04    1.10317E+04    1.10317E+04
 9.50000E-07    1.09738E+04    1.09738E+04    1.09738E+04
 9.72000E-07    1.09289E+04    1.09289E+04    1.09289E+04
 9.96000E-07    1.08818E+04    1.08818E+04    1.08818E+04
 1.02000E-06    1.08321E+04    1.08321E+04    1.08321E+04
 1.04500E-06    1.07785E+04    1.07785E+04    1.07785E+04
 1.07100E-06    1.07238E+04    1.07238E+04    1.07238E+04
 1.09700E-06    1.06681E+04    1.06681E+04    1.06681E+04
 1.12300E-06    1.06091E+04    1.06091E+04    1.06091E+04
 1.15000E-06    1.04151E+04    1.04151E+04    1.04151E+04
 1.30000E-06    1.00947E+04    1.00947E+04    1.00947E+04
 1.50000E-06    1.20187E+04    1.20187E+04    1.20187E+04
 2.10000E-06    1.44718E+04    1.44718E+04    1.44718E+04
 2.60000E-06    1.27829E+04    1.27829E+04    1.27829E+04
 3.30000E-06    1.23019E+04    1.23019E+04    1.23019E+04
 4.00000E-06    1.17669E+04    1.17669E+04    1.17669E+04
 9.87700E-06    1.21843E+04    1.21843E+04    1.21843E+04
 1.59680E-05    1.26702E+04    1.26702E+04    1.26702E+04
 2.77000E-05    1.22667E+04    1.22667E+04    1.22667E+04
 4.80520E-05    1.16394E+04    1.16394E+04    1.16394E+04
 7.55014E-05    1.22919E+04    1.22919E+04    1.22919E+04
 1.48728E-04    1.19404E+04    1.19404E+04    1.19404E+04
 3.67262E-04    1.19943E+04    1.19943E+04    1.19943E+04
 9.06898E-04    1.22342E+04    1.07049E+04    1.37634E+04
 1.42510E-03    1.19113E+04    1.04224E+04    1.34002E+04
 2.23945E-03    1.18458E+04    1.03769E+04    1.33147E+04
 3.51910E-03    1.15185E+04    1.00902E+04    1.29467E+04
 5.53000E-03    1.18811E+04    1.04316E+04    1.33306E+04
 9.11800E-03    1.16404E+04    1.02436E+04    1.30373E+04
 1.50300E-02    1.14075E+04    1.00615E+04    1.27536E+04
 2.47800E-02    1.11201E+04    9.86354E+03    1.23767E+04
 4.08500E-02    1.04456E+04    9.35927E+03    1.15320E+04
 6.73400E-02    9.67142E+03    8.76038E+03    1.05825E+04
 1.11000E-01    8.61155E+03    7.95621E+03    9.26689E+03
 1.83000E-01    7.53747E+03    6.96386E+03    8.11107E+03
 3.02000E-01    6.23595E+03    6.08691E+03    6.38499E+03
 5.00000E-01    4.70703E+03    4.63454E+03    4.77952E+03
 8.21000E-01    3.72074E+03    3.63367E+03    3.80780E+03
 1.35300E+00    3.56022E+03    3.43988E+03    3.68055E+03
 2.23100E+00    4.37146E+03    4.20273E+03    4.54020E+03
 3.67900E+00    4.55065E+03    4.42460E+03    4.67670E+03
 6.06500E+00    3.34220E+03    3.16908E+03    3.51533E+03
