# n + Ni 62 : (n,xa)    
# tendl.2019 A.J. Koning and D. Rochman        EVAL-NOV19
# 
# # energies =   124
#   E(MeV)        xs(mb) 
 1.19208E+00    0.00000E+00
 1.20000E+00    0.00000E+00
 1.40000E+00    0.00000E+00
 1.60000E+00    0.00000E+00
 1.80000E+00    0.00000E+00
 2.00000E+00    1.38320E-15
 2.08205E+00    3.79270E-14
 2.20000E+00    9.04600E-14
 2.33933E+00    2.01101E-12
 2.37458E+00    2.49690E-12
 2.40000E+00    2.84730E-12
 2.60000E+00    7.43950E-11
 2.80000E+00    9.64670E-10
 2.93771E+00    6.29799E-09
 3.00000E+00    8.71040E-09
 3.10858E+00    3.69247E-08
 3.20000E+00    6.06800E-08
 3.20940E+00    7.22043E-08
 3.22844E+00    9.55474E-08
 3.31068E+00    1.96373E-07
 3.31513E+00    2.01829E-07
 3.32323E+00    2.11760E-07
 3.33108E+00    2.21384E-07
 3.40000E+00    3.05880E-07
 3.42487E+00    4.17146E-07
 3.43302E+00    4.53607E-07
 3.51839E+00    8.35545E-07
 3.54278E+00    9.44663E-07
 3.57553E+00    1.09118E-06
 3.57991E+00    1.11078E-06
 3.58180E+00    1.11924E-06
 3.60000E+00    1.20066E-06
 3.80000E+00    4.32868E-06
 3.81768E+00    5.18473E-06
 3.91210E+00    9.75647E-06
 3.92246E+00    1.02581E-05
 4.00000E+00    1.40125E-05
 4.03161E+00    1.81561E-05
 4.03761E+00    1.89426E-05
 4.06566E+00    2.26195E-05
 4.07633E+00    2.40182E-05
 4.08434E+00    2.50682E-05
 4.10072E+00    2.72153E-05
 4.12135E+00    2.99196E-05
 4.12857E+00    3.08661E-05
 4.20000E+00    4.02294E-05
 4.40000E+00    1.03989E-04
 4.60000E+00    3.01597E-04
 4.80000E+00    7.13290E-04
 5.00000E+00    1.28720E-03
 5.20000E+00    3.51324E-03
 5.40000E+00    6.42587E-03
 5.60000E+00    1.21014E-02
 5.80000E+00    2.35445E-02
 6.00000E+00    3.78513E-02
 6.20000E+00    6.71123E-02
 6.40000E+00    1.07899E-01
 6.60000E+00    1.61838E-01
 6.80000E+00    2.49620E-01
 7.00000E+00    3.55204E-01
 7.20000E+00    5.06633E-01
 7.40000E+00    7.03141E-01
 7.60000E+00    9.32238E-01
 7.80000E+00    1.23420E+00
 8.00000E+00    1.57400E+00
 8.50000E+00    2.64500E+00
 9.00000E+00    3.94266E+00
 9.50000E+00    5.33535E+00
 1.00000E+01    6.75066E+00
 1.05000E+01    8.21007E+00
 1.10000E+01    9.77817E+00
 1.15000E+01    1.15762E+01
 1.20000E+01    1.34889E+01
 1.25000E+01    1.55056E+01
 1.30000E+01    1.76259E+01
 1.35000E+01    1.97824E+01
 1.40000E+01    2.20065E+01
 1.45000E+01    2.42699E+01
 1.50000E+01    2.65707E+01
 1.60000E+01    3.12100E+01
 1.70000E+01    3.59530E+01
 1.80000E+01    4.05316E+01
 1.90000E+01    4.45704E+01
 2.00000E+01    4.78765E+01
 2.10000E+01    5.05733E+01
 2.20000E+01    5.24137E+01
 2.30000E+01    5.36192E+01
 2.40000E+01    5.43471E+01
 2.50000E+01    5.36527E+01
 2.60000E+01    5.32556E+01
 2.70000E+01    5.26574E+01
 2.80000E+01    5.18022E+01
 2.90000E+01    5.07167E+01
 3.00000E+01    4.94731E+01
 3.00000E+01    4.93559E+01
 3.20000E+01    4.69955E+01
 3.40000E+01    4.41279E+01
 3.60000E+01    4.08770E+01
 3.80000E+01    3.82750E+01
 4.00000E+01    3.59172E+01
 4.20000E+01    3.46700E+01
 4.40000E+01    3.58465E+01
 4.60000E+01    3.69772E+01
 4.80000E+01    3.80142E+01
 5.00000E+01    3.91114E+01
 5.20000E+01    4.01871E+01
 5.40000E+01    4.12505E+01
 5.60000E+01    4.23157E+01
 5.80000E+01    4.32594E+01
 6.00000E+01    4.41360E+01
 6.50000E+01    4.63988E+01
 7.00000E+01    4.86817E+01
 7.50000E+01    5.10522E+01
 8.00000E+01    5.34822E+01
 9.00000E+01    5.91120E+01
 1.00000E+02    6.48481E+01
 1.10000E+02    6.94866E+01
 1.20000E+02    7.40416E+01
 1.30000E+02    7.96304E+01
 1.40000E+02    8.55483E+01
 1.50000E+02    9.27119E+01
 1.60000E+02    1.01327E+02
 1.80000E+02    1.24656E+02
 2.00000E+02    1.58456E+02
