# n + Sr 88 : (n,xp)    
# endfb8.0   Zhuang,Cai, Mughabghab            EVAL-FEB05
# 
# # energies =    81
#   E(MeV)        xs(mb) 
 1.85720E+00    0.00000E+00
 1.90910E+00    0.00000E+00
 1.94250E+00    0.00000E+00
 2.00000E+00    0.00000E+00
 2.25000E+00    0.00000E+00
 2.50000E+00    0.00000E+00
 2.76550E+00    0.00000E+00
 3.00000E+00    0.00000E+00
 3.18820E+00    0.00000E+00
 3.25540E+00    0.00000E+00
 3.52660E+00    0.00000E+00
 3.56330E+00    0.00000E+00
 3.62590E+00    0.00000E+00
 3.67680E+00    0.00000E+00
 3.99800E+00    0.00000E+00
 4.06570E+00    0.00000E+00
 4.08190E+00    0.00000E+00
 4.08540E+00    0.00000E+00
 4.21830E+00    0.00000E+00
 4.21890E+00    0.00000E+00
 4.27570E+00    0.00000E+00
 4.31770E+00    0.00000E+00
 4.34900E+00    0.00000E+00
 4.41830E+00    0.00000E+00
 4.46450E+00    0.00000E+00
 4.50310E+00    0.00000E+00
 4.53650E+00    0.00000E+00
 4.56580E+00    0.00000E+00
 4.58470E+00    0.00000E+00
 4.61220E+00    0.00000E+00
 4.75000E+00    0.00000E+00
 5.00000E+00    0.00000E+00
 5.25000E+00    0.00000E+00
 5.50000E+00    0.00000E+00
 5.75000E+00    0.00000E+00
 6.00130E+00    0.00000E+00
 6.25000E+00    3.56513E-04
 6.50000E+00    7.14890E-04
 6.75000E+00    2.98350E-03
 7.00130E+00    8.83790E-03
 7.25000E+00    2.04940E-02
 7.50000E+00    4.14250E-02
 7.75000E+00    7.50990E-02
 8.00130E+00    1.25510E-01
 8.25000E+00    1.93280E-01
 8.48340E+00    2.76520E-01
 8.70000E+00    3.70750E-01
 8.88600E+00    4.65850E-01
 9.00000E+00    5.31820E-01
 9.32880E+00    7.49800E-01
 9.65000E+00    1.01190E+00
 1.00000E+01    1.35340E+00
 1.02500E+01    1.63900E+00
 1.05000E+01    1.96250E+00
 1.07340E+01    2.30320E+00
 1.10000E+01    2.73910E+00
 1.12400E+01    3.17990E+00
 1.16460E+01    4.03490E+00
 1.18500E+01    4.52120E+00
 1.21890E+01    5.41030E+00
 1.24000E+01    6.01700E+00
 1.27000E+01    6.95857E+00
 1.30000E+01    7.97460E+00
 1.32500E+01    8.89050E+00
 1.35000E+01    9.87181E+00
 1.37500E+01    1.10846E+01
 1.40000E+01    1.23185E+01
 1.43710E+01    1.45356E+01
 1.47600E+01    1.69536E+01
 1.50000E+01    1.85130E+01
 1.55000E+01    2.18363E+01
 1.60000E+01    2.52381E+01
 1.65000E+01    2.81986E+01
 1.70000E+01    3.11691E+01
 1.75000E+01    3.39100E+01
 1.80000E+01    3.65489E+01
 1.85000E+01    3.93090E+01
 1.90000E+01    4.22080E+01
 1.94000E+01    4.42280E+01
 1.97660E+01    4.59410E+01
 2.00000E+01    4.71090E+01
