# n + Sr 88 : (n,n'03)  
# endfb8.0   Zhuang,Cai, Mughabghab            EVAL-FEB05
# uncertainties: n
# # energies =    73
#   E(MeV)       xs(mb) 
 3.18820E+00    0.00000E+00
 3.25540E+00    2.45910E+01
 3.52660E+00    6.73720E+01
 3.56330E+00    6.83010E+01
 3.62590E+00    6.70180E+01
 3.67680E+00    6.53900E+01
 3.99800E+00    5.53630E+01
 4.06570E+00    5.44780E+01
 4.08190E+00    5.43120E+01
 4.08540E+00    5.42310E+01
 4.21830E+00    5.06930E+01
 4.21890E+00    5.06700E+01
 4.27570E+00    4.93740E+01
 4.31770E+00    4.83090E+01
 4.34900E+00    4.73970E+01
 4.41830E+00    4.55610E+01
 4.46450E+00    4.45560E+01
 4.50310E+00    4.36950E+01
 4.53650E+00    4.30050E+01
 4.56580E+00    4.23190E+01
 4.58470E+00    4.18410E+01
 4.61220E+00    4.11210E+01
 4.75000E+00    3.70900E+01
 5.00000E+00    2.96930E+01
 5.25000E+00    2.33510E+01
 5.50000E+00    1.82630E+01
 5.75000E+00    1.42030E+01
 6.00130E+00    1.10210E+01
 6.25000E+00    8.31600E+00
 6.50000E+00    6.28390E+00
 6.75000E+00    4.78950E+00
 7.00130E+00    3.67960E+00
 7.25000E+00    2.87620E+00
 7.50000E+00    2.28100E+00
 7.75000E+00    1.83950E+00
 8.00130E+00    1.51580E+00
 8.25000E+00    1.26470E+00
 8.48340E+00    1.08190E+00
 8.70000E+00    9.46940E-01
 8.88600E+00    8.51380E-01
 9.00000E+00    8.00320E-01
 9.32880E+00    6.78550E-01
 9.65000E+00    5.87010E-01
 1.00000E+01    5.08840E-01
 1.02500E+01    4.63360E-01
 1.05000E+01    4.24240E-01
 1.07340E+01    3.92620E-01
 1.10000E+01    3.61060E-01
 1.12400E+01    3.36180E-01
 1.16460E+01    2.99950E-01
 1.18500E+01    2.84140E-01
 1.21890E+01    2.60710E-01
 1.24000E+01    2.47710E-01
 1.27000E+01    2.30970E-01
 1.30000E+01    2.16040E-01
 1.32500E+01    2.04760E-01
 1.35000E+01    1.94430E-01
 1.37500E+01    1.84920E-01
 1.40000E+01    1.76150E-01
 1.43710E+01    1.64310E-01
 1.47600E+01    1.53190E-01
 1.50000E+01    1.46890E-01
 1.55000E+01    1.34940E-01
 1.60000E+01    1.24340E-01
 1.65000E+01    1.14850E-01
 1.70000E+01    1.06290E-01
 1.75000E+01    9.85200E-02
 1.80000E+01    9.14460E-02
 1.85000E+01    8.50350E-02
 1.90000E+01    7.91500E-02
 1.94000E+01    7.48550E-02
 1.97660E+01    7.11470E-02
 2.00000E+01    6.89100E-02
