# n + Sr 88 : (n,xn)    
# endfb8.0   Zhuang,Cai, Mughabghab            EVAL-FEB05
# 
# # energies =    81
#   E(MeV)        xs(mb) 
 1.85720E+00    0.00000E+00
 1.90910E+00    2.41980E+02
 1.94250E+00    3.50160E+02
 2.00000E+00    4.87350E+02
 2.25000E+00    7.52240E+02
 2.50000E+00    8.38640E+02
 2.76550E+00    8.80700E+02
 3.00000E+00    1.04260E+03
 3.18820E+00    1.08880E+03
 3.25540E+00    1.11600E+03
 3.52660E+00    1.29430E+03
 3.56330E+00    1.31680E+03
 3.62590E+00    1.36820E+03
 3.67680E+00    1.40700E+03
 3.99800E+00    1.53840E+03
 4.06570E+00    1.54560E+03
 4.08190E+00    1.54730E+03
 4.08540E+00    1.54820E+03
 4.21830E+00    1.57610E+03
 4.21890E+00    1.57650E+03
 4.27570E+00    1.58750E+03
 4.31770E+00    1.59590E+03
 4.34900E+00    1.60260E+03
 4.41830E+00    1.61700E+03
 4.46450E+00    1.62470E+03
 4.50310E+00    1.63090E+03
 4.53650E+00    1.63600E+03
 4.56580E+00    1.64060E+03
 4.58470E+00    1.64380E+03
 4.61220E+00    1.64860E+03
 4.75000E+00    1.67350E+03
 5.00000E+00    1.71290E+03
 5.25000E+00    1.73960E+03
 5.50000E+00    1.75460E+03
 5.75000E+00    1.76230E+03
 6.00130E+00    1.76580E+03
 6.25000E+00    1.76760E+03
 6.50000E+00    1.76770E+03
 6.75000E+00    1.76650E+03
 7.00130E+00    1.76430E+03
 7.25000E+00    1.76120E+03
 7.50000E+00    1.75740E+03
 7.75000E+00    1.75300E+03
 8.00130E+00    1.74830E+03
 8.25000E+00    1.74300E+03
 8.48340E+00    1.73790E+03
 8.70000E+00    1.73320E+03
 8.88600E+00    1.72920E+03
 9.00000E+00    1.72680E+03
 9.32880E+00    1.72020E+03
 9.65000E+00    1.71410E+03
 1.00000E+01    1.70810E+03
 1.02500E+01    1.70410E+03
 1.05000E+01    1.70020E+03
 1.07340E+01    1.69670E+03
 1.10000E+01    1.69280E+03
 1.12400E+01    1.68930E+03
 1.16460E+01    1.72047E+03
 1.18500E+01    1.74358E+03
 1.21890E+01    1.88370E+03
 1.24000E+01    1.99146E+03
 1.27000E+01    2.11664E+03
 1.30000E+01    2.25932E+03
 1.32500E+01    2.43949E+03
 1.35000E+01    2.40230E+03
 1.37500E+01    2.46324E+03
 1.40000E+01    2.51628E+03
 1.43710E+01    2.58072E+03
 1.47600E+01    2.63564E+03
 1.50000E+01    2.66148E+03
 1.55000E+01    2.70369E+03
 1.60000E+01    2.73013E+03
 1.65000E+01    2.74342E+03
 1.70000E+01    2.77758E+03
 1.75000E+01    2.77813E+03
 1.80000E+01    2.77387E+03
 1.85000E+01    2.76624E+03
 1.90000E+01    2.75625E+03
 1.94000E+01    2.74776E+03
 1.97660E+01    2.73866E+03
 2.00000E+01    2.73269E+03
