# n + Tl204 : (n,n'15)  
# endfb8.0   A.J. Koning and D. Rochman        EVAL-DEC15
# uncertainties: n
# # energies =    84
#   E(MeV)       xs(mb) 
 6.32512E-01    0.00000E+00
 6.81313E-01    1.86734E+01
 7.00000E-01    2.58239E+01
 7.39921E-01    3.18292E+01
 7.54412E-01    3.40090E+01
 7.68080E-01    3.60651E+01
 8.00000E-01    4.08668E+01
 8.63248E-01    4.65895E+01
 8.76835E-01    4.78188E+01
 9.00000E-01    4.99148E+01
 9.10470E-01    5.04453E+01
 9.70777E-01    5.35006E+01
 1.00000E+00    5.49812E+01
 1.01823E+00    5.51979E+01
 1.05117E+00    5.55895E+01
 1.05638E+00    5.56514E+01
 1.06394E+00    5.57413E+01
 1.10554E+00    5.62358E+01
 1.10936E+00    5.62812E+01
 1.12689E+00    5.64896E+01
 1.20000E+00    5.73587E+01
 1.40000E+00    5.53025E+01
 1.60000E+00    5.21535E+01
 1.80000E+00    4.89636E+01
 2.00000E+00    4.59079E+01
 2.20000E+00    4.28126E+01
 2.40000E+00    3.94591E+01
 2.60000E+00    3.57400E+01
 2.80000E+00    3.17061E+01
 3.00000E+00    2.75520E+01
 3.20000E+00    2.34978E+01
 3.40000E+00    1.97186E+01
 3.60000E+00    1.63300E+01
 3.80000E+00    1.33813E+01
 4.00000E+00    1.08732E+01
 4.20000E+00    8.77593E+00
 4.40000E+00    7.04464E+00
 4.60000E+00    5.62726E+00
 4.80000E+00    4.47413E+00
 5.00000E+00    3.53992E+00
 5.20000E+00    2.78779E+00
 5.40000E+00    2.17451E+00
 5.60000E+00    1.69141E+00
 5.80000E+00    1.30710E+00
 6.00000E+00    1.00579E+00
 6.20000E+00    7.71792E-01
 6.40000E+00    5.89777E-01
 6.60000E+00    4.50579E-01
 6.80000E+00    3.43516E-01
 7.00000E+00    2.61765E-01
 7.20000E+00    1.99527E-01
 7.40000E+00    1.52036E-01
 7.60000E+00    1.16138E-01
 7.80000E+00    8.87243E-02
 8.00000E+00    6.78685E-02
 8.50000E+00    3.48991E-02
 9.00000E+00    1.80370E-02
 9.50000E+00    9.35306E-03
 1.00000E+01    4.86022E-03
 1.05000E+01    2.53052E-03
 1.10000E+01    1.32116E-03
 1.15000E+01    6.92377E-04
 1.20000E+01    3.64704E-04
 1.25000E+01    1.93272E-04
 1.30000E+01    1.03103E-04
 1.35000E+01    5.53796E-05
 1.40000E+01    2.99414E-05
 1.45000E+01    1.62882E-05
 1.50000E+01    8.91067E-06
 1.60000E+01    2.70498E-06
 1.70000E+01    8.31416E-07
 1.80000E+01    2.61265E-07
 1.90000E+01    8.36993E-08
 2.00000E+01    2.73587E-08
 2.10000E+01    9.13271E-09
 2.20000E+01    3.10925E-09
 2.30000E+01    1.07719E-09
 2.40000E+01    3.79595E-10
 2.50000E+01    1.35796E-10
 2.60000E+01    4.93024E-11
 2.70000E+01    1.81525E-11
 2.80000E+01    6.77518E-12
 2.90000E+01    2.56545E-12
 3.00000E+01    9.86047E-13
