# n + Tl204 : (n,n'24)  
# endfb8.0   A.J. Koning and D. Rochman        EVAL-DEC15
# uncertainties: n
# # energies =    71
#   E(MeV)       xs(mb) 
 1.01823E+00    0.00000E+00
 1.05117E+00    3.26660E+00
 1.05638E+00    3.78327E+00
 1.06394E+00    4.53298E+00
 1.10554E+00    8.65838E+00
 1.10936E+00    9.03720E+00
 1.12689E+00    1.07756E+01
 1.20000E+00    1.80258E+01
 1.40000E+00    2.70835E+01
 1.60000E+00    3.07847E+01
 1.80000E+00    3.14374E+01
 2.00000E+00    3.06345E+01
 2.20000E+00    2.92111E+01
 2.40000E+00    2.75235E+01
 2.60000E+00    2.56615E+01
 2.80000E+00    2.36040E+01
 3.00000E+00    2.13308E+01
 3.20000E+00    1.88862E+01
 3.40000E+00    1.63792E+01
 3.60000E+00    1.39394E+01
 3.80000E+00    1.16746E+01
 4.00000E+00    9.65148E+00
 4.20000E+00    7.89541E+00
 4.40000E+00    6.40332E+00
 4.60000E+00    5.15470E+00
 4.80000E+00    4.12322E+00
 5.00000E+00    3.27924E+00
 5.20000E+00    2.59538E+00
 5.40000E+00    2.03650E+00
 5.60000E+00    1.59346E+00
 5.80000E+00    1.23894E+00
 6.00000E+00    9.59985E-01
 6.20000E+00    7.41099E-01
 6.40000E+00    5.69178E-01
 6.60000E+00    4.36807E-01
 6.80000E+00    3.34113E-01
 7.00000E+00    2.55065E-01
 7.20000E+00    1.94733E-01
 7.40000E+00    1.48436E-01
 7.60000E+00    1.13352E-01
 7.80000E+00    8.65664E-02
 8.00000E+00    6.61544E-02
 8.50000E+00    3.39382E-02
 9.00000E+00    1.75142E-02
 9.50000E+00    9.08307E-03
 1.00000E+01    4.72737E-03
 1.05000E+01    2.46712E-03
 1.10000E+01    1.29119E-03
 1.15000E+01    6.78086E-04
 1.20000E+01    3.57742E-04
 1.25000E+01    1.89786E-04
 1.30000E+01    1.01309E-04
 1.35000E+01    5.44381E-05
 1.40000E+01    2.94418E-05
 1.45000E+01    1.60228E-05
 1.50000E+01    8.77034E-06
 1.60000E+01    2.66662E-06
 1.70000E+01    8.21091E-07
 1.80000E+01    2.58383E-07
 1.90000E+01    8.28420E-08
 2.00000E+01    2.70866E-08
 2.10000E+01    9.04250E-09
 2.20000E+01    3.07875E-09
 2.30000E+01    1.06681E-09
 2.40000E+01    3.76082E-10
 2.50000E+01    1.34621E-10
 2.60000E+01    4.89124E-11
 2.70000E+01    1.80215E-11
 2.80000E+01    6.72970E-12
 2.90000E+01    2.54893E-12
 3.00000E+01    9.79800E-13
