# n + Tl204 : (n,n'22)  
# endfb8.0   A.J. Koning and D. Rochman        EVAL-DEC15
# uncertainties: n
# # energies =    74
#   E(MeV)       xs(mb) 
 9.10470E-01    0.00000E+00
 9.70777E-01    9.75224E+00
 1.00000E+00    1.44779E+01
 1.01823E+00    1.57778E+01
 1.05117E+00    1.81265E+01
 1.05638E+00    1.84980E+01
 1.06394E+00    1.90370E+01
 1.10554E+00    2.20033E+01
 1.10936E+00    2.22757E+01
 1.12689E+00    2.35256E+01
 1.20000E+00    2.87386E+01
 1.40000E+00    3.49806E+01
 1.60000E+00    3.65863E+01
 1.80000E+00    3.59903E+01
 2.00000E+00    3.44858E+01
 2.20000E+00    3.26282E+01
 2.40000E+00    3.05797E+01
 2.60000E+00    2.83284E+01
 2.80000E+00    2.58284E+01
 3.00000E+00    2.30886E+01
 3.20000E+00    2.02183E+01
 3.40000E+00    1.73565E+01
 3.60000E+00    1.46421E+01
 3.80000E+00    1.21762E+01
 4.00000E+00    1.00094E+01
 4.20000E+00    8.15182E+00
 4.40000E+00    6.58850E+00
 4.60000E+00    5.28993E+00
 4.80000E+00    4.22310E+00
 5.00000E+00    3.35343E+00
 5.20000E+00    2.65039E+00
 5.40000E+00    2.07699E+00
 5.60000E+00    1.62191E+00
 5.80000E+00    1.25924E+00
 6.00000E+00    9.73951E-01
 6.20000E+00    7.50399E-01
 6.40000E+00    5.75418E-01
 6.60000E+00    4.41031E-01
 6.80000E+00    3.36927E-01
 7.00000E+00    2.57014E-01
 7.20000E+00    1.96151E-01
 7.40000E+00    1.49437E-01
 7.60000E+00    1.14145E-01
 7.80000E+00    8.71692E-02
 8.00000E+00    6.66250E-02
 8.50000E+00    3.42036E-02
 9.00000E+00    1.76607E-02
 9.50000E+00    9.15977E-03
 1.00000E+01    4.76545E-03
 1.05000E+01    2.48534E-03
 1.10000E+01    1.29978E-03
 1.15000E+01    6.82162E-04
 1.20000E+01    3.59715E-04
 1.25000E+01    1.90769E-04
 1.30000E+01    1.01813E-04
 1.35000E+01    5.47023E-05
 1.40000E+01    2.95823E-05
 1.45000E+01    1.60977E-05
 1.50000E+01    8.81014E-06
 1.60000E+01    2.67757E-06
 1.70000E+01    8.24034E-07
 1.80000E+01    2.59199E-07
 1.90000E+01    8.30831E-08
 2.00000E+01    2.71628E-08
 2.10000E+01    9.06779E-09
 2.20000E+01    3.08734E-09
 2.30000E+01    1.06975E-09
 2.40000E+01    3.77080E-10
 2.50000E+01    1.34955E-10
 2.60000E+01    4.90230E-11
 2.70000E+01    1.80584E-11
 2.80000E+01    6.74245E-12
 2.90000E+01    2.55355E-12
 3.00000E+01    9.81548E-13
