# n + Tl204 : (n,n'12)  
# endfb8.0   A.J. Koning and D. Rochman        EVAL-DEC15
# uncertainties: n
# # energies =    89
#   E(MeV)       xs(mb) 
 4.90524E-01    0.00000E+00
 5.00000E-01    2.15136E+00
 5.38249E-01    4.61851E+00
 6.00000E-01    8.60158E+00
 6.29407E-01    9.70470E+00
 6.32512E-01    9.82117E+00
 6.81313E-01    1.16518E+01
 7.00000E-01    1.23528E+01
 7.39921E-01    1.30972E+01
 7.54412E-01    1.33675E+01
 7.68080E-01    1.36224E+01
 8.00000E-01    1.42176E+01
 8.63248E-01    1.48102E+01
 8.76835E-01    1.49375E+01
 9.00000E-01    1.51546E+01
 9.10470E-01    1.51884E+01
 9.70777E-01    1.53829E+01
 1.00000E+00    1.54771E+01
 1.01823E+00    1.54272E+01
 1.05117E+00    1.53370E+01
 1.05638E+00    1.53227E+01
 1.06394E+00    1.53020E+01
 1.10554E+00    1.51881E+01
 1.10936E+00    1.51776E+01
 1.12689E+00    1.51296E+01
 1.20000E+00    1.49294E+01
 1.40000E+00    1.40079E+01
 1.60000E+00    1.31585E+01
 1.80000E+00    1.24044E+01
 2.00000E+00    1.16757E+01
 2.20000E+00    1.08890E+01
 2.40000E+00    9.99110E+00
 2.60000E+00    8.97737E+00
 2.80000E+00    7.89395E+00
 3.00000E+00    6.80078E+00
 3.20000E+00    5.75563E+00
 3.40000E+00    4.79842E+00
 3.60000E+00    3.95161E+00
 3.80000E+00    3.22228E+00
 4.00000E+00    2.60708E+00
 4.20000E+00    2.09629E+00
 4.40000E+00    1.67708E+00
 4.60000E+00    1.33540E+00
 4.80000E+00    1.05838E+00
 5.00000E+00    8.34755E-01
 5.20000E+00    6.54735E-01
 5.40000E+00    5.09018E-01
 5.60000E+00    3.94462E-01
 5.80000E+00    3.03685E-01
 6.00000E+00    2.32936E-01
 6.20000E+00    1.78250E-01
 6.40000E+00    1.35846E-01
 6.60000E+00    1.03568E-01
 6.80000E+00    7.88284E-02
 7.00000E+00    5.99513E-02
 7.20000E+00    4.56498E-02
 7.40000E+00    3.47315E-02
 7.60000E+00    2.64946E-02
 7.80000E+00    2.02159E-02
 8.00000E+00    1.54420E-02
 8.50000E+00    7.91232E-03
 9.00000E+00    4.07331E-03
 9.50000E+00    2.10356E-03
 1.00000E+01    1.08876E-03
 1.05000E+01    5.64812E-04
 1.10000E+01    2.93925E-04
 1.15000E+01    1.53592E-04
 1.20000E+01    8.06923E-05
 1.25000E+01    4.26599E-05
 1.30000E+01    2.27061E-05
 1.35000E+01    1.21697E-05
 1.40000E+01    6.56564E-06
 1.45000E+01    3.56420E-06
 1.50000E+01    1.94579E-06
 1.60000E+01    5.88347E-07
 1.70000E+01    1.80208E-07
 1.80000E+01    5.64619E-08
 1.90000E+01    1.80424E-08
 2.00000E+01    5.88385E-09
 2.10000E+01    1.95967E-09
 2.20000E+01    6.65677E-10
 2.30000E+01    2.30123E-10
 2.40000E+01    8.09334E-11
 2.50000E+01    2.89022E-11
 2.60000E+01    1.04772E-11
 2.70000E+01    3.85216E-12
 2.80000E+01    1.43584E-12
 2.90000E+01    5.42961E-13
 3.00000E+01    2.08414E-13
