# n + Tl204 : (n,n'13)  
# endfb8.0   A.J. Koning and D. Rochman        EVAL-DEC15
# uncertainties: n
# # energies =    87
#   E(MeV)       xs(mb) 
 5.38249E-01    0.00000E+00
 6.00000E-01    3.48005E+01
 6.29407E-01    4.02935E+01
 6.32512E-01    4.08734E+01
 6.81313E-01    4.99890E+01
 7.00000E-01    5.34796E+01
 7.39921E-01    5.72814E+01
 7.54412E-01    5.86615E+01
 7.68080E-01    5.99631E+01
 8.00000E-01    6.30030E+01
 8.63248E-01    6.60429E+01
 8.76835E-01    6.66959E+01
 9.00000E-01    6.78093E+01
 9.10470E-01    6.79733E+01
 9.70777E-01    6.89175E+01
 1.00000E+00    6.93751E+01
 1.01823E+00    6.91592E+01
 1.05117E+00    6.87691E+01
 1.05638E+00    6.87073E+01
 1.06394E+00    6.86178E+01
 1.10554E+00    6.81251E+01
 1.10936E+00    6.80798E+01
 1.12689E+00    6.78722E+01
 1.20000E+00    6.70063E+01
 1.40000E+00    6.23691E+01
 1.60000E+00    5.78856E+01
 1.80000E+00    5.39519E+01
 2.00000E+00    5.03505E+01
 2.20000E+00    4.67011E+01
 2.40000E+00    4.27199E+01
 2.60000E+00    3.83330E+01
 2.80000E+00    3.36812E+01
 3.00000E+00    2.90051E+01
 3.20000E+00    2.45443E+01
 3.40000E+00    2.04663E+01
 3.60000E+00    1.68639E+01
 3.80000E+00    1.37639E+01
 4.00000E+00    1.11494E+01
 4.20000E+00    8.97764E+00
 4.40000E+00    7.19389E+00
 4.60000E+00    5.73863E+00
 4.80000E+00    4.55712E+00
 5.00000E+00    3.60153E+00
 5.20000E+00    2.83148E+00
 5.40000E+00    2.20577E+00
 5.60000E+00    1.71325E+00
 5.80000E+00    1.32150E+00
 6.00000E+00    1.01543E+00
 6.20000E+00    7.78275E-01
 6.40000E+00    5.94058E-01
 6.60000E+00    4.53460E-01
 6.80000E+00    3.45620E-01
 7.00000E+00    2.63233E-01
 7.20000E+00    2.00675E-01
 7.40000E+00    1.52902E-01
 7.60000E+00    1.16804E-01
 7.80000E+00    8.92624E-02
 8.00000E+00    6.82936E-02
 8.50000E+00    3.51382E-02
 9.00000E+00    1.81651E-02
 9.50000E+00    9.41779E-03
 1.00000E+01    4.89151E-03
 1.05000E+01    2.54531E-03
 1.10000E+01    1.32814E-03
 1.15000E+01    6.95728E-04
 1.20000E+01    3.66352E-04
 1.25000E+01    1.94106E-04
 1.30000E+01    1.03535E-04
 1.35000E+01    5.56074E-05
 1.40000E+01    3.00621E-05
 1.45000E+01    1.63521E-05
 1.50000E+01    8.94422E-06
 1.60000E+01    2.71404E-06
 1.70000E+01    8.33850E-07
 1.80000E+01    2.61950E-07
 1.90000E+01    8.39055E-08
 2.00000E+01    2.74247E-08
 2.10000E+01    9.15462E-09
 2.20000E+01    3.11664E-09
 2.30000E+01    1.07968E-09
 2.40000E+01    3.80435E-10
 2.50000E+01    1.36075E-10
 2.60000E+01    4.93953E-11
 2.70000E+01    1.81838E-11
 2.80000E+01    6.78616E-12
 2.90000E+01    2.56946E-12
 3.00000E+01    9.87566E-13
