# n + Te123 : (n,n'12)  
# jeff3.3    A.J. Koning and D. Rochman        EVAL-DEC15
# uncertainties: n
# # energies =    86
#   E(MeV)       xs(mb) 
 7.90041E-01    0.00000E+00
 8.00000E-01    1.49362E+01
 8.69205E-01    5.06807E+01
 8.78360E-01    5.54093E+01
 8.86889E-01    5.98145E+01
 8.94138E-01    6.35587E+01
 9.00000E-01    6.65864E+01
 9.02123E-01    6.70336E+01
 9.27339E-01    7.23451E+01
 1.00000E+00    8.76504E+01
 1.00423E+00    8.77992E+01
 1.04518E+00    8.92397E+01
 1.07696E+00    9.03577E+01
 1.09058E+00    9.08368E+01
 1.10680E+00    9.14074E+01
 1.14794E+00    9.28546E+01
 1.16246E+00    9.33653E+01
 1.20000E+00    9.46859E+01
 1.21993E+00    9.43324E+01
 1.22246E+00    9.42875E+01
 1.25457E+00    9.37180E+01
 1.26429E+00    9.35456E+01
 1.27841E+00    9.32951E+01
 1.40000E+00    9.11384E+01
 1.60000E+00    8.47080E+01
 1.80000E+00    7.65813E+01
 2.00000E+00    6.73124E+01
 2.20000E+00    5.75311E+01
 2.40000E+00    4.78258E+01
 2.60000E+00    3.84011E+01
 2.80000E+00    3.02977E+01
 3.00000E+00    2.34933E+01
 3.20000E+00    1.79918E+01
 3.40000E+00    1.36687E+01
 3.60000E+00    1.03462E+01
 3.80000E+00    7.82456E+00
 4.00000E+00    5.92163E+00
 4.20000E+00    4.48711E+00
 4.40000E+00    3.40347E+00
 4.60000E+00    2.58212E+00
 4.80000E+00    1.95843E+00
 5.00000E+00    1.48403E+00
 5.20000E+00    1.12373E+00
 5.40000E+00    8.50969E-01
 5.60000E+00    6.42950E-01
 5.80000E+00    4.86617E-01
 6.00000E+00    3.67802E-01
 6.20000E+00    2.78468E-01
 6.40000E+00    2.10641E-01
 6.60000E+00    1.59364E-01
 6.80000E+00    1.21205E-01
 7.00000E+00    9.23539E-02
 7.20000E+00    7.06282E-02
 7.40000E+00    5.41534E-02
 7.60000E+00    4.15840E-02
 7.80000E+00    3.20790E-02
 8.00000E+00    2.47842E-02
 8.50000E+00    1.31794E-02
 9.00000E+00    7.13264E-03
 9.50000E+00    3.92468E-03
 1.00000E+01    2.19196E-03
 1.05000E+01    1.24054E-03
 1.10000E+01    7.10612E-04
 1.15000E+01    4.11681E-04
 1.20000E+01    2.41040E-04
 1.25000E+01    1.42571E-04
 1.30000E+01    8.51634E-05
 1.35000E+01    5.13434E-05
 1.40000E+01    3.12277E-05
 1.45000E+01    1.91581E-05
 1.50000E+01    1.18449E-05
 1.60000E+01    4.63308E-06
 1.70000E+01    1.86601E-06
 1.80000E+01    7.71730E-07
 1.90000E+01    3.27770E-07
 2.00000E+01    1.41040E-07
 2.10000E+01    6.24520E-08
 2.20000E+01    2.81120E-08
 2.30000E+01    1.28650E-08
 2.40000E+01    5.97060E-09
 2.50000E+01    2.80920E-09
 2.60000E+01    1.33960E-09
 2.70000E+01    6.48440E-10
 2.80000E+01    3.18030E-10
 2.90000E+01    1.58130E-10
 3.00000E+01    7.96240E-11
