# n + Te123 : (n,n'22)  
# jeff3.3    A.J. Koning and D. Rochman        EVAL-DEC15
# uncertainties: n
# # energies =    73
#   E(MeV)       xs(mb) 
 1.09058E+00    0.00000E+00
 1.10680E+00    3.43119E-01
 1.14794E+00    1.21340E+00
 1.16246E+00    1.52056E+00
 1.20000E+00    2.31468E+00
 1.21993E+00    2.67946E+00
 1.22246E+00    2.72577E+00
 1.25457E+00    3.31348E+00
 1.26429E+00    3.49139E+00
 1.27841E+00    3.74983E+00
 1.40000E+00    5.97530E+00
 1.60000E+00    9.44434E+00
 1.80000E+00    1.26006E+01
 2.00000E+00    1.49875E+01
 2.20000E+00    1.63225E+01
 2.40000E+00    1.65645E+01
 2.60000E+00    1.57394E+01
 2.80000E+00    1.43559E+01
 3.00000E+00    1.26323E+01
 3.20000E+00    1.08068E+01
 3.40000E+00    9.04090E+00
 3.60000E+00    7.43676E+00
 3.80000E+00    6.03900E+00
 4.00000E+00    4.85575E+00
 4.20000E+00    3.87425E+00
 4.40000E+00    3.07111E+00
 4.60000E+00    2.41997E+00
 4.80000E+00    1.89645E+00
 5.00000E+00    1.47864E+00
 5.20000E+00    1.14749E+00
 5.40000E+00    8.87489E-01
 5.60000E+00    6.83682E-01
 5.80000E+00    5.26341E-01
 6.00000E+00    4.04066E-01
 6.20000E+00    3.10432E-01
 6.40000E+00    2.38121E-01
 6.60000E+00    1.82503E-01
 6.80000E+00    1.40650E-01
 7.00000E+00    1.08538E-01
 7.20000E+00    8.40449E-02
 7.40000E+00    6.52853E-02
 7.60000E+00    5.07606E-02
 7.80000E+00    3.96686E-02
 8.00000E+00    3.10451E-02
 8.50000E+00    1.70455E-02
 9.00000E+00    9.51630E-03
 9.50000E+00    5.39218E-03
 1.00000E+01    3.09419E-03
 1.05000E+01    1.79481E-03
 1.10000E+01    1.05123E-03
 1.15000E+01    6.21330E-04
 1.20000E+01    3.70399E-04
 1.25000E+01    2.22659E-04
 1.30000E+01    1.34954E-04
 1.35000E+01    8.24369E-05
 1.40000E+01    5.07394E-05
 1.45000E+01    3.14689E-05
 1.50000E+01    1.96528E-05
 1.60000E+01    7.82979E-06
 1.70000E+01    3.20775E-06
 1.80000E+01    1.34837E-06
 1.90000E+01    5.81480E-07
 2.00000E+01    2.53660E-07
 2.10000E+01    1.13630E-07
 2.20000E+01    5.16540E-08
 2.30000E+01    2.38420E-08
 2.40000E+01    1.11520E-08
 2.50000E+01    5.28690E-09
 2.60000E+01    2.53950E-09
 2.70000E+01    1.23800E-09
 2.80000E+01    6.11150E-10
 2.90000E+01    3.05670E-10
 3.00000E+01    1.54730E-10
