# n + Te123 : (n,n'20)  
# jeff3.3    A.J. Koning and D. Rochman        EVAL-DEC15
# uncertainties: n
# # energies =    75
#   E(MeV)       xs(mb) 
 1.04518E+00    0.00000E+00
 1.07696E+00    9.44245E+00
 1.09058E+00    1.34892E+01
 1.10680E+00    1.83085E+01
 1.14794E+00    3.05320E+01
 1.16246E+00    3.48461E+01
 1.20000E+00    4.60000E+01
 1.21993E+00    4.74749E+01
 1.22246E+00    4.76622E+01
 1.25457E+00    5.00385E+01
 1.26429E+00    5.07578E+01
 1.27841E+00    5.18028E+01
 1.40000E+00    6.08011E+01
 1.60000E+00    6.22976E+01
 1.80000E+00    5.92337E+01
 2.00000E+00    5.40417E+01
 2.20000E+00    4.76925E+01
 2.40000E+00    4.07729E+01
 2.60000E+00    3.35248E+01
 2.80000E+00    2.69643E+01
 3.00000E+00    2.12217E+01
 3.20000E+00    1.64298E+01
 3.40000E+00    1.25748E+01
 3.60000E+00    9.56275E+00
 3.80000E+00    7.25286E+00
 4.00000E+00    5.50015E+00
 4.20000E+00    4.17631E+00
 4.40000E+00    3.17617E+00
 4.60000E+00    2.41815E+00
 4.80000E+00    1.84202E+00
 5.00000E+00    1.40297E+00
 5.20000E+00    1.06779E+00
 5.40000E+00    8.12581E-01
 5.60000E+00    6.17266E-01
 5.80000E+00    4.69297E-01
 6.00000E+00    3.56235E-01
 6.20000E+00    2.70788E-01
 6.40000E+00    2.05551E-01
 6.60000E+00    1.55926E-01
 6.80000E+00    1.18919E-01
 7.00000E+00    9.07802E-02
 7.20000E+00    6.95282E-02
 7.40000E+00    5.33875E-02
 7.60000E+00    4.10169E-02
 7.80000E+00    3.16682E-02
 8.00000E+00    2.44747E-02
 8.50000E+00    1.30172E-02
 9.00000E+00    7.04283E-03
 9.50000E+00    3.87424E-03
 1.00000E+01    2.16386E-03
 1.05000E+01    1.22509E-03
 1.10000E+01    7.02190E-04
 1.15000E+01    4.07084E-04
 1.20000E+01    2.38507E-04
 1.25000E+01    1.41155E-04
 1.30000E+01    8.43590E-05
 1.35000E+01    5.08791E-05
 1.40000E+01    3.09554E-05
 1.45000E+01    1.89961E-05
 1.50000E+01    1.17472E-05
 1.60000E+01    4.59654E-06
 1.70000E+01    1.85201E-06
 1.80000E+01    7.66250E-07
 1.90000E+01    3.25550E-07
 2.00000E+01    1.40120E-07
 2.10000E+01    6.20600E-08
 2.20000E+01    2.79460E-08
 2.30000E+01    1.27960E-08
 2.40000E+01    5.94220E-09
 2.50000E+01    2.79710E-09
 2.60000E+01    1.33420E-09
 2.70000E+01    6.45930E-10
 2.80000E+01    3.16820E-10
 2.90000E+01    1.57530E-10
 3.00000E+01    7.93230E-11
