# n + Te123 : (n,n'23)  
# jeff3.3    A.J. Koning and D. Rochman        EVAL-DEC15
# uncertainties: n
# # energies =    72
#   E(MeV)       xs(mb) 
 1.10680E+00    0.00000E+00
 1.14794E+00    4.77520E+00
 1.16246E+00    6.46056E+00
 1.20000E+00    1.08179E+01
 1.21993E+00    1.17667E+01
 1.22246E+00    1.18871E+01
 1.25457E+00    1.34157E+01
 1.26429E+00    1.38784E+01
 1.27841E+00    1.45506E+01
 1.40000E+00    2.03389E+01
 1.60000E+00    2.54036E+01
 1.80000E+00    2.85018E+01
 2.00000E+00    2.98815E+01
 2.20000E+00    2.96145E+01
 2.40000E+00    2.79185E+01
 2.60000E+00    2.49733E+01
 2.80000E+00    2.16366E+01
 3.00000E+00    1.82040E+01
 3.20000E+00    1.49700E+01
 3.40000E+00    1.20963E+01
 3.60000E+00    9.65240E+00
 3.80000E+00    7.63446E+00
 4.00000E+00    6.00109E+00
 4.20000E+00    4.69647E+00
 4.40000E+00    3.66263E+00
 4.60000E+00    2.84692E+00
 4.80000E+00    2.20590E+00
 5.00000E+00    1.70389E+00
 5.20000E+00    1.31213E+00
 5.40000E+00    1.00829E+00
 5.60000E+00    7.72409E-01
 5.80000E+00    5.91783E-01
 6.00000E+00    4.52298E-01
 6.20000E+00    3.46042E-01
 6.40000E+00    2.64346E-01
 6.60000E+00    2.01781E-01
 6.80000E+00    1.54838E-01
 7.00000E+00    1.18959E-01
 7.20000E+00    9.16840E-02
 7.40000E+00    7.08694E-02
 7.60000E+00    5.48204E-02
 7.80000E+00    4.26087E-02
 8.00000E+00    3.31605E-02
 8.50000E+00    1.79446E-02
 9.00000E+00    9.87300E-03
 9.50000E+00    5.51680E-03
 1.00000E+01    3.12545E-03
 1.05000E+01    1.79233E-03
 1.10000E+01    1.03924E-03
 1.15000E+01    6.08814E-04
 1.20000E+01    3.60102E-04
 1.25000E+01    2.14964E-04
 1.30000E+01    1.29476E-04
 1.35000E+01    7.86418E-05
 1.40000E+01    4.81510E-05
 1.45000E+01    2.97186E-05
 1.50000E+01    1.84749E-05
 1.60000E+01    7.29815E-06
 1.70000E+01    2.96658E-06
 1.80000E+01    1.23795E-06
 1.90000E+01    5.30310E-07
 2.00000E+01    2.29960E-07
 2.10000E+01    1.02490E-07
 2.20000E+01    4.63920E-08
 2.30000E+01    2.13360E-08
 2.40000E+01    9.94920E-09
 2.50000E+01    4.70300E-09
 2.60000E+01    2.25290E-09
 2.70000E+01    1.09540E-09
 2.80000E+01    5.39410E-10
 2.90000E+01    2.69160E-10
 3.00000E+01    1.35960E-10
