# n + Yb168 : (n,n'01)  
# jendl4.0   S.Kunieda, A.Ichihara, K.Shibata+ EVAL-FEB10
# uncertainties: n
# # energies =    62
#   E(MeV)       xs(mb) 
 8.82569E-02    0.00000E+00
 9.00000E-02    3.12500E+01
 1.00000E-01    8.74400E+01
 1.20000E-01    2.00100E+02
 1.40000E-01    3.05800E+02
 1.60000E-01    4.02100E+02
 1.80000E-01    4.90900E+02
 2.00000E-01    5.73300E+02
 2.50000E-01    7.56100E+02
 3.00000E-01    9.13300E+02
 3.50000E-01    1.04700E+03
 4.00000E-01    1.15900E+03
 4.50000E-01    1.25200E+03
 5.00000E-01    1.32800E+03
 5.50000E-01    1.38800E+03
 6.00000E-01    1.43600E+03
 6.50000E-01    1.47200E+03
 7.00000E-01    1.49700E+03
 7.50000E-01    1.51500E+03
 8.00000E-01    1.52500E+03
 8.50000E-01    1.53000E+03
 9.00000E-01    1.52900E+03
 9.50000E-01    1.52400E+03
 1.00000E+00    1.49300E+03
 1.20000E+00    1.29600E+03
 1.40000E+00    1.15100E+03
 1.60000E+00    9.41000E+02
 1.80000E+00    7.99000E+02
 2.00000E+00    6.96600E+02
 2.20000E+00    6.19200E+02
 2.40000E+00    5.59200E+02
 2.60000E+00    5.12400E+02
 2.80000E+00    4.75800E+02
 3.00000E+00    4.47300E+02
 3.25000E+00    4.20400E+02
 3.50000E+00    3.99600E+02
 3.75000E+00    3.84200E+02
 4.00000E+00    3.72400E+02
 4.25000E+00    3.63200E+02
 4.50000E+00    3.56200E+02
 4.75000E+00    3.50700E+02
 5.00000E+00    3.46300E+02
 5.50000E+00    3.39300E+02
 6.00000E+00    3.32900E+02
 6.50000E+00    3.25900E+02
 7.00000E+00    3.18200E+02
 7.50000E+00    3.09900E+02
 8.00000E+00    3.01400E+02
 8.50000E+00    2.93000E+02
 9.00000E+00    2.84800E+02
 9.50000E+00    2.77000E+02
 1.00000E+01    2.69600E+02
 1.10000E+01    2.56100E+02
 1.20000E+01    2.43900E+02
 1.30000E+01    2.32900E+02
 1.40000E+01    2.22900E+02
 1.50000E+01    2.13800E+02
 1.60000E+01    2.05600E+02
 1.70000E+01    1.98200E+02
 1.80000E+01    1.91400E+02
 1.90000E+01    1.85300E+02
 2.00000E+01    1.79800E+02
