# n + Yb168 : (n,g)     
# jendl4.0   S.Kunieda, A.Ichihara, K.Shibata+ EVAL-FEB10
# uncertainties: n
# # energies =   171
#   E(MeV)       xs(mb) 
 1.00000E-11    2.29706E+07
 1.00000E-07    2.13242E+06
 4.13990E-07    1.28491E+07
 5.31580E-07    7.15938E+07
 6.82560E-07    5.91010E+06
 8.76420E-07    8.46949E+05
 1.12540E-06    2.44870E+05
 1.44500E-06    9.06558E+04
 1.85540E-06    3.83698E+04
 2.37240E-06    1.75083E+04
 3.05900E-06    8.40501E+03
 3.92790E-06    4.29412E+03
 5.04350E-06    2.35108E+03
 6.47600E-06    1.47102E+03
 8.31530E-06    1.47729E+04
 1.06770E-05    1.00279E+03
 1.37100E-05    1.48709E+03
 1.76030E-05    4.73401E+05
 2.26030E-05    1.70389E+05
 2.92030E-05    6.29383E+02
 3.72670E-05    1.26990E+02
 4.78510E-05    4.59678E+01
 6.14420E-05    2.17337E+01
 7.88930E-05    1.35461E+01
 1.01300E-04    1.32064E+01
 1.30070E-04    3.51933E+01
 1.67020E-04    3.68110E+04
 2.14450E-04    2.79116E+04
 2.75360E-04    2.32340E+04
 3.53580E-04    1.93008E+04
 4.54000E-04    1.60049E+04
 5.82950E-04    1.32486E+04
 7.48520E-04    1.09492E+04
 9.61120E-04    9.05212E+03
 1.23410E-03    7.49595E+03
 1.58460E-03    6.20759E+03
 2.03470E-03    5.43583E+03
 2.24870E-03    5.04446E+03
 2.48520E-03    4.76896E+03
 2.61260E-03    4.59406E+03
 2.74650E-03    4.34468E+03
 3.03540E-03    4.03444E+03
 3.35460E-03    3.74798E+03
 3.70740E-03    3.42068E+03
 4.30740E-03    2.96860E+03
 5.53080E-03    2.50555E+03
 7.10170E-03    2.14158E+03
 9.11880E-03    1.86143E+03
 1.17090E-02    1.64517E+03
 1.50340E-02    1.45576E+03
 1.93050E-02    1.33131E+03
 2.18750E-02    1.27856E+03
 2.35790E-02    1.25324E+03
 2.41760E-02    1.24078E+03
 2.47880E-02    1.22236E+03
 2.60580E-02    1.20172E+03
 2.70000E-02    1.18040E+03
 2.85000E-02    1.14321E+03
 3.18280E-02    1.10586E+03
 3.43070E-02    1.05852E+03
 4.08680E-02    1.00633E+03
 4.63090E-02    9.66559E+02
 5.24750E-02    9.37419E+02
 5.65620E-02    9.03903E+02
 6.73790E-02    8.74400E+02
 7.20000E-02    8.56668E+02
 7.95000E-02    8.39768E+02
 8.25000E-02    8.22274E+02
 8.65170E-02    7.85239E+02
 9.80370E-02    7.29685E+02
 1.11090E-01    6.94237E+02
 1.16790E-01    6.75002E+02
 1.22770E-01    6.57296E+02
 1.29070E-01    6.40216E+02
 1.35690E-01    6.23736E+02
 1.42640E-01    6.08973E+02
 1.49960E-01    5.94909E+02
 1.57640E-01    5.81561E+02
 1.65730E-01    5.69617E+02
 1.74220E-01    5.58072E+02
 1.83160E-01    5.47771E+02
 1.92550E-01    5.38027E+02
 2.02420E-01    5.30125E+02
 2.12800E-01    5.23077E+02
 2.23710E-01    5.16116E+02
 2.35180E-01    5.09244E+02
 2.47240E-01    5.01492E+02
 2.73240E-01    4.95725E+02
 2.87250E-01    4.92693E+02
 2.94520E-01    4.91276E+02
 2.97200E-01    4.90711E+02
 2.98500E-01    4.90121E+02
 3.01970E-01    4.87841E+02
 3.33730E-01    4.83753E+02
 3.68830E-01    4.81833E+02
 3.87740E-01    4.80938E+02
 4.07620E-01    4.81466E+02
 4.50490E-01    4.83513E+02
 4.97870E-01    4.86645E+02
 5.23400E-01    4.89904E+02
 5.50230E-01    4.93538E+02
 5.78440E-01    4.98063E+02
 6.08100E-01    5.03368E+02
 6.39280E-01    5.09828E+02
 6.72060E-01    5.17266E+02
 7.06510E-01    5.26070E+02
 7.42740E-01    5.36323E+02
 7.80820E-01    5.47934E+02
 8.20850E-01    5.60971E+02
 8.62940E-01    5.76003E+02
 9.07180E-01    5.94122E+02
 9.61640E-01    6.05953E+02
 1.00260E+00    6.06468E+02
 1.10800E+00    6.02667E+02
 1.16480E+00    5.99124E+02
 1.22460E+00    5.87779E+02
 1.28730E+00    5.74097E+02
 1.35340E+00    5.61111E+02
 1.42270E+00    5.47921E+02
 1.49570E+00    5.34663E+02
 1.57240E+00    5.22670E+02
 1.65300E+00    5.13316E+02
 1.73770E+00    5.03999E+02
 1.82680E+00    4.94462E+02
 1.92050E+00    4.85045E+02
 2.01900E+00    4.74937E+02
 2.12250E+00    4.63818E+02
 2.23130E+00    4.53293E+02
 2.30690E+00    4.46359E+02
 2.34570E+00    4.42825E+02
 2.36530E+00    4.40437E+02
 2.38520E+00    4.34166E+02
 2.46600E+00    4.20296E+02
 2.59240E+00    4.02540E+02
 2.72530E+00    3.83174E+02
 2.86500E+00    3.61523E+02
 3.01190E+00    3.39509E+02
 3.16640E+00    3.17067E+02
 3.32870E+00    2.76343E+02
 3.67880E+00    2.24534E+02
 4.06570E+00    1.80128E+02
 4.49330E+00    1.46523E+02
 4.72370E+00    1.24087E+02
 4.96590E+00    1.06629E+02
 5.22050E+00    9.07470E+01
 5.48810E+00    7.53348E+01
 5.76950E+00    6.06229E+01
 6.06530E+00    4.88948E+01
 6.37630E+00    4.07181E+01
 6.59240E+00    3.56792E+01
 6.70320E+00    2.97469E+01
 7.04690E+00    2.26416E+01
 7.40820E+00    1.70450E+01
 7.78800E+00    1.24251E+01
 8.18730E+00    9.30929E+00
 8.60710E+00    6.91189E+00
 9.04840E+00    5.23259E+00
 9.51230E+00    4.03115E+00
 1.00000E+01    3.17125E+00
 1.05130E+01    2.56006E+00
 1.10520E+01    2.11966E+00
 1.16180E+01    1.79115E+00
 1.22140E+01    1.54410E+00
 1.28400E+01    1.34566E+00
 1.34990E+01    1.22426E+00
 1.38400E+01    1.15057E+00
 1.41910E+01    1.08265E+00
 1.45500E+01    1.01903E+00
 1.49180E+01    9.23808E-01
 1.56830E+01    7.99067E-01
 1.64870E+01    6.78474E-01
