# n + Yb168 : (n,el)    
# jendl4.0   S.Kunieda, A.Ichihara, K.Shibata+ EVAL-FEB10
# uncertainties: n
# # energies =    69
#   E(MeV)       xs(mb) 
 1.00000E-10    2.87975E+03
 5.00000E-09    2.59059E+03
 1.00000E-08    2.69034E+03
 1.50000E-08    2.79976E+03
 2.00000E-08    2.91514E+03
 2.50000E-08    3.03576E+03
 3.00000E-08    3.16151E+03
 3.50000E-08    3.31793E+03
 4.20000E-08    3.52523E+03
 5.00000E-08    3.76095E+03
 5.80000E-08    4.02742E+03
 6.70000E-08    4.39785E+03
 8.00000E-08    5.01615E+03
 1.00000E-07    6.36343E+03
 1.40000E-07    8.81194E+03
 1.80000E-07    1.22716E+04
 2.20000E-07    1.65373E+04
 2.50000E-07    2.15614E+04
 2.80000E-07    2.71197E+04
 3.00000E-07    3.28393E+04
 3.20000E-07    4.22539E+04
 3.50000E-07    6.58119E+04
 4.00000E-07    1.97127E+05
 5.00000E-07    2.29814E+06
 6.25000E-07    9.06950E+05
 7.80000E-07    1.68452E+05
 8.50000E-07    1.10041E+05
 9.10000E-07    8.54016E+04
 9.50000E-07    7.47322E+04
 9.72000E-07    6.83997E+04
 9.96000E-07    6.27845E+04
 1.02000E-06    5.78990E+04
 1.04500E-06    5.35385E+04
 1.07100E-06    4.97056E+04
 1.09700E-06    4.63836E+04
 1.12300E-06    4.34295E+04
 1.15000E-06    3.62206E+04
 1.30000E-06    2.71732E+04
 1.50000E-06    1.85347E+04
 2.10000E-06    1.32102E+04
 2.60000E-06    1.08108E+04
 3.30000E-06    9.27507E+03
 4.00000E-06    7.06118E+03
 9.87700E-06    5.08459E+03
 1.59680E-05    1.13843E+05
 2.77000E-05    9.29328E+03
 4.80520E-05    7.18405E+03
 7.55014E-05    6.41713E+03
 1.48728E-04    4.60938E+04
 3.67262E-04    3.25317E+04
 9.06898E-04    2.67357E+04
 1.42510E-03    2.36342E+04
 2.23945E-03    2.07638E+04
 3.51910E-03    1.79976E+04
 5.53000E-03    1.55768E+04
 9.11800E-03    1.36456E+04
 1.50300E-02    1.20017E+04
 2.47800E-02    1.06031E+04
 4.08500E-02    9.48917E+03
 6.73400E-02    8.54770E+03
 1.11000E-01    7.61572E+03
 1.83000E-01    6.69404E+03
 3.02000E-01    5.87714E+03
 5.00000E-01    5.21916E+03
 8.21000E-01    4.55335E+03
 1.35300E+00    3.65239E+03
 2.23100E+00    3.22356E+03
 3.67900E+00    2.56574E+03
 6.06500E+00    2.13196E+03
