# n + Yb168 : (n,n'02)  
# jendl4.0   S.Kunieda, A.Ichihara, K.Shibata+ EVAL-FEB10
# uncertainties: n
# # energies =    54
#   E(MeV)       xs(mb) 
 2.88272E-01    0.00000E+00
 3.00000E-01    4.71400E-01
 3.50000E-01    5.12200E+00
 4.00000E-01    1.52000E+01
 4.50000E-01    3.09100E+01
 5.00000E-01    5.16900E+01
 5.50000E-01    7.68900E+01
 6.00000E-01    1.05500E+02
 6.50000E-01    1.36000E+02
 7.00000E-01    1.67300E+02
 7.50000E-01    1.98500E+02
 8.00000E-01    2.28900E+02
 8.50000E-01    2.57900E+02
 9.00000E-01    2.85100E+02
 9.50000E-01    3.10200E+02
 1.00000E+00    3.25400E+02
 1.20000E+00    3.54000E+02
 1.40000E+00    3.57800E+02
 1.60000E+00    3.12600E+02
 1.80000E+00    2.69700E+02
 2.00000E+00    2.32000E+02
 2.20000E+00    1.99600E+02
 2.40000E+00    1.72200E+02
 2.60000E+00    1.49600E+02
 2.80000E+00    1.31400E+02
 3.00000E+00    1.17100E+02
 3.25000E+00    1.03700E+02
 3.50000E+00    9.33400E+01
 3.75000E+00    8.60500E+01
 4.00000E+00    8.05500E+01
 4.25000E+00    7.63500E+01
 4.50000E+00    7.30400E+01
 4.75000E+00    7.03700E+01
 5.00000E+00    6.81700E+01
 5.50000E+00    6.45700E+01
 6.00000E+00    6.14600E+01
 6.50000E+00    5.84700E+01
 7.00000E+00    5.55000E+01
 7.50000E+00    5.25600E+01
 8.00000E+00    4.97200E+01
 8.50000E+00    4.70100E+01
 9.00000E+00    4.44700E+01
 9.50000E+00    4.21200E+01
 1.00000E+01    3.99500E+01
 1.10000E+01    3.61500E+01
 1.20000E+01    3.29200E+01
 1.30000E+01    3.01300E+01
 1.40000E+01    2.77000E+01
 1.50000E+01    2.55800E+01
 1.60000E+01    2.37600E+01
 1.70000E+01    2.21700E+01
 1.80000E+01    2.07600E+01
 1.90000E+01    1.94900E+01
 2.00000E+01    1.83200E+01
