# n + Tl204 : (n,n'13)  
# tendl.2019 A.J. Koning and D. Rochman        EVAL-NOV19
# uncertainties: n
# # energies =    87
#   E(MeV)       xs(mb) 
 5.38249E-01    0.00000E+00
 6.00000E-01    3.48115E+01
 6.29407E-01    4.03056E+01
 6.32512E-01    4.08857E+01
 6.81313E-01    5.00031E+01
 7.00000E-01    5.34944E+01
 7.39921E-01    5.72965E+01
 7.54412E-01    5.86767E+01
 7.68080E-01    5.99784E+01
 8.00000E-01    6.30185E+01
 8.63248E-01    6.60583E+01
 8.76835E-01    6.67113E+01
 9.00000E-01    6.78246E+01
 9.10470E-01    6.79885E+01
 9.70777E-01    6.89323E+01
 1.00000E+00    6.93897E+01
 1.01823E+00    6.91736E+01
 1.05117E+00    6.87832E+01
 1.05638E+00    6.87215E+01
 1.06394E+00    6.86319E+01
 1.10554E+00    6.81389E+01
 1.10936E+00    6.80936E+01
 1.12689E+00    6.78858E+01
 1.20000E+00    6.70193E+01
 1.40000E+00    6.23802E+01
 1.60000E+00    5.78953E+01
 1.80000E+00    5.39605E+01
 2.00000E+00    5.03582E+01
 2.20000E+00    4.67081E+01
 2.40000E+00    4.27261E+01
 2.60000E+00    3.83385E+01
 2.80000E+00    3.36859E+01
 3.00000E+00    2.90092E+01
 3.20000E+00    2.45478E+01
 3.40000E+00    2.04693E+01
 3.60000E+00    1.68663E+01
 3.80000E+00    1.37659E+01
 4.00000E+00    1.11510E+01
 4.20000E+00    8.97899E+00
 4.40000E+00    7.19499E+00
 4.60000E+00    5.73951E+00
 4.80000E+00    4.55783E+00
 5.00000E+00    3.60210E+00
 5.20000E+00    2.83193E+00
 5.40000E+00    2.20612E+00
 5.60000E+00    1.71350E+00
 5.80000E+00    1.32170E+00
 6.00000E+00    1.01561E+00
 6.20000E+00    7.78398E-01
 6.40000E+00    5.94160E-01
 6.60000E+00    4.53527E-01
 6.80000E+00    3.45675E-01
 7.00000E+00    2.63276E-01
 7.20000E+00    2.00707E-01
 7.40000E+00    1.52926E-01
 7.60000E+00    1.16823E-01
 7.80000E+00    8.92766E-02
 8.00000E+00    6.83043E-02
 8.50000E+00    3.51436E-02
 9.00000E+00    1.81678E-02
 9.50000E+00    9.41912E-03
 1.00000E+01    4.89217E-03
 1.05000E+01    2.54564E-03
 1.10000E+01    1.32831E-03
 1.15000E+01    6.95811E-04
 1.20000E+01    3.66394E-04
 1.25000E+01    1.94127E-04
 1.30000E+01    1.03546E-04
 1.35000E+01    5.56128E-05
 1.40000E+01    3.00649E-05
 1.45000E+01    1.63534E-05
 1.50000E+01    8.94484E-06
 1.60000E+01    2.71414E-06
 1.70000E+01    8.33840E-07
 1.80000E+01    2.61930E-07
 1.90000E+01    8.38930E-08
 2.00000E+01    2.74180E-08
 2.10000E+01    9.15130E-09
 2.20000E+01    3.11500E-09
 2.30000E+01    1.07890E-09
 2.40000E+01    3.80090E-10
 2.50000E+01    1.35930E-10
 2.60000E+01    4.93450E-11
 2.70000E+01    1.81670E-11
 2.80000E+01    6.77980E-12
 2.90000E+01    2.56700E-12
 3.00000E+01    9.86570E-13
