# n + Ni 62 : (n,tot)   
# jendl.ad   S.IIJIMA                          EVAL-MAR87
# uncertainties: n
# # energies =    69
#   E(MeV)       xs(mb) 
 1.00000E-10    1.03837E+05
 5.00000E-09    2.82733E+04
 1.00000E-08    2.14126E+04
 1.50000E-08    1.79905E+04
 2.00000E-08    1.58278E+04
 2.50000E-08    1.42998E+04
 3.00000E-08    1.31448E+04
 3.50000E-08    1.20863E+04
 4.20000E-08    1.10549E+04
 5.00000E-08    1.01968E+04
 5.80000E-08    9.47682E+03
 6.70000E-08    8.74675E+03
 8.00000E-08    7.91517E+03
 1.00000E-07    6.88536E+03
 1.40000E-07    5.94227E+03
 1.80000E-07    5.30599E+03
 2.20000E-07    4.88593E+03
 2.50000E-07    4.59963E+03
 2.80000E-07    4.39462E+03
 3.00000E-07    4.25108E+03
 3.20000E-07    4.09072E+03
 3.50000E-07    3.86884E+03
 4.00000E-07    3.54019E+03
 5.00000E-07    3.16717E+03
 6.25000E-07    2.83449E+03
 7.80000E-07    2.62397E+03
 8.50000E-07    2.52439E+03
 9.10000E-07    2.45536E+03
 9.50000E-07    2.41439E+03
 9.72000E-07    2.38621E+03
 9.96000E-07    2.35809E+03
 1.02000E-06    2.32940E+03
 1.04500E-06    2.30113E+03
 1.07100E-06    2.27398E+03
 1.09700E-06    2.24684E+03
 1.12300E-06    2.22076E+03
 1.15000E-06    2.14177E+03
 1.30000E-06    2.00430E+03
 1.50000E-06    1.77969E+03
 2.10000E-06    1.55007E+03
 2.60000E-06    1.38505E+03
 3.30000E-06    1.24358E+03
 4.00000E-06    9.54399E+02
 9.87700E-06    6.72841E+02
 1.59680E-05    5.22234E+02
 2.77000E-05    3.99159E+02
 4.80520E-05    3.13514E+02
 7.55014E-05    2.41682E+02
 1.48728E-04    1.72868E+02
 3.67262E-04    1.29302E+02
 9.06898E-04    1.22014E+02
 1.42510E-03    1.45054E+02
 2.23945E-03    2.63908E+02
 3.51910E-03    5.82249E+02
 5.53000E-03    1.13828E+02
 9.11800E-03    3.30541E+01
 1.50300E-02    7.77859E+00
 2.47800E-02    1.58883E+01
 4.08500E-02    5.88584E+00
 6.73400E-02    6.72402E+00
 1.11000E-01    6.32514E+00
 1.83000E-01    5.64882E+00
 3.02000E-01    4.80316E+00
 5.00000E-01    4.62729E+00
 8.21000E-01    4.83647E+00
 1.35300E+00    2.81946E+00
 2.23100E+00    2.31981E+00
 3.67900E+00    1.01964E+00
 6.06500E+00    4.51091E+00
