# n + Ni 62 : (n,2p)    
# jendl.ad   S.IIJIMA                          EVAL-MAR87
# uncertainties: n
# # energies =   142
#   E(MeV)       xs(mb) 
 1.45000E+01    0.00000E+00
 1.50000E+01    4.70850E-34
 1.60000E+01    8.88340E-28
 1.70000E+01    3.37090E-15
 1.75000E+01    2.42180E-11
 1.77500E+01    2.05270E-09
 1.78750E+01    1.88990E-08
 1.79375E+01    5.73430E-08
 1.79688E+01    9.98860E-08
 1.79727E+01    1.07060E-07
 1.79761E+01    1.13760E-07
 1.79791E+01    1.19970E-07
 1.79817E+01    1.25670E-07
 1.79863E+01    1.36320E-07
 1.79897E+01    1.44900E-07
 1.79923E+01    1.51680E-07
 1.79961E+01    1.62450E-07
 1.80000E+01    1.73990E-07
 1.80142E+01    1.88460E-07
 1.80279E+01    2.03630E-07
 1.80413E+01    2.19490E-07
 1.80542E+01    2.36030E-07
 1.80667E+01    2.53240E-07
 1.80788E+01    2.71100E-07
 1.80905E+01    2.89610E-07
 1.81019E+01    3.08750E-07
 1.81129E+01    3.28490E-07
 1.81236E+01    3.48820E-07
 1.81339E+01    3.69710E-07
 1.81439E+01    3.91140E-07
 1.81536E+01    4.13090E-07
 1.81630E+01    4.35520E-07
 1.81721E+01    4.58420E-07
 1.81809E+01    4.81740E-07
 1.81894E+01    5.05470E-07
 1.81977E+01    5.29570E-07
 1.82057E+01    5.54010E-07
 1.82213E+01    6.04620E-07
 1.82358E+01    6.56270E-07
 1.82495E+01    7.08680E-07
 1.82623E+01    7.61610E-07
 1.82743E+01    8.14820E-07
 1.82855E+01    8.68080E-07
 1.82960E+01    9.21160E-07
 1.83059E+01    9.73870E-07
 1.83152E+01    1.02602E-06
 1.83239E+01    1.07745E-06
 1.83320E+01    1.12800E-06
 1.83473E+01    1.22926E-06
 1.83607E+01    1.32529E-06
 1.83724E+01    1.41546E-06
 1.83826E+01    1.49937E-06
 1.83915E+01    1.57686E-06
 1.84072E+01    1.72224E-06
 1.84189E+01    1.84000E-06
 1.84278E+01    1.93357E-06
 1.84410E+01    2.08293E-06
 1.84542E+01    2.24383E-06
 1.84713E+01    2.42900E-06
 1.84873E+01    2.61645E-06
 1.85023E+01    2.80530E-06
 1.85164E+01    2.99471E-06
 1.85296E+01    3.18388E-06
 1.85420E+01    3.37207E-06
 1.85535E+01    3.55858E-06
 1.85644E+01    3.74280E-06
 1.85746E+01    3.92415E-06
 1.85937E+01    4.28820E-06
 1.86104E+01    4.63435E-06
 1.86251E+01    4.96008E-06
 1.86379E+01    5.26381E-06
 1.86491E+01    5.54480E-06
 1.86589E+01    5.80295E-06
 1.86760E+01    6.28395E-06
 1.86889E+01    6.67069E-06
 1.86985E+01    6.97628E-06
 1.87130E+01    7.46112E-06
 1.87275E+01    7.97966E-06
 1.87445E+01    8.54369E-06
 1.87605E+01    9.10862E-06
 1.87755E+01    9.67213E-06
 1.87895E+01    1.02320E-05
 1.88027E+01    1.07864E-05
 1.88150E+01    1.13333E-05
 1.88265E+01    1.18712E-05
 1.88482E+01    1.29495E-05
 1.88672E+01    1.39730E-05
 1.88838E+01    1.49348E-05
 1.88983E+01    1.58305E-05
 1.89110E+01    1.66582E-05
 1.89333E+01    1.82121E-05
 1.89500E+01    1.94720E-05
 1.89625E+01    2.04738E-05
 1.89812E+01    2.20739E-05
 1.90000E+01    2.37991E-05
 1.90246E+01    2.57196E-05
 1.90484E+01    2.77277E-05
 1.90715E+01    2.98225E-05
 1.90938E+01    3.20026E-05
 1.91155E+01    3.42664E-05
 1.91364E+01    3.66121E-05
 1.91568E+01    3.90375E-05
 1.91765E+01    4.15403E-05
 1.91955E+01    4.41177E-05
 1.92140E+01    4.67670E-05
 1.92319E+01    4.94851E-05
 1.92492E+01    5.22689E-05
 1.92660E+01    5.51149E-05
 1.92823E+01    5.80196E-05
 1.92981E+01    6.09795E-05
 1.93133E+01    6.39908E-05
 1.93281E+01    6.70498E-05
 1.93425E+01    7.01525E-05
 1.93702E+01    7.65785E-05
 1.93962E+01    8.31365E-05
 1.94207E+01    8.97938E-05
 1.94435E+01    9.65183E-05
 1.94650E+01    1.03279E-04
 1.94851E+01    1.10047E-04
 1.95039E+01    1.16794E-04
 1.95216E+01    1.23495E-04
 1.95382E+01    1.30126E-04
 1.95537E+01    1.36665E-04
 1.95683E+01    1.43093E-04
 1.95956E+01    1.55973E-04
 1.96195E+01    1.68190E-04
 1.96404E+01    1.79663E-04
 1.96587E+01    1.90342E-04
 1.96747E+01    2.00205E-04
 1.97027E+01    2.18712E-04
 1.97237E+01    2.33706E-04
 1.97394E+01    2.45623E-04
 1.97631E+01    2.64646E-04
 1.97867E+01    2.85143E-04
 1.98134E+01    3.04704E-04
 1.98367E+01    3.22918E-04
 1.98571E+01    3.39745E-04
 1.98928E+01    3.71331E-04
 1.99196E+01    3.96933E-04
 1.99397E+01    4.17287E-04
 1.99699E+01    4.49791E-04
 2.00000E+01    4.84826E-04
