# n + Zn 68 : (n,g)     
# jendl4.0   N.Iwamoto                         EVAL-Dec09
# uncertainties: n
# # energies =   171
#   E(MeV)       xs(mb) 
 1.00000E-11    1.15162E+04
 1.00000E-07    3.83775E+02
 4.13990E-07    2.47896E+02
 5.31580E-07    2.18863E+02
 6.82560E-07    1.93257E+02
 8.76420E-07    1.70680E+02
 1.12540E-06    1.50799E+02
 1.44500E-06    1.33294E+02
 1.85540E-06    1.17953E+02
 2.37240E-06    1.04328E+02
 3.05900E-06    9.22023E+01
 3.92790E-06    8.16443E+01
 5.04350E-06    7.23684E+01
 6.47600E-06    6.42180E+01
 8.31530E-06    5.70907E+01
 1.06770E-05    5.08477E+01
 1.37100E-05    4.54152E+01
 1.76030E-05    4.07121E+01
 2.26030E-05    3.66220E+01
 2.92030E-05    3.31871E+01
 3.72670E-05    3.03690E+01
 4.78510E-05    2.80623E+01
 6.14420E-05    2.63345E+01
 7.88930E-05    2.52544E+01
 1.01300E-04    2.49582E+01
 1.30070E-04    2.58272E+01
 1.67020E-04    2.86993E+01
 2.14450E-04    3.60136E+01
 2.75360E-04    5.74851E+01
 3.53580E-04    1.86854E+02
 4.54000E-04    9.51166E+03
 5.82950E-04    1.09327E+02
 7.48520E-04    1.43744E+01
 9.61120E-04    4.31516E+00
 1.23410E-03    1.75194E+00
 1.58460E-03    8.54811E-01
 2.03470E-03    5.54770E-01
 2.24870E-03    4.50412E-01
 2.48520E-03    3.89825E-01
 2.61260E-03    3.56892E-01
 2.74650E-03    3.16942E-01
 3.03540E-03    2.79141E-01
 3.35460E-03    3.02443E-01
 3.70740E-03    1.09458E+02
 4.30740E-03    4.78162E+01
 5.53080E-03    1.79845E-01
 7.10170E-03    8.79112E+01
 9.11880E-03    2.40054E+01
 1.17090E-02    1.99936E+01
 1.50340E-02    4.18513E+01
 1.93050E-02    3.03163E+01
 2.18750E-02    9.13495E+00
 2.35790E-02    2.32141E-01
 2.41760E-02    7.45877E+01
 2.47880E-02    6.08827E+00
 2.60580E-02    6.77204E+01
 2.70000E-02    5.12857E+00
 2.85000E-02    9.19252E+00
 3.18280E-02    2.05346E+01
 3.43070E-02    1.73629E+01
 4.08680E-02    1.02454E+01
 4.63090E-02    1.14869E+01
 5.24750E-02    2.28755E+01
 5.65620E-02    1.86201E+01
 6.73790E-02    1.37484E+01
 7.20000E-02    1.35386E+01
 7.95000E-02    9.96326E+00
 8.25000E-02    4.23266E+00
 8.65170E-02    8.97308E+00
 9.80370E-02    1.09500E+01
 1.11090E-01    1.49550E+01
 1.16790E-01    1.45680E+01
 1.22770E-01    1.42028E+01
 1.29070E-01    1.38312E+01
 1.35690E-01    1.34429E+01
 1.42640E-01    1.30788E+01
 1.49960E-01    1.27380E+01
 1.57640E-01    1.24223E+01
 1.65730E-01    1.21538E+01
 1.74220E-01    1.20324E+01
 1.83160E-01    1.18283E+01
 1.92550E-01    1.16107E+01
 2.02420E-01    1.13640E+01
 2.12800E-01    1.11064E+01
 2.23710E-01    1.08740E+01
 2.35180E-01    1.06775E+01
 2.47240E-01    1.04267E+01
 2.73240E-01    1.02654E+01
 2.87250E-01    1.02629E+01
 2.94520E-01    1.02622E+01
 2.97200E-01    1.02620E+01
 2.98500E-01    1.02591E+01
 3.01970E-01    1.01805E+01
 3.33730E-01    1.00375E+01
 3.68830E-01    9.93161E+00
 3.87740E-01    9.86571E+00
 4.07620E-01    9.83701E+00
 4.50490E-01    9.81387E+00
 4.97870E-01    9.81347E+00
 5.23400E-01    9.84379E+00
 5.50230E-01    9.87427E+00
 5.78440E-01    9.90723E+00
 6.08100E-01    9.98141E+00
 6.39280E-01    1.00720E+01
 6.72060E-01    1.01643E+01
 7.06510E-01    1.02874E+01
 7.42740E-01    1.04271E+01
 7.80820E-01    1.05755E+01
 8.20850E-01    1.07662E+01
 8.62940E-01    1.09723E+01
 9.07180E-01    1.12247E+01
 9.61640E-01    1.14907E+01
 1.00260E+00    1.17669E+01
 1.10800E+00    9.51939E+00
 1.16480E+00    7.83672E+00
 1.22460E+00    6.93189E+00
 1.28730E+00    6.33299E+00
 1.35340E+00    5.96899E+00
 1.42270E+00    5.74181E+00
 1.49570E+00    5.61971E+00
 1.57240E+00    5.58652E+00
 1.65300E+00    5.54607E+00
 1.73770E+00    5.55743E+00
 1.82680E+00    5.65522E+00
 1.92050E+00    5.53468E+00
 2.01900E+00    5.40308E+00
 2.12250E+00    5.39449E+00
 2.23130E+00    5.41176E+00
 2.30690E+00    5.47123E+00
 2.34570E+00    5.50295E+00
 2.36530E+00    5.51410E+00
 2.38520E+00    5.38899E+00
 2.46600E+00    4.70765E+00
 2.59240E+00    4.34118E+00
 2.72530E+00    4.07196E+00
 2.86500E+00    3.82560E+00
 3.01190E+00    3.58308E+00
 3.16640E+00    3.29954E+00
 3.32870E+00    2.85478E+00
 3.67880E+00    2.39185E+00
 4.06570E+00    2.04377E+00
 4.49330E+00    1.82871E+00
 4.72370E+00    1.70392E+00
 4.96590E+00    1.58770E+00
 5.22050E+00    1.47964E+00
 5.48810E+00    1.37799E+00
 5.76950E+00    1.28237E+00
 6.06530E+00    1.19132E+00
 6.37630E+00    1.11954E+00
 6.59240E+00    1.07912E+00
 6.70320E+00    1.02726E+00
 7.04690E+00    9.52988E-01
 7.40820E+00    8.84756E-01
 7.78800E+00    8.23988E-01
 8.18730E+00    7.65643E-01
 8.60710E+00    7.17183E-01
 9.04840E+00    6.80796E-01
 9.51230E+00    6.58001E-01
 1.00000E+01    6.48018E-01
 1.05130E+01    6.49262E-01
 1.10520E+01    6.58828E-01
 1.16180E+01    6.78044E-01
 1.22140E+01    7.04657E-01
 1.28400E+01    7.31403E-01
 1.34990E+01    7.60902E-01
 1.38400E+01    7.80312E-01
 1.41910E+01    7.95885E-01
 1.45500E+01    8.08021E-01
 1.49180E+01    8.15435E-01
 1.56830E+01    8.00810E-01
 1.64870E+01    7.55700E-01
