# n + Zn 68 : (n,n'13)  
# jendl4.0   N.Iwamoto                         EVAL-Dec09
# uncertainties: n
# # energies =    50
#   E(MeV)       xs(mb) 
 3.12695E+00    0.00000E+00
 3.14852E+00    7.59664E+00
 3.20043E+00    1.36543E+01
 3.20703E+00    1.42504E+01
 3.21098E+00    1.46026E+01
 3.23143E+00    1.63387E+01
 3.23392E+00    1.65403E+01
 3.33017E+00    2.36325E+01
 3.33590E+00    2.39673E+01
 3.39578E+00    2.77112E+01
 3.43527E+00    3.01344E+01
 3.45140E+00    3.10672E+01
 3.47590E+00    3.24308E+01
 3.48035E+00    3.25298E+01
 3.50000E+00    3.33940E+01
 3.51010E+00    3.38626E+01
 3.53908E+00    3.50710E+01
 4.00000E+00    4.32594E+01
 4.50000E+00    3.47631E+01
 5.00000E+00    2.41843E+01
 5.50000E+00    1.69412E+01
 6.00000E+00    1.22953E+01
 6.50000E+00    9.16662E+00
 7.00000E+00    6.86353E+00
 7.50000E+00    5.11858E+00
 8.00000E+00    3.85232E+00
 8.50000E+00    2.93611E+00
 9.00000E+00    2.29566E+00
 9.50000E+00    1.84846E+00
 1.00000E+01    1.53329E+00
 1.05000E+01    1.30602E+00
 1.10000E+01    1.14447E+00
 1.15000E+01    1.02161E+00
 1.20000E+01    9.29903E-01
 1.25000E+01    8.55626E-01
 1.30000E+01    7.95890E-01
 1.35000E+01    7.43526E-01
 1.40000E+01    6.99475E-01
 1.45000E+01    6.59180E-01
 1.50000E+01    6.24111E-01
 1.55000E+01    5.91412E-01
 1.60000E+01    5.62470E-01
 1.65000E+01    5.34946E-01
 1.70000E+01    5.10229E-01
 1.75000E+01    4.86211E-01
 1.80000E+01    4.64334E-01
 1.85000E+01    4.42932E-01
 1.90000E+01    4.23207E-01
 1.95000E+01    4.03861E-01
 2.00000E+01    3.85919E-01
