# n + Zn 68 : (n,n'17)  
# jendl4.0   N.Iwamoto                         EVAL-Dec09
# uncertainties: n
# # energies =    46
#   E(MeV)       xs(mb) 
 3.21098E+00    0.00000E+00
 3.23143E+00    9.19312E+00
 3.23392E+00    9.72598E+00
 3.33017E+00    2.21907E+01
 3.33590E+00    2.27667E+01
 3.39578E+00    2.82461E+01
 3.43527E+00    3.14894E+01
 3.45140E+00    3.27435E+01
 3.47590E+00    3.45270E+01
 3.48035E+00    3.47783E+01
 3.50000E+00    3.58336E+01
 3.51010E+00    3.64728E+01
 3.53908E+00    3.81863E+01
 4.00000E+00    5.03682E+01
 4.50000E+00    4.14539E+01
 5.00000E+00    2.83647E+01
 5.50000E+00    1.88829E+01
 6.00000E+00    1.27260E+01
 6.50000E+00    8.74315E+00
 7.00000E+00    6.02715E+00
 7.50000E+00    4.11858E+00
 8.00000E+00    2.81698E+00
 8.50000E+00    1.92833E+00
 9.00000E+00    1.34223E+00
 9.50000E+00    9.57720E-01
 1.00000E+01    7.04585E-01
 1.05000E+01    5.36260E-01
 1.10000E+01    4.24900E-01
 1.15000E+01    3.48798E-01
 1.20000E+01    2.96998E-01
 1.25000E+01    2.59924E-01
 1.30000E+01    2.33079E-01
 1.35000E+01    2.12178E-01
 1.40000E+01    1.95962E-01
 1.45000E+01    1.82352E-01
 1.50000E+01    1.71128E-01
 1.55000E+01    1.61163E-01
 1.60000E+01    1.52642E-01
 1.65000E+01    1.44736E-01
 1.70000E+01    1.37778E-01
 1.75000E+01    1.31113E-01
 1.80000E+01    1.25101E-01
 1.85000E+01    1.19274E-01
 1.90000E+01    1.13917E-01
 1.95000E+01    1.08700E-01
 2.00000E+01    1.03854E-01
