# n + Zn 68 : (n,n'19)  
# jendl4.0   N.Iwamoto                         EVAL-Dec09
# uncertainties: n
# # energies =    44
#   E(MeV)       xs(mb) 
 3.23392E+00    0.00000E+00
 3.33017E+00    1.77518E+01
 3.33590E+00    1.86540E+01
 3.39578E+00    2.47527E+01
 3.43527E+00    2.84390E+01
 3.45140E+00    2.98509E+01
 3.47590E+00    3.17442E+01
 3.48035E+00    3.20497E+01
 3.50000E+00    3.34071E+01
 3.51010E+00    3.41401E+01
 3.53908E+00    3.61869E+01
 4.00000E+00    4.94011E+01
 4.50000E+00    4.16279E+01
 5.00000E+00    2.94533E+01
 5.50000E+00    2.03273E+01
 6.00000E+00    1.42582E+01
 6.50000E+00    1.02972E+01
 7.00000E+00    7.53892E+00
 7.50000E+00    5.52325E+00
 8.00000E+00    4.09146E+00
 8.50000E+00    3.08074E+00
 9.00000E+00    2.39224E+00
 9.50000E+00    1.92373E+00
 1.00000E+01    1.60072E+00
 1.05000E+01    1.37159E+00
 1.10000E+01    1.21028E+00
 1.15000E+01    1.08806E+00
 1.20000E+01    9.96756E-01
 1.25000E+01    9.22274E-01
 1.30000E+01    8.61842E-01
 1.35000E+01    8.08222E-01
 1.40000E+01    7.62339E-01
 1.45000E+01    7.20003E-01
 1.50000E+01    6.82737E-01
 1.55000E+01    6.47640E-01
 1.60000E+01    6.16527E-01
 1.65000E+01    5.86683E-01
 1.70000E+01    5.59907E-01
 1.75000E+01    5.33786E-01
 1.80000E+01    5.09969E-01
 1.85000E+01    4.86682E-01
 1.90000E+01    4.65136E-01
 1.95000E+01    4.44071E-01
 2.00000E+01    4.24427E-01
