# n + Zn 68 : (n,xt)    
# jendl4.0   N.Iwamoto                         EVAL-Dec09
# 
# # energies =   100
#   E(MeV)        xs(mb) 
 1.05000E-01    0.00000E+00
 1.10000E-01    0.00000E+00
 1.20000E-01    0.00000E+00
 1.30000E-01    0.00000E+00
 1.40000E-01    0.00000E+00
 1.50000E-01    0.00000E+00
 1.60000E-01    0.00000E+00
 1.70000E-01    0.00000E+00
 1.80000E-01    0.00000E+00
 1.90000E-01    0.00000E+00
 2.00000E-01    0.00000E+00
 2.25000E-01    0.00000E+00
 2.50000E-01    0.00000E+00
 2.75000E-01    0.00000E+00
 3.00000E-01    0.00000E+00
 4.00000E-01    0.00000E+00
 5.00000E-01    0.00000E+00
 6.00000E-01    0.00000E+00
 7.00000E-01    0.00000E+00
 8.00000E-01    0.00000E+00
 9.00000E-01    0.00000E+00
 1.00000E+00    0.00000E+00
 1.09337E+00    0.00000E+00
 1.10000E+00    0.00000E+00
 1.20000E+00    0.00000E+00
 1.30000E+00    0.00000E+00
 1.40000E+00    0.00000E+00
 1.50000E+00    0.00000E+00
 1.60000E+00    0.00000E+00
 1.68053E+00    0.00000E+00
 1.70000E+00    0.00000E+00
 1.80000E+00    0.00000E+00
 1.90000E+00    0.00000E+00
 1.91110E+00    0.00000E+00
 2.00000E+00    0.00000E+00
 2.25000E+00    0.00000E+00
 2.37301E+00    0.00000E+00
 2.40550E+00    0.00000E+00
 2.45334E+00    0.00000E+00
 2.50000E+00    0.00000E+00
 2.54748E+00    0.00000E+00
 2.75000E+00    0.00000E+00
 2.79122E+00    0.00000E+00
 2.86348E+00    0.00000E+00
 2.99979E+00    0.00000E+00
 3.00000E+00    0.00000E+00
 3.00410E+00    0.00000E+00
 3.05389E+00    0.00000E+00
 3.12695E+00    0.00000E+00
 3.12696E+00    0.00000E+00
 3.14852E+00    0.00000E+00
 3.20043E+00    0.00000E+00
 3.20703E+00    0.00000E+00
 3.21098E+00    0.00000E+00
 3.23143E+00    0.00000E+00
 3.23392E+00    0.00000E+00
 3.33017E+00    0.00000E+00
 3.33590E+00    0.00000E+00
 3.39578E+00    0.00000E+00
 3.43527E+00    0.00000E+00
 3.45140E+00    0.00000E+00
 3.47590E+00    0.00000E+00
 3.48035E+00    0.00000E+00
 3.50000E+00    0.00000E+00
 3.51010E+00    0.00000E+00
 3.53908E+00    0.00000E+00
 3.53909E+00    0.00000E+00
 4.00000E+00    0.00000E+00
 4.50000E+00    0.00000E+00
 5.00000E+00    0.00000E+00
 5.50000E+00    0.00000E+00
 6.00000E+00    0.00000E+00
 6.50000E+00    0.00000E+00
 7.00000E+00    0.00000E+00
 7.50000E+00    0.00000E+00
 8.00000E+00    0.00000E+00
 8.50000E+00    0.00000E+00
 9.00000E+00    0.00000E+00
 9.50000E+00    0.00000E+00
 1.00000E+01    0.00000E+00
 1.05000E+01    0.00000E+00
 1.10000E+01    2.07394E-10
 1.15000E+01    2.28784E-08
 1.20000E+01    6.25460E-08
 1.25000E+01    5.67790E-07
 1.30000E+01    2.09464E-05
 1.35000E+01    2.38777E-04
 1.40000E+01    1.28677E-03
 1.45000E+01    4.29249E-03
 1.50000E+01    1.05314E-02
 1.55000E+01    2.16452E-02
 1.60000E+01    4.02971E-02
 1.65000E+01    6.97690E-02
 1.70000E+01    1.12883E-01
 1.75000E+01    1.71085E-01
 1.80000E+01    2.44811E-01
 1.85000E+01    3.33364E-01
 1.90000E+01    4.36140E-01
 1.95000E+01    5.51565E-01
 2.00000E+01    6.78423E-01
