# n + Zn 68 : (n,n'15)  
# jendl4.0   N.Iwamoto                         EVAL-Dec09
# uncertainties: n
# # energies =    48
#   E(MeV)       xs(mb) 
 3.20043E+00    0.00000E+00
 3.20703E+00    3.15356E+00
 3.21098E+00    4.00084E+00
 3.23143E+00    7.10533E+00
 3.23392E+00    7.42351E+00
 3.33017E+00    1.75669E+01
 3.33590E+00    1.80952E+01
 3.39578E+00    2.34536E+01
 3.43527E+00    2.68010E+01
 3.45140E+00    2.81308E+01
 3.47590E+00    2.99948E+01
 3.48035E+00    3.02565E+01
 3.50000E+00    3.15602E+01
 3.51010E+00    3.22077E+01
 3.53908E+00    3.40350E+01
 4.00000E+00    4.73774E+01
 4.50000E+00    4.00000E+01
 5.00000E+00    2.85859E+01
 5.50000E+00    1.99175E+01
 6.00000E+00    1.40602E+01
 6.50000E+00    1.01432E+01
 7.00000E+00    7.33422E+00
 7.50000E+00    5.24603E+00
 8.00000E+00    3.75749E+00
 8.50000E+00    2.70667E+00
 9.00000E+00    1.99430E+00
 9.50000E+00    1.51453E+00
 1.00000E+01    1.18979E+00
 1.05000E+01    9.66267E-01
 1.10000E+01    8.13904E-01
 1.15000E+01    7.04477E-01
 1.20000E+01    6.26681E-01
 1.25000E+01    5.67327E-01
 1.30000E+01    5.21831E-01
 1.35000E+01    4.83873E-01
 1.40000E+01    4.52844E-01
 1.45000E+01    4.25341E-01
 1.50000E+01    4.01800E-01
 1.55000E+01    3.80159E-01
 1.60000E+01    3.61226E-01
 1.65000E+01    3.43312E-01
 1.70000E+01    3.27334E-01
 1.75000E+01    3.11847E-01
 1.80000E+01    2.97777E-01
 1.85000E+01    2.84058E-01
 1.90000E+01    2.71403E-01
 1.95000E+01    2.59036E-01
 2.00000E+01    2.47534E-01
