# n + Zn 68 : (n,n'05)  
# jendl4.0   N.Iwamoto                         EVAL-Dec09
# uncertainties: n
# # energies =    61
#   E(MeV)       xs(mb) 
 2.40550E+00    0.00000E+00
 2.45334E+00    2.67520E+01
 2.50000E+00    4.05007E+01
 2.54748E+00    5.37737E+01
 2.75000E+00    1.01626E+02
 2.79122E+00    1.09982E+02
 2.86348E+00    1.18319E+02
 2.99979E+00    1.32117E+02
 3.00000E+00    1.30908E+02
 3.00410E+00    1.30816E+02
 3.05389E+00    1.31066E+02
 3.12696E+00    1.32379E+02
 3.14852E+00    1.31949E+02
 3.20043E+00    1.32353E+02
 3.20703E+00    1.32009E+02
 3.21098E+00    1.31794E+02
 3.23143E+00    1.30623E+02
 3.23392E+00    1.30446E+02
 3.33017E+00    1.26188E+02
 3.33590E+00    1.25786E+02
 3.39578E+00    1.22387E+02
 3.43527E+00    1.20191E+02
 3.45140E+00    1.19298E+02
 3.47590E+00    1.17628E+02
 3.48035E+00    1.17042E+02
 3.50000E+00    1.15174E+02
 3.51010E+00    1.14416E+02
 3.53908E+00    1.12397E+02
 4.00000E+00    8.10038E+01
 4.50000E+00    5.40976E+01
 5.00000E+00    3.64672E+01
 5.50000E+00    2.52258E+01
 6.00000E+00    1.76558E+01
 6.50000E+00    1.22124E+01
 7.00000E+00    8.33235E+00
 7.50000E+00    5.68127E+00
 8.00000E+00    3.93593E+00
 8.50000E+00    2.76276E+00
 9.00000E+00    1.98827E+00
 9.50000E+00    1.47539E+00
 1.00000E+01    1.13269E+00
 1.05000E+01    8.99540E-01
 1.10000E+01    7.41868E-01
 1.15000E+01    6.29906E-01
 1.20000E+01    5.50880E-01
 1.25000E+01    4.91376E-01
 1.30000E+01    4.46374E-01
 1.35000E+01    4.10346E-01
 1.40000E+01    3.81388E-01
 1.45000E+01    3.56453E-01
 1.50000E+01    3.35676E-01
 1.55000E+01    3.16726E-01
 1.60000E+01    3.00373E-01
 1.65000E+01    2.84881E-01
 1.70000E+01    2.71077E-01
 1.75000E+01    2.57749E-01
 1.80000E+01    2.45557E-01
 1.85000E+01    2.33786E-01
 1.90000E+01    2.22840E-01
 1.95000E+01    2.12287E-01
 2.00000E+01    2.02386E-01
