# n + Zn 68 : (n,d)     
# jendl4.0   N.Iwamoto                         EVAL-Dec09
# uncertainties: n
# # energies =    32
#   E(MeV)       xs(mb) 
 7.86797E+00    0.00000E+00
 8.99994E+00    6.19100E-08
 9.00000E+00    1.04980E-07
 9.05535E+00    4.14036E-05
 9.50000E+00    3.82308E-04
 9.53233E+00    4.24810E-04
 9.57292E+00    4.79489E-04
 9.83384E+00    8.34025E-04
 1.00000E+01    1.05989E-03
 1.01737E+01    1.77097E-03
 1.02427E+01    2.05354E-03
 1.04153E+01    2.76047E-03
 1.05000E+01    3.10738E-03
 1.10000E+01    1.64907E-02
 1.15000E+01    5.30954E-02
 1.20000E+01    1.58020E-01
 1.25000E+01    3.70259E-01
 1.30000E+01    7.15132E-01
 1.35000E+01    1.19165E+00
 1.40000E+01    1.78966E+00
 1.45000E+01    2.48385E+00
 1.50000E+01    3.25497E+00
 1.55000E+01    4.08037E+00
 1.60000E+01    4.95179E+00
 1.65000E+01    5.83844E+00
 1.70000E+01    6.74877E+00
 1.75000E+01    7.65322E+00
 1.80000E+01    8.56898E+00
 1.85000E+01    9.21372E+00
 1.90000E+01    1.01170E+01
 1.95000E+01    1.10009E+01
 2.00000E+01    1.18809E+01
