# n + Zn 68 : (n,n'27)  
# jendl4.0   N.Iwamoto                         EVAL-Dec09
# uncertainties: n
# # energies =    35
#   E(MeV)       xs(mb) 
 3.51010E+00    0.00000E+00
 3.53908E+00    1.10467E+00
 4.00000E+00    1.02865E+01
 4.50000E+00    1.36728E+01
 5.00000E+00    1.18110E+01
 5.50000E+00    9.21300E+00
 6.00000E+00    7.15226E+00
 6.50000E+00    5.66248E+00
 7.00000E+00    4.51856E+00
 7.50000E+00    3.56103E+00
 8.00000E+00    2.78286E+00
 8.50000E+00    2.16886E+00
 9.00000E+00    1.71628E+00
 9.50000E+00    1.38862E+00
 1.00000E+01    1.15173E+00
 1.05000E+01    9.77877E-01
 1.10000E+01    8.53401E-01
 1.15000E+01    7.58576E-01
 1.20000E+01    6.88213E-01
 1.25000E+01    6.31848E-01
 1.30000E+01    5.87133E-01
 1.35000E+01    5.48476E-01
 1.40000E+01    5.15572E-01
 1.45000E+01    4.85895E-01
 1.50000E+01    4.59980E-01
 1.55000E+01    4.35666E-01
 1.60000E+01    4.14446E-01
 1.65000E+01    3.94055E-01
 1.70000E+01    3.76007E-01
 1.75000E+01    3.58436E-01
 1.80000E+01    3.42479E-01
 1.85000E+01    3.26997E-01
 1.90000E+01    3.12599E-01
 1.95000E+01    2.98662E-01
 2.00000E+01    2.85539E-01
