# n + Zn 68 : (n,n'14)  
# jendl4.0   N.Iwamoto                         EVAL-Dec09
# uncertainties: n
# # energies =    49
#   E(MeV)       xs(mb) 
 3.14852E+00    0.00000E+00
 3.20043E+00    5.74312E+00
 3.20703E+00    6.19855E+00
 3.21098E+00    6.36127E+00
 3.23143E+00    7.35232E+00
 3.23392E+00    7.41803E+00
 3.33017E+00    1.10908E+01
 3.33590E+00    1.12855E+01
 3.39578E+00    1.31287E+01
 3.43527E+00    1.40192E+01
 3.45140E+00    1.42865E+01
 3.47590E+00    1.47265E+01
 3.48035E+00    1.48063E+01
 3.50000E+00    1.51062E+01
 3.51010E+00    1.52802E+01
 3.53908E+00    1.57660E+01
 4.00000E+00    1.70434E+01
 4.50000E+00    1.34256E+01
 5.00000E+00    9.44169E+00
 5.50000E+00    6.64889E+00
 6.00000E+00    4.85454E+00
 6.50000E+00    3.68542E+00
 7.00000E+00    2.85031E+00
 7.50000E+00    2.22541E+00
 8.00000E+00    1.77351E+00
 8.50000E+00    1.44903E+00
 9.00000E+00    1.22142E+00
 9.50000E+00    1.05983E+00
 1.00000E+01    9.41801E-01
 1.05000E+01    8.51322E-01
 1.10000E+01    7.82940E-01
 1.15000E+01    7.25738E-01
 1.20000E+01    6.79512E-01
 1.25000E+01    6.38282E-01
 1.30000E+01    6.02582E-01
 1.35000E+01    5.68929E-01
 1.40000E+01    5.39162E-01
 1.45000E+01    5.10762E-01
 1.50000E+01    4.85354E-01
 1.55000E+01    4.61118E-01
 1.60000E+01    4.39371E-01
 1.65000E+01    4.18414E-01
 1.70000E+01    3.99464E-01
 1.75000E+01    3.80923E-01
 1.80000E+01    3.63967E-01
 1.85000E+01    3.47330E-01
 1.90000E+01    3.31955E-01
 1.95000E+01    3.16860E-01
 2.00000E+01    3.02831E-01
