# n + Zn 68 : (n,g)     
# jendl4.0   N.Iwamoto                         EVAL-Dec09
# uncertainties: n
# # energies =    69
#   E(MeV)       xs(mb) 
 1.00000E-10    7.43577E+03
 5.00000E-09    2.02468E+03
 1.00000E-08    1.53341E+03
 1.50000E-08    1.28838E+03
 2.00000E-08    1.13356E+03
 2.50000E-08    1.02414E+03
 3.00000E-08    9.41437E+02
 3.50000E-08    8.65582E+02
 4.20000E-08    7.91733E+02
 5.00000E-08    7.30318E+02
 5.80000E-08    6.78807E+02
 6.70000E-08    6.26454E+02
 8.00000E-08    5.66907E+02
 1.00000E-07    4.93275E+02
 1.40000E-07    4.25694E+02
 1.80000E-07    3.80171E+02
 2.20000E-07    3.50160E+02
 2.50000E-07    3.29692E+02
 2.80000E-07    3.14999E+02
 3.00000E-07    3.04674E+02
 3.20000E-07    2.93192E+02
 3.50000E-07    2.77347E+02
 4.00000E-07    2.53841E+02
 5.00000E-07    2.27127E+02
 6.25000E-07    2.03321E+02
 7.80000E-07    1.88270E+02
 8.50000E-07    1.81192E+02
 9.10000E-07    1.76248E+02
 9.50000E-07    1.73385E+02
 9.72000E-07    1.71361E+02
 9.96000E-07    1.69319E+02
 1.02000E-06    1.67312E+02
 1.04500E-06    1.65303E+02
 1.07100E-06    1.63327E+02
 1.09700E-06    1.61418E+02
 1.12300E-06    1.59557E+02
 1.15000E-06    1.53895E+02
 1.30000E-06    1.44112E+02
 1.50000E-06    1.28163E+02
 2.10000E-06    1.11859E+02
 2.60000E-06    1.00121E+02
 3.30000E-06    9.00824E+01
 4.00000E-06    6.96866E+01
 9.87700E-06    5.00776E+01
 1.59680E-05    3.99060E+01
 2.77000E-05    3.20635E+01
 4.80520E-05    2.73180E+01
 7.55014E-05    2.52166E+01
 1.48728E-04    4.08562E+01
 3.67262E-04    2.71229E+03
 9.06898E-04    4.06448E+00
 1.42510E-03    9.12333E-01
 2.23945E-03    3.47195E-01
 3.51910E-03    6.28129E+01
 5.53000E-03    4.40408E+01
 9.11800E-03    2.20074E+01
 1.50300E-02    3.36178E+01
 2.47800E-02    1.71672E+01
 4.08500E-02    1.53803E+01
 6.73400E-02    1.06141E+01
 1.11000E-01    1.33479E+01
 1.83000E-01    1.08859E+01
 3.02000E-01    9.95215E+00
 5.00000E-01    1.00974E+01
 8.21000E-01    9.85787E+00
 1.35300E+00    5.60115E+00
 2.23100E+00    4.04011E+00
 3.67900E+00    1.81313E+00
 6.06500E+00    8.80837E-01
