# n + Zn 68 : (n,n'02)  
# jendl4.0   N.Iwamoto                         EVAL-Dec09
# uncertainties: n
# # energies =    69
#   E(MeV)       xs(mb) 
 1.68053E+00    0.00000E+00
 1.70000E+00    2.43525E+01
 1.80000E+00    5.68724E+01
 1.90000E+00    7.98275E+01
 1.91110E+00    8.21008E+01
 2.00000E+00    9.61220E+01
 2.25000E+00    1.21492E+02
 2.37301E+00    1.27202E+02
 2.40550E+00    1.26400E+02
 2.45334E+00    1.25142E+02
 2.50000E+00    1.24045E+02
 2.54748E+00    1.23468E+02
 2.75000E+00    1.11778E+02
 2.79122E+00    1.09670E+02
 2.86348E+00    1.05224E+02
 2.99979E+00    9.49975E+01
 3.00000E+00    9.85601E+01
 3.00410E+00    9.82959E+01
 3.05389E+00    9.52299E+01
 3.12696E+00    9.07575E+01
 3.14852E+00    8.94853E+01
 3.20043E+00    8.56917E+01
 3.20703E+00    8.51274E+01
 3.21098E+00    8.45499E+01
 3.23143E+00    8.22759E+01
 3.23392E+00    8.18426E+01
 3.33017E+00    7.28510E+01
 3.33590E+00    7.23627E+01
 3.39578E+00    6.76204E+01
 3.43527E+00    6.44254E+01
 3.45140E+00    6.30938E+01
 3.47590E+00    6.11869E+01
 3.48035E+00    6.08399E+01
 3.50000E+00    5.92558E+01
 3.51010E+00    5.85706E+01
 3.53908E+00    5.67055E+01
 4.00000E+00    3.52726E+01
 4.50000E+00    2.36000E+01
 5.00000E+00    1.69073E+01
 5.50000E+00    1.24007E+01
 6.00000E+00    9.16881E+00
 6.50000E+00    6.89426E+00
 7.00000E+00    5.34063E+00
 7.50000E+00    4.28860E+00
 8.00000E+00    3.57339E+00
 8.50000E+00    3.06681E+00
 9.00000E+00    2.70053E+00
 9.50000E+00    2.42505E+00
 1.00000E+01    2.20767E+00
 1.05000E+01    2.02496E+00
 1.10000E+01    1.87560E+00
 1.15000E+01    1.74034E+00
 1.20000E+01    1.62399E+00
 1.25000E+01    1.51757E+00
 1.30000E+01    1.42497E+00
 1.35000E+01    1.33932E+00
 1.40000E+01    1.26470E+00
 1.45000E+01    1.19467E+00
 1.50000E+01    1.13292E+00
 1.55000E+01    1.07395E+00
 1.60000E+01    1.02100E+00
 1.65000E+01    9.69713E-01
 1.70000E+01    9.22746E-01
 1.75000E+01    8.76828E-01
 1.80000E+01    8.34474E-01
 1.85000E+01    7.93353E-01
 1.90000E+01    7.55132E-01
 1.95000E+01    7.18171E-01
 2.00000E+01    6.83719E-01
