# n + Lu176 : (n,n'26)  
# tendl.2019 A.J. Koning and D. Rochman        EVAL-NOV19
# uncertainties: n
# # energies =    73
#   E(MeV)       xs(mb) 
 5.99160E-01    0.00000E+00
 6.16967E-01    2.04040E+00
 6.18626E-01    2.23991E+00
 6.38837E-01    4.67042E+00
 6.41416E-01    4.98057E+00
 7.00000E-01    1.20257E+01
 8.00000E-01    1.59943E+01
 9.00000E-01    1.71328E+01
 1.00000E+00    1.56209E+01
 1.20000E+00    1.03300E+01
 1.40000E+00    6.26091E+00
 1.60000E+00    3.82958E+00
 1.80000E+00    2.42025E+00
 2.00000E+00    1.58317E+00
 2.20000E+00    1.06668E+00
 2.40000E+00    7.36139E-01
 2.60000E+00    5.18134E-01
 2.80000E+00    3.70578E-01
 3.00000E+00    2.68413E-01
 3.20000E+00    1.96615E-01
 3.40000E+00    1.45469E-01
 3.60000E+00    1.08708E-01
 3.80000E+00    8.19534E-02
 4.00000E+00    6.23478E-02
 4.20000E+00    4.78875E-02
 4.40000E+00    3.71170E-02
 4.60000E+00    2.89860E-02
 4.80000E+00    2.27746E-02
 5.00000E+00    1.79725E-02
 5.20000E+00    1.42250E-02
 5.40000E+00    1.12458E-02
 5.60000E+00    8.90354E-03
 5.80000E+00    6.97042E-03
 6.00000E+00    5.46257E-03
 6.20000E+00    4.27376E-03
 6.40000E+00    3.33090E-03
 6.60000E+00    2.59377E-03
 6.80000E+00    2.01380E-03
 7.00000E+00    1.55944E-03
 7.20000E+00    1.20661E-03
 7.40000E+00    9.31948E-04
 7.60000E+00    7.19925E-04
 7.80000E+00    5.56226E-04
 8.00000E+00    4.29918E-04
 8.50000E+00    2.27491E-04
 9.00000E+00    1.22062E-04
 9.50000E+00    6.65379E-05
 1.00000E+01    3.68246E-05
 1.05000E+01    2.06555E-05
 1.10000E+01    1.17093E-05
 1.15000E+01    6.69613E-06
 1.20000E+01    3.85656E-06
 1.25000E+01    2.23577E-06
 1.30000E+01    1.30617E-06
 1.35000E+01    7.68530E-07
 1.40000E+01    4.55500E-07
 1.45000E+01    2.72010E-07
 1.50000E+01    1.63710E-07
 1.60000E+01    6.07060E-08
 1.70000E+01    2.31890E-08
 1.80000E+01    9.03140E-09
 1.90000E+01    3.61070E-09
 2.00000E+01    1.47030E-09
 2.10000E+01    6.09540E-10
 2.20000E+01    2.56160E-10
 2.30000E+01    1.09570E-10
 2.40000E+01    4.75830E-11
 2.50000E+01    2.10060E-11
 2.60000E+01    9.42250E-12
 2.70000E+01    4.29330E-12
 2.80000E+01    1.98330E-12
 2.90000E+01    9.27760E-13
 3.00000E+01    4.38770E-13
