# n + Cf249 : (n,tot)   
# jendl.ad   O.Iwamoto,T.Nakagawa,+            EVAL-JAN10
# uncertainties: n
# # energies =   171
#   E(MeV)       xs(mb) 
 1.00000E-11    2.69580E+07
 1.00000E-07    6.69769E+05
 4.13990E-07    1.24549E+06
 5.31580E-07    4.14831E+06
 6.82560E-07    4.59563E+06
 8.76420E-07    6.05492E+05
 1.12540E-06    1.41220E+05
 1.44500E-06    4.99122E+04
 1.85540E-06    2.27231E+04
 2.37240E-06    1.38272E+04
 3.05900E-06    1.15358E+05
 3.92790E-06    1.33378E+05
 5.04350E-06    1.27743E+05
 6.47600E-06    3.22745E+04
 8.31530E-06    1.85322E+05
 1.06770E-05    6.37652E+04
 1.37100E-05    1.15173E+05
 1.76030E-05    1.78774E+05
 2.26030E-05    5.71637E+04
 2.92030E-05    6.41469E+04
 3.72670E-05    5.78186E+04
 4.78510E-05    8.90651E+04
 6.14420E-05    2.81605E+04
 7.88930E-05    3.68235E+04
 1.01300E-04    4.53112E+04
 1.30070E-04    3.20516E+04
 1.67020E-04    3.02678E+04
 2.14450E-04    3.30180E+04
 2.75360E-04    2.44211E+04
 3.53580E-04    2.26454E+04
 4.54000E-04    2.01145E+04
 5.82950E-04    1.70910E+04
 7.48520E-04    1.56630E+04
 9.61120E-04    1.38910E+04
 1.23410E-03    1.09242E+04
 1.58460E-03    1.01897E+04
 2.03470E-03    9.81317E+03
 2.24870E-03    9.16556E+03
 2.48520E-03    8.71198E+03
 2.61260E-03    8.41723E+03
 2.74650E-03    8.00077E+03
 3.03540E-03    7.57721E+03
 3.35460E-03    7.24500E+03
 3.70740E-03    6.85072E+03
 4.30740E-03    6.25902E+03
 5.53080E-03    5.57242E+03
 7.10170E-03    5.06610E+03
 9.11880E-03    4.67953E+03
 1.17090E-02    4.30066E+03
 1.50340E-02    3.94940E+03
 1.93050E-02    3.72864E+03
 2.18750E-02    3.67866E+03
 2.35790E-02    3.65544E+03
 2.41760E-02    3.64346E+03
 2.47880E-02    3.62521E+03
 2.60580E-02    3.60466E+03
 2.70000E-02    3.58370E+03
 2.85000E-02    3.53810E+03
 3.18280E-02    3.45078E+03
 3.43070E-02    3.32736E+03
 4.08680E-02    3.18492E+03
 4.63090E-02    3.07870E+03
 5.24750E-02    3.05979E+03
 5.65620E-02    3.06780E+03
 6.73790E-02    3.06635E+03
 7.20000E-02    2.99666E+03
 7.95000E-02    2.93093E+03
 8.25000E-02    2.89004E+03
 8.65170E-02    2.80974E+03
 9.80370E-02    2.70043E+03
 1.11090E-01    2.63381E+03
 1.16790E-01    2.59597E+03
 1.22770E-01    2.56267E+03
 1.29070E-01    2.52937E+03
 1.35690E-01    2.49705E+03
 1.42640E-01    2.46889E+03
 1.49960E-01    2.44114E+03
 1.57640E-01    2.41654E+03
 1.65730E-01    2.39242E+03
 1.74220E-01    2.36921E+03
 1.83160E-01    2.34501E+03
 1.92550E-01    2.31797E+03
 2.02420E-01    2.28556E+03
 2.12800E-01    2.25052E+03
 2.23710E-01    2.21484E+03
 2.35180E-01    2.17820E+03
 2.47240E-01    2.12402E+03
 2.73240E-01    2.07902E+03
 2.87250E-01    2.05789E+03
 2.94520E-01    2.05033E+03
 2.97200E-01    2.04735E+03
 2.98500E-01    2.04400E+03
 3.01970E-01    2.02467E+03
 3.33730E-01    1.98969E+03
 3.68830E-01    1.95510E+03
 3.87740E-01    1.92765E+03
 4.07620E-01    1.86655E+03
 4.50490E-01    1.77712E+03
 4.97870E-01    1.72326E+03
 5.23400E-01    1.69892E+03
 5.50230E-01    1.68175E+03
 5.78440E-01    1.66775E+03
 6.08100E-01    1.65173E+03
 6.39280E-01    1.63412E+03
 6.72060E-01    1.61118E+03
 7.06510E-01    1.57628E+03
 7.42740E-01    1.53872E+03
 7.80820E-01    1.50454E+03
 8.20850E-01    1.48355E+03
 8.62940E-01    1.47615E+03
 9.07180E-01    1.47183E+03
 9.61640E-01    1.47861E+03
 1.00260E+00    1.49749E+03
 1.10800E+00    1.52453E+03
 1.16480E+00    1.54978E+03
 1.22460E+00    1.57827E+03
 1.28730E+00    1.61108E+03
 1.35340E+00    1.64828E+03
 1.42270E+00    1.68815E+03
 1.49570E+00    1.73181E+03
 1.57240E+00    1.77828E+03
 1.65300E+00    1.82617E+03
 1.73770E+00    1.86978E+03
 1.82680E+00    1.90714E+03
 1.92050E+00    1.94181E+03
 2.01900E+00    1.95961E+03
 2.12250E+00    1.96963E+03
 2.23130E+00    1.96813E+03
 2.30690E+00    1.96655E+03
 2.34570E+00    1.96576E+03
 2.36530E+00    1.96495E+03
 2.38520E+00    1.96110E+03
 2.46600E+00    1.94796E+03
 2.59240E+00    1.93121E+03
 2.72530E+00    1.91209E+03
 2.86500E+00    1.89139E+03
 3.01190E+00    1.86996E+03
 3.16640E+00    1.85052E+03
 3.32870E+00    1.82508E+03
 3.67880E+00    1.80168E+03
 4.06570E+00    1.79371E+03
 4.49330E+00    1.79922E+03
 4.72370E+00    1.81129E+03
 4.96590E+00    1.82822E+03
 5.22050E+00    1.85304E+03
 5.48810E+00    1.88259E+03
 5.76950E+00    1.92322E+03
 6.06530E+00    1.97032E+03
 6.37630E+00    2.02312E+03
 6.59240E+00    2.11845E+03
 6.70320E+00    2.27522E+03
 7.04690E+00    2.42995E+03
 7.40820E+00    2.53298E+03
 7.78800E+00    2.62151E+03
 8.18730E+00    2.68758E+03
 8.60710E+00    2.73602E+03
 9.04840E+00    2.77095E+03
 9.51230E+00    2.79605E+03
 1.00000E+01    2.81314E+03
 1.05130E+01    2.82919E+03
 1.10520E+01    2.84091E+03
 1.16180E+01    2.83800E+03
 1.22140E+01    2.80686E+03
 1.28400E+01    2.74870E+03
 1.34990E+01    2.69751E+03
 1.38400E+01    2.66402E+03
 1.41910E+01    2.63570E+03
 1.45500E+01    2.61125E+03
 1.49180E+01    2.58095E+03
 1.56830E+01    2.55208E+03
 1.64870E+01    2.53167E+03
