# n + In113 : (n,el)    
# endfb8.0   JNDC FPND W.G., Mughabghab        EVAL-MAR05
# uncertainties: n
# # energies =   171
#   E(MeV)       xs(mb) 
 1.00000E-11    6.22252E+03
 1.00000E-07    3.64177E+03
 4.13990E-07    3.59892E+03
 5.31580E-07    3.57045E+03
 6.82560E-07    3.52481E+03
 8.76420E-07    3.44163E+03
 1.12540E-06    3.24144E+03
 1.44500E-06    4.17814E+03
 1.85540E-06    5.48575E+03
 2.37240E-06    4.10509E+03
 3.05900E-06    3.86547E+03
 3.92790E-06    3.80623E+03
 5.04350E-06    3.81600E+03
 6.47600E-06    3.62106E+03
 8.31530E-06    3.38717E+03
 1.06770E-05    2.72133E+03
 1.37100E-05    3.30685E+04
 1.76030E-05    5.69350E+03
 2.26030E-05    1.59536E+04
 2.92030E-05    1.23226E+04
 3.72670E-05    5.25451E+03
 4.78510E-05    4.55135E+03
 6.14420E-05    5.49965E+03
 7.88930E-05    1.19160E+04
 1.01300E-04    1.22559E+04
 1.30070E-04    5.02571E+03
 1.67020E-04    7.14857E+03
 2.14450E-04    7.77101E+03
 2.75360E-04    5.10461E+03
 3.53580E-04    4.69907E+03
 4.54000E-04    7.14602E+03
 5.82950E-04    1.06590E+04
 7.48520E-04    9.63898E+03
 9.61120E-04    9.22533E+03
 1.23410E-03    8.82576E+03
 1.58460E-03    8.44229E+03
 2.03470E-03    8.17846E+03
 2.24870E-03    8.02816E+03
 2.48520E-03    7.91791E+03
 2.61260E-03    7.84577E+03
 2.74650E-03    7.74035E+03
 3.03540E-03    7.60250E+03
 3.35460E-03    7.46898E+03
 3.70740E-03    7.30813E+03
 4.30740E-03    7.06591E+03
 5.53080E-03    6.78870E+03
 7.10170E-03    6.54193E+03
 9.11880E-03    6.32959E+03
 1.17090E-02    6.15378E+03
 1.50340E-02    6.01429E+03
 1.93050E-02    5.93394E+03
 2.18750E-02    5.89928E+03
 2.35790E-02    5.88462E+03
 2.41760E-02    5.87726E+03
 2.47880E-02    5.86724E+03
 2.60580E-02    5.85725E+03
 2.70000E-02    5.84715E+03
 2.85000E-02    5.83221E+03
 3.18280E-02    5.81871E+03
 3.43070E-02    5.80745E+03
 4.08680E-02    5.80141E+03
 4.63090E-02    5.80265E+03
 5.24750E-02    5.80654E+03
 5.65620E-02    5.81504E+03
 6.73790E-02    5.82526E+03
 7.20000E-02    5.83336E+03
 7.95000E-02    5.84029E+03
 8.25000E-02    5.84439E+03
 8.65170E-02    5.85285E+03
 9.80370E-02    5.86081E+03
 1.11090E-01    5.87192E+03
 1.16790E-01    5.87946E+03
 1.22770E-01    5.88738E+03
 1.29070E-01    5.89572E+03
 1.35690E-01    5.90448E+03
 1.42640E-01    5.91370E+03
 1.49960E-01    5.92338E+03
 1.57640E-01    5.93356E+03
 1.65730E-01    5.94177E+03
 1.74220E-01    5.94817E+03
 1.83160E-01    5.95491E+03
 1.92550E-01    5.96199E+03
 2.02420E-01    5.96943E+03
 2.12800E-01    5.97725E+03
 2.23710E-01    5.98548E+03
 2.35180E-01    5.99413E+03
 2.47240E-01    6.00799E+03
 2.73240E-01    6.02218E+03
 2.87250E-01    6.02714E+03
 2.94520E-01    6.02923E+03
 2.97200E-01    6.03006E+03
 2.98500E-01    6.03106E+03
 3.01970E-01    6.03834E+03
 3.33730E-01    6.05235E+03
 3.68830E-01    6.06377E+03
 3.87740E-01    6.07190E+03
 4.07620E-01    6.08456E+03
 4.50490E-01    6.09488E+03
 4.97870E-01    6.10082E+03
 5.23400E-01    6.10504E+03
 5.50230E-01    6.10885E+03
 5.78440E-01    6.11078E+03
 6.08100E-01    6.11266E+03
 6.39280E-01    6.11252E+03
 6.72060E-01    6.10318E+03
 7.06510E-01    6.09229E+03
 7.42740E-01    6.08084E+03
 7.80820E-01    6.06881E+03
 8.20850E-01    6.05398E+03
 8.62940E-01    6.03139E+03
 9.07180E-01    6.00503E+03
 9.61640E-01    5.97922E+03
 1.00260E+00    5.91969E+03
 1.10800E+00    5.82871E+03
 1.16480E+00    5.73351E+03
 1.22460E+00    5.58266E+03
 1.28730E+00    5.44312E+03
 1.35340E+00    5.29001E+03
 1.42270E+00    5.13440E+03
 1.49570E+00    4.98258E+03
 1.57240E+00    4.82753E+03
 1.65300E+00    4.66203E+03
 1.73770E+00    4.49002E+03
 1.82680E+00    4.31969E+03
 1.92050E+00    4.14149E+03
 2.01900E+00    3.95620E+03
 2.12250E+00    3.76776E+03
 2.23130E+00    3.61741E+03
 2.30690E+00    3.53137E+03
 2.34570E+00    3.48867E+03
 2.36530E+00    3.45983E+03
 2.38520E+00    3.38715E+03
 2.46600E+00    3.23892E+03
 2.59240E+00    3.06030E+03
 2.72530E+00    2.89082E+03
 2.86500E+00    2.73032E+03
 3.01190E+00    2.59769E+03
 3.16640E+00    2.47796E+03
 3.32870E+00    2.30448E+03
 3.67880E+00    2.08653E+03
 4.06570E+00    1.95501E+03
 4.49330E+00    1.89102E+03
 4.72370E+00    1.84826E+03
 4.96590E+00    1.82754E+03
 5.22050E+00    1.84664E+03
 5.48810E+00    1.86735E+03
 5.76950E+00    1.88957E+03
 6.06530E+00    1.94026E+03
 6.37630E+00    1.99550E+03
 6.59240E+00    2.02977E+03
 6.70320E+00    2.07589E+03
 7.04690E+00    2.15668E+03
 7.40820E+00    2.24980E+03
 7.78800E+00    2.34533E+03
 8.18730E+00    2.44326E+03
 8.60710E+00    2.54614E+03
 9.04840E+00    2.64879E+03
 9.51230E+00    2.73825E+03
 1.00000E+01    2.78985E+03
 1.05130E+01    2.81832E+03
 1.10520E+01    2.79558E+03
 1.16180E+01    2.73390E+03
 1.22140E+01    2.63389E+03
 1.28400E+01    2.54186E+03
 1.34990E+01    2.51834E+03
 1.38400E+01    2.50288E+03
 1.41910E+01    2.45155E+03
 1.45500E+01    2.40341E+03
 1.49180E+01    2.32435E+03
 1.56830E+01    2.19865E+03
 1.64870E+01    2.04957E+03
