# n + Sn115 :  n        
# jeff3.3    N.Iwamoto,K.Shibata               EVAL-Dec09
# uncertainties: n
# # energies =   105
#   E(MeV)       xs(mb) 
 1.05000E-01    0.00000E+00
 1.10000E-01    1.70013E-03
 1.20000E-01    2.01695E-03
 1.30000E-01    2.12557E-03
 1.40000E-01    2.15738E-03
 1.50000E-01    2.16103E-03
 1.60000E-01    2.15063E-03
 1.70000E-01    2.13694E-03
 1.80000E-01    2.12002E-03
 1.90000E-01    2.10664E-03
 2.00000E-01    2.09550E-03
 2.25000E-01    1.31980E-02
 2.50000E-01    1.45537E-02
 2.75000E-01    1.49704E-02
 3.00000E-01    1.52446E-02
 4.00000E-01    5.37342E-02
 5.00000E-01    1.36995E-01
 5.01700E-01    1.37414E-01
 6.00000E-01    2.14060E-01
 6.18190E-01    3.02323E-01
 7.00000E-01    3.28046E-01
 7.19905E-01    4.38290E-01
 8.00000E-01    5.14652E-01
 9.00000E-01    7.80745E-01
 9.95220E-01    1.13922E+00
 1.00000E+00    1.12066E+00
 1.10000E+00    1.47633E+00
 1.20000E+00    1.98001E+00
 1.29152E+00    2.61090E+00
 1.30000E+00    2.57891E+00
 1.40000E+00    3.23222E+00
 1.42934E+00    3.67353E+00
 1.50000E+00    3.96223E+00
 1.60000E+00    4.83686E+00
 1.64810E+00    5.59423E+00
 1.65795E+00    5.63409E+00
 1.65816E+00    5.63470E+00
 1.70000E+00    5.73055E+00
 1.74928E+00    6.42905E+00
 1.80000E+00    6.59953E+00
 1.80160E+00    6.60441E+00
 1.82084E+00    6.86328E+00
 1.84095E+00    7.24892E+00
 1.87370E+00    7.43339E+00
 1.90000E+00    7.49652E+00
 1.96284E+00    8.39785E+00
 1.99133E+00    8.58291E+00
 2.00000E+00    8.60132E+00
 2.01140E+00    8.63021E+00
 2.01406E+00    8.62169E+00
 2.04326E+00    9.24862E+00
 2.07824E+00    9.50595E+00
 2.09517E+00    9.53935E+00
 2.10257E+00    9.53508E+00
 2.17469E+00    1.04694E+01
 2.18376E+00    1.05076E+01
 2.21241E+00    1.05809E+01
 2.21588E+00    1.05784E+01
 2.22686E+00    1.08503E+01
 2.24985E+00    1.12230E+01
 2.25000E+00    1.12217E+01
 2.28488E+00    1.14015E+01
 2.32221E+00    1.16399E+01
 2.33413E+00    1.19372E+01
 2.36804E+00    1.23822E+01
 2.37281E+00    1.24186E+01
 2.38596E+00    1.24910E+01
 2.39181E+00    1.25086E+01
 2.50000E+00    4.13699E+01
 2.75000E+00    2.20902E+02
 3.00000E+00    5.57300E+02
 3.50000E+00    1.06984E+03
 4.00000E+00    1.52772E+03
 4.50000E+00    1.83348E+03
 5.00000E+00    2.00677E+03
 5.50000E+00    2.08200E+03
 6.00000E+00    2.09681E+03
 6.50000E+00    2.08089E+03
 7.00000E+00    2.05350E+03
 7.50000E+00    2.02566E+03
 8.00000E+00    1.97086E+03
 8.50000E+00    1.82845E+03
 9.00000E+00    1.68277E+03
 9.50000E+00    1.55363E+03
 1.00000E+01    1.42282E+03
 1.05000E+01    1.27396E+03
 1.10000E+01    1.11647E+03
 1.15000E+01    9.45030E+02
 1.20000E+01    7.88669E+02
 1.25000E+01    6.58810E+02
 1.30000E+01    5.61596E+02
 1.35000E+01    4.82975E+02
 1.40000E+01    4.22984E+02
 1.45000E+01    3.75796E+02
 1.50000E+01    3.38785E+02
 1.55000E+01    3.08227E+02
 1.60000E+01    2.83660E+02
 1.65000E+01    2.62755E+02
 1.70000E+01    2.45704E+02
 1.75000E+01    2.30917E+02
 1.80000E+01    2.18575E+02
 1.85000E+01    2.07447E+02
 1.90000E+01    1.97880E+02
 1.95000E+01    1.89115E+02
 2.00000E+01    1.81378E+02
