# n + Sn115 : (n,n'06)  
# jeff3.3    N.Iwamoto,K.Shibata               EVAL-Dec09
# uncertainties: n
# # energies =    74
#   E(MeV)       xs(mb) 
 1.42934E+00    0.00000E+00
 1.50000E+00    6.09201E+01
 1.60000E+00    1.09792E+02
 1.64810E+00    1.26423E+02
 1.65795E+00    1.28690E+02
 1.65816E+00    1.28740E+02
 1.70000E+00    1.35903E+02
 1.74928E+00    1.42718E+02
 1.80000E+00    1.45883E+02
 1.80160E+00    1.45991E+02
 1.82084E+00    1.46997E+02
 1.84095E+00    1.47867E+02
 1.87370E+00    1.47833E+02
 1.90000E+00    1.47508E+02
 1.96284E+00    1.47293E+02
 1.99133E+00    1.47585E+02
 2.00000E+00    1.47575E+02
 2.01140E+00    1.47288E+02
 2.01406E+00    1.47029E+02
 2.04326E+00    1.45364E+02
 2.07824E+00    1.43747E+02
 2.09517E+00    1.42566E+02
 2.10257E+00    1.42023E+02
 2.17469E+00    1.37652E+02
 2.18376E+00    1.37077E+02
 2.21241E+00    1.35284E+02
 2.21588E+00    1.35031E+02
 2.22686E+00    1.34226E+02
 2.24985E+00    1.32078E+02
 2.25000E+00    1.32054E+02
 2.28488E+00    1.29128E+02
 2.32221E+00    1.26502E+02
 2.33413E+00    1.25677E+02
 2.36804E+00    1.23358E+02
 2.37281E+00    1.23067E+02
 2.38596E+00    1.22222E+02
 2.39181E+00    1.21824E+02
 2.50000E+00    1.13670E+02
 2.75000E+00    9.40668E+01
 3.00000E+00    7.39025E+01
 3.50000E+00    4.51483E+01
 4.00000E+00    2.50946E+01
 4.50000E+00    1.41542E+01
 5.00000E+00    8.57790E+00
 5.50000E+00    5.81361E+00
 6.00000E+00    4.40792E+00
 6.50000E+00    3.63141E+00
 7.00000E+00    3.14804E+00
 7.50000E+00    2.81202E+00
 8.00000E+00    2.56046E+00
 8.50000E+00    2.36422E+00
 9.00000E+00    2.20719E+00
 9.50000E+00    2.07844E+00
 1.00000E+01    1.96940E+00
 1.05000E+01    1.87406E+00
 1.10000E+01    1.78677E+00
 1.15000E+01    1.70595E+00
 1.20000E+01    1.62793E+00
 1.25000E+01    1.55608E+00
 1.30000E+01    1.48766E+00
 1.35000E+01    1.42456E+00
 1.40000E+01    1.36642E+00
 1.45000E+01    1.31067E+00
 1.50000E+01    1.25990E+00
 1.55000E+01    1.20911E+00
 1.60000E+01    1.16180E+00
 1.65000E+01    1.11401E+00
 1.70000E+01    1.06868E+00
 1.75000E+01    1.02355E+00
 1.80000E+01    9.80791E-01
 1.85000E+01    9.39023E-01
 1.90000E+01    8.99978E-01
 1.95000E+01    8.62476E-01
 2.00000E+01    8.27879E-01
