# n + Sn115 : (n,t)     
# jeff3.3    N.Iwamoto,K.Shibata               EVAL-Dec09
# uncertainties: n
# # energies =    60
#   E(MeV)       xs(mb) 
 7.61108E+00    0.00000E+00
 8.00622E+00    1.95890E-16
 8.26359E+00    6.29090E-16
 8.64431E+00    1.27170E-15
 8.64975E+00    1.28140E-15
 8.68430E+00    1.34440E-15
 8.72721E+00    1.42380E-15
 8.75246E+00    1.47090E-15
 8.79444E+00    1.54940E-15
 8.81264E+00    1.58350E-15
 8.96778E+00    1.87440E-15
 8.97395E+00    1.88600E-15
 9.00000E+00    1.93480E-15
 9.00396E+00    2.79820E-14
 9.07683E+00    5.07420E-13
 9.09587E+00    6.32700E-13
 9.12059E+00    7.95360E-13
 9.12828E+00    8.45970E-13
 9.13333E+00    8.79200E-13
 9.16048E+00    1.05790E-12
 9.17670E+00    1.16460E-12
 9.19188E+00    1.26450E-12
 9.19440E+00    1.28110E-12
 9.24417E+00    1.60860E-12
 9.25595E+00    1.68610E-12
 9.25942E+00    1.70890E-12
 9.30126E+00    1.98430E-12
 9.30998E+00    2.04160E-12
 9.31551E+00    2.07800E-12
 9.32600E+00    2.14710E-12
 9.33342E+00    2.19590E-12
 9.38451E+00    2.53210E-12
 9.38680E+00    2.54720E-12
 9.39464E+00    2.59870E-12
 9.42920E+00    2.82620E-12
 9.44961E+00    2.96050E-12
 9.46290E+00    3.04790E-12
 9.49278E+00    3.24460E-12
 9.50000E+00    3.29210E-12
 1.00000E+01    5.74340E-10
 1.05000E+01    1.72690E-08
 1.10000E+01    1.84060E-07
 1.15000E+01    1.06203E-06
 1.20000E+01    4.80799E-06
 1.25000E+01    2.32176E-05
 1.30000E+01    1.15439E-04
 1.35000E+01    5.01243E-04
 1.40000E+01    1.78804E-03
 1.45000E+01    5.25738E-03
 1.50000E+01    1.28409E-02
 1.55000E+01    2.73580E-02
 1.60000E+01    5.12699E-02
 1.65000E+01    8.64969E-02
 1.70000E+01    1.34115E-01
 1.75000E+01    1.94336E-01
 1.80000E+01    2.66761E-01
 1.85000E+01    3.50479E-01
 1.90000E+01    4.44382E-01
 1.95000E+01    5.47142E-01
 2.00000E+01    6.57530E-01
