# n + Sn115 : (n,n'01)  
# jeff3.3    N.Iwamoto,K.Shibata               EVAL-Dec09
# uncertainties: n
# # energies =    88
#   E(MeV)       xs(mb) 
 5.01700E-01    0.00000E+00
 6.00000E-01    3.74910E+02
 6.18190E-01    4.09484E+02
 7.00000E-01    5.01538E+02
 7.19905E-01    5.14747E+02
 8.00000E-01    5.56208E+02
 9.00000E-01    5.85971E+02
 9.95220E-01    6.03333E+02
 1.00000E+00    5.99949E+02
 1.10000E+00    5.71930E+02
 1.20000E+00    5.55875E+02
 1.29152E+00    5.47197E+02
 1.30000E+00    5.38415E+02
 1.40000E+00    5.05401E+02
 1.42934E+00    4.98707E+02
 1.50000E+00    4.72808E+02
 1.60000E+00    4.37999E+02
 1.64810E+00    4.26122E+02
 1.65795E+00    4.21283E+02
 1.65816E+00    4.21196E+02
 1.70000E+00    4.04029E+02
 1.74928E+00    3.87507E+02
 1.80000E+00    3.69410E+02
 1.80160E+00    3.68924E+02
 1.82084E+00    3.63019E+02
 1.84095E+00    3.57309E+02
 1.87370E+00    3.46581E+02
 1.90000E+00    3.38539E+02
 1.96284E+00    3.22966E+02
 1.99133E+00    3.17376E+02
 2.00000E+00    3.14861E+02
 2.01140E+00    3.11163E+02
 2.01406E+00    3.09928E+02
 2.04326E+00    2.99609E+02
 2.07824E+00    2.88969E+02
 2.09517E+00    2.83296E+02
 2.10257E+00    2.80394E+02
 2.17469E+00    2.59105E+02
 2.18376E+00    2.56654E+02
 2.21241E+00    2.48456E+02
 2.21588E+00    2.47251E+02
 2.22686E+00    2.43545E+02
 2.24985E+00    2.36121E+02
 2.25000E+00    2.36020E+02
 2.28488E+00    2.25529E+02
 2.32221E+00    2.15505E+02
 2.33413E+00    2.12334E+02
 2.36804E+00    2.03934E+02
 2.37281E+00    2.02875E+02
 2.38596E+00    1.99722E+02
 2.39181E+00    1.98230E+02
 2.50000E+00    1.75444E+02
 2.75000E+00    1.30743E+02
 3.00000E+00    9.36892E+01
 3.50000E+00    5.10448E+01
 4.00000E+00    2.62952E+01
 4.50000E+00    1.39010E+01
 5.00000E+00    7.75388E+00
 5.50000E+00    4.69609E+00
 6.00000E+00    3.14801E+00
 6.50000E+00    2.33442E+00
 7.00000E+00    1.87957E+00
 7.50000E+00    1.60467E+00
 8.00000E+00    1.42506E+00
 8.50000E+00    1.29948E+00
 9.00000E+00    1.20621E+00
 9.50000E+00    1.13256E+00
 1.00000E+01    1.07043E+00
 1.05000E+01    1.01507E+00
 1.10000E+01    9.63165E-01
 1.15000E+01    9.15275E-01
 1.20000E+01    8.69487E-01
 1.25000E+01    8.27758E-01
 1.30000E+01    7.89465E-01
 1.35000E+01    7.54337E-01
 1.40000E+01    7.22379E-01
 1.45000E+01    6.91852E-01
 1.50000E+01    6.63379E-01
 1.55000E+01    6.35163E-01
 1.60000E+01    6.08355E-01
 1.65000E+01    5.81626E-01
 1.70000E+01    5.56328E-01
 1.75000E+01    5.31420E-01
 1.80000E+01    5.08183E-01
 1.85000E+01    4.85650E-01
 1.90000E+01    4.64937E-01
 1.95000E+01    4.45126E-01
 2.00000E+01    4.27140E-01
