# n + Sn115 : (n,n'03)  
# jeff3.3    N.Iwamoto,K.Shibata               EVAL-Dec09
# uncertainties: n
# # energies =    84
#   E(MeV)       xs(mb) 
 7.19905E-01    0.00000E+00
 8.00000E-01    9.26095E-01
 9.00000E-01    2.71326E+00
 9.95220E-01    5.70706E+00
 1.00000E+00    5.82561E+00
 1.10000E+00    9.48891E+00
 1.20000E+00    1.43229E+01
 1.29152E+00    1.96988E+01
 1.30000E+00    2.00473E+01
 1.40000E+00    2.64785E+01
 1.42934E+00    2.85400E+01
 1.50000E+00    3.24876E+01
 1.60000E+00    3.81141E+01
 1.64810E+00    4.10312E+01
 1.65795E+00    4.15594E+01
 1.65816E+00    4.15297E+01
 1.70000E+00    4.20768E+01
 1.74928E+00    4.30824E+01
 1.80000E+00    4.37179E+01
 1.80160E+00    4.37493E+01
 1.82084E+00    4.37950E+01
 1.84095E+00    4.37522E+01
 1.87370E+00    4.35888E+01
 1.90000E+00    4.33552E+01
 1.96284E+00    4.36656E+01
 1.99133E+00    4.40067E+01
 2.00000E+00    4.41310E+01
 2.01140E+00    4.42012E+01
 2.01406E+00    4.41511E+01
 2.04326E+00    4.40048E+01
 2.07824E+00    4.41135E+01
 2.09517E+00    4.40559E+01
 2.10257E+00    4.40708E+01
 2.17469E+00    4.41641E+01
 2.18376E+00    4.41261E+01
 2.21241E+00    4.42224E+01
 2.21588E+00    4.42433E+01
 2.22686E+00    4.42436E+01
 2.24985E+00    4.40234E+01
 2.25000E+00    4.40225E+01
 2.28488E+00    4.39009E+01
 2.32221E+00    4.39204E+01
 2.33413E+00    4.39534E+01
 2.36804E+00    4.40904E+01
 2.37281E+00    4.41038E+01
 2.38596E+00    4.41488E+01
 2.39181E+00    4.41662E+01
 2.50000E+00    4.39417E+01
 2.75000E+00    3.98571E+01
 3.00000E+00    3.26413E+01
 3.50000E+00    2.20139E+01
 4.00000E+00    1.34908E+01
 4.50000E+00    8.24330E+00
 5.00000E+00    5.16346E+00
 5.50000E+00    3.43583E+00
 6.00000E+00    2.47614E+00
 6.50000E+00    1.92643E+00
 7.00000E+00    1.59262E+00
 7.50000E+00    1.37598E+00
 8.00000E+00    1.22678E+00
 8.50000E+00    1.11896E+00
 9.00000E+00    1.03761E+00
 9.50000E+00    9.73240E-01
 1.00000E+01    9.19350E-01
 1.05000E+01    8.71791E-01
 1.10000E+01    8.27668E-01
 1.15000E+01    7.86873E-01
 1.20000E+01    7.48106E-01
 1.25000E+01    7.12639E-01
 1.30000E+01    6.79859E-01
 1.35000E+01    6.49979E-01
 1.40000E+01    6.22535E-01
 1.45000E+01    5.96561E-01
 1.50000E+01    5.72386E-01
 1.55000E+01    5.48336E-01
 1.60000E+01    5.25743E-01
 1.65000E+01    5.02882E-01
 1.70000E+01    4.81501E-01
 1.75000E+01    4.60118E-01
 1.80000E+01    4.40321E-01
 1.85000E+01    4.20922E-01
 1.90000E+01    4.03135E-01
 1.95000E+01    3.86048E-01
 2.00000E+01    3.70492E-01
