# n + Sn115 : (n,d)     
# jeff3.3    N.Iwamoto,K.Shibata               EVAL-Dec09
# uncertainties: n
# # energies =    64
#   E(MeV)       xs(mb) 
 6.58553E+00    0.00000E+00
 6.77747E+00    3.01040E-14
 6.80853E+00    3.65590E-14
 6.87579E+00    5.15580E-14
 7.08705E+00    9.92420E-14
 7.09189E+00    1.06390E-13
 7.12654E+00    1.64910E-13
 7.16500E+00    2.40490E-13
 7.19116E+00    2.95350E-13
 7.21908E+00    3.55380E-13
 7.23291E+00    3.85540E-13
 7.23292E+00    3.85570E-13
 7.27910E+00    4.87630E-13
 7.28455E+00    4.99720E-13
 7.28803E+00    5.07450E-13
 7.31700E+00    5.71920E-13
 7.32046E+00    5.79630E-13
 7.36768E+00    6.85020E-13
 7.41777E+00    7.96930E-13
 7.42853E+00    8.20980E-13
 7.49961E+00    9.79820E-13
 7.50302E+00    9.93430E-13
 7.56463E+00    1.32760E-12
 7.59747E+00    1.53340E-12
 7.60078E+00    1.55470E-12
 7.61315E+00    1.63550E-12
 7.61424E+00    1.64270E-12
 7.62664E+00    1.72540E-12
 7.63182E+00    1.76030E-12
 7.63962E+00    1.81330E-12
 7.64194E+00    1.82910E-12
 7.65432E+00    1.91430E-12
 7.65739E+00    1.93550E-12
 7.66351E+00    1.97810E-12
 7.66899E+00    2.01630E-12
 7.67774E+00    2.07760E-12
 7.69025E+00    2.16560E-12
 7.70709E+00    2.28440E-12
 7.73463E+00    2.47940E-12
 8.00000E+00    4.36120E-12
 8.50000E+00    6.65530E-10
 9.00000E+00    1.27180E-07
 9.50000E+00    5.58586E-06
 1.00000E+01    1.07094E-04
 1.05000E+01    7.86522E-04
 1.10000E+01    4.54831E-03
 1.15000E+01    1.87047E-02
 1.20000E+01    5.90407E-02
 1.25000E+01    1.35028E-01
 1.30000E+01    2.94245E-01
 1.35000E+01    5.53488E-01
 1.40000E+01    9.25142E-01
 1.45000E+01    1.40864E+00
 1.50000E+01    1.99653E+00
 1.55000E+01    2.67252E+00
 1.60000E+01    3.42632E+00
 1.65000E+01    4.23730E+00
 1.70000E+01    5.10048E+00
 1.75000E+01    5.99549E+00
 1.80000E+01    6.92281E+00
 1.85000E+01    7.86224E+00
 1.90000E+01    8.81442E+00
 1.95000E+01    9.75531E+00
 2.00000E+01    1.06806E+01
