# n + Sn115 : (n,n'08)  
# jeff3.3    N.Iwamoto,K.Shibata               EVAL-Dec09
# uncertainties: n
# # energies =    70
#   E(MeV)       xs(mb) 
 1.65795E+00    0.00000E+00
 1.65816E+00    1.05583E-01
 1.70000E+00    6.41769E+00
 1.74928E+00    1.42849E+01
 1.80000E+00    2.05816E+01
 1.80160E+00    2.07628E+01
 1.82084E+00    2.26530E+01
 1.84095E+00    2.45939E+01
 1.87370E+00    2.71720E+01
 1.90000E+00    2.86094E+01
 1.96284E+00    3.17103E+01
 1.99133E+00    3.28693E+01
 2.00000E+00    3.32299E+01
 2.01140E+00    3.36053E+01
 2.01406E+00    3.36790E+01
 2.04326E+00    3.44072E+01
 2.07824E+00    3.51873E+01
 2.09517E+00    3.54772E+01
 2.10257E+00    3.56050E+01
 2.17469E+00    3.65558E+01
 2.18376E+00    3.66275E+01
 2.21241E+00    3.68993E+01
 2.21588E+00    3.69391E+01
 2.22686E+00    3.70735E+01
 2.24985E+00    3.72883E+01
 2.25000E+00    3.72899E+01
 2.28488E+00    3.76329E+01
 2.32221E+00    3.81340E+01
 2.33413E+00    3.83264E+01
 2.36804E+00    3.88990E+01
 2.37281E+00    3.89702E+01
 2.38596E+00    3.91869E+01
 2.39181E+00    3.92843E+01
 2.50000E+00    4.06989E+01
 2.75000E+00    3.93661E+01
 3.00000E+00    3.29315E+01
 3.50000E+00    2.31576E+01
 4.00000E+00    1.38356E+01
 4.50000E+00    7.80745E+00
 5.00000E+00    4.27374E+00
 5.50000E+00    2.32521E+00
 6.00000E+00    1.27434E+00
 6.50000E+00    7.11109E-01
 7.00000E+00    4.11569E-01
 7.50000E+00    2.53396E-01
 8.00000E+00    1.69567E-01
 8.50000E+00    1.24269E-01
 9.00000E+00    9.89138E-02
 9.50000E+00    8.39996E-02
 1.00000E+01    7.46530E-02
 1.05000E+01    6.83530E-02
 1.10000E+01    6.37115E-02
 1.15000E+01    6.00540E-02
 1.20000E+01    5.68997E-02
 1.25000E+01    5.41734E-02
 1.30000E+01    5.16867E-02
 1.35000E+01    4.94338E-02
 1.40000E+01    4.73816E-02
 1.45000E+01    4.54369E-02
 1.50000E+01    4.36668E-02
 1.55000E+01    4.19176E-02
 1.60000E+01    4.02922E-02
 1.65000E+01    3.86538E-02
 1.70000E+01    3.71085E-02
 1.75000E+01    3.55582E-02
 1.80000E+01    3.40980E-02
 1.85000E+01    3.26558E-02
 1.90000E+01    3.13128E-02
 1.95000E+01    3.00129E-02
 2.00000E+01    2.88150E-02
