# n + Sn115 : (n,n'15)  
# jeff3.3    N.Iwamoto,K.Shibata               EVAL-Dec09
# uncertainties: n
# # energies =    60
#   E(MeV)       xs(mb) 
 1.96284E+00    0.00000E+00
 1.99133E+00    1.61675E-01
 2.00000E+00    2.16189E-01
 2.01140E+00    2.92152E-01
 2.01406E+00    3.09950E-01
 2.04326E+00    4.95718E-01
 2.07824E+00    7.09831E-01
 2.09517E+00    8.08912E-01
 2.10257E+00    8.52760E-01
 2.17469E+00    1.26939E+00
 2.18376E+00    1.31896E+00
 2.21241E+00    1.47999E+00
 2.21588E+00    1.50007E+00
 2.22686E+00    1.56472E+00
 2.24985E+00    1.70364E+00
 2.25000E+00    1.70458E+00
 2.28488E+00    1.91307E+00
 2.32221E+00    2.14177E+00
 2.33413E+00    2.21821E+00
 2.36804E+00    2.44190E+00
 2.37281E+00    2.47069E+00
 2.38596E+00    2.55032E+00
 2.39181E+00    2.58549E+00
 2.50000E+00    3.21192E+00
 2.75000E+00    4.38767E+00
 3.00000E+00    5.52002E+00
 3.50000E+00    5.70165E+00
 4.00000E+00    4.62352E+00
 4.50000E+00    3.48422E+00
 5.00000E+00    2.62257E+00
 5.50000E+00    2.08577E+00
 6.00000E+00    1.77756E+00
 6.50000E+00    1.59196E+00
 7.00000E+00    1.45951E+00
 7.50000E+00    1.34917E+00
 8.00000E+00    1.25203E+00
 8.50000E+00    1.16690E+00
 9.00000E+00    1.09337E+00
 9.50000E+00    1.03028E+00
 1.00000E+01    9.75846E-01
 1.05000E+01    9.28390E-01
 1.10000E+01    8.85736E-01
 1.15000E+01    8.47143E-01
 1.20000E+01    8.10426E-01
 1.25000E+01    7.76243E-01
 1.30000E+01    7.43826E-01
 1.35000E+01    7.13329E-01
 1.40000E+01    6.84708E-01
 1.45000E+01    6.57549E-01
 1.50000E+01    6.32243E-01
 1.55000E+01    6.07468E-01
 1.60000E+01    5.84478E-01
 1.65000E+01    5.61063E-01
 1.70000E+01    5.39431E-01
 1.75000E+01    5.17125E-01
 1.80000E+01    4.96584E-01
 1.85000E+01    4.75740E-01
 1.90000E+01    4.56608E-01
 1.95000E+01    4.37765E-01
 2.00000E+01    4.20479E-01
