# n + Sn115 : (n,n'04)  
# jeff3.3    N.Iwamoto,K.Shibata               EVAL-Dec09
# uncertainties: n
# # energies =    81
#   E(MeV)       xs(mb) 
 9.95220E-01    0.00000E+00
 1.00000E+00    1.81862E+01
 1.10000E+00    1.45998E+02
 1.20000E+00    2.16213E+02
 1.29152E+00    2.55849E+02
 1.30000E+00    2.55769E+02
 1.40000E+00    2.72913E+02
 1.42934E+00    2.77109E+02
 1.50000E+00    2.77061E+02
 1.60000E+00    2.75947E+02
 1.64810E+00    2.76685E+02
 1.65795E+00    2.75864E+02
 1.65816E+00    2.75847E+02
 1.70000E+00    2.70221E+02
 1.74928E+00    2.65018E+02
 1.80000E+00    2.57704E+02
 1.80160E+00    2.57510E+02
 1.82084E+00    2.54813E+02
 1.84095E+00    2.52376E+02
 1.87370E+00    2.46994E+02
 1.90000E+00    2.42613E+02
 1.96284E+00    2.34442E+02
 1.99133E+00    2.31975E+02
 2.00000E+00    2.30753E+02
 2.01140E+00    2.28674E+02
 2.01406E+00    2.27883E+02
 2.04326E+00    2.21691E+02
 2.07824E+00    2.15514E+02
 2.09517E+00    2.12019E+02
 2.10257E+00    2.10400E+02
 2.17469E+00    1.98003E+02
 2.18376E+00    1.96506E+02
 2.21241E+00    1.91835E+02
 2.21588E+00    1.91195E+02
 2.22686E+00    1.89209E+02
 2.24985E+00    1.84832E+02
 2.25000E+00    1.84781E+02
 2.28488E+00    1.78831E+02
 2.32221E+00    1.73310E+02
 2.33413E+00    1.71615E+02
 2.36804E+00    1.67129E+02
 2.37281E+00    1.66560E+02
 2.38596E+00    1.64906E+02
 2.39181E+00    1.64130E+02
 2.50000E+00    1.51335E+02
 2.75000E+00    1.19129E+02
 3.00000E+00    8.98589E+01
 3.50000E+00    5.20854E+01
 4.00000E+00    2.81402E+01
 4.50000E+00    1.56894E+01
 5.00000E+00    9.40267E+00
 5.50000E+00    6.23281E+00
 6.00000E+00    4.57830E+00
 6.50000E+00    3.65457E+00
 7.00000E+00    3.09202E+00
 7.50000E+00    2.71839E+00
 8.00000E+00    2.45234E+00
 8.50000E+00    2.25350E+00
 9.00000E+00    2.09917E+00
 9.50000E+00    1.97474E+00
 1.00000E+01    1.86967E+00
 1.05000E+01    1.77690E+00
 1.10000E+01    1.69081E+00
 1.15000E+01    1.61016E+00
 1.20000E+01    1.53344E+00
 1.25000E+01    1.46244E+00
 1.30000E+01    1.39598E+00
 1.35000E+01    1.33713E+00
 1.40000E+01    1.28195E+00
 1.45000E+01    1.22984E+00
 1.50000E+01    1.18110E+00
 1.55000E+01    1.13188E+00
 1.60000E+01    1.08604E+00
 1.65000E+01    1.03842E+00
 1.70000E+01    9.95024E-01
 1.75000E+01    9.51287E-01
 1.80000E+01    9.11199E-01
 1.85000E+01    8.71394E-01
 1.90000E+01    8.34994E-01
 1.95000E+01    7.99850E-01
 2.00000E+01    7.67715E-01
