# n + Sn115 : (n,h)     
# jeff3.3    N.Iwamoto,K.Shibata               EVAL-Dec09
# uncertainties: n
# # energies =    62
#   E(MeV)       xs(mb) 
 7.91548E+00    0.00000E+00
 8.18133E+00    1.44080E-26
 8.21670E+00    4.39120E-25
 8.23446E+00    7.41910E-25
 8.37814E+00    3.81230E-24
 8.44232E+00    5.19490E-24
 8.45013E+00    5.36340E-24
 8.50457E+00    6.53960E-24
 8.55927E+00    2.07390E-23
 8.60198E+00    3.56780E-23
 8.63027E+00    4.63930E-23
 8.68215E+00    6.71210E-23
 8.73797E+00    8.96010E-23
 8.73935E+00    9.01580E-23
 8.77827E+00    1.05960E-22
 8.79292E+00    1.11920E-22
 8.80173E+00    1.15510E-22
 8.80685E+00    1.17590E-22
 8.82089E+00    1.23320E-22
 8.86352E+00    1.40710E-22
 8.88390E+00    1.49030E-22
 8.91255E+00    1.60730E-22
 8.92367E+00    1.65270E-22
 8.92715E+00    1.66690E-22
 8.93152E+00    1.68470E-22
 8.95865E+00    1.79550E-22
 8.96198E+00    1.80910E-22
 8.97232E+00    1.85130E-22
 8.97435E+00    1.85960E-22
 8.97596E+00    1.86620E-22
 9.03454E+00    2.10540E-22
 9.04999E+00    2.17850E-22
 9.05161E+00    2.18720E-22
 9.09575E+00    2.44680E-22
 9.10354E+00    2.49440E-22
 9.10362E+00    2.49490E-22
 9.10720E+00    2.51820E-22
 9.11665E+00    2.58170E-22
 9.11803E+00    2.59120E-22
 9.12056E+00    2.60890E-22
 9.12127E+00    2.61400E-22
 1.00000E+01    9.02120E-22
 1.05000E+01    3.84000E-21
 1.10000E+01    3.40390E-18
 1.15000E+01    7.44820E-16
 1.20000E+01    4.92800E-14
 1.25000E+01    1.39010E-12
 1.30000E+01    2.05240E-11
 1.35000E+01    1.84390E-10
 1.40000E+01    1.14610E-09
 1.45000E+01    5.60370E-09
 1.50000E+01    2.43320E-08
 1.55000E+01    1.00890E-07
 1.60000E+01    3.96730E-07
 1.65000E+01    1.42402E-06
 1.70000E+01    4.56456E-06
 1.75000E+01    1.30396E-05
 1.80000E+01    3.38901E-05
 1.85000E+01    7.91676E-05
 1.90000E+01    1.70483E-04
 1.95000E+01    3.41944E-04
 2.00000E+01    6.44292E-04
