# n + Pt192 : (n,n'16)  
# jeff3.3    A.J. Koning and D. Rochman        EVAL-DEC15
# uncertainties: n
# # energies =    76
#   E(MeV)       xs(mb) 
 1.63786E+00    0.00000E+00
 1.67539E+00    3.59707E+00
 1.74857E+00    1.06110E+01
 1.75559E+00    1.12838E+01
 1.77537E+00    1.31796E+01
 1.80000E+00    1.55403E+01
 1.80293E+00    1.55849E+01
 1.80976E+00    1.56888E+01
 1.86716E+00    1.65618E+01
 1.87882E+00    1.67392E+01
 1.88990E+00    1.69077E+01
 1.89139E+00    1.69304E+01
 1.90443E+00    1.71287E+01
 1.90767E+00    1.71780E+01
 1.94487E+00    1.77439E+01
 1.97483E+00    1.81996E+01
 2.00000E+00    1.85824E+01
 2.20000E+00    1.52554E+01
 2.40000E+00    1.04697E+01
 2.60000E+00    6.82793E+00
 2.80000E+00    4.47791E+00
 3.00000E+00    3.00693E+00
 3.20000E+00    2.07115E+00
 3.40000E+00    1.45725E+00
 3.60000E+00    1.04048E+00
 3.80000E+00    7.49236E-01
 4.00000E+00    5.41740E-01
 4.20000E+00    3.92390E-01
 4.40000E+00    2.84440E-01
 4.60000E+00    2.06411E-01
 4.80000E+00    1.50043E-01
 5.00000E+00    1.09310E-01
 5.20000E+00    7.98464E-02
 5.40000E+00    5.84719E-02
 5.60000E+00    4.27461E-02
 5.80000E+00    3.13751E-02
 6.00000E+00    2.30901E-02
 6.20000E+00    1.70334E-02
 6.40000E+00    1.26041E-02
 6.60000E+00    9.34472E-03
 6.80000E+00    6.93345E-03
 7.00000E+00    5.15757E-03
 7.20000E+00    3.83648E-03
 7.40000E+00    2.85807E-03
 7.60000E+00    2.13097E-03
 7.80000E+00    1.58962E-03
 8.00000E+00    1.18917E-03
 8.50000E+00    5.79655E-04
 9.00000E+00    2.87184E-04
 9.50000E+00    1.44357E-04
 1.00000E+01    7.34828E-05
 1.05000E+01    3.78619E-05
 1.10000E+01    1.97176E-05
 1.15000E+01    1.03619E-05
 1.20000E+01    5.48936E-06
 1.25000E+01    2.93201E-06
 1.30000E+01    1.57950E-06
 1.35000E+01    8.58600E-07
 1.40000E+01    4.71290E-07
 1.45000E+01    2.61300E-07
 1.50000E+01    1.46380E-07
 1.60000E+01    4.73250E-08
 1.70000E+01    1.58480E-08
 1.80000E+01    5.43690E-09
 1.90000E+01    1.91760E-09
 2.00000E+01    6.90240E-10
 2.10000E+01    2.53490E-10
 2.20000E+01    9.51270E-11
 2.30000E+01    3.65900E-11
 2.40000E+01    1.43890E-11
 2.50000E+01    5.79830E-12
 2.60000E+01    2.37810E-12
 2.70000E+01    9.90790E-13
 2.80000E+01    4.18240E-13
 2.90000E+01    1.78620E-13
 3.00000E+01    7.71650E-14
