# n + Os187 : (n,n'20)  
# jeff3.3    A.J. Koning and D. Rochman        EVAL-DEC15
# uncertainties: n
# # energies =    80
#   E(MeV)       xs(mb) 
 5.14360E-01    0.00000E+00
 5.39495E-01    4.64575E-01
 5.59905E-01    8.41816E-01
 5.89473E-01    1.38833E+00
 5.99578E-01    1.57510E+00
 6.00000E-01    1.58290E+00
 6.14296E-01    2.07229E+00
 6.21244E-01    2.31014E+00
 6.45363E-01    3.13580E+00
 6.67613E-01    3.89748E+00
 6.73615E-01    4.10294E+00
 6.87791E-01    4.58822E+00
 7.00000E-01    5.00617E+00
 8.00000E-01    9.07510E+00
 9.00000E-01    1.28107E+01
 1.00000E+00    1.55371E+01
 1.20000E+00    1.82664E+01
 1.40000E+00    1.94568E+01
 1.60000E+00    1.99054E+01
 1.80000E+00    1.92825E+01
 2.00000E+00    1.74595E+01
 2.20000E+00    1.47718E+01
 2.40000E+00    1.17836E+01
 2.60000E+00    8.98774E+00
 2.80000E+00    6.64423E+00
 3.00000E+00    4.81645E+00
 3.20000E+00    3.35162E+00
 3.40000E+00    2.38303E+00
 3.60000E+00    1.67088E+00
 3.80000E+00    1.20519E+00
 4.00000E+00    8.71889E-01
 4.20000E+00    6.34657E-01
 4.40000E+00    4.64715E-01
 4.60000E+00    3.41945E-01
 4.80000E+00    2.52937E-01
 5.00000E+00    1.87757E-01
 5.20000E+00    1.40089E-01
 5.40000E+00    1.04792E-01
 5.60000E+00    7.82613E-02
 5.80000E+00    5.87259E-02
 6.00000E+00    4.41575E-02
 6.20000E+00    3.33545E-02
 6.40000E+00    2.52437E-02
 6.60000E+00    1.91504E-02
 6.80000E+00    1.45424E-02
 7.00000E+00    1.10392E-02
 7.20000E+00    8.39557E-03
 7.40000E+00    6.38417E-03
 7.60000E+00    4.85998E-03
 7.80000E+00    3.70532E-03
 8.00000E+00    2.82580E-03
 8.50000E+00    1.44806E-03
 9.00000E+00    7.50865E-04
 9.50000E+00    3.94214E-04
 1.00000E+01    2.09579E-04
 1.05000E+01    1.12853E-04
 1.10000E+01    6.14821E-05
 1.15000E+01    3.38951E-05
 1.20000E+01    1.88701E-05
 1.25000E+01    1.06130E-05
 1.30000E+01    6.02630E-06
 1.35000E+01    3.44875E-06
 1.40000E+01    1.98939E-06
 1.45000E+01    1.15663E-06
 1.50000E+01    6.76810E-07
 1.60000E+01    2.35770E-07
 1.70000E+01    8.42650E-08
 1.80000E+01    3.07250E-08
 1.90000E+01    1.15430E-08
 2.00000E+01    4.45300E-09
 2.10000E+01    1.76260E-09
 2.20000E+01    7.13440E-10
 2.30000E+01    2.95130E-10
 2.40000E+01    1.23650E-10
 2.50000E+01    5.25500E-11
 2.60000E+01    2.26620E-11
 2.70000E+01    9.91320E-12
 2.80000E+01    4.40010E-12
 2.90000E+01    1.98230E-12
 3.00000E+01    9.06110E-13
