# n + Os187 : (n,n'25)  
# jeff3.3    A.J. Koning and D. Rochman        EVAL-DEC15
# uncertainties: n
# # energies =    74
#   E(MeV)       xs(mb) 
 6.14296E-01    0.00000E+00
 6.21244E-01    1.20608E+01
 6.45363E-01    5.39282E+01
 6.67613E-01    9.25514E+01
 6.73615E-01    1.02970E+02
 6.87791E-01    1.27578E+02
 7.00000E-01    1.48771E+02
 8.00000E-01    1.78341E+02
 9.00000E-01    1.89158E+02
 1.00000E+00    1.90417E+02
 1.20000E+00    1.78442E+02
 1.40000E+00    1.56471E+02
 1.60000E+00    1.30163E+02
 1.80000E+00    1.02598E+02
 2.00000E+00    7.66410E+01
 2.20000E+00    5.45421E+01
 2.40000E+00    3.73349E+01
 2.60000E+00    2.48900E+01
 2.80000E+00    1.63467E+01
 3.00000E+00    1.06737E+01
 3.20000E+00    6.86633E+00
 3.40000E+00    4.50176E+00
 3.60000E+00    2.93628E+00
 3.80000E+00    1.94573E+00
 4.00000E+00    1.30833E+00
 4.20000E+00    8.87751E-01
 4.40000E+00    6.08407E-01
 4.60000E+00    4.20793E-01
 4.80000E+00    2.93846E-01
 5.00000E+00    2.06755E-01
 5.20000E+00    1.46870E-01
 5.40000E+00    1.05007E-01
 5.60000E+00    7.52478E-02
 5.80000E+00    5.43862E-02
 6.00000E+00    3.95252E-02
 6.20000E+00    2.89611E-02
 6.40000E+00    2.13235E-02
 6.60000E+00    1.57813E-02
 6.80000E+00    1.17219E-02
 7.00000E+00    8.72083E-03
 7.20000E+00    6.51290E-03
 7.40000E+00    4.87051E-03
 7.60000E+00    3.65099E-03
 7.80000E+00    2.74391E-03
 8.00000E+00    2.06460E-03
 8.50000E+00    1.02581E-03
 9.00000E+00    5.17097E-04
 9.50000E+00    2.64337E-04
 1.00000E+01    1.36979E-04
 1.05000E+01    7.19656E-05
 1.10000E+01    3.82935E-05
 1.15000E+01    2.06437E-05
 1.20000E+01    1.12522E-05
 1.25000E+01    6.20386E-06
 1.30000E+01    3.45764E-06
 1.35000E+01    1.94472E-06
 1.40000E+01    1.10399E-06
 1.45000E+01    6.32550E-07
 1.50000E+01    3.65270E-07
 1.60000E+01    1.24390E-07
 1.70000E+01    4.36340E-08
 1.80000E+01    1.56530E-08
 1.90000E+01    5.79280E-09
 2.00000E+01    2.20250E-09
 2.10000E+01    8.59600E-10
 2.20000E+01    3.43350E-10
 2.30000E+01    1.40340E-10
 2.40000E+01    5.81950E-11
 2.50000E+01    2.45160E-11
 2.60000E+01    1.04940E-11
 2.70000E+01    4.56040E-12
 2.80000E+01    2.01180E-12
 2.90000E+01    9.00930E-13
 3.00000E+01    4.09410E-13
