# n + Os187 : (n,n'24)  
# jeff3.3    A.J. Koning and D. Rochman        EVAL-DEC15
# uncertainties: n
# # energies =    75
#   E(MeV)       xs(mb) 
 5.99578E-01    0.00000E+00
 6.14296E-01    1.77998E+01
 6.21244E-01    2.64507E+01
 6.45363E-01    5.64810E+01
 6.67613E-01    8.41843E+01
 6.73615E-01    9.16573E+01
 6.87791E-01    1.09308E+02
 7.00000E-01    1.24509E+02
 8.00000E-01    1.39692E+02
 9.00000E-01    1.42432E+02
 1.00000E+00    1.39562E+02
 1.20000E+00    1.26247E+02
 1.40000E+00    1.08314E+02
 1.60000E+00    8.85324E+01
 1.80000E+00    6.85828E+01
 2.00000E+00    5.03444E+01
 2.20000E+00    3.52244E+01
 2.40000E+00    2.37341E+01
 2.60000E+00    1.56014E+01
 2.80000E+00    1.01209E+01
 3.00000E+00    6.53820E+00
 3.20000E+00    4.16889E+00
 3.40000E+00    2.71025E+00
 3.60000E+00    1.75145E+00
 3.80000E+00    1.15514E+00
 4.00000E+00    7.71906E-01
 4.20000E+00    5.21126E-01
 4.40000E+00    3.55635E-01
 4.60000E+00    2.45123E-01
 4.80000E+00    1.70707E-01
 5.00000E+00    1.19866E-01
 5.20000E+00    8.50190E-02
 5.40000E+00    6.07147E-02
 5.60000E+00    4.34726E-02
 5.80000E+00    3.13963E-02
 6.00000E+00    2.28005E-02
 6.20000E+00    1.66929E-02
 6.40000E+00    1.22781E-02
 6.60000E+00    9.07594E-03
 6.80000E+00    6.73106E-03
 7.00000E+00    4.99895E-03
 7.20000E+00    3.72578E-03
 7.40000E+00    2.78000E-03
 7.60000E+00    2.07889E-03
 7.80000E+00    1.55839E-03
 8.00000E+00    1.16948E-03
 8.50000E+00    5.77145E-04
 9.00000E+00    2.89057E-04
 9.50000E+00    1.46921E-04
 1.00000E+01    7.57682E-05
 1.05000E+01    3.96461E-05
 1.10000E+01    2.10216E-05
 1.15000E+01    1.12958E-05
 1.20000E+01    6.13806E-06
 1.25000E+01    3.37440E-06
 1.30000E+01    1.87571E-06
 1.35000E+01    1.05252E-06
 1.40000E+01    5.96330E-07
 1.45000E+01    3.41110E-07
 1.50000E+01    1.96710E-07
 1.60000E+01    6.68270E-08
 1.70000E+01    2.33850E-08
 1.80000E+01    8.36690E-09
 1.90000E+01    3.08830E-09
 2.00000E+01    1.17160E-09
 2.10000E+01    4.56460E-10
 2.20000E+01    1.82110E-10
 2.30000E+01    7.43760E-11
 2.40000E+01    3.08280E-11
 2.50000E+01    1.29820E-11
 2.60000E+01    5.55380E-12
 2.70000E+01    2.41110E-12
 2.80000E+01    1.06220E-12
 2.90000E+01    4.74940E-13
 3.00000E+01    2.15510E-13
