# n + Os187 : (n,n'16)  
# jeff3.3    A.J. Koning and D. Rochman        EVAL-DEC15
# uncertainties: n
# # energies =    85
#   E(MeV)       xs(mb) 
 4.61808E-01    0.00000E+00
 4.66503E-01    6.38448E-02
 5.00000E-01    5.19353E-01
 5.04145E-01    6.45365E-01
 5.10992E-01    8.53518E-01
 5.14360E-01    9.55908E-01
 5.39495E-01    1.72003E+00
 5.59905E-01    2.34051E+00
 5.89473E-01    3.23940E+00
 5.99578E-01    3.54660E+00
 6.00000E-01    3.55943E+00
 6.14296E-01    4.16044E+00
 6.21244E-01    4.45254E+00
 6.45363E-01    5.46651E+00
 6.67613E-01    6.40192E+00
 6.73615E-01    6.65424E+00
 6.87791E-01    7.25021E+00
 7.00000E-01    7.76348E+00
 8.00000E-01    1.20426E+01
 9.00000E-01    1.54610E+01
 1.00000E+00    1.76187E+01
 1.20000E+00    1.95608E+01
 1.40000E+00    2.05132E+01
 1.60000E+00    2.08127E+01
 1.80000E+00    2.00181E+01
 2.00000E+00    1.80236E+01
 2.20000E+00    1.51877E+01
 2.40000E+00    1.20806E+01
 2.60000E+00    9.19268E+00
 2.80000E+00    6.78087E+00
 3.00000E+00    4.90548E+00
 3.20000E+00    3.40803E+00
 3.40000E+00    2.40418E+00
 3.60000E+00    1.69503E+00
 3.80000E+00    1.22217E+00
 4.00000E+00    8.83856E-01
 4.20000E+00    6.43152E-01
 4.40000E+00    4.70766E-01
 4.60000E+00    3.46249E-01
 4.80000E+00    2.56020E-01
 5.00000E+00    1.89970E-01
 5.20000E+00    1.41669E-01
 5.40000E+00    1.05934E-01
 5.60000E+00    7.90755E-02
 5.80000E+00    5.93140E-02
 6.00000E+00    4.45832E-02
 6.20000E+00    3.36590E-02
 6.40000E+00    2.54647E-02
 6.60000E+00    1.93082E-02
 6.80000E+00    1.46564E-02
 7.00000E+00    1.11217E-02
 7.20000E+00    8.45447E-03
 7.40000E+00    6.42666E-03
 7.60000E+00    4.89065E-03
 7.80000E+00    3.72753E-03
 8.00000E+00    2.84191E-03
 8.50000E+00    1.45544E-03
 9.00000E+00    7.54340E-04
 9.50000E+00    3.95892E-04
 1.00000E+01    2.10408E-04
 1.05000E+01    1.13270E-04
 1.10000E+01    6.16959E-05
 1.15000E+01    3.40061E-05
 1.20000E+01    1.89284E-05
 1.25000E+01    1.06440E-05
 1.30000E+01    6.04296E-06
 1.35000E+01    3.45776E-06
 1.40000E+01    1.99430E-06
 1.45000E+01    1.15931E-06
 1.50000E+01    6.78280E-07
 1.60000E+01    2.36210E-07
 1.70000E+01    8.44070E-08
 1.80000E+01    3.07730E-08
 1.90000E+01    1.15600E-08
 2.00000E+01    4.45960E-09
 2.10000E+01    1.76510E-09
 2.20000E+01    7.14440E-10
 2.30000E+01    2.95510E-10
 2.40000E+01    1.23800E-10
 2.50000E+01    5.26080E-11
 2.60000E+01    2.26840E-11
 2.70000E+01    9.92260E-12
 2.80000E+01    4.40410E-12
 2.90000E+01    1.98410E-12
 3.00000E+01    9.06910E-13
