# n + Os187 : (n,n'23)  
# jeff3.3    A.J. Koning and D. Rochman        EVAL-DEC15
# uncertainties: n
# # energies =    77
#   E(MeV)       xs(mb) 
 5.89473E-01    0.00000E+00
 5.99578E-01    5.60535E+01
 6.00000E-01    5.83944E+01
 6.14296E-01    6.84882E+01
 6.21244E-01    7.33939E+01
 6.45363E-01    9.04232E+01
 6.67613E-01    1.06133E+02
 6.73615E-01    1.10371E+02
 6.87791E-01    1.20380E+02
 7.00000E-01    1.29000E+02
 8.00000E-01    1.52926E+02
 9.00000E-01    1.65562E+02
 1.00000E+00    1.71587E+02
 1.20000E+00    1.68659E+02
 1.40000E+00    1.52809E+02
 1.60000E+00    1.30569E+02
 1.80000E+00    1.05434E+02
 2.00000E+00    8.05439E+01
 2.20000E+00    5.85120E+01
 2.40000E+00    4.08060E+01
 2.60000E+00    2.76625E+01
 2.80000E+00    1.84398E+01
 3.00000E+00    1.22007E+01
 3.20000E+00    7.91402E+00
 3.40000E+00    5.24717E+00
 3.60000E+00    3.44429E+00
 3.80000E+00    2.31469E+00
 4.00000E+00    1.57216E+00
 4.20000E+00    1.07824E+00
 4.40000E+00    7.46774E-01
 4.60000E+00    5.21784E-01
 4.80000E+00    3.67925E-01
 5.00000E+00    2.61265E-01
 5.20000E+00    1.87178E-01
 5.40000E+00    1.34870E-01
 5.60000E+00    9.73301E-02
 5.80000E+00    7.07858E-02
 6.00000E+00    5.17254E-02
 6.20000E+00    3.80773E-02
 6.40000E+00    2.81466E-02
 6.60000E+00    2.09002E-02
 6.80000E+00    1.55653E-02
 7.00000E+00    1.16056E-02
 7.20000E+00    8.68231E-03
 7.40000E+00    6.50175E-03
 7.60000E+00    4.87899E-03
 7.80000E+00    3.66980E-03
 8.00000E+00    2.76299E-03
 8.50000E+00    1.37419E-03
 9.00000E+00    6.93213E-04
 9.50000E+00    3.54689E-04
 1.00000E+01    1.84052E-04
 1.05000E+01    9.68763E-05
 1.10000E+01    5.16635E-05
 1.15000E+01    2.79194E-05
 1.20000E+01    1.52570E-05
 1.25000E+01    8.43403E-06
 1.30000E+01    4.71318E-06
 1.35000E+01    2.65797E-06
 1.40000E+01    1.51283E-06
 1.45000E+01    8.68930E-07
 1.50000E+01    5.02910E-07
 1.60000E+01    1.71910E-07
 1.70000E+01    6.04700E-08
 1.80000E+01    2.17380E-08
 1.90000E+01    8.05860E-09
 2.00000E+01    3.06950E-09
 2.10000E+01    1.20020E-09
 2.20000E+01    4.80340E-10
 2.30000E+01    1.96690E-10
 2.40000E+01    8.16890E-11
 2.50000E+01    3.44600E-11
 2.60000E+01    1.47660E-11
 2.70000E+01    6.42290E-12
 2.80000E+01    2.83550E-12
 2.90000E+01    1.27060E-12
 3.00000E+01    5.77790E-13
