# n + Os187 : (n,n'08)  
# jeff3.3    A.J. Koning and D. Rochman        EVAL-DEC15
# uncertainties: n
# # energies =    95
#   E(MeV)       xs(mb) 
 2.58487E-01    0.00000E+00
 2.64489E-01    6.39358E-03
 3.00000E-01    4.42213E-02
 3.35148E-01    2.93401E-01
 3.43342E-01    3.51492E-01
 3.51888E-01    4.12079E-01
 4.00000E-01    7.53166E-01
 4.21261E-01    1.17538E+00
 4.44385E-01    1.63459E+00
 4.47491E-01    1.69627E+00
 4.61808E-01    1.98059E+00
 4.66503E-01    2.07383E+00
 5.00000E-01    2.73903E+00
 5.04145E-01    2.87210E+00
 5.10992E-01    3.09190E+00
 5.14360E-01    3.20003E+00
 5.39495E-01    4.00693E+00
 5.59905E-01    4.66214E+00
 5.89473E-01    5.61135E+00
 5.99578E-01    5.93575E+00
 6.00000E-01    5.94930E+00
 6.14296E-01    6.50483E+00
 6.21244E-01    6.77483E+00
 6.45363E-01    7.71207E+00
 6.67613E-01    8.57669E+00
 6.73615E-01    8.80992E+00
 6.87791E-01    9.36079E+00
 7.00000E-01    9.83522E+00
 8.00000E-01    1.39775E+01
 9.00000E-01    1.79194E+01
 1.00000E+00    2.12914E+01
 1.20000E+00    2.59736E+01
 1.40000E+00    2.78215E+01
 1.60000E+00    2.72510E+01
 1.80000E+00    2.49150E+01
 2.00000E+00    2.14521E+01
 2.20000E+00    1.74881E+01
 2.40000E+00    1.35891E+01
 2.60000E+00    1.01657E+01
 2.80000E+00    7.40146E+00
 3.00000E+00    5.30061E+00
 3.20000E+00    3.60190E+00
 3.40000E+00    2.52136E+00
 3.60000E+00    1.80307E+00
 3.80000E+00    1.29259E+00
 4.00000E+00    9.31868E-01
 4.20000E+00    6.75825E-01
 4.40000E+00    4.92888E-01
 4.60000E+00    3.61174E-01
 4.80000E+00    2.66118E-01
 5.00000E+00    1.96705E-01
 5.20000E+00    1.46224E-01
 5.40000E+00    1.08997E-01
 5.60000E+00    8.11243E-02
 5.80000E+00    6.07048E-02
 6.00000E+00    4.55075E-02
 6.20000E+00    3.42905E-02
 6.40000E+00    2.58936E-02
 6.60000E+00    1.95993E-02
 6.80000E+00    1.48594E-02
 7.00000E+00    1.12615E-02
 7.20000E+00    8.55402E-03
 7.40000E+00    6.49869E-03
 7.60000E+00    4.94367E-03
 7.80000E+00    3.76731E-03
 8.00000E+00    2.87247E-03
 8.50000E+00    1.47198E-03
 9.00000E+00    7.63595E-04
 9.50000E+00    4.01043E-04
 1.00000E+01    2.13216E-04
 1.05000E+01    1.14774E-04
 1.10000E+01    6.24920E-05
 1.15000E+01    3.44275E-05
 1.20000E+01    1.91523E-05
 1.25000E+01    1.07638E-05
 1.30000E+01    6.10752E-06
 1.35000E+01    3.49274E-06
 1.40000E+01    2.01333E-06
 1.45000E+01    1.16970E-06
 1.50000E+01    6.83990E-07
 1.60000E+01    2.37990E-07
 1.70000E+01    8.49940E-08
 1.80000E+01    3.09780E-08
 1.90000E+01    1.16360E-08
 2.00000E+01    4.48780E-09
 2.10000E+01    1.77570E-09
 2.20000E+01    7.18440E-10
 2.30000E+01    2.97040E-10
 2.40000E+01    1.24390E-10
 2.50000E+01    5.28310E-11
 2.60000E+01    2.27710E-11
 2.70000E+01    9.95720E-12
 2.80000E+01    4.41870E-12
 2.90000E+01    1.99050E-12
 3.00000E+01    9.09800E-13
