# n + Os187 : (n,n'21)  
# jeff3.3    A.J. Koning and D. Rochman        EVAL-DEC15
# uncertainties: n
# # energies =    79
#   E(MeV)       xs(mb) 
 5.39495E-01    0.00000E+00
 5.59905E-01    4.49718E+01
 5.89473E-01    1.10123E+02
 5.99578E-01    1.32388E+02
 6.00000E-01    1.33318E+02
 6.14296E-01    1.36096E+02
 6.21244E-01    1.37446E+02
 6.45363E-01    1.42133E+02
 6.67613E-01    1.46457E+02
 6.73615E-01    1.47623E+02
 6.87791E-01    1.50378E+02
 7.00000E-01    1.52750E+02
 8.00000E-01    1.57135E+02
 9.00000E-01    1.53580E+02
 1.00000E+00    1.46282E+02
 1.20000E+00    1.27578E+02
 1.40000E+00    1.06912E+02
 1.60000E+00    8.58741E+01
 1.80000E+00    6.58440E+01
 2.00000E+00    4.81715E+01
 2.20000E+00    3.37545E+01
 2.40000E+00    2.28379E+01
 2.60000E+00    1.50876E+01
 2.80000E+00    9.83377E+00
 3.00000E+00    6.37742E+00
 3.20000E+00    4.07983E+00
 3.40000E+00    2.65237E+00
 3.60000E+00    1.71600E+00
 3.80000E+00    1.13686E+00
 4.00000E+00    7.59539E-01
 4.20000E+00    5.12706E-01
 4.40000E+00    3.49647E-01
 4.60000E+00    2.40699E-01
 4.80000E+00    1.67341E-01
 5.00000E+00    1.17254E-01
 5.20000E+00    8.29628E-02
 5.40000E+00    5.90945E-02
 5.60000E+00    4.21993E-02
 5.80000E+00    3.03998E-02
 6.00000E+00    2.20258E-02
 6.20000E+00    1.60928E-02
 6.40000E+00    1.18187E-02
 6.60000E+00    8.72649E-03
 6.80000E+00    6.46786E-03
 7.00000E+00    4.80298E-03
 7.20000E+00    3.58066E-03
 7.40000E+00    2.67359E-03
 7.60000E+00    2.00132E-03
 7.80000E+00    1.50209E-03
 8.00000E+00    1.12881E-03
 8.50000E+00    5.59214E-04
 9.00000E+00    2.81115E-04
 9.50000E+00    1.43331E-04
 1.00000E+01    7.40982E-05
 1.05000E+01    3.88479E-05
 1.10000E+01    2.06334E-05
 1.15000E+01    1.11052E-05
 1.20000E+01    6.04409E-06
 1.25000E+01    3.32775E-06
 1.30000E+01    1.85230E-06
 1.35000E+01    1.04059E-06
 1.40000E+01    5.90110E-07
 1.45000E+01    3.37770E-07
 1.50000E+01    1.94860E-07
 1.60000E+01    6.62190E-08
 1.70000E+01    2.31760E-08
 1.80000E+01    8.29600E-09
 1.90000E+01    3.06390E-09
 2.00000E+01    1.16260E-09
 2.10000E+01    4.52730E-10
 2.20000E+01    1.80390E-10
 2.30000E+01    7.35480E-11
 2.40000E+01    3.04280E-11
 2.50000E+01    1.27950E-11
 2.60000E+01    5.46950E-12
 2.70000E+01    2.37490E-12
 2.80000E+01    1.04700E-12
 2.90000E+01    4.68560E-13
 3.00000E+01    2.12770E-13
