# n + Pu240 :  n        
# jendl4.0   O.Iwamoto,N.Otuka,S.Chiba,+       EVAL-JAN10
# uncertainties: n
# # energies =    53
#   E(MeV)       xs(mb) 
 1.30000E+00    0.00000E+00
 1.37500E+00    4.74530E-09
 1.45000E+00    9.62020E-09
 1.50000E+00    1.28380E-08
 1.60000E+00    1.93940E-08
 1.70000E+00    5.18010E-08
 1.80000E+00    8.40390E-08
 2.00000E+00    3.24550E-07
 2.15000E+00    1.39353E-06
 2.30000E+00    2.42060E-06
 2.50000E+00    9.56852E-06
 2.70000E+00    3.81219E-05
 3.00000E+00    2.98623E-04
 3.25000E+00    6.15453E-03
 3.50000E+00    1.18440E-02
 3.75000E+00    1.17824E-01
 4.00000E+00    2.19743E-01
 4.25000E+00    1.46620E+00
 4.50000E+00    2.74066E+00
 4.75000E+00    1.07526E+01
 5.00000E+00    1.88746E+01
 5.50000E+00    8.39523E+01
 5.75000E+00    1.72878E+02
 6.00000E+00    2.62064E+02
 6.25000E+00    4.00127E+02
 6.50000E+00    5.35886E+02
 7.00000E+00    7.91713E+02
 7.40000E+00    9.53972E+02
 7.50000E+00    9.78367E+02
 8.00000E+00    1.07948E+03
 8.50000E+00    1.13282E+03
 9.00000E+00    1.15882E+03
 9.50000E+00    1.19491E+03
 1.00000E+01    1.22335E+03
 1.05000E+01    1.23227E+03
 1.10000E+01    1.24290E+03
 1.15000E+01    1.21282E+03
 1.20000E+01    1.18455E+03
 1.25000E+01    1.20069E+03
 1.30000E+01    1.20917E+03
 1.35000E+01    1.24284E+03
 1.40000E+01    1.26382E+03
 1.45000E+01    1.25821E+03
 1.50000E+01    1.25089E+03
 1.55000E+01    1.21131E+03
 1.60000E+01    1.17681E+03
 1.65000E+01    1.15452E+03
 1.70000E+01    1.13023E+03
 1.75000E+01    1.11339E+03
 1.80000E+01    1.10551E+03
 1.85000E+01    1.10099E+03
 1.95000E+01    1.09841E+03
 2.00000E+01    1.09743E+03
