# n + Pu240 : (n,n'26)  
# jendl4.0   O.Iwamoto,N.Otuka,S.Chiba,+       EVAL-JAN10
# uncertainties: y
# # energies =    46
#   E(MeV)       xs(mb)       xslow(mb)      xsupp(mb)
 1.18546E+00    0.00000E+00    0.00000E+00    0.00000E+00
 1.20404E+00    8.31115E+00    6.06714E+00    1.05552E+01
 1.22814E+00    1.61107E+01    1.17608E+01    2.04606E+01
 1.23764E+00    1.90182E+01    1.38833E+01    2.41531E+01
 1.24601E+00    2.14666E+01    1.56706E+01    2.72626E+01
 1.30000E+00    3.45552E+01    2.52253E+01    4.38851E+01
 1.60000E+00    5.35613E+01    4.42416E+01    6.28810E+01
 1.80000E+00    4.57366E+01    3.77784E+01    5.36948E+01
 2.00000E+00    3.48877E+01    3.03174E+01    3.94580E+01
 2.30000E+00    2.15338E+01    1.87129E+01    2.43547E+01
 2.50000E+00    1.50401E+01    1.29194E+01    1.71608E+01
 2.70000E+00    1.02852E+01    8.83499E+00    1.17354E+01
 3.00000E+00    5.78781E+00    5.10485E+00    6.47077E+00
 3.50000E+00    2.13641E+00    1.91850E+00    2.35432E+00
 4.00000E+00    8.72367E-01    7.82513E-01    9.62221E-01
 4.50000E+00    4.60134E-01    4.12740E-01    5.07528E-01
 5.00000E+00    3.16952E-01    2.64338E-01    3.69566E-01
 5.50000E+00    2.56161E-01    2.13638E-01    2.98684E-01
 6.00000E+00    2.23696E-01    1.80299E-01    2.67093E-01
 6.50000E+00    2.02538E-01    1.63246E-01    2.41830E-01
 7.00000E+00    1.86210E-01    1.49154E-01    2.23266E-01
 7.50000E+00    1.73249E-01    1.38772E-01    2.07726E-01
 8.00000E+00    1.62903E-01    1.30648E-01    1.95158E-01
 8.50000E+00    1.53318E-01    1.22961E-01    1.83675E-01
 9.00000E+00    1.45338E-01    1.16852E-01    1.73824E-01
 9.50000E+00    1.36953E-01    1.10110E-01    1.63796E-01
 1.00000E+01    1.29879E-01    1.05072E-01    1.54686E-01
 1.05000E+01    1.22828E-01    9.93679E-02    1.46288E-01
 1.10000E+01    1.16235E-01    9.40341E-02    1.38436E-01
 1.15000E+01    1.10167E-01    8.91251E-02    1.31209E-01
 1.20000E+01    1.04312E-01    8.51186E-02    1.23505E-01
 1.25000E+01    9.90504E-02    8.08251E-02    1.17276E-01
 1.30000E+01    9.43328E-02    7.69756E-02    1.11690E-01
 1.35000E+01    9.01383E-02    7.35529E-02    1.06724E-01
 1.40000E+01    8.59592E-02    7.06585E-02    1.01260E-01
 1.45000E+01    8.19812E-02    6.73885E-02    9.65738E-02
 1.50000E+01    7.84268E-02    6.46237E-02    9.22299E-02
 1.55000E+01    7.52541E-02    6.20094E-02    8.84988E-02
 1.60000E+01    7.20773E-02    5.96079E-02    8.45467E-02
 1.65000E+01    6.92194E-02    5.72444E-02    8.11944E-02
 1.70000E+01    6.63852E-02    5.49006E-02    7.78698E-02
 1.75000E+01    6.37127E-02    5.26904E-02    7.47350E-02
 1.80000E+01    6.12818E-02    5.09252E-02    7.16384E-02
 1.85000E+01    5.88595E-02    4.89122E-02    6.88068E-02
 1.95000E+01    5.43908E-02    4.51988E-02    6.35828E-02
 2.00000E+01    5.24257E-02    4.35658E-02    6.12856E-02
