# n + Sm149 : (n,n'16)  
# jendl4.0   N.Iwamoto,A.Zukeran               EVAL-Nov09
# uncertainties: n
# # energies =    74
#   E(MeV)       xs(mb) 
 7.94817E-01    0.00000E+00
 8.00000E-01    2.11823E+01
 8.36035E-01    4.53474E+01
 8.38874E-01    4.63354E+01
 8.41250E-01    4.72101E+01
 8.84591E-01    6.02955E+01
 8.87914E-01    6.07242E+01
 9.00000E-01    6.30661E+01
 9.31749E-01    6.88831E+01
 9.59234E-01    7.34512E+01
 9.73550E-01    7.52626E+01
 1.00000E+00    7.84537E+01
 1.00134E+00    7.86190E+01
 1.01886E+00    7.82016E+01
 1.04604E+00    8.04749E+01
 1.05510E+00    8.09778E+01
 1.09034E+00    8.29778E+01
 1.10000E+00    8.35371E+01
 1.12054E+00    8.47196E+01
 1.13061E+00    8.52751E+01
 1.14012E+00    8.57902E+01
 1.16182E+00    8.69605E+01
 1.18115E+00    8.79813E+01
 1.18900E+00    8.83819E+01
 1.19504E+00    8.86218E+01
 1.20000E+00    8.87159E+01
 1.20080E+00    8.87311E+01
 1.20309E+00    8.85096E+01
 1.30000E+00    8.93256E+01
 1.40000E+00    8.72326E+01
 1.50000E+00    7.86956E+01
 1.60000E+00    6.94374E+01
 1.70000E+00    6.08518E+01
 1.80000E+00    5.30342E+01
 1.90000E+00    4.53919E+01
 2.00000E+00    3.86735E+01
 2.25000E+00    2.49505E+01
 2.50000E+00    1.70418E+01
 2.75000E+00    1.11889E+01
 3.00000E+00    7.76498E+00
 3.50000E+00    3.62856E+00
 4.00000E+00    1.76416E+00
 4.50000E+00    9.21172E-01
 5.00000E+00    5.39781E-01
 5.50000E+00    3.64053E-01
 6.00000E+00    2.80458E-01
 6.50000E+00    2.37418E-01
 7.00000E+00    2.11963E-01
 7.50000E+00    1.94042E-01
 8.00000E+00    1.79448E-01
 8.50000E+00    1.66512E-01
 9.00000E+00    1.54688E-01
 9.50000E+00    1.43880E-01
 1.00000E+01    1.34084E-01
 1.05000E+01    1.25316E-01
 1.10000E+01    1.17532E-01
 1.15000E+01    1.10603E-01
 1.20000E+01    1.04367E-01
 1.25000E+01    9.87509E-02
 1.30000E+01    9.36439E-02
 1.35000E+01    8.89554E-02
 1.40000E+01    8.46214E-02
 1.45000E+01    8.05931E-02
 1.50000E+01    7.68274E-02
 1.55000E+01    7.33106E-02
 1.60000E+01    6.99932E-02
 1.65000E+01    6.68694E-02
 1.70000E+01    6.39004E-02
 1.75000E+01    6.10944E-02
 1.80000E+01    5.84387E-02
 1.85000E+01    5.59251E-02
 1.90000E+01    5.35694E-02
 1.95000E+01    5.13423E-02
 2.00000E+01    4.92605E-02
