# n + Sm149 : (n,n'12)  
# jendl4.0   N.Iwamoto,A.Zukeran               EVAL-Nov09
# uncertainties: n
# # energies =    78
#   E(MeV)       xs(mb) 
 7.01721E-01    0.00000E+00
 7.14668E-01    1.32288E+01
 7.52613E-01    2.10976E+01
 7.90549E-01    2.62000E+01
 7.94817E-01    2.63911E+01
 8.00000E-01    2.68848E+01
 8.36035E-01    3.02706E+01
 8.38874E-01    3.05155E+01
 8.41250E-01    3.06071E+01
 8.84591E-01    3.37051E+01
 8.87914E-01    3.39375E+01
 9.00000E-01    3.46377E+01
 9.31749E-01    3.67740E+01
 9.59234E-01    3.79969E+01
 9.73550E-01    3.82718E+01
 1.00000E+00    3.92696E+01
 1.00134E+00    3.93270E+01
 1.01886E+00    4.00799E+01
 1.04604E+00    4.12179E+01
 1.05510E+00    4.12361E+01
 1.09034E+00    4.22274E+01
 1.10000E+00    4.25514E+01
 1.12054E+00    4.29709E+01
 1.13061E+00    4.31610E+01
 1.14012E+00    4.33301E+01
 1.16182E+00    4.37214E+01
 1.18115E+00    4.40651E+01
 1.18900E+00    4.41942E+01
 1.19504E+00    4.42918E+01
 1.20000E+00    4.41350E+01
 1.20080E+00    4.41329E+01
 1.20309E+00    4.41339E+01
 1.30000E+00    4.54825E+01
 1.40000E+00    4.47671E+01
 1.50000E+00    4.20736E+01
 1.60000E+00    3.91712E+01
 1.70000E+00    3.61947E+01
 1.80000E+00    3.24299E+01
 1.90000E+00    2.87254E+01
 2.00000E+00    2.52056E+01
 2.25000E+00    1.72419E+01
 2.50000E+00    1.21891E+01
 2.75000E+00    8.19519E+00
 3.00000E+00    5.83900E+00
 3.50000E+00    2.79173E+00
 4.00000E+00    1.37605E+00
 4.50000E+00    7.29342E-01
 5.00000E+00    4.38086E-01
 5.50000E+00    3.05495E-01
 6.00000E+00    2.42640E-01
 6.50000E+00    2.09816E-01
 7.00000E+00    1.89573E-01
 7.50000E+00    1.74557E-01
 8.00000E+00    1.61812E-01
 8.50000E+00    1.50251E-01
 9.00000E+00    1.39579E-01
 9.50000E+00    1.29795E-01
 1.00000E+01    1.20926E-01
 1.05000E+01    1.12996E-01
 1.10000E+01    1.05963E-01
 1.15000E+01    9.97048E-02
 1.20000E+01    9.40730E-02
 1.25000E+01    8.89985E-02
 1.30000E+01    8.43816E-02
 1.35000E+01    8.01412E-02
 1.40000E+01    7.62210E-02
 1.45000E+01    7.25774E-02
 1.50000E+01    6.91719E-02
 1.55000E+01    6.59892E-02
 1.60000E+01    6.29866E-02
 1.65000E+01    6.01593E-02
 1.70000E+01    5.74752E-02
 1.75000E+01    5.49536E-02
 1.80000E+01    5.25517E-02
 1.85000E+01    5.02794E-02
 1.90000E+01    4.81509E-02
 1.95000E+01    4.61396E-02
 2.00000E+01    4.42660E-02
