# n + Sm149 : (n,n'08)  
# jendl4.0   N.Iwamoto,A.Zukeran               EVAL-Nov09
# uncertainties: n
# # energies =    84
#   E(MeV)       xs(mb) 
 5.94888E-01    0.00000E+00
 6.00000E-01    7.95591E+01
 6.40771E-01    1.68422E+02
 6.63061E-01    1.82883E+02
 6.68548E-01    1.86287E+02
 7.00000E-01    1.96037E+02
 7.01721E-01    1.96663E+02
 7.14668E-01    2.01327E+02
 7.52613E-01    2.13926E+02
 7.90549E-01    2.20948E+02
 7.94817E-01    2.21595E+02
 8.00000E-01    2.20242E+02
 8.36035E-01    2.23488E+02
 8.38874E-01    2.19878E+02
 8.41250E-01    2.17711E+02
 8.84591E-01    2.05963E+02
 8.87914E-01    2.05513E+02
 9.00000E-01    2.01958E+02
 9.31749E-01    1.99270E+02
 9.59234E-01    1.97984E+02
 9.73550E-01    1.97383E+02
 1.00000E+00    1.96387E+02
 1.00134E+00    1.96298E+02
 1.01886E+00    1.93631E+02
 1.04604E+00    1.91324E+02
 1.05510E+00    1.90457E+02
 1.09034E+00    1.88013E+02
 1.10000E+00    1.87466E+02
 1.12054E+00    1.86368E+02
 1.13061E+00    1.85845E+02
 1.14012E+00    1.85358E+02
 1.16182E+00    1.84326E+02
 1.18115E+00    1.83464E+02
 1.18900E+00    1.83118E+02
 1.19504E+00    1.82869E+02
 1.20000E+00    1.82505E+02
 1.20080E+00    1.82463E+02
 1.20309E+00    1.82285E+02
 1.30000E+00    1.73116E+02
 1.40000E+00    1.59193E+02
 1.50000E+00    1.41112E+02
 1.60000E+00    1.24013E+02
 1.70000E+00    1.06210E+02
 1.80000E+00    9.01058E+01
 1.90000E+00    7.60027E+01
 2.00000E+00    6.38481E+01
 2.25000E+00    3.98360E+01
 2.50000E+00    2.63015E+01
 2.75000E+00    1.67572E+01
 3.00000E+00    1.13007E+01
 3.50000E+00    5.04431E+00
 4.00000E+00    2.35830E+00
 4.50000E+00    1.19418E+00
 5.00000E+00    6.89522E-01
 5.50000E+00    4.66479E-01
 6.00000E+00    3.63612E-01
 6.50000E+00    3.11115E-01
 7.00000E+00    2.79445E-01
 7.50000E+00    2.56367E-01
 8.00000E+00    2.37050E-01
 8.50000E+00    2.19709E-01
 9.00000E+00    2.03830E-01
 9.50000E+00    1.89362E-01
 1.00000E+01    1.76311E-01
 1.05000E+01    1.64681E-01
 1.10000E+01    1.54385E-01
 1.15000E+01    1.45239E-01
 1.20000E+01    1.37013E-01
 1.25000E+01    1.29598E-01
 1.30000E+01    1.22849E-01
 1.35000E+01    1.16648E-01
 1.40000E+01    1.10915E-01
 1.45000E+01    1.05587E-01
 1.50000E+01    1.00609E-01
 1.55000E+01    9.59572E-02
 1.60000E+01    9.15685E-02
 1.65000E+01    8.74360E-02
 1.70000E+01    8.35133E-02
 1.75000E+01    7.98318E-02
 1.80000E+01    7.63370E-02
 1.85000E+01    7.30200E-02
 1.90000E+01    6.99141E-02
 1.95000E+01    6.69809E-02
 2.00000E+01    6.42495E-02
