# n + Sm149 : (n,n'13)  
# jendl4.0   N.Iwamoto,A.Zukeran               EVAL-Nov09
# uncertainties: n
# # energies =    77
#   E(MeV)       xs(mb) 
 7.14668E-01    0.00000E+00
 7.52613E-01    1.84134E+01
 7.90549E-01    2.40455E+01
 7.94817E-01    2.42640E+01
 8.00000E-01    2.47723E+01
 8.36035E-01    2.83635E+01
 8.38874E-01    2.86115E+01
 8.41250E-01    2.87151E+01
 8.84591E-01    3.20155E+01
 8.87914E-01    3.22450E+01
 9.00000E-01    3.29544E+01
 9.31749E-01    3.50624E+01
 9.59234E-01    3.63874E+01
 9.73550E-01    3.67829E+01
 1.00000E+00    3.77747E+01
 1.00134E+00    3.78314E+01
 1.01886E+00    3.85757E+01
 1.04604E+00    3.97014E+01
 1.05510E+00    3.97285E+01
 1.09034E+00    4.07209E+01
 1.10000E+00    4.10464E+01
 1.12054E+00    4.16839E+01
 1.13061E+00    4.18775E+01
 1.14012E+00    4.20502E+01
 1.16182E+00    4.24495E+01
 1.18115E+00    4.28007E+01
 1.18900E+00    4.29331E+01
 1.19504E+00    4.30331E+01
 1.20000E+00    4.28852E+01
 1.20080E+00    4.28838E+01
 1.20309E+00    4.28868E+01
 1.30000E+00    4.42819E+01
 1.40000E+00    4.39560E+01
 1.50000E+00    4.13664E+01
 1.60000E+00    3.85560E+01
 1.70000E+00    3.56602E+01
 1.80000E+00    3.20768E+01
 1.90000E+00    2.84541E+01
 2.00000E+00    2.49956E+01
 2.25000E+00    1.71327E+01
 2.50000E+00    1.21206E+01
 2.75000E+00    8.15475E+00
 3.00000E+00    5.84891E+00
 3.50000E+00    2.81695E+00
 4.00000E+00    1.40621E+00
 4.50000E+00    7.59859E-01
 5.00000E+00    4.67215E-01
 5.50000E+00    3.32756E-01
 6.00000E+00    2.68110E-01
 6.50000E+00    2.33667E-01
 7.00000E+00    2.11948E-01
 7.50000E+00    1.95535E-01
 8.00000E+00    1.81439E-01
 8.50000E+00    1.68569E-01
 9.00000E+00    1.56646E-01
 9.50000E+00    1.45695E-01
 1.00000E+01    1.35756E-01
 1.05000E+01    1.26862E-01
 1.10000E+01    1.18973E-01
 1.15000E+01    1.11950E-01
 1.20000E+01    1.05630E-01
 1.25000E+01    9.99350E-02
 1.30000E+01    9.47538E-02
 1.35000E+01    8.99941E-02
 1.40000E+01    8.55896E-02
 1.45000E+01    8.14963E-02
 1.50000E+01    7.76708E-02
 1.55000E+01    7.41092E-02
 1.60000E+01    7.07361E-02
 1.65000E+01    6.75600E-02
 1.70000E+01    6.45449E-02
 1.75000E+01    6.17144E-02
 1.80000E+01    5.90270E-02
 1.85000E+01    5.64742E-02
 1.90000E+01    5.40829E-02
 1.95000E+01    5.18232E-02
 2.00000E+01    4.97181E-02
