# n + Sm149 : (n,n'05)  
# jendl4.0   N.Iwamoto,A.Zukeran               EVAL-Nov09
# uncertainties: n
# # energies =    88
#   E(MeV)       xs(mb) 
 4.01793E-01    0.00000E+00
 5.00000E-01    1.69794E+01
 5.32176E-01    1.96465E+01
 5.62157E-01    2.03818E+01
 5.94888E-01    2.18695E+01
 6.00000E-01    2.21600E+01
 6.40771E-01    2.46877E+01
 6.63061E-01    2.57028E+01
 6.68548E-01    2.55512E+01
 7.00000E-01    2.68058E+01
 7.01721E-01    2.68883E+01
 7.14668E-01    2.66118E+01
 7.52613E-01    2.69120E+01
 7.90549E-01    2.84106E+01
 7.94817E-01    2.82456E+01
 8.00000E-01    2.83272E+01
 8.36035E-01    2.90818E+01
 8.38874E-01    2.91526E+01
 8.41250E-01    2.91939E+01
 8.84591E-01    2.97383E+01
 8.87914E-01    2.98068E+01
 9.00000E-01    2.97891E+01
 9.31749E-01    3.03454E+01
 9.59234E-01    3.06196E+01
 9.73550E-01    3.06878E+01
 1.00000E+00    3.09371E+01
 1.00134E+00    3.09557E+01
 1.01886E+00    3.11983E+01
 1.04604E+00    3.12481E+01
 1.05510E+00    3.08651E+01
 1.09034E+00    3.02297E+01
 1.10000E+00    3.00880E+01
 1.12054E+00    2.98820E+01
 1.13061E+00    2.97582E+01
 1.14012E+00    2.96328E+01
 1.16182E+00    2.93707E+01
 1.18115E+00    2.91460E+01
 1.18900E+00    2.90458E+01
 1.19504E+00    2.89662E+01
 1.20000E+00    2.87125E+01
 1.20080E+00    2.86907E+01
 1.20309E+00    2.86340E+01
 1.30000E+00    2.74389E+01
 1.40000E+00    2.62888E+01
 1.50000E+00    2.40361E+01
 1.60000E+00    2.17092E+01
 1.70000E+00    1.94248E+01
 1.80000E+00    1.72483E+01
 1.90000E+00    1.52262E+01
 2.00000E+00    1.33647E+01
 2.25000E+00    9.23803E+00
 2.50000E+00    6.62102E+00
 2.75000E+00    4.50719E+00
 3.00000E+00    3.82097E+00
 3.50000E+00    2.11193E+00
 4.00000E+00    1.28378E+00
 4.50000E+00    8.81512E-01
 5.00000E+00    6.80715E-01
 5.50000E+00    5.72759E-01
 6.00000E+00    5.08678E-01
 6.50000E+00    4.65004E-01
 7.00000E+00    4.30520E-01
 7.50000E+00    4.00058E-01
 8.00000E+00    3.71690E-01
 8.50000E+00    3.44955E-01
 9.00000E+00    3.20013E-01
 9.50000E+00    2.97170E-01
 1.00000E+01    2.76563E-01
 1.05000E+01    2.58243E-01
 1.10000E+01    2.42023E-01
 1.15000E+01    2.27630E-01
 1.20000E+01    2.14677E-01
 1.25000E+01    2.02992E-01
 1.30000E+01    1.92346E-01
 1.35000E+01    1.82560E-01
 1.40000E+01    1.73512E-01
 1.45000E+01    1.65104E-01
 1.50000E+01    1.57250E-01
 1.55000E+01    1.49905E-01
 1.60000E+01    1.42974E-01
 1.65000E+01    1.36448E-01
 1.70000E+01    1.30257E-01
 1.75000E+01    1.24451E-01
 1.80000E+01    1.18963E-01
 1.85000E+01    1.13777E-01
 1.90000E+01    1.08924E-01
 1.95000E+01    1.04344E-01
 2.00000E+01    1.00082E-01
