# n + Sm149 : (n,el)    
# jendl4.0   N.Iwamoto,A.Zukeran               EVAL-Nov09
# uncertainties: n
# # energies =   171
#   E(MeV)       xs(mb) 
 1.00000E-11    2.24982E+05
 1.00000E-07    2.31635E+05
 4.13990E-07    4.50328E+03
 5.31580E-07    1.38635E+03
 6.82560E-07    4.47535E+04
 8.76420E-07    5.81292E+04
 1.12540E-06    6.65205E+03
 1.44500E-06    3.10467E+03
 1.85540E-06    1.84889E+03
 2.37240E-06    1.17300E+03
 3.05900E-06    7.16145E+02
 3.92790E-06    2.49259E+04
 5.04350E-06    5.87013E+03
 6.47600E-06    3.54649E+03
 8.31530E-06    1.95310E+05
 1.06770E-05    4.76260E+03
 1.37100E-05    2.18775E+04
 1.76030E-05    1.19908E+03
 2.26030E-05    3.82021E+04
 2.92030E-05    2.03280E+04
 3.72670E-05    1.99243E+05
 4.78510E-05    1.47244E+05
 6.14420E-05    2.40378E+05
 7.88930E-05    2.05076E+05
 1.01300E-04    3.68742E+04
 1.30070E-04    1.29119E+05
 1.67020E-04    7.75228E+04
 2.14450E-04    5.62485E+04
 2.75360E-04    5.57226E+04
 3.53580E-04    4.27667E+04
 4.54000E-04    5.11612E+04
 5.82950E-04    6.04787E+04
 7.48520E-04    5.54157E+04
 9.61120E-04    5.06510E+04
 1.23410E-03    4.61277E+04
 1.58460E-03    4.20057E+04
 2.03470E-03    3.93291E+04
 2.24870E-03    3.78839E+04
 2.48520E-03    3.68328E+04
 2.61260E-03    3.61495E+04
 2.74650E-03    3.51502E+04
 3.03540E-03    3.38583E+04
 3.35460E-03    3.26138E+04
 3.70740E-03    3.11150E+04
 4.30740E-03    2.87781E+04
 5.53080E-03    2.60824E+04
 7.10170E-03    2.36147E+04
 9.11880E-03    2.13595E+04
 1.17090E-02    1.93119E+04
 1.50340E-02    1.74600E+04
 1.93050E-02    1.61818E+04
 2.18750E-02    1.55137E+04
 2.35790E-02    1.51103E+04
 2.41760E-02    1.49037E+04
 2.47880E-02    1.46004E+04
 2.60580E-02    1.42453E+04
 2.70000E-02    1.38611E+04
 2.85000E-02    1.32204E+04
 3.18280E-02    1.26755E+04
 3.43070E-02    1.20158E+04
 4.08680E-02    1.12900E+04
 4.63090E-02    1.07362E+04
 5.24750E-02    1.03123E+04
 5.65620E-02    9.81467E+03
 6.73790E-02    9.36611E+03
 7.20000E-02    9.07667E+03
 7.95000E-02    8.84440E+03
 8.25000E-02    8.70249E+03
 8.65170E-02    8.41949E+03
 9.80370E-02    8.03799E+03
 1.11090E-01    7.79907E+03
 1.16790E-01    7.66630E+03
 1.22770E-01    7.53956E+03
 1.29070E-01    7.40834E+03
 1.35690E-01    7.27766E+03
 1.42640E-01    7.15354E+03
 1.49960E-01    7.02517E+03
 1.57640E-01    6.91077E+03
 1.65730E-01    6.81757E+03
 1.74220E-01    6.72472E+03
 1.83160E-01    6.62939E+03
 1.92550E-01    6.54196E+03
 2.02420E-01    6.45195E+03
 2.12800E-01    6.35908E+03
 2.23710E-01    6.27268E+03
 2.35180E-01    6.18384E+03
 2.47240E-01    6.08009E+03
 2.73240E-01    5.98856E+03
 2.87250E-01    5.86276E+03
 2.94520E-01    5.77067E+03
 2.97200E-01    5.73382E+03
 2.98500E-01    5.69709E+03
 3.01970E-01    5.60061E+03
 3.33730E-01    5.43340E+03
 3.68830E-01    5.32885E+03
 3.87740E-01    5.26540E+03
 4.07620E-01    5.22328E+03
 4.50490E-01    5.17981E+03
 4.97870E-01    5.14450E+03
 5.23400E-01    5.12224E+03
 5.50230E-01    5.09939E+03
 5.78440E-01    5.05139E+03
 6.08100E-01    4.98325E+03
 6.39280E-01    4.92219E+03
 6.72060E-01    4.84007E+03
 7.06510E-01    4.78852E+03
 7.42740E-01    4.75599E+03
 7.80820E-01    4.72093E+03
 8.20850E-01    4.67946E+03
 8.62940E-01    4.62597E+03
 9.07180E-01    4.59899E+03
 9.61640E-01    4.58697E+03
 1.00260E+00    4.56836E+03
 1.10800E+00    4.54731E+03
 1.16480E+00    4.53230E+03
 1.22460E+00    4.51652E+03
 1.28730E+00    4.49956E+03
 1.35340E+00    4.47288E+03
 1.42270E+00    4.43915E+03
 1.49570E+00    4.39645E+03
 1.57240E+00    4.35090E+03
 1.65300E+00    4.30294E+03
 1.73770E+00    4.24761E+03
 1.82680E+00    4.18662E+03
 1.92050E+00    4.12250E+03
 2.01900E+00    4.05101E+03
 2.12250E+00    3.97242E+03
 2.23130E+00    3.90396E+03
 2.30690E+00    3.86148E+03
 2.34570E+00    3.83983E+03
 2.36530E+00    3.82521E+03
 2.38520E+00    3.78808E+03
 2.46600E+00    3.71157E+03
 2.59240E+00    3.61524E+03
 2.72530E+00    3.51385E+03
 2.86500E+00    3.40725E+03
 3.01190E+00    3.29515E+03
 3.16640E+00    3.18048E+03
 3.32870E+00    3.01492E+03
 3.67880E+00    2.79298E+03
 4.06570E+00    2.58432E+03
 4.49330E+00    2.44100E+03
 4.72370E+00    2.35493E+03
 4.96590E+00    2.27818E+03
 5.22050E+00    2.21416E+03
 5.48810E+00    2.15828E+03
 5.76950E+00    2.11264E+03
 6.06530E+00    2.08665E+03
 6.37630E+00    2.07888E+03
 6.59240E+00    2.07982E+03
 6.70320E+00    2.08377E+03
 7.04690E+00    2.10360E+03
 7.40820E+00    2.13569E+03
 7.78800E+00    2.18088E+03
 8.18730E+00    2.23819E+03
 8.60710E+00    2.30271E+03
 9.04840E+00    2.37499E+03
 9.51230E+00    2.45128E+03
 1.00000E+01    2.53025E+03
 1.05130E+01    2.60935E+03
 1.10520E+01    2.68611E+03
 1.16180E+01    2.75798E+03
 1.22140E+01    2.82273E+03
 1.28400E+01    2.87790E+03
 1.34990E+01    2.91170E+03
 1.38400E+01    2.93008E+03
 1.41910E+01    2.94432E+03
 1.45500E+01    2.95447E+03
 1.49180E+01    2.96198E+03
 1.56830E+01    2.95701E+03
 1.64870E+01    2.93420E+03
