# n + Sm149 : (n,p)     
# jendl4.0   N.Iwamoto,A.Zukeran               EVAL-Nov09
# uncertainties: n
# # energies =    82
#   E(MeV)       xs(mb) 
 2.90283E-01    0.00000E+00
 4.05370E-01    1.68040E-15
 4.80192E-01    7.53900E-15
 5.03022E-01    9.42650E-15
 5.32124E-01    1.34320E-14
 5.62282E-01    1.83850E-14
 5.80442E-01    2.15990E-14
 6.52767E-01    3.52840E-14
 6.80466E-01    4.10200E-14
 6.89745E-01    4.29520E-14
 7.08546E-01    4.69480E-14
 7.18439E-01    4.92180E-14
 7.55608E-01    5.90670E-14
 7.91244E-01    6.86260E-14
 8.03818E-01    7.20620E-14
 8.09421E-01    7.36420E-14
 8.31788E-01    8.05650E-14
 8.41121E-01    8.35450E-14
 8.46022E-01    8.51870E-14
 8.52365E-01    8.73690E-14
 9.31095E-01    1.15500E-13
 9.45713E-01    1.20770E-13
 9.49561E-01    1.22180E-13
 9.61348E-01    1.26600E-13
 1.01186E+00    1.45790E-13
 1.01617E+00    1.48020E-13
 1.03991E+00    1.71110E-13
 1.04575E+00    1.77960E-13
 1.04687E+00    1.79570E-13
 1.05407E+00    1.90660E-13
 1.06367E+00    2.07600E-13
 1.06686E+00    2.13750E-13
 1.07444E+00    2.28840E-13
 1.08233E+00    2.45250E-13
 1.08665E+00    2.54420E-13
 1.10440E+00    2.93210E-13
 1.30000E+00    7.32790E-13
 1.40000E+00    1.13500E-12
 1.50000E+00    2.90290E-12
 1.60000E+00    1.37250E-11
 1.70000E+00    6.99690E-11
 1.80000E+00    3.12200E-10
 1.90000E+00    1.20340E-09
 2.00000E+00    4.06750E-09
 2.25000E+00    5.21490E-08
 2.50000E+00    4.23980E-07
 2.75000E+00    2.26678E-06
 3.00000E+00    9.13757E-06
 3.50000E+00    7.75731E-05
 4.00000E+00    3.49527E-04
 4.50000E+00    1.01288E-03
 5.00000E+00    2.15635E-03
 5.50000E+00    3.73308E-03
 6.00000E+00    5.86275E-03
 6.50000E+00    9.43954E-03
 7.00000E+00    1.68930E-02
 7.50000E+00    3.31824E-02
 8.00000E+00    6.69348E-02
 8.50000E+00    1.31501E-01
 9.00000E+00    2.45594E-01
 9.50000E+00    4.33180E-01
 1.00000E+01    7.22073E-01
 1.05000E+01    1.14158E+00
 1.10000E+01    1.71905E+00
 1.15000E+01    2.47676E+00
 1.20000E+01    3.42967E+00
 1.25000E+01    4.58420E+00
 1.30000E+01    5.93778E+00
 1.35000E+01    7.47789E+00
 1.40000E+01    9.18097E+00
 1.45000E+01    1.10108E+01
 1.50000E+01    1.29182E+01
 1.55000E+01    1.48448E+01
 1.60000E+01    1.67173E+01
 1.65000E+01    1.84848E+01
 1.70000E+01    2.00535E+01
 1.75000E+01    2.14585E+01
 1.80000E+01    2.26321E+01
 1.85000E+01    2.36277E+01
 1.90000E+01    2.44038E+01
 1.95000E+01    2.50241E+01
 2.00000E+01    2.55572E+01
