# n + Sm149 : (n,d)     
# jendl4.0   N.Iwamoto,A.Zukeran               EVAL-Nov09
# uncertainties: n
# # energies =    63
#   E(MeV)       xs(mb) 
 5.37056E+00    0.00000E+00
 5.44677E+00    2.44250E-22
 5.50869E+00    4.81280E-22
 5.50939E+00    2.18660E-19
 5.58732E+00    5.39150E-17
 5.59195E+00    5.76400E-17
 5.66454E+00    1.23090E-16
 5.67551E+00    1.33360E-16
 5.67732E+00    1.35060E-16
 5.68155E+00    1.39050E-16
 5.73642E+00    1.91510E-16
 5.75283E+00    2.07260E-16
 5.75847E+00    2.12680E-16
 5.76129E+00    2.15400E-16
 5.78293E+00    2.36230E-16
 5.78686E+00    2.40010E-16
 5.81364E+00    2.65810E-16
 5.82562E+00    2.77350E-16
 5.83569E+00    2.87060E-16
 5.90053E+00    3.49560E-16
 5.90355E+00    3.52470E-16
 5.91764E+00    3.66050E-16
 5.91996E+00    3.68280E-16
 5.92459E+00    3.72750E-16
 5.93566E+00    3.83420E-16
 5.93858E+00    3.86230E-16
 5.94754E+00    3.94870E-16
 5.98590E+00    4.31850E-16
 5.99748E+00    4.43010E-16
 6.01681E+00    4.67430E-16
 6.03070E+00    4.88650E-16
 6.03553E+00    4.96660E-16
 6.04459E+00    5.12520E-16
 6.04802E+00    5.18760E-16
 6.07530E+00    5.72670E-16
 6.50000E+00    1.44160E-15
 7.00000E+00    3.75180E-15
 7.50000E+00    1.34030E-11
 8.00000E+00    4.41690E-09
 8.50000E+00    2.88300E-07
 9.00000E+00    7.71018E-06
 9.50000E+00    8.69804E-05
 1.00000E+01    6.04539E-04
 1.05000E+01    2.94325E-03
 1.10000E+01    1.09221E-02
 1.15000E+01    3.26737E-02
 1.20000E+01    8.18384E-02
 1.25000E+01    1.76298E-01
 1.30000E+01    3.33847E-01
 1.35000E+01    5.67041E-01
 1.40000E+01    8.80514E-01
 1.45000E+01    1.22350E+00
 1.50000E+01    1.67651E+00
 1.55000E+01    2.14592E+00
 1.60000E+01    2.76075E+00
 1.65000E+01    3.37240E+00
 1.70000E+01    4.04104E+00
 1.75000E+01    4.65937E+00
 1.80000E+01    5.30590E+00
 1.85000E+01    5.96813E+00
 1.90000E+01    6.63466E+00
 1.95000E+01    7.15902E+00
 2.00000E+01    7.65958E+00
