# n + Sm149 :  n        
# jendl4.0   N.Iwamoto,A.Zukeran               EVAL-Nov09
# uncertainties: n
# # energies =   107
#   E(MeV)       xs(mb) 
 1.05000E-01    0.00000E+00
 1.10000E-01    2.13665E-02
 1.20000E-01    2.47360E-02
 1.30000E-01    3.11656E-02
 1.40000E-01    3.42578E-02
 1.50000E-01    3.64351E-02
 1.60000E-01    3.79942E-02
 1.70000E-01    3.91805E-02
 1.80000E-01    4.00146E-02
 1.90000E-01    4.06532E-02
 2.00000E-01    4.11149E-02
 2.25000E-01    1.87392E-01
 2.50000E-01    2.35349E-01
 2.75000E-01    2.62967E-01
 2.78952E-01    2.66225E-01
 2.87876E-01    2.66395E-01
 3.00000E-01    2.48775E-01
 3.52412E-01    6.52771E-01
 4.00000E-01    6.98426E-01
 4.01793E-01    7.00067E-01
 5.00000E-01    1.59608E+00
 5.32176E-01    2.49221E+00
 5.62157E-01    2.80100E+00
 5.94888E-01    2.96106E+00
 6.00000E-01    2.91539E+00
 6.40771E-01    4.12051E+00
 6.63061E-01    4.26730E+00
 6.68548E-01    4.24582E+00
 7.00000E-01    4.26393E+00
 7.01721E-01    4.26957E+00
 7.14668E-01    5.09473E+00
 7.52613E-01    5.78347E+00
 7.90549E-01    6.06442E+00
 7.94817E-01    6.11490E+00
 8.00000E-01    6.06024E+00
 8.36035E-01    7.46503E+00
 8.38874E-01    7.46158E+00
 8.41250E-01    7.38810E+00
 8.84591E-01    7.49099E+00
 8.87914E-01    7.49152E+00
 9.00000E-01    7.51542E+00
 9.31749E-01    8.79471E+00
 9.59234E-01    9.21158E+00
 9.73550E-01    9.31895E+00
 1.00000E+00    9.60275E+00
 1.00134E+00    9.61751E+00
 1.01886E+00    1.05540E+01
 1.04604E+00    1.13238E+01
 1.05510E+00    1.14864E+01
 1.09034E+00    1.19884E+01
 1.10000E+00    1.21930E+01
 1.12054E+00    1.34085E+01
 1.13061E+00    1.37864E+01
 1.14012E+00    1.41295E+01
 1.16182E+00    1.47278E+01
 1.18115E+00    1.51266E+01
 1.18900E+00    1.52688E+01
 1.19504E+00    1.54278E+01
 1.20000E+00    1.55346E+01
 1.20080E+00    1.55508E+01
 1.20309E+00    1.55800E+01
 1.30000E+00    1.94676E+01
 1.40000E+00    1.22666E+02
 1.50000E+00    3.36483E+02
 1.60000E+00    5.66338E+02
 1.70000E+00    7.95662E+02
 1.80000E+00    1.01394E+03
 1.90000E+00    1.21731E+03
 2.00000E+00    1.40241E+03
 2.25000E+00    1.80351E+03
 2.50000E+00    2.04276E+03
 2.75000E+00    2.23036E+03
 3.00000E+00    2.33776E+03
 3.50000E+00    2.46224E+03
 4.00000E+00    2.49639E+03
 4.50000E+00    2.48719E+03
 5.00000E+00    2.46611E+03
 5.50000E+00    2.44611E+03
 6.00000E+00    2.43199E+03
 6.50000E+00    2.35239E+03
 7.00000E+00    2.15865E+03
 7.50000E+00    1.89673E+03
 8.00000E+00    1.59201E+03
 8.50000E+00    1.29206E+03
 9.00000E+00    1.01295E+03
 9.50000E+00    7.82839E+02
 1.00000E+01    6.13256E+02
 1.05000E+01    4.93984E+02
 1.10000E+01    4.09937E+02
 1.15000E+01    3.49329E+02
 1.20000E+01    3.04390E+02
 1.25000E+01    2.70150E+02
 1.30000E+01    2.46156E+02
 1.35000E+01    2.24311E+02
 1.40000E+01    2.06599E+02
 1.45000E+01    1.91954E+02
 1.50000E+01    1.79614E+02
 1.55000E+01    1.68711E+02
 1.60000E+01    1.60283E+02
 1.65000E+01    1.51137E+02
 1.70000E+01    1.43998E+02
 1.75000E+01    1.37544E+02
 1.80000E+01    1.31318E+02
 1.85000E+01    1.25687E+02
 1.90000E+01    1.20222E+02
 1.95000E+01    1.16035E+02
 2.00000E+01    1.11348E+02
