# n + Sm149 : (n,n'02)  
# jendl4.0   N.Iwamoto,A.Zukeran               EVAL-Nov09
# uncertainties: n
# # energies =    93
#   E(MeV)       xs(mb) 
 2.78952E-01    0.00000E+00
 2.87876E-01    1.13230E+02
 3.00000E-01    1.50580E+02
 3.52412E-01    2.21922E+02
 4.00000E-01    2.46025E+02
 4.01793E-01    2.47027E+02
 5.00000E-01    2.87692E+02
 5.32176E-01    2.97733E+02
 5.62157E-01    2.99225E+02
 5.94888E-01    2.88570E+02
 6.00000E-01    2.85229E+02
 6.40771E-01    2.82844E+02
 6.63061E-01    2.73962E+02
 6.68548E-01    2.69889E+02
 7.00000E-01    2.62230E+02
 7.01721E-01    2.61997E+02
 7.14668E-01    2.58799E+02
 7.52613E-01    2.52503E+02
 7.90549E-01    2.49515E+02
 7.94817E-01    2.46421E+02
 8.00000E-01    2.44917E+02
 8.36035E-01    2.40031E+02
 8.38874E-01    2.38100E+02
 8.41250E-01    2.35614E+02
 8.84591E-01    2.19523E+02
 8.87914E-01    2.18937E+02
 9.00000E-01    2.13608E+02
 9.31749E-01    2.06002E+02
 9.59234E-01    1.98595E+02
 9.73550E-01    1.94571E+02
 1.00000E+00    1.89219E+02
 1.00134E+00    1.88991E+02
 1.01886E+00    1.85944E+02
 1.04604E+00    1.81575E+02
 1.05510E+00    1.78820E+02
 1.09034E+00    1.72437E+02
 1.10000E+00    1.70986E+02
 1.12054E+00    1.68112E+02
 1.13061E+00    1.66754E+02
 1.14012E+00    1.65481E+02
 1.16182E+00    1.62683E+02
 1.18115E+00    1.60280E+02
 1.18900E+00    1.59316E+02
 1.19504E+00    1.58594E+02
 1.20000E+00    1.57319E+02
 1.20080E+00    1.57182E+02
 1.20309E+00    1.56803E+02
 1.30000E+00    1.45164E+02
 1.40000E+00    1.30288E+02
 1.50000E+00    1.13007E+02
 1.60000E+00    9.71005E+01
 1.70000E+00    8.28920E+01
 1.80000E+00    7.04338E+01
 1.90000E+00    5.96915E+01
 2.00000E+00    5.04761E+01
 2.25000E+00    3.21803E+01
 2.50000E+00    2.16637E+01
 2.75000E+00    1.40367E+01
 3.00000E+00    1.00017E+01
 3.50000E+00    4.71869E+00
 4.00000E+00    2.38388E+00
 4.50000E+00    1.34807E+00
 5.00000E+00    8.84481E-01
 5.50000E+00    6.68312E-01
 6.00000E+00    5.59572E-01
 6.50000E+00    4.96887E-01
 7.00000E+00    4.53534E-01
 7.50000E+00    4.18318E-01
 8.00000E+00    3.86998E-01
 8.50000E+00    3.58214E-01
 9.00000E+00    3.31748E-01
 9.50000E+00    3.07728E-01
 1.00000E+01    2.86188E-01
 1.05000E+01    2.67121E-01
 1.10000E+01    2.50267E-01
 1.15000E+01    2.35323E-01
 1.20000E+01    2.21874E-01
 1.25000E+01    2.09737E-01
 1.30000E+01    1.98676E-01
 1.35000E+01    1.88509E-01
 1.40000E+01    1.79110E-01
 1.45000E+01    1.70381E-01
 1.50000E+01    1.62228E-01
 1.55000E+01    1.54614E-01
 1.60000E+01    1.47429E-01
 1.65000E+01    1.40665E-01
 1.70000E+01    1.34250E-01
 1.75000E+01    1.28236E-01
 1.80000E+01    1.22554E-01
 1.85000E+01    1.17188E-01
 1.90000E+01    1.12170E-01
 1.95000E+01    1.07435E-01
 2.00000E+01    1.03032E-01
