# n + Sm149 : (n,tot)   
# jendl4.0   N.Iwamoto,A.Zukeran               EVAL-Nov09
# uncertainties: n
# # energies =   171
#   E(MeV)       xs(mb) 
 1.00000E-11    2.69099E+08
 1.00000E-07    2.50080E+07
 4.13990E-07    6.05509E+05
 5.31580E-07    5.68416E+05
 6.82560E-07    4.89150E+06
 8.76420E-07    3.65329E+06
 1.12540E-06    1.56767E+05
 1.44500E-06    4.76929E+04
 1.85540E-06    2.25215E+04
 2.37240E-06    1.40033E+04
 3.05900E-06    1.32817E+04
 3.92790E-06    7.32326E+05
 5.04350E-06    2.38887E+05
 6.47600E-06    8.38420E+04
 8.31530E-06    1.34373E+06
 1.06770E-05    9.94035E+04
 1.37100E-05    3.08963E+05
 1.76030E-05    4.65428E+03
 2.26030E-05    2.44801E+05
 2.92030E-05    1.69335E+05
 3.72670E-05    5.67176E+05
 4.78510E-05    4.18665E+05
 6.14420E-05    5.61034E+05
 7.88930E-05    4.57460E+05
 1.01300E-04    1.26676E+05
 1.30070E-04    2.08992E+05
 1.67020E-04    1.40768E+05
 2.14450E-04    1.16690E+05
 2.75360E-04    1.00933E+05
 3.53580E-04    6.90769E+04
 4.54000E-04    7.93448E+04
 5.82950E-04    9.01617E+04
 7.48520E-04    7.99242E+04
 9.61120E-04    7.09232E+04
 1.23410E-03    6.30364E+04
 1.58460E-03    5.60281E+04
 2.03470E-03    5.15650E+04
 2.24870E-03    4.91916E+04
 2.48520E-03    4.74795E+04
 2.61260E-03    4.63732E+04
 2.74650E-03    4.47648E+04
 3.03540E-03    4.27043E+04
 3.35460E-03    4.07377E+04
 3.70740E-03    3.84209E+04
 4.30740E-03    3.50669E+04
 5.53080E-03    3.12813E+04
 7.10170E-03    2.79295E+04
 9.11880E-03    2.49711E+04
 1.17090E-02    2.23787E+04
 1.50340E-02    2.00600E+04
 1.93050E-02    1.84771E+04
 2.18750E-02    1.76980E+04
 2.35790E-02    1.73252E+04
 2.41760E-02    1.71427E+04
 2.47880E-02    1.68735E+04
 2.60580E-02    1.65712E+04
 2.70000E-02    1.62597E+04
 2.85000E-02    1.57061E+04
 3.18280E-02    1.51063E+04
 3.43070E-02    1.43393E+04
 4.08680E-02    1.34813E+04
 4.63090E-02    1.28174E+04
 5.24750E-02    1.23091E+04
 5.65620E-02    1.17118E+04
 6.73790E-02    1.11723E+04
 7.20000E-02    1.08251E+04
 7.95000E-02    1.05472E+04
 8.25000E-02    1.03787E+04
 8.65170E-02    1.00438E+04
 9.80370E-02    9.59454E+03
 1.11090E-01    9.31376E+03
 1.16790E-01    9.15883E+03
 1.22770E-01    9.01176E+03
 1.29070E-01    8.85969E+03
 1.35690E-01    8.70872E+03
 1.42640E-01    8.56629E+03
 1.49960E-01    8.42143E+03
 1.57640E-01    8.29334E+03
 1.65730E-01    8.18928E+03
 1.74220E-01    8.08626E+03
 1.83160E-01    7.97948E+03
 1.92550E-01    7.88205E+03
 2.02420E-01    7.78332E+03
 2.12800E-01    7.68055E+03
 2.23710E-01    7.58513E+03
 2.35180E-01    7.48856E+03
 2.47240E-01    7.38300E+03
 2.73240E-01    7.31441E+03
 2.87250E-01    7.27846E+03
 2.94520E-01    7.26167E+03
 2.97200E-01    7.25497E+03
 2.98500E-01    7.24696E+03
 3.01970E-01    7.20077E+03
 3.33730E-01    7.11472E+03
 3.68830E-01    7.04635E+03
 3.87740E-01    7.00801E+03
 4.07620E-01    7.00929E+03
 4.50490E-01    7.02494E+03
 4.97870E-01    7.03769E+03
 5.23400E-01    7.04678E+03
 5.50230E-01    7.05633E+03
 5.78440E-01    7.06637E+03
 6.08100E-01    7.07692E+03
 6.39280E-01    7.08875E+03
 6.72060E-01    7.10689E+03
 7.06510E-01    7.12717E+03
 7.42740E-01    7.14849E+03
 7.80820E-01    7.17090E+03
 8.20850E-01    7.19446E+03
 8.62940E-01    7.21922E+03
 9.07180E-01    7.24708E+03
 9.61640E-01    7.26682E+03
 1.00260E+00    7.28640E+03
 1.10800E+00    7.28948E+03
 1.16480E+00    7.28257E+03
 1.22460E+00    7.27525E+03
 1.28730E+00    7.25785E+03
 1.35340E+00    7.23260E+03
 1.42270E+00    7.20608E+03
 1.49570E+00    7.17082E+03
 1.57240E+00    7.12444E+03
 1.65300E+00    7.07567E+03
 1.73770E+00    7.02424E+03
 1.82680E+00    6.96175E+03
 1.92050E+00    6.89121E+03
 2.01900E+00    6.81707E+03
 2.12250E+00    6.73915E+03
 2.23130E+00    6.67125E+03
 2.30690E+00    6.62817E+03
 2.34570E+00    6.60574E+03
 2.36530E+00    6.59060E+03
 2.38520E+00    6.55214E+03
 2.46600E+00    6.47292E+03
 2.59240E+00    6.37351E+03
 2.72530E+00    6.26900E+03
 2.86500E+00    6.15912E+03
 3.01190E+00    6.04356E+03
 3.16640E+00    5.92211E+03
 3.32870E+00    5.74082E+03
 3.67880E+00    5.49167E+03
 4.06570E+00    5.24621E+03
 4.49330E+00    5.07072E+03
 4.72370E+00    4.96636E+03
 4.96590E+00    4.86770E+03
 5.22050E+00    4.78744E+03
 5.48810E+00    4.71564E+03
 5.76950E+00    4.66268E+03
 6.06530E+00    4.62515E+03
 6.37630E+00    4.60458E+03
 6.59240E+00    4.59778E+03
 6.70320E+00    4.59495E+03
 7.04690E+00    4.60400E+03
 7.40820E+00    4.62265E+03
 7.78800E+00    4.65242E+03
 8.18730E+00    4.68738E+03
 8.60710E+00    4.73185E+03
 9.04840E+00    4.78180E+03
 9.51230E+00    4.83432E+03
 1.00000E+01    4.89065E+03
 1.05130E+01    4.95016E+03
 1.10520E+01    5.00991E+03
 1.16180E+01    5.06715E+03
 1.22140E+01    5.11898E+03
 1.28400E+01    5.16221E+03
 1.34990E+01    5.18731E+03
 1.38400E+01    5.19979E+03
 1.41910E+01    5.20819E+03
 1.45500E+01    5.21243E+03
 1.49180E+01    5.21049E+03
 1.56830E+01    5.19180E+03
 1.64870E+01    5.15367E+03
