# n + Os189 : (n,n'05)  
# endfb8.0   N.Iwamoto                         EVAL-Jan10
# uncertainties: n
# # energies =   100
#   E(MeV)       xs(mb) 
 9.78697E-02    0.00000E+00
 1.00000E-01    8.58437E-02
 1.10000E-01    4.30816E-01
 1.20000E-01    1.00381E+00
 1.30000E-01    1.77548E+00
 1.40000E-01    2.72911E+00
 1.50000E-01    3.83807E+00
 1.60000E-01    5.09391E+00
 1.70000E-01    6.39872E+00
 1.80000E-01    7.79593E+00
 1.90000E-01    9.27857E+00
 2.00000E-01    1.08440E+01
 2.17818E-01    1.37300E+01
 2.20560E-01    1.29641E+01
 2.25000E-01    1.22285E+01
 2.34812E-01    1.28928E+01
 2.50000E-01    1.44092E+01
 2.75000E-01    1.67685E+01
 2.77389E-01    1.69938E+01
 2.89537E-01    1.81277E+01
 3.00000E-01    1.91160E+01
 3.51868E-01    2.41674E+01
 3.67718E-01    2.44182E+01
 4.00000E-01    2.65208E+01
 4.30214E-01    2.82463E+01
 4.41065E-01    2.88573E+01
 4.46592E-01    2.91575E+01
 5.00000E-01    3.01564E+01
 5.01453E-01    3.02039E+01
 5.08547E-01    3.04261E+01
 5.34377E-01    3.13042E+01
 5.52967E-01    3.19285E+01
 5.60328E-01    3.21762E+01
 5.65694E-01    3.23513E+01
 5.98076E-01    3.25834E+01
 6.00000E-01    3.26149E+01
 6.02835E-01    3.26781E+01
 6.25330E-01    3.32886E+01
 6.33966E-01    3.35333E+01
 6.37585E-01    3.33495E+01
 6.70963E-01    3.37024E+01
 6.75718E-01    3.37905E+01
 6.76693E-01    3.37994E+01
 6.83524E-01    3.38904E+01
 6.92095E-01    3.40264E+01
 7.00000E-01    3.41686E+01
 7.20727E-01    3.45913E+01
 7.20817E-01    3.45902E+01
 7.39426E-01    3.47262E+01
 8.00000E-01    3.49705E+01
 9.00000E-01    3.41426E+01
 1.00000E+00    3.19379E+01
 1.10000E+00    2.96704E+01
 1.20000E+00    2.69476E+01
 1.30000E+00    2.43283E+01
 1.40000E+00    2.18897E+01
 1.50000E+00    1.96100E+01
 1.60000E+00    1.75173E+01
 1.70000E+00    1.56127E+01
 1.80000E+00    1.38797E+01
 1.90000E+00    1.23062E+01
 2.00000E+00    1.08865E+01
 2.25000E+00    7.82055E+00
 2.50000E+00    5.72292E+00
 2.75000E+00    4.11422E+00
 3.00000E+00    2.93974E+00
 3.50000E+00    1.46716E+00
 4.00000E+00    7.28838E-01
 4.50000E+00    3.72515E-01
 5.00000E+00    2.05355E-01
 5.50000E+00    1.27406E-01
 6.00000E+00    9.03593E-02
 6.50000E+00    7.17887E-02
 7.00000E+00    6.17328E-02
 7.50000E+00    5.56486E-02
 8.00000E+00    5.15561E-02
 8.50000E+00    4.84967E-02
 9.00000E+00    4.59661E-02
 9.50000E+00    4.36815E-02
 1.00000E+01    4.15121E-02
 1.05000E+01    3.94041E-02
 1.10000E+01    3.73683E-02
 1.15000E+01    3.54196E-02
 1.20000E+01    3.35772E-02
 1.25000E+01    3.18518E-02
 1.30000E+01    3.02534E-02
 1.35000E+01    2.87788E-02
 1.40000E+01    2.74245E-02
 1.45000E+01    2.61798E-02
 1.50000E+01    2.50315E-02
 1.55000E+01    2.39654E-02
 1.60000E+01    2.29683E-02
 1.65000E+01    2.20285E-02
 1.70000E+01    2.11373E-02
 1.75000E+01    2.02888E-02
 1.80000E+01    1.94801E-02
 1.85000E+01    1.87104E-02
 1.90000E+01    1.79850E-02
 1.95000E+01    1.72971E-02
 2.00000E+01    1.66509E-02
