# n + Os189 : (n,n'11)  
# endfb8.0   N.Iwamoto                         EVAL-Jan10
# uncertainties: n
# # energies =    79
#   E(MeV)       xs(mb) 
 3.51868E-01    0.00000E+00
 3.67718E-01    2.10512E+01
 4.00000E-01    3.20298E+01
 4.30214E-01    3.83321E+01
 4.41065E-01    4.02702E+01
 4.46592E-01    4.12151E+01
 5.00000E-01    4.82596E+01
 5.01453E-01    4.84685E+01
 5.08547E-01    4.94247E+01
 5.34377E-01    5.25204E+01
 5.52967E-01    5.45465E+01
 5.60328E-01    5.53371E+01
 5.65694E-01    5.58876E+01
 5.98076E-01    5.72834E+01
 6.00000E-01    5.74576E+01
 6.02835E-01    5.77272E+01
 6.25330E-01    5.93173E+01
 6.33966E-01    5.99643E+01
 6.37585E-01    5.94468E+01
 6.70963E-01    6.03059E+01
 6.75718E-01    6.05584E+01
 6.76693E-01    6.05267E+01
 6.83524E-01    6.05783E+01
 6.92095E-01    6.08406E+01
 7.00000E-01    6.11857E+01
 7.20727E-01    6.22648E+01
 7.20817E-01    6.22448E+01
 7.39426E-01    6.27393E+01
 8.00000E-01    6.39416E+01
 9.00000E-01    6.37732E+01
 1.00000E+00    6.12160E+01
 1.10000E+00    5.63779E+01
 1.20000E+00    5.21458E+01
 1.30000E+00    4.84989E+01
 1.40000E+00    4.51061E+01
 1.50000E+00    4.18306E+01
 1.60000E+00    3.89499E+01
 1.70000E+00    3.64449E+01
 1.80000E+00    3.42640E+01
 1.90000E+00    3.23567E+01
 2.00000E+00    3.06887E+01
 2.25000E+00    2.71667E+01
 2.50000E+00    2.48188E+01
 2.75000E+00    2.29096E+01
 3.00000E+00    2.14928E+01
 3.50000E+00    1.94208E+01
 4.00000E+00    1.82066E+01
 4.50000E+00    1.73984E+01
 5.00000E+00    1.67008E+01
 5.50000E+00    1.59364E+01
 6.00000E+00    1.50565E+01
 6.50000E+00    1.40716E+01
 7.00000E+00    1.30627E+01
 7.50000E+00    1.21056E+01
 8.00000E+00    1.12441E+01
 8.50000E+00    1.05057E+01
 9.00000E+00    9.87860E+00
 9.50000E+00    9.35345E+00
 1.00000E+01    8.89779E+00
 1.05000E+01    8.48911E+00
 1.10000E+01    8.10390E+00
 1.15000E+01    7.72775E+00
 1.20000E+01    7.35410E+00
 1.25000E+01    6.98258E+00
 1.30000E+01    6.61660E+00
 1.35000E+01    6.26137E+00
 1.40000E+01    5.92245E+00
 1.45000E+01    5.60485E+00
 1.50000E+01    5.31264E+00
 1.55000E+01    5.04869E+00
 1.60000E+01    4.81447E+00
 1.65000E+01    4.60992E+00
 1.70000E+01    4.43349E+00
 1.75000E+01    4.28226E+00
 1.80000E+01    4.15227E+00
 1.85000E+01    4.03895E+00
 1.90000E+01    3.93762E+00
 1.95000E+01    3.84395E+00
 2.00000E+01    3.75426E+00
