# n + Os189 : (n,p)     
# endfb8.0   N.Iwamoto                         EVAL-Jan10
# uncertainties: n
# # energies =    58
#   E(MeV)       xs(mb) 
 2.26300E-01    0.00000E+00
 3.51967E-01    6.15030E-19
 3.73079E-01    7.35340E-19
 4.88090E-01    1.46490E-18
 5.06789E-01    1.59020E-18
 5.30917E-01    1.81390E-18
 7.11275E-01    3.55790E-18
 7.29974E-01    3.78980E-18
 8.28497E-01    5.14730E-18
 8.69716E-01    5.76400E-18
 8.99876E-01    6.22360E-18
 9.27021E-01    6.70240E-18
 1.30000E+00    1.36350E-17
 1.40000E+00    1.02160E-16
 1.50000E+00    1.15990E-15
 1.60000E+00    1.04630E-14
 1.70000E+00    7.42300E-14
 1.80000E+00    4.28560E-13
 1.90000E+00    2.07590E-12
 2.00000E+00    8.65200E-12
 2.25000E+00    1.77160E-10
 2.50000E+00    2.06450E-09
 2.75000E+00    1.53120E-08
 3.00000E+00    7.79810E-08
 3.50000E+00    9.85400E-07
 4.00000E+00    6.06244E-06
 4.50000E+00    2.28993E-05
 5.00000E+00    6.22096E-05
 5.50000E+00    1.39096E-04
 6.00000E+00    2.97925E-04
 6.50000E+00    7.05576E-04
 7.00000E+00    1.89474E-03
 7.50000E+00    5.26092E-03
 8.00000E+00    1.39838E-02
 8.50000E+00    3.45159E-02
 9.00000E+00    7.86223E-02
 9.50000E+00    1.65492E-01
 1.00000E+01    3.22331E-01
 1.05000E+01    5.81887E-01
 1.10000E+01    9.76861E-01
 1.15000E+01    1.53392E+00
 1.20000E+01    2.27063E+00
 1.25000E+01    3.19582E+00
 1.30000E+01    4.31168E+00
 1.35000E+01    5.61557E+00
 1.40000E+01    7.09955E+00
 1.45000E+01    8.74788E+00
 1.50000E+01    1.05315E+01
 1.55000E+01    1.24026E+01
 1.60000E+01    1.42929E+01
 1.65000E+01    1.61222E+01
 1.70000E+01    1.78187E+01
 1.75000E+01    1.93393E+01
 1.80000E+01    2.06745E+01
 1.85000E+01    2.18431E+01
 1.90000E+01    2.28628E+01
 1.95000E+01    2.37580E+01
 2.00000E+01    2.45435E+01
