# n + Os189 : (n,n'04)  
# endfb8.0   N.Iwamoto                         EVAL-Jan10
# uncertainties: n
# # energies =   101
#   E(MeV)       xs(mb) 
 9.57564E-02    0.00000E+00
 9.78697E-02    3.42532E+02
 1.00000E-01    4.32262E+02
 1.10000E-01    5.90393E+02
 1.20000E-01    6.44749E+02
 1.30000E-01    6.68630E+02
 1.40000E-01    6.80712E+02
 1.50000E-01    6.86738E+02
 1.60000E-01    6.89898E+02
 1.70000E-01    6.85933E+02
 1.80000E-01    6.82196E+02
 1.90000E-01    6.78708E+02
 2.00000E-01    6.74971E+02
 2.17818E-01    6.68281E+02
 2.20560E-01    6.65981E+02
 2.25000E-01    6.63015E+02
 2.34812E-01    6.59144E+02
 2.50000E-01    6.24354E+02
 2.75000E-01    5.99766E+02
 2.77389E-01    5.97835E+02
 2.89537E-01    5.70202E+02
 3.00000E-01    5.59775E+02
 3.51868E-01    5.29780E+02
 3.67718E-01    5.21103E+02
 4.00000E-01    4.92223E+02
 4.30214E-01    4.74369E+02
 4.41065E-01    4.61806E+02
 4.46592E-01    4.46602E+02
 5.00000E-01    4.05434E+02
 5.01453E-01    4.04533E+02
 5.08547E-01    3.91758E+02
 5.34377E-01    3.60682E+02
 5.52967E-01    3.44486E+02
 5.60328E-01    3.34530E+02
 5.65694E-01    3.25969E+02
 5.98076E-01    3.02196E+02
 6.00000E-01    3.01121E+02
 6.02835E-01    2.99603E+02
 6.25330E-01    2.83732E+02
 6.33966E-01    2.75240E+02
 6.37585E-01    2.72803E+02
 6.70963E-01    2.53769E+02
 6.75718E-01    2.50402E+02
 6.76693E-01    2.49353E+02
 6.83524E-01    2.44062E+02
 6.92095E-01    2.37283E+02
 7.00000E-01    2.31740E+02
 7.20727E-01    2.22210E+02
 7.20817E-01    2.22043E+02
 7.39426E-01    2.11335E+02
 8.00000E-01    1.84766E+02
 9.00000E-01    1.53411E+02
 1.00000E+00    1.27797E+02
 1.10000E+00    1.07971E+02
 1.20000E+00    9.08119E+01
 1.30000E+00    7.65968E+01
 1.40000E+00    6.48585E+01
 1.50000E+00    5.49282E+01
 1.60000E+00    4.65407E+01
 1.70000E+00    3.94630E+01
 1.80000E+00    3.34787E+01
 1.90000E+00    2.83886E+01
 2.00000E+00    2.40627E+01
 2.25000E+00    1.56478E+01
 2.50000E+00    1.04464E+01
 2.75000E+00    6.90711E+00
 3.00000E+00    4.43437E+00
 3.50000E+00    1.88451E+00
 4.00000E+00    7.99218E-01
 4.50000E+00    3.42114E-01
 5.00000E+00    1.50903E-01
 5.50000E+00    7.09342E-02
 6.00000E+00    3.72458E-02
 6.50000E+00    2.28423E-02
 7.00000E+00    1.65332E-02
 7.50000E+00    1.35695E-02
 8.00000E+00    1.20130E-02
 8.50000E+00    1.10666E-02
 9.00000E+00    1.03901E-02
 9.50000E+00    9.83089E-03
 1.00000E+01    9.32371E-03
 1.05000E+01    8.84167E-03
 1.10000E+01    8.38085E-03
 1.15000E+01    7.94188E-03
 1.20000E+01    7.52783E-03
 1.25000E+01    7.14049E-03
 1.30000E+01    6.78189E-03
 1.35000E+01    6.45119E-03
 1.40000E+01    6.14749E-03
 1.45000E+01    5.86842E-03
 1.50000E+01    5.61097E-03
 1.55000E+01    5.37195E-03
 1.60000E+01    5.14841E-03
 1.65000E+01    4.93772E-03
 1.70000E+01    4.73793E-03
 1.75000E+01    4.54773E-03
 1.80000E+01    4.36645E-03
 1.85000E+01    4.19389E-03
 1.90000E+01    4.03209E-03
 1.95000E+01    3.87918E-03
 2.00000E+01    3.73296E-03
