# n + Os189 : (n,n'13)  
# endfb8.0   N.Iwamoto                         EVAL-Jan10
# uncertainties: n
# # energies =    76
#   E(MeV)       xs(mb) 
 4.30214E-01    0.00000E+00
 4.41065E-01    6.23173E+01
 4.46592E-01    7.10882E+01
 5.00000E-01    1.11563E+02
 5.01453E-01    1.12216E+02
 5.08547E-01    1.13499E+02
 5.34377E-01    1.19355E+02
 5.52967E-01    1.20741E+02
 5.60328E-01    1.20854E+02
 5.65694E-01    1.20546E+02
 5.98076E-01    1.24687E+02
 6.00000E-01    1.24920E+02
 6.02835E-01    1.25275E+02
 6.25330E-01    1.26705E+02
 6.33966E-01    1.26419E+02
 6.37585E-01    1.26542E+02
 6.70963E-01    1.26327E+02
 6.75718E-01    1.26472E+02
 6.76693E-01    1.25988E+02
 6.83524E-01    1.24240E+02
 6.92095E-01    1.22629E+02
 7.00000E-01    1.21807E+02
 7.20727E-01    1.20922E+02
 7.20817E-01    1.20788E+02
 7.39426E-01    1.17783E+02
 8.00000E-01    1.15163E+02
 9.00000E-01    1.07899E+02
 1.00000E+00    9.78624E+01
 1.10000E+00    8.72692E+01
 1.20000E+00    7.60575E+01
 1.30000E+00    6.64852E+01
 1.40000E+00    5.83818E+01
 1.50000E+00    5.07050E+01
 1.60000E+00    4.37598E+01
 1.70000E+00    3.77085E+01
 1.80000E+00    3.24564E+01
 1.90000E+00    2.78899E+01
 2.00000E+00    2.39350E+01
 2.25000E+00    1.60124E+01
 2.50000E+00    1.09608E+01
 2.75000E+00    7.41446E+00
 3.00000E+00    5.06584E+00
 3.50000E+00    2.33886E+00
 4.00000E+00    1.12458E+00
 4.50000E+00    5.89406E-01
 5.00000E+00    3.53438E-01
 5.50000E+00    2.46336E-01
 6.00000E+00    1.94659E-01
 6.50000E+00    1.66845E-01
 7.00000E+00    1.49922E-01
 7.50000E+00    1.38265E-01
 8.00000E+00    1.29576E-01
 8.50000E+00    1.22649E-01
 9.00000E+00    1.16736E-01
 9.50000E+00    1.11315E-01
 1.00000E+01    1.06112E-01
 1.05000E+01    1.01001E-01
 1.10000E+01    9.60035E-02
 1.15000E+01    9.11680E-02
 1.20000E+01    8.65551E-02
 1.25000E+01    8.22022E-02
 1.30000E+01    7.81472E-02
 1.35000E+01    7.43899E-02
 1.40000E+01    7.09246E-02
 1.45000E+01    6.77346E-02
 1.50000E+01    6.47908E-02
 1.55000E+01    6.20587E-02
 1.60000E+01    5.95059E-02
 1.65000E+01    5.71018E-02
 1.70000E+01    5.48226E-02
 1.75000E+01    5.26523E-02
 1.80000E+01    5.05813E-02
 1.85000E+01    4.86062E-02
 1.90000E+01    4.67334E-02
 1.95000E+01    4.49714E-02
 2.00000E+01    4.33114E-02
