# n + Os189 : (n,xn)    
# endfb8.0   N.Iwamoto                         EVAL-Jan10
# 
# # energies =   112
#   E(MeV)        xs(mb) 
 3.09765E-02    0.00000E+00
 3.63721E-02    6.67989E+00
 4.00000E-02    4.53745E+02
 5.00000E-02    5.67086E+02
 6.00000E-02    5.87198E+02
 6.99062E-02    5.90177E+02
 7.00000E-02    7.16676E+02
 8.00000E-02    1.18002E+03
 9.00000E-02    1.25468E+03
 9.57564E-02    1.27903E+03
 9.78697E-02    1.54357E+03
 1.00000E-01    1.61673E+03
 1.05000E-01    1.68048E+03
 1.10000E-01    1.74424E+03
 1.20000E-01    1.78936E+03
 1.30000E-01    1.81315E+03
 1.40000E-01    1.82869E+03
 1.50000E-01    1.84147E+03
 1.60000E-01    1.85438E+03
 1.70000E-01    1.85696E+03
 1.80000E-01    1.86020E+03
 1.90000E-01    1.86573E+03
 2.00000E-01    1.87231E+03
 2.17818E-01    1.88791E+03
 2.20560E-01    1.90830E+03
 2.25000E-01    1.93342E+03
 2.34812E-01    1.96036E+03
 2.50000E-01    2.07790E+03
 2.75000E-01    2.13904E+03
 2.77389E-01    2.14393E+03
 2.89537E-01    2.21314E+03
 3.00000E-01    2.24219E+03
 3.51868E-01    2.35486E+03
 3.67717E-01    2.39013E+03
 3.67718E-01    2.39014E+03
 4.00000E-01    2.48967E+03
 4.30214E-01    2.52471E+03
 4.41065E-01    2.55096E+03
 4.46592E-01    2.58075E+03
 5.00000E-01    2.67264E+03
 5.01453E-01    2.67418E+03
 5.08547E-01    2.69733E+03
 5.34377E-01    2.75440E+03
 5.52967E-01    2.78627E+03
 5.60328E-01    2.80543E+03
 5.65694E-01    2.82185E+03
 5.98076E-01    2.87415E+03
 6.00000E-01    2.87669E+03
 6.02835E-01    2.88033E+03
 6.25330E-01    2.91671E+03
 6.33966E-01    2.93464E+03
 6.37585E-01    2.93835E+03
 6.70963E-01    2.96113E+03
 6.75718E-01    2.96559E+03
 6.76693E-01    2.96719E+03
 6.83524E-01    2.97434E+03
 6.92095E-01    2.98303E+03
 7.00000E-01    2.98991E+03
 7.20727E-01    2.99862E+03
 7.20817E-01    2.99889E+03
 7.39426E-01    3.00852E+03
 8.00000E-01    3.02160E+03
 9.00000E-01    3.02694E+03
 1.00000E+00    3.02822E+03
 1.10000E+00    3.01852E+03
 1.20000E+00    3.00671E+03
 1.30000E+00    2.99492E+03
 1.40000E+00    2.98342E+03
 1.50000E+00    2.97272E+03
 1.60000E+00    2.96258E+03
 1.70000E+00    2.95277E+03
 1.80000E+00    2.94322E+03
 1.90000E+00    2.93390E+03
 2.00000E+00    2.92474E+03
 2.25000E+00    2.90375E+03
 2.50000E+00    2.88190E+03
 2.75000E+00    2.86363E+03
 3.00000E+00    2.84868E+03
 3.50000E+00    2.82466E+03
 4.00000E+00    2.80274E+03
 4.50000E+00    2.77769E+03
 5.00000E+00    2.75022E+03
 5.50000E+00    2.71789E+03
 6.00000E+00    2.71931E+03
 6.50000E+00    2.84708E+03
 7.00000E+00    3.31448E+03
 7.50000E+00    3.75774E+03
 8.00000E+00    4.07628E+03
 8.50000E+00    4.28528E+03
 9.00000E+00    4.43033E+03
 9.50000E+00    4.53356E+03
 1.00000E+01    4.60357E+03
 1.05000E+01    4.64712E+03
 1.10000E+01    4.67095E+03
 1.15000E+01    4.68085E+03
 1.20000E+01    4.68133E+03
 1.25000E+01    4.67594E+03
 1.30000E+01    4.66725E+03
 1.35000E+01    4.65705E+03
 1.40000E+01    4.64682E+03
 1.45000E+01    4.64053E+03
 1.50000E+01    4.68359E+03
 1.55000E+01    4.81110E+03
 1.60000E+01    5.00437E+03
 1.65000E+01    5.22218E+03
 1.70000E+01    5.43054E+03
 1.75000E+01    5.61398E+03
 1.80000E+01    5.76386E+03
 1.85000E+01    5.88098E+03
 1.90000E+01    5.96956E+03
 1.95000E+01    6.03499E+03
 2.00000E+01    6.08263E+03
