# n + Os189 : (n,d)     
# endfb8.0   N.Iwamoto                         EVAL-Jan10
# uncertainties: n
# # energies =    61
#   E(MeV)       xs(mb) 
 5.06050E+00    0.00000E+00
 5.10243E+00    3.21810E-23
 5.12443E+00    5.11530E-23
 5.16174E+00    9.10880E-23
 5.17280E+00    1.04280E-22
 5.21738E+00    1.63240E-22
 5.23085E+00    1.82480E-22
 5.23349E+00    1.86320E-22
 5.24422E+00    2.02180E-22
 5.26694E+00    2.36670E-22
 5.26947E+00    2.40560E-22
 5.29265E+00    2.76510E-22
 5.31880E+00    3.17200E-22
 5.34662E+00    3.60570E-22
 5.34916E+00    3.64530E-22
 5.35272E+00    3.70090E-22
 5.36232E+00    3.85070E-22
 5.37913E+00    4.11310E-22
 5.38811E+00    4.25330E-22
 5.39297E+00    4.32920E-22
 5.40554E+00    4.52550E-22
 5.40893E+00    4.57840E-22
 5.41481E+00    4.67020E-22
 5.42331E+00    4.80290E-22
 5.42515E+00    4.83170E-22
 5.43457E+00    4.97880E-22
 5.46656E+00    5.47830E-22
 5.49255E+00    5.88420E-22
 5.50260E+00    6.04120E-22
 5.51110E+00    7.27290E-22
 5.52506E+00    1.13400E-21
 5.53315E+00    1.46490E-21
 5.54523E+00    2.07160E-21
 6.50000E+00    5.45440E-20
 7.00000E+00    3.46600E-16
 7.50000E+00    1.15190E-12
 8.00000E+00    3.64000E-10
 8.50000E+00    2.36480E-08
 9.00000E+00    6.42660E-07
 9.50000E+00    8.78820E-06
 1.00000E+01    7.28553E-05
 1.05000E+01    4.15098E-04
 1.10000E+01    1.77342E-03
 1.15000E+01    6.04802E-03
 1.20000E+01    1.72036E-02
 1.25000E+01    4.21038E-02
 1.30000E+01    9.06304E-02
 1.35000E+01    1.74449E-01
 1.40000E+01    3.04508E-01
 1.45000E+01    4.88422E-01
 1.50000E+01    7.29182E-01
 1.55000E+01    1.02545E+00
 1.60000E+01    1.37280E+00
 1.65000E+01    1.76505E+00
 1.70000E+01    2.19513E+00
 1.75000E+01    2.65564E+00
 1.80000E+01    3.13872E+00
 1.85000E+01    3.63588E+00
 1.90000E+01    4.13766E+00
 1.95000E+01    4.63382E+00
 2.00000E+01    5.11430E+00
