# n + Os189 : (n,n'16)  
# endfb8.0   N.Iwamoto                         EVAL-Jan10
# uncertainties: n
# # energies =    72
#   E(MeV)       xs(mb) 
 5.01453E-01    0.00000E+00
 5.08547E-01    5.24946E+01
 5.34377E-01    8.58581E+01
 5.52967E-01    9.57988E+01
 5.60328E-01    9.66951E+01
 5.65694E-01    9.63136E+01
 5.98076E-01    1.02693E+02
 6.00000E-01    1.03096E+02
 6.02835E-01    1.03637E+02
 6.25330E-01    1.04556E+02
 6.33966E-01    1.04643E+02
 6.37585E-01    1.04918E+02
 6.70963E-01    1.06384E+02
 6.75718E-01    1.05921E+02
 6.76693E-01    1.05663E+02
 6.83524E-01    1.04787E+02
 6.92095E-01    1.03267E+02
 7.00000E-01    1.02230E+02
 7.20727E-01    1.01889E+02
 7.20817E-01    1.01825E+02
 7.39426E-01    1.00771E+02
 8.00000E-01    9.77457E+01
 9.00000E-01    9.41005E+01
 1.00000E+00    8.47688E+01
 1.10000E+00    7.66109E+01
 1.20000E+00    6.74558E+01
 1.30000E+00    5.87140E+01
 1.40000E+00    5.13284E+01
 1.50000E+00    4.49106E+01
 1.60000E+00    3.86918E+01
 1.70000E+00    3.32511E+01
 1.80000E+00    2.85292E+01
 1.90000E+00    2.44280E+01
 2.00000E+00    2.08830E+01
 2.25000E+00    1.38219E+01
 2.50000E+00    9.36061E+00
 2.75000E+00    6.26222E+00
 3.00000E+00    4.26296E+00
 3.50000E+00    1.94880E+00
 4.00000E+00    9.40292E-01
 4.50000E+00    5.03533E-01
 5.00000E+00    3.12866E-01
 5.50000E+00    2.26366E-01
 6.00000E+00    1.83908E-01
 6.50000E+00    1.60257E-01
 7.00000E+00    1.45230E-01
 7.50000E+00    1.34481E-01
 8.00000E+00    1.26262E-01
 8.50000E+00    1.19621E-01
 9.00000E+00    1.13922E-01
 9.50000E+00    1.08693E-01
 1.00000E+01    1.03671E-01
 1.05000E+01    9.87369E-02
 1.10000E+01    9.38961E-02
 1.15000E+01    8.92045E-02
 1.20000E+01    8.47200E-02
 1.25000E+01    8.04808E-02
 1.30000E+01    7.65264E-02
 1.35000E+01    7.28583E-02
 1.40000E+01    6.94777E-02
 1.45000E+01    6.63649E-02
 1.50000E+01    6.34919E-02
 1.55000E+01    6.08254E-02
 1.60000E+01    5.83342E-02
 1.65000E+01    5.59883E-02
 1.70000E+01    5.37641E-02
 1.75000E+01    5.16458E-02
 1.80000E+01    4.96237E-02
 1.85000E+01    4.76942E-02
 1.90000E+01    4.58634E-02
 1.95000E+01    4.41378E-02
 2.00000E+01    4.25111E-02
