# n + Os189 : (n,n'23)  
# endfb8.0   N.Iwamoto                         EVAL-Jan10
# uncertainties: n
# # energies =    64
#   E(MeV)       xs(mb) 
 6.02835E-01    0.00000E+00
 6.25330E-01    4.72138E+01
 6.33966E-01    5.25969E+01
 6.37585E-01    5.44986E+01
 6.70963E-01    6.55609E+01
 6.75718E-01    6.61706E+01
 6.76693E-01    6.61715E+01
 6.83524E-01    6.67813E+01
 6.92095E-01    6.70311E+01
 7.00000E-01    6.74281E+01
 7.20727E-01    6.93908E+01
 7.20817E-01    6.93515E+01
 7.39426E-01    7.01973E+01
 8.00000E-01    7.26995E+01
 9.00000E-01    7.44574E+01
 1.00000E+00    7.22990E+01
 1.10000E+00    6.63253E+01
 1.20000E+00    6.07864E+01
 1.30000E+00    5.40001E+01
 1.40000E+00    4.73885E+01
 1.50000E+00    4.15764E+01
 1.60000E+00    3.64983E+01
 1.70000E+00    3.15508E+01
 1.80000E+00    2.71882E+01
 1.90000E+00    2.33617E+01
 2.00000E+00    2.00303E+01
 2.25000E+00    1.33340E+01
 2.50000E+00    9.06992E+00
 2.75000E+00    6.08956E+00
 3.00000E+00    4.05412E+00
 3.50000E+00    1.80858E+00
 4.00000E+00    8.27496E-01
 4.50000E+00    4.04150E-01
 5.00000E+00    2.22032E-01
 5.50000E+00    1.42321E-01
 6.00000E+00    1.05858E-01
 6.50000E+00    8.76497E-02
 7.00000E+00    7.74643E-02
 7.50000E+00    7.09162E-02
 8.00000E+00    6.62439E-02
 8.50000E+00    6.26223E-02
 9.00000E+00    5.95952E-02
 9.50000E+00    5.68631E-02
 1.00000E+01    5.42619E-02
 1.05000E+01    5.17137E-02
 1.10000E+01    4.92078E-02
 1.15000E+01    4.67775E-02
 1.20000E+01    4.44487E-02
 1.25000E+01    4.22424E-02
 1.30000E+01    4.01801E-02
 1.35000E+01    3.82642E-02
 1.40000E+01    3.64962E-02
 1.45000E+01    3.48672E-02
 1.50000E+01    3.33631E-02
 1.55000E+01    3.19671E-02
 1.60000E+01    3.06630E-02
 1.65000E+01    2.94353E-02
 1.70000E+01    2.82716E-02
 1.75000E+01    2.71632E-02
 1.80000E+01    2.61051E-02
 1.85000E+01    2.50949E-02
 1.90000E+01    2.41357E-02
 1.95000E+01    2.32313E-02
 2.00000E+01    2.23781E-02
