# n + Os189 : (n,tot)   
# endfb8.0   N.Iwamoto                         EVAL-Jan10
# uncertainties: n
# # energies =   171
#   E(MeV)       xs(mb) 
 1.00000E-11    2.92364E+05
 1.00000E-07    2.46748E+04
 4.13990E-07    2.15334E+04
 5.31580E-07    2.08621E+04
 6.82560E-07    2.02681E+04
 8.76420E-07    1.97422E+04
 1.12540E-06    1.92795E+04
 1.44500E-06    1.88764E+04
 1.85540E-06    1.85399E+04
 2.37240E-06    1.83018E+04
 3.05900E-06    1.83197E+04
 3.92790E-06    1.94549E+04
 5.04350E-06    5.06156E+04
 6.47600E-06    6.11234E+05
 8.31530E-06    1.45535E+06
 1.06770E-05    3.84170E+04
 1.37100E-05    2.00585E+04
 1.76030E-05    2.97250E+05
 2.26030E-05    1.68752E+05
 2.92030E-05    2.81358E+04
 3.72670E-05    4.55334E+04
 4.78510E-05    2.04657E+05
 6.14420E-05    2.13787E+05
 7.88930E-05    2.23936E+05
 1.01300E-04    1.98598E+05
 1.30070E-04    1.76296E+05
 1.67020E-04    1.56500E+05
 2.14450E-04    1.38928E+05
 2.75360E-04    1.23326E+05
 3.53580E-04    1.09522E+05
 4.54000E-04    9.74955E+04
 5.82950E-04    8.68302E+04
 7.48520E-04    7.74141E+04
 9.61120E-04    6.91619E+04
 1.23410E-03    6.19797E+04
 1.58460E-03    5.55466E+04
 2.03470E-03    5.14221E+04
 2.24870E-03    4.92181E+04
 2.48520E-03    4.76234E+04
 2.61260E-03    4.65908E+04
 2.74650E-03    4.50862E+04
 3.03540E-03    4.31535E+04
 3.35460E-03    4.13026E+04
 3.70740E-03    3.91216E+04
 4.30740E-03    3.60058E+04
 5.53080E-03    3.24657E+04
 7.10170E-03    2.93123E+04
 9.11880E-03    2.65122E+04
 1.17090E-02    2.40422E+04
 1.50340E-02    2.18080E+04
 1.93050E-02    2.02692E+04
 2.18750E-02    1.95094E+04
 2.35790E-02    1.91405E+04
 2.41760E-02    1.89589E+04
 2.47880E-02    1.86902E+04
 2.60580E-02    1.83887E+04
 2.70000E-02    1.80772E+04
 2.85000E-02    1.75215E+04
 3.18280E-02    1.69176E+04
 3.43070E-02    1.61409E+04
 4.08680E-02    1.52558E+04
 4.63090E-02    1.45592E+04
 5.24750E-02    1.40244E+04
 5.65620E-02    1.33876E+04
 6.73790E-02    1.27995E+04
 7.20000E-02    1.24146E+04
 7.95000E-02    1.21056E+04
 8.25000E-02    1.19181E+04
 8.65170E-02    1.15451E+04
 9.80370E-02    1.10333E+04
 1.11090E-01    1.06850E+04
 1.16790E-01    1.04982E+04
 1.22770E-01    1.03051E+04
 1.29070E-01    1.01227E+04
 1.35690E-01    9.94034E+03
 1.42640E-01    9.75872E+03
 1.49960E-01    9.58816E+03
 1.57640E-01    9.41536E+03
 1.65730E-01    9.26216E+03
 1.74220E-01    9.10482E+03
 1.83160E-01    8.95114E+03
 1.92550E-01    8.80492E+03
 2.02420E-01    8.65314E+03
 2.12800E-01    8.51207E+03
 2.23710E-01    8.36846E+03
 2.35180E-01    8.22698E+03
 2.47240E-01    8.03808E+03
 2.73240E-01    7.86643E+03
 2.87250E-01    7.77779E+03
 2.94520E-01    7.74118E+03
 2.97200E-01    7.72729E+03
 2.98500E-01    7.71067E+03
 3.01970E-01    7.58961E+03
 3.33730E-01    7.37403E+03
 3.68830E-01    7.21643E+03
 3.87740E-01    7.11623E+03
 4.07620E-01    6.99988E+03
 4.50490E-01    6.84900E+03
 4.97870E-01    6.74149E+03
 5.23400E-01    6.66917E+03
 5.50230E-01    6.59385E+03
 5.78440E-01    6.52547E+03
 6.08100E-01    6.45758E+03
 6.39280E-01    6.41358E+03
 6.72060E-01    6.38578E+03
 7.06510E-01    6.35655E+03
 7.42740E-01    6.32582E+03
 7.80820E-01    6.29351E+03
 8.20850E-01    6.26128E+03
 8.62940E-01    6.23293E+03
 9.07180E-01    6.20103E+03
 9.61640E-01    6.17012E+03
 1.00260E+00    6.16611E+03
 1.10800E+00    6.17908E+03
 1.16480E+00    6.19928E+03
 1.22460E+00    6.22271E+03
 1.28730E+00    6.24986E+03
 1.35340E+00    6.28678E+03
 1.42270E+00    6.32625E+03
 1.49570E+00    6.36777E+03
 1.57240E+00    6.41140E+03
 1.65300E+00    6.45725E+03
 1.73770E+00    6.50545E+03
 1.82680E+00    6.55615E+03
 1.92050E+00    6.60605E+03
 2.01900E+00    6.64671E+03
 2.12250E+00    6.68846E+03
 2.23130E+00    6.72474E+03
 2.30690E+00    6.74293E+03
 2.34570E+00    6.74985E+03
 2.36530E+00    6.75452E+03
 2.38520E+00    6.76638E+03
 2.46600E+00    6.78995E+03
 2.59240E+00    6.80645E+03
 2.72530E+00    6.81881E+03
 2.86500E+00    6.82322E+03
 3.01190E+00    6.80965E+03
 3.16640E+00    6.78427E+03
 3.32870E+00    6.73825E+03
 3.67880E+00    6.62823E+03
 4.06570E+00    6.46826E+03
 4.49330E+00    6.31946E+03
 4.72370E+00    6.20226E+03
 4.96590E+00    6.07840E+03
 5.22050E+00    5.94905E+03
 5.48810E+00    5.81349E+03
 5.76950E+00    5.67096E+03
 6.06530E+00    5.52862E+03
 6.37630E+00    5.41266E+03
 6.59240E+00    5.34299E+03
 6.70320E+00    5.25848E+03
 7.04690E+00    5.13617E+03
 7.40820E+00    5.02919E+03
 7.78800E+00    4.94062E+03
 8.18730E+00    4.87310E+03
 8.60710E+00    4.82613E+03
 9.04840E+00    4.79830E+03
 9.51230E+00    4.79117E+03
 1.00000E+01    4.80110E+03
 1.05130E+01    4.82660E+03
 1.10520E+01    4.86564E+03
 1.16180E+01    4.91673E+03
 1.22140E+01    4.97816E+03
 1.28400E+01    5.04814E+03
 1.34990E+01    5.10452E+03
 1.38400E+01    5.14359E+03
 1.41910E+01    5.18316E+03
 1.45500E+01    5.22260E+03
 1.49180E+01    5.28055E+03
 1.56830E+01    5.35210E+03
 1.64870E+01    5.41241E+03
