# n + Ce136 : (n,n'14)  
# jeff3.3    A.J. Koning and D. Rochman        EVAL-DEC15
# uncertainties: n
# # energies =    74
#   E(MeV)       xs(mb) 
 2.53600E+00    0.00000E+00
 2.60000E+00    4.48099E+01
 2.61406E+00    4.69674E+01
 2.70372E+00    6.07255E+01
 2.80000E+00    7.54994E+01
 2.81551E+00    7.69102E+01
 2.84707E+00    7.97810E+01
 2.88728E+00    8.34385E+01
 2.92706E+00    8.70570E+01
 2.95406E+00    8.95129E+01
 2.96414E+00    9.04298E+01
 2.97693E+00    9.15932E+01
 3.00000E+00    9.36917E+01
 3.01199E+00    9.41403E+01
 3.01360E+00    9.42005E+01
 3.03357E+00    9.49476E+01
 3.11847E+00    9.81238E+01
 3.17005E+00    1.00053E+02
 3.19826E+00    1.01109E+02
 3.20000E+00    1.01174E+02
 3.22526E+00    1.00369E+02
 3.40000E+00    9.48042E+01
 3.60000E+00    7.79734E+01
 3.80000E+00    5.93793E+01
 4.00000E+00    4.38427E+01
 4.20000E+00    3.17395E+01
 4.40000E+00    2.27717E+01
 4.60000E+00    1.62959E+01
 4.80000E+00    1.16807E+01
 5.00000E+00    8.40612E+00
 5.20000E+00    6.08190E+00
 5.40000E+00    4.42514E+00
 5.60000E+00    3.23553E+00
 5.80000E+00    2.37711E+00
 6.00000E+00    1.75389E+00
 6.20000E+00    1.29616E+00
 6.40000E+00    9.61490E-01
 6.60000E+00    7.16294E-01
 6.80000E+00    5.35693E-01
 7.00000E+00    4.01971E-01
 7.20000E+00    3.02797E-01
 7.40000E+00    2.29019E-01
 7.60000E+00    1.73733E-01
 7.80000E+00    1.32430E-01
 8.00000E+00    1.01110E-01
 8.50000E+00    5.25707E-02
 9.00000E+00    2.79290E-02
 9.50000E+00    1.51463E-02
 1.00000E+01    8.35955E-03
 1.05000E+01    4.67485E-03
 1.10000E+01    2.63863E-03
 1.15000E+01    1.50077E-03
 1.20000E+01    8.60031E-04
 1.25000E+01    4.96405E-04
 1.30000E+01    2.88863E-04
 1.35000E+01    1.69557E-04
 1.40000E+01    1.00367E-04
 1.45000E+01    5.99582E-05
 1.50000E+01    3.61287E-05
 1.60000E+01    1.34352E-05
 1.70000E+01    5.13588E-06
 1.80000E+01    2.01277E-06
 1.90000E+01    8.08400E-07
 2.00000E+01    3.30030E-07
 2.10000E+01    1.38510E-07
 2.20000E+01    5.93800E-08
 2.30000E+01    2.58800E-08
 2.40000E+01    1.14570E-08
 2.50000E+01    5.15460E-09
 2.60000E+01    2.35690E-09
 2.70000E+01    1.09350E-09
 2.80000E+01    5.14410E-10
 2.90000E+01    2.45310E-10
 3.00000E+01    1.18480E-10
