# n + Ce136 : (n,n'12)  
# jeff3.3    A.J. Koning and D. Rochman        EVAL-DEC15
# uncertainties: n
# # energies =    76
#   E(MeV)       xs(mb) 
 2.44290E+00    0.00000E+00
 2.46964E+00    9.09670E-01
 2.53600E+00    3.16717E+00
 2.60000E+00    5.34438E+00
 2.61406E+00    5.80890E+00
 2.70372E+00    8.77115E+00
 2.80000E+00    1.19521E+01
 2.81551E+00    1.23669E+01
 2.84707E+00    1.32110E+01
 2.88728E+00    1.42865E+01
 2.92706E+00    1.53504E+01
 2.95406E+00    1.60725E+01
 2.96414E+00    1.63421E+01
 2.97693E+00    1.66842E+01
 3.00000E+00    1.73012E+01
 3.01199E+00    1.74886E+01
 3.01360E+00    1.75138E+01
 3.03357E+00    1.78260E+01
 3.11847E+00    1.91533E+01
 3.17005E+00    1.99597E+01
 3.19826E+00    2.04007E+01
 3.20000E+00    2.04279E+01
 3.22526E+00    2.03385E+01
 3.40000E+00    1.97200E+01
 3.60000E+00    1.63007E+01
 3.80000E+00    1.26764E+01
 4.00000E+00    9.69610E+00
 4.20000E+00    7.39991E+00
 4.40000E+00    5.67371E+00
 4.60000E+00    4.37752E+00
 4.80000E+00    3.39805E+00
 5.00000E+00    2.65089E+00
 5.20000E+00    2.07570E+00
 5.40000E+00    1.62914E+00
 5.60000E+00    1.27961E+00
 5.80000E+00    1.00540E+00
 6.00000E+00    7.89766E-01
 6.20000E+00    6.18735E-01
 6.40000E+00    4.84618E-01
 6.60000E+00    3.79798E-01
 6.80000E+00    2.97775E-01
 7.00000E+00    2.33474E-01
 7.20000E+00    1.83261E-01
 7.40000E+00    1.43996E-01
 7.60000E+00    1.13226E-01
 7.80000E+00    8.92264E-02
 8.00000E+00    7.02578E-02
 8.50000E+00    3.91095E-02
 9.00000E+00    2.19814E-02
 9.50000E+00    1.24873E-02
 1.00000E+01    7.16347E-03
 1.05000E+01    4.13988E-03
 1.10000E+01    2.40533E-03
 1.15000E+01    1.40450E-03
 1.20000E+01    8.24739E-04
 1.25000E+01    4.87146E-04
 1.30000E+01    2.89808E-04
 1.35000E+01    1.73778E-04
 1.40000E+01    1.05013E-04
 1.45000E+01    6.40030E-05
 1.50000E+01    3.93201E-05
 1.60000E+01    1.51649E-05
 1.70000E+01    5.99032E-06
 1.80000E+01    2.41485E-06
 1.90000E+01    9.92490E-07
 2.00000E+01    4.12640E-07
 2.10000E+01    1.75750E-07
 2.20000E+01    7.63210E-08
 2.30000E+01    3.36700E-08
 2.40000E+01    1.50830E-08
 2.50000E+01    6.86300E-09
 2.60000E+01    3.17060E-09
 2.70000E+01    1.48440E-09
 2.80000E+01    7.03670E-10
 2.90000E+01    3.37780E-10
 3.00000E+01    1.64100E-10
