# n + Ti 50 : (n,tot)   
# jendl4.0   K.KOBAYASHI(KUR),HASHIKURA(TOK)   EVAL-SEP88
# uncertainties: n
# # energies =   171
#   E(MeV)       xs(mb) 
 1.00000E-11    1.01181E+04
 1.00000E-07    3.78811E+03
 4.13990E-07    3.76211E+03
 5.31580E-07    3.75678E+03
 6.82560E-07    3.75211E+03
 8.76420E-07    3.74806E+03
 1.12540E-06    3.74502E+03
 1.44500E-06    3.74137E+03
 1.85540E-06    3.73949E+03
 2.37240E-06    3.73840E+03
 3.05900E-06    3.73698E+03
 3.92790E-06    3.73517E+03
 5.04350E-06    3.73285E+03
 6.47600E-06    3.72987E+03
 8.31530E-06    3.72703E+03
 1.06770E-05    3.72648E+03
 1.37100E-05    3.72599E+03
 1.76030E-05    3.72535E+03
 2.26030E-05    3.72451E+03
 2.92030E-05    3.72345E+03
 3.72670E-05    3.72211E+03
 4.78510E-05    3.72037E+03
 6.14420E-05    3.71814E+03
 7.88930E-05    3.71527E+03
 1.01300E-04    3.71159E+03
 1.30070E-04    3.70686E+03
 1.67020E-04    3.70194E+03
 2.14450E-04    3.69706E+03
 2.75360E-04    3.69080E+03
 3.53580E-04    3.68276E+03
 4.54000E-04    3.67243E+03
 5.82950E-04    3.65917E+03
 7.48520E-04    3.64215E+03
 9.61120E-04    3.62029E+03
 1.23410E-03    3.59223E+03
 1.58460E-03    3.55671E+03
 2.03470E-03    3.52976E+03
 2.24870E-03    3.51271E+03
 2.48520E-03    3.49882E+03
 2.61260E-03    3.48893E+03
 2.74650E-03    3.47305E+03
 3.03540E-03    3.45004E+03
 3.35460E-03    3.42461E+03
 3.70740E-03    3.39056E+03
 4.30740E-03    3.33354E+03
 5.53080E-03    3.24776E+03
 7.10170E-03    3.15143E+03
 9.11880E-03    3.04223E+03
 1.17090E-02    2.92057E+03
 1.50340E-02    2.79839E+03
 1.93050E-02    2.67822E+03
 2.18750E-02    2.61379E+03
 2.35790E-02    2.58105E+03
 2.41760E-02    2.56416E+03
 2.47880E-02    2.53799E+03
 2.60580E-02    2.50703E+03
 2.70000E-02    2.47304E+03
 2.85000E-02    2.40628E+03
 3.18280E-02    2.32395E+03
 3.43070E-02    2.17817E+03
 4.08680E-02    1.90604E+03
 4.63090E-02    1.34443E+03
 5.24750E-02    4.69010E+03
 5.65620E-02    7.83970E+03
 6.73790E-02    3.12857E+03
 7.20000E-02    6.50712E+03
 7.95000E-02    2.93516E+03
 8.25000E-02    3.96307E+03
 8.65170E-02    3.56348E+03
 9.80370E-02    2.38629E+03
 1.11090E-01    2.27510E+03
 1.16790E-01    3.03759E+03
 1.22770E-01    2.18647E+03
 1.29070E-01    2.60152E+03
 1.35690E-01    2.13767E+03
 1.42640E-01    1.99645E+03
 1.49960E-01    1.90833E+03
 1.57640E-01    1.78928E+03
 1.65730E-01    1.58639E+03
 1.74220E-01    9.74723E+02
 1.83160E-01    4.84221E+03
 1.92550E-01    3.13234E+03
 2.02420E-01    2.10505E+03
 2.12800E-01    1.87491E+03
 2.23710E-01    2.83598E+03
 2.35180E-01    1.81759E+03
 2.47240E-01    1.59272E+03
 2.73240E-01    4.08303E+02
 2.87250E-01    2.67991E+02
 2.94520E-01    4.04534E+02
 2.97200E-01    8.10141E+02
 2.98500E-01    1.74444E+03
 3.01970E-01    7.09692E+03
 3.33730E-01    4.74943E+03
 3.68830E-01    3.60770E+03
 3.87740E-01    3.32103E+03
 4.07620E-01    3.04810E+03
 4.50490E-01    2.99175E+03
 4.97870E-01    3.67781E+03
 5.23400E-01    2.74523E+03
 5.50230E-01    2.63200E+03
 5.78440E-01    3.11796E+03
 6.08100E-01    3.09683E+03
 6.39280E-01    3.07948E+03
 6.72060E-01    3.06159E+03
 7.06510E-01    3.05653E+03
 7.42740E-01    3.05832E+03
 7.80820E-01    3.06130E+03
 8.20850E-01    3.07617E+03
 8.62940E-01    3.09499E+03
 9.07180E-01    3.12174E+03
 9.61640E-01    3.15415E+03
 1.00260E+00    3.20973E+03
 1.10800E+00    3.27790E+03
 1.16480E+00    3.32658E+03
 1.22460E+00    3.37452E+03
 1.28730E+00    3.42159E+03
 1.35340E+00    3.47107E+03
 1.42270E+00    3.52280E+03
 1.49570E+00    3.57064E+03
 1.57240E+00    3.61812E+03
 1.65300E+00    3.66802E+03
 1.73770E+00    3.72038E+03
 1.82680E+00    3.77180E+03
 1.92050E+00    3.82329E+03
 2.01900E+00    3.85110E+03
 2.12250E+00    3.86685E+03
 2.23130E+00    3.88057E+03
 2.30690E+00    3.88909E+03
 2.34570E+00    3.89343E+03
 2.36530E+00    3.89636E+03
 2.38520E+00    3.90380E+03
 2.46600E+00    3.91609E+03
 2.59240E+00    3.91874E+03
 2.72530E+00    3.91563E+03
 2.86500E+00    3.90750E+03
 3.01190E+00    3.89459E+03
 3.16640E+00    3.87185E+03
 3.32870E+00    3.83497E+03
 3.67880E+00    3.78145E+03
 4.06570E+00    3.71728E+03
 4.49330E+00    3.66230E+03
 4.72370E+00    3.62313E+03
 4.96590E+00    3.58196E+03
 5.22050E+00    3.54090E+03
 5.48810E+00    3.50033E+03
 5.76950E+00    3.45767E+03
 6.06530E+00    3.41283E+03
 6.37630E+00    3.37377E+03
 6.59240E+00    3.34954E+03
 6.70320E+00    3.31613E+03
 7.04690E+00    3.26403E+03
 7.40820E+00    3.20937E+03
 7.78800E+00    3.15572E+03
 8.18730E+00    3.10125E+03
 8.60710E+00    3.04397E+03
 9.04840E+00    2.98478E+03
 9.51230E+00    2.92766E+03
 1.00000E+01    2.86894E+03
 1.05130E+01    2.81065E+03
 1.10520E+01    2.73578E+03
 1.16180E+01    2.69059E+03
 1.22140E+01    2.63556E+03
 1.28400E+01    2.57819E+03
 1.34990E+01    2.53587E+03
 1.38400E+01    2.50775E+03
 1.41910E+01    2.47933E+03
 1.45500E+01    2.45344E+03
 1.49180E+01    2.41697E+03
 1.56830E+01    2.37180E+03
 1.64870E+01    2.33230E+03
