# n + Ti 50 : (n,n'09)  
# jendl4.0   K.KOBAYASHI(KUR),HASHIKURA(TOK)   EVAL-SEP88
# uncertainties: n
# # energies =   112
#   E(MeV)       xs(mb) 
 4.25656E+00    0.00000E+00
 4.25660E+00    2.03929E-02
 4.25769E+00    5.85393E-01
 4.25985E+00    1.70656E+00
 4.26410E+00    3.91385E+00
 4.26822E+00    6.05216E+00
 4.27222E+00    8.12365E+00
 4.27998E+00    1.21372E+01
 4.28727E+00    1.58998E+01
 4.29411E+00    1.94273E+01
 4.30053E+00    2.27344E+01
 4.31260E+00    2.89350E+01
 4.32319E+00    3.43606E+01
 4.33248E+00    3.91080E+01
 4.34878E+00    4.74159E+01
 4.36105E+00    5.36469E+01
 4.37952E+00    6.29933E+01
 4.39806E+00    7.23397E+01
 4.44853E+00    7.43171E+01
 4.49957E+00    7.62944E+01
 4.50008E+00    7.60158E+01
 4.62017E+00    7.73844E+01
 4.71233E+00    7.84109E+01
 4.85403E+00    7.99506E+01
 5.00000E+00    8.14903E+01
 5.11526E+00    7.87781E+01
 5.21829E+00    7.64049E+01
 5.31014E+00    7.43283E+01
 5.39184E+00    7.25113E+01
 5.46435E+00    7.09214E+01
 5.52860E+00    6.95303E+01
 5.64286E+00    6.70958E+01
 5.73010E+00    6.52700E+01
 5.79641E+00    6.39006E+01
 5.89733E+00    6.18465E+01
 6.00000E+00    5.97924E+01
 6.05809E+00    5.82139E+01
 6.11305E+00    5.67340E+01
 6.16504E+00    5.53467E+01
 6.26370E+00    5.27454E+01
 6.35132E+00    5.04692E+01
 6.42900E+00    4.84776E+01
 6.49775E+00    4.67350E+01
 6.55850E+00    4.52101E+01
 6.61213E+00    4.38759E+01
 6.70703E+00    4.15410E+01
 6.77911E+00    3.97898E+01
 6.83367E+00    3.84764E+01
 6.91633E+00    3.65064E+01
 7.00000E+00    3.45363E+01
 7.11782E+00    3.30186E+01
 7.22254E+00    3.16905E+01
 7.31543E+00    3.05285E+01
 7.39769E+00    2.95118E+01
 7.47043E+00    2.86221E+01
 7.53466E+00    2.78436E+01
 7.64839E+00    2.64813E+01
 7.73482E+00    2.54596E+01
 7.80028E+00    2.46933E+01
 7.89951E+00    2.35438E+01
 8.00000E+00    2.23944E+01
 8.11865E+00    2.16689E+01
 8.22392E+00    2.10341E+01
 8.31715E+00    2.04786E+01
 8.39958E+00    1.99926E+01
 8.54583E+00    1.91420E+01
 8.65717E+00    1.85041E+01
 8.74164E+00    1.80257E+01
 8.86988E+00    1.73081E+01
 9.00000E+00    1.65904E+01
 9.11932E+00    1.62394E+01
 9.22501E+00    1.59324E+01
 9.41294E+00    1.53950E+01
 9.55639E+00    1.49919E+01
 9.66541E+00    1.46896E+01
 9.83128E+00    1.42362E+01
 1.00000E+01    1.37828E+01
 1.02411E+01    1.34134E+01
 1.04258E+01    1.31363E+01
 1.05665E+01    1.29284E+01
 1.07811E+01    1.26167E+01
 1.10000E+01    1.23050E+01
 1.12419E+01    1.20657E+01
 1.14268E+01    1.18863E+01
 1.17099E+01    1.16172E+01
 1.20000E+01    1.13480E+01
 1.22425E+01    1.11149E+01
 1.24277E+01    1.09401E+01
 1.27106E+01    1.06778E+01
 1.30000E+01    1.04156E+01
 1.32431E+01    1.02219E+01
 1.34284E+01    1.00767E+01
 1.37112E+01    9.85886E+00
 1.40000E+01    9.64100E+00
 1.42436E+01    9.48900E+00
 1.46169E+01    9.26100E+00
 1.50000E+01    9.03300E+00
 1.52440E+01    8.88544E+00
 1.56174E+01    8.66411E+00
 1.60000E+01    8.44278E+00
 1.62443E+01    8.32897E+00
 1.66179E+01    8.15827E+00
 1.70000E+01    7.98756E+00
 1.72447E+01    7.87429E+00
 1.76183E+01    7.70438E+00
 1.80000E+01    7.53447E+00
 1.82450E+01    7.42143E+00
 1.86187E+01    7.25186E+00
 1.90000E+01    7.08230E+00
 1.92452E+01    6.96936E+00
 1.96190E+01    6.79994E+00
 2.00000E+01    6.63053E+00
