# n + Ti 50 : (n,n'07)  
# jendl4.0   K.KOBAYASHI(KUR),HASHIKURA(TOK)   EVAL-SEP88
# uncertainties: n
# # energies =   110
#   E(MeV)       xs(mb) 
 4.23106E+00    0.00000E+00
 4.23110E+00    1.99451E-02
 4.23266E+00    7.98947E-01
 4.23557E+00    2.25957E+00
 4.23813E+00    3.53762E+00
 4.24260E+00    5.77419E+00
 4.24932E+00    9.12905E+00
 4.25605E+00    1.24839E+01
 4.25656E+00    1.24592E+01
 4.27400E+00    1.38893E+01
 4.28931E+00    1.51405E+01
 4.30276E+00    1.62354E+01
 4.32639E+00    1.81515E+01
 4.34419E+00    1.95885E+01
 4.37104E+00    2.17441E+01
 4.39806E+00    2.38996E+01
 4.42322E+00    2.54061E+01
 4.46123E+00    2.76659E+01
 4.49957E+00    2.99256E+01
 4.50008E+00    2.95197E+01
 4.55973E+00    3.11451E+01
 4.61257E+00    3.25673E+01
 4.65931E+00    3.38118E+01
 4.70059E+00    3.49007E+01
 4.73701E+00    3.58535E+01
 4.80143E+00    3.75209E+01
 4.85032E+00    3.87714E+01
 4.92459E+00    4.06472E+01
 5.00000E+00    4.25230E+01
 5.11526E+00    4.21122E+01
 5.32339E+00    4.13933E+01
 5.48503E+00    4.08541E+01
 5.60948E+00    4.04497E+01
 5.80145E+00    3.98432E+01
 6.00000E+00    3.92366E+01
 6.05809E+00    3.82559E+01
 6.11305E+00    3.73366E+01
 6.16504E+00    3.64746E+01
 6.26370E+00    3.48585E+01
 6.35132E+00    3.34445E+01
 6.42900E+00    3.22071E+01
 6.49775E+00    3.11245E+01
 6.55850E+00    3.01772E+01
 6.61213E+00    2.93483E+01
 6.70703E+00    2.78977E+01
 6.77911E+00    2.68097E+01
 6.83367E+00    2.59938E+01
 6.91633E+00    2.47698E+01
 7.00000E+00    2.35459E+01
 7.11782E+00    2.24582E+01
 7.22254E+00    2.15065E+01
 7.31543E+00    2.06738E+01
 7.39769E+00    1.99451E+01
 7.47043E+00    1.93075E+01
 7.53466E+00    1.87496E+01
 7.59131E+00    1.82615E+01
 7.69148E+00    1.74073E+01
 7.76748E+00    1.67666E+01
 7.82497E+00    1.62860E+01
 7.91200E+00    1.55653E+01
 8.00000E+00    1.48445E+01
 8.11865E+00    1.42910E+01
 8.22392E+00    1.38067E+01
 8.31715E+00    1.33830E+01
 8.39958E+00    1.30122E+01
 8.47239E+00    1.26878E+01
 8.60132E+00    1.21200E+01
 8.69930E+00    1.16942E+01
 8.77352E+00    1.13748E+01
 8.88604E+00    1.08958E+01
 9.00000E+00    1.04167E+01
 9.11932E+00    1.01487E+01
 9.22501E+00    9.91415E+00
 9.31850E+00    9.70894E+00
 9.48439E+00    9.34982E+00
 9.61075E+00    9.08048E+00
 9.70662E+00    8.87848E+00
 9.85222E+00    8.57547E+00
 1.00000E+01    8.27247E+00
 1.01199E+01    8.13246E+00
 1.03331E+01    7.88745E+00
 1.04959E+01    7.70369E+00
 1.06197E+01    7.56588E+00
 1.08082E+01    7.35915E+00
 1.10000E+01    7.15242E+00
 1.12419E+01    6.99022E+00
 1.14268E+01    6.86857E+00
 1.17099E+01    6.68610E+00
 1.20000E+01    6.50362E+00
 1.22425E+01    6.36183E+00
 1.24277E+01    6.25549E+00
 1.27106E+01    6.09598E+00
 1.30000E+01    5.93647E+00
 1.32431E+01    5.83789E+00
 1.36163E+01    5.69001E+00
 1.40000E+01    5.54214E+00
 1.42436E+01    5.46710E+00
 1.46169E+01    5.35455E+00
 1.50000E+01    5.24199E+00
 1.52440E+01    5.17218E+00
 1.56174E+01    5.06746E+00
 1.60000E+01    4.96275E+00
 1.64924E+01    4.84768E+00
 1.70000E+01    4.73261E+00
 1.74929E+01    4.61884E+00
 1.80000E+01    4.50508E+00
 1.84932E+01    4.39190E+00
 1.90000E+01    4.27871E+00
 1.94936E+01    4.16578E+00
 2.00000E+01    4.05284E+00
