# n + Ti 50 : (n,xd)    
# jendl4.0   K.KOBAYASHI(KUR),HASHIKURA(TOK)   EVAL-SEP88
# 
# # energies =   143
#   E(MeV)        xs(mb) 
 1.58518E+00    0.00000E+00
 1.58520E+00    0.00000E+00
 1.58581E+00    0.00000E+00
 1.58703E+00    0.00000E+00
 1.58825E+00    0.00000E+00
 1.58945E+00    0.00000E+00
 1.59184E+00    0.00000E+00
 1.59420E+00    0.00000E+00
 1.59652E+00    0.00000E+00
 1.59881E+00    0.00000E+00
 1.60334E+00    0.00000E+00
 1.60773E+00    0.00000E+00
 1.61199E+00    0.00000E+00
 1.61614E+00    0.00000E+00
 1.62016E+00    0.00000E+00
 1.62407E+00    0.00000E+00
 1.62786E+00    0.00000E+00
 1.63524E+00    0.00000E+00
 1.64219E+00    0.00000E+00
 1.64873E+00    0.00000E+00
 1.65488E+00    0.00000E+00
 1.66067E+00    0.00000E+00
 1.66612E+00    0.00000E+00
 1.67638E+00    0.00000E+00
 1.68541E+00    0.00000E+00
 1.69335E+00    0.00000E+00
 1.70033E+00    0.00000E+00
 1.71261E+00    0.00000E+00
 1.72189E+00    0.00000E+00
 1.73589E+00    0.00000E+00
 1.75000E+00    0.00000E+00
 1.77946E+00    0.00000E+00
 1.80563E+00    0.00000E+00
 1.82886E+00    0.00000E+00
 1.87022E+00    0.00000E+00
 1.90185E+00    0.00000E+00
 1.95031E+00    0.00000E+00
 2.00000E+00    0.00000E+00
 2.02966E+00    0.00000E+00
 2.08264E+00    0.00000E+00
 2.12327E+00    0.00000E+00
 2.15427E+00    0.00000E+00
 2.20161E+00    0.00000E+00
 2.25000E+00    0.00000E+00
 2.31005E+00    0.00000E+00
 2.35614E+00    0.00000E+00
 2.42701E+00    0.00000E+00
 2.50000E+00    0.00000E+00
 2.55536E+00    0.00000E+00
 2.64070E+00    0.00000E+00
 2.72890E+00    0.00000E+00
 2.72892E+00    0.00000E+00
 2.79430E+00    0.00000E+00
 2.84437E+00    0.00000E+00
 2.92115E+00    0.00000E+00
 3.00000E+00    0.00000E+00
 3.12888E+00    0.00000E+00
 3.26330E+00    0.00000E+00
 3.37958E+00    0.00000E+00
 3.50000E+00    0.00000E+00
 3.66948E+00    0.00000E+00
 3.84716E+00    0.00000E+00
 3.89638E+00    0.00000E+00
 3.94622E+00    0.00000E+00
 4.00000E+00    0.00000E+00
 4.05507E+00    0.00000E+00
 4.14213E+00    0.00000E+00
 4.23106E+00    0.00000E+00
 4.23110E+00    0.00000E+00
 4.25605E+00    0.00000E+00
 4.25656E+00    0.00000E+00
 4.25660E+00    0.00000E+00
 4.32675E+00    0.00000E+00
 4.39806E+00    0.00000E+00
 4.39810E+00    0.00000E+00
 4.49957E+00    0.00000E+00
 4.49960E+00    0.00000E+00
 4.50008E+00    0.00000E+00
 4.59856E+00    0.00000E+00
 4.67382E+00    0.00000E+00
 4.78904E+00    0.00000E+00
 4.90710E+00    0.00000E+00
 5.00000E+00    0.00000E+00
 5.11526E+00    0.00000E+00
 5.21829E+00    0.00000E+00
 5.40361E+00    0.00000E+00
 5.54691E+00    0.00000E+00
 5.76901E+00    0.00000E+00
 6.00000E+00    0.00000E+00
 6.23574E+00    0.00000E+00
 6.41860E+00    0.00000E+00
 6.70300E+00    0.00000E+00
 7.00000E+00    0.00000E+00
 7.48331E+00    0.00000E+00
 8.00000E+00    0.00000E+00
 9.00000E+00    0.00000E+00
 1.00000E+01    0.00000E+00
 1.10000E+01    8.20640E-08
 1.12419E+01    4.90636E-05
 1.14268E+01    8.65052E-05
 1.15675E+01    1.14990E-04
 1.17818E+01    1.58376E-04
 1.20000E+01    2.02566E-04
 1.21207E+01    4.24948E-04
 1.22272E+01    6.21366E-04
 1.23213E+01    7.94649E-04
 1.24876E+01    1.10110E-03
 1.26137E+01    1.33366E-03
 1.27092E+01    1.50961E-03
 1.28538E+01    1.77604E-03
 1.30000E+01    2.04551E-03
 1.31210E+01    2.24836E-03
 1.32278E+01    2.42740E-03
 1.34167E+01    2.74424E-03
 1.35602E+01    2.98484E-03
 1.36689E+01    3.16697E-03
 1.38334E+01    3.44291E-03
 1.40000E+01    3.72217E-03
 1.41213E+01    7.84521E-02
 1.43360E+01    2.10790E-01
 1.44992E+01    3.11363E-01
 1.46228E+01    3.87543E-01
 1.48102E+01    5.03033E-01
 1.50000E+01    6.20002E-01
 1.52440E+01    7.54305E-01
 1.54296E+01    8.56462E-01
 1.55702E+01    9.33896E-01
 1.57837E+01    1.05137E+00
 1.60000E+01    1.17046E+00
 1.62443E+01    1.33076E+00
 1.64300E+01    1.45258E+00
 1.67126E+01    1.63794E+00
 1.70000E+01    1.82648E+00
 1.72447E+01    2.00295E+00
 1.74305E+01    2.13697E+00
 1.77129E+01    2.34072E+00
 1.80000E+01    2.54776E+00
 1.82450E+01    2.68927E+00
 1.86187E+01    2.90517E+00
 1.90000E+01    3.12548E+00
 1.92452E+01    3.34544E+00
 1.96190E+01    3.68072E+00
 2.00000E+01    4.02251E+00
