# n + Ti 50 : (n,el)    
# jendl4.0   K.KOBAYASHI(KUR),HASHIKURA(TOK)   EVAL-SEP88
# uncertainties: n
# # energies =    69
#   E(MeV)       xs(mb) 
 1.00000E-10    5.66655E+03
 5.00000E-09    3.85527E+03
 1.00000E-08    3.79641E+03
 1.50000E-08    3.77340E+03
 2.00000E-08    3.76090E+03
 2.50000E-08    3.75312E+03
 3.00000E-08    3.74770E+03
 3.50000E-08    3.74317E+03
 4.20000E-08    3.73921E+03
 5.00000E-08    3.73600E+03
 5.80000E-08    3.73373E+03
 6.70000E-08    3.73133E+03
 8.00000E-08    3.72908E+03
 1.00000E-07    3.72651E+03
 1.40000E-07    3.72431E+03
 1.80000E-07    3.72329E+03
 2.20000E-07    3.72250E+03
 2.50000E-07    3.72184E+03
 2.80000E-07    3.72152E+03
 3.00000E-07    3.72141E+03
 3.20000E-07    3.72126E+03
 3.50000E-07    3.72103E+03
 4.00000E-07    3.72061E+03
 5.00000E-07    3.71997E+03
 6.25000E-07    3.71962E+03
 7.80000E-07    3.71954E+03
 8.50000E-07    3.71949E+03
 9.10000E-07    3.71946E+03
 9.50000E-07    3.71943E+03
 9.72000E-07    3.71942E+03
 9.96000E-07    3.71940E+03
 1.02000E-06    3.71938E+03
 1.04500E-06    3.71937E+03
 1.07100E-06    3.71935E+03
 1.09700E-06    3.71933E+03
 1.12300E-06    3.71931E+03
 1.15000E-06    3.71925E+03
 1.30000E-06    3.71912E+03
 1.50000E-06    3.71885E+03
 2.10000E-06    3.71846E+03
 2.60000E-06    3.71827E+03
 3.30000E-06    3.71821E+03
 4.00000E-06    3.71795E+03
 9.87700E-06    3.71738E+03
 1.59680E-05    3.71660E+03
 2.77000E-05    3.71518E+03
 4.80520E-05    3.71302E+03
 7.55014E-05    3.70873E+03
 1.48728E-04    3.69658E+03
 3.67262E-04    3.66432E+03
 9.06898E-04    3.61441E+03
 1.42510E-03    3.55662E+03
 2.23945E-03    3.47698E+03
 3.51910E-03    3.36198E+03
 5.53000E-03    3.19945E+03
 9.11800E-03    2.98142E+03
 1.50300E-02    2.71416E+03
 2.47800E-02    2.34231E+03
 4.08500E-02    4.25563E+03
 6.73400E-02    3.78304E+03
 1.11000E-01    2.05248E+03
 1.83000E-01    2.08398E+03
 3.02000E-01    4.25760E+03
 5.00000E-01    3.06081E+03
 8.21000E-01    3.22556E+03
 1.35300E+00    3.36871E+03
 2.23100E+00    3.12823E+03
 3.67900E+00    2.55576E+03
 6.06500E+00    1.83959E+03
