# n + Ti 50 : (n,n'03)  
# jendl4.0   K.KOBAYASHI(KUR),HASHIKURA(TOK)   EVAL-SEP88
# uncertainties: n
# # energies =   122
#   E(MeV)       xs(mb) 
 3.26330E+00    0.00000E+00
 3.26419E+00    1.35715E-02
 3.26597E+00    4.06084E-02
 3.26774E+00    6.74340E-02
 3.27125E+00    1.20666E-01
 3.27470E+00    1.73066E-01
 3.27811E+00    2.24648E-01
 3.28483E+00    3.26198E-01
 3.29134E+00    4.24576E-01
 3.29767E+00    5.19879E-01
 3.30382E+00    6.12204E-01
 3.30978E+00    7.01644E-01
 3.32136E+00    8.74933E-01
 3.33225E+00    1.03739E+00
 3.34249E+00    1.18970E+00
 3.35213E+00    1.33248E+00
 3.36118E+00    1.46634E+00
 3.37823E+00    1.71733E+00
 3.39322E+00    1.93695E+00
 3.40638E+00    2.12912E+00
 3.41795E+00    2.29726E+00
 3.43828E+00    2.59151E+00
 3.45361E+00    2.81220E+00
 3.47673E+00    3.14324E+00
 3.50000E+00    3.47427E+00
 3.52075E+00    3.77220E+00
 3.54031E+00    4.05151E+00
 3.55875E+00    4.31336E+00
 3.57613E+00    4.55885E+00
 3.59249E+00    4.78899E+00
 3.62338E+00    5.22051E+00
 3.65063E+00    5.59809E+00
 3.67463E+00    5.92847E+00
 3.69577E+00    6.21756E+00
 3.73305E+00    6.72346E+00
 3.76125E+00    7.10288E+00
 3.78255E+00    7.38745E+00
 3.81472E+00    7.81430E+00
 3.84716E+00    8.24115E+00
 3.87169E+00    8.87489E+00
 3.89019E+00    9.35019E+00
 3.91810E+00    1.00631E+01
 3.94622E+00    1.07761E+01
 3.97302E+00    1.15069E+01
 4.00000E+00    1.22378E+01
 4.02744E+00    1.29908E+01
 4.05507E+00    1.37437E+01
 4.09837E+00    1.42865E+01
 4.13115E+00    1.46936E+01
 4.18080E+00    1.53042E+01
 4.23106E+00    1.59148E+01
 4.25605E+00    1.51137E+01
 4.25656E+00    1.50400E+01
 4.29150E+00    1.55350E+01
 4.34445E+00    1.62775E+01
 4.39806E+00    1.70200E+01
 4.44853E+00    1.79050E+01
 4.49957E+00    1.87899E+01
 4.50008E+00    1.87476E+01
 4.74346E+00    1.88191E+01
 5.00000E+00    1.88907E+01
 5.05730E+00    1.85474E+01
 5.16652E+00    1.79036E+01
 5.26401E+00    1.73403E+01
 5.35083E+00    1.68474E+01
 5.42797E+00    1.64162E+01
 5.49638E+00    1.60388E+01
 5.55694E+00    1.57086E+01
 5.66454E+00    1.51308E+01
 5.74661E+00    1.46974E+01
 5.80893E+00    1.43724E+01
 5.90369E+00    1.38848E+01
 6.00000E+00    1.33973E+01
 6.11673E+00    1.29741E+01
 6.22074E+00    1.26037E+01
 6.31319E+00    1.22797E+01
 6.39521E+00    1.19962E+01
 6.46786E+00    1.17481E+01
 6.59697E+00    1.13139E+01
 6.69550E+00    1.09883E+01
 6.77036E+00    1.07441E+01
 6.88422E+00    1.03777E+01
 7.00000E+00    1.00114E+01
 7.11782E+00    9.81206E+00
 7.22254E+00    9.63764E+00
 7.31543E+00    9.48502E+00
 7.48088E+00    9.21793E+00
 7.60741E+00    9.01762E+00
 7.70371E+00    8.86738E+00
 7.85046E+00    8.64203E+00
 8.00000E+00    8.41668E+00
 8.23907E+00    8.20444E+00
 8.42305E+00    8.04527E+00
 8.56372E+00    7.92589E+00
 8.77915E+00    7.74681E+00
 9.00000E+00    7.56774E+00
 9.48683E+00    7.47035E+00
 1.00000E+01    7.37296E+00
 1.02411E+01    7.25509E+00
 1.04258E+01    7.16668E+00
 1.07091E+01    7.03408E+00
 1.10000E+01    6.90147E+00
 1.12419E+01    6.83823E+00
 1.16148E+01    6.74338E+00
 1.20000E+01    6.64853E+00
 1.22425E+01    6.57189E+00
 1.26156E+01    6.45694E+00
 1.30000E+01    6.34198E+00
 1.34907E+01    6.24771E+00
 1.40000E+01    6.15344E+00
 1.44914E+01    6.06109E+00
 1.50000E+01    5.96874E+00
 1.54919E+01    5.88432E+00
 1.60000E+01    5.79990E+00
 1.64924E+01    5.69623E+00
 1.70000E+01    5.59255E+00
 1.74929E+01    5.48994E+00
 1.80000E+01    5.38732E+00
 1.84932E+01    5.28518E+00
 1.90000E+01    5.18305E+00
 1.94936E+01    5.08113E+00
 2.00000E+01    4.97920E+00
