# n + Ti 50 : (n,n'10)  
# jendl4.0   K.KOBAYASHI(KUR),HASHIKURA(TOK)   EVAL-SEP88
# uncertainties: n
# # energies =   108
#   E(MeV)       xs(mb) 
 4.39806E+00    0.00000E+00
 4.39810E+00    2.20672E-02
 4.39967E+00    9.03234E-01
 4.40276E+00    2.63803E+00
 4.40575E+00    4.31861E+00
 4.41156E+00    7.57472E+00
 4.41701E+00    1.06273E+01
 4.42212E+00    1.34892E+01
 4.43173E+00    1.88551E+01
 4.44015E+00    2.35502E+01
 4.44754E+00    2.76585E+01
 4.46049E+00    3.48480E+01
 4.47023E+00    4.02401E+01
 4.48487E+00    4.83283E+01
 4.49957E+00    5.64164E+01
 4.50008E+00    5.63724E+01
 4.55973E+00    5.80268E+01
 4.61257E+00    5.94745E+01
 4.65931E+00    6.07411E+01
 4.74224E+00    6.29578E+01
 4.80541E+00    6.46204E+01
 4.90174E+00    6.71141E+01
 5.00000E+00    6.96079E+01
 5.11526E+00    6.79171E+01
 5.21829E+00    6.64376E+01
 5.31014E+00    6.51431E+01
 5.39184E+00    6.40104E+01
 5.46435E+00    6.30193E+01
 5.59360E+00    6.12849E+01
 5.69255E+00    5.99840E+01
 5.76790E+00    5.90084E+01
 5.88281E+00    5.75449E+01
 6.00000E+00    5.60815E+01
 6.05809E+00    5.46734E+01
 6.11305E+00    5.33533E+01
 6.16504E+00    5.21157E+01
 6.26370E+00    4.97952E+01
 6.35132E+00    4.77648E+01
 6.42900E+00    4.59882E+01
 6.49775E+00    4.44336E+01
 6.55850E+00    4.30734E+01
 6.61213E+00    4.18832E+01
 6.70703E+00    3.98003E+01
 6.77911E+00    3.82382E+01
 6.83367E+00    3.70666E+01
 6.91633E+00    3.53092E+01
 7.00000E+00    3.35518E+01
 7.11782E+00    3.21151E+01
 7.22254E+00    3.08579E+01
 7.31543E+00    2.97579E+01
 7.39769E+00    2.87954E+01
 7.47043E+00    2.79532E+01
 7.53466E+00    2.72163E+01
 7.64839E+00    2.59266E+01
 7.73482E+00    2.49594E+01
 7.80028E+00    2.42340E+01
 7.89951E+00    2.31459E+01
 8.00000E+00    2.20578E+01
 8.11865E+00    2.13375E+01
 8.22392E+00    2.07073E+01
 8.31715E+00    2.01558E+01
 8.39958E+00    1.96733E+01
 8.54583E+00    1.88289E+01
 8.65717E+00    1.81956E+01
 8.74164E+00    1.77206E+01
 8.86988E+00    1.70081E+01
 9.00000E+00    1.62956E+01
 9.11932E+00    1.59454E+01
 9.22501E+00    1.56390E+01
 9.41294E+00    1.51027E+01
 9.55639E+00    1.47005E+01
 9.66541E+00    1.43988E+01
 9.83128E+00    1.39464E+01
 1.00000E+01    1.34939E+01
 1.02411E+01    1.31432E+01
 1.04258E+01    1.28801E+01
 1.05665E+01    1.26828E+01
 1.07811E+01    1.23869E+01
 1.10000E+01    1.20910E+01
 1.12419E+01    1.18693E+01
 1.14268E+01    1.17029E+01
 1.17099E+01    1.14535E+01
 1.20000E+01    1.12040E+01
 1.22425E+01    1.09791E+01
 1.24277E+01    1.08104E+01
 1.27106E+01    1.05573E+01
 1.30000E+01    1.03043E+01
 1.32431E+01    1.01182E+01
 1.36163E+01    9.83896E+00
 1.40000E+01    9.55976E+00
 1.42436E+01    9.41072E+00
 1.46169E+01    9.18716E+00
 1.50000E+01    8.96360E+00
 1.52440E+01    8.81896E+00
 1.56174E+01    8.60199E+00
 1.60000E+01    8.38502E+00
 1.62443E+01    8.27320E+00
 1.66179E+01    8.10548E+00
 1.70000E+01    7.93776E+00
 1.72447E+01    7.82647E+00
 1.76183E+01    7.65954E+00
 1.80000E+01    7.49261E+00
 1.82450E+01    7.38155E+00
 1.86187E+01    7.21496E+00
 1.90000E+01    7.04837E+00
 1.92452E+01    6.93741E+00
 1.96190E+01    6.77097E+00
 2.00000E+01    6.60453E+00
