# n + La139 : (n,tot)   
# jeff3.3    J.W.Zhao+, Mughabghab             EVAL-JAN05
# uncertainties: n
# # energies =   171
#   E(MeV)       xs(mb) 
 1.00000E-11    1.14138E+05
 1.00000E-07    1.33652E+04
 4.13990E-07    1.21525E+04
 5.31580E-07    1.19823E+04
 6.82560E-07    1.24917E+04
 8.76420E-07    1.13751E+04
 1.12540E-06    1.11144E+04
 1.44500E-06    1.08781E+04
 1.85540E-06    1.06419E+04
 2.37240E-06    1.03959E+04
 3.05900E-06    1.01325E+04
 3.92790E-06    9.84566E+03
 5.04350E-06    9.53043E+03
 6.47600E-06    9.18104E+03
 8.31530E-06    8.79231E+03
 1.06770E-05    8.36147E+03
 1.37100E-05    7.89004E+03
 1.76030E-05    7.38297E+03
 2.26030E-05    6.84217E+03
 2.92030E-05    6.29197E+03
 3.72670E-05    5.74091E+03
 4.78510E-05    5.14790E+03
 6.14420E-05    5.26623E+04
 7.88930E-05    4.85622E+03
 1.01300E-04    4.22889E+03
 1.30070E-04    3.85705E+03
 1.67020E-04    3.56489E+03
 2.14450E-04    3.35215E+03
 2.75360E-04    3.14511E+03
 3.53580E-04    2.96166E+03
 4.54000E-04    2.80121E+03
 5.82950E-04    3.46638E+03
 7.48520E-04    2.79511E+03
 9.61120E-04    1.34713E+04
 1.23410E-03    3.03071E+03
 1.58460E-03    2.32037E+03
 2.03470E-03    2.26740E+04
 2.24870E-03    6.29307E+03
 2.48520E-03    2.78750E+03
 2.61260E-03    2.46440E+03
 2.74650E-03    2.77515E+04
 3.03540E-03    9.31842E+03
 3.35460E-03    5.77621E+03
 3.70740E-03    8.58268E+03
 4.30740E-03    7.44720E+03
 5.53080E-03    5.36506E+03
 7.10170E-03    5.75420E+03
 9.11880E-03    4.50457E+03
 1.17090E-02    4.54576E+03
 1.50340E-02    4.81310E+03
 1.93050E-02    5.32247E+03
 2.18750E-02    5.88952E+03
 2.35790E-02    5.83455E+03
 2.41760E-02    5.80791E+03
 2.47880E-02    5.76822E+03
 2.60580E-02    5.72403E+03
 2.70000E-02    5.67871E+03
 2.85000E-02    5.59783E+03
 3.18280E-02    5.51017E+03
 3.43070E-02    5.39727E+03
 4.08680E-02    5.26850E+03
 4.63090E-02    5.16692E+03
 5.24750E-02    5.08896E+03
 5.65620E-02    4.99579E+03
 6.73790E-02    4.90843E+03
 7.20000E-02    4.85063E+03
 7.95000E-02    4.80386E+03
 8.25000E-02    4.77533E+03
 8.65170E-02    4.71854E+03
 9.80370E-02    4.67588E+03
 1.11090E-01    4.69649E+03
 1.16790E-01    4.71006E+03
 1.22770E-01    4.72433E+03
 1.29070E-01    4.74153E+03
 1.35690E-01    4.76419E+03
 1.42640E-01    4.78816E+03
 1.49960E-01    4.81336E+03
 1.57640E-01    4.84175E+03
 1.65730E-01    4.87653E+03
 1.74220E-01    4.91334E+03
 1.83160E-01    4.95204E+03
 1.92550E-01    4.99272E+03
 2.02420E-01    5.03548E+03
 2.12800E-01    5.08044E+03
 2.23710E-01    5.12771E+03
 2.35180E-01    5.17740E+03
 2.47240E-01    5.25701E+03
 2.73240E-01    5.33797E+03
 2.87250E-01    5.37859E+03
 2.94520E-01    5.39755E+03
 2.97200E-01    5.40513E+03
 2.98500E-01    5.41418E+03
 3.01970E-01    5.47825E+03
 3.33730E-01    5.59158E+03
 3.68830E-01    5.67887E+03
 3.87740E-01    5.73494E+03
 4.07620E-01    5.82104E+03
 4.50490E-01    5.93024E+03
 4.97870E-01    6.00618E+03
 5.23400E-01    6.05776E+03
 5.50230E-01    6.10741E+03
 5.78440E-01    6.15760E+03
 6.08100E-01    6.21037E+03
 6.39280E-01    6.26454E+03
 6.72060E-01    6.31797E+03
 7.06510E-01    6.37396E+03
 7.42740E-01    6.43282E+03
 7.80820E-01    6.49469E+03
 8.20850E-01    6.55974E+03
 8.62940E-01    6.62812E+03
 9.07180E-01    6.70619E+03
 9.61640E-01    6.78199E+03
 1.00260E+00    6.87827E+03
 1.10800E+00    6.97117E+03
 1.16480E+00    7.03720E+03
 1.22460E+00    7.08633E+03
 1.28730E+00    7.11168E+03
 1.35340E+00    7.12774E+03
 1.42270E+00    7.12966E+03
 1.49570E+00    7.11365E+03
 1.57240E+00    7.08076E+03
 1.65300E+00    7.03207E+03
 1.73770E+00    6.97676E+03
 1.82680E+00    6.89994E+03
 1.92050E+00    6.81691E+03
 2.01900E+00    6.72838E+03
 2.12250E+00    6.62668E+03
 2.23130E+00    6.53674E+03
 2.30690E+00    6.48094E+03
 2.34570E+00    6.45249E+03
 2.36530E+00    6.43328E+03
 2.38520E+00    6.38450E+03
 2.46600E+00    6.28400E+03
 2.59240E+00    6.15789E+03
 2.72530E+00    6.02532E+03
 2.86500E+00    5.89044E+03
 3.01190E+00    5.75689E+03
 3.16640E+00    5.61670E+03
 3.32870E+00    5.40322E+03
 3.67880E+00    5.12043E+03
 4.06570E+00    4.84789E+03
 4.49330E+00    4.65821E+03
 4.72370E+00    4.54459E+03
 4.96590E+00    4.44365E+03
 5.22050E+00    4.35843E+03
 5.48810E+00    4.29165E+03
 5.76950E+00    4.24570E+03
 6.06530E+00    4.22243E+03
 6.37630E+00    4.21834E+03
 6.59240E+00    4.22669E+03
 6.70320E+00    4.24257E+03
 7.04690E+00    4.28277E+03
 7.40820E+00    4.34045E+03
 7.78800E+00    4.40600E+03
 8.18730E+00    4.47683E+03
 8.60710E+00    4.55230E+03
 9.04840E+00    4.63112E+03
 9.51230E+00    4.70469E+03
 1.00000E+01    4.77312E+03
 1.05130E+01    4.83185E+03
 1.10520E+01    4.87992E+03
 1.16180E+01    4.91553E+03
 1.22140E+01    4.93673E+03
 1.28400E+01    4.94202E+03
 1.34990E+01    4.93532E+03
 1.38400E+01    4.92489E+03
 1.41910E+01    4.90993E+03
 1.45500E+01    4.89018E+03
 1.49180E+01    4.85118E+03
 1.56830E+01    4.78327E+03
 1.64870E+01    4.69710E+03
