# n + Se 78 : (n,tot)   
# jendl.ad   S.Kamada, K.Shibata, A.Ichihara+  EVAL-APR13
# uncertainties: n
# # energies =    69
#   E(MeV)       xs(mb) 
 1.00000E-10    3.00331E+03
 5.00000E-09    8.17752E+02
 1.00000E-08    6.19318E+02
 1.50000E-08    5.20347E+02
 2.00000E-08    4.57797E+02
 2.50000E-08    4.13601E+02
 3.00000E-08    3.80171E+02
 3.50000E-08    3.49537E+02
 4.20000E-08    3.19744E+02
 5.00000E-08    2.94934E+02
 5.80000E-08    2.74091E+02
 6.70000E-08    2.52936E+02
 8.00000E-08    2.28925E+02
 1.00000E-07    1.99159E+02
 1.40000E-07    1.71864E+02
 1.80000E-07    1.53478E+02
 2.20000E-07    1.41328E+02
 2.50000E-07    1.33044E+02
 2.80000E-07    1.27102E+02
 3.00000E-07    1.22935E+02
 3.20000E-07    1.18320E+02
 3.50000E-07    1.11915E+02
 4.00000E-07    1.02407E+02
 5.00000E-07    9.16130E+01
 6.25000E-07    8.19893E+01
 7.80000E-07    7.58830E+01
 8.50000E-07    7.30307E+01
 9.10000E-07    7.10113E+01
 9.50000E-07    6.98682E+01
 9.72000E-07    6.90348E+01
 9.96000E-07    6.81985E+01
 1.02000E-06    6.74087E+01
 1.04500E-06    6.65880E+01
 1.07100E-06    6.57609E+01
 1.09700E-06    6.50039E+01
 1.12300E-06    6.42465E+01
 1.15000E-06    6.19535E+01
 1.30000E-06    5.79842E+01
 1.50000E-06    5.14907E+01
 2.10000E-06    4.48508E+01
 2.60000E-06    4.00927E+01
 3.30000E-06    3.59949E+01
 4.00000E-06    2.76415E+01
 9.87700E-06    1.95194E+01
 1.59680E-05    1.51977E+01
 2.77000E-05    1.17104E+01
 4.80520E-05    9.37362E+00
 7.55014E-05    7.75484E+00
 1.48728E-04    2.86848E+01
 3.67262E-04    4.14239E+03
 9.06898E-04    1.19932E+02
 1.42510E-03    2.04327E+02
 2.23945E-03    3.57104E+02
 3.51910E-03    1.50739E+02
 5.53000E-03    1.39488E+02
 9.11800E-03    1.05813E+02
 1.50300E-02    1.18793E+02
 2.47800E-02    8.42294E+01
 4.08500E-02    6.33862E+01
 6.73400E-02    5.12068E+01
 1.11000E-01    4.41031E+01
 1.83000E-01    3.73774E+01
 3.02000E-01    3.48555E+01
 5.00000E-01    2.68071E+01
 8.21000E-01    1.32691E+01
 1.35300E+00    1.08798E+01
 2.23100E+00    6.47073E+00
 3.67900E+00    3.61082E+00
 6.06500E+00    3.26556E+00
