# n + Se 78 : (n,g)     
# jendl.ad   S.Kamada, K.Shibata, A.Ichihara+  EVAL-APR13
# uncertainties: n
# # energies =    69
#   E(MeV)       xs(mb) 
 1.00000E-10    3.00224E+03
 5.00000E-09    8.17466E+02
 1.00000E-08    6.19179E+02
 1.50000E-08    5.20332E+02
 2.00000E-08    4.57800E+02
 2.50000E-08    4.13582E+02
 3.00000E-08    3.80164E+02
 3.50000E-08    3.49539E+02
 4.20000E-08    3.19745E+02
 5.00000E-08    2.94924E+02
 5.80000E-08    2.74091E+02
 6.70000E-08    2.52938E+02
 8.00000E-08    2.28924E+02
 1.00000E-07    1.99152E+02
 1.40000E-07    1.71865E+02
 1.80000E-07    1.53474E+02
 2.20000E-07    1.41324E+02
 2.50000E-07    1.33045E+02
 2.80000E-07    1.27102E+02
 3.00000E-07    1.22935E+02
 3.20000E-07    1.18323E+02
 3.50000E-07    1.11917E+02
 4.00000E-07    1.02393E+02
 5.00000E-07    9.15805E+01
 6.25000E-07    8.19761E+01
 7.80000E-07    7.58730E+01
 8.50000E-07    7.30004E+01
 9.10000E-07    7.09966E+01
 9.50000E-07    6.98343E+01
 9.72000E-07    6.90161E+01
 9.96000E-07    6.81876E+01
 1.02000E-06    6.73738E+01
 1.04500E-06    6.65593E+01
 1.07100E-06    6.57579E+01
 1.09700E-06    6.49824E+01
 1.12300E-06    6.42239E+01
 1.15000E-06    6.19469E+01
 1.30000E-06    5.79839E+01
 1.50000E-06    5.14982E+01
 2.10000E-06    4.48623E+01
 2.60000E-06    4.00993E+01
 3.30000E-06    3.60085E+01
 4.00000E-06    2.76481E+01
 9.87700E-06    1.95258E+01
 1.59680E-05    1.52023E+01
 2.77000E-05    1.17125E+01
 4.80520E-05    9.37476E+00
 7.55014E-05    7.75681E+00
 1.48728E-04    2.86888E+01
 3.67262E-04    4.14232E+03
 9.06898E-04    1.19915E+02
 1.42510E-03    2.04318E+02
 2.23945E-03    3.57084E+02
 3.51910E-03    1.50718E+02
 5.53000E-03    1.39475E+02
 9.11800E-03    1.05832E+02
 1.50300E-02    1.18791E+02
 2.47800E-02    8.42290E+01
 4.08500E-02    6.33861E+01
 6.73400E-02    5.12067E+01
 1.11000E-01    4.41031E+01
 1.83000E-01    3.73773E+01
 3.02000E-01    3.48555E+01
 5.00000E-01    2.68071E+01
 8.21000E-01    1.32690E+01
 1.35300E+00    1.08798E+01
 2.23100E+00    6.47068E+00
 3.67900E+00    3.61066E+00
 6.06500E+00    1.44559E+00
