# n + Dy158 : (n,n'06)  
# tendl.2019 A.J. Koning and D. Rochman        EVAL-NOV19
# uncertainties: n
# # energies =    89
#   E(MeV)       xs(mb) 
 1.05056E+00    0.00000E+00
 1.07189E+00    1.02810E-04
 1.09251E+00    2.02197E-04
 1.17118E+00    5.81383E-04
 1.20000E+00    7.20294E-04
 1.27711E+00    3.88447E-03
 1.28818E+00    4.33872E-03
 1.32318E+00    5.77493E-03
 1.37070E+00    7.72490E-03
 1.38049E+00    8.12662E-03
 1.40000E+00    8.92721E-03
 1.40609E+00    9.62308E-03
 1.45096E+00    1.47501E-02
 1.48643E+00    1.88030E-02
 1.49584E+00    1.98782E-02
 1.51071E+00    2.15773E-02
 1.52321E+00    2.30056E-02
 1.52815E+00    2.35700E-02
 1.52981E+00    2.37597E-02
 1.53783E+00    2.46761E-02
 1.55720E+00    2.68893E-02
 1.56896E+00    2.82331E-02
 1.60000E+00    3.17798E-02
 1.61826E+00    3.64378E-02
 1.62888E+00    3.91468E-02
 1.64498E+00    4.32537E-02
 1.68232E+00    5.27788E-02
 1.68654E+00    5.38553E-02
 1.80000E+00    8.27978E-02
 2.00000E+00    1.71627E-01
 2.20000E+00    2.97281E-01
 2.40000E+00    4.46043E-01
 2.60000E+00    5.90750E-01
 2.80000E+00    7.01114E-01
 3.00000E+00    7.58842E-01
 3.20000E+00    8.05516E-01
 3.40000E+00    7.65707E-01
 3.60000E+00    7.01549E-01
 3.80000E+00    6.28694E-01
 4.00000E+00    5.71914E-01
 4.20000E+00    5.16053E-01
 4.40000E+00    4.59434E-01
 4.60000E+00    4.18790E-01
 4.80000E+00    3.92055E-01
 5.00000E+00    3.77959E-01
 5.20000E+00    3.75099E-01
 5.40000E+00    3.82032E-01
 5.60000E+00    3.97404E-01
 5.80000E+00    4.20047E-01
 6.00000E+00    4.48519E-01
 6.20000E+00    4.81826E-01
 6.40000E+00    5.18493E-01
 6.60000E+00    5.57125E-01
 6.80000E+00    5.96271E-01
 7.00000E+00    6.34528E-01
 7.20000E+00    6.70614E-01
 7.40000E+00    7.03454E-01
 7.60000E+00    7.32246E-01
 7.80000E+00    7.56479E-01
 8.00000E+00    7.75927E-01
 8.50000E+00    8.04354E-01
 9.00000E+00    8.08688E-01
 9.50000E+00    7.96892E-01
 1.00000E+01    7.76457E-01
 1.05000E+01    7.52960E-01
 1.10000E+01    7.29835E-01
 1.15000E+01    7.08714E-01
 1.20000E+01    6.89930E-01
 1.25000E+01    6.73092E-01
 1.30000E+01    6.57555E-01
 1.35000E+01    6.42759E-01
 1.40000E+01    6.28363E-01
 1.45000E+01    6.14253E-01
 1.50000E+01    6.00471E-01
 1.60000E+01    5.74400E-01
 1.70000E+01    5.51402E-01
 1.80000E+01    5.32476E-01
 1.90000E+01    5.17719E-01
 2.00000E+01    5.06351E-01
 2.10000E+01    4.97241E-01
 2.20000E+01    4.89209E-01
 2.30000E+01    4.80979E-01
 2.40000E+01    4.71377E-01
 2.50000E+01    4.59928E-01
 2.60000E+01    4.47148E-01
 2.70000E+01    4.34130E-01
 2.80000E+01    4.21883E-01
 2.90000E+01    4.10966E-01
 3.00000E+01    4.01431E-01
