# n + Xe128 : (n,a)     
# jeff3.3    S.Kunieda, A.Ichihara, K.Shibata+ EVAL-FEB22
# uncertainties: n
# # energies =    50
#   E(MeV)       xs(mb) 
 1.00000E-01    0.00000E+00
 5.00000E-01    1.56000E-06
 5.50000E-01    1.72200E-06
 6.00000E-01    2.01300E-06
 6.50000E-01    2.41800E-06
 7.00000E-01    2.95000E-06
 7.50000E-01    3.62700E-06
 8.00000E-01    4.49000E-06
 8.50000E-01    5.56600E-06
 9.00000E-01    6.92400E-06
 9.50000E-01    8.60500E-06
 1.00000E+00    1.08600E-05
 1.20000E+00    2.06400E-05
 1.40000E+00    4.25100E-05
 1.60000E+00    8.36100E-05
 1.80000E+00    1.58200E-04
 2.00000E+00    2.96000E-04
 2.20000E+00    5.09200E-04
 2.40000E+00    8.41800E-04
 2.60000E+00    1.25700E-03
 2.80000E+00    1.79700E-03
 3.00000E+00    2.55600E-03
 3.25000E+00    4.03300E-03
 3.50000E+00    5.75800E-03
 3.75000E+00    8.49200E-03
 4.00000E+00    1.13800E-02
 4.25000E+00    1.56400E-02
 4.50000E+00    1.98100E-02
 4.75000E+00    2.55500E-02
 5.00000E+00    3.08300E-02
 5.50000E+00    4.38500E-02
 6.00000E+00    5.82300E-02
 6.50000E+00    7.34500E-02
 7.00000E+00    8.91600E-02
 7.50000E+00    1.06500E-01
 8.00000E+00    1.27500E-01
 8.50000E+00    1.54200E-01
 9.00000E+00    1.87400E-01
 9.50000E+00    2.33600E-01
 1.00000E+01    2.95800E-01
 1.10000E+01    4.91500E-01
 1.20000E+01    8.24200E-01
 1.30000E+01    1.32800E+00
 1.40000E+01    1.99600E+00
 1.50000E+01    2.76300E+00
 1.60000E+01    3.52500E+00
 1.70000E+01    4.16400E+00
 1.80000E+01    4.60700E+00
 1.90000E+01    4.84500E+00
 2.00000E+01    4.91800E+00
