# n + Xe128 : (n,el)    
# jeff3.3    S.Kunieda, A.Ichihara, K.Shibata+ EVAL-FEB22
# uncertainties: n
# # energies =   171
#   E(MeV)       xs(mb) 
 1.00000E-11    1.80080E+04
 1.00000E-07    1.09746E+04
 4.13990E-07    1.09434E+04
 5.31580E-07    1.09277E+04
 6.82560E-07    1.09089E+04
 8.76420E-07    1.08850E+04
 1.12540E-06    1.08542E+04
 1.44500E-06    1.08148E+04
 1.85540E-06    1.07648E+04
 2.37240E-06    1.07045E+04
 3.05900E-06    1.06280E+04
 3.92790E-06    1.05304E+04
 5.04350E-06    1.04052E+04
 6.47600E-06    1.02443E+04
 8.31530E-06    1.00533E+04
 1.06770E-05    9.82239E+03
 1.37100E-05    9.53702E+03
 1.76030E-05    9.20453E+03
 2.26030E-05    8.81080E+03
 2.92030E-05    8.36517E+03
 3.72670E-05    7.87448E+03
 4.78510E-05    7.33327E+03
 6.14420E-05    6.75421E+03
 7.88930E-05    6.14304E+03
 1.01300E-04    5.49201E+03
 1.30070E-04    4.73869E+03
 1.67020E-04    3.50127E+03
 2.14450E-04    8.33178E+04
 2.75360E-04    4.99489E+03
 3.53580E-04    6.13074E+03
 4.54000E-04    1.01017E+04
 5.82950E-04    1.12740E+05
 7.48520E-04    1.09058E+04
 9.61120E-04    5.64131E+03
 1.23410E-03    6.73344E+03
 1.58460E-03    1.63710E+04
 2.03470E-03    1.69134E+04
 2.24870E-03    1.62825E+04
 2.48520E-03    1.58235E+04
 2.61260E-03    1.55259E+04
 2.74650E-03    1.50894E+04
 3.03540E-03    1.45128E+04
 3.35460E-03    1.39497E+04
 3.70740E-03    1.32776E+04
 4.30740E-03    1.22793E+04
 5.53080E-03    1.12143E+04
 7.10170E-03    1.03509E+04
 9.11880E-03    9.64947E+03
 1.17090E-02    9.05456E+03
 1.50340E-02    8.49966E+03
 1.93050E-02    8.11565E+03
 2.18750E-02    7.94372E+03
 2.35790E-02    7.85994E+03
 2.41760E-02    7.81858E+03
 2.47880E-02    7.75698E+03
 2.60580E-02    7.68693E+03
 2.70000E-02    7.61450E+03
 2.85000E-02    7.48837E+03
 3.18280E-02    7.36897E+03
 3.43070E-02    7.21629E+03
 4.08680E-02    7.05128E+03
 4.63090E-02    6.92733E+03
 5.24750E-02    6.83662E+03
 5.65620E-02    6.73077E+03
 6.73790E-02    6.63567E+03
 7.20000E-02    6.57647E+03
 7.95000E-02    6.52948E+03
 8.25000E-02    6.50281E+03
 8.65170E-02    6.45009E+03
 9.80370E-02    6.37983E+03
 1.11090E-01    6.33382E+03
 1.16790E-01    6.30770E+03
 1.22770E-01    6.28449E+03
 1.29070E-01    6.26171E+03
 1.35690E-01    6.23923E+03
 1.42640E-01    6.21910E+03
 1.49960E-01    6.19965E+03
 1.57640E-01    6.18098E+03
 1.65730E-01    6.16462E+03
 1.74220E-01    6.14793E+03
 1.83160E-01    6.13406E+03
 1.92550E-01    6.12076E+03
 2.02420E-01    6.11106E+03
 2.12800E-01    6.10271E+03
 2.23710E-01    6.09442E+03
 2.35180E-01    6.08619E+03
 2.47240E-01    6.07889E+03
 2.73240E-01    6.07638E+03
 2.87250E-01    6.07510E+03
 2.94520E-01    6.07450E+03
 2.97200E-01    6.07426E+03
 2.98500E-01    6.07418E+03
 3.01970E-01    6.07924E+03
 3.33730E-01    6.08927E+03
 3.68830E-01    6.09745E+03
 3.87740E-01    6.10103E+03
 4.07620E-01    6.06782E+03
 4.50490E-01    5.94110E+03
 4.97870E-01    5.80592E+03
 5.23400E-01    5.74299E+03
 5.50230E-01    5.68708E+03
 5.78440E-01    5.64502E+03
 6.08100E-01    5.60496E+03
 6.39280E-01    5.57406E+03
 6.72060E-01    5.54250E+03
 7.06510E-01    5.51802E+03
 7.42740E-01    5.49681E+03
 7.80820E-01    5.47451E+03
 8.20850E-01    5.45106E+03
 8.62940E-01    5.42869E+03
 9.07180E-01    5.40410E+03
 9.61640E-01    5.34681E+03
 1.00260E+00    5.23990E+03
 1.10800E+00    5.13325E+03
 1.16480E+00    5.06031E+03
 1.22460E+00    4.99317E+03
 1.28730E+00    4.92355E+03
 1.35340E+00    4.84996E+03
 1.42270E+00    4.76185E+03
 1.49570E+00    4.66369E+03
 1.57240E+00    4.55972E+03
 1.65300E+00    4.44940E+03
 1.73770E+00    4.33376E+03
 1.82680E+00    4.21536E+03
 1.92050E+00    4.09131E+03
 2.01900E+00    3.95896E+03
 2.12250E+00    3.82006E+03
 2.23130E+00    3.69929E+03
 2.30690E+00    3.62691E+03
 2.34570E+00    3.59072E+03
 2.36530E+00    3.56627E+03
 2.38520E+00    3.50425E+03
 2.46600E+00    3.37842E+03
 2.59240E+00    3.19502E+03
 2.72530E+00    2.98757E+03
 2.86500E+00    2.85465E+03
 3.01190E+00    2.73846E+03
 3.16640E+00    2.62683E+03
 3.32870E+00    2.46840E+03
 3.67880E+00    2.28064E+03
 4.06570E+00    2.12756E+03
 4.49330E+00    2.03743E+03
 4.72370E+00    1.99129E+03
 4.96590E+00    1.95806E+03
 5.22050E+00    1.93492E+03
 5.48810E+00    1.92049E+03
 5.76950E+00    1.91741E+03
 6.06530E+00    1.92590E+03
 6.37630E+00    1.93800E+03
 6.59240E+00    1.94883E+03
 6.70320E+00    1.96703E+03
 7.04690E+00    2.00019E+03
 7.40820E+00    2.04086E+03
 7.78800E+00    2.08926E+03
 8.18730E+00    2.14122E+03
 8.60710E+00    2.19645E+03
 9.04840E+00    2.25492E+03
 9.51230E+00    2.31573E+03
 1.00000E+01    2.37280E+03
 1.05130E+01    2.42737E+03
 1.10520E+01    2.47528E+03
 1.16180E+01    2.51746E+03
 1.22140E+01    2.54778E+03
 1.28400E+01    2.56959E+03
 1.34990E+01    2.57669E+03
 1.38400E+01    2.57980E+03
 1.41910E+01    2.57582E+03
 1.45500E+01    2.57073E+03
 1.49180E+01    2.55571E+03
 1.56830E+01    2.52415E+03
 1.64870E+01    2.47897E+03
