# n + Xe128 : (n,xh)    
# jeff3.3    S.Kunieda, A.Ichihara, K.Shibata+ EVAL-FEB22
# 
# # energies =    81
#   E(MeV)        xs(mb) 
 4.46403E-01    0.00000E+00
 4.50000E-01    0.00000E+00
 5.00000E-01    0.00000E+00
 5.50000E-01    0.00000E+00
 6.00000E-01    0.00000E+00
 6.50000E-01    0.00000E+00
 7.00000E-01    0.00000E+00
 7.50000E-01    0.00000E+00
 8.00000E-01    0.00000E+00
 8.50000E-01    0.00000E+00
 9.00000E-01    0.00000E+00
 9.50000E-01    0.00000E+00
 9.77120E-01    0.00000E+00
 1.00000E+00    0.00000E+00
 1.04130E+00    0.00000E+00
 1.20000E+00    0.00000E+00
 1.40000E+00    0.00000E+00
 1.44083E+00    0.00000E+00
 1.59545E+00    0.00000E+00
 1.60000E+00    0.00000E+00
 1.61606E+00    0.00000E+00
 1.75074E+00    0.00000E+00
 1.80000E+00    0.00000E+00
 1.89213E+00    0.00000E+00
 2.00000E+00    0.00000E+00
 2.01230E+00    0.00000E+00
 2.01542E+00    0.00000E+00
 2.14383E+00    0.00000E+00
 2.20000E+00    0.00000E+00
 2.24661E+00    0.00000E+00
 2.27066E+00    0.00000E+00
 2.29077E+00    0.00000E+00
 2.29889E+00    0.00000E+00
 2.38042E+00    0.00000E+00
 2.40000E+00    0.00000E+00
 2.44017E+00    0.00000E+00
 2.44986E+00    0.00000E+00
 2.46319E+00    0.00000E+00
 2.50209E+00    0.00000E+00
 2.52049E+00    0.00000E+00
 2.53051E+00    0.00000E+00
 2.53235E+00    0.00000E+00
 2.54125E+00    0.00000E+00
 2.57079E+00    0.00000E+00
 2.58501E+00    0.00000E+00
 2.60000E+00    0.00000E+00
 2.60354E+00    0.00000E+00
 2.61201E+00    0.00000E+00
 2.61907E+00    0.00000E+00
 2.65376E+00    0.00000E+00
 2.66384E+00    0.00000E+00
 2.80000E+00    0.00000E+00
 3.00000E+00    0.00000E+00
 3.25000E+00    0.00000E+00
 3.50000E+00    0.00000E+00
 3.75000E+00    0.00000E+00
 4.00000E+00    0.00000E+00
 4.25000E+00    0.00000E+00
 4.50000E+00    0.00000E+00
 4.75000E+00    0.00000E+00
 5.00000E+00    0.00000E+00
 5.50000E+00    0.00000E+00
 6.00000E+00    0.00000E+00
 6.50000E+00    0.00000E+00
 7.00000E+00    0.00000E+00
 7.50000E+00    8.57700E-31
 8.00000E+00    1.38100E-25
 8.50000E+00    3.29400E-22
 9.00000E+00    9.70600E-20
 9.50000E+00    8.23600E-18
 1.00000E+01    3.10100E-16
 1.10000E+01    1.01400E-13
 1.20000E+01    9.95100E-12
 1.30000E+01    2.45100E-10
 1.40000E+01    1.34300E-08
 1.50000E+01    1.24700E-07
 1.60000E+01    1.02000E-06
 1.70000E+01    6.62000E-06
 1.80000E+01    3.54800E-05
 1.90000E+01    1.54600E-04
 2.00000E+01    5.52600E-04
