# n + Xe129 : (n,xd)    
# jendl.ad   kunieda                           EVAL-Mar14
# 
# # energies =    80
#   E(MeV)        xs(mb) 
 3.98877E-02    0.00000E+00
 4.00000E-02    0.00000E+00
 5.00000E-02    0.00000E+00
 6.00000E-02    0.00000E+00
 7.00000E-02    0.00000E+00
 8.00000E-02    0.00000E+00
 9.00000E-02    0.00000E+00
 1.00000E-01    0.00000E+00
 1.50000E-01    0.00000E+00
 2.00000E-01    0.00000E+00
 2.37988E-01    0.00000E+00
 2.76426E-01    0.00000E+00
 3.00000E-01    0.00000E+00
 3.20669E-01    0.00000E+00
 3.24228E-01    0.00000E+00
 4.00000E-01    0.00000E+00
 4.14716E-01    0.00000E+00
 4.45660E-01    0.00000E+00
 5.00000E-01    0.00000E+00
 5.22759E-01    0.00000E+00
 5.29370E-01    0.00000E+00
 5.77161E-01    0.00000E+00
 5.93138E-01    0.00000E+00
 6.00000E-01    0.00000E+00
 6.29336E-01    0.00000E+00
 6.70627E-01    0.00000E+00
 6.98382E-01    0.00000E+00
 7.00000E-01    0.00000E+00
 7.77144E-01    0.00000E+00
 8.00000E-01    0.00000E+00
 8.28593E-01    0.00000E+00
 8.29490E-01    0.00000E+00
 8.29752E-01    0.00000E+00
 8.74842E-01    0.00000E+00
 9.00000E-01    0.00000E+00
 9.11394E-01    0.00000E+00
 1.00000E+00    0.00000E+00
 1.20000E+00    0.00000E+00
 1.40000E+00    0.00000E+00
 1.60000E+00    0.00000E+00
 1.80000E+00    0.00000E+00
 2.00000E+00    0.00000E+00
 2.20000E+00    0.00000E+00
 2.40000E+00    0.00000E+00
 2.70000E+00    0.00000E+00
 3.00000E+00    0.00000E+00
 3.50000E+00    0.00000E+00
 4.00000E+00    0.00000E+00
 4.50000E+00    0.00000E+00
 5.00000E+00    0.00000E+00
 5.50000E+00    0.00000E+00
 6.00000E+00    0.00000E+00
 6.50000E+00    5.91927E-15
 7.00000E+00    1.40331E-14
 7.50000E+00    2.21470E-14
 8.00000E+00    8.76550E-11
 8.50000E+00    1.33510E-08
 9.00000E+00    1.10780E-06
 9.50000E+00    1.87428E-05
 1.00000E+01    2.49207E-04
 1.05000E+01    1.34627E-03
 1.10000E+01    6.17392E-03
 1.15000E+01    2.41957E-02
 1.20000E+01    5.67975E-02
 1.25000E+01    1.71212E-01
 1.30000E+01    2.98268E-01
 1.35000E+01    6.25000E-01
 1.40000E+01    1.04483E+00
 1.45000E+01    1.50638E+00
 1.50000E+01    2.08345E+00
 1.55000E+01    2.77928E+00
 1.60000E+01    3.59420E+00
 1.65000E+01    4.52678E+00
 1.70000E+01    5.31734E+00
 1.75000E+01    6.44970E+00
 1.80000E+01    7.02487E+00
 1.85000E+01    8.31085E+00
 1.90000E+01    9.36160E+00
 1.95000E+01    1.00272E+01
 2.00000E+01    1.15257E+01
