# n + Te122 : (n,n'17)  
# jeff3.3    A.J. Koning and D. Rochman        EVAL-DEC15
# uncertainties: n
# # energies =    72
#   E(MeV)       xs(mb) 
 2.31646E+00    0.00000E+00
 2.32991E+00    2.22582E+00
 2.40000E+00    1.38248E+01
 2.42751E+00    1.52329E+01
 2.44828E+00    1.62961E+01
 2.46878E+00    1.73454E+01
 2.49810E+00    1.88462E+01
 2.52013E+00    1.99738E+01
 2.52947E+00    2.04519E+01
 2.55670E+00    2.18457E+01
 2.55985E+00    2.20070E+01
 2.57904E+00    2.29892E+01
 2.58188E+00    2.31346E+01
 2.60000E+00    2.40621E+01
 2.61383E+00    2.41123E+01
 2.61493E+00    2.41163E+01
 2.80000E+00    2.47884E+01
 3.00000E+00    2.40768E+01
 3.20000E+00    2.19685E+01
 3.40000E+00    1.91377E+01
 3.60000E+00    1.59307E+01
 3.80000E+00    1.26986E+01
 4.00000E+00    9.85211E+00
 4.20000E+00    7.49020E+00
 4.40000E+00    5.61459E+00
 4.60000E+00    4.17389E+00
 4.80000E+00    3.09231E+00
 5.00000E+00    2.28933E+00
 5.20000E+00    1.69766E+00
 5.40000E+00    1.26211E+00
 5.60000E+00    9.40898E-01
 5.80000E+00    7.03189E-01
 6.00000E+00    5.26618E-01
 6.20000E+00    3.95046E-01
 6.40000E+00    2.96731E-01
 6.60000E+00    2.21609E-01
 6.80000E+00    1.66580E-01
 7.00000E+00    1.25452E-01
 7.20000E+00    9.47453E-02
 7.40000E+00    7.15514E-02
 7.60000E+00    5.43444E-02
 7.80000E+00    4.13034E-02
 8.00000E+00    3.14958E-02
 8.50000E+00    1.62392E-02
 9.00000E+00    8.55728E-03
 9.50000E+00    4.60925E-03
 1.00000E+01    2.53263E-03
 1.05000E+01    1.41394E-03
 1.10000E+01    7.98308E-04
 1.15000E+01    4.54997E-04
 1.20000E+01    2.61654E-04
 1.25000E+01    1.51847E-04
 1.30000E+01    8.89374E-05
 1.35000E+01    5.25604E-05
 1.40000E+01    3.13433E-05
 1.45000E+01    1.88600E-05
 1.50000E+01    1.14525E-05
 1.60000E+01    4.33279E-06
 1.70000E+01    1.69258E-06
 1.80000E+01    6.81360E-07
 1.90000E+01    2.82470E-07
 2.00000E+01    1.19300E-07
 2.10000E+01    5.20930E-08
 2.20000E+01    2.31720E-08
 2.30000E+01    1.04970E-08
 2.40000E+01    4.81800E-09
 2.50000E+01    2.24010E-09
 2.60000E+01    1.05620E-09
 2.70000E+01    5.05150E-10
 2.80000E+01    2.45080E-10
 2.90000E+01    1.20580E-10
 3.00000E+01    6.01350E-11
