# n + Te122 : (n,n'06)  
# jeff3.3    A.J. Koning and D. Rochman        EVAL-DEC15
# uncertainties: n
# # energies =    86
#   E(MeV)       xs(mb) 
 1.76581E+00    0.00000E+00
 1.76712E+00    5.47749E-03
 1.80000E+00    1.42959E-01
 1.92541E+00    1.15889E+00
 1.95650E+00    1.41074E+00
 1.96807E+00    1.50447E+00
 2.00000E+00    1.76313E+00
 2.05807E+00    2.76900E+00
 2.11659E+00    3.78267E+00
 2.20000E+00    5.22748E+00
 2.21499E+00    5.61209E+00
 2.22202E+00    5.79247E+00
 2.30277E+00    7.86436E+00
 2.30628E+00    7.95442E+00
 2.31646E+00    8.21562E+00
 2.32991E+00    8.56072E+00
 2.40000E+00    1.03591E+01
 2.42751E+00    1.08721E+01
 2.44828E+00    1.12593E+01
 2.46878E+00    1.16416E+01
 2.49810E+00    1.21883E+01
 2.52013E+00    1.25991E+01
 2.52947E+00    1.27733E+01
 2.55670E+00    1.32810E+01
 2.55985E+00    1.33397E+01
 2.57904E+00    1.36976E+01
 2.58188E+00    1.37505E+01
 2.60000E+00    1.40884E+01
 2.61383E+00    1.42816E+01
 2.61493E+00    1.42970E+01
 2.80000E+00    1.68825E+01
 3.00000E+00    1.89341E+01
 3.20000E+00    1.97683E+01
 3.40000E+00    1.96146E+01
 3.60000E+00    1.85247E+01
 3.80000E+00    1.67492E+01
 4.00000E+00    1.45941E+01
 4.20000E+00    1.23412E+01
 4.40000E+00    1.02170E+01
 4.60000E+00    8.34960E+00
 4.80000E+00    6.78483E+00
 5.00000E+00    5.51004E+00
 5.20000E+00    4.49399E+00
 5.40000E+00    3.69446E+00
 5.60000E+00    3.07052E+00
 5.80000E+00    2.58589E+00
 6.00000E+00    2.20958E+00
 6.20000E+00    1.91775E+00
 6.40000E+00    1.69013E+00
 6.60000E+00    1.50702E+00
 6.80000E+00    1.36504E+00
 7.00000E+00    1.25167E+00
 7.20000E+00    1.15999E+00
 7.40000E+00    1.08417E+00
 7.60000E+00    1.02182E+00
 7.80000E+00    9.69060E-01
 8.00000E+00    9.24375E-01
 8.50000E+00    8.38574E-01
 9.00000E+00    7.78583E-01
 9.50000E+00    7.35687E-01
 1.00000E+01    7.04267E-01
 1.05000E+01    6.80330E-01
 1.10000E+01    6.60947E-01
 1.15000E+01    6.44063E-01
 1.20000E+01    6.28430E-01
 1.25000E+01    6.13440E-01
 1.30000E+01    5.98914E-01
 1.35000E+01    5.84894E-01
 1.40000E+01    5.71495E-01
 1.45000E+01    5.58844E-01
 1.50000E+01    5.47040E-01
 1.60000E+01    5.26290E-01
 1.70000E+01    5.09393E-01
 1.80000E+01    4.95745E-01
 1.90000E+01    4.84481E-01
 2.00000E+01    4.74895E-01
 2.10000E+01    4.66309E-01
 2.20000E+01    4.57783E-01
 2.30000E+01    4.48358E-01
 2.40000E+01    4.37650E-01
 2.50000E+01    4.26070E-01
 2.60000E+01    4.14496E-01
 2.70000E+01    4.03750E-01
 2.80000E+01    3.94280E-01
 2.90000E+01    3.86122E-01
 3.00000E+01    3.78965E-01
