# n + Te122 : (n,n'05)  
# jeff3.3    A.J. Koning and D. Rochman        EVAL-DEC15
# uncertainties: n
# # energies =    87
#   E(MeV)       xs(mb) 
 1.76150E+00    0.00000E+00
 1.76581E+00    2.45283E+00
 1.76712E+00    3.19834E+00
 1.80000E+00    2.19103E+01
 1.92541E+00    4.34379E+01
 1.95650E+00    4.87747E+01
 1.96807E+00    5.07608E+01
 2.00000E+00    5.62418E+01
 2.05807E+00    5.92151E+01
 2.11659E+00    6.22115E+01
 2.20000E+00    6.64823E+01
 2.21499E+00    6.63475E+01
 2.22202E+00    6.62842E+01
 2.30277E+00    6.55579E+01
 2.30628E+00    6.55264E+01
 2.31646E+00    6.54348E+01
 2.32991E+00    6.53138E+01
 2.40000E+00    6.46834E+01
 2.42751E+00    6.35930E+01
 2.44828E+00    6.27697E+01
 2.46878E+00    6.19571E+01
 2.49810E+00    6.07949E+01
 2.52013E+00    5.99216E+01
 2.52947E+00    5.95514E+01
 2.55670E+00    5.84720E+01
 2.55985E+00    5.83472E+01
 2.57904E+00    5.75865E+01
 2.58188E+00    5.74739E+01
 2.60000E+00    5.67557E+01
 2.61383E+00    5.60184E+01
 2.61493E+00    5.59597E+01
 2.80000E+00    4.60929E+01
 3.00000E+00    3.80210E+01
 3.20000E+00    3.07599E+01
 3.40000E+00    2.45632E+01
 3.60000E+00    1.93634E+01
 3.80000E+00    1.50533E+01
 4.00000E+00    1.15381E+01
 4.20000E+00    8.73033E+00
 4.40000E+00    6.54004E+00
 4.60000E+00    4.86764E+00
 4.80000E+00    3.61068E+00
 5.00000E+00    2.67280E+00
 5.20000E+00    1.97734E+00
 5.40000E+00    1.46268E+00
 5.60000E+00    1.08216E+00
 5.80000E+00    8.00974E-01
 6.00000E+00    5.93120E-01
 6.20000E+00    4.39793E-01
 6.40000E+00    3.26610E-01
 6.60000E+00    2.41328E-01
 6.80000E+00    1.79591E-01
 7.00000E+00    1.34099E-01
 7.20000E+00    1.00530E-01
 7.40000E+00    7.54566E-02
 7.60000E+00    5.70303E-02
 7.80000E+00    4.31766E-02
 8.00000E+00    3.28324E-02
 8.50000E+00    1.68580E-02
 9.00000E+00    8.87043E-03
 9.50000E+00    4.77617E-03
 1.00000E+01    2.62344E-03
 1.05000E+01    1.46344E-03
 1.10000E+01    8.25103E-04
 1.15000E+01    4.69393E-04
 1.20000E+01    2.69366E-04
 1.25000E+01    1.56003E-04
 1.30000E+01    9.12080E-05
 1.35000E+01    5.38243E-05
 1.40000E+01    3.20601E-05
 1.45000E+01    1.92735E-05
 1.50000E+01    1.16946E-05
 1.60000E+01    4.41973E-06
 1.70000E+01    1.72554E-06
 1.80000E+01    6.94400E-07
 1.90000E+01    2.87800E-07
 2.00000E+01    1.21520E-07
 2.10000E+01    5.30310E-08
 2.20000E+01    2.35650E-08
 2.30000E+01    1.06590E-08
 2.40000E+01    4.88370E-09
 2.50000E+01    2.26680E-09
 2.60000E+01    1.06760E-09
 2.70000E+01    5.10310E-10
 2.80000E+01    2.47560E-10
 2.90000E+01    1.21800E-10
 3.00000E+01    6.07430E-11
