# n + Dy  0 : (n,xa)
# jendl4.0   N.Iwamoto,S.Chiba                 EVAL-Nov09
#
# # energies =   117
#   E(MeV)          xs(mb) 
 7.38997E-02    2.74895E-04
 8.00000E-02    2.53650E-04
 9.00000E-02    2.36571E-04
 1.00000E-01    2.23014E-04
 1.05000E-01    2.17274E-04
 1.10000E-01    2.03871E-04
 1.20000E-01    1.90944E-04
 1.30000E-01    1.81117E-04
 1.40000E-01    1.68827E-04
 1.50000E-01    1.60500E-04
 1.60000E-01    1.53903E-04
 1.68375E-01    1.49512E-04
 1.70000E-01    1.48581E-04
 1.80000E-01    1.44083E-04
 1.90000E-01    1.40308E-04
 2.00000E-01    1.37025E-04
 2.25000E-01    1.26979E-04
 2.50000E-01    1.22336E-04
 2.52442E-01    1.22036E-04
 2.75000E-01    1.18946E-04
 2.83315E-01    1.18433E-04
 2.87363E-01    1.18148E-04
 3.00000E-01    1.17209E-04
 3.38627E-01    1.17078E-04
 3.38628E-01    1.17079E-04
 3.53324E-01    1.17489E-04
 3.92166E-01    1.17633E-04
 4.00000E-01    1.17454E-04
 4.14935E-01    1.18376E-04
 4.17811E-01    1.18558E-04
 4.24456E-01    1.18900E-04
 4.30328E-01    1.19074E-04
 4.52786E-01    1.19877E-04
 4.78331E-01    1.20057E-04
 5.00000E-01    1.21079E-04
 5.00278E-01    1.21099E-04
 5.17738E-01    1.22440E-04
 5.56444E-01    1.24882E-04
 5.69504E-01    1.25091E-04
 5.72231E-01    1.25123E-04
 5.91569E-01    1.25502E-04
 6.00000E-01    1.26123E-04
 6.15789E-01    1.27192E-04
 6.50250E-01    1.29040E-04
 6.64086E-01    1.30111E-04
 7.00000E-01    1.32368E-04
 7.09364E-01    1.32760E-04
 7.09365E-01    1.32760E-04
 7.15877E-01    1.33119E-04
 7.16408E-01    1.33145E-04
 7.22717E-01    1.33453E-04
 7.32104E-01    1.34286E-04
 7.42226E-01    1.35441E-04
 7.44581E-01    1.35738E-04
 7.70951E-01    1.39129E-04
 7.70952E-01    1.39130E-04
 7.85935E-01    1.40991E-04
 7.98306E-01    1.42505E-04
 8.00000E-01    1.42713E-04
 8.06273E-01    1.43682E-04
 8.25877E-01    1.46713E-04
 8.31919E-01    1.47647E-04
 8.56393E-01    1.51462E-04
 8.64607E-01    1.52752E-04
 8.88481E-01    1.56496E-04
 8.89768E-01    1.56697E-04
 8.89769E-01    1.56697E-04
 9.00000E-01    1.57984E-04
 1.00000E+00    1.73184E-04
 1.10000E+00    1.90073E-04
 1.20000E+00    2.10076E-04
 1.30000E+00    2.32022E-04
 1.40000E+00    2.56139E-04
 1.50000E+00    2.83559E-04
 1.60000E+00    3.15148E-04
 1.70000E+00    3.51952E-04
 1.80000E+00    3.93094E-04
 1.90000E+00    4.40321E-04
 2.00000E+00    4.92437E-04
 2.25000E+00    6.48450E-04
 2.50000E+00    8.56214E-04
 2.75000E+00    1.11081E-03
 3.00000E+00    1.47780E-03
 3.50000E+00    2.42904E-03
 4.00000E+00    3.78474E-03
 4.50000E+00    5.55865E-03
 5.00000E+00    7.73393E-03
 5.50000E+00    1.02986E-02
 6.00000E+00    1.32543E-02
 6.50000E+00    1.67211E-02
 7.00000E+00    2.09714E-02
 7.50000E+00    2.65311E-02
 8.00000E+00    3.43873E-02
 8.50000E+00    4.60784E-02
 9.00000E+00    6.34032E-02
 9.50000E+00    8.94503E-02
 1.00000E+01    1.27634E-01
 1.05000E+01    1.82494E-01
 1.10000E+01    2.59481E-01
 1.15000E+01    3.64013E-01
 1.20000E+01    5.01930E-01
 1.25000E+01    6.77327E-01
 1.30000E+01    8.92362E-01
 1.35000E+01    1.14789E+00
 1.40000E+01    1.44175E+00
 1.45000E+01    1.77238E+00
 1.50000E+01    2.13471E+00
 1.55000E+01    2.52498E+00
 1.60000E+01    2.93781E+00
 1.65000E+01    3.36919E+00
 1.70000E+01    3.81430E+00
 1.75000E+01    4.26914E+00
 1.80000E+01    4.73114E+00
 1.85000E+01    5.19566E+00
 1.90000E+01    5.66209E+00
 1.95000E+01    6.12644E+00
 2.00000E+01    6.58901E+00
