# n + Dy  0 : (n,xp)
# jendl4.0   N.Iwamoto,S.Chiba                 EVAL-Nov09
#
# # energies =   117
#   E(MeV)          xs(mb) 
 7.38997E-02    8.32706E-18
 8.00000E-02    9.89874E-18
 9.00000E-02    1.24752E-17
 1.00000E-01    1.50516E-17
 1.05000E-01    1.63398E-17
 1.10000E-01    1.76280E-17
 1.20000E-01    2.02044E-17
 1.30000E-01    2.44387E-17
 1.40000E-01    3.14973E-17
 1.50000E-01    3.85558E-17
 1.60000E-01    4.56374E-17
 1.68375E-01    5.15790E-17
 1.70000E-01    5.27319E-17
 1.80000E-01    5.98264E-17
 1.90000E-01    6.69209E-17
 2.00000E-01    7.40151E-17
 2.25000E-01    1.02823E-16
 2.50000E-01    1.44555E-16
 2.52442E-01    1.48821E-16
 2.75000E-01    1.88228E-16
 2.83315E-01    2.02953E-16
 2.87363E-01    2.10121E-16
 3.00000E-01    2.32501E-16
 3.38627E-01    3.33779E-16
 3.38628E-01    3.33782E-16
 3.53324E-01    3.74623E-16
 3.92166E-01    4.85379E-16
 4.00000E-01    5.08113E-16
 4.14935E-01    5.65508E-16
 4.17811E-01    5.76832E-16
 4.24456E-01    6.03525E-16
 4.30328E-01    6.27508E-16
 4.52786E-01    7.19479E-16
 4.78331E-01    8.26409E-16
 5.00000E-01    9.17201E-16
 5.00278E-01    9.18368E-16
 5.17738E-01    9.91652E-16
 5.56444E-01    1.15411E-15
 5.69504E-01    1.20893E-15
 5.72231E-01    1.22038E-15
 5.91569E-01    1.30154E-15
 6.00000E-01    1.33693E-15
 6.15789E-01    1.40385E-15
 6.50250E-01    1.55005E-15
 6.64086E-01    1.60891E-15
 7.00000E-01    1.76825E-15
 7.09364E-01    1.81760E-15
 7.09365E-01    1.81761E-15
 7.15877E-01    1.85193E-15
 7.16408E-01    1.85473E-15
 7.22717E-01    1.88798E-15
 7.32104E-01    1.93746E-15
 7.42226E-01    1.99081E-15
 7.44581E-01    2.00322E-15
 7.70951E-01    2.14221E-15
 7.70952E-01    2.14222E-15
 7.85935E-01    2.25186E-15
 7.98306E-01    2.35317E-15
 8.00000E-01    2.36704E-15
 8.06273E-01    2.54313E-15
 8.25877E-01    3.09346E-15
 8.31919E-01    3.26307E-15
 8.56393E-01    4.24063E-15
 8.64607E-01    4.57779E-15
 8.88481E-01    5.55773E-15
 8.89768E-01    5.61055E-15
 8.89769E-01    5.61060E-15
 9.00000E-01    6.04866E-15
 1.00000E+00    3.48890E-14
 1.10000E+00    2.34823E-13
 1.20000E+00    1.37434E-12
 1.30000E+00    6.76360E-12
 1.40000E+00    2.80808E-11
 1.50000E+00    1.00893E-10
 1.60000E+00    3.24081E-10
 1.70000E+00    9.44065E-10
 1.80000E+00    2.52270E-09
 1.90000E+00    6.22013E-09
 2.00000E+00    1.42469E-08
 2.25000E+00    8.47110E-08
 2.50000E+00    3.91424E-07
 2.75000E+00    1.35781E-06
 3.00000E+00    4.02488E-06
 3.50000E+00    2.22313E-05
 4.00000E+00    7.94129E-05
 4.50000E+00    2.07825E-04
 5.00000E+00    4.36931E-04
 5.50000E+00    7.93422E-04
 6.00000E+00    1.32975E-03
 6.50000E+00    2.23611E-03
 7.00000E+00    3.98070E-03
 7.50000E+00    7.62837E-03
 8.00000E+00    1.52311E-02
 8.50000E+00    3.03015E-02
 9.00000E+00    5.84671E-02
 9.50000E+00    1.07633E-01
 1.00000E+01    1.88180E-01
 1.05000E+01    3.12639E-01
 1.10000E+01    4.94115E-01
 1.15000E+01    7.46849E-01
 1.20000E+01    1.08206E+00
 1.25000E+01    1.51152E+00
 1.30000E+01    2.04127E+00
 1.35000E+01    2.67887E+00
 1.40000E+01    3.42487E+00
 1.45000E+01    4.28338E+00
 1.50000E+01    5.25141E+00
 1.55000E+01    6.33078E+00
 1.60000E+01    7.51661E+00
 1.65000E+01    8.80803E+00
 1.70000E+01    1.02022E+01
 1.75000E+01    1.16933E+01
 1.80000E+01    1.32824E+01
 1.85000E+01    1.49552E+01
 1.90000E+01    1.67192E+01
 1.95000E+01    1.85532E+01
 2.00000E+01    2.04686E+01
