# n + Dy  0 : (n,d)
# jendl4.0   N.Iwamoto,S.Chiba                 EVAL-Nov09
# uncertainties: n
# # energies =    70
#   E(MeV)          xs(mb) 
 4.73594E+00    1.87070E-20
 4.79721E+00    2.47494E-20
 4.88079E+00    3.30030E-20
 4.99015E+00    4.38046E-20
 5.06438E+00    5.11366E-20
 5.06568E+00    5.12988E-20
 5.09589E+00    5.56283E-20
 5.11605E+00    5.86898E-20
 5.14659E+00    6.34545E-20
 5.16446E+00    6.62922E-20
 5.25319E+00    8.06227E-20
 5.25685E+00    8.12188E-20
 5.27137E+00    8.35863E-20
 5.31132E+00    9.01080E-20
 5.33714E+00    9.43343E-20
 5.37737E+00    1.00922E-19
 5.38358E+00    1.01940E-19
 5.38805E+00    1.02672E-19
 5.39865E+00    1.04409E-19
 5.43400E+00    1.10205E-19
 5.43772E+00    1.10815E-19
 5.44927E+00    1.12709E-19
 5.52416E+00    2.69497E-19
 5.53455E+00    3.68186E-19
 5.57930E+00    9.52687E-19
 5.60124E+00    1.30183E-18
 5.60194E+00    1.31322E-18
 5.62491E+00    1.68796E-18
 5.63199E+00    1.80368E-18
 5.63672E+00    1.88105E-18
 5.63767E+00    1.89659E-18
 5.66453E+00    2.33601E-18
 5.66716E+00    2.37904E-18
 5.66886E+00    2.40688E-18
 5.68899E+00    2.73658E-18
 5.70811E+00    3.04981E-18
 5.71253E+00    3.12223E-18
 5.71277E+00    3.12616E-18
 5.71653E+00    3.18777E-18
 5.73398E+00    3.47368E-18
 5.74736E+00    3.69291E-18
 6.00000E+00    7.83328E-18
 6.50000E+00    5.37385E-15
 7.00000E+00    7.69561E-13
 7.50000E+00    3.73700E-11
 8.00000E+00    1.32884E-09
 8.50000E+00    3.83121E-08
 9.00000E+00    6.20325E-07
 9.50000E+00    7.74016E-06
 1.00000E+01    6.15749E-05
 1.05000E+01    3.45561E-04
 1.10000E+01    1.41720E-03
 1.15000E+01    4.76151E-03
 1.20000E+01    1.36667E-02
 1.25000E+01    3.29744E-02
 1.30000E+01    7.14416E-02
 1.35000E+01    1.38570E-01
 1.40000E+01    2.39387E-01
 1.45000E+01    3.88299E-01
 1.50000E+01    5.85064E-01
 1.55000E+01    8.36319E-01
 1.60000E+01    1.13043E+00
 1.65000E+01    1.47224E+00
 1.70000E+01    1.82857E+00
 1.75000E+01    2.21428E+00
 1.80000E+01    2.63544E+00
 1.85000E+01    3.07079E+00
 1.90000E+01    3.50532E+00
 1.95000E+01    3.93925E+00
 2.00000E+01    4.39605E+00
