# n + Dy  0 : (n,np)
# jendl4.0   N.Iwamoto,S.Chiba                 EVAL-Nov09
# uncertainties: n
# # energies =    26
#   E(MeV)          xs(mb) 
 6.60685E+00    0.00000E+00
 8.00000E+00    3.27575E-14
 8.50000E+00    1.65313E-11
 9.00000E+00    2.47318E-09
 9.50000E+00    8.02110E-08
 1.00000E+01    7.96401E-07
 1.05000E+01    4.49570E-06
 1.10000E+01    2.15728E-05
 1.15000E+01    9.15067E-05
 1.20000E+01    3.38559E-04
 1.25000E+01    1.10350E-03
 1.30000E+01    3.21460E-03
 1.35000E+01    8.53298E-03
 1.40000E+01    2.08421E-02
 1.45000E+01    4.72742E-02
 1.50000E+01    9.94723E-02
 1.55000E+01    1.97104E-01
 1.60000E+01    3.62621E-01
 1.65000E+01    6.32963E-01
 1.70000E+01    1.01617E+00
 1.75000E+01    1.56616E+00
 1.80000E+01    2.27694E+00
 1.85000E+01    3.15151E+00
 1.90000E+01    4.19451E+00
 1.95000E+01    5.41152E+00
 2.00000E+01    6.79483E+00
