# n + Dy  0 : (n,2na)
# jendl4.0   N.Iwamoto,S.Chiba                 EVAL-Nov09
# uncertainties: n
# # energies =    25
#   E(MeV)          xs(mb) 
 6.05287E+00    0.00000E+00
 8.50000E+00    1.17900E-30
 9.00000E+00    8.24762E-26
 9.50000E+00    1.34585E-21
 1.00000E+01    2.62282E-18
 1.05000E+01    1.14592E-15
 1.10000E+01    1.61871E-13
 1.15000E+01    1.00149E-11
 1.20000E+01    3.14282E-10
 1.25000E+01    5.66690E-09
 1.30000E+01    6.45712E-08
 1.35000E+01    5.05330E-07
 1.40000E+01    2.88240E-06
 1.45000E+01    1.27239E-05
 1.50000E+01    4.41940E-05
 1.55000E+01    1.18952E-04
 1.60000E+01    2.66586E-04
 1.65000E+01    5.41435E-04
 1.70000E+01    1.05932E-03
 1.75000E+01    2.05745E-03
 1.80000E+01    3.95849E-03
 1.85000E+01    7.36522E-03
 1.90000E+01    1.32420E-02
 1.95000E+01    2.29941E-02
 2.00000E+01    3.81131E-02
