# n + Li  7 : (n,n'22)  
# jendl4.0   S.CHIBA AND K.SHIBATA             EVAL-DEC84
# uncertainties: n
# # energies =   118
#   E(MeV)       xs(mb) 
 1.25810E+01    0.00000E+00
 1.25820E+01    2.38992E-02
 1.26030E+01    5.25248E-01
 1.26240E+01    1.02558E+00
 1.26660E+01    2.02318E+00
 1.27500E+01    4.00620E+00
 1.28328E+01    5.10405E+00
 1.29157E+01    6.19433E+00
 1.30000E+01    7.29396E+00
 1.31530E+01    9.47557E+00
 1.31532E+01    9.47557E+00
 1.31540E+01    9.46086E+00
 1.31780E+01    9.10822E+00
 1.32020E+01    8.75648E+00
 1.32500E+01    8.05568E+00
 1.33750E+01    8.49243E+00
 1.35000E+01    8.92309E+00
 1.35090E+01    8.93941E+00
 1.37250E+01    9.34947E+00
 1.37252E+01    9.34947E+00
 1.37260E+01    9.35089E+00
 1.37500E+01    9.38484E+00
 1.38379E+01    9.47686E+00
 1.40000E+01    9.64393E+00
 1.42500E+01    9.80646E+00
 1.42970E+01    9.82489E+00
 1.42972E+01    9.82489E+00
 1.42980E+01    9.82508E+00
 1.43990E+01    9.84702E+00
 1.45000E+01    9.86766E+00
 1.47500E+01    9.77672E+00
 1.47601E+01    9.77133E+00
 1.48690E+01    9.71202E+00
 1.48692E+01    9.71202E+00
 1.48700E+01    9.71139E+00
 1.49350E+01    9.66970E+00
 1.50000E+01    9.62784E+00
 1.51250E+01    9.56713E+00
 1.52500E+01    9.50634E+00
 1.54410E+01    9.39137E+00
 1.54412E+01    9.39137E+00
 1.54420E+01    9.39065E+00
 1.55000E+01    9.35242E+00
 1.56823E+01    9.22230E+00
 1.57500E+01    9.17403E+00
 1.59580E+01    9.01011E+00
 1.60000E+01    8.97747E+00
 1.60130E+01    8.96643E+00
 1.60132E+01    8.96643E+00
 1.60140E+01    8.96559E+00
 1.60730E+01    8.91359E+00
 1.61320E+01    8.86172E+00
 1.62500E+01    8.75839E+00
 1.65000E+01    8.52981E+00
 1.65850E+01    8.45078E+00
 1.65852E+01    8.45078E+00
 1.65860E+01    8.44997E+00
 1.66000E+01    8.43835E+00
 1.67088E+01    8.33429E+00
 1.67500E+01    8.29499E+00
 1.70000E+01    8.05626E+00
 1.71560E+01    7.88025E+00
 1.71562E+01    7.88025E+00
 1.71570E+01    7.87912E+00
 1.72500E+01    7.77459E+00
 1.75000E+01    7.49373E+00
 1.75800E+01    7.40662E+00
 1.77280E+01    7.23921E+00
 1.77282E+01    7.23921E+00
 1.77290E+01    7.23811E+00
 1.77353E+01    7.23114E+00
 1.77500E+01    7.21491E+00
 1.78750E+01    7.07659E+00
 1.80000E+01    6.93920E+00
 1.82500E+01    6.65174E+00
 1.83000E+01    6.59469E+00
 1.83002E+01    6.59469E+00
 1.83100E+01    6.58338E+00
 1.83575E+01    6.52968E+00
 1.84050E+01    6.47608E+00
 1.85000E+01    6.36923E+00
 1.85933E+01    6.26985E+00
 1.87500E+01    6.09223E+00
 1.87618E+01    6.07928E+00
 1.88720E+01    5.95915E+00
 1.88722E+01    5.95915E+00
 1.88730E+01    5.95808E+00
 1.88888E+01    5.94100E+00
 1.89047E+01    5.92384E+00
 1.89365E+01    5.88951E+00
 1.89682E+01    5.85533E+00
 1.90000E+01    5.82108E+00
 1.90625E+01    5.75280E+00
 1.91250E+01    5.68471E+00
 1.91875E+01    5.61680E+00
 1.92500E+01    5.54908E+00
 1.93470E+01    5.44557E+00
 1.94440E+01    5.34250E+00
 1.94442E+01    5.34250E+00
 1.94450E+01    5.34144E+00
 1.94518E+01    5.33429E+00
 1.94587E+01    5.32702E+00
 1.94725E+01    5.31250E+00
 1.95000E+01    5.28355E+00
 1.95625E+01    5.21859E+00
 1.96250E+01    5.15383E+00
 1.96875E+01    5.08918E+00
 1.97500E+01    5.02473E+00
 1.97812E+01    4.99313E+00
 1.98125E+01    4.96146E+00
 1.98437E+01    4.92993E+00
 1.98750E+01    4.89835E+00
 1.99062E+01    4.86690E+00
 1.99375E+01    4.83537E+00
 1.99687E+01    4.80401E+00
 1.99843E+01    4.78832E+00
 1.99921E+01    4.78049E+00
 2.00000E+01    4.77257E+00
