# n + Li  7 : (n,n'23)  
# jendl4.0   S.CHIBA AND K.SHIBATA             EVAL-DEC84
# uncertainties: n
# # energies =   108
#   E(MeV)       xs(mb) 
 1.31530E+01    0.00000E+00
 1.31540E+01    2.92912E-02
 1.31780E+01    7.31966E-01
 1.32020E+01    1.43404E+00
 1.32500E+01    2.83639E+00
 1.33750E+01    4.27917E+00
 1.35000E+01    5.71548E+00
 1.35090E+01    5.82780E+00
 1.37250E+01    8.51436E+00
 1.37252E+01    8.51436E+00
 1.37260E+01    8.45134E+00
 1.37500E+01    6.94096E+00
 1.38379E+01    7.22678E+00
 1.40000E+01    7.74803E+00
 1.42500E+01    8.28159E+00
 1.42970E+01    8.35789E+00
 1.42972E+01    8.35789E+00
 1.42980E+01    8.35920E+00
 1.43990E+01    8.49035E+00
 1.45000E+01    8.61837E+00
 1.47500E+01    8.74895E+00
 1.47601E+01    8.75109E+00
 1.48690E+01    8.77273E+00
 1.48692E+01    8.77273E+00
 1.48700E+01    8.77276E+00
 1.49350E+01    8.77456E+00
 1.50000E+01    8.77572E+00
 1.51250E+01    8.78391E+00
 1.52500E+01    8.79100E+00
 1.54410E+01    8.76400E+00
 1.54412E+01    8.76400E+00
 1.54420E+01    8.76377E+00
 1.55000E+01    8.75008E+00
 1.56823E+01    8.68878E+00
 1.57500E+01    8.66590E+00
 1.59580E+01    8.56794E+00
 1.60000E+01    8.54851E+00
 1.60130E+01    8.54122E+00
 1.60132E+01    8.54122E+00
 1.60140E+01    8.54066E+00
 1.60730E+01    8.50469E+00
 1.61320E+01    8.46877E+00
 1.62500E+01    8.39708E+00
 1.65000E+01    8.22620E+00
 1.65850E+01    8.16473E+00
 1.65852E+01    8.16473E+00
 1.65860E+01    8.16409E+00
 1.66000E+01    8.15517E+00
 1.67088E+01    8.07210E+00
 1.67500E+01    8.04072E+00
 1.70000E+01    7.84449E+00
 1.71560E+01    7.69268E+00
 1.71562E+01    7.69268E+00
 1.71570E+01    7.69169E+00
 1.72500E+01    7.60038E+00
 1.75000E+01    7.35189E+00
 1.75800E+01    7.27381E+00
 1.77280E+01    7.12291E+00
 1.77282E+01    7.12291E+00
 1.77290E+01    7.12191E+00
 1.77353E+01    7.11561E+00
 1.77500E+01    7.10090E+00
 1.78750E+01    6.97466E+00
 1.80000E+01    6.84915E+00
 1.82500E+01    6.58246E+00
 1.83000E+01    6.52924E+00
 1.83002E+01    6.52924E+00
 1.83100E+01    6.51864E+00
 1.83575E+01    6.46831E+00
 1.84050E+01    6.41807E+00
 1.85000E+01    6.31785E+00
 1.85933E+01    6.22430E+00
 1.87500E+01    6.05623E+00
 1.87618E+01    6.04394E+00
 1.88720E+01    5.92978E+00
 1.88722E+01    5.92978E+00
 1.88730E+01    5.92876E+00
 1.88888E+01    5.91249E+00
 1.89047E+01    5.89613E+00
 1.89365E+01    5.86343E+00
 1.89682E+01    5.83085E+00
 1.90000E+01    5.79820E+00
 1.90625E+01    5.73277E+00
 1.91250E+01    5.66750E+00
 1.91875E+01    5.60238E+00
 1.92500E+01    5.53743E+00
 1.93470E+01    5.43770E+00
 1.94440E+01    5.33834E+00
 1.94442E+01    5.33834E+00
 1.94450E+01    5.33732E+00
 1.94518E+01    5.33041E+00
 1.94587E+01    5.32339E+00
 1.94725E+01    5.30935E+00
 1.95000E+01    5.28138E+00
 1.95625E+01    5.21845E+00
 1.96250E+01    5.15570E+00
 1.96875E+01    5.09303E+00
 1.97500E+01    5.03056E+00
 1.97812E+01    4.99980E+00
 1.98125E+01    4.96899E+00
 1.98437E+01    4.93830E+00
 1.98750E+01    4.90756E+00
 1.99062E+01    4.87694E+00
 1.99375E+01    4.84625E+00
 1.99687E+01    4.81570E+00
 1.99843E+01    4.80043E+00
 1.99921E+01    4.79280E+00
 2.00000E+01    4.78509E+00
