# n + Li  7 : (n,el)    
# jendl4.0   S.CHIBA AND K.SHIBATA             EVAL-DEC84
# uncertainties: n
# # energies =   171
#   E(MeV)       xs(mb) 
 1.00000E-11    4.80828E+03
 1.00000E-07    9.81159E+02
 4.13990E-07    9.75557E+02
 5.31580E-07    9.74297E+02
 6.82560E-07    9.73071E+02
 8.76420E-07    9.72038E+02
 1.12540E-06    9.71690E+02
 1.44500E-06    9.71627E+02
 1.85540E-06    9.71550E+02
 2.37240E-06    9.71450E+02
 3.05900E-06    9.71321E+02
 3.92790E-06    9.71156E+02
 5.04350E-06    9.70944E+02
 6.47600E-06    9.70673E+02
 8.31530E-06    9.70329E+02
 1.06770E-05    9.70201E+02
 1.37100E-05    9.70233E+02
 1.76030E-05    9.70272E+02
 2.26030E-05    9.70274E+02
 2.92030E-05    9.70249E+02
 3.72670E-05    9.70218E+02
 4.78510E-05    9.70177E+02
 6.14420E-05    9.70124E+02
 7.88930E-05    9.70056E+02
 1.01300E-04    9.70024E+02
 1.30070E-04    9.70035E+02
 1.67020E-04    9.70049E+02
 2.14450E-04    9.70067E+02
 2.75360E-04    9.70071E+02
 3.53580E-04    9.70062E+02
 4.54000E-04    9.70051E+02
 5.82950E-04    9.70036E+02
 7.48520E-04    9.70017E+02
 9.61120E-04    9.70003E+02
 1.23410E-03    9.70007E+02
 1.58460E-03    9.70012E+02
 2.03470E-03    9.70016E+02
 2.24870E-03    9.70019E+02
 2.48520E-03    9.70021E+02
 2.61260E-03    9.70022E+02
 2.74650E-03    9.70022E+02
 3.03540E-03    9.70021E+02
 3.35460E-03    9.70020E+02
 3.70740E-03    9.70019E+02
 4.30740E-03    9.70016E+02
 5.53080E-03    9.70012E+02
 7.10170E-03    9.70006E+02
 9.11880E-03    9.70001E+02
 1.17090E-02    9.69994E+02
 1.50340E-02    9.69959E+02
 1.93050E-02    9.69925E+02
 2.18750E-02    9.69904E+02
 2.35790E-02    9.69893E+02
 2.41760E-02    9.69887E+02
 2.47880E-02    9.69878E+02
 2.60580E-02    9.69867E+02
 2.70000E-02    9.69855E+02
 2.85000E-02    9.69831E+02
 3.18280E-02    9.69803E+02
 3.43070E-02    9.69759E+02
 4.08680E-02    9.69700E+02
 4.63090E-02    9.69643E+02
 5.24750E-02    9.69593E+02
 5.65620E-02    9.69521E+02
 6.73790E-02    9.69444E+02
 7.20000E-02    9.69385E+02
 7.95000E-02    9.69333E+02
 8.25000E-02    9.69299E+02
 8.65170E-02    9.69224E+02
 9.80370E-02    9.67060E+02
 1.11090E-01    9.61658E+02
 1.16790E-01    9.60079E+02
 1.22770E-01    9.72131E+02
 1.29070E-01    9.87824E+02
 1.35690E-01    1.00689E+03
 1.42640E-01    1.02561E+03
 1.49960E-01    1.03904E+03
 1.57640E-01    1.05298E+03
 1.65730E-01    1.07131E+03
 1.74220E-01    1.10385E+03
 1.83160E-01    1.20500E+03
 1.92550E-01    1.41677E+03
 2.02420E-01    1.74344E+03
 2.12800E-01    2.23429E+03
 2.23710E-01    3.43524E+03
 2.35180E-01    6.19525E+03
 2.47240E-01    1.05795E+04
 2.73240E-01    6.66257E+03
 2.87250E-01    4.41057E+03
 2.94520E-01    3.74149E+03
 2.97200E-01    3.54649E+03
 2.98500E-01    3.36141E+03
 3.01970E-01    2.46566E+03
 3.33730E-01    1.67975E+03
 3.68830E-01    1.37925E+03
 3.87740E-01    1.29230E+03
 4.07620E-01    1.19029E+03
 4.50490E-01    1.08792E+03
 4.97870E-01    1.04262E+03
 5.23400E-01    1.02472E+03
 5.50230E-01    1.00864E+03
 5.78440E-01    1.00699E+03
 6.08100E-01    1.00714E+03
 6.39280E-01    1.01827E+03
 6.72060E-01    1.04373E+03
 7.06510E-01    1.06140E+03
 7.42740E-01    1.07977E+03
 7.80820E-01    1.12746E+03
 8.20850E-01    1.17921E+03
 8.62940E-01    1.21699E+03
 9.07180E-01    1.27765E+03
 9.61640E-01    1.34286E+03
 1.00260E+00    1.38845E+03
 1.10800E+00    1.44068E+03
 1.16480E+00    1.46751E+03
 1.22460E+00    1.48518E+03
 1.28730E+00    1.50007E+03
 1.35340E+00    1.50940E+03
 1.42270E+00    1.49737E+03
 1.49570E+00    1.47864E+03
 1.57240E+00    1.47258E+03
 1.65300E+00    1.47642E+03
 1.73770E+00    1.48462E+03
 1.82680E+00    1.50611E+03
 1.92050E+00    1.53149E+03
 2.01900E+00    1.55885E+03
 2.12250E+00    1.59858E+03
 2.23130E+00    1.63611E+03
 2.30690E+00    1.65869E+03
 2.34570E+00    1.67017E+03
 2.36530E+00    1.67793E+03
 2.38520E+00    1.69504E+03
 2.46600E+00    1.72623E+03
 2.59240E+00    1.76227E+03
 2.72530E+00    1.79134E+03
 2.86500E+00    1.81231E+03
 3.01190E+00    1.85526E+03
 3.16640E+00    1.87337E+03
 3.32870E+00    1.90218E+03
 3.67880E+00    2.03407E+03
 4.06570E+00    2.26350E+03
 4.49330E+00    2.29362E+03
 4.72370E+00    2.20396E+03
 4.96590E+00    2.04473E+03
 5.22050E+00    1.77174E+03
 5.48810E+00    1.63366E+03
 5.76950E+00    1.65679E+03
 6.06530E+00    1.60416E+03
 6.37630E+00    1.54606E+03
 6.59240E+00    1.50794E+03
 6.70320E+00    1.46447E+03
 7.04690E+00    1.41075E+03
 7.40820E+00    1.36532E+03
 7.78800E+00    1.34052E+03
 8.18730E+00    1.31991E+03
 8.60710E+00    1.29824E+03
 9.04840E+00    1.27546E+03
 9.51230E+00    1.25151E+03
 1.00000E+01    1.22128E+03
 1.05130E+01    1.18301E+03
 1.10520E+01    1.15171E+03
 1.16180E+01    1.12220E+03
 1.22140E+01    1.09254E+03
 1.28400E+01    1.06202E+03
 1.34990E+01    1.03887E+03
 1.38400E+01    1.02514E+03
 1.41910E+01    1.01702E+03
 1.45500E+01    1.01115E+03
 1.49180E+01    1.00051E+03
 1.56830E+01    9.84236E+02
 1.64870E+01    9.65984E+02
