# n + Li  7 : (n,tot)   
# jendl4.0   S.CHIBA AND K.SHIBATA             EVAL-DEC84
# uncertainties: n
# # energies =    69
#   E(MeV)       xs(mb) 
 1.00000E-10    3.42033E+03
 5.00000E-09    1.31148E+03
 1.00000E-08    1.18257E+03
 1.50000E-08    1.12880E+03
 2.00000E-08    1.09885E+03
 2.50000E-08    1.07960E+03
 3.00000E-08    1.06611E+03
 3.50000E-08    1.05450E+03
 4.20000E-08    1.04381E+03
 5.00000E-08    1.03535E+03
 5.80000E-08    1.02854E+03
 6.70000E-08    1.02191E+03
 8.00000E-08    1.01484E+03
 1.00000E-07    1.00709E+03
 1.40000E-07    1.00092E+03
 1.80000E-07    9.97102E+02
 2.20000E-07    9.94612E+02
 2.50000E-07    9.92957E+02
 2.80000E-07    9.91711E+02
 3.00000E-07    9.90888E+02
 3.20000E-07    9.89978E+02
 3.50000E-07    9.88631E+02
 4.00000E-07    9.86668E+02
 5.00000E-07    9.84357E+02
 6.25000E-07    9.82226E+02
 7.80000E-07    9.80858E+02
 8.50000E-07    9.80204E+02
 9.10000E-07    9.79700E+02
 9.50000E-07    9.79447E+02
 9.72000E-07    9.79328E+02
 9.96000E-07    9.79204E+02
 1.02000E-06    9.79078E+02
 1.04500E-06    9.78946E+02
 1.07100E-06    9.78812E+02
 1.09700E-06    9.78678E+02
 1.12300E-06    9.78541E+02
 1.15000E-06    9.78386E+02
 1.30000E-06    9.78183E+02
 1.50000E-06    9.77733E+02
 2.10000E-06    9.77081E+02
 2.60000E-06    9.76387E+02
 3.30000E-06    9.75566E+02
 4.00000E-06    9.74061E+02
 9.87700E-06    9.73035E+02
 1.59680E-05    9.72034E+02
 2.77000E-05    9.71864E+02
 4.80520E-05    9.71806E+02
 7.55014E-05    9.71691E+02
 1.48728E-04    9.71364E+02
 3.67262E-04    9.70587E+02
 9.06898E-04    9.70312E+02
 1.42510E-03    9.70304E+02
 2.23945E-03    9.70292E+02
 3.51910E-03    9.70274E+02
 5.53000E-03    9.70242E+02
 9.11800E-03    9.70189E+02
 1.50300E-02    9.70100E+02
 2.47800E-02    9.69954E+02
 4.08500E-02    9.69714E+02
 6.73400E-02    9.68817E+02
 1.11000E-01    1.01786E+03
 1.83000E-01    4.79562E+03
 3.02000E-01    1.54734E+03
 5.00000E-01    1.08484E+03
 8.21000E-01    1.56168E+03
 1.35300E+00    1.71428E+03
 2.23100E+00    2.01493E+03
 3.67900E+00    2.37769E+03
 6.06500E+00    1.90760E+03
