# n + Li  7 : (n,tot)   
# jendl4.0   S.CHIBA AND K.SHIBATA             EVAL-DEC84
# uncertainties: n
# # energies =   171
#   E(MeV)       xs(mb) 
 1.00000E-11    5.29992E+03
 1.00000E-07    9.97573E+02
 4.13990E-07    9.86162E+02
 5.31580E-07    9.83627E+02
 6.82560E-07    9.81302E+02
 8.76420E-07    9.79324E+02
 1.12540E-06    9.78326E+02
 1.44500E-06    9.77898E+02
 1.85540E-06    9.77359E+02
 2.37240E-06    9.76661E+02
 3.05900E-06    9.75757E+02
 3.92790E-06    9.74636E+02
 5.04350E-06    9.74102E+02
 6.47600E-06    9.73852E+02
 8.31530E-06    9.73531E+02
 1.06770E-05    9.73119E+02
 1.37100E-05    9.72591E+02
 1.76030E-05    9.72003E+02
 2.26030E-05    9.71892E+02
 2.92030E-05    9.71874E+02
 3.72670E-05    9.71851E+02
 4.78510E-05    9.71822E+02
 6.14420E-05    9.71784E+02
 7.88930E-05    9.71735E+02
 1.01300E-04    9.71673E+02
 1.30070E-04    9.71593E+02
 1.67020E-04    9.71491E+02
 2.14450E-04    9.71359E+02
 2.75360E-04    9.71190E+02
 3.53580E-04    9.70973E+02
 4.54000E-04    9.70694E+02
 5.82950E-04    9.70378E+02
 7.48520E-04    9.70315E+02
 9.61120E-04    9.70312E+02
 1.23410E-03    9.70309E+02
 1.58460E-03    9.70304E+02
 2.03470E-03    9.70300E+02
 2.24870E-03    9.70298E+02
 2.48520E-03    9.70296E+02
 2.61260E-03    9.70294E+02
 2.74650E-03    9.70292E+02
 3.03540E-03    9.70288E+02
 3.35460E-03    9.70284E+02
 3.70740E-03    9.70279E+02
 4.30740E-03    9.70269E+02
 5.53080E-03    9.70253E+02
 7.10170E-03    9.70232E+02
 9.11880E-03    9.70206E+02
 1.17090E-02    9.70172E+02
 1.50340E-02    9.70128E+02
 1.93050E-02    9.70088E+02
 2.18750E-02    9.70063E+02
 2.35790E-02    9.70050E+02
 2.41760E-02    9.70043E+02
 2.47880E-02    9.70032E+02
 2.60580E-02    9.70019E+02
 2.70000E-02    9.70005E+02
 2.85000E-02    9.69978E+02
 3.18280E-02    9.69944E+02
 3.43070E-02    9.69893E+02
 4.08680E-02    9.69823E+02
 4.63090E-02    9.69756E+02
 5.24750E-02    9.69697E+02
 5.65620E-02    9.69612E+02
 6.73790E-02    9.69522E+02
 7.20000E-02    9.69452E+02
 7.95000E-02    9.69391E+02
 8.25000E-02    9.69351E+02
 8.65170E-02    9.69262E+02
 9.80370E-02    9.67083E+02
 1.11090E-01    9.61679E+02
 1.16790E-01    9.60100E+02
 1.22770E-01    9.72152E+02
 1.29070E-01    9.87844E+02
 1.35690E-01    1.00691E+03
 1.42640E-01    1.02563E+03
 1.49960E-01    1.03906E+03
 1.57640E-01    1.05300E+03
 1.65730E-01    1.07133E+03
 1.74220E-01    1.10387E+03
 1.83160E-01    1.20502E+03
 1.92550E-01    1.41679E+03
 2.02420E-01    1.74346E+03
 2.12800E-01    2.23431E+03
 2.23710E-01    3.43526E+03
 2.35180E-01    6.19526E+03
 2.47240E-01    1.05795E+04
 2.73240E-01    6.66258E+03
 2.87250E-01    4.41058E+03
 2.94520E-01    3.74150E+03
 2.97200E-01    3.54650E+03
 2.98500E-01    3.36142E+03
 3.01970E-01    2.46567E+03
 3.33730E-01    1.67976E+03
 3.68830E-01    1.37926E+03
 3.87740E-01    1.29231E+03
 4.07620E-01    1.19030E+03
 4.50490E-01    1.08793E+03
 4.97870E-01    1.04263E+03
 5.23400E-01    1.02512E+03
 5.50230E-01    1.02279E+03
 5.78440E-01    1.03087E+03
 6.08100E-01    1.04239E+03
 6.39280E-01    1.06428E+03
 6.72060E-01    1.10042E+03
 7.06510E-01    1.12859E+03
 7.42740E-01    1.16075E+03
 7.80820E-01    1.22731E+03
 8.20850E-01    1.30187E+03
 8.62940E-01    1.36361E+03
 9.07180E-01    1.45078E+03
 9.61640E-01    1.53720E+03
 1.00260E+00    1.60021E+03
 1.10800E+00    1.66408E+03
 1.16480E+00    1.69129E+03
 1.22460E+00    1.70591E+03
 1.28730E+00    1.71574E+03
 1.35340E+00    1.72072E+03
 1.42270E+00    1.70619E+03
 1.49570E+00    1.68536E+03
 1.57240E+00    1.67744E+03
 1.65300E+00    1.67919E+03
 1.73770E+00    1.68496E+03
 1.82680E+00    1.70503E+03
 1.92050E+00    1.73003E+03
 2.01900E+00    1.75704E+03
 2.12250E+00    1.79716E+03
 2.23130E+00    1.83524E+03
 2.30690E+00    1.85745E+03
 2.34570E+00    1.86859E+03
 2.36530E+00    1.87611E+03
 2.38520E+00    1.89385E+03
 2.46600E+00    1.92481E+03
 2.59240E+00    1.96242E+03
 2.72530E+00    1.99407E+03
 2.86500E+00    2.02364E+03
 3.01190E+00    2.07762E+03
 3.16640E+00    2.10825E+03
 3.32870E+00    2.16472E+03
 3.67880E+00    2.32421E+03
 4.06570E+00    2.53486E+03
 4.49330E+00    2.57399E+03
 4.72370E+00    2.50888E+03
 4.96590E+00    2.39369E+03
 5.22050E+00    2.19541E+03
 5.48810E+00    2.17077E+03
 5.76950E+00    2.21558E+03
 6.06530E+00    2.15923E+03
 6.37630E+00    2.09742E+03
 6.59240E+00    2.05851E+03
 6.70320E+00    2.01167E+03
 7.04690E+00    1.95206E+03
 7.40820E+00    1.89819E+03
 7.78800E+00    1.86205E+03
 8.18730E+00    1.82951E+03
 8.60710E+00    1.79530E+03
 9.04840E+00    1.75938E+03
 9.51230E+00    1.72390E+03
 1.00000E+01    1.68898E+03
 1.05130E+01    1.65430E+03
 1.10520E+01    1.61870E+03
 1.16180E+01    1.58296E+03
 1.22140E+01    1.54722E+03
 1.28400E+01    1.51222E+03
 1.34990E+01    1.48619E+03
 1.38400E+01    1.46888E+03
 1.41910E+01    1.45181E+03
 1.45500E+01    1.43480E+03
 1.49180E+01    1.40832E+03
 1.56830E+01    1.37334E+03
 1.64870E+01    1.33634E+03
