# n + Xe  0 : (n,non)
# jendl4.0   S.Kunieda, A.Ichihara, K.Shibata+ EVAL-FEB22
# uncertainties: n
# # energies =   123
#   E(MeV)          xs(mb) 
 1.70000E-03    3.96942E+00
 1.70000E-03    3.96942E+00
 2.00000E-03    2.29399E+01
 2.50000E-03    3.88059E+02
 3.00000E-03    8.96666E+02
 4.00000E-03    7.71201E+02
 5.00000E-03    7.29773E+02
 6.00000E-03    6.62536E+02
 7.00000E-03    6.12381E+02
 8.00000E-03    5.72819E+02
 9.00000E-03    5.40616E+02
 1.00000E-02    5.13349E+02
 1.25000E-02    4.63443E+02
 1.50000E-02    4.22822E+02
 2.00000E-02    3.65974E+02
 2.50000E-02    3.24714E+02
 3.00000E-02    2.94532E+02
 4.00000E-02    2.63542E+02
 5.00000E-02    2.96185E+02
 6.00000E-02    2.97734E+02
 7.00000E-02    2.97593E+02
 8.00000E-02    2.97636E+02
 9.00000E-02    3.20556E+02
 1.00000E-01    3.31087E+02
 1.20000E-01    3.45317E+02
 1.40000E-01    3.54646E+02
 1.60000E-01    3.60831E+02
 1.80000E-01    3.65291E+02
 2.00000E-01    3.68540E+02
 2.50000E-01    3.73705E+02
 3.00000E-01    3.77217E+02
 3.50000E-01    4.07075E+02
 4.00000E-01    4.67658E+02
 4.46403E-01    5.35894E+02
 4.50000E-01    5.48454E+02
 5.00000E-01    6.02249E+02
 5.50000E-01    6.45674E+02
 6.00000E-01    7.56397E+02
 6.50000E-01    7.90054E+02
 7.00000E-01    8.92496E+02
 7.50000E-01    1.02185E+03
 8.00000E-01    1.07913E+03
 8.50000E-01    1.12497E+03
 9.00000E-01    1.19519E+03
 9.50000E-01    1.24454E+03
 9.77120E-01    1.26551E+03
 1.00000E+00    1.28548E+03
 1.04130E+00    1.31166E+03
 1.20000E+00    1.42173E+03
 1.35032E+00    1.51843E+03
 1.40000E+00    1.59136E+03
 1.44083E+00    1.61215E+03
 1.59545E+00    1.71155E+03
 1.60000E+00    1.71470E+03
 1.61606E+00    1.71953E+03
 1.75074E+00    1.78761E+03
 1.77429E+00    1.80322E+03
 1.80000E+00    1.82028E+03
 1.89213E+00    1.85228E+03
 2.00000E+00    1.90992E+03
 2.01230E+00    1.91306E+03
 2.01542E+00    1.91391E+03
 2.14383E+00    1.95632E+03
 2.20000E+00    1.99522E+03
 2.24661E+00    2.00755E+03
 2.27066E+00    2.01451E+03
 2.29077E+00    2.02064E+03
 2.29889E+00    2.02346E+03
 2.38042E+00    2.06656E+03
 2.40000E+00    2.07989E+03
 2.44017E+00    2.09659E+03
 2.44986E+00    2.10225E+03
 2.46319E+00    2.11208E+03
 2.50209E+00    2.14385E+03
 2.52049E+00    2.15944E+03
 2.53051E+00    2.16817E+03
 2.53235E+00    2.16979E+03
 2.54125E+00    2.17762E+03
 2.57079E+00    2.20416E+03
 2.58501E+00    2.21786E+03
 2.60000E+00    2.23298E+03
 2.60354E+00    2.23421E+03
 2.61201E+00    2.23726E+03
 2.61907E+00    2.23998E+03
 2.65376E+00    2.25339E+03
 2.66384E+00    2.25733E+03
 2.80000E+00    2.31207E+03
 3.00000E+00    2.35755E+03
 3.25000E+00    2.40696E+03
 3.50000E+00    2.44427E+03
 3.75000E+00    2.47245E+03
 4.00000E+00    2.48949E+03
 4.25000E+00    2.49533E+03
 4.50000E+00    2.49023E+03
 4.75000E+00    2.47506E+03
 5.00000E+00    2.45208E+03
 5.50000E+00    2.39257E+03
 5.98817E+00    2.33256E+03
 6.00000E+00    2.33111E+03
 6.50000E+00    2.28041E+03
 6.70785E+00    2.26369E+03
 7.00000E+00    2.24410E+03
 7.50000E+00    2.22216E+03
 8.00000E+00    2.21064E+03
 8.23028E+00    2.20711E+03
 8.50000E+00    2.20502E+03
 8.89761E+00    2.20174E+03
 9.00000E+00    2.20158E+03
 9.50000E+00    2.19792E+03
 9.68635E+00    2.19572E+03
 1.00000E+01    2.19235E+03
 1.10000E+01    2.17585E+03
 1.20000E+01    2.15523E+03
 1.30000E+01    2.13498E+03
 1.40000E+01    2.11740E+03
 1.50000E+01    2.10351E+03
 1.52042E+01    2.10135E+03
 1.60000E+01    2.09320E+03
 1.69669E+01    2.08702E+03
 1.70000E+01    2.08681E+03
 1.80000E+01    2.08166E+03
 1.90000E+01    2.07680E+03
 2.00000E+01    2.06949E+03
