# n + Gd  0 : (n,xn)
# jendl4.0   N.Iwamoto,A.Zukeran,K.Shibata     EVAL-Dec09
#
# # energies =   114
#   E(MeV)          xs(mb) 
 8.95455E-02    2.16580E+02
 9.00000E-02    2.25714E+02
 1.00000E-01    2.97488E+02
 1.05000E-01    3.27284E+02
 1.10000E-01    3.67800E+02
 1.20000E-01    4.31533E+02
 1.30000E-01    4.86527E+02
 1.40000E-01    5.34361E+02
 1.50000E-01    5.76576E+02
 1.60000E-01    6.14638E+02
 1.70000E-01    6.49693E+02
 1.80000E-01    6.81854E+02
 1.90000E-01    7.10999E+02
 2.00000E-01    7.37888E+02
 2.25000E-01    7.98669E+02
 2.50000E-01    8.51157E+02
 2.75000E-01    9.08810E+02
 2.90051E-01    9.43100E+02
 3.00000E-01    9.69539E+02
 4.00000E-01    1.15107E+03
 5.00000E-01    1.32903E+03
 5.88498E-01    1.45035E+03
 6.00000E-01    1.46530E+03
 7.00000E-01    1.59368E+03
 8.00000E-01    1.70091E+03
 9.00000E-01    1.79391E+03
 9.71377E-01    1.86524E+03
 9.71378E-01    1.86524E+03
 1.00000E+00    1.90776E+03
 1.05628E+00    1.98243E+03
 1.10000E+00    2.04532E+03
 1.13675E+00    2.08311E+03
 1.16162E+00    2.11525E+03
 1.17575E+00    2.13504E+03
 1.20000E+00    2.16909E+03
 1.25052E+00    2.22922E+03
 1.25608E+00    2.23882E+03
 1.26621E+00    2.25425E+03
 1.28440E+00    2.28423E+03
 1.30000E+00    2.30717E+03
 1.30622E+00    2.31415E+03
 1.32820E+00    2.33753E+03
 1.36419E+00    2.37774E+03
 1.37530E+00    2.38912E+03
 1.40000E+00    2.41806E+03
 1.41724E+00    2.43417E+03
 1.42524E+00    2.44144E+03
 1.47176E+00    2.48089E+03
 1.47801E+00    2.48580E+03
 1.50000E+00    2.50292E+03
 1.51661E+00    2.51344E+03
 1.52036E+00    2.51578E+03
 1.54880E+00    2.53312E+03
 1.55015E+00    2.53404E+03
 1.58707E+00    2.55619E+03
 1.60000E+00    2.56439E+03
 1.60532E+00    2.56711E+03
 1.63304E+00    2.58133E+03
 1.64860E+00    2.58891E+03
 1.65428E+00    2.59158E+03
 1.70000E+00    2.61290E+03
 1.71683E+00    2.61972E+03
 1.71684E+00    2.61973E+03
 1.72629E+00    2.62344E+03
 1.76499E+00    2.63865E+03
 1.77703E+00    2.64321E+03
 1.78255E+00    2.64528E+03
 1.79201E+00    2.64925E+03
 1.80000E+00    2.65260E+03
 1.81036E+00    2.65635E+03
 1.81567E+00    2.65819E+03
 1.83966E+00    2.66639E+03
 1.86029E+00    2.67358E+03
 1.86181E+00    2.67408E+03
 1.90000E+00    2.68643E+03
 2.00000E+00    2.71414E+03
 2.25000E+00    2.76854E+03
 2.50000E+00    2.80997E+03
 2.75000E+00    2.84133E+03
 3.00000E+00    2.86912E+03
 3.50000E+00    2.90270E+03
 4.00000E+00    2.90871E+03
 4.50000E+00    2.89236E+03
 5.00000E+00    2.86646E+03
 5.50000E+00    2.83666E+03
 6.00000E+00    2.80811E+03
 6.50000E+00    2.79473E+03
 7.00000E+00    2.80893E+03
 7.50000E+00    2.90623E+03
 8.00000E+00    3.05096E+03
 8.50000E+00    3.27933E+03
 9.00000E+00    3.55509E+03
 9.50000E+00    3.82837E+03
 1.00000E+01    4.03886E+03
 1.05000E+01    4.18450E+03
 1.10000E+01    4.27847E+03
 1.15000E+01    4.33769E+03
 1.20000E+01    4.37442E+03
 1.25000E+01    4.39619E+03
 1.30000E+01    4.40816E+03
 1.35000E+01    4.41302E+03
 1.40000E+01    4.41303E+03
 1.45000E+01    4.41698E+03
 1.50000E+01    4.43383E+03
 1.55000E+01    4.46897E+03
 1.60000E+01    4.53051E+03
 1.65000E+01    4.61806E+03
 1.70000E+01    4.72983E+03
 1.75000E+01    4.85600E+03
 1.80000E+01    4.98331E+03
 1.85000E+01    5.10903E+03
 1.90000E+01    5.21550E+03
 1.95000E+01    5.30799E+03
 2.00000E+01    5.38934E+03
