# n + Ni 63 : (n,n'15)  
# tendl.2019 A.J. Koning and D. Rochman        EVAL-NOV19
# uncertainties: n
# # energies =    74
#   E(MeV)       xs(mb) 
 2.21850E+00    0.00000E+00
 2.29795E+00    1.46500E-01
 2.33382E+00    2.12641E-01
 2.39082E+00    3.17745E-01
 2.40000E+00    3.34672E-01
 2.55938E+00    8.81990E-01
 2.60000E+00    1.02148E+00
 2.61424E+00    1.08101E+00
 2.71788E+00    1.51429E+00
 2.73982E+00    1.60601E+00
 2.80000E+00    1.85760E+00
 2.85961E+00    2.10780E+00
 2.86723E+00    2.13978E+00
 3.00000E+00    2.69705E+00
 3.00033E+00    2.69804E+00
 3.02776E+00    2.78064E+00
 3.06129E+00    2.88160E+00
 3.07044E+00    2.90915E+00
 3.12429E+00    3.07130E+00
 3.15375E+00    3.16001E+00
 3.20000E+00    3.29927E+00
 3.40000E+00    3.75201E+00
 3.60000E+00    3.99467E+00
 3.80000E+00    4.06370E+00
 4.00000E+00    4.00062E+00
 4.20000E+00    3.85729E+00
 4.40000E+00    3.67425E+00
 4.60000E+00    3.46658E+00
 4.80000E+00    3.24769E+00
 5.00000E+00    3.02554E+00
 5.20000E+00    2.80582E+00
 5.40000E+00    2.58948E+00
 5.60000E+00    2.37797E+00
 5.80000E+00    2.17351E+00
 6.00000E+00    1.97695E+00
 6.20000E+00    1.79030E+00
 6.40000E+00    1.61341E+00
 6.60000E+00    1.44809E+00
 6.80000E+00    1.29478E+00
 7.00000E+00    1.15388E+00
 7.20000E+00    1.02500E+00
 7.40000E+00    9.07173E-01
 7.60000E+00    8.01899E-01
 7.80000E+00    7.06793E-01
 8.00000E+00    6.19537E-01
 8.50000E+00    4.43367E-01
 9.00000E+00    3.16339E-01
 9.50000E+00    2.25201E-01
 1.00000E+01    1.60291E-01
 1.05000E+01    1.14203E-01
 1.10000E+01    8.14527E-02
 1.15000E+01    5.82164E-02
 1.20000E+01    4.17202E-02
 1.25000E+01    2.99930E-02
 1.30000E+01    2.16343E-02
 1.35000E+01    1.56602E-02
 1.40000E+01    1.13681E-02
 1.45000E+01    8.27952E-03
 1.50000E+01    6.04576E-03
 1.60000E+01    3.24255E-03
 1.70000E+01    1.74899E-03
 1.80000E+01    9.47043E-04
 1.90000E+01    5.15903E-04
 2.00000E+01    2.81687E-04
 2.10000E+01    1.54646E-04
 2.20000E+01    8.53879E-05
 2.30000E+01    4.75273E-05
 2.40000E+01    2.65796E-05
 2.50000E+01    1.48359E-05
 2.60000E+01    8.46196E-06
 2.70000E+01    4.87030E-06
 2.80000E+01    2.82560E-06
 2.90000E+01    1.64985E-06
 3.00000E+01    9.69420E-07
