# n + Ni 63 : (n,n'10)  
# tendl.2019 A.J. Koning and D. Rochman        EVAL-NOV19
# uncertainties: n
# # energies =    82
#   E(MeV)       xs(mb) 
 1.68356E+00    0.00000E+00
 1.70388E+00    3.15783E+00
 1.80000E+00    1.80954E+01
 1.81564E+00    1.91783E+01
 1.92944E+00    2.70578E+01
 2.00000E+00    3.19433E+01
 2.18345E+00    4.40625E+01
 2.20000E+00    4.51558E+01
 2.21850E+00    4.60671E+01
 2.29795E+00    4.99808E+01
 2.33382E+00    5.17478E+01
 2.39082E+00    5.45556E+01
 2.40000E+00    5.50078E+01
 2.55938E+00    6.03737E+01
 2.60000E+00    6.17413E+01
 2.61424E+00    6.19074E+01
 2.71788E+00    6.31159E+01
 2.73982E+00    6.33717E+01
 2.80000E+00    6.40735E+01
 2.85961E+00    6.42734E+01
 2.86723E+00    6.42990E+01
 3.00000E+00    6.47443E+01
 3.00033E+00    6.47417E+01
 3.02776E+00    6.45283E+01
 3.06129E+00    6.42673E+01
 3.07044E+00    6.41961E+01
 3.12429E+00    6.37771E+01
 3.15375E+00    6.35478E+01
 3.20000E+00    6.31879E+01
 3.40000E+00    5.97209E+01
 3.60000E+00    5.47849E+01
 3.80000E+00    4.91318E+01
 4.00000E+00    4.31997E+01
 4.20000E+00    3.74800E+01
 4.40000E+00    3.22727E+01
 4.60000E+00    2.76170E+01
 4.80000E+00    2.35311E+01
 5.00000E+00    1.99892E+01
 5.20000E+00    1.69511E+01
 5.40000E+00    1.43500E+01
 5.60000E+00    1.21297E+01
 5.80000E+00    1.02433E+01
 6.00000E+00    8.64188E+00
 6.20000E+00    7.29056E+00
 6.40000E+00    6.14665E+00
 6.60000E+00    5.18265E+00
 6.80000E+00    4.36967E+00
 7.00000E+00    3.68909E+00
 7.20000E+00    3.11343E+00
 7.40000E+00    2.62678E+00
 7.60000E+00    2.22070E+00
 7.80000E+00    1.87734E+00
 8.00000E+00    1.58260E+00
 8.50000E+00    1.03798E+00
 9.00000E+00    6.87073E-01
 9.50000E+00    4.58122E-01
 1.00000E+01    3.07665E-01
 1.05000E+01    2.08021E-01
 1.10000E+01    1.41433E-01
 1.15000E+01    9.67048E-02
 1.20000E+01    6.64851E-02
 1.25000E+01    4.59547E-02
 1.30000E+01    3.19280E-02
 1.35000E+01    2.22961E-02
 1.40000E+01    1.56380E-02
 1.45000E+01    1.10209E-02
 1.50000E+01    7.79989E-03
 1.60000E+01    3.95053E-03
 1.70000E+01    2.02727E-03
 1.80000E+01    1.05200E-03
 1.90000E+01    5.52800E-04
 2.00000E+01    2.92730E-04
 2.10000E+01    1.56524E-04
 2.20000E+01    8.44471E-05
 2.30000E+01    4.60360E-05
 2.40000E+01    2.52605E-05
 2.50000E+01    1.38532E-05
 2.60000E+01    7.77229E-06
 2.70000E+01    4.40481E-06
 2.80000E+01    2.51886E-06
 2.90000E+01    1.45100E-06
 3.00000E+01    8.41910E-07
