# n + Hf179 : (n,el)    
# jendl4.0   K. Shibata (JAEA)                 EVAL-JUL09
# uncertainties: n
# # energies =   171
#   E(MeV)       xs(mb) 
 1.00000E-11    1.05191E+04
 1.00000E-07    6.81995E+03
 4.13990E-07    6.61451E+03
 5.31580E-07    6.50981E+03
 6.82560E-07    6.37964E+03
 8.76420E-07    6.21823E+03
 1.12540E-06    6.01792E+03
 1.44500E-06    5.76712E+03
 1.85540E-06    5.44886E+03
 2.37240E-06    5.02654E+03
 3.05900E-06    4.37912E+03
 3.92790E-06    3.06514E+03
 5.04350E-06    1.03093E+05
 6.47600E-06    8.60603E+03
 8.31530E-06    6.09896E+03
 1.06770E-05    5.13357E+03
 1.37100E-05    4.41185E+03
 1.76030E-05    5.40981E+03
 2.26030E-05    1.90448E+04
 2.92030E-05    6.99619E+04
 3.72670E-05    5.92755E+04
 4.78510E-05    5.99324E+03
 6.14420E-05    9.09522E+03
 7.88930E-05    3.99845E+04
 1.01300E-04    6.55866E+04
 1.30070E-04    2.80481E+04
 1.67020E-04    6.42468E+04
 2.14450E-04    5.85578E+04
 2.75360E-04    2.60037E+04
 3.53580E-04    2.45785E+04
 4.54000E-04    2.32110E+04
 5.82950E-04    2.18974E+04
 7.48520E-04    2.06478E+04
 9.61120E-04    1.95815E+04
 1.23410E-03    1.86444E+04
 1.58460E-03    1.74511E+04
 2.03470E-03    1.66361E+04
 2.24870E-03    1.62919E+04
 2.48520E-03    1.60115E+04
 2.61260E-03    1.58118E+04
 2.74650E-03    1.54925E+04
 3.03540E-03    1.51317E+04
 3.35460E-03    1.48014E+04
 3.70740E-03    1.43575E+04
 4.30740E-03    1.37186E+04
 5.53080E-03    1.29664E+04
 7.10170E-03    1.22765E+04
 9.11880E-03    1.16905E+04
 1.17090E-02    1.12326E+04
 1.50340E-02    1.06670E+04
 1.93050E-02    1.01990E+04
 2.18750E-02    1.00421E+04
 2.35790E-02    9.96184E+03
 2.41760E-02    9.92002E+03
 2.47880E-02    9.85520E+03
 2.60580E-02    9.77852E+03
 2.70000E-02    9.69432E+03
 2.85000E-02    9.54135E+03
 3.18280E-02    9.40501E+03
 3.43070E-02    9.21195E+03
 4.08680E-02    8.99425E+03
 4.63090E-02    8.82155E+03
 5.24750E-02    8.69678E+03
 5.65620E-02    8.53902E+03
 6.73790E-02    8.39394E+03
 7.20000E-02    8.29474E+03
 7.95000E-02    8.21852E+03
 8.25000E-02    8.16880E+03
 8.65170E-02    8.07364E+03
 9.80370E-02    7.95401E+03
 1.11090E-01    7.89486E+03
 1.16790E-01    7.85995E+03
 1.22770E-01    7.81440E+03
 1.29070E-01    7.74407E+03
 1.35690E-01    7.66912E+03
 1.42640E-01    7.59030E+03
 1.49960E-01    7.50744E+03
 1.57640E-01    7.42034E+03
 1.65730E-01    7.32876E+03
 1.74220E-01    7.23249E+03
 1.83160E-01    7.13125E+03
 1.92550E-01    7.02680E+03
 2.02420E-01    6.96347E+03
 2.12800E-01    6.91124E+03
 2.23710E-01    6.83310E+03
 2.35180E-01    6.74843E+03
 2.47240E-01    6.61260E+03
 2.73240E-01    6.44689E+03
 2.87250E-01    6.34217E+03
 2.94520E-01    6.29327E+03
 2.97200E-01    6.27375E+03
 2.98500E-01    6.25353E+03
 3.01970E-01    6.17905E+03
 3.33730E-01    6.00462E+03
 3.68830E-01    5.81291E+03
 3.87740E-01    5.68042E+03
 4.07620E-01    5.55752E+03
 4.50490E-01    5.37531E+03
 4.97870E-01    5.17662E+03
 5.23400E-01    5.08752E+03
 5.50230E-01    4.98914E+03
 5.78440E-01    4.87192E+03
 6.08100E-01    4.78175E+03
 6.39280E-01    4.69856E+03
 6.72060E-01    4.58469E+03
 7.06510E-01    4.48764E+03
 7.42740E-01    4.39683E+03
 7.80820E-01    4.28600E+03
 8.20850E-01    4.22551E+03
 8.62940E-01    4.14934E+03
 9.07180E-01    4.00379E+03
 9.61640E-01    3.85962E+03
 1.00260E+00    3.78180E+03
 1.10800E+00    3.74693E+03
 1.16480E+00    3.72206E+03
 1.22460E+00    3.69830E+03
 1.28730E+00    3.69117E+03
 1.35340E+00    3.68738E+03
 1.42270E+00    3.68339E+03
 1.49570E+00    3.67922E+03
 1.57240E+00    3.67700E+03
 1.65300E+00    3.67616E+03
 1.73770E+00    3.67529E+03
 1.82680E+00    3.67436E+03
 1.92050E+00    3.67339E+03
 2.01900E+00    3.67209E+03
 2.12250E+00    3.66723E+03
 2.23130E+00    3.66213E+03
 2.30690E+00    3.65897E+03
 2.34570E+00    3.65736E+03
 2.36530E+00    3.65627E+03
 2.38520E+00    3.65351E+03
 2.46600E+00    3.64517E+03
 2.59240E+00    3.62359E+03
 2.72530E+00    3.59954E+03
 2.86500E+00    3.57424E+03
 3.01190E+00    3.54038E+03
 3.16640E+00    3.49544E+03
 3.32870E+00    3.42192E+03
 3.67880E+00    3.29920E+03
 4.06570E+00    3.15873E+03
 4.49330E+00    3.04426E+03
 4.72370E+00    2.96282E+03
 4.96590E+00    2.88383E+03
 5.22050E+00    2.80471E+03
 5.48810E+00    2.72552E+03
 5.76950E+00    2.65101E+03
 6.06530E+00    2.58754E+03
 6.37630E+00    2.52733E+03
 6.59240E+00    2.49832E+03
 6.70320E+00    2.46204E+03
 7.04690E+00    2.41358E+03
 7.40820E+00    2.37413E+03
 7.78800E+00    2.34542E+03
 8.18730E+00    2.32808E+03
 8.60710E+00    2.32586E+03
 9.04840E+00    2.33472E+03
 9.51230E+00    2.35493E+03
 1.00000E+01    2.38912E+03
 1.05130E+01    2.43210E+03
 1.10520E+01    2.48205E+03
 1.16180E+01    2.53800E+03
 1.22140E+01    2.59683E+03
 1.28400E+01    2.65691E+03
 1.34990E+01    2.70068E+03
 1.38400E+01    2.73001E+03
 1.41910E+01    2.75643E+03
 1.45500E+01    2.78185E+03
 1.49180E+01    2.81507E+03
 1.56830E+01    2.85208E+03
 1.64870E+01    2.87719E+03
