# n + Hf179 : (n,xp)    
# jendl4.0   K. Shibata (JAEA)                 EVAL-JUL09
# 
# # energies =    68
#   E(MeV)        xs(mb) 
 1.23483E-01    0.00000E+00
 2.00000E-01    0.00000E+00
 2.15549E-01    0.00000E+00
 2.70365E-01    0.00000E+00
 3.00000E-01    0.00000E+00
 3.39622E-01    0.00000E+00
 3.77151E-01    0.00000E+00
 4.00000E-01    0.00000E+00
 4.23268E-01    0.00000E+00
 4.41112E-01    0.00000E+00
 4.79021E-01    0.00000E+00
 4.90459E-01    0.00000E+00
 5.00000E-01    0.00000E+00
 5.21252E-01    0.00000E+00
 5.85513E-01    0.00000E+00
 6.00000E-01    0.00000E+00
 6.17667E-01    0.00000E+00
 6.20233E-01    0.00000E+00
 6.34889E-01    0.00000E+00
 6.68748E-01    0.00000E+00
 6.83348E-01    0.00000E+00
 6.84876E-01    0.00000E+00
 7.00000E-01    0.00000E+00
 7.05008E-01    0.00000E+00
 7.24676E-01    0.00000E+00
 7.36327E-01    0.00000E+00
 7.46897E-01    0.00000E+00
 7.92629E-01    0.00000E+00
 8.00000E-01    0.00000E+00
 8.53172E-01    0.00000E+00
 8.53989E-01    0.00000E+00
 8.65149E-01    0.00000E+00
 8.75130E-01    0.00000E+00
 8.94112E-01    0.00000E+00
 9.00000E-01    0.00000E+00
 9.01453E-01    0.00000E+00
 9.11509E-01    0.00000E+00
 1.00000E+00    0.00000E+00
 1.25000E+00    0.00000E+00
 1.50000E+00    0.00000E+00
 2.00000E+00    0.00000E+00
 2.50000E+00    0.00000E+00
 3.00000E+00    0.00000E+00
 3.50000E+00    0.00000E+00
 4.00000E+00    0.00000E+00
 4.50000E+00    0.00000E+00
 5.00000E+00    1.35900E-05
 5.50000E+00    2.22700E-04
 6.00000E+00    8.70700E-04
 6.50000E+00    2.54700E-03
 7.00000E+00    4.27500E-03
 7.50000E+00    1.57500E-02
 8.00000E+00    1.15300E-02
 8.50000E+00    6.93700E-02
 9.00000E+00    6.67200E-02
 9.50000E+00    2.29400E-01
 1.00000E+01    2.62300E-01
 1.10000E+01    7.51500E-01
 1.20000E+01    1.68514E+00
 1.30000E+01    3.16361E+00
 1.40000E+01    5.26549E+00
 1.45000E+01    6.86978E+00
 1.50000E+01    8.47140E+00
 1.60000E+01    1.20113E+01
 1.70000E+01    1.62030E+01
 1.80000E+01    2.09900E+01
 1.90000E+01    2.62960E+01
 2.00000E+01    3.20300E+01
