# n + C  13 : (n,g)     
# jendl.ad   N.Iwamoto, F.Minato               EVAL-Feb17
# uncertainties: n
# # energies =    69
#   E(MeV)       xs(mb) 
 1.00000E-10    1.04751E+01
 5.00000E-09    2.85200E+00
 1.00000E-08    2.15988E+00
 1.50000E-08    1.81467E+00
 2.00000E-08    1.59655E+00
 2.50000E-08    1.44239E+00
 3.00000E-08    1.32588E+00
 3.50000E-08    1.21905E+00
 4.20000E-08    1.11510E+00
 5.00000E-08    1.02880E+00
 5.80000E-08    9.56678E-01
 6.70000E-08    8.83658E-01
 8.00000E-08    8.00446E-01
 1.00000E-07    6.96558E-01
 1.40000E-07    6.01606E-01
 1.80000E-07    5.37149E-01
 2.20000E-07    4.94166E-01
 2.50000E-07    4.65098E-01
 2.80000E-07    4.44552E-01
 3.00000E-07    4.30306E-01
 3.20000E-07    4.14391E-01
 3.50000E-07    3.91817E-01
 4.00000E-07    3.58020E-01
 5.00000E-07    3.20125E-01
 6.25000E-07    2.86340E-01
 7.80000E-07    2.65673E-01
 8.50000E-07    2.55846E-01
 9.10000E-07    2.48584E-01
 9.50000E-07    2.44285E-01
 9.72000E-07    2.41277E-01
 9.96000E-07    2.38300E-01
 1.02000E-06    2.35438E-01
 1.04500E-06    2.32616E-01
 1.07100E-06    2.29844E-01
 1.09700E-06    2.27182E-01
 1.12300E-06    2.24485E-01
 1.15000E-06    2.16281E-01
 1.30000E-06    2.02328E-01
 1.50000E-06    1.80070E-01
 2.10000E-06    1.56583E-01
 2.60000E-06    1.39838E-01
 3.30000E-06    1.25882E-01
 4.00000E-06    9.62622E-02
 9.87700E-06    6.76672E-02
 1.59680E-05    5.24435E-02
 2.77000E-05    3.99163E-02
 4.80520E-05    3.11020E-02
 7.55014E-05    2.37440E-02
 1.48728E-04    1.64725E-02
 3.67262E-04    1.12516E-02
 9.06898E-04    8.89603E-03
 1.42510E-03    7.98602E-03
 2.23945E-03    7.49600E-03
 3.51910E-03    7.41239E-03
 5.53000E-03    7.79081E-03
 9.11800E-03    8.62508E-03
 1.50300E-02    1.01169E-02
 2.47800E-02    1.24355E-02
 4.08500E-02    1.61354E-02
 6.73400E-02    2.41038E-02
 1.11000E-01    2.37753E-01
 1.83000E-01    1.35673E-02
 3.02000E-01    2.17970E-02
 5.00000E-01    2.70251E-02
 8.21000E-01    3.06082E-02
 1.35300E+00    4.53260E-02
 2.23100E+00    4.23387E-02
 3.67900E+00    4.12645E-02
 6.06500E+00    4.17526E-02
