# n + In  0 : (n,xd)
# jendl.ad   kunieda                           EVAL-Mar14
#
# # energies =    75
#   E(MeV)          xs(mb) 
 1.50000E-01    0.00000E+00
 2.00000E-01    0.00000E+00
 3.00000E-01    0.00000E+00
 3.95190E-01    0.00000E+00
 4.00000E-01    0.00000E+00
 5.00000E-01    0.00000E+00
 6.00000E-01    0.00000E+00
 6.52538E-01    0.00000E+00
 7.00000E-01    0.00000E+00
 8.00000E-01    0.00000E+00
 9.00000E-01    0.00000E+00
 1.00000E+00    0.00000E+00
 1.03340E+00    0.00000E+00
 1.03891E+00    0.00000E+00
 1.07367E+00    0.00000E+00
 1.11624E+00    0.00000E+00
 1.14157E+00    0.00000E+00
 1.18358E+00    0.00000E+00
 1.20000E+00    0.00000E+00
 1.20171E+00    0.00000E+00
 1.35681E+00    0.00000E+00
 1.36307E+00    0.00000E+00
 1.39304E+00    0.00000E+00
 1.39305E+00    0.00000E+00
 1.40000E+00    0.00000E+00
 1.46598E+00    0.00000E+00
 1.48492E+00    0.00000E+00
 1.50971E+00    0.00000E+00
 1.51744E+00    0.00000E+00
 1.52288E+00    0.00000E+00
 1.54982E+00    0.00000E+00
 1.56586E+00    0.00000E+00
 1.56587E+00    0.00000E+00
 1.58100E+00    0.00000E+00
 1.60000E+00    0.00000E+00
 1.80000E+00    0.00000E+00
 2.00000E+00    0.00000E+00
 2.20000E+00    0.00000E+00
 2.40000E+00    0.00000E+00
 2.70000E+00    0.00000E+00
 3.00000E+00    0.00000E+00
 3.50000E+00    0.00000E+00
 4.00000E+00    1.43353E-18
 4.50000E+00    7.82921E-18
 5.00000E+00    4.11841E-14
 5.50000E+00    3.17492E-13
 6.00000E+00    5.67281E-11
 6.50000E+00    2.02822E-09
 7.00000E+00    2.63855E-08
 7.50000E+00    1.99786E-07
 8.00000E+00    1.08005E-06
 8.50000E+00    5.45066E-06
 9.00000E+00    3.80148E-05
 9.50000E+00    1.74797E-04
 1.00000E+01    1.26328E-03
 1.05000E+01    5.29488E-03
 1.10000E+01    1.92176E-02
 1.15000E+01    6.11624E-02
 1.20000E+01    1.26261E-01
 1.25000E+01    2.82633E-01
 1.30000E+01    5.21285E-01
 1.35000E+01    9.30748E-01
 1.40000E+01    1.50653E+00
 1.45000E+01    2.07160E+00
 1.50000E+01    2.75494E+00
 1.55000E+01    3.55730E+00
 1.60000E+01    4.47733E+00
 1.65000E+01    5.51216E+00
 1.70000E+01    6.31374E+00
 1.75000E+01    7.52388E+00
 1.80000E+01    8.82071E+00
 1.85000E+01    9.55609E+00
 1.90000E+01    1.05912E+01
 1.95000E+01    1.20959E+01
 2.00000E+01    1.24559E+01
