# n + La139 : (n,g)     
# jendl4.0   JNDC FP NUCLEAR DATA W.G.         EVAL-MAR90
# uncertainties: n
# # energies =    69
#   E(MeV)       xs(mb) 
 1.00000E-10    6.24532E+04
 5.00000E-09    1.70011E+04
 1.00000E-08    1.28734E+04
 1.50000E-08    1.08139E+04
 2.00000E-08    9.51236E+03
 2.50000E-08    8.59232E+03
 3.00000E-08    7.89685E+03
 3.50000E-08    7.25895E+03
 4.20000E-08    6.63770E+03
 5.00000E-08    6.12071E+03
 5.80000E-08    5.68700E+03
 6.70000E-08    5.24621E+03
 8.00000E-08    4.74461E+03
 1.00000E-07    4.12361E+03
 1.40000E-07    3.55333E+03
 1.80000E-07    3.16877E+03
 2.20000E-07    2.91503E+03
 2.50000E-07    2.74208E+03
 2.80000E-07    2.61800E+03
 3.00000E-07    2.53095E+03
 3.20000E-07    2.43427E+03
 3.50000E-07    2.30129E+03
 4.00000E-07    2.10718E+03
 5.00000E-07    1.91100E+03
 6.25000E-07    2.90748E+03
 7.80000E-07    2.46216E+03
 8.50000E-07    1.62106E+03
 9.10000E-07    1.49721E+03
 9.50000E-07    1.45099E+03
 9.72000E-07    1.42327E+03
 9.96000E-07    1.39773E+03
 1.02000E-06    1.37436E+03
 1.04500E-06    1.35206E+03
 1.07100E-06    1.33105E+03
 1.09700E-06    1.31133E+03
 1.12300E-06    1.29243E+03
 1.15000E-06    1.23767E+03
 1.30000E-06    1.14617E+03
 1.50000E-06    1.00019E+03
 2.10000E-06    8.51198E+02
 2.60000E-06    7.43036E+02
 3.30000E-06    6.49552E+02
 4.00000E-06    4.53088E+02
 9.87700E-06    2.58512E+02
 1.59680E-05    1.57627E+02
 2.77000E-05    8.76760E+01
 4.80520E-05    1.61515E+04
 7.55014E-05    5.62762E+01
 1.48728E-04    2.22583E+01
 3.67262E-04    1.76155E+02
 9.06898E-04    3.73832E+02
 1.42510E-03    1.77181E+02
 2.23945E-03    1.68147E+02
 3.51910E-03    1.17903E+02
 5.53000E-03    1.08543E+02
 9.11800E-03    6.39264E+01
 1.50300E-02    5.24945E+01
 2.47800E-02    3.65315E+01
 4.08500E-02    2.61561E+01
 6.73400E-02    1.95204E+01
 1.11000E-01    1.49806E+01
 1.83000E-01    1.06091E+01
 3.02000E-01    8.89979E+00
 5.00000E-01    8.68705E+00
 8.21000E-01    9.87129E+00
 1.35300E+00    8.02059E+00
 2.23100E+00    3.29939E+00
 3.67900E+00    9.59553E-01
 6.06500E+00    3.08590E-01
