# n + Hg200 : (n,n'10)  
# jeff3.3    A.J. Koning and D. Rochman        EVAL-DEC15
# uncertainties: n
# # energies =    82
#   E(MeV)       xs(mb) 
 1.63912E+00    0.00000E+00
 1.64972E+00    2.79614E+00
 1.66737E+00    7.45200E+00
 1.71532E+00    2.01006E+01
 1.72697E+00    2.31738E+01
 1.73966E+00    2.65213E+01
 1.74309E+00    2.74260E+01
 1.78452E+00    3.83548E+01
 1.80000E+00    4.24382E+01
 1.85509E+00    4.61799E+01
 1.86082E+00    4.65691E+01
 1.86615E+00    4.69311E+01
 1.89235E+00    4.87106E+01
 1.97249E+00    5.41536E+01
 1.98222E+00    5.48145E+01
 1.98429E+00    5.49551E+01
 2.00000E+00    5.60221E+01
 2.05923E+00    5.58390E+01
 2.07165E+00    5.58006E+01
 2.08479E+00    5.57600E+01
 2.12502E+00    5.56356E+01
 2.12722E+00    5.56288E+01
 2.13758E+00    5.55968E+01
 2.20000E+00    5.54038E+01
 2.40000E+00    4.68549E+01
 2.60000E+00    3.76757E+01
 2.80000E+00    2.99972E+01
 3.00000E+00    2.40308E+01
 3.20000E+00    1.94269E+01
 3.40000E+00    1.58008E+01
 3.60000E+00    1.28700E+01
 3.80000E+00    1.04527E+01
 4.00000E+00    8.44604E+00
 4.20000E+00    6.78591E+00
 4.40000E+00    5.41978E+00
 4.60000E+00    4.30761E+00
 4.80000E+00    3.41008E+00
 5.00000E+00    2.69029E+00
 5.20000E+00    2.11613E+00
 5.40000E+00    1.66023E+00
 5.60000E+00    1.29455E+00
 5.80000E+00    1.01009E+00
 6.00000E+00    7.87491E-01
 6.20000E+00    6.13896E-01
 6.40000E+00    4.77101E-01
 6.60000E+00    3.71774E-01
 6.80000E+00    2.88704E-01
 7.00000E+00    2.23902E-01
 7.20000E+00    1.73769E-01
 7.40000E+00    1.34403E-01
 7.60000E+00    1.04287E-01
 7.80000E+00    8.08147E-02
 8.00000E+00    6.26761E-02
 8.50000E+00    3.34211E-02
 9.00000E+00    1.79503E-02
 9.50000E+00    9.71281E-03
 1.00000E+01    5.29515E-03
 1.05000E+01    2.90567E-03
 1.10000E+01    1.60293E-03
 1.15000E+01    8.88159E-04
 1.20000E+01    4.94251E-04
 1.25000E+01    2.76374E-04
 1.30000E+01    1.55361E-04
 1.35000E+01    8.78471E-05
 1.40000E+01    4.99835E-05
 1.45000E+01    2.86243E-05
 1.50000E+01    1.64967E-05
 1.60000E+01    5.57928E-06
 1.70000E+01    1.91466E-06
 1.80000E+01    6.74470E-07
 1.90000E+01    2.42110E-07
 2.00000E+01    8.85490E-08
 2.10000E+01    3.30140E-08
 2.20000E+01    1.25280E-08
 2.30000E+01    4.84300E-09
 2.40000E+01    1.90060E-09
 2.50000E+01    7.58060E-10
 2.60000E+01    3.06730E-10
 2.70000E+01    1.25930E-10
 2.80000E+01    5.23690E-11
 2.90000E+01    2.20160E-11
 3.00000E+01    9.36360E-12
