# n + Hg200 : (n,n'20)  
# jeff3.3    A.J. Koning and D. Rochman        EVAL-DEC15
# uncertainties: n
# # energies =    71
#   E(MeV)       xs(mb) 
 1.86615E+00    0.00000E+00
 1.89235E+00    2.02815E+00
 1.97249E+00    8.23183E+00
 1.98222E+00    8.98505E+00
 1.98429E+00    9.14528E+00
 2.00000E+00    1.03614E+01
 2.05923E+00    1.15816E+01
 2.07165E+00    1.18374E+01
 2.08479E+00    1.21081E+01
 2.12502E+00    1.29369E+01
 2.12722E+00    1.29822E+01
 2.13758E+00    1.31956E+01
 2.20000E+00    1.44815E+01
 2.40000E+00    1.38962E+01
 2.60000E+00    1.18388E+01
 2.80000E+00    9.71502E+00
 3.00000E+00    7.93088E+00
 3.20000E+00    6.50860E+00
 3.40000E+00    5.37039E+00
 3.60000E+00    4.43642E+00
 3.80000E+00    3.64944E+00
 4.00000E+00    2.97660E+00
 4.20000E+00    2.40458E+00
 4.40000E+00    1.92337E+00
 4.60000E+00    1.52598E+00
 4.80000E+00    1.20350E+00
 5.00000E+00    9.45264E-01
 5.20000E+00    7.40464E-01
 5.40000E+00    5.79069E-01
 5.60000E+00    4.50615E-01
 5.80000E+00    3.51344E-01
 6.00000E+00    2.74100E-01
 6.20000E+00    2.14101E-01
 6.40000E+00    1.66972E-01
 6.60000E+00    1.30556E-01
 6.80000E+00    1.01851E-01
 7.00000E+00    7.93717E-02
 7.20000E+00    6.18476E-02
 7.40000E+00    4.80322E-02
 7.60000E+00    3.74000E-02
 7.80000E+00    2.90584E-02
 8.00000E+00    2.25840E-02
 8.50000E+00    1.20908E-02
 9.00000E+00    6.51489E-03
 9.50000E+00    3.53684E-03
 1.00000E+01    1.93420E-03
 1.05000E+01    1.06352E-03
 1.10000E+01    5.86749E-04
 1.15000E+01    3.24428E-04
 1.20000E+01    1.79824E-04
 1.25000E+01    1.00031E-04
 1.30000E+01    5.59121E-05
 1.35000E+01    3.14426E-05
 1.40000E+01    1.78072E-05
 1.45000E+01    1.01628E-05
 1.50000E+01    5.84528E-06
 1.60000E+01    1.97633E-06
 1.70000E+01    6.79590E-07
 1.80000E+01    2.39580E-07
 1.90000E+01    8.58190E-08
 2.00000E+01    3.12530E-08
 2.10000E+01    1.16010E-08
 2.20000E+01    4.39140E-09
 2.30000E+01    1.69780E-09
 2.40000E+01    6.67910E-10
 2.50000E+01    2.67300E-10
 2.60000E+01    1.08470E-10
 2.70000E+01    4.45930E-11
 2.80000E+01    1.85380E-11
 2.90000E+01    7.78230E-12
 3.00000E+01    3.30520E-12
