# n + Hg200 : (n,n'12)  
# jeff3.3    A.J. Koning and D. Rochman        EVAL-DEC15
# uncertainties: n
# # energies =    80
#   E(MeV)       xs(mb) 
 1.66737E+00    0.00000E+00
 1.71532E+00    1.35068E+01
 1.72697E+00    1.67884E+01
 1.73966E+00    2.03630E+01
 1.74309E+00    2.13292E+01
 1.78452E+00    3.29994E+01
 1.80000E+00    3.73598E+01
 1.85509E+00    4.45432E+01
 1.86082E+00    4.52904E+01
 1.86615E+00    4.59853E+01
 1.89235E+00    4.94016E+01
 1.97249E+00    5.98514E+01
 1.98222E+00    6.11201E+01
 1.98429E+00    6.13900E+01
 2.00000E+00    6.34385E+01
 2.05923E+00    6.59716E+01
 2.07165E+00    6.65028E+01
 2.08479E+00    6.70647E+01
 2.12502E+00    6.87852E+01
 2.12722E+00    6.88793E+01
 2.13758E+00    6.93224E+01
 2.20000E+00    7.19919E+01
 2.40000E+00    6.47122E+01
 2.60000E+00    5.32972E+01
 2.80000E+00    4.29504E+01
 3.00000E+00    3.48015E+01
 3.20000E+00    2.85511E+01
 3.40000E+00    2.36481E+01
 3.60000E+00    1.96492E+01
 3.80000E+00    1.62719E+01
 4.00000E+00    1.33817E+01
 4.20000E+00    1.09155E+01
 4.40000E+00    8.82874E+00
 4.60000E+00    7.08994E+00
 4.80000E+00    5.65951E+00
 5.00000E+00    4.49395E+00
 5.20000E+00    3.55209E+00
 5.40000E+00    2.79654E+00
 5.60000E+00    2.18581E+00
 5.80000E+00    1.70837E+00
 6.00000E+00    1.33367E+00
 6.20000E+00    1.04101E+00
 6.40000E+00    8.10335E-01
 6.60000E+00    6.32608E-01
 6.80000E+00    4.92529E-01
 7.00000E+00    3.83139E-01
 7.20000E+00    2.98392E-01
 7.40000E+00    2.31720E-01
 7.60000E+00    1.80579E-01
 7.80000E+00    1.40557E-01
 8.00000E+00    1.09519E-01
 8.50000E+00    5.90650E-02
 9.00000E+00    3.20460E-02
 9.50000E+00    1.74823E-02
 1.00000E+01    9.59032E-03
 1.05000E+01    5.28795E-03
 1.10000E+01    2.92918E-03
 1.15000E+01    1.62970E-03
 1.20000E+01    9.11020E-04
 1.25000E+01    5.12045E-04
 1.30000E+01    2.89502E-04
 1.35000E+01    1.64719E-04
 1.40000E+01    9.43314E-05
 1.45000E+01    5.43727E-05
 1.50000E+01    3.15334E-05
 1.60000E+01    1.07872E-05
 1.70000E+01    3.73729E-06
 1.80000E+01    1.32654E-06
 1.90000E+01    4.78980E-07
 2.00000E+01    1.76000E-07
 2.10000E+01    6.58790E-08
 2.20000E+01    2.50970E-08
 2.30000E+01    9.73950E-09
 2.40000E+01    3.83660E-09
 2.50000E+01    1.53520E-09
 2.60000E+01    6.22870E-10
 2.70000E+01    2.56330E-10
 2.80000E+01    1.06850E-10
 2.90000E+01    4.50330E-11
 3.00000E+01    1.92060E-11
