# n + Hg200 : (n,n'06)  
# jeff3.3    A.J. Koning and D. Rochman        EVAL-DEC15
# uncertainties: n
# # energies =    87
#   E(MeV)       xs(mb) 
 1.57820E+00    0.00000E+00
 1.58160E+00    3.01637E+00
 1.60000E+00    1.93405E+01
 1.60146E+00    1.96107E+01
 1.63702E+00    2.61910E+01
 1.63912E+00    2.65796E+01
 1.64972E+00    2.85411E+01
 1.66737E+00    3.18072E+01
 1.71532E+00    4.06803E+01
 1.72697E+00    4.28362E+01
 1.73966E+00    4.51845E+01
 1.74309E+00    4.58192E+01
 1.78452E+00    5.34858E+01
 1.80000E+00    5.63503E+01
 1.85509E+00    5.86882E+01
 1.86082E+00    5.89314E+01
 1.86615E+00    5.91576E+01
 1.89235E+00    6.02694E+01
 1.97249E+00    6.36704E+01
 1.98222E+00    6.40834E+01
 1.98429E+00    6.41712E+01
 2.00000E+00    6.48379E+01
 2.05923E+00    6.36846E+01
 2.07165E+00    6.34427E+01
 2.08479E+00    6.31869E+01
 2.12502E+00    6.24035E+01
 2.12722E+00    6.23607E+01
 2.13758E+00    6.21590E+01
 2.20000E+00    6.09435E+01
 2.40000E+00    5.03626E+01
 2.60000E+00    4.00474E+01
 2.80000E+00    3.17074E+01
 3.00000E+00    2.53165E+01
 3.20000E+00    2.04062E+01
 3.40000E+00    1.65393E+01
 3.60000E+00    1.34141E+01
 3.80000E+00    1.08445E+01
 4.00000E+00    8.72142E+00
 4.20000E+00    6.97648E+00
 4.40000E+00    5.55134E+00
 4.60000E+00    4.39898E+00
 4.80000E+00    3.47412E+00
 5.00000E+00    2.73559E+00
 5.20000E+00    2.14846E+00
 5.40000E+00    1.68352E+00
 5.60000E+00    1.31141E+00
 5.80000E+00    1.02238E+00
 6.00000E+00    7.96443E-01
 6.20000E+00    6.20290E-01
 6.40000E+00    4.81695E-01
 6.60000E+00    3.75087E-01
 6.80000E+00    2.90909E-01
 7.00000E+00    2.25423E-01
 7.20000E+00    1.74793E-01
 7.40000E+00    1.35092E-01
 7.60000E+00    1.04748E-01
 7.80000E+00    8.11492E-02
 8.00000E+00    6.29087E-02
 8.50000E+00    3.35375E-02
 9.00000E+00    1.80169E-02
 9.50000E+00    9.75209E-03
 1.00000E+01    5.31766E-03
 1.05000E+01    2.91796E-03
 1.10000E+01    1.60934E-03
 1.15000E+01    8.91406E-04
 1.20000E+01    4.95877E-04
 1.25000E+01    2.77192E-04
 1.30000E+01    1.55781E-04
 1.35000E+01    8.80688E-05
 1.40000E+01    5.01040E-05
 1.45000E+01    2.86914E-05
 1.50000E+01    1.65347E-05
 1.60000E+01    5.59152E-06
 1.70000E+01    1.91851E-06
 1.80000E+01    6.75680E-07
 1.90000E+01    2.42500E-07
 2.00000E+01    8.86830E-08
 2.10000E+01    3.30620E-08
 2.20000E+01    1.25460E-08
 2.30000E+01    4.84990E-09
 2.40000E+01    1.90330E-09
 2.50000E+01    7.59100E-10
 2.60000E+01    3.07130E-10
 2.70000E+01    1.26080E-10
 2.80000E+01    5.24260E-11
 2.90000E+01    2.20380E-11
 3.00000E+01    9.37260E-12
