# n + Hg200 : (n,xa)    
# jeff3.3    A.J. Koning and D. Rochman        EVAL-DEC15
# 
# # energies =   131
#   E(MeV)        xs(mb) 
 3.69799E-01    1.84003E-09
 4.00000E-01    1.84060E-09
 5.00000E-01    2.14490E-09
 6.00000E-01    3.70530E-09
 7.00000E-01    5.61224E-09
 8.00000E-01    8.27320E-09
 9.00000E-01    1.16610E-08
 9.52018E-01    1.41251E-08
 1.00000E+00    1.63980E-08
 1.03454E+00    2.05785E-08
 1.20000E+00    4.06050E-08
 1.26042E+00    5.14619E-08
 1.40000E+00    7.65430E-08
 1.52282E+00    1.28420E-07
 1.57820E+00    1.51812E-07
 1.58160E+00    1.53248E-07
 1.60000E+00    1.61020E-07
 1.60146E+00    1.61690E-07
 1.63702E+00    1.78003E-07
 1.63912E+00    1.78966E-07
 1.64972E+00    1.83829E-07
 1.66737E+00    1.91926E-07
 1.71532E+00    2.13923E-07
 1.72697E+00    2.19267E-07
 1.73966E+00    2.25089E-07
 1.74309E+00    2.26663E-07
 1.78452E+00    2.45669E-07
 1.80000E+00    2.52770E-07
 1.85509E+00    2.86901E-07
 1.86082E+00    2.90451E-07
 1.86615E+00    2.93753E-07
 1.89235E+00    3.09985E-07
 1.97249E+00    3.59636E-07
 1.98222E+00    3.65664E-07
 1.98429E+00    3.66947E-07
 2.00000E+00    3.76680E-07
 2.05923E+00    4.57778E-07
 2.07165E+00    4.74783E-07
 2.08479E+00    4.92774E-07
 2.12502E+00    5.47857E-07
 2.12722E+00    5.50869E-07
 2.13758E+00    5.65054E-07
 2.20000E+00    6.50520E-07
 2.40000E+00    9.38990E-07
 2.60000E+00    1.35062E-06
 2.80000E+00    1.93127E-06
 3.00000E+00    2.65354E-06
 3.20000E+00    3.85299E-06
 3.40000E+00    5.37167E-06
 3.60000E+00    7.51403E-06
 3.80000E+00    1.04659E-05
 4.00000E+00    1.41665E-05
 4.20000E+00    1.94910E-05
 4.40000E+00    2.61108E-05
 4.60000E+00    3.47913E-05
 4.80000E+00    4.60462E-05
 5.00000E+00    5.96708E-05
 5.20000E+00    7.76484E-05
 5.40000E+00    9.90968E-05
 5.60000E+00    1.25130E-04
 5.80000E+00    1.57225E-04
 6.00000E+00    1.94741E-04
 6.20000E+00    2.41994E-04
 6.40000E+00    2.95869E-04
 6.60000E+00    3.61510E-04
 6.80000E+00    4.39760E-04
 7.00000E+00    5.29953E-04
 7.20000E+00    6.41745E-04
 7.40000E+00    7.66037E-04
 7.60000E+00    9.14425E-04
 7.80000E+00    1.09222E-03
 8.00000E+00    1.29080E-03
 8.50000E+00    1.95352E-03
 9.00000E+00    2.89119E-03
 9.50000E+00    4.19644E-03
 1.00000E+01    5.98674E-03
 1.05000E+01    8.45344E-03
 1.10000E+01    1.18874E-02
 1.15000E+01    1.66940E-02
 1.20000E+01    2.35063E-02
 1.25000E+01    3.32786E-02
 1.30000E+01    4.92725E-02
 1.35000E+01    6.96126E-02
 1.40000E+01    9.43586E-02
 1.45000E+01    1.46720E-01
 1.50000E+01    1.82190E-01
 1.60000E+01    3.35021E-01
 1.70000E+01    5.78132E-01
 1.80000E+01    9.38927E-01
 1.90000E+01    1.45004E+00
 2.00000E+01    2.16034E+00
 2.10000E+01    3.16074E+00
 2.20000E+01    4.59469E+00
 2.30000E+01    6.61894E+00
 2.40000E+01    9.12825E+00
 2.50000E+01    1.07972E+01
 2.60000E+01    1.24193E+01
 2.70000E+01    1.26582E+01
 2.80000E+01    1.18106E+01
 2.90000E+01    1.17717E+01
 3.00000E+01    1.18509E+01
 3.00000E+01    1.18249E+01
 3.20000E+01    1.22392E+01
 3.40000E+01    1.24428E+01
 3.60000E+01    1.31505E+01
 3.80000E+01    1.38082E+01
 4.00000E+01    1.44117E+01
 4.20000E+01    1.49627E+01
 4.40000E+01    1.54602E+01
 4.60000E+01    1.59127E+01
 4.80000E+01    1.63291E+01
 5.00000E+01    1.67220E+01
 5.20000E+01    1.70903E+01
 5.40000E+01    1.74509E+01
 5.60000E+01    1.78152E+01
 5.80000E+01    1.81883E+01
 6.00000E+01    1.85612E+01
 6.50000E+01    1.95735E+01
 7.00000E+01    2.06870E+01
 7.50000E+01    2.20327E+01
 8.00000E+01    2.33415E+01
 9.00000E+01    2.68247E+01
 1.00000E+02    3.22207E+01
 1.10000E+02    3.75492E+01
 1.20000E+02    4.53022E+01
 1.30000E+02    5.46612E+01
 1.40000E+02    6.61623E+01
 1.50000E+02    8.13392E+01
 1.60000E+02    1.04249E+02
 1.80000E+02    1.34468E+02
 2.00000E+02    1.81299E+02
