# n + Hg200 : (n,n'18)  
# jeff3.3    A.J. Koning and D. Rochman        EVAL-DEC15
# uncertainties: n
# # energies =    73
#   E(MeV)       xs(mb) 
 1.85509E+00    0.00000E+00
 1.86082E+00    1.05739E+00
 1.86615E+00    2.04095E+00
 1.89235E+00    6.87575E+00
 1.97249E+00    2.16643E+01
 1.98222E+00    2.34599E+01
 1.98429E+00    2.38419E+01
 2.00000E+00    2.67409E+01
 2.05923E+00    3.24631E+01
 2.07165E+00    3.36630E+01
 2.08479E+00    3.49325E+01
 2.12502E+00    3.88191E+01
 2.12722E+00    3.90316E+01
 2.13758E+00    4.00325E+01
 2.20000E+00    4.60629E+01
 2.40000E+00    4.81728E+01
 2.60000E+00    4.24412E+01
 2.80000E+00    3.52926E+01
 3.00000E+00    2.90260E+01
 3.20000E+00    2.40233E+01
 3.40000E+00    2.00757E+01
 3.60000E+00    1.68801E+01
 3.80000E+00    1.41921E+01
 4.00000E+00    1.18629E+01
 4.20000E+00    9.83230E+00
 4.40000E+00    8.06766E+00
 4.60000E+00    6.55736E+00
 4.80000E+00    5.28621E+00
 5.00000E+00    4.23144E+00
 5.20000E+00    3.36681E+00
 5.40000E+00    2.66516E+00
 5.60000E+00    2.09239E+00
 5.80000E+00    1.64121E+00
 6.00000E+00    1.28510E+00
 6.20000E+00    1.00586E+00
 6.40000E+00    7.85186E-01
 6.60000E+00    6.14446E-01
 6.80000E+00    4.79723E-01
 7.00000E+00    3.74273E-01
 7.20000E+00    2.92184E-01
 7.40000E+00    2.27449E-01
 7.60000E+00    1.77630E-01
 7.80000E+00    1.38470E-01
 8.00000E+00    1.08005E-01
 8.50000E+00    5.83264E-02
 9.00000E+00    3.16434E-02
 9.50000E+00    1.72535E-02
 1.00000E+01    9.46163E-03
 1.05000E+01    5.21789E-03
 1.10000E+01    2.89229E-03
 1.15000E+01    1.61069E-03
 1.20000E+01    9.01299E-04
 1.25000E+01    5.07036E-04
 1.30000E+01    2.86874E-04
 1.35000E+01    1.63308E-04
 1.40000E+01    9.35556E-05
 1.45000E+01    5.39377E-05
 1.50000E+01    3.12866E-05
 1.60000E+01    1.07071E-05
 1.70000E+01    3.71194E-06
 1.80000E+01    1.31857E-06
 1.90000E+01    4.76430E-07
 2.00000E+01    1.75150E-07
 2.10000E+01    6.55780E-08
 2.20000E+01    2.49850E-08
 2.30000E+01    9.69650E-09
 2.40000E+01    3.81990E-09
 2.50000E+01    1.52870E-09
 2.60000E+01    6.20380E-10
 2.70000E+01    2.55380E-10
 2.80000E+01    1.06490E-10
 2.90000E+01    4.48920E-11
 3.00000E+01    1.91490E-11
