# n + Hg200 : (n,n'05)  
# jeff3.3    A.J. Koning and D. Rochman        EVAL-DEC15
# uncertainties: n
# # energies =    88
#   E(MeV)       xs(mb) 
 1.52282E+00    0.00000E+00
 1.57820E+00    1.31276E+01
 1.58160E+00    1.39335E+01
 1.60000E+00    1.82952E+01
 1.60146E+00    1.83815E+01
 1.63702E+00    2.04827E+01
 1.63912E+00    2.06068E+01
 1.64972E+00    2.12331E+01
 1.66737E+00    2.22761E+01
 1.71532E+00    2.51094E+01
 1.72697E+00    2.57978E+01
 1.73966E+00    2.65476E+01
 1.74309E+00    2.67503E+01
 1.78452E+00    2.91984E+01
 1.80000E+00    3.01131E+01
 1.85509E+00    3.02845E+01
 1.86082E+00    3.03023E+01
 1.86615E+00    3.03189E+01
 1.89235E+00    3.04004E+01
 1.97249E+00    3.06497E+01
 1.98222E+00    3.06800E+01
 1.98429E+00    3.06864E+01
 2.00000E+00    3.07353E+01
 2.05923E+00    2.97342E+01
 2.07165E+00    2.95243E+01
 2.08479E+00    2.93022E+01
 2.12502E+00    2.86223E+01
 2.12722E+00    2.85851E+01
 2.13758E+00    2.84100E+01
 2.20000E+00    2.73550E+01
 2.40000E+00    2.20060E+01
 2.60000E+00    1.73274E+01
 2.80000E+00    1.37055E+01
 3.00000E+00    1.09641E+01
 3.20000E+00    8.84166E+00
 3.40000E+00    7.13986E+00
 3.60000E+00    5.73970E+00
 3.80000E+00    4.57910E+00
 4.00000E+00    3.62298E+00
 4.20000E+00    2.84646E+00
 4.40000E+00    2.22385E+00
 4.60000E+00    1.73130E+00
 4.80000E+00    1.34514E+00
 5.00000E+00    1.04400E+00
 5.20000E+00    8.10078E-01
 5.40000E+00    6.28777E-01
 5.60000E+00    4.86443E-01
 5.80000E+00    3.77507E-01
 6.00000E+00    2.93299E-01
 6.20000E+00    2.28081E-01
 6.40000E+00    1.77031E-01
 6.60000E+00    1.37809E-01
 6.80000E+00    1.06875E-01
 7.00000E+00    8.28230E-02
 7.20000E+00    6.42174E-02
 7.40000E+00    4.96314E-02
 7.60000E+00    3.84926E-02
 7.80000E+00    2.98318E-02
 8.00000E+00    2.31376E-02
 8.50000E+00    1.23720E-02
 9.00000E+00    6.67759E-03
 9.50000E+00    3.63289E-03
 1.00000E+01    1.98839E-03
 1.05000E+01    1.09219E-03
 1.10000E+01    6.01107E-04
 1.15000E+01    3.31380E-04
 1.20000E+01    1.83164E-04
 1.25000E+01    1.01662E-04
 1.30000E+01    5.67368E-05
 1.35000E+01    3.18786E-05
 1.40000E+01    1.80482E-05
 1.45000E+01    1.03006E-05
 1.50000E+01    5.92544E-06
 1.60000E+01    2.00332E-06
 1.70000E+01    6.88130E-07
 1.80000E+01    2.42180E-07
 1.90000E+01    8.66150E-08
 2.00000E+01    3.15140E-08
 2.10000E+01    1.16960E-08
 2.20000E+01    4.42860E-09
 2.30000E+01    1.71280E-09
 2.40000E+01    6.73960E-10
 2.50000E+01    2.69680E-10
 2.60000E+01    1.09370E-10
 2.70000E+01    4.49210E-11
 2.80000E+01    1.86580E-11
 2.90000E+01    7.82770E-12
 3.00000E+01    3.32350E-12
