# n + Hg200 : (n,n'17)  
# jeff3.3    A.J. Koning and D. Rochman        EVAL-DEC15
# uncertainties: n
# # energies =    75
#   E(MeV)       xs(mb) 
 1.78452E+00    0.00000E+00
 1.80000E+00    7.36359E+00
 1.85509E+00    1.64257E+01
 1.86082E+00    1.73682E+01
 1.86615E+00    1.82450E+01
 1.89235E+00    2.25548E+01
 1.97249E+00    3.57374E+01
 1.98222E+00    3.73380E+01
 1.98429E+00    3.76785E+01
 2.00000E+00    4.02627E+01
 2.05923E+00    4.49015E+01
 2.07165E+00    4.58742E+01
 2.08479E+00    4.69033E+01
 2.12502E+00    5.00540E+01
 2.12722E+00    5.02263E+01
 2.13758E+00    5.10377E+01
 2.20000E+00    5.59263E+01
 2.40000E+00    5.44229E+01
 2.60000E+00    4.64728E+01
 2.80000E+00    3.80883E+01
 3.00000E+00    3.11147E+01
 3.20000E+00    2.56604E+01
 3.40000E+00    2.13770E+01
 3.60000E+00    1.79008E+01
 3.80000E+00    1.49697E+01
 4.00000E+00    1.24385E+01
 4.20000E+00    1.02459E+01
 4.40000E+00    8.35881E+00
 4.60000E+00    6.76104E+00
 4.80000E+00    5.42888E+00
 5.00000E+00    4.33172E+00
 5.20000E+00    3.43754E+00
 5.40000E+00    2.71524E+00
 5.60000E+00    2.12793E+00
 5.80000E+00    1.66670E+00
 6.00000E+00    1.30357E+00
 6.20000E+00    1.01924E+00
 6.40000E+00    7.94776E-01
 6.60000E+00    6.21376E-01
 6.80000E+00    4.84727E-01
 7.00000E+00    3.77692E-01
 7.20000E+00    2.94583E-01
 7.40000E+00    2.29106E-01
 7.60000E+00    1.78778E-01
 7.80000E+00    1.39260E-01
 8.00000E+00    1.08590E-01
 8.50000E+00    5.86076E-02
 9.00000E+00    3.17949E-02
 9.50000E+00    1.73392E-02
 1.00000E+01    9.50993E-03
 1.05000E+01    5.24428E-03
 1.10000E+01    2.90624E-03
 1.15000E+01    1.61790E-03
 1.20000E+01    9.04990E-04
 1.25000E+01    5.08937E-04
 1.30000E+01    2.87870E-04
 1.35000E+01    1.63841E-04
 1.40000E+01    9.38485E-05
 1.45000E+01    5.41017E-05
 1.50000E+01    3.13796E-05
 1.60000E+01    1.07373E-05
 1.70000E+01    3.72153E-06
 1.80000E+01    1.32159E-06
 1.90000E+01    4.77400E-07
 2.00000E+01    1.75470E-07
 2.10000E+01    6.56910E-08
 2.20000E+01    2.50270E-08
 2.30000E+01    9.71270E-09
 2.40000E+01    3.82620E-09
 2.50000E+01    1.53120E-09
 2.60000E+01    6.21320E-10
 2.70000E+01    2.55740E-10
 2.80000E+01    1.06620E-10
 2.90000E+01    4.49450E-11
 3.00000E+01    1.91700E-11
