# n + Hg200 : (n,n'16)  
# jeff3.3    A.J. Koning and D. Rochman        EVAL-DEC15
# uncertainties: n
# # energies =    76
#   E(MeV)       xs(mb) 
 1.74309E+00    0.00000E+00
 1.78452E+00    1.29375E+01
 1.80000E+00    1.77715E+01
 1.85509E+00    2.61983E+01
 1.86082E+00    2.70748E+01
 1.86615E+00    2.78901E+01
 1.89235E+00    3.18978E+01
 1.97249E+00    4.41563E+01
 1.98222E+00    4.56447E+01
 1.98429E+00    4.59613E+01
 2.00000E+00    4.83644E+01
 2.05923E+00    5.22974E+01
 2.07165E+00    5.31221E+01
 2.08479E+00    5.39946E+01
 2.12502E+00    5.66660E+01
 2.12722E+00    5.68121E+01
 2.13758E+00    5.75000E+01
 2.20000E+00    6.16448E+01
 2.40000E+00    5.80711E+01
 2.60000E+00    4.88664E+01
 2.80000E+00    3.97761E+01
 3.00000E+00    3.23875E+01
 3.20000E+00    2.66584E+01
 3.40000E+00    2.21646E+01
 3.60000E+00    1.85115E+01
 3.80000E+00    1.54282E+01
 4.00000E+00    1.27725E+01
 4.20000E+00    1.04843E+01
 4.40000E+00    8.52661E+00
 4.60000E+00    6.87862E+00
 4.80000E+00    5.51135E+00
 5.00000E+00    4.38972E+00
 5.20000E+00    3.47848E+00
 5.40000E+00    2.74427E+00
 5.60000E+00    2.14857E+00
 5.80000E+00    1.68154E+00
 6.00000E+00    1.31430E+00
 6.20000E+00    1.02700E+00
 6.40000E+00    8.00330E-01
 6.60000E+00    6.25387E-01
 6.80000E+00    4.87544E-01
 7.00000E+00    3.79651E-01
 7.20000E+00    2.95955E-01
 7.40000E+00    2.30050E-01
 7.60000E+00    1.79430E-01
 7.80000E+00    1.39721E-01
 8.00000E+00    1.08925E-01
 8.50000E+00    5.87707E-02
 9.00000E+00    3.18837E-02
 9.50000E+00    1.73897E-02
 1.00000E+01    9.53833E-03
 1.05000E+01    5.25975E-03
 1.10000E+01    2.91438E-03
 1.15000E+01    1.62210E-03
 1.20000E+01    9.07136E-04
 1.25000E+01    5.10043E-04
 1.30000E+01    2.88450E-04
 1.35000E+01    1.64153E-04
 1.40000E+01    9.40197E-05
 1.45000E+01    5.41977E-05
 1.50000E+01    3.14341E-05
 1.60000E+01    1.07550E-05
 1.70000E+01    3.72713E-06
 1.80000E+01    1.32335E-06
 1.90000E+01    4.77960E-07
 2.00000E+01    1.75650E-07
 2.10000E+01    6.57580E-08
 2.20000E+01    2.50520E-08
 2.30000E+01    9.72220E-09
 2.40000E+01    3.82990E-09
 2.50000E+01    1.53260E-09
 2.60000E+01    6.21870E-10
 2.70000E+01    2.55950E-10
 2.80000E+01    1.06700E-10
 2.90000E+01    4.49770E-11
 3.00000E+01    1.91830E-11
