# n + Sm151 : (n,n'22)  
# tendl.2019 A.J. Koning and D. Rochman        EVAL-NOV19
# uncertainties: n
# # energies =    80
#   E(MeV)       xs(mb) 
 3.60393E-01    0.00000E+00
 3.85761E-01    1.18205E+00
 3.98225E-01    1.76282E+00
 4.00000E-01    1.84553E+00
 4.08210E-01    2.19402E+00
 4.18418E-01    2.62731E+00
 4.21901E-01    2.77515E+00
 4.26008E-01    2.94948E+00
 4.40424E-01    3.56138E+00
 4.48175E-01    3.89039E+00
 5.00000E-01    6.09017E+00
 6.00000E-01    9.19661E+00
 7.00000E-01    1.05478E+01
 8.00000E-01    1.05722E+01
 9.00000E-01    9.80600E+00
 1.00000E+00    8.61405E+00
 1.20000E+00    6.21739E+00
 1.40000E+00    4.33421E+00
 1.60000E+00    3.04941E+00
 1.80000E+00    2.18515E+00
 2.00000E+00    1.59331E+00
 2.20000E+00    1.17946E+00
 2.40000E+00    8.82960E-01
 2.60000E+00    6.66333E-01
 2.80000E+00    5.05851E-01
 3.00000E+00    3.85728E-01
 3.20000E+00    2.95453E-01
 3.40000E+00    2.27605E-01
 3.60000E+00    1.76976E-01
 3.80000E+00    1.39562E-01
 4.00000E+00    1.12164E-01
 4.20000E+00    9.24892E-02
 4.40000E+00    7.86548E-02
 4.60000E+00    6.92461E-02
 4.80000E+00    6.31151E-02
 5.00000E+00    5.94880E-02
 5.20000E+00    5.76724E-02
 5.40000E+00    5.72183E-02
 5.60000E+00    5.77372E-02
 5.80000E+00    5.89116E-02
 6.00000E+00    6.04882E-02
 6.20000E+00    6.22968E-02
 6.40000E+00    6.41821E-02
 6.60000E+00    6.60153E-02
 6.80000E+00    6.77132E-02
 7.00000E+00    6.92196E-02
 7.20000E+00    7.04967E-02
 7.40000E+00    7.15358E-02
 7.60000E+00    7.23404E-02
 7.80000E+00    7.29287E-02
 8.00000E+00    7.33280E-02
 8.50000E+00    7.36965E-02
 9.00000E+00    7.35404E-02
 9.50000E+00    7.32182E-02
 1.00000E+01    7.29382E-02
 1.05000E+01    7.27857E-02
 1.10000E+01    7.27640E-02
 1.15000E+01    7.28315E-02
 1.20000E+01    7.29279E-02
 1.25000E+01    7.29926E-02
 1.30000E+01    7.29744E-02
 1.35000E+01    7.28385E-02
 1.40000E+01    7.25659E-02
 1.45000E+01    7.21525E-02
 1.50000E+01    7.16040E-02
 1.60000E+01    7.01663E-02
 1.70000E+01    6.84163E-02
 1.80000E+01    6.65422E-02
 1.90000E+01    6.46893E-02
 2.00000E+01    6.29348E-02
 2.10000E+01    6.13036E-02
 2.20000E+01    5.97873E-02
 2.30000E+01    5.83560E-02
 2.40000E+01    5.69691E-02
 2.50000E+01    5.55920E-02
 2.60000E+01    5.42136E-02
 2.70000E+01    5.28473E-02
 2.80000E+01    5.15191E-02
 2.90000E+01    5.02533E-02
 3.00000E+01    4.90610E-02
