# n + Th228 : (n,g)     
# jendl.ad   O.Iwamoto, T.Nakagawa, et al.     EVAL-FEB10
# uncertainties: n
# # energies =   171
#   E(MeV)       xs(mb) 
 1.00000E-11    1.33513E+06
 1.00000E-07    4.33382E+04
 4.13990E-07    2.82845E+04
 5.31580E-07    2.59046E+04
 6.82560E-07    2.49888E+04
 8.76420E-07    2.72429E+04
 1.12540E-06    4.15278E+04
 1.44500E-06    6.04101E+05
 1.85540E-06    2.90358E+06
 2.37240E-06    1.95139E+04
 3.05900E-06    6.13290E+03
 3.92790E-06    3.63437E+03
 5.04350E-06    4.44134E+03
 6.47600E-06    3.37056E+05
 8.31530E-06    3.50892E+03
 1.06770E-05    1.89328E+04
 1.37100E-05    7.87527E+04
 1.76030E-05    6.72715E+04
 2.26030E-05    5.71343E+04
 2.92030E-05    4.84932E+04
 3.72670E-05    4.11349E+04
 4.78510E-05    3.47751E+04
 6.14420E-05    2.93132E+04
 7.88930E-05    2.46417E+04
 1.01300E-04    2.06580E+04
 1.30070E-04    1.72825E+04
 1.67020E-04    1.44532E+04
 2.14450E-04    1.20574E+04
 2.75360E-04    1.00432E+04
 3.53580E-04    8.35492E+03
 4.54000E-04    6.95063E+03
 5.82950E-04    5.78280E+03
 7.48520E-04    4.82026E+03
 9.61120E-04    4.03368E+03
 1.23410E-03    3.39682E+03
 1.58460E-03    2.86089E+03
 2.03470E-03    2.54660E+03
 2.24870E-03    2.39530E+03
 2.48520E-03    2.28647E+03
 2.61260E-03    2.21738E+03
 2.74650E-03    2.11804E+03
 3.03540E-03    2.00288E+03
 3.35460E-03    1.89991E+03
 3.70740E-03    1.77913E+03
 4.30740E-03    1.60457E+03
 5.53080E-03    1.42961E+03
 7.10170E-03    1.28779E+03
 9.11880E-03    1.16761E+03
 1.17090E-02    1.06366E+03
 1.50340E-02    9.69107E+02
 1.93050E-02    9.03004E+02
 2.18750E-02    8.68637E+02
 2.35790E-02    8.52069E+02
 2.41760E-02    8.43798E+02
 2.47880E-02    8.31407E+02
 2.60580E-02    8.18108E+02
 2.70000E-02    8.03721E+02
 2.85000E-02    7.78356E+02
 3.18280E-02    7.50108E+02
 3.43070E-02    7.13584E+02
 4.08680E-02    6.71836E+02
 4.63090E-02    6.39089E+02
 5.24750E-02    6.13372E+02
 5.65620E-02    5.65491E+02
 6.73790E-02    5.07758E+02
 7.20000E-02    4.74886E+02
 7.95000E-02    4.49487E+02
 8.25000E-02    4.34493E+02
 8.65170E-02    4.05578E+02
 9.80370E-02    3.66432E+02
 1.11090E-01    3.40706E+02
 1.16790E-01    3.26957E+02
 1.22770E-01    3.16643E+02
 1.29070E-01    3.06709E+02
 1.35690E-01    2.97394E+02
 1.42640E-01    2.91252E+02
 1.49960E-01    2.85765E+02
 1.57640E-01    2.80310E+02
 1.65730E-01    2.75293E+02
 1.74220E-01    2.72650E+02
 1.83160E-01    2.70421E+02
 1.92550E-01    2.68922E+02
 2.02420E-01    2.65062E+02
 2.12800E-01    2.59912E+02
 2.23710E-01    2.54689E+02
 2.35180E-01    2.49709E+02
 2.47240E-01    2.45502E+02
 2.73240E-01    2.44359E+02
 2.87250E-01    2.43784E+02
 2.94520E-01    2.43515E+02
 2.97200E-01    2.43408E+02
 2.98500E-01    2.43152E+02
 3.01970E-01    2.38176E+02
 3.33730E-01    2.19402E+02
 3.68830E-01    2.02251E+02
 3.87740E-01    1.95962E+02
 4.07620E-01    1.90558E+02
 4.50490E-01    1.84182E+02
 4.97870E-01    1.79391E+02
 5.23400E-01    1.77602E+02
 5.50230E-01    1.76964E+02
 5.78440E-01    1.76365E+02
 6.08100E-01    1.77292E+02
 6.39280E-01    1.80082E+02
 6.72060E-01    1.83280E+02
 7.06510E-01    1.86162E+02
 7.42740E-01    1.88782E+02
 7.80820E-01    1.91574E+02
 8.20850E-01    1.94766E+02
 8.62940E-01    1.96408E+02
 9.07180E-01    1.96442E+02
 9.61640E-01    1.92955E+02
 1.00260E+00    1.79490E+02
 1.10800E+00    1.69231E+02
 1.16480E+00    1.62230E+02
 1.22460E+00    1.57012E+02
 1.28730E+00    1.53223E+02
 1.35340E+00    1.50994E+02
 1.42270E+00    1.48580E+02
 1.49570E+00    1.45731E+02
 1.57240E+00    1.42403E+02
 1.65300E+00    1.38363E+02
 1.73770E+00    1.33757E+02
 1.82680E+00    1.28221E+02
 1.92050E+00    1.21954E+02
 2.01900E+00    1.14314E+02
 2.12250E+00    1.06397E+02
 2.23130E+00    1.00199E+02
 2.30690E+00    9.61957E+01
 2.34570E+00    9.39415E+01
 2.36530E+00    9.24190E+01
 2.38520E+00    8.88761E+01
 2.46600E+00    8.17059E+01
 2.59240E+00    7.29899E+01
 2.72530E+00    6.43491E+01
 2.86500E+00    5.63065E+01
 3.01190E+00    4.83082E+01
 3.16640E+00    4.08092E+01
 3.32870E+00    3.15250E+01
 3.67880E+00    2.10295E+01
 4.06570E+00    1.32568E+01
 4.49330E+00    9.06262E+00
 4.72370E+00    7.01697E+00
 4.96590E+00    5.42696E+00
 5.22050E+00    4.19016E+00
 5.48810E+00    3.28239E+00
 5.76950E+00    2.62203E+00
 6.06530E+00    2.14954E+00
 6.37630E+00    1.84641E+00
 6.59240E+00    1.72399E+00
 6.70320E+00    1.58969E+00
 7.04690E+00    1.45844E+00
 7.40820E+00    1.38986E+00
 7.78800E+00    1.38743E+00
 8.18730E+00    1.42444E+00
 8.60710E+00    1.48871E+00
 9.04840E+00    1.56199E+00
 9.51230E+00    1.62680E+00
 1.00000E+01    1.67584E+00
 1.05130E+01    1.68090E+00
 1.10520E+01    1.64664E+00
 1.16180E+01    1.59184E+00
 1.22140E+01    1.52179E+00
 1.28400E+01    1.41136E+00
 1.34990E+01    1.31168E+00
 1.38400E+01    1.22950E+00
 1.41910E+01    1.15067E+00
 1.45500E+01    1.07405E+00
 1.49180E+01    9.65834E-01
 1.56830E+01    8.34793E-01
 1.64870E+01    7.27598E-01
