# n + Sn115 : (n,n'20)  
# tendl.2019 A.J. Koning and D. Rochman        EVAL-NOV19
# uncertainties: n
# # energies =    70
#   E(MeV)       xs(mb) 
 2.07823E+00    0.00000E+00
 2.09517E+00    4.36448E+00
 2.10257E+00    6.27105E+00
 2.17469E+00    2.48522E+01
 2.18376E+00    2.71890E+01
 2.20000E+00    3.13731E+01
 2.21241E+00    3.23343E+01
 2.21588E+00    3.26031E+01
 2.22686E+00    3.34535E+01
 2.24985E+00    3.52342E+01
 2.28488E+00    3.79474E+01
 2.32221E+00    4.08388E+01
 2.40000E+00    4.68640E+01
 2.60000E+00    4.67184E+01
 2.80000E+00    4.16266E+01
 3.00000E+00    3.53095E+01
 3.20000E+00    2.90997E+01
 3.40000E+00    2.35111E+01
 3.60000E+00    1.87233E+01
 3.80000E+00    1.47524E+01
 4.00000E+00    1.15360E+01
 4.20000E+00    8.97492E+00
 4.40000E+00    6.96196E+00
 4.60000E+00    5.39183E+00
 4.80000E+00    4.17576E+00
 5.00000E+00    3.23746E+00
 5.20000E+00    2.51445E+00
 5.40000E+00    1.95747E+00
 5.60000E+00    1.52735E+00
 5.80000E+00    1.19437E+00
 6.00000E+00    9.35561E-01
 6.20000E+00    7.33483E-01
 6.40000E+00    5.75843E-01
 6.60000E+00    4.50520E-01
 6.80000E+00    3.53550E-01
 7.00000E+00    2.77277E-01
 7.20000E+00    2.17641E-01
 7.40000E+00    1.71115E-01
 7.60000E+00    1.34311E-01
 7.80000E+00    1.05847E-01
 8.00000E+00    8.33282E-02
 8.50000E+00    4.59855E-02
 9.00000E+00    2.55585E-02
 9.50000E+00    1.43404E-02
 1.00000E+01    8.13596E-03
 1.05000E+01    4.67122E-03
 1.10000E+01    2.71321E-03
 1.15000E+01    1.59350E-03
 1.20000E+01    9.45692E-04
 1.25000E+01    5.66615E-04
 1.30000E+01    3.42474E-04
 1.35000E+01    2.08676E-04
 1.40000E+01    1.28126E-04
 1.45000E+01    7.92407E-05
 1.50000E+01    4.93529E-05
 1.60000E+01    1.95175E-05
 1.70000E+01    7.90816E-06
 1.80000E+01    3.28260E-06
 1.90000E+01    1.39348E-06
 2.00000E+01    6.06590E-07
 2.10000E+01    2.66540E-07
 2.20000E+01    1.20150E-07
 2.30000E+01    5.50310E-08
 2.40000E+01    2.56450E-08
 2.50000E+01    1.21110E-08
 2.60000E+01    5.79230E-09
 2.70000E+01    2.80380E-09
 2.80000E+01    1.37410E-09
 2.90000E+01    6.81080E-10
 3.00000E+01    3.41550E-10
