# n + Sn115 : (n,n'09)  
# tendl.2019 A.J. Koning and D. Rochman        EVAL-NOV19
# uncertainties: n
# # energies =    83
#   E(MeV)       xs(mb) 
 1.70372E+00    0.00000E+00
 1.74928E+00    1.55269E+01
 1.80000E+00    3.28124E+01
 1.80160E+00    3.30293E+01
 1.82084E+00    3.56373E+01
 1.84095E+00    3.83632E+01
 1.87370E+00    4.28026E+01
 1.96284E+00    5.48856E+01
 1.99133E+00    5.87475E+01
 2.00000E+00    5.99227E+01
 2.01140E+00    6.03707E+01
 2.01406E+00    6.04753E+01
 2.04326E+00    6.16228E+01
 2.07823E+00    6.29971E+01
 2.09517E+00    6.36629E+01
 2.10257E+00    6.39537E+01
 2.17469E+00    6.67880E+01
 2.18376E+00    6.71445E+01
 2.20000E+00    6.77827E+01
 2.21241E+00    6.76280E+01
 2.21588E+00    6.75847E+01
 2.22686E+00    6.74479E+01
 2.24985E+00    6.71612E+01
 2.28488E+00    6.67246E+01
 2.32221E+00    6.62592E+01
 2.40000E+00    6.52894E+01
 2.60000E+00    5.73908E+01
 2.80000E+00    4.82829E+01
 3.00000E+00    3.96989E+01
 3.20000E+00    3.20871E+01
 3.40000E+00    2.55724E+01
 3.60000E+00    2.01557E+01
 3.80000E+00    1.57540E+01
 4.00000E+00    1.22403E+01
 4.20000E+00    9.47207E+00
 4.40000E+00    7.31276E+00
 4.60000E+00    5.63759E+00
 4.80000E+00    4.34513E+00
 5.00000E+00    3.35078E+00
 5.20000E+00    2.58668E+00
 5.40000E+00    1.99990E+00
 5.60000E+00    1.54872E+00
 5.80000E+00    1.20143E+00
 6.00000E+00    9.33435E-01
 6.20000E+00    7.26506E-01
 6.40000E+00    5.66679E-01
 6.60000E+00    4.40781E-01
 6.80000E+00    3.44695E-01
 7.00000E+00    2.69666E-01
 7.20000E+00    2.11444E-01
 7.40000E+00    1.66373E-01
 7.60000E+00    1.30857E-01
 7.80000E+00    1.03451E-01
 8.00000E+00    8.18093E-02
 8.50000E+00    4.58123E-02
 9.00000E+00    2.59250E-02
 9.50000E+00    1.48319E-02
 1.00000E+01    8.58050E-03
 1.05000E+01    5.01874E-03
 1.10000E+01    2.96513E-03
 1.15000E+01    1.76811E-03
 1.20000E+01    1.06334E-03
 1.25000E+01    6.44415E-04
 1.30000E+01    3.93264E-04
 1.35000E+01    2.41538E-04
 1.40000E+01    1.49256E-04
 1.45000E+01    9.27723E-05
 1.50000E+01    5.80017E-05
 1.60000E+01    2.30570E-05
 1.70000E+01    9.37820E-06
 1.80000E+01    3.90935E-06
 1.90000E+01    1.66855E-06
 2.00000E+01    7.30970E-07
 2.10000E+01    3.23240E-07
 2.20000E+01    1.46470E-07
 2.30000E+01    6.73150E-08
 2.40000E+01    3.14230E-08
 2.50000E+01    1.48510E-08
 2.60000E+01    7.10810E-09
 2.70000E+01    3.44490E-09
 2.80000E+01    1.69140E-09
 2.90000E+01    8.40220E-10
 3.00000E+01    4.22320E-10
