# n + Sn115 : (n,n'16)  
# tendl.2019 A.J. Koning and D. Rochman        EVAL-NOV19
# uncertainties: n
# # energies =    75
#   E(MeV)       xs(mb) 
 1.99133E+00    0.00000E+00
 2.00000E+00    4.32659E+00
 2.01140E+00    6.08752E+00
 2.01406E+00    6.49841E+00
 2.04326E+00    1.10089E+01
 2.07823E+00    1.64106E+01
 2.09517E+00    1.90273E+01
 2.10257E+00    2.01704E+01
 2.17469E+00    3.13106E+01
 2.18376E+00    3.27116E+01
 2.20000E+00    3.52202E+01
 2.21241E+00    3.54857E+01
 2.21588E+00    3.55599E+01
 2.22686E+00    3.57948E+01
 2.24985E+00    3.62866E+01
 2.28488E+00    3.70359E+01
 2.32221E+00    3.78345E+01
 2.40000E+00    3.94986E+01
 2.60000E+00    3.59792E+01
 2.80000E+00    3.02398E+01
 3.00000E+00    2.44068E+01
 3.20000E+00    1.91920E+01
 3.40000E+00    1.48192E+01
 3.60000E+00    1.13009E+01
 3.80000E+00    8.54998E+00
 4.00000E+00    6.44231E+00
 4.20000E+00    4.84913E+00
 4.40000E+00    3.65553E+00
 4.60000E+00    2.76393E+00
 4.80000E+00    2.09904E+00
 5.00000E+00    1.60229E+00
 5.20000E+00    1.22955E+00
 5.40000E+00    9.48374E-01
 5.60000E+00    7.34697E-01
 5.80000E+00    5.71223E-01
 6.00000E+00    4.45246E-01
 6.20000E+00    3.47429E-01
 6.40000E+00    2.71616E-01
 6.60000E+00    2.11542E-01
 6.80000E+00    1.65248E-01
 7.00000E+00    1.29016E-01
 7.20000E+00    1.00742E-01
 7.40000E+00    7.88018E-02
 7.60000E+00    6.15266E-02
 7.80000E+00    4.82220E-02
 8.00000E+00    3.77479E-02
 8.50000E+00    2.05349E-02
 9.00000E+00    1.12516E-02
 9.50000E+00    6.22847E-03
 1.00000E+01    3.49098E-03
 1.05000E+01    1.98329E-03
 1.10000E+01    1.14165E-03
 1.15000E+01    6.65322E-04
 1.20000E+01    3.92121E-04
 1.25000E+01    2.33435E-04
 1.30000E+01    1.40235E-04
 1.35000E+01    8.49552E-05
 1.40000E+01    5.18816E-05
 1.45000E+01    3.19286E-05
 1.50000E+01    1.97976E-05
 1.60000E+01    7.77075E-06
 1.70000E+01    3.12963E-06
 1.80000E+01    1.29256E-06
 1.90000E+01    5.46260E-07
 2.00000E+01    2.36830E-07
 2.10000E+01    1.03710E-07
 2.20000E+01    4.66250E-08
 2.30000E+01    2.13190E-08
 2.40000E+01    9.92110E-09
 2.50000E+01    4.67790E-09
 2.60000E+01    2.23240E-09
 2.70000E+01    1.07750E-09
 2.80000E+01    5.26300E-10
 2.90000E+01    2.59990E-10
 3.00000E+01    1.29980E-10
