# n + Os  0 : (n,n'01)
# jendl4.0   N.Iwamoto                         EVAL-Jan10
# uncertainties: n
# # energies =   115
#   E(MeV)          xs(mb) 
 9.79858E-03    0.00000E+00
 1.00000E-02    1.44517E+01
 2.00000E-02    3.08557E+01
 3.00000E-02    2.72296E+01
 4.00000E-02    2.59746E+01
 5.00000E-02    2.52593E+01
 6.00000E-02    2.53013E+01
 7.00000E-02    2.57640E+01
 7.47310E-02    2.59830E+01
 7.54449E-02    2.51586E+01
 8.00000E-02    2.44158E+01
 9.00000E-02    2.46504E+01
 1.00000E-01    2.52856E+01
 1.01092E-01    2.53504E+01
 1.10000E-01    2.59461E+01
 1.17631E-01    2.65312E+01
 1.20000E-01    2.65053E+01
 1.30000E-01    2.73119E+01
 1.40000E-01    3.04929E+01
 1.50000E-01    3.28298E+01
 1.60000E-01    6.29299E+01
 1.70000E-01    7.48842E+01
 1.80000E-01    8.47438E+01
 1.88411E-01    1.10407E+02
 1.90000E-01    1.52450E+02
 1.91628E-01    1.57850E+02
 2.00000E-01    1.85667E+02
 2.25000E-01    4.02213E+02
 2.50000E-01    5.04341E+02
 2.58558E-01    5.33737E+02
 2.64721E-01    5.54892E+02
 2.75000E-01    5.90168E+02
 3.00000E-01    6.68634E+02
 3.35058E-01    7.64974E+02
 3.43342E-01    7.87742E+02
 3.51888E-01    8.11243E+02
 4.00000E-01    9.42114E+02
 4.21261E-01    9.81849E+02
 4.44385E-01    1.02447E+03
 4.47441E-01    1.02992E+03
 4.61979E-01    1.05651E+03
 4.66503E-01    1.06481E+03
 5.00000E-01    1.07478E+03
 5.04155E-01    1.07846E+03
 5.10962E-01    1.08431E+03
 5.14360E-01    1.08731E+03
 5.39455E-01    1.10955E+03
 5.59905E-01    1.12696E+03
 5.89473E-01    1.11760E+03
 5.99668E-01    1.11538E+03
 6.00000E-01    1.11529E+03
 6.14296E-01    1.11936E+03
 6.21334E-01    1.12132E+03
 6.45333E-01    1.12407E+03
 6.67713E-01    1.12047E+03
 6.73615E-01    1.11948E+03
 6.87690E-01    1.11705E+03
 6.88193E-01    1.11697E+03
 7.00000E-01    1.10253E+03
 7.15067E-01    1.10041E+03
 7.29656E-01    1.09826E+03
 7.31023E-01    1.09803E+03
 7.49019E-01    1.09543E+03
 7.61084E-01    1.09338E+03
 8.00000E-01    1.06949E+03
 9.00000E-01    1.03428E+03
 1.00000E+00    9.85677E+02
 1.10000E+00    9.46014E+02
 1.20000E+00    8.73379E+02
 1.30000E+00    8.25516E+02
 1.40000E+00    7.69913E+02
 1.50000E+00    7.00403E+02
 1.60000E+00    6.49736E+02
 1.70000E+00    5.99312E+02
 1.80000E+00    5.56402E+02
 1.90000E+00    5.15729E+02
 2.00000E+00    4.82539E+02
 2.25000E+00    4.25238E+02
 2.50000E+00    3.82124E+02
 2.75000E+00    3.53590E+02
 3.00000E+00    3.29343E+02
 3.50000E+00    3.02856E+02
 4.00000E+00    2.88647E+02
 4.50000E+00    2.78381E+02
 5.00000E+00    2.68467E+02
 5.50000E+00    2.57550E+02
 6.00000E+00    2.45705E+02
 6.50000E+00    2.33319E+02
 7.00000E+00    2.21140E+02
 7.50000E+00    2.09976E+02
 8.00000E+00    2.00260E+02
 8.50000E+00    1.92212E+02
 9.00000E+00    1.85432E+02
 9.50000E+00    1.79528E+02
 1.00000E+01    1.73996E+02
 1.05000E+01    1.68550E+02
 1.10000E+01    1.63050E+02
 1.15000E+01    1.57496E+02
 1.20000E+01    1.51965E+02
 1.25000E+01    1.46561E+02
 1.30000E+01    1.41382E+02
 1.35000E+01    1.36497E+02
 1.40000E+01    1.31946E+02
 1.45000E+01    1.27737E+02
 1.50000E+01    1.23854E+02
 1.55000E+01    1.20261E+02
 1.60000E+01    1.16914E+02
 1.65000E+01    1.13762E+02
 1.70000E+01    1.10761E+02
 1.75000E+01    1.07875E+02
 1.80000E+01    1.05078E+02
 1.85000E+01    1.02362E+02
 1.90000E+01    9.97262E+01
 1.95000E+01    9.71806E+01
 2.00000E+01    9.47391E+01
