# n + Os  0 : (n,xp)
# jendl4.0   N.Iwamoto                         EVAL-Jan10
#
# # energies =   117
#   E(MeV)          xs(mb) 
 9.79858E-03    0.00000E+00
 1.00000E-02    0.00000E+00
 2.00000E-02    0.00000E+00
 3.00000E-02    0.00000E+00
 4.00000E-02    9.20904E-23
 5.00000E-02    4.54995E-22
 6.00000E-02    9.47850E-22
 7.00000E-02    1.44902E-21
 7.47310E-02    1.69061E-21
 7.54449E-02    1.72707E-21
 8.00000E-02    1.95968E-21
 9.00000E-02    2.49405E-21
 1.00000E-01    3.05429E-21
 1.00546E-01    3.10675E-21
 1.01092E-01    3.16530E-21
 1.10000E-01    4.12051E-21
 1.17631E-01    4.93878E-21
 1.20000E-01    5.19282E-21
 1.30000E-01    6.26512E-21
 1.40000E-01    7.33744E-21
 1.50000E-01    8.40974E-21
 1.60000E-01    9.51059E-21
 1.70000E-01    1.06402E-20
 1.80000E-01    1.18134E-20
 1.88411E-01    1.28259E-20
 1.90000E-01    1.30180E-20
 1.91628E-01    1.32187E-20
 2.00000E-01    1.42580E-20
 2.25000E-01    5.71424E-20
 2.50000E-01    1.29459E-19
 2.58557E-01    1.64765E-19
 2.58558E-01    1.64770E-19
 2.64721E-01    1.94862E-19
 2.75000E-01    2.56083E-19
 3.00000E-01    4.93227E-19
 3.35058E-01    1.27301E-18
 3.43342E-01    1.57006E-18
 3.51888E-01    1.95792E-18
 4.00000E-01    6.73288E-18
 4.21261E-01    1.18482E-17
 4.44385E-01    2.09551E-17
 4.47441E-01    2.22285E-17
 4.61979E-01    3.07485E-17
 4.66503E-01    3.40755E-17
 5.00000E-01    6.95151E-17
 5.04155E-01    7.70763E-17
 5.10962E-01    8.90879E-17
 5.14360E-01    9.62090E-17
 5.39455E-01    1.67097E-16
 5.59905E-01    2.50928E-16
 5.89473E-01    4.54321E-16
 5.99668E-01    5.49488E-16
 6.00000E-01    5.51299E-16
 6.14296E-01    7.42410E-16
 6.21334E-01    8.47970E-16
 6.45333E-01    1.34034E-15
 6.67713E-01    1.99157E-15
 6.73615E-01    2.19395E-15
 6.87690E-01    2.79476E-15
 6.88193E-01    2.81913E-15
 7.00000E-01    3.45204E-15
 7.15067E-01    4.59009E-15
 7.29656E-01    5.91301E-15
 7.31023E-01    6.03500E-15
 7.49019E-01    8.14319E-15
 7.61084E-01    9.85932E-15
 8.00000E-01    1.85365E-14
 9.00000E-01    8.71109E-14
 1.00000E+00    3.48219E-13
 1.10000E+00    1.23205E-12
 1.20000E+00    3.93990E-12
 1.30000E+00    1.14613E-11
 1.40000E+00    3.08108E-11
 1.50000E+00    7.65478E-11
 1.60000E+00    1.77762E-10
 1.70000E+00    3.89445E-10
 1.80000E+00    8.07690E-10
 1.90000E+00    1.60122E-09
 2.00000E+00    3.03363E-09
 2.25000E+00    1.27470E-08
 2.50000E+00    4.32510E-08
 2.75000E+00    1.26154E-07
 3.00000E+00    3.19388E-07
 3.50000E+00    1.57792E-06
 4.00000E+00    5.81477E-06
 4.50000E+00    1.68977E-05
 5.00000E+00    4.06030E-05
 5.50000E+00    8.55641E-05
 6.00000E+00    1.70718E-04
 6.50000E+00    3.50763E-04
 7.00000E+00    7.84201E-04
 7.50000E+00    1.86794E-03
 8.00000E+00    4.48393E-03
 8.50000E+00    1.04026E-02
 9.00000E+00    2.28605E-02
 9.50000E+00    4.72223E-02
 1.00000E+01    9.14537E-02
 1.05000E+01    1.66054E-01
 1.10000E+01    2.83356E-01
 1.15000E+01    4.56527E-01
 1.20000E+01    6.98799E-01
 1.25000E+01    1.02307E+00
 1.30000E+01    1.44172E+00
 1.35000E+01    1.96660E+00
 1.40000E+01    2.60880E+00
 1.45000E+01    3.37855E+00
 1.50000E+01    4.28480E+00
 1.55000E+01    5.33472E+00
 1.60000E+01    6.53334E+00
 1.65000E+01    7.88324E+00
 1.70000E+01    9.38490E+00
 1.75000E+01    1.10364E+01
 1.80000E+01    1.28347E+01
 1.85000E+01    1.47754E+01
 1.90000E+01    1.68541E+01
 1.95000E+01    1.90660E+01
 2.00000E+01    2.14073E+01
