# n + Mo 97 : (n,xa)    
# jeff3.3    K.Shibata, A.Ichihara, S.Kunieda+ EVAL-MAR09
# 
# # energies =    50
#   E(MeV)        xs(mb) 
 4.85905E-01    0.00000E+00
 5.00000E-01    0.00000E+00
 6.00000E-01    0.00000E+00
 6.64980E-01    0.00000E+00
 6.86664E-01    0.00000E+00
 7.00000E-01    0.00000E+00
 7.26676E-01    0.00000E+00
 7.28424E-01    0.00000E+00
 7.60838E-01    0.00000E+00
 8.00000E-01    0.00000E+00
 8.03275E-01    0.00000E+00
 8.97243E-01    0.00000E+00
 9.00000E-01    0.00000E+00
 1.00000E+00    0.00000E+00
 1.00334E+00    0.00000E+00
 1.03511E+00    0.00000E+00
 1.10400E+00    0.00000E+00
 1.12762E+00    0.00000E+00
 1.12834E+00    0.00000E+00
 1.13166E+00    0.00000E+00
 1.14176E+00    0.00000E+00
 1.50000E+00    0.00000E+00
 2.00000E+00    2.73800E-03
 2.50000E+00    6.67300E-03
 3.00000E+00    1.80400E-02
 3.50000E+00    3.48400E-02
 4.00000E+00    5.60100E-02
 4.50000E+00    8.48300E-02
 5.00000E+00    2.06400E-01
 5.50000E+00    2.67800E-01
 6.00000E+00    3.26300E-01
 6.50000E+00    4.06600E-01
 7.00000E+00    5.10500E-01
 7.50000E+00    6.27400E-01
 8.00000E+00    7.65000E-01
 8.50000E+00    9.49400E-01
 9.00000E+00    1.18300E+00
 9.50000E+00    1.47800E+00
 1.00000E+01    1.84812E+00
 1.10000E+01    2.80735E+00
 1.20000E+01    4.08450E+00
 1.30000E+01    5.58740E+00
 1.40000E+01    7.21770E+00
 1.45000E+01    8.04300E+00
 1.50000E+01    8.85700E+00
 1.60000E+01    1.04280E+01
 1.70000E+01    1.18860E+01
 1.80000E+01    1.32170E+01
 1.90000E+01    1.44140E+01
 2.00000E+01    1.55940E+01
