# n + Co 59 : (n,xn)    
# jendl.ad   F.Minato                          EVAL-May14
# 
# # energies =   114
#   E(MeV)        xs(mb) 
 1.12946E-01    0.00000E+00
 1.25892E-01    1.14154E-04
 1.58489E-01    1.17923E-04
 1.99526E-01    1.03773E-04
 2.51189E-01    6.97963E-04
 3.16228E-01    1.70830E-03
 3.98107E-01    2.18680E-03
 5.01187E-01    5.01063E-03
 6.30957E-01    1.58892E-02
 7.94328E-01    2.86355E-02
 1.00000E+00    6.69108E-02
 1.11807E+00    9.60379E-02
 1.15000E+00    3.27891E+01
 1.21082E+00    4.80666E+01
 1.21083E+00    4.80686E+01
 1.30000E+00    2.08302E+02
 1.31372E+00    2.18935E+02
 1.45000E+00    3.39446E+02
 1.45881E+00    3.46005E+02
 1.48450E+00    3.65971E+02
 1.50709E+00    4.26206E+02
 1.60000E+00    5.58524E+02
 1.75000E+00    6.75821E+02
 1.77455E+00    6.91350E+02
 1.90000E+00    7.96627E+02
 2.05000E+00    8.63614E+02
 2.09705E+00    8.81343E+02
 2.12292E+00    8.99491E+02
 2.19048E+00    9.30214E+02
 2.20000E+00    9.39144E+02
 2.22087E+00    9.49583E+02
 2.24252E+00    9.65556E+02
 2.35000E+00    1.01180E+03
 2.43579E+00    1.03813E+03
 2.50000E+00    1.06018E+03
 2.52112E+00    1.06575E+03
 2.58388E+00    1.08283E+03
 2.62590E+00    1.09814E+03
 2.63006E+00    1.10022E+03
 2.65000E+00    1.10807E+03
 2.75954E+00    1.13503E+03
 2.76899E+00    1.13700E+03
 2.76900E+00    1.13700E+03
 2.80000E+00    1.14670E+03
 2.81761E+00    1.15081E+03
 2.82931E+00    1.15361E+03
 2.86501E+00    1.16165E+03
 2.87254E+00    1.16352E+03
 2.87457E+00    1.16534E+03
 2.87752E+00    1.16701E+03
 2.95000E+00    1.18513E+03
 2.96184E+00    1.18769E+03
 2.96448E+00    1.18835E+03
 3.00853E+00    1.19969E+03
 3.01381E+00    1.20091E+03
 3.01382E+00    1.20092E+03
 3.01666E+00    1.20226E+03
 3.02388E+00    1.20444E+03
 3.02795E+00    1.20567E+03
 3.06650E+00    1.21538E+03
 3.06843E+00    1.21603E+03
 3.10000E+00    1.22428E+03
 3.11512E+00    1.22768E+03
 3.13436E+00    1.23174E+03
 3.14329E+00    1.23411E+03
 3.17432E+00    1.24125E+03
 3.17550E+00    1.24177E+03
 3.19425E+00    1.24668E+03
 3.25000E+00    1.25789E+03
 3.40000E+00    1.29050E+03
 3.55000E+00    1.31546E+03
 3.70000E+00    1.33697E+03
 3.85000E+00    1.36248E+03
 4.00000E+00    1.37886E+03
 4.30000E+00    1.41132E+03
 4.60000E+00    1.43564E+03
 4.90000E+00    1.45283E+03
 5.20000E+00    1.47778E+03
 5.50000E+00    1.48187E+03
 5.80000E+00    1.48242E+03
 6.10000E+00    1.48027E+03
 6.40000E+00    1.47627E+03
 6.70000E+00    1.47123E+03
 7.00000E+00    1.46573E+03
 7.30000E+00    1.46022E+03
 7.60000E+00    1.45495E+03
 7.90000E+00    1.45007E+03
 8.20000E+00    1.44557E+03
 8.50000E+00    1.44134E+03
 8.80000E+00    1.43722E+03
 9.10000E+00    1.43308E+03
 9.40000E+00    1.42871E+03
 9.70000E+00    1.42390E+03
 1.00000E+01    1.41910E+03
 1.05000E+01    1.40992E+03
 1.10000E+01    1.43044E+03
 1.15000E+01    1.52469E+03
 1.20000E+01    1.63606E+03
 1.25000E+01    1.75538E+03
 1.30000E+01    1.84171E+03
 1.35000E+01    1.91531E+03
 1.40000E+01    1.97202E+03
 1.45000E+01    2.01144E+03
 1.50000E+01    2.03819E+03
 1.55000E+01    2.05283E+03
 1.60000E+01    2.06479E+03
 1.65000E+01    2.07156E+03
 1.70000E+01    2.07580E+03
 1.75000E+01    2.07773E+03
 1.80000E+01    2.07753E+03
 1.85000E+01    2.06935E+03
 1.90000E+01    2.06561E+03
 1.95000E+01    2.05562E+03
 2.00000E+01    2.04679E+03
