# n + Tl204 : (n,n'14)  
# jeff3.3    A.J. Koning and D. Rochman        EVAL-DEC15
# uncertainties: n
# # energies =    85
#   E(MeV)       xs(mb) 
 6.29407E-01    0.00000E+00
 6.32512E-01    1.17528E+00
 6.81313E-01    1.96471E+01
 7.00000E-01    2.67204E+01
 7.39921E-01    3.26518E+01
 7.54412E-01    3.48048E+01
 7.68080E-01    3.68356E+01
 8.00000E-01    4.15782E+01
 8.63248E-01    4.72218E+01
 8.76835E-01    4.84342E+01
 9.00000E-01    5.05012E+01
 9.10470E-01    5.10201E+01
 9.70777E-01    5.40088E+01
 1.00000E+00    5.54570E+01
 1.01823E+00    5.56593E+01
 1.05117E+00    5.60249E+01
 1.05638E+00    5.60827E+01
 1.06394E+00    5.61666E+01
 1.10554E+00    5.66283E+01
 1.10936E+00    5.66707E+01
 1.12689E+00    5.68653E+01
 1.20000E+00    5.76767E+01
 1.40000E+00    5.55323E+01
 1.60000E+00    5.23373E+01
 1.80000E+00    4.91223E+01
 2.00000E+00    4.60495E+01
 2.20000E+00    4.29375E+01
 2.40000E+00    3.95650E+01
 2.60000E+00    3.58253E+01
 2.80000E+00    3.17719E+01
 3.00000E+00    2.76007E+01
 3.20000E+00    2.35329E+01
 3.40000E+00    1.97436E+01
 3.60000E+00    1.63479E+01
 3.80000E+00    1.33941E+01
 4.00000E+00    1.08824E+01
 4.20000E+00    8.78264E+00
 4.40000E+00    7.04959E+00
 4.60000E+00    5.63095E+00
 4.80000E+00    4.47688E+00
 5.00000E+00    3.54196E+00
 5.20000E+00    2.78924E+00
 5.40000E+00    2.17556E+00
 5.60000E+00    1.69215E+00
 5.80000E+00    1.30759E+00
 6.00000E+00    1.00612E+00
 6.20000E+00    7.72012E-01
 6.40000E+00    5.89923E-01
 6.60000E+00    4.50675E-01
 6.80000E+00    3.43587E-01
 7.00000E+00    2.61815E-01
 7.20000E+00    1.99565E-01
 7.40000E+00    1.52065E-01
 7.60000E+00    1.16160E-01
 7.80000E+00    8.87420E-02
 8.00000E+00    6.78825E-02
 8.50000E+00    3.49069E-02
 9.00000E+00    1.80413E-02
 9.50000E+00    9.35519E-03
 1.00000E+01    4.86126E-03
 1.05000E+01    2.53101E-03
 1.10000E+01    1.32139E-03
 1.15000E+01    6.92489E-04
 1.20000E+01    3.64759E-04
 1.25000E+01    1.93300E-04
 1.30000E+01    1.03117E-04
 1.35000E+01    5.53871E-05
 1.40000E+01    2.99454E-05
 1.45000E+01    1.62903E-05
 1.50000E+01    8.91178E-06
 1.60000E+01    2.70528E-06
 1.70000E+01    8.31500E-07
 1.80000E+01    2.61290E-07
 1.90000E+01    8.37060E-08
 2.00000E+01    2.73610E-08
 2.10000E+01    9.13340E-09
 2.20000E+01    3.10950E-09
 2.30000E+01    1.07730E-09
 2.40000E+01    3.79620E-10
 2.50000E+01    1.35810E-10
 2.60000E+01    4.93060E-11
 2.70000E+01    1.81540E-11
 2.80000E+01    6.77560E-12
 2.90000E+01    2.56560E-12
 3.00000E+01    9.86100E-13
