# n + Tl204 : (n,n'09)  
# jeff3.3    A.J. Koning and D. Rochman        EVAL-DEC15
# uncertainties: n
# # energies =    92
#   E(MeV)       xs(mb) 
 4.30116E-01    0.00000E+00
 4.34016E-01    3.02237E+00
 4.74274E-01    3.42210E+01
 4.90524E-01    4.68142E+01
 5.00000E-01    5.41578E+01
 5.38249E-01    6.32865E+01
 6.00000E-01    7.80243E+01
 6.29407E-01    8.16220E+01
 6.32512E-01    8.20019E+01
 6.81313E-01    8.79723E+01
 7.00000E-01    9.02585E+01
 7.39921E-01    9.29400E+01
 7.54412E-01    9.39133E+01
 7.68080E-01    9.48314E+01
 8.00000E-01    9.69755E+01
 8.63248E-01    9.95538E+01
 8.76835E-01    1.00108E+02
 9.00000E-01    1.01052E+02
 9.10470E-01    1.01186E+02
 9.70777E-01    1.01954E+02
 1.00000E+00    1.02327E+02
 1.01823E+00    1.02071E+02
 1.05117E+00    1.01607E+02
 1.05638E+00    1.01534E+02
 1.06394E+00    1.01428E+02
 1.10554E+00    1.00842E+02
 1.10936E+00    1.00789E+02
 1.12689E+00    1.00542E+02
 1.20000E+00    9.95135E+01
 1.40000E+00    9.05664E+01
 1.60000E+00    8.17425E+01
 1.80000E+00    7.42977E+01
 2.00000E+00    6.78489E+01
 2.20000E+00    6.17798E+01
 2.40000E+00    5.56714E+01
 2.60000E+00    4.93984E+01
 2.80000E+00    4.30914E+01
 3.00000E+00    3.69637E+01
 3.20000E+00    3.12302E+01
 3.40000E+00    2.60386E+01
 3.60000E+00    2.14722E+01
 3.80000E+00    1.75505E+01
 4.00000E+00    1.42457E+01
 4.20000E+00    1.14996E+01
 4.40000E+00    9.23974E+00
 4.60000E+00    7.38909E+00
 4.80000E+00    5.88003E+00
 5.00000E+00    4.65341E+00
 5.20000E+00    3.66061E+00
 5.40000E+00    2.85359E+00
 5.60000E+00    2.21570E+00
 5.80000E+00    1.70952E+00
 6.00000E+00    1.31435E+00
 6.20000E+00    1.00849E+00
 6.40000E+00    7.70912E-01
 6.60000E+00    5.90080E-01
 6.80000E+00    4.51057E-01
 7.00000E+00    3.44756E-01
 7.20000E+00    2.63997E-01
 7.40000E+00    2.02053E-01
 7.60000E+00    1.55136E-01
 7.80000E+00    1.19157E-01
 8.00000E+00    9.16341E-02
 8.50000E+00    4.77393E-02
 9.00000E+00    2.49521E-02
 9.50000E+00    1.30562E-02
 1.00000E+01    6.83451E-03
 1.05000E+01    3.58143E-03
 1.10000E+01    1.88142E-03
 1.15000E+01    9.92224E-04
 1.20000E+01    5.26093E-04
 1.25000E+01    2.80706E-04
 1.30000E+01    1.50783E-04
 1.35000E+01    8.15397E-05
 1.40000E+01    4.43680E-05
 1.45000E+01    2.42782E-05
 1.50000E+01    1.33515E-05
 1.60000E+01    4.08856E-06
 1.70000E+01    1.26545E-06
 1.80000E+01    4.00040E-07
 1.90000E+01    1.28870E-07
 2.00000E+01    4.23470E-08
 2.10000E+01    1.42080E-08
 2.20000E+01    4.86020E-09
 2.30000E+01    1.69090E-09
 2.40000E+01    5.97990E-10
 2.50000E+01    2.14540E-10
 2.60000E+01    7.80840E-11
 2.70000E+01    2.88180E-11
 2.80000E+01    1.07820E-11
 2.90000E+01    4.09300E-12
 3.00000E+01    1.57710E-12
