# n + Ho166m: (n,n'23)  
# tendl.2019 A.J. Koning and D. Rochman        EVAL-NOV19
# uncertainties: n
# # energies =    78
#   E(MeV)       xs(mb) 
 4.22609E-01    0.00000E+00
 4.26640E-01    3.69502E-05
 4.27855E-01    4.80876E-05
 4.50524E-01    2.55883E-04
 4.61319E-01    3.54835E-04
 4.67698E-01    4.13309E-04
 4.72566E-01    4.57931E-04
 4.78770E-01    5.14800E-04
 5.00000E-01    7.09405E-04
 6.00000E-01    4.95408E-03
 7.00000E-01    1.30923E-02
 8.00000E-01    2.32061E-02
 9.00000E-01    3.32020E-02
 1.00000E+00    4.19086E-02
 1.20000E+00    5.51608E-02
 1.40000E+00    6.39182E-02
 1.60000E+00    6.95714E-02
 1.80000E+00    7.28224E-02
 2.00000E+00    7.37151E-02
 2.20000E+00    7.21291E-02
 2.40000E+00    6.81541E-02
 2.60000E+00    6.21985E-02
 2.80000E+00    5.50071E-02
 3.00000E+00    4.73513E-02
 3.20000E+00    3.98842E-02
 3.40000E+00    3.30069E-02
 3.60000E+00    2.69395E-02
 3.80000E+00    2.17770E-02
 4.00000E+00    1.74726E-02
 4.20000E+00    1.39396E-02
 4.40000E+00    1.10850E-02
 4.60000E+00    8.79733E-03
 4.80000E+00    6.97036E-03
 5.00000E+00    5.51328E-03
 5.20000E+00    4.34947E-03
 5.40000E+00    3.42205E-03
 5.60000E+00    2.68140E-03
 5.80000E+00    2.09313E-03
 6.00000E+00    1.62894E-03
 6.20000E+00    1.26032E-03
 6.40000E+00    9.72982E-04
 6.60000E+00    7.48635E-04
 6.80000E+00    5.74596E-04
 7.00000E+00    4.40657E-04
 7.20000E+00    3.37375E-04
 7.40000E+00    2.58368E-04
 7.60000E+00    1.97962E-04
 7.80000E+00    1.51871E-04
 8.00000E+00    1.16742E-04
 8.50000E+00    6.10241E-05
 9.00000E+00    3.24077E-05
 9.50000E+00    1.75176E-05
 1.00000E+01    9.63106E-06
 1.05000E+01    5.37539E-06
 1.10000E+01    3.03683E-06
 1.15000E+01    1.73141E-06
 1.20000E+01    9.94400E-07
 1.25000E+01    5.74220E-07
 1.30000E+01    3.33100E-07
 1.35000E+01    1.94010E-07
 1.40000E+01    1.13490E-07
 1.45000E+01    6.66970E-08
 1.50000E+01    3.94450E-08
 1.60000E+01    1.40570E-08
 1.70000E+01    5.14340E-09
 1.80000E+01    1.92170E-09
 1.90000E+01    7.40660E-10
 2.00000E+01    2.91690E-10
 2.10000E+01    1.17550E-10
 2.20000E+01    4.81630E-11
 2.30000E+01    2.00820E-11
 2.40000E+01    8.50570E-12
 2.50000E+01    3.65480E-12
 2.60000E+01    1.59470E-12
 2.70000E+01    7.07560E-13
 2.80000E+01    3.18980E-13
 2.90000E+01    1.45830E-13
 3.00000E+01    6.76110E-14
