# n + Yb  0 : (n,xn)
# endfb8.0   S.Kunieda, A.Ichihara, K.Shibata+ EVAL-FEB10
#
# # energies =   103
#   E(MeV)          xs(mb) 
 6.71147E-02    0.00000E+00
 7.00000E-02    2.98024E+01
 7.63257E-02    4.21958E+01
 8.00000E-02    1.06608E+02
 9.00000E-02    2.09010E+02
 9.58342E-02    2.54207E+02
 1.00000E-01    2.86575E+02
 1.20000E-01    4.18688E+02
 1.23140E-01    4.35879E+02
 1.40000E-01    5.36656E+02
 1.60000E-01    6.41614E+02
 1.68647E-01    6.82890E+02
 1.80000E-01    7.37201E+02
 2.00000E-01    8.33341E+02
 2.09235E-01    8.69875E+02
 2.31984E-01    9.62464E+02
 2.48063E-01    1.03023E+03
 2.50000E-01    1.03839E+03
 2.60595E-01    1.07453E+03
 3.00000E-01    1.21107E+03
 3.19175E-01    1.26809E+03
 3.50000E-01    1.36058E+03
 3.71077E-01    1.41961E+03
 4.00000E-01    1.50265E+03
 4.50000E-01    1.62988E+03
 4.52237E-01    1.63432E+03
 4.90105E-01    1.72231E+03
 5.00000E-01    1.75260E+03
 5.04157E-01    1.76074E+03
 5.12104E-01    1.77630E+03
 5.50000E-01    1.85946E+03
 6.00000E-01    1.95011E+03
 6.07866E-01    1.96849E+03
 6.50000E-01    2.07422E+03
 6.51723E-01    2.07646E+03
 7.00000E-01    2.13935E+03
 7.50000E-01    2.19605E+03
 7.70520E-01    2.21489E+03
 7.84100E-01    2.23089E+03
 8.00000E-01    2.24963E+03
 8.30371E-01    2.28460E+03
 8.37412E-01    2.29271E+03
 8.39990E-01    2.29568E+03
 8.50000E-01    2.30821E+03
 8.64572E-01    2.31968E+03
 8.72116E-01    2.32561E+03
 8.81169E-01    2.33277E+03
 9.00000E-01    2.35240E+03
 9.07564E-01    2.35709E+03
 9.12453E-01    2.36087E+03
 9.40751E-01    2.38728E+03
 9.49862E-01    2.39593E+03
 9.50000E-01    2.39633E+03
 9.53937E-01    2.39874E+03
 9.60233E-01    2.40262E+03
 9.63814E-01    2.40520E+03
 9.76730E-01    2.41591E+03
 9.81558E-01    2.42017E+03
 9.86588E-01    2.42461E+03
 9.89806E-01    2.42745E+03
 9.93327E-01    2.43065E+03
 9.97451E-01    2.43535E+03
 1.00000E+00    2.43949E+03
 1.01003E+00    2.44441E+03
 1.02008E+00    2.44935E+03
 1.20000E+00    2.65481E+03
 1.40000E+00    2.87425E+03
 1.60000E+00    3.09205E+03
 1.80000E+00    3.26611E+03
 2.00000E+00    3.38340E+03
 2.20000E+00    3.39625E+03
 2.40000E+00    3.39226E+03
 2.60000E+00    3.37980E+03
 2.80000E+00    3.36292E+03
 3.00000E+00    3.34328E+03
 3.25000E+00    3.31573E+03
 3.50000E+00    3.28767E+03
 3.75000E+00    3.26036E+03
 4.00000E+00    3.23397E+03
 4.25000E+00    3.21064E+03
 4.50000E+00    3.18974E+03
 4.75000E+00    3.17071E+03
 5.00000E+00    3.15186E+03
 5.50000E+00    3.11217E+03
 6.00000E+00    3.06945E+03
 6.50000E+00    3.02632E+03
 7.00000E+00    3.03135E+03
 7.50000E+00    3.19434E+03
 8.00000E+00    3.48560E+03
 8.50000E+00    3.81360E+03
 9.00000E+00    4.19001E+03
 9.50000E+00    4.44126E+03
 1.00000E+01    4.62186E+03
 1.10000E+01    4.78821E+03
 1.20000E+01    4.84546E+03
 1.30000E+01    4.85803E+03
 1.40000E+01    4.86254E+03
 1.50000E+01    4.90690E+03
 1.60000E+01    5.06482E+03
 1.70000E+01    5.37204E+03
 1.80000E+01    5.69097E+03
 1.90000E+01    5.92660E+03
 2.00000E+01    6.08556E+03
