# n + Yb  0 : (n,non)
# endfb8.0   S.Kunieda, A.Ichihara, K.Shibata+ EVAL-FEB10
# uncertainties: n
# # energies =   131
#   E(MeV)          xs(mb) 
 1.70000E-03    1.29270E+02
 1.70000E-03    1.29270E+02
 2.00000E-03    1.63137E+03
 2.50000E-03    1.38819E+03
 3.00000E-03    1.21667E+03
 3.50000E-03    1.23508E+03
 4.00000E-03    1.32647E+03
 5.00000E-03    1.14659E+03
 6.00000E-03    1.05533E+03
 7.00000E-03    9.63396E+02
 8.00000E-03    8.92653E+02
 9.00000E-03    8.38308E+02
 1.00000E-02    7.94457E+02
 1.25000E-02    7.12171E+02
 1.50000E-02    6.51330E+02
 2.00000E-02    5.65763E+02
 2.50000E-02    5.12153E+02
 3.00000E-02    4.72173E+02
 4.00000E-02    4.20294E+02
 5.00000E-02    3.86853E+02
 6.00000E-02    3.63296E+02
 6.71147E-02    3.44716E+02
 7.00000E-02    3.67528E+02
 7.63257E-02    3.50700E+02
 8.00000E-02    3.99999E+02
 9.00000E-02    4.64805E+02
 9.58342E-02    4.96561E+02
 1.00000E-01    5.19663E+02
 1.20000E-01    6.20102E+02
 1.23140E-01    6.33303E+02
 1.40000E-01    7.14229E+02
 1.60000E-01    8.02764E+02
 1.68647E-01    8.38641E+02
 1.80000E-01    8.86213E+02
 2.00000E-01    9.69789E+02
 2.09235E-01    1.00273E+03
 2.31984E-01    1.08701E+03
 2.48063E-01    1.14930E+03
 2.50000E-01    1.15682E+03
 2.60595E-01    1.19043E+03
 3.00000E-01    1.31838E+03
 3.19175E-01    1.37229E+03
 3.50000E-01    1.46005E+03
 3.71077E-01    1.51641E+03
 4.00000E-01    1.59592E+03
 4.50000E-01    1.71832E+03
 4.52237E-01    1.72256E+03
 4.90105E-01    1.80732E+03
 5.00000E-01    1.83683E+03
 5.04157E-01    1.84473E+03
 5.12104E-01    1.85984E+03
 5.50000E-01    1.94097E+03
 6.00000E-01    2.03010E+03
 6.07866E-01    2.04839E+03
 6.50000E-01    2.15367E+03
 6.51723E-01    2.15591E+03
 7.00000E-01    2.21854E+03
 7.50000E-01    2.27596E+03
 7.70520E-01    2.29511E+03
 7.84100E-01    2.31131E+03
 8.00000E-01    2.33029E+03
 8.30371E-01    2.36510E+03
 8.37412E-01    2.37317E+03
 8.39990E-01    2.37613E+03
 8.50000E-01    2.38860E+03
 8.64572E-01    2.40036E+03
 8.72116E-01    2.40644E+03
 8.81169E-01    2.41378E+03
 9.00000E-01    2.43378E+03
 9.07564E-01    2.43861E+03
 9.12453E-01    2.44249E+03
 9.40751E-01    2.46945E+03
 9.49862E-01    2.47829E+03
 9.50000E-01    2.47868E+03
 9.53937E-01    2.48115E+03
 9.60233E-01    2.48512E+03
 9.63814E-01    2.48776E+03
 9.76730E-01    2.49867E+03
 9.81558E-01    2.50301E+03
 9.86588E-01    2.50754E+03
 9.89806E-01    2.51043E+03
 9.93327E-01    2.51369E+03
 9.97451E-01    2.51846E+03
 1.00000E+00    2.52265E+03
 1.01003E+00    2.52762E+03
 1.02008E+00    2.53261E+03
 1.20000E+00    2.73924E+03
 1.40000E+00    2.95284E+03
 1.60000E+00    3.16391E+03
 1.80000E+00    3.32970E+03
 2.00000E+00    3.44010E+03
 2.20000E+00    3.44756E+03
 2.40000E+00    3.43906E+03
 2.60000E+00    3.42250E+03
 2.80000E+00    3.40165E+03
 3.00000E+00    3.37810E+03
 3.25000E+00    3.34595E+03
 3.50000E+00    3.31324E+03
 3.75000E+00    3.28142E+03
 4.00000E+00    3.25190E+03
 4.25000E+00    3.22554E+03
 4.50000E+00    3.20196E+03
 4.60293E+00    3.19311E+03
 4.75000E+00    3.18047E+03
 4.93964E+00    3.16488E+03
 5.00000E+00    3.15992E+03
 5.27429E+00    3.13665E+03
 5.50000E+00    3.11751E+03
 6.00000E+00    3.07299E+03
 6.50000E+00    3.02873E+03
 6.65353E+00    3.01323E+03
 6.84062E+00    2.99955E+03
 7.00000E+00    2.98792E+03
 7.50000E+00    2.95241E+03
 8.00000E+00    2.92203E+03
 8.50000E+00    2.89611E+03
 9.00000E+00    2.87336E+03
 9.50000E+00    2.85313E+03
 1.00000E+01    2.83464E+03
 1.10000E+01    2.79927E+03
 1.12338E+01    2.79140E+03
 1.20000E+01    2.76562E+03
 1.30000E+01    2.73416E+03
 1.40000E+01    2.70698E+03
 1.50000E+01    2.68332E+03
 1.51735E+01    2.67947E+03
 1.60000E+01    2.66354E+03
 1.70000E+01    2.64624E+03
 1.80000E+01    2.62944E+03
 1.90000E+01    2.61285E+03
 2.00000E+01    2.59609E+03
