# n + Nd146 : (n,n'12)  
# tendl.2019 A.J. Koning and D. Rochman        EVAL-NOV19
# uncertainties: n
# # energies =    80
#   E(MeV)       xs(mb) 
 1.70849E+00    0.00000E+00
 1.75702E+00    1.22612E+01
 1.78163E+00    1.84789E+01
 1.78945E+00    2.04547E+01
 1.79232E+00    2.11798E+01
 1.79966E+00    2.30342E+01
 1.80000E+00    2.31201E+01
 1.82453E+00    2.37893E+01
 1.84668E+00    2.43937E+01
 1.89773E+00    2.57864E+01
 1.91851E+00    2.63533E+01
 1.93206E+00    2.67230E+01
 1.99213E+00    2.83619E+01
 2.00000E+00    2.85766E+01
 2.00267E+00    2.86009E+01
 2.04101E+00    2.89496E+01
 2.04345E+00    2.89718E+01
 2.05967E+00    2.91193E+01
 2.08330E+00    2.93342E+01
 2.08692E+00    2.93671E+01
 2.09792E+00    2.94672E+01
 2.20000E+00    3.03956E+01
 2.40000E+00    2.84702E+01
 2.60000E+00    2.41287E+01
 2.80000E+00    1.86329E+01
 3.00000E+00    1.34762E+01
 3.20000E+00    9.39565E+00
 3.40000E+00    6.45085E+00
 3.60000E+00    4.42193E+00
 3.80000E+00    3.04860E+00
 4.00000E+00    2.12094E+00
 4.20000E+00    1.49055E+00
 4.40000E+00    1.05843E+00
 4.60000E+00    7.58283E-01
 4.80000E+00    5.47026E-01
 5.00000E+00    3.96572E-01
 5.20000E+00    2.88520E-01
 5.40000E+00    2.10458E-01
 5.60000E+00    1.53881E-01
 5.80000E+00    1.12812E-01
 6.00000E+00    8.29788E-02
 6.20000E+00    6.11342E-02
 6.40000E+00    4.51960E-02
 6.60000E+00    3.37007E-02
 6.80000E+00    2.51633E-02
 7.00000E+00    1.89236E-02
 7.20000E+00    1.43181E-02
 7.40000E+00    1.08610E-02
 7.60000E+00    8.32001E-03
 7.80000E+00    6.38510E-03
 8.00000E+00    4.92070E-03
 8.50000E+00    2.59613E-03
 9.00000E+00    1.38157E-03
 9.50000E+00    7.38826E-04
 1.00000E+01    3.97353E-04
 1.05000E+01    2.15152E-04
 1.10000E+01    1.17455E-04
 1.15000E+01    6.47639E-05
 1.20000E+01    3.60977E-05
 1.25000E+01    2.03626E-05
 1.30000E+01    1.16271E-05
 1.35000E+01    6.71832E-06
 1.40000E+01    3.92725E-06
 1.45000E+01    2.32007E-06
 1.50000E+01    1.38388E-06
 1.60000E+01    5.04650E-07
 1.70000E+01    1.89270E-07
 1.80000E+01    7.26290E-08
 1.90000E+01    2.81730E-08
 2.00000E+01    1.12850E-08
 2.10000E+01    4.62390E-09
 2.20000E+01    1.94260E-09
 2.30000E+01    8.38430E-10
 2.40000E+01    3.67980E-10
 2.50000E+01    1.64480E-10
 2.60000E+01    7.46840E-11
 2.70000E+01    3.43420E-11
 2.80000E+01    1.59530E-11
 2.90000E+01    7.47700E-12
 3.00000E+01    3.53790E-12
