# n + Nd146 : (n,n'14)  
# tendl.2019 A.J. Koning and D. Rochman        EVAL-NOV19
# uncertainties: n
# # energies =    78
#   E(MeV)       xs(mb) 
 1.78163E+00    0.00000E+00
 1.78945E+00    8.71993E+00
 1.79232E+00    1.19202E+01
 1.79966E+00    2.01048E+01
 1.80000E+00    2.04839E+01
 1.82453E+00    2.33802E+01
 1.84668E+00    2.59954E+01
 1.89773E+00    3.20229E+01
 1.91851E+00    3.44764E+01
 1.93206E+00    3.60762E+01
 1.99213E+00    4.31687E+01
 2.00000E+00    4.40979E+01
 2.00267E+00    4.41418E+01
 2.04101E+00    4.47713E+01
 2.04345E+00    4.48114E+01
 2.05967E+00    4.50777E+01
 2.08330E+00    4.54658E+01
 2.08692E+00    4.55252E+01
 2.09792E+00    4.57058E+01
 2.20000E+00    4.73821E+01
 2.40000E+00    4.40294E+01
 2.60000E+00    3.79645E+01
 2.80000E+00    3.05170E+01
 3.00000E+00    2.32670E+01
 3.20000E+00    1.71871E+01
 3.40000E+00    1.25004E+01
 3.60000E+00    9.04610E+00
 3.80000E+00    6.55027E+00
 4.00000E+00    4.76022E+00
 4.20000E+00    3.47680E+00
 4.40000E+00    2.55533E+00
 4.60000E+00    1.88959E+00
 4.80000E+00    1.40505E+00
 5.00000E+00    1.04959E+00
 5.20000E+00    7.87062E-01
 5.40000E+00    5.91971E-01
 5.60000E+00    4.46341E-01
 5.80000E+00    3.37289E-01
 6.00000E+00    2.55500E-01
 6.20000E+00    1.93623E-01
 6.40000E+00    1.46893E-01
 6.60000E+00    1.12197E-01
 6.80000E+00    8.55768E-02
 7.00000E+00    6.55642E-02
 7.20000E+00    5.04073E-02
 7.40000E+00    3.87392E-02
 7.60000E+00    2.99938E-02
 7.80000E+00    2.32105E-02
 8.00000E+00    1.80026E-02
 8.50000E+00    9.59178E-03
 9.00000E+00    5.13179E-03
 9.50000E+00    2.75792E-03
 1.00000E+01    1.49304E-03
 1.05000E+01    8.15483E-04
 1.10000E+01    4.49846E-04
 1.15000E+01    2.50877E-04
 1.20000E+01    1.41448E-04
 1.25000E+01    8.06595E-05
 1.30000E+01    4.65015E-05
 1.35000E+01    2.70876E-05
 1.40000E+01    1.59392E-05
 1.45000E+01    9.46736E-06
 1.50000E+01    5.67320E-06
 1.60000E+01    2.08541E-06
 1.70000E+01    7.87710E-07
 1.80000E+01    3.04260E-07
 1.90000E+01    1.18820E-07
 2.00000E+01    4.79240E-08
 2.10000E+01    1.97660E-08
 2.20000E+01    8.34720E-09
 2.30000E+01    3.61450E-09
 2.40000E+01    1.58800E-09
 2.50000E+01    7.09100E-10
 2.60000E+01    3.21320E-10
 2.70000E+01    1.47540E-10
 2.80000E+01    6.85600E-11
 2.90000E+01    3.22130E-11
 3.00000E+01    1.53050E-11
