# n + Nd146 : (n,n'08)  
# tendl.2019 A.J. Koning and D. Rochman        EVAL-NOV19
# uncertainties: n
# # energies =    85
#   E(MeV)       xs(mb) 
 1.52801E+00    0.00000E+00
 1.58287E+00    1.99308E+00
 1.60000E+00    2.61542E+00
 1.61365E+00    3.15731E+00
 1.69967E+00    6.57221E+00
 1.70849E+00    6.92235E+00
 1.75702E+00    8.84894E+00
 1.78163E+00    9.82593E+00
 1.78945E+00    1.01364E+01
 1.79232E+00    1.02503E+01
 1.79966E+00    1.05417E+01
 1.80000E+00    1.05552E+01
 1.82453E+00    1.13269E+01
 1.84668E+00    1.20238E+01
 1.89773E+00    1.36299E+01
 1.91851E+00    1.42836E+01
 1.93206E+00    1.47099E+01
 1.99213E+00    1.65998E+01
 2.00000E+00    1.68474E+01
 2.00267E+00    1.68830E+01
 2.04101E+00    1.73946E+01
 2.04345E+00    1.74272E+01
 2.05967E+00    1.76436E+01
 2.08330E+00    1.79590E+01
 2.08692E+00    1.80073E+01
 2.09792E+00    1.81540E+01
 2.20000E+00    1.95162E+01
 2.40000E+00    1.92370E+01
 2.60000E+00    1.70094E+01
 2.80000E+00    1.40563E+01
 3.00000E+00    1.12046E+01
 3.20000E+00    8.78777E+00
 3.40000E+00    6.85524E+00
 3.60000E+00    5.35455E+00
 3.80000E+00    4.20387E+00
 4.00000E+00    3.32767E+00
 4.20000E+00    2.66264E+00
 4.40000E+00    2.15986E+00
 4.60000E+00    1.77975E+00
 4.80000E+00    1.49262E+00
 5.00000E+00    1.27631E+00
 5.20000E+00    1.11444E+00
 5.40000E+00    9.94483E-01
 5.60000E+00    9.06844E-01
 5.80000E+00    8.44098E-01
 6.00000E+00    8.00158E-01
 6.20000E+00    7.70297E-01
 6.40000E+00    7.51042E-01
 6.60000E+00    7.40118E-01
 6.80000E+00    7.34459E-01
 7.00000E+00    7.32771E-01
 7.20000E+00    7.33653E-01
 7.40000E+00    7.35910E-01
 7.60000E+00    7.39117E-01
 7.80000E+00    7.42415E-01
 8.00000E+00    7.45542E-01
 8.50000E+00    7.51047E-01
 9.00000E+00    7.52158E-01
 9.50000E+00    7.49106E-01
 1.00000E+01    7.43004E-01
 1.05000E+01    7.35153E-01
 1.10000E+01    7.26634E-01
 1.15000E+01    7.18170E-01
 1.20000E+01    7.10128E-01
 1.25000E+01    7.02619E-01
 1.30000E+01    6.95581E-01
 1.35000E+01    6.88890E-01
 1.40000E+01    6.82410E-01
 1.45000E+01    6.76006E-01
 1.50000E+01    6.69555E-01
 1.60000E+01    6.56157E-01
 1.70000E+01    6.41731E-01
 1.80000E+01    6.26246E-01
 1.90000E+01    6.10041E-01
 2.00000E+01    5.93657E-01
 2.10000E+01    5.77647E-01
 2.20000E+01    5.62410E-01
 2.30000E+01    5.48109E-01
 2.40000E+01    5.34670E-01
 2.50000E+01    5.21873E-01
 2.60000E+01    5.09453E-01
 2.70000E+01    4.97205E-01
 2.80000E+01    4.85049E-01
 2.90000E+01    4.73031E-01
 3.00000E+01    4.61265E-01
