# n + Ba  0 : (n,xp)
# jendl.ad   N.Iwamoto                         EVAL-Apr14
#
# # energies =   113
#   E(MeV)          xs(mb) 
 1.05000E-01    3.87387E-15
 1.10000E-01    5.84464E-15
 1.20000E-01    9.78622E-15
 1.30000E-01    1.37278E-14
 1.40000E-01    1.76693E-14
 1.50000E-01    2.16108E-14
 1.60000E-01    2.55524E-14
 1.70000E-01    2.94939E-14
 1.80000E-01    3.34355E-14
 1.90000E-01    3.73770E-14
 2.00000E-01    4.13186E-14
 2.25000E-01    5.11724E-14
 2.50000E-01    6.10264E-14
 2.75000E-01    7.08805E-14
 3.00000E-01    8.17335E-14
 4.00000E-01    1.36356E-13
 5.00000E-01    1.13761E-12
 6.00000E-01    1.13121E-11
 6.09277E-01    1.65324E-11
 7.00000E-01    6.75836E-11
 8.00000E-01    3.08941E-10
 9.00000E-01    1.28496E-09
 1.00000E+00    4.51494E-09
 1.10000E+00    1.37264E-08
 1.17677E+00    3.13715E-08
 1.20000E+00    3.96331E-08
 1.30000E+00    1.00258E-07
 1.40000E+00    2.43886E-07
 1.41114E+00    2.78232E-07
 1.50000E+00    5.52762E-07
 1.60000E+00    1.15830E-06
 1.65572E+00    1.78653E-06
 1.70000E+00    2.28654E-06
 1.77382E+00    3.77037E-06
 1.80000E+00    4.29661E-06
 1.90000E+00    7.71512E-06
 1.98476E+00    1.24455E-05
 2.00000E+00    1.33044E-05
 2.00131E+00    1.34567E-05
 2.04453E+00    1.84785E-05
 2.10402E+00    2.54656E-05
 2.13416E+00    2.91037E-05
 2.17595E+00    3.41539E-05
 2.18092E+00    3.47545E-05
 2.18093E+00    3.47557E-05
 2.22796E+00    4.06938E-05
 2.25000E+00    4.35138E-05
 2.26190E+00    4.71629E-05
 2.27194E+00    5.02500E-05
 2.28868E+00    5.54075E-05
 2.29704E+00    5.79947E-05
 2.30255E+00    5.97445E-05
 2.30256E+00    5.97477E-05
 2.31702E+00    6.43431E-05
 2.32841E+00    6.79631E-05
 2.35235E+00    7.55484E-05
 2.35442E+00    7.62026E-05
 2.38888E+00    8.74056E-05
 2.39501E+00    8.94268E-05
 2.39703E+00    9.00934E-05
 2.48284E+00    1.18541E-04
 2.48818E+00    1.20322E-04
 2.49767E+00    1.23486E-04
 2.49902E+00    1.23936E-04
 2.50000E+00    1.24263E-04
 2.50717E+00    1.29140E-04
 2.50718E+00    1.29147E-04
 2.52514E+00    1.41364E-04
 2.55038E+00    1.58533E-04
 2.55602E+00    1.62370E-04
 2.58403E+00    1.81423E-04
 2.59024E+00    1.85648E-04
 2.59370E+00    1.88003E-04
 2.61946E+00    2.05530E-04
 2.67624E+00    2.44164E-04
 2.68193E+00    2.48035E-04
 2.69793E+00    2.58922E-04
 2.75000E+00    2.94351E-04
 3.00000E+00    6.19368E-04
 3.50000E+00    2.02688E-03
 4.00000E+00    4.84436E-03
 4.50000E+00    9.12378E-03
 5.00000E+00    1.44068E-02
 5.50000E+00    2.02223E-02
 6.00000E+00    2.66178E-02
 6.50000E+00    3.43856E-02
 7.00000E+00    4.50152E-02
 7.50000E+00    6.09150E-02
 8.00000E+00    8.53321E-02
 8.50000E+00    1.23218E-01
 9.00000E+00    1.80080E-01
 9.50000E+00    2.62853E-01
 1.00000E+01    3.79476E-01
 1.05000E+01    5.40203E-01
 1.10000E+01    7.57044E-01
 1.15000E+01    1.04524E+00
 1.20000E+01    1.42340E+00
 1.25000E+01    1.91332E+00
 1.30000E+01    2.53909E+00
 1.35000E+01    3.32535E+00
 1.40000E+01    4.29408E+00
 1.45000E+01    5.46307E+00
 1.50000E+01    6.84376E+00
 1.55000E+01    8.44151E+00
 1.60000E+01    1.02538E+01
 1.65000E+01    1.22733E+01
 1.70000E+01    1.44906E+01
 1.75000E+01    1.68994E+01
 1.80000E+01    1.94819E+01
 1.85000E+01    2.22322E+01
 1.90000E+01    2.51433E+01
 1.95000E+01    2.82088E+01
 2.00000E+01    3.14183E+01
