# n + Ba  0 : (n,xa)
# jendl.ad   N.Iwamoto                         EVAL-Apr14
#
# # energies =   113
#   E(MeV)          xs(mb) 
 1.05000E-01    1.43754E-03
 1.10000E-01    1.41904E-03
 1.20000E-01    1.38638E-03
 1.30000E-01    1.35725E-03
 1.40000E-01    1.33166E-03
 1.50000E-01    1.31019E-03
 1.60000E-01    1.29334E-03
 1.70000E-01    1.28997E-03
 1.80000E-01    1.28828E-03
 1.90000E-01    1.28635E-03
 2.00000E-01    1.28445E-03
 2.25000E-01    1.24739E-03
 2.50000E-01    1.20764E-03
 2.75000E-01    1.21342E-03
 3.00000E-01    1.20775E-03
 4.00000E-01    1.22023E-03
 5.00000E-01    1.27275E-03
 6.00000E-01    1.24435E-03
 6.09277E-01    1.24879E-03
 7.00000E-01    1.28690E-03
 8.00000E-01    1.33800E-03
 9.00000E-01    1.40950E-03
 1.00000E+00    1.46496E-03
 1.10000E+00    1.56521E-03
 1.17677E+00    1.68806E-03
 1.20000E+00    1.72104E-03
 1.30000E+00    1.84178E-03
 1.40000E+00    2.01508E-03
 1.41114E+00    2.04140E-03
 1.50000E+00    2.24406E-03
 1.60000E+00    2.48032E-03
 1.65572E+00    2.63842E-03
 1.70000E+00    2.76398E-03
 1.77382E+00    3.00904E-03
 1.80000E+00    3.09600E-03
 1.90000E+00    3.45763E-03
 1.98476E+00    3.78188E-03
 2.00000E+00    3.84420E-03
 2.00131E+00    3.84970E-03
 2.04453E+00    4.03171E-03
 2.10402E+00    4.29002E-03
 2.13416E+00    4.41456E-03
 2.17595E+00    4.59769E-03
 2.18092E+00    4.61948E-03
 2.18093E+00    4.61953E-03
 2.22796E+00    4.84786E-03
 2.25000E+00    4.94540E-03
 2.26190E+00    5.02021E-03
 2.27194E+00    5.08163E-03
 2.28868E+00    5.18732E-03
 2.29704E+00    5.25454E-03
 2.30255E+00    5.28816E-03
 2.30256E+00    5.28822E-03
 2.31702E+00    5.37629E-03
 2.32841E+00    5.44596E-03
 2.35235E+00    5.59366E-03
 2.35442E+00    5.60577E-03
 2.38888E+00    5.82426E-03
 2.39501E+00    5.86379E-03
 2.39703E+00    5.87689E-03
 2.48284E+00    6.45130E-03
 2.48818E+00    6.48767E-03
 2.49767E+00    6.55234E-03
 2.49902E+00    6.56155E-03
 2.50000E+00    6.56798E-03
 2.50717E+00    6.61994E-03
 2.50718E+00    6.62002E-03
 2.52514E+00    6.75100E-03
 2.55038E+00    6.93522E-03
 2.55602E+00    6.97929E-03
 2.58403E+00    7.18393E-03
 2.59024E+00    7.22907E-03
 2.59370E+00    7.25433E-03
 2.61946E+00    7.44348E-03
 2.67624E+00    7.86805E-03
 2.68193E+00    7.91032E-03
 2.69793E+00    8.02931E-03
 2.75000E+00    8.41982E-03
 3.00000E+00    1.08292E-02
 3.50000E+00    1.70081E-02
 4.00000E+00    2.54396E-02
 4.50000E+00    3.61320E-02
 5.00000E+00    4.91190E-02
 5.50000E+00    6.46045E-02
 6.00000E+00    8.25702E-02
 6.50000E+00    1.04219E-01
 7.00000E+00    1.29774E-01
 7.50000E+00    1.60834E-01
 8.00000E+00    1.98397E-01
 8.50000E+00    2.44105E-01
 9.00000E+00    3.00100E-01
 9.50000E+00    3.70953E-01
 1.00000E+01    4.58954E-01
 1.05000E+01    5.69032E-01
 1.10000E+01    7.08385E-01
 1.15000E+01    8.87182E-01
 1.20000E+01    1.11649E+00
 1.25000E+01    1.40541E+00
 1.30000E+01    1.76245E+00
 1.35000E+01    2.19587E+00
 1.40000E+01    2.71328E+00
 1.45000E+01    3.32286E+00
 1.50000E+01    4.03298E+00
 1.55000E+01    4.85336E+00
 1.60000E+01    5.78994E+00
 1.65000E+01    6.85869E+00
 1.70000E+01    8.06844E+00
 1.75000E+01    9.43394E+00
 1.80000E+01    1.09652E+01
 1.85000E+01    1.26898E+01
 1.90000E+01    1.46189E+01
 1.95000E+01    1.67861E+01
 2.00000E+01    1.92080E+01
