# n + Ba  0 : (n,t)
# jendl.ad   N.Iwamoto                         EVAL-Apr14
# uncertainties: n
# # energies =    62
#   E(MeV)          xs(mb) 
 8.94011E+00    1.52157E-12
 8.95143E+00    1.56065E-12
 9.00058E+00    1.89359E-12
 9.07988E+00    2.44969E-11
 9.11519E+00    3.45615E-11
 9.11782E+00    3.53112E-11
 9.11806E+00    3.53797E-11
 9.13178E+00    3.92903E-11
 9.13516E+00    4.02540E-11
 9.13936E+00    4.14511E-11
 9.15121E+00    4.48286E-11
 9.17618E+00    5.19460E-11
 9.19912E+00    5.84846E-11
 9.20975E+00    6.15147E-11
 9.21347E+00    6.25752E-11
 9.23323E+00    6.82072E-11
 9.28702E+00    8.35394E-11
 9.32001E+00    9.29428E-11
 9.32593E+00    9.46301E-11
 9.37750E+00    1.09329E-10
 9.39369E+00    1.13944E-10
 9.39488E+00    1.14284E-10
 9.39756E+00    1.15047E-10
 9.42735E+00    1.23539E-10
 9.44668E+00    1.29048E-10
 9.46328E+00    1.33780E-10
 9.48377E+00    1.39620E-10
 9.51517E+00    2.40614E-10
 9.52354E+00    2.93780E-10
 9.52862E+00    3.26052E-10
 9.55768E+00    5.10656E-10
 9.56672E+00    5.68081E-10
 9.56874E+00    5.80912E-10
 9.58556E+00    6.87760E-10
 9.58885E+00    7.08661E-10
 9.59826E+00    7.68437E-10
 9.61004E+00    8.43267E-10
 9.62112E+00    9.13657E-10
 9.62586E+00    9.43766E-10
 9.62969E+00    9.68095E-10
 9.63384E+00    9.94454E-10
 1.00000E+01    3.32047E-09
 1.05000E+01    3.37257E-08
 1.10000E+01    2.01169E-07
 1.15000E+01    8.86915E-07
 1.20000E+01    3.54636E-06
 1.25000E+01    1.41954E-05
 1.30000E+01    5.49231E-05
 1.35000E+01    1.93218E-04
 1.40000E+01    5.96092E-04
 1.45000E+01    1.62751E-03
 1.50000E+01    3.95406E-03
 1.55000E+01    8.52382E-03
 1.60000E+01    1.68100E-02
 1.65000E+01    3.02795E-02
 1.70000E+01    4.98309E-02
 1.75000E+01    7.64162E-02
 1.80000E+01    1.11463E-01
 1.85000E+01    1.53338E-01
 1.90000E+01    2.02835E-01
 1.95000E+01    2.58468E-01
 2.00000E+01    3.21138E-01
