# n + Ge 76 : (n,tot)   
# jendl4.0   Iwamoto,Herman,Mughabghab+        EVAL-AUG04
# uncertainties: n
# # energies =   171
#   E(MeV)       xs(mb) 
 1.00000E-11    1.76538E+04
 1.00000E-07    8.42431E+03
 4.13990E-07    8.39979E+03
 5.31580E-07    8.39454E+03
 6.82560E-07    8.39019E+03
 8.76420E-07    8.38630E+03
 1.12540E-06    8.38401E+03
 1.44500E-06    8.38109E+03
 1.85540E-06    8.37739E+03
 2.37240E-06    8.37292E+03
 3.05900E-06    8.37079E+03
 3.92790E-06    8.36912E+03
 5.04350E-06    8.36698E+03
 6.47600E-06    8.36423E+03
 8.31530E-06    8.36070E+03
 1.06770E-05    8.35617E+03
 1.37100E-05    8.35035E+03
 1.76030E-05    8.34287E+03
 2.26030E-05    8.33314E+03
 2.92030E-05    8.32079E+03
 3.72670E-05    8.30513E+03
 4.78510E-05    8.28482E+03
 6.14420E-05    8.25873E+03
 7.88930E-05    8.22524E+03
 1.01300E-04    8.18223E+03
 1.30070E-04    8.12700E+03
 1.67020E-04    8.05609E+03
 2.14450E-04    7.96407E+03
 2.75360E-04    7.81903E+03
 3.53580E-04    7.54224E+03
 4.54000E-04    2.64917E+04
 5.82950E-04    8.56910E+03
 7.48520E-04    7.82555E+03
 9.61120E-04    7.51221E+03
 1.23410E-03    7.22893E+03
 1.58460E-03    6.93414E+03
 2.03470E-03    6.71267E+03
 2.24870E-03    6.58226E+03
 2.48520E-03    6.47998E+03
 2.61260E-03    6.40712E+03
 2.74650E-03    6.29154E+03
 3.03540E-03    6.12934E+03
 3.35460E-03    5.95080E+03
 3.70740E-03    5.65084E+03
 4.30740E-03    8.52797E+03
 5.53080E-03    6.58666E+03
 7.10170E-03    5.04133E+03
 9.11880E-03    4.35220E+03
 1.17090E-02    4.60947E+03
 1.50340E-02    1.10415E+04
 1.93050E-02    5.17937E+03
 2.18750E-02    2.03765E+04
 2.35790E-02    7.42376E+03
 2.41760E-02    5.50444E+03
 2.47880E-02    3.92863E+03
 2.60580E-02    2.38470E+03
 2.70000E-02    6.51431E+02
 2.85000E-02    2.25103E+04
 3.18280E-02    8.54165E+03
 3.43070E-02    8.33892E+03
 4.08680E-02    8.10986E+03
 4.63090E-02    7.93135E+03
 5.24750E-02    7.79538E+03
 5.65620E-02    7.63493E+03
 6.73790E-02    7.48637E+03
 7.20000E-02    7.38896E+03
 7.95000E-02    7.31030E+03
 8.25000E-02    7.26319E+03
 8.65170E-02    7.16814E+03
 9.80370E-02    7.03498E+03
 1.11090E-01    6.94437E+03
 1.16790E-01    6.89363E+03
 1.22770E-01    6.84376E+03
 1.29070E-01    6.79479E+03
 1.35690E-01    6.74510E+03
 1.42640E-01    6.69665E+03
 1.49960E-01    6.64826E+03
 1.57640E-01    6.60015E+03
 1.65730E-01    6.55271E+03
 1.74220E-01    6.50521E+03
 1.83160E-01    6.45798E+03
 1.92550E-01    6.41106E+03
 2.02420E-01    6.36428E+03
 2.12800E-01    6.31755E+03
 2.23710E-01    6.27086E+03
 2.35180E-01    6.22423E+03
 2.47240E-01    6.15424E+03
 2.73240E-01    6.08413E+03
 2.87250E-01    6.04900E+03
 2.94520E-01    6.03305E+03
 2.97200E-01    6.02669E+03
 2.98500E-01    6.01918E+03
 3.01970E-01    5.96696E+03
 3.33730E-01    5.87202E+03
 3.68830E-01    5.80005E+03
 3.87740E-01    5.75171E+03
 4.07620E-01    5.67846E+03
 4.50490E-01    5.57928E+03
 4.97870E-01    5.50361E+03
 5.23400E-01    5.45240E+03
 5.50230E-01    5.40490E+03
 5.78440E-01    5.34128E+03
 6.08100E-01    5.25174E+03
 6.39280E-01    5.16437E+03
 6.72060E-01    5.07339E+03
 7.06510E-01    4.98120E+03
 7.42740E-01    4.89242E+03
 7.80820E-01    4.79948E+03
 8.20850E-01    4.70872E+03
 8.62940E-01    4.61827E+03
 9.07180E-01    4.51919E+03
 9.61640E-01    4.43084E+03
 1.00260E+00    4.30994E+03
 1.10800E+00    4.18408E+03
 1.16480E+00    4.09531E+03
 1.22460E+00    4.01875E+03
 1.28730E+00    3.94488E+03
 1.35340E+00    3.86761E+03
 1.42270E+00    3.80201E+03
 1.49570E+00    3.74120E+03
 1.57240E+00    3.68031E+03
 1.65300E+00    3.63390E+03
 1.73770E+00    3.58821E+03
 1.82680E+00    3.55377E+03
 1.92050E+00    3.52543E+03
 2.01900E+00    3.50530E+03
 2.12250E+00    3.49295E+03
 2.23130E+00    3.49128E+03
 2.30690E+00    3.49285E+03
 2.34570E+00    3.49365E+03
 2.36530E+00    3.49419E+03
 2.38520E+00    3.49619E+03
 2.46600E+00    3.50784E+03
 2.59240E+00    3.52481E+03
 2.72530E+00    3.54782E+03
 2.86500E+00    3.57339E+03
 3.01190E+00    3.60028E+03
 3.16640E+00    3.62855E+03
 3.32870E+00    3.67388E+03
 3.67880E+00    3.73711E+03
 4.06570E+00    3.79283E+03
 4.49330E+00    3.83589E+03
 4.72370E+00    3.85993E+03
 4.96590E+00    3.88359E+03
 5.22050E+00    3.90420E+03
 5.48810E+00    3.92347E+03
 5.76950E+00    3.94372E+03
 6.06530E+00    3.96175E+03
 6.37630E+00    3.97172E+03
 6.59240E+00    3.97778E+03
 6.70320E+00    3.98612E+03
 7.04690E+00    3.99546E+03
 7.40820E+00    3.99867E+03
 7.78800E+00    4.00043E+03
 8.18730E+00    3.99169E+03
 8.60710E+00    3.98044E+03
 9.04840E+00    3.96434E+03
 9.51230E+00    3.93928E+03
 1.00000E+01    3.90525E+03
 1.05130E+01    3.86179E+03
 1.10520E+01    3.80679E+03
 1.16180E+01    3.74137E+03
 1.22140E+01    3.66159E+03
 1.28400E+01    3.57158E+03
 1.34990E+01    3.49598E+03
 1.38400E+01    3.44366E+03
 1.41910E+01    3.38998E+03
 1.45500E+01    3.33502E+03
 1.49180E+01    3.25239E+03
 1.56830E+01    3.14315E+03
 1.64870E+01    3.03991E+03
