# n + Ge 76 : (n,el)    
# jendl4.0   Iwamoto,Herman,Mughabghab+        EVAL-AUG04
# uncertainties: n
# # energies =   171
#   E(MeV)       xs(mb) 
 1.00000E-11    1.59821E+04
 1.00000E-07    8.36861E+03
 4.13990E-07    8.36375E+03
 5.31580E-07    8.36314E+03
 6.82560E-07    8.36236E+03
 8.76420E-07    8.36135E+03
 1.12540E-06    8.36019E+03
 1.44500E-06    8.35950E+03
 1.85540E-06    8.35875E+03
 2.37240E-06    8.35779E+03
 3.05900E-06    8.35654E+03
 3.92790E-06    8.35494E+03
 5.04350E-06    8.35289E+03
 6.47600E-06    8.35026E+03
 8.31530E-06    8.34688E+03
 1.06770E-05    8.34254E+03
 1.37100E-05    8.33697E+03
 1.76030E-05    8.32982E+03
 2.26030E-05    8.32050E+03
 2.92030E-05    8.30868E+03
 3.72670E-05    8.29369E+03
 4.78510E-05    8.27425E+03
 6.14420E-05    8.24928E+03
 7.88930E-05    8.21722E+03
 1.01300E-04    8.17606E+03
 1.30070E-04    8.12320E+03
 1.67020E-04    8.05533E+03
 2.14450E-04    7.96240E+03
 2.75360E-04    7.81675E+03
 3.53580E-04    7.53848E+03
 4.54000E-04    2.17152E+04
 5.82950E-04    8.56119E+03
 7.48520E-04    7.82448E+03
 9.61120E-04    7.51058E+03
 1.23410E-03    7.22848E+03
 1.58460E-03    6.93394E+03
 2.03470E-03    6.71537E+03
 2.24870E-03    6.58142E+03
 2.48520E-03    6.47430E+03
 2.61260E-03    6.40427E+03
 2.74650E-03    6.29240E+03
 3.03540E-03    6.13021E+03
 3.35460E-03    5.95099E+03
 3.70740E-03    5.65058E+03
 4.30740E-03    8.44239E+03
 5.53080E-03    6.53603E+03
 7.10170E-03    5.04177E+03
 9.11880E-03    4.35243E+03
 1.17090E-02    4.59834E+03
 1.50340E-02    1.10337E+04
 1.93050E-02    5.17014E+03
 2.18750E-02    2.03642E+04
 2.35790E-02    7.42319E+03
 2.41760E-02    5.50414E+03
 2.47880E-02    3.92840E+03
 2.60580E-02    2.38442E+03
 2.70000E-02    6.50704E+02
 2.85000E-02    2.24931E+04
 3.18280E-02    8.51711E+03
 3.43070E-02    8.31629E+03
 4.08680E-02    8.08927E+03
 4.63090E-02    7.91227E+03
 5.24750E-02    7.77734E+03
 5.65620E-02    7.61806E+03
 6.73790E-02    7.47056E+03
 7.20000E-02    7.37383E+03
 7.95000E-02    7.29571E+03
 8.25000E-02    7.24892E+03
 8.65170E-02    7.15451E+03
 9.80370E-02    7.02223E+03
 1.11090E-01    6.93222E+03
 1.16790E-01    6.88180E+03
 1.22770E-01    6.83225E+03
 1.29070E-01    6.78358E+03
 1.35690E-01    6.73419E+03
 1.42640E-01    6.68603E+03
 1.49960E-01    6.63794E+03
 1.57640E-01    6.59012E+03
 1.65730E-01    6.54296E+03
 1.74220E-01    6.49573E+03
 1.83160E-01    6.44876E+03
 1.92550E-01    6.40209E+03
 2.02420E-01    6.35555E+03
 2.12800E-01    6.30906E+03
 2.23710E-01    6.26260E+03
 2.35180E-01    6.21618E+03
 2.47240E-01    6.14651E+03
 2.73240E-01    6.07670E+03
 2.87250E-01    6.04171E+03
 2.94520E-01    6.02583E+03
 2.97200E-01    6.01949E+03
 2.98500E-01    6.01201E+03
 3.01970E-01    5.95998E+03
 3.33730E-01    5.86537E+03
 3.68830E-01    5.79362E+03
 3.87740E-01    5.74543E+03
 4.07620E-01    5.67237E+03
 4.50490E-01    5.57341E+03
 4.97870E-01    5.49790E+03
 5.23400E-01    5.44678E+03
 5.50230E-01    5.39203E+03
 5.78440E-01    5.19321E+03
 6.08100E-01    5.00684E+03
 6.39280E-01    4.84859E+03
 6.72060E-01    4.68288E+03
 7.06510E-01    4.53277E+03
 7.42740E-01    4.38740E+03
 7.80820E-01    4.23634E+03
 8.20850E-01    4.09613E+03
 8.62940E-01    3.95378E+03
 9.07180E-01    3.80493E+03
 9.61640E-01    3.67076E+03
 1.00260E+00    3.51805E+03
 1.10800E+00    3.33588E+03
 1.16480E+00    3.12773E+03
 1.22460E+00    2.98543E+03
 1.28730E+00    2.85540E+03
 1.35340E+00    2.72157E+03
 1.42270E+00    2.61959E+03
 1.49570E+00    2.51782E+03
 1.57240E+00    2.38745E+03
 1.65300E+00    2.28931E+03
 1.73770E+00    2.19307E+03
 1.82680E+00    2.11982E+03
 1.92050E+00    2.04067E+03
 2.01900E+00    1.97049E+03
 2.12250E+00    1.91092E+03
 2.23130E+00    1.88495E+03
 2.30690E+00    1.85966E+03
 2.34570E+00    1.83777E+03
 2.36530E+00    1.82278E+03
 2.38520E+00    1.80962E+03
 2.46600E+00    1.79545E+03
 2.59240E+00    1.74018E+03
 2.72530E+00    1.69209E+03
 2.86500E+00    1.66766E+03
 3.01190E+00    1.66149E+03
 3.16640E+00    1.66340E+03
 3.32870E+00    1.68871E+03
 3.67880E+00    1.74716E+03
 4.06570E+00    1.83694E+03
 4.49330E+00    1.91372E+03
 4.72370E+00    1.96843E+03
 4.96590E+00    2.02106E+03
 5.22050E+00    2.06815E+03
 5.48810E+00    2.11753E+03
 5.76950E+00    2.16896E+03
 6.06530E+00    2.20891E+03
 6.37630E+00    2.23826E+03
 6.59240E+00    2.25646E+03
 6.70320E+00    2.28135E+03
 7.04690E+00    2.30565E+03
 7.40820E+00    2.32213E+03
 7.78800E+00    2.33721E+03
 8.18730E+00    2.33721E+03
 8.60710E+00    2.33419E+03
 9.04840E+00    2.33982E+03
 9.51230E+00    2.31903E+03
 1.00000E+01    2.26637E+03
 1.05130E+01    2.22628E+03
 1.10520E+01    2.17739E+03
 1.16180E+01    2.12063E+03
 1.22140E+01    2.05466E+03
 1.28400E+01    1.98178E+03
 1.34990E+01    1.92181E+03
 1.38400E+01    1.88037E+03
 1.41910E+01    1.83788E+03
 1.45500E+01    1.79439E+03
 1.49180E+01    1.72775E+03
 1.56830E+01    1.63758E+03
 1.64870E+01    1.54909E+03
