# n + Ge 76 : (n,xa)    
# jendl4.0   Iwamoto,Herman,Mughabghab+        EVAL-AUG04
# 
# # energies =    75
#   E(MeV)        xs(mb) 
 5.70379E-01    0.00000E+00
 6.00000E-01    0.00000E+00
 7.00000E-01    0.00000E+00
 8.00000E-01    0.00000E+00
 9.00000E-01    0.00000E+00
 1.00000E+00    0.00000E+00
 1.12313E+00    0.00000E+00
 1.20000E+00    0.00000E+00
 1.40000E+00    0.00000E+00
 1.42883E+00    0.00000E+00
 1.55995E+00    0.00000E+00
 1.60000E+00    0.00000E+00
 1.80000E+00    0.00000E+00
 1.93649E+00    0.00000E+00
 2.00000E+00    0.00000E+00
 2.04674E+00    0.00000E+00
 2.20000E+00    3.59940E-12
 2.23419E+00    4.14649E-12
 2.31455E+00    5.43237E-12
 2.40000E+00    6.79970E-12
 2.48863E+00    9.48045E-12
 2.51112E+00    1.01607E-11
 2.53686E+00    1.09392E-11
 2.58793E+00    1.24839E-11
 2.60000E+00    1.28490E-11
 2.62552E+00    1.43082E-11
 2.65886E+00    1.62146E-11
 2.68977E+00    1.79821E-11
 2.72817E+00    2.01778E-11
 2.76972E+00    2.25536E-11
 2.78431E+00    2.33879E-11
 2.80000E+00    2.42850E-11
 2.80559E+00    2.48895E-11
 2.87935E+00    3.28659E-11
 2.93620E+00    3.90137E-11
 2.95859E+00    4.14349E-11
 2.95981E+00    4.15669E-11
 3.00000E+00    4.59130E-11
 3.00155E+00    4.62300E-11
 3.03378E+00    5.28224E-11
 3.04776E+00    5.56818E-11
 3.08140E+00    6.25625E-11
 3.09305E+00    6.49454E-11
 3.11180E+00    6.87806E-11
 3.13105E+00    7.27180E-11
 3.17341E+00    8.13823E-11
 3.18324E+00    8.33929E-11
 3.20000E+00    8.68210E-11
 3.20806E+00    9.05568E-11
 3.22448E+00    9.81673E-11
 3.23745E+00    1.04179E-10
 3.26683E+00    1.17796E-10
 3.27474E+00    1.21463E-10
 3.31142E+00    1.38464E-10
 3.35631E+00    1.59270E-10
 3.50000E+00    2.25870E-10
 3.70000E+00    4.27390E-10
 4.00000E+00    1.11290E-09
 4.50000E+00    5.49160E-09
 5.00000E+00    2.71380E-08
 6.00000E+00    6.65660E-07
 7.00000E+00    4.91905E-05
 8.00000E+00    7.80870E-04
 9.00000E+00    5.00754E-03
 1.00000E+01    1.80913E-02
 1.10000E+01    4.46897E-02
 1.20000E+01    9.39565E-02
 1.30000E+01    2.00536E-01
 1.40000E+01    4.05105E-01
 1.50000E+01    7.48784E-01
 1.60000E+01    1.38255E+00
 1.70000E+01    2.23899E+00
 1.80000E+01    3.17119E+00
 1.90000E+01    3.96593E+00
 2.00000E+01    5.14908E+00
