# n + Bi209 :  n        
# jendl4.0   N.YAMAMURO,A.ZUKERAN,JENDL-3 C.G. EVAL-MAY89
# uncertainties: y
# # energies =    33
#   E(MeV)       xs(mb)       xslow(mb)      xsupp(mb)
 2.86376E+00    0.00000E+00    0.00000E+00    0.00000E+00
 3.00000E+00    2.12631E+02    1.81162E+02    2.44100E+02
 3.25000E+00    1.88838E+02    1.60890E+02    2.16786E+02
 3.50000E+00    1.75045E+02    1.62836E+02    1.87254E+02
 3.75000E+00    4.52037E+02    4.20507E+02    4.83567E+02
 4.00000E+00    7.29028E+02    6.88057E+02    7.69999E+02
 4.25000E+00    1.03042E+03    9.72510E+02    1.08833E+03
 4.50000E+00    1.30182E+03    1.22872E+03    1.37492E+03
 4.75000E+00    1.60322E+03    1.51320E+03    1.69324E+03
 5.00000E+00    1.87461E+03    1.76354E+03    1.98568E+03
 5.25000E+00    2.03614E+03    1.91550E+03    2.15678E+03
 5.50000E+00    2.15767E+03    2.02983E+03    2.28551E+03
 5.75000E+00    2.22920E+03    2.09712E+03    2.36128E+03
 6.00000E+00    2.28073E+03    2.14685E+03    2.41461E+03
 6.25000E+00    2.27735E+03    2.14367E+03    2.41103E+03
 6.50000E+00    2.28397E+03    2.14990E+03    2.41804E+03
 6.75000E+00    2.29059E+03    2.15613E+03    2.42505E+03
 7.00000E+00    2.28721E+03    2.16347E+03    2.41095E+03
 7.25000E+00    2.25794E+03    2.13579E+03    2.38009E+03
 7.50000E+00    2.25868E+03    2.13649E+03    2.38087E+03
 8.00000E+00    2.01593E+03    1.91534E+03    2.11652E+03
 9.00000E+00    1.64977E+03    1.57685E+03    1.72269E+03
 1.00000E+01    1.07039E+03    1.03384E+03    1.10694E+03
 1.10000E+01    6.21886E+02    6.00649E+02    6.43123E+02
 1.20000E+01    4.26907E+02    4.16725E+02    4.37089E+02
 1.30000E+01    3.07288E+02    2.99959E+02    3.14617E+02
 1.40000E+01    2.51398E+02    2.46521E+02    2.56275E+02
 1.50000E+01    2.19632E+02    2.15371E+02    2.23893E+02
 1.60000E+01    1.98622E+02    1.94401E+02    2.02843E+02
 1.70000E+01    1.82614E+02    1.78733E+02    1.86495E+02
 1.80000E+01    1.69585E+02    1.65981E+02    1.73189E+02
 1.90000E+01    1.57523E+02    1.54176E+02    1.60870E+02
 2.00000E+01    1.46442E+02    1.43330E+02    1.49554E+02
