# n + Bi209 : (n,el)    
# jendl4.0   N.YAMAMURO,A.ZUKERAN,JENDL-3 C.G. EVAL-MAY89
# uncertainties: n
# # energies =   171
#   E(MeV)       xs(mb) 
 1.00000E-11    1.35705E+04
 1.00000E-07    9.37041E+03
 4.13990E-07    9.36842E+03
 5.31580E-07    9.36766E+03
 6.82560E-07    9.36691E+03
 8.76420E-07    9.36662E+03
 1.12540E-06    9.36629E+03
 1.44500E-06    9.36586E+03
 1.85540E-06    9.36532E+03
 2.37240E-06    9.36462E+03
 3.05900E-06    9.36371E+03
 3.92790E-06    9.36255E+03
 5.04350E-06    9.36107E+03
 6.47600E-06    9.35916E+03
 8.31530E-06    9.35671E+03
 1.06770E-05    9.35356E+03
 1.37100E-05    9.34952E+03
 1.76030E-05    9.34433E+03
 2.26030E-05    9.33758E+03
 2.92030E-05    9.32900E+03
 3.72670E-05    9.31814E+03
 4.78510E-05    9.30404E+03
 6.14420E-05    9.28593E+03
 7.88930E-05    9.26268E+03
 1.01300E-04    9.23283E+03
 1.30070E-04    9.19450E+03
 1.67020E-04    9.14321E+03
 2.14450E-04    9.05695E+03
 2.75360E-04    8.93434E+03
 3.53580E-04    8.71914E+03
 4.54000E-04    8.27406E+03
 5.82950E-04    6.68969E+03
 7.48520E-04    7.04726E+04
 9.61120E-04    1.12839E+04
 1.23410E-03    1.00457E+04
 1.58460E-03    9.02683E+03
 2.03470E-03    7.07323E+03
 2.24870E-03    6.94719E+04
 2.48520E-03    1.48481E+04
 2.61260E-03    1.28714E+04
 2.74650E-03    1.17744E+04
 3.03540E-03    1.12354E+04
 3.35460E-03    1.07133E+04
 3.70740E-03    1.03562E+04
 4.30740E-03    1.19936E+04
 5.53080E-03    1.02583E+04
 7.10170E-03    9.43904E+03
 9.11880E-03    7.73446E+03
 1.17090E-02    2.24883E+04
 1.50340E-02    1.57976E+04
 1.93050E-02    1.16856E+04
 2.18750E-02    1.09800E+04
 2.35790E-02    1.07693E+04
 2.41760E-02    1.06625E+04
 2.47880E-02    1.21087E+04
 2.60580E-02    9.53155E+03
 2.70000E-02    1.19076E+04
 2.85000E-02    1.00175E+04
 3.18280E-02    1.40366E+04
 3.43070E-02    1.15155E+04
 4.08680E-02    1.09044E+04
 4.63090E-02    1.06842E+04
 5.24750E-02    1.07295E+04
 5.65620E-02    9.54665E+03
 6.73790E-02    1.15892E+04
 7.20000E-02    9.91840E+03
 7.95000E-02    9.46037E+03
 8.25000E-02    1.03110E+04
 8.65170E-02    9.37411E+03
 9.80370E-02    9.39244E+03
 1.11090E-01    9.76492E+03
 1.16790E-01    9.84946E+03
 1.22770E-01    9.18878E+03
 1.29070E-01    7.54945E+03
 1.35690E-01    9.94563E+03
 1.42640E-01    7.77022E+03
 1.49960E-01    1.03498E+04
 1.57640E-01    7.96444E+03
 1.65730E-01    7.39011E+03
 1.74220E-01    7.24802E+03
 1.83160E-01    8.58183E+03
 1.92550E-01    8.65155E+03
 2.02420E-01    8.05561E+03
 2.12800E-01    7.57590E+03
 2.23710E-01    8.27046E+03
 2.35180E-01    7.78250E+03
 2.47240E-01    7.55943E+03
 2.73240E-01    7.35146E+03
 2.87250E-01    7.13274E+03
 2.94520E-01    7.21796E+03
 2.97200E-01    7.28919E+03
 2.98500E-01    7.06944E+03
 3.01970E-01    7.13351E+03
 3.33730E-01    7.67475E+03
 3.68830E-01    7.26145E+03
 3.87740E-01    6.81005E+03
 4.07620E-01    7.13860E+03
 4.50490E-01    6.43050E+03
 4.97870E-01    6.23949E+03
 5.23400E-01    6.20236E+03
 5.50230E-01    5.98704E+03
 5.78440E-01    6.17024E+03
 6.08100E-01    5.83662E+03
 6.39280E-01    5.86084E+03
 6.72060E-01    5.46880E+03
 7.06510E-01    5.48448E+03
 7.42740E-01    5.31469E+03
 7.80820E-01    5.03768E+03
 8.20850E-01    5.06245E+03
 8.62940E-01    4.98271E+03
 9.07180E-01    4.98818E+03
 9.61640E-01    5.00310E+03
 1.00260E+00    4.84388E+03
 1.10800E+00    4.79134E+03
 1.16480E+00    4.95729E+03
 1.22460E+00    4.77632E+03
 1.28730E+00    4.85370E+03
 1.35340E+00    4.89475E+03
 1.42270E+00    4.98012E+03
 1.49570E+00    4.99506E+03
 1.57240E+00    5.20122E+03
 1.65300E+00    5.09956E+03
 1.73770E+00    5.23211E+03
 1.82680E+00    5.33906E+03
 1.92050E+00    5.66374E+03
 2.01900E+00    5.76620E+03
 2.12250E+00    5.94289E+03
 2.23130E+00    6.05882E+03
 2.30690E+00    6.11988E+03
 2.34570E+00    6.15101E+03
 2.36530E+00    6.17203E+03
 2.38520E+00    6.22541E+03
 2.46600E+00    6.35539E+03
 2.59240E+00    6.54884E+03
 2.72530E+00    6.68611E+03
 2.86500E+00    6.63396E+03
 3.01190E+00    6.49192E+03
 3.16640E+00    6.38106E+03
 3.32870E+00    6.27248E+03
 3.67880E+00    6.04712E+03
 4.06570E+00    5.64762E+03
 4.49330E+00    5.33268E+03
 4.72370E+00    5.03775E+03
 4.96590E+00    4.73493E+03
 5.22050E+00    4.45847E+03
 5.48810E+00    4.21539E+03
 5.76950E+00    3.99639E+03
 6.06530E+00    3.79226E+03
 6.37630E+00    3.62270E+03
 6.59240E+00    3.53513E+03
 6.70320E+00    3.42517E+03
 7.04690E+00    3.29511E+03
 7.40820E+00    3.19901E+03
 7.78800E+00    3.19432E+03
 8.18730E+00    3.07482E+03
 8.60710E+00    2.93815E+03
 9.04840E+00    2.82635E+03
 9.51230E+00    2.73272E+03
 1.00000E+01    2.67164E+03
 1.05130E+01    2.64441E+03
 1.10520E+01    2.63999E+03
 1.16180E+01    2.65666E+03
 1.22140E+01    2.68182E+03
 1.28400E+01    2.72776E+03
 1.34990E+01    2.77348E+03
 1.38400E+01    2.80642E+03
 1.41910E+01    2.83871E+03
 1.45500E+01    2.86538E+03
 1.49180E+01    2.90582E+03
 1.56830E+01    2.97031E+03
 1.64870E+01    3.05463E+03
