# n + Bi209 : (n,tot)   
# jendl4.0   N.YAMAMURO,A.ZUKERAN,JENDL-3 C.G. EVAL-MAY89
# uncertainties: n
# # energies =   171
#   E(MeV)       xs(mb) 
 1.00000E-11    1.39403E+04
 1.00000E-07    9.38264E+03
 4.13990E-07    9.37641E+03
 5.31580E-07    9.37512E+03
 6.82560E-07    9.37345E+03
 8.76420E-07    9.37230E+03
 1.12540E-06    9.37195E+03
 1.44500E-06    9.37151E+03
 1.85540E-06    9.37095E+03
 2.37240E-06    9.37023E+03
 3.05900E-06    9.36929E+03
 3.92790E-06    9.36809E+03
 5.04350E-06    9.36655E+03
 6.47600E-06    9.36457E+03
 8.31530E-06    9.36203E+03
 1.06770E-05    9.35877E+03
 1.37100E-05    9.35459E+03
 1.76030E-05    9.34921E+03
 2.26030E-05    9.34221E+03
 2.92030E-05    9.33333E+03
 3.72670E-05    9.32208E+03
 4.78510E-05    9.30747E+03
 6.14420E-05    9.28871E+03
 7.88930E-05    9.26463E+03
 1.01300E-04    9.23370E+03
 1.30070E-04    9.19399E+03
 1.67020E-04    9.14275E+03
 2.14450E-04    9.05860E+03
 2.75360E-04    8.93459E+03
 3.53580E-04    8.71948E+03
 4.54000E-04    8.27533E+03
 5.82950E-04    6.69518E+03
 7.48520E-04    7.09314E+04
 9.61120E-04    1.12849E+04
 1.23410E-03    1.00460E+04
 1.58460E-03    9.02722E+03
 2.03470E-03    7.07616E+03
 2.24870E-03    6.95604E+04
 2.48520E-03    1.48494E+04
 2.61260E-03    1.28719E+04
 2.74650E-03    1.17746E+04
 3.03540E-03    1.12656E+04
 3.35460E-03    1.07124E+04
 3.70740E-03    1.03598E+04
 4.30740E-03    1.20258E+04
 5.53080E-03    1.02631E+04
 7.10170E-03    9.44134E+03
 9.11880E-03    7.74563E+03
 1.17090E-02    2.24937E+04
 1.50340E-02    1.58058E+04
 1.93050E-02    1.16886E+04
 2.18750E-02    1.09834E+04
 2.35790E-02    1.07703E+04
 2.41760E-02    1.06643E+04
 2.47880E-02    1.21133E+04
 2.60580E-02    9.53213E+03
 2.70000E-02    1.19111E+04
 2.85000E-02    1.00197E+04
 3.18280E-02    1.40409E+04
 3.43070E-02    1.15168E+04
 4.08680E-02    1.09060E+04
 4.63090E-02    1.06862E+04
 5.24750E-02    1.07314E+04
 5.65620E-02    9.54787E+03
 6.73790E-02    1.15911E+04
 7.20000E-02    9.91907E+03
 7.95000E-02    9.46130E+03
 8.25000E-02    1.03128E+04
 8.65170E-02    9.37516E+03
 9.80370E-02    9.39353E+03
 1.11090E-01    9.76587E+03
 1.16790E-01    9.85066E+03
 1.22770E-01    9.18964E+03
 1.29070E-01    7.55054E+03
 1.35690E-01    9.94669E+03
 1.42640E-01    7.77140E+03
 1.49960E-01    1.03510E+04
 1.57640E-01    7.96588E+03
 1.65730E-01    7.39150E+03
 1.74220E-01    7.24951E+03
 1.83160E-01    8.58340E+03
 1.92550E-01    8.65318E+03
 2.02420E-01    8.05739E+03
 2.12800E-01    7.57765E+03
 2.23710E-01    8.27218E+03
 2.35180E-01    7.78418E+03
 2.47240E-01    7.56107E+03
 2.73240E-01    7.35305E+03
 2.87250E-01    7.13429E+03
 2.94520E-01    7.21950E+03
 2.97200E-01    7.29072E+03
 2.98500E-01    7.07097E+03
 3.01970E-01    7.13503E+03
 3.33730E-01    7.67625E+03
 3.68830E-01    7.26293E+03
 3.87740E-01    6.81152E+03
 4.07620E-01    7.14006E+03
 4.50490E-01    6.43194E+03
 4.97870E-01    6.24092E+03
 5.23400E-01    6.20358E+03
 5.50230E-01    5.98850E+03
 5.78440E-01    6.17172E+03
 6.08100E-01    5.83811E+03
 6.39280E-01    5.86235E+03
 6.72060E-01    5.47033E+03
 7.06510E-01    5.48604E+03
 7.42740E-01    5.31627E+03
 7.80820E-01    5.03930E+03
 8.20850E-01    5.06410E+03
 8.62940E-01    4.98486E+03
 9.07180E-01    5.02139E+03
 9.61640E-01    5.08135E+03
 1.00260E+00    4.95926E+03
 1.10800E+00    4.93688E+03
 1.16480E+00    5.12433E+03
 1.22460E+00    4.96596E+03
 1.28730E+00    5.06710E+03
 1.35340E+00    5.13312E+03
 1.42270E+00    5.24474E+03
 1.49570E+00    5.28727E+03
 1.57240E+00    5.52739E+03
 1.65300E+00    5.49743E+03
 1.73770E+00    5.71303E+03
 1.82680E+00    5.90732E+03
 1.92050E+00    6.32307E+03
 2.01900E+00    6.49276E+03
 2.12250E+00    6.72556E+03
 2.23130E+00    6.89094E+03
 2.30690E+00    6.98284E+03
 2.34570E+00    7.02969E+03
 2.36530E+00    7.06133E+03
 2.38520E+00    7.14167E+03
 2.46600E+00    7.30719E+03
 2.59240E+00    7.52014E+03
 2.72530E+00    7.74820E+03
 2.86500E+00    7.91185E+03
 3.01190E+00    7.94247E+03
 3.16640E+00    7.88746E+03
 3.32870E+00    7.88725E+03
 3.67880E+00    7.88665E+03
 4.06570E+00    7.76078E+03
 4.49330E+00    7.65998E+03
 4.72370E+00    7.52160E+03
 4.96590E+00    7.34147E+03
 5.22050E+00    7.13193E+03
 5.48810E+00    6.90578E+03
 5.76950E+00    6.66855E+03
 6.06530E+00    6.42939E+03
 6.37630E+00    6.23441E+03
 6.59240E+00    6.13228E+03
 6.70320E+00    5.99993E+03
 7.04690E+00    5.82603E+03
 7.40820E+00    5.67137E+03
 7.78800E+00    5.54183E+03
 8.18730E+00    5.43360E+03
 8.60710E+00    5.33891E+03
 9.04840E+00    5.25967E+03
 9.51230E+00    5.19573E+03
 1.00000E+01    5.15219E+03
 1.05130E+01    5.13006E+03
 1.10520E+01    5.12728E+03
 1.16180E+01    5.14432E+03
 1.22140E+01    5.18516E+03
 1.28400E+01    5.25455E+03
 1.34990E+01    5.32307E+03
 1.38400E+01    5.37104E+03
 1.41910E+01    5.41455E+03
 1.45500E+01    5.45516E+03
 1.49180E+01    5.51341E+03
 1.56830E+01    5.59390E+03
 1.64870E+01    5.68372E+03
