# n + Sm147 : (n,xa)    
# jeff3.3    A.J. Koning and D. Rochman        EVAL-DEC15
# 
# # energies =   133
#   E(MeV)        xs(mb) 
 1.22044E-01    1.47542E-01
 1.98638E-01    1.08622E-01
 2.00000E-01    1.07930E-01
 3.00000E-01    9.75980E-02
 4.00000E-01    9.76642E-02
 5.00000E-01    1.03152E-01
 6.00000E-01    1.11335E-01
 7.00000E-01    1.23474E-01
 7.21540E-01    1.23942E-01
 7.24943E-01    1.24016E-01
 8.00000E-01    1.25646E-01
 8.04215E-01    1.25642E-01
 8.14915E-01    1.25631E-01
 8.90069E-01    1.25555E-01
 9.00000E-01    1.25545E-01
 9.06179E-01    1.25045E-01
 9.29065E-01    1.23194E-01
 9.38399E-01    1.22438E-01
 9.84715E-01    1.18691E-01
 1.00000E+00    1.17455E-01
 1.02700E+00    1.15525E-01
 1.03778E+00    1.14791E-01
 1.05069E+00    1.13911E-01
 1.06145E+00    1.13178E-01
 1.07069E+00    1.12548E-01
 1.07639E+00    1.12160E-01
 1.08444E+00    1.11611E-01
 1.11446E+00    1.09566E-01
 1.16998E+00    1.05783E-01
 1.17703E+00    1.05303E-01
 1.18071E+00    1.05052E-01
 1.18836E+00    1.04531E-01
 1.20000E+00    1.03738E-01
 1.22817E+00    1.04091E-01
 1.26664E+00    1.04573E-01
 1.32672E+00    1.05327E-01
 1.33496E+00    1.05430E-01
 1.34302E+00    1.05531E-01
 1.35892E+00    1.05730E-01
 1.40000E+00    1.06244E-01
 1.43982E+00    1.04705E-01
 1.60000E+00    9.85156E-02
 1.80000E+00    8.82076E-02
 2.00000E+00    7.89467E-02
 2.20000E+00    7.23566E-02
 2.40000E+00    6.73611E-02
 2.60000E+00    6.46063E-02
 2.80000E+00    6.35373E-02
 3.00000E+00    6.28257E-02
 3.20000E+00    6.41836E-02
 3.40000E+00    6.57921E-02
 3.60000E+00    6.74108E-02
 3.80000E+00    7.02154E-02
 4.00000E+00    7.20396E-02
 4.20000E+00    7.76331E-02
 4.40000E+00    8.33521E-02
 4.60000E+00    8.77071E-02
 4.80000E+00    9.54170E-02
 5.00000E+00    1.00316E-01
 5.20000E+00    1.14848E-01
 5.40000E+00    1.29337E-01
 5.60000E+00    1.40661E-01
 5.80000E+00    1.60571E-01
 6.00000E+00    1.74154E-01
 6.20000E+00    2.08271E-01
 6.40000E+00    2.43478E-01
 6.60000E+00    2.69285E-01
 6.80000E+00    3.14612E-01
 7.00000E+00    3.43276E-01
 7.20000E+00    4.10897E-01
 7.40000E+00    4.72258E-01
 7.60000E+00    5.01562E-01
 7.80000E+00    5.89539E-01
 8.00000E+00    6.24386E-01
 8.50000E+00    7.80465E-01
 9.00000E+00    9.46755E-01
 9.50000E+00    1.13388E+00
 1.00000E+01    1.36214E+00
 1.05000E+01    1.64267E+00
 1.10000E+01    1.97325E+00
 1.15000E+01    2.43809E+00
 1.20000E+01    2.85045E+00
 1.25000E+01    3.48206E+00
 1.30000E+01    3.98733E+00
 1.35000E+01    4.85235E+00
 1.40000E+01    5.55439E+00
 1.45000E+01    6.73348E+00
 1.50000E+01    7.82689E+00
 1.60000E+01    1.10374E+01
 1.70000E+01    1.33220E+01
 1.80000E+01    1.54889E+01
 1.90000E+01    1.57978E+01
 2.00000E+01    1.60031E+01
 2.10000E+01    1.64622E+01
 2.20000E+01    1.70912E+01
 2.30000E+01    1.78354E+01
 2.40000E+01    1.86477E+01
 2.50000E+01    1.95205E+01
 2.60000E+01    2.03437E+01
 2.70000E+01    2.12057E+01
 2.80000E+01    2.20538E+01
 2.90000E+01    2.28746E+01
 3.00000E+01    2.36461E+01
 3.00000E+01    2.36581E+01
 3.20000E+01    2.52886E+01
 3.40000E+01    2.69291E+01
 3.60000E+01    2.85737E+01
 3.80000E+01    3.02128E+01
 4.00000E+01    3.19457E+01
 4.20000E+01    3.37433E+01
 4.40000E+01    3.55093E+01
 4.60000E+01    3.72702E+01
 4.80000E+01    3.89901E+01
 5.00000E+01    4.07818E+01
 5.20000E+01    4.25737E+01
 5.40000E+01    4.42889E+01
 5.60000E+01    4.60112E+01
 5.80000E+01    4.76838E+01
 6.00000E+01    4.93249E+01
 6.50000E+01    5.30265E+01
 7.00000E+01    5.64307E+01
 7.50000E+01    5.87492E+01
 8.00000E+01    6.05518E+01
 9.00000E+01    6.33550E+01
 1.00000E+02    6.27682E+01
 1.10000E+02    6.07601E+01
 1.20000E+02    6.71693E+01
 1.30000E+02    7.74122E+01
 1.40000E+02    9.00487E+01
 1.50000E+02    1.09092E+02
 1.60000E+02    1.35725E+02
 1.80000E+02    1.87308E+02
 2.00000E+02    2.38788E+02
