# n + Pu242 : (n,xn)    
# endfb8.0   S.F. MUGHABGHAB + O.Iwamoto,etal  EVAL-AUG11
# 
# # energies =    76
#   E(MeV)        xs(mb) 
 4.47256E-02    0.00000E+00
 5.00000E-02    7.32502E+01
 7.00000E-02    3.51630E+02
 1.00000E-01    6.19630E+02
 1.15960E-01    7.01406E+02
 1.30000E-01    7.73360E+02
 1.47914E-01    8.51047E+02
 1.70000E-01    9.35633E+02
 2.00000E-01    1.05386E+03
 3.00000E-01    1.28631E+03
 3.07677E-01    1.29457E+03
 4.00000E-01    1.39631E+03
 5.00000E-01    1.52218E+03
 5.20259E-01    1.52884E+03
 6.00000E-01    1.54488E+03
 7.00000E-01    1.56631E+03
 7.81844E-01    1.54485E+03
 7.83702E-01    1.54427E+03
 8.00000E-01    1.57467E+03
 8.35768E-01    1.60455E+03
 8.68604E-01    1.63794E+03
 9.00000E-01    1.67593E+03
 9.30863E-01    1.70634E+03
 9.59984E-01    1.73225E+03
 9.96636E-01    1.77310E+03
 1.00000E+00    1.78009E+03
 1.02375E+00    1.80962E+03
 1.04353E+00    1.83706E+03
 1.06843E+00    1.88105E+03
 1.08892E+00    1.91110E+03
 1.09665E+00    1.92090E+03
 1.10659E+00    1.93248E+03
 1.12668E+00    1.96243E+03
 1.15580E+00    1.99724E+03
 1.15931E+00    2.00357E+03
 1.30000E+00    2.14470E+03
 1.60000E+00    2.30917E+03
 1.80000E+00    2.37012E+03
 2.00000E+00    2.40732E+03
 2.30000E+00    2.43196E+03
 2.50000E+00    2.43183E+03
 2.70000E+00    2.42354E+03
 3.00000E+00    2.43347E+03
 3.50000E+00    2.39077E+03
 4.00000E+00    2.35729E+03
 4.50000E+00    2.34593E+03
 5.00000E+00    2.33917E+03
 5.50000E+00    2.27303E+03
 6.00000E+00    2.07564E+03
 6.50000E+00    1.74382E+03
 7.00000E+00    1.67914E+03
 7.50000E+00    1.82197E+03
 8.00000E+00    1.92470E+03
 8.50000E+00    1.95605E+03
 9.00000E+00    2.06721E+03
 9.50000E+00    2.12098E+03
 1.00000E+01    2.18872E+03
 1.05000E+01    2.21646E+03
 1.10000E+01    2.28560E+03
 1.15000E+01    2.32367E+03
 1.20000E+01    2.37409E+03
 1.25000E+01    2.41658E+03
 1.30000E+01    2.44103E+03
 1.35000E+01    2.40858E+03
 1.40000E+01    2.33907E+03
 1.45000E+01    2.22924E+03
 1.50000E+01    2.14048E+03
 1.55000E+01    2.04069E+03
 1.60000E+01    1.96013E+03
 1.65000E+01    1.96511E+03
 1.70000E+01    1.91459E+03
 1.75000E+01    1.89883E+03
 1.80000E+01    1.88480E+03
 1.85000E+01    1.89654E+03
 1.95000E+01    1.86690E+03
 2.00000E+01    1.85049E+03
