# n + Cd112 : (n,el)    
# jendl4.0   S.Kunieda, A.Ichihara, K.Shibata+ EVAL-FEB22
# uncertainties: n
# # energies =   171
#   E(MeV)       xs(mb) 
 1.00000E-11    1.09972E+04
 1.00000E-07    6.46670E+03
 4.13990E-07    6.45872E+03
 5.31580E-07    6.45569E+03
 6.82560E-07    6.45180E+03
 8.76420E-07    6.44680E+03
 1.12540E-06    6.44039E+03
 1.44500E-06    6.43215E+03
 1.85540E-06    6.42248E+03
 2.37240E-06    6.41081E+03
 3.05900E-06    6.39570E+03
 3.92790E-06    6.37643E+03
 5.04350E-06    6.35169E+03
 6.47600E-06    6.31992E+03
 8.31530E-06    6.27913E+03
 1.06770E-05    6.22675E+03
 1.37100E-05    6.16070E+03
 1.76030E-05    6.08501E+03
 2.26030E-05    5.98832E+03
 2.92030E-05    5.86569E+03
 3.72670E-05    5.70957E+03
 4.78510E-05    5.41325E+03
 6.14420E-05    8.02845E+03
 7.88930E-05    5.60479E+03
 1.01300E-04    5.34173E+03
 1.30070E-04    5.12501E+03
 1.67020E-04    4.84460E+03
 2.14450E-04    6.11057E+03
 2.75360E-04    4.69824E+03
 3.53580E-04    6.61811E+03
 4.54000E-04    4.57996E+03
 5.82950E-04    1.15169E+04
 7.48520E-04    8.45806E+03
 9.61120E-04    1.27105E+04
 1.23410E-03    9.46883E+03
 1.58460E-03    5.95681E+03
 2.03470E-03    1.77476E+04
 2.24870E-03    9.38893E+03
 2.48520E-03    2.34648E+04
 2.61260E-03    2.37027E+04
 2.74650E-03    6.73292E+03
 3.03540E-03    8.14614E+03
 3.35460E-03    5.46616E+03
 3.70740E-03    5.52528E+03
 4.30740E-03    6.36718E+03
 5.53080E-03    8.77793E+03
 7.10170E-03    6.99885E+03
 9.11880E-03    6.91492E+03
 1.17090E-02    6.88088E+03
 1.50340E-02    6.85077E+03
 1.93050E-02    6.83645E+03
 2.18750E-02    6.85016E+03
 2.35790E-02    6.85759E+03
 2.41760E-02    6.86145E+03
 2.47880E-02    6.86741E+03
 2.60580E-02    6.87386E+03
 2.70000E-02    6.88057E+03
 2.85000E-02    6.89634E+03
 3.18280E-02    6.92549E+03
 3.43070E-02    6.96826E+03
 4.08680E-02    7.02915E+03
 4.63090E-02    7.08753E+03
 5.24750E-02    7.13873E+03
 5.65620E-02    7.20705E+03
 6.73790E-02    7.27804E+03
 7.20000E-02    7.33014E+03
 7.95000E-02    7.37393E+03
 8.25000E-02    7.40187E+03
 8.65170E-02    7.45910E+03
 9.80370E-02    7.54111E+03
 1.11090E-01    7.59754E+03
 1.16790E-01    7.63015E+03
 1.22770E-01    7.66103E+03
 1.29070E-01    7.69191E+03
 1.35690E-01    7.72273E+03
 1.42640E-01    7.75191E+03
 1.49960E-01    7.78072E+03
 1.57640E-01    7.80928E+03
 1.65730E-01    7.83650E+03
 1.74220E-01    7.86349E+03
 1.83160E-01    7.88793E+03
 1.92550E-01    7.91219E+03
 2.02420E-01    7.93067E+03
 2.12800E-01    7.94709E+03
 2.23710E-01    7.96344E+03
 2.35180E-01    7.97975E+03
 2.47240E-01    7.99179E+03
 2.73240E-01    7.99200E+03
 2.87250E-01    7.99200E+03
 2.94520E-01    7.99200E+03
 2.97200E-01    7.99182E+03
 2.98500E-01    7.98931E+03
 3.01970E-01    7.96971E+03
 3.33730E-01    7.93156E+03
 3.68830E-01    7.88935E+03
 3.87740E-01    7.85279E+03
 4.07620E-01    7.79031E+03
 4.50490E-01    7.68550E+03
 4.97870E-01    7.59888E+03
 5.23400E-01    7.53718E+03
 5.50230E-01    7.47233E+03
 5.78440E-01    7.40104E+03
 6.08100E-01    7.26506E+03
 6.39280E-01    7.09322E+03
 6.72060E-01    6.88501E+03
 7.06510E-01    6.68235E+03
 7.42740E-01    6.49023E+03
 7.80820E-01    6.31109E+03
 8.20850E-01    6.13735E+03
 8.62940E-01    5.97002E+03
 9.07180E-01    5.79703E+03
 9.61640E-01    5.63982E+03
 1.00260E+00    5.43059E+03
 1.10800E+00    5.21571E+03
 1.16480E+00    5.06845E+03
 1.22460E+00    4.89659E+03
 1.28730E+00    4.71614E+03
 1.35340E+00    4.54048E+03
 1.42270E+00    4.33132E+03
 1.49570E+00    4.12002E+03
 1.57240E+00    3.92234E+03
 1.65300E+00    3.75237E+03
 1.73770E+00    3.59124E+03
 1.82680E+00    3.44090E+03
 1.92050E+00    3.29525E+03
 2.01900E+00    3.14756E+03
 2.12250E+00    2.99581E+03
 2.23130E+00    2.86871E+03
 2.30690E+00    2.79084E+03
 2.34570E+00    2.75420E+03
 2.36530E+00    2.73000E+03
 2.38520E+00    2.66863E+03
 2.46600E+00    2.55164E+03
 2.59240E+00    2.39860E+03
 2.72530E+00    2.23772E+03
 2.86500E+00    2.12891E+03
 3.01190E+00    2.03914E+03
 3.16640E+00    1.95874E+03
 3.32870E+00    1.86071E+03
 3.67880E+00    1.76468E+03
 4.06570E+00    1.71376E+03
 4.49330E+00    1.70444E+03
 4.72370E+00    1.71313E+03
 4.96590E+00    1.73668E+03
 5.22050E+00    1.77203E+03
 5.48810E+00    1.81758E+03
 5.76950E+00    1.87537E+03
 6.06530E+00    1.94035E+03
 6.37630E+00    1.99959E+03
 6.59240E+00    2.03634E+03
 6.70320E+00    2.08701E+03
 7.04690E+00    2.16430E+03
 7.40820E+00    2.23958E+03
 7.78800E+00    2.31031E+03
 8.18730E+00    2.37396E+03
 8.60710E+00    2.43044E+03
 9.04840E+00    2.47795E+03
 9.51230E+00    2.51750E+03
 1.00000E+01    2.54357E+03
 1.05130E+01    2.56080E+03
 1.10520E+01    2.56567E+03
 1.16180E+01    2.56040E+03
 1.22140E+01    2.54076E+03
 1.28400E+01    2.51188E+03
 1.34990E+01    2.48104E+03
 1.38400E+01    2.45894E+03
 1.41910E+01    2.43060E+03
 1.45500E+01    2.40169E+03
 1.49180E+01    2.35318E+03
 1.56830E+01    2.28107E+03
 1.64870E+01    2.20126E+03
