# n + Cd112 : (n,g)     
# jendl4.0   S.Kunieda, A.Ichihara, K.Shibata+ EVAL-FEB22
# uncertainties: n
# # energies =    69
#   E(MeV)       xs(mb) 
 1.00000E-10    1.53124E+04
 5.00000E-09    4.16895E+03
 1.00000E-08    3.15717E+03
 1.50000E-08    2.65241E+03
 2.00000E-08    2.33344E+03
 2.50000E-08    2.10799E+03
 3.00000E-08    1.93759E+03
 3.50000E-08    1.78130E+03
 4.20000E-08    1.62914E+03
 5.00000E-08    1.50254E+03
 5.80000E-08    1.39633E+03
 6.70000E-08    1.28840E+03
 8.00000E-08    1.16564E+03
 1.00000E-07    1.01370E+03
 1.40000E-07    8.74209E+02
 1.80000E-07    7.80186E+02
 2.20000E-07    7.18126E+02
 2.50000E-07    6.75796E+02
 2.80000E-07    6.45395E+02
 3.00000E-07    6.24027E+02
 3.20000E-07    6.00266E+02
 3.50000E-07    5.67442E+02
 4.00000E-07    5.18668E+02
 5.00000E-07    4.63179E+02
 6.25000E-07    4.13644E+02
 7.80000E-07    3.82255E+02
 8.50000E-07    3.67455E+02
 9.10000E-07    3.57114E+02
 9.50000E-07    3.51124E+02
 9.72000E-07    3.46888E+02
 9.96000E-07    3.42613E+02
 1.02000E-06    3.38409E+02
 1.04500E-06    3.34205E+02
 1.07100E-06    3.30066E+02
 1.09700E-06    3.26060E+02
 1.12300E-06    3.22148E+02
 1.15000E-06    3.10244E+02
 1.30000E-06    2.89682E+02
 1.50000E-06    2.55969E+02
 2.10000E-06    2.21233E+02
 2.60000E-06    1.96024E+02
 3.30000E-06    1.74353E+02
 4.00000E-06    1.29148E+02
 9.87700E-06    8.42410E+01
 1.59680E-05    6.00866E+01
 2.77000E-05    4.45263E+01
 4.80520E-05    1.39837E+04
 7.55014E-05    4.20057E+02
 1.48728E-04    1.56206E+03
 3.67262E-04    1.69682E+03
 9.06898E-04    1.96159E+03
 1.42510E-03    6.23218E+02
 2.23945E-03    8.36031E+02
 3.51910E-03    6.57223E+02
 5.53000E-03    5.17502E+02
 9.11800E-03    3.16798E+02
 1.50300E-02    2.34598E+02
 2.47800E-02    1.70146E+02
 4.08500E-02    1.24297E+02
 6.73400E-02    9.63550E+01
 1.11000E-01    8.27839E+01
 1.83000E-01    7.92290E+01
 3.02000E-01    8.15280E+01
 5.00000E-01    6.99044E+01
 8.21000E-01    4.54941E+01
 1.35300E+00    3.86325E+01
 2.23100E+00    1.97864E+01
 3.67900E+00    5.45927E+00
 6.06500E+00    1.46754E+00
