# n + Te124 : (n,t)     
# jendl.ad   K.Shibata (JAEA)                  EVAL-Nov13
# uncertainties: n
# # energies =    50
#   E(MeV)       xs(mb) 
 9.14672E+00    0.00000E+00
 9.20864E+00    9.47130E-15
 9.22545E+00    1.20430E-14
 9.26921E+00    1.87360E-14
 9.28531E+00    2.11990E-14
 9.31161E+00    2.52220E-14
 9.31531E+00    2.58020E-14
 9.32678E+00    2.76000E-14
 9.34125E+00    2.98690E-14
 9.35808E+00    3.25080E-14
 9.40430E+00    3.97550E-14
 9.41330E+00    4.11660E-14
 9.41399E+00    4.12740E-14
 9.42070E+00    4.23270E-14
 9.43167E+00    4.40470E-14
 9.46052E+00    4.85700E-14
 9.47244E+00    5.04390E-14
 9.48312E+00    5.21140E-14
 9.54363E+00    6.16020E-14
 9.54689E+00    6.21130E-14
 9.56016E+00    6.41930E-14
 9.56386E+00    6.47740E-14
 9.56611E+00    6.51260E-14
 9.57533E+00    6.65720E-14
 9.60416E+00    7.10930E-14
 9.62458E+00    7.42940E-14
 9.63107E+00    7.53120E-14
 9.63198E+00    7.54550E-14
 9.63431E+00    7.58200E-14
 9.73755E+00    9.20080E-14
 9.75665E+00    9.50030E-14
 9.77177E+00    9.73730E-14
 9.78369E+00    9.92420E-14
 9.79452E+00    1.00940E-13
 9.81053E+00    1.03450E-13
 9.81971E+00    1.04890E-13
 9.84637E+00    1.09070E-13
 9.85517E+00    1.10450E-13
 9.90081E+00    1.17610E-13
 1.10000E+01    2.89960E-13
 1.20000E+01    8.98260E-09
 1.30000E+01    3.56753E-06
 1.40000E+01    1.24830E-04
 1.45000E+01    5.66720E-04
 1.50000E+01    1.77552E-03
 1.60000E+01    1.10825E-02
 1.70000E+01    4.10382E-02
 1.80000E+01    1.01682E-01
 1.90000E+01    1.97956E-01
 2.00000E+01    3.24100E-01
