# n + Yb174 : (n,el)    
# jendl4.0   S.Kunieda, A.Ichihara, K.Shibata+ EVAL-FEB10
# uncertainties: n
# # energies =   171
#   E(MeV)       xs(mb) 
 1.00000E-11    7.08497E+04
 1.00000E-07    4.63225E+04
 4.13990E-07    4.57127E+04
 5.31580E-07    4.53941E+04
 6.82560E-07    4.49965E+04
 8.76420E-07    4.44945E+04
 1.12540E-06    4.38785E+04
 1.44500E-06    4.30965E+04
 1.85540E-06    4.21609E+04
 2.37240E-06    4.10003E+04
 3.05900E-06    3.95737E+04
 3.92790E-06    3.79067E+04
 5.04350E-06    3.59732E+04
 6.47600E-06    3.37749E+04
 8.31530E-06    3.13398E+04
 1.06770E-05    2.87197E+04
 1.37100E-05    2.59956E+04
 1.76030E-05    2.32529E+04
 2.26030E-05    2.05563E+04
 2.92030E-05    1.80532E+04
 3.72670E-05    1.58117E+04
 4.78510E-05    1.38033E+04
 6.14420E-05    1.20742E+04
 7.88930E-05    1.06096E+04
 1.01300E-04    9.37648E+03
 1.30070E-04    8.32605E+03
 1.67020E-04    7.37695E+03
 2.14450E-04    6.31680E+03
 2.75360E-04    6.18382E+04
 3.53580E-04    9.46650E+03
 4.54000E-04    6.14635E+03
 5.82950E-04    9.83905E+03
 7.48520E-04    1.54388E+04
 9.61120E-04    8.54660E+03
 1.23410E-03    1.20227E+04
 1.58460E-03    6.45731E+04
 2.03470E-03    8.21259E+03
 2.24870E-03    2.00358E+04
 2.48520E-03    5.34778E+03
 2.61260E-03    5.04107E+04
 2.74650E-03    8.99398E+03
 3.03540E-03    2.01646E+04
 3.35460E-03    1.94758E+04
 3.70740E-03    1.86498E+04
 4.30740E-03    1.74195E+04
 5.53080E-03    1.60929E+04
 7.10170E-03    1.49944E+04
 9.11880E-03    1.40621E+04
 1.17090E-02    1.32300E+04
 1.50340E-02    1.24490E+04
 1.93050E-02    1.18988E+04
 2.18750E-02    1.16309E+04
 2.35790E-02    1.14997E+04
 2.41760E-02    1.14350E+04
 2.47880E-02    1.13386E+04
 2.60580E-02    1.12291E+04
 2.70000E-02    1.11159E+04
 2.85000E-02    1.09143E+04
 3.18280E-02    1.07048E+04
 3.43070E-02    1.04325E+04
 4.08680E-02    1.01263E+04
 4.63090E-02    9.88680E+03
 5.24750E-02    9.70132E+03
 5.65620E-02    9.47757E+03
 6.73790E-02    9.26698E+03
 7.20000E-02    9.10317E+03
 7.95000E-02    8.96479E+03
 8.25000E-02    8.87481E+03
 8.65170E-02    8.69239E+03
 9.80370E-02    8.43140E+03
 1.11090E-01    8.25300E+03
 1.16790E-01    8.15261E+03
 1.22770E-01    8.05203E+03
 1.29070E-01    7.95280E+03
 1.35690E-01    7.85459E+03
 1.42640E-01    7.75679E+03
 1.49960E-01    7.65990E+03
 1.57640E-01    7.56342E+03
 1.65730E-01    7.46714E+03
 1.74220E-01    7.37172E+03
 1.83160E-01    7.27658E+03
 1.92550E-01    7.18245E+03
 2.02420E-01    7.08761E+03
 2.12800E-01    6.99357E+03
 2.23710E-01    6.90068E+03
 2.35180E-01    6.80898E+03
 2.47240E-01    6.67565E+03
 2.73240E-01    6.53995E+03
 2.87250E-01    6.47067E+03
 2.94520E-01    6.44242E+03
 2.97200E-01    6.43121E+03
 2.98500E-01    6.41780E+03
 3.01970E-01    6.32008E+03
 3.33730E-01    6.14448E+03
 3.68830E-01    6.01585E+03
 3.87740E-01    5.92952E+03
 4.07620E-01    5.80517E+03
 4.50490E-01    5.63871E+03
 4.97870E-01    5.51604E+03
 5.23400E-01    5.43338E+03
 5.50230E-01    5.35630E+03
 5.78440E-01    5.27556E+03
 6.08100E-01    5.19801E+03
 6.39280E-01    5.12432E+03
 6.72060E-01    5.04862E+03
 7.06510E-01    4.97959E+03
 7.42740E-01    4.90876E+03
 7.80820E-01    4.84198E+03
 8.20850E-01    4.77899E+03
 8.62940E-01    4.71543E+03
 9.07180E-01    4.65547E+03
 9.61640E-01    4.59850E+03
 1.00260E+00    4.53037E+03
 1.10800E+00    4.46034E+03
 1.16480E+00    4.41040E+03
 1.22460E+00    4.35718E+03
 1.28730E+00    4.29927E+03
 1.35340E+00    4.23794E+03
 1.42270E+00    4.15941E+03
 1.49570E+00    4.06940E+03
 1.57240E+00    3.97450E+03
 1.65300E+00    3.87143E+03
 1.73770E+00    3.76071E+03
 1.82680E+00    3.62578E+03
 1.92050E+00    3.48147E+03
 2.01900E+00    3.41754E+03
 2.12250E+00    3.39118E+03
 2.23130E+00    3.36821E+03
 2.30690E+00    3.35402E+03
 2.34570E+00    3.34715E+03
 2.36530E+00    3.34259E+03
 2.38520E+00    3.33103E+03
 2.46600E+00    3.30720E+03
 2.59240E+00    3.27730E+03
 2.72530E+00    3.24403E+03
 2.86500E+00    3.20490E+03
 3.01190E+00    3.16339E+03
 3.16640E+00    3.11587E+03
 3.32870E+00    3.03703E+03
 3.67880E+00    2.91600E+03
 4.06570E+00    2.77970E+03
 4.49330E+00    2.66872E+03
 4.72370E+00    2.59490E+03
 4.96590E+00    2.52113E+03
 5.22050E+00    2.45135E+03
 5.48810E+00    2.38403E+03
 5.76950E+00    2.32156E+03
 6.06530E+00    2.26656E+03
 6.37630E+00    2.22372E+03
 6.59240E+00    2.20320E+03
 6.70320E+00    2.17747E+03
 7.04690E+00    2.14583E+03
 7.40820E+00    2.12386E+03
 7.78800E+00    2.11215E+03
 8.18730E+00    2.11302E+03
 8.60710E+00    2.12447E+03
 9.04840E+00    2.14678E+03
 9.51230E+00    2.17939E+03
 1.00000E+01    2.22426E+03
 1.05130E+01    2.27577E+03
 1.10520E+01    2.33394E+03
 1.16180E+01    2.39747E+03
 1.22140E+01    2.46240E+03
 1.28400E+01    2.52708E+03
 1.34990E+01    2.57315E+03
 1.38400E+01    2.60344E+03
 1.41910E+01    2.62990E+03
 1.45500E+01    2.65599E+03
 1.49180E+01    2.69022E+03
 1.56830E+01    2.72686E+03
 1.64870E+01    2.75003E+03
