# n + Sn117 : (n,el)    
# endfb8.0   JNDC FPND W.G., Mughabghab        EVAL-DEC04
# uncertainties: n
# # energies =   171
#   E(MeV)       xs(mb) 
 1.00000E-11    8.91150E+03
 1.00000E-07    5.30697E+03
 4.13990E-07    5.30227E+03
 5.31580E-07    5.30083E+03
 6.82560E-07    5.29902E+03
 8.76420E-07    5.29668E+03
 1.12540E-06    5.29369E+03
 1.44500E-06    5.28984E+03
 1.85540E-06    5.28496E+03
 2.37240E-06    5.27868E+03
 3.05900E-06    5.27085E+03
 3.92790E-06    5.26094E+03
 5.04350E-06    5.24820E+03
 6.47600E-06    5.23185E+03
 8.31530E-06    5.21086E+03
 1.06770E-05    5.18390E+03
 1.37100E-05    5.14928E+03
 1.76030E-05    5.10461E+03
 2.26030E-05    5.02566E+03
 2.92030E-05    4.73869E+03
 3.72670E-05    6.51482E+03
 4.78510E-05    5.17405E+03
 6.14420E-05    5.04504E+03
 7.88930E-05    4.92887E+03
 1.01300E-04    5.48986E+03
 1.30070E-04    4.99287E+03
 1.67020E-04    5.57463E+03
 2.14450E-04    4.89688E+03
 2.75360E-04    5.28117E+03
 3.53580E-04    7.67964E+03
 4.54000E-04    5.50209E+03
 5.82950E-04    4.82027E+03
 7.48520E-04    5.71022E+03
 9.61120E-04    5.72434E+03
 1.23410E-03    5.92694E+03
 1.58460E-03    5.03972E+03
 2.03470E-03    6.46666E+03
 2.24870E-03    6.77096E+03
 2.48520E-03    7.25248E+03
 2.61260E-03    7.19240E+03
 2.74650E-03    7.10539E+03
 3.03540E-03    6.99426E+03
 3.35460E-03    6.88826E+03
 3.70740E-03    6.76435E+03
 4.30740E-03    6.58672E+03
 5.53080E-03    6.39698E+03
 7.10170E-03    6.24231E+03
 9.11880E-03    6.12537E+03
 1.17090E-02    6.04306E+03
 1.50340E-02    5.99243E+03
 1.93050E-02    5.97273E+03
 2.18750E-02    5.96895E+03
 2.35790E-02    5.96859E+03
 2.41760E-02    5.96890E+03
 2.47880E-02    5.96978E+03
 2.60580E-02    5.97131E+03
 2.70000E-02    5.97333E+03
 2.85000E-02    5.97932E+03
 3.18280E-02    5.98830E+03
 3.43070E-02    6.00502E+03
 4.08680E-02    6.03021E+03
 4.63090E-02    6.05525E+03
 5.24750E-02    6.07688E+03
 5.65620E-02    6.10588E+03
 6.73790E-02    6.13496E+03
 7.20000E-02    6.15545E+03
 7.95000E-02    6.17245E+03
 8.25000E-02    6.18295E+03
 8.65170E-02    6.20412E+03
 9.80370E-02    6.19065E+03
 1.11090E-01    6.18422E+03
 1.16790E-01    6.18380E+03
 1.22770E-01    6.18336E+03
 1.29070E-01    6.18290E+03
 1.35690E-01    6.18242E+03
 1.42640E-01    6.18191E+03
 1.49960E-01    6.18196E+03
 1.57640E-01    6.16928E+03
 1.65730E-01    6.11764E+03
 1.74220E-01    6.06099E+03
 1.83160E-01    6.00143E+03
 1.92550E-01    5.94654E+03
 2.02420E-01    5.90621E+03
 2.12800E-01    5.87656E+03
 2.23710E-01    5.84542E+03
 2.35180E-01    5.81267E+03
 2.47240E-01    5.77411E+03
 2.73240E-01    5.74979E+03
 2.87250E-01    5.73725E+03
 2.94520E-01    5.73139E+03
 2.97200E-01    5.72905E+03
 2.98500E-01    5.72626E+03
 3.01970E-01    5.71268E+03
 3.33730E-01    5.70556E+03
 3.68830E-01    5.70137E+03
 3.87740E-01    5.69839E+03
 4.07620E-01    5.69361E+03
 4.50490E-01    5.68668E+03
 4.97870E-01    5.68103E+03
 5.23400E-01    5.67700E+03
 5.50230E-01    5.67278E+03
 5.78440E-01    5.66898E+03
 6.08100E-01    5.66540E+03
 6.39280E-01    5.66165E+03
 6.72060E-01    5.65770E+03
 7.06510E-01    5.65055E+03
 7.42740E-01    5.62763E+03
 7.80820E-01    5.60135E+03
 8.20850E-01    5.57373E+03
 8.62940E-01    5.54468E+03
 9.07180E-01    5.51153E+03
 9.61640E-01    5.47934E+03
 1.00260E+00    5.38736E+03
 1.10800E+00    5.24867E+03
 1.16480E+00    5.15505E+03
 1.22460E+00    5.05898E+03
 1.28730E+00    4.96071E+03
 1.35340E+00    4.86096E+03
 1.42270E+00    4.75613E+03
 1.49570E+00    4.64323E+03
 1.57240E+00    4.51924E+03
 1.65300E+00    4.38879E+03
 1.73770E+00    4.25164E+03
 1.82680E+00    4.11291E+03
 1.92050E+00    3.97308E+03
 2.01900E+00    3.81823E+03
 2.12250E+00    3.65401E+03
 2.23130E+00    3.52311E+03
 2.30690E+00    3.44695E+03
 2.34570E+00    3.41044E+03
 2.36530E+00    3.38578E+03
 2.38520E+00    3.32318E+03
 2.46600E+00    3.19421E+03
 2.59240E+00    3.04038E+03
 2.72530E+00    2.89356E+03
 2.86500E+00    2.75421E+03
 3.01190E+00    2.62277E+03
 3.16640E+00    2.49875E+03
 3.32870E+00    2.32383E+03
 3.67880E+00    2.10457E+03
 4.06570E+00    1.96638E+03
 4.49330E+00    1.89850E+03
 4.72370E+00    1.85348E+03
 4.96590E+00    1.83211E+03
 5.22050E+00    1.84982E+03
 5.48810E+00    1.86904E+03
 5.76950E+00    1.88979E+03
 6.06530E+00    1.93994E+03
 6.37630E+00    1.99502E+03
 6.59240E+00    2.02910E+03
 6.70320E+00    2.07542E+03
 7.04690E+00    2.23074E+03
 7.40820E+00    2.32511E+03
 7.78800E+00    2.36056E+03
 8.18730E+00    2.42606E+03
 8.60710E+00    2.54057E+03
 9.04840E+00    2.62623E+03
 9.51230E+00    2.72282E+03
 1.00000E+01    2.80322E+03
 1.05130E+01    2.84134E+03
 1.10520E+01    2.90041E+03
 1.16180E+01    2.96820E+03
 1.22140E+01    2.96418E+03
 1.28400E+01    2.94245E+03
 1.34990E+01    2.93164E+03
 1.38400E+01    2.91962E+03
 1.41910E+01    2.88364E+03
 1.45500E+01    2.84522E+03
 1.49180E+01    2.77485E+03
 1.56830E+01    2.66075E+03
 1.64870E+01    2.52239E+03
