# n + Eu151 : (n,tot)   
# endfb8.0   Ge+, Mughabghab                   EVAL-JAN05
# uncertainties: n
# # energies =   171
#   E(MeV)       xs(mb) 
 1.00000E-11    1.43701E+08
 1.00000E-07    3.70160E+06
 4.13990E-07    1.75712E+07
 5.31580E-07    2.68337E+06
 6.82560E-07    5.83722E+05
 8.76420E-07    1.43338E+06
 1.12540E-06    2.89582E+05
 1.44500E-06    1.23471E+05
 1.85540E-06    7.16320E+04
 2.37240E-06    3.22904E+05
 3.05900E-06    1.68762E+06
 3.92790E-06    1.08132E+05
 5.04350E-06    1.46912E+05
 6.47600E-06    6.32830E+05
 8.31530E-06    2.61357E+05
 1.06770E-05    2.48558E+05
 1.37100E-05    1.67708E+05
 1.76030E-05    2.31299E+05
 2.26030E-05    2.54309E+05
 2.92030E-05    1.79081E+05
 3.72670E-05    3.42047E+05
 4.78510E-05    2.26110E+05
 6.14420E-05    1.19929E+05
 7.88930E-05    1.83489E+05
 1.01300E-04    1.49130E+05
 1.30070E-04    1.32303E+05
 1.67020E-04    1.17428E+05
 2.14450E-04    1.04294E+05
 2.75360E-04    9.27279E+04
 3.53580E-04    8.24882E+04
 4.54000E-04    7.34591E+04
 5.82950E-04    6.54928E+04
 7.48520E-04    5.84425E+04
 9.61120E-04    5.22219E+04
 1.23410E-03    4.67317E+04
 1.58460E-03    4.18725E+04
 2.03470E-03    3.87902E+04
 2.24870E-03    3.71546E+04
 2.48520E-03    3.59772E+04
 2.61260E-03    3.52175E+04
 2.74650E-03    3.41146E+04
 3.03540E-03    3.27105E+04
 3.35460E-03    3.13641E+04
 3.70740E-03    2.97720E+04
 4.30740E-03    2.74234E+04
 5.53080E-03    2.47804E+04
 7.10170E-03    2.24241E+04
 9.11880E-03    2.03277E+04
 1.17090E-02    1.84568E+04
 1.50340E-02    1.67815E+04
 1.93050E-02    1.55820E+04
 2.18750E-02    1.48820E+04
 2.35790E-02    1.45229E+04
 2.41760E-02    1.43287E+04
 2.47880E-02    1.40751E+04
 2.60580E-02    1.38413E+04
 2.70000E-02    1.36025E+04
 2.85000E-02    1.31857E+04
 3.18280E-02    1.27637E+04
 3.43070E-02    1.22377E+04
 4.08680E-02    1.16635E+04
 4.63090E-02    1.12265E+04
 5.24750E-02    1.08404E+04
 5.65620E-02    1.03568E+04
 6.73790E-02    9.90765E+03
 7.20000E-02    9.60973E+03
 7.95000E-02    9.36896E+03
 8.25000E-02    9.22274E+03
 8.65170E-02    8.93160E+03
 9.80370E-02    8.57092E+03
 1.11090E-01    8.40316E+03
 1.16790E-01    8.30334E+03
 1.22770E-01    8.19840E+03
 1.29070E-01    8.08799E+03
 1.35690E-01    7.97203E+03
 1.42640E-01    7.85008E+03
 1.49960E-01    7.73912E+03
 1.57640E-01    7.65254E+03
 1.65730E-01    7.56204E+03
 1.74220E-01    7.46689E+03
 1.83160E-01    7.36684E+03
 1.92550E-01    7.26901E+03
 2.02420E-01    7.21859E+03
 2.12800E-01    7.17592E+03
 2.23710E-01    7.13107E+03
 2.35180E-01    7.08391E+03
 2.47240E-01    7.02725E+03
 2.73240E-01    6.98422E+03
 2.87250E-01    6.96626E+03
 2.94520E-01    6.95901E+03
 2.97200E-01    6.95611E+03
 2.98500E-01    6.95265E+03
 3.01970E-01    6.93246E+03
 3.33730E-01    6.91200E+03
 3.68830E-01    6.91323E+03
 3.87740E-01    6.91874E+03
 4.07620E-01    6.93034E+03
 4.50490E-01    6.96730E+03
 4.97870E-01    7.00068E+03
 5.23400E-01    7.02734E+03
 5.50230E-01    7.05915E+03
 5.78440E-01    7.09261E+03
 6.08100E-01    7.12778E+03
 6.39280E-01    7.16476E+03
 6.72060E-01    7.20363E+03
 7.06510E-01    7.24449E+03
 7.42740E-01    7.28745E+03
 7.80820E-01    7.33254E+03
 8.20850E-01    7.36995E+03
 8.62940E-01    7.40216E+03
 9.07180E-01    7.43893E+03
 9.61640E-01    7.47462E+03
 1.00260E+00    7.50944E+03
 1.10800E+00    7.53235E+03
 1.16480E+00    7.54644E+03
 1.22460E+00    7.54276E+03
 1.28730E+00    7.53440E+03
 1.35340E+00    7.52156E+03
 1.42270E+00    7.49279E+03
 1.49570E+00    7.46108E+03
 1.57240E+00    7.42374E+03
 1.65300E+00    7.37052E+03
 1.73770E+00    7.31338E+03
 1.82680E+00    7.25328E+03
 1.92050E+00    7.18717E+03
 2.01900E+00    7.11143E+03
 2.12250E+00    7.03162E+03
 2.23130E+00    6.96211E+03
 2.30690E+00    6.91898E+03
 2.34570E+00    6.89699E+03
 2.36530E+00    6.88213E+03
 2.38520E+00    6.84443E+03
 2.46600E+00    6.76675E+03
 2.59240E+00    6.66928E+03
 2.72530E+00    6.56680E+03
 2.86500E+00    6.45907E+03
 3.01190E+00    6.34577E+03
 3.16640E+00    6.22668E+03
 3.32870E+00    6.03813E+03
 3.67880E+00    5.79244E+03
 4.06570E+00    5.52950E+03
 4.49330E+00    5.33873E+03
 4.72370E+00    5.22320E+03
 4.96590E+00    5.11944E+03
 5.22050E+00    5.02640E+03
 5.48810E+00    4.95018E+03
 5.76950E+00    4.89139E+03
 6.06530E+00    4.84945E+03
 6.37630E+00    4.82582E+03
 6.59240E+00    4.81806E+03
 6.70320E+00    4.81436E+03
 7.04690E+00    4.82136E+03
 7.40820E+00    4.83670E+03
 7.78800E+00    4.85547E+03
 8.18730E+00    4.88171E+03
 8.60710E+00    4.90959E+03
 9.04840E+00    4.93889E+03
 9.51230E+00    4.96971E+03
 1.00000E+01    5.00048E+03
 1.05130E+01    5.02585E+03
 1.10520E+01    5.04815E+03
 1.16180E+01    5.06943E+03
 1.22140E+01    5.09118E+03
 1.28400E+01    5.11630E+03
 1.34990E+01    5.13721E+03
 1.38400E+01    5.15303E+03
 1.41910E+01    5.16977E+03
 1.45500E+01    5.18590E+03
 1.49180E+01    5.21026E+03
 1.56830E+01    5.24082E+03
 1.64870E+01    5.24777E+03
