# n + Eu151 : (n,el)    
# endfb8.0   Ge+, Mughabghab                   EVAL-JAN05
# uncertainties: n
# # energies =   171
#   E(MeV)       xs(mb) 
 1.00000E-11    1.03762E+04
 1.00000E-07    8.03751E+03
 4.13990E-07    1.44277E+05
 5.31580E-07    4.17777E+04
 6.82560E-07    1.36195E+04
 8.76420E-07    1.02103E+04
 1.12540E-06    1.06315E+04
 1.44500E-06    6.37498E+03
 1.85540E-06    4.67854E+03
 2.37240E-06    4.51479E+03
 3.05900E-06    3.76634E+04
 3.92790E-06    7.85425E+03
 5.04350E-06    4.66395E+03
 6.47600E-06    1.96448E+04
 8.31530E-06    1.01133E+04
 1.06770E-05    1.06326E+04
 1.37100E-05    9.89339E+03
 1.76030E-05    1.06177E+04
 2.26030E-05    2.11881E+04
 2.92030E-05    1.36610E+04
 3.72670E-05    5.93370E+04
 4.78510E-05    3.35227E+04
 6.14420E-05    1.82495E+04
 7.88930E-05    3.59076E+04
 1.01300E-04    3.55175E+04
 1.30070E-04    3.41603E+04
 1.67020E-04    3.26798E+04
 2.14450E-04    3.17902E+04
 2.75360E-04    3.02481E+04
 3.53580E-04    2.89189E+04
 4.54000E-04    2.72659E+04
 5.82950E-04    2.57483E+04
 7.48520E-04    2.41652E+04
 9.61120E-04    2.28188E+04
 1.23410E-03    2.16136E+04
 1.58460E-03    2.04318E+04
 2.03470E-03    1.95750E+04
 2.24870E-03    1.90552E+04
 2.48520E-03    1.86959E+04
 2.61260E-03    1.85005E+04
 2.74650E-03    1.82099E+04
 3.03540E-03    1.77767E+04
 3.35460E-03    1.73177E+04
 3.70740E-03    1.67731E+04
 4.30740E-03    1.60148E+04
 5.53080E-03    1.50321E+04
 7.10170E-03    1.41232E+04
 9.11880E-03    1.31604E+04
 1.17090E-02    1.22926E+04
 1.50340E-02    1.15005E+04
 1.93050E-02    1.08859E+04
 2.18750E-02    1.04879E+04
 2.35790E-02    1.03399E+04
 2.41760E-02    1.02563E+04
 2.47880E-02    1.01346E+04
 2.60580E-02    1.00027E+04
 2.70000E-02    9.86497E+03
 2.85000E-02    9.61346E+03
 3.18280E-02    9.33203E+03
 3.43070E-02    8.96113E+03
 4.08680E-02    8.55194E+03
 4.63090E-02    8.23320E+03
 5.24750E-02    7.97426E+03
 5.65620E-02    7.64557E+03
 6.73790E-02    7.31891E+03
 7.20000E-02    7.11398E+03
 7.95000E-02    6.94841E+03
 8.25000E-02    6.84674E+03
 8.65170E-02    6.63607E+03
 9.80370E-02    6.36233E+03
 1.11090E-01    6.23007E+03
 1.16790E-01    6.15081E+03
 1.22770E-01    6.06747E+03
 1.29070E-01    5.97979E+03
 1.35690E-01    5.88770E+03
 1.42640E-01    5.79086E+03
 1.49960E-01    5.71387E+03
 1.57640E-01    5.65874E+03
 1.65730E-01    5.60078E+03
 1.74220E-01    5.53985E+03
 1.83160E-01    5.47577E+03
 1.92550E-01    5.40988E+03
 2.02420E-01    5.36099E+03
 2.12800E-01    5.31626E+03
 2.23710E-01    5.26925E+03
 2.35180E-01    5.21979E+03
 2.47240E-01    5.12126E+03
 2.73240E-01    5.01389E+03
 2.87250E-01    4.96025E+03
 2.94520E-01    4.93521E+03
 2.97200E-01    4.92521E+03
 2.98500E-01    4.91453E+03
 3.01970E-01    4.85736E+03
 3.33730E-01    4.73214E+03
 3.68830E-01    4.66952E+03
 3.87740E-01    4.63659E+03
 4.07620E-01    4.58906E+03
 4.50490E-01    4.54168E+03
 4.97870E-01    4.51151E+03
 5.23400E-01    4.50692E+03
 5.50230E-01    4.50267E+03
 5.78440E-01    4.49819E+03
 6.08100E-01    4.49349E+03
 6.39280E-01    4.48854E+03
 6.72060E-01    4.48335E+03
 7.06510E-01    4.47788E+03
 7.42740E-01    4.47214E+03
 7.80820E-01    4.46702E+03
 8.20850E-01    4.46697E+03
 8.62940E-01    4.46777E+03
 9.07180E-01    4.46868E+03
 9.61640E-01    4.46956E+03
 1.00260E+00    4.46601E+03
 1.10800E+00    4.46016E+03
 1.16480E+00    4.45599E+03
 1.22460E+00    4.45151E+03
 1.28730E+00    4.44107E+03
 1.35340E+00    4.42667E+03
 1.42270E+00    4.41153E+03
 1.49570E+00    4.39216E+03
 1.57240E+00    4.36464E+03
 1.65300E+00    4.33550E+03
 1.73770E+00    4.29986E+03
 1.82680E+00    4.25762E+03
 1.92050E+00    4.21126E+03
 2.01900E+00    4.15576E+03
 2.12250E+00    4.09584E+03
 2.23130E+00    4.03886E+03
 2.30690E+00    4.00293E+03
 2.34570E+00    3.98461E+03
 2.36530E+00    3.97224E+03
 2.38520E+00    3.94045E+03
 2.46600E+00    3.87035E+03
 2.59240E+00    3.78125E+03
 2.72530E+00    3.68758E+03
 2.86500E+00    3.58884E+03
 3.01190E+00    3.48327E+03
 3.16640E+00    3.37198E+03
 3.32870E+00    3.20033E+03
 3.67880E+00    2.99166E+03
 4.06570E+00    2.76931E+03
 4.49330E+00    2.61624E+03
 4.72370E+00    2.52535E+03
 4.96590E+00    2.44778E+03
 5.22050E+00    2.37606E+03
 5.48810E+00    2.31559E+03
 5.76950E+00    2.26732E+03
 6.06530E+00    2.23433E+03
 6.37630E+00    2.21385E+03
 6.59240E+00    2.20948E+03
 6.70320E+00    2.20718E+03
 7.04690E+00    2.21641E+03
 7.40820E+00    2.23485E+03
 7.78800E+00    2.26509E+03
 8.18730E+00    2.30582E+03
 8.60710E+00    2.35143E+03
 9.04840E+00    2.40087E+03
 9.51230E+00    2.45456E+03
 1.00000E+01    2.51068E+03
 1.05130E+01    2.56530E+03
 1.10520E+01    2.61890E+03
 1.16180E+01    2.66873E+03
 1.22140E+01    2.71659E+03
 1.28400E+01    2.75967E+03
 1.34990E+01    2.79087E+03
 1.38400E+01    2.81001E+03
 1.41910E+01    2.82819E+03
 1.45500E+01    2.84333E+03
 1.49180E+01    2.86518E+03
 1.56830E+01    2.89313E+03
 1.64870E+01    2.90642E+03
