# n + Ru 99 : (n,n'10)  
# jeff3.3    A.J. Koning and D. Rochman        EVAL-DEC15
# uncertainties: n
# # energies =    86
#   E(MeV)       xs(mb) 
 9.05996E-01    0.00000E+00
 1.00000E+00    4.80640E+01
 1.00890E+00    4.98973E+01
 1.05919E+00    6.02562E+01
 1.08079E+00    6.47054E+01
 1.12981E+00    7.48028E+01
 1.20000E+00    8.92608E+01
 1.21305E+00    8.90208E+01
 1.27416E+00    8.78970E+01
 1.29090E+00    8.75891E+01
 1.30394E+00    8.73493E+01
 1.31972E+00    8.70592E+01
 1.33313E+00    8.68125E+01
 1.39705E+00    8.56371E+01
 1.40000E+00    8.55828E+01
 1.42185E+00    8.43021E+01
 1.42847E+00    8.39141E+01
 1.48893E+00    8.03704E+01
 1.51233E+00    7.89989E+01
 1.51449E+00    7.88723E+01
 1.54708E+00    7.69621E+01
 1.58797E+00    7.45654E+01
 1.59935E+00    7.38984E+01
 1.60000E+00    7.38603E+01
 1.67900E+00    7.06379E+01
 1.80000E+00    6.57023E+01
 2.00000E+00    5.48963E+01
 2.20000E+00    4.45170E+01
 2.40000E+00    3.56925E+01
 2.60000E+00    2.83488E+01
 2.80000E+00    2.22885E+01
 3.00000E+00    1.73472E+01
 3.20000E+00    1.33916E+01
 3.40000E+00    1.02803E+01
 3.60000E+00    7.87232E+00
 3.80000E+00    6.02677E+00
 4.00000E+00    4.62837E+00
 4.20000E+00    3.57005E+00
 4.40000E+00    2.77036E+00
 4.60000E+00    2.16424E+00
 4.80000E+00    1.70302E+00
 5.00000E+00    1.35090E+00
 5.20000E+00    1.07925E+00
 5.40000E+00    8.68784E-01
 5.60000E+00    7.04325E-01
 5.80000E+00    5.75707E-01
 6.00000E+00    4.72580E-01
 6.20000E+00    3.91393E-01
 6.40000E+00    3.25457E-01
 6.60000E+00    2.72769E-01
 6.80000E+00    2.30178E-01
 7.00000E+00    1.94543E-01
 7.20000E+00    1.66522E-01
 7.40000E+00    1.43580E-01
 7.60000E+00    1.25106E-01
 7.80000E+00    1.10094E-01
 8.00000E+00    9.76777E-02
 8.50000E+00    7.58903E-02
 9.00000E+00    6.27498E-02
 9.50000E+00    5.48179E-02
 1.00000E+01    4.99959E-02
 1.05000E+01    4.70379E-02
 1.10000E+01    4.51939E-02
 1.15000E+01    4.40201E-02
 1.20000E+01    4.32562E-02
 1.25000E+01    4.27484E-02
 1.30000E+01    4.24061E-02
 1.35000E+01    4.21757E-02
 1.40000E+01    4.20242E-02
 1.45000E+01    4.19295E-02
 1.50000E+01    4.18759E-02
 1.60000E+01    4.18391E-02
 1.70000E+01    4.18215E-02
 1.80000E+01    4.17518E-02
 1.90000E+01    4.15943E-02
 2.00000E+01    4.13518E-02
 2.10000E+01    4.10499E-02
 2.20000E+01    4.07198E-02
 2.30000E+01    4.03829E-02
 2.40000E+01    4.00466E-02
 2.50000E+01    3.97048E-02
 2.60000E+01    3.93448E-02
 2.70000E+01    3.89527E-02
 2.80000E+01    3.85193E-02
 2.90000E+01    3.80424E-02
 3.00000E+01    3.75259E-02
