# n + Ru 99 : (n,n'13)  
# jeff3.3    A.J. Koning and D. Rochman        EVAL-DEC15
# uncertainties: n
# # energies =    82
#   E(MeV)       xs(mb) 
 1.08079E+00    0.00000E+00
 1.12981E+00    1.69163E+01
 1.20000E+00    4.11381E+01
 1.21305E+00    4.18926E+01
 1.27416E+00    4.54260E+01
 1.29090E+00    4.63938E+01
 1.30394E+00    4.71478E+01
 1.31972E+00    4.80602E+01
 1.33313E+00    4.88355E+01
 1.39705E+00    5.25313E+01
 1.40000E+00    5.27019E+01
 1.42185E+00    5.20964E+01
 1.42847E+00    5.19130E+01
 1.48893E+00    5.02377E+01
 1.51233E+00    4.95892E+01
 1.51449E+00    4.95294E+01
 1.54708E+00    4.86263E+01
 1.58797E+00    4.74932E+01
 1.59935E+00    4.71779E+01
 1.60000E+00    4.71599E+01
 1.67900E+00    4.52927E+01
 1.80000E+00    4.24329E+01
 2.00000E+00    3.53521E+01
 2.20000E+00    2.90533E+01
 2.40000E+00    2.39584E+01
 2.60000E+00    1.97498E+01
 2.80000E+00    1.62168E+01
 3.00000E+00    1.32450E+01
 3.20000E+00    1.07667E+01
 3.40000E+00    8.72389E+00
 3.60000E+00    7.05981E+00
 3.80000E+00    5.71233E+00
 4.00000E+00    4.63273E+00
 4.20000E+00    3.76761E+00
 4.40000E+00    3.07582E+00
 4.60000E+00    2.52133E+00
 4.80000E+00    2.07608E+00
 5.00000E+00    1.71862E+00
 5.20000E+00    1.42958E+00
 5.40000E+00    1.19615E+00
 5.60000E+00    1.00708E+00
 5.80000E+00    8.54447E-01
 6.00000E+00    7.28728E-01
 6.20000E+00    6.27878E-01
 6.40000E+00    5.44226E-01
 6.60000E+00    4.76530E-01
 6.80000E+00    4.20973E-01
 7.00000E+00    3.73789E-01
 7.20000E+00    3.36219E-01
 7.40000E+00    3.04895E-01
 7.60000E+00    2.79168E-01
 7.80000E+00    2.57764E-01
 8.00000E+00    2.39568E-01
 8.50000E+00    2.05634E-01
 9.00000E+00    1.82542E-01
 9.50000E+00    1.66193E-01
 1.00000E+01    1.54139E-01
 1.05000E+01    1.44941E-01
 1.10000E+01    1.37698E-01
 1.15000E+01    1.31830E-01
 1.20000E+01    1.26938E-01
 1.25000E+01    1.22739E-01
 1.30000E+01    1.19023E-01
 1.35000E+01    1.15646E-01
 1.40000E+01    1.12515E-01
 1.45000E+01    1.09577E-01
 1.50000E+01    1.06815E-01
 1.60000E+01    1.01793E-01
 1.70000E+01    9.74043E-02
 1.80000E+01    9.35286E-02
 1.90000E+01    9.00273E-02
 2.00000E+01    8.68369E-02
 2.10000E+01    8.39660E-02
 2.20000E+01    8.14476E-02
 2.30000E+01    7.92976E-02
 2.40000E+01    7.74981E-02
 2.50000E+01    7.59918E-02
 2.60000E+01    7.46890E-02
 2.70000E+01    7.34891E-02
 2.80000E+01    7.23068E-02
 2.90000E+01    7.10943E-02
 3.00000E+01    6.98407E-02
