# n + Te128 : (n,tot)   
# endfb8.0   JNDC FPND W.G., Mughabghab        EVAL-DEC04
# uncertainties: n
# # energies =   171
#   E(MeV)       xs(mb) 
 1.00000E-11    9.35677E+03
 1.00000E-07    4.46457E+03
 4.13990E-07    4.43628E+03
 5.31580E-07    4.42986E+03
 6.82560E-07    4.42401E+03
 8.76420E-07    4.41858E+03
 1.12540E-06    4.41358E+03
 1.44500E-06    4.41029E+03
 1.85540E-06    4.40628E+03
 2.37240E-06    4.40110E+03
 3.05900E-06    4.39438E+03
 3.92790E-06    4.38582E+03
 5.04350E-06    4.37644E+03
 6.47600E-06    4.36870E+03
 8.31530E-06    4.35898E+03
 1.06770E-05    4.34649E+03
 1.37100E-05    4.33046E+03
 1.76030E-05    4.30988E+03
 2.26030E-05    4.28508E+03
 2.92030E-05    4.26026E+03
 3.72670E-05    4.22933E+03
 4.78510E-05    4.19037E+03
 6.14420E-05    4.15123E+03
 7.88930E-05    4.10401E+03
 1.01300E-04    4.05558E+03
 1.30070E-04    4.00133E+03
 1.67020E-04    3.94687E+03
 2.14450E-04    3.88131E+03
 2.75360E-04    3.82991E+03
 3.53580E-04    1.09888E+04
 4.54000E-04    3.92941E+03
 5.82950E-04    3.79756E+03
 7.48520E-04    4.00869E+03
 9.61120E-04    3.66039E+03
 1.23410E-03    4.62914E+03
 1.58460E-03    7.19611E+03
 2.03470E-03    3.81514E+03
 2.24870E-03    3.66265E+03
 2.48520E-03    3.54339E+03
 2.61260E-03    3.39910E+03
 2.74650E-03    1.29775E+04
 3.03540E-03    4.87773E+03
 3.35460E-03    4.05859E+03
 3.70740E-03    3.90480E+03
 4.30740E-03    4.09210E+03
 5.53080E-03    4.08911E+03
 7.10170E-03    3.62501E+03
 9.11880E-03    6.32625E+03
 1.17090E-02    5.19029E+03
 1.50340E-02    4.46244E+03
 1.93050E-02    4.75070E+03
 2.18750E-02    5.49698E+03
 2.35790E-02    5.66130E+03
 2.41760E-02    5.65917E+03
 2.47880E-02    5.65625E+03
 2.60580E-02    5.65340E+03
 2.70000E-02    5.65087E+03
 2.85000E-02    5.64737E+03
 3.18280E-02    5.64481E+03
 3.43070E-02    5.64398E+03
 4.08680E-02    5.64600E+03
 4.63090E-02    5.65012E+03
 5.24750E-02    5.65463E+03
 5.65620E-02    5.66161E+03
 6.73790E-02    5.66917E+03
 7.20000E-02    5.67465E+03
 7.95000E-02    5.67932E+03
 8.25000E-02    5.68214E+03
 8.65170E-02    5.68796E+03
 9.80370E-02    5.69282E+03
 1.11090E-01    5.67854E+03
 1.16790E-01    5.66868E+03
 1.22770E-01    5.65831E+03
 1.29070E-01    5.64741E+03
 1.35690E-01    5.63595E+03
 1.42640E-01    5.62390E+03
 1.49960E-01    5.61819E+03
 1.57640E-01    5.61943E+03
 1.65730E-01    5.62072E+03
 1.74220E-01    5.62209E+03
 1.83160E-01    5.62352E+03
 1.92550E-01    5.62503E+03
 2.02420E-01    5.62788E+03
 2.12800E-01    5.63750E+03
 2.23710E-01    5.64858E+03
 2.35180E-01    5.66022E+03
 2.47240E-01    5.67951E+03
 2.73240E-01    5.70565E+03
 2.87250E-01    5.72083E+03
 2.94520E-01    5.72792E+03
 2.97200E-01    5.73075E+03
 2.98500E-01    5.73414E+03
 3.01970E-01    5.76215E+03
 3.33730E-01    5.82083E+03
 3.68830E-01    5.86885E+03
 3.87740E-01    5.90305E+03
 4.07620E-01    5.95255E+03
 4.50490E-01    6.01976E+03
 4.97870E-01    6.07453E+03
 5.23400E-01    6.11354E+03
 5.50230E-01    6.15327E+03
 5.78440E-01    6.19345E+03
 6.08100E-01    6.23570E+03
 6.39280E-01    6.28012E+03
 6.72060E-01    6.32679E+03
 7.06510E-01    6.36947E+03
 7.42740E-01    6.40886E+03
 7.80820E-01    6.45027E+03
 8.20850E-01    6.49202E+03
 8.62940E-01    6.52636E+03
 9.07180E-01    6.56392E+03
 9.61640E-01    6.59302E+03
 1.00260E+00    6.62069E+03
 1.10800E+00    6.64089E+03
 1.16480E+00    6.65473E+03
 1.22460E+00    6.66373E+03
 1.28730E+00    6.64902E+03
 1.35340E+00    6.63078E+03
 1.42270E+00    6.61160E+03
 1.49570E+00    6.58781E+03
 1.57240E+00    6.54170E+03
 1.65300E+00    6.48984E+03
 1.73770E+00    6.43508E+03
 1.82680E+00    6.36626E+03
 1.92050E+00    6.28749E+03
 2.01900E+00    6.20470E+03
 2.12250E+00    6.11690E+03
 2.23130E+00    6.03163E+03
 2.30690E+00    5.97651E+03
 2.34570E+00    5.94841E+03
 2.36530E+00    5.92943E+03
 2.38520E+00    5.88125E+03
 2.46600E+00    5.78570E+03
 2.59240E+00    5.67862E+03
 2.72530E+00    5.56783E+03
 2.86500E+00    5.45852E+03
 3.01190E+00    5.33793E+03
 3.16640E+00    5.20101E+03
 3.32870E+00    5.00171E+03
 3.67880E+00    4.74817E+03
 4.06570E+00    4.51641E+03
 4.49330E+00    4.35391E+03
 4.72370E+00    4.24721E+03
 4.96590E+00    4.16354E+03
 5.22050E+00    4.11551E+03
 5.48810E+00    4.06558E+03
 5.76950E+00    4.01586E+03
 6.06530E+00    4.01532E+03
 6.37630E+00    4.03368E+03
 6.59240E+00    4.04507E+03
 6.70320E+00    4.06115E+03
 7.04690E+00    4.11238E+03
 7.40820E+00    4.18257E+03
 7.78800E+00    4.25636E+03
 8.18730E+00    4.33394E+03
 8.60710E+00    4.41550E+03
 9.04840E+00    4.49614E+03
 9.51230E+00    4.57119E+03
 1.00000E+01    4.63510E+03
 1.05130E+01    4.69305E+03
 1.10520E+01    4.75379E+03
 1.16180E+01    4.81201E+03
 1.22140E+01    4.86358E+03
 1.28400E+01    4.91357E+03
 1.34990E+01    4.95133E+03
 1.38400E+01    4.97713E+03
 1.41910E+01    5.00512E+03
 1.45500E+01    5.03353E+03
 1.49180E+01    5.07213E+03
 1.56830E+01    5.10459E+03
 1.64870E+01    5.07809E+03
