# n + Kr 85 : (n,n'08)  
# jeff3.3    A.J. Koning and D. Rochman        EVAL-DEC15
# uncertainties: n
# # energies =    85
#   E(MeV)       xs(mb) 
 1.44759E+00    0.00000E+00
 1.60000E+00    2.50742E+00
 1.63074E+00    2.99105E+00
 1.80000E+00    5.65402E+00
 1.86894E+00    6.43931E+00
 1.89578E+00    6.74503E+00
 1.95444E+00    7.41322E+00
 1.96186E+00    7.49774E+00
 2.00000E+00    7.93219E+00
 2.01374E+00    8.01244E+00
 2.01546E+00    8.02249E+00
 2.02821E+00    8.09695E+00
 2.07951E+00    8.39657E+00
 2.13850E+00    8.74111E+00
 2.16046E+00    8.86936E+00
 2.16273E+00    8.88262E+00
 2.17038E+00    8.92730E+00
 2.20000E+00    9.10030E+00
 2.26175E+00    9.30486E+00
 2.40000E+00    9.76284E+00
 2.41181E+00    9.80007E+00
 2.42649E+00    9.84636E+00
 2.52757E+00    1.01650E+01
 2.54326E+00    1.02145E+01
 2.56440E+00    1.02812E+01
 2.60000E+00    1.03934E+01
 2.60427E+00    1.03968E+01
 2.62380E+00    1.04121E+01
 2.63331E+00    1.04196E+01
 2.80000E+00    1.05507E+01
 3.00000E+00    9.98609E+00
 3.20000E+00    8.90941E+00
 3.40000E+00    7.61802E+00
 3.60000E+00    6.30869E+00
 3.80000E+00    5.09504E+00
 4.00000E+00    4.03218E+00
 4.20000E+00    3.13887E+00
 4.40000E+00    2.41460E+00
 4.60000E+00    1.84207E+00
 4.80000E+00    1.39883E+00
 5.00000E+00    1.05958E+00
 5.20000E+00    8.02578E-01
 5.40000E+00    6.09300E-01
 5.60000E+00    4.64226E-01
 5.80000E+00    3.55370E-01
 6.00000E+00    2.73296E-01
 6.20000E+00    2.11561E-01
 6.40000E+00    1.64680E-01
 6.60000E+00    1.28912E-01
 6.80000E+00    1.01642E-01
 7.00000E+00    8.03988E-02
 7.20000E+00    6.40451E-02
 7.40000E+00    5.09077E-02
 7.60000E+00    4.08113E-02
 7.80000E+00    3.28125E-02
 8.00000E+00    2.64557E-02
 8.50000E+00    1.56774E-02
 9.00000E+00    9.41558E-03
 9.50000E+00    5.70980E-03
 1.00000E+01    3.49249E-03
 1.05000E+01    2.15436E-03
 1.10000E+01    1.34016E-03
 1.15000E+01    8.40596E-04
 1.20000E+01    5.31557E-04
 1.25000E+01    3.38625E-04
 1.30000E+01    2.17197E-04
 1.35000E+01    1.40154E-04
 1.40000E+01    9.09199E-05
 1.45000E+01    5.92596E-05
 1.50000E+01    3.88129E-05
 1.60000E+01    1.68720E-05
 1.70000E+01    7.47058E-06
 1.80000E+01    3.37230E-06
 1.90000E+01    1.55253E-06
 2.00000E+01    7.28770E-07
 2.10000E+01    3.48220E-07
 2.20000E+01    1.68620E-07
 2.30000E+01    8.20270E-08
 2.40000E+01    4.06790E-08
 2.50000E+01    2.03950E-08
 2.60000E+01    1.03370E-08
 2.70000E+01    5.30510E-09
 2.80000E+01    2.74870E-09
 2.90000E+01    1.44020E-09
 3.00000E+01    7.61690E-10
