# n + Kr 85 : (n,n'07)  
# jeff3.3    A.J. Koning and D. Rochman        EVAL-DEC15
# uncertainties: n
# # energies =    86
#   E(MeV)       xs(mb) 
 1.43340E+00    0.00000E+00
 1.44759E+00    3.67762E+00
 1.60000E+00    4.31778E+01
 1.63074E+00    4.85932E+01
 1.80000E+00    7.84115E+01
 1.86894E+00    8.26848E+01
 1.89578E+00    8.43485E+01
 1.95444E+00    8.79846E+01
 1.96186E+00    8.84445E+01
 2.00000E+00    9.08086E+01
 2.01374E+00    9.02990E+01
 2.01546E+00    9.02352E+01
 2.02821E+00    8.97623E+01
 2.07951E+00    8.78595E+01
 2.13850E+00    8.56715E+01
 2.16046E+00    8.48570E+01
 2.16273E+00    8.47728E+01
 2.17038E+00    8.44890E+01
 2.20000E+00    8.33904E+01
 2.26175E+00    8.01591E+01
 2.40000E+00    7.29246E+01
 2.41181E+00    7.25643E+01
 2.42649E+00    7.21165E+01
 2.52757E+00    6.90329E+01
 2.54326E+00    6.85542E+01
 2.56440E+00    6.79093E+01
 2.60000E+00    6.68233E+01
 2.60427E+00    6.66841E+01
 2.62380E+00    6.60474E+01
 2.63331E+00    6.57374E+01
 2.80000E+00    6.03032E+01
 3.00000E+00    5.21148E+01
 3.20000E+00    4.33317E+01
 3.40000E+00    3.50606E+01
 3.60000E+00    2.78109E+01
 3.80000E+00    2.17213E+01
 4.00000E+00    1.67520E+01
 4.20000E+00    1.27865E+01
 4.40000E+00    9.69190E+00
 4.60000E+00    7.31507E+00
 4.80000E+00    5.51524E+00
 5.00000E+00    4.16182E+00
 5.20000E+00    3.15117E+00
 5.40000E+00    2.40021E+00
 5.60000E+00    1.84238E+00
 5.80000E+00    1.42754E+00
 6.00000E+00    1.11751E+00
 6.20000E+00    8.85923E-01
 6.40000E+00    7.11293E-01
 6.60000E+00    5.78961E-01
 6.80000E+00    4.78580E-01
 7.00000E+00    4.00843E-01
 7.20000E+00    3.41234E-01
 7.40000E+00    2.93625E-01
 7.60000E+00    2.57046E-01
 7.80000E+00    2.28094E-01
 8.00000E+00    2.05050E-01
 8.50000E+00    1.65574E-01
 9.00000E+00    1.41828E-01
 9.50000E+00    1.26736E-01
 1.00000E+01    1.16553E-01
 1.05000E+01    1.09228E-01
 1.10000E+01    1.03628E-01
 1.15000E+01    9.91144E-02
 1.20000E+01    9.53187E-02
 1.25000E+01    9.20222E-02
 1.30000E+01    8.90862E-02
 1.35000E+01    8.64262E-02
 1.40000E+01    8.39867E-02
 1.45000E+01    8.17323E-02
 1.50000E+01    7.96372E-02
 1.60000E+01    7.58477E-02
 1.70000E+01    7.25001E-02
 1.80000E+01    6.95338E-02
 1.90000E+01    6.69266E-02
 2.00000E+01    6.46469E-02
 2.10000E+01    6.26158E-02
 2.20000E+01    6.07223E-02
 2.30000E+01    5.88715E-02
 2.40000E+01    5.70245E-02
 2.50000E+01    5.51967E-02
 2.60000E+01    5.34365E-02
 2.70000E+01    5.17937E-02
 2.80000E+01    5.02998E-02
 2.90000E+01    4.89628E-02
 3.00000E+01    4.77683E-02
