# n + Kr 85 : (n,n'14)  
# jeff3.3    A.J. Koning and D. Rochman        EVAL-DEC15
# uncertainties: n
# # energies =    76
#   E(MeV)       xs(mb) 
 2.01374E+00    0.00000E+00
 2.01546E+00    7.43022E-01
 2.02821E+00    6.25100E+00
 2.07951E+00    2.84127E+01
 2.13850E+00    5.38965E+01
 2.16046E+00    6.33832E+01
 2.16273E+00    6.43639E+01
 2.17038E+00    6.76688E+01
 2.20000E+00    8.04646E+01
 2.26175E+00    9.11209E+01
 2.40000E+00    1.14979E+02
 2.41181E+00    1.15385E+02
 2.42649E+00    1.15889E+02
 2.52757E+00    1.19362E+02
 2.54326E+00    1.19901E+02
 2.56440E+00    1.20628E+02
 2.60000E+00    1.21851E+02
 2.60427E+00    1.21673E+02
 2.62380E+00    1.20856E+02
 2.63331E+00    1.20459E+02
 2.80000E+00    1.13491E+02
 3.00000E+00    9.47211E+01
 3.20000E+00    7.46449E+01
 3.40000E+00    5.75872E+01
 3.60000E+00    4.42938E+01
 3.80000E+00    3.41597E+01
 4.00000E+00    2.63977E+01
 4.20000E+00    2.03762E+01
 4.40000E+00    1.56867E+01
 4.60000E+00    1.20324E+01
 4.80000E+00    9.20324E+00
 5.00000E+00    7.02442E+00
 5.20000E+00    5.36100E+00
 5.40000E+00    4.10154E+00
 5.60000E+00    3.15131E+00
 5.80000E+00    2.43682E+00
 6.00000E+00    1.90008E+00
 6.20000E+00    1.49663E+00
 6.40000E+00    1.19269E+00
 6.60000E+00    9.62394E-01
 6.80000E+00    7.88547E-01
 7.00000E+00    6.54558E-01
 7.20000E+00    5.52409E-01
 7.40000E+00    4.71600E-01
 7.60000E+00    4.09949E-01
 7.80000E+00    3.61652E-01
 8.00000E+00    3.23553E-01
 8.50000E+00    2.59394E-01
 9.00000E+00    2.21832E-01
 9.50000E+00    1.98605E-01
 1.00000E+01    1.83310E-01
 1.05000E+01    1.72493E-01
 1.10000E+01    1.64272E-01
 1.15000E+01    1.57627E-01
 1.20000E+01    1.51999E-01
 1.25000E+01    1.47076E-01
 1.30000E+01    1.42672E-01
 1.35000E+01    1.38668E-01
 1.40000E+01    1.34983E-01
 1.45000E+01    1.31565E-01
 1.50000E+01    1.28370E-01
 1.60000E+01    1.22550E-01
 1.70000E+01    1.17365E-01
 1.80000E+01    1.12733E-01
 1.90000E+01    1.08625E-01
 2.00000E+01    1.05017E-01
 2.10000E+01    1.01826E-01
 2.20000E+01    9.88973E-02
 2.30000E+01    9.60740E-02
 2.40000E+01    9.32606E-02
 2.50000E+01    9.04480E-02
 2.60000E+01    8.76960E-02
 2.70000E+01    8.50853E-02
 2.80000E+01    8.26790E-02
 2.90000E+01    8.05068E-02
 3.00000E+01    7.85605E-02
