# n + W 186 : (n,n'23)  
# tendl.2019 A.J. Koning and D. Rochman        EVAL-NOV19
# uncertainties: n
# # energies =    70
#   E(MeV)       xs(mb) 
 1.46629E+00    0.00000E+00
 1.47135E+00    1.02166E+00
 1.49857E+00    6.51765E+00
 1.52543E+00    1.19410E+01
 1.52955E+00    1.27728E+01
 1.54063E+00    1.50100E+01
 1.57185E+00    2.13136E+01
 1.60000E+00    2.69974E+01
 1.61622E+00    2.83124E+01
 1.80000E+00    4.32125E+01
 2.00000E+00    5.22081E+01
 2.20000E+00    5.65010E+01
 2.40000E+00    5.61366E+01
 2.60000E+00    5.16027E+01
 2.80000E+00    4.40730E+01
 3.00000E+00    3.51771E+01
 3.20000E+00    2.66057E+01
 3.40000E+00    1.90856E+01
 3.60000E+00    1.32483E+01
 3.80000E+00    9.01516E+00
 4.00000E+00    6.06970E+00
 4.20000E+00    4.07479E+00
 4.40000E+00    2.74153E+00
 4.60000E+00    1.85174E+00
 4.80000E+00    1.25508E+00
 5.00000E+00    8.55696E-01
 5.20000E+00    5.86937E-01
 5.40000E+00    4.05067E-01
 5.60000E+00    2.79819E-01
 5.80000E+00    1.94892E-01
 6.00000E+00    1.36595E-01
 6.20000E+00    9.65137E-02
 6.40000E+00    6.85637E-02
 6.60000E+00    4.91379E-02
 6.80000E+00    3.53703E-02
 7.00000E+00    2.55928E-02
 7.20000E+00    1.86238E-02
 7.40000E+00    1.35891E-02
 7.60000E+00    9.97187E-03
 7.80000E+00    7.32840E-03
 8.00000E+00    5.39789E-03
 8.50000E+00    2.54244E-03
 9.00000E+00    1.21629E-03
 9.50000E+00    5.90959E-04
 1.00000E+01    2.91492E-04
 1.05000E+01    1.45896E-04
 1.10000E+01    7.40602E-05
 1.15000E+01    3.81093E-05
 1.20000E+01    1.98646E-05
 1.25000E+01    1.04898E-05
 1.30000E+01    5.60916E-06
 1.35000E+01    3.03548E-06
 1.40000E+01    1.66154E-06
 1.45000E+01    9.19310E-07
 1.50000E+01    5.13850E-07
 1.60000E+01    1.64990E-07
 1.70000E+01    5.47790E-08
 1.80000E+01    1.86170E-08
 1.90000E+01    6.55080E-09
 2.00000E+01    2.36650E-09
 2.10000E+01    8.76340E-10
 2.20000E+01    3.32100E-10
 2.30000E+01    1.28740E-10
 2.40000E+01    5.09810E-11
 2.50000E+01    2.05930E-11
 2.60000E+01    8.49170E-12
 2.70000E+01    3.55160E-12
 2.80000E+01    1.50880E-12
 2.90000E+01    6.50550E-13
 3.00000E+01    2.84550E-13
