# n + W 186 : (n,n'12)  
# tendl.2019 A.J. Koning and D. Rochman        EVAL-NOV19
# uncertainties: n
# # energies =    83
#   E(MeV)       xs(mb) 
 1.15624E+00    0.00000E+00
 1.17799E+00    1.91257E+01
 1.20000E+00    3.84801E+01
 1.20379E+00    3.90832E+01
 1.28613E+00    5.21866E+01
 1.29239E+00    5.31828E+01
 1.30598E+00    5.53455E+01
 1.32930E+00    5.90566E+01
 1.34305E+00    6.12447E+01
 1.35652E+00    6.33883E+01
 1.40000E+00    7.03076E+01
 1.40566E+00    7.02672E+01
 1.46133E+00    6.98694E+01
 1.46629E+00    6.98340E+01
 1.47135E+00    6.97978E+01
 1.49857E+00    6.96033E+01
 1.52543E+00    6.94114E+01
 1.52955E+00    6.93820E+01
 1.54063E+00    6.93028E+01
 1.57185E+00    6.90797E+01
 1.60000E+00    6.88786E+01
 1.61622E+00    6.79728E+01
 1.80000E+00    5.77093E+01
 2.00000E+00    4.92931E+01
 2.20000E+00    4.19784E+01
 2.40000E+00    3.49875E+01
 2.60000E+00    2.81308E+01
 2.80000E+00    2.15852E+01
 3.00000E+00    1.57466E+01
 3.20000E+00    1.09522E+01
 3.40000E+00    7.34297E+00
 3.60000E+00    4.79841E+00
 3.80000E+00    3.09161E+00
 4.00000E+00    1.98019E+00
 4.20000E+00    1.26956E+00
 4.40000E+00    8.17755E-01
 4.60000E+00    5.30602E-01
 4.80000E+00    3.47378E-01
 5.00000E+00    2.29648E-01
 5.20000E+00    1.53326E-01
 5.40000E+00    1.03345E-01
 5.60000E+00    6.99056E-02
 5.80000E+00    4.77742E-02
 6.00000E+00    3.29091E-02
 6.20000E+00    2.28816E-02
 6.40000E+00    1.60072E-02
 6.60000E+00    1.13052E-02
 6.80000E+00    8.02360E-03
 7.00000E+00    5.72637E-03
 7.20000E+00    4.11146E-03
 7.40000E+00    2.96096E-03
 7.60000E+00    2.14498E-03
 7.80000E+00    1.55646E-03
 8.00000E+00    1.13226E-03
 8.50000E+00    5.17515E-04
 9.00000E+00    2.40830E-04
 9.50000E+00    1.14202E-04
 1.00000E+01    5.51719E-05
 1.05000E+01    2.71261E-05
 1.10000E+01    1.35524E-05
 1.15000E+01    6.87048E-06
 1.20000E+01    3.52983E-06
 1.25000E+01    1.83769E-06
 1.30000E+01    9.69130E-07
 1.35000E+01    5.17530E-07
 1.40000E+01    2.79770E-07
 1.45000E+01    1.53040E-07
 1.50000E+01    8.46680E-08
 1.60000E+01    2.67210E-08
 1.70000E+01    8.74690E-09
 1.80000E+01    2.93550E-09
 1.90000E+01    1.02080E-09
 2.00000E+01    3.64710E-10
 2.10000E+01    1.33710E-10
 2.20000E+01    5.02400E-11
 2.30000E+01    1.93420E-11
 2.40000E+01    7.62030E-12
 2.50000E+01    3.06590E-12
 2.60000E+01    1.25980E-12
 2.70000E+01    5.24930E-13
 2.80000E+01    2.22010E-13
 2.90000E+01    9.52540E-14
 3.00000E+01    4.14510E-14
