# n + W 186 : (n,n'14)  
# tendl.2019 A.J. Koning and D. Rochman        EVAL-NOV19
# uncertainties: n
# # energies =    80
#   E(MeV)       xs(mb) 
 1.20379E+00    0.00000E+00
 1.28613E+00    6.82993E+00
 1.29239E+00    7.34918E+00
 1.30598E+00    8.47644E+00
 1.32930E+00    1.04108E+01
 1.34305E+00    1.15513E+01
 1.35652E+00    1.26686E+01
 1.40000E+00    1.62752E+01
 1.40566E+00    1.65677E+01
 1.46133E+00    1.94450E+01
 1.46629E+00    1.97014E+01
 1.47135E+00    1.99629E+01
 1.49857E+00    2.13697E+01
 1.52543E+00    2.27580E+01
 1.52955E+00    2.29709E+01
 1.54063E+00    2.35436E+01
 1.57185E+00    2.51572E+01
 1.60000E+00    2.66121E+01
 1.61622E+00    2.70863E+01
 1.80000E+00    3.24597E+01
 2.00000E+00    3.61635E+01
 2.20000E+00    3.78824E+01
 2.40000E+00    3.75053E+01
 2.60000E+00    3.49259E+01
 2.80000E+00    3.04254E+01
 3.00000E+00    2.48112E+01
 3.20000E+00    1.91506E+01
 3.40000E+00    1.40344E+01
 3.60000E+00    9.95898E+00
 3.80000E+00    6.93237E+00
 4.00000E+00    4.77548E+00
 4.20000E+00    3.28683E+00
 4.40000E+00    2.25583E+00
 4.60000E+00    1.55015E+00
 4.80000E+00    1.06914E+00
 5.00000E+00    7.40725E-01
 5.20000E+00    5.15753E-01
 5.40000E+00    3.60897E-01
 5.60000E+00    2.52466E-01
 5.80000E+00    1.77842E-01
 6.00000E+00    1.25899E-01
 6.20000E+00    8.97576E-02
 6.40000E+00    6.42626E-02
 6.60000E+00    4.63727E-02
 6.80000E+00    3.35868E-02
 7.00000E+00    2.44368E-02
 7.20000E+00    1.78710E-02
 7.40000E+00    1.31004E-02
 7.60000E+00    9.65455E-03
 7.80000E+00    7.12340E-03
 8.00000E+00    5.26702E-03
 8.50000E+00    2.50236E-03
 9.00000E+00    1.20667E-03
 9.50000E+00    5.90795E-04
 1.00000E+01    2.93629E-04
 1.05000E+01    1.48061E-04
 1.10000E+01    7.56940E-05
 1.15000E+01    3.92107E-05
 1.20000E+01    2.05673E-05
 1.25000E+01    1.09256E-05
 1.30000E+01    5.87546E-06
 1.35000E+01    3.19688E-06
 1.40000E+01    1.75888E-06
 1.45000E+01    9.77830E-07
 1.50000E+01    5.48950E-07
 1.60000E+01    1.77570E-07
 1.70000E+01    5.92900E-08
 1.80000E+01    2.02410E-08
 1.90000E+01    7.15060E-09
 2.00000E+01    2.59330E-09
 2.10000E+01    9.64090E-10
 2.20000E+01    3.66730E-10
 2.30000E+01    1.42650E-10
 2.40000E+01    5.66590E-11
 2.50000E+01    2.29460E-11
 2.60000E+01    9.48360E-12
 2.70000E+01    3.97460E-12
 2.80000E+01    1.69170E-12
 2.90000E+01    7.30730E-13
 3.00000E+01    3.20150E-13
