# n + Dy156 : (n,xg)    
# jendl4.0   N.Iwamoto,S.Chiba                 EVAL-Nov09
# 
# # energies =    98
#   E(MeV)        xs(mb) 
 1.05000E-01    0.00000E+00
 1.10000E-01    0.00000E+00
 1.20000E-01    0.00000E+00
 1.30000E-01    0.00000E+00
 1.38661E-01    0.00000E+00
 1.40000E-01    0.00000E+00
 1.50000E-01    0.00000E+00
 1.60000E-01    0.00000E+00
 1.70000E-01    0.00000E+00
 1.80000E-01    0.00000E+00
 1.90000E-01    0.00000E+00
 2.00000E-01    0.00000E+00
 2.25000E-01    0.00000E+00
 2.50000E-01    0.00000E+00
 2.75000E-01    0.00000E+00
 3.00000E-01    0.00000E+00
 4.00000E-01    0.00000E+00
 4.06805E-01    0.00000E+00
 5.00000E-01    0.00000E+00
 6.00000E-01    0.00000E+00
 6.79970E-01    0.00000E+00
 7.00000E-01    0.00000E+00
 7.75424E-01    0.00000E+00
 8.00000E-01    0.00000E+00
 8.34000E-01    0.00000E+00
 8.96261E-01    0.00000E+00
 9.00000E-01    0.00000E+00
 1.00000E+00    0.00000E+00
 1.02869E+00    0.00000E+00
 1.09532E+00    0.00000E+00
 1.10000E+00    0.00000E+00
 1.17603E+00    0.00000E+00
 1.20000E+00    0.00000E+00
 1.22347E+00    0.00000E+00
 1.30000E+00    0.00000E+00
 1.30157E+00    0.00000E+00
 1.34420E+00    0.00000E+00
 1.37721E+00    0.00000E+00
 1.39125E+00    0.00000E+00
 1.40000E+00    0.00000E+00
 1.41610E+00    0.00000E+00
 1.44658E+00    0.00000E+00
 1.45674E+00    0.00000E+00
 1.48565E+00    0.00000E+00
 1.50000E+00    0.00000E+00
 1.52474E+00    0.00000E+00
 1.53504E+00    0.00000E+00
 1.53615E+00    0.00000E+00
 1.60000E+00    0.00000E+00
 1.61974E+00    0.00000E+00
 1.63515E+00    0.00000E+00
 1.63795E+00    0.00000E+00
 1.68800E+00    0.00000E+00
 1.69077E+00    0.00000E+00
 1.70000E+00    0.00000E+00
 1.73618E+00    0.00000E+00
 1.73997E+00    0.00000E+00
 1.80000E+00    0.00000E+00
 1.90000E+00    0.00000E+00
 2.00000E+00    0.00000E+00
 2.25000E+00    0.00000E+00
 2.50000E+00    0.00000E+00
 2.75000E+00    0.00000E+00
 3.00000E+00    0.00000E+00
 3.50000E+00    0.00000E+00
 4.00000E+00    0.00000E+00
 4.50000E+00    0.00000E+00
 5.00000E+00    0.00000E+00
 5.50000E+00    0.00000E+00
 6.00000E+00    0.00000E+00
 6.50000E+00    0.00000E+00
 7.00000E+00    0.00000E+00
 7.50000E+00    0.00000E+00
 8.00000E+00    0.00000E+00
 8.50000E+00    0.00000E+00
 9.00000E+00    0.00000E+00
 9.50000E+00    0.00000E+00
 1.00000E+01    0.00000E+00
 1.05000E+01    0.00000E+00
 1.10000E+01    0.00000E+00
 1.15000E+01    0.00000E+00
 1.20000E+01    0.00000E+00
 1.25000E+01    0.00000E+00
 1.30000E+01    0.00000E+00
 1.35000E+01    0.00000E+00
 1.40000E+01    0.00000E+00
 1.45000E+01    0.00000E+00
 1.50000E+01    0.00000E+00
 1.55000E+01    0.00000E+00
 1.60000E+01    0.00000E+00
 1.65000E+01    0.00000E+00
 1.70000E+01    0.00000E+00
 1.75000E+01    0.00000E+00
 1.80000E+01    0.00000E+00
 1.85000E+01    0.00000E+00
 1.90000E+01    0.00000E+00
 1.95000E+01    0.00000E+00
 2.00000E+01    0.00000E+00
