# n + Dy156 : (n,n'22)  
# jendl4.0   N.Iwamoto,S.Chiba                 EVAL-Nov09
# uncertainties: n
# # energies =    49
#   E(MeV)       xs(mb) 
 1.61974E+00    0.00000E+00
 1.63515E+00    1.04799E+01
 1.63795E+00    1.13537E+01
 1.68800E+00    2.23380E+01
 1.69077E+00    2.28336E+01
 1.70000E+00    2.44157E+01
 1.73618E+00    2.99917E+01
 1.73997E+00    3.05352E+01
 1.80000E+00    3.80428E+01
 1.90000E+00    4.69376E+01
 2.00000E+00    5.19440E+01
 2.25000E+00    5.23892E+01
 2.50000E+00    4.79020E+01
 2.75000E+00    3.79207E+01
 3.00000E+00    2.99853E+01
 3.50000E+00    1.59230E+01
 4.00000E+00    8.06125E+00
 4.50000E+00    4.12725E+00
 5.00000E+00    2.25740E+00
 5.50000E+00    1.38413E+00
 6.00000E+00    9.72410E-01
 6.50000E+00    7.69930E-01
 7.00000E+00    6.61703E-01
 7.50000E+00    5.96184E-01
 8.00000E+00    5.50191E-01
 8.50000E+00    5.13642E-01
 9.00000E+00    4.82281E-01
 9.50000E+00    4.54277E-01
 1.00000E+01    4.28790E-01
 1.05000E+01    4.05568E-01
 1.10000E+01    3.83768E-01
 1.15000E+01    3.63913E-01
 1.20000E+01    3.45239E-01
 1.25000E+01    3.28194E-01
 1.30000E+01    3.12193E-01
 1.35000E+01    2.97518E-01
 1.40000E+01    2.83755E-01
 1.45000E+01    2.71042E-01
 1.50000E+01    2.59118E-01
 1.55000E+01    2.47738E-01
 1.60000E+01    2.37395E-01
 1.65000E+01    2.27870E-01
 1.70000E+01    2.18487E-01
 1.75000E+01    2.09612E-01
 1.80000E+01    2.01400E-01
 1.85000E+01    1.93781E-01
 1.90000E+01    1.86635E-01
 1.95000E+01    1.79334E-01
 2.00000E+01    1.72814E-01
