# n + Dy156 : (n,n'21)  
# jendl4.0   N.Iwamoto,S.Chiba                 EVAL-Nov09
# uncertainties: n
# # energies =    51
#   E(MeV)       xs(mb) 
 1.53615E+00    0.00000E+00
 1.60000E+00    9.17581E-01
 1.61974E+00    1.23817E+00
 1.63515E+00    1.50161E+00
 1.63795E+00    1.55050E+00
 1.68800E+00    2.42739E+00
 1.69077E+00    2.46507E+00
 1.70000E+00    2.62871E+00
 1.73618E+00    3.34588E+00
 1.73997E+00    3.42063E+00
 1.80000E+00    4.70776E+00
 1.90000E+00    7.00655E+00
 2.00000E+00    9.19704E+00
 2.25000E+00    1.28618E+01
 2.50000E+00    1.47295E+01
 2.75000E+00    1.36525E+01
 3.00000E+00    1.25434E+01
 3.50000E+00    8.10478E+00
 4.00000E+00    4.76306E+00
 4.50000E+00    2.74257E+00
 5.00000E+00    1.63623E+00
 5.50000E+00    1.05867E+00
 6.00000E+00    7.61211E-01
 6.50000E+00    6.05025E-01
 7.00000E+00    5.18114E-01
 7.50000E+00    4.64719E-01
 8.00000E+00    4.27392E-01
 8.50000E+00    3.98074E-01
 9.00000E+00    3.73194E-01
 9.50000E+00    3.51153E-01
 1.00000E+01    3.31196E-01
 1.05000E+01    3.13069E-01
 1.10000E+01    2.96093E-01
 1.15000E+01    2.80655E-01
 1.20000E+01    2.66138E-01
 1.25000E+01    2.52897E-01
 1.30000E+01    2.40489E-01
 1.35000E+01    2.29109E-01
 1.40000E+01    2.18454E-01
 1.45000E+01    2.08617E-01
 1.50000E+01    1.99405E-01
 1.55000E+01    1.90637E-01
 1.60000E+01    1.82615E-01
 1.65000E+01    1.75298E-01
 1.70000E+01    1.68017E-01
 1.75000E+01    1.61209E-01
 1.80000E+01    1.54848E-01
 1.85000E+01    1.48935E-01
 1.90000E+01    1.43486E-01
 1.95000E+01    1.37825E-01
 2.00000E+01    1.32763E-01
