# n + Dy156 : (n,2na)   
# jendl4.0   N.Iwamoto,S.Chiba                 EVAL-Nov09
# uncertainties: n
# # energies =    23
#   E(MeV)       xs(mb) 
 9.00000E+00    0.00000E+00
 9.50000E+00    2.73310E-28
 1.00000E+01    2.37880E-23
 1.05000E+01    1.53610E-15
 1.10000E+01    1.79690E-13
 1.15000E+01    1.18480E-11
 1.20000E+01    4.05650E-10
 1.25000E+01    7.65960E-09
 1.30000E+01    9.73390E-08
 1.35000E+01    9.92380E-07
 1.40000E+01    7.99959E-06
 1.45000E+01    4.96187E-05
 1.50000E+01    2.40866E-04
 1.55000E+01    9.45763E-04
 1.60000E+01    3.12889E-03
 1.65000E+01    8.71365E-03
 1.70000E+01    2.19005E-02
 1.75000E+01    4.50490E-02
 1.80000E+01    8.45200E-02
 1.85000E+01    1.47585E-01
 1.90000E+01    2.39823E-01
 1.95000E+01    3.87083E-01
 2.00000E+01    5.84376E-01
