# n + Dy156 : (n,n'27)  
# jendl4.0   N.Iwamoto,S.Chiba                 EVAL-Nov09
# uncertainties: n
# # energies =    42
#   E(MeV)       xs(mb) 
 1.73997E+00    0.00000E+00
 1.80000E+00    7.90840E-09
 1.90000E+00    3.33010E-07
 2.00000E+00    2.25166E-06
 2.25000E+00    5.30690E-05
 2.50000E+00    2.94631E-04
 2.75000E+00    8.90300E-04
 3.00000E+00    3.75960E-01
 3.50000E+00    4.20645E-01
 4.00000E+00    4.40969E-01
 4.50000E+00    4.52660E-01
 5.00000E+00    4.63810E-01
 5.50000E+00    4.76576E-01
 6.00000E+00    4.87962E-01
 6.50000E+00    4.92021E-01
 7.00000E+00    4.84069E-01
 7.50000E+00    4.64229E-01
 8.00000E+00    4.37043E-01
 8.50000E+00    4.08092E-01
 9.00000E+00    3.81277E-01
 9.50000E+00    3.58135E-01
 1.00000E+01    3.38564E-01
 1.05000E+01    3.22300E-01
 1.10000E+01    3.06765E-01
 1.15000E+01    2.93012E-01
 1.20000E+01    2.79886E-01
 1.25000E+01    2.67289E-01
 1.30000E+01    2.55256E-01
 1.35000E+01    2.43472E-01
 1.40000E+01    2.32183E-01
 1.45000E+01    2.21283E-01
 1.50000E+01    2.10814E-01
 1.55000E+01    2.00965E-01
 1.60000E+01    1.91660E-01
 1.65000E+01    1.83417E-01
 1.70000E+01    1.75233E-01
 1.75000E+01    1.67776E-01
 1.80000E+01    1.60694E-01
 1.85000E+01    1.54147E-01
 1.90000E+01    1.47880E-01
 1.95000E+01    1.41701E-01
 2.00000E+01    1.35946E-01
