# n + Dy156 : (n,n'28)  
# jendl4.0   N.Iwamoto,S.Chiba                 EVAL-Nov09
# uncertainties: n
# # energies =    42
#   E(MeV)       xs(mb) 
 1.73997E+00    0.00000E+00
 1.80000E+00    2.67997E-02
 1.90000E+00    1.09536E-01
 2.00000E+00    2.43656E-01
 2.25000E+00    7.26467E-01
 2.50000E+00    1.27713E+00
 2.75000E+00    1.57781E+00
 3.00000E+00    1.73360E+00
 3.50000E+00    1.46569E+00
 4.00000E+00    1.03576E+00
 4.50000E+00    6.58526E-01
 5.00000E+00    3.90173E-01
 5.50000E+00    2.22040E-01
 6.00000E+00    1.26079E-01
 6.50000E+00    7.48063E-02
 7.00000E+00    4.85072E-02
 7.50000E+00    3.52363E-02
 8.00000E+00    2.83364E-02
 8.50000E+00    2.44584E-02
 9.00000E+00    2.20219E-02
 9.50000E+00    2.02976E-02
 1.00000E+01    1.89485E-02
 1.05000E+01    1.78239E-02
 1.10000E+01    1.68212E-02
 1.15000E+01    1.59310E-02
 1.20000E+01    1.51058E-02
 1.25000E+01    1.43585E-02
 1.30000E+01    1.36590E-02
 1.35000E+01    1.30194E-02
 1.40000E+01    1.24192E-02
 1.45000E+01    1.18663E-02
 1.50000E+01    1.13470E-02
 1.55000E+01    1.08532E-02
 1.60000E+01    1.04011E-02
 1.65000E+01    9.98741E-03
 1.70000E+01    9.57771E-03
 1.75000E+01    9.19109E-03
 1.80000E+01    8.83293E-03
 1.85000E+01    8.50014E-03
 1.90000E+01    8.18863E-03
 1.95000E+01    7.87003E-03
 2.00000E+01    7.58473E-03
