# n + Dy156 : (n,n'26)  
# jendl4.0   N.Iwamoto,S.Chiba                 EVAL-Nov09
# uncertainties: n
# # energies =    45
#   E(MeV)       xs(mb) 
 1.69077E+00    0.00000E+00
 1.70000E+00    8.65458E+00
 1.73618E+00    1.62968E+01
 1.73997E+00    1.68129E+01
 1.80000E+00    2.22148E+01
 1.90000E+00    2.62779E+01
 2.00000E+00    2.72676E+01
 2.25000E+00    2.44785E+01
 2.50000E+00    2.03873E+01
 2.75000E+00    1.51459E+01
 3.00000E+00    1.13146E+01
 3.50000E+00    5.43927E+00
 4.00000E+00    2.59819E+00
 4.50000E+00    1.33609E+00
 5.00000E+00    7.86462E-01
 5.50000E+00    5.42281E-01
 6.00000E+00    4.27577E-01
 6.50000E+00    3.67789E-01
 7.00000E+00    3.31729E-01
 7.50000E+00    3.06372E-01
 8.00000E+00    2.86158E-01
 8.50000E+00    2.68720E-01
 9.00000E+00    2.53066E-01
 9.50000E+00    2.38759E-01
 1.00000E+01    2.25583E-01
 1.05000E+01    2.13507E-01
 1.10000E+01    2.02128E-01
 1.15000E+01    1.91744E-01
 1.20000E+01    1.81961E-01
 1.25000E+01    1.73026E-01
 1.30000E+01    1.64626E-01
 1.35000E+01    1.56924E-01
 1.40000E+01    1.49689E-01
 1.45000E+01    1.43016E-01
 1.50000E+01    1.36751E-01
 1.55000E+01    1.30790E-01
 1.60000E+01    1.25322E-01
 1.65000E+01    1.20335E-01
 1.70000E+01    1.15385E-01
 1.75000E+01    1.10712E-01
 1.80000E+01    1.06412E-01
 1.85000E+01    1.02357E-01
 1.90000E+01    9.86218E-02
 1.95000E+01    9.47809E-02
 2.00000E+01    9.13139E-02
