# n + Cd108 : (n,xa)    
# jendl.ad   kunieda                           EVAL-Mar14
# 
# # energies =    73
#   E(MeV)        xs(mb) 
 1.50000E-01    0.00000E+00
 2.00000E-01    0.00000E+00
 3.00000E-01    0.00000E+00
 4.00000E-01    0.00000E+00
 5.00000E-01    1.67080E-09
 6.00000E-01    1.50470E-08
 6.38903E-01    2.41530E-08
 7.00000E-01    2.18520E-08
 8.00000E-01    3.75020E-08
 9.00000E-01    7.82000E-08
 1.00000E+00    1.60770E-07
 1.20000E+00    6.17180E-07
 1.40000E+00    2.08255E-06
 1.52256E+00    4.11590E-06
 1.60000E+00    5.50632E-06
 1.61681E+00    5.85464E-06
 1.73673E+00    8.35549E-06
 1.80000E+00    1.07571E-05
 1.93132E+00    1.82594E-05
 2.00000E+00    2.49230E-05
 2.16591E+00    5.28379E-05
 2.18294E+00    5.54699E-05
 2.20000E+00    5.74883E-05
 2.22281E+00    6.01191E-05
 2.26028E+00    6.42234E-05
 2.38788E+00    9.92067E-05
 2.39676E+00    1.01198E-04
 2.40000E+00    1.01896E-04
 2.50954E+00    1.78201E-04
 2.56514E+00    2.21048E-04
 2.57912E+00    2.29361E-04
 2.58920E+00    2.35150E-04
 2.62597E+00    2.57089E-04
 2.64446E+00    2.69335E-04
 2.67035E+00    3.07152E-04
 2.70000E+00    3.27443E-04
 2.70302E+00    3.41231E-04
 2.70769E+00    3.44581E-04
 3.00000E+00    9.77696E-04
 3.50000E+00    4.39049E-03
 4.00000E+00    1.58272E-02
 4.50000E+00    4.88519E-02
 5.00000E+00    1.28566E-01
 5.50000E+00    2.46470E-01
 6.00000E+00    4.81908E-01
 6.50000E+00    7.31987E-01
 7.00000E+00    1.10115E+00
 7.50000E+00    1.51146E+00
 8.00000E+00    1.90934E+00
 8.50000E+00    2.26297E+00
 9.00000E+00    2.55885E+00
 9.50000E+00    2.85141E+00
 1.00000E+01    3.23616E+00
 1.05000E+01    3.60414E+00
 1.10000E+01    4.07557E+00
 1.15000E+01    4.62305E+00
 1.20000E+01    5.30214E+00
 1.25000E+01    6.07112E+00
 1.30000E+01    6.94092E+00
 1.35000E+01    7.95868E+00
 1.40000E+01    9.07013E+00
 1.45000E+01    1.03132E+01
 1.50000E+01    1.16218E+01
 1.55000E+01    1.30615E+01
 1.60000E+01    1.46618E+01
 1.65000E+01    1.62129E+01
 1.70000E+01    1.80145E+01
 1.75000E+01    1.99607E+01
 1.80000E+01    2.15844E+01
 1.85000E+01    2.36056E+01
 1.90000E+01    2.51707E+01
 1.95000E+01    2.66867E+01
 2.00000E+01    2.86077E+01
