# n + Cd108 : (n,xp)    
# jendl.ad   kunieda                           EVAL-Mar14
# 
# # energies =    73
#   E(MeV)        xs(mb) 
 1.50000E-01    0.00000E+00
 2.00000E-01    0.00000E+00
 3.00000E-01    0.00000E+00
 4.00000E-01    0.00000E+00
 5.00000E-01    0.00000E+00
 6.00000E-01    0.00000E+00
 6.38903E-01    0.00000E+00
 7.00000E-01    0.00000E+00
 8.00000E-01    0.00000E+00
 9.00000E-01    9.19519E-11
 1.00000E+00    4.79931E-10
 1.20000E+00    1.26483E-09
 1.40000E+00    2.04969E-09
 1.52256E+00    2.53064E-09
 1.60000E+00    2.83453E-09
 1.61681E+00    2.90050E-09
 1.73673E+00    3.37109E-09
 1.80000E+00    3.61937E-09
 1.93132E+00    4.13470E-09
 2.00000E+00    1.71200E-08
 2.16591E+00    2.78720E-07
 2.18294E+00    3.60810E-07
 2.20000E+00    4.53930E-07
 2.22281E+00    6.22180E-07
 2.26028E+00    1.00565E-06
 2.38788E+00    4.64915E-06
 2.39676E+00    5.10756E-06
 2.40000E+00    5.27293E-06
 2.50954E+00    1.67315E-05
 2.56514E+00    2.85616E-05
 2.57912E+00    3.31523E-05
 2.58920E+00    3.62101E-05
 2.62597E+00    5.02549E-05
 2.64446E+00    5.91291E-05
 2.67035E+00    7.54374E-05
 2.70000E+00    9.59924E-05
 2.70302E+00    9.83770E-05
 2.70769E+00    1.01993E-04
 3.00000E+00    7.87120E-04
 3.50000E+00    1.06591E-02
 4.00000E+00    7.10535E-02
 4.50000E+00    2.91290E-01
 5.00000E+00    8.44409E-01
 5.50000E+00    1.86637E+00
 6.00000E+00    3.17301E+00
 6.50000E+00    5.42451E+00
 7.00000E+00    7.53684E+00
 7.50000E+00    9.80048E+00
 8.00000E+00    1.20215E+01
 8.50000E+00    1.40807E+01
 9.00000E+00    1.60050E+01
 9.50000E+00    1.76285E+01
 1.00000E+01    1.98339E+01
 1.05000E+01    2.22153E+01
 1.10000E+01    2.52518E+01
 1.15000E+01    2.87443E+01
 1.20000E+01    3.28524E+01
 1.25000E+01    3.75734E+01
 1.30000E+01    4.27958E+01
 1.35000E+01    4.91023E+01
 1.40000E+01    5.54981E+01
 1.45000E+01    6.27207E+01
 1.50000E+01    7.01140E+01
 1.55000E+01    7.82120E+01
 1.60000E+01    8.66058E+01
 1.65000E+01    9.51915E+01
 1.70000E+01    1.03882E+02
 1.75000E+01    1.12558E+02
 1.80000E+01    1.20208E+02
 1.85000E+01    1.28810E+02
 1.90000E+01    1.37221E+02
 1.95000E+01    1.45557E+02
 2.00000E+01    1.53478E+02
