# n + Cd108 : (n,n')    
# jendl.ad   kunieda                           EVAL-Mar14
# uncertainties: n
# # energies =    73
#   E(MeV)       xs(mb) 
 1.50000E-01    0.00000E+00
 2.00000E-01    8.02374E-04
 3.00000E-01    6.09619E-03
 4.00000E-01    2.24576E-02
 5.00000E-01    5.96424E-02
 6.00000E-01    1.30805E-01
 6.38903E-01    2.19015E-01
 7.00000E-01    4.52603E+02
 8.00000E-01    7.22645E+02
 9.00000E-01    8.27176E+02
 1.00000E+00    8.81378E+02
 1.20000E+00    9.43587E+02
 1.40000E+00    9.85104E+02
 1.52256E+00    1.00535E+03
 1.60000E+00    1.06089E+03
 1.61681E+00    1.06988E+03
 1.73673E+00    1.22338E+03
 1.80000E+00    1.28624E+03
 1.93132E+00    1.35073E+03
 2.00000E+00    1.38281E+03
 2.16591E+00    1.41962E+03
 2.18294E+00    1.42741E+03
 2.20000E+00    1.44150E+03
 2.22281E+00    1.45652E+03
 2.26028E+00    1.48837E+03
 2.38788E+00    1.55748E+03
 2.39676E+00    1.56233E+03
 2.40000E+00    1.56447E+03
 2.50954E+00    1.60441E+03
 2.56514E+00    1.62144E+03
 2.57912E+00    1.62469E+03
 2.58920E+00    1.62827E+03
 2.62597E+00    1.63867E+03
 2.64446E+00    1.64328E+03
 2.67035E+00    1.65129E+03
 2.70000E+00    1.65912E+03
 2.70302E+00    1.65983E+03
 2.70769E+00    1.66136E+03
 3.00000E+00    1.73553E+03
 3.50000E+00    1.80751E+03
 4.00000E+00    1.86328E+03
 4.50000E+00    1.92146E+03
 5.00000E+00    1.97544E+03
 5.50000E+00    2.01733E+03
 6.00000E+00    2.03362E+03
 6.50000E+00    2.03109E+03
 7.00000E+00    2.01610E+03
 7.50000E+00    1.99444E+03
 8.00000E+00    1.97098E+03
 8.50000E+00    1.94925E+03
 9.00000E+00    1.93116E+03
 9.50000E+00    1.91760E+03
 1.00000E+01    1.90760E+03
 1.05000E+01    1.90073E+03
 1.10000E+01    1.72511E+03
 1.15000E+01    1.46651E+03
 1.20000E+01    1.18537E+03
 1.25000E+01    9.46550E+02
 1.30000E+01    7.75039E+02
 1.35000E+01    6.32784E+02
 1.40000E+01    5.31111E+02
 1.45000E+01    4.66264E+02
 1.50000E+01    3.97528E+02
 1.55000E+01    3.57881E+02
 1.60000E+01    3.27677E+02
 1.65000E+01    3.02518E+02
 1.70000E+01    2.81255E+02
 1.75000E+01    2.67012E+02
 1.80000E+01    2.49543E+02
 1.85000E+01    2.34732E+02
 1.90000E+01    2.21381E+02
 1.95000E+01    2.12041E+02
 2.00000E+01    2.04486E+02
