# n + Xe136 : (n,tot)   
# jeff3.3    Q.B.Shen+, Mughabghab             EVAL-JAN05
# uncertainties: n
# # energies =   171
#   E(MeV)       xs(mb) 
 1.00000E-11    1.60520E+04
 1.00000E-07    8.31297E+03
 4.13990E-07    8.27658E+03
 5.31580E-07    8.26881E+03
 6.82560E-07    8.26206E+03
 8.76420E-07    8.25569E+03
 1.12540E-06    8.25213E+03
 1.44500E-06    8.24832E+03
 1.85540E-06    8.24348E+03
 2.37240E-06    8.23721E+03
 3.05900E-06    8.23003E+03
 3.92790E-06    8.22664E+03
 5.04350E-06    8.22327E+03
 6.47600E-06    8.21894E+03
 8.31530E-06    8.21338E+03
 1.06770E-05    8.20625E+03
 1.37100E-05    8.19708E+03
 1.76030E-05    8.18532E+03
 2.26030E-05    8.16999E+03
 2.92030E-05    8.15054E+03
 3.72670E-05    8.12632E+03
 4.78510E-05    8.10159E+03
 6.14420E-05    8.07221E+03
 7.88930E-05    8.03449E+03
 1.01300E-04    7.98605E+03
 1.30070E-04    7.92411E+03
 1.67020E-04    7.85798E+03
 2.14450E-04    7.78113E+03
 2.75360E-04    7.68709E+03
 3.53580E-04    7.59066E+03
 4.54000E-04    7.47978E+03
 5.82950E-04    7.36681E+03
 7.48520E-04    7.25198E+03
 9.61120E-04    7.13555E+03
 1.23410E-03    7.02455E+03
 1.58460E-03    6.92103E+03
 2.03470E-03    7.12103E+03
 2.24870E-03    6.81985E+03
 2.48520E-03    6.79202E+03
 2.61260E-03    6.77220E+03
 2.74650E-03    6.74903E+03
 3.03540E-03    6.72081E+03
 3.35460E-03    6.68962E+03
 3.70740E-03    6.65267E+03
 4.30740E-03    6.60393E+03
 5.53080E-03    6.54690E+03
 7.10170E-03    6.49576E+03
 9.11880E-03    6.45358E+03
 1.17090E-02    6.40938E+03
 1.50340E-02    7.58564E+03
 1.93050E-02    6.34786E+03
 2.18750E-02    6.32652E+03
 2.35790E-02    6.31738E+03
 2.41760E-02    6.31262E+03
 2.47880E-02    6.30523E+03
 2.60580E-02    6.29650E+03
 2.70000E-02    6.28691E+03
 2.85000E-02    6.26875E+03
 3.18280E-02    6.25013E+03
 3.43070E-02    6.69869E+03
 4.08680E-02    9.25002E+03
 4.63090E-02    1.15630E+04
 5.24750E-02    6.30573E+03
 5.65620E-02    6.34383E+03
 6.73790E-02    7.01331E+03
 7.20000E-02    6.73123E+03
 7.95000E-02    6.19818E+03
 8.25000E-02    6.09760E+03
 8.65170E-02    6.04687E+03
 9.80370E-02    5.98078E+03
 1.11090E-01    5.93440E+03
 1.16790E-01    5.90589E+03
 1.22770E-01    5.87565E+03
 1.29070E-01    6.45718E+03
 1.35690E-01    5.98062E+03
 1.42640E-01    5.81815E+03
 1.49960E-01    5.75826E+03
 1.57640E-01    6.27801E+03
 1.65730E-01    6.78052E+03
 1.74220E-01    5.72154E+03
 1.83160E-01    6.15211E+03
 1.92550E-01    5.64692E+03
 2.02420E-01    5.53817E+03
 2.12800E-01    6.63505E+03
 2.23710E-01    6.36924E+03
 2.35180E-01    1.18888E+04
 2.47240E-01    6.66650E+03
 2.73240E-01    5.85348E+03
 2.87250E-01    5.63183E+03
 2.94520E-01    8.97282E+03
 2.97200E-01    8.16975E+03
 2.98500E-01    6.33725E+03
 3.01970E-01    5.82455E+03
 3.33730E-01    6.36032E+03
 3.68830E-01    5.76611E+03
 3.87740E-01    5.87666E+03
 4.07620E-01    5.91020E+03
 4.50490E-01    6.54458E+03
 4.97870E-01    6.09687E+03
 5.23400E-01    6.22998E+03
 5.50230E-01    6.37025E+03
 5.78440E-01    6.51342E+03
 6.08100E-01    6.57895E+03
 6.39280E-01    6.61460E+03
 6.72060E-01    6.65208E+03
 7.06510E-01    6.69085E+03
 7.42740E-01    6.72369E+03
 7.80820E-01    6.75578E+03
 8.20850E-01    6.78136E+03
 8.62940E-01    6.80242E+03
 9.07180E-01    6.82646E+03
 9.61640E-01    6.84975E+03
 1.00260E+00    6.85267E+03
 1.10800E+00    6.84376E+03
 1.16480E+00    6.83741E+03
 1.22460E+00    6.82939E+03
 1.28730E+00    6.80036E+03
 1.35340E+00    6.76284E+03
 1.42270E+00    6.71643E+03
 1.49570E+00    6.65732E+03
 1.57240E+00    6.59262E+03
 1.65300E+00    6.51360E+03
 1.73770E+00    6.42924E+03
 1.82680E+00    6.33755E+03
 1.92050E+00    6.23759E+03
 2.01900E+00    6.13253E+03
 2.12250E+00    6.02211E+03
 2.23130E+00    5.92593E+03
 2.30690E+00    5.86626E+03
 2.34570E+00    5.83583E+03
 2.36530E+00    5.81529E+03
 2.38520E+00    5.76610E+03
 2.46600E+00    5.67197E+03
 2.59240E+00    5.55575E+03
 2.72530E+00    5.44789E+03
 2.86500E+00    5.34000E+03
 3.01190E+00    5.24380E+03
 3.16640E+00    5.14726E+03
 3.32870E+00    5.01985E+03
 3.67880E+00    4.87214E+03
 4.06570E+00    4.74415E+03
 4.49330E+00    4.66049E+03
 4.72370E+00    4.61642E+03
 4.96590E+00    4.57563E+03
 5.22050E+00    4.54701E+03
 5.48810E+00    4.52472E+03
 5.76950E+00    4.51518E+03
 6.06530E+00    4.51164E+03
 6.37630E+00    4.52106E+03
 6.59240E+00    4.52809E+03
 6.70320E+00    4.54550E+03
 7.04690E+00    4.57546E+03
 7.40820E+00    4.61704E+03
 7.78800E+00    4.66201E+03
 8.18730E+00    4.70899E+03
 8.60710E+00    4.75696E+03
 9.04840E+00    4.80719E+03
 9.51230E+00    4.85285E+03
 1.00000E+01    4.88891E+03
 1.05130E+01    4.91427E+03
 1.10520E+01    4.92743E+03
 1.16180E+01    4.92933E+03
 1.22140E+01    4.91978E+03
 1.28400E+01    4.90015E+03
 1.34990E+01    4.88007E+03
 1.38400E+01    4.86444E+03
 1.41910E+01    4.84733E+03
 1.45500E+01    4.82906E+03
 1.49180E+01    4.79950E+03
 1.56830E+01    4.75684E+03
 1.64870E+01    4.70959E+03
