# n + Te120 : (n,tot)   
# endfb8.0   JNDC FP Nuclear Data W.G.         EVAL-MAR90
# uncertainties: n
# # energies =   171
#   E(MeV)       xs(mb) 
 1.00000E-11    3.14692E+04
 1.00000E-07    4.50038E+03
 4.13990E-07    4.18908E+03
 5.31580E-07    4.12867E+03
 6.82560E-07    4.07556E+03
 8.76420E-07    4.02328E+03
 1.12540E-06    3.97391E+03
 1.44500E-06    3.94427E+03
 1.85540E-06    3.91735E+03
 2.37240E-06    3.89322E+03
 3.05900E-06    3.86507E+03
 3.92790E-06    3.84123E+03
 5.04350E-06    3.81382E+03
 6.47600E-06    3.78981E+03
 8.31530E-06    3.76516E+03
 1.06770E-05    3.75415E+03
 1.37100E-05    3.74554E+03
 1.76030E-05    3.73449E+03
 2.26030E-05    3.72382E+03
 2.92030E-05    3.71605E+03
 3.72670E-05    3.70625E+03
 4.78510E-05    3.69437E+03
 6.14420E-05    3.17028E+04
 7.88930E-05    4.63700E+04
 1.01300E-04    4.13597E+04
 1.30070E-04    3.69341E+04
 1.67020E-04    3.30364E+04
 2.14450E-04    2.95906E+04
 2.75360E-04    2.65523E+04
 3.53580E-04    2.38781E+04
 4.54000E-04    2.15154E+04
 5.82950E-04    1.94343E+04
 7.48520E-04    1.76012E+04
 9.61120E-04    1.59853E+04
 1.23410E-03    1.45619E+04
 1.58460E-03    1.33118E+04
 2.03470E-03    1.25214E+04
 2.24870E-03    1.21034E+04
 2.48520E-03    1.18033E+04
 2.61260E-03    1.16102E+04
 2.74650E-03    1.13305E+04
 3.03540E-03    1.09756E+04
 3.35460E-03    1.06367E+04
 3.70740E-03    1.02380E+04
 4.30740E-03    9.65445E+03
 5.53080E-03    9.00656E+03
 7.10170E-03    8.44003E+03
 9.11880E-03    7.94890E+03
 1.17090E-02    7.52289E+03
 1.50340E-02    7.15413E+03
 1.93050E-02    6.91071E+03
 2.18750E-02    6.79321E+03
 2.35790E-02    6.73815E+03
 2.41760E-02    6.70986E+03
 2.47880E-02    6.66910E+03
 2.60580E-02    6.62494E+03
 2.70000E-02    6.57842E+03
 2.85000E-02    6.49832E+03
 3.18280E-02    6.41203E+03
 3.43070E-02    6.30453E+03
 4.08680E-02    6.18561E+03
 4.63090E-02    6.09534E+03
 5.24750E-02    6.02807E+03
 5.65620E-02    5.94985E+03
 6.73790E-02    5.87889E+03
 7.20000E-02    5.83328E+03
 7.95000E-02    5.79699E+03
 8.25000E-02    5.77521E+03
 8.65170E-02    5.73260E+03
 9.80370E-02    5.70087E+03
 1.11090E-01    5.68759E+03
 1.16790E-01    5.67796E+03
 1.22770E-01    5.66784E+03
 1.29070E-01    5.65719E+03
 1.35690E-01    5.64601E+03
 1.42640E-01    5.63425E+03
 1.49960E-01    5.62872E+03
 1.57640E-01    5.63002E+03
 1.65730E-01    5.63139E+03
 1.74220E-01    5.63283E+03
 1.83160E-01    5.63434E+03
 1.92550E-01    5.63593E+03
 2.02420E-01    5.63915E+03
 2.12800E-01    5.64902E+03
 2.23710E-01    5.66012E+03
 2.35180E-01    5.67178E+03
 2.47240E-01    5.69112E+03
 2.73240E-01    5.71734E+03
 2.87250E-01    5.73257E+03
 2.94520E-01    5.73969E+03
 2.97200E-01    5.74253E+03
 2.98500E-01    5.74592E+03
 3.01970E-01    5.77373E+03
 3.33730E-01    5.83179E+03
 3.68830E-01    5.87929E+03
 3.87740E-01    5.91314E+03
 4.07620E-01    5.96234E+03
 4.50490E-01    6.02715E+03
 4.97870E-01    6.07989E+03
 5.23400E-01    6.11746E+03
 5.50230E-01    6.15695E+03
 5.78440E-01    6.19847E+03
 6.08100E-01    6.24212E+03
 6.39280E-01    6.28801E+03
 6.72060E-01    6.33349E+03
 7.06510E-01    6.37304E+03
 7.42740E-01    6.41406E+03
 7.80820E-01    6.45719E+03
 8.20850E-01    6.49643E+03
 8.62940E-01    6.53029E+03
 9.07180E-01    6.56810E+03
 9.61640E-01    6.59565E+03
 1.00260E+00    6.62858E+03
 1.10800E+00    6.65349E+03
 1.16480E+00    6.66550E+03
 1.22460E+00    6.66499E+03
 1.28730E+00    6.64938E+03
 1.35340E+00    6.63127E+03
 1.42270E+00    6.61225E+03
 1.49570E+00    6.58377E+03
 1.57240E+00    6.53622E+03
 1.65300E+00    6.48572E+03
 1.73770E+00    6.43202E+03
 1.82680E+00    6.36227E+03
 1.92050E+00    6.28348E+03
 2.01900E+00    6.20068E+03
 2.12250E+00    6.11248E+03
 2.23130E+00    6.02714E+03
 2.30690E+00    5.97263E+03
 2.34570E+00    5.94485E+03
 2.36530E+00    5.92608E+03
 2.38520E+00    5.87844E+03
 2.46600E+00    5.78228E+03
 2.59240E+00    5.67513E+03
 2.72530E+00    5.56521E+03
 2.86500E+00    5.45484E+03
 3.01190E+00    5.33449E+03
 3.16640E+00    5.19786E+03
 3.32870E+00    4.99965E+03
 3.67880E+00    4.74645E+03
 4.06570E+00    4.51568E+03
 4.49330E+00    4.35393E+03
 4.72370E+00    4.24718E+03
 4.96590E+00    4.16356E+03
 5.22050E+00    4.11556E+03
 5.48810E+00    4.06567E+03
 5.76950E+00    4.01597E+03
 6.06530E+00    4.01558E+03
 6.37630E+00    4.03397E+03
 6.59240E+00    4.04537E+03
 6.70320E+00    4.06148E+03
 7.04690E+00    4.11293E+03
 7.40820E+00    4.18345E+03
 7.78800E+00    4.25760E+03
 8.18730E+00    4.33555E+03
 8.60710E+00    4.41749E+03
 9.04840E+00    4.49846E+03
 9.51230E+00    4.57369E+03
 1.00000E+01    4.64080E+03
 1.05130E+01    4.69800E+03
 1.10520E+01    4.75596E+03
 1.16180E+01    4.81397E+03
 1.22140E+01    4.86494E+03
 1.28400E+01    4.91422E+03
 1.34990E+01    4.95143E+03
 1.38400E+01    4.97686E+03
 1.41910E+01    5.00446E+03
 1.45500E+01    5.03252E+03
 1.49180E+01    5.07060E+03
 1.56830E+01    5.10325E+03
 1.64870E+01    5.07769E+03
