# n + Te120 : (n,el)    
# endfb8.0   JNDC FP Nuclear Data W.G.         EVAL-MAR90
# uncertainties: n
# # energies =   171
#   E(MeV)       xs(mb) 
 1.00000E-11    6.07056E+03
 1.00000E-07    3.64229E+03
 4.13990E-07    3.64091E+03
 5.31580E-07    3.64087E+03
 6.82560E-07    3.64084E+03
 8.76420E-07    3.64079E+03
 1.12540E-06    3.64073E+03
 1.44500E-06    3.64065E+03
 1.85540E-06    3.64055E+03
 2.37240E-06    3.64043E+03
 3.05900E-06    3.64026E+03
 3.92790E-06    3.64010E+03
 5.04350E-06    3.64009E+03
 6.47600E-06    3.64008E+03
 8.31530E-06    3.64008E+03
 1.06770E-05    3.64008E+03
 1.37100E-05    3.64007E+03
 1.76030E-05    3.64006E+03
 2.26030E-05    3.64005E+03
 2.92030E-05    3.64004E+03
 3.72670E-05    3.64002E+03
 4.78510E-05    3.64001E+03
 6.14420E-05    2.26013E+04
 7.88930E-05    3.31986E+04
 1.01300E-04    3.05053E+04
 1.30070E-04    2.80448E+04
 1.67020E-04    2.57650E+04
 2.14450E-04    2.36520E+04
 2.75360E-04    2.17053E+04
 3.53580E-04    1.99205E+04
 4.54000E-04    1.82831E+04
 5.82950E-04    1.67891E+04
 7.48520E-04    1.54294E+04
 9.61120E-04    1.41940E+04
 1.23410E-03    1.30750E+04
 1.58460E-03    1.20665E+04
 2.03470E-03    1.14166E+04
 2.24870E-03    1.10684E+04
 2.48520E-03    1.08167E+04
 2.61260E-03    1.06537E+04
 2.74650E-03    1.04165E+04
 3.03540E-03    1.01139E+04
 3.35460E-03    9.82318E+03
 3.70740E-03    9.47864E+03
 4.30740E-03    8.97021E+03
 5.53080E-03    8.40081E+03
 7.10170E-03    7.89990E+03
 9.11880E-03    7.46691E+03
 1.17090E-02    7.09238E+03
 1.50340E-02    6.77063E+03
 1.93050E-02    6.56013E+03
 2.18750E-02    6.45946E+03
 2.35790E-02    6.41253E+03
 2.41760E-02    6.38843E+03
 2.47880E-02    6.35373E+03
 2.60580E-02    6.31618E+03
 2.70000E-02    6.27667E+03
 2.85000E-02    6.20891E+03
 3.18280E-02    6.13604E+03
 3.43070E-02    6.04576E+03
 4.08680E-02    5.94613E+03
 4.63090E-02    5.87061E+03
 5.24750E-02    5.81423E+03
 5.65620E-02    5.74841E+03
 6.73790E-02    5.68826E+03
 7.20000E-02    5.64934E+03
 7.95000E-02    5.61815E+03
 8.25000E-02    5.59908E+03
 8.65170E-02    5.56156E+03
 9.80370E-02    5.53637E+03
 1.11090E-01    5.52629E+03
 1.16790E-01    5.51855E+03
 1.22770E-01    5.51042E+03
 1.29070E-01    5.50186E+03
 1.35690E-01    5.49288E+03
 1.42640E-01    5.48343E+03
 1.49960E-01    5.47954E+03
 1.57640E-01    5.48175E+03
 1.65730E-01    5.48407E+03
 1.74220E-01    5.48651E+03
 1.83160E-01    5.48907E+03
 1.92550E-01    5.49177E+03
 2.02420E-01    5.49603E+03
 2.12800E-01    5.50650E+03
 2.23710E-01    5.51817E+03
 2.35180E-01    5.53044E+03
 2.47240E-01    5.55046E+03
 2.73240E-01    5.57651E+03
 2.87250E-01    5.59177E+03
 2.94520E-01    5.59889E+03
 2.97200E-01    5.60173E+03
 2.98500E-01    5.60514E+03
 3.01970E-01    5.63262E+03
 3.33730E-01    5.68949E+03
 3.68830E-01    5.73601E+03
 3.87740E-01    5.76916E+03
 4.07620E-01    5.81775E+03
 4.50490E-01    5.88235E+03
 4.97870E-01    5.93492E+03
 5.23400E-01    5.97237E+03
 5.50230E-01    6.00489E+03
 5.78440E-01    5.99108E+03
 6.08100E-01    5.96728E+03
 6.39280E-01    5.94226E+03
 6.72060E-01    5.91654E+03
 7.06510E-01    5.91209E+03
 7.42740E-01    5.91912E+03
 7.80820E-01    5.92650E+03
 8.20850E-01    5.93427E+03
 8.62940E-01    5.94243E+03
 9.07180E-01    5.95107E+03
 9.61640E-01    5.95453E+03
 1.00260E+00    5.94499E+03
 1.10800E+00    5.91924E+03
 1.16480E+00    5.87328E+03
 1.22460E+00    5.78789E+03
 1.28730E+00    5.71223E+03
 1.35340E+00    5.63963E+03
 1.42270E+00    5.56300E+03
 1.49570E+00    5.47957E+03
 1.57240E+00    5.39143E+03
 1.65300E+00    5.29887E+03
 1.73770E+00    5.20112E+03
 1.82680E+00    5.08878E+03
 1.92050E+00    4.96409E+03
 2.01900E+00    4.83046E+03
 2.12250E+00    4.68331E+03
 2.23130E+00    4.54181E+03
 2.30690E+00    4.45092E+03
 2.34570E+00    4.40458E+03
 2.36530E+00    4.37329E+03
 2.38520E+00    4.29967E+03
 2.46600E+00    4.15551E+03
 2.59240E+00    3.98881E+03
 2.72530E+00    3.82862E+03
 2.86500E+00    3.67254E+03
 3.01190E+00    3.50622E+03
 3.16640E+00    3.33088E+03
 3.32870E+00    3.08530E+03
 3.67880E+00    2.78540E+03
 4.06570E+00    2.55428E+03
 4.49330E+00    2.40780E+03
 4.72370E+00    2.31295E+03
 4.96590E+00    2.24202E+03
 5.22050E+00    2.21327E+03
 5.48810E+00    2.18371E+03
 5.76950E+00    2.15405E+03
 6.06530E+00    2.16389E+03
 6.37630E+00    2.18830E+03
 6.59240E+00    2.20345E+03
 6.70320E+00    2.22437E+03
 7.04690E+00    2.28238E+03
 7.40820E+00    2.36009E+03
 7.78800E+00    2.44385E+03
 8.18730E+00    2.54501E+03
 8.60710E+00    2.65432E+03
 9.04840E+00    2.76564E+03
 9.51230E+00    2.88134E+03
 1.00000E+01    3.05594E+03
 1.05130E+01    3.23576E+03
 1.10520E+01    3.29770E+03
 1.16180E+01    3.29188E+03
 1.22140E+01    3.29772E+03
 1.28400E+01    3.33173E+03
 1.34990E+01    3.40186E+03
 1.38400E+01    3.44509E+03
 1.41910E+01    3.45662E+03
 1.45500E+01    3.46736E+03
 1.49180E+01    3.47920E+03
 1.56830E+01    3.47618E+03
 1.64870E+01    3.44290E+03
