# n + Ge 74 : (n,xp)    
# jendl4.0   Iwamoto,Herman,Mughabghab+        EVAL-AUG04
# 
# # energies =    74
#   E(MeV)        xs(mb) 
 6.03930E-01    0.00000E+00
 7.00000E-01    0.00000E+00
 8.00000E-01    0.00000E+00
 9.00000E-01    0.00000E+00
 1.00000E+00    0.00000E+00
 1.20000E+00    0.00000E+00
 1.22063E+00    0.00000E+00
 1.40000E+00    0.00000E+00
 1.48377E+00    0.00000E+00
 1.50303E+00    0.00000E+00
 1.60000E+00    0.00000E+00
 1.72026E+00    0.00000E+00
 1.74844E+00    0.00000E+00
 1.80000E+00    0.00000E+00
 1.93910E+00    0.00000E+00
 2.00000E+00    0.00000E+00
 2.19454E+00    0.00000E+00
 2.19485E+00    0.00000E+00
 2.20000E+00    0.00000E+00
 2.22789E+00    0.00000E+00
 2.25820E+00    0.00000E+00
 2.33138E+00    0.00000E+00
 2.40000E+00    0.00000E+00
 2.52398E+00    0.00000E+00
 2.57091E+00    0.00000E+00
 2.60000E+00    0.00000E+00
 2.60436E+00    0.00000E+00
 2.63578E+00    0.00000E+00
 2.70603E+00    0.00000E+00
 2.73046E+00    0.00000E+00
 2.73370E+00    0.00000E+00
 2.74799E+00    0.00000E+00
 2.78955E+00    0.00000E+00
 2.80000E+00    0.00000E+00
 2.86710E+00    0.00000E+00
 2.87460E+00    0.00000E+00
 2.88078E+00    0.00000E+00
 2.90004E+00    0.00000E+00
 2.91626E+00    0.00000E+00
 2.96542E+00    0.00000E+00
 2.97556E+00    0.00000E+00
 2.97606E+00    0.00000E+00
 2.98012E+00    0.00000E+00
 2.98975E+00    0.00000E+00
 3.00000E+00    0.00000E+00
 3.00343E+00    0.00000E+00
 3.01407E+00    0.00000E+00
 3.04600E+00    0.00000E+00
 3.05817E+00    0.00000E+00
 3.07540E+00    0.00000E+00
 3.09020E+00    0.00000E+00
 3.10186E+00    0.00000E+00
 3.12334E+00    0.00000E+00
 3.20000E+00    0.00000E+00
 3.50000E+00    0.00000E+00
 3.70000E+00    0.00000E+00
 4.00000E+00    0.00000E+00
 4.50000E+00    0.00000E+00
 5.00000E+00    5.43560E-10
 6.00000E+00    2.75260E-03
 7.00000E+00    3.10404E-02
 8.00000E+00    2.17708E-01
 9.00000E+00    7.04186E-01
 1.00000E+01    1.75563E+00
 1.10000E+01    2.94954E+00
 1.20000E+01    4.93968E+00
 1.30000E+01    6.97049E+00
 1.40000E+01    1.02137E+01
 1.50000E+01    1.26613E+01
 1.60000E+01    1.58358E+01
 1.70000E+01    1.90959E+01
 1.80000E+01    2.35930E+01
 1.90000E+01    2.78173E+01
 2.00000E+01    3.24758E+01
