# n + Eu151 : (n,n'20)  
# tendl.2019 A.J. Koning and D. Rochman        EVAL-NOV19
# uncertainties: n
# # energies =    80
#   E(MeV)       xs(mb) 
 5.25680E-01    0.00000E+00
 5.38158E-01    4.72973E+00
 5.49981E-01    9.21119E+00
 5.83886E-01    2.20628E+01
 5.90984E-01    2.47532E+01
 6.00000E-01    2.81707E+01
 6.04493E-01    2.84740E+01
 6.10131E-01    2.88546E+01
 6.15506E-01    2.92174E+01
 6.36929E-01    3.06636E+01
 6.58774E-01    3.21382E+01
 7.00000E-01    3.49212E+01
 7.01970E-01    3.49814E+01
 8.00000E-01    3.79788E+01
 9.00000E-01    3.95249E+01
 1.00000E+00    3.99224E+01
 1.20000E+00    3.85035E+01
 1.40000E+00    3.49101E+01
 1.60000E+00    3.00581E+01
 1.80000E+00    2.46736E+01
 2.00000E+00    1.93361E+01
 2.20000E+00    1.45343E+01
 2.40000E+00    1.05631E+01
 2.60000E+00    7.49932E+00
 2.80000E+00    5.24985E+00
 3.00000E+00    3.65197E+00
 3.20000E+00    2.54399E+00
 3.40000E+00    1.77807E+00
 3.60000E+00    1.25383E+00
 3.80000E+00    8.93447E-01
 4.00000E+00    6.45930E-01
 4.20000E+00    4.75746E-01
 4.40000E+00    3.58480E-01
 4.60000E+00    2.77610E-01
 4.80000E+00    2.22040E-01
 5.00000E+00    1.83810E-01
 5.20000E+00    1.57967E-01
 5.40000E+00    1.40563E-01
 5.60000E+00    1.29157E-01
 5.80000E+00    1.21955E-01
 6.00000E+00    1.17528E-01
 6.20000E+00    1.15169E-01
 6.40000E+00    1.14106E-01
 6.60000E+00    1.13867E-01
 6.80000E+00    1.14109E-01
 7.00000E+00    1.14566E-01
 7.20000E+00    1.15077E-01
 7.40000E+00    1.15520E-01
 7.60000E+00    1.15830E-01
 7.80000E+00    1.15977E-01
 8.00000E+00    1.15949E-01
 8.50000E+00    1.15216E-01
 9.00000E+00    1.13828E-01
 9.50000E+00    1.12172E-01
 1.00000E+01    1.10526E-01
 1.05000E+01    1.09046E-01
 1.10000E+01    1.07790E-01
 1.15000E+01    1.06756E-01
 1.20000E+01    1.05909E-01
 1.25000E+01    1.05196E-01
 1.30000E+01    1.04565E-01
 1.35000E+01    1.03970E-01
 1.40000E+01    1.03369E-01
 1.45000E+01    1.02728E-01
 1.50000E+01    1.02023E-01
 1.60000E+01    1.00365E-01
 1.70000E+01    9.83959E-02
 1.80000E+01    9.62898E-02
 1.90000E+01    9.42500E-02
 2.00000E+01    9.23998E-02
 2.10000E+01    9.07743E-02
 2.20000E+01    8.93394E-02
 2.30000E+01    8.80042E-02
 2.40000E+01    8.66405E-02
 2.50000E+01    8.51338E-02
 2.60000E+01    8.34394E-02
 2.70000E+01    8.15944E-02
 2.80000E+01    7.96823E-02
 2.90000E+01    7.77856E-02
 3.00000E+01    7.59576E-02
