# n + Th228 : (n,n'22)  
# tendl.2019 A.J. Koning and D. Rochman        EVAL-NOV19
# uncertainties: n
# # energies =    73
#   E(MeV)       xs(mb) 
 1.12792E+00    0.00000E+00
 1.15857E+00    1.87515E+01
 1.16513E+00    2.27648E+01
 1.17354E+00    2.79100E+01
 1.17970E+00    3.16787E+01
 1.18783E+00    3.66525E+01
 1.19506E+00    4.10758E+01
 1.20000E+00    4.40981E+01
 1.20585E+00    4.51447E+01
 1.23199E+00    4.98216E+01
 1.40000E+00    7.98810E+01
 1.60000E+00    8.17110E+01
 1.80000E+00    7.26691E+01
 2.00000E+00    5.99599E+01
 2.20000E+00    4.70055E+01
 2.40000E+00    3.56405E+01
 2.60000E+00    2.62975E+01
 2.80000E+00    1.89726E+01
 3.00000E+00    1.34267E+01
 3.20000E+00    9.31443E+00
 3.40000E+00    6.36885E+00
 3.60000E+00    4.29715E+00
 3.80000E+00    2.87014E+00
 4.00000E+00    1.90709E+00
 4.20000E+00    1.27117E+00
 4.40000E+00    8.31264E-01
 4.60000E+00    5.43020E-01
 4.80000E+00    3.54158E-01
 5.00000E+00    2.30221E-01
 5.20000E+00    1.48619E-01
 5.40000E+00    9.56735E-02
 5.60000E+00    6.15577E-02
 5.80000E+00    3.96906E-02
 6.00000E+00    2.55143E-02
 6.20000E+00    1.64735E-02
 6.40000E+00    1.06292E-02
 6.60000E+00    6.85730E-03
 6.80000E+00    4.43217E-03
 7.00000E+00    2.88252E-03
 7.20000E+00    1.88319E-03
 7.40000E+00    1.27808E-03
 7.60000E+00    8.92402E-04
 7.80000E+00    6.35420E-04
 8.00000E+00    4.57385E-04
 8.50000E+00    1.93366E-04
 9.00000E+00    8.15737E-05
 9.50000E+00    3.42364E-05
 1.00000E+01    1.44742E-05
 1.05000E+01    6.23310E-06
 1.10000E+01    2.71758E-06
 1.15000E+01    1.20703E-06
 1.20000E+01    5.46660E-07
 1.25000E+01    2.55350E-07
 1.30000E+01    1.20220E-07
 1.35000E+01    5.83160E-08
 1.40000E+01    2.87920E-08
 1.45000E+01    1.45380E-08
 1.50000E+01    7.40260E-09
 1.60000E+01    2.02000E-09
 1.70000E+01    5.70050E-10
 1.80000E+01    1.73470E-10
 1.90000E+01    5.52520E-11
 2.00000E+01    1.83720E-11
 2.10000E+01    6.48460E-12
 2.20000E+01    2.40030E-12
 2.30000E+01    9.32050E-13
 2.40000E+01    3.80190E-13
 2.50000E+01    1.62790E-13
 2.60000E+01    7.34660E-14
 2.70000E+01    3.48550E-14
 2.80000E+01    1.73700E-14
 2.90000E+01    9.08790E-15
 3.00000E+01    4.98230E-15
