# n + Th228 : (n,n'09)  
# tendl.2019 A.J. Koning and D. Rochman        EVAL-NOV19
# uncertainties: n
# # energies =    88
#   E(MeV)       xs(mb) 
 8.35502E-01    0.00000E+00
 8.78341E-01    3.10403E+01
 9.00000E-01    4.67340E+01
 9.15833E-01    5.10261E+01
 9.24873E-01    5.34767E+01
 9.42732E-01    5.83180E+01
 9.48373E-01    5.98472E+01
 9.72653E-01    6.64291E+01
 9.78542E-01    6.80256E+01
 9.83832E-01    6.94596E+01
 1.00000E+00    7.38425E+01
 1.02090E+00    7.39298E+01
 1.02705E+00    7.39555E+01
 1.06462E+00    7.41125E+01
 1.09584E+00    7.42429E+01
 1.12792E+00    7.43770E+01
 1.15857E+00    7.45050E+01
 1.16513E+00    7.45324E+01
 1.17354E+00    7.45676E+01
 1.17970E+00    7.45933E+01
 1.18783E+00    7.46273E+01
 1.19506E+00    7.46575E+01
 1.20000E+00    7.46781E+01
 1.20585E+00    7.42314E+01
 1.23199E+00    7.22355E+01
 1.40000E+00    5.94071E+01
 1.60000E+00    4.54579E+01
 1.80000E+00    3.46126E+01
 2.00000E+00    2.63634E+01
 2.20000E+00    1.98447E+01
 2.40000E+00    1.46840E+01
 2.60000E+00    1.06059E+01
 2.80000E+00    7.46855E+00
 3.00000E+00    5.13601E+00
 3.20000E+00    3.43562E+00
 3.40000E+00    2.27172E+00
 3.60000E+00    1.48248E+00
 3.80000E+00    9.66419E-01
 4.00000E+00    6.24795E-01
 4.20000E+00    4.00135E-01
 4.40000E+00    2.55879E-01
 4.60000E+00    1.63738E-01
 4.80000E+00    1.04883E-01
 5.00000E+00    6.71053E-02
 5.20000E+00    4.27028E-02
 5.40000E+00    2.71267E-02
 5.60000E+00    1.72347E-02
 5.80000E+00    1.09785E-02
 6.00000E+00    6.97595E-03
 6.20000E+00    4.45450E-03
 6.40000E+00    2.84399E-03
 6.60000E+00    1.81764E-03
 6.80000E+00    1.16460E-03
 7.00000E+00    7.51648E-04
 7.20000E+00    4.87913E-04
 7.40000E+00    3.29236E-04
 7.60000E+00    2.28825E-04
 7.80000E+00    1.62299E-04
 8.00000E+00    1.16445E-04
 8.50000E+00    4.89288E-05
 9.00000E+00    2.05356E-05
 9.50000E+00    8.57012E-06
 1.00000E+01    3.59874E-06
 1.05000E+01    1.53781E-06
 1.10000E+01    6.65020E-07
 1.15000E+01    2.93000E-07
 1.20000E+01    1.31690E-07
 1.25000E+01    6.10900E-08
 1.30000E+01    2.85850E-08
 1.35000E+01    1.37910E-08
 1.40000E+01    6.77560E-09
 1.45000E+01    3.40610E-09
 1.50000E+01    1.72730E-09
 1.60000E+01    4.67920E-10
 1.70000E+01    1.31240E-10
 1.80000E+01    3.97310E-11
 1.90000E+01    1.26010E-11
 2.00000E+01    4.17470E-12
 2.10000E+01    1.46890E-12
 2.20000E+01    5.42280E-13
 2.30000E+01    2.10100E-13
 2.40000E+01    8.55320E-14
 2.50000E+01    3.65570E-14
 2.60000E+01    1.64680E-14
 2.70000E+01    7.79890E-15
 2.80000E+01    3.88010E-15
 2.90000E+01    2.02710E-15
 3.00000E+01    1.11000E-15
