# n + Th228 : (n,n'20)  
# tendl.2019 A.J. Koning and D. Rochman        EVAL-NOV19
# uncertainties: n
# # energies =    75
#   E(MeV)       xs(mb) 
 1.06462E+00    0.00000E+00
 1.09584E+00    6.33656E+00
 1.12792E+00    1.28477E+01
 1.15857E+00    1.90686E+01
 1.16513E+00    2.04000E+01
 1.17354E+00    2.21069E+01
 1.17970E+00    2.33572E+01
 1.18783E+00    2.50073E+01
 1.19506E+00    2.64748E+01
 1.20000E+00    2.74774E+01
 1.20585E+00    2.78525E+01
 1.23199E+00    2.95286E+01
 1.40000E+00    4.03016E+01
 1.60000E+00    4.50918E+01
 1.80000E+00    4.39394E+01
 2.00000E+00    3.92474E+01
 2.20000E+00    3.30104E+01
 2.40000E+00    2.66431E+01
 2.60000E+00    2.07706E+01
 2.80000E+00    1.57228E+01
 3.00000E+00    1.16034E+01
 3.20000E+00    8.36255E+00
 3.40000E+00    5.91324E+00
 3.60000E+00    4.11159E+00
 3.80000E+00    2.82224E+00
 4.00000E+00    1.93106E+00
 4.20000E+00    1.31208E+00
 4.40000E+00    8.76487E-01
 4.60000E+00    5.83923E-01
 4.80000E+00    3.87759E-01
 5.00000E+00    2.56272E-01
 5.20000E+00    1.67980E-01
 5.40000E+00    1.09671E-01
 5.60000E+00    7.14972E-02
 5.80000E+00    4.66640E-02
 6.00000E+00    3.03420E-02
 6.20000E+00    1.98044E-02
 6.40000E+00    1.29101E-02
 6.60000E+00    8.41055E-03
 6.80000E+00    5.48824E-03
 7.00000E+00    3.60176E-03
 7.20000E+00    2.37399E-03
 7.40000E+00    1.62480E-03
 7.60000E+00    1.14368E-03
 7.80000E+00    8.20708E-04
 8.00000E+00    5.95108E-04
 8.50000E+00    2.55817E-04
 9.00000E+00    1.09464E-04
 9.50000E+00    4.64982E-05
 1.00000E+01    1.98614E-05
 1.05000E+01    8.63012E-06
 1.10000E+01    3.79312E-06
 1.15000E+01    1.69729E-06
 1.20000E+01    7.74060E-07
 1.25000E+01    3.63960E-07
 1.30000E+01    1.72420E-07
 1.35000E+01    8.41320E-08
 1.40000E+01    4.17680E-08
 1.45000E+01    2.12000E-08
 1.50000E+01    1.08480E-08
 1.60000E+01    2.98670E-09
 1.70000E+01    8.49620E-10
 1.80000E+01    2.60390E-10
 1.90000E+01    8.34770E-11
 2.00000E+01    2.79200E-11
 2.10000E+01    9.90740E-12
 2.20000E+01    3.68510E-12
 2.30000E+01    1.43720E-12
 2.40000E+01    5.88560E-13
 2.50000E+01    2.52910E-13
 2.60000E+01    1.14500E-13
 2.70000E+01    5.44860E-14
 2.80000E+01    2.72290E-14
 2.90000E+01    1.42850E-14
 3.00000E+01    7.85120E-15
