# n + Pt196 : (n,tot)   
# jendl.ad   K.Shibata (JAEA)                  EVAL-Jun15
# uncertainties: n
# # energies =    69
#   E(MeV)       xs(mb) 
 1.00000E-10    5.24999E+03
 5.00000E-09    1.42942E+03
 1.00000E-08    1.08250E+03
 1.50000E-08    9.09522E+02
 2.00000E-08    8.00160E+02
 2.50000E-08    7.22949E+02
 3.00000E-08    6.64486E+02
 3.50000E-08    6.10839E+02
 4.20000E-08    5.58704E+02
 5.00000E-08    5.15409E+02
 5.80000E-08    4.78996E+02
 6.70000E-08    4.41957E+02
 8.00000E-08    3.99912E+02
 1.00000E-07    3.47913E+02
 1.40000E-07    3.00074E+02
 1.80000E-07    2.67972E+02
 2.20000E-07    2.46704E+02
 2.50000E-07    2.32195E+02
 2.80000E-07    2.21783E+02
 3.00000E-07    2.14466E+02
 3.20000E-07    2.06331E+02
 3.50000E-07    1.95130E+02
 4.00000E-07    1.78505E+02
 5.00000E-07    1.59555E+02
 6.25000E-07    1.42655E+02
 7.80000E-07    1.31980E+02
 8.50000E-07    1.26974E+02
 9.10000E-07    1.23425E+02
 9.50000E-07    1.21406E+02
 9.72000E-07    1.19940E+02
 9.96000E-07    1.18470E+02
 1.02000E-06    1.17085E+02
 1.04500E-06    1.15646E+02
 1.07100E-06    1.14188E+02
 1.09700E-06    1.12849E+02
 1.12300E-06    1.11524E+02
 1.15000E-06    1.07452E+02
 1.30000E-06    1.00476E+02
 1.50000E-06    8.90243E+01
 2.10000E-06    7.72926E+01
 2.60000E-06    6.88420E+01
 3.30000E-06    6.15947E+01
 4.00000E-06    4.68325E+01
 9.87700E-06    3.53505E+01
 1.59680E-05    6.46985E+02
 2.77000E-05    1.59203E+01
 4.80520E-05    1.07320E+01
 7.55014E-05    6.92750E+00
 1.48728E-04    2.66628E+03
 3.67262E-04    9.17169E+02
 9.06898E-04    1.43321E+00
 1.42510E-03    6.37823E+02
 2.23945E-03    4.90505E+02
 3.51910E-03    3.55317E+02
 5.53000E-03    2.68866E+02
 9.11800E-03    2.06527E+02
 1.50300E-02    1.70476E+02
 2.47800E-02    1.43996E+02
 4.08500E-02    1.29554E+02
 6.73400E-02    1.18135E+02
 1.11000E-01    1.03017E+02
 1.83000E-01    9.16637E+01
 3.02000E-01    6.78030E+01
 5.00000E-01    4.36680E+01
 8.21000E-01    3.29517E+01
 1.35300E+00    2.52767E+01
 2.23100E+00    1.66378E+01
 3.67900E+00    8.01975E+00
 6.06500E+00    2.50782E+02
