# n + Pt196 : (n,g)     
# jendl.ad   K.Shibata (JAEA)                  EVAL-Jun15
# uncertainties: n
# # energies =    69
#   E(MeV)       xs(mb) 
 1.00000E-10    5.24809E+03
 5.00000E-09    1.42931E+03
 1.00000E-08    1.08247E+03
 1.50000E-08    9.09522E+02
 2.00000E-08    8.00166E+02
 2.50000E-08    7.22926E+02
 3.00000E-08    6.64479E+02
 3.50000E-08    6.10848E+02
 4.20000E-08    5.58686E+02
 5.00000E-08    5.15404E+02
 5.80000E-08    4.78991E+02
 6.70000E-08    4.41960E+02
 8.00000E-08    3.99902E+02
 1.00000E-07    3.47910E+02
 1.40000E-07    3.00079E+02
 1.80000E-07    2.67968E+02
 2.20000E-07    2.46702E+02
 2.50000E-07    2.32198E+02
 2.80000E-07    2.21786E+02
 3.00000E-07    2.14471E+02
 3.20000E-07    2.06334E+02
 3.50000E-07    1.95133E+02
 4.00000E-07    1.78504E+02
 5.00000E-07    1.59526E+02
 6.25000E-07    1.42627E+02
 7.80000E-07    1.31963E+02
 8.50000E-07    1.26917E+02
 9.10000E-07    1.23397E+02
 9.50000E-07    1.21346E+02
 9.72000E-07    1.19892E+02
 9.96000E-07    1.18458E+02
 1.02000E-06    1.17021E+02
 1.04500E-06    1.15575E+02
 1.07100E-06    1.14173E+02
 1.09700E-06    1.12819E+02
 1.12300E-06    1.11460E+02
 1.15000E-06    1.07432E+02
 1.30000E-06    1.00477E+02
 1.50000E-06    8.90241E+01
 2.10000E-06    7.73125E+01
 2.60000E-06    6.88603E+01
 3.30000E-06    6.16019E+01
 4.00000E-06    4.68461E+01
 9.87700E-06    3.53538E+01
 1.59680E-05    6.46979E+02
 2.77000E-05    1.59258E+01
 4.80520E-05    1.07335E+01
 7.55014E-05    6.92873E+00
 1.48728E-04    2.66612E+03
 3.67262E-04    9.17153E+02
 9.06898E-04    1.43249E+00
 1.42510E-03    6.37769E+02
 2.23945E-03    4.90353E+02
 3.51910E-03    3.55231E+02
 5.53000E-03    2.68826E+02
 9.11800E-03    2.06503E+02
 1.50300E-02    1.70435E+02
 2.47800E-02    1.43958E+02
 4.08500E-02    1.29553E+02
 6.73400E-02    1.18144E+02
 1.11000E-01    1.03021E+02
 1.83000E-01    9.16782E+01
 3.02000E-01    6.78092E+01
 5.00000E-01    4.36737E+01
 8.21000E-01    3.29584E+01
 1.35300E+00    2.52818E+01
 2.23100E+00    1.66418E+01
 3.67900E+00    8.02045E+00
 6.06500E+00    1.63902E+00
