# n + Hf  0 : (n,non)
# jendl4.0   K. Shibata (JAEA)                 EVAL-JUL09
# uncertainties: n
# # energies =   111
#   E(MeV)          xs(mb) 
 7.00000E-04    4.27661E+03
 7.00000E-04    4.27661E+03
 8.00000E-04    4.17306E+03
 9.00000E-04    3.83624E+03
 1.00000E-03    3.55696E+03
 2.00000E-03    2.54737E+03
 3.00000E-03    2.10308E+03
 4.00000E-03    1.72996E+03
 5.00000E-03    1.49621E+03
 6.00000E-03    1.33486E+03
 7.00000E-03    1.21580E+03
 8.00000E-03    1.12380E+03
 9.00000E-03    1.05052E+03
 1.00000E-02    9.90185E+02
 2.00000E-02    6.97991E+02
 3.00000E-02    5.88151E+02
 4.00000E-02    5.26623E+02
 5.00000E-02    4.84108E+02
 6.00000E-02    4.54531E+02
 7.00000E-02    4.32240E+02
 8.00000E-02    4.12117E+02
 8.88575E-02    3.93843E+02
 9.00000E-02    3.97078E+02
 1.00000E-01    4.35601E+02
 2.00000E-01    8.77436E+02
 2.91844E-01    1.22252E+03
 3.00000E-01    1.25785E+03
 4.00000E-01    1.58935E+03
 4.10142E-01    1.61229E+03
 5.00000E-01    1.86666E+03
 6.00000E-01    2.10311E+03
 6.00241E-01    2.10356E+03
 7.00000E-01    2.34716E+03
 8.00000E-01    2.48544E+03
 9.00000E-01    2.60308E+03
 1.00000E+00    2.70242E+03
 1.00346E+00    2.70155E+03
 1.15653E+00    2.69767E+03
 1.23366E+00    2.86392E+03
 1.25000E+00    2.92778E+03
 1.25483E+00    2.92196E+03
 1.30053E+00    2.89189E+03
 1.32088E+00    2.89349E+03
 1.34070E+00    2.90492E+03
 1.34900E+00    2.91044E+03
 1.36981E+00    2.92680E+03
 1.38728E+00    2.94814E+03
 1.39816E+00    2.96448E+03
 1.41261E+00    2.98686E+03
 1.42103E+00    3.00191E+03
 1.45409E+00    3.08423E+03
 1.48956E+00    3.19513E+03
 1.50000E+00    3.23645E+03
 1.51444E+00    3.22730E+03
 1.51722E+00    3.22561E+03
 1.54139E+00    3.21332E+03
 1.54913E+00    3.20990E+03
 1.56824E+00    3.20257E+03
 1.58660E+00    3.19874E+03
 1.60062E+00    3.19639E+03
 1.61621E+00    3.19412E+03
 1.63789E+00    3.19273E+03
 1.65285E+00    3.19342E+03
 1.66254E+00    3.19528E+03
 1.68193E+00    3.20325E+03
 1.68556E+00    3.20514E+03
 1.70966E+00    3.21787E+03
 1.71437E+00    3.22129E+03
 1.72024E+00    3.22598E+03
 1.73192E+00    3.23544E+03
 1.73770E+00    3.24019E+03
 1.74238E+00    3.24405E+03
 1.75903E+00    3.25781E+03
 1.77156E+00    3.26824E+03
 1.77702E+00    3.27278E+03
 1.78708E+00    3.28120E+03
 2.00000E+00    3.47446E+03
 2.50000E+00    3.39178E+03
 3.00000E+00    3.30046E+03
 3.50000E+00    3.20904E+03
 4.00000E+00    3.14526E+03
 4.49685E+00    3.10428E+03
 4.50000E+00    3.10402E+03
 4.51354E+00    3.10316E+03
 5.00000E+00    3.07231E+03
 5.50000E+00    3.04053E+03
 5.91443E+00    3.01298E+03
 6.00000E+00    3.00729E+03
 6.50000E+00    2.97191E+03
 6.73417E+00    2.95572E+03
 7.00000E+00    2.93734E+03
 7.50000E+00    2.90632E+03
 8.00000E+00    2.87941E+03
 8.21179E+00    2.86906E+03
 8.50000E+00    2.85713E+03
 9.00000E+00    2.83806E+03
 9.50000E+00    2.82199E+03
 1.00000E+01    2.80671E+03
 1.10000E+01    2.77728E+03
 1.20000E+01    2.74709E+03
 1.22075E+01    2.74132E+03
 1.30000E+01    2.71928E+03
 1.40000E+01    2.69466E+03
 1.45000E+01    2.68363E+03
 1.49588E+01    2.67442E+03
 1.50000E+01    2.67359E+03
 1.60000E+01    2.65584E+03
 1.70000E+01    2.64064E+03
 1.80000E+01    2.62526E+03
 1.90000E+01    2.61033E+03
 2.00000E+01    2.59467E+03
