# n + La139 : (n,na)m   
# jendl.ad   N.Iwamoto                         EVAL-Apr14
# uncertainties: n
# # energies =    30
#   E(MeV)       xs(mb) 
 3.73425E+00    0.00000E+00
 6.00000E+00    1.62350E-28
 6.50000E+00    4.41980E-23
 7.00000E+00    4.28320E-19
 7.50000E+00    4.73860E-16
 8.00000E+00    1.15330E-13
 8.50000E+00    9.34240E-12
 9.00000E+00    3.13930E-10
 9.50000E+00    4.34390E-09
 1.00000E+01    3.39180E-08
 1.05000E+01    1.46760E-07
 1.10000E+01    5.51670E-07
 1.15000E+01    2.06572E-06
 1.20000E+01    7.14196E-06
 1.25000E+01    2.19596E-05
 1.30000E+01    5.95268E-05
 1.35000E+01    1.51564E-04
 1.40000E+01    3.53276E-04
 1.45000E+01    7.60598E-04
 1.50000E+01    1.53089E-03
 1.55000E+01    2.90051E-03
 1.60000E+01    5.19107E-03
 1.65000E+01    8.57933E-03
 1.70000E+01    1.40197E-02
 1.75000E+01    2.12782E-02
 1.80000E+01    3.11282E-02
 1.85000E+01    4.28396E-02
 1.90000E+01    5.73330E-02
 1.95000E+01    7.29253E-02
 2.00000E+01    9.14160E-02
