# n + La139 : (n,xd)    
# jendl.ad   N.Iwamoto                         EVAL-Apr14
# 
# # energies =    97
#   E(MeV)        xs(mb) 
 1.05000E-01    0.00000E+00
 1.10000E-01    0.00000E+00
 1.20000E-01    0.00000E+00
 1.30000E-01    0.00000E+00
 1.40000E-01    0.00000E+00
 1.50000E-01    0.00000E+00
 1.60000E-01    0.00000E+00
 1.67062E-01    0.00000E+00
 1.70000E-01    0.00000E+00
 1.80000E-01    0.00000E+00
 1.90000E-01    0.00000E+00
 2.00000E-01    0.00000E+00
 2.25000E-01    0.00000E+00
 2.50000E-01    0.00000E+00
 2.75000E-01    0.00000E+00
 3.00000E-01    0.00000E+00
 4.00000E-01    0.00000E+00
 5.00000E-01    0.00000E+00
 6.00000E-01    0.00000E+00
 7.00000E-01    0.00000E+00
 8.00000E-01    0.00000E+00
 9.00000E-01    0.00000E+00
 1.00000E+00    0.00000E+00
 1.10000E+00    0.00000E+00
 1.20000E+00    0.00000E+00
 1.21778E+00    0.00000E+00
 1.22781E+00    0.00000E+00
 1.26596E+00    0.00000E+00
 1.30000E+00    0.00000E+00
 1.39133E+00    0.00000E+00
 1.40000E+00    0.00000E+00
 1.43031E+00    0.00000E+00
 1.43086E+00    0.00000E+00
 1.48713E+00    0.00000E+00
 1.50000E+00    0.00000E+00
 1.54887E+00    0.00000E+00
 1.54904E+00    0.00000E+00
 1.56971E+00    0.00000E+00
 1.58950E+00    0.00000E+00
 1.59127E+00    0.00000E+00
 1.60000E+00    0.00000E+00
 1.69552E+00    0.00000E+00
 1.70000E+00    0.00000E+00
 1.72858E+00    0.00000E+00
 1.77399E+00    0.00000E+00
 1.77907E+00    0.00000E+00
 1.79292E+00    0.00000E+00
 1.79293E+00    0.00000E+00
 1.80000E+00    0.00000E+00
 1.83322E+00    0.00000E+00
 1.85034E+00    0.00000E+00
 1.86968E+00    0.00000E+00
 1.90000E+00    0.00000E+00
 1.90664E+00    0.00000E+00
 1.90665E+00    0.00000E+00
 1.93469E+00    0.00000E+00
 1.95498E+00    0.00000E+00
 1.97715E+00    0.00000E+00
 2.00000E+00    0.00000E+00
 2.25000E+00    0.00000E+00
 2.50000E+00    0.00000E+00
 2.75000E+00    0.00000E+00
 3.00000E+00    0.00000E+00
 3.50000E+00    0.00000E+00
 4.00000E+00    0.00000E+00
 4.50000E+00    1.95099E-14
 5.00000E+00    4.18550E-14
 5.50000E+00    6.42000E-14
 6.00000E+00    1.50930E-10
 6.50000E+00    1.76510E-08
 7.00000E+00    4.25210E-07
 7.50000E+00    3.81979E-06
 8.00000E+00    1.81294E-05
 8.50000E+00    6.03261E-05
 9.00000E+00    2.01224E-04
 9.50000E+00    8.18969E-04
 1.00000E+01    3.37636E-03
 1.05000E+01    1.19661E-02
 1.10000E+01    3.52288E-02
 1.15000E+01    8.76348E-02
 1.20000E+01    1.87451E-01
 1.25000E+01    3.53614E-01
 1.30000E+01    5.98669E-01
 1.35000E+01    9.29345E-01
 1.40000E+01    1.34275E+00
 1.45000E+01    1.83286E+00
 1.50000E+01    2.38975E+00
 1.55000E+01    2.92770E+00
 1.60000E+01    3.64562E+00
 1.65000E+01    4.24317E+00
 1.70000E+01    5.10343E+00
 1.75000E+01    5.79813E+00
 1.80000E+01    6.53696E+00
 1.85000E+01    7.30231E+00
 1.90000E+01    7.95052E+00
 1.95000E+01    8.77308E+00
 2.00000E+01    9.63356E+00
