# n + La139 : (n,xt)    
# jendl.ad   N.Iwamoto                         EVAL-Apr14
# 
# # energies =    97
#   E(MeV)        xs(mb) 
 1.05000E-01    0.00000E+00
 1.10000E-01    0.00000E+00
 1.20000E-01    0.00000E+00
 1.30000E-01    0.00000E+00
 1.40000E-01    0.00000E+00
 1.50000E-01    0.00000E+00
 1.60000E-01    0.00000E+00
 1.67062E-01    0.00000E+00
 1.70000E-01    0.00000E+00
 1.80000E-01    0.00000E+00
 1.90000E-01    0.00000E+00
 2.00000E-01    0.00000E+00
 2.25000E-01    0.00000E+00
 2.50000E-01    0.00000E+00
 2.75000E-01    0.00000E+00
 3.00000E-01    0.00000E+00
 4.00000E-01    0.00000E+00
 5.00000E-01    0.00000E+00
 6.00000E-01    0.00000E+00
 7.00000E-01    0.00000E+00
 8.00000E-01    0.00000E+00
 9.00000E-01    0.00000E+00
 1.00000E+00    0.00000E+00
 1.10000E+00    0.00000E+00
 1.20000E+00    0.00000E+00
 1.21778E+00    0.00000E+00
 1.22781E+00    0.00000E+00
 1.26596E+00    0.00000E+00
 1.30000E+00    0.00000E+00
 1.39133E+00    0.00000E+00
 1.40000E+00    0.00000E+00
 1.43031E+00    0.00000E+00
 1.43086E+00    0.00000E+00
 1.48713E+00    0.00000E+00
 1.50000E+00    0.00000E+00
 1.54887E+00    0.00000E+00
 1.54904E+00    0.00000E+00
 1.56971E+00    0.00000E+00
 1.58950E+00    0.00000E+00
 1.59127E+00    0.00000E+00
 1.60000E+00    0.00000E+00
 1.69552E+00    0.00000E+00
 1.70000E+00    0.00000E+00
 1.72858E+00    0.00000E+00
 1.77399E+00    0.00000E+00
 1.77907E+00    0.00000E+00
 1.79292E+00    0.00000E+00
 1.79293E+00    0.00000E+00
 1.80000E+00    0.00000E+00
 1.83322E+00    0.00000E+00
 1.85034E+00    0.00000E+00
 1.86968E+00    0.00000E+00
 1.90000E+00    0.00000E+00
 1.90664E+00    0.00000E+00
 1.90665E+00    0.00000E+00
 1.93469E+00    0.00000E+00
 1.95498E+00    0.00000E+00
 1.97715E+00    0.00000E+00
 2.00000E+00    0.00000E+00
 2.25000E+00    0.00000E+00
 2.50000E+00    0.00000E+00
 2.75000E+00    0.00000E+00
 3.00000E+00    0.00000E+00
 3.50000E+00    0.00000E+00
 4.00000E+00    0.00000E+00
 4.50000E+00    0.00000E+00
 5.00000E+00    0.00000E+00
 5.50000E+00    0.00000E+00
 6.00000E+00    0.00000E+00
 6.50000E+00    1.97757E-23
 7.00000E+00    1.71943E-22
 7.50000E+00    3.64980E-18
 8.00000E+00    6.85820E-16
 8.50000E+00    2.59500E-12
 9.00000E+00    4.87830E-10
 9.50000E+00    1.69390E-08
 1.00000E+01    2.10070E-07
 1.05000E+01    1.35895E-06
 1.10000E+01    6.06572E-06
 1.15000E+01    2.48010E-05
 1.20000E+01    1.09952E-04
 1.25000E+01    4.90069E-04
 1.30000E+01    1.92873E-03
 1.35000E+01    6.42127E-03
 1.40000E+01    1.78643E-02
 1.45000E+01    4.33368E-02
 1.50000E+01    9.15954E-02
 1.55000E+01    1.74040E-01
 1.60000E+01    2.92450E-01
 1.65000E+01    4.55567E-01
 1.70000E+01    6.56809E-01
 1.75000E+01    9.11522E-01
 1.80000E+01    1.19852E+00
 1.85000E+01    1.51330E+00
 1.90000E+01    1.86926E+00
 1.95000E+01    2.24346E+00
 2.00000E+01    2.65186E+00
