# n + La139 : (n,p)     
# jendl.ad   N.Iwamoto                         EVAL-Apr14
# uncertainties: n
# # energies =    75
#   E(MeV)       xs(mb) 
 1.54643E+00    0.00000E+00
 2.17828E+00    7.04210E-12
 2.63624E+00    2.02470E-11
 2.75000E+00    2.46730E-11
 2.83907E+00    3.24600E-10
 2.86413E+00    4.09010E-10
 2.97739E+00    7.90570E-10
 3.00000E+00    8.66740E-10
 3.09656E+00    4.49600E-08
 3.17718E+00    8.17760E-08
 3.17893E+00    8.25760E-08
 3.23941E+00    1.10200E-07
 3.25744E+00    1.18430E-07
 3.30737E+00    1.41230E-07
 3.37739E+00    1.73210E-07
 3.38851E+00    1.78290E-07
 3.41089E+00    1.88510E-07
 3.43743E+00    2.00630E-07
 3.44766E+00    2.05300E-07
 3.45559E+00    2.08920E-07
 3.49395E+00    2.26440E-07
 3.50000E+00    2.29200E-07
 3.50658E+00    3.27650E-07
 3.50969E+00    3.74180E-07
 3.51214E+00    4.10830E-07
 3.53798E+00    7.97440E-07
 3.55919E+00    1.11477E-06
 3.58198E+00    1.45574E-06
 3.59919E+00    1.71323E-06
 3.64058E+00    2.33249E-06
 3.65148E+00    2.49557E-06
 3.65332E+00    2.52310E-06
 3.66175E+00    2.64922E-06
 3.67261E+00    2.81171E-06
 3.69104E+00    3.08745E-06
 3.71908E+00    3.50697E-06
 3.72087E+00    3.53375E-06
 3.72888E+00    3.65359E-06
 3.73615E+00    3.76236E-06
 3.74780E+00    3.93666E-06
 3.78145E+00    4.44012E-06
 3.79241E+00    4.60410E-06
 4.00000E+00    7.70997E-06
 4.50000E+00    7.91419E-05
 5.00000E+00    3.87737E-04
 5.50000E+00    1.17197E-03
 6.00000E+00    2.53126E-03
 6.50000E+00    4.47867E-03
 7.00000E+00    7.19340E-03
 7.50000E+00    1.14026E-02
 8.00000E+00    1.87814E-02
 8.50000E+00    3.25236E-02
 9.00000E+00    5.79602E-02
 9.50000E+00    1.03085E-01
 1.00000E+01    1.78627E-01
 1.05000E+01    2.97938E-01
 1.10000E+01    4.74775E-01
 1.15000E+01    7.25567E-01
 1.20000E+01    1.06098E+00
 1.25000E+01    1.49474E+00
 1.30000E+01    2.02671E+00
 1.35000E+01    2.65980E+00
 1.40000E+01    3.38044E+00
 1.45000E+01    4.17611E+00
 1.50000E+01    5.02466E+00
 1.55000E+01    5.90645E+00
 1.60000E+01    6.79420E+00
 1.65000E+01    7.65387E+00
 1.70000E+01    8.45683E+00
 1.75000E+01    9.19198E+00
 1.80000E+01    9.83811E+00
 1.85000E+01    1.03845E+01
 1.90000E+01    1.08724E+01
 1.95000E+01    1.12340E+01
 2.00000E+01    1.15336E+01
