# n + Nd143 : (n,n'10)  
# jendl4.0   N.Iwamoto,A.Zukeran,K.Shibata     EVAL-Dec09
# uncertainties: n
# # energies =    73
#   E(MeV)       xs(mb) 
 1.61973E+00    0.00000E+00
 1.70000E+00    4.59117E+00
 1.70193E+00    4.66073E+00
 1.75148E+00    6.32764E+00
 1.78738E+00    7.43242E+00
 1.80000E+00    7.55564E+00
 1.81222E+00    7.85995E+00
 1.86457E+00    8.89767E+00
 1.86564E+00    8.92202E+00
 1.90000E+00    9.42571E+00
 1.91371E+00    9.70563E+00
 1.92430E+00    9.91660E+00
 1.93416E+00    1.00206E+01
 1.97988E+00    1.06677E+01
 2.00000E+00    1.08494E+01
 2.00225E+00    1.08817E+01
 2.01049E+00    1.10045E+01
 2.01882E+00    1.10192E+01
 2.02550E+00    1.10082E+01
 2.03312E+00    1.10610E+01
 2.03345E+00    1.10637E+01
 2.04997E+00    1.12135E+01
 2.07842E+00    1.15119E+01
 2.08143E+00    1.15451E+01
 2.08864E+00    1.16268E+01
 2.08978E+00    1.15973E+01
 2.10536E+00    1.16776E+01
 2.10917E+00    1.16652E+01
 2.11583E+00    1.17003E+01
 2.14082E+00    1.17881E+01
 2.14950E+00    1.17435E+01
 2.15208E+00    1.17477E+01
 2.16306E+00    1.16827E+01
 2.18892E+00    1.16386E+01
 2.19841E+00    1.16148E+01
 2.25000E+00    1.17592E+01
 2.50000E+00    1.16551E+01
 2.75000E+00    9.58479E+00
 3.00000E+00    8.41388E+00
 3.50000E+00    5.15682E+00
 4.00000E+00    3.10562E+00
 4.50000E+00    1.91818E+00
 5.00000E+00    1.25379E+00
 5.50000E+00    8.90302E-01
 6.00000E+00    6.91207E-01
 6.50000E+00    5.78898E-01
 7.00000E+00    5.12704E-01
 7.50000E+00    4.71428E-01
 8.00000E+00    4.43428E-01
 8.50000E+00    4.22051E-01
 9.00000E+00    4.03491E-01
 9.50000E+00    3.85786E-01
 1.00000E+01    3.68199E-01
 1.05000E+01    3.50925E-01
 1.10000E+01    3.33667E-01
 1.15000E+01    3.17677E-01
 1.20000E+01    3.02185E-01
 1.25000E+01    2.88467E-01
 1.30000E+01    2.75614E-01
 1.35000E+01    2.64182E-01
 1.40000E+01    2.53676E-01
 1.45000E+01    2.44060E-01
 1.50000E+01    2.35102E-01
 1.55000E+01    2.26799E-01
 1.60000E+01    2.19054E-01
 1.65000E+01    2.11687E-01
 1.70000E+01    2.04725E-01
 1.75000E+01    1.97771E-01
 1.80000E+01    1.91128E-01
 1.85000E+01    1.84566E-01
 1.90000E+01    1.78241E-01
 1.95000E+01    1.71838E-01
 2.00000E+01    1.65710E-01
