# n + Nd143 : (n,n'07)  
# jendl4.0   N.Iwamoto,A.Zukeran,K.Shibata     EVAL-Dec09
# uncertainties: n
# # energies =    77
#   E(MeV)       xs(mb) 
 1.56652E+00    0.00000E+00
 1.56742E+00    1.13924E+01
 1.56980E+00    2.02812E+01
 1.60000E+00    5.07053E+01
 1.61973E+00    5.94365E+01
 1.70000E+00    7.86029E+01
 1.70193E+00    7.89061E+01
 1.75148E+00    8.45589E+01
 1.78738E+00    8.80980E+01
 1.80000E+00    8.92479E+01
 1.81222E+00    9.03854E+01
 1.86457E+00    9.49354E+01
 1.86564E+00    9.44386E+01
 1.90000E+00    9.39783E+01
 1.91371E+00    9.46369E+01
 1.92430E+00    9.38123E+01
 1.93416E+00    9.23961E+01
 1.97988E+00    9.08132E+01
 2.00000E+00    9.12793E+01
 2.00225E+00    9.13711E+01
 2.01049E+00    9.15304E+01
 2.01882E+00    9.14970E+01
 2.02550E+00    9.16468E+01
 2.03312E+00    9.16873E+01
 2.03345E+00    9.16958E+01
 2.04997E+00    9.10636E+01
 2.07842E+00    9.03465E+01
 2.08143E+00    9.02635E+01
 2.08864E+00    9.02934E+01
 2.08978E+00    9.02028E+01
 2.10536E+00    8.99444E+01
 2.10917E+00    8.97512E+01
 2.11583E+00    8.95324E+01
 2.14082E+00    8.85279E+01
 2.14950E+00    8.82289E+01
 2.15208E+00    8.79511E+01
 2.16306E+00    8.73385E+01
 2.18892E+00    8.68553E+01
 2.19841E+00    8.65935E+01
 2.25000E+00    8.58407E+01
 2.50000E+00    7.84100E+01
 2.75000E+00    5.92254E+01
 3.00000E+00    4.46745E+01
 3.50000E+00    2.25409E+01
 4.00000E+00    1.10978E+01
 4.50000E+00    5.40256E+00
 5.00000E+00    2.60808E+00
 5.50000E+00    1.28478E+00
 6.00000E+00    6.78871E-01
 6.50000E+00    4.04325E-01
 7.00000E+00    2.77635E-01
 7.50000E+00    2.16526E-01
 8.00000E+00    1.84902E-01
 8.50000E+00    1.66743E-01
 9.00000E+00    1.54739E-01
 9.50000E+00    1.45519E-01
 1.00000E+01    1.37583E-01
 1.05000E+01    1.30412E-01
 1.10000E+01    1.23595E-01
 1.15000E+01    1.17441E-01
 1.20000E+01    1.11580E-01
 1.25000E+01    1.06439E-01
 1.30000E+01    1.01657E-01
 1.35000E+01    9.74104E-02
 1.40000E+01    9.35339E-02
 1.45000E+01    8.99731E-02
 1.50000E+01    8.66735E-02
 1.55000E+01    8.36135E-02
 1.60000E+01    8.07435E-02
 1.65000E+01    7.80287E-02
 1.70000E+01    7.54537E-02
 1.75000E+01    7.28795E-02
 1.80000E+01    7.04377E-02
 1.85000E+01    6.79973E-02
 1.90000E+01    6.56604E-02
 1.95000E+01    6.33096E-02
 2.00000E+01    6.10262E-02
