# n + Nd143 : (n,n'13)  
# jendl4.0   N.Iwamoto,A.Zukeran,K.Shibata     EVAL-Dec09
# uncertainties: n
# # energies =    69
#   E(MeV)       xs(mb) 
 1.78738E+00    0.00000E+00
 1.80000E+00    1.25142E+00
 1.81222E+00    1.73279E+00
 1.86457E+00    3.19401E+00
 1.86564E+00    3.22224E+00
 1.90000E+00    3.99053E+00
 1.91371E+00    4.29998E+00
 1.92430E+00    4.52766E+00
 1.93416E+00    4.69519E+00
 1.97988E+00    5.51416E+00
 2.00000E+00    5.77415E+00
 2.00225E+00    5.80812E+00
 2.01049E+00    5.93468E+00
 2.01882E+00    6.03483E+00
 2.02550E+00    6.08366E+00
 2.03312E+00    6.17687E+00
 2.03345E+00    6.18112E+00
 2.04997E+00    6.39926E+00
 2.07842E+00    6.79034E+00
 2.08143E+00    6.83224E+00
 2.08864E+00    6.93135E+00
 2.08978E+00    6.93083E+00
 2.10536E+00    7.08778E+00
 2.10917E+00    7.11382E+00
 2.11583E+00    7.17931E+00
 2.14082E+00    7.39296E+00
 2.14950E+00    7.40823E+00
 2.15208E+00    7.42588E+00
 2.16306E+00    7.43598E+00
 2.18892E+00    7.54067E+00
 2.19841E+00    7.57385E+00
 2.25000E+00    7.91434E+00
 2.50000E+00    8.89778E+00
 2.75000E+00    8.00351E+00
 3.00000E+00    7.20353E+00
 3.50000E+00    4.44752E+00
 4.00000E+00    2.60667E+00
 4.50000E+00    1.52355E+00
 5.00000E+00    9.19628E-01
 5.50000E+00    5.94508E-01
 6.00000E+00    4.22801E-01
 6.50000E+00    3.30949E-01
 7.00000E+00    2.80017E-01
 7.50000E+00    2.50299E-01
 8.00000E+00    2.31620E-01
 8.50000E+00    2.18566E-01
 9.00000E+00    2.08165E-01
 9.50000E+00    1.98835E-01
 1.00000E+01    1.89860E-01
 1.05000E+01    1.81143E-01
 1.10000E+01    1.72429E-01
 1.15000E+01    1.64327E-01
 1.20000E+01    1.56430E-01
 1.25000E+01    1.49397E-01
 1.30000E+01    1.42765E-01
 1.35000E+01    1.36905E-01
 1.40000E+01    1.31434E-01
 1.45000E+01    1.26504E-01
 1.50000E+01    1.21843E-01
 1.55000E+01    1.17588E-01
 1.60000E+01    1.13569E-01
 1.65000E+01    1.09793E-01
 1.70000E+01    1.06203E-01
 1.75000E+01    1.02619E-01
 1.80000E+01    9.92225E-02
 1.85000E+01    9.58201E-02
 1.90000E+01    9.26071E-02
 1.95000E+01    8.92912E-02
 2.00000E+01    8.61541E-02
