# n + Nd143 : (n,h)     
# jendl4.0   N.Iwamoto,A.Zukeran,K.Shibata     EVAL-Dec09
# uncertainties: n
# # energies =    67
#   E(MeV)       xs(mb) 
 5.46555E+00    0.00000E+00
 6.13228E+00    4.54360E-32
 6.61057E+00    5.70710E-29
 6.82963E+00    1.20710E-28
 6.84391E+00    1.24870E-28
 6.85327E+00    1.27600E-28
 6.97311E+00    1.62580E-28
 7.10353E+00    2.00660E-28
 7.17080E+00    2.31320E-28
 7.21682E+00    2.53880E-28
 7.26315E+00    2.77030E-28
 7.28701E+00    2.88990E-28
 7.29034E+00    2.90660E-28
 7.39406E+00    3.42830E-28
 7.42125E+00    3.56510E-28
 7.42317E+00    3.57480E-28
 7.44190E+00    3.66900E-28
 7.47362E+00    3.82860E-28
 7.50000E+00    3.96130E-28
 7.51008E+00    1.49790E-27
 7.52397E+00    3.02570E-27
 7.52921E+00    3.60450E-27
 7.59346E+00    1.07460E-26
 7.64583E+00    1.65760E-26
 7.64683E+00    1.66880E-26
 7.65197E+00    1.72600E-26
 7.65489E+00    1.75850E-26
 7.67000E+00    1.92690E-26
 7.67060E+00    1.93360E-26
 7.68853E+00    2.13340E-26
 7.69014E+00    2.15130E-26
 7.72438E+00    2.53300E-26
 7.74452E+00    2.75740E-26
 7.74845E+00    2.80120E-26
 7.75560E+00    2.88090E-26
 7.77372E+00    3.08290E-26
 7.81088E+00    3.49710E-26
 7.81834E+00    3.58030E-26
 7.88551E+00    4.32900E-26
 7.88651E+00    4.34020E-26
 7.89336E+00    4.41650E-26
 7.90827E+00    4.58270E-26
 8.00000E+00    5.60520E-26
 8.50000E+00    5.17630E-22
 9.00000E+00    4.69150E-19
 9.50000E+00    8.62490E-17
 1.00000E+01    5.07150E-15
 1.05000E+01    1.28070E-13
 1.10000E+01    1.69140E-12
 1.15000E+01    1.36050E-11
 1.20000E+01    7.56950E-11
 1.25000E+01    3.46090E-10
 1.30000E+01    1.59700E-09
 1.35000E+01    8.11090E-09
 1.40000E+01    4.04880E-08
 1.45000E+01    1.78570E-07
 1.50000E+01    6.73840E-07
 1.55000E+01    2.17319E-06
 1.60000E+01    6.24697E-06
 1.65000E+01    1.63658E-05
 1.70000E+01    3.68800E-05
 1.75000E+01    7.82031E-05
 1.80000E+01    1.56828E-04
 1.85000E+01    2.86462E-04
 1.90000E+01    5.19547E-04
 1.95000E+01    8.74448E-04
 2.00000E+01    1.41862E-03
