# n + Nd143 : (n,n'09)  
# jendl4.0   N.Iwamoto,A.Zukeran,K.Shibata     EVAL-Dec09
# uncertainties: n
# # energies =    75
#   E(MeV)       xs(mb) 
 1.56980E+00    0.00000E+00
 1.60000E+00    5.60374E+01
 1.61973E+00    6.70106E+01
 1.70000E+00    9.56718E+01
 1.70193E+00    9.61654E+01
 1.75148E+00    1.07720E+02
 1.78738E+00    1.11947E+02
 1.80000E+00    1.13527E+02
 1.81222E+00    1.15037E+02
 1.86457E+00    1.21231E+02
 1.86564E+00    1.21044E+02
 1.90000E+00    1.22879E+02
 1.91371E+00    1.23736E+02
 1.92430E+00    1.23639E+02
 1.93416E+00    1.23800E+02
 1.97988E+00    1.25144E+02
 2.00000E+00    1.25609E+02
 2.00225E+00    1.25686E+02
 2.01049E+00    1.24855E+02
 2.01882E+00    1.24543E+02
 2.02550E+00    1.24492E+02
 2.03312E+00    1.22181E+02
 2.03345E+00    1.22132E+02
 2.04997E+00    1.20338E+02
 2.07842E+00    1.18559E+02
 2.08143E+00    1.17259E+02
 2.08864E+00    1.15857E+02
 2.08978E+00    1.15640E+02
 2.10536E+00    1.13036E+02
 2.10917E+00    1.12029E+02
 2.11583E+00    1.10510E+02
 2.14082E+00    1.07886E+02
 2.14950E+00    1.07316E+02
 2.15208E+00    1.06799E+02
 2.16306E+00    1.05830E+02
 2.18892E+00    1.04145E+02
 2.19841E+00    1.02978E+02
 2.25000E+00    9.93559E+01
 2.50000E+00    8.17221E+01
 2.75000E+00    5.67028E+01
 3.00000E+00    4.11849E+01
 3.50000E+00    1.96944E+01
 4.00000E+00    9.62562E+00
 4.50000E+00    4.79511E+00
 5.00000E+00    2.42273E+00
 5.50000E+00    1.26383E+00
 6.00000E+00    7.03919E-01
 6.50000E+00    4.33090E-01
 7.00000E+00    2.99860E-01
 7.50000E+00    2.32167E-01
 8.00000E+00    1.95964E-01
 8.50000E+00    1.74982E-01
 9.00000E+00    1.61301E-01
 9.50000E+00    1.51072E-01
 1.00000E+01    1.42496E-01
 1.05000E+01    1.34888E-01
 1.10000E+01    1.27740E-01
 1.15000E+01    1.21328E-01
 1.20000E+01    1.15245E-01
 1.25000E+01    1.09919E-01
 1.30000E+01    1.04971E-01
 1.35000E+01    1.00582E-01
 1.40000E+01    9.65758E-02
 1.45000E+01    9.28981E-02
 1.50000E+01    8.94900E-02
 1.55000E+01    8.63288E-02
 1.60000E+01    8.33669E-02
 1.65000E+01    8.05628E-02
 1.70000E+01    7.79061E-02
 1.75000E+01    7.52473E-02
 1.80000E+01    7.27258E-02
 1.85000E+01    7.02081E-02
 1.90000E+01    6.77951E-02
 1.95000E+01    6.53673E-02
 2.00000E+01    6.30120E-02
