# n + Nd143 : (n,n'03)  
# jendl4.0   N.Iwamoto,A.Zukeran,K.Shibata     EVAL-Dec09
# uncertainties: n
# # energies =    83
#   E(MeV)       xs(mb) 
 1.31508E+00    0.00000E+00
 1.40000E+00    1.27726E+01
 1.41701E+00    1.38807E+01
 1.44133E+00    1.53166E+01
 1.50000E+00    1.89367E+01
 1.51663E+00    2.00399E+01
 1.56652E+00    2.25275E+01
 1.56742E+00    2.24634E+01
 1.56980E+00    2.21233E+01
 1.60000E+00    2.30547E+01
 1.61973E+00    2.40020E+01
 1.70000E+00    2.78094E+01
 1.70193E+00    2.79200E+01
 1.75148E+00    3.02853E+01
 1.78738E+00    3.22869E+01
 1.80000E+00    3.28486E+01
 1.81222E+00    3.34978E+01
 1.86457E+00    3.56661E+01
 1.86564E+00    3.55910E+01
 1.90000E+00    3.55814E+01
 1.91371E+00    3.60017E+01
 1.92430E+00    3.59893E+01
 1.93416E+00    3.55951E+01
 1.97988E+00    3.53477E+01
 2.00000E+00    3.55531E+01
 2.00225E+00    3.55929E+01
 2.01049E+00    3.57457E+01
 2.01882E+00    3.58164E+01
 2.02550E+00    3.56284E+01
 2.03312E+00    3.56172E+01
 2.03345E+00    3.56181E+01
 2.04997E+00    3.54504E+01
 2.07842E+00    3.53275E+01
 2.08143E+00    3.53380E+01
 2.08864E+00    3.53827E+01
 2.08978E+00    3.53707E+01
 2.10536E+00    3.54362E+01
 2.10917E+00    3.54465E+01
 2.11583E+00    3.54776E+01
 2.14082E+00    3.49354E+01
 2.14950E+00    3.45193E+01
 2.15208E+00    3.44640E+01
 2.16306E+00    3.39198E+01
 2.18892E+00    3.34290E+01
 2.19841E+00    3.33136E+01
 2.25000E+00    3.27902E+01
 2.50000E+00    2.83746E+01
 2.75000E+00    2.08333E+01
 3.00000E+00    1.64131E+01
 3.50000E+00    9.06183E+00
 4.00000E+00    4.95225E+00
 4.50000E+00    2.74558E+00
 5.00000E+00    1.60603E+00
 5.50000E+00    1.03980E+00
 6.00000E+00    7.61102E-01
 6.50000E+00    6.19951E-01
 7.00000E+00    5.44088E-01
 7.50000E+00    4.99587E-01
 8.00000E+00    4.69972E-01
 8.50000E+00    4.46935E-01
 9.00000E+00    4.26332E-01
 9.50000E+00    4.06355E-01
 1.00000E+01    3.86533E-01
 1.05000E+01    3.67270E-01
 1.10000E+01    3.48326E-01
 1.15000E+01    3.30998E-01
 1.20000E+01    3.14451E-01
 1.25000E+01    2.99973E-01
 1.30000E+01    2.86406E-01
 1.35000E+01    2.74500E-01
 1.40000E+01    2.63496E-01
 1.45000E+01    2.53476E-01
 1.50000E+01    2.44102E-01
 1.55000E+01    2.35400E-01
 1.60000E+01    2.27262E-01
 1.65000E+01    2.19551E-01
 1.70000E+01    2.12199E-01
 1.75000E+01    2.04869E-01
 1.80000E+01    1.97921E-01
 1.85000E+01    1.90929E-01
 1.90000E+01    1.84291E-01
 1.95000E+01    1.77556E-01
 2.00000E+01    1.71103E-01
