# n + Nd143 : (n,n'11)  
# jendl4.0   N.Iwamoto,A.Zukeran,K.Shibata     EVAL-Dec09
# uncertainties: n
# # energies =    71
#   E(MeV)       xs(mb) 
 1.70193E+00    0.00000E+00
 1.75148E+00    2.78421E+01
 1.78738E+00    3.48383E+01
 1.80000E+00    3.69370E+01
 1.81222E+00    3.87764E+01
 1.86457E+00    4.47344E+01
 1.86564E+00    4.46966E+01
 1.90000E+00    4.72518E+01
 1.91371E+00    4.81801E+01
 1.92430E+00    4.84337E+01
 1.93416E+00    4.85496E+01
 1.97988E+00    4.97587E+01
 2.00000E+00    5.02080E+01
 2.00225E+00    5.02886E+01
 2.01049E+00    5.05169E+01
 2.01882E+00    4.99457E+01
 2.02550E+00    4.99217E+01
 2.03312E+00    4.97778E+01
 2.03345E+00    4.97780E+01
 2.04997E+00    4.95128E+01
 2.07842E+00    4.93537E+01
 2.08143E+00    4.92485E+01
 2.08864E+00    4.92377E+01
 2.08978E+00    4.90041E+01
 2.10536E+00    4.85767E+01
 2.10917E+00    4.81609E+01
 2.11583E+00    4.79135E+01
 2.14082E+00    4.72881E+01
 2.14950E+00    4.71323E+01
 2.15208E+00    4.70445E+01
 2.16306E+00    4.68065E+01
 2.18892E+00    4.65152E+01
 2.19841E+00    4.61035E+01
 2.25000E+00    4.54862E+01
 2.50000E+00    4.18576E+01
 2.75000E+00    3.24366E+01
 3.00000E+00    2.58823E+01
 3.50000E+00    1.39388E+01
 4.00000E+00    7.46329E+00
 4.50000E+00    4.07918E+00
 5.00000E+00    2.32136E+00
 5.50000E+00    1.41932E+00
 6.00000E+00    9.60041E-01
 6.50000E+00    7.22811E-01
 7.00000E+00    5.96035E-01
 7.50000E+00    5.24758E-01
 8.00000E+00    4.81507E-01
 8.50000E+00    4.52171E-01
 9.00000E+00    4.29321E-01
 9.50000E+00    4.09162E-01
 1.00000E+01    3.90012E-01
 1.05000E+01    3.71596E-01
 1.10000E+01    3.53352E-01
 1.15000E+01    3.36491E-01
 1.20000E+01    3.20150E-01
 1.25000E+01    3.05659E-01
 1.30000E+01    2.92049E-01
 1.35000E+01    2.79992E-01
 1.40000E+01    2.68832E-01
 1.45000E+01    2.58695E-01
 1.50000E+01    2.49185E-01
 1.55000E+01    2.40416E-01
 1.60000E+01    2.32214E-01
 1.65000E+01    2.24433E-01
 1.70000E+01    2.17098E-01
 1.75000E+01    2.09718E-01
 1.80000E+01    2.02743E-01
 1.85000E+01    1.95774E-01
 1.90000E+01    1.89126E-01
 1.95000E+01    1.82375E-01
 2.00000E+01    1.75895E-01
