# n + Nd143 : (n,n'01)  
# jendl4.0   N.Iwamoto,A.Zukeran,K.Shibata     EVAL-Dec09
# uncertainties: n
# # energies =    91
#   E(MeV)       xs(mb) 
 7.47287E-01    0.00000E+00
 8.00000E-01    6.68494E+01
 9.00000E-01    1.01383E+02
 1.00000E+00    1.31168E+02
 1.10000E+00    1.63344E+02
 1.20000E+00    1.97083E+02
 1.23671E+00    2.10207E+02
 1.30000E+00    2.31985E+02
 1.31508E+00    2.37148E+02
 1.40000E+00    2.58892E+02
 1.41701E+00    2.63620E+02
 1.44133E+00    2.64408E+02
 1.50000E+00    2.74696E+02
 1.51663E+00    2.77956E+02
 1.56652E+00    2.77664E+02
 1.56742E+00    2.74846E+02
 1.56980E+00    2.71521E+02
 1.60000E+00    2.62975E+02
 1.61973E+00    2.61256E+02
 1.70000E+00    2.55918E+02
 1.70193E+00    2.55821E+02
 1.75148E+00    2.49325E+02
 1.78738E+00    2.41731E+02
 1.80000E+00    2.39733E+02
 1.81222E+00    2.38044E+02
 1.86457E+00    2.30154E+02
 1.86564E+00    2.28625E+02
 1.90000E+00    2.15757E+02
 1.91371E+00    2.13026E+02
 1.92430E+00    2.08092E+02
 1.93416E+00    2.02676E+02
 1.97988E+00    1.86478E+02
 2.00000E+00    1.81628E+02
 2.00225E+00    1.81165E+02
 2.01049E+00    1.79427E+02
 2.01882E+00    1.77307E+02
 2.02550E+00    1.75462E+02
 2.03312E+00    1.73634E+02
 2.03345E+00    1.73562E+02
 2.04997E+00    1.67998E+02
 2.07842E+00    1.59672E+02
 2.08143E+00    1.58953E+02
 2.08864E+00    1.57409E+02
 2.08978E+00    1.57044E+02
 2.10536E+00    1.53619E+02
 2.10917E+00    1.52687E+02
 2.11583E+00    1.51260E+02
 2.14082E+00    1.44838E+02
 2.14950E+00    1.42325E+02
 2.15208E+00    1.41433E+02
 2.16306E+00    1.38001E+02
 2.18892E+00    1.32626E+02
 2.19841E+00    1.30791E+02
 2.25000E+00    1.21986E+02
 2.50000E+00    8.65893E+01
 2.75000E+00    5.84495E+01
 3.00000E+00    4.45222E+01
 3.50000E+00    2.34957E+01
 4.00000E+00    1.26637E+01
 4.50000E+00    7.11955E+00
 5.00000E+00    4.36723E+00
 5.50000E+00    3.02590E+00
 6.00000E+00    2.36426E+00
 6.50000E+00    2.02214E+00
 7.00000E+00    1.83047E+00
 7.50000E+00    1.70917E+00
 8.00000E+00    1.61843E+00
 8.50000E+00    1.53878E+00
 9.00000E+00    1.46191E+00
 9.50000E+00    1.38565E+00
 1.00000E+01    1.31067E+00
 1.05000E+01    1.23930E+00
 1.10000E+01    1.17088E+00
 1.15000E+01    1.10961E+00
 1.20000E+01    1.05247E+00
 1.25000E+01    1.00269E+00
 1.30000E+01    9.56652E-01
 1.35000E+01    9.16551E-01
 1.40000E+01    8.79310E-01
 1.45000E+01    8.45652E-01
 1.50000E+01    8.13764E-01
 1.55000E+01    7.84424E-01
 1.60000E+01    7.56719E-01
 1.65000E+01    7.30259E-01
 1.70000E+01    7.05114E-01
 1.75000E+01    6.80022E-01
 1.80000E+01    6.56145E-01
 1.85000E+01    6.32331E-01
 1.90000E+01    6.09612E-01
 1.95000E+01    5.86439E-01
 2.00000E+01    5.64601E-01
