# n + Nd143 : (n,el)    
# jendl4.0   N.Iwamoto,A.Zukeran,K.Shibata     EVAL-Dec09
# uncertainties: n
# # energies =   171
#   E(MeV)       xs(mb) 
 1.00000E-11    1.32427E+05
 1.00000E-07    7.79287E+04
 4.13990E-07    7.22073E+04
 5.31580E-07    6.94325E+04
 6.82560E-07    6.61061E+04
 8.76420E-07    6.21847E+04
 1.12540E-06    5.76643E+04
 1.44500E-06    5.25701E+04
 1.85540E-06    4.70365E+04
 2.37240E-06    4.11118E+04
 3.05900E-06    3.50024E+04
 3.92790E-06    2.90552E+04
 5.04350E-06    2.34659E+04
 6.47600E-06    1.84291E+04
 8.31530E-06    1.40874E+04
 1.06770E-05    1.04965E+04
 1.37100E-05    7.63795E+03
 1.76030E-05    5.43829E+03
 2.26030E-05    3.77636E+03
 2.92030E-05    2.58502E+03
 3.72670E-05    1.81401E+03
 4.78510E-05    4.17311E+04
 6.14420E-05    5.22327E+02
 7.88930E-05    4.89369E+02
 1.01300E-04    1.47373E+05
 1.30070E-04    3.46901E+05
 1.67020E-04    4.97991E+05
 2.14450E-04    4.42095E+03
 2.75360E-04    2.41120E+05
 3.53580E-04    1.63500E+05
 4.54000E-04    2.09399E+04
 5.82950E-04    1.50029E+04
 7.48520E-04    2.85274E+04
 9.61120E-04    1.88356E+04
 1.23410E-03    6.12650E+04
 1.58460E-03    3.53158E+04
 2.03470E-03    5.04551E+04
 2.24870E-03    3.32388E+04
 2.48520E-03    5.89081E+03
 2.61260E-03    2.27362E+04
 2.74650E-03    3.26768E+04
 3.03540E-03    2.61944E+04
 3.35460E-03    1.88377E+04
 3.70740E-03    2.31154E+04
 4.30740E-03    2.02578E+04
 5.53080E-03    1.76900E+04
 7.10170E-03    1.57360E+04
 9.11880E-03    1.40140E+04
 1.17090E-02    1.25112E+04
 1.50340E-02    1.11721E+04
 1.93050E-02    1.02628E+04
 2.18750E-02    9.82013E+03
 2.35790E-02    9.60645E+03
 2.41760E-02    9.50134E+03
 2.47880E-02    9.34615E+03
 2.60580E-02    9.17255E+03
 2.70000E-02    8.99360E+03
 2.85000E-02    8.67742E+03
 3.18280E-02    8.34134E+03
 3.43070E-02    7.91326E+03
 4.08680E-02    7.42558E+03
 4.63090E-02    7.04540E+03
 5.24750E-02    6.77353E+03
 5.65620E-02    6.45724E+03
 6.73790E-02    6.16434E+03
 7.20000E-02    5.98101E+03
 7.95000E-02    5.83656E+03
 8.25000E-02    5.75329E+03
 8.65170E-02    5.58757E+03
 9.80370E-02    5.36785E+03
 1.11090E-01    5.23438E+03
 1.16790E-01    5.16003E+03
 1.22770E-01    5.08676E+03
 1.29070E-01    5.02356E+03
 1.35690E-01    4.97684E+03
 1.42640E-01    4.93084E+03
 1.49960E-01    4.88539E+03
 1.57640E-01    4.84022E+03
 1.65730E-01    4.79540E+03
 1.74220E-01    4.75142E+03
 1.83160E-01    4.70785E+03
 1.92550E-01    4.66592E+03
 2.02420E-01    4.65177E+03
 2.12800E-01    4.64946E+03
 2.23710E-01    4.64704E+03
 2.35180E-01    4.64449E+03
 2.47240E-01    4.64041E+03
 2.73240E-01    4.63604E+03
 2.87250E-01    4.63372E+03
 2.94520E-01    4.63264E+03
 2.97200E-01    4.63221E+03
 2.98500E-01    4.63309E+03
 3.01970E-01    4.67195E+03
 3.33730E-01    4.74832E+03
 3.68830E-01    4.81040E+03
 3.87740E-01    4.85402E+03
 4.07620E-01    4.94955E+03
 4.50490E-01    5.09715E+03
 4.97870E-01    5.22263E+03
 5.23400E-01    5.31578E+03
 5.50230E-01    5.41417E+03
 5.78440E-01    5.51761E+03
 6.08100E-01    5.62635E+03
 6.39280E-01    5.74068E+03
 6.72060E-01    5.86085E+03
 7.06510E-01    5.98305E+03
 7.42740E-01    6.09084E+03
 7.80820E-01    6.17579E+03
 8.20850E-01    6.27293E+03
 8.62940E-01    6.37913E+03
 9.07180E-01    6.48971E+03
 9.61640E-01    6.58410E+03
 1.00260E+00    6.68940E+03
 1.10800E+00    6.78605E+03
 1.16480E+00    6.84927E+03
 1.22460E+00    6.85512E+03
 1.28730E+00    6.83008E+03
 1.35340E+00    6.80223E+03
 1.42270E+00    6.63871E+03
 1.49570E+00    6.44368E+03
 1.57240E+00    6.21243E+03
 1.65300E+00    6.03414E+03
 1.73770E+00    5.85141E+03
 1.82680E+00    5.67232E+03
 1.92050E+00    5.48200E+03
 2.01900E+00    5.24752E+03
 2.12250E+00    4.99923E+03
 2.23130E+00    4.83376E+03
 2.30690E+00    4.74520E+03
 2.34570E+00    4.70223E+03
 2.36530E+00    4.67321E+03
 2.38520E+00    4.59957E+03
 2.46600E+00    4.45007E+03
 2.59240E+00    4.26559E+03
 2.72530E+00    4.08689E+03
 2.86500E+00    3.91818E+03
 3.01190E+00    3.75283E+03
 3.16640E+00    3.58799E+03
 3.32870E+00    3.35355E+03
 3.67880E+00    3.05713E+03
 4.06570E+00    2.78672E+03
 4.49330E+00    2.60312E+03
 4.72370E+00    2.49288E+03
 4.96590E+00    2.39264E+03
 5.22050E+00    2.30440E+03
 5.48810E+00    2.22877E+03
 5.76950E+00    2.16666E+03
 6.06530E+00    2.12725E+03
 6.37630E+00    2.09441E+03
 6.59240E+00    2.08443E+03
 6.70320E+00    2.07783E+03
 7.04690E+00    2.08330E+03
 7.40820E+00    2.10345E+03
 7.78800E+00    2.13995E+03
 8.18730E+00    2.18995E+03
 8.60710E+00    2.25039E+03
 9.04840E+00    2.31901E+03
 9.51230E+00    2.39164E+03
 1.00000E+01    2.46646E+03
 1.05130E+01    2.54225E+03
 1.10520E+01    2.61364E+03
 1.16180E+01    2.68144E+03
 1.22140E+01    2.73913E+03
 1.28400E+01    2.78992E+03
 1.34990E+01    2.81897E+03
 1.38400E+01    2.83698E+03
 1.41910E+01    2.84731E+03
 1.45500E+01    2.85673E+03
 1.49180E+01    2.86264E+03
 1.56830E+01    2.85674E+03
 1.64870E+01    2.83335E+03
