# n + Nd143 : (n,n'06)  
# jendl4.0   N.Iwamoto,A.Zukeran,K.Shibata     EVAL-Dec09
# uncertainties: n
# # energies =    78
#   E(MeV)       xs(mb) 
 1.51663E+00    0.00000E+00
 1.56652E+00    4.39243E+01
 1.56742E+00    4.41360E+01
 1.56980E+00    4.42376E+01
 1.60000E+00    5.16607E+01
 1.61973E+00    5.60769E+01
 1.70000E+00    7.02809E+01
 1.70193E+00    7.05856E+01
 1.75148E+00    7.22361E+01
 1.78738E+00    7.50175E+01
 1.80000E+00    7.61191E+01
 1.81222E+00    7.72171E+01
 1.86457E+00    8.01722E+01
 1.86564E+00    7.99256E+01
 1.90000E+00    8.04058E+01
 1.91371E+00    8.09470E+01
 1.92430E+00    8.05485E+01
 1.93416E+00    8.00030E+01
 1.97988E+00    7.91415E+01
 2.00000E+00    7.88379E+01
 2.00225E+00    7.88556E+01
 2.01049E+00    7.89182E+01
 2.01882E+00    7.79084E+01
 2.02550E+00    7.76234E+01
 2.03312E+00    7.68376E+01
 2.03345E+00    7.68203E+01
 2.04997E+00    7.56694E+01
 2.07842E+00    7.43107E+01
 2.08143E+00    7.39068E+01
 2.08864E+00    7.35282E+01
 2.08978E+00    7.31710E+01
 2.10536E+00    7.19953E+01
 2.10917E+00    7.12486E+01
 2.11583E+00    7.06847E+01
 2.14082E+00    6.89291E+01
 2.14950E+00    6.84292E+01
 2.15208E+00    6.82233E+01
 2.16306E+00    6.75497E+01
 2.18892E+00    6.63543E+01
 2.19841E+00    6.54552E+01
 2.25000E+00    6.32233E+01
 2.50000E+00    5.27294E+01
 2.75000E+00    3.80956E+01
 3.00000E+00    2.90659E+01
 3.50000E+00    1.51349E+01
 4.00000E+00    7.92797E+00
 4.50000E+00    4.22677E+00
 5.00000E+00    2.32261E+00
 5.50000E+00    1.35988E+00
 6.00000E+00    8.79347E-01
 6.50000E+00    6.37800E-01
 7.00000E+00    5.12918E-01
 7.50000E+00    4.45078E-01
 8.00000E+00    4.05161E-01
 8.50000E+00    3.78656E-01
 9.00000E+00    3.58237E-01
 9.50000E+00    3.40356E-01
 1.00000E+01    3.23524E-01
 1.05000E+01    3.07513E-01
 1.10000E+01    2.91852E-01
 1.15000E+01    2.77522E-01
 1.20000E+01    2.63770E-01
 1.25000E+01    2.51672E-01
 1.30000E+01    2.40399E-01
 1.35000E+01    2.30356E-01
 1.40000E+01    2.21214E-01
 1.45000E+01    2.12772E-01
 1.50000E+01    2.04980E-01
 1.55000E+01    1.97699E-01
 1.60000E+01    1.90934E-01
 1.65000E+01    1.84485E-01
 1.70000E+01    1.78382E-01
 1.75000E+01    1.72313E-01
 1.80000E+01    1.66473E-01
 1.85000E+01    1.60721E-01
 1.90000E+01    1.55189E-01
 1.95000E+01    1.49575E-01
 2.00000E+01    1.44183E-01
