# n + Nd143 : (n,n'08)  
# jendl4.0   N.Iwamoto,A.Zukeran,K.Shibata     EVAL-Dec09
# uncertainties: n
# # energies =    76
#   E(MeV)       xs(mb) 
 1.56743E+00    0.00000E+00
 1.56980E+00    4.25711E+00
 1.60000E+00    1.18148E+01
 1.61973E+00    1.45714E+01
 1.70000E+00    2.26777E+01
 1.70193E+00    2.28466E+01
 1.75148E+00    2.57537E+01
 1.78738E+00    2.82689E+01
 1.80000E+00    2.89000E+01
 1.81222E+00    2.96441E+01
 1.86457E+00    3.18156E+01
 1.86564E+00    3.17927E+01
 1.90000E+00    3.26275E+01
 1.91371E+00    3.31569E+01
 1.92430E+00    3.33834E+01
 1.93416E+00    3.33567E+01
 1.97988E+00    3.40193E+01
 2.00000E+00    3.40168E+01
 2.00225E+00    3.40587E+01
 2.01049E+00    3.42239E+01
 2.01882E+00    3.39940E+01
 2.02550E+00    3.39611E+01
 2.03312E+00    3.38686E+01
 2.03345E+00    3.38695E+01
 2.04997E+00    3.38651E+01
 2.07842E+00    3.40102E+01
 2.08143E+00    3.39461E+01
 2.08864E+00    3.39570E+01
 2.08978E+00    3.38283E+01
 2.10536E+00    3.36357E+01
 2.10917E+00    3.34372E+01
 2.11583E+00    3.33425E+01
 2.14082E+00    3.30365E+01
 2.14950E+00    3.28871E+01
 2.15208E+00    3.28680E+01
 2.16306E+00    3.26776E+01
 2.18892E+00    3.22743E+01
 2.19841E+00    3.19944E+01
 2.25000E+00    3.17196E+01
 2.50000E+00    2.88590E+01
 2.75000E+00    2.23407E+01
 3.00000E+00    1.74656E+01
 3.50000E+00    9.53512E+00
 4.00000E+00    5.02297E+00
 4.50000E+00    2.57242E+00
 5.00000E+00    1.27798E+00
 5.50000E+00    6.22389E-01
 6.00000E+00    3.03400E-01
 6.50000E+00    1.51580E-01
 7.00000E+00    7.94356E-02
 7.50000E+00    4.46679E-02
 8.00000E+00    2.75170E-02
 8.50000E+00    1.87991E-02
 9.00000E+00    1.41906E-02
 9.50000E+00    1.16192E-02
 1.00000E+01    1.00758E-02
 1.05000E+01    9.06973E-03
 1.10000E+01    8.33905E-03
 1.15000E+01    7.78602E-03
 1.20000E+01    7.32226E-03
 1.25000E+01    6.94377E-03
 1.30000E+01    6.60870E-03
 1.35000E+01    6.31976E-03
 1.40000E+01    6.06087E-03
 1.45000E+01    5.82593E-03
 1.50000E+01    5.60982E-03
 1.55000E+01    5.41031E-03
 1.60000E+01    5.22379E-03
 1.65000E+01    5.04763E-03
 1.70000E+01    4.88079E-03
 1.75000E+01    4.71408E-03
 1.80000E+01    4.55602E-03
 1.85000E+01    4.39814E-03
 1.90000E+01    4.24694E-03
 1.95000E+01    4.09486E-03
 2.00000E+01    3.94719E-03
