# n + Nd143 : (n,tot)   
# jendl4.0   N.Iwamoto,A.Zukeran,K.Shibata     EVAL-Dec09
# uncertainties: n
# # energies =   171
#   E(MeV)       xs(mb) 
 1.00000E-11    3.67542E+06
 1.00000E-07    1.88451E+05
 4.13990E-07    1.37810E+05
 5.31580E-07    1.25035E+05
 6.82560E-07    1.12755E+05
 8.76420E-07    1.00835E+05
 1.12540E-06    8.92165E+04
 1.44500E-06    7.78874E+04
 1.85540E-06    6.69615E+04
 2.37240E-06    5.64142E+04
 3.05900E-06    4.64210E+04
 3.92790E-06    3.73669E+04
 5.04350E-06    2.93454E+04
 6.47600E-06    2.24747E+04
 8.31530E-06    1.67994E+04
 1.06770E-05    1.22748E+04
 1.37100E-05    8.78851E+03
 1.76030E-05    6.18152E+03
 2.26030E-05    4.26512E+03
 2.92030E-05    2.93387E+03
 3.72670E-05    2.16377E+03
 4.78510E-05    1.15331E+05
 6.14420E-05    7.93557E+02
 7.88930E-05    7.05445E+02
 1.01300E-04    1.78997E+05
 1.30070E-04    3.82339E+05
 1.67020E-04    5.30400E+05
 2.14450E-04    4.65417E+03
 2.75360E-04    2.61279E+05
 3.53580E-04    1.74118E+05
 4.54000E-04    2.45246E+04
 5.82950E-04    1.71482E+04
 7.48520E-04    3.11675E+04
 9.61120E-04    2.20212E+04
 1.23410E-03    6.36949E+04
 1.58460E-03    3.66898E+04
 2.03470E-03    5.18413E+04
 2.24870E-03    3.44544E+04
 2.48520E-03    6.04979E+03
 2.61260E-03    2.38567E+04
 2.74650E-03    3.38318E+04
 3.03540E-03    2.75394E+04
 3.35460E-03    1.99303E+04
 3.70740E-03    2.40893E+04
 4.30740E-03    2.10620E+04
 5.53080E-03    1.82935E+04
 7.10170E-03    1.62451E+04
 9.11880E-03    1.44468E+04
 1.17090E-02    1.28818E+04
 1.50340E-02    1.14890E+04
 1.93050E-02    1.05442E+04
 2.18750E-02    1.00847E+04
 2.35790E-02    9.86290E+03
 2.41760E-02    9.75383E+03
 2.47880E-02    9.59282E+03
 2.60580E-02    9.41275E+03
 2.70000E-02    9.22715E+03
 2.85000E-02    8.89935E+03
 3.18280E-02    8.55110E+03
 3.43070E-02    8.10765E+03
 4.08680E-02    7.60314E+03
 4.63090E-02    7.21010E+03
 5.24750E-02    6.92924E+03
 5.65620E-02    6.60296E+03
 6.73790E-02    6.30137E+03
 7.20000E-02    6.11234E+03
 7.95000E-02    5.96337E+03
 8.25000E-02    5.87749E+03
 8.65170E-02    5.70659E+03
 9.80370E-02    5.47979E+03
 1.11090E-01    5.34206E+03
 1.16790E-01    5.26524E+03
 1.22770E-01    5.18948E+03
 1.29070E-01    5.12405E+03
 1.35690E-01    5.07555E+03
 1.42640E-01    5.02771E+03
 1.49960E-01    4.98039E+03
 1.57640E-01    4.93342E+03
 1.65730E-01    4.88702E+03
 1.74220E-01    4.84108E+03
 1.83160E-01    4.79544E+03
 1.92550E-01    4.75141E+03
 2.02420E-01    4.73591E+03
 2.12800E-01    4.73253E+03
 2.23710E-01    4.72897E+03
 2.35180E-01    4.72524E+03
 2.47240E-01    4.71925E+03
 2.73240E-01    4.71284E+03
 2.87250E-01    4.70945E+03
 2.94520E-01    4.70787E+03
 2.97200E-01    4.70723E+03
 2.98500E-01    4.70790E+03
 3.01970E-01    4.74601E+03
 3.33730E-01    4.82097E+03
 3.68830E-01    4.88201E+03
 3.87740E-01    4.92548E+03
 4.07620E-01    5.02097E+03
 4.50490E-01    5.16860E+03
 4.97870E-01    5.29440E+03
 5.23400E-01    5.38813E+03
 5.50230E-01    5.48722E+03
 5.78440E-01    5.59142E+03
 6.08100E-01    5.70095E+03
 6.39280E-01    5.81611E+03
 6.72060E-01    5.93715E+03
 7.06510E-01    6.06258E+03
 7.42740E-01    6.18464E+03
 7.80820E-01    6.31147E+03
 8.20850E-01    6.43689E+03
 8.62940E-01    6.55914E+03
 9.07180E-01    6.68786E+03
 9.61640E-01    6.79965E+03
 1.00260E+00    6.93352E+03
 1.10800E+00    7.06369E+03
 1.16480E+00    7.15082E+03
 1.22460E+00    7.19087E+03
 1.28730E+00    7.22044E+03
 1.35340E+00    7.25154E+03
 1.42270E+00    7.28422E+03
 1.49570E+00    7.28751E+03
 1.57240E+00    7.25154E+03
 1.65300E+00    7.21361E+03
 1.73770E+00    7.17374E+03
 1.82680E+00    7.13181E+03
 1.92050E+00    7.08669E+03
 2.01900E+00    7.01893E+03
 2.12250E+00    6.93167E+03
 2.23130E+00    6.85567E+03
 2.30690E+00    6.80852E+03
 2.34570E+00    6.78527E+03
 2.36530E+00    6.77025E+03
 2.38520E+00    6.73213E+03
 2.46600E+00    6.65240E+03
 2.59240E+00    6.54355E+03
 2.72530E+00    6.42721E+03
 2.86500E+00    6.30769E+03
 3.01190E+00    6.18434E+03
 3.16640E+00    6.05191E+03
 3.32870E+00    5.84336E+03
 3.67880E+00    5.55107E+03
 4.06570E+00    5.24948E+03
 4.49330E+00    5.02622E+03
 4.72370E+00    4.88115E+03
 4.96590E+00    4.74883E+03
 5.22050E+00    4.63193E+03
 5.48810E+00    4.52831E+03
 5.76950E+00    4.44683E+03
 6.06530E+00    4.38827E+03
 6.37630E+00    4.35246E+03
 6.59240E+00    4.34040E+03
 6.70320E+00    4.33321E+03
 7.04690E+00    4.34140E+03
 7.40820E+00    4.36461E+03
 7.78800E+00    4.40397E+03
 8.18730E+00    4.45199E+03
 8.60710E+00    4.50859E+03
 9.04840E+00    4.56815E+03
 9.51230E+00    4.63076E+03
 1.00000E+01    4.69335E+03
 1.05130E+01    4.75467E+03
 1.10520E+01    4.81292E+03
 1.16180E+01    4.86839E+03
 1.22140E+01    4.91792E+03
 1.28400E+01    4.96242E+03
 1.34990E+01    4.98943E+03
 1.38400E+01    5.00605E+03
 1.41910E+01    5.01626E+03
 1.45500E+01    5.02555E+03
 1.49180E+01    5.03134E+03
 1.56830E+01    5.02520E+03
 1.64870E+01    4.99992E+03
