# n + Nd143 : (n,n')    
# jendl4.0   N.Iwamoto,A.Zukeran,K.Shibata     EVAL-Dec09
# uncertainties: n
# # energies =   113
#   E(MeV)       xs(mb) 
 1.05000E-01    0.00000E+00
 1.10000E-01    2.48128E-03
 1.20000E-01    3.04287E-03
 1.30000E-01    3.31713E-03
 1.40000E-01    3.48029E-03
 1.50000E-01    3.57352E-03
 1.60000E-01    3.62254E-03
 1.70000E-01    3.64021E-03
 1.80000E-01    3.64915E-03
 1.90000E-01    3.64421E-03
 2.00000E-01    3.62873E-03
 2.25000E-01    2.00022E-02
 2.50000E-01    2.29926E-02
 2.75000E-01    2.41062E-02
 3.00000E-01    2.46065E-02
 4.00000E-01    8.22308E-02
 5.00000E-01    2.01169E-01
 6.00000E-01    4.11623E-01
 7.00000E-01    7.49487E-01
 7.47287E-01    1.12047E+00
 8.00000E-01    6.80629E+01
 9.00000E-01    1.03258E+02
 1.00000E+00    1.33952E+02
 1.10000E+00    1.67342E+02
 1.20000E+00    2.02615E+02
 1.23671E+00    2.16854E+02
 1.30000E+00    2.83981E+02
 1.31508E+00    2.96258E+02
 1.40000E+00    3.64947E+02
 1.41701E+00    3.77735E+02
 1.44133E+00    5.05029E+02
 1.50000E+00    6.92451E+02
 1.51663E+00    7.19962E+02
 1.56652E+00    8.19043E+02
 1.56742E+00    8.28529E+02
 1.56743E+00    8.28560E+02
 1.56980E+00    8.40239E+02
 1.60000E+00    9.45597E+02
 1.61973E+00    9.84761E+02
 1.70000E+00    1.10580E+03
 1.70193E+00    1.10829E+03
 1.75148E+00    1.18325E+03
 1.75149E+00    1.18325E+03
 1.78738E+00    1.26537E+03
 1.80000E+00    1.28377E+03
 1.81222E+00    1.30022E+03
 1.86457E+00    1.36545E+03
 1.86564E+00    1.37235E+03
 1.90000E+00    1.43232E+03
 1.91371E+00    1.44957E+03
 1.92430E+00    1.47423E+03
 1.93416E+00    1.49498E+03
 1.97988E+00    1.56070E+03
 2.00000E+00    1.58214E+03
 2.00225E+00    1.58453E+03
 2.01049E+00    1.60397E+03
 2.01882E+00    1.61769E+03
 2.02550E+00    1.62708E+03
 2.03312E+00    1.64023E+03
 2.03345E+00    1.64229E+03
 2.04997E+00    1.67704E+03
 2.07842E+00    1.72215E+03
 2.08143E+00    1.72735E+03
 2.08864E+00    1.74196E+03
 2.08978E+00    1.74409E+03
 2.10536E+00    1.77468E+03
 2.10917E+00    1.78139E+03
 2.11583E+00    1.79669E+03
 2.14082E+00    1.83439E+03
 2.14949E+00    1.84551E+03
 2.14950E+00    1.84556E+03
 2.15208E+00    1.85161E+03
 2.16306E+00    1.86773E+03
 2.18892E+00    1.89597E+03
 2.19841E+00    1.90627E+03
 2.25000E+00    1.95843E+03
 2.50000E+00    2.14712E+03
 2.75000E+00    2.29307E+03
 3.00000E+00    2.39095E+03
 3.50000E+00    2.48036E+03
 4.00000E+00    2.48114E+03
 4.50000E+00    2.42902E+03
 5.00000E+00    2.36111E+03
 5.50000E+00    2.30436E+03
 6.00000E+00    2.26911E+03
 6.50000E+00    2.22798E+03
 7.00000E+00    2.11260E+03
 7.50000E+00    1.96094E+03
 8.00000E+00    1.82070E+03
 8.50000E+00    1.68588E+03
 9.00000E+00    1.42639E+03
 9.50000E+00    1.12956E+03
 1.00000E+01    8.65973E+02
 1.05000E+01    6.46989E+02
 1.10000E+01    4.80109E+02
 1.15000E+01    3.61109E+02
 1.20000E+01    2.78075E+02
 1.25000E+01    2.20960E+02
 1.30000E+01    1.81069E+02
 1.35000E+01    1.53368E+02
 1.40000E+01    1.33620E+02
 1.45000E+01    1.19413E+02
 1.50000E+01    1.08765E+02
 1.55000E+01    1.00521E+02
 1.60000E+01    9.40368E+01
 1.65000E+01    8.89580E+01
 1.70000E+01    8.41626E+01
 1.75000E+01    8.03254E+01
 1.80000E+01    7.69648E+01
 1.85000E+01    7.37232E+01
 1.90000E+01    7.08831E+01
 1.95000E+01    6.83011E+01
 2.00000E+01    6.56675E+01
