# n + Nd143 :  n        
# jendl4.0   N.Iwamoto,A.Zukeran,K.Shibata     EVAL-Dec09
# uncertainties: n
# # energies =   110
#   E(MeV)       xs(mb) 
 1.05000E-01    0.00000E+00
 1.10000E-01    2.48128E-03
 1.20000E-01    3.04287E-03
 1.30000E-01    3.31713E-03
 1.40000E-01    3.48029E-03
 1.50000E-01    3.57352E-03
 1.60000E-01    3.62254E-03
 1.70000E-01    3.64021E-03
 1.80000E-01    3.64915E-03
 1.90000E-01    3.64421E-03
 2.00000E-01    3.62873E-03
 2.25000E-01    2.00022E-02
 2.50000E-01    2.29926E-02
 2.75000E-01    2.41062E-02
 3.00000E-01    2.46065E-02
 4.00000E-01    8.22308E-02
 5.00000E-01    2.01169E-01
 6.00000E-01    4.11623E-01
 7.00000E-01    7.49487E-01
 7.47287E-01    1.12047E+00
 8.00000E-01    1.21347E+00
 9.00000E-01    1.87551E+00
 1.00000E+00    2.78409E+00
 1.10000E+00    3.99837E+00
 1.20000E+00    5.53199E+00
 1.23671E+00    6.64747E+00
 1.30000E+00    7.03030E+00
 1.31508E+00    7.65199E+00
 1.40000E+00    9.00319E+00
 1.41701E+00    9.77406E+00
 1.44133E+00    9.91265E+00
 1.50000E+00    9.71143E+00
 1.51663E+00    1.03151E+01
 1.56652E+00    1.07186E+01
 1.56742E+00    1.06879E+01
 1.56980E+00    1.06475E+01
 1.60000E+00    1.00057E+01
 1.61973E+00    1.04978E+01
 1.70000E+00    1.12036E+01
 1.70193E+00    1.12124E+01
 1.75148E+00    1.22077E+01
 1.78738E+00    1.21257E+01
 1.80000E+00    1.21515E+01
 1.81222E+00    1.21805E+01
 1.86457E+00    1.33217E+01
 1.86564E+00    1.32769E+01
 1.90000E+00    1.32545E+01
 1.91371E+00    1.35479E+01
 1.92430E+00    1.37202E+01
 1.93416E+00    1.38240E+01
 1.97988E+00    1.40546E+01
 2.00000E+00    1.41103E+01
 2.00225E+00    1.41188E+01
 2.01049E+00    1.39863E+01
 2.01882E+00    1.42683E+01
 2.02550E+00    1.44008E+01
 2.03312E+00    1.43839E+01
 2.03345E+00    1.43580E+01
 2.04997E+00    1.42891E+01
 2.07842E+00    1.41756E+01
 2.08143E+00    1.40958E+01
 2.08864E+00    1.39448E+01
 2.08978E+00    1.39204E+01
 2.10536E+00    1.36307E+01
 2.10917E+00    1.35509E+01
 2.11583E+00    1.35935E+01
 2.14082E+00    1.37129E+01
 2.14950E+00    1.37662E+01
 2.15208E+00    1.37143E+01
 2.16306E+00    1.36482E+01
 2.18892E+00    1.35738E+01
 2.19841E+00    1.35114E+01
 2.25000E+00    1.39674E+01
 2.50000E+00    2.44962E+02
 2.75000E+00    7.25987E+02
 3.00000E+00    1.06982E+03
 3.50000E+00    1.73448E+03
 4.00000E+00    2.08447E+03
 4.50000E+00    2.21007E+03
 5.00000E+00    2.23095E+03
 5.50000E+00    2.21910E+03
 6.00000E+00    2.20720E+03
 6.50000E+00    2.17879E+03
 7.00000E+00    2.07069E+03
 7.50000E+00    1.92342E+03
 8.00000E+00    1.78598E+03
 8.50000E+00    1.65312E+03
 9.00000E+00    1.39517E+03
 9.50000E+00    1.09970E+03
 1.00000E+01    8.37408E+02
 1.05000E+01    6.19671E+02
 1.10000E+01    4.54023E+02
 1.15000E+01    3.36145E+02
 1.20000E+01    2.54218E+02
 1.25000E+01    1.98036E+02
 1.30000E+01    1.59060E+02
 1.35000E+01    1.32103E+02
 1.40000E+01    1.13082E+02
 1.45000E+01    9.94830E+01
 1.50000E+01    8.94316E+01
 1.55000E+01    8.17226E+01
 1.60000E+01    7.57621E+01
 1.65000E+01    7.11820E+01
 1.70000E+01    6.68769E+01
 1.75000E+01    6.35199E+01
 1.80000E+01    6.06315E+01
 1.85000E+01    5.78492E+01
 1.90000E+01    5.54612E+01
 1.95000E+01    5.33165E+01
 2.00000E+01    5.11130E+01
