# n + Cr 50 : (n,any)   
# endfb8.0   S.Chiba,M.Chadwick,D.Hetrick      EVAL-OCT97
# uncertainties: n
# # energies =   146
#   E(MeV)       xs(mb) 
 2.00000E+01    0.00000E+00
 2.00000E+01    1.24580E+03
 2.10000E+01    1.23164E+03
 2.20000E+01    1.21784E+03
 2.21839E+01    1.21535E+03
 2.21864E+01    1.21532E+03
 2.30000E+01    1.20435E+03
 2.32777E+01    1.20061E+03
 2.36718E+01    1.19529E+03
 2.40000E+01    1.19085E+03
 2.40424E+01    1.19028E+03
 2.40583E+01    1.19006E+03
 2.50000E+01    1.17702E+03
 2.51103E+01    1.17546E+03
 2.60000E+01    1.16270E+03
 2.60858E+01    1.16145E+03
 2.70000E+01    1.14839E+03
 2.74957E+01    1.14147E+03
 2.80000E+01    1.13454E+03
 2.86073E+01    1.12626E+03
 2.90000E+01    1.12097E+03
 2.90258E+01    1.12063E+03
 2.91238E+01    1.11933E+03
 2.95821E+01    1.11339E+03
 3.00000E+01    1.10824E+03
 3.10000E+01    1.09666E+03
 3.12872E+01    1.09347E+03
 3.14574E+01    1.09160E+03
 3.19084E+01    1.08674E+03
 3.20000E+01    1.08577E+03
 3.20793E+01    1.08493E+03
 3.30000E+01    1.07544E+03
 3.30763E+01    1.07467E+03
 3.40000E+01    1.06559E+03
 3.47357E+01    1.05859E+03
 3.50000E+01    1.05612E+03
 3.53546E+01    1.05285E+03
 3.55931E+01    1.05069E+03
 3.60000E+01    1.04705E+03
 3.64533E+01    1.04306E+03
 3.69347E+01    1.03891E+03
 3.69828E+01    1.03850E+03
 3.70000E+01    1.03835E+03
 3.71390E+01    1.03717E+03
 3.80000E+01    1.02997E+03
 3.90000E+01    1.02181E+03
 4.00000E+01    1.01384E+03
 4.07246E+01    1.00816E+03
 4.10000E+01    1.00603E+03
 4.20000E+01    9.98387E+02
 4.30000E+01    9.90922E+02
 4.40000E+01    9.83636E+02
 4.43215E+01    9.81332E+02
 4.43460E+01    9.81157E+02
 4.44617E+01    9.80332E+02
 4.50000E+01    9.76530E+02
 4.58545E+01    9.70604E+02
 4.60000E+01    9.69609E+02
 4.61064E+01    9.68883E+02
 4.70000E+01    9.62863E+02
 4.80000E+01    9.56278E+02
 4.85371E+01    9.52803E+02
 4.90000E+01    9.49839E+02
 5.00000E+01    9.43534E+02
 5.03226E+01    9.41529E+02
 5.10000E+01    9.37368E+02
 5.20000E+01    9.31345E+02
 5.30000E+01    9.25451E+02
 5.30968E+01    9.24887E+02
 5.40000E+01    9.19672E+02
 5.50000E+01    9.13997E+02
 5.60000E+01    9.08436E+02
 5.62453E+01    9.07092E+02
 5.70000E+01    9.03005E+02
 5.72465E+01    9.01686E+02
 5.80000E+01    8.97700E+02
 5.90000E+01    8.92516E+02
 5.98827E+01    8.88038E+02
 6.00000E+01    8.87450E+02
 6.10000E+01    8.82497E+02
 6.20000E+01    8.77652E+02
 6.26411E+01    8.74602E+02
 6.30000E+01    8.72912E+02
 6.40000E+01    8.68272E+02
 6.50000E+01    8.63728E+02
 6.60000E+01    8.59294E+02
 6.70000E+01    8.54977E+02
 6.80000E+01    8.50765E+02
 6.89865E+01    8.46703E+02
 6.90000E+01    8.46648E+02
 7.00000E+01    8.42618E+02
 7.10000E+01    8.38685E+02
 7.20000E+01    8.34860E+02
 7.30000E+01    8.31134E+02
 7.40000E+01    8.27498E+02
 7.50000E+01    8.23942E+02
 7.60000E+01    8.20476E+02
 7.70000E+01    8.17107E+02
 7.80000E+01    8.13826E+02
 7.90000E+01    8.10629E+02
 8.00000E+01    8.07508E+02
 8.10000E+01    8.04468E+02
 8.20000E+01    8.01514E+02
 8.30000E+01    7.98640E+02
 8.40000E+01    7.95840E+02
 8.50000E+01    7.93109E+02
 8.60000E+01    7.90450E+02
 8.70000E+01    7.87865E+02
 8.80000E+01    7.85352E+02
 8.90000E+01    7.82909E+02
 9.00000E+01    7.80532E+02
 9.10000E+01    7.78227E+02
 9.20000E+01    7.75991E+02
 9.30000E+01    7.73817E+02
 9.40000E+01    7.71696E+02
 9.50000E+01    7.69621E+02
 9.60000E+01    7.67601E+02
 9.70000E+01    7.65643E+02
 9.80000E+01    7.63746E+02
 9.90000E+01    7.61903E+02
 1.00000E+02    7.60113E+02
 1.02000E+02    7.56702E+02
 1.04000E+02    7.53510E+02
 1.06000E+02    7.50510E+02
 1.08000E+02    7.47675E+02
 1.10000E+02    7.44984E+02
 1.12000E+02    7.42447E+02
 1.14000E+02    7.40078E+02
 1.16000E+02    7.37864E+02
 1.18000E+02    7.35791E+02
 1.20000E+02    7.33849E+02
 1.22000E+02    7.32039E+02
 1.24000E+02    7.30358E+02
 1.26000E+02    7.28795E+02
 1.28000E+02    7.27335E+02
 1.30000E+02    7.25968E+02
 1.32000E+02    7.24701E+02
 1.34000E+02    7.23547E+02
 1.36000E+02    7.22501E+02
 1.38000E+02    7.21559E+02
 1.40000E+02    7.20717E+02
 1.42000E+02    7.19993E+02
 1.44000E+02    7.19397E+02
 1.46000E+02    7.18917E+02
 1.48000E+02    7.18539E+02
 1.50000E+02    7.18252E+02
