# n + Mg 25 : (n,el)    
# tendl.2019 A.J. Koning and D. Rochman        EVAL-NOV19
# uncertainties: y
# # energies =    69
#   E(MeV)       xs(mb)       xslow(mb)      xsupp(mb)
 1.00000E-10    3.29242E+03    2.93613E+03    3.64871E+03
 5.00000E-09    1.86266E+03    1.66109E+03    2.06423E+03
 1.00000E-08    1.80776E+03    1.61213E+03    2.00339E+03
 1.50000E-08    1.78628E+03    1.59297E+03    1.97958E+03
 2.00000E-08    1.77468E+03    1.58263E+03    1.96673E+03
 2.50000E-08    1.76736E+03    1.57611E+03    1.95862E+03
 3.00000E-08    1.76236E+03    1.57164E+03    1.95308E+03
 3.50000E-08    1.75813E+03    1.56788E+03    1.94839E+03
 4.20000E-08    1.75436E+03    1.56451E+03    1.94421E+03
 5.00000E-08    1.75150E+03    1.56196E+03    1.94104E+03
 5.80000E-08    1.74921E+03    1.55992E+03    1.93850E+03
 6.70000E-08    1.74712E+03    1.55805E+03    1.93618E+03
 8.00000E-08    1.74495E+03    1.55611E+03    1.93378E+03
 1.00000E-07    1.74253E+03    1.55396E+03    1.93110E+03
 1.40000E-07    1.74064E+03    1.55228E+03    1.92901E+03
 1.80000E-07    1.73944E+03    1.55121E+03    1.92768E+03
 2.20000E-07    1.73885E+03    1.55068E+03    1.92702E+03
 2.50000E-07    1.73837E+03    1.55025E+03    1.92649E+03
 2.80000E-07    1.73798E+03    1.54990E+03    1.92606E+03
 3.00000E-07    1.73783E+03    1.54977E+03    1.92589E+03
 3.20000E-07    1.73768E+03    1.54963E+03    1.92572E+03
 3.50000E-07    1.73744E+03    1.54942E+03    1.92546E+03
 4.00000E-07    1.73699E+03    1.54902E+03    1.92496E+03
 5.00000E-07    1.73656E+03    1.54864E+03    1.92449E+03
 6.25000E-07    1.73633E+03    1.54843E+03    1.92423E+03
 7.80000E-07    1.73613E+03    1.54826E+03    1.92401E+03
 8.50000E-07    1.73602E+03    1.54816E+03    1.92389E+03
 9.10000E-07    1.73594E+03    1.54808E+03    1.92380E+03
 9.50000E-07    1.73589E+03    1.54803E+03    1.92374E+03
 9.72000E-07    1.73585E+03    1.54800E+03    1.92369E+03
 9.96000E-07    1.73581E+03    1.54796E+03    1.92365E+03
 1.02000E-06    1.73577E+03    1.54793E+03    1.92360E+03
 1.04500E-06    1.73572E+03    1.54789E+03    1.92356E+03
 1.07100E-06    1.73571E+03    1.54788E+03    1.92354E+03
 1.09700E-06    1.73571E+03    1.54788E+03    1.92354E+03
 1.12300E-06    1.73571E+03    1.54788E+03    1.92354E+03
 1.15000E-06    1.73571E+03    1.54787E+03    1.92354E+03
 1.30000E-06    1.73570E+03    1.54787E+03    1.92353E+03
 1.50000E-06    1.73569E+03    1.54786E+03    1.92352E+03
 2.10000E-06    1.73567E+03    1.54784E+03    1.92350E+03
 2.60000E-06    1.73565E+03    1.54782E+03    1.92347E+03
 3.30000E-06    1.73562E+03    1.54780E+03    1.92345E+03
 4.00000E-06    1.73552E+03    1.54770E+03    1.92333E+03
 9.87700E-06    1.73530E+03    1.54751E+03    1.92310E+03
 1.59680E-05    1.73500E+03    1.54723E+03    1.92276E+03
 2.77000E-05    1.73444E+03    1.54673E+03    1.92216E+03
 4.80520E-05    1.73360E+03    1.54596E+03    1.92124E+03
 7.55014E-05    1.73193E+03    1.54445E+03    1.91942E+03
 1.48728E-04    1.72721E+03    1.54019E+03    1.91424E+03
 3.67262E-04    1.71467E+03    1.52885E+03    1.90049E+03
 9.06898E-04    1.69526E+03    1.51117E+03    1.87935E+03
 1.42510E-03    1.67213E+03    1.49034E+03    1.85392E+03
 2.23945E-03    1.63577E+03    1.45739E+03    1.81416E+03
 3.51910E-03    1.57702E+03    1.40505E+03    1.74899E+03
 5.53000E-03    1.47721E+03    1.31790E+03    1.63653E+03
 9.11800E-03    1.53445E+03    1.37813E+03    1.69077E+03
 1.50300E-02    2.04000E+04    1.92373E+04    2.15627E+04
 2.47800E-02    4.55706E+03    4.30152E+03    4.81260E+03
 4.08500E-02    1.75638E+03    1.57514E+03    1.93762E+03
 6.73400E-02    8.91127E+03    7.90687E+03    9.91568E+03
 1.11000E-01    5.24093E+03    4.99070E+03    5.49117E+03
 1.83000E-01    5.08289E+03    4.84021E+03    5.32558E+03
 3.02000E-01    3.65653E+03    3.43733E+03    3.87573E+03
 5.00000E-01    3.30089E+03    3.12200E+03    3.47978E+03
 8.21000E-01    3.82803E+03    3.68295E+03    3.97311E+03
 1.35300E+00    3.60594E+03    3.47290E+03    3.73899E+03
 2.23100E+00    2.09174E+03    1.82003E+03    2.36344E+03
 3.67900E+00    1.30581E+03    1.09842E+03    1.51320E+03
 6.06500E+00    7.97704E+02    6.91968E+02    9.03440E+02
