# n + Kr 85 : (n,n'08)  
# tendl.2019 A.J. Koning and D. Rochman        EVAL-NOV19
# uncertainties: n
# # energies =    85
#   E(MeV)       xs(mb) 
 1.44759E+00    0.00000E+00
 1.60000E+00    2.50749E+00
 1.63074E+00    2.99113E+00
 1.80000E+00    5.65415E+00
 1.86894E+00    6.43945E+00
 1.89578E+00    6.74518E+00
 1.95444E+00    7.41338E+00
 1.96186E+00    7.49790E+00
 2.00000E+00    7.93236E+00
 2.01374E+00    8.01261E+00
 2.01546E+00    8.02266E+00
 2.02821E+00    8.09712E+00
 2.07951E+00    8.39675E+00
 2.13850E+00    8.74129E+00
 2.16046E+00    8.86955E+00
 2.16273E+00    8.88281E+00
 2.17038E+00    8.92749E+00
 2.20000E+00    9.10049E+00
 2.26175E+00    9.30505E+00
 2.40000E+00    9.76303E+00
 2.41181E+00    9.80026E+00
 2.42649E+00    9.84655E+00
 2.52757E+00    1.01652E+01
 2.54326E+00    1.02147E+01
 2.56440E+00    1.02814E+01
 2.60000E+00    1.03936E+01
 2.60427E+00    1.03970E+01
 2.62380E+00    1.04123E+01
 2.63331E+00    1.04198E+01
 2.80000E+00    1.05510E+01
 3.00000E+00    9.98628E+00
 3.20000E+00    8.90956E+00
 3.40000E+00    7.61814E+00
 3.60000E+00    6.30877E+00
 3.80000E+00    5.09510E+00
 4.00000E+00    4.03223E+00
 4.20000E+00    3.13890E+00
 4.40000E+00    2.41462E+00
 4.60000E+00    1.84209E+00
 4.80000E+00    1.39884E+00
 5.00000E+00    1.05959E+00
 5.20000E+00    8.02583E-01
 5.40000E+00    6.09304E-01
 5.60000E+00    4.64229E-01
 5.80000E+00    3.55372E-01
 6.00000E+00    2.73297E-01
 6.20000E+00    2.11562E-01
 6.40000E+00    1.64681E-01
 6.60000E+00    1.28912E-01
 6.80000E+00    1.01642E-01
 7.00000E+00    8.03993E-02
 7.20000E+00    6.40454E-02
 7.40000E+00    5.09080E-02
 7.60000E+00    4.08115E-02
 7.80000E+00    3.28127E-02
 8.00000E+00    2.64558E-02
 8.50000E+00    1.56775E-02
 9.00000E+00    9.41562E-03
 9.50000E+00    5.70982E-03
 1.00000E+01    3.49251E-03
 1.05000E+01    2.15436E-03
 1.10000E+01    1.34015E-03
 1.15000E+01    8.40585E-04
 1.20000E+01    5.31546E-04
 1.25000E+01    3.38616E-04
 1.30000E+01    2.17190E-04
 1.35000E+01    1.40148E-04
 1.40000E+01    9.09150E-05
 1.45000E+01    5.92557E-05
 1.50000E+01    3.88098E-05
 1.60000E+01    1.68700E-05
 1.70000E+01    7.46926E-06
 1.80000E+01    3.37150E-06
 1.90000E+01    1.55210E-06
 2.00000E+01    7.28530E-07
 2.10000E+01    3.48080E-07
 2.20000E+01    1.68540E-07
 2.30000E+01    8.19780E-08
 2.40000E+01    4.06500E-08
 2.50000E+01    2.03780E-08
 2.60000E+01    1.03270E-08
 2.70000E+01    5.29930E-09
 2.80000E+01    2.74520E-09
 2.90000E+01    1.43820E-09
 3.00000E+01    7.60510E-10
