# n + Dy156 : (n,n'14)  
# tendl.2019 A.J. Koning and D. Rochman        EVAL-NOV19
# uncertainties: n
# # energies =    80
#   E(MeV)       xs(mb) 
 1.38671E+00    0.00000E+00
 1.39125E+00    7.76892E+00
 1.40000E+00    2.27421E+01
 1.41610E+00    2.49084E+01
 1.44658E+00    2.90095E+01
 1.45674E+00    3.03766E+01
 1.48565E+00    3.42665E+01
 1.52474E+00    3.95261E+01
 1.53504E+00    4.09120E+01
 1.53615E+00    4.10613E+01
 1.60000E+00    4.96525E+01
 1.61974E+00    4.94510E+01
 1.63515E+00    4.92938E+01
 1.63795E+00    4.92652E+01
 1.68800E+00    4.87544E+01
 1.69077E+00    4.87262E+01
 1.73618E+00    4.82627E+01
 1.73997E+00    4.82240E+01
 1.78387E+00    4.77760E+01
 1.80000E+00    4.76114E+01
 2.00000E+00    3.80808E+01
 2.20000E+00    2.72784E+01
 2.40000E+00    1.81108E+01
 2.60000E+00    1.14759E+01
 2.80000E+00    7.11851E+00
 3.00000E+00    4.39380E+00
 3.20000E+00    2.73467E+00
 3.40000E+00    1.71474E+00
 3.60000E+00    1.08908E+00
 3.80000E+00    7.01384E-01
 4.00000E+00    4.58232E-01
 4.20000E+00    3.03537E-01
 4.40000E+00    2.05359E-01
 4.60000E+00    1.39376E-01
 4.80000E+00    9.53546E-02
 5.00000E+00    6.57401E-02
 5.20000E+00    4.56350E-02
 5.40000E+00    3.18849E-02
 5.60000E+00    2.24165E-02
 5.80000E+00    1.58575E-02
 6.00000E+00    1.12379E-02
 6.20000E+00    8.03377E-03
 6.40000E+00    5.77341E-03
 6.60000E+00    4.17009E-03
 6.80000E+00    3.03566E-03
 7.00000E+00    2.22115E-03
 7.20000E+00    1.63581E-03
 7.40000E+00    1.21144E-03
 7.60000E+00    9.00791E-04
 7.80000E+00    6.73964E-04
 8.00000E+00    5.05855E-04
 8.50000E+00    2.50989E-04
 9.00000E+00    1.27050E-04
 9.50000E+00    6.54495E-05
 1.00000E+01    3.41746E-05
 1.05000E+01    1.80085E-05
 1.10000E+01    9.57320E-06
 1.15000E+01    5.14162E-06
 1.20000E+01    2.79314E-06
 1.25000E+01    1.53536E-06
 1.30000E+01    8.53950E-07
 1.35000E+01    4.80460E-07
 1.40000E+01    2.73440E-07
 1.45000E+01    1.57270E-07
 1.50000E+01    9.13550E-08
 1.60000E+01    3.17120E-08
 1.70000E+01    1.13830E-08
 1.80000E+01    4.21250E-09
 1.90000E+01    1.58890E-09
 2.00000E+01    6.19980E-10
 2.10000E+01    2.47830E-10
 2.20000E+01    1.01210E-10
 2.30000E+01    4.22780E-11
 2.40000E+01    1.80130E-11
 2.50000E+01    7.82340E-12
 2.60000E+01    3.45550E-12
 2.70000E+01    1.54970E-12
 2.80000E+01    7.04520E-13
 2.90000E+01    3.25040E-13
 3.00000E+01    1.51880E-13
