# n + Dy156 : (n,n'07)  
# tendl.2019 A.J. Koning and D. Rochman        EVAL-NOV19
# uncertainties: n
# # energies =    88
#   E(MeV)       xs(mb) 
 1.02869E+00    0.00000E+00
 1.09532E+00    5.45755E+01
 1.17603E+00    1.20684E+02
 1.20000E+00    1.40317E+02
 1.22347E+00    1.44006E+02
 1.30157E+00    1.56281E+02
 1.34420E+00    1.62981E+02
 1.37721E+00    1.68169E+02
 1.38671E+00    1.69662E+02
 1.39125E+00    1.70376E+02
 1.40000E+00    1.71751E+02
 1.41610E+00    1.70944E+02
 1.44658E+00    1.69417E+02
 1.45674E+00    1.68908E+02
 1.48565E+00    1.67460E+02
 1.52474E+00    1.65501E+02
 1.53504E+00    1.64985E+02
 1.53615E+00    1.64929E+02
 1.60000E+00    1.61730E+02
 1.61974E+00    1.60556E+02
 1.63515E+00    1.59639E+02
 1.63795E+00    1.59472E+02
 1.68800E+00    1.56494E+02
 1.69077E+00    1.56330E+02
 1.73618E+00    1.53628E+02
 1.73997E+00    1.53403E+02
 1.78387E+00    1.50791E+02
 1.80000E+00    1.49831E+02
 2.00000E+00    1.16987E+02
 2.20000E+00    8.22854E+01
 2.40000E+00    5.46315E+01
 2.60000E+00    3.52315E+01
 2.80000E+00    2.25128E+01
 3.00000E+00    1.44155E+01
 3.20000E+00    9.47647E+00
 3.40000E+00    6.17442E+00
 3.60000E+00    4.06454E+00
 3.80000E+00    2.70295E+00
 4.00000E+00    1.83086E+00
 4.20000E+00    1.24732E+00
 4.40000E+00    8.51010E-01
 4.60000E+00    5.85009E-01
 4.80000E+00    4.04737E-01
 5.00000E+00    2.81781E-01
 5.20000E+00    1.97416E-01
 5.40000E+00    1.39181E-01
 5.60000E+00    9.87098E-02
 5.80000E+00    7.04525E-02
 6.00000E+00    5.03611E-02
 6.20000E+00    3.63047E-02
 6.40000E+00    2.63041E-02
 6.60000E+00    1.91409E-02
 6.80000E+00    1.40322E-02
 7.00000E+00    1.03329E-02
 7.20000E+00    7.65362E-03
 7.40000E+00    5.69740E-03
 7.60000E+00    4.25638E-03
 7.80000E+00    3.19811E-03
 8.00000E+00    2.40977E-03
 8.50000E+00    1.20644E-03
 9.00000E+00    6.16086E-04
 9.50000E+00    3.20360E-04
 1.00000E+01    1.68996E-04
 1.05000E+01    9.00363E-05
 1.10000E+01    4.84070E-05
 1.15000E+01    2.62906E-05
 1.20000E+01    1.44352E-05
 1.25000E+01    8.01405E-06
 1.30000E+01    4.49807E-06
 1.35000E+01    2.55172E-06
 1.40000E+01    1.46310E-06
 1.45000E+01    8.47220E-07
 1.50000E+01    4.95170E-07
 1.60000E+01    1.73750E-07
 1.70000E+01    6.29260E-08
 1.80000E+01    2.34540E-08
 1.90000E+01    8.89550E-09
 2.00000E+01    3.48630E-09
 2.10000E+01    1.39890E-09
 2.20000E+01    5.73320E-10
 2.30000E+01    2.40350E-10
 2.40000E+01    1.02760E-10
 2.50000E+01    4.47660E-11
 2.60000E+01    1.98240E-11
 2.70000E+01    8.91070E-12
 2.80000E+01    4.05860E-12
 2.90000E+01    1.87590E-12
 3.00000E+01    8.78270E-13
