# n + Dy154 : (n,g)     
# jendl4.0   N.Iwamoto                         EVAL-Nov09
# uncertainties: n
# # energies =   171
#   E(MeV)       xs(mb) 
 1.00000E-11    3.89297E+05
 1.00000E-07    1.29644E+04
 4.13990E-07    8.36661E+03
 5.31580E-07    7.38349E+03
 6.82560E-07    6.51594E+03
 8.76420E-07    5.75028E+03
 1.12540E-06    5.07527E+03
 1.44500E-06    4.47997E+03
 1.85540E-06    3.95808E+03
 2.37240E-06    3.66156E+05
 3.05900E-06    7.83223E+05
 3.92790E-06    6.76242E+05
 5.04350E-06    5.83873E+05
 6.47600E-06    5.04127E+05
 8.31530E-06    4.35056E+05
 1.06770E-05    3.71529E+05
 1.37100E-05    3.15917E+05
 1.76030E-05    2.68630E+05
 2.26030E-05    2.27970E+05
 2.92030E-05    1.93822E+05
 3.72670E-05    1.64718E+05
 4.78510E-05    1.38652E+05
 6.14420E-05    1.16590E+05
 7.88930E-05    9.76511E+04
 1.01300E-04    8.14679E+04
 1.30070E-04    6.77796E+04
 1.67020E-04    5.63918E+04
 2.14450E-04    4.69171E+04
 2.75360E-04    3.90342E+04
 3.53580E-04    3.24312E+04
 4.54000E-04    2.67177E+04
 5.82950E-04    2.19749E+04
 7.48520E-04    1.80113E+04
 9.61120E-04    1.47532E+04
 1.23410E-03    1.21020E+04
 1.58460E-03    9.92763E+03
 2.03470E-03    8.63052E+03
 2.24870E-03    7.97305E+03
 2.48520E-03    7.51159E+03
 2.61260E-03    7.21991E+03
 2.74650E-03    6.80500E+03
 3.03540E-03    6.28652E+03
 3.35460E-03    5.80778E+03
 3.70740E-03    5.26463E+03
 4.30740E-03    4.52102E+03
 5.53080E-03    3.73572E+03
 7.10170E-03    3.10704E+03
 9.11880E-03    2.60997E+03
 1.17090E-02    2.23011E+03
 1.50340E-02    1.90870E+03
 1.93050E-02    1.70267E+03
 2.18750E-02    1.61549E+03
 2.35790E-02    1.57409E+03
 2.41760E-02    1.55377E+03
 2.47880E-02    1.52384E+03
 2.60580E-02    1.49042E+03
 2.70000E-02    1.45618E+03
 2.85000E-02    1.39700E+03
 3.18280E-02    1.33875E+03
 3.43070E-02    1.26595E+03
 4.08680E-02    1.18789E+03
 4.63090E-02    1.13009E+03
 5.24750E-02    1.08858E+03
 5.65620E-02    1.04154E+03
 6.73790E-02    1.00047E+03
 7.20000E-02    9.75655E+02
 7.95000E-02    9.56230E+02
 8.25000E-02    9.45271E+02
 8.65170E-02    9.24178E+02
 9.80370E-02    8.98012E+02
 1.11090E-01    8.81833E+02
 1.16790E-01    8.74049E+02
 1.22770E-01    8.66946E+02
 1.29070E-01    8.60993E+02
 1.35690E-01    8.54931E+02
 1.42640E-01    8.50439E+02
 1.49960E-01    8.46227E+02
 1.57640E-01    8.42391E+02
 1.65730E-01    8.40080E+02
 1.74220E-01    8.37765E+02
 1.83160E-01    8.36341E+02
 1.92550E-01    8.35710E+02
 2.02420E-01    8.36771E+02
 2.12800E-01    8.38627E+02
 2.23710E-01    8.40577E+02
 2.35180E-01    8.42628E+02
 2.47240E-01    8.46520E+02
 2.73240E-01    8.51926E+02
 2.87250E-01    8.54860E+02
 2.94520E-01    8.56229E+02
 2.97200E-01    8.56776E+02
 2.98500E-01    8.57431E+02
 3.01970E-01    8.64512E+02
 3.33730E-01    8.29759E+02
 3.68830E-01    7.55288E+02
 3.87740E-01    7.11746E+02
 4.07620E-01    6.97819E+02
 4.50490E-01    6.89303E+02
 4.97870E-01    6.85942E+02
 5.23400E-01    6.89790E+02
 5.50230E-01    6.93867E+02
 5.78440E-01    6.98189E+02
 6.08100E-01    7.05423E+02
 6.39280E-01    7.14225E+02
 6.72060E-01    7.07843E+02
 7.06510E-01    7.08236E+02
 7.42740E-01    7.16336E+02
 7.80820E-01    7.25095E+02
 8.20850E-01    7.36917E+02
 8.62940E-01    7.50055E+02
 9.07180E-01    7.47506E+02
 9.61640E-01    7.26004E+02
 1.00260E+00    7.05006E+02
 1.10800E+00    6.88524E+02
 1.16480E+00    6.93488E+02
 1.22460E+00    6.89999E+02
 1.28730E+00    6.95025E+02
 1.35340E+00    6.93502E+02
 1.42270E+00    6.71963E+02
 1.49570E+00    6.60985E+02
 1.57240E+00    6.57141E+02
 1.65300E+00    6.59217E+02
 1.73770E+00    6.56470E+02
 1.82680E+00    6.52524E+02
 1.92050E+00    6.48469E+02
 2.01900E+00    6.45207E+02
 2.12250E+00    6.42050E+02
 2.23130E+00    6.36472E+02
 2.30690E+00    6.27437E+02
 2.34570E+00    6.22672E+02
 2.36530E+00    6.19453E+02
 2.38520E+00    6.11318E+02
 2.46600E+00    5.97557E+02
 2.59240E+00    5.85645E+02
 2.72530E+00    5.67657E+02
 2.86500E+00    5.38251E+02
 3.01190E+00    5.10501E+02
 3.16640E+00    4.84486E+02
 3.32870E+00    4.46065E+02
 3.67880E+00    3.88628E+02
 4.06570E+00    3.27623E+02
 4.49330E+00    2.81481E+02
 4.72370E+00    2.50639E+02
 4.96590E+00    2.21453E+02
 5.22050E+00    1.93195E+02
 5.48810E+00    1.66905E+02
 5.76950E+00    1.42342E+02
 6.06530E+00    1.19474E+02
 6.37630E+00    1.02263E+02
 6.59240E+00    9.22887E+01
 6.70320E+00    8.02941E+01
 7.04690E+00    6.41082E+01
 7.40820E+00    5.05041E+01
 7.78800E+00    3.93790E+01
 8.18730E+00    3.07965E+01
 8.60710E+00    2.37804E+01
 9.04840E+00    1.82575E+01
 9.51230E+00    1.40553E+01
 1.00000E+01    1.08876E+01
 1.05130E+01    8.52743E+00
 1.10520E+01    6.78100E+00
 1.16180E+01    5.48939E+00
 1.22140E+01    4.52675E+00
 1.28400E+01    3.79917E+00
 1.34990E+01    3.36214E+00
 1.38400E+01    3.11375E+00
 1.41910E+01    2.89060E+00
 1.45500E+01    2.68717E+00
 1.49180E+01    2.40740E+00
 1.56830E+01    2.08065E+00
 1.64870E+01    1.77389E+00
