# n + Dy154 : (n,t)     
# jendl4.0   N.Iwamoto                         EVAL-Nov09
# uncertainties: n
# # energies =    32
#   E(MeV)       xs(mb) 
 6.59539E+00    0.00000E+00
 6.83232E+00    9.32260E-23
 6.85400E+00    1.01910E-22
 6.87439E+00    1.10100E-22
 6.88053E+00    1.12560E-22
 6.93978E+00    1.36390E-22
 7.10041E+00    2.01000E-22
 8.00000E+00    5.53380E-21
 8.50000E+00    7.19110E-17
 9.00000E+00    1.76100E-13
 9.50000E+00    4.91570E-11
 1.00000E+01    3.35930E-09
 1.05000E+01    8.82080E-08
 1.10000E+01    1.18380E-06
 1.15000E+01    9.77952E-06
 1.20000E+01    5.63371E-05
 1.25000E+01    2.46561E-04
 1.30000E+01    8.69600E-04
 1.35000E+01    2.57371E-03
 1.40000E+01    6.49494E-03
 1.45000E+01    1.46043E-02
 1.50000E+01    2.92527E-02
 1.55000E+01    5.26040E-02
 1.60000E+01    8.74760E-02
 1.65000E+01    1.33402E-01
 1.70000E+01    1.94800E-01
 1.75000E+01    2.67284E-01
 1.80000E+01    3.52367E-01
 1.85000E+01    4.45947E-01
 1.90000E+01    5.52451E-01
 1.95000E+01    6.64364E-01
 2.00000E+01    7.71738E-01
