# n + Dy154 : (n,n'14)  
# jendl4.0   N.Iwamoto                         EVAL-Nov09
# uncertainties: n
# # energies =    45
#   E(MeV)       xs(mb) 
 1.51753E+00    0.00000E+00
 1.55613E+00    5.98630E+01
 1.60000E+00    7.70958E+01
 1.70000E+00    9.49306E+01
 1.80000E+00    1.01791E+02
 1.90000E+00    1.03565E+02
 2.00000E+00    1.02628E+02
 2.25000E+00    9.39510E+01
 2.50000E+00    7.58973E+01
 2.75000E+00    5.95303E+01
 3.00000E+00    4.37280E+01
 3.50000E+00    2.21209E+01
 4.00000E+00    1.07309E+01
 4.50000E+00    5.31150E+00
 5.00000E+00    2.81959E+00
 5.50000E+00    1.67757E+00
 6.00000E+00    1.14561E+00
 6.50000E+00    8.86845E-01
 7.00000E+00    7.50306E-01
 7.50000E+00    6.69046E-01
 8.00000E+00    6.13086E-01
 8.50000E+00    5.69072E-01
 9.00000E+00    5.31739E-01
 9.50000E+00    4.98846E-01
 1.00000E+01    4.69272E-01
 1.05000E+01    4.42674E-01
 1.10000E+01    4.17944E-01
 1.15000E+01    3.95655E-01
 1.20000E+01    3.74857E-01
 1.25000E+01    3.55905E-01
 1.30000E+01    3.38177E-01
 1.35000E+01    3.21940E-01
 1.40000E+01    3.06736E-01
 1.45000E+01    2.92702E-01
 1.50000E+01    2.79370E-01
 1.55000E+01    2.66495E-01
 1.60000E+01    2.55341E-01
 1.65000E+01    2.44259E-01
 1.70000E+01    2.34277E-01
 1.75000E+01    2.24111E-01
 1.80000E+01    2.15100E-01
 1.85000E+01    2.07102E-01
 1.90000E+01    1.99172E-01
 1.95000E+01    1.91195E-01
 2.00000E+01    1.83557E-01
