# n + Dy154 : (n,n'07)  
# jendl4.0   N.Iwamoto                         EVAL-Nov09
# uncertainties: n
# # energies =    55
#   E(MeV)       xs(mb) 
 1.21594E+00    0.00000E+00
 1.23210E+00    2.20734E+01
 1.26006E+00    3.49557E+01
 1.30000E+00    4.88807E+01
 1.34305E+00    6.17175E+01
 1.39941E+00    7.45292E+01
 1.40000E+00    7.44017E+01
 1.42970E+00    7.94249E+01
 1.45212E+00    8.27994E+01
 1.50000E+00    9.01329E+01
 1.51753E+00    9.26310E+01
 1.55613E+00    9.54274E+01
 1.60000E+00    9.96656E+01
 1.70000E+00    1.06393E+02
 1.80000E+00    1.08680E+02
 1.90000E+00    1.08037E+02
 2.00000E+00    1.05104E+02
 2.25000E+00    9.24049E+01
 2.50000E+00    7.24368E+01
 2.75000E+00    5.62340E+01
 3.00000E+00    4.10701E+01
 3.50000E+00    2.13551E+01
 4.00000E+00    1.07631E+01
 4.50000E+00    5.48747E+00
 5.00000E+00    2.94585E+00
 5.50000E+00    1.73630E+00
 6.00000E+00    1.15755E+00
 6.50000E+00    8.72239E-01
 7.00000E+00    7.22278E-01
 7.50000E+00    6.34895E-01
 8.00000E+00    5.76542E-01
 8.50000E+00    5.32028E-01
 9.00000E+00    4.95158E-01
 9.50000E+00    4.63194E-01
 1.00000E+01    4.34777E-01
 1.05000E+01    4.09399E-01
 1.10000E+01    3.85936E-01
 1.15000E+01    3.64880E-01
 1.20000E+01    3.45243E-01
 1.25000E+01    3.27441E-01
 1.30000E+01    3.10794E-01
 1.35000E+01    2.95609E-01
 1.40000E+01    2.81392E-01
 1.45000E+01    2.68311E-01
 1.50000E+01    2.55879E-01
 1.55000E+01    2.43890E-01
 1.60000E+01    2.33491E-01
 1.65000E+01    2.23312E-01
 1.70000E+01    2.13975E-01
 1.75000E+01    2.04544E-01
 1.80000E+01    1.96323E-01
 1.85000E+01    1.88840E-01
 1.90000E+01    1.81485E-01
 1.95000E+01    1.74173E-01
 2.00000E+01    1.67196E-01
