# n + Dy154 : (n,n'06)  
# jendl4.0   N.Iwamoto                         EVAL-Nov09
# uncertainties: n
# # energies =    58
#   E(MeV)       xs(mb) 
 1.06501E+00    0.00000E+00
 1.10000E+00    5.74627E+01
 1.20000E+00    8.38608E+01
 1.21594E+00    8.58764E+01
 1.23210E+00    8.77356E+01
 1.26006E+00    9.06417E+01
 1.30000E+00    9.33443E+01
 1.34305E+00    9.55698E+01
 1.39941E+00    9.68372E+01
 1.40000E+00    9.67429E+01
 1.42970E+00    9.64415E+01
 1.45212E+00    9.39011E+01
 1.50000E+00    9.18664E+01
 1.51753E+00    9.13530E+01
 1.55613E+00    8.95823E+01
 1.60000E+00    8.78578E+01
 1.70000E+00    8.29338E+01
 1.80000E+00    7.66045E+01
 1.90000E+00    6.99482E+01
 2.00000E+00    6.32383E+01
 2.25000E+00    4.85867E+01
 2.50000E+00    3.41968E+01
 2.75000E+00    2.41066E+01
 3.00000E+00    1.66671E+01
 3.50000E+00    7.72764E+00
 4.00000E+00    3.69806E+00
 4.50000E+00    1.92729E+00
 5.00000E+00    1.13919E+00
 5.50000E+00    7.77704E-01
 6.00000E+00    6.02659E-01
 6.50000E+00    5.09535E-01
 7.00000E+00    4.52808E-01
 7.50000E+00    4.13048E-01
 8.00000E+00    3.81692E-01
 8.50000E+00    3.54900E-01
 9.00000E+00    3.31278E-01
 9.50000E+00    3.10148E-01
 1.00000E+01    2.91090E-01
 1.05000E+01    2.73958E-01
 1.10000E+01    2.58083E-01
 1.15000E+01    2.43834E-01
 1.20000E+01    2.30535E-01
 1.25000E+01    2.18505E-01
 1.30000E+01    2.07256E-01
 1.35000E+01    1.97019E-01
 1.40000E+01    1.87437E-01
 1.45000E+01    1.78655E-01
 1.50000E+01    1.70314E-01
 1.55000E+01    1.62353E-01
 1.60000E+01    1.55402E-01
 1.65000E+01    1.48459E-01
 1.70000E+01    1.42268E-01
 1.75000E+01    1.36026E-01
 1.80000E+01    1.30422E-01
 1.85000E+01    1.25411E-01
 1.90000E+01    1.20525E-01
 1.95000E+01    1.15674E-01
 2.00000E+01    1.10987E-01
