# n + Dy154 : (n,n'12)  
# jendl4.0   N.Iwamoto                         EVAL-Nov09
# uncertainties: n
# # energies =    48
#   E(MeV)       xs(mb) 
 1.42970E+00    0.00000E+00
 1.45212E+00    4.99912E+01
 1.50000E+00    7.39282E+01
 1.51753E+00    7.93964E+01
 1.55613E+00    8.80454E+01
 1.60000E+00    9.48713E+01
 1.70000E+00    1.03141E+02
 1.80000E+00    1.04324E+02
 1.90000E+00    1.01887E+02
 2.00000E+00    9.72443E+01
 2.25000E+00    8.26955E+01
 2.50000E+00    6.25748E+01
 2.75000E+00    4.69643E+01
 3.00000E+00    3.30321E+01
 3.50000E+00    1.59581E+01
 4.00000E+00    7.46584E+00
 4.50000E+00    3.53944E+00
 5.00000E+00    1.76830E+00
 5.50000E+00    9.71074E-01
 6.00000E+00    6.08076E-01
 6.50000E+00    4.37797E-01
 7.00000E+00    3.53067E-01
 7.50000E+00    3.06562E-01
 8.00000E+00    2.77142E-01
 8.50000E+00    2.55505E-01
 9.00000E+00    2.37906E-01
 9.50000E+00    2.22757E-01
 1.00000E+01    2.09308E-01
 1.05000E+01    1.97294E-01
 1.10000E+01    1.86168E-01
 1.15000E+01    1.76163E-01
 1.20000E+01    1.66838E-01
 1.25000E+01    1.58344E-01
 1.30000E+01    1.50399E-01
 1.35000E+01    1.43129E-01
 1.40000E+01    1.36326E-01
 1.45000E+01    1.30058E-01
 1.50000E+01    1.24108E-01
 1.55000E+01    1.18379E-01
 1.60000E+01    1.13385E-01
 1.65000E+01    1.08471E-01
 1.70000E+01    1.03999E-01
 1.75000E+01    9.94725E-02
 1.80000E+01    9.54721E-02
 1.85000E+01    9.18861E-02
 1.90000E+01    8.83611E-02
 1.95000E+01    8.48320E-02
 2.00000E+01    8.14114E-02
