# n + Fe 57 : (n,a04)   
# endfb8.0   Brown,Nobre,Herman,Leal,Trkov,+   EVAL-Oct16
# uncertainties: n
# # energies =    74
#   E(MeV)       xs(mb) 
 4.38758E-01    0.00000E+00
 3.00000E+00    2.97566E-08
 3.20000E+00    2.12654E-07
 3.50000E+00    1.90718E-06
 3.60000E+00    3.57118E-06
 3.80000E+00    1.19260E-05
 4.00000E+00    3.37033E-05
 4.15000E+00    7.10096E-05
 4.30000E+00    1.39571E-04
 4.40000E+00    2.10543E-04
 4.50000E+00    3.17981E-04
 4.60000E+00    4.71979E-04
 4.70000E+00    6.84317E-04
 4.80000E+00    9.70600E-04
 5.00000E+00    1.88724E-03
 5.20000E+00    3.49601E-03
 5.40000E+00    6.08671E-03
 5.50000E+00    7.93588E-03
 5.70000E+00    1.31461E-02
 6.00000E+00    2.56405E-02
 6.30000E+00    4.67532E-02
 6.50000E+00    6.63805E-02
 6.70000E+00    9.06272E-02
 7.00000E+00    1.36540E-01
 7.25000E+00    1.78350E-01
 7.50000E+00    2.18817E-01
 8.00000E+00    2.76802E-01
 8.50000E+00    2.81347E-01
 9.00000E+00    2.54502E-01
 9.50000E+00    2.12259E-01
 1.00000E+01    1.70365E-01
 1.05000E+01    1.33098E-01
 1.10000E+01    1.02753E-01
 1.12500E+01    9.00678E-02
 1.15000E+01    7.88164E-02
 1.20000E+01    5.64693E-02
 1.25000E+01    4.66489E-02
 1.30000E+01    3.15954E-02
 1.35000E+01    2.92091E-02
 1.40000E+01    2.40802E-02
 1.45000E+01    2.06753E-02
 1.50000E+01    1.82907E-02
 1.60000E+01    9.07027E-03
 1.65000E+01    8.11698E-03
 1.80000E+01    1.22779E-02
 1.90000E+01    6.04816E-03
 2.00000E+01    1.09564E-02
 2.10000E+01    5.16339E-03
 2.20000E+01    4.94315E-03
 2.40000E+01    1.75561E-05
 2.57000E+01    3.86182E-03
 2.80000E+01    3.34500E-03
 3.00000E+01    2.80449E-03
 3.20000E+01    2.58959E-03
 3.40000E+01    5.52903E-08
 3.60000E+01    1.90400E-08
 3.80000E+01    6.67048E-09
 4.00000E+01    2.39906E-09
 4.50000E+01    2.03830E-10
 5.00000E+01    1.90165E-11
 5.50000E+01    1.97307E-12
 6.00000E+01    2.31208E-13
 6.50000E+01    2.82311E-14
 7.00000E+01    3.78343E-15
 7.50000E+01    5.62650E-16
 8.00000E+01    8.36442E-17
 9.00000E+01    2.42209E-18
 9.60000E+01    3.08917E-19
 1.00000E+02    8.46287E-20
 1.10000E+02    3.57032E-21
 1.20000E+02    1.67159E-22
 1.30000E+02    1.43000E-23
 1.40000E+02    9.57723E-25
 1.50000E+02    7.46018E-26
