# n + Fe 57 : (n,n'11)  
# endfb8.0   Brown,Nobre,Herman,Leal,Trkov,+   EVAL-Oct16
# uncertainties: n
# # energies =    81
#   E(MeV)       xs(mb) 
 1.75595E+00    0.00000E+00
 1.80000E+00    3.56148E+01
 1.90000E+00    5.98253E+01
 2.00000E+00    6.72594E+01
 2.40000E+00    7.97195E+01
 2.55000E+00    8.19033E+01
 2.70000E+00    8.20502E+01
 2.80000E+00    8.13408E+01
 3.00000E+00    7.69172E+01
 3.20000E+00    7.13960E+01
 3.50000E+00    6.14196E+01
 3.60000E+00    5.80006E+01
 3.80000E+00    5.13577E+01
 4.00000E+00    4.51793E+01
 4.15000E+00    4.07665E+01
 4.30000E+00    3.69527E+01
 4.40000E+00    3.45251E+01
 4.50000E+00    3.22198E+01
 4.60000E+00    3.00950E+01
 4.70000E+00    2.81161E+01
 4.80000E+00    2.62715E+01
 5.00000E+00    2.30500E+01
 5.20000E+00    2.01609E+01
 5.40000E+00    1.77205E+01
 5.50000E+00    1.65998E+01
 5.70000E+00    1.46041E+01
 6.00000E+00    1.20621E+01
 6.30000E+00    9.99615E+00
 6.50000E+00    8.82305E+00
 6.70000E+00    7.78641E+00
 7.00000E+00    6.44946E+00
 7.25000E+00    5.50437E+00
 7.50000E+00    4.69114E+00
 8.00000E+00    3.39669E+00
 8.50000E+00    2.39206E+00
 9.00000E+00    1.70558E+00
 9.50000E+00    1.21339E+00
 1.00000E+01    8.65096E-01
 1.05000E+01    6.20217E-01
 1.10000E+01    4.45690E-01
 1.12500E+01    3.77589E-01
 1.15000E+01    3.19629E-01
 1.20000E+01    2.28273E-01
 1.25000E+01    1.62600E-01
 1.30000E+01    1.15327E-01
 1.35000E+01    8.13207E-02
 1.40000E+01    5.75426E-02
 1.45000E+01    4.06668E-02
 1.50000E+01    2.87740E-02
 1.60000E+01    1.44647E-02
 1.65000E+01    1.02973E-02
 1.80000E+01    3.76685E-03
 1.90000E+01    1.95252E-03
 2.00000E+01    1.02607E-03
 2.10000E+01    5.42882E-04
 2.20000E+01    2.90180E-04
 2.40000E+01    8.39243E-05
 2.57000E+01    3.00794E-05
 2.80000E+01    7.75860E-06
 3.00000E+01    2.46546E-06
 3.20000E+01    8.08582E-07
 3.40000E+01    2.68064E-07
 3.60000E+01    9.22439E-08
 3.80000E+01    3.22557E-08
 4.00000E+01    1.15675E-08
 4.50000E+01    9.73047E-10
 5.00000E+01    8.96672E-11
 5.50000E+01    9.17491E-12
 6.00000E+01    1.05916E-12
 6.50000E+01    1.27315E-13
 7.00000E+01    1.67884E-14
 7.50000E+01    2.45553E-15
 8.00000E+01    3.58876E-16
 9.00000E+01    1.00299E-17
 9.60000E+01    1.25099E-18
 1.00000E+02    3.37473E-19
 1.10000E+02    1.36700E-20
 1.20000E+02    6.12256E-22
 1.30000E+02    4.98861E-23
 1.40000E+02    3.16665E-24
 1.50000E+02    2.32581E-25
