# n + Fe 57 : (n,p01)   
# endfb8.0   Brown,Nobre,Herman,Leal,Trkov,+   EVAL-Oct16
# uncertainties: n
# # energies =    72
#   E(MeV)       xs(mb) 
 2.02708E+00    0.00000E+00
 3.50000E+00    7.72828E-03
 3.60000E+00    1.36878E-02
 3.80000E+00    3.65322E-02
 4.00000E+00    8.26807E-02
 4.15000E+00    1.37101E-01
 4.30000E+00    2.16889E-01
 4.40000E+00    2.83040E-01
 4.50000E+00    3.59895E-01
 4.60000E+00    4.50879E-01
 4.70000E+00    5.54802E-01
 4.80000E+00    6.68967E-01
 5.00000E+00    9.28999E-01
 5.20000E+00    1.20923E+00
 5.40000E+00    1.49747E+00
 5.50000E+00    1.62973E+00
 5.70000E+00    1.88008E+00
 6.00000E+00    2.15724E+00
 6.30000E+00    2.32812E+00
 6.50000E+00    2.38252E+00
 6.70000E+00    2.39178E+00
 7.00000E+00    2.33172E+00
 7.25000E+00    2.23217E+00
 7.50000E+00    2.09783E+00
 8.00000E+00    1.77052E+00
 8.50000E+00    1.40077E+00
 9.00000E+00    1.09411E+00
 9.50000E+00    8.41982E-01
 1.00000E+01    6.46573E-01
 1.05000E+01    4.94239E-01
 1.10000E+01    3.76385E-01
 1.12500E+01    3.27621E-01
 1.15000E+01    2.84567E-01
 1.20000E+01    2.13234E-01
 1.25000E+01    1.58538E-01
 1.30000E+01    1.16903E-01
 1.35000E+01    8.53894E-02
 1.40000E+01    6.24060E-02
 1.45000E+01    4.54438E-02
 1.50000E+01    3.30698E-02
 1.60000E+01    1.74953E-02
 1.65000E+01    1.27447E-02
 1.80000E+01    4.93964E-03
 1.90000E+01    2.63596E-03
 2.00000E+01    1.41715E-03
 2.10000E+01    7.63860E-04
 2.20000E+01    4.15091E-04
 2.40000E+01    1.23972E-04
 2.57000E+01    4.56859E-05
 2.80000E+01    1.21963E-05
 3.00000E+01    3.96926E-06
 3.20000E+01    1.32632E-06
 3.40000E+01    4.46523E-07
 3.60000E+01    1.55761E-07
 3.80000E+01    5.51495E-08
 4.00000E+01    2.00035E-08
 4.50000E+01    1.72233E-09
 5.00000E+01    1.61508E-10
 5.50000E+01    1.67522E-11
 6.00000E+01    1.95495E-12
 6.50000E+01    2.37052E-13
 7.00000E+01    3.14833E-14
 7.50000E+01    4.63242E-15
 8.00000E+01    6.80471E-16
 9.00000E+01    1.91753E-17
 9.60000E+01    2.40151E-18
 1.00000E+02    6.49461E-19
 1.10000E+02    2.64559E-20
 1.20000E+02    1.19087E-21
 1.30000E+02    9.74835E-23
 1.40000E+02    6.21531E-24
 1.50000E+02    4.58439E-25
