# n + Fe 57 : (n,a01)   
# endfb8.0   Brown,Nobre,Herman,Leal,Trkov,+   EVAL-Oct16
# uncertainties: n
# # energies =    91
#   E(MeV)       xs(mb) 
 1.00000E-11    0.00000E+00
 2.53000E-08    0.00000E+00
 1.00000E-03    0.00000E+00
 1.00000E+00    1.76179E-06
 1.10000E+00    3.99336E-06
 1.20000E+00    8.18850E-06
 1.30000E+00    1.65716E-05
 1.40000E+00    3.26092E-05
 1.50000E+00    6.21643E-05
 1.60000E+00    1.15846E-04
 1.70000E+00    2.05887E-04
 1.80000E+00    3.51302E-04
 1.90000E+00    5.95190E-04
 2.00000E+00    1.00047E-03
 2.40000E+00    5.62814E-03
 2.55000E+00    9.94859E-03
 2.70000E+00    1.69044E-02
 2.80000E+00    2.37766E-02
 3.00000E+00    4.38895E-02
 3.20000E+00    7.89582E-02
 3.50000E+00    1.73362E-01
 3.60000E+00    2.21540E-01
 3.80000E+00    3.49229E-01
 4.00000E+00    5.31058E-01
 4.15000E+00    7.05707E-01
 4.30000E+00    9.30577E-01
 4.40000E+00    1.10545E+00
 4.50000E+00    1.29930E+00
 4.60000E+00    1.51382E+00
 4.70000E+00    1.75399E+00
 4.80000E+00    2.00372E+00
 5.00000E+00    2.58022E+00
 5.20000E+00    3.17876E+00
 5.40000E+00    3.77984E+00
 5.50000E+00    4.05510E+00
 5.70000E+00    4.55307E+00
 6.00000E+00    5.06480E+00
 6.30000E+00    5.27937E+00
 6.50000E+00    5.26127E+00
 6.70000E+00    5.13324E+00
 7.00000E+00    4.78881E+00
 7.25000E+00    4.41699E+00
 7.50000E+00    4.00701E+00
 8.00000E+00    3.17333E+00
 8.50000E+00    2.37135E+00
 9.00000E+00    1.75745E+00
 9.50000E+00    1.28418E+00
 1.00000E+01    9.35631E-01
 1.05000E+01    6.76702E-01
 1.10000E+01    4.87778E-01
 1.12500E+01    4.13623E-01
 1.15000E+01    3.50444E-01
 1.20000E+01    2.47432E-01
 1.25000E+01    1.80624E-01
 1.30000E+01    1.25384E-01
 1.35000E+01    9.46054E-02
 1.40000E+01    6.99287E-02
 1.45000E+01    5.28402E-02
 1.50000E+01    4.09272E-02
 1.60000E+01    2.03748E-02
 1.65000E+01    1.61478E-02
 1.80000E+01    1.51986E-02
 1.90000E+01    7.55368E-03
 2.00000E+01    1.17419E-02
 2.10000E+01    5.57567E-03
 2.20000E+01    5.16186E-03
 2.40000E+01    8.01331E-05
 2.57000E+01    3.88417E-03
 2.80000E+01    3.35076E-03
 3.00000E+01    2.80633E-03
 3.20000E+01    2.59019E-03
 3.40000E+01    2.55753E-07
 3.60000E+01    8.82492E-08
 3.80000E+01    3.09746E-08
 4.00000E+01    1.11595E-08
 4.50000E+01    9.51843E-10
 5.00000E+01    8.91066E-11
 5.50000E+01    9.27375E-12
 6.00000E+01    1.08980E-12
 6.50000E+01    1.33421E-13
 7.00000E+01    1.79257E-14
 7.50000E+01    2.67227E-15
 8.00000E+01    3.98191E-16
 9.00000E+01    1.15828E-17
 9.60000E+01    1.48120E-18
 1.00000E+02    4.06486E-19
 1.10000E+02    1.72229E-20
 1.20000E+02    8.09799E-22
 1.30000E+02    6.95663E-23
 1.40000E+02    4.67804E-24
 1.50000E+02    3.65785E-25
