# n + Fe 57 : (n,p00)   
# endfb8.0   Brown,Nobre,Herman,Leal,Trkov,+   EVAL-Oct16
# uncertainties: n
# # energies =    72
#   E(MeV)       xs(mb) 
 1.94241E+00    0.00000E+00
 3.50000E+00    2.04369E-02
 3.60000E+00    3.40234E-02
 3.80000E+00    8.18920E-02
 4.00000E+00    1.69697E-01
 4.15000E+00    2.65715E-01
 4.30000E+00    3.98100E-01
 4.40000E+00    5.02754E-01
 4.50000E+00    6.19681E-01
 4.60000E+00    7.53996E-01
 4.70000E+00    9.00846E-01
 4.80000E+00    1.05598E+00
 5.00000E+00    1.38715E+00
 5.20000E+00    1.71979E+00
 5.40000E+00    2.03027E+00
 5.50000E+00    2.16468E+00
 5.70000E+00    2.40092E+00
 6.00000E+00    2.63087E+00
 6.30000E+00    2.73642E+00
 6.50000E+00    2.74360E+00
 6.70000E+00    2.70737E+00
 7.00000E+00    2.58640E+00
 7.25000E+00    2.43843E+00
 7.50000E+00    2.26123E+00
 8.00000E+00    1.86800E+00
 8.50000E+00    1.44916E+00
 9.00000E+00    1.11370E+00
 9.50000E+00    8.43547E-01
 1.00000E+01    6.37181E-01
 1.05000E+01    4.80118E-01
 1.10000E+01    3.61155E-01
 1.12500E+01    3.12589E-01
 1.15000E+01    2.70059E-01
 1.20000E+01    2.00326E-01
 1.25000E+01    1.47666E-01
 1.30000E+01    1.08024E-01
 1.35000E+01    7.83507E-02
 1.40000E+01    5.69014E-02
 1.45000E+01    4.11972E-02
 1.50000E+01    2.98174E-02
 1.60000E+01    1.56198E-02
 1.65000E+01    1.13263E-02
 1.80000E+01    4.33544E-03
 1.90000E+01    2.29669E-03
 2.00000E+01    1.22684E-03
 2.10000E+01    6.57569E-04
 2.20000E+01    3.55573E-04
 2.40000E+01    1.05338E-04
 2.57000E+01    3.85983E-05
 2.80000E+01    1.02361E-05
 3.00000E+01    3.31445E-06
 3.20000E+01    1.10257E-06
 3.40000E+01    3.69747E-07
 3.60000E+01    1.28532E-07
 3.80000E+01    4.53674E-08
 4.00000E+01    1.64087E-08
 4.50000E+01    1.40402E-09
 5.00000E+01    1.30966E-10
 5.50000E+01    1.35227E-11
 6.00000E+01    1.57182E-12
 6.50000E+01    1.89927E-13
 7.00000E+01    2.51458E-14
 7.50000E+01    3.68961E-15
 8.00000E+01    5.40614E-16
 9.00000E+01    1.51680E-17
 9.60000E+01    1.89535E-18
 1.00000E+02    5.11866E-19
 1.10000E+02    2.07862E-20
 1.20000E+02    9.33134E-22
 1.30000E+02    7.62031E-23
 1.40000E+02    4.84812E-24
 1.50000E+02    3.56899E-25
