# n + Fe 57 : (n,a09)   
# endfb8.0   Brown,Nobre,Herman,Leal,Trkov,+   EVAL-Oct16
# uncertainties: n
# # energies =    71
#   E(MeV)       xs(mb) 
 1.05678E+00    0.00000E+00
 3.60000E+00    1.25463E-08
 3.80000E+00    3.73882E-07
 4.00000E+00    1.73471E-06
 4.15000E+00    4.74650E-06
 4.30000E+00    1.18890E-05
 4.40000E+00    2.17438E-05
 4.50000E+00    3.82833E-05
 4.60000E+00    6.52174E-05
 4.70000E+00    1.07713E-04
 4.80000E+00    1.72880E-04
 5.00000E+00    4.14344E-04
 5.20000E+00    9.45462E-04
 5.40000E+00    2.00050E-03
 5.50000E+00    2.82683E-03
 5.70000E+00    5.38704E-03
 6.00000E+00    1.29725E-02
 6.30000E+00    2.84291E-02
 6.50000E+00    4.53454E-02
 6.70000E+00    6.94415E-02
 7.00000E+00    1.24141E-01
 7.25000E+00    1.89796E-01
 7.50000E+00    2.73302E-01
 8.00000E+00    4.73312E-01
 8.50000E+00    6.33333E-01
 9.00000E+00    6.99968E-01
 9.50000E+00    6.66851E-01
 1.00000E+01    5.81432E-01
 1.05000E+01    4.76389E-01
 1.10000E+01    3.75319E-01
 1.12500E+01    3.29505E-01
 1.15000E+01    2.87664E-01
 1.20000E+01    2.12723E-01
 1.25000E+01    1.61578E-01
 1.30000E+01    1.14920E-01
 1.35000E+01    8.88432E-02
 1.40000E+01    6.67292E-02
 1.45000E+01    5.10594E-02
 1.50000E+01    3.99278E-02
 1.60000E+01    2.00475E-02
 1.65000E+01    1.59568E-02
 1.80000E+01    1.51600E-02
 1.90000E+01    7.54015E-03
 2.00000E+01    1.17369E-02
 2.10000E+01    5.57376E-03
 2.20000E+01    5.16109E-03
 2.40000E+01    7.99882E-05
 2.57000E+01    3.88413E-03
 2.80000E+01    3.35076E-03
 3.00000E+01    2.80632E-03
 3.20000E+01    2.59019E-03
 3.40000E+01    2.55547E-07
 3.60000E+01    8.81816E-08
 3.80000E+01    3.09518E-08
 4.00000E+01    1.11514E-08
 4.50000E+01    9.51152E-10
 5.00000E+01    8.90387E-11
 5.50000E+01    9.26608E-12
 6.00000E+01    1.08881E-12
 6.50000E+01    1.33285E-13
 7.00000E+01    1.79052E-14
 7.50000E+01    2.66881E-15
 8.00000E+01    3.97610E-16
 9.00000E+01    1.15609E-17
 9.60000E+01    1.47794E-18
 1.00000E+02    4.05501E-19
 1.10000E+02    1.71698E-20
 1.20000E+02    8.06658E-22
 1.30000E+02    6.92335E-23
 1.40000E+02    4.65106E-24
 1.50000E+02    3.63314E-25
