# n + Fe 57 : (n,a06)   
# endfb8.0   Brown,Nobre,Herman,Leal,Trkov,+   EVAL-Oct16
# uncertainties: n
# # energies =    72
#   E(MeV)       xs(mb) 
 7.74553E-01    0.00000E+00
 3.50000E+00    3.10517E-07
 3.60000E+00    7.09946E-07
 3.80000E+00    3.06595E-06
 4.00000E+00    1.11179E-05
 4.15000E+00    2.73723E-05
 4.30000E+00    6.24252E-05
 4.40000E+00    1.03068E-04
 4.50000E+00    1.66439E-04
 4.60000E+00    2.68344E-04
 4.70000E+00    4.20874E-04
 4.80000E+00    6.43403E-04
 5.00000E+00    1.41608E-03
 5.20000E+00    2.92444E-03
 5.40000E+00    5.76095E-03
 5.50000E+00    7.85678E-03
 5.70000E+00    1.40702E-02
 6.00000E+00    3.13304E-02
 6.30000E+00    6.36005E-02
 6.50000E+00    9.68726E-02
 6.70000E+00    1.43924E-01
 7.00000E+00    2.42427E-01
 7.25000E+00    3.50981E-01
 7.50000E+00    4.79889E-01
 8.00000E+00    7.49626E-01
 8.50000E+00    9.16137E-01
 9.00000E+00    9.54350E-01
 9.50000E+00    8.83967E-01
 1.00000E+01    7.63109E-01
 1.05000E+01    6.25155E-01
 1.10000E+01    4.94691E-01
 1.12500E+01    4.35843E-01
 1.15000E+01    3.81980E-01
 1.20000E+01    2.85940E-01
 1.25000E+01    2.17451E-01
 1.30000E+01    1.57060E-01
 1.35000E+01    1.20310E-01
 1.40000E+01    9.02084E-02
 1.45000E+01    6.84493E-02
 1.50000E+01    5.27388E-02
 1.60000E+01    2.69145E-02
 1.65000E+01    2.09768E-02
 1.80000E+01    1.71151E-02
 1.90000E+01    8.58337E-03
 2.00000E+01    1.22970E-02
 2.10000E+01    5.87487E-03
 2.20000E+01    5.32390E-03
 2.40000E+01    1.27867E-04
 2.57000E+01    3.90151E-03
 2.80000E+01    3.35532E-03
 3.00000E+01    2.80779E-03
 3.20000E+01    2.59067E-03
 3.40000E+01    4.18796E-07
 3.60000E+01    1.44945E-07
 3.80000E+01    5.10113E-08
 4.00000E+01    1.84227E-08
 4.50000E+01    1.57950E-09
 5.00000E+01    1.48496E-10
 5.50000E+01    1.55112E-11
 6.00000E+01    1.82865E-12
 6.50000E+01    2.24524E-13
 7.00000E+01    3.02462E-14
 7.50000E+01    4.52009E-15
 8.00000E+01    6.75099E-16
 9.00000E+01    1.97223E-17
 9.60000E+01    2.52815E-18
 1.00000E+02    6.94877E-19
 1.10000E+02    2.95514E-20
 1.20000E+02    1.39434E-21
 1.30000E+02    1.20177E-22
 1.40000E+02    8.10630E-24
 1.50000E+02    6.35615E-25
