# n + Fe 57 : (n,a07)   
# endfb8.0   Brown,Nobre,Herman,Leal,Trkov,+   EVAL-Oct16
# uncertainties: n
# # energies =    72
#   E(MeV)       xs(mb) 
 8.38547E-01    0.00000E+00
 3.50000E+00    4.95759E-08
 3.60000E+00    1.16300E-07
 3.80000E+00    5.57980E-07
 4.00000E+00    2.13847E-06
 4.15000E+00    5.43112E-06
 4.30000E+00    1.31607E-05
 4.40000E+00    2.25634E-05
 4.50000E+00    3.73952E-05
 4.60000E+00    6.01839E-05
 4.70000E+00    9.65028E-05
 4.80000E+00    1.52130E-04
 5.00000E+00    3.57096E-04
 5.20000E+00    7.58656E-04
 5.40000E+00    1.55467E-03
 5.50000E+00    2.17263E-03
 5.70000E+00    4.09987E-03
 6.00000E+00    9.44143E-03
 6.30000E+00    2.04226E-02
 6.50000E+00    3.24961E-02
 6.70000E+00    4.96843E-02
 7.00000E+00    8.80176E-02
 7.25000E+00    1.34771E-01
 7.50000E+00    1.94551E-01
 8.00000E+00    3.40371E-01
 8.50000E+00    4.71226E-01
 9.00000E+00    5.47086E-01
 9.50000E+00    5.57327E-01
 1.00000E+01    5.20670E-01
 1.05000E+01    4.56123E-01
 1.10000E+01    3.81516E-01
 1.12500E+01    3.44667E-01
 1.15000E+01    3.09226E-01
 1.20000E+01    2.40938E-01
 1.25000E+01    1.90480E-01
 1.30000E+01    1.41544E-01
 1.35000E+01    1.11865E-01
 1.40000E+01    8.59602E-02
 1.45000E+01    6.66248E-02
 1.50000E+01    5.22524E-02
 1.60000E+01    2.74361E-02
 1.65000E+01    2.16098E-02
 1.80000E+01    1.76130E-02
 1.90000E+01    8.91884E-03
 2.00000E+01    1.25082E-02
 2.10000E+01    6.00269E-03
 2.20000E+01    5.39969E-03
 2.40000E+01    1.53340E-04
 2.57000E+01    3.91154E-03
 2.80000E+01    3.35816E-03
 3.00000E+01    2.80876E-03
 3.20000E+01    2.59101E-03
 3.40000E+01    5.33081E-07
 3.60000E+01    1.85629E-07
 3.80000E+01    6.56725E-08
 4.00000E+01    2.38260E-08
 4.50000E+01    2.06187E-09
 5.00000E+01    1.95261E-10
 5.50000E+01    2.05175E-11
 6.00000E+01    2.43110E-12
 6.50000E+01    2.99816E-13
 7.00000E+01    4.05489E-14
 7.50000E+01    6.08175E-15
 8.00000E+01    9.11395E-16
 9.00000E+01    2.67913E-17
 9.60000E+01    3.44630E-18
 1.00000E+02    9.49378E-19
 1.10000E+02    4.05966E-20
 1.20000E+02    1.92570E-21
 1.30000E+02    1.66833E-22
 1.40000E+02    1.13085E-23
 1.50000E+02    8.90656E-25
