# n + Pt190 : (n,n'05)  
# endfb8.0   A.J. Koning and D. Rochman        EVAL-DEC15
# uncertainties: n
# # energies =    91
#   E(MeV)       xs(mb) 
 9.25750E-01    0.00000E+00
 1.00000E+00    3.55975E+01
 1.13419E+00    5.04206E+01
 1.20000E+00    5.76902E+01
 1.20941E+00    5.79393E+01
 1.29457E+00    6.01939E+01
 1.36054E+00    6.19404E+01
 1.39326E+00    6.28067E+01
 1.40000E+00    6.29851E+01
 1.40259E+00    6.29138E+01
 1.45760E+00    6.13989E+01
 1.47232E+00    6.09936E+01
 1.55119E+00    5.88216E+01
 1.60000E+00    5.74775E+01
 1.60920E+00    5.69063E+01
 1.61051E+00    5.68250E+01
 1.63423E+00    5.53523E+01
 1.63675E+00    5.51958E+01
 1.63976E+00    5.50089E+01
 1.67887E+00    5.25807E+01
 1.74190E+00    4.86674E+01
 1.74622E+00    4.83991E+01
 1.80000E+00    4.50601E+01
 1.84364E+00    4.31818E+01
 1.85178E+00    4.28315E+01
 1.88677E+00    4.13255E+01
 1.92547E+00    3.96599E+01
 2.00000E+00    3.64521E+01
 2.05465E+00    3.49261E+01
 2.08934E+00    3.39574E+01
 2.20000E+00    3.08674E+01
 2.23440E+00    2.99979E+01
 2.30960E+00    2.80971E+01
 2.40000E+00    2.58121E+01
 2.60000E+00    1.81049E+01
 2.80000E+00    1.15805E+01
 3.00000E+00    7.29705E+00
 3.20000E+00    4.67230E+00
 3.40000E+00    3.05269E+00
 3.60000E+00    2.02770E+00
 3.80000E+00    1.36455E+00
 4.00000E+00    9.28035E-01
 4.20000E+00    6.37011E-01
 4.40000E+00    4.40842E-01
 4.60000E+00    3.07384E-01
 4.80000E+00    2.15734E-01
 5.00000E+00    1.52269E-01
 5.20000E+00    1.07995E-01
 5.40000E+00    7.69556E-02
 5.60000E+00    5.48529E-02
 5.80000E+00    3.93121E-02
 6.00000E+00    2.82903E-02
 6.20000E+00    2.04291E-02
 6.40000E+00    1.48070E-02
 6.60000E+00    1.07437E-02
 6.80000E+00    7.82425E-03
 7.00000E+00    5.70214E-03
 7.20000E+00    4.16573E-03
 7.40000E+00    3.05005E-03
 7.60000E+00    2.23582E-03
 7.80000E+00    1.64698E-03
 8.00000E+00    1.21495E-03
 8.50000E+00    5.77627E-04
 9.00000E+00    2.81245E-04
 9.50000E+00    1.39808E-04
 1.00000E+01    7.04558E-05
 1.05000E+01    3.58839E-05
 1.10000E+01    1.84501E-05
 1.15000E+01    9.56976E-06
 1.20000E+01    5.00680E-06
 1.25000E+01    2.64386E-06
 1.30000E+01    1.41025E-06
 1.35000E+01    7.60117E-07
 1.40000E+01    4.14262E-07
 1.45000E+01    2.28282E-07
 1.50000E+01    1.27221E-07
 1.60000E+01    4.07587E-08
 1.70000E+01    1.35382E-08
 1.80000E+01    4.60762E-09
 1.90000E+01    1.61394E-09
 2.00000E+01    5.77542E-10
 2.10000E+01    2.11209E-10
 2.20000E+01    7.91965E-11
 2.30000E+01    3.04153E-11
 2.40000E+01    1.20061E-11
 2.50000E+01    4.83666E-12
 2.60000E+01    1.98483E-12
 2.70000E+01    8.27514E-13
 2.80000E+01    3.49668E-13
 2.90000E+01    1.49551E-13
 3.00000E+01    6.47599E-14
