# n + Pt190 : (n,n'12)  
# endfb8.0   A.J. Koning and D. Rochman        EVAL-DEC15
# uncertainties: n
# # energies =    81
#   E(MeV)       xs(mb) 
 1.45760E+00    0.00000E+00
 1.47232E+00    3.12346E-01
 1.55119E+00    1.98591E+00
 1.60000E+00    3.02162E+00
 1.60920E+00    3.23331E+00
 1.61051E+00    3.26346E+00
 1.63423E+00    3.80926E+00
 1.63675E+00    3.86724E+00
 1.63976E+00    3.93651E+00
 1.67887E+00    4.83643E+00
 1.74190E+00    6.28677E+00
 1.74622E+00    6.38617E+00
 1.80000E+00    7.62366E+00
 1.84364E+00    8.38523E+00
 1.85178E+00    8.52729E+00
 1.88677E+00    9.13790E+00
 1.92547E+00    9.81326E+00
 2.00000E+00    1.11139E+01
 2.05465E+00    1.17827E+01
 2.08934E+00    1.22072E+01
 2.20000E+00    1.35614E+01
 2.23440E+00    1.37646E+01
 2.30960E+00    1.42086E+01
 2.40000E+00    1.47425E+01
 2.60000E+00    1.26446E+01
 2.80000E+00    9.67583E+00
 3.00000E+00    7.23610E+00
 3.20000E+00    5.46237E+00
 3.40000E+00    4.17170E+00
 3.60000E+00    3.20274E+00
 3.80000E+00    2.45770E+00
 4.00000E+00    1.87742E+00
 4.20000E+00    1.42547E+00
 4.40000E+00    1.07606E+00
 4.60000E+00    8.08915E-01
 4.80000E+00    6.06430E-01
 5.00000E+00    4.53872E-01
 5.20000E+00    3.39240E-01
 5.40000E+00    2.53205E-01
 5.60000E+00    1.87948E-01
 5.80000E+00    1.39524E-01
 6.00000E+00    1.03538E-01
 6.20000E+00    7.67946E-02
 6.40000E+00    5.70070E-02
 6.60000E+00    4.22833E-02
 6.80000E+00    3.14333E-02
 7.00000E+00    2.33640E-02
 7.20000E+00    1.73899E-02
 7.40000E+00    1.29646E-02
 7.60000E+00    9.66844E-03
 7.80000E+00    7.23948E-03
 8.00000E+00    5.42357E-03
 8.50000E+00    2.66980E-03
 9.00000E+00    1.33888E-03
 9.50000E+00    6.82616E-04
 1.00000E+01    3.51926E-04
 1.05000E+01    1.83192E-04
 1.10000E+01    9.62747E-05
 1.15000E+01    5.10659E-05
 1.20000E+01    2.73328E-05
 1.25000E+01    1.47675E-05
 1.30000E+01    8.05733E-06
 1.35000E+01    4.43930E-06
 1.40000E+01    2.47045E-06
 1.45000E+01    1.38806E-06
 1.50000E+01    7.87374E-07
 1.60000E+01    2.59949E-07
 1.70000E+01    8.84546E-08
 1.80000E+01    3.07309E-08
 1.90000E+01    1.09697E-08
 2.00000E+01    3.99709E-09
 2.10000E+01    1.48675E-09
 2.20000E+01    5.65928E-10
 2.30000E+01    2.20071E-10
 2.40000E+01    8.77214E-11
 2.50000E+01    3.55981E-11
 2.60000E+01    1.46921E-11
 2.70000E+01    6.15818E-12
 2.80000E+01    2.61794E-12
 2.90000E+01    1.12769E-12
 3.00000E+01    4.92155E-13
