# n + Dy158 : (n,xn)    
# jeff3.3    A.J. Koning and D. Rochman        EVAL-DEC15
# 
# # energies =   134
#   E(MeV)        xs(mb) 
 9.95498E-02    2.00000E-17
 1.00000E-01    7.11411E-02
 2.00000E-01    4.63943E+02
 3.00000E-01    7.19983E+02
 3.19165E-01    7.59087E+02
 4.00000E-01    9.33013E+02
 5.00000E-01    1.12208E+03
 6.00000E-01    1.28875E+03
 6.41785E-01    1.34818E+03
 7.00000E-01    1.43100E+03
 8.00000E-01    1.54673E+03
 9.00000E-01    1.63569E+03
 9.52364E-01    1.59687E+03
 9.96857E-01    1.78316E+03
 1.00000E+00    1.83507E+03
 1.05056E+00    1.82710E+03
 1.07189E+00    1.82373E+03
 1.09251E+00    1.84255E+03
 1.17118E+00    2.07663E+03
 1.20000E+00    2.16968E+03
 1.27711E+00    2.14649E+03
 1.28818E+00    2.14897E+03
 1.32318E+00    2.16210E+03
 1.37070E+00    2.18425E+03
 1.38049E+00    2.22130E+03
 1.40000E+00    2.32367E+03
 1.40609E+00    2.31818E+03
 1.45096E+00    2.29311E+03
 1.48643E+00    2.29559E+03
 1.49584E+00    2.29737E+03
 1.51071E+00    2.30021E+03
 1.52321E+00    2.30801E+03
 1.52815E+00    2.31708E+03
 1.52981E+00    2.32054E+03
 1.53783E+00    2.33724E+03
 1.55720E+00    2.37804E+03
 1.56896E+00    2.40282E+03
 1.60000E+00    2.49212E+03
 1.61826E+00    2.47440E+03
 1.62888E+00    2.46920E+03
 1.64498E+00    2.46675E+03
 1.68232E+00    2.47434E+03
 1.68654E+00    2.47637E+03
 1.80000E+00    2.62561E+03
 2.00000E+00    2.65786E+03
 2.20000E+00    2.67998E+03
 2.40000E+00    2.70414E+03
 2.60000E+00    2.72860E+03
 2.80000E+00    2.75615E+03
 3.00000E+00    2.78480E+03
 3.20000E+00    2.87824E+03
 3.40000E+00    2.89532E+03
 3.60000E+00    2.90389E+03
 3.80000E+00    2.90333E+03
 4.00000E+00    2.89706E+03
 4.20000E+00    2.88636E+03
 4.40000E+00    2.87287E+03
 4.60000E+00    2.85831E+03
 4.80000E+00    2.84347E+03
 5.00000E+00    2.82936E+03
 5.20000E+00    2.81623E+03
 5.40000E+00    2.80462E+03
 5.60000E+00    2.79405E+03
 5.80000E+00    2.78483E+03
 6.00000E+00    2.77663E+03
 6.20000E+00    2.76909E+03
 6.40000E+00    2.76213E+03
 6.60000E+00    2.75545E+03
 6.80000E+00    2.74887E+03
 7.00000E+00    2.74226E+03
 7.20000E+00    2.73542E+03
 7.40000E+00    2.72838E+03
 7.60000E+00    2.72106E+03
 7.80000E+00    2.71349E+03
 8.00000E+00    2.70567E+03
 8.50000E+00    2.68534E+03
 9.00000E+00    2.66460E+03
 9.50000E+00    2.78338E+03
 1.00000E+01    3.15051E+03
 1.05000E+01    3.53758E+03
 1.10000E+01    3.87777E+03
 1.15000E+01    4.11100E+03
 1.20000E+01    4.26731E+03
 1.25000E+01    4.37226E+03
 1.30000E+01    4.44256E+03
 1.35000E+01    4.48796E+03
 1.40000E+01    4.51616E+03
 1.45000E+01    4.53158E+03
 1.50000E+01    4.53737E+03
 1.60000E+01    4.53127E+03
 1.70000E+01    4.52467E+03
 1.80000E+01    4.59769E+03
 1.90000E+01    4.77218E+03
 2.00000E+01    5.02468E+03
 2.10000E+01    5.28006E+03
 2.20000E+01    5.48578E+03
 2.30000E+01    5.64276E+03
 2.40000E+01    5.74149E+03
 2.50000E+01    5.79465E+03
 2.60000E+01    5.81704E+03
 2.70000E+01    5.83426E+03
 2.80000E+01    5.88816E+03
 2.90000E+01    5.99777E+03
 3.00000E+01    6.15349E+03
 3.00000E+01    6.15593E+03
 3.20000E+01    6.48436E+03
 3.40000E+01    6.71642E+03
 3.60000E+01    6.84983E+03
 3.80000E+01    7.00954E+03
 4.00000E+01    7.22014E+03
 4.20000E+01    7.43192E+03
 4.40000E+01    7.59502E+03
 4.60000E+01    7.71502E+03
 4.80000E+01    7.84491E+03
 5.00000E+01    7.99810E+03
 5.20000E+01    8.16105E+03
 5.40000E+01    8.31370E+03
 5.60000E+01    8.47489E+03
 5.80000E+01    8.64123E+03
 6.00000E+01    8.80365E+03
 6.50000E+01    9.14803E+03
 7.00000E+01    9.46203E+03
 7.50000E+01    9.75410E+03
 8.00000E+01    1.00440E+04
 9.00000E+01    1.06347E+04
 1.00000E+02    1.12073E+04
 1.10000E+02    1.17591E+04
 1.20000E+02    1.23131E+04
 1.30000E+02    1.28663E+04
 1.40000E+02    1.34295E+04
 1.50000E+02    1.40602E+04
 1.60000E+02    1.47441E+04
 1.80000E+02    1.59903E+04
 2.00000E+02    1.61655E+04
