# n + Dy158 : (n,n'07)  
# jeff3.3    A.J. Koning and D. Rochman        EVAL-DEC15
# uncertainties: n
# # energies =    88
#   E(MeV)       xs(mb) 
 1.07189E+00    0.00000E+00
 1.09251E+00    2.20670E+01
 1.17118E+00    1.06258E+02
 1.20000E+00    1.37100E+02
 1.27711E+00    1.47456E+02
 1.28818E+00    1.48942E+02
 1.32318E+00    1.53643E+02
 1.37070E+00    1.60024E+02
 1.38049E+00    1.61339E+02
 1.40000E+00    1.63959E+02
 1.40609E+00    1.63728E+02
 1.45096E+00    1.62024E+02
 1.48643E+00    1.60677E+02
 1.49584E+00    1.60320E+02
 1.51071E+00    1.59755E+02
 1.52321E+00    1.59280E+02
 1.52815E+00    1.59092E+02
 1.52981E+00    1.59029E+02
 1.53783E+00    1.58725E+02
 1.55720E+00    1.57989E+02
 1.56896E+00    1.57543E+02
 1.60000E+00    1.56364E+02
 1.61826E+00    1.55091E+02
 1.62888E+00    1.54351E+02
 1.64498E+00    1.53229E+02
 1.68232E+00    1.50627E+02
 1.68654E+00    1.50333E+02
 1.80000E+00    1.42426E+02
 2.00000E+00    1.27210E+02
 2.20000E+00    1.07348E+02
 2.40000E+00    8.59850E+01
 2.60000E+00    6.55841E+01
 2.80000E+00    4.78693E+01
 3.00000E+00    3.37300E+01
 3.20000E+00    2.39005E+01
 3.40000E+00    1.61836E+01
 3.60000E+00    1.08841E+01
 3.80000E+00    7.31196E+00
 4.00000E+00    4.97482E+00
 4.20000E+00    3.41817E+00
 4.40000E+00    2.31919E+00
 4.60000E+00    1.58438E+00
 4.80000E+00    1.08791E+00
 5.00000E+00    7.50754E-01
 5.20000E+00    5.20907E-01
 5.40000E+00    3.63498E-01
 5.60000E+00    2.55015E-01
 5.80000E+00    1.80083E-01
 6.00000E+00    1.27294E-01
 6.20000E+00    9.07369E-02
 6.40000E+00    6.49921E-02
 6.60000E+00    4.68233E-02
 6.80000E+00    3.39492E-02
 7.00000E+00    2.47589E-02
 7.20000E+00    1.81681E-02
 7.40000E+00    1.34007E-02
 7.60000E+00    9.93717E-03
 7.80000E+00    7.40486E-03
 8.00000E+00    5.54051E-03
 8.50000E+00    2.73186E-03
 9.00000E+00    1.37922E-03
 9.50000E+00    7.10088E-04
 1.00000E+01    3.70245E-04
 1.05000E+01    1.95171E-04
 1.10000E+01    1.04051E-04
 1.15000E+01    5.61432E-05
 1.20000E+01    3.06827E-05
 1.25000E+01    1.69692E-05
 1.30000E+01    9.49542E-06
 1.35000E+01    5.37375E-06
 1.40000E+01    3.07665E-06
 1.45000E+01    1.77847E-06
 1.50000E+01    1.03890E-06
 1.60000E+01    3.64090E-07
 1.70000E+01    1.31910E-07
 1.80000E+01    4.91980E-08
 1.90000E+01    1.87860E-08
 2.00000E+01    7.39450E-09
 2.10000E+01    2.98440E-09
 2.20000E+01    1.23030E-09
 2.30000E+01    5.21130E-10
 2.40000E+01    2.25020E-10
 2.50000E+01    9.89600E-11
 2.60000E+01    4.42780E-11
 2.70000E+01    2.00630E-11
 2.80000E+01    9.21780E-12
 2.90000E+01    4.30640E-12
 3.00000E+01    2.03700E-12
