# n + Dy158 : (n,n'05)  
# jeff3.3    A.J. Koning and D. Rochman        EVAL-DEC15
# uncertainties: n
# # energies =    91
#   E(MeV)       xs(mb) 
 9.96857E-01    0.00000E+00
 1.00000E+00    3.87534E+01
 1.05056E+00    6.01045E+01
 1.07189E+00    6.91120E+01
 1.09251E+00    7.78197E+01
 1.17118E+00    1.11042E+02
 1.20000E+00    1.23212E+02
 1.27711E+00    1.18566E+02
 1.28818E+00    1.17899E+02
 1.32318E+00    1.15790E+02
 1.37070E+00    1.12927E+02
 1.38049E+00    1.12338E+02
 1.40000E+00    1.11162E+02
 1.40609E+00    1.10573E+02
 1.45096E+00    1.06233E+02
 1.48643E+00    1.02803E+02
 1.49584E+00    1.01893E+02
 1.51071E+00    1.00455E+02
 1.52321E+00    9.92457E+01
 1.52815E+00    9.87679E+01
 1.52981E+00    9.86074E+01
 1.53783E+00    9.78317E+01
 1.55720E+00    9.59583E+01
 1.56896E+00    9.48210E+01
 1.60000E+00    9.18189E+01
 1.61826E+00    8.99387E+01
 1.62888E+00    8.88453E+01
 1.64498E+00    8.71875E+01
 1.68232E+00    8.33428E+01
 1.68654E+00    8.29082E+01
 1.80000E+00    7.12257E+01
 2.00000E+00    5.72064E+01
 2.20000E+00    4.43272E+01
 2.40000E+00    3.29717E+01
 2.60000E+00    2.35196E+01
 2.80000E+00    1.61465E+01
 3.00000E+00    1.07620E+01
 3.20000E+00    7.11642E+00
 3.40000E+00    4.62660E+00
 3.60000E+00    3.00748E+00
 3.80000E+00    1.96399E+00
 4.00000E+00    1.31288E+00
 4.20000E+00    8.73904E-01
 4.40000E+00    5.84136E-01
 4.60000E+00    3.93304E-01
 4.80000E+00    2.66580E-01
 5.00000E+00    1.81786E-01
 5.20000E+00    1.24731E-01
 5.40000E+00    8.61102E-02
 5.60000E+00    5.97993E-02
 5.80000E+00    4.18110E-02
 6.00000E+00    2.92749E-02
 6.20000E+00    2.06852E-02
 6.40000E+00    1.46916E-02
 6.60000E+00    1.05032E-02
 6.80000E+00    7.56042E-03
 7.00000E+00    5.47722E-03
 7.20000E+00    3.99477E-03
 7.40000E+00    2.92977E-03
 7.60000E+00    2.16108E-03
 7.80000E+00    1.60224E-03
 8.00000E+00    1.19307E-03
 8.50000E+00    5.81442E-04
 9.00000E+00    2.90129E-04
 9.50000E+00    1.47560E-04
 1.00000E+01    7.59657E-05
 1.05000E+01    3.95280E-05
 1.10000E+01    2.08043E-05
 1.15000E+01    1.10878E-05
 1.20000E+01    5.98998E-06
 1.25000E+01    3.27791E-06
 1.30000E+01    1.81680E-06
 1.35000E+01    1.01946E-06
 1.40000E+01    5.79260E-07
 1.45000E+01    3.32570E-07
 1.50000E+01    1.93090E-07
 1.60000E+01    6.69590E-08
 1.70000E+01    2.40490E-08
 1.80000E+01    8.90410E-09
 1.90000E+01    3.37860E-09
 2.00000E+01    1.32220E-09
 2.10000E+01    5.30710E-10
 2.20000E+01    2.17670E-10
 2.30000E+01    9.17800E-11
 2.40000E+01    3.94800E-11
 2.50000E+01    1.73110E-11
 2.60000E+01    7.72740E-12
 2.70000E+01    3.49390E-12
 2.80000E+01    1.60160E-12
 2.90000E+01    7.46260E-13
 3.00000E+01    3.51950E-13
