# n + Dy158 : (n,n'06)  
# jeff3.3    A.J. Koning and D. Rochman        EVAL-DEC15
# uncertainties: n
# # energies =    89
#   E(MeV)       xs(mb) 
 1.05056E+00    0.00000E+00
 1.07189E+00    1.01928E-04
 1.09251E+00    2.00463E-04
 1.17118E+00    5.76398E-04
 1.20000E+00    7.14118E-04
 1.27711E+00    3.85598E-03
 1.28818E+00    4.30703E-03
 1.32318E+00    5.73312E-03
 1.37070E+00    7.66934E-03
 1.38049E+00    8.06823E-03
 1.40000E+00    8.86317E-03
 1.40609E+00    9.55607E-03
 1.45096E+00    1.46612E-02
 1.48643E+00    1.86968E-02
 1.49584E+00    1.97674E-02
 1.51071E+00    2.14593E-02
 1.52321E+00    2.28815E-02
 1.52815E+00    2.34435E-02
 1.52981E+00    2.36324E-02
 1.53783E+00    2.45449E-02
 1.55720E+00    2.67487E-02
 1.56896E+00    2.80867E-02
 1.60000E+00    3.16183E-02
 1.61826E+00    3.62599E-02
 1.62888E+00    3.89594E-02
 1.64498E+00    4.30518E-02
 1.68232E+00    5.25434E-02
 1.68654E+00    5.36161E-02
 1.80000E+00    8.24567E-02
 2.00000E+00    1.71019E-01
 2.20000E+00    2.96356E-01
 2.40000E+00    4.44818E-01
 2.60000E+00    5.89331E-01
 2.80000E+00    6.99662E-01
 3.00000E+00    7.57509E-01
 3.20000E+00    8.04322E-01
 3.40000E+00    7.64756E-01
 3.60000E+00    7.00825E-01
 3.80000E+00    6.28156E-01
 4.00000E+00    5.71511E-01
 4.20000E+00    5.15749E-01
 4.40000E+00    4.59219E-01
 4.60000E+00    4.18640E-01
 4.80000E+00    3.91944E-01
 5.00000E+00    3.77878E-01
 5.20000E+00    3.75041E-01
 5.40000E+00    3.81990E-01
 5.60000E+00    3.97373E-01
 5.80000E+00    4.20026E-01
 6.00000E+00    4.48502E-01
 6.20000E+00    4.81813E-01
 6.40000E+00    5.18484E-01
 6.60000E+00    5.57118E-01
 6.80000E+00    5.96265E-01
 7.00000E+00    6.34524E-01
 7.20000E+00    6.70611E-01
 7.40000E+00    7.03451E-01
 7.60000E+00    7.32244E-01
 7.80000E+00    7.56477E-01
 8.00000E+00    7.75926E-01
 8.50000E+00    8.04353E-01
 9.00000E+00    8.08687E-01
 9.50000E+00    7.96892E-01
 1.00000E+01    7.76457E-01
 1.05000E+01    7.52960E-01
 1.10000E+01    7.29836E-01
 1.15000E+01    7.08714E-01
 1.20000E+01    6.89930E-01
 1.25000E+01    6.73092E-01
 1.30000E+01    6.57555E-01
 1.35000E+01    6.42759E-01
 1.40000E+01    6.28363E-01
 1.45000E+01    6.14253E-01
 1.50000E+01    6.00471E-01
 1.60000E+01    5.74400E-01
 1.70000E+01    5.51402E-01
 1.80000E+01    5.32476E-01
 1.90000E+01    5.17719E-01
 2.00000E+01    5.06351E-01
 2.10000E+01    4.97241E-01
 2.20000E+01    4.89209E-01
 2.30000E+01    4.80979E-01
 2.40000E+01    4.71377E-01
 2.50000E+01    4.59928E-01
 2.60000E+01    4.47148E-01
 2.70000E+01    4.34130E-01
 2.80000E+01    4.21883E-01
 2.90000E+01    4.10966E-01
 3.00000E+01    4.01431E-01
