# n + Dy158 : (n,n'21)  
# jeff3.3    A.J. Koning and D. Rochman        EVAL-DEC15
# uncertainties: n
# # energies =    72
#   E(MeV)       xs(mb) 
 1.52815E+00    0.00000E+00
 1.52981E+00    4.11155E-01
 1.53783E+00    2.39760E+00
 1.55720E+00    7.19525E+00
 1.56896E+00    1.01080E+01
 1.60000E+00    1.77962E+01
 1.61826E+00    1.87673E+01
 1.62888E+00    1.93321E+01
 1.64498E+00    2.01884E+01
 1.68232E+00    2.21743E+01
 1.68654E+00    2.23987E+01
 1.80000E+00    2.84329E+01
 2.00000E+00    3.31752E+01
 2.20000E+00    3.42675E+01
 2.40000E+00    3.18733E+01
 2.60000E+00    2.71733E+01
 2.80000E+00    2.16449E+01
 3.00000E+00    1.63912E+01
 3.20000E+00    1.22967E+01
 3.40000E+00    8.78441E+00
 3.60000E+00    6.19248E+00
 3.80000E+00    4.33859E+00
 4.00000E+00    3.03809E+00
 4.20000E+00    2.13204E+00
 4.40000E+00    1.50714E+00
 4.60000E+00    1.08499E+00
 4.80000E+00    7.70303E-01
 5.00000E+00    5.49715E-01
 5.20000E+00    3.93737E-01
 5.40000E+00    2.83097E-01
 5.60000E+00    2.04277E-01
 5.80000E+00    1.48057E-01
 6.00000E+00    1.07216E-01
 6.20000E+00    7.81589E-02
 6.40000E+00    5.71413E-02
 6.60000E+00    4.19487E-02
 6.80000E+00    3.09406E-02
 7.00000E+00    2.29182E-02
 7.20000E+00    1.70577E-02
 7.40000E+00    1.27443E-02
 7.60000E+00    9.56106E-03
 7.80000E+00    7.20015E-03
 8.00000E+00    5.43902E-03
 8.50000E+00    2.73643E-03
 9.00000E+00    1.40368E-03
 9.50000E+00    7.31967E-04
 1.00000E+01    3.85689E-04
 1.05000E+01    2.05130E-04
 1.10000E+01    1.10209E-04
 1.15000E+01    5.98785E-05
 1.20000E+01    3.29308E-05
 1.25000E+01    1.83192E-05
 1.30000E+01    1.03073E-05
 1.35000E+01    5.86399E-06
 1.40000E+01    3.37456E-06
 1.45000E+01    1.96050E-06
 1.50000E+01    1.15089E-06
 1.60000E+01    4.07130E-07
 1.70000E+01    1.48720E-07
 1.80000E+01    5.58490E-08
 1.90000E+01    2.14440E-08
 2.00000E+01    8.47880E-09
 2.10000E+01    3.43540E-09
 2.20000E+01    1.42120E-09
 2.30000E+01    6.03980E-10
 2.40000E+01    2.61590E-10
 2.50000E+01    1.15370E-10
 2.60000E+01    5.17580E-11
 2.70000E+01    2.35090E-11
 2.80000E+01    1.08250E-11
 2.90000E+01    5.06740E-12
 3.00000E+01    2.40130E-12
