# n + Dy158 : (n,n'09)  
# jeff3.3    A.J. Koning and D. Rochman        EVAL-DEC15
# uncertainties: n
# # energies =    86
#   E(MeV)       xs(mb) 
 1.17118E+00    0.00000E+00
 1.20000E+00    7.30086E+00
 1.27711E+00    1.70116E+01
 1.28818E+00    1.84056E+01
 1.32318E+00    2.28133E+01
 1.37070E+00    2.87977E+01
 1.38049E+00    3.00305E+01
 1.40000E+00    3.24875E+01
 1.40609E+00    3.30367E+01
 1.45096E+00    3.70831E+01
 1.48643E+00    4.02819E+01
 1.49584E+00    4.11305E+01
 1.51071E+00    4.24715E+01
 1.52321E+00    4.35988E+01
 1.52815E+00    4.40443E+01
 1.52981E+00    4.41940E+01
 1.53783E+00    4.49172E+01
 1.55720E+00    4.66640E+01
 1.56896E+00    4.77246E+01
 1.60000E+00    5.05238E+01
 1.61826E+00    5.18312E+01
 1.62888E+00    5.25916E+01
 1.64498E+00    5.37444E+01
 1.68232E+00    5.64180E+01
 1.68654E+00    5.67202E+01
 1.80000E+00    6.48440E+01
 2.00000E+00    7.05963E+01
 2.20000E+00    6.76622E+01
 2.40000E+00    5.93531E+01
 2.60000E+00    4.86605E+01
 2.80000E+00    3.78532E+01
 3.00000E+00    2.83829E+01
 3.20000E+00    2.15793E+01
 3.40000E+00    1.57311E+01
 3.60000E+00    1.15600E+01
 3.80000E+00    8.65265E+00
 4.00000E+00    6.64985E+00
 4.20000E+00    5.33334E+00
 4.40000E+00    4.34346E+00
 4.60000E+00    3.64822E+00
 4.80000E+00    3.15598E+00
 5.00000E+00    2.80494E+00
 5.20000E+00    2.55360E+00
 5.40000E+00    2.37350E+00
 5.60000E+00    2.24491E+00
 5.80000E+00    2.15422E+00
 6.00000E+00    2.09096E+00
 6.20000E+00    2.04899E+00
 6.40000E+00    2.02226E+00
 6.60000E+00    2.00632E+00
 6.80000E+00    1.99745E+00
 7.00000E+00    1.99254E+00
 7.20000E+00    1.98900E+00
 7.40000E+00    1.98477E+00
 7.60000E+00    1.97836E+00
 7.80000E+00    1.96879E+00
 8.00000E+00    1.95550E+00
 8.50000E+00    1.90600E+00
 9.00000E+00    1.83782E+00
 9.50000E+00    1.75945E+00
 1.00000E+01    1.67880E+00
 1.05000E+01    1.60147E+00
 1.10000E+01    1.53053E+00
 1.15000E+01    1.46696E+00
 1.20000E+01    1.41007E+00
 1.25000E+01    1.35841E+00
 1.30000E+01    1.31027E+00
 1.35000E+01    1.26433E+00
 1.40000E+01    1.21977E+00
 1.45000E+01    1.17641E+00
 1.50000E+01    1.13443E+00
 1.60000E+01    1.05617E+00
 1.70000E+01    9.88257E-01
 1.80000E+01    9.32581E-01
 1.90000E+01    8.88689E-01
 2.00000E+01    8.54216E-01
 2.10000E+01    8.26231E-01
 2.20000E+01    8.02165E-01
 2.30000E+01    7.79750E-01
 2.40000E+01    7.57098E-01
 2.50000E+01    7.33369E-01
 2.60000E+01    7.09212E-01
 2.70000E+01    6.86155E-01
 2.80000E+01    6.65584E-01
 2.90000E+01    6.48153E-01
 3.00000E+01    6.33711E-01
