# n + Dy158 : (n,xp)    
# jeff3.3    A.J. Koning and D. Rochman        EVAL-DEC15
# 
# # energies =   134
#   E(MeV)        xs(mb) 
 9.95498E-02    0.00000E+00
 1.00000E-01    0.00000E+00
 2.00000E-01    6.21223E-16
 3.00000E-01    1.99710E-15
 3.19165E-01    2.26084E-15
 4.00000E-01    3.37379E-15
 5.00000E-01    4.75060E-15
 6.00000E-01    6.12741E-15
 6.41785E-01    6.70271E-15
 7.00000E-01    7.50422E-15
 8.00000E-01    8.88103E-15
 9.00000E-01    1.02578E-14
 9.52364E-01    1.09788E-14
 9.96857E-01    1.15914E-14
 1.00000E+00    1.16346E-14
 1.05056E+00    1.23308E-14
 1.07189E+00    1.26244E-14
 1.09251E+00    1.29083E-14
 1.17118E+00    1.39915E-14
 1.20000E+00    1.43883E-14
 1.27711E+00    7.15866E-13
 1.28818E+00    8.16571E-13
 1.32318E+00    1.13497E-12
 1.37070E+00    1.56726E-12
 1.38049E+00    1.65633E-12
 1.40000E+00    1.83381E-12
 1.40609E+00    3.87523E-12
 1.45096E+00    1.89159E-11
 1.48643E+00    3.08057E-11
 1.49584E+00    3.39599E-11
 1.51071E+00    3.89445E-11
 1.52321E+00    4.31346E-11
 1.52815E+00    4.47904E-11
 1.52981E+00    4.53469E-11
 1.53783E+00    4.80353E-11
 1.55720E+00    5.45282E-11
 1.56896E+00    5.84702E-11
 1.60000E+00    6.88750E-11
 1.61826E+00    1.83066E-10
 1.62888E+00    2.49480E-10
 1.64498E+00    3.50163E-10
 1.68232E+00    5.83673E-10
 1.68654E+00    6.10064E-10
 1.80000E+00    1.31960E-09
 2.00000E+00    1.58820E-08
 2.20000E+00    1.31700E-07
 2.40000E+00    8.01680E-07
 2.60000E+00    3.50764E-06
 2.80000E+00    1.20291E-05
 3.00000E+00    3.41637E-05
 3.20000E+00    8.56002E-05
 3.40000E+00    1.84310E-04
 3.60000E+00    3.58803E-04
 3.80000E+00    6.43621E-04
 4.00000E+00    1.07962E-03
 4.20000E+00    1.71524E-03
 4.40000E+00    2.64741E-03
 4.60000E+00    3.91454E-03
 4.80000E+00    5.51019E-03
 5.00000E+00    7.59789E-03
 5.20000E+00    1.02565E-02
 5.40000E+00    1.33593E-02
 5.60000E+00    1.73962E-02
 5.80000E+00    2.20276E-02
 6.00000E+00    2.71393E-02
 6.20000E+00    3.44530E-02
 6.40000E+00    4.14177E-02
 6.60000E+00    5.12939E-02
 6.80000E+00    6.20411E-02
 7.00000E+00    7.24044E-02
 7.20000E+00    9.15238E-02
 7.40000E+00    1.05675E-01
 7.60000E+00    1.29281E-01
 7.80000E+00    1.54472E-01
 8.00000E+00    1.74898E-01
 8.50000E+00    2.66047E-01
 9.00000E+00    3.98894E-01
 9.50000E+00    5.85055E-01
 1.00000E+01    8.33119E-01
 1.05000E+01    1.15291E+00
 1.10000E+01    1.54748E+00
 1.15000E+01    2.02368E+00
 1.20000E+01    2.58228E+00
 1.25000E+01    3.23202E+00
 1.30000E+01    3.96162E+00
 1.35000E+01    4.79479E+00
 1.40000E+01    5.70576E+00
 1.45000E+01    6.72253E+00
 1.50000E+01    7.82231E+00
 1.60000E+01    1.02955E+01
 1.70000E+01    1.31044E+01
 1.80000E+01    1.61878E+01
 1.90000E+01    1.99299E+01
 2.00000E+01    2.40813E+01
 2.10000E+01    2.83738E+01
 2.20000E+01    3.26999E+01
 2.30000E+01    3.72944E+01
 2.40000E+01    4.20965E+01
 2.50000E+01    4.70319E+01
 2.60000E+01    5.20334E+01
 2.70000E+01    5.70841E+01
 2.80000E+01    6.21712E+01
 2.90000E+01    6.72852E+01
 3.00000E+01    7.24331E+01
 3.00000E+01    7.24357E+01
 3.20000E+01    8.28994E+01
 3.40000E+01    9.34597E+01
 3.60000E+01    1.04946E+02
 3.80000E+01    1.15786E+02
 4.00000E+01    1.26698E+02
 4.20000E+01    1.38247E+02
 4.40000E+01    1.49578E+02
 4.60000E+01    1.61438E+02
 4.80000E+01    1.72910E+02
 5.00000E+01    1.84701E+02
 5.20000E+01    1.97081E+02
 5.40000E+01    2.09935E+02
 5.60000E+01    2.23475E+02
 5.80000E+01    2.37953E+02
 6.00000E+01    2.53320E+02
 6.50000E+01    2.94637E+02
 7.00000E+01    3.37959E+02
 7.50000E+01    3.82149E+02
 8.00000E+01    4.22905E+02
 9.00000E+01    5.14057E+02
 1.00000E+02    6.26080E+02
 1.10000E+02    7.77624E+02
 1.20000E+02    9.47839E+02
 1.30000E+02    1.11006E+03
 1.40000E+02    1.28414E+03
 1.50000E+02    1.52692E+03
 1.60000E+02    1.80931E+03
 1.80000E+02    2.38317E+03
 2.00000E+02    2.94011E+03
