# n + Dy158 : (n,xa)    
# jeff3.3    A.J. Koning and D. Rochman        EVAL-DEC15
# 
# # energies =   134
#   E(MeV)        xs(mb) 
 9.95498E-02    9.31143E-05
 1.00000E-01    9.30412E-05
 2.00000E-01    7.23735E-05
 3.00000E-01    8.44853E-05
 3.19165E-01    8.96803E-05
 4.00000E-01    1.11592E-04
 5.00000E-01    1.46617E-04
 6.00000E-01    1.93625E-04
 6.41785E-01    2.19055E-04
 7.00000E-01    2.54491E-04
 8.00000E-01    3.38832E-04
 9.00000E-01    4.62820E-04
 9.52364E-01    5.15240E-04
 9.96857E-01    5.59781E-04
 1.00000E+00    5.62927E-04
 1.05056E+00    6.15614E-04
 1.07189E+00    6.37983E-04
 1.09251E+00    6.59608E-04
 1.17118E+00    7.42110E-04
 1.20000E+00    7.72334E-04
 1.27711E+00    9.17195E-04
 1.28818E+00    9.37992E-04
 1.32318E+00    1.00374E-03
 1.37070E+00    1.09302E-03
 1.38049E+00    1.11141E-03
 1.40000E+00    1.14806E-03
 1.40609E+00    1.15821E-03
 1.45096E+00    1.23303E-03
 1.48643E+00    1.29216E-03
 1.49584E+00    1.30785E-03
 1.51071E+00    1.33265E-03
 1.52321E+00    1.35349E-03
 1.52815E+00    1.36172E-03
 1.52981E+00    1.36449E-03
 1.53783E+00    1.37786E-03
 1.55720E+00    1.41016E-03
 1.56896E+00    1.42977E-03
 1.60000E+00    1.48152E-03
 1.61826E+00    1.52212E-03
 1.62888E+00    1.54574E-03
 1.64498E+00    1.58154E-03
 1.68232E+00    1.66457E-03
 1.68654E+00    1.67395E-03
 1.80000E+00    1.92624E-03
 2.00000E+00    2.72947E-03
 2.20000E+00    3.75128E-03
 2.40000E+00    5.04979E-03
 2.60000E+00    6.55819E-03
 2.80000E+00    8.12875E-03
 3.00000E+00    9.79726E-03
 3.20000E+00    1.17362E-02
 3.40000E+00    1.33919E-02
 3.60000E+00    1.50476E-02
 3.80000E+00    1.67056E-02
 4.00000E+00    1.84772E-02
 4.20000E+00    2.03260E-02
 4.40000E+00    2.22860E-02
 4.60000E+00    2.44512E-02
 4.80000E+00    2.68141E-02
 5.00000E+00    2.94317E-02
 5.20000E+00    3.24185E-02
 5.40000E+00    3.55400E-02
 5.60000E+00    3.91355E-02
 5.80000E+00    4.31726E-02
 6.00000E+00    4.72668E-02
 6.20000E+00    5.23688E-02
 6.40000E+00    5.74770E-02
 6.60000E+00    6.34072E-02
 6.80000E+00    7.05577E-02
 7.00000E+00    7.81176E-02
 7.20000E+00    8.80293E-02
 7.40000E+00    9.69836E-02
 7.60000E+00    1.08341E-01
 7.80000E+00    1.22989E-01
 8.00000E+00    1.36841E-01
 8.50000E+00    1.85717E-01
 9.00000E+00    2.55826E-01
 9.50000E+00    3.53710E-01
 1.00000E+01    4.84638E-01
 1.05000E+01    6.61666E-01
 1.10000E+01    8.96286E-01
 1.15000E+01    1.19778E+00
 1.20000E+01    1.57763E+00
 1.25000E+01    2.04365E+00
 1.30000E+01    2.58189E+00
 1.35000E+01    3.28515E+00
 1.40000E+01    3.98998E+00
 1.45000E+01    4.86482E+00
 1.50000E+01    5.74616E+00
 1.60000E+01    7.95952E+00
 1.70000E+01    1.07601E+01
 1.80000E+01    1.44656E+01
 1.90000E+01    1.95284E+01
 2.00000E+01    2.55724E+01
 2.10000E+01    2.93688E+01
 2.20000E+01    3.30171E+01
 2.30000E+01    3.18035E+01
 2.40000E+01    3.20282E+01
 2.50000E+01    3.25898E+01
 2.60000E+01    3.34067E+01
 2.70000E+01    3.43598E+01
 2.80000E+01    3.53809E+01
 2.90000E+01    3.64404E+01
 3.00000E+01    3.74982E+01
 3.00000E+01    3.73665E+01
 3.20000E+01    3.92861E+01
 3.40000E+01    4.13080E+01
 3.60000E+01    4.31824E+01
 3.80000E+01    4.49921E+01
 4.00000E+01    4.66541E+01
 4.20000E+01    4.82941E+01
 4.40000E+01    5.00476E+01
 4.60000E+01    5.18247E+01
 4.80000E+01    5.35702E+01
 5.00000E+01    5.53771E+01
 5.20000E+01    5.74854E+01
 5.40000E+01    6.03754E+01
 5.60000E+01    6.41079E+01
 5.80000E+01    6.81386E+01
 6.00000E+01    7.18288E+01
 6.50000E+01    7.99393E+01
 7.00000E+01    8.84134E+01
 7.50000E+01    9.90996E+01
 8.00000E+01    1.11606E+02
 9.00000E+01    1.29602E+02
 1.00000E+02    1.44948E+02
 1.10000E+02    1.61133E+02
 1.20000E+02    1.67314E+02
 1.30000E+02    1.78252E+02
 1.40000E+02    1.96408E+02
 1.50000E+02    2.14616E+02
 1.60000E+02    2.25550E+02
 1.80000E+02    3.07131E+02
 2.00000E+02    4.35955E+02
