# n + Dy158 : (n,n'10)  
# jeff3.3    A.J. Koning and D. Rochman        EVAL-DEC15
# uncertainties: n
# # energies =    84
#   E(MeV)       xs(mb) 
 1.27711E+00    0.00000E+00
 1.28818E+00    5.81655E+00
 1.32318E+00    2.42067E+01
 1.37070E+00    4.91752E+01
 1.38049E+00    5.43192E+01
 1.40000E+00    6.45704E+01
 1.40609E+00    6.44951E+01
 1.45096E+00    6.39400E+01
 1.48643E+00    6.35012E+01
 1.49584E+00    6.33848E+01
 1.51071E+00    6.32008E+01
 1.52321E+00    6.30462E+01
 1.52815E+00    6.29851E+01
 1.52981E+00    6.29645E+01
 1.53783E+00    6.28653E+01
 1.55720E+00    6.26257E+01
 1.56896E+00    6.24802E+01
 1.60000E+00    6.20962E+01
 1.61826E+00    6.11414E+01
 1.62888E+00    6.05861E+01
 1.64498E+00    5.97442E+01
 1.68232E+00    5.77917E+01
 1.68654E+00    5.75710E+01
 1.80000E+00    5.16382E+01
 2.00000E+00    4.47680E+01
 2.20000E+00    3.69836E+01
 2.40000E+00    2.88193E+01
 2.60000E+00    2.12348E+01
 2.80000E+00    1.49004E+01
 3.00000E+00    1.00714E+01
 3.20000E+00    6.70659E+00
 3.40000E+00    4.37777E+00
 3.60000E+00    2.84986E+00
 3.80000E+00    1.86152E+00
 4.00000E+00    1.22535E+00
 4.20000E+00    8.19776E-01
 4.40000E+00    5.56739E-01
 4.60000E+00    3.75489E-01
 4.80000E+00    2.55519E-01
 5.00000E+00    1.74923E-01
 5.20000E+00    1.20447E-01
 5.40000E+00    8.34170E-02
 5.60000E+00    5.80888E-02
 5.80000E+00    4.06977E-02
 6.00000E+00    2.85522E-02
 6.20000E+00    2.02000E-02
 6.40000E+00    1.43601E-02
 6.60000E+00    1.02748E-02
 6.80000E+00    7.39868E-03
 7.00000E+00    5.36243E-03
 7.20000E+00    3.91220E-03
 7.40000E+00    2.86993E-03
 7.60000E+00    2.11755E-03
 7.80000E+00    1.57050E-03
 8.00000E+00    1.16983E-03
 8.50000E+00    5.70760E-04
 9.00000E+00    2.85180E-04
 9.50000E+00    1.45246E-04
 1.00000E+01    7.48704E-05
 1.05000E+01    3.90008E-05
 1.10000E+01    2.05451E-05
 1.15000E+01    1.09572E-05
 1.20000E+01    5.92247E-06
 1.25000E+01    3.24217E-06
 1.30000E+01    1.79749E-06
 1.35000E+01    1.00887E-06
 1.40000E+01    5.73390E-07
 1.45000E+01    3.29300E-07
 1.50000E+01    1.91260E-07
 1.60000E+01    6.63720E-08
 1.70000E+01    2.38550E-08
 1.80000E+01    8.83830E-09
 1.90000E+01    3.35550E-09
 2.00000E+01    1.31380E-09
 2.10000E+01    5.27520E-10
 2.20000E+01    2.16410E-10
 2.30000E+01    9.12600E-11
 2.40000E+01    3.92580E-11
 2.50000E+01    1.72160E-11
 2.60000E+01    7.68590E-12
 2.70000E+01    3.47620E-12
 2.80000E+01    1.59410E-12
 2.90000E+01    7.43000E-13
 3.00000E+01    3.50510E-13
