# n + Sm148 : (n,xp)    
# jendl.ad   N.Iwamoto                         EVAL-Apr14
# 
# # energies =   110
#   E(MeV)        xs(mb) 
 1.05000E-01    0.00000E+00
 1.10000E-01    0.00000E+00
 1.20000E-01    0.00000E+00
 1.30000E-01    0.00000E+00
 1.40000E-01    0.00000E+00
 1.50000E-01    0.00000E+00
 1.60000E-01    0.00000E+00
 1.70000E-01    0.00000E+00
 1.80000E-01    0.00000E+00
 1.90000E-01    0.00000E+00
 2.00000E-01    0.00000E+00
 2.25000E-01    0.00000E+00
 2.50000E-01    0.00000E+00
 2.75000E-01    0.00000E+00
 3.00000E-01    0.00000E+00
 4.00000E-01    0.00000E+00
 5.00000E-01    0.00000E+00
 5.54007E-01    0.00000E+00
 6.00000E-01    0.00000E+00
 7.00000E-01    0.00000E+00
 8.00000E-01    0.00000E+00
 9.00000E-01    0.00000E+00
 1.00000E+00    0.00000E+00
 1.10000E+00    0.00000E+00
 1.16945E+00    0.00000E+00
 1.18831E+00    0.00000E+00
 1.20000E+00    0.00000E+00
 1.30000E+00    0.00000E+00
 1.40000E+00    0.00000E+00
 1.43417E+00    0.00000E+00
 1.44378E+00    0.00000E+00
 1.46403E+00    0.00000E+00
 1.47106E+00    0.00000E+00
 1.47513E+00    0.00000E+00
 1.50000E+00    0.00000E+00
 1.60000E+00    0.00000E+00
 1.60512E+00    0.00000E+00
 1.67072E+00    0.00000E+00
 1.67563E+00    0.00000E+00
 1.70000E+00    1.14472E-17
 1.72951E+00    6.04026E-16
 1.74528E+00    9.20700E-16
 1.80000E+00    2.01951E-15
 1.90000E+00    7.20504E-15
 1.90774E+00    7.75886E-15
 1.91675E+00    8.40356E-15
 1.91891E+00    8.55813E-15
 1.93407E+00    9.64288E-15
 1.98593E+00    1.33537E-14
 2.00000E+00    1.43604E-14
 2.04525E+00    1.75983E-14
 2.05492E+00    1.82902E-14
 2.07199E+00    1.95116E-14
 2.10988E+00    2.22228E-14
 2.12545E+00    2.33369E-14
 2.14316E+00    2.46041E-14
 2.15711E+00    2.56023E-14
 2.16099E+00    2.58799E-14
 2.16214E+00    2.59622E-14
 2.20902E+00    2.93167E-14
 2.22003E+00    3.01045E-14
 2.22391E+00    3.03821E-14
 2.22932E+00    3.07692E-14
 2.24323E+00    3.17645E-14
 2.25000E+00    3.22490E-14
 2.29253E+00    3.52922E-14
 2.29999E+00    3.58259E-14
 2.32935E+00    3.79268E-14
 2.33431E+00    3.82817E-14
 2.34296E+00    3.89006E-14
 2.34349E+00    3.89385E-14
 2.35516E+00    3.97736E-14
 2.35998E+00    4.01185E-14
 2.50000E+00    5.01375E-14
 2.75000E+00    6.80260E-14
 3.00000E+00    6.66080E-12
 3.50000E+00    1.09190E-08
 4.00000E+00    1.11970E-06
 4.50000E+00    2.53460E-05
 5.00000E+00    2.26680E-04
 5.50000E+00    1.11677E-03
 6.00000E+00    3.74216E-03
 6.50000E+00    9.80567E-03
 7.00000E+00    2.22642E-02
 7.50000E+00    4.67831E-02
 8.00000E+00    9.33790E-02
 8.50000E+00    1.77382E-01
 9.00000E+00    3.19764E-01
 9.50000E+00    5.47198E-01
 1.00000E+01    8.91746E-01
 1.05000E+01    1.39025E+00
 1.10000E+01    2.08235E+00
 1.15000E+01    3.00747E+00
 1.20000E+01    4.19394E+00
 1.25000E+01    5.67651E+00
 1.30000E+01    7.46267E+00
 1.35000E+01    9.55166E+00
 1.40000E+01    1.19335E+01
 1.45000E+01    1.45911E+01
 1.50000E+01    1.75050E+01
 1.55000E+01    2.06467E+01
 1.60000E+01    2.40022E+01
 1.65000E+01    2.75506E+01
 1.70000E+01    3.12716E+01
 1.75000E+01    3.51489E+01
 1.80000E+01    3.91561E+01
 1.85000E+01    4.32939E+01
 1.90000E+01    4.74573E+01
 1.95000E+01    5.18424E+01
 2.00000E+01    5.63050E+01
