# n + Sm148 : (n,xd)    
# jendl.ad   N.Iwamoto                         EVAL-Apr14
# 
# # energies =   110
#   E(MeV)        xs(mb) 
 1.05000E-01    0.00000E+00
 1.10000E-01    0.00000E+00
 1.20000E-01    0.00000E+00
 1.30000E-01    0.00000E+00
 1.40000E-01    0.00000E+00
 1.50000E-01    0.00000E+00
 1.60000E-01    0.00000E+00
 1.70000E-01    0.00000E+00
 1.80000E-01    0.00000E+00
 1.90000E-01    0.00000E+00
 2.00000E-01    0.00000E+00
 2.25000E-01    0.00000E+00
 2.50000E-01    0.00000E+00
 2.75000E-01    0.00000E+00
 3.00000E-01    0.00000E+00
 4.00000E-01    0.00000E+00
 5.00000E-01    0.00000E+00
 5.54007E-01    0.00000E+00
 6.00000E-01    0.00000E+00
 7.00000E-01    0.00000E+00
 8.00000E-01    0.00000E+00
 9.00000E-01    0.00000E+00
 1.00000E+00    0.00000E+00
 1.10000E+00    0.00000E+00
 1.16945E+00    0.00000E+00
 1.18831E+00    0.00000E+00
 1.20000E+00    0.00000E+00
 1.30000E+00    0.00000E+00
 1.40000E+00    0.00000E+00
 1.43417E+00    0.00000E+00
 1.44378E+00    0.00000E+00
 1.46403E+00    0.00000E+00
 1.47106E+00    0.00000E+00
 1.47513E+00    0.00000E+00
 1.50000E+00    0.00000E+00
 1.60000E+00    0.00000E+00
 1.60512E+00    0.00000E+00
 1.67072E+00    0.00000E+00
 1.67563E+00    0.00000E+00
 1.70000E+00    0.00000E+00
 1.72951E+00    0.00000E+00
 1.74528E+00    0.00000E+00
 1.80000E+00    0.00000E+00
 1.90000E+00    0.00000E+00
 1.90774E+00    0.00000E+00
 1.91675E+00    0.00000E+00
 1.91891E+00    0.00000E+00
 1.93407E+00    0.00000E+00
 1.98593E+00    0.00000E+00
 2.00000E+00    0.00000E+00
 2.04525E+00    0.00000E+00
 2.05492E+00    0.00000E+00
 2.07199E+00    0.00000E+00
 2.10988E+00    0.00000E+00
 2.12545E+00    0.00000E+00
 2.14316E+00    0.00000E+00
 2.15711E+00    0.00000E+00
 2.16099E+00    0.00000E+00
 2.16214E+00    0.00000E+00
 2.20902E+00    0.00000E+00
 2.22003E+00    0.00000E+00
 2.22391E+00    0.00000E+00
 2.22932E+00    0.00000E+00
 2.24323E+00    0.00000E+00
 2.25000E+00    0.00000E+00
 2.29253E+00    0.00000E+00
 2.29999E+00    0.00000E+00
 2.32935E+00    0.00000E+00
 2.33431E+00    0.00000E+00
 2.34296E+00    0.00000E+00
 2.34349E+00    0.00000E+00
 2.35516E+00    0.00000E+00
 2.35998E+00    0.00000E+00
 2.50000E+00    0.00000E+00
 2.75000E+00    0.00000E+00
 3.00000E+00    0.00000E+00
 3.50000E+00    0.00000E+00
 4.00000E+00    0.00000E+00
 4.50000E+00    0.00000E+00
 5.00000E+00    0.00000E+00
 5.50000E+00    5.19315E-21
 6.00000E+00    5.20422E-17
 6.50000E+00    2.95230E-15
 7.00000E+00    1.84370E-14
 7.50000E+00    1.85030E-11
 8.00000E+00    3.10310E-09
 8.50000E+00    1.64120E-07
 9.00000E+00    4.22557E-06
 9.50000E+00    4.87592E-05
 1.00000E+01    3.49957E-04
 1.05000E+01    1.76624E-03
 1.10000E+01    6.81050E-03
 1.15000E+01    2.12053E-02
 1.20000E+01    5.53551E-02
 1.25000E+01    1.24405E-01
 1.30000E+01    2.45789E-01
 1.35000E+01    4.34897E-01
 1.40000E+01    6.54118E-01
 1.45000E+01    9.58185E-01
 1.50000E+01    1.36016E+00
 1.55000E+01    1.83834E+00
 1.60000E+01    2.40460E+00
 1.65000E+01    2.95740E+00
 1.70000E+01    3.68279E+00
 1.75000E+01    4.28092E+00
 1.80000E+01    4.92027E+00
 1.85000E+01    5.59881E+00
 1.90000E+01    6.31460E+00
 1.95000E+01    7.06582E+00
 2.00000E+01    7.70694E+00
