# n + Sm148 : (n,n')    
# jendl.ad   N.Iwamoto                         EVAL-Apr14
# uncertainties: n
# # energies =   110
#   E(MeV)       xs(mb) 
 1.05000E-01    0.00000E+00
 1.10000E-01    3.68852E-03
 1.20000E-01    5.02306E-03
 1.30000E-01    5.73783E-03
 1.40000E-01    6.21381E-03
 1.50000E-01    6.57287E-03
 1.60000E-01    6.89093E-03
 1.70000E-01    7.22024E-03
 1.80000E-01    7.51655E-03
 1.90000E-01    7.78158E-03
 2.00000E-01    8.01362E-03
 2.25000E-01    3.84725E-02
 2.50000E-01    4.63543E-02
 2.75000E-01    5.26414E-02
 3.00000E-01    5.79664E-02
 4.00000E-01    2.00209E-01
 5.00000E-01    5.21770E-01
 5.54007E-01    9.34984E-01
 6.00000E-01    6.51878E+02
 7.00000E-01    9.55328E+02
 8.00000E-01    1.13881E+03
 9.00000E-01    1.28179E+03
 1.00000E+00    1.39241E+03
 1.10000E+00    1.47297E+03
 1.16945E+00    1.52105E+03
 1.18831E+00    1.56447E+03
 1.20000E+00    1.58499E+03
 1.30000E+00    1.67544E+03
 1.40000E+00    1.75424E+03
 1.43417E+00    1.78004E+03
 1.44378E+00    1.81302E+03
 1.46403E+00    1.87900E+03
 1.47106E+00    1.93194E+03
 1.47513E+00    1.97997E+03
 1.50000E+00    2.10108E+03
 1.60000E+00    2.23768E+03
 1.60512E+00    2.24180E+03
 1.67072E+00    2.28685E+03
 1.67563E+00    2.29151E+03
 1.70000E+00    2.33364E+03
 1.72951E+00    2.35607E+03
 1.74528E+00    2.37518E+03
 1.80000E+00    2.41129E+03
 1.90000E+00    2.45135E+03
 1.90774E+00    2.45362E+03
 1.91675E+00    2.45741E+03
 1.91891E+00    2.46096E+03
 1.93407E+00    2.46952E+03
 1.98593E+00    2.49329E+03
 2.00000E+00    2.50576E+03
 2.04525E+00    2.52251E+03
 2.05492E+00    2.52617E+03
 2.07199E+00    2.53191E+03
 2.10988E+00    2.54394E+03
 2.12545E+00    2.54761E+03
 2.14316E+00    2.55207E+03
 2.15711E+00    2.55484E+03
 2.16099E+00    2.55621E+03
 2.16214E+00    2.55815E+03
 2.20902E+00    2.57365E+03
 2.22003E+00    2.57612E+03
 2.22391E+00    2.57807E+03
 2.22932E+00    2.58222E+03
 2.24323E+00    2.58734E+03
 2.25000E+00    2.58964E+03
 2.29253E+00    2.59943E+03
 2.29999E+00    2.60302E+03
 2.32935E+00    2.61164E+03
 2.33431E+00    2.61431E+03
 2.34296E+00    2.61865E+03
 2.34349E+00    2.61894E+03
 2.35516E+00    2.62386E+03
 2.35998E+00    2.62565E+03
 2.50000E+00    2.65312E+03
 2.75000E+00    2.68335E+03
 3.00000E+00    2.71001E+03
 3.50000E+00    2.71397E+03
 4.00000E+00    2.68218E+03
 4.50000E+00    2.63221E+03
 5.00000E+00    2.58480E+03
 5.50000E+00    2.54868E+03
 6.00000E+00    2.52635E+03
 6.50000E+00    2.51323E+03
 7.00000E+00    2.50263E+03
 7.50000E+00    2.48960E+03
 8.00000E+00    2.47202E+03
 8.50000E+00    2.34011E+03
 9.00000E+00    1.92539E+03
 9.50000E+00    1.49822E+03
 1.00000E+01    1.15584E+03
 1.05000E+01    9.09411E+02
 1.10000E+01    7.37587E+02
 1.15000E+01    6.18267E+02
 1.20000E+01    5.33870E+02
 1.25000E+01    4.72301E+02
 1.30000E+01    4.28519E+02
 1.35000E+01    3.91881E+02
 1.40000E+01    3.62552E+02
 1.45000E+01    3.38403E+02
 1.50000E+01    3.17994E+02
 1.55000E+01    3.00362E+02
 1.60000E+01    2.85247E+02
 1.65000E+01    2.71512E+02
 1.70000E+01    2.57882E+02
 1.75000E+01    2.46747E+02
 1.80000E+01    2.36556E+02
 1.85000E+01    2.27368E+02
 1.90000E+01    2.18291E+02
 1.95000E+01    2.09968E+02
 2.00000E+01    2.03543E+02
