# n + Ca 44 : (n,tot)   
# jendl.ad   K.Shibata                         EVAL-JUN06
# uncertainties: n
# # energies =    69
#   E(MeV)       xs(mb) 
 1.00000E-10    6.20486E+03
 5.00000E-09    1.68948E+03
 1.00000E-08    1.27953E+03
 1.50000E-08    1.07504E+03
 2.00000E-08    9.45871E+02
 2.50000E-08    8.54588E+02
 3.00000E-08    7.85521E+02
 3.50000E-08    7.22153E+02
 4.20000E-08    6.60535E+02
 5.00000E-08    6.09319E+02
 5.80000E-08    5.66328E+02
 6.70000E-08    5.22590E+02
 8.00000E-08    4.72877E+02
 1.00000E-07    4.11472E+02
 1.40000E-07    3.54998E+02
 1.80000E-07    3.16979E+02
 2.20000E-07    2.91959E+02
 2.50000E-07    2.74862E+02
 2.80000E-07    2.62595E+02
 3.00000E-07    2.53949E+02
 3.20000E-07    2.44347E+02
 3.50000E-07    2.31097E+02
 4.00000E-07    2.11499E+02
 5.00000E-07    1.89196E+02
 6.25000E-07    1.69244E+02
 7.80000E-07    1.56707E+02
 8.50000E-07    1.50846E+02
 9.10000E-07    1.46688E+02
 9.50000E-07    1.44317E+02
 9.72000E-07    1.42564E+02
 9.96000E-07    1.40814E+02
 1.02000E-06    1.39180E+02
 1.04500E-06    1.37483E+02
 1.07100E-06    1.35770E+02
 1.09700E-06    1.34202E+02
 1.12300E-06    1.32636E+02
 1.15000E-06    1.27854E+02
 1.30000E-06    1.19626E+02
 1.50000E-06    1.06230E+02
 2.10000E-06    9.25138E+01
 2.60000E-06    8.26063E+01
 3.30000E-06    7.41618E+01
 4.00000E-06    5.68142E+01
 9.87700E-06    3.99014E+01
 1.59680E-05    3.08077E+01
 2.77000E-05    2.33268E+01
 4.80520E-05    1.80521E+01
 7.55014E-05    1.35290E+01
 1.48728E-04    8.93170E+00
 3.67262E-04    5.34670E+00
 9.06898E-04    3.44056E+00
 1.42510E-03    2.47462E+00
 2.23945E-03    1.70192E+00
 3.51910E-03    1.10755E+00
 5.53000E-03    6.64896E-01
 9.11800E-03    9.40097E+00
 1.50300E-02    2.60779E+01
 2.47800E-02    7.01807E+00
 4.08500E-02    5.58145E+00
 6.73400E-02    3.73478E+00
 1.11000E-01    4.45012E+00
 1.83000E-01    1.02248E-01
 3.02000E-01    2.75013E-01
 5.00000E-01    1.91977E+00
 8.21000E-01    1.67892E+00
 1.35300E+00    7.98349E-01
 2.23100E+00    7.27455E-01
 3.67900E+00    4.07604E-01
 6.06500E+00    6.60838E+00
