# p + Tl  0 : Production of Pb201
# IAEA-MED for    19.000 MeV <     50.000 MeV, extended with TENDL-2019   EVAL-2019
# uncertainties: y
# # energies =   329
#   E(MeV)          xs(mb) 
 1.75018E+01    0.00000E+00
 1.80000E+01    5.81704E-01
 1.90000E+01    8.70000E+00
 1.91000E+01    7.50000E+00
 1.92000E+01    6.60000E+00
 1.93000E+01    6.20000E+00
 1.94000E+01    6.50000E+00
 1.95000E+01    7.70000E+00
 1.96000E+01    1.01000E+01
 1.97000E+01    1.37000E+01
 1.98000E+01    1.84000E+01
 1.99000E+01    2.41000E+01
 2.00000E+01    3.08000E+01
 2.01000E+01    3.86000E+01
 2.02000E+01    4.72000E+01
 2.03000E+01    5.68000E+01
 2.04000E+01    6.74000E+01
 2.05000E+01    7.87000E+01
 2.06000E+01    9.10000E+01
 2.07000E+01    1.04100E+02
 2.08000E+01    1.18000E+02
 2.09000E+01    1.32700E+02
 2.10000E+01    1.48200E+02
 2.11000E+01    1.64400E+02
 2.12000E+01    1.81300E+02
 2.13000E+01    1.98800E+02
 2.14000E+01    2.17000E+02
 2.15000E+01    2.35700E+02
 2.16000E+01    2.54900E+02
 2.17000E+01    2.74500E+02
 2.18000E+01    2.94600E+02
 2.19000E+01    3.15000E+02
 2.20000E+01    3.35700E+02
 2.21000E+01    3.56700E+02
 2.22000E+01    3.77900E+02
 2.23000E+01    3.99300E+02
 2.24000E+01    4.20800E+02
 2.25000E+01    4.42500E+02
 2.26000E+01    4.64300E+02
 2.27000E+01    4.86100E+02
 2.28000E+01    5.08000E+02
 2.29000E+01    5.29900E+02
 2.30000E+01    5.51700E+02
 2.31000E+01    5.73500E+02
 2.32000E+01    5.95100E+02
 2.33000E+01    6.16700E+02
 2.34000E+01    6.38200E+02
 2.35000E+01    6.59500E+02
 2.36000E+01    6.80700E+02
 2.37000E+01    7.01700E+02
 2.38000E+01    7.22500E+02
 2.39000E+01    7.43100E+02
 2.40000E+01    7.63600E+02
 2.41000E+01    7.83800E+02
 2.42000E+01    8.03800E+02
 2.43000E+01    8.23500E+02
 2.44000E+01    8.43000E+02
 2.45000E+01    8.62200E+02
 2.46000E+01    8.81200E+02
 2.47000E+01    8.99900E+02
 2.48000E+01    9.18400E+02
 2.49000E+01    9.36600E+02
 2.50000E+01    9.54500E+02
 2.51000E+01    9.72100E+02
 2.52000E+01    9.89400E+02
 2.53000E+01    1.00640E+03
 2.54000E+01    1.02310E+03
 2.55000E+01    1.03950E+03
 2.56000E+01    1.05560E+03
 2.57000E+01    1.07130E+03
 2.58000E+01    1.08670E+03
 2.59000E+01    1.10170E+03
 2.60000E+01    1.11640E+03
 2.61000E+01    1.13080E+03
 2.62000E+01    1.14470E+03
 2.63000E+01    1.15830E+03
 2.64000E+01    1.17150E+03
 2.65000E+01    1.18420E+03
 2.66000E+01    1.19650E+03
 2.67000E+01    1.20840E+03
 2.68000E+01    1.21980E+03
 2.69000E+01    1.23080E+03
 2.70000E+01    1.24130E+03
 2.71000E+01    1.25120E+03
 2.72000E+01    1.26070E+03
 2.73000E+01    1.26960E+03
 2.74000E+01    1.27790E+03
 2.75000E+01    1.28570E+03
 2.76000E+01    1.29290E+03
 2.77000E+01    1.29940E+03
 2.78000E+01    1.30530E+03
 2.79000E+01    1.31060E+03
 2.80000E+01    1.31510E+03
 2.81000E+01    1.31900E+03
 2.82000E+01    1.32220E+03
 2.83000E+01    1.32460E+03
 2.84000E+01    1.32620E+03
 2.85000E+01    1.32720E+03
 2.86000E+01    1.32730E+03
 2.87000E+01    1.32660E+03
 2.88000E+01    1.32520E+03
 2.89000E+01    1.32290E+03
 2.90000E+01    1.31980E+03
 2.91000E+01    1.31590E+03
 2.92000E+01    1.31110E+03
 2.93000E+01    1.30540E+03
 2.94000E+01    1.29900E+03
 2.95000E+01    1.29180E+03
 2.96000E+01    1.28370E+03
 2.97000E+01    1.27490E+03
 2.98000E+01    1.26520E+03
 2.99000E+01    1.25480E+03
 3.00000E+01    1.24370E+03
 3.01000E+01    1.23170E+03
 3.02000E+01    1.21910E+03
 3.03000E+01    1.20580E+03
 3.04000E+01    1.19180E+03
 3.05000E+01    1.17730E+03
 3.06000E+01    1.16220E+03
 3.07000E+01    1.14650E+03
 3.08000E+01    1.13040E+03
 3.09000E+01    1.11390E+03
 3.10000E+01    1.09690E+03
 3.11000E+01    1.07960E+03
 3.12000E+01    1.06200E+03
 3.13000E+01    1.04400E+03
 3.14000E+01    1.02590E+03
 3.15000E+01    1.00760E+03
 3.16000E+01    9.89200E+02
 3.17000E+01    9.70700E+02
 3.18000E+01    9.52200E+02
 3.19000E+01    9.33700E+02
 3.20000E+01    9.15300E+02
 3.21000E+01    8.96900E+02
 3.22000E+01    8.78800E+02
 3.23000E+01    8.60800E+02
 3.24000E+01    8.43000E+02
 3.25000E+01    8.25400E+02
 3.26000E+01    8.08100E+02
 3.27000E+01    7.91100E+02
 3.28000E+01    7.74400E+02
 3.29000E+01    7.58100E+02
 3.30000E+01    7.42100E+02
 3.31000E+01    7.26600E+02
 3.32000E+01    7.11400E+02
 3.33000E+01    6.96700E+02
 3.34000E+01    6.82300E+02
 3.35000E+01    6.68400E+02
 3.36000E+01    6.54900E+02
 3.37000E+01    6.41900E+02
 3.38000E+01    6.29200E+02
 3.39000E+01    6.17000E+02
 3.40000E+01    6.05300E+02
 3.41000E+01    5.94000E+02
 3.42000E+01    5.83100E+02
 3.43000E+01    5.72700E+02
 3.44000E+01    5.62600E+02
 3.45000E+01    5.53000E+02
 3.46000E+01    5.43800E+02
 3.47000E+01    5.35000E+02
 3.48000E+01    5.26600E+02
 3.49000E+01    5.18500E+02
 3.50000E+01    5.10800E+02
 3.51000E+01    5.03500E+02
 3.52000E+01    4.96500E+02
 3.53000E+01    4.89900E+02
 3.54000E+01    4.83600E+02
 3.55000E+01    4.77600E+02
 3.56000E+01    4.71900E+02
 3.57000E+01    4.66500E+02
 3.58000E+01    4.61500E+02
 3.59000E+01    4.56700E+02
 3.60000E+01    4.52100E+02
 3.61000E+01    4.47800E+02
 3.62000E+01    4.43800E+02
 3.63000E+01    4.40000E+02
 3.64000E+01    4.36400E+02
 3.65000E+01    4.33100E+02
 3.66000E+01    4.29900E+02
 3.67000E+01    4.27000E+02
 3.68000E+01    4.24300E+02
 3.69000E+01    4.21700E+02
 3.70000E+01    4.19400E+02
 3.71000E+01    4.17200E+02
 3.72000E+01    4.15200E+02
 3.73000E+01    4.13300E+02
 3.74000E+01    4.11600E+02
 3.75000E+01    4.10000E+02
 3.76000E+01    4.08500E+02
 3.77000E+01    4.07200E+02
 3.78000E+01    4.06000E+02
 3.79000E+01    4.05000E+02
 3.80000E+01    4.04000E+02
 3.81000E+01    4.03200E+02
 3.82000E+01    4.02400E+02
 3.83000E+01    4.01800E+02
 3.84000E+01    4.01300E+02
 3.85000E+01    4.00800E+02
 3.86000E+01    4.00400E+02
 3.87000E+01    4.00200E+02
 3.88000E+01    4.00000E+02
 3.89000E+01    3.99800E+02
 3.90000E+01    3.99800E+02
 3.91000E+01    3.99800E+02
 3.92000E+01    3.99900E+02
 3.93000E+01    4.00000E+02
 3.94000E+01    4.00200E+02
 3.95000E+01    4.00400E+02
 3.96000E+01    4.00700E+02
 3.97000E+01    4.01100E+02
 3.98000E+01    4.01400E+02
 3.99000E+01    4.01900E+02
 4.00000E+01    4.02300E+02
 4.01000E+01    4.02800E+02
 4.02000E+01    4.03300E+02
 4.03000E+01    4.03900E+02
 4.04000E+01    4.04400E+02
 4.05000E+01    4.05000E+02
 4.06000E+01    4.05700E+02
 4.07000E+01    4.06300E+02
 4.08000E+01    4.07000E+02
 4.09000E+01    4.07700E+02
 4.10000E+01    4.08400E+02
 4.11000E+01    4.09200E+02
 4.12000E+01    4.10000E+02
 4.13000E+01    4.10800E+02
 4.14000E+01    4.11600E+02
 4.15000E+01    4.12400E+02
 4.16000E+01    4.13300E+02
 4.17000E+01    4.14200E+02
 4.18000E+01    4.15100E+02
 4.19000E+01    4.16000E+02
 4.20000E+01    4.16900E+02
 4.21000E+01    4.17900E+02
 4.22000E+01    4.18900E+02
 4.23000E+01    4.19800E+02
 4.24000E+01    4.20800E+02
 4.25000E+01    4.21800E+02
 4.26000E+01    4.22800E+02
 4.27000E+01    4.23900E+02
 4.28000E+01    4.24900E+02
 4.29000E+01    4.26000E+02
 4.30000E+01    4.27000E+02
 4.31000E+01    4.28100E+02
 4.32000E+01    4.29200E+02
 4.33000E+01    4.30200E+02
 4.34000E+01    4.31300E+02
 4.35000E+01    4.32400E+02
 4.36000E+01    4.33500E+02
 4.37000E+01    4.34600E+02
 4.38000E+01    4.35700E+02
 4.39000E+01    4.36800E+02
 4.40000E+01    4.37900E+02
 4.41000E+01    4.39000E+02
 4.42000E+01    4.40100E+02
 4.43000E+01    4.41200E+02
 4.44000E+01    4.42300E+02
 4.45000E+01    4.43400E+02
 4.46000E+01    4.44500E+02
 4.47000E+01    4.45600E+02
 4.48000E+01    4.46700E+02
 4.49000E+01    4.47800E+02
 4.50000E+01    4.48800E+02
 4.51000E+01    4.49900E+02
 4.52000E+01    4.51000E+02
 4.53000E+01    4.52000E+02
 4.54000E+01    4.53100E+02
 4.55000E+01    4.54100E+02
 4.56000E+01    4.55100E+02
 4.57000E+01    4.56100E+02
 4.58000E+01    4.57200E+02
 4.59000E+01    4.58200E+02
 4.60000E+01    4.59200E+02
 4.61000E+01    4.60200E+02
 4.62000E+01    4.61200E+02
 4.63000E+01    4.62200E+02
 4.64000E+01    4.63200E+02
 4.65000E+01    4.64100E+02
 4.66000E+01    4.65100E+02
 4.67000E+01    4.66100E+02
 4.68000E+01    4.67000E+02
 4.69000E+01    4.68000E+02
 4.70000E+01    4.69000E+02
 4.71000E+01    4.69900E+02
 4.72000E+01    4.70900E+02
 4.73000E+01    4.71800E+02
 4.74000E+01    4.72700E+02
 4.75000E+01    4.73700E+02
 4.76000E+01    4.74600E+02
 4.77000E+01    4.75500E+02
 4.78000E+01    4.76400E+02
 4.79000E+01    4.77400E+02
 4.80000E+01    4.78300E+02
 4.81000E+01    4.79200E+02
 4.82000E+01    4.80100E+02
 4.83000E+01    4.81000E+02
 4.84000E+01    4.81900E+02
 4.85000E+01    4.82800E+02
 4.86000E+01    4.83700E+02
 4.87000E+01    4.84600E+02
 4.88000E+01    4.85500E+02
 4.89000E+01    4.86400E+02
 4.90000E+01    4.87300E+02
 4.91000E+01    4.88200E+02
 4.92000E+01    4.89100E+02
 4.93000E+01    4.90000E+02
 4.94000E+01    4.90900E+02
 4.95000E+01    4.91800E+02
 4.96000E+01    4.92700E+02
 4.97000E+01    4.93600E+02
 4.98000E+01    4.94400E+02
 4.99000E+01    4.95300E+02
 5.00000E+01    4.96200E+02
 5.50000E+01    4.27436E+02
 6.00000E+01    3.72337E+02
 6.50000E+01    3.26072E+02
 7.00000E+01    2.88557E+02
 7.50000E+01    2.56446E+02
 8.00000E+01    2.29003E+02
 9.00000E+01    1.85134E+02
 1.00000E+02    1.54070E+02
 1.10000E+02    1.30891E+02
 1.20000E+02    1.13688E+02
 1.30000E+02    9.93995E+01
 1.40000E+02    8.89229E+01
 1.50000E+02    7.95625E+01
 1.60000E+02    7.26698E+01
 1.80000E+02    6.09088E+01
 2.00000E+02    5.26284E+01
