# n + Eu155 : (n,n'06)  
# jendl4.0   N.Iwamoto                         EVAL-Nov09
# uncertainties: n
# # energies =    65
#   E(MeV)       xs(mb) 
 2.56323E-01    0.00000E+00
 2.75000E-01    5.20023E+01
 3.00000E-01    7.49014E+01
 3.02646E-01    7.68599E+01
 3.09384E-01    8.06137E+01
 3.59494E-01    1.03077E+02
 3.94033E-01    1.13711E+02
 4.00000E-01    1.13566E+02
 4.45910E-01    1.22258E+02
 4.90259E-01    1.30195E+02
 5.00000E-01    1.31864E+02
 5.04268E-01    1.32603E+02
 6.00000E-01    1.37458E+02
 7.00000E-01    1.39565E+02
 8.00000E-01    1.33391E+02
 9.00000E-01    1.24810E+02
 1.00000E+00    1.12648E+02
 1.10000E+00    1.01663E+02
 1.20000E+00    9.17437E+01
 1.30000E+00    8.22357E+01
 1.40000E+00    7.29991E+01
 1.50000E+00    6.45775E+01
 1.60000E+00    5.69450E+01
 1.70000E+00    5.00690E+01
 1.80000E+00    4.39293E+01
 1.90000E+00    3.84745E+01
 2.00000E+00    3.36480E+01
 2.25000E+00    2.36253E+01
 2.50000E+00    1.69894E+01
 2.75000E+00    1.19275E+01
 3.00000E+00    8.43384E+00
 3.50000E+00    4.14430E+00
 4.00000E+00    2.01343E+00
 4.50000E+00    9.81430E-01
 5.00000E+00    4.91826E-01
 5.50000E+00    2.60944E-01
 6.00000E+00    1.51474E-01
 6.50000E+00    9.85868E-02
 7.00000E+00    7.22948E-02
 7.50000E+00    5.83311E-02
 8.00000E+00    5.00920E-02
 8.50000E+00    4.46216E-02
 9.00000E+00    4.06072E-02
 9.50000E+00    3.74647E-02
 1.00000E+01    3.48924E-02
 1.05000E+01    3.27363E-02
 1.10000E+01    3.08748E-02
 1.15000E+01    2.92339E-02
 1.20000E+01    2.77519E-02
 1.25000E+01    2.63820E-02
 1.30000E+01    2.50945E-02
 1.35000E+01    2.38741E-02
 1.40000E+01    2.27157E-02
 1.45000E+01    2.16205E-02
 1.50000E+01    2.05936E-02
 1.55000E+01    1.96434E-02
 1.60000E+01    1.87649E-02
 1.65000E+01    1.79555E-02
 1.70000E+01    1.72065E-02
 1.75000E+01    1.65090E-02
 1.80000E+01    1.58517E-02
 1.85000E+01    1.52256E-02
 1.90000E+01    1.46218E-02
 1.95000E+01    1.40359E-02
 2.00000E+01    1.34715E-02
