# n + Eu155 : (n,np)    
# jendl4.0   N.Iwamoto                         EVAL-Nov09
# uncertainties: n
# # energies =    26
#   E(MeV)       xs(mb) 
 6.69515E+00    0.00000E+00
 8.00000E+00    5.34680E-13
 8.50000E+00    8.91760E-10
 9.00000E+00    6.13650E-08
 9.50000E+00    1.88874E-06
 1.00000E+01    2.45813E-05
 1.05000E+01    1.73907E-04
 1.10000E+01    8.62855E-04
 1.15000E+01    3.24760E-03
 1.20000E+01    1.00456E-02
 1.25000E+01    2.68369E-02
 1.30000E+01    6.38286E-02
 1.35000E+01    1.38824E-01
 1.40000E+01    2.77995E-01
 1.45000E+01    5.16755E-01
 1.50000E+01    8.96820E-01
 1.55000E+01    1.46615E+00
 1.60000E+01    2.24498E+00
 1.65000E+01    3.26311E+00
 1.70000E+01    4.52211E+00
 1.75000E+01    6.03156E+00
 1.80000E+01    7.76994E+00
 1.85000E+01    9.70554E+00
 1.90000E+01    1.18430E+01
 1.95000E+01    1.41891E+01
 2.00000E+01    1.66711E+01
