# n + Eu155 : (n,na)    
# jendl4.0   N.Iwamoto                         EVAL-Nov09
# uncertainties: n
# # energies =    36
#   E(MeV)       xs(mb) 
 8.59711E-01    0.00000E+00
 3.00000E+00    1.04770E-32
 3.50000E+00    2.75280E-26
 4.00000E+00    1.25040E-21
 4.50000E+00    4.44840E-18
 5.00000E+00    2.75280E-15
 5.50000E+00    4.74750E-13
 6.00000E+00    3.13660E-11
 6.50000E+00    9.82690E-10
 7.00000E+00    1.67110E-08
 7.50000E+00    1.75200E-07
 8.00000E+00    1.26395E-06
 8.50000E+00    5.62226E-06
 9.00000E+00    9.49029E-06
 9.50000E+00    1.64545E-05
 1.00000E+01    3.62386E-05
 1.05000E+01    8.81243E-05
 1.10000E+01    2.04534E-04
 1.15000E+01    4.52408E-04
 1.20000E+01    9.41844E-04
 1.25000E+01    1.85291E-03
 1.30000E+01    3.46567E-03
 1.35000E+01    6.20216E-03
 1.40000E+01    1.06845E-02
 1.45000E+01    1.78127E-02
 1.50000E+01    2.88616E-02
 1.55000E+01    4.55824E-02
 1.60000E+01    7.04686E-02
 1.65000E+01    1.05617E-01
 1.70000E+01    1.53427E-01
 1.75000E+01    2.17565E-01
 1.80000E+01    2.98796E-01
 1.85000E+01    3.96362E-01
 1.90000E+01    5.11964E-01
 1.95000E+01    6.37749E-01
 2.00000E+01    7.78004E-01
