# n + Eu155 : (n,h)     
# jendl4.0   N.Iwamoto                         EVAL-Nov09
# uncertainties: n
# # energies =    28
#   E(MeV)       xs(mb) 
 8.05179E+00    0.00000E+00
 8.08419E+00    3.88120E-33
 8.11777E+00    9.66600E-33
 8.15795E+00    1.75980E-32
 8.20366E+00    2.70160E-32
 8.25193E+00    3.70830E-32
 8.30845E+00    4.89060E-32
 8.36511E+00    6.07640E-32
 1.05000E+01    5.07640E-31
 1.10000E+01    1.85690E-26
 1.15000E+01    4.67350E-23
 1.20000E+01    1.94790E-20
 1.25000E+01    2.27710E-18
 1.30000E+01    1.06740E-16
 1.35000E+01    2.76430E-15
 1.40000E+01    5.38520E-14
 1.45000E+01    1.00430E-12
 1.50000E+01    1.50530E-11
 1.55000E+01    1.43820E-10
 1.60000E+01    1.13030E-09
 1.65000E+01    7.12220E-09
 1.70000E+01    3.65550E-08
 1.75000E+01    1.55400E-07
 1.80000E+01    5.28340E-07
 1.85000E+01    1.57698E-06
 1.90000E+01    4.25511E-06
 1.95000E+01    1.04746E-05
 2.00000E+01    2.37513E-05
