# n + Eu155 : (n,p)     
# jendl4.0   N.Iwamoto                         EVAL-Nov09
# uncertainties: n
# # energies =    48
#   E(MeV)       xs(mb) 
 8.50381E-01    0.00000E+00
 8.67036E-01    6.19500E-17
 9.03761E-01    2.83560E-16
 9.27177E-01    7.40620E-16
 9.78911E-01    2.04200E-15
 1.00379E+00    2.71350E-15
 1.07250E+00    1.64090E-14
 1.10251E+00    2.38860E-14
 1.90000E+00    2.32830E-13
 2.00000E+00    3.25670E-13
 2.25000E+00    1.37660E-11
 2.50000E+00    5.57290E-10
 2.75000E+00    9.54470E-09
 3.00000E+00    8.88640E-08
 3.50000E+00    2.41922E-06
 4.00000E+00    2.37093E-05
 4.50000E+00    1.22007E-04
 5.00000E+00    4.07310E-04
 5.50000E+00    1.00307E-03
 6.00000E+00    1.99093E-03
 6.50000E+00    3.42569E-03
 7.00000E+00    5.57968E-03
 7.50000E+00    9.42686E-03
 8.00000E+00    1.73454E-02
 8.50000E+00    3.40852E-02
 9.00000E+00    6.79077E-02
 9.50000E+00    1.31686E-01
 1.00000E+01    2.43332E-01
 1.05000E+01    4.25136E-01
 1.10000E+01    7.01350E-01
 1.15000E+01    1.09466E+00
 1.20000E+01    1.62230E+00
 1.25000E+01    2.29284E+00
 1.30000E+01    3.10433E+00
 1.35000E+01    4.04228E+00
 1.40000E+01    5.08053E+00
 1.45000E+01    6.18178E+00
 1.50000E+01    7.30226E+00
 1.55000E+01    8.39113E+00
 1.60000E+01    9.42589E+00
 1.65000E+01    1.03756E+01
 1.70000E+01    1.12344E+01
 1.75000E+01    1.19860E+01
 1.80000E+01    1.26409E+01
 1.85000E+01    1.32217E+01
 1.90000E+01    1.37132E+01
 1.95000E+01    1.40898E+01
 2.00000E+01    1.44202E+01
