# n + Eu155 : (n,n'13)  
# jendl4.0   N.Iwamoto                         EVAL-Nov09
# uncertainties: n
# # energies =    54
#   E(MeV)       xs(mb) 
 5.04268E-01    0.00000E+00
 6.00000E-01    5.43755E+01
 7.00000E-01    7.44720E+01
 8.00000E-01    8.30161E+01
 9.00000E-01    8.59569E+01
 1.00000E+00    8.41021E+01
 1.10000E+00    8.11897E+01
 1.20000E+00    7.61826E+01
 1.30000E+00    7.03364E+01
 1.40000E+00    6.47577E+01
 1.50000E+00    5.94897E+01
 1.60000E+00    5.35960E+01
 1.70000E+00    4.78995E+01
 1.80000E+00    4.25608E+01
 1.90000E+00    3.76436E+01
 2.00000E+00    3.31753E+01
 2.25000E+00    2.35898E+01
 2.50000E+00    1.71166E+01
 2.75000E+00    1.20901E+01
 3.00000E+00    8.54869E+00
 3.50000E+00    4.22303E+00
 4.00000E+00    2.03863E+00
 4.50000E+00    9.68749E-01
 5.00000E+00    4.61957E-01
 5.50000E+00    2.26933E-01
 6.00000E+00    1.18373E-01
 6.50000E+00    6.78512E-02
 7.00000E+00    4.40370E-02
 7.50000E+00    3.23912E-02
 8.00000E+00    2.62349E-02
 8.50000E+00    2.26128E-02
 9.00000E+00    2.02210E-02
 9.50000E+00    1.84865E-02
 1.00000E+01    1.71362E-02
 1.05000E+01    1.60370E-02
 1.10000E+01    1.51096E-02
 1.15000E+01    1.43030E-02
 1.20000E+01    1.35817E-02
 1.25000E+01    1.29195E-02
 1.30000E+01    1.22991E-02
 1.35000E+01    1.17113E-02
 1.40000E+01    1.11525E-02
 1.45000E+01    1.06226E-02
 1.50000E+01    1.01240E-02
 1.55000E+01    9.65949E-03
 1.60000E+01    9.22934E-03
 1.65000E+01    8.83267E-03
 1.70000E+01    8.46579E-03
 1.75000E+01    8.12475E-03
 1.80000E+01    7.80420E-03
 1.85000E+01    7.49961E-03
 1.90000E+01    7.20542E-03
 1.95000E+01    6.92069E-03
 2.00000E+01    6.64617E-03
