# n + Eu155 : (n,t)     
# jendl4.0   N.Iwamoto                         EVAL-Nov09
# uncertainties: n
# # energies =    62
#   E(MeV)       xs(mb) 
 6.17707E+00    0.00000E+00
 6.18465E+00    1.30760E-24
 6.21314E+00    1.13550E-23
 6.23095E+00    1.85760E-23
 6.24296E+00    2.39570E-23
 6.26853E+00    3.61130E-23
 6.27608E+00    3.97800E-23
 6.29076E+00    4.70210E-23
 6.30430E+00    5.37650E-23
 6.30519E+00    5.42100E-23
 6.35237E+00    7.78570E-23
 6.36116E+00    8.22670E-23
 6.36720E+00    8.52990E-23
 6.37299E+00    8.82060E-23
 6.37444E+00    8.89350E-23
 6.41561E+00    1.09620E-22
 6.42406E+00    1.13870E-22
 6.44111E+00    1.22440E-22
 6.44472E+00    1.24250E-22
 6.44580E+00    1.24800E-22
 6.45558E+00    1.29710E-22
 6.50027E+00    1.52170E-22
 6.53607E+00    6.22490E-22
 6.54171E+00    7.33240E-22
 6.54847E+00    9.03640E-22
 6.54848E+00    9.03940E-22
 6.58383E+00    2.13680E-21
 6.58518E+00    2.18480E-21
 6.59155E+00    2.41900E-21
 6.59469E+00    2.53700E-21
 6.59759E+00    2.64740E-21
 6.59780E+00    2.65550E-21
 6.60493E+00    2.93800E-21
 6.62698E+00    3.82370E-21
 6.62703E+00    3.82570E-21
 6.63005E+00    3.95020E-21
 7.50000E+00    4.01880E-20
 8.00000E+00    1.34140E-16
 8.50000E+00    2.52170E-13
 9.00000E+00    3.89510E-11
 9.50000E+00    1.34630E-09
 1.00000E+01    1.79100E-08
 1.05000E+01    1.30150E-07
 1.10000E+01    6.95170E-07
 1.15000E+01    3.49966E-06
 1.20000E+01    1.74788E-05
 1.25000E+01    7.90239E-05
 1.30000E+01    3.04745E-04
 1.35000E+01    9.78786E-04
 1.40000E+01    2.75392E-03
 1.45000E+01    6.73473E-03
 1.50000E+01    1.45049E-02
 1.55000E+01    2.75573E-02
 1.60000E+01    4.80597E-02
 1.65000E+01    7.74967E-02
 1.70000E+01    1.14922E-01
 1.75000E+01    1.61829E-01
 1.80000E+01    2.17552E-01
 1.85000E+01    2.80889E-01
 1.90000E+01    3.50061E-01
 1.95000E+01    4.20245E-01
 2.00000E+01    4.90065E-01
