# n + Eu155 : (n,xt)    
# jendl4.0   N.Iwamoto                         EVAL-Nov09
# 
# # energies =    86
#   E(MeV)        xs(mb) 
 7.91500E-02    0.00000E+00
 8.00000E-02    0.00000E+00
 9.00000E-02    0.00000E+00
 1.00000E-01    0.00000E+00
 1.02507E-01    0.00000E+00
 1.05013E-01    0.00000E+00
 1.10000E-01    0.00000E+00
 1.20000E-01    0.00000E+00
 1.30000E-01    0.00000E+00
 1.40000E-01    0.00000E+00
 1.50000E-01    0.00000E+00
 1.60000E-01    0.00000E+00
 1.70000E-01    0.00000E+00
 1.70109E-01    0.00000E+00
 1.80000E-01    0.00000E+00
 1.80323E-01    0.00000E+00
 1.90000E-01    0.00000E+00
 2.00000E-01    0.00000E+00
 2.25000E-01    0.00000E+00
 2.47377E-01    0.00000E+00
 2.50000E-01    0.00000E+00
 2.56323E-01    0.00000E+00
 2.75000E-01    0.00000E+00
 3.00000E-01    0.00000E+00
 3.02646E-01    0.00000E+00
 3.09384E-01    0.00000E+00
 3.59494E-01    0.00000E+00
 3.94033E-01    0.00000E+00
 4.00000E-01    0.00000E+00
 4.45910E-01    0.00000E+00
 4.90259E-01    0.00000E+00
 5.00000E-01    0.00000E+00
 5.04268E-01    0.00000E+00
 6.00000E-01    0.00000E+00
 7.00000E-01    0.00000E+00
 8.00000E-01    0.00000E+00
 9.00000E-01    0.00000E+00
 1.00000E+00    0.00000E+00
 1.10000E+00    0.00000E+00
 1.20000E+00    0.00000E+00
 1.30000E+00    0.00000E+00
 1.40000E+00    0.00000E+00
 1.50000E+00    0.00000E+00
 1.60000E+00    0.00000E+00
 1.70000E+00    0.00000E+00
 1.80000E+00    0.00000E+00
 1.90000E+00    0.00000E+00
 2.00000E+00    0.00000E+00
 2.25000E+00    0.00000E+00
 2.50000E+00    0.00000E+00
 2.75000E+00    0.00000E+00
 3.00000E+00    0.00000E+00
 3.50000E+00    0.00000E+00
 4.00000E+00    0.00000E+00
 4.50000E+00    0.00000E+00
 5.00000E+00    0.00000E+00
 5.50000E+00    0.00000E+00
 6.00000E+00    0.00000E+00
 6.50000E+00    1.52034E-22
 7.00000E+00    1.93605E-20
 7.50000E+00    4.01880E-20
 8.00000E+00    1.34140E-16
 8.50000E+00    2.52170E-13
 9.00000E+00    3.89510E-11
 9.50000E+00    1.34630E-09
 1.00000E+01    1.79100E-08
 1.05000E+01    1.30150E-07
 1.10000E+01    6.95170E-07
 1.15000E+01    3.49966E-06
 1.20000E+01    1.74788E-05
 1.25000E+01    7.90239E-05
 1.30000E+01    3.04745E-04
 1.35000E+01    9.78786E-04
 1.40000E+01    2.75392E-03
 1.45000E+01    6.73473E-03
 1.50000E+01    1.45049E-02
 1.55000E+01    2.75573E-02
 1.60000E+01    4.80600E-02
 1.65000E+01    7.75001E-02
 1.70000E+01    1.14948E-01
 1.75000E+01    1.61957E-01
 1.80000E+01    2.18066E-01
 1.85000E+01    2.82638E-01
 1.90000E+01    3.55130E-01
 1.95000E+01    4.32083E-01
 2.00000E+01    5.15039E-01
