# n + Eu155 : (n,n'09)  
# jendl4.0   N.Iwamoto                         EVAL-Nov09
# uncertainties: n
# # energies =    60
#   E(MeV)       xs(mb) 
 3.59494E-01    0.00000E+00
 3.94033E-01    6.75410E+00
 4.00000E-01    7.75258E+00
 4.45910E-01    1.60016E+01
 4.90259E-01    2.35632E+01
 5.00000E-01    2.49526E+01
 5.04268E-01    2.56226E+01
 6.00000E-01    3.63987E+01
 7.00000E-01    4.52159E+01
 8.00000E-01    4.98848E+01
 9.00000E-01    5.14599E+01
 1.00000E+00    5.15070E+01
 1.10000E+00    4.93037E+01
 1.20000E+00    4.68111E+01
 1.30000E+00    4.41786E+01
 1.40000E+00    4.12551E+01
 1.50000E+00    3.79429E+01
 1.60000E+00    3.46365E+01
 1.70000E+00    3.14081E+01
 1.80000E+00    2.83286E+01
 1.90000E+00    2.54357E+01
 2.00000E+00    2.27512E+01
 2.25000E+00    1.67637E+01
 2.50000E+00    1.25184E+01
 2.75000E+00    9.06638E+00
 3.00000E+00    6.69824E+00
 3.50000E+00    3.47383E+00
 4.00000E+00    1.78552E+00
 4.50000E+00    9.35285E-01
 5.00000E+00    5.18041E-01
 5.50000E+00    3.13890E-01
 6.00000E+00    2.12581E-01
 6.50000E+00    1.60283E-01
 7.00000E+00    1.31530E-01
 7.50000E+00    1.14004E-01
 8.00000E+00    1.01951E-01
 8.50000E+00    9.28012E-02
 9.00000E+00    8.54105E-02
 9.50000E+00    7.92634E-02
 1.00000E+01    7.40493E-02
 1.05000E+01    6.95869E-02
 1.10000E+01    6.56943E-02
 1.15000E+01    6.22438E-02
 1.20000E+01    5.91197E-02
 1.25000E+01    5.62290E-02
 1.30000E+01    5.35098E-02
 1.35000E+01    5.09291E-02
 1.40000E+01    4.84765E-02
 1.45000E+01    4.61539E-02
 1.50000E+01    4.39725E-02
 1.55000E+01    4.19512E-02
 1.60000E+01    4.00810E-02
 1.65000E+01    3.83574E-02
 1.70000E+01    3.67627E-02
 1.75000E+01    3.52789E-02
 1.80000E+01    3.38745E-02
 1.85000E+01    3.25340E-02
 1.90000E+01    3.12462E-02
 1.95000E+01    3.00031E-02
 2.00000E+01    2.88049E-02
