# n + Ge 70 : (n,n'06)  
# jeff3.3    A.J. Koning and D. Rochman        EVAL-DEC15
# uncertainties: n
# # energies =    83
#   E(MeV)       xs(mb) 
 2.34018E+00    0.00000E+00
 2.40000E+00    1.71024E+01
 2.48665E+00    2.77902E+01
 2.57149E+00    3.82548E+01
 2.59900E+00    4.16480E+01
 2.60000E+00    4.17713E+01
 2.80000E+00    5.42793E+01
 2.84672E+00    5.52536E+01
 2.92895E+00    5.69683E+01
 2.98738E+00    5.81867E+01
 3.00000E+00    5.84499E+01
 3.09037E+00    5.74560E+01
 3.10283E+00    5.73189E+01
 3.15182E+00    5.67801E+01
 3.17515E+00    5.65235E+01
 3.20000E+00    5.62502E+01
 3.22648E+00    5.53050E+01
 3.24028E+00    5.48124E+01
 3.28877E+00    5.30816E+01
 3.34228E+00    5.11716E+01
 3.34462E+00    5.10881E+01
 3.36191E+00    5.04709E+01
 3.38290E+00    4.97217E+01
 3.39325E+00    4.93522E+01
 3.39934E+00    4.91349E+01
 3.40000E+00    4.91113E+01
 3.42027E+00    4.80909E+01
 3.46564E+00    4.58069E+01
 3.47238E+00    4.54676E+01
 3.47745E+00    4.52124E+01
 3.48151E+00    4.50080E+01
 3.60000E+00    3.90431E+01
 3.80000E+00    2.97145E+01
 4.00000E+00    2.26457E+01
 4.20000E+00    1.73871E+01
 4.40000E+00    1.35310E+01
 4.60000E+00    1.07275E+01
 4.80000E+00    8.48683E+00
 5.00000E+00    6.79436E+00
 5.20000E+00    5.45077E+00
 5.40000E+00    4.37598E+00
 5.60000E+00    3.50937E+00
 5.80000E+00    2.81148E+00
 6.00000E+00    2.24844E+00
 6.20000E+00    1.79491E+00
 6.40000E+00    1.43107E+00
 6.60000E+00    1.13998E+00
 6.80000E+00    9.07912E-01
 7.00000E+00    7.23422E-01
 7.20000E+00    5.76852E-01
 7.40000E+00    4.60550E-01
 7.60000E+00    3.69200E-01
 7.80000E+00    2.94675E-01
 8.00000E+00    2.37499E-01
 8.50000E+00    1.39093E-01
 9.00000E+00    8.31397E-02
 9.50000E+00    5.07034E-02
 1.00000E+01    3.14905E-02
 1.05000E+01    1.98650E-02
 1.10000E+01    1.26919E-02
 1.15000E+01    8.19525E-03
 1.20000E+01    5.33662E-03
 1.25000E+01    3.49475E-03
 1.30000E+01    2.29816E-03
 1.35000E+01    1.51992E-03
 1.40000E+01    1.00826E-03
 1.45000E+01    6.72778E-04
 1.50000E+01    4.50893E-04
 1.60000E+01    2.05241E-04
 1.70000E+01    9.47120E-05
 1.80000E+01    4.41522E-05
 1.90000E+01    2.08002E-05
 2.00000E+01    9.89983E-06
 2.10000E+01    4.77467E-06
 2.20000E+01    2.32067E-06
 2.30000E+01    1.14681E-06
 2.40000E+01    5.68420E-07
 2.50000E+01    2.87040E-07
 2.60000E+01    1.45780E-07
 2.70000E+01    7.41810E-08
 2.80000E+01    3.77110E-08
 2.90000E+01    1.90370E-08
 3.00000E+01    9.46940E-09
