# n + Ge 70 : (n,n'11)  
# jeff3.3    A.J. Koning and D. Rochman        EVAL-DEC15
# uncertainties: n
# # energies =    75
#   E(MeV)       xs(mb) 
 2.92895E+00    0.00000E+00
 2.98738E+00    7.89835E+00
 3.00000E+00    9.60427E+00
 3.09037E+00    1.49155E+01
 3.10283E+00    1.56478E+01
 3.15182E+00    1.85271E+01
 3.17515E+00    1.98982E+01
 3.20000E+00    2.13587E+01
 3.22648E+00    2.19659E+01
 3.24028E+00    2.22823E+01
 3.28877E+00    2.33942E+01
 3.34228E+00    2.46212E+01
 3.34462E+00    2.46748E+01
 3.36191E+00    2.50713E+01
 3.38290E+00    2.55526E+01
 3.39325E+00    2.57899E+01
 3.39934E+00    2.59296E+01
 3.40000E+00    2.59447E+01
 3.42027E+00    2.58712E+01
 3.46564E+00    2.57065E+01
 3.47238E+00    2.56821E+01
 3.47745E+00    2.56637E+01
 3.48151E+00    2.56489E+01
 3.60000E+00    2.52190E+01
 3.80000E+00    2.22679E+01
 4.00000E+00    1.87130E+01
 4.20000E+00    1.48468E+01
 4.40000E+00    1.14415E+01
 4.60000E+00    8.90720E+00
 4.80000E+00    7.00047E+00
 5.00000E+00    5.56439E+00
 5.20000E+00    4.48107E+00
 5.40000E+00    3.59168E+00
 5.60000E+00    2.90903E+00
 5.80000E+00    2.36107E+00
 6.00000E+00    1.91724E+00
 6.20000E+00    1.55563E+00
 6.40000E+00    1.26073E+00
 6.60000E+00    1.02006E+00
 6.80000E+00    8.24094E-01
 7.00000E+00    6.64931E-01
 7.20000E+00    5.35894E-01
 7.40000E+00    4.31819E-01
 7.60000E+00    3.48622E-01
 7.80000E+00    2.79866E-01
 8.00000E+00    2.26492E-01
 8.50000E+00    1.33444E-01
 9.00000E+00    7.98745E-02
 9.50000E+00    4.86647E-02
 1.00000E+01    3.01753E-02
 1.05000E+01    1.90140E-02
 1.10000E+01    1.21473E-02
 1.15000E+01    7.85062E-03
 1.20000E+01    5.11978E-03
 1.25000E+01    3.35839E-03
 1.30000E+01    2.21206E-03
 1.35000E+01    1.46504E-03
 1.40000E+01    9.73010E-04
 1.45000E+01    6.49912E-04
 1.50000E+01    4.35963E-04
 1.60000E+01    1.98810E-04
 1.70000E+01    9.19627E-05
 1.80000E+01    4.30186E-05
 1.90000E+01    2.03476E-05
 2.00000E+01    9.71629E-06
 2.10000E+01    4.69479E-06
 2.20000E+01    2.28310E-06
 2.30000E+01    1.12806E-06
 2.40000E+01    5.59000E-07
 2.50000E+01    2.82320E-07
 2.60000E+01    1.43480E-07
 2.70000E+01    7.30980E-08
 2.80000E+01    3.72140E-08
 2.90000E+01    1.88130E-08
 3.00000E+01    9.37030E-09
