# n + Ge 70 : (n,n'15)  
# jeff3.3    A.J. Koning and D. Rochman        EVAL-DEC15
# uncertainties: n
# # energies =    70
#   E(MeV)       xs(mb) 
 3.15182E+00    0.00000E+00
 3.17515E+00    2.81627E+00
 3.20000E+00    5.81604E+00
 3.22648E+00    6.98426E+00
 3.24028E+00    7.59308E+00
 3.28877E+00    9.73233E+00
 3.34228E+00    1.20930E+01
 3.34462E+00    1.21963E+01
 3.36191E+00    1.29591E+01
 3.38290E+00    1.38851E+01
 3.39325E+00    1.43417E+01
 3.39934E+00    1.46104E+01
 3.40000E+00    1.46395E+01
 3.42027E+00    1.49702E+01
 3.46564E+00    1.57104E+01
 3.47238E+00    1.58204E+01
 3.47745E+00    1.59031E+01
 3.48151E+00    1.59693E+01
 3.60000E+00    1.79025E+01
 3.80000E+00    1.76298E+01
 4.00000E+00    1.57252E+01
 4.20000E+00    1.33570E+01
 4.40000E+00    1.07581E+01
 4.60000E+00    8.37368E+00
 4.80000E+00    6.56204E+00
 5.00000E+00    5.18476E+00
 5.20000E+00    4.13613E+00
 5.40000E+00    3.34657E+00
 5.60000E+00    2.69235E+00
 5.80000E+00    2.19004E+00
 6.00000E+00    1.78520E+00
 6.20000E+00    1.45591E+00
 6.40000E+00    1.18685E+00
 6.60000E+00    9.66260E-01
 6.80000E+00    7.85474E-01
 7.00000E+00    6.37512E-01
 7.20000E+00    5.16540E-01
 7.40000E+00    4.18204E-01
 7.60000E+00    3.38962E-01
 7.80000E+00    2.72987E-01
 8.00000E+00    2.21619E-01
 8.50000E+00    1.31121E-01
 9.00000E+00    7.86116E-02
 9.50000E+00    4.79020E-02
 1.00000E+01    2.96866E-02
 1.05000E+01    1.86950E-02
 1.10000E+01    1.19400E-02
 1.15000E+01    7.71778E-03
 1.20000E+01    5.03553E-03
 1.25000E+01    3.30519E-03
 1.30000E+01    2.17841E-03
 1.35000E+01    1.44360E-03
 1.40000E+01    9.59249E-04
 1.45000E+01    6.40994E-04
 1.50000E+01    4.30143E-04
 1.60000E+01    1.96302E-04
 1.70000E+01    9.08819E-05
 1.80000E+01    4.25638E-05
 1.90000E+01    2.01629E-05
 2.00000E+01    9.64150E-06
 2.10000E+01    4.66286E-06
 2.20000E+01    2.26840E-06
 2.30000E+01    1.12082E-06
 2.40000E+01    5.55370E-07
 2.50000E+01    2.80490E-07
 2.60000E+01    1.42580E-07
 2.70000E+01    7.26690E-08
 2.80000E+01    3.70160E-08
 2.90000E+01    1.87240E-08
 3.00000E+01    9.33060E-09
