# n + Ge 70 : (n,xp)    
# jeff3.3    A.J. Koning and D. Rochman        EVAL-DEC15
# 
# # energies =   124
#   E(MeV)        xs(mb) 
 1.05448E+00    3.80549E-10
 1.20000E+00    7.01412E-10
 1.23307E+00    7.74329E-10
 1.40000E+00    1.14240E-09
 1.60000E+00    2.67110E-07
 1.73225E+00    7.37792E-06
 1.80000E+00    1.10207E-05
 2.00000E+00    1.61120E-04
 2.18422E+00    1.13008E-03
 2.18783E+00    1.14907E-03
 2.20000E+00    1.21308E-03
 2.34018E+00    4.32234E-03
 2.40000E+00    5.64918E-03
 2.48665E+00    1.16400E-02
 2.57149E+00    1.75058E-02
 2.59900E+00    1.94078E-02
 2.60000E+00    1.94769E-02
 2.80000E+00    5.27020E-02
 2.84672E+00    6.95233E-02
 2.92895E+00    9.91298E-02
 2.98738E+00    1.20167E-01
 3.00000E+00    1.24711E-01
 3.09037E+00    1.83836E-01
 3.10283E+00    1.91988E-01
 3.15182E+00    2.24040E-01
 3.17515E+00    2.39304E-01
 3.20000E+00    2.55562E-01
 3.22648E+00    2.81674E-01
 3.24028E+00    2.95282E-01
 3.28877E+00    3.43098E-01
 3.34228E+00    3.95865E-01
 3.34462E+00    3.98172E-01
 3.36191E+00    4.15222E-01
 3.38290E+00    4.35920E-01
 3.39325E+00    4.46127E-01
 3.39934E+00    4.52132E-01
 3.40000E+00    4.52783E-01
 3.42027E+00    4.80579E-01
 3.46564E+00    5.42795E-01
 3.47238E+00    5.52037E-01
 3.47745E+00    5.58989E-01
 3.48151E+00    5.64557E-01
 3.60000E+00    7.27041E-01
 3.80000E+00    1.10473E+00
 4.00000E+00    1.63683E+00
 4.20000E+00    2.37161E+00
 4.40000E+00    3.35779E+00
 4.60000E+00    4.63964E+00
 4.80000E+00    6.23921E+00
 5.00000E+00    8.15010E+00
 5.20000E+00    1.03434E+01
 5.40000E+00    1.27787E+01
 5.60000E+00    1.53900E+01
 5.80000E+00    1.81245E+01
 6.00000E+00    2.10130E+01
 6.20000E+00    2.37230E+01
 6.40000E+00    2.65055E+01
 6.60000E+00    2.90597E+01
 6.80000E+00    3.14370E+01
 7.00000E+00    3.39759E+01
 7.20000E+00    3.60338E+01
 7.40000E+00    3.81702E+01
 7.60000E+00    3.99914E+01
 7.80000E+00    4.14127E+01
 8.00000E+00    4.33775E+01
 8.50000E+00    4.68107E+01
 9.00000E+00    4.97561E+01
 9.50000E+00    5.24124E+01
 1.00000E+01    5.48650E+01
 1.05000E+01    5.75081E+01
 1.10000E+01    6.28433E+01
 1.15000E+01    7.71125E+01
 1.20000E+01    9.87568E+01
 1.25000E+01    1.10330E+02
 1.30000E+01    1.11891E+02
 1.35000E+01    1.12955E+02
 1.40000E+01    1.14786E+02
 1.45000E+01    1.17500E+02
 1.50000E+01    1.19439E+02
 1.60000E+01    1.25092E+02
 1.70000E+01    1.32070E+02
 1.80000E+01    1.39244E+02
 1.90000E+01    1.47494E+02
 2.00000E+01    1.57898E+02
 2.10000E+01    1.67379E+02
 2.20000E+01    1.77024E+02
 2.30000E+01    1.87131E+02
 2.40000E+01    1.99248E+02
 2.50000E+01    2.11973E+02
 2.60000E+01    2.24455E+02
 2.70000E+01    2.36677E+02
 2.80000E+01    2.48647E+02
 2.90000E+01    2.59503E+02
 3.00000E+01    2.69681E+02
 3.00000E+01    2.70125E+02
 3.20000E+01    2.88805E+02
 3.40000E+01    3.08279E+02
 3.60000E+01    3.29735E+02
 3.80000E+01    3.53795E+02
 4.00000E+01    3.77946E+02
 4.20000E+01    4.00169E+02
 4.40000E+01    4.20094E+02
 4.60000E+01    4.38713E+02
 4.80000E+01    4.54698E+02
 5.00000E+01    4.71967E+02
 5.20000E+01    4.88728E+02
 5.40000E+01    5.05021E+02
 5.60000E+01    5.20053E+02
 5.80000E+01    5.25682E+02
 6.00000E+01    5.35516E+02
 6.50000E+01    5.69058E+02
 7.00000E+01    5.99989E+02
 7.50000E+01    6.27359E+02
 8.00000E+01    6.54328E+02
 9.00000E+01    7.04804E+02
 1.00000E+02    7.53357E+02
 1.10000E+02    8.06555E+02
 1.20000E+02    8.62464E+02
 1.30000E+02    9.26015E+02
 1.40000E+02    9.97466E+02
 1.50000E+02    1.07661E+03
 1.60000E+02    1.16764E+03
 1.80000E+02    1.38600E+03
 2.00000E+02    1.63399E+03
