# n + Ge 70 : (n,n'08)  
# jeff3.3    A.J. Koning and D. Rochman        EVAL-DEC15
# uncertainties: n
# # energies =    80
#   E(MeV)       xs(mb) 
 2.57149E+00    0.00000E+00
 2.59900E+00    2.09174E+01
 2.60000E+00    2.16777E+01
 2.80000E+00    8.20788E+01
 2.84672E+00    9.12544E+01
 2.92895E+00    1.07404E+02
 2.98738E+00    1.18879E+02
 3.00000E+00    1.21358E+02
 3.09037E+00    1.28548E+02
 3.10283E+00    1.29539E+02
 3.15182E+00    1.33437E+02
 3.17515E+00    1.35293E+02
 3.20000E+00    1.37270E+02
 3.22648E+00    1.36734E+02
 3.24028E+00    1.36455E+02
 3.28877E+00    1.35474E+02
 3.34228E+00    1.34391E+02
 3.34462E+00    1.34344E+02
 3.36191E+00    1.33994E+02
 3.38290E+00    1.33569E+02
 3.39325E+00    1.33360E+02
 3.39934E+00    1.33236E+02
 3.40000E+00    1.33223E+02
 3.42027E+00    1.31471E+02
 3.46564E+00    1.27551E+02
 3.47238E+00    1.26969E+02
 3.47745E+00    1.26531E+02
 3.48151E+00    1.26180E+02
 3.60000E+00    1.15941E+02
 3.80000E+00    9.48446E+01
 4.00000E+00    7.40665E+01
 4.20000E+00    5.77669E+01
 4.40000E+00    4.53784E+01
 4.60000E+00    3.60383E+01
 4.80000E+00    2.90204E+01
 5.00000E+00    2.34119E+01
 5.20000E+00    1.90711E+01
 5.40000E+00    1.56405E+01
 5.60000E+00    1.28967E+01
 5.80000E+00    1.06983E+01
 6.00000E+00    8.92541E+00
 6.20000E+00    7.49061E+00
 6.40000E+00    6.32812E+00
 6.60000E+00    5.38388E+00
 6.80000E+00    4.61636E+00
 7.00000E+00    3.99129E+00
 7.20000E+00    3.48070E+00
 7.40000E+00    3.06398E+00
 7.60000E+00    2.72416E+00
 7.80000E+00    2.43773E+00
 8.00000E+00    2.20894E+00
 8.50000E+00    1.78718E+00
 9.00000E+00    1.51840E+00
 9.50000E+00    1.34186E+00
 1.00000E+01    1.22212E+00
 1.05000E+01    1.13813E+00
 1.10000E+01    1.07696E+00
 1.15000E+01    1.03033E+00
 1.20000E+01    9.92762E-01
 1.25000E+01    9.60587E-01
 1.30000E+01    9.31604E-01
 1.35000E+01    9.04699E-01
 1.40000E+01    8.79470E-01
 1.45000E+01    8.55937E-01
 1.50000E+01    8.34191E-01
 1.60000E+01    7.95770E-01
 1.70000E+01    7.61894E-01
 1.80000E+01    7.29240E-01
 1.90000E+01    6.96213E-01
 2.00000E+01    6.63467E-01
 2.10000E+01    6.32515E-01
 2.20000E+01    6.04558E-01
 2.30000E+01    5.80186E-01
 2.40000E+01    5.59408E-01
 2.50000E+01    5.41717E-01
 2.60000E+01    5.26210E-01
 2.70000E+01    5.11850E-01
 2.80000E+01    4.97741E-01
 2.90000E+01    4.83380E-01
 3.00000E+01    4.68669E-01
