# n + S  32 : (n,xp)    
# jendl4.0   H.NAKAMURA                        EVAL-MAY87
# 
# # energies =   105
#   E(MeV)        xs(mb) 
 2.30035E+00    6.05885E+01
 2.30110E+00    6.06967E+01
 2.30259E+00    6.09124E+01
 2.30407E+00    6.11264E+01
 2.30701E+00    6.15516E+01
 2.30991E+00    6.19707E+01
 2.31276E+00    6.23837E+01
 2.31558E+00    6.27908E+01
 2.32113E+00    6.35937E+01
 2.32652E+00    6.43734E+01
 2.33176E+00    6.51304E+01
 2.33684E+00    6.58654E+01
 2.34177E+00    6.65790E+01
 2.34656E+00    6.72716E+01
 2.35587E+00    6.86177E+01
 2.36463E+00    6.98846E+01
 2.37287E+00    7.10765E+01
 2.38062E+00    7.21977E+01
 2.38791E+00    7.32521E+01
 2.39477E+00    7.42436E+01
 2.40768E+00    7.61132E+01
 2.41903E+00    7.77592E+01
 2.42900E+00    7.92057E+01
 2.43777E+00    8.04763E+01
 2.45318E+00    8.27110E+01
 2.46480E+00    8.43962E+01
 2.48234E+00    8.69391E+01
 2.50000E+00    8.95000E+01
 2.52865E+00    9.24224E+01
 2.55581E+00    9.51925E+01
 2.60752E+00    1.00467E+02
 2.65362E+00    1.05170E+02
 2.69463E+00    1.09352E+02
 2.73103E+00    1.13066E+02
 2.76329E+00    1.16595E+02
 2.82066E+00    1.23479E+02
 2.86446E+00    1.28735E+02
 2.89776E+00    1.32731E+02
 2.94844E+00    1.38812E+02
 3.00000E+00    1.45000E+02
 3.05837E+00    1.51420E+02
 3.11037E+00    1.57141E+02
 3.20351E+00    1.67386E+02
 3.27519E+00    1.75271E+02
 3.38573E+00    1.87430E+02
 3.50000E+00    2.00000E+02
 3.62284E+00    2.13267E+02
 3.75000E+00    2.27000E+02
 3.89822E+00    2.37672E+02
 3.94878E+00    2.41312E+02
 4.00000E+00    2.45000E+02
 4.20239E+00    2.57144E+02
 4.41503E+00    2.69242E+02
 4.45731E+00    2.71609E+02
 4.50000E+00    2.74000E+02
 4.59967E+00    2.78485E+02
 4.71983E+00    2.83727E+02
 4.84312E+00    2.88248E+02
 4.92094E+00    2.91101E+02
 5.00000E+00    2.94000E+02
 5.16393E+00    2.99901E+02
 5.36330E+00    3.06777E+02
 5.57036E+00    3.13111E+02
 5.67480E+00    3.16244E+02
 5.83513E+00    3.21054E+02
 6.00000E+00    3.26000E+02
 6.23574E+00    3.31186E+02
 6.41860E+00    3.35209E+02
 6.55926E+00    3.37830E+02
 6.77605E+00    3.40865E+02
 7.00000E+00    3.44000E+02
 7.23762E+00    3.47564E+02
 7.42112E+00    3.50317E+02
 7.70513E+00    3.54577E+02
 8.00000E+00    3.59000E+02
 8.23907E+00    3.61152E+02
 8.42305E+00    3.62807E+02
 8.70675E+00    3.65361E+02
 9.00000E+00    3.68000E+02
 9.48683E+00    3.70029E+02
 1.00000E+01    3.68227E+02
 1.02411E+01    3.72584E+02
 1.04258E+01    3.75921E+02
 1.07091E+01    3.81038E+02
 1.10000E+01    3.86295E+02
 1.12419E+01    3.88489E+02
 1.14268E+01    3.90166E+02
 1.15675E+01    3.91441E+02
 1.17818E+01    3.93384E+02
 1.20000E+01    3.95363E+02
 1.30000E+01    3.71180E+02
 1.34907E+01    3.50970E+02
 1.40000E+01    3.29997E+02
 1.42478E+01    3.17142E+02
 1.45000E+01    3.04060E+02
 1.50000E+01    2.78123E+02
 1.52440E+01    2.66931E+02
 1.56174E+01    2.49955E+02
 1.60000E+01    2.32912E+02
 1.64924E+01    2.14423E+02
 1.70000E+01    1.95365E+02
 1.74929E+01    1.85642E+02
 1.80000E+01    1.75638E+02
 1.90000E+01    1.62500E+02
 2.00000E+01    1.61163E+02
