# n + S  32 : (n,n'03)  
# jendl4.0   H.NAKAMURA                        EVAL-MAY87
# uncertainties: n
# # energies =   104
#   E(MeV)       xs(mb) 
 4.41503E+00    0.00000E+00
 4.41635E+00    3.69404E-01
 4.41894E+00    1.09667E+00
 4.42145E+00    1.80120E+00
 4.42632E+00    3.16623E+00
 4.43089E+00    4.44595E+00
 4.43517E+00    5.64569E+00
 4.44323E+00    7.89520E+00
 4.45028E+00    9.86351E+00
 4.45647E+00    1.15858E+01
 4.46731E+00    1.45998E+01
 4.47546E+00    1.68603E+01
 4.48771E+00    2.02510E+01
 4.50000E+00    2.36417E+01
 4.52973E+00    2.54246E+01
 4.55778E+00    2.70960E+01
 4.58424E+00    2.86630E+01
 4.60918E+00    3.01321E+01
 4.63268E+00    3.15093E+01
 4.67708E+00    3.40916E+01
 4.71628E+00    3.63511E+01
 4.75084E+00    3.83282E+01
 4.78129E+00    4.00582E+01
 4.80810E+00    4.15719E+01
 4.85537E+00    4.42209E+01
 4.89113E+00    4.62076E+01
 4.94527E+00    4.91877E+01
 5.00000E+00    5.21678E+01
 5.23318E+00    5.29702E+01
 5.41517E+00    5.35721E+01
 5.55580E+00    5.40235E+01
 5.77363E+00    5.47005E+01
 6.00000E+00    5.53776E+01
 6.23574E+00    5.47930E+01
 6.41860E+00    5.43545E+01
 6.70300E+00    5.36968E+01
 7.00000E+00    5.30391E+01
 7.23762E+00    5.18126E+01
 7.42112E+00    5.08927E+01
 7.56179E+00    5.02028E+01
 7.77781E+00    4.91679E+01
 8.00000E+00    4.81330E+01
 8.11865E+00    4.73743E+01
 8.33055E+00    4.60466E+01
 8.49309E+00    4.50508E+01
 8.61708E+00    4.43040E+01
 8.80646E+00    4.31837E+01
 9.00000E+00    4.20635E+01
 9.11932E+00    4.11066E+01
 9.22501E+00    4.02693E+01
 9.41294E+00    3.88040E+01
 9.55639E+00    3.77050E+01
 9.66541E+00    3.68808E+01
 9.83128E+00    3.56444E+01
 1.00000E+01    3.44081E+01
 1.01199E+01    3.35421E+01
 1.02259E+01    3.27844E+01
 1.04142E+01    3.14583E+01
 1.05576E+01    3.04637E+01
 1.06665E+01    2.97178E+01
 1.08320E+01    2.85990E+01
 1.10000E+01    2.74801E+01
 1.11203E+01    2.68987E+01
 1.13340E+01    2.58813E+01
 1.14969E+01    2.51182E+01
 1.16207E+01    2.45458E+01
 1.18088E+01    2.36874E+01
 1.20000E+01    2.28289E+01
 1.22425E+01    2.21640E+01
 1.24277E+01    2.16653E+01
 1.27106E+01    2.09173E+01
 1.28545E+01    2.05433E+01
 1.30000E+01    2.01693E+01
 1.32431E+01    1.96144E+01
 1.34284E+01    1.91982E+01
 1.37112E+01    1.85740E+01
 1.40000E+01    1.79497E+01
 1.42478E+01    1.74328E+01
 1.45000E+01    1.69160E+01
 1.47479E+01    1.63557E+01
 1.50000E+01    1.57954E+01
 1.52440E+01    1.52389E+01
 1.54296E+01    1.48215E+01
 1.57122E+01    1.41955E+01
 1.58554E+01    1.38824E+01
 1.60000E+01    1.35694E+01
 1.62443E+01    1.30413E+01
 1.64300E+01    1.26452E+01
 1.65707E+01    1.23481E+01
 1.67840E+01    1.19025E+01
 1.70000E+01    1.14569E+01
 1.72447E+01    1.09906E+01
 1.74305E+01    1.06408E+01
 1.75711E+01    1.03785E+01
 1.77843E+01    9.98509E+00
 1.80000E+01    9.59164E+00
 1.82450E+01    9.20724E+00
 1.84309E+01    8.91895E+00
 1.87133E+01    8.48650E+00
 1.90000E+01    8.05406E+00
 1.92452E+01    7.74832E+00
 1.94312E+01    7.51901E+00
 1.97135E+01    7.17504E+00
 2.00000E+01    6.83108E+00
