# n + S  32 : (n,tot)   
# jendl4.0   H.NAKAMURA                        EVAL-MAY87
# uncertainties: n
# # energies =   171
#   E(MeV)       xs(mb) 
 1.00000E-11    8.22556E+03
 1.00000E-07    1.16280E+03
 4.13990E-07    1.09410E+03
 5.31580E-07    1.07949E+03
 6.82560E-07    1.06662E+03
 8.76420E-07    1.05529E+03
 1.12540E-06    1.04546E+03
 1.44500E-06    1.03681E+03
 1.85540E-06    1.02941E+03
 2.37240E-06    1.02244E+03
 3.05900E-06    1.01630E+03
 3.92790E-06    1.01106E+03
 5.04350E-06    1.00631E+03
 6.47600E-06    1.00198E+03
 8.31530E-06    9.98645E+02
 1.06770E-05    9.94800E+02
 1.37100E-05    9.92430E+02
 1.76030E-05    9.89803E+02
 2.26030E-05    9.86956E+02
 2.92030E-05    9.85433E+02
 3.72670E-05    9.83696E+02
 4.78510E-05    9.81461E+02
 6.14420E-05    9.79964E+02
 7.88930E-05    9.78932E+02
 1.01300E-04    9.77607E+02
 1.30070E-04    9.75906E+02
 1.67020E-04    9.74071E+02
 2.14450E-04    9.72995E+02
 2.75360E-04    9.71728E+02
 3.53580E-04    9.70100E+02
 4.54000E-04    9.68010E+02
 5.82950E-04    9.65327E+02
 7.48520E-04    9.62152E+02
 9.61120E-04    9.59097E+02
 1.23410E-03    9.55270E+02
 1.58460E-03    9.50356E+02
 2.03470E-03    9.46165E+02
 2.24870E-03    9.43388E+02
 2.48520E-03    9.41125E+02
 2.61260E-03    9.39513E+02
 2.74650E-03    9.36927E+02
 3.03540E-03    9.33178E+02
 3.35460E-03    9.29174E+02
 3.70740E-03    9.24212E+02
 4.30740E-03    9.14893E+02
 5.53080E-03    9.00401E+02
 7.10170E-03    8.81792E+02
 9.11880E-03    8.58104E+02
 1.17090E-02    8.28167E+02
 1.50340E-02    7.89740E+02
 1.93050E-02    7.54163E+02
 2.18750E-02    7.31684E+02
 2.35790E-02    7.19549E+02
 2.41760E-02    7.13225E+02
 2.47880E-02    7.03423E+02
 2.60580E-02    6.92692E+02
 2.70000E-02    6.85779E+02
 2.85000E-02    3.31174E+03
 3.18280E-02    6.28136E+02
 3.43070E-02    5.52962E+02
 4.08680E-02    4.82978E+02
 4.63090E-02    3.88063E+02
 5.24750E-02    2.84773E+02
 5.65620E-02    1.57182E+02
 6.73790E-02    3.77299E+01
 7.20000E-02    3.06767E+01
 7.95000E-02    1.84423E+02
 8.25000E-02    5.42979E+02
 8.65170E-02    5.44398E+03
 9.80370E-02    2.19887E+04
 1.11090E-01    2.14482E+04
 1.16790E-01    1.00987E+04
 1.22770E-01    7.52942E+03
 1.29070E-01    6.02293E+03
 1.35690E-01    5.05233E+03
 1.42640E-01    4.40383E+03
 1.49960E-01    3.90570E+03
 1.57640E-01    3.58881E+03
 1.65730E-01    3.29224E+03
 1.74220E-01    3.08152E+03
 1.83160E-01    2.96956E+03
 1.92550E-01    5.23312E+03
 2.02420E-01    5.79392E+03
 2.12800E-01    2.61821E+03
 2.23710E-01    2.39039E+03
 2.35180E-01    2.25281E+03
 2.47240E-01    2.79268E+03
 2.73240E-01    2.70406E+03
 2.87250E-01    5.98865E+03
 2.94520E-01    2.13614E+03
 2.97200E-01    2.05182E+03
 2.98500E-01    1.98827E+03
 3.01970E-01    1.76358E+03
 3.33730E-01    1.05691E+03
 3.68830E-01    4.32457E+03
 3.87740E-01    3.42667E+03
 4.07620E-01    2.50614E+03
 4.50490E-01    2.18828E+03
 4.97870E-01    1.97876E+03
 5.23400E-01    1.90447E+03
 5.50230E-01    1.82309E+03
 5.78440E-01    2.69264E+03
 6.08100E-01    1.69582E+03
 6.39280E-01    3.80596E+03
 6.72060E-01    1.83050E+03
 7.06510E-01    3.75342E+03
 7.42740E-01    2.58707E+03
 7.80820E-01    2.42572E+03
 8.20850E-01    1.96931E+03
 8.62940E-01    1.83533E+03
 9.07180E-01    2.75404E+03
 9.61640E-01    2.42827E+03
 1.00260E+00    2.23590E+03
 1.10800E+00    2.41358E+03
 1.16480E+00    1.95777E+03
 1.22460E+00    1.66714E+03
 1.28730E+00    2.44481E+03
 1.35340E+00    2.49439E+03
 1.42270E+00    2.39693E+03
 1.49570E+00    2.01100E+03
 1.57240E+00    2.96507E+03
 1.65300E+00    2.98509E+03
 1.73770E+00    3.00614E+03
 1.82680E+00    3.02828E+03
 1.92050E+00    3.05132E+03
 2.01900E+00    3.06658E+03
 2.12250E+00    3.07805E+03
 2.23130E+00    3.08502E+03
 2.30690E+00    3.08341E+03
 2.34570E+00    3.08241E+03
 2.36530E+00    3.08174E+03
 2.38520E+00    3.08004E+03
 2.46600E+00    3.07653E+03
 2.59240E+00    3.07050E+03
 2.72530E+00    3.06160E+03
 2.86500E+00    3.05222E+03
 3.01190E+00    3.03946E+03
 3.16640E+00    3.01992E+03
 3.32870E+00    2.98827E+03
 3.67880E+00    2.93676E+03
 4.06570E+00    2.87022E+03
 4.49330E+00    2.81086E+03
 4.72370E+00    2.76608E+03
 4.96590E+00    2.71762E+03
 5.22050E+00    2.66322E+03
 5.48810E+00    2.60602E+03
 5.76950E+00    2.54928E+03
 6.06530E+00    2.49015E+03
 6.37630E+00    2.43819E+03
 6.59240E+00    2.40596E+03
 6.70320E+00    2.36480E+03
 7.04690E+00    2.30525E+03
 7.40820E+00    2.24767E+03
 7.78800E+00    2.19202E+03
 8.18730E+00    2.14347E+03
 8.60710E+00    2.09573E+03
 9.04840E+00    2.05137E+03
 9.51230E+00    2.00870E+03
 1.00000E+01    1.96398E+03
 1.05130E+01    1.91929E+03
 1.10520E+01    1.87557E+03
 1.16180E+01    1.83321E+03
 1.22140E+01    1.79716E+03
 1.28400E+01    1.76615E+03
 1.34990E+01    1.74823E+03
 1.38400E+01    1.73714E+03
 1.41910E+01    1.72912E+03
 1.45500E+01    1.72342E+03
 1.49180E+01    1.72067E+03
 1.56830E+01    1.72432E+03
 1.64870E+01    1.73946E+03
