# n + Ba135 : (n,tot)   
# jeff3.3    JNDC FP NUCLEAR DATA W.G.         EVAL-MAR90
# uncertainties: n
# # energies =   171
#   E(MeV)       xs(mb) 
 1.00000E-11    6.55692E+04
 1.00000E-07    3.88372E+03
 4.13990E-07    3.13853E+03
 5.31580E-07    2.97764E+03
 6.82560E-07    2.83455E+03
 8.76420E-07    2.70696E+03
 1.12540E-06    2.59293E+03
 1.44500E-06    2.49041E+03
 1.85540E-06    2.39763E+03
 2.37240E-06    2.31075E+03
 3.05900E-06    2.22920E+03
 3.92790E-06    2.15261E+03
 5.04350E-06    2.07793E+03
 6.47600E-06    2.00472E+03
 8.31530E-06    1.93332E+03
 1.06770E-05    1.87354E+03
 1.37100E-05    1.89718E+03
 1.76030E-05    3.88833E+03
 2.26030E-05    3.08537E+05
 2.92030E-05    2.76936E+03
 3.72670E-05    1.82919E+03
 4.78510E-05    1.41177E+03
 6.14420E-05    3.33761E+03
 7.88930E-05    3.29192E+05
 1.01300E-04    1.10278E+05
 1.30070E-04    3.04268E+03
 1.67020E-04    2.24216E+03
 2.14450E-04    8.94174E+03
 2.75360E-04    5.05534E+04
 3.53580E-04    4.30428E+04
 4.54000E-04    7.04362E+03
 5.82950E-04    1.77091E+04
 7.48520E-04    2.58383E+04
 9.61120E-04    1.34717E+04
 1.23410E-03    7.21464E+03
 1.58460E-03    2.25899E+04
 2.03470E-03    5.94108E+03
 2.24870E-03    1.95812E+04
 2.48520E-03    2.16005E+04
 2.61260E-03    1.66317E+04
 2.74650E-03    2.16045E+04
 3.03540E-03    9.55419E+03
 3.35460E-03    2.37219E+04
 3.70740E-03    2.18723E+04
 4.30740E-03    2.19523E+04
 5.53080E-03    8.33137E+03
 7.10170E-03    7.63556E+03
 9.11880E-03    7.04010E+03
 1.17090E-02    6.84571E+03
 1.50340E-02    6.68378E+03
 1.93050E-02    6.54582E+03
 2.18750E-02    6.48121E+03
 2.35790E-02    6.45109E+03
 2.41760E-02    6.43695E+03
 2.47880E-02    6.41038E+03
 2.60580E-02    6.37351E+03
 2.70000E-02    6.33650E+03
 2.85000E-02    6.24690E+03
 3.18280E-02    6.05683E+03
 3.43070E-02    5.80354E+03
 4.08680E-02    5.55480E+03
 4.63090E-02    5.38352E+03
 5.24750E-02    5.23304E+03
 5.65620E-02    5.05335E+03
 6.73790E-02    4.89812E+03
 7.20000E-02    4.89091E+03
 7.95000E-02    4.88165E+03
 8.25000E-02    4.82621E+03
 8.65170E-02    4.70829E+03
 9.80370E-02    4.59549E+03
 1.11090E-01    4.61146E+03
 1.16790E-01    4.62227E+03
 1.22770E-01    4.63288E+03
 1.29070E-01    4.64390E+03
 1.35690E-01    4.65463E+03
 1.42640E-01    4.66560E+03
 1.49960E-01    4.68336E+03
 1.57640E-01    4.70830E+03
 1.65730E-01    4.73328E+03
 1.74220E-01    4.75824E+03
 1.83160E-01    4.78358E+03
 1.92550E-01    4.80925E+03
 2.02420E-01    4.84108E+03
 2.12800E-01    4.87563E+03
 2.23710E-01    4.91345E+03
 2.35180E-01    4.95381E+03
 2.47240E-01    5.01951E+03
 2.73240E-01    5.09218E+03
 2.87250E-01    5.13071E+03
 2.94520E-01    5.14870E+03
 2.97200E-01    5.15588E+03
 2.98500E-01    5.16448E+03
 3.01970E-01    5.22727E+03
 3.33730E-01    5.34871E+03
 3.68830E-01    5.44754E+03
 3.87740E-01    5.51121E+03
 4.07620E-01    5.60810E+03
 4.50490E-01    5.74686E+03
 4.97870E-01    5.85459E+03
 5.23400E-01    5.93076E+03
 5.50230E-01    6.01082E+03
 5.78440E-01    6.09465E+03
 6.08100E-01    6.17488E+03
 6.39280E-01    6.25589E+03
 6.72060E-01    6.34104E+03
 7.06510E-01    6.42875E+03
 7.42740E-01    6.51066E+03
 7.80820E-01    6.59513E+03
 8.20850E-01    6.68355E+03
 8.62940E-01    6.76531E+03
 9.07180E-01    6.85295E+03
 9.61640E-01    6.93756E+03
 1.00260E+00    7.03690E+03
 1.10800E+00    7.14196E+03
 1.16480E+00    7.21155E+03
 1.22460E+00    7.26302E+03
 1.28730E+00    7.29854E+03
 1.35340E+00    7.33023E+03
 1.42270E+00    7.36354E+03
 1.49570E+00    7.37745E+03
 1.57240E+00    7.36526E+03
 1.65300E+00    7.35236E+03
 1.73770E+00    7.32827E+03
 1.82680E+00    7.27378E+03
 1.92050E+00    7.21327E+03
 2.01900E+00    7.09211E+03
 2.12250E+00    6.93532E+03
 2.23130E+00    6.80581E+03
 2.30690E+00    6.73354E+03
 2.34570E+00    6.69672E+03
 2.36530E+00    6.67184E+03
 2.38520E+00    6.60870E+03
 2.46600E+00    6.48552E+03
 2.59240E+00    6.34569E+03
 2.72530E+00    6.20185E+03
 2.86500E+00    6.06274E+03
 3.01190E+00    5.91001E+03
 3.16640E+00    5.73967E+03
 3.32870E+00    5.49545E+03
 3.67880E+00    5.18508E+03
 4.06570E+00    4.90948E+03
 4.49330E+00    4.71891E+03
 4.72370E+00    4.59792E+03
 4.96590E+00    4.50031E+03
 5.22050E+00    4.44647E+03
 5.48810E+00    4.39063E+03
 5.76950E+00    4.33510E+03
 6.06530E+00    4.32983E+03
 6.37630E+00    4.34437E+03
 6.59240E+00    4.35339E+03
 6.70320E+00    4.36582E+03
 7.04690E+00    4.39121E+03
 7.40820E+00    4.42602E+03
 7.78800E+00    4.46264E+03
 8.18730E+00    4.50115E+03
 8.60710E+00    4.54164E+03
 9.04840E+00    4.58420E+03
 9.51230E+00    4.63345E+03
 1.00000E+01    4.69461E+03
 1.05130E+01    4.76379E+03
 1.10520E+01    4.83490E+03
 1.16180E+01    4.90460E+03
 1.22140E+01    4.96058E+03
 1.28400E+01    5.01268E+03
 1.34990E+01    5.05205E+03
 1.38400E+01    5.07650E+03
 1.41910E+01    5.08794E+03
 1.45500E+01    5.09752E+03
 1.49180E+01    5.10488E+03
 1.56830E+01    5.10324E+03
 1.64870E+01    5.08863E+03
