# n + Xe126 : (n,n'09)  
# jeff3.3    A.J. Koning and D. Rochman        EVAL-DEC15
# uncertainties: n
# # energies =    83
#   E(MeV)       xs(mb) 
 1.77464E+00    0.00000E+00
 1.80000E+00    9.28101E+00
 1.88216E+00    1.79494E+01
 1.91838E+00    2.17708E+01
 1.96983E+00    2.71991E+01
 2.00000E+00    3.03822E+01
 2.02091E+00    3.11043E+01
 2.05845E+00    3.24006E+01
 2.08054E+00    3.31635E+01
 2.10301E+00    3.39394E+01
 2.20000E+00    3.72887E+01
 2.20547E+00    3.72766E+01
 2.23205E+00    3.72178E+01
 2.23972E+00    3.72009E+01
 2.24651E+00    3.71859E+01
 2.27688E+00    3.71187E+01
 2.28061E+00    3.71104E+01
 2.32000E+00    3.70233E+01
 2.32308E+00    3.70165E+01
 2.32864E+00    3.70042E+01
 2.33344E+00    3.69936E+01
 2.34014E+00    3.69788E+01
 2.36604E+00    3.69215E+01
 2.36940E+00    3.69141E+01
 2.37749E+00    3.68962E+01
 2.40000E+00    3.68464E+01
 2.60000E+00    3.21173E+01
 2.80000E+00    2.64515E+01
 3.00000E+00    2.08661E+01
 3.20000E+00    1.59354E+01
 3.40000E+00    1.18972E+01
 3.60000E+00    8.75540E+00
 3.80000E+00    6.39565E+00
 4.00000E+00    4.66279E+00
 4.20000E+00    3.40624E+00
 4.40000E+00    2.49939E+00
 4.60000E+00    1.84399E+00
 4.80000E+00    1.36758E+00
 5.00000E+00    1.01862E+00
 5.20000E+00    7.61088E-01
 5.40000E+00    5.69837E-01
 5.60000E+00    4.27224E-01
 5.80000E+00    3.20615E-01
 6.00000E+00    2.40773E-01
 6.20000E+00    1.80996E-01
 6.40000E+00    1.35925E-01
 6.60000E+00    1.02228E-01
 6.80000E+00    7.70790E-02
 7.00000E+00    5.82366E-02
 7.20000E+00    4.40587E-02
 7.40000E+00    3.34601E-02
 7.60000E+00    2.54624E-02
 7.80000E+00    1.94429E-02
 8.00000E+00    1.49047E-02
 8.50000E+00    7.78839E-03
 9.00000E+00    4.16943E-03
 9.50000E+00    2.28379E-03
 1.00000E+01    1.27660E-03
 1.05000E+01    7.25353E-04
 1.10000E+01    4.16658E-04
 1.15000E+01    2.41205E-04
 1.20000E+01    1.40576E-04
 1.25000E+01    8.24976E-05
 1.30000E+01    4.87700E-05
 1.35000E+01    2.90572E-05
 1.40000E+01    1.74551E-05
 1.45000E+01    1.05759E-05
 1.50000E+01    6.46428E-06
 1.60000E+01    2.48032E-06
 1.70000E+01    9.84190E-07
 1.80000E+01    4.02370E-07
 1.90000E+01    1.69030E-07
 2.00000E+01    7.23730E-08
 2.10000E+01    3.18210E-08
 2.20000E+01    1.42470E-08
 2.30000E+01    6.46060E-09
 2.40000E+01    2.96960E-09
 2.50000E+01    1.38400E-09
 2.60000E+01    6.55050E-10
 2.70000E+01    3.15000E-10
 2.80000E+01    1.53860E-10
 2.90000E+01    7.62790E-11
 3.00000E+01    3.83220E-11
