# n + Xe126 : (n,xa)    
# jeff3.3    A.J. Koning and D. Rochman        EVAL-DEC15
# 
# # energies =   131
#   E(MeV)        xs(mb) 
 3.91744E-01    1.58651E-05
 4.00000E-01    1.62132E-05
 5.00000E-01    1.84002E-05
 6.00000E-01    2.50845E-05
 7.00000E-01    3.29824E-05
 8.00000E-01    4.31161E-05
 8.86920E-01    5.78535E-05
 9.00000E-01    6.00713E-05
 9.49547E-01    6.81905E-05
 1.00000E+00    7.64160E-05
 1.20000E+00    1.35621E-04
 1.32441E+00    1.92762E-04
 1.32824E+00    1.94521E-04
 1.40000E+00    2.27480E-04
 1.50030E+00    3.13795E-04
 1.60000E+00    3.99593E-04
 1.64808E+00    4.56501E-04
 1.69202E+00    5.08509E-04
 1.77464E+00    6.06299E-04
 1.80000E+00    6.36316E-04
 1.88216E+00    8.13114E-04
 1.91838E+00    8.91054E-04
 1.96983E+00    1.00177E-03
 2.00000E+00    1.06669E-03
 2.02091E+00    1.12899E-03
 2.05845E+00    1.24083E-03
 2.08054E+00    1.30665E-03
 2.10301E+00    1.37359E-03
 2.20000E+00    1.66256E-03
 2.20547E+00    1.68160E-03
 2.23205E+00    1.77413E-03
 2.23972E+00    1.80083E-03
 2.24651E+00    1.82447E-03
 2.27688E+00    1.93019E-03
 2.28061E+00    1.94317E-03
 2.32000E+00    2.08029E-03
 2.32308E+00    2.09101E-03
 2.32864E+00    2.11037E-03
 2.33344E+00    2.12708E-03
 2.34014E+00    2.15040E-03
 2.36604E+00    2.24056E-03
 2.36940E+00    2.25226E-03
 2.37749E+00    2.28042E-03
 2.40000E+00    2.35878E-03
 2.60000E+00    3.20329E-03
 2.80000E+00    4.17471E-03
 3.00000E+00    5.42953E-03
 3.20000E+00    6.90456E-03
 3.40000E+00    8.52841E-03
 3.60000E+00    1.05041E-02
 3.80000E+00    1.26463E-02
 4.00000E+00    1.51245E-02
 4.20000E+00    1.79361E-02
 4.40000E+00    2.09340E-02
 4.60000E+00    2.43506E-02
 4.80000E+00    2.81080E-02
 5.00000E+00    3.22481E-02
 5.20000E+00    3.70599E-02
 5.40000E+00    4.21951E-02
 5.60000E+00    4.78982E-02
 5.80000E+00    5.45343E-02
 6.00000E+00    6.15921E-02
 6.20000E+00    7.03049E-02
 6.40000E+00    7.94610E-02
 6.60000E+00    8.93604E-02
 6.80000E+00    1.01900E-01
 7.00000E+00    1.14478E-01
 7.20000E+00    1.31055E-01
 7.40000E+00    1.48638E-01
 7.60000E+00    1.66599E-01
 7.80000E+00    1.90957E-01
 8.00000E+00    2.14382E-01
 8.50000E+00    2.93318E-01
 9.00000E+00    4.00756E-01
 9.50000E+00    5.44498E-01
 1.00000E+01    7.35272E-01
 1.05000E+01    9.80029E-01
 1.10000E+01    1.26530E+00
 1.15000E+01    1.61852E+00
 1.20000E+01    2.05277E+00
 1.25000E+01    2.54537E+00
 1.30000E+01    3.11441E+00
 1.35000E+01    3.77010E+00
 1.40000E+01    4.51774E+00
 1.45000E+01    5.33461E+00
 1.50000E+01    6.30868E+00
 1.60000E+01    8.67054E+00
 1.70000E+01    1.17606E+01
 1.80000E+01    1.58764E+01
 1.90000E+01    1.95895E+01
 2.00000E+01    2.29333E+01
 2.10000E+01    2.49299E+01
 2.20000E+01    2.50893E+01
 2.30000E+01    2.64745E+01
 2.40000E+01    2.79753E+01
 2.50000E+01    2.95306E+01
 2.60000E+01    3.11184E+01
 2.70000E+01    3.26906E+01
 2.80000E+01    3.42405E+01
 2.90000E+01    3.57630E+01
 3.00000E+01    3.72386E+01
 3.00000E+01    3.71028E+01
 3.20000E+01    3.99232E+01
 3.40000E+01    4.24981E+01
 3.60000E+01    4.49812E+01
 3.80000E+01    4.72144E+01
 4.00000E+01    4.93908E+01
 4.20000E+01    5.14406E+01
 4.40000E+01    5.33809E+01
 4.60000E+01    5.52468E+01
 4.80000E+01    5.70583E+01
 5.00000E+01    5.87393E+01
 5.20000E+01    6.04446E+01
 5.40000E+01    6.21203E+01
 5.60000E+01    6.38056E+01
 5.80000E+01    6.55380E+01
 6.00000E+01    6.72674E+01
 6.50000E+01    7.11662E+01
 7.00000E+01    7.43395E+01
 7.50000E+01    7.76514E+01
 8.00000E+01    8.12730E+01
 9.00000E+01    8.72320E+01
 1.00000E+02    9.02451E+01
 1.10000E+02    9.14612E+01
 1.20000E+02    9.29142E+01
 1.30000E+02    9.27752E+01
 1.40000E+02    9.61268E+01
 1.50000E+02    1.04951E+02
 1.60000E+02    1.14361E+02
 1.80000E+02    1.46304E+02
 2.00000E+02    2.35228E+02
