# n + Xe126 : (n,n'19)  
# jeff3.3    A.J. Koning and D. Rochman        EVAL-DEC15
# uncertainties: n
# # energies =    70
#   E(MeV)       xs(mb) 
 2.23972E+00    0.00000E+00
 2.24651E+00    1.24694E+00
 2.27688E+00    6.82428E+00
 2.28061E+00    7.50929E+00
 2.32000E+00    1.47431E+01
 2.32308E+00    1.53087E+01
 2.32864E+00    1.63298E+01
 2.33344E+00    1.72113E+01
 2.34014E+00    1.84417E+01
 2.36604E+00    2.31982E+01
 2.36940E+00    2.38152E+01
 2.37749E+00    2.53009E+01
 2.40000E+00    2.94348E+01
 2.60000E+00    3.62873E+01
 2.80000E+00    3.44590E+01
 3.00000E+00    3.00923E+01
 3.20000E+00    2.51348E+01
 3.40000E+00    2.03439E+01
 3.60000E+00    1.60579E+01
 3.80000E+00    1.24253E+01
 4.00000E+00    9.47326E+00
 4.20000E+00    7.15200E+00
 4.40000E+00    5.37091E+00
 4.60000E+00    4.02640E+00
 4.80000E+00    3.02112E+00
 5.00000E+00    2.27260E+00
 5.20000E+00    1.71511E+00
 5.40000E+00    1.29839E+00
 5.60000E+00    9.85420E-01
 5.80000E+00    7.49276E-01
 6.00000E+00    5.70411E-01
 6.20000E+00    4.34590E-01
 6.40000E+00    3.30570E-01
 6.60000E+00    2.51670E-01
 6.80000E+00    1.91976E-01
 7.00000E+00    1.46531E-01
 7.20000E+00    1.11891E-01
 7.40000E+00    8.56793E-02
 7.60000E+00    6.56426E-02
 7.80000E+00    5.04099E-02
 8.00000E+00    3.88221E-02
 8.50000E+00    2.04247E-02
 9.00000E+00    1.09533E-02
 9.50000E+00    5.99262E-03
 1.00000E+01    3.34323E-03
 1.05000E+01    1.89746E-03
 1.10000E+01    1.09054E-03
 1.15000E+01    6.32804E-04
 1.20000E+01    3.70245E-04
 1.25000E+01    2.18380E-04
 1.30000E+01    1.29855E-04
 1.35000E+01    7.78535E-05
 1.40000E+01    4.70644E-05
 1.45000E+01    2.86876E-05
 1.50000E+01    1.76282E-05
 1.60000E+01    6.81515E-06
 1.70000E+01    2.71224E-06
 1.80000E+01    1.10793E-06
 1.90000E+01    4.63920E-07
 2.00000E+01    1.97800E-07
 2.10000E+01    8.66880E-08
 2.20000E+01    3.87850E-08
 2.30000E+01    1.76260E-08
 2.40000E+01    8.13440E-09
 2.50000E+01    3.80710E-09
 2.60000E+01    1.80730E-09
 2.70000E+01    8.70180E-10
 2.80000E+01    4.24850E-10
 2.90000E+01    2.10320E-10
 3.00000E+01    1.05480E-10
