# n + Hf176 : (n,n'19)  
# tendl.2019 A.J. Koning and D. Rochman        EVAL-NOV19
# uncertainties: n
# # energies =    74
#   E(MeV)       xs(mb) 
 1.51444E+00    0.00000E+00
 1.51726E+00    4.51733E-03
 1.54139E+00    4.31707E-02
 1.54913E+00    5.55693E-02
 1.56825E+00    8.61972E-02
 1.58665E+00    1.15672E-01
 1.60000E+00    1.37057E-01
 1.60063E+00    1.39437E-01
 1.61853E+00    2.07058E-01
 1.63789E+00    2.80195E-01
 1.65285E+00    3.36710E-01
 1.66259E+00    3.73505E-01
 1.68193E+00    4.46565E-01
 1.80000E+00    8.92601E-01
 2.00000E+00    1.40491E+00
 2.20000E+00    1.49403E+00
 2.40000E+00    1.37503E+00
 2.60000E+00    1.18064E+00
 2.80000E+00    9.77313E-01
 3.00000E+00    7.92717E-01
 3.20000E+00    6.25386E-01
 3.40000E+00    4.95217E-01
 3.60000E+00    3.88908E-01
 3.80000E+00    3.03424E-01
 4.00000E+00    2.35687E-01
 4.20000E+00    1.82469E-01
 4.40000E+00    1.40956E-01
 4.60000E+00    1.08747E-01
 4.80000E+00    8.36163E-02
 5.00000E+00    6.41968E-02
 5.20000E+00    4.92454E-02
 5.40000E+00    3.77424E-02
 5.60000E+00    2.89188E-02
 5.80000E+00    2.20671E-02
 6.00000E+00    1.68558E-02
 6.20000E+00    1.29081E-02
 6.40000E+00    9.88324E-03
 6.60000E+00    7.58673E-03
 6.80000E+00    5.83075E-03
 7.00000E+00    4.48150E-03
 7.20000E+00    3.45542E-03
 7.40000E+00    2.66339E-03
 7.60000E+00    2.05688E-03
 7.80000E+00    1.59067E-03
 8.00000E+00    1.22998E-03
 8.50000E+00    6.51997E-04
 9.00000E+00    3.46759E-04
 9.50000E+00    1.84699E-04
 1.00000E+01    9.87590E-05
 1.05000E+01    5.31434E-05
 1.10000E+01    2.88239E-05
 1.15000E+01    1.57720E-05
 1.20000E+01    8.70777E-06
 1.25000E+01    4.84973E-06
 1.30000E+01    2.72517E-06
 1.35000E+01    1.54416E-06
 1.40000E+01    8.82320E-07
 1.45000E+01    5.07990E-07
 1.50000E+01    2.94760E-07
 1.60000E+01    1.01330E-07
 1.70000E+01    3.57540E-08
 1.80000E+01    1.28060E-08
 1.90000E+01    4.72320E-09
 2.00000E+01    1.77760E-09
 2.10000E+01    6.84830E-10
 2.20000E+01    2.69120E-10
 2.30000E+01    1.08220E-10
 2.40000E+01    4.44170E-11
 2.50000E+01    1.85060E-11
 2.60000E+01    7.83080E-12
 2.70000E+01    3.35960E-12
 2.80000E+01    1.46100E-12
 2.90000E+01    6.44020E-13
 3.00000E+01    2.87500E-13
