# n + Te122 : (n,p)     
# jendl.ad   K.Shibata (JAEA)                  EVAL-Nov13
# uncertainties: n
# # energies =    67
#   E(MeV)       xs(mb) 
 1.21145E+00    0.00000E+00
 1.27337E+00    1.96640E-12
 1.29018E+00    2.50020E-12
 1.33395E+00    3.89020E-12
 1.35006E+00    4.40180E-12
 1.37636E+00    5.23700E-12
 1.38006E+00    5.35940E-12
 1.39153E+00    5.73870E-12
 1.40600E+00    6.21730E-12
 1.42283E+00    6.77390E-12
 1.46906E+00    8.30280E-12
 1.47806E+00    8.60040E-12
 1.47875E+00    8.62330E-12
 1.48546E+00    8.84520E-12
 1.49644E+00    9.20830E-12
 1.52528E+00    1.01620E-11
 1.53721E+00    1.05570E-11
 1.54789E+00    1.09100E-11
 1.60840E+00    1.29110E-11
 1.61167E+00    1.30190E-11
 1.62494E+00    1.34580E-11
 1.62864E+00    1.35810E-11
 1.63089E+00    1.36550E-11
 1.64011E+00    1.39600E-11
 1.66895E+00    1.49140E-11
 1.68937E+00    1.55890E-11
 1.69586E+00    1.58040E-11
 1.69677E+00    1.58340E-11
 1.69910E+00    1.59110E-11
 1.80235E+00    1.93250E-11
 1.82145E+00    1.99570E-11
 1.83658E+00    2.04580E-11
 1.84850E+00    2.08520E-11
 1.85933E+00    2.12100E-11
 1.87534E+00    2.17390E-11
 1.88453E+00    2.20430E-11
 1.91118E+00    2.29250E-11
 1.91999E+00    2.32160E-11
 1.96564E+00    2.47260E-11
 2.22202E+00    3.32050E-11
 2.50000E+00    9.99550E-09
 3.00000E+00    5.60522E-06
 3.50000E+00    2.91626E-04
 4.00000E+00    4.03542E-03
 4.50000E+00    2.42665E-02
 5.00000E+00    8.34832E-02
 5.50000E+00    1.94090E-01
 6.00000E+00    3.40276E-01
 6.50000E+00    4.72259E-01
 7.00000E+00    5.97250E-01
 7.50000E+00    7.20085E-01
 8.00000E+00    8.75987E-01
 8.50000E+00    1.10512E+00
 9.00000E+00    1.44279E+00
 9.50000E+00    1.91834E+00
 1.00000E+01    2.55505E+00
 1.10000E+01    4.37377E+00
 1.20000E+01    6.93814E+00
 1.30000E+01    1.00500E+01
 1.40000E+01    1.33073E+01
 1.45000E+01    1.49097E+01
 1.50000E+01    1.63884E+01
 1.60000E+01    1.91891E+01
 1.70000E+01    2.13635E+01
 1.80000E+01    2.31101E+01
 1.90000E+01    2.44155E+01
 2.00000E+01    2.49742E+01
