# n + Te122 : (n,h)     
# jendl.ad   K.Shibata (JAEA)                  EVAL-Nov13
# uncertainties: n
# # energies =    46
#   E(MeV)       xs(mb) 
 6.11907E+00    0.00000E+00
 7.30003E+00    1.66210E-23
 8.00969E+00    2.67530E-23
 8.23363E+00    4.75350E-21
 8.29687E+00    6.36410E-21
 8.31005E+00    6.70550E-21
 8.33152E+00    7.27130E-21
 8.42224E+00    9.71900E-21
 8.43507E+00    1.00670E-20
 8.49394E+00    1.16660E-20
 8.50000E+00    1.18300E-20
 8.53923E+00    2.45970E-20
 8.56000E+00    3.13570E-20
 8.60510E+00    4.60350E-20
 8.62123E+00    5.12850E-20
 8.68009E+00    7.04420E-20
 8.72773E+00    8.59470E-20
 8.78429E+00    1.04360E-19
 8.82645E+00    1.18080E-19
 8.83233E+00    1.19990E-19
 8.83732E+00    1.21620E-19
 8.86976E+00    1.32170E-19
 8.89153E+00    1.39260E-19
 8.89283E+00    1.39680E-19
 8.94229E+00    1.55780E-19
 8.94425E+00    1.56420E-19
 8.97792E+00    1.67380E-19
 8.97906E+00    1.67750E-19
 8.98694E+00    1.70310E-19
 9.00000E+00    1.75200E-19
 9.00032E+00    2.17570E-19
 9.04530E+00    6.17630E-18
 9.07385E+00    9.95960E-18
 9.50000E+00    6.64380E-17
 1.00000E+01    6.38370E-15
 1.10000E+01    3.13080E-12
 1.20000E+01    1.34900E-10
 1.30000E+01    1.40760E-09
 1.40000E+01    8.37710E-09
 1.45000E+01    3.04320E-08
 1.50000E+01    1.21660E-07
 1.60000E+01    1.77574E-06
 1.70000E+01    1.62300E-05
 1.80000E+01    8.87846E-05
 1.90000E+01    3.65980E-04
 2.00000E+01    1.20048E-03
