# n + Te122 : (n,t)     
# jendl.ad   K.Shibata (JAEA)                  EVAL-Nov13
# uncertainties: n
# # energies =    49
#   E(MeV)       xs(mb) 
 8.84060E+00    0.00000E+00
 8.84070E+00    5.90200E-24
 8.84904E+00    5.82890E-22
 8.91941E+00    5.45140E-21
 8.99116E+00    1.04150E-20
 9.00717E+00    1.15230E-20
 9.00807E+00    1.15850E-20
 9.03482E+00    1.34360E-20
 9.07291E+00    1.60710E-20
 9.07562E+00    1.62590E-20
 9.08651E+00    1.70120E-20
 9.10295E+00    1.81490E-20
 9.10448E+00    1.82550E-20
 9.12292E+00    1.95310E-20
 9.17745E+00    2.33040E-20
 9.18478E+00    2.38110E-20
 9.18668E+00    2.39420E-20
 9.23091E+00    2.70020E-20
 9.23417E+00    2.72280E-20
 9.28190E+00    3.05300E-20
 9.29200E+00    3.12290E-20
 9.36289E+00    3.61330E-20
 9.39703E+00    3.84950E-20
 9.46239E+00    4.30170E-20
 9.47426E+00    4.38380E-20
 9.48246E+00    4.44050E-20
 9.51413E+00    4.65960E-20
 9.54539E+00    4.87590E-20
 9.57083E+00    5.05190E-20
 9.57646E+00    5.09090E-20
 9.60557E+00    5.29230E-20
 9.60782E+00    5.30780E-20
 9.61899E+00    5.38510E-20
 9.66778E+00    5.72260E-20
 9.66909E+00    5.73170E-20
 9.68921E+00    5.87090E-20
 9.70570E+00    5.98500E-20
 1.00000E+01    8.02110E-20
 1.10000E+01    1.54510E-11
 1.20000E+01    1.10640E-07
 1.30000E+01    1.41162E-05
 1.40000E+01    4.59945E-04
 1.45000E+01    1.46856E-03
 1.50000E+01    4.14902E-03
 1.60000E+01    2.16410E-02
 1.70000E+01    6.94608E-02
 1.80000E+01    1.56694E-01
 1.90000E+01    2.82598E-01
 2.00000E+01    4.45220E-01
