# n + Sn115 : (n,np)    
# jendl.ad   N.Iwamoto                         EVAL-Apr14
# uncertainties: n
# # energies =    23
#   E(MeV)       xs(mb) 
 8.82963E+00    0.00000E+00
 9.02157E+00    1.34620E-13
 1.00000E+01    2.18560E-10
 1.05000E+01    2.78920E-09
 1.10000E+01    7.04583E-06
 1.15000E+01    3.77318E-04
 1.20000E+01    4.01015E-03
 1.25000E+01    2.32744E-02
 1.30000E+01    9.13913E-02
 1.35000E+01    2.70741E-01
 1.40000E+01    6.54013E-01
 1.45000E+01    1.35353E+00
 1.50000E+01    2.48728E+00
 1.55000E+01    4.13773E+00
 1.60000E+01    6.35640E+00
 1.65000E+01    9.12193E+00
 1.70000E+01    1.24305E+01
 1.75000E+01    1.62381E+01
 1.80000E+01    2.05196E+01
 1.85000E+01    2.52297E+01
 1.90000E+01    3.03704E+01
 1.95000E+01    3.58496E+01
 2.00000E+01    4.17017E+01
