# n + Sn115 : (n,na)    
# jendl.ad   N.Iwamoto                         EVAL-Apr14
# uncertainties: n
# # energies =    32
#   E(MeV)       xs(mb) 
 3.23150E+00    0.00000E+00
 3.63119E+00    3.67290E-22
 5.50000E+00    1.73380E-20
 6.00000E+00    7.19140E-17
 6.50000E+00    1.37390E-13
 7.00000E+00    4.20060E-11
 7.50000E+00    3.71750E-09
 8.00000E+00    9.26220E-08
 8.50000E+00    1.20412E-06
 9.00000E+00    1.28832E-05
 9.50000E+00    8.86273E-05
 1.00000E+01    4.34556E-04
 1.05000E+01    1.49413E-03
 1.10000E+01    4.13858E-03
 1.15000E+01    9.76202E-03
 1.20000E+01    2.24013E-02
 1.25000E+01    4.94490E-02
 1.30000E+01    1.03509E-01
 1.35000E+01    2.00268E-01
 1.40000E+01    3.63213E-01
 1.45000E+01    6.20865E-01
 1.50000E+01    1.00528E+00
 1.55000E+01    1.54618E+00
 1.60000E+01    2.26968E+00
 1.65000E+01    3.17907E+00
 1.70000E+01    4.26017E+00
 1.75000E+01    5.49706E+00
 1.80000E+01    6.86126E+00
 1.85000E+01    8.25086E+00
 1.90000E+01    9.74050E+00
 1.95000E+01    1.12591E+01
 2.00000E+01    1.28128E+01
