# n + Sn115 : (n,d)g    
# jendl.ad   N.Iwamoto                         EVAL-Apr14
# uncertainties: n
# # energies =    27
#   E(MeV)       xs(mb) 
 6.58553E+00    0.00000E+00
 6.77747E+00    3.05180E-14
 8.00000E+00    2.24900E-13
 8.50000E+00    2.94360E-10
 9.00000E+00    4.46660E-08
 9.50000E+00    1.90575E-06
 1.00000E+01    4.12748E-05
 1.05000E+01    2.65879E-04
 1.10000E+01    1.56512E-03
 1.15000E+01    6.54042E-03
 1.20000E+01    2.09662E-02
 1.25000E+01    5.21017E-02
 1.30000E+01    1.13287E-01
 1.35000E+01    2.13218E-01
 1.40000E+01    3.56654E-01
 1.45000E+01    5.42354E-01
 1.50000E+01    7.66075E-01
 1.55000E+01    1.01944E+00
 1.60000E+01    1.29782E+00
 1.65000E+01    1.59499E+00
 1.70000E+01    1.91114E+00
 1.75000E+01    2.24321E+00
 1.80000E+01    2.58951E+00
 1.85000E+01    2.94769E+00
 1.90000E+01    3.31407E+00
 1.95000E+01    3.67969E+00
 2.00000E+01    4.04130E+00
