# n + Sn115 : (n,na)g   
# jendl.ad   N.Iwamoto                         EVAL-Apr14
# uncertainties: n
# # energies =    32
#   E(MeV)       xs(mb) 
 3.23150E+00    0.00000E+00
 3.63119E+00    3.67290E-22
 5.50000E+00    2.08460E-21
 6.00000E+00    7.18950E-17
 6.50000E+00    1.37050E-13
 7.00000E+00    4.15720E-11
 7.50000E+00    3.61760E-09
 8.00000E+00    8.60740E-08
 8.50000E+00    1.02984E-06
 9.00000E+00    1.02527E-05
 9.50000E+00    6.55591E-05
 1.00000E+01    3.02790E-04
 1.05000E+01    9.90148E-04
 1.10000E+01    2.64786E-03
 1.15000E+01    6.21378E-03
 1.20000E+01    1.40274E-02
 1.25000E+01    3.02421E-02
 1.30000E+01    6.16275E-02
 1.35000E+01    1.15987E-01
 1.40000E+01    2.04432E-01
 1.45000E+01    3.40266E-01
 1.50000E+01    5.36434E-01
 1.55000E+01    8.04995E-01
 1.60000E+01    1.15316E+00
 1.65000E+01    1.57968E+00
 1.70000E+01    2.08049E+00
 1.75000E+01    2.63223E+00
 1.80000E+01    3.21246E+00
 1.85000E+01    3.82583E+00
 1.90000E+01    4.44264E+00
 1.95000E+01    5.05669E+00
 2.00000E+01    5.66600E+00
