# n + Sn115 : (n,t)g    
# jendl.ad   N.Iwamoto                         EVAL-Apr14
# uncertainties: n
# # energies =    25
#   E(MeV)       xs(mb) 
 7.61108E+00    0.00000E+00
 8.00622E+00    1.95890E-16
 9.00000E+00    6.88550E-16
 9.50000E+00    3.28870E-12
 1.00000E+01    5.70850E-10
 1.05000E+01    1.68540E-08
 1.10000E+01    1.73240E-07
 1.15000E+01    9.38170E-07
 1.20000E+01    3.84258E-06
 1.25000E+01    1.69195E-05
 1.30000E+01    8.12942E-05
 1.35000E+01    3.51857E-04
 1.40000E+01    1.26023E-03
 1.45000E+01    3.72315E-03
 1.50000E+01    9.10030E-03
 1.55000E+01    1.94965E-02
 1.60000E+01    3.67322E-02
 1.65000E+01    6.22779E-02
 1.70000E+01    9.69997E-02
 1.75000E+01    1.41062E-01
 1.80000E+01    1.94216E-01
 1.85000E+01    2.55824E-01
 1.90000E+01    3.25089E-01
 1.95000E+01    4.01053E-01
 2.00000E+01    4.82955E-01
