# n + Xe130 : (n,el)    
# tendl.2019 A.J. Koning and D. Rochman        EVAL-NOV19
# uncertainties: y
# # energies =    69
#   E(MeV)       xs(mb)       xslow(mb)      xsupp(mb)
 1.00000E-10    7.25602E+03    6.36209E+03    8.14995E+03
 5.00000E-09    5.97857E+03    5.24201E+03    6.71512E+03
 1.00000E-08    5.94242E+03    5.21031E+03    6.67451E+03
 1.50000E-08    5.92806E+03    5.19773E+03    6.65839E+03
 2.00000E-08    5.92018E+03    5.19082E+03    6.64954E+03
 2.50000E-08    5.91515E+03    5.18640E+03    6.64389E+03
 3.00000E-08    5.91167E+03    5.18334E+03    6.64000E+03
 3.50000E-08    5.90843E+03    5.18050E+03    6.63636E+03
 4.20000E-08    5.90579E+03    5.17818E+03    6.63340E+03
 5.00000E-08    5.90310E+03    5.17582E+03    6.63038E+03
 5.80000E-08    5.90141E+03    5.17433E+03    6.62848E+03
 6.70000E-08    5.89958E+03    5.17272E+03    6.62643E+03
 8.00000E-08    5.89691E+03    5.17037E+03    6.62346E+03
 1.00000E-07    5.89399E+03    5.16777E+03    6.62021E+03
 1.40000E-07    5.89051E+03    5.16472E+03    6.61631E+03
 1.80000E-07    5.88727E+03    5.16188E+03    6.61266E+03
 2.20000E-07    5.88514E+03    5.15994E+03    6.61033E+03
 2.50000E-07    5.88339E+03    5.15840E+03    6.60837E+03
 2.80000E-07    5.88192E+03    5.15712E+03    6.60672E+03
 3.00000E-07    5.88076E+03    5.15603E+03    6.60548E+03
 3.20000E-07    5.87931E+03    5.15476E+03    6.60385E+03
 3.50000E-07    5.87700E+03    5.15274E+03    6.60126E+03
 4.00000E-07    5.87271E+03    5.14891E+03    6.59651E+03
 5.00000E-07    5.86641E+03    5.14329E+03    6.58952E+03
 6.25000E-07    5.85941E+03    5.13715E+03    6.58166E+03
 7.80000E-07    5.85369E+03    5.13198E+03    6.57541E+03
 8.50000E-07    5.85045E+03    5.12914E+03    6.57177E+03
 9.10000E-07    5.84796E+03    5.12695E+03    6.56896E+03
 9.50000E-07    5.84641E+03    5.12559E+03    6.56723E+03
 9.72000E-07    5.84527E+03    5.12459E+03    6.56594E+03
 9.96000E-07    5.84407E+03    5.12354E+03    6.56460E+03
 1.02000E-06    5.84285E+03    5.12205E+03    6.56366E+03
 1.04500E-06    5.84159E+03    5.12094E+03    6.56223E+03
 1.07100E-06    5.84029E+03    5.11981E+03    6.56078E+03
 1.09700E-06    5.83900E+03    5.11868E+03    6.55933E+03
 1.12300E-06    5.83768E+03    5.11752E+03    6.55785E+03
 1.15000E-06    5.83337E+03    5.11374E+03    6.55300E+03
 1.30000E-06    5.82603E+03    5.10731E+03    6.54476E+03
 1.50000E-06    5.81115E+03    5.09426E+03    6.52804E+03
 2.10000E-06    5.78961E+03    5.07474E+03    6.50449E+03
 2.60000E-06    5.76665E+03    5.05460E+03    6.47869E+03
 3.30000E-06    5.73952E+03    5.03021E+03    6.44883E+03
 4.00000E-06    5.65695E+03    4.95724E+03    6.35666E+03
 9.87700E-06    5.53374E+03    4.84668E+03    6.22081E+03
 1.59680E-05    5.43498E+03    4.75716E+03    6.11279E+03
 2.77000E-05    5.33596E+03    4.66847E+03    6.00344E+03
 4.80520E-05    5.25470E+03    4.59381E+03    5.91560E+03
 7.55014E-05    5.16509E+03    4.51221E+03    5.81796E+03
 1.48728E-04    4.93800E+03    4.30832E+03    5.56768E+03
 3.67262E-04    1.27197E+04    1.10249E+04    1.44145E+04
 9.06898E-04    7.71894E+03    7.05278E+03    8.38510E+03
 1.42510E-03    1.54590E+04    1.48199E+04    1.60982E+04
 2.23945E-03    1.87596E+04    1.72218E+04    2.02974E+04
 3.51910E-03    1.07229E+04    9.62664E+03    1.18192E+04
 5.53000E-03    9.06847E+03    6.42213E+03    1.17148E+04
 9.11800E-03    7.81178E+03    5.53217E+03    1.00914E+04
 1.50300E-02    6.81222E+03    4.82430E+03    8.80015E+03
 2.47800E-02    6.06444E+03    4.29473E+03    7.83414E+03
 4.08500E-02    5.54831E+03    3.20996E+03    7.88666E+03
 6.73400E-02    5.16068E+03    2.98570E+03    7.33567E+03
 1.11000E-01    4.98961E+03    2.88673E+03    7.09249E+03
 1.83000E-01    4.97831E+03    2.88019E+03    7.07643E+03
 3.02000E-01    5.23335E+03    4.08423E+03    6.38247E+03
 5.00000E-01    5.42952E+03    4.23733E+03    6.62171E+03
 8.21000E-01    5.45859E+03    4.99299E+03    5.92420E+03
 1.35300E+00    4.84363E+03    4.66302E+03    5.02424E+03
 2.23100E+00    3.41328E+03    3.12139E+03    3.70518E+03
 3.67900E+00    2.22072E+03    2.04606E+03    2.39538E+03
 6.06500E+00    2.10972E+03    1.97519E+03    2.24426E+03
