# n + Xe130 : (n,n'06)  
# tendl.2019 A.J. Koning and D. Rochman        EVAL-NOV19
# uncertainties: n
# # energies =    85
#   E(MeV)       xs(mb) 
 1.80745E+00    0.00000E+00
 1.82221E+00    2.66866E+00
 1.95924E+00    2.74443E+01
 2.00000E+00    3.48139E+01
 2.03272E+00    3.61795E+01
 2.07559E+00    3.79688E+01
 2.09813E+00    3.89095E+01
 2.11974E+00    3.98114E+01
 2.16689E+00    4.17793E+01
 2.18849E+00    4.26808E+01
 2.20000E+00    4.31612E+01
 2.24076E+00    4.33697E+01
 2.26033E+00    4.34697E+01
 2.31392E+00    4.37438E+01
 2.32571E+00    4.38041E+01
 2.32796E+00    4.38156E+01
 2.36417E+00    4.40008E+01
 2.38041E+00    4.40838E+01
 2.39365E+00    4.41515E+01
 2.40000E+00    4.41840E+01
 2.40473E+00    4.41525E+01
 2.44603E+00    4.38780E+01
 2.46100E+00    4.37785E+01
 2.51347E+00    4.34296E+01
 2.52164E+00    4.33753E+01
 2.55307E+00    4.31663E+01
 2.56419E+00    4.30924E+01
 2.60000E+00    4.28543E+01
 2.62868E+00    4.21412E+01
 2.80000E+00    3.78818E+01
 3.00000E+00    3.08488E+01
 3.20000E+00    2.39488E+01
 3.40000E+00    1.80579E+01
 3.60000E+00    1.33973E+01
 3.80000E+00    9.87338E+00
 4.00000E+00    7.27720E+00
 4.20000E+00    5.38718E+00
 4.40000E+00    4.01346E+00
 4.60000E+00    3.00988E+00
 4.80000E+00    2.27070E+00
 5.00000E+00    1.71960E+00
 5.20000E+00    1.30576E+00
 5.40000E+00    9.92971E-01
 5.60000E+00    7.55764E-01
 5.80000E+00    5.75462E-01
 6.00000E+00    4.38325E-01
 6.20000E+00    3.34029E-01
 6.40000E+00    2.54105E-01
 6.60000E+00    1.93692E-01
 6.80000E+00    1.47902E-01
 7.00000E+00    1.13078E-01
 7.20000E+00    8.66965E-02
 7.40000E+00    6.64716E-02
 7.60000E+00    5.12605E-02
 7.80000E+00    3.95793E-02
 8.00000E+00    3.06627E-02
 8.50000E+00    1.64739E-02
 9.00000E+00    9.05329E-03
 9.50000E+00    5.07977E-03
 1.00000E+01    2.89314E-03
 1.05000E+01    1.66362E-03
 1.10000E+01    9.63210E-04
 1.15000E+01    5.60928E-04
 1.20000E+01    3.28633E-04
 1.25000E+01    1.93811E-04
 1.30000E+01    1.15134E-04
 1.35000E+01    6.89147E-05
 1.40000E+01    4.15934E-05
 1.45000E+01    2.53218E-05
 1.50000E+01    1.55508E-05
 1.60000E+01    6.01893E-06
 1.70000E+01    2.40474E-06
 1.80000E+01    9.87580E-07
 1.90000E+01    4.15370E-07
 2.00000E+01    1.77220E-07
 2.10000E+01    7.74510E-08
 2.20000E+01    3.43260E-08
 2.30000E+01    1.54510E-08
 2.40000E+01    7.03930E-09
 2.50000E+01    3.25450E-09
 2.60000E+01    1.52930E-09
 2.70000E+01    7.30470E-10
 2.80000E+01    3.54410E-10
 2.90000E+01    1.74360E-10
 3.00000E+01    8.67990E-11
