# n + Xe130 : (n,n'09)  
# tendl.2019 A.J. Koning and D. Rochman        EVAL-NOV19
# uncertainties: n
# # energies =    81
#   E(MeV)       xs(mb) 
 2.03272E+00    0.00000E+00
 2.07559E+00    5.95911E+00
 2.09813E+00    9.09228E+00
 2.11974E+00    1.20962E+01
 2.16689E+00    1.86502E+01
 2.18849E+00    2.16527E+01
 2.20000E+00    2.32527E+01
 2.24076E+00    2.46037E+01
 2.26033E+00    2.52524E+01
 2.31392E+00    2.70287E+01
 2.32571E+00    2.74195E+01
 2.32796E+00    2.74941E+01
 2.36417E+00    2.86943E+01
 2.38041E+00    2.92326E+01
 2.39365E+00    2.96714E+01
 2.40000E+00    2.98819E+01
 2.40473E+00    2.99166E+01
 2.44603E+00    3.02197E+01
 2.46100E+00    3.03295E+01
 2.51347E+00    3.07145E+01
 2.52164E+00    3.07745E+01
 2.55307E+00    3.10051E+01
 2.56419E+00    3.10867E+01
 2.60000E+00    3.13495E+01
 2.62868E+00    3.10492E+01
 2.80000E+00    2.92551E+01
 3.00000E+00    2.49295E+01
 3.20000E+00    2.01240E+01
 3.40000E+00    1.56630E+01
 3.60000E+00    1.19025E+01
 3.80000E+00    8.91943E+00
 4.00000E+00    6.64383E+00
 4.20000E+00    4.94891E+00
 4.40000E+00    3.69999E+00
 4.60000E+00    2.78178E+00
 4.80000E+00    2.10458E+00
 5.00000E+00    1.59989E+00
 5.20000E+00    1.22078E+00
 5.40000E+00    9.33566E-01
 5.60000E+00    7.14773E-01
 5.80000E+00    5.47480E-01
 6.00000E+00    4.19425E-01
 6.20000E+00    3.21330E-01
 6.40000E+00    2.45613E-01
 6.60000E+00    1.88064E-01
 6.80000E+00    1.44180E-01
 7.00000E+00    1.10578E-01
 7.20000E+00    8.50132E-02
 7.40000E+00    6.53377E-02
 7.60000E+00    5.04409E-02
 7.80000E+00    3.90031E-02
 8.00000E+00    3.02317E-02
 8.50000E+00    1.62458E-02
 9.00000E+00    8.92097E-03
 9.50000E+00    5.00173E-03
 1.00000E+01    2.84826E-03
 1.05000E+01    1.63873E-03
 1.10000E+01    9.49822E-04
 1.15000E+01    5.53853E-04
 1.20000E+01    3.24907E-04
 1.25000E+01    1.91829E-04
 1.30000E+01    1.14059E-04
 1.35000E+01    6.83155E-05
 1.40000E+01    4.12480E-05
 1.45000E+01    2.51158E-05
 1.50000E+01    1.54244E-05
 1.60000E+01    5.96863E-06
 1.70000E+01    2.38433E-06
 1.80000E+01    9.79300E-07
 1.90000E+01    4.11990E-07
 2.00000E+01    1.75840E-07
 2.10000E+01    7.69020E-08
 2.20000E+01    3.41150E-08
 2.30000E+01    1.53700E-08
 2.40000E+01    7.00720E-09
 2.50000E+01    3.24070E-09
 2.60000E+01    1.52280E-09
 2.70000E+01    7.27250E-10
 2.80000E+01    3.52800E-10
 2.90000E+01    1.73560E-10
 3.00000E+01    8.64180E-11
