# n + Cs135 : (n,tot)   
# jeff3.3    N.Iwamoto,H.Matsunobu             EVAL-Apr09
# uncertainties: n
# # energies =   171
#   E(MeV)       xs(mb) 
 1.00000E-11    9.76020E+04
 1.00000E-07    7.79090E+03
 4.13990E-07    6.70992E+03
 5.31580E-07    6.47390E+03
 6.82560E-07    6.26266E+03
 8.76420E-07    6.07269E+03
 1.12540E-06    5.90137E+03
 1.44500E-06    5.74506E+03
 1.85540E-06    5.60154E+03
 2.37240E-06    5.46435E+03
 3.05900E-06    5.33253E+03
 3.92790E-06    5.20493E+03
 5.04350E-06    5.07806E+03
 6.47600E-06    4.94919E+03
 8.31530E-06    4.81604E+03
 1.06770E-05    4.67533E+03
 1.37100E-05    4.52417E+03
 1.76030E-05    4.35711E+03
 2.26030E-05    4.17320E+03
 2.92030E-05    6.26934E+03
 3.72670E-05    1.69990E+05
 4.78510E-05    5.51619E+03
 6.14420E-05    4.42348E+03
 7.88930E-05    6.24361E+03
 1.01300E-04    3.98124E+03
 1.30070E-04    3.48575E+03
 1.67020E-04    4.24101E+04
 2.14450E-04    3.30487E+04
 2.75360E-04    2.35881E+04
 3.53580E-04    2.11458E+04
 4.54000E-04    1.89560E+04
 5.82950E-04    1.69932E+04
 7.48520E-04    1.52337E+04
 9.61120E-04    1.37469E+04
 1.23410E-03    1.25577E+04
 1.58460E-03    1.14744E+04
 2.03470E-03    1.07691E+04
 2.24870E-03    1.03874E+04
 2.48520E-03    1.01095E+04
 2.61260E-03    9.92873E+03
 2.74650E-03    9.66407E+03
 3.03540E-03    9.32152E+03
 3.35460E-03    8.99122E+03
 3.70740E-03    8.60354E+03
 4.30740E-03    8.08420E+03
 5.53080E-03    7.48741E+03
 7.10170E-03    6.96994E+03
 9.11880E-03    6.53292E+03
 1.17090E-02    6.18644E+03
 1.50340E-02    5.86393E+03
 1.93050E-02    5.63864E+03
 2.18750E-02    5.53633E+03
 2.35790E-02    5.48650E+03
 2.41760E-02    5.46193E+03
 2.47880E-02    5.42472E+03
 2.60580E-02    5.38279E+03
 2.70000E-02    5.33943E+03
 2.85000E-02    5.26385E+03
 3.18280E-02    5.19312E+03
 3.43070E-02    5.10260E+03
 4.08680E-02    4.99601E+03
 4.63090E-02    4.91159E+03
 5.24750E-02    4.86440E+03
 5.65620E-02    4.81430E+03
 6.73790E-02    4.76691E+03
 7.20000E-02    4.74166E+03
 7.95000E-02    4.72332E+03
 8.25000E-02    4.71583E+03
 8.65170E-02    4.70023E+03
 9.80370E-02    4.68653E+03
 1.11090E-01    4.68804E+03
 1.16790E-01    4.68911E+03
 1.22770E-01    4.69016E+03
 1.29070E-01    4.69656E+03
 1.35690E-01    4.71238E+03
 1.42640E-01    4.72837E+03
 1.49960E-01    4.74454E+03
 1.57640E-01    4.76052E+03
 1.65730E-01    4.77653E+03
 1.74220E-01    4.79333E+03
 1.83160E-01    4.81100E+03
 1.92550E-01    4.82957E+03
 2.02420E-01    4.85513E+03
 2.12800E-01    4.88918E+03
 2.23710E-01    4.92498E+03
 2.35180E-01    4.96262E+03
 2.47240E-01    5.02197E+03
 2.73240E-01    5.08063E+03
 2.87250E-01    5.11101E+03
 2.94520E-01    5.12520E+03
 2.97200E-01    5.13086E+03
 2.98500E-01    5.13763E+03
 3.01970E-01    5.19019E+03
 3.33730E-01    5.29592E+03
 3.68830E-01    5.38195E+03
 3.87740E-01    5.43911E+03
 4.07620E-01    5.52891E+03
 4.50490E-01    5.65903E+03
 4.97870E-01    5.75880E+03
 5.23400E-01    5.82454E+03
 5.50230E-01    5.89365E+03
 5.78440E-01    5.96620E+03
 6.08100E-01    6.03405E+03
 6.39280E-01    6.10004E+03
 6.72060E-01    6.16942E+03
 7.06510E-01    6.23956E+03
 7.42740E-01    6.30264E+03
 7.80820E-01    6.36791E+03
 8.20850E-01    6.42958E+03
 8.62940E-01    6.48595E+03
 9.07180E-01    6.54717E+03
 9.61640E-01    6.59572E+03
 1.00260E+00    6.65111E+03
 1.10800E+00    6.69999E+03
 1.16480E+00    6.73129E+03
 1.22460E+00    6.73339E+03
 1.28730E+00    6.72810E+03
 1.35340E+00    6.72255E+03
 1.42270E+00    6.71671E+03
 1.49570E+00    6.68427E+03
 1.57240E+00    6.61681E+03
 1.65300E+00    6.54582E+03
 1.73770E+00    6.47239E+03
 1.82680E+00    6.40447E+03
 1.92050E+00    6.33425E+03
 2.01900E+00    6.23261E+03
 2.12250E+00    6.11153E+03
 2.23130E+00    6.00979E+03
 2.30690E+00    5.95401E+03
 2.34570E+00    5.92579E+03
 2.36530E+00    5.90672E+03
 2.38520E+00    5.85832E+03
 2.46600E+00    5.75893E+03
 2.59240E+00    5.64525E+03
 2.72530E+00    5.53130E+03
 2.86500E+00    5.41876E+03
 3.01190E+00    5.32175E+03
 3.16640E+00    5.23632E+03
 3.32870E+00    5.10877E+03
 3.67880E+00    4.95364E+03
 4.06570E+00    4.80212E+03
 4.49330E+00    4.68064E+03
 4.72370E+00    4.60023E+03
 4.96590E+00    4.51969E+03
 5.22050E+00    4.44095E+03
 5.48810E+00    4.37060E+03
 5.76950E+00    4.31191E+03
 6.06530E+00    4.26837E+03
 6.37630E+00    4.24335E+03
 6.59240E+00    4.24069E+03
 6.70320E+00    4.24279E+03
 7.04690E+00    4.26879E+03
 7.40820E+00    4.31530E+03
 7.78800E+00    4.38436E+03
 8.18730E+00    4.46642E+03
 8.60710E+00    4.55655E+03
 9.04840E+00    4.65130E+03
 9.51230E+00    4.74309E+03
 1.00000E+01    4.82135E+03
 1.05130E+01    4.88906E+03
 1.10520E+01    4.93902E+03
 1.16180E+01    4.97479E+03
 1.22140E+01    4.98960E+03
 1.28400E+01    4.99205E+03
 1.34990E+01    4.98262E+03
 1.38400E+01    4.97470E+03
 1.41910E+01    4.96078E+03
 1.45500E+01    4.94606E+03
 1.49180E+01    4.91824E+03
 1.56830E+01    4.87186E+03
 1.64870E+01    4.81350E+03
