# n + Er170 : (n,n'14)  
# jeff3.3    A.J. Koning and D. Rochman        EVAL-DEC15
# uncertainties: n
# # energies =    80
#   E(MeV)       xs(mb) 
 1.27622E+00    0.00000E+00
 1.31174E+00    7.06800E+00
 1.31745E+00    8.20421E+00
 1.32257E+00    9.22301E+00
 1.33215E+00    1.11293E+01
 1.33991E+00    1.26734E+01
 1.34292E+00    1.32724E+01
 1.34816E+00    1.43151E+01
 1.35852E+00    1.63766E+01
 1.37874E+00    2.04000E+01
 1.38024E+00    2.06985E+01
 1.38477E+00    2.16000E+01
 1.39363E+00    2.33630E+01
 1.40000E+00    2.46305E+01
 1.41028E+00    2.51181E+01
 1.42153E+00    2.56516E+01
 1.42466E+00    2.58001E+01
 1.43054E+00    2.60790E+01
 1.60000E+00    3.41162E+01
 1.80000E+00    3.52571E+01
 2.00000E+00    3.10100E+01
 2.20000E+00    2.50764E+01
 2.40000E+00    1.94225E+01
 2.60000E+00    1.46476E+01
 2.80000E+00    1.08463E+01
 3.00000E+00    7.93080E+00
 3.20000E+00    5.94412E+00
 3.40000E+00    4.28995E+00
 3.60000E+00    3.09531E+00
 3.80000E+00    2.23559E+00
 4.00000E+00    1.61759E+00
 4.20000E+00    1.18495E+00
 4.40000E+00    8.74879E-01
 4.60000E+00    6.33650E-01
 4.80000E+00    4.60870E-01
 5.00000E+00    3.35824E-01
 5.20000E+00    2.45180E-01
 5.40000E+00    1.79424E-01
 5.60000E+00    1.31669E-01
 5.80000E+00    9.62345E-02
 6.00000E+00    7.07181E-02
 6.20000E+00    5.19804E-02
 6.40000E+00    3.84342E-02
 6.60000E+00    2.84831E-02
 6.80000E+00    2.12045E-02
 7.00000E+00    1.58539E-02
 7.20000E+00    1.18774E-02
 7.40000E+00    8.94612E-03
 7.60000E+00    6.74223E-03
 7.80000E+00    5.09174E-03
 8.00000E+00    3.85263E-03
 8.50000E+00    1.92731E-03
 9.00000E+00    9.73514E-04
 9.50000E+00    4.97533E-04
 1.00000E+01    2.57503E-04
 1.05000E+01    1.35003E-04
 1.10000E+01    7.16978E-05
 1.15000E+01    3.85666E-05
 1.20000E+01    2.09909E-05
 1.25000E+01    1.15521E-05
 1.30000E+01    6.42828E-06
 1.35000E+01    3.61438E-06
 1.40000E+01    2.05075E-06
 1.45000E+01    1.17559E-06
 1.50000E+01    6.79370E-07
 1.60000E+01    2.32590E-07
 1.70000E+01    8.22140E-08
 1.80000E+01    2.96750E-08
 1.90000E+01    1.10960E-08
 2.00000E+01    4.25260E-09
 2.10000E+01    1.66260E-09
 2.20000E+01    6.65510E-10
 2.30000E+01    2.72060E-10
 2.40000E+01    1.13270E-10
 2.50000E+01    4.80850E-11
 2.60000E+01    2.06760E-11
 2.70000E+01    9.03600E-12
 2.80000E+01    4.02270E-12
 2.90000E+01    1.81600E-12
 3.00000E+01    8.31410E-13
