# n + Er170 : (n,n'18)  
# jeff3.3    A.J. Koning and D. Rochman        EVAL-DEC15
# uncertainties: n
# # energies =    76
#   E(MeV)       xs(mb) 
 1.33215E+00    0.00000E+00
 1.33991E+00    3.58941E+00
 1.34292E+00    4.98164E+00
 1.34816E+00    7.40544E+00
 1.35852E+00    1.21975E+01
 1.37874E+00    2.15502E+01
 1.38024E+00    2.22440E+01
 1.38477E+00    2.43394E+01
 1.39363E+00    2.84376E+01
 1.40000E+00    3.13840E+01
 1.41028E+00    3.18091E+01
 1.42153E+00    3.22744E+01
 1.42466E+00    3.24038E+01
 1.43054E+00    3.26470E+01
 1.60000E+00    3.96551E+01
 1.80000E+00    3.31766E+01
 2.00000E+00    2.51382E+01
 2.20000E+00    1.79119E+01
 2.40000E+00    1.23374E+01
 2.60000E+00    8.34284E+00
 2.80000E+00    5.58600E+00
 3.00000E+00    3.72484E+00
 3.20000E+00    2.52051E+00
 3.40000E+00    1.69066E+00
 3.60000E+00    1.14285E+00
 3.80000E+00    7.79034E-01
 4.00000E+00    5.35529E-01
 4.20000E+00    3.72177E-01
 4.40000E+00    2.64242E-01
 4.60000E+00    1.84615E-01
 4.80000E+00    1.29753E-01
 5.00000E+00    9.15769E-02
 5.20000E+00    6.48905E-02
 5.40000E+00    4.61775E-02
 5.60000E+00    3.30139E-02
 5.80000E+00    2.35496E-02
 6.00000E+00    1.69203E-02
 6.20000E+00    1.21817E-02
 6.40000E+00    8.83664E-03
 6.60000E+00    6.43498E-03
 6.80000E+00    4.71433E-03
 7.00000E+00    3.47241E-03
 7.20000E+00    2.56582E-03
 7.40000E+00    1.90781E-03
 7.60000E+00    1.42036E-03
 7.80000E+00    1.06031E-03
 8.00000E+00    7.93360E-04
 8.50000E+00    3.86578E-04
 9.00000E+00    1.90529E-04
 9.50000E+00    9.51530E-05
 1.00000E+01    4.81918E-05
 1.05000E+01    2.47596E-05
 1.10000E+01    1.29054E-05
 1.15000E+01    6.82406E-06
 1.20000E+01    3.65695E-06
 1.25000E+01    1.98446E-06
 1.30000E+01    1.09023E-06
 1.35000E+01    6.05820E-07
 1.40000E+01    3.40000E-07
 1.45000E+01    1.92930E-07
 1.50000E+01    1.10440E-07
 1.60000E+01    3.71830E-08
 1.70000E+01    1.29570E-08
 1.80000E+01    4.61980E-09
 1.90000E+01    1.70880E-09
 2.00000E+01    6.48440E-10
 2.10000E+01    2.51260E-10
 2.20000E+01    9.97830E-11
 2.30000E+01    4.05190E-11
 2.40000E+01    1.67760E-11
 2.50000E+01    7.08730E-12
 2.60000E+01    3.03390E-12
 2.70000E+01    1.32010E-12
 2.80000E+01    5.85050E-13
 2.90000E+01    2.62940E-13
 3.00000E+01    1.19860E-13
