# p + Ca 40 : (p,el)    
# ibandl     A.Gurbich                                   
# uncertainties: n
# # energies =   146
#   E(MeV)       xs(mb) 
 1.79900E+00    1.15801E+03
 1.80600E+00    1.14885E+03
 1.81100E+00    1.14248E+03
 1.82300E+00    1.12737E+03
 1.83000E+00    1.11869E+03
 1.86300E+00    1.07907E+03
 1.89500E+00    1.04256E+03
 1.90300E+00    1.03371E+03
 1.91400E+00    1.02172E+03
 1.92800E+00    1.00673E+03
 1.94200E+00    9.92067E+02
 1.94900E+00    9.84856E+02
 1.95400E+00    9.79747E+02
 1.96100E+00    9.72661E+02
 1.97000E+00    9.63646E+02
 1.98400E+00    9.49864E+02
 1.99600E+00    9.38264E+02
 2.01400E+00    9.21245E+02
 2.02200E+00    9.13813E+02
 2.02600E+00    9.10132E+02
 2.07100E+00    1.04368E+03
 2.08000E+00    1.03437E+03
 2.08900E+00    1.02515E+03
 2.14800E+00    9.67133E+02
 2.15900E+00    9.56740E+02
 2.17800E+00    9.39048E+02
 2.19200E+00    9.26224E+02
 2.23200E+00    8.90415E+02
 2.25000E+00    8.74626E+02
 2.26000E+00    8.65923E+02
 2.29300E+00    8.37432E+02
 2.30700E+00    8.25413E+02
 2.32500E+00    8.10016E+02
 2.33700E+00    7.99815E+02
 2.34400E+00    7.93917E+02
 2.35600E+00    7.83972E+02
 2.36500E+00    7.76701E+02
 2.37000E+00    7.72626E+02
 2.37700E+00    7.65308E+02
 2.38000E+00    7.56944E+02
 2.38200E+00    7.32174E+02
 2.38300E+00    6.78649E+02
 2.38450E+00    6.26725E+02
 2.38500E+00    6.86119E+02
 2.38600E+00    7.36706E+02
 2.38700E+00    7.51516E+02
 2.38800E+00    7.57102E+02
 2.39100E+00    7.61611E+02
 2.39500E+00    7.62762E+02
 2.39600E+00    7.62982E+02
 2.39800E+00    7.63526E+02
 2.40100E+00    7.64786E+02
 2.40600E+00    8.34262E+02
 2.40800E+00    8.35635E+02
 2.41300E+00    8.41491E+02
 2.41800E+00    8.51778E+02
 2.42300E+00    8.67568E+02
 2.42500E+00    8.75549E+02
 2.43000E+00    8.99303E+02
 2.43400E+00    9.20977E+02
 2.44100E+00    9.57763E+02
 2.44700E+00    9.77840E+02
 2.45000E+00    9.47817E+02
 2.45300E+00    9.04691E+02
 2.45500E+00    9.56089E+02
 2.45600E+00    9.63486E+02
 2.45800E+00    9.69348E+02
 2.46200E+00    9.69012E+02
 2.46700E+00    9.61171E+02
 2.47800E+00    9.36372E+02
 2.48200E+00    9.27064E+02
 2.48900E+00    9.11552E+02
 2.50600E+00    8.79240E+02
 2.51200E+00    8.69500E+02
 2.52200E+00    8.54804E+02
 2.53100E+00    8.42907E+02
 2.53600E+00    8.36747E+02
 2.54500E+00    8.26331E+02
 2.54800E+00    8.23019E+02
 2.55500E+00    8.15581E+02
 2.55900E+00    8.11486E+02
 2.61300E+00    7.63250E+02
 2.61500E+00    7.61618E+02
 2.62000E+00    7.57551E+02
 2.62700E+00    7.51891E+02
 2.63900E+00    7.42201E+02
 2.64300E+00    7.38944E+02
 2.66900E+00    7.16472E+02
 2.67400E+00    7.11590E+02
 2.67800E+00    7.07442E+02
 2.68300E+00    7.01846E+02
 2.68800E+00    6.95693E+02
 2.69300E+00    6.89025E+02
 2.70000E+00    6.81616E+02
 2.70300E+00    6.84569E+02
 2.70900E+00    7.58477E+02
 2.71100E+00    8.05510E+02
 2.71300E+00    8.29528E+02
 2.71400E+00    8.29938E+02
 2.71600E+00    8.17450E+02
 2.71800E+00    7.99683E+02
 2.72200E+00    7.69821E+02
 2.72400E+00    7.58894E+02
 2.72900E+00    7.39402E+02
 2.73400E+00    7.26418E+02
 2.73800E+00    7.18496E+02
 2.74100E+00    7.13365E+02
 2.74400E+00    7.08614E+02
 2.74800E+00    7.02282E+02
 2.75000E+00    6.98687E+02
 2.75200E+00    6.94134E+02
 2.75400E+00    6.87555E+02
 2.75500E+00    6.89907E+02
 2.75650E+00    8.49854E+02
 2.75700E+00    7.69156E+02
 2.75800E+00    7.28370E+02
 2.76000E+00    7.10239E+02
 2.76200E+00    7.04312E+02
 2.76400E+00    7.01480E+02
 2.76600E+00    7.00798E+02
 2.76700E+00    7.01810E+02
 2.76800E+00    7.05231E+02
 2.76900E+00    7.18153E+02
 2.77100E+00    6.63252E+02
 2.77200E+00    6.74494E+02
 2.77300E+00    6.77827E+02
 2.77400E+00    6.79089E+02
 2.77500E+00    6.79517E+02
 2.77600E+00    6.79541E+02
 2.77700E+00    6.79337E+02
 2.77900E+00    6.78560E+02
 2.78100E+00    6.77537E+02
 2.78500E+00    6.75195E+02
 2.79500E+00    6.69005E+02
 2.79700E+00    6.67769E+02
 2.82500E+00    6.51321E+02
 2.83000E+00    6.48521E+02
 2.83200E+00    6.47409E+02
 2.85100E+00    6.37095E+02
 2.85800E+00    6.33372E+02
 2.86700E+00    6.28632E+02
 2.87200E+00    6.26011E+02
 2.87600E+00    6.23921E+02
 2.88600E+00    6.18685E+02
 2.89300E+00    6.14996E+02
 2.90200E+00    6.10170E+02
