# n + Os189 : (n,n'24)  
# jendl4.0   N.Iwamoto                         EVAL-Jan10
# uncertainties: n
# # energies =    63
#   E(MeV)       xs(mb) 
 6.25330E-01    0.00000E+00
 6.33966E-01    3.57851E+01
 6.37585E-01    4.05508E+01
 6.70963E-01    5.98467E+01
 6.75718E-01    6.12076E+01
 6.76693E-01    6.14610E+01
 6.83524E-01    6.31353E+01
 6.92095E-01    6.47823E+01
 7.00000E-01    6.59197E+01
 7.20727E-01    6.84864E+01
 7.20817E-01    6.84878E+01
 7.39426E-01    6.97192E+01
 8.00000E-01    7.18570E+01
 9.00000E-01    7.15686E+01
 1.00000E+00    6.81502E+01
 1.10000E+00    6.27632E+01
 1.20000E+00    5.73410E+01
 1.30000E+00    5.13878E+01
 1.40000E+00    4.50897E+01
 1.50000E+00    3.95972E+01
 1.60000E+00    3.48260E+01
 1.70000E+00    3.02908E+01
 1.80000E+00    2.61942E+01
 1.90000E+00    2.25846E+01
 2.00000E+00    1.94266E+01
 2.25000E+00    1.30227E+01
 2.50000E+00    8.89547E+00
 2.75000E+00    5.98643E+00
 3.00000E+00    4.00710E+00
 3.50000E+00    1.79297E+00
 4.00000E+00    8.26810E-01
 4.50000E+00    4.11678E-01
 5.00000E+00    2.33805E-01
 5.50000E+00    1.55976E-01
 6.00000E+00    1.19980E-01
 6.50000E+00    1.01489E-01
 7.00000E+00    9.06976E-02
 7.50000E+00    8.34618E-02
 8.00000E+00    7.81421E-02
 8.50000E+00    7.39452E-02
 9.00000E+00    7.04067E-02
 9.50000E+00    6.72006E-02
 1.00000E+01    6.41429E-02
 1.05000E+01    6.11441E-02
 1.10000E+01    5.81913E-02
 1.15000E+01    5.53261E-02
 1.20000E+01    5.25788E-02
 1.25000E+01    4.99743E-02
 1.30000E+01    4.75385E-02
 1.35000E+01    4.52748E-02
 1.40000E+01    4.31854E-02
 1.45000E+01    4.12597E-02
 1.50000E+01    3.94802E-02
 1.55000E+01    3.78279E-02
 1.60000E+01    3.62845E-02
 1.65000E+01    3.48318E-02
 1.70000E+01    3.34549E-02
 1.75000E+01    3.21437E-02
 1.80000E+01    3.08919E-02
 1.85000E+01    2.96970E-02
 1.90000E+01    2.85625E-02
 1.95000E+01    2.74935E-02
 2.00000E+01    2.64849E-02
