# n + Os189 : (n,n'17)  
# jendl4.0   N.Iwamoto                         EVAL-Jan10
# uncertainties: n
# # energies =    71
#   E(MeV)       xs(mb) 
 5.08547E-01    0.00000E+00
 5.34377E-01    7.76412E+01
 5.52967E-01    8.98488E+01
 5.60328E-01    9.12222E+01
 5.65694E-01    9.12091E+01
 5.98076E-01    9.86910E+01
 6.00000E-01    9.91221E+01
 6.02835E-01    9.97642E+01
 6.25330E-01    1.01215E+02
 6.33966E-01    1.01436E+02
 6.37585E-01    1.01746E+02
 6.70963E-01    1.03749E+02
 6.75718E-01    1.03320E+02
 6.76693E-01    1.03072E+02
 6.83524E-01    1.02248E+02
 6.92095E-01    1.00791E+02
 7.00000E-01    9.98055E+01
 7.20727E-01    9.95530E+01
 7.20817E-01    9.94912E+01
 7.39426E-01    9.85224E+01
 8.00000E-01    9.60462E+01
 9.00000E-01    9.26693E+01
 1.00000E+00    8.38760E+01
 1.10000E+00    7.58715E+01
 1.20000E+00    6.70498E+01
 1.30000E+00    5.83792E+01
 1.40000E+00    5.10475E+01
 1.50000E+00    4.46721E+01
 1.60000E+00    3.85362E+01
 1.70000E+00    3.31296E+01
 1.80000E+00    2.84334E+01
 1.90000E+00    2.43517E+01
 2.00000E+00    2.08220E+01
 2.25000E+00    1.37883E+01
 2.50000E+00    9.33995E+00
 2.75000E+00    6.25033E+00
 3.00000E+00    4.15273E+00
 3.50000E+00    1.84638E+00
 4.00000E+00    8.43673E-01
 4.50000E+00    4.12388E-01
 5.00000E+00    2.27156E-01
 5.50000E+00    1.46118E-01
 6.00000E+00    1.08942E-01
 6.50000E+00    9.03126E-02
 7.00000E+00    7.98411E-02
 7.50000E+00    7.30943E-02
 8.00000E+00    6.82782E-02
 8.50000E+00    6.45404E-02
 9.00000E+00    6.14038E-02
 9.50000E+00    5.85602E-02
 1.00000E+01    5.58452E-02
 1.05000E+01    5.31849E-02
 1.10000E+01    5.05774E-02
 1.15000E+01    4.80512E-02
 1.20000E+01    4.56368E-02
 1.25000E+01    4.33543E-02
 1.30000E+01    4.12250E-02
 1.35000E+01    3.92497E-02
 1.40000E+01    3.74292E-02
 1.45000E+01    3.57528E-02
 1.50000E+01    3.42055E-02
 1.55000E+01    3.27694E-02
 1.60000E+01    3.14278E-02
 1.65000E+01    3.01644E-02
 1.70000E+01    2.89666E-02
 1.75000E+01    2.78258E-02
 1.80000E+01    2.67359E-02
 1.85000E+01    2.56954E-02
 1.90000E+01    2.47082E-02
 1.95000E+01    2.37788E-02
 2.00000E+01    2.29028E-02
