# n + Os189 : (n,n'32)  
# jendl4.0   N.Iwamoto                         EVAL-Jan10
# uncertainties: n
# # energies =    54
#   E(MeV)       xs(mb) 
 7.20727E-01    0.00000E+00
 7.20817E-01    2.31361E+00
 7.39426E-01    2.55641E+01
 8.00000E-01    4.14316E+01
 9.00000E-01    5.19709E+01
 1.00000E+00    5.58997E+01
 1.10000E+00    5.64173E+01
 1.20000E+00    5.37353E+01
 1.30000E+00    5.02136E+01
 1.40000E+00    4.57241E+01
 1.50000E+00    4.05556E+01
 1.60000E+00    3.59408E+01
 1.70000E+00    3.18608E+01
 1.80000E+00    2.78709E+01
 1.90000E+00    2.42163E+01
 2.00000E+00    2.09751E+01
 2.25000E+00    1.42872E+01
 2.50000E+00    9.91743E+00
 2.75000E+00    6.78442E+00
 3.00000E+00    4.60274E+00
 3.50000E+00    2.11685E+00
 4.00000E+00    9.92866E-01
 4.50000E+00    4.94022E-01
 5.00000E+00    2.74472E-01
 5.50000E+00    1.76795E-01
 6.00000E+00    1.31603E-01
 6.50000E+00    1.08943E-01
 7.00000E+00    9.62665E-02
 7.50000E+00    8.81248E-02
 8.00000E+00    8.23134E-02
 8.50000E+00    7.78144E-02
 9.00000E+00    7.40708E-02
 9.50000E+00    7.07139E-02
 1.00000E+01    6.75312E-02
 1.05000E+01    6.44158E-02
 1.10000E+01    6.13430E-02
 1.15000E+01    5.83577E-02
 1.20000E+01    5.54880E-02
 1.25000E+01    5.27611E-02
 1.30000E+01    5.02057E-02
 1.35000E+01    4.78270E-02
 1.40000E+01    4.56287E-02
 1.45000E+01    4.36012E-02
 1.50000E+01    4.17282E-02
 1.55000E+01    3.99896E-02
 1.60000E+01    3.83647E-02
 1.65000E+01    3.68350E-02
 1.70000E+01    3.53856E-02
 1.75000E+01    3.40054E-02
 1.80000E+01    3.26876E-02
 1.85000E+01    3.14291E-02
 1.90000E+01    3.02336E-02
 1.95000E+01    2.91064E-02
 2.00000E+01    2.80420E-02
