# n + Os189 : (n,n'30)  
# jendl4.0   N.Iwamoto                         EVAL-Jan10
# uncertainties: n
# # energies =    57
#   E(MeV)       xs(mb) 
 6.83524E-01    0.00000E+00
 6.92095E-01    2.37812E+01
 7.00000E-01    3.03201E+01
 7.20727E-01    4.00129E+01
 7.20817E-01    4.00127E+01
 7.39426E-01    4.45743E+01
 8.00000E-01    5.28378E+01
 9.00000E-01    5.93812E+01
 1.00000E+00    6.01642E+01
 1.10000E+00    5.85539E+01
 1.20000E+00    5.42562E+01
 1.30000E+00    5.00135E+01
 1.40000E+00    4.43516E+01
 1.50000E+00    3.90248E+01
 1.60000E+00    3.43285E+01
 1.70000E+00    3.01295E+01
 1.80000E+00    2.60760E+01
 1.90000E+00    2.24822E+01
 2.00000E+00    1.93293E+01
 2.25000E+00    1.29366E+01
 2.50000E+00    8.83214E+00
 2.75000E+00    5.94890E+00
 3.00000E+00    3.92965E+00
 3.50000E+00    1.73849E+00
 4.00000E+00    7.77664E-01
 4.50000E+00    3.62886E-01
 5.00000E+00    1.85224E-01
 5.50000E+00    1.08632E-01
 6.00000E+00    7.46514E-02
 6.50000E+00    5.86446E-02
 7.00000E+00    5.03898E-02
 7.50000E+00    4.55169E-02
 8.00000E+00    4.22590E-02
 8.50000E+00    3.98399E-02
 9.00000E+00    3.78734E-02
 9.50000E+00    3.61297E-02
 1.00000E+01    3.44854E-02
 1.05000E+01    3.28807E-02
 1.10000E+01    3.13016E-02
 1.15000E+01    2.97697E-02
 1.20000E+01    2.82992E-02
 1.25000E+01    2.69034E-02
 1.30000E+01    2.55967E-02
 1.35000E+01    2.43811E-02
 1.40000E+01    2.32583E-02
 1.45000E+01    2.22231E-02
 1.50000E+01    2.12669E-02
 1.55000E+01    2.03794E-02
 1.60000E+01    1.95505E-02
 1.65000E+01    1.87703E-02
 1.70000E+01    1.80309E-02
 1.75000E+01    1.73268E-02
 1.80000E+01    1.66545E-02
 1.85000E+01    1.60125E-02
 1.90000E+01    1.54028E-02
 1.95000E+01    1.48280E-02
 2.00000E+01    1.42854E-02
