# n + Os189 : (n,n'08)  
# jendl4.0   N.Iwamoto                         EVAL-Jan10
# uncertainties: n
# # energies =    85
#   E(MeV)       xs(mb) 
 2.34812E-01    0.00000E+00
 2.50000E-01    1.72662E+02
 2.75000E-01    2.27288E+02
 2.77389E-01    2.30494E+02
 2.89537E-01    2.29021E+02
 3.00000E-01    2.35761E+02
 3.51868E-01    2.62810E+02
 3.67718E-01    2.69574E+02
 4.00000E-01    2.67638E+02
 4.30214E-01    2.70554E+02
 4.41065E-01    2.64581E+02
 4.46592E-01    2.59985E+02
 5.00000E-01    2.53351E+02
 5.01453E-01    2.53301E+02
 5.08547E-01    2.49644E+02
 5.34377E-01    2.41862E+02
 5.52967E-01    2.35484E+02
 5.60328E-01    2.32162E+02
 5.65694E-01    2.29138E+02
 5.98076E-01    2.22674E+02
 6.00000E-01    2.22450E+02
 6.02835E-01    2.22149E+02
 6.25330E-01    2.17816E+02
 6.33966E-01    2.14307E+02
 6.37585E-01    2.12928E+02
 6.70963E-01    2.01039E+02
 6.75718E-01    1.99494E+02
 6.76693E-01    1.98546E+02
 6.83524E-01    1.94287E+02
 6.92095E-01    1.90121E+02
 7.00000E-01    1.87116E+02
 7.20727E-01    1.81691E+02
 7.20817E-01    1.81504E+02
 7.39426E-01    1.74209E+02
 8.00000E-01    1.60876E+02
 9.00000E-01    1.41753E+02
 1.00000E+00    1.20475E+02
 1.10000E+00    1.03322E+02
 1.20000E+00    8.93771E+01
 1.30000E+00    7.68354E+01
 1.40000E+00    6.58809E+01
 1.50000E+00    5.64124E+01
 1.60000E+00    4.82785E+01
 1.70000E+00    4.13170E+01
 1.80000E+00    3.53556E+01
 1.90000E+00    3.02279E+01
 2.00000E+00    2.58257E+01
 2.25000E+00    1.71169E+01
 2.50000E+00    1.16281E+01
 2.75000E+00    7.81678E+00
 3.00000E+00    5.17407E+00
 3.50000E+00    2.29985E+00
 4.00000E+00    1.03603E+00
 4.50000E+00    4.87188E-01
 5.00000E+00    2.50447E-01
 5.50000E+00    1.47313E-01
 6.00000E+00    1.01124E-01
 6.50000E+00    7.91534E-02
 7.00000E+00    6.77645E-02
 7.50000E+00    6.10651E-02
 8.00000E+00    5.66232E-02
 8.50000E+00    5.33227E-02
 9.00000E+00    5.06020E-02
 9.50000E+00    4.81462E-02
 1.00000E+01    4.58088E-02
 1.05000E+01    4.35263E-02
 1.10000E+01    4.13146E-02
 1.15000E+01    3.91890E-02
 1.20000E+01    3.71725E-02
 1.25000E+01    3.52784E-02
 1.30000E+01    3.35148E-02
 1.35000E+01    3.18853E-02
 1.40000E+01    3.03873E-02
 1.45000E+01    2.90101E-02
 1.50000E+01    2.77395E-02
 1.55000E+01    2.65600E-02
 1.60000E+01    2.54575E-02
 1.65000E+01    2.44188E-02
 1.70000E+01    2.34341E-02
 1.75000E+01    2.24967E-02
 1.80000E+01    2.16030E-02
 1.85000E+01    2.07519E-02
 1.90000E+01    1.99459E-02
 1.95000E+01    1.91888E-02
 2.00000E+01    1.84768E-02
