# n + Os189 : (n,el)    
# jendl4.0   N.Iwamoto                         EVAL-Jan10
# uncertainties: n
# # energies =   171
#   E(MeV)       xs(mb) 
 1.00000E-11    2.30107E+04
 1.00000E-07    1.54274E+04
 4.13990E-07    1.53100E+04
 5.31580E-07    1.52473E+04
 6.82560E-07    1.51660E+04
 8.76420E-07    1.50568E+04
 1.12540E-06    1.49088E+04
 1.44500E-06    1.47083E+04
 1.85540E-06    1.44337E+04
 2.37240E-06    1.40341E+04
 3.05900E-06    1.34124E+04
 3.92790E-06    1.23356E+04
 5.04350E-06    1.01926E+04
 6.47600E-06    4.06045E+04
 8.31530E-06    1.57480E+05
 1.06770E-05    2.41293E+04
 1.37100E-05    1.64850E+04
 1.76030E-05    3.93399E+04
 2.26030E-05    2.68717E+04
 2.92030E-05    1.88095E+04
 3.72670E-05    1.45814E+04
 4.78510E-05    4.31627E+04
 6.14420E-05    8.08424E+04
 7.88930E-05    1.32357E+05
 1.01300E-04    1.22476E+05
 1.30070E-04    1.13291E+05
 1.67020E-04    1.04755E+05
 2.14450E-04    9.61395E+04
 2.75360E-04    8.79806E+04
 3.53580E-04    8.05108E+04
 4.54000E-04    7.36467E+04
 5.82950E-04    6.73599E+04
 7.48520E-04    6.15177E+04
 9.61120E-04    5.61208E+04
 1.23410E-03    5.11487E+04
 1.58460E-03    4.66169E+04
 2.03470E-03    4.36722E+04
 2.24870E-03    4.20814E+04
 2.48520E-03    4.09241E+04
 2.61260E-03    4.01716E+04
 2.74650E-03    3.90709E+04
 3.03540E-03    3.76474E+04
 3.35460E-03    3.62758E+04
 3.70740E-03    3.46347E+04
 4.30740E-03    3.21635E+04
 5.53080E-03    2.93133E+04
 7.10170E-03    2.67142E+04
 9.11880E-03    2.43496E+04
 1.17090E-02    2.22103E+04
 1.50340E-02    2.02606E+04
 1.93050E-02    1.89063E+04
 2.18750E-02    1.82240E+04
 2.35790E-02    1.78915E+04
 2.41760E-02    1.77278E+04
 2.47880E-02    1.74855E+04
 2.60580E-02    1.72136E+04
 2.70000E-02    1.69329E+04
 2.85000E-02    1.64298E+04
 3.18280E-02    1.58786E+04
 3.43070E-02    1.50060E+04
 4.08680E-02    1.39104E+04
 4.63090E-02    1.32153E+04
 5.24750E-02    1.27016E+04
 5.65620E-02    1.21018E+04
 6.73790E-02    1.14895E+04
 7.20000E-02    1.08563E+04
 7.95000E-02    1.04030E+04
 8.25000E-02    1.02036E+04
 8.65170E-02    9.79179E+03
 9.80370E-02    8.96497E+03
 1.11090E-01    8.56223E+03
 1.16790E-01    8.35922E+03
 1.22770E-01    8.17143E+03
 1.29070E-01    7.98294E+03
 1.35690E-01    7.80380E+03
 1.42640E-01    7.62454E+03
 1.49960E-01    7.44945E+03
 1.57640E-01    7.28243E+03
 1.65730E-01    7.13333E+03
 1.74220E-01    6.98261E+03
 1.83160E-01    6.83296E+03
 1.92550E-01    6.68716E+03
 2.02420E-01    6.53420E+03
 2.12800E-01    6.37899E+03
 2.23710E-01    6.21024E+03
 2.35180E-01    6.01849E+03
 2.47240E-01    5.75428E+03
 2.73240E-01    5.53397E+03
 2.87250E-01    5.40687E+03
 2.94520E-01    5.35667E+03
 2.97200E-01    5.33816E+03
 2.98500E-01    5.31602E+03
 3.01970E-01    5.15786E+03
 3.33730E-01    4.88243E+03
 3.68830E-01    4.66443E+03
 3.87740E-01    4.51398E+03
 4.07620E-01    4.35006E+03
 4.50490E-01    4.11834E+03
 4.97870E-01    3.94332E+03
 5.23400E-01    3.81763E+03
 5.50230E-01    3.69320E+03
 5.78440E-01    3.57722E+03
 6.08100E-01    3.46281E+03
 6.39280E-01    3.38751E+03
 6.72060E-01    3.33401E+03
 7.06510E-01    3.28660E+03
 7.42740E-01    3.24626E+03
 7.80820E-01    3.21178E+03
 8.20850E-01    3.17945E+03
 8.62940E-01    3.15091E+03
 9.07180E-01    3.11849E+03
 9.61640E-01    3.08911E+03
 1.00260E+00    3.09213E+03
 1.10800E+00    3.11691E+03
 1.16480E+00    3.14397E+03
 1.22460E+00    3.17683E+03
 1.28730E+00    3.21607E+03
 1.35340E+00    3.25960E+03
 1.42270E+00    3.30844E+03
 1.49570E+00    3.35984E+03
 1.57240E+00    3.41385E+03
 1.65300E+00    3.47060E+03
 1.73770E+00    3.53027E+03
 1.82680E+00    3.59054E+03
 1.92050E+00    3.64740E+03
 2.01900E+00    3.70353E+03
 2.12250E+00    3.75487E+03
 2.23130E+00    3.79880E+03
 2.30690E+00    3.82123E+03
 2.34570E+00    3.83156E+03
 2.36530E+00    3.83853E+03
 2.38520E+00    3.85624E+03
 2.46600E+00    3.88943E+03
 2.59240E+00    3.91722E+03
 2.72530E+00    3.94080E+03
 2.86500E+00    3.95308E+03
 3.01190E+00    3.94977E+03
 3.16640E+00    3.93478E+03
 3.32870E+00    3.90288E+03
 3.67880E+00    3.80996E+03
 4.06570E+00    3.67281E+03
 4.49330E+00    3.54323E+03
 4.72370E+00    3.44225E+03
 4.96590E+00    3.33406E+03
 5.22050E+00    3.21771E+03
 5.48810E+00    3.09866E+03
 5.76950E+00    2.97134E+03
 6.06530E+00    2.84673E+03
 6.37630E+00    2.75497E+03
 6.59240E+00    2.70052E+03
 6.70320E+00    2.62589E+03
 7.04690E+00    2.52289E+03
 7.40820E+00    2.42948E+03
 7.78800E+00    2.35007E+03
 8.18730E+00    2.28806E+03
 8.60710E+00    2.24392E+03
 9.04840E+00    2.21966E+03
 9.51230E+00    2.21545E+03
 1.00000E+01    2.23089E+03
 1.05130E+01    2.26529E+03
 1.10520E+01    2.31645E+03
 1.16180E+01    2.38213E+03
 1.22140E+01    2.45945E+03
 1.28400E+01    2.54535E+03
 1.34990E+01    2.61303E+03
 1.38400E+01    2.65911E+03
 1.41910E+01    2.70528E+03
 1.45500E+01    2.75091E+03
 1.49180E+01    2.81750E+03
 1.56830E+01    2.90004E+03
 1.64870E+01    2.97182E+03
