# n + Os189 : (n,n'28)  
# jendl4.0   N.Iwamoto                         EVAL-Jan10
# uncertainties: n
# # energies =    59
#   E(MeV)       xs(mb) 
 6.75718E-01    0.00000E+00
 6.76693E-01    8.72160E+00
 6.83524E-01    2.16589E+01
 6.92095E-01    2.87391E+01
 7.00000E-01    3.31391E+01
 7.20727E-01    4.08635E+01
 7.20817E-01    4.08205E+01
 7.39426E-01    4.41548E+01
 8.00000E-01    5.27241E+01
 9.00000E-01    6.07468E+01
 1.00000E+00    6.26287E+01
 1.10000E+00    6.15606E+01
 1.20000E+00    5.75919E+01
 1.30000E+00    5.35139E+01
 1.40000E+00    4.75906E+01
 1.50000E+00    4.21286E+01
 1.60000E+00    3.72833E+01
 1.70000E+00    3.28762E+01
 1.80000E+00    2.86089E+01
 1.90000E+00    2.48037E+01
 2.00000E+00    2.14466E+01
 2.25000E+00    1.45612E+01
 2.50000E+00    1.00830E+01
 2.75000E+00    6.88456E+00
 3.00000E+00    4.55004E+00
 3.50000E+00    2.02871E+00
 4.00000E+00    8.94812E-01
 4.50000E+00    3.95692E-01
 5.00000E+00    1.79584E-01
 5.50000E+00    8.68177E-02
 6.00000E+00    4.69316E-02
 6.50000E+00    2.95785E-02
 7.00000E+00    2.18460E-02
 7.50000E+00    1.81382E-02
 8.00000E+00    1.61500E-02
 8.50000E+00    1.49277E-02
 9.00000E+00    1.40606E-02
 9.50000E+00    1.33550E-02
 1.00000E+01    1.27204E-02
 1.05000E+01    1.21157E-02
 1.10000E+01    1.15275E-02
 1.15000E+01    1.09600E-02
 1.20000E+01    1.04169E-02
 1.25000E+01    9.90206E-03
 1.30000E+01    9.42048E-03
 1.35000E+01    8.97272E-03
 1.40000E+01    8.55925E-03
 1.45000E+01    8.17809E-03
 1.50000E+01    7.82607E-03
 1.55000E+01    7.49934E-03
 1.60000E+01    7.19419E-03
 1.65000E+01    6.90698E-03
 1.70000E+01    6.63479E-03
 1.75000E+01    6.37559E-03
 1.80000E+01    6.12809E-03
 1.85000E+01    5.89177E-03
 1.90000E+01    5.66732E-03
 1.95000E+01    5.45576E-03
 2.00000E+01    5.25604E-03
