# n + Os189 : (n,n'18)  
# jendl4.0   N.Iwamoto                         EVAL-Jan10
# uncertainties: n
# # energies =    70
#   E(MeV)       xs(mb) 
 5.34377E-01    0.00000E+00
 5.52967E-01    4.97141E+01
 5.60328E-01    5.53866E+01
 5.65694E-01    5.82925E+01
 5.98076E-01    7.28132E+01
 6.00000E-01    7.34463E+01
 6.02835E-01    7.43665E+01
 6.25330E-01    8.00402E+01
 6.33966E-01    8.17610E+01
 6.37585E-01    8.24237E+01
 6.70963E-01    8.60954E+01
 6.75718E-01    8.67523E+01
 6.76693E-01    8.64541E+01
 6.83524E-01    8.57849E+01
 6.92095E-01    8.57300E+01
 7.00000E-01    8.59715E+01
 7.20727E-01    8.72636E+01
 7.20817E-01    8.71600E+01
 7.39426E-01    8.63080E+01
 8.00000E-01    8.84498E+01
 9.00000E-01    8.87288E+01
 1.00000E+00    8.34416E+01
 1.10000E+00    7.67209E+01
 1.20000E+00    6.93682E+01
 1.30000E+00    6.09114E+01
 1.40000E+00    5.36578E+01
 1.50000E+00    4.72827E+01
 1.60000E+00    4.12319E+01
 1.70000E+00    3.57051E+01
 1.80000E+00    3.08543E+01
 1.90000E+00    2.66014E+01
 2.00000E+00    2.28944E+01
 2.25000E+00    1.54063E+01
 2.50000E+00    1.05933E+01
 2.75000E+00    7.19324E+00
 3.00000E+00    4.87258E+00
 3.50000E+00    2.23155E+00
 4.00000E+00    1.05047E+00
 4.50000E+00    5.29680E-01
 5.00000E+00    3.01034E-01
 5.50000E+00    1.98885E-01
 6.00000E+00    1.51049E-01
 6.50000E+00    1.26521E-01
 7.00000E+00    1.12413E-01
 7.50000E+00    1.03143E-01
 8.00000E+00    9.64394E-02
 8.50000E+00    9.12012E-02
 9.00000E+00    8.67924E-02
 9.50000E+00    8.27925E-02
 1.00000E+01    7.89719E-02
 1.05000E+01    7.52270E-02
 1.10000E+01    7.15521E-02
 1.15000E+01    6.79896E-02
 1.20000E+01    6.45820E-02
 1.25000E+01    6.13588E-02
 1.30000E+01    5.83494E-02
 1.35000E+01    5.55538E-02
 1.40000E+01    5.29769E-02
 1.45000E+01    5.06038E-02
 1.50000E+01    4.84135E-02
 1.55000E+01    4.63808E-02
 1.60000E+01    4.44819E-02
 1.65000E+01    4.26940E-02
 1.70000E+01    4.09991E-02
 1.75000E+01    3.93851E-02
 1.80000E+01    3.78443E-02
 1.85000E+01    3.63740E-02
 1.90000E+01    3.49789E-02
 1.95000E+01    3.36651E-02
 2.00000E+01    3.24264E-02
