# n + Os189 : (n,n'21)  
# jendl4.0   N.Iwamoto                         EVAL-Jan10
# uncertainties: n
# # energies =    67
#   E(MeV)       xs(mb) 
 5.65694E-01    0.00000E+00
 5.98076E-01    1.85530E+01
 6.00000E-01    1.89189E+01
 6.02835E-01    1.94391E+01
 6.25330E-01    2.27880E+01
 6.33966E-01    2.38193E+01
 6.37585E-01    2.37181E+01
 6.70963E-01    2.61159E+01
 6.75718E-01    2.64481E+01
 6.76693E-01    2.65090E+01
 6.83524E-01    2.69569E+01
 6.92095E-01    2.75318E+01
 7.00000E-01    2.80728E+01
 7.20727E-01    2.95324E+01
 7.20817E-01    2.95346E+01
 7.39426E-01    3.05699E+01
 8.00000E-01    3.40638E+01
 9.00000E-01    3.71673E+01
 1.00000E+00    3.74323E+01
 1.10000E+00    3.58103E+01
 1.20000E+00    3.39749E+01
 1.30000E+00    3.06796E+01
 1.40000E+00    2.77642E+01
 1.50000E+00    2.51298E+01
 1.60000E+00    2.26255E+01
 1.70000E+00    2.01294E+01
 1.80000E+00    1.78561E+01
 1.90000E+00    1.57945E+01
 2.00000E+00    1.39388E+01
 2.25000E+00    9.95674E+00
 2.50000E+00    7.23673E+00
 2.75000E+00    5.16801E+00
 3.00000E+00    3.69055E+00
 3.50000E+00    1.83239E+00
 4.00000E+00    9.18587E-01
 4.50000E+00    4.83126E-01
 5.00000E+00    2.79796E-01
 5.50000E+00    1.84618E-01
 6.00000E+00    1.38783E-01
 6.50000E+00    1.15074E-01
 7.00000E+00    1.01566E-01
 7.50000E+00    9.28380E-02
 8.00000E+00    8.66290E-02
 8.50000E+00    8.18388E-02
 9.00000E+00    7.78446E-02
 9.50000E+00    7.42447E-02
 1.00000E+01    7.08195E-02
 1.05000E+01    6.74683E-02
 1.10000E+01    6.41794E-02
 1.15000E+01    6.09919E-02
 1.20000E+01    5.79416E-02
 1.25000E+01    5.50548E-02
 1.30000E+01    5.23589E-02
 1.35000E+01    4.98561E-02
 1.40000E+01    4.75478E-02
 1.45000E+01    4.54216E-02
 1.50000E+01    4.34588E-02
 1.55000E+01    4.16371E-02
 1.60000E+01    3.99354E-02
 1.65000E+01    3.83333E-02
 1.70000E+01    3.68146E-02
 1.75000E+01    3.53682E-02
 1.80000E+01    3.39874E-02
 1.85000E+01    3.26695E-02
 1.90000E+01    3.14187E-02
 1.95000E+01    3.02406E-02
 2.00000E+01    2.91295E-02
