# n + Os189 : (n,n'27)  
# jendl4.0   N.Iwamoto                         EVAL-Jan10
# uncertainties: n
# # energies =    60
#   E(MeV)       xs(mb) 
 6.70963E-01    0.00000E+00
 6.75718E-01    1.20115E+01
 6.76693E-01    1.29724E+01
 6.83524E-01    1.76388E+01
 6.92095E-01    2.09120E+01
 7.00000E-01    2.25172E+01
 7.20727E-01    2.62105E+01
 7.20817E-01    2.62236E+01
 7.39426E-01    2.86156E+01
 8.00000E-01    3.27563E+01
 9.00000E-01    3.60795E+01
 1.00000E+00    3.60856E+01
 1.10000E+00    3.47764E+01
 1.20000E+00    3.22146E+01
 1.30000E+00    2.97137E+01
 1.40000E+00    2.62331E+01
 1.50000E+00    2.31038E+01
 1.60000E+00    2.03346E+01
 1.70000E+00    1.78096E+01
 1.80000E+00    1.53998E+01
 1.90000E+00    1.32609E+01
 2.00000E+00    1.13831E+01
 2.25000E+00    7.58046E+00
 2.50000E+00    5.14119E+00
 2.75000E+00    3.43960E+00
 3.00000E+00    2.38823E+00
 3.50000E+00    1.11500E+00
 4.00000E+00    5.61555E-01
 4.50000E+00    3.21896E-01
 5.00000E+00    2.16367E-01
 5.50000E+00    1.67214E-01
 6.00000E+00    1.41810E-01
 6.50000E+00    1.26531E-01
 7.00000E+00    1.16033E-01
 7.50000E+00    1.08046E-01
 8.00000E+00    1.01700E-01
 8.50000E+00    9.64704E-02
 9.00000E+00    9.19629E-02
 9.50000E+00    8.78359E-02
 1.00000E+01    8.38813E-02
 1.05000E+01    7.99925E-02
 1.10000E+01    7.61541E-02
 1.15000E+01    7.24255E-02
 1.20000E+01    6.88450E-02
 1.25000E+01    6.54465E-02
 1.30000E+01    6.22651E-02
 1.35000E+01    5.93060E-02
 1.40000E+01    5.65731E-02
 1.45000E+01    5.40535E-02
 1.50000E+01    5.17265E-02
 1.55000E+01    4.95666E-02
 1.60000E+01    4.75493E-02
 1.65000E+01    4.56506E-02
 1.70000E+01    4.38511E-02
 1.75000E+01    4.21375E-02
 1.80000E+01    4.05013E-02
 1.85000E+01    3.89390E-02
 1.90000E+01    3.74552E-02
 1.95000E+01    3.60567E-02
 2.00000E+01    3.47365E-02
