# n + Os189 : (n,n'14)  
# jendl4.0   N.Iwamoto                         EVAL-Jan10
# uncertainties: n
# # energies =    75
#   E(MeV)       xs(mb) 
 4.41065E-01    0.00000E+00
 4.46592E-01    6.25324E+01
 5.00000E-01    1.35299E+02
 5.01453E-01    1.36158E+02
 5.08547E-01    1.35490E+02
 5.34377E-01    1.36700E+02
 5.52967E-01    1.38294E+02
 5.60328E-01    1.36290E+02
 5.65694E-01    1.33939E+02
 5.98076E-01    1.34657E+02
 6.00000E-01    1.34792E+02
 6.02835E-01    1.34897E+02
 6.25330E-01    1.32846E+02
 6.33966E-01    1.31481E+02
 6.37585E-01    1.31320E+02
 6.70963E-01    1.29950E+02
 6.75718E-01    1.29204E+02
 6.76693E-01    1.28860E+02
 6.83524E-01    1.27546E+02
 6.92095E-01    1.25490E+02
 7.00000E-01    1.23545E+02
 7.20727E-01    1.21243E+02
 7.20817E-01    1.21162E+02
 7.39426E-01    1.18331E+02
 8.00000E-01    1.12780E+02
 9.00000E-01    1.03649E+02
 1.00000E+00    9.25111E+01
 1.10000E+00    8.20228E+01
 1.20000E+00    7.09424E+01
 1.30000E+00    6.15975E+01
 1.40000E+00    5.37544E+01
 1.50000E+00    4.64983E+01
 1.60000E+00    3.99176E+01
 1.70000E+00    3.42143E+01
 1.80000E+00    2.92933E+01
 1.90000E+00    2.50379E+01
 2.00000E+00    2.13722E+01
 2.25000E+00    1.41091E+01
 2.50000E+00    9.52807E+00
 2.75000E+00    6.36366E+00
 3.00000E+00    4.15026E+00
 3.50000E+00    1.80393E+00
 4.00000E+00    7.89143E-01
 4.50000E+00    3.55737E-01
 5.00000E+00    1.72080E-01
 5.50000E+00    9.38174E-02
 6.00000E+00    5.97944E-02
 6.50000E+00    4.43267E-02
 7.00000E+00    3.67913E-02
 7.50000E+00    3.26535E-02
 8.00000E+00    3.00685E-02
 8.50000E+00    2.82365E-02
 9.00000E+00    2.67798E-02
 9.50000E+00    2.54957E-02
 1.00000E+01    2.42868E-02
 1.05000E+01    2.31105E-02
 1.10000E+01    2.19645E-02
 1.15000E+01    2.08576E-02
 1.20000E+01    1.98006E-02
 1.25000E+01    1.88035E-02
 1.30000E+01    1.78749E-02
 1.35000E+01    1.70146E-02
 1.40000E+01    1.62223E-02
 1.45000E+01    1.54931E-02
 1.50000E+01    1.48203E-02
 1.55000E+01    1.41957E-02
 1.60000E+01    1.36122E-02
 1.65000E+01    1.30627E-02
 1.70000E+01    1.25417E-02
 1.75000E+01    1.20456E-02
 1.80000E+01    1.15722E-02
 1.85000E+01    1.11207E-02
 1.90000E+01    1.06925E-02
 1.95000E+01    1.02896E-02
 2.00000E+01    9.90993E-03
