# n + Os189 : (n,n'02)  
# jendl4.0   N.Iwamoto                         EVAL-Jan10
# uncertainties: n
# # energies =   109
#   E(MeV)       xs(mb) 
 3.63721E-02    0.00000E+00
 4.00000E-02    4.44546E+02
 5.00000E-02    5.50011E+02
 6.00000E-02    5.61029E+02
 6.99062E-02    5.54324E+02
 7.00000E-02    5.53355E+02
 8.00000E-02    5.40985E+02
 9.00000E-02    5.29873E+02
 9.57564E-02    5.24816E+02
 9.78697E-02    4.88111E+02
 1.00000E-01    4.76986E+02
 1.10000E-01    4.46864E+02
 1.20000E-01    4.29881E+02
 1.30000E-01    4.18398E+02
 1.40000E-01    4.09916E+02
 1.50000E-01    4.03281E+02
 1.60000E-01    3.98352E+02
 1.70000E-01    3.92931E+02
 1.80000E-01    3.88803E+02
 1.90000E-01    3.85723E+02
 2.00000E-01    3.83057E+02
 2.17818E-01    3.79537E+02
 2.20560E-01    3.77994E+02
 2.25000E-01    3.76167E+02
 2.34812E-01    3.74488E+02
 2.50000E-01    3.67693E+02
 2.75000E-01    3.60622E+02
 2.77389E-01    3.60069E+02
 2.89537E-01    3.53182E+02
 3.00000E-01    3.48574E+02
 3.51868E-01    3.32312E+02
 3.67718E-01    3.29104E+02
 4.00000E-01    3.18867E+02
 4.30214E-01    3.09989E+02
 4.41065E-01    3.03761E+02
 4.46592E-01    2.93264E+02
 5.00000E-01    2.64042E+02
 5.01453E-01    2.63496E+02
 5.08547E-01    2.55186E+02
 5.34377E-01    2.35027E+02
 5.52967E-01    2.25507E+02
 5.60328E-01    2.18990E+02
 5.65694E-01    2.13342E+02
 5.98076E-01    1.97843E+02
 6.00000E-01    1.97121E+02
 6.02835E-01    1.96099E+02
 6.25330E-01    1.85351E+02
 6.33966E-01    1.78999E+02
 6.37585E-01    1.77382E+02
 6.70963E-01    1.64545E+02
 6.75718E-01    1.61255E+02
 6.76693E-01    1.60549E+02
 6.83524E-01    1.56728E+02
 6.92095E-01    1.51637E+02
 7.00000E-01    1.46811E+02
 7.20727E-01    1.38870E+02
 7.20817E-01    1.38780E+02
 7.39426E-01    1.31803E+02
 8.00000E-01    1.14447E+02
 9.00000E-01    9.42516E+01
 1.00000E+00    7.81882E+01
 1.10000E+00    6.52517E+01
 1.20000E+00    5.46973E+01
 1.30000E+00    4.60149E+01
 1.40000E+00    3.88780E+01
 1.50000E+00    3.28555E+01
 1.60000E+00    2.77781E+01
 1.70000E+00    2.35002E+01
 1.80000E+00    1.98899E+01
 1.90000E+00    1.68241E+01
 2.00000E+00    1.42230E+01
 2.25000E+00    9.18680E+00
 2.50000E+00    6.08564E+00
 2.75000E+00    3.99486E+00
 3.00000E+00    2.54724E+00
 3.50000E+00    1.06972E+00
 4.00000E+00    4.50084E-01
 4.50000E+00    1.92282E-01
 5.00000E+00    8.54850E-02
 5.50000E+00    4.10638E-02
 6.00000E+00    2.23798E-02
 6.50000E+00    1.43282E-02
 7.00000E+00    1.07193E-02
 7.50000E+00    8.93840E-03
 8.00000E+00    7.92552E-03
 8.50000E+00    7.24141E-03
 9.00000E+00    6.69825E-03
 9.50000E+00    6.21172E-03
 1.00000E+01    5.74790E-03
 1.05000E+01    5.29501E-03
 1.10000E+01    4.85318E-03
 1.15000E+01    4.42533E-03
 1.20000E+01    4.01457E-03
 1.25000E+01    3.79774E-03
 1.30000E+01    3.60427E-03
 1.35000E+01    3.42624E-03
 1.40000E+01    3.26300E-03
 1.45000E+01    3.11319E-03
 1.50000E+01    2.97511E-03
 1.55000E+01    2.84704E-03
 1.60000E+01    2.72738E-03
 1.65000E+01    2.61472E-03
 1.70000E+01    2.50800E-03
 1.75000E+01    2.40653E-03
 1.80000E+01    2.30993E-03
 1.85000E+01    2.21807E-03
 1.90000E+01    2.16418E-03
 1.95000E+01    2.17129E-03
 2.00000E+01    2.16903E-03
