# p + Ne 20 : (p,el)    
# ibandl     A.Gurbich                                   
# uncertainties: n
# # energies =   117
#   E(MeV)       xs(mb) 
 1.52500E+00    5.63844E+03
 1.53600E+00    5.56427E+03
 1.54900E+00    5.47926E+03
 1.56400E+00    5.38474E+03
 1.57600E+00    5.31192E+03
 1.59100E+00    5.22437E+03
 1.59900E+00    5.17931E+03
 1.60600E+00    5.14081E+03
 1.61400E+00    5.09794E+03
 1.62600E+00    5.03589E+03
 1.64200E+00    4.95767E+03
 1.65600E+00    4.89375E+03
 1.66700E+00    4.84675E+03
 1.67800E+00    4.80285E+03
 1.69100E+00    4.75536E+03
 1.69700E+00    4.73519E+03
 1.70200E+00    4.71928E+03
 1.71100E+00    4.69284E+03
 1.71700E+00    4.67686E+03
 1.72800E+00    4.65114E+03
 1.73300E+00    4.64101E+03
 1.74000E+00    4.62844E+03
 1.75100E+00    4.61210E+03
 1.75200E+00    4.61079E+03
 1.75800E+00    4.60335E+03
 1.76300E+00    4.59746E+03
 1.77600E+00    4.58031E+03
 1.79000E+00    4.54865E+03
 1.80100E+00    4.50252E+03
 1.81000E+00    4.44476E+03
 1.81600E+00    4.39547E+03
 1.82200E+00    4.33843E+03
 1.83600E+00    4.18575E+03
 1.84500E+00    4.08380E+03
 1.85900E+00    3.93671E+03
 1.86300E+00    3.89876E+03
 1.87100E+00    3.82894E+03
 1.88100E+00    3.75268E+03
 1.88900E+00    3.69962E+03
 1.89900E+00    3.64188E+03
 1.90600E+00    3.60650E+03
 1.91700E+00    3.55870E+03
 1.92800E+00    3.52162E+03
 1.93600E+00    3.50543E+03
 1.94700E+00    3.52887E+03
 1.95000E+00    3.56290E+03
 1.95500E+00    3.12681E+03
 1.95600E+00    2.89555E+03
 1.96100E+00    3.13641E+03
 1.96800E+00    3.22934E+03
 1.97900E+00    3.23981E+03
 1.99800E+00    3.20492E+03
 2.00800E+00    3.18126E+03
 2.02200E+00    3.14702E+03
 2.03100E+00    3.12510E+03
 2.04500E+00    3.09187E+03
 2.05200E+00    3.07583E+03
 2.06300E+00    3.05176E+03
 2.07200E+00    3.03335E+03
 2.08200E+00    3.01478E+03
 2.09200E+00    2.99879E+03
 2.10200E+00    2.98596E+03
 2.11200E+00    2.97381E+03
 2.12400E+00    2.89665E+03
 2.12800E+00    2.78601E+03
 2.13400E+00    2.53772E+03
 2.13700E+00    2.48931E+03
 2.14000E+00    2.50027E+03
 2.14800E+00    2.58410E+03
 2.15400E+00    2.62328E+03
 2.16200E+00    2.64807E+03
 2.17100E+00    2.65621E+03
 2.18200E+00    2.65254E+03
 2.19800E+00    2.63511E+03
 2.21100E+00    2.61600E+03
 2.21800E+00    2.60475E+03
 2.23400E+00    2.57758E+03
 2.24100E+00    2.56532E+03
 2.25600E+00    2.53863E+03
 2.26400E+00    2.52429E+03
 2.27100E+00    2.51172E+03
 2.27900E+00    2.49735E+03
 2.28500E+00    2.48661E+03
 2.29300E+00    2.47231E+03
 2.30500E+00    2.45100E+03
 2.31300E+00    2.43689E+03
 2.32500E+00    2.41589E+03
 2.33600E+00    2.39685E+03
 2.34700E+00    2.37801E+03
 2.36200E+00    2.35266E+03
 2.37500E+00    2.33101E+03
 2.38700E+00    2.31131E+03
 2.39700E+00    2.29509E+03
 2.40900E+00    2.27586E+03
 2.41700E+00    2.26318E+03
 2.42700E+00    2.24748E+03
 2.44000E+00    2.22731E+03
 2.45500E+00    2.20433E+03
 2.46300E+00    2.19219E+03
 2.47400E+00    2.17559E+03
 2.48600E+00    2.15759E+03
 2.49300E+00    2.14710E+03
 2.50400E+00    2.13061E+03
 2.51100E+00    2.12008E+03
 2.52200E+00    2.10339E+03
 2.53600E+00    2.08174E+03
 2.55300E+00    2.05438E+03
 2.56100E+00    2.04087E+03
 2.57100E+00    2.02318E+03
 2.58100E+00    2.00437E+03
 2.59500E+00    1.97554E+03
 2.60500E+00    1.95270E+03
 2.61500E+00    1.92765E+03
 2.62400E+00    1.90306E+03
 2.63300E+00    1.87658E+03
 2.64500E+00    1.83911E+03
 2.65500E+00    1.80783E+03
