# n + Dy161 : (n,n'16)  
# jendl4.0   N.Iwamoto,S.Chiba                 EVAL-Nov09
# uncertainties: n
# # energies =    77
#   E(MeV)       xs(mb) 
 4.46179E-01    0.00000E+00
 4.54262E-01    1.15071E+00
 4.60096E-01    1.71126E+00
 4.88603E-01    4.65472E+00
 5.00000E-01    5.87278E+00
 5.11285E-01    7.13638E+00
 5.15209E-01    7.58728E+00
 5.24266E-01    8.59120E+00
 5.37548E-01    1.00718E+01
 5.53702E-01    1.18511E+01
 5.71502E-01    1.37717E+01
 5.90780E-01    1.56663E+01
 6.00000E-01    1.65107E+01
 6.11389E-01    1.75785E+01
 6.13653E-01    1.77904E+01
 6.32172E-01    1.95368E+01
 6.37136E-01    1.99588E+01
 6.46024E-01    2.07483E+01
 6.82575E-01    2.33056E+01
 6.92614E-01    2.40027E+01
 7.00000E-01    2.42523E+01
 7.00441E-01    2.42755E+01
 7.03522E-01    2.43778E+01
 7.21544E-01    2.53535E+01
 7.23104E-01    2.54181E+01
 7.35494E-01    2.60904E+01
 8.00000E-01    2.91483E+01
 9.00000E-01    3.22096E+01
 1.00000E+00    3.28724E+01
 1.10000E+00    3.20998E+01
 1.20000E+00    3.05831E+01
 1.30000E+00    2.84544E+01
 1.40000E+00    2.61599E+01
 1.50000E+00    2.37737E+01
 1.60000E+00    2.13814E+01
 1.70000E+00    1.91208E+01
 1.80000E+00    1.70229E+01
 1.90000E+00    1.51845E+01
 2.00000E+00    1.34620E+01
 2.25000E+00    9.58855E+00
 2.50000E+00    7.12152E+00
 2.75000E+00    5.03229E+00
 3.00000E+00    3.69916E+00
 3.50000E+00    1.88877E+00
 4.00000E+00    9.64754E-01
 4.50000E+00    5.03040E-01
 5.00000E+00    2.76661E-01
 5.50000E+00    1.66585E-01
 6.00000E+00    1.12623E-01
 6.50000E+00    8.52984E-02
 7.00000E+00    7.06489E-02
 7.50000E+00    6.20100E-02
 8.00000E+00    5.62307E-02
 8.50000E+00    5.18778E-02
 9.00000E+00    4.83052E-02
 9.50000E+00    4.52059E-02
 1.00000E+01    4.24520E-02
 1.05000E+01    3.99881E-02
 1.10000E+01    3.77123E-02
 1.15000E+01    3.56619E-02
 1.20000E+01    3.37543E-02
 1.25000E+01    3.20165E-02
 1.30000E+01    3.03950E-02
 1.35000E+01    2.89123E-02
 1.40000E+01    2.75264E-02
 1.45000E+01    2.62505E-02
 1.50000E+01    2.50570E-02
 1.55000E+01    2.39614E-02
 1.60000E+01    2.29371E-02
 1.65000E+01    2.19773E-02
 1.70000E+01    2.10731E-02
 1.75000E+01    2.02206E-02
 1.80000E+01    1.94214E-02
 1.85000E+01    1.86622E-02
 1.90000E+01    1.79501E-02
 1.95000E+01    1.72675E-02
 2.00000E+01    1.66263E-02
