# n + Dy161 : (n,g)     
# jendl4.0   N.Iwamoto,S.Chiba                 EVAL-Nov09
# uncertainties: n
# # energies =   171
#   E(MeV)       xs(mb) 
 1.00000E-11    6.62249E+06
 1.00000E-07    1.88494E+05
 4.13990E-07    1.01563E+05
 5.31580E-07    8.32064E+04
 6.82560E-07    6.77131E+04
 8.76420E-07    5.52570E+04
 1.12540E-06    4.64128E+04
 1.44500E-06    4.33984E+04
 1.85540E-06    6.48950E+04
 2.37240E-06    6.87429E+05
 3.05900E-06    1.00345E+06
 3.92790E-06    5.40674E+05
 5.04350E-06    1.42377E+04
 6.47600E-06    8.45951E+04
 8.31530E-06    2.70745E+04
 1.06770E-05    4.37924E+04
 1.37100E-05    4.35153E+05
 1.76030E-05    1.94054E+05
 2.26030E-05    3.74186E+04
 2.92030E-05    3.54841E+04
 3.72670E-05    2.24506E+05
 4.78510E-05    1.18841E+05
 6.14420E-05    3.05471E+04
 7.88930E-05    4.96984E+04
 1.01300E-04    5.24943E+04
 1.30070E-04    4.02212E+04
 1.67020E-04    7.24748E+04
 2.14450E-04    2.68862E+04
 2.75360E-04    3.19989E+04
 3.53580E-04    2.71296E+04
 4.54000E-04    2.80529E+04
 5.82950E-04    2.37432E+04
 7.48520E-04    1.99870E+04
 9.61120E-04    1.68186E+04
 1.23410E-03    1.42012E+04
 1.58460E-03    1.19921E+04
 2.03470E-03    1.06427E+04
 2.24870E-03    9.94653E+03
 2.48520E-03    9.45316E+03
 2.61260E-03    9.13924E+03
 2.74650E-03    8.68833E+03
 3.03540E-03    8.12005E+03
 3.35460E-03    7.58911E+03
 3.70740E-03    6.97728E+03
 4.30740E-03    6.11516E+03
 5.53080E-03    5.18298E+03
 7.10170E-03    4.41681E+03
 9.11880E-03    3.79522E+03
 1.17090E-02    3.30822E+03
 1.50340E-02    2.88769E+03
 1.93050E-02    2.60885E+03
 2.18750E-02    2.47787E+03
 2.35790E-02    2.41506E+03
 2.41760E-02    2.38430E+03
 2.47880E-02    2.33838E+03
 2.60580E-02    2.26823E+03
 2.70000E-02    2.18487E+03
 2.85000E-02    2.04782E+03
 3.18280E-02    1.93302E+03
 3.43070E-02    1.79657E+03
 4.08680E-02    1.63934E+03
 4.63090E-02    1.46043E+03
 5.24750E-02    1.35316E+03
 5.65620E-02    1.24635E+03
 6.73790E-02    1.15334E+03
 7.20000E-02    1.08848E+03
 7.95000E-02    1.01951E+03
 8.25000E-02    9.88117E+02
 8.65170E-02    9.28788E+02
 9.80370E-02    8.33604E+02
 1.11090E-01    7.45177E+02
 1.16790E-01    7.11301E+02
 1.22770E-01    6.82328E+02
 1.29070E-01    6.53000E+02
 1.35690E-01    6.14945E+02
 1.42640E-01    5.85122E+02
 1.49960E-01    5.59985E+02
 1.57640E-01    5.37382E+02
 1.65730E-01    5.17178E+02
 1.74220E-01    4.99491E+02
 1.83160E-01    4.81411E+02
 1.92550E-01    4.64456E+02
 2.02420E-01    4.45353E+02
 2.12800E-01    4.22082E+02
 2.23710E-01    4.00763E+02
 2.35180E-01    3.85947E+02
 2.47240E-01    3.66914E+02
 2.73240E-01    3.52096E+02
 2.87250E-01    3.45516E+02
 2.94520E-01    3.42444E+02
 2.97200E-01    3.41217E+02
 2.98500E-01    3.39750E+02
 3.01970E-01    3.28132E+02
 3.33730E-01    3.06198E+02
 3.68830E-01    2.90799E+02
 3.87740E-01    2.80968E+02
 4.07620E-01    2.67794E+02
 4.50490E-01    2.48263E+02
 4.97870E-01    2.35300E+02
 5.23400E-01    2.26721E+02
 5.50230E-01    2.16589E+02
 5.78440E-01    2.06556E+02
 6.08100E-01    1.97315E+02
 6.39280E-01    1.87411E+02
 6.72060E-01    1.79056E+02
 7.06510E-01    1.69456E+02
 7.42740E-01    1.61914E+02
 7.80820E-01    1.55421E+02
 8.20850E-01    1.50862E+02
 8.62940E-01    1.46435E+02
 9.07180E-01    1.41209E+02
 9.61640E-01    1.35974E+02
 1.00260E+00    1.28551E+02
 1.10800E+00    1.20699E+02
 1.16480E+00    1.15520E+02
 1.22460E+00    1.10305E+02
 1.28730E+00    1.05191E+02
 1.35340E+00    1.00217E+02
 1.42270E+00    9.53933E+01
 1.49570E+00    9.06223E+01
 1.57240E+00    8.58686E+01
 1.65300E+00    8.13125E+01
 1.73770E+00    7.69305E+01
 1.82680E+00    7.26878E+01
 1.92050E+00    6.85305E+01
 2.01900E+00    6.39187E+01
 2.12250E+00    5.92670E+01
 2.23130E+00    5.57947E+01
 2.30690E+00    5.41296E+01
 2.34570E+00    5.32930E+01
 2.36530E+00    5.27527E+01
 2.38520E+00    5.14644E+01
 2.46600E+00    4.85573E+01
 2.59240E+00    4.44230E+01
 2.72530E+00    4.06556E+01
 2.86500E+00    3.72895E+01
 3.01190E+00    3.38510E+01
 3.16640E+00    3.04741E+01
 3.32870E+00    2.59341E+01
 3.67880E+00    2.01961E+01
 4.06570E+00    1.51254E+01
 4.49330E+00    1.18141E+01
 4.72370E+00    9.85206E+00
 4.96590E+00    8.14788E+00
 5.22050E+00    6.64805E+00
 5.48810E+00    5.38670E+00
 5.76950E+00    4.32928E+00
 6.06530E+00    3.47227E+00
 6.37630E+00    2.88596E+00
 6.59240E+00    2.59662E+00
 6.70320E+00    2.26728E+00
 7.04690E+00    1.88924E+00
 7.40820E+00    1.62167E+00
 7.78800E+00    1.45283E+00
 8.18730E+00    1.35628E+00
 8.60710E+00    1.30870E+00
 9.04840E+00    1.29119E+00
 9.51230E+00    1.28986E+00
 1.00000E+01    1.29418E+00
 1.05130E+01    1.29488E+00
 1.10520E+01    1.28519E+00
 1.16180E+01    1.25886E+00
 1.22140E+01    1.21837E+00
 1.28400E+01    1.17096E+00
 1.34990E+01    1.13154E+00
 1.38400E+01    1.10123E+00
 1.41910E+01    1.06538E+00
 1.45500E+01    1.01930E+00
 1.49180E+01    9.39394E-01
 1.56830E+01    8.18732E-01
 1.64870E+01    6.95852E-01
