# n + Dy161 : (n,n'37)  
# jendl4.0   N.Iwamoto,S.Chiba                 EVAL-Nov09
# uncertainties: n
# # energies =    53
#   E(MeV)       xs(mb) 
 7.23104E-01    0.00000E+00
 7.35494E-01    1.08232E-04
 8.00000E-01    1.53963E-03
 9.00000E-01    7.81611E-03
 1.00000E+00    2.08575E-02
 1.10000E+00    4.17760E-02
 1.20000E+00    6.99473E-02
 1.30000E+00    1.04312E-01
 1.40000E+00    1.41842E-01
 1.50000E+00    1.79926E-01
 1.60000E+00    2.18217E-01
 1.70000E+00    2.52553E-01
 1.80000E+00    2.81058E-01
 1.90000E+00    3.06001E-01
 2.00000E+00    3.23584E-01
 2.25000E+00    3.62566E-01
 2.50000E+00    3.87418E-01
 2.75000E+00    4.18677E-01
 3.00000E+00    5.03101E-01
 3.50000E+00    5.70460E-01
 4.00000E+00    6.37332E-01
 4.50000E+00    6.87887E-01
 5.00000E+00    7.16782E-01
 5.50000E+00    7.31255E-01
 6.00000E+00    7.40528E-01
 6.50000E+00    7.45669E-01
 7.00000E+00    7.41379E-01
 7.50000E+00    7.24069E-01
 8.00000E+00    6.95928E-01
 8.50000E+00    6.62497E-01
 9.00000E+00    6.28810E-01
 9.50000E+00    5.97456E-01
 1.00000E+01    5.69010E-01
 1.05000E+01    5.43911E-01
 1.10000E+01    5.18925E-01
 1.15000E+01    4.97238E-01
 1.20000E+01    4.75639E-01
 1.25000E+01    4.57162E-01
 1.30000E+01    4.38758E-01
 1.35000E+01    4.22920E-01
 1.40000E+01    4.07143E-01
 1.45000E+01    3.92689E-01
 1.50000E+01    3.78288E-01
 1.55000E+01    3.64320E-01
 1.60000E+01    3.50395E-01
 1.65000E+01    3.36726E-01
 1.70000E+01    3.23098E-01
 1.75000E+01    3.09873E-01
 1.80000E+01    2.96682E-01
 1.85000E+01    2.84084E-01
 1.90000E+01    2.71517E-01
 1.95000E+01    2.59703E-01
 2.00000E+01    2.47917E-01
