# n + Dy161 : (n,n'38)  
# jendl4.0   N.Iwamoto,S.Chiba                 EVAL-Nov09
# uncertainties: n
# # energies =    52
#   E(MeV)       xs(mb) 
 7.35494E-01    0.00000E+00
 8.00000E-01    3.43430E+01
 9.00000E-01    4.94825E+01
 1.00000E+00    5.33336E+01
 1.10000E+00    5.27067E+01
 1.20000E+00    5.01703E+01
 1.30000E+00    4.67406E+01
 1.40000E+00    4.29558E+01
 1.50000E+00    3.90201E+01
 1.60000E+00    3.50055E+01
 1.70000E+00    3.11049E+01
 1.80000E+00    2.73390E+01
 1.90000E+00    2.39569E+01
 2.00000E+00    2.08108E+01
 2.25000E+00    1.42481E+01
 2.50000E+00    9.92664E+00
 2.75000E+00    6.80518E+00
 3.00000E+00    4.69797E+00
 3.50000E+00    2.23636E+00
 4.00000E+00    1.06863E+00
 4.50000E+00    5.15799E-01
 5.00000E+00    2.57152E-01
 5.50000E+00    1.37805E-01
 6.00000E+00    8.28895E-02
 6.50000E+00    5.71103E-02
 7.00000E+00    4.44964E-02
 7.50000E+00    3.78035E-02
 8.00000E+00    3.37661E-02
 8.50000E+00    3.09594E-02
 9.00000E+00    2.87682E-02
 9.50000E+00    2.69195E-02
 1.00000E+01    2.52963E-02
 1.05000E+01    2.38500E-02
 1.10000E+01    2.25150E-02
 1.15000E+01    2.13115E-02
 1.20000E+01    2.01882E-02
 1.25000E+01    1.91653E-02
 1.30000E+01    1.82078E-02
 1.35000E+01    1.73326E-02
 1.40000E+01    1.65121E-02
 1.45000E+01    1.57570E-02
 1.50000E+01    1.50488E-02
 1.55000E+01    1.44003E-02
 1.60000E+01    1.37883E-02
 1.65000E+01    1.32163E-02
 1.70000E+01    1.26807E-02
 1.75000E+01    1.21756E-02
 1.80000E+01    1.17025E-02
 1.85000E+01    1.12491E-02
 1.90000E+01    1.08241E-02
 1.95000E+01    1.04159E-02
 2.00000E+01    1.00335E-02
