# n + Dy161 : (n,n'01)  
# jendl4.0   N.Iwamoto,S.Chiba                 EVAL-Nov09
# uncertainties: n
# # energies =   115
#   E(MeV)       xs(mb) 
 2.58118E-02    0.00000E+00
 3.00000E-02    1.70705E+02
 4.00000E-02    2.97532E+02
 4.40947E-02    3.37626E+02
 5.00000E-02    3.77581E+02
 6.00000E-02    4.35266E+02
 7.00000E-02    4.80118E+02
 7.50344E-02    4.99072E+02
 8.00000E-02    4.99593E+02
 9.00000E-02    5.17788E+02
 1.00000E-01    5.34094E+02
 1.01032E-01    5.35494E+02
 1.03708E-01    5.38171E+02
 1.10000E-01    5.27087E+02
 1.20000E-01    5.27288E+02
 1.30000E-01    5.28095E+02
 1.32585E-01    5.27797E+02
 1.40000E-01    5.06830E+02
 1.50000E-01    4.97947E+02
 1.60000E-01    4.91020E+02
 1.70000E-01    4.84331E+02
 1.80000E-01    4.78460E+02
 1.85385E-01    4.75822E+02
 1.90000E-01    4.73721E+02
 2.00000E-01    4.69502E+02
 2.02347E-01    4.68415E+02
 2.14287E-01    4.62620E+02
 2.25000E-01    4.51119E+02
 2.50000E-01    4.33366E+02
 2.69116E-01    4.22733E+02
 2.75000E-01    4.19768E+02
 3.00000E-01    4.09241E+02
 3.16914E-01    4.03937E+02
 3.22700E-01    4.01945E+02
 3.69275E-01    3.85798E+02
 4.00000E-01    3.75137E+02
 4.09541E-01    3.72735E+02
 4.20855E-01    3.70068E+02
 4.46179E-01    3.57816E+02
 4.54262E-01    3.54988E+02
 4.60096E-01    3.49405E+02
 4.88603E-01    3.36085E+02
 5.00000E-01    3.31696E+02
 5.11285E-01    3.28118E+02
 5.15209E-01    3.26933E+02
 5.24266E-01    3.23939E+02
 5.37548E-01    3.18984E+02
 5.53702E-01    3.09648E+02
 5.71502E-01    2.99907E+02
 5.90780E-01    2.89840E+02
 6.00000E-01    2.86014E+02
 6.11389E-01    2.81878E+02
 6.13653E-01    2.80907E+02
 6.32172E-01    2.71365E+02
 6.37136E-01    2.69100E+02
 6.46024E-01    2.63620E+02
 6.82575E-01    2.48847E+02
 6.92614E-01    2.44413E+02
 7.00000E-01    2.41464E+02
 7.00441E-01    2.41305E+02
 7.03522E-01    2.39650E+02
 7.21544E-01    2.31773E+02
 7.23104E-01    2.31108E+02
 7.35494E-01    2.26403E+02
 8.00000E-01    2.04135E+02
 9.00000E-01    1.75351E+02
 1.00000E+00    1.47314E+02
 1.10000E+00    1.22880E+02
 1.20000E+00    1.02807E+02
 1.30000E+00    8.56338E+01
 1.40000E+00    7.16235E+01
 1.50000E+00    6.02942E+01
 1.60000E+00    5.05565E+01
 1.70000E+00    4.25243E+01
 1.80000E+00    3.59603E+01
 1.90000E+00    3.05477E+01
 2.00000E+00    2.60628E+01
 2.25000E+00    1.70381E+01
 2.50000E+00    1.17522E+01
 2.75000E+00    7.83880E+00
 3.00000E+00    5.33159E+00
 3.50000E+00    2.44755E+00
 4.00000E+00    1.11856E+00
 4.50000E+00    5.08695E-01
 5.00000E+00    2.31919E-01
 5.50000E+00    1.07479E-01
 6.00000E+00    5.18492E-02
 6.50000E+00    2.69255E-02
 7.00000E+00    1.57136E-02
 7.50000E+00    1.05500E-02
 8.00000E+00    8.00054E-03
 8.50000E+00    6.58210E-03
 9.00000E+00    5.66536E-03
 9.50000E+00    4.98185E-03
 1.00000E+01    4.41681E-03
 1.05000E+01    3.92032E-03
 1.10000E+01    3.46227E-03
 1.15000E+01    3.03853E-03
 1.20000E+01    2.66665E-03
 1.25000E+01    2.52259E-03
 1.30000E+01    2.38927E-03
 1.35000E+01    2.26859E-03
 1.40000E+01    2.15619E-03
 1.45000E+01    2.05342E-03
 1.50000E+01    1.95746E-03
 1.55000E+01    1.87018E-03
 1.60000E+01    1.78857E-03
 1.65000E+01    1.71231E-03
 1.70000E+01    1.64097E-03
 1.75000E+01    1.57360E-03
 1.80000E+01    1.51060E-03
 1.85000E+01    1.45057E-03
 1.90000E+01    1.39449E-03
 1.95000E+01    1.34046E-03
 2.00000E+01    1.29001E-03
