# p + Xe  0 : Production of Cs131
# IAEA-MED for     5.000 MeV <     31.000 MeV, extended with TENDL-2019   EVAL-2019
# uncertainties: y
# # energies =   295
#   E(MeV)          xs(mb) 
 1.14588E+00    0.00000E+00
 1.22521E+00    1.40873E-08
 1.27063E+00    2.76140E-08
 1.28052E+00    3.05595E-08
 1.36362E+00    5.53078E-08
 1.42198E+00    7.26882E-08
 1.52199E+00    1.02473E-07
 1.64580E+00    1.39345E-07
 1.73542E+00    1.66035E-07
 1.74681E+00    1.69427E-07
 1.76682E+00    1.75387E-07
 2.00000E+00    1.00674E-06
 3.00000E+00    6.01184E-04
 4.00000E+00    2.16715E-02
 5.00000E+00    2.00000E-01
 5.10000E+00    6.00000E-01
 5.20000E+00    1.00000E+00
 5.30000E+00    1.40000E+00
 5.40000E+00    1.90000E+00
 5.50000E+00    2.50000E+00
 5.60000E+00    3.20000E+00
 5.70000E+00    4.00000E+00
 5.80000E+00    4.90000E+00
 5.90000E+00    5.90000E+00
 6.00000E+00    7.20000E+00
 6.10000E+00    8.60000E+00
 6.20000E+00    1.02000E+01
 6.30000E+00    1.21000E+01
 6.40000E+00    1.42000E+01
 6.50000E+00    1.66000E+01
 6.60000E+00    1.94000E+01
 6.70000E+00    2.25000E+01
 6.80000E+00    2.59000E+01
 6.90000E+00    2.98000E+01
 7.00000E+00    3.40000E+01
 7.10000E+00    3.88000E+01
 7.20000E+00    4.40000E+01
 7.30000E+00    4.99000E+01
 7.40000E+00    5.64000E+01
 7.50000E+00    6.37000E+01
 7.60000E+00    7.19000E+01
 7.70000E+00    8.10000E+01
 7.80000E+00    9.10000E+01
 7.90000E+00    1.02200E+02
 8.00000E+00    1.14500E+02
 8.10000E+00    1.28000E+02
 8.20000E+00    1.42900E+02
 8.30000E+00    1.59300E+02
 8.40000E+00    1.77400E+02
 8.50000E+00    1.97300E+02
 8.60000E+00    2.19100E+02
 8.70000E+00    2.43000E+02
 8.80000E+00    2.69100E+02
 8.90000E+00    2.97600E+02
 9.00000E+00    3.28600E+02
 9.10000E+00    3.62000E+02
 9.20000E+00    3.97500E+02
 9.30000E+00    4.34100E+02
 9.40000E+00    4.71300E+02
 9.50000E+00    5.08400E+02
 9.60000E+00    5.44600E+02
 9.70000E+00    5.79300E+02
 9.80000E+00    6.11700E+02
 9.90000E+00    6.41100E+02
 1.00000E+01    6.66900E+02
 1.01000E+01    6.88500E+02
 1.02000E+01    7.06000E+02
 1.03000E+01    7.19400E+02
 1.04000E+01    7.29100E+02
 1.05000E+01    7.35100E+02
 1.06000E+01    7.37700E+02
 1.07000E+01    7.37000E+02
 1.08000E+01    7.33200E+02
 1.09000E+01    7.26500E+02
 1.10000E+01    7.17100E+02
 1.11000E+01    7.05200E+02
 1.12000E+01    6.91100E+02
 1.13000E+01    6.75100E+02
 1.14000E+01    6.57700E+02
 1.15000E+01    6.39100E+02
 1.16000E+01    6.19700E+02
 1.17000E+01    5.99800E+02
 1.18000E+01    5.79900E+02
 1.19000E+01    5.60200E+02
 1.20000E+01    5.41100E+02
 1.21000E+01    5.22900E+02
 1.22000E+01    5.05600E+02
 1.23000E+01    4.89200E+02
 1.24000E+01    4.73500E+02
 1.25000E+01    4.58600E+02
 1.26000E+01    4.44300E+02
 1.27000E+01    4.30600E+02
 1.28000E+01    4.17500E+02
 1.29000E+01    4.04800E+02
 1.30000E+01    3.92600E+02
 1.31000E+01    3.80800E+02
 1.32000E+01    3.69200E+02
 1.33000E+01    3.57900E+02
 1.34000E+01    3.46600E+02
 1.35000E+01    3.35400E+02
 1.36000E+01    3.24100E+02
 1.37000E+01    3.12600E+02
 1.38000E+01    3.00900E+02
 1.39000E+01    2.88900E+02
 1.40000E+01    2.76400E+02
 1.41000E+01    2.63400E+02
 1.42000E+01    2.50100E+02
 1.43000E+01    2.36500E+02
 1.44000E+01    2.22800E+02
 1.45000E+01    2.09100E+02
 1.46000E+01    1.95600E+02
 1.47000E+01    1.82400E+02
 1.48000E+01    1.69700E+02
 1.49000E+01    1.57500E+02
 1.50000E+01    1.46000E+02
 1.51000E+01    1.35300E+02
 1.52000E+01    1.25500E+02
 1.53000E+01    1.16500E+02
 1.54000E+01    1.08400E+02
 1.55000E+01    1.01100E+02
 1.56000E+01    9.46000E+01
 1.57000E+01    8.89000E+01
 1.58000E+01    8.41000E+01
 1.59000E+01    8.01000E+01
 1.60000E+01    7.69000E+01
 1.61000E+01    7.45000E+01
 1.62000E+01    7.28000E+01
 1.63000E+01    7.17000E+01
 1.64000E+01    7.12000E+01
 1.65000E+01    7.11000E+01
 1.66000E+01    7.13000E+01
 1.67000E+01    7.18000E+01
 1.68000E+01    7.25000E+01
 1.69000E+01    7.32000E+01
 1.70000E+01    7.38000E+01
 1.71000E+01    7.44000E+01
 1.72000E+01    7.48000E+01
 1.73000E+01    7.51000E+01
 1.74000E+01    7.54000E+01
 1.75000E+01    7.55000E+01
 1.76000E+01    7.56000E+01
 1.77000E+01    7.56000E+01
 1.78000E+01    7.56000E+01
 1.79000E+01    7.55000E+01
 1.80000E+01    7.54000E+01
 1.81000E+01    7.53000E+01
 1.82000E+01    7.52000E+01
 1.83000E+01    7.51000E+01
 1.84000E+01    7.50000E+01
 1.85000E+01    7.49000E+01
 1.86000E+01    7.47000E+01
 1.87000E+01    7.45000E+01
 1.88000E+01    7.43000E+01
 1.89000E+01    7.41000E+01
 1.90000E+01    7.39000E+01
 1.91000E+01    7.36000E+01
 1.92000E+01    7.33000E+01
 1.93000E+01    7.30000E+01
 1.94000E+01    7.27000E+01
 1.95000E+01    7.24000E+01
 1.96000E+01    7.21000E+01
 1.97000E+01    7.17000E+01
 1.98000E+01    7.14000E+01
 1.99000E+01    7.10000E+01
 2.00000E+01    7.06000E+01
 2.01000E+01    7.03000E+01
 2.02000E+01    6.99000E+01
 2.03000E+01    6.95000E+01
 2.04000E+01    6.91000E+01
 2.05000E+01    6.88000E+01
 2.06000E+01    6.84000E+01
 2.07000E+01    6.80000E+01
 2.08000E+01    6.76000E+01
 2.09000E+01    6.72000E+01
 2.10000E+01    6.69000E+01
 2.11000E+01    6.65000E+01
 2.12000E+01    6.61000E+01
 2.13000E+01    6.57000E+01
 2.14000E+01    6.53000E+01
 2.15000E+01    6.49000E+01
 2.16000E+01    6.46000E+01
 2.17000E+01    6.42000E+01
 2.18000E+01    6.38000E+01
 2.19000E+01    6.34000E+01
 2.20000E+01    6.31000E+01
 2.21000E+01    6.27000E+01
 2.22000E+01    6.23000E+01
 2.23000E+01    6.19000E+01
 2.24000E+01    6.16000E+01
 2.25000E+01    6.12000E+01
 2.26000E+01    6.09000E+01
 2.27000E+01    6.05000E+01
 2.28000E+01    6.01000E+01
 2.29000E+01    5.98000E+01
 2.30000E+01    5.94000E+01
 2.31000E+01    5.91000E+01
 2.32000E+01    5.87000E+01
 2.33000E+01    5.84000E+01
 2.34000E+01    5.81000E+01
 2.35000E+01    5.77000E+01
 2.36000E+01    5.74000E+01
 2.37000E+01    5.71000E+01
 2.38000E+01    5.67000E+01
 2.39000E+01    5.64000E+01
 2.40000E+01    5.61000E+01
 2.41000E+01    5.58000E+01
 2.42000E+01    5.54000E+01
 2.43000E+01    5.51000E+01
 2.44000E+01    5.48000E+01
 2.45000E+01    5.45000E+01
 2.46000E+01    5.42000E+01
 2.47000E+01    5.39000E+01
 2.48000E+01    5.36000E+01
 2.49000E+01    5.33000E+01
 2.50000E+01    5.30000E+01
 2.51000E+01    5.27000E+01
 2.52000E+01    5.24000E+01
 2.53000E+01    5.21000E+01
 2.54000E+01    5.19000E+01
 2.55000E+01    5.16000E+01
 2.56000E+01    5.13000E+01
 2.57000E+01    5.10000E+01
 2.58000E+01    5.07000E+01
 2.59000E+01    5.05000E+01
 2.60000E+01    5.02000E+01
 2.61000E+01    4.99000E+01
 2.62000E+01    4.97000E+01
 2.63000E+01    4.94000E+01
 2.64000E+01    4.91000E+01
 2.65000E+01    4.89000E+01
 2.66000E+01    4.86000E+01
 2.67000E+01    4.84000E+01
 2.68000E+01    4.81000E+01
 2.69000E+01    4.79000E+01
 2.70000E+01    4.76000E+01
 2.71000E+01    4.74000E+01
 2.72000E+01    4.71000E+01
 2.73000E+01    4.69000E+01
 2.74000E+01    4.67000E+01
 2.75000E+01    4.64000E+01
 2.76000E+01    4.62000E+01
 2.77000E+01    4.60000E+01
 2.78000E+01    4.57000E+01
 2.79000E+01    4.55000E+01
 2.80000E+01    4.53000E+01
 2.81000E+01    4.51000E+01
 2.82000E+01    4.48000E+01
 2.83000E+01    4.46000E+01
 2.84000E+01    4.44000E+01
 2.85000E+01    4.42000E+01
 2.86000E+01    4.40000E+01
 2.87000E+01    4.38000E+01
 2.88000E+01    4.35000E+01
 2.89000E+01    4.33000E+01
 2.90000E+01    4.31000E+01
 2.91000E+01    4.29000E+01
 2.92000E+01    4.27000E+01
 2.93000E+01    4.25000E+01
 2.94000E+01    4.23000E+01
 2.95000E+01    4.21000E+01
 2.96000E+01    4.19000E+01
 2.97000E+01    4.17000E+01
 2.98000E+01    4.15000E+01
 2.99000E+01    4.13000E+01
 3.00000E+01    4.12000E+01
 3.01000E+01    4.10000E+01
 3.02000E+01    4.08000E+01
 3.03000E+01    4.06000E+01
 3.04000E+01    4.04000E+01
 3.05000E+01    4.02000E+01
 3.06000E+01    4.00000E+01
 3.07000E+01    3.99000E+01
 3.08000E+01    3.97000E+01
 3.09000E+01    3.95000E+01
 3.10000E+01    3.93000E+01
 3.50000E+01    3.28702E+01
 4.00000E+01    2.77941E+01
 4.50000E+01    2.36683E+01
 5.00000E+01    2.00621E+01
 5.50000E+01    1.72144E+01
 6.00000E+01    1.48455E+01
 6.50000E+01    1.32171E+01
 7.00000E+01    1.13545E+01
 7.50000E+01    1.01173E+01
 8.00000E+01    8.77166E+00
 9.00000E+01    7.02354E+00
 1.00000E+02    5.73992E+00
 1.10000E+02    4.76432E+00
 1.20000E+02    4.11762E+00
 1.30000E+02    3.54893E+00
 1.40000E+02    3.15400E+00
 1.50000E+02    2.81726E+00
 1.60000E+02    2.51340E+00
 1.80000E+02    2.08721E+00
 2.00000E+02    1.74389E+00
