# p + Xe  0 : Production of Cs123
# IAEA-MED for    16.700 MeV <     43.800 MeV, extended with TENDL-2019   EVAL-2019
# uncertainties: y
# # energies =   292
#   E(MeV)          xs(mb) 
 1.55972E+01    0.00000E+00
 1.60000E+01    2.08412E+00
 1.67000E+01    1.20000E+01
 1.68000E+01    1.29000E+01
 1.69000E+01    2.36000E+01
 1.70000E+01    5.24000E+01
 1.71000E+01    8.25000E+01
 1.72000E+01    1.00400E+02
 1.73000E+01    1.10400E+02
 1.74000E+01    1.19600E+02
 1.75000E+01    1.29500E+02
 1.76000E+01    1.39600E+02
 1.77000E+01    1.49800E+02
 1.78000E+01    1.59900E+02
 1.79000E+01    1.69500E+02
 1.80000E+01    1.78700E+02
 1.81000E+01    1.87500E+02
 1.82000E+01    1.96300E+02
 1.83000E+01    2.04800E+02
 1.84000E+01    2.13300E+02
 1.85000E+01    2.21500E+02
 1.86000E+01    2.29600E+02
 1.87000E+01    2.37600E+02
 1.88000E+01    2.45400E+02
 1.89000E+01    2.53100E+02
 1.90000E+01    2.60600E+02
 1.91000E+01    2.68000E+02
 1.92000E+01    2.75200E+02
 1.93000E+01    2.82400E+02
 1.94000E+01    2.89400E+02
 1.95000E+01    2.96200E+02
 1.96000E+01    3.03000E+02
 1.97000E+01    3.09600E+02
 1.98000E+01    3.16100E+02
 1.99000E+01    3.22500E+02
 2.00000E+01    3.28800E+02
 2.01000E+01    3.34900E+02
 2.02000E+01    3.41000E+02
 2.03000E+01    3.46900E+02
 2.04000E+01    3.52700E+02
 2.05000E+01    3.58400E+02
 2.06000E+01    3.64000E+02
 2.07000E+01    3.69400E+02
 2.08000E+01    3.74800E+02
 2.09000E+01    3.80100E+02
 2.10000E+01    3.85200E+02
 2.11000E+01    3.90200E+02
 2.12000E+01    3.95100E+02
 2.13000E+01    3.99900E+02
 2.14000E+01    4.04600E+02
 2.15000E+01    4.09200E+02
 2.16000E+01    4.13700E+02
 2.17000E+01    4.18000E+02
 2.18000E+01    4.22300E+02
 2.19000E+01    4.26400E+02
 2.20000E+01    4.30400E+02
 2.21000E+01    4.34300E+02
 2.22000E+01    4.38100E+02
 2.23000E+01    4.41700E+02
 2.24000E+01    4.45300E+02
 2.25000E+01    4.48700E+02
 2.26000E+01    4.52000E+02
 2.27000E+01    4.55200E+02
 2.28000E+01    4.58300E+02
 2.29000E+01    4.61200E+02
 2.30000E+01    4.64000E+02
 2.31000E+01    4.66700E+02
 2.32000E+01    4.69200E+02
 2.33000E+01    4.71700E+02
 2.34000E+01    4.74000E+02
 2.35000E+01    4.76100E+02
 2.36000E+01    4.78200E+02
 2.37000E+01    4.80100E+02
 2.38000E+01    4.81800E+02
 2.39000E+01    4.83500E+02
 2.40000E+01    4.85000E+02
 2.41000E+01    4.86300E+02
 2.42000E+01    4.87500E+02
 2.43000E+01    4.88600E+02
 2.44000E+01    4.89600E+02
 2.45000E+01    4.90400E+02
 2.46000E+01    4.91000E+02
 2.47000E+01    4.91500E+02
 2.48000E+01    4.91900E+02
 2.49000E+01    4.92200E+02
 2.50000E+01    4.92200E+02
 2.51000E+01    4.92200E+02
 2.52000E+01    4.92000E+02
 2.53000E+01    4.91700E+02
 2.54000E+01    4.91200E+02
 2.55000E+01    4.90500E+02
 2.56000E+01    4.89800E+02
 2.57000E+01    4.88900E+02
 2.58000E+01    4.87800E+02
 2.59000E+01    4.86600E+02
 2.60000E+01    4.85300E+02
 2.61000E+01    4.83800E+02
 2.62000E+01    4.82200E+02
 2.63000E+01    4.80500E+02
 2.64000E+01    4.78600E+02
 2.65000E+01    4.76600E+02
 2.66000E+01    4.74400E+02
 2.67000E+01    4.72200E+02
 2.68000E+01    4.69800E+02
 2.69000E+01    4.67200E+02
 2.70000E+01    4.64600E+02
 2.71000E+01    4.61800E+02
 2.72000E+01    4.59000E+02
 2.73000E+01    4.56000E+02
 2.74000E+01    4.52900E+02
 2.75000E+01    4.49700E+02
 2.76000E+01    4.46300E+02
 2.77000E+01    4.42900E+02
 2.78000E+01    4.39400E+02
 2.79000E+01    4.35800E+02
 2.80000E+01    4.32100E+02
 2.81000E+01    4.28300E+02
 2.82000E+01    4.24400E+02
 2.83000E+01    4.20500E+02
 2.84000E+01    4.16500E+02
 2.85000E+01    4.12400E+02
 2.86000E+01    4.08200E+02
 2.87000E+01    4.04000E+02
 2.88000E+01    3.99700E+02
 2.89000E+01    3.95300E+02
 2.90000E+01    3.90900E+02
 2.91000E+01    3.86500E+02
 2.92000E+01    3.82000E+02
 2.93000E+01    3.77500E+02
 2.94000E+01    3.72900E+02
 2.95000E+01    3.68300E+02
 2.96000E+01    3.63700E+02
 2.97000E+01    3.59000E+02
 2.98000E+01    3.54400E+02
 2.99000E+01    3.49700E+02
 3.00000E+01    3.45000E+02
 3.01000E+01    3.40300E+02
 3.02000E+01    3.35500E+02
 3.03000E+01    3.30800E+02
 3.04000E+01    3.26100E+02
 3.05000E+01    3.21400E+02
 3.06000E+01    3.16700E+02
 3.07000E+01    3.12000E+02
 3.08000E+01    3.07300E+02
 3.09000E+01    3.02600E+02
 3.10000E+01    2.98000E+02
 3.11000E+01    2.93300E+02
 3.12000E+01    2.88700E+02
 3.13000E+01    2.84200E+02
 3.14000E+01    2.79600E+02
 3.15000E+01    2.75100E+02
 3.16000E+01    2.70600E+02
 3.17000E+01    2.66200E+02
 3.18000E+01    2.61800E+02
 3.19000E+01    2.57400E+02
 3.20000E+01    2.53100E+02
 3.21000E+01    2.48800E+02
 3.22000E+01    2.44600E+02
 3.23000E+01    2.40400E+02
 3.24000E+01    2.36300E+02
 3.25000E+01    2.32200E+02
 3.26000E+01    2.28100E+02
 3.27000E+01    2.24100E+02
 3.28000E+01    2.20200E+02
 3.29000E+01    2.16300E+02
 3.30000E+01    2.12500E+02
 3.31000E+01    2.08700E+02
 3.32000E+01    2.05000E+02
 3.33000E+01    2.01300E+02
 3.34000E+01    1.97700E+02
 3.35000E+01    1.94200E+02
 3.36000E+01    1.90700E+02
 3.37000E+01    1.87300E+02
 3.38000E+01    1.83900E+02
 3.39000E+01    1.80600E+02
 3.40000E+01    1.77300E+02
 3.41000E+01    1.74100E+02
 3.42000E+01    1.71000E+02
 3.43000E+01    1.67900E+02
 3.44000E+01    1.64900E+02
 3.45000E+01    1.61900E+02
 3.46000E+01    1.59000E+02
 3.47000E+01    1.56200E+02
 3.48000E+01    1.53400E+02
 3.49000E+01    1.50600E+02
 3.50000E+01    1.48000E+02
 3.51000E+01    1.45300E+02
 3.52000E+01    1.42800E+02
 3.53000E+01    1.40200E+02
 3.54000E+01    1.37800E+02
 3.55000E+01    1.35400E+02
 3.56000E+01    1.33000E+02
 3.57000E+01    1.30700E+02
 3.58000E+01    1.28500E+02
 3.59000E+01    1.26300E+02
 3.60000E+01    1.24100E+02
 3.61000E+01    1.22000E+02
 3.62000E+01    1.20000E+02
 3.63000E+01    1.18000E+02
 3.64000E+01    1.16000E+02
 3.65000E+01    1.14100E+02
 3.66000E+01    1.12300E+02
 3.67000E+01    1.10500E+02
 3.68000E+01    1.08700E+02
 3.69000E+01    1.07000E+02
 3.70000E+01    1.05300E+02
 3.71000E+01    1.03700E+02
 3.72000E+01    1.02100E+02
 3.73000E+01    1.00500E+02
 3.74000E+01    9.90000E+01
 3.75000E+01    9.76000E+01
 3.76000E+01    9.61000E+01
 3.77000E+01    9.48000E+01
 3.78000E+01    9.34000E+01
 3.79000E+01    9.21000E+01
 3.80000E+01    9.08000E+01
 3.81000E+01    8.96000E+01
 3.82000E+01    8.84000E+01
 3.83000E+01    8.72000E+01
 3.84000E+01    8.61000E+01
 3.85000E+01    8.50000E+01
 3.86000E+01    8.40000E+01
 3.87000E+01    8.29000E+01
 3.88000E+01    8.19000E+01
 3.89000E+01    8.10000E+01
 3.90000E+01    8.00000E+01
 3.91000E+01    7.91000E+01
 3.92000E+01    7.83000E+01
 3.93000E+01    7.74000E+01
 3.94000E+01    7.66000E+01
 3.95000E+01    7.58000E+01
 3.96000E+01    7.50000E+01
 3.97000E+01    7.43000E+01
 3.98000E+01    7.36000E+01
 3.99000E+01    7.29000E+01
 4.00000E+01    7.22000E+01
 4.01000E+01    7.16000E+01
 4.02000E+01    7.10000E+01
 4.03000E+01    7.04000E+01
 4.04000E+01    6.98000E+01
 4.05000E+01    6.92000E+01
 4.06000E+01    6.87000E+01
 4.07000E+01    6.82000E+01
 4.08000E+01    6.77000E+01
 4.09000E+01    6.73000E+01
 4.10000E+01    6.68000E+01
 4.11000E+01    6.64000E+01
 4.12000E+01    6.60000E+01
 4.13000E+01    6.56000E+01
 4.14000E+01    6.52000E+01
 4.15000E+01    6.49000E+01
 4.16000E+01    6.46000E+01
 4.17000E+01    6.43000E+01
 4.18000E+01    6.40000E+01
 4.19000E+01    6.37000E+01
 4.20000E+01    6.35000E+01
 4.21000E+01    6.32000E+01
 4.22000E+01    6.30000E+01
 4.23000E+01    6.28000E+01
 4.24000E+01    6.26000E+01
 4.25000E+01    6.25000E+01
 4.26000E+01    6.23000E+01
 4.27000E+01    6.22000E+01
 4.28000E+01    6.20000E+01
 4.29000E+01    6.19000E+01
 4.30000E+01    6.18000E+01
 4.31000E+01    6.17000E+01
 4.32000E+01    6.16000E+01
 4.33000E+01    6.15000E+01
 4.34000E+01    6.15000E+01
 4.35000E+01    6.14000E+01
 4.36000E+01    6.13000E+01
 4.37000E+01    6.13000E+01
 4.38000E+01    6.12000E+01
 4.50000E+01    4.98974E+01
 5.00000E+01    4.18558E+01
 5.50000E+01    3.58408E+01
 6.00000E+01    3.10004E+01
 6.50000E+01    2.72329E+01
 7.00000E+01    2.38138E+01
 7.50000E+01    2.10643E+01
 8.00000E+01    1.87129E+01
 9.00000E+01    1.49444E+01
 1.00000E+02    1.22988E+01
 1.10000E+02    1.02975E+01
 1.20000E+02    8.75092E+00
 1.30000E+02    7.66708E+00
 1.40000E+02    6.69855E+00
 1.50000E+02    5.89651E+00
 1.60000E+02    5.33671E+00
 1.80000E+02    4.33932E+00
 2.00000E+02    3.69516E+00
