# n + Ho166m: (n,n'13)  
# jeff3.3    A.J. Koning and D. Rochman        EVAL-DEC15
# uncertainties: n
# # energies =    89
#   E(MeV)       xs(mb) 
 3.25773E-01    0.00000E+00
 3.44369E-01    1.62832E+01
 3.68241E-01    3.71863E+01
 3.69355E-01    3.81618E+01
 3.71576E-01    4.01066E+01
 3.74097E-01    4.23140E+01
 3.75849E-01    4.38481E+01
 3.80560E-01    4.79732E+01
 4.00000E-01    6.49955E+01
 4.12610E-01    6.66357E+01
 4.20221E-01    6.76209E+01
 4.22609E-01    6.79293E+01
 4.26640E-01    6.84491E+01
 4.27855E-01    6.86056E+01
 4.50524E-01    7.15094E+01
 4.61319E-01    7.28820E+01
 4.67698E-01    7.36902E+01
 4.72566E-01    7.43054E+01
 4.78770E-01    7.50877E+01
 5.00000E-01    7.77498E+01
 6.00000E-01    9.17524E+01
 7.00000E-01    9.87853E+01
 8.00000E-01    9.61484E+01
 9.00000E-01    8.63980E+01
 1.00000E+00    7.32645E+01
 1.20000E+00    4.79931E+01
 1.40000E+00    2.99465E+01
 1.60000E+00    1.87435E+01
 1.80000E+00    1.20114E+01
 2.00000E+00    7.90618E+00
 2.20000E+00    5.32308E+00
 2.40000E+00    3.64112E+00
 2.60000E+00    2.51366E+00
 2.80000E+00    1.74438E+00
 3.00000E+00    1.21411E+00
 3.20000E+00    8.47206E-01
 3.40000E+00    5.92360E-01
 3.60000E+00    4.15055E-01
 3.80000E+00    2.91945E-01
 4.00000E+00    2.06258E-01
 4.20000E+00    1.46492E-01
 4.40000E+00    1.04806E-01
 4.60000E+00    7.56110E-02
 4.80000E+00    5.50384E-02
 5.00000E+00    4.04421E-02
 5.20000E+00    2.99558E-02
 5.40000E+00    2.23500E-02
 5.60000E+00    1.67658E-02
 5.80000E+00    1.26380E-02
 6.00000E+00    9.55065E-03
 6.20000E+00    7.22348E-03
 6.40000E+00    5.47236E-03
 6.60000E+00    4.14182E-03
 6.80000E+00    3.13510E-03
 7.00000E+00    2.37294E-03
 7.20000E+00    1.79425E-03
 7.40000E+00    1.35727E-03
 7.60000E+00    1.02694E-03
 7.80000E+00    7.77554E-04
 8.00000E+00    5.89754E-04
 8.50000E+00    2.97252E-04
 9.00000E+00    1.51784E-04
 9.50000E+00    7.87988E-05
 1.00000E+01    4.16395E-05
 1.05000E+01    2.23875E-05
 1.10000E+01    1.22233E-05
 1.15000E+01    6.76009E-06
 1.20000E+01    3.78056E-06
 1.25000E+01    2.13373E-06
 1.30000E+01    1.21395E-06
 1.35000E+01    6.95660E-07
 1.40000E+01    4.01510E-07
 1.45000E+01    2.33350E-07
 1.50000E+01    1.36750E-07
 1.60000E+01    4.80630E-08
 1.70000E+01    1.74130E-08
 1.80000E+01    6.45740E-09
 1.90000E+01    2.47430E-09
 2.00000E+01    9.70070E-10
 2.10000E+01    3.89640E-10
 2.20000E+01    1.59340E-10
 2.30000E+01    6.63550E-11
 2.40000E+01    2.80860E-11
 2.50000E+01    1.20660E-11
 2.60000E+01    5.26530E-12
 2.70000E+01    2.33690E-12
 2.80000E+01    1.05430E-12
 2.90000E+01    4.82550E-13
 3.00000E+01    2.24060E-13
