# n + Ho166m: (n,n'22)  
# jeff3.3    A.J. Koning and D. Rochman        EVAL-DEC15
# uncertainties: n
# # energies =    79
#   E(MeV)       xs(mb) 
 4.20221E-01    0.00000E+00
 4.22609E-01    1.07035E+00
 4.26640E-01    2.87714E+00
 4.27855E-01    3.42173E+00
 4.50524E-01    1.35825E+01
 4.61319E-01    1.84210E+01
 4.67698E-01    2.12802E+01
 4.72566E-01    2.34622E+01
 4.78770E-01    2.62429E+01
 5.00000E-01    3.57587E+01
 6.00000E-01    4.15049E+01
 7.00000E-01    4.35884E+01
 8.00000E-01    4.31859E+01
 9.00000E-01    4.08764E+01
 1.00000E+00    3.72566E+01
 1.20000E+00    2.87602E+01
 1.40000E+00    2.09483E+01
 1.60000E+00    1.49382E+01
 1.80000E+00    1.06355E+01
 2.00000E+00    7.61547E+00
 2.20000E+00    5.49210E+00
 2.40000E+00    3.98258E+00
 2.60000E+00    2.89385E+00
 2.80000E+00    2.10201E+00
 3.00000E+00    1.52367E+00
 3.20000E+00    1.10176E+00
 3.40000E+00    7.94244E-01
 3.60000E+00    5.70910E-01
 3.80000E+00    4.09988E-01
 4.00000E+00    2.94381E-01
 4.20000E+00    2.11546E-01
 4.40000E+00    1.52454E-01
 4.60000E+00    1.10298E-01
 4.80000E+00    8.01759E-02
 5.00000E+00    5.85660E-02
 5.20000E+00    4.29599E-02
 5.40000E+00    3.16352E-02
 5.60000E+00    2.33699E-02
 5.80000E+00    1.73101E-02
 6.00000E+00    1.28561E-02
 6.20000E+00    9.55335E-03
 6.40000E+00    7.11551E-03
 6.60000E+00    5.30579E-03
 6.80000E+00    3.96143E-03
 7.00000E+00    2.96368E-03
 7.20000E+00    2.21901E-03
 7.40000E+00    1.66512E-03
 7.60000E+00    1.25182E-03
 7.80000E+00    9.43321E-04
 8.00000E+00    7.12914E-04
 8.50000E+00    3.57871E-04
 9.00000E+00    1.82837E-04
 9.50000E+00    9.52020E-05
 1.00000E+01    5.05049E-05
 1.05000E+01    2.72646E-05
 1.10000E+01    1.49441E-05
 1.15000E+01    8.29447E-06
 1.20000E+01    4.65342E-06
 1.25000E+01    2.63321E-06
 1.30000E+01    1.50092E-06
 1.35000E+01    8.60990E-07
 1.40000E+01    4.97020E-07
 1.45000E+01    2.88700E-07
 1.50000E+01    1.68980E-07
 1.60000E+01    5.91920E-08
 1.70000E+01    2.13660E-08
 1.80000E+01    7.90100E-09
 1.90000E+01    3.02310E-09
 2.00000E+01    1.18500E-09
 2.10000E+01    4.76110E-10
 2.20000E+01    1.94730E-10
 2.30000E+01    8.10840E-11
 2.40000E+01    3.43180E-11
 2.50000E+01    1.47470E-11
 2.60000E+01    6.43900E-12
 2.70000E+01    2.86040E-12
 2.80000E+01    1.29160E-12
 2.90000E+01    5.91680E-13
 3.00000E+01    2.74900E-13
