# n + Ho166m: (n,n'26)  
# jeff3.3    A.J. Koning and D. Rochman        EVAL-DEC15
# uncertainties: n
# # energies =    75
#   E(MeV)       xs(mb) 
 4.50524E-01    0.00000E+00
 4.61319E-01    3.38276E+00
 4.67698E-01    5.38172E+00
 4.72566E-01    6.90717E+00
 4.78770E-01    8.85128E+00
 5.00000E-01    1.55040E+01
 6.00000E-01    2.23423E+01
 7.00000E-01    2.61366E+01
 8.00000E-01    2.76453E+01
 9.00000E-01    2.72429E+01
 1.00000E+00    2.54835E+01
 1.20000E+00    2.03089E+01
 1.40000E+00    1.50968E+01
 1.60000E+00    1.09370E+01
 1.80000E+00    7.89650E+00
 2.00000E+00    5.72936E+00
 2.20000E+00    4.18463E+00
 2.40000E+00    3.07148E+00
 2.60000E+00    2.25738E+00
 2.80000E+00    1.65714E+00
 3.00000E+00    1.21296E+00
 3.20000E+00    8.84942E-01
 3.40000E+00    6.43175E-01
 3.60000E+00    4.65815E-01
 3.80000E+00    3.36847E-01
 4.00000E+00    2.43411E-01
 4.20000E+00    1.75949E-01
 4.40000E+00    1.27491E-01
 4.60000E+00    9.27036E-02
 4.80000E+00    6.77100E-02
 5.00000E+00    4.96840E-02
 5.20000E+00    3.66024E-02
 5.40000E+00    2.70656E-02
 5.60000E+00    2.00741E-02
 5.80000E+00    1.49239E-02
 6.00000E+00    1.11249E-02
 6.20000E+00    8.29384E-03
 6.40000E+00    6.19617E-03
 6.60000E+00    4.63405E-03
 6.80000E+00    3.46885E-03
 7.00000E+00    2.60150E-03
 7.20000E+00    1.95213E-03
 7.40000E+00    1.46783E-03
 7.60000E+00    1.10556E-03
 7.80000E+00    8.34565E-04
 8.00000E+00    6.31723E-04
 8.50000E+00    3.18275E-04
 9.00000E+00    1.63133E-04
 9.50000E+00    8.51901E-05
 1.00000E+01    4.53135E-05
 1.05000E+01    2.45217E-05
 1.10000E+01    1.34709E-05
 1.15000E+01    7.49253E-06
 1.20000E+01    4.21183E-06
 1.25000E+01    2.38778E-06
 1.30000E+01    1.36341E-06
 1.35000E+01    7.83380E-07
 1.40000E+01    4.52900E-07
 1.45000E+01    2.63420E-07
 1.50000E+01    1.54370E-07
 1.60000E+01    5.41770E-08
 1.70000E+01    1.95810E-08
 1.80000E+01    7.24730E-09
 1.90000E+01    2.77440E-09
 2.00000E+01    1.08780E-09
 2.10000E+01    4.37130E-10
 2.20000E+01    1.78810E-10
 2.30000E+01    7.44670E-11
 2.40000E+01    3.15190E-11
 2.50000E+01    1.35430E-11
 2.60000E+01    5.91270E-12
 2.70000E+01    2.62590E-12
 2.80000E+01    1.18540E-12
 2.90000E+01    5.42830E-13
 3.00000E+01    2.52110E-13
