# n + Ho166m: (n,n'16)  
# jeff3.3    A.J. Koning and D. Rochman        EVAL-DEC15
# uncertainties: n
# # energies =    86
#   E(MeV)       xs(mb) 
 3.69355E-01    0.00000E+00
 3.71576E-01    2.60373E-06
 3.74097E-01    5.55910E-06
 3.75849E-01    7.61301E-06
 3.80560E-01    1.31358E-05
 4.00000E-01    3.59255E-05
 4.12610E-01    6.21798E-05
 4.20221E-01    8.58913E-05
 4.22609E-01    9.49393E-05
 4.26640E-01    1.12283E-04
 4.27855E-01    1.18071E-04
 4.50524E-01    2.94054E-04
 4.61319E-01    4.46870E-04
 4.67698E-01    5.69632E-04
 4.72566E-01    6.84030E-04
 4.78770E-01    8.61372E-04
 5.00000E-01    1.85452E-03
 6.00000E-01    9.00633E-03
 7.00000E-01    2.32071E-02
 8.00000E-01    4.28530E-02
 9.00000E-01    6.47533E-02
 1.00000E+00    8.59240E-02
 1.20000E+00    1.20380E-01
 1.40000E+00    1.41380E-01
 1.60000E+00    1.50424E-01
 1.80000E+00    1.50048E-01
 2.00000E+00    1.42337E-01
 2.20000E+00    1.29263E-01
 2.40000E+00    1.12885E-01
 2.60000E+00    9.52206E-02
 2.80000E+00    7.80692E-02
 3.00000E+00    6.26167E-02
 3.20000E+00    4.94553E-02
 3.40000E+00    3.86485E-02
 3.60000E+00    3.00073E-02
 3.80000E+00    2.32499E-02
 4.00000E+00    1.80168E-02
 4.20000E+00    1.39902E-02
 4.40000E+00    1.09111E-02
 4.60000E+00    8.55651E-03
 4.80000E+00    6.74458E-03
 5.00000E+00    5.34177E-03
 5.20000E+00    4.24307E-03
 5.40000E+00    3.37583E-03
 5.60000E+00    2.68092E-03
 5.80000E+00    2.12662E-03
 6.00000E+00    1.68157E-03
 6.20000E+00    1.32218E-03
 6.40000E+00    1.03674E-03
 6.60000E+00    8.08125E-04
 6.80000E+00    6.27624E-04
 7.00000E+00    4.86015E-04
 7.20000E+00    3.74945E-04
 7.40000E+00    2.88766E-04
 7.60000E+00    2.22098E-04
 7.80000E+00    1.70713E-04
 8.00000E+00    1.31289E-04
 8.50000E+00    6.83063E-05
 9.00000E+00    3.59016E-05
 9.50000E+00    1.91519E-05
 1.00000E+01    1.03839E-05
 1.05000E+01    5.71852E-06
 1.10000E+01    3.19145E-06
 1.15000E+01    1.79990E-06
 1.20000E+01    1.02398E-06
 1.25000E+01    5.86540E-07
 1.30000E+01    3.37980E-07
 1.35000E+01    1.95810E-07
 1.40000E+01    1.14090E-07
 1.45000E+01    6.68600E-08
 1.50000E+01    3.94680E-08
 1.60000E+01    1.40430E-08
 1.70000E+01    5.13850E-09
 1.80000E+01    1.92090E-09
 1.90000E+01    7.40620E-10
 2.00000E+01    2.91720E-10
 2.10000E+01    1.17560E-10
 2.20000E+01    4.81840E-11
 2.30000E+01    2.00970E-11
 2.40000E+01    8.51510E-12
 2.50000E+01    3.66020E-12
 2.60000E+01    1.59740E-12
 2.70000E+01    7.08770E-13
 2.80000E+01    3.19510E-13
 2.90000E+01    1.46090E-13
 3.00000E+01    6.77420E-14
