# n + Ho166m: (n,n'12)  
# jeff3.3    A.J. Koning and D. Rochman        EVAL-DEC15
# uncertainties: n
# # energies =    91
#   E(MeV)       xs(mb) 
 2.92599E-01    0.00000E+00
 3.00000E-01    5.72490E-07
 3.25773E-01    4.62272E-06
 3.44369E-01    1.88755E-05
 3.68241E-01    1.03180E-04
 3.69355E-01    1.11388E-04
 3.71576E-01    1.29666E-04
 3.74097E-01    1.53903E-04
 3.75849E-01    1.73250E-04
 3.80560E-01    2.37560E-04
 4.00000E-01    8.39696E-04
 4.12610E-01    1.10131E-03
 4.20221E-01    1.29203E-03
 4.22609E-01    1.35762E-03
 4.26640E-01    1.47504E-03
 4.27855E-01    1.51216E-03
 4.50524E-01    2.37421E-03
 4.61319E-01    2.91996E-03
 4.67698E-01    3.29225E-03
 4.72566E-01    3.60403E-03
 4.78770E-01    4.03910E-03
 5.00000E-01    5.90118E-03
 6.00000E-01    1.80849E-02
 7.00000E-01    3.70711E-02
 8.00000E-01    5.99555E-02
 9.00000E-01    8.35474E-02
 1.00000E+00    1.05280E-01
 1.20000E+00    1.39332E-01
 1.40000E+00    1.59262E-01
 1.60000E+00    1.66948E-01
 1.80000E+00    1.64813E-01
 2.00000E+00    1.54884E-01
 2.20000E+00    1.39327E-01
 2.40000E+00    1.20506E-01
 2.60000E+00    1.00781E-01
 2.80000E+00    8.20414E-02
 3.00000E+00    6.54348E-02
 3.20000E+00    5.14664E-02
 3.40000E+00    4.01029E-02
 3.60000E+00    3.10770E-02
 3.80000E+00    2.40515E-02
 4.00000E+00    1.86277E-02
 4.20000E+00    1.44622E-02
 4.40000E+00    1.12810E-02
 4.60000E+00    8.84650E-03
 4.80000E+00    6.97117E-03
 5.00000E+00    5.52062E-03
 5.20000E+00    4.38282E-03
 5.40000E+00    3.48206E-03
 5.60000E+00    2.76225E-03
 5.80000E+00    2.18881E-03
 6.00000E+00    1.72588E-03
 6.20000E+00    1.35485E-03
 6.40000E+00    1.05978E-03
 6.60000E+00    8.24483E-04
 6.80000E+00    6.39277E-04
 7.00000E+00    4.94075E-04
 7.20000E+00    3.80584E-04
 7.40000E+00    2.92737E-04
 7.60000E+00    2.24892E-04
 7.80000E+00    1.72675E-04
 8.00000E+00    1.32719E-04
 8.50000E+00    6.89583E-05
 9.00000E+00    3.62195E-05
 9.50000E+00    1.93158E-05
 1.00000E+01    1.04713E-05
 1.05000E+01    5.76583E-06
 1.10000E+01    3.21701E-06
 1.15000E+01    1.81361E-06
 1.20000E+01    1.03126E-06
 1.25000E+01    5.90400E-07
 1.30000E+01    3.40020E-07
 1.35000E+01    1.96900E-07
 1.40000E+01    1.14680E-07
 1.45000E+01    6.71840E-08
 1.50000E+01    3.96490E-08
 1.60000E+01    1.41040E-08
 1.70000E+01    5.15960E-09
 1.80000E+01    1.92850E-09
 1.90000E+01    7.43450E-10
 2.00000E+01    2.92770E-10
 2.10000E+01    1.17950E-10
 2.20000E+01    4.83290E-11
 2.30000E+01    2.01510E-11
 2.40000E+01    8.53560E-12
 2.50000E+01    3.66830E-12
 2.60000E+01    1.60080E-12
 2.70000E+01    7.10220E-13
 2.80000E+01    3.20150E-13
 2.90000E+01    1.46370E-13
 3.00000E+01    6.78690E-14
