# n + Ho166m: (n,n'24)  
# jeff3.3    A.J. Koning and D. Rochman        EVAL-DEC15
# uncertainties: n
# # energies =    77
#   E(MeV)       xs(mb) 
 4.26640E-01    0.00000E+00
 4.27855E-01    3.97252E-05
 4.50524E-01    7.80896E-04
 4.61319E-01    1.13384E-03
 4.67698E-01    1.34241E-03
 4.72566E-01    1.50157E-03
 4.78770E-01    1.70441E-03
 5.00000E-01    2.39853E-03
 6.00000E-01    1.81349E-02
 7.00000E-01    5.02486E-02
 8.00000E-01    9.28455E-02
 9.00000E-01    1.37671E-01
 1.00000E+00    1.78479E-01
 1.20000E+00    2.39393E-01
 1.40000E+00    2.71231E-01
 1.60000E+00    2.80845E-01
 1.80000E+00    2.75395E-01
 2.00000E+00    2.59602E-01
 2.20000E+00    2.36761E-01
 2.40000E+00    2.09556E-01
 2.60000E+00    1.80322E-01
 2.80000E+00    1.51360E-01
 3.00000E+00    1.24382E-01
 3.20000E+00    1.00495E-01
 3.40000E+00    8.00861E-02
 3.60000E+00    6.31426E-02
 3.80000E+00    4.94426E-02
 4.00000E+00    3.85212E-02
 4.20000E+00    2.99133E-02
 4.40000E+00    2.32066E-02
 4.60000E+00    1.80066E-02
 4.80000E+00    1.39818E-02
 5.00000E+00    1.08622E-02
 5.20000E+00    8.43630E-03
 5.40000E+00    6.54736E-03
 5.60000E+00    5.06994E-03
 5.80000E+00    3.91805E-03
 6.00000E+00    3.02290E-03
 6.20000E+00    2.32171E-03
 6.40000E+00    1.78105E-03
 6.60000E+00    1.36295E-03
 6.80000E+00    1.04109E-03
 7.00000E+00    7.94991E-04
 7.20000E+00    6.06275E-04
 7.40000E+00    4.62614E-04
 7.60000E+00    3.53228E-04
 7.80000E+00    2.70080E-04
 8.00000E+00    2.06932E-04
 8.50000E+00    1.07298E-04
 9.00000E+00    5.65248E-05
 9.50000E+00    3.03115E-05
 1.00000E+01    1.65380E-05
 1.05000E+01    9.16510E-06
 1.10000E+01    5.14508E-06
 1.15000E+01    2.91733E-06
 1.20000E+01    1.66772E-06
 1.25000E+01    9.59310E-07
 1.30000E+01    5.54680E-07
 1.35000E+01    3.22190E-07
 1.40000E+01    1.88050E-07
 1.45000E+01    1.10300E-07
 1.50000E+01    6.51170E-08
 1.60000E+01    2.31410E-08
 1.70000E+01    8.44860E-09
 1.80000E+01    3.15170E-09
 1.90000E+01    1.21370E-09
 2.00000E+01    4.77890E-10
 2.10000E+01    1.92590E-10
 2.20000E+01    7.89310E-11
 2.30000E+01    3.29120E-11
 2.40000E+01    1.39400E-11
 2.50000E+01    5.99120E-12
 2.60000E+01    2.61510E-12
 2.70000E+01    1.16070E-12
 2.80000E+01    5.23480E-13
 2.90000E+01    2.39440E-13
 3.00000E+01    1.11070E-13
