# n + Ho166m: (n,n'28)  
# jeff3.3    A.J. Koning and D. Rochman        EVAL-DEC15
# uncertainties: n
# # energies =    73
#   E(MeV)       xs(mb) 
 4.67698E-01    0.00000E+00
 4.72566E-01    6.01211E-01
 4.78770E-01    1.36742E+00
 5.00000E-01    3.98938E+00
 6.00000E-01    8.06077E+00
 7.00000E-01    1.11297E+01
 8.00000E-01    1.29023E+01
 9.00000E-01    1.34220E+01
 1.00000E+00    1.30028E+01
 1.20000E+00    1.08622E+01
 1.40000E+00    8.38227E+00
 1.60000E+00    6.28889E+00
 1.80000E+00    4.69763E+00
 2.00000E+00    3.52172E+00
 2.20000E+00    2.65202E+00
 2.40000E+00    2.00119E+00
 2.60000E+00    1.50715E+00
 2.80000E+00    1.13023E+00
 3.00000E+00    8.42789E-01
 3.20000E+00    6.24967E-01
 3.40000E+00    4.60856E-01
 3.60000E+00    3.38181E-01
 3.80000E+00    2.47516E-01
 4.00000E+00    1.80870E-01
 4.20000E+00    1.32118E-01
 4.40000E+00    9.66829E-02
 4.60000E+00    7.09627E-02
 4.80000E+00    5.22962E-02
 5.00000E+00    3.86993E-02
 5.20000E+00    2.87391E-02
 5.40000E+00    2.14117E-02
 5.60000E+00    1.59920E-02
 5.80000E+00    1.19654E-02
 6.00000E+00    8.97319E-03
 6.20000E+00    6.72499E-03
 6.40000E+00    5.04815E-03
 6.60000E+00    3.79215E-03
 6.80000E+00    2.84960E-03
 7.00000E+00    2.14463E-03
 7.20000E+00    1.61446E-03
 7.40000E+00    1.21747E-03
 7.60000E+00    9.19454E-04
 7.80000E+00    6.95842E-04
 8.00000E+00    5.27972E-04
 8.50000E+00    2.67479E-04
 9.00000E+00    1.37803E-04
 9.50000E+00    7.23132E-05
 1.00000E+01    3.86416E-05
 1.05000E+01    2.10013E-05
 1.10000E+01    1.15828E-05
 1.15000E+01    6.46550E-06
 1.20000E+01    3.64621E-06
 1.25000E+01    2.07306E-06
 1.30000E+01    1.18673E-06
 1.35000E+01    6.83420E-07
 1.40000E+01    3.95900E-07
 1.45000E+01    2.30680E-07
 1.50000E+01    1.35400E-07
 1.60000E+01    4.76440E-08
 1.70000E+01    1.72560E-08
 1.80000E+01    6.39720E-09
 1.90000E+01    2.45210E-09
 2.00000E+01    9.62370E-10
 2.10000E+01    3.87010E-10
 2.20000E+01    1.58390E-10
 2.30000E+01    6.59880E-11
 2.40000E+01    2.79370E-11
 2.50000E+01    1.20050E-11
 2.60000E+01    5.24110E-12
 2.70000E+01    2.32740E-12
 2.80000E+01    1.05050E-12
 2.90000E+01    4.80960E-13
 3.00000E+01    2.23330E-13
