# n + Ho166m: (n,xn)    
# jeff3.3    A.J. Koning and D. Rochman        EVAL-DEC15
# 
# # energies =   144
#   E(MeV)        xs(mb) 
 2.43806E-04    1.00000E-17
 3.00000E-04    1.15430E-14
 6.00000E-04    4.03980E-14
 1.00000E-03    1.11930E-13
 2.00000E-03    5.37170E-13
 3.00000E-03    1.51731E-12
 6.00000E-03    1.98960E-11
 1.00000E-02    1.55600E-10
 2.00000E-02    5.49400E-09
 3.00000E-02    3.89220E-08
 4.85634E-02    4.68210E-07
 6.00000E-02    6.20899E-04
 7.69670E-02    5.19844E-03
 1.00000E-01    4.85703E-02
 1.32561E-01    1.74994E-01
 1.66109E-01    1.73281E+02
 1.75559E-01    2.22125E+02
 1.86057E-01    2.83004E+02
 2.00000E-01    3.63964E+02
 2.56242E-01    3.75022E+02
 2.59386E-01    3.75872E+02
 2.82699E-01    3.88557E+02
 2.90873E-01    4.38849E+02
 2.92599E-01    4.53171E+02
 3.00000E-01    5.14718E+02
 3.25773E-01    5.47436E+02
 3.44369E-01    5.88055E+02
 3.68241E-01    6.44347E+02
 3.69355E-01    6.47018E+02
 3.71576E-01    6.52351E+02
 3.74097E-01    6.60056E+02
 3.75849E-01    6.74667E+02
 3.80560E-01    7.17365E+02
 4.00000E-01    8.94077E+02
 4.12610E-01    9.11705E+02
 4.20221E-01    9.22368E+02
 4.22609E-01    9.26785E+02
 4.26640E-01    9.34242E+02
 4.27855E-01    9.36490E+02
 4.50524E-01    9.94743E+02
 4.61319E-01    1.02591E+03
 4.67698E-01    1.04435E+03
 4.72566E-01    1.05903E+03
 4.78770E-01    1.07775E+03
 5.00000E-01    1.17042E+03
 6.00000E-01    1.43322E+03
 7.00000E-01    1.62016E+03
 8.00000E-01    1.73165E+03
 9.00000E-01    1.78409E+03
 1.00000E+00    1.80145E+03
 1.20000E+00    1.78833E+03
 1.40000E+00    1.75202E+03
 1.60000E+00    1.73509E+03
 1.80000E+00    1.72842E+03
 2.00000E+00    1.74197E+03
 2.20000E+00    1.76282E+03
 2.40000E+00    1.78559E+03
 2.60000E+00    1.81405E+03
 2.80000E+00    1.83642E+03
 3.00000E+00    1.86082E+03
 3.20000E+00    1.88351E+03
 3.40000E+00    1.90321E+03
 3.60000E+00    1.92611E+03
 3.80000E+00    1.94898E+03
 4.00000E+00    1.97219E+03
 4.20000E+00    1.99927E+03
 4.40000E+00    2.02909E+03
 4.60000E+00    2.06067E+03
 4.80000E+00    2.09507E+03
 5.00000E+00    2.13187E+03
 5.20000E+00    2.16921E+03
 5.40000E+00    2.20591E+03
 5.60000E+00    2.24138E+03
 5.80000E+00    2.27407E+03
 6.00000E+00    2.30245E+03
 6.20000E+00    2.32605E+03
 6.40000E+00    2.35062E+03
 6.60000E+00    2.38385E+03
 6.80000E+00    2.43570E+03
 7.00000E+00    2.51710E+03
 7.20000E+00    2.61669E+03
 7.40000E+00    2.73742E+03
 7.60000E+00    2.85698E+03
 7.80000E+00    2.97923E+03
 8.00000E+00    3.08908E+03
 8.50000E+00    3.32317E+03
 9.00000E+00    3.50272E+03
 9.50000E+00    3.64691E+03
 1.00000E+01    3.76937E+03
 1.05000E+01    3.87264E+03
 1.10000E+01    3.96239E+03
 1.15000E+01    4.03616E+03
 1.20000E+01    4.09320E+03
 1.25000E+01    4.13553E+03
 1.30000E+01    4.16291E+03
 1.35000E+01    4.17750E+03
 1.40000E+01    4.18234E+03
 1.45000E+01    4.18031E+03
 1.50000E+01    4.18204E+03
 1.60000E+01    4.25482E+03
 1.70000E+01    4.41957E+03
 1.80000E+01    4.62946E+03
 1.90000E+01    4.86243E+03
 2.00000E+01    5.06496E+03
 2.10000E+01    5.22704E+03
 2.20000E+01    5.33998E+03
 2.30000E+01    5.43381E+03
 2.40000E+01    5.52957E+03
 2.50000E+01    5.63096E+03
 2.60000E+01    5.73913E+03
 2.70000E+01    5.85328E+03
 2.80000E+01    5.97010E+03
 2.90000E+01    6.07901E+03
 3.00000E+01    6.17215E+03
 3.00000E+01    6.32305E+03
 3.20000E+01    6.48735E+03
 3.40000E+01    6.64471E+03
 3.60000E+01    6.81823E+03
 3.80000E+01    7.01067E+03
 4.00000E+01    7.17564E+03
 4.20000E+01    7.33543E+03
 4.40000E+01    7.48451E+03
 4.60000E+01    7.61928E+03
 4.80000E+01    7.74670E+03
 5.00000E+01    7.86335E+03
 5.20000E+01    7.99849E+03
 5.40000E+01    8.12505E+03
 5.60000E+01    8.24747E+03
 5.80000E+01    8.36066E+03
 6.00000E+01    8.46513E+03
 6.50000E+01    8.69283E+03
 7.00000E+01    8.93230E+03
 7.50000E+01    9.17242E+03
 8.00000E+01    9.41471E+03
 9.00000E+01    9.81807E+03
 1.00000E+02    1.01765E+04
 1.10000E+02    1.06038E+04
 1.20000E+02    1.10996E+04
 1.30000E+02    1.15603E+04
 1.40000E+02    1.21013E+04
 1.50000E+02    1.30204E+04
 1.60000E+02    1.40240E+04
 1.80000E+02    1.62447E+04
 2.00000E+02    1.71039E+04
