# n + Ho166m: (n,xa)    
# jeff3.3    A.J. Koning and D. Rochman        EVAL-DEC15
# 
# # energies =   144
#   E(MeV)        xs(mb) 
 2.43806E-04    4.74890E-05
 3.00000E-04    4.12986E-05
 6.00000E-04    2.72252E-05
 1.00000E-03    1.98059E-05
 2.00000E-03    1.26546E-05
 3.00000E-03    9.65063E-06
 6.00000E-03    5.98549E-06
 1.00000E-02    4.16937E-06
 2.00000E-02    2.54213E-06
 3.00000E-02    1.91454E-06
 4.85634E-02    1.50135E-06
 6.00000E-02    1.24679E-06
 7.69670E-02    1.14784E-06
 1.00000E-01    1.01351E-06
 1.32561E-01    9.89786E-07
 1.66109E-01    9.65343E-07
 1.75559E-01    9.58458E-07
 1.86057E-01    9.50809E-07
 2.00000E-01    9.40650E-07
 2.56242E-01    1.04416E-06
 2.59386E-01    1.04995E-06
 2.82699E-01    1.09286E-06
 2.90873E-01    1.10790E-06
 2.92599E-01    1.11108E-06
 3.00000E-01    1.12470E-06
 3.25773E-01    1.16898E-06
 3.44369E-01    1.20018E-06
 3.68241E-01    1.24023E-06
 3.69355E-01    1.24210E-06
 3.71576E-01    1.24583E-06
 3.74097E-01    1.25006E-06
 3.75849E-01    1.25300E-06
 3.80560E-01    1.26090E-06
 4.00000E-01    1.29352E-06
 4.12610E-01    1.32841E-06
 4.20221E-01    1.34946E-06
 4.22609E-01    1.35607E-06
 4.26640E-01    1.36722E-06
 4.27855E-01    1.37058E-06
 4.50524E-01    1.43330E-06
 4.61319E-01    1.46317E-06
 4.67698E-01    1.48082E-06
 4.72566E-01    1.49428E-06
 4.78770E-01    1.51145E-06
 5.00000E-01    1.57018E-06
 6.00000E-01    1.84880E-06
 7.00000E-01    2.07990E-06
 8.00000E-01    2.30760E-06
 9.00000E-01    2.57193E-06
 1.00000E+00    2.93875E-06
 1.20000E+00    3.74250E-06
 1.40000E+00    4.65698E-06
 1.60000E+00    6.07146E-06
 1.80000E+00    7.67866E-06
 2.00000E+00    9.83869E-06
 2.20000E+00    1.25797E-05
 2.40000E+00    1.56880E-05
 2.60000E+00    1.98051E-05
 2.80000E+00    2.43211E-05
 3.00000E+00    2.97510E-05
 3.20000E+00    3.61214E-05
 3.40000E+00    4.29136E-05
 3.60000E+00    5.14051E-05
 3.80000E+00    6.04929E-05
 4.00000E+00    7.13255E-05
 4.20000E+00    8.40632E-05
 4.40000E+00    9.69600E-05
 4.60000E+00    1.15390E-04
 4.80000E+00    1.35515E-04
 5.00000E+00    1.61613E-04
 5.20000E+00    1.93455E-04
 5.40000E+00    2.24511E-04
 5.60000E+00    2.78165E-04
 5.80000E+00    3.36629E-04
 6.00000E+00    4.12847E-04
 6.20000E+00    5.11733E-04
 6.40000E+00    5.93368E-04
 6.60000E+00    7.70996E-04
 6.80000E+00    9.58975E-04
 7.00000E+00    1.19804E-03
 7.20000E+00    1.51937E-03
 7.40000E+00    1.76500E-03
 7.60000E+00    2.36080E-03
 7.80000E+00    2.95671E-03
 8.00000E+00    3.74402E-03
 8.50000E+00    6.65694E-03
 9.00000E+00    1.17647E-02
 9.50000E+00    2.05028E-02
 1.00000E+01    3.50529E-02
 1.05000E+01    5.85574E-02
 1.10000E+01    9.50892E-02
 1.15000E+01    1.49697E-01
 1.20000E+01    2.28136E-01
 1.25000E+01    3.36460E-01
 1.30000E+01    4.77316E-01
 1.35000E+01    6.67027E-01
 1.40000E+01    8.81846E-01
 1.45000E+01    1.19419E+00
 1.50000E+01    1.51191E+00
 1.60000E+01    2.41321E+00
 1.70000E+01    3.69324E+00
 1.80000E+01    5.58712E+00
 1.90000E+01    8.49615E+00
 2.00000E+01    1.25193E+01
 2.10000E+01    1.51660E+01
 2.20000E+01    1.78083E+01
 2.30000E+01    1.78291E+01
 2.40000E+01    1.65766E+01
 2.50000E+01    1.67568E+01
 2.60000E+01    1.71651E+01
 2.70000E+01    1.77236E+01
 2.80000E+01    1.83796E+01
 2.90000E+01    1.95208E+01
 3.00000E+01    2.02098E+01
 3.00000E+01    2.01312E+01
 3.20000E+01    2.16016E+01
 3.40000E+01    2.27815E+01
 3.60000E+01    2.43681E+01
 3.80000E+01    2.59638E+01
 4.00000E+01    2.75458E+01
 4.20000E+01    2.91677E+01
 4.40000E+01    3.07986E+01
 4.60000E+01    3.23770E+01
 4.80000E+01    3.39260E+01
 5.00000E+01    3.55161E+01
 5.20000E+01    3.73156E+01
 5.40000E+01    3.90849E+01
 5.60000E+01    4.06782E+01
 5.80000E+01    4.21180E+01
 6.00000E+01    4.36690E+01
 6.50000E+01    4.81761E+01
 7.00000E+01    5.16416E+01
 7.50000E+01    5.43979E+01
 8.00000E+01    5.86769E+01
 9.00000E+01    6.84571E+01
 1.00000E+02    6.35410E+01
 1.10000E+02    5.92932E+01
 1.20000E+02    6.27271E+01
 1.30000E+02    6.51954E+01
 1.40000E+02    5.91557E+01
 1.50000E+02    6.67145E+01
 1.60000E+02    7.71607E+01
 1.80000E+02    1.43843E+02
 2.00000E+02    3.66658E+02
