# n + Ho166m: (n,n'27)  
# jeff3.3    A.J. Koning and D. Rochman        EVAL-DEC15
# uncertainties: n
# # energies =    74
#   E(MeV)       xs(mb) 
 4.61319E-01    0.00000E+00
 4.67698E-01    1.07152E-04
 4.72566E-01    1.88923E-04
 4.78770E-01    2.93134E-04
 5.00000E-01    6.49747E-04
 6.00000E-01    1.08839E-02
 7.00000E-01    3.71264E-02
 8.00000E-01    7.60510E-02
 9.00000E-01    1.19595E-01
 1.00000E+00    1.60651E-01
 1.20000E+00    2.23603E-01
 1.40000E+00    2.57427E-01
 1.60000E+00    2.68554E-01
 1.80000E+00    2.64452E-01
 2.00000E+00    2.50087E-01
 2.20000E+00    2.28795E-01
 2.40000E+00    2.03161E-01
 2.60000E+00    1.75378E-01
 2.80000E+00    1.47651E-01
 3.00000E+00    1.21654E-01
 3.20000E+00    9.85047E-02
 3.40000E+00    7.86366E-02
 3.60000E+00    6.20836E-02
 3.80000E+00    4.86633E-02
 4.00000E+00    3.79434E-02
 4.20000E+00    2.94818E-02
 4.40000E+00    2.28822E-02
 4.60000E+00    1.77603E-02
 4.80000E+00    1.37968E-02
 5.00000E+00    1.07226E-02
 5.20000E+00    8.33162E-03
 5.40000E+00    6.46903E-03
 5.60000E+00    5.01315E-03
 5.80000E+00    3.87614E-03
 6.00000E+00    2.99333E-03
 6.20000E+00    2.30046E-03
 6.40000E+00    1.76571E-03
 6.60000E+00    1.35243E-03
 6.80000E+00    1.03365E-03
 7.00000E+00    7.89785E-04
 7.20000E+00    6.02607E-04
 7.40000E+00    4.60020E-04
 7.60000E+00    3.51361E-04
 7.80000E+00    2.68741E-04
 8.00000E+00    2.05950E-04
 8.50000E+00    1.06832E-04
 9.00000E+00    5.62902E-05
 9.50000E+00    3.01882E-05
 1.00000E+01    1.64714E-05
 1.05000E+01    9.12871E-06
 1.10000E+01    5.12525E-06
 1.15000E+01    2.90662E-06
 1.20000E+01    1.66200E-06
 1.25000E+01    9.56270E-07
 1.30000E+01    5.53080E-07
 1.35000E+01    3.21350E-07
 1.40000E+01    1.87600E-07
 1.45000E+01    1.10050E-07
 1.50000E+01    6.49820E-08
 1.60000E+01    2.30970E-08
 1.70000E+01    8.43330E-09
 1.80000E+01    3.14620E-09
 1.90000E+01    1.21160E-09
 2.00000E+01    4.77110E-10
 2.10000E+01    1.92300E-10
 2.20000E+01    7.88240E-11
 2.30000E+01    3.28720E-11
 2.40000E+01    1.39250E-11
 2.50000E+01    5.98510E-12
 2.60000E+01    2.61260E-12
 2.70000E+01    1.15960E-12
 2.80000E+01    5.23010E-13
 2.90000E+01    2.39230E-13
 3.00000E+01    1.10970E-13
