# n + Ho166m: (n,n'21)  
# jeff3.3    A.J. Koning and D. Rochman        EVAL-DEC15
# uncertainties: n
# # energies =    80
#   E(MeV)       xs(mb) 
 4.12610E-01    0.00000E+00
 4.20221E-01    2.03235E-02
 4.22609E-01    2.67001E-02
 4.26640E-01    3.74639E-02
 4.27855E-01    4.07083E-02
 4.50524E-01    1.01241E-01
 4.61319E-01    1.30066E-01
 4.67698E-01    1.47100E-01
 4.72566E-01    1.60099E-01
 4.78770E-01    1.76665E-01
 5.00000E-01    2.33355E-01
 6.00000E-01    1.01493E+00
 7.00000E-01    1.80056E+00
 8.00000E-01    2.20223E+00
 9.00000E-01    2.22161E+00
 1.00000E+00    2.02586E+00
 1.20000E+00    1.51513E+00
 1.40000E+00    1.12034E+00
 1.60000E+00    8.58854E-01
 1.80000E+00    6.80933E-01
 2.00000E+00    5.49066E-01
 2.20000E+00    4.43288E-01
 2.40000E+00    3.54623E-01
 2.60000E+00    2.79531E-01
 2.80000E+00    2.17060E-01
 3.00000E+00    1.66377E-01
 3.20000E+00    1.26325E-01
 3.40000E+00    9.52772E-02
 3.60000E+00    7.15808E-02
 3.80000E+00    5.37628E-02
 4.00000E+00    4.04410E-02
 4.20000E+00    3.05190E-02
 4.40000E+00    2.31609E-02
 4.60000E+00    1.76967E-02
 4.80000E+00    1.36190E-02
 5.00000E+00    1.05514E-02
 5.20000E+00    8.21744E-03
 5.40000E+00    6.42476E-03
 5.60000E+00    5.02885E-03
 5.80000E+00    3.93833E-03
 6.00000E+00    3.08288E-03
 6.20000E+00    2.40281E-03
 6.40000E+00    1.86998E-03
 6.60000E+00    1.44965E-03
 6.80000E+00    1.12014E-03
 7.00000E+00    8.63795E-04
 7.20000E+00    6.63913E-04
 7.40000E+00    5.09634E-04
 7.60000E+00    3.90764E-04
 7.80000E+00    2.99517E-04
 8.00000E+00    2.29704E-04
 8.50000E+00    1.18727E-04
 9.00000E+00    6.19994E-05
 9.50000E+00    3.28604E-05
 1.00000E+01    1.77041E-05
 1.05000E+01    9.69205E-06
 1.10000E+01    5.38015E-06
 1.15000E+01    3.02024E-06
 1.20000E+01    1.71152E-06
 1.25000E+01    9.77190E-07
 1.30000E+01    5.61560E-07
 1.35000E+01    3.24610E-07
 1.40000E+01    1.88780E-07
 1.45000E+01    1.10440E-07
 1.50000E+01    6.50980E-08
 1.60000E+01    2.31040E-08
 1.70000E+01    8.43650E-09
 1.80000E+01    3.14880E-09
 1.90000E+01    1.21280E-09
 2.00000E+01    4.77430E-10
 2.10000E+01    1.92370E-10
 2.20000E+01    7.88520E-11
 2.30000E+01    3.28950E-11
 2.40000E+01    1.39410E-11
 2.50000E+01    5.99420E-12
 2.60000E+01    2.61670E-12
 2.70000E+01    1.16140E-12
 2.80000E+01    5.23730E-13
 2.90000E+01    2.39550E-13
 3.00000E+01    1.11130E-13
