# n + Ho166m: (n,n'19)  
# jeff3.3    A.J. Koning and D. Rochman        EVAL-DEC15
# uncertainties: n
# # energies =    83
#   E(MeV)       xs(mb) 
 3.75849E-01    0.00000E+00
 3.80560E-01    3.37779E+00
 4.00000E-01    1.73163E+01
 4.12610E-01    1.83238E+01
 4.20221E-01    1.89443E+01
 4.22609E-01    1.91410E+01
 4.26640E-01    1.94749E+01
 4.27855E-01    1.95761E+01
 4.50524E-01    2.15070E+01
 4.61319E-01    2.24552E+01
 4.67698E-01    2.30241E+01
 4.72566E-01    2.34627E+01
 4.78770E-01    2.40269E+01
 5.00000E-01    2.60035E+01
 6.00000E-01    3.17723E+01
 7.00000E-01    3.42828E+01
 8.00000E-01    3.39955E+01
 9.00000E-01    3.18573E+01
 1.00000E+00    2.86939E+01
 1.20000E+00    2.18045E+01
 1.40000E+00    1.58469E+01
 1.60000E+00    1.13739E+01
 1.80000E+00    8.18507E+00
 2.00000E+00    5.93295E+00
 2.20000E+00    4.33090E+00
 2.40000E+00    3.17569E+00
 2.60000E+00    2.33041E+00
 2.80000E+00    1.70738E+00
 3.00000E+00    1.24704E+00
 3.20000E+00    9.07906E-01
 3.40000E+00    6.58633E-01
 3.60000E+00    4.76248E-01
 3.80000E+00    3.43942E-01
 4.00000E+00    2.48281E-01
 4.20000E+00    1.79328E-01
 4.40000E+00    1.29865E-01
 4.60000E+00    9.43970E-02
 4.80000E+00    6.89171E-02
 5.00000E+00    5.05560E-02
 5.20000E+00    3.72319E-02
 5.40000E+00    2.75217E-02
 5.60000E+00    2.03987E-02
 5.80000E+00    1.51587E-02
 6.00000E+00    1.12888E-02
 6.20000E+00    8.41049E-03
 6.40000E+00    6.27967E-03
 6.60000E+00    4.69115E-03
 6.80000E+00    3.50909E-03
 7.00000E+00    2.62953E-03
 7.20000E+00    1.97182E-03
 7.40000E+00    1.48171E-03
 7.60000E+00    1.11545E-03
 7.80000E+00    8.41611E-04
 8.00000E+00    6.36854E-04
 8.50000E+00    3.20642E-04
 9.00000E+00    1.64285E-04
 9.50000E+00    8.57773E-05
 1.00000E+01    4.56227E-05
 1.05000E+01    2.46873E-05
 1.10000E+01    1.35600E-05
 1.15000E+01    7.54029E-06
 1.20000E+01    4.23724E-06
 1.25000E+01    2.40122E-06
 1.30000E+01    1.37050E-06
 1.35000E+01    7.87140E-07
 1.40000E+01    4.54900E-07
 1.45000E+01    2.64510E-07
 1.50000E+01    1.54970E-07
 1.60000E+01    5.43730E-08
 1.70000E+01    1.96500E-08
 1.80000E+01    7.27230E-09
 1.90000E+01    2.78380E-09
 2.00000E+01    1.09140E-09
 2.10000E+01    4.38470E-10
 2.20000E+01    1.79310E-10
 2.30000E+01    7.46540E-11
 2.40000E+01    3.15910E-11
 2.50000E+01    1.35720E-11
 2.60000E+01    5.92470E-12
 2.70000E+01    2.63110E-12
 2.80000E+01    1.18770E-12
 2.90000E+01    5.43850E-13
 3.00000E+01    2.52570E-13
