# n + Ho166m: (n,n'20)  
# jeff3.3    A.J. Koning and D. Rochman        EVAL-DEC15
# uncertainties: n
# # energies =    82
#   E(MeV)       xs(mb) 
 3.80560E-01    0.00000E+00
 4.00000E-01    1.50348E-04
 4.12610E-01    2.57545E-04
 4.20221E-01    3.53598E-04
 4.22609E-01    3.90109E-04
 4.26640E-01    4.59920E-04
 4.27855E-01    4.83169E-04
 4.50524E-01    1.18281E-03
 4.61319E-01    1.78337E-03
 4.67698E-01    2.26292E-03
 4.72566E-01    2.70802E-03
 4.78770E-01    3.39532E-03
 5.00000E-01    7.20517E-03
 6.00000E-01    3.10997E-02
 7.00000E-01    7.07418E-02
 8.00000E-01    1.17399E-01
 9.00000E-01    1.63198E-01
 1.00000E+00    2.03272E-01
 1.20000E+00    2.61313E-01
 1.40000E+00    2.90556E-01
 1.60000E+00    2.98095E-01
 1.80000E+00    2.90692E-01
 2.00000E+00    2.72802E-01
 2.20000E+00    2.47716E-01
 2.40000E+00    2.18275E-01
 2.60000E+00    1.87025E-01
 2.80000E+00    1.56366E-01
 3.00000E+00    1.28054E-01
 3.20000E+00    1.03170E-01
 3.40000E+00    8.20341E-02
 3.60000E+00    6.45668E-02
 3.80000E+00    5.04920E-02
 4.00000E+00    3.93005E-02
 4.20000E+00    3.04963E-02
 4.40000E+00    2.36454E-02
 4.60000E+00    1.83400E-02
 4.80000E+00    1.42318E-02
 5.00000E+00    1.10507E-02
 5.20000E+00    8.57746E-03
 5.40000E+00    6.65286E-03
 5.60000E+00    5.14611E-03
 5.80000E+00    3.97424E-03
 6.00000E+00    3.06226E-03
 6.20000E+00    2.34999E-03
 6.40000E+00    1.80148E-03
 6.60000E+00    1.37686E-03
 6.80000E+00    1.05092E-03
 7.00000E+00    8.01858E-04
 7.20000E+00    6.11112E-04
 7.40000E+00    4.66035E-04
 7.60000E+00    3.55693E-04
 7.80000E+00    2.71849E-04
 8.00000E+00    2.08239E-04
 8.50000E+00    1.07922E-04
 9.00000E+00    5.68397E-05
 9.50000E+00    3.04771E-05
 1.00000E+01    1.66272E-05
 1.05000E+01    9.21354E-06
 1.10000E+01    5.17134E-06
 1.15000E+01    2.93146E-06
 1.20000E+01    1.67526E-06
 1.25000E+01    9.63310E-07
 1.30000E+01    5.56800E-07
 1.35000E+01    3.23320E-07
 1.40000E+01    1.88650E-07
 1.45000E+01    1.10620E-07
 1.50000E+01    6.52980E-08
 1.60000E+01    2.32000E-08
 1.70000E+01    8.46910E-09
 1.80000E+01    3.15910E-09
 1.90000E+01    1.21650E-09
 2.00000E+01    4.78920E-10
 2.10000E+01    1.92980E-10
 2.20000E+01    7.90740E-11
 2.30000E+01    3.29650E-11
 2.40000E+01    1.39600E-11
 2.50000E+01    5.99920E-12
 2.60000E+01    2.61840E-12
 2.70000E+01    1.16210E-12
 2.80000E+01    5.24120E-13
 2.90000E+01    2.39730E-13
 3.00000E+01    1.11190E-13
