# n + Ho166m: (n,n'25)  
# jeff3.3    A.J. Koning and D. Rochman        EVAL-DEC15
# uncertainties: n
# # energies =    76
#   E(MeV)       xs(mb) 
 4.27855E-01    0.00000E+00
 4.50524E-01    1.62595E+01
 4.61319E-01    2.40022E+01
 4.67698E-01    2.85776E+01
 4.72566E-01    3.20692E+01
 4.78770E-01    3.65191E+01
 5.00000E-01    5.17464E+01
 6.00000E-01    5.93929E+01
 7.00000E-01    6.77671E+01
 8.00000E-01    7.24007E+01
 9.00000E-01    7.06138E+01
 1.00000E+00    6.37047E+01
 1.20000E+00    4.49511E+01
 1.40000E+00    2.89452E+01
 1.60000E+00    1.82952E+01
 1.80000E+00    1.17271E+01
 2.00000E+00    7.69698E+00
 2.20000E+00    5.16851E+00
 2.40000E+00    3.53176E+00
 2.60000E+00    2.43913E+00
 2.80000E+00    1.69491E+00
 3.00000E+00    1.18168E+00
 3.20000E+00    8.25881E-01
 3.40000E+00    5.78181E-01
 3.60000E+00    4.05478E-01
 3.80000E+00    2.85349E-01
 4.00000E+00    2.01625E-01
 4.20000E+00    1.43173E-01
 4.40000E+00    1.02380E-01
 4.60000E+00    7.38070E-02
 4.80000E+00    5.36924E-02
 5.00000E+00    3.94206E-02
 5.20000E+00    2.91821E-02
 5.40000E+00    2.17673E-02
 5.60000E+00    1.63322E-02
 5.80000E+00    1.23119E-02
 6.00000E+00    9.31848E-03
 6.20000E+00    7.05413E-03
 6.40000E+00    5.35060E-03
 6.60000E+00    4.05767E-03
 6.80000E+00    3.07560E-03
 7.00000E+00    2.33199E-03
 7.20000E+00    1.76582E-03
 7.40000E+00    1.33752E-03
 7.60000E+00    1.01317E-03
 7.80000E+00    7.67994E-04
 8.00000E+00    5.82929E-04
 8.50000E+00    2.94275E-04
 9.00000E+00    1.50395E-04
 9.50000E+00    7.81078E-05
 1.00000E+01    4.12794E-05
 1.05000E+01    2.21953E-05
 1.10000E+01    1.21200E-05
 1.15000E+01    6.70483E-06
 1.20000E+01    3.75115E-06
 1.25000E+01    2.11812E-06
 1.30000E+01    1.20566E-06
 1.35000E+01    6.91230E-07
 1.40000E+01    3.99110E-07
 1.45000E+01    2.32040E-07
 1.50000E+01    1.36010E-07
 1.60000E+01    4.78190E-08
 1.70000E+01    1.73260E-08
 1.80000E+01    6.42620E-09
 1.90000E+01    2.46270E-09
 2.00000E+01    9.65710E-10
 2.10000E+01    3.88000E-10
 2.20000E+01    1.58730E-10
 2.30000E+01    6.61260E-11
 2.40000E+01    2.79980E-11
 2.50000E+01    1.20310E-11
 2.60000E+01    5.25070E-12
 2.70000E+01    2.33060E-12
 2.80000E+01    1.05150E-12
 2.90000E+01    4.81300E-13
 3.00000E+01    2.23490E-13
