# n + Ho166m: (n,xp)    
# jeff3.3    A.J. Koning and D. Rochman        EVAL-DEC15
# 
# # energies =   144
#   E(MeV)        xs(mb) 
 2.43806E-04    1.00000E-17
 3.00000E-04    1.00000E-17
 6.00000E-04    1.00000E-17
 1.00000E-03    1.00000E-17
 2.00000E-03    1.00000E-17
 3.00000E-03    1.00000E-17
 6.00000E-03    1.00000E-17
 1.00000E-02    1.00000E-17
 2.00000E-02    1.00000E-17
 3.00000E-02    1.00000E-17
 4.85634E-02    1.00000E-17
 6.00000E-02    1.00000E-17
 7.69670E-02    1.00000E-17
 1.00000E-01    1.00000E-17
 1.32561E-01    1.00000E-17
 1.66109E-01    1.00000E-17
 1.75559E-01    1.00000E-17
 1.86057E-01    1.00000E-17
 2.00000E-01    1.00000E-17
 2.56242E-01    1.00000E-17
 2.59386E-01    1.00000E-17
 2.82699E-01    1.00000E-17
 2.90873E-01    1.00000E-17
 2.92599E-01    1.00000E-17
 3.00000E-01    1.00000E-17
 3.25773E-01    1.00000E-17
 3.44369E-01    1.00000E-17
 3.68241E-01    1.00000E-17
 3.69355E-01    1.00000E-17
 3.71576E-01    1.00000E-17
 3.74097E-01    1.00000E-17
 3.75849E-01    1.00000E-17
 3.80560E-01    1.00000E-17
 4.00000E-01    1.00000E-17
 4.12610E-01    1.00000E-17
 4.20221E-01    1.00000E-17
 4.22609E-01    1.00000E-17
 4.26640E-01    1.00000E-17
 4.27855E-01    1.00000E-17
 4.50524E-01    1.00417E-17
 4.61319E-01    1.00639E-17
 4.67698E-01    1.00769E-17
 4.72566E-01    1.00869E-17
 4.78770E-01    1.00997E-17
 5.00000E-01    1.01432E-17
 6.00000E-01    1.03484E-17
 7.00000E-01    1.05536E-17
 8.00000E-01    1.07588E-17
 9.00000E-01    1.09649E-17
 1.00000E+00    2.31401E-17
 1.20000E+00    9.68789E-16
 1.40000E+00    1.06190E-12
 1.60000E+00    1.53470E-11
 1.80000E+00    1.44910E-10
 2.00000E+00    1.00180E-09
 2.20000E+00    4.93430E-09
 2.40000E+00    1.91770E-08
 2.60000E+00    6.15930E-08
 2.80000E+00    1.69210E-07
 3.00000E+00    4.09100E-07
 3.20000E+00    8.89340E-07
 3.40000E+00    1.77244E-06
 3.60000E+00    3.30234E-06
 3.80000E+00    5.88315E-06
 4.00000E+00    1.03958E-05
 4.20000E+00    1.82806E-05
 4.40000E+00    3.21363E-05
 4.60000E+00    5.76458E-05
 4.80000E+00    1.04391E-04
 5.00000E+00    1.81045E-04
 5.20000E+00    3.66555E-04
 5.40000E+00    7.04486E-04
 5.60000E+00    1.01635E-03
 5.80000E+00    2.15524E-03
 6.00000E+00    3.30075E-03
 6.20000E+00    5.35133E-03
 6.40000E+00    8.86678E-03
 6.60000E+00    1.20480E-02
 6.80000E+00    2.02244E-02
 7.00000E+00    2.84332E-02
 7.20000E+00    4.01479E-02
 7.40000E+00    5.87401E-02
 7.60000E+00    7.53163E-02
 7.80000E+00    1.08400E-01
 8.00000E+00    1.41747E-01
 8.50000E+00    2.70952E-01
 9.00000E+00    4.74392E-01
 9.50000E+00    7.67990E-01
 1.00000E+01    1.16027E+00
 1.05000E+01    1.65223E+00
 1.10000E+01    2.24026E+00
 1.15000E+01    2.92043E+00
 1.20000E+01    3.69234E+00
 1.25000E+01    4.55880E+00
 1.30000E+01    5.52562E+00
 1.35000E+01    6.59781E+00
 1.40000E+01    7.78010E+00
 1.45000E+01    9.07529E+00
 1.50000E+01    1.04859E+01
 1.60000E+01    1.36682E+01
 1.70000E+01    1.73425E+01
 1.80000E+01    2.20698E+01
 1.90000E+01    2.68197E+01
 2.00000E+01    3.30335E+01
 2.10000E+01    3.90884E+01
 2.20000E+01    4.55391E+01
 2.30000E+01    5.21955E+01
 2.40000E+01    5.92220E+01
 2.50000E+01    6.61946E+01
 2.60000E+01    7.33055E+01
 2.70000E+01    8.06513E+01
 2.80000E+01    8.82152E+01
 2.90000E+01    9.57875E+01
 3.00000E+01    1.03515E+02
 3.00000E+01    1.05080E+02
 3.20000E+01    1.20943E+02
 3.40000E+01    1.36221E+02
 3.60000E+01    1.52738E+02
 3.80000E+01    1.68311E+02
 4.00000E+01    1.83773E+02
 4.20000E+01    1.99104E+02
 4.40000E+01    2.14700E+02
 4.60000E+01    2.30009E+02
 4.80000E+01    2.45148E+02
 5.00000E+01    2.60229E+02
 5.20000E+01    2.75768E+02
 5.40000E+01    2.90513E+02
 5.60000E+01    3.04981E+02
 5.80000E+01    3.19279E+02
 6.00000E+01    3.32929E+02
 6.50000E+01    3.65251E+02
 7.00000E+01    3.95607E+02
 7.50000E+01    4.27678E+02
 8.00000E+01    4.57429E+02
 9.00000E+01    5.03991E+02
 1.00000E+02    5.37027E+02
 1.10000E+02    5.74473E+02
 1.20000E+02    6.22350E+02
 1.30000E+02    6.77236E+02
 1.40000E+02    7.46415E+02
 1.50000E+02    8.65545E+02
 1.60000E+02    1.05497E+03
 1.80000E+02    1.65987E+03
 2.00000E+02    2.64103E+03
