# n + W 183 : (n,np)    
# jendl.ad   N.Iwamoto                         EVAL-Apr14
# uncertainties: n
# # energies =    27
#   E(MeV)       xs(mb) 
 7.26256E+00    0.00000E+00
 7.27891E+00    4.54730E-19
 7.78500E+00    2.42550E-17
 8.50000E+00    5.81480E-17
 9.00000E+00    1.06040E-12
 9.50000E+00    4.74570E-10
 1.00000E+01    3.19400E-08
 1.05000E+01    7.08570E-07
 1.10000E+01    7.79246E-06
 1.15000E+01    5.53668E-05
 1.20000E+01    2.89779E-04
 1.25000E+01    1.20878E-03
 1.30000E+01    4.23024E-03
 1.35000E+01    1.28058E-02
 1.40000E+01    3.41278E-02
 1.45000E+01    8.22421E-02
 1.50000E+01    1.79825E-01
 1.55000E+01    3.58229E-01
 1.60000E+01    6.54634E-01
 1.65000E+01    1.10548E+00
 1.70000E+01    1.73966E+00
 1.75000E+01    2.57495E+00
 1.80000E+01    3.61857E+00
 1.85000E+01    4.87059E+00
 1.90000E+01    6.32648E+00
 1.95000E+01    7.97963E+00
 2.00000E+01    9.81994E+00
