# n + W 183 : (n,tot)   
# jendl.ad   N.Iwamoto                         EVAL-Apr14
# uncertainties: n
# # energies =   171
#   E(MeV)       xs(mb) 
 1.00000E-11    1.12308E+05
 1.00000E-07    3.80185E+03
 4.13990E-07    2.51089E+03
 5.31580E-07    2.24295E+03
 6.82560E-07    2.01268E+03
 8.76420E-07    1.81687E+03
 1.12540E-06    1.65443E+03
 1.44500E-06    1.52766E+03
 1.85540E-06    1.44194E+03
 2.37240E-06    1.41130E+03
 3.05900E-06    1.48538E+03
 3.92790E-06    1.84014E+03
 5.04350E-06    3.86045E+03
 6.47600E-06    3.36385E+05
 8.31530E-06    4.87266E+03
 1.06770E-05    1.02903E+03
 1.37100E-05    9.07922E+02
 1.76030E-05    1.68127E+03
 2.26030E-05    4.20530E+05
 2.92030E-05    3.04096E+03
 3.72670E-05    2.72540E+05
 4.78510E-05    3.78584E+04
 6.14420E-05    5.71958E+03
 7.88930E-05    5.88044E+04
 1.01300E-04    2.22785E+04
 1.30070E-04    4.04421E+04
 1.67020E-04    2.22310E+04
 2.14450E-04    1.03779E+04
 2.75360E-04    2.20564E+04
 3.53580E-04    1.29664E+04
 4.54000E-04    5.77425E+03
 5.82950E-04    6.63309E+03
 7.48520E-04    7.05285E+03
 9.61120E-04    5.46753E+03
 1.23410E-03    4.47872E+03
 1.58460E-03    3.66867E+03
 2.03470E-03    3.18647E+03
 2.24870E-03    2.94231E+03
 2.48520E-03    2.77064E+03
 2.61260E-03    2.66253E+03
 2.74650E-03    2.50838E+03
 3.03540E-03    2.31690E+03
 3.35460E-03    2.13899E+03
 3.70740E-03    1.93932E+03
 4.30740E-03    1.68142E+03
 5.53080E-03    1.40910E+03
 7.10170E-03    1.19144E+03
 9.11880E-03    1.02024E+03
 1.17090E-02    8.89380E+02
 1.50340E-02    7.76585E+02
 1.93050E-02    7.02914E+02
 2.18750E-02    6.70579E+02
 2.35790E-02    6.54984E+02
 2.41760E-02    6.47513E+02
 2.47880E-02    6.36498E+02
 2.60580E-02    6.24158E+02
 2.70000E-02    6.11069E+02
 2.85000E-02    5.88799E+02
 3.18280E-02    5.66440E+02
 3.43070E-02    5.38201E+02
 4.08680E-02    5.07375E+02
 4.63090E-02    4.46847E+02
 5.24750E-02    4.01072E+02
 5.65620E-02    3.67273E+02
 6.73790E-02    3.39694E+02
 7.20000E-02    3.23740E+02
 7.95000E-02    3.11505E+02
 8.25000E-02    3.04863E+02
 8.65170E-02    2.92420E+02
 9.80370E-02    2.54502E+02
 1.11090E-01    2.28385E+02
 1.16790E-01    2.18603E+02
 1.22770E-01    2.09841E+02
 1.29070E-01    2.01839E+02
 1.35690E-01    1.94469E+02
 1.42640E-01    1.87851E+02
 1.49960E-01    1.81765E+02
 1.57640E-01    1.76063E+02
 1.65730E-01    1.70472E+02
 1.74220E-01    1.65300E+02
 1.83160E-01    1.60522E+02
 1.92550E-01    1.56139E+02
 2.02420E-01    1.50761E+02
 2.12800E-01    1.38262E+02
 2.23710E-01    1.28896E+02
 2.35180E-01    1.23318E+02
 2.47240E-01    1.16048E+02
 2.73240E-01    1.09915E+02
 2.87250E-01    1.07167E+02
 2.94520E-01    1.04939E+02
 2.97200E-01    1.03567E+02
 2.98500E-01    1.02150E+02
 3.01970E-01    9.78601E+01
 3.33730E-01    9.20965E+01
 3.68830E-01    8.81252E+01
 3.87740E-01    8.55419E+01
 4.07620E-01    8.21937E+01
 4.50490E-01    7.74082E+01
 4.97870E-01    7.50143E+01
 5.23400E-01    7.34334E+01
 5.50230E-01    7.02625E+01
 5.78440E-01    6.87881E+01
 6.08100E-01    6.77652E+01
 6.39280E-01    6.69632E+01
 6.72060E-01    6.62999E+01
 7.06510E-01    6.59800E+01
 7.42740E-01    6.59228E+01
 7.80820E-01    6.61164E+01
 8.20850E-01    6.64470E+01
 8.62940E-01    6.66494E+01
 9.07180E-01    6.48270E+01
 9.61640E-01    6.29673E+01
 1.00260E+00    6.11984E+01
 1.10800E+00    5.96877E+01
 1.16480E+00    5.88033E+01
 1.22460E+00    5.76951E+01
 1.28730E+00    5.65064E+01
 1.35340E+00    5.52937E+01
 1.42270E+00    5.39597E+01
 1.49570E+00    5.25543E+01
 1.57240E+00    5.11079E+01
 1.65300E+00    4.96112E+01
 1.73770E+00    4.80106E+01
 1.82680E+00    4.62825E+01
 1.92050E+00    4.44717E+01
 2.01900E+00    4.27537E+01
 2.12250E+00    4.11276E+01
 2.23130E+00    3.95938E+01
 2.30690E+00    3.82991E+01
 2.34570E+00    3.76648E+01
 2.36530E+00    3.72366E+01
 2.38520E+00    3.61961E+01
 2.46600E+00    3.42444E+01
 2.59240E+00    3.21011E+01
 2.72530E+00    2.96600E+01
 2.86500E+00    2.66375E+01
 3.01190E+00    2.39712E+01
 3.16640E+00    2.16205E+01
 3.32870E+00    1.84267E+01
 3.67880E+00    1.42369E+01
 4.06570E+00    1.04220E+01
 4.49330E+00    7.88907E+00
 4.72370E+00    6.36677E+00
 4.96590E+00    5.07549E+00
 5.22050E+00    3.96096E+00
 5.48810E+00    3.08674E+00
 5.76950E+00    2.40542E+00
 6.06530E+00    1.91927E+00
 6.37630E+00    1.75905E+03
 6.59240E+00    2.81512E+03
 6.70320E+00    2.79870E+03
 7.04690E+00    2.77397E+03
 7.40820E+00    2.74934E+03
 7.78800E+00    2.72579E+03
 8.18730E+00    2.70345E+03
 8.60710E+00    2.68220E+03
 9.04840E+00    2.66177E+03
 9.51230E+00    2.64157E+03
 1.00000E+01    2.62089E+03
 1.05130E+01    2.59914E+03
 1.10520E+01    2.57598E+03
 1.16180E+01    2.55161E+03
 1.22140E+01    2.52679E+03
 1.28400E+01    2.50256E+03
 1.34990E+01    2.48532E+03
 1.38400E+01    2.47438E+03
 1.41910E+01    2.46455E+03
 1.45500E+01    2.45488E+03
 1.49180E+01    2.43976E+03
 1.56830E+01    2.42089E+03
 1.64870E+01    2.40080E+03
