# n + W 183 : (n,2na)   
# jendl.ad   N.Iwamoto                         EVAL-Apr14
# uncertainties: n
# # energies =    29
#   E(MeV)       xs(mb) 
 5.59710E+00    0.00000E+00
 6.90289E+00    1.44560E-35
 7.00000E+00    1.55310E-35
 7.50000E+00    3.37880E-29
 8.00000E+00    1.97120E-24
 8.50000E+00    2.71690E-19
 9.00000E+00    6.64970E-16
 9.50000E+00    1.26550E-13
 1.00000E+01    9.72040E-12
 1.05000E+01    3.63440E-10
 1.10000E+01    7.56810E-09
 1.15000E+01    9.77190E-08
 1.20000E+01    8.59510E-07
 1.25000E+01    5.49880E-06
 1.30000E+01    2.65638E-05
 1.35000E+01    1.00296E-04
 1.40000E+01    3.11943E-04
 1.45000E+01    8.09896E-04
 1.50000E+01    1.75986E-03
 1.55000E+01    3.00131E-03
 1.60000E+01    4.19172E-03
 1.65000E+01    5.31133E-03
 1.70000E+01    6.53896E-03
 1.75000E+01    8.17842E-03
 1.80000E+01    1.06743E-02
 1.85000E+01    1.41405E-02
 1.90000E+01    1.90700E-02
 1.95000E+01    2.59423E-02
 2.00000E+01    3.53782E-02
