# n + W 183 : (n,xn)    
# jendl.ad   N.Iwamoto                         EVAL-Apr14
# 
# # energies =   111
#   E(MeV)        xs(mb) 
 4.67403E-02    0.00000E+00
 5.00000E-02    4.24990E+02
 6.00000E-02    6.00953E+02
 7.00000E-02    6.64413E+02
 8.00000E-02    6.99828E+02
 9.00000E-02    7.25338E+02
 9.96253E-02    7.45680E+02
 1.00000E-01    7.66141E+02
 1.05000E-01    7.91696E+02
 1.10000E-01    8.17256E+02
 1.20000E-01    8.53368E+02
 1.30000E-01    8.88050E+02
 1.40000E-01    9.22153E+02
 1.50000E-01    9.55394E+02
 1.60000E-01    9.87363E+02
 1.70000E-01    1.01580E+03
 1.80000E-01    1.04404E+03
 1.90000E-01    1.07232E+03
 2.00000E-01    1.10072E+03
 2.08153E-01    1.12294E+03
 2.09957E-01    1.13633E+03
 2.25000E-01    1.29719E+03
 2.50000E-01    1.41741E+03
 2.75000E-01    1.50709E+03
 2.93332E-01    1.56567E+03
 3.00000E-01    1.59801E+03
 3.10648E-01    1.63536E+03
 3.11199E-01    1.63724E+03
 4.00000E-01    1.90421E+03
 4.14367E-01    1.93787E+03
 4.55569E-01    2.03711E+03
 4.78021E-01    2.08769E+03
 4.89685E-01    2.11178E+03
 5.00000E-01    2.13255E+03
 5.35939E-01    2.20119E+03
 5.54138E-01    2.26348E+03
 5.98622E-01    2.35871E+03
 6.00000E-01    2.36145E+03
 6.26193E-01    2.41097E+03
 6.26194E-01    2.41097E+03
 6.34680E-01    2.42514E+03
 7.00000E-01    2.50869E+03
 7.43999E-01    2.55487E+03
 7.76296E-01    2.58571E+03
 7.76297E-01    2.58571E+03
 8.00000E-01    2.60704E+03
 8.55290E-01    2.65254E+03
 8.75802E-01    2.66741E+03
 9.00000E-01    2.69499E+03
 9.08481E-01    2.70235E+03
 9.09507E-01    2.70427E+03
 9.18034E-01    2.71604E+03
 9.31357E-01    2.73249E+03
 9.39803E-01    2.74075E+03
 9.65293E-01    2.77390E+03
 9.65294E-01    2.77391E+03
 9.79350E-01    2.79293E+03
 1.00000E+00    2.81333E+03
 1.00760E+00    2.81929E+03
 1.03206E+00    2.83727E+03
 1.05874E+00    2.86005E+03
 1.06836E+00    2.86801E+03
 1.07791E+00    2.87444E+03
 1.10000E+00    2.88841E+03
 1.20000E+00    2.94183E+03
 1.30000E+00    2.98729E+03
 1.40000E+00    3.02360E+03
 1.50000E+00    3.05353E+03
 1.60000E+00    3.07728E+03
 1.70000E+00    3.09588E+03
 1.80000E+00    3.11036E+03
 1.90000E+00    3.12117E+03
 2.00000E+00    3.12832E+03
 2.25000E+00    3.13030E+03
 2.50000E+00    3.12147E+03
 2.75000E+00    3.09962E+03
 3.00000E+00    3.07561E+03
 3.50000E+00    3.02187E+03
 4.00000E+00    2.97908E+03
 4.50000E+00    2.94778E+03
 5.00000E+00    2.92249E+03
 5.50000E+00    2.89342E+03
 6.00000E+00    2.86092E+03
 6.50000E+00    2.86468E+03
 7.00000E+00    3.23094E+03
 7.50000E+00    3.70515E+03
 8.00000E+00    4.05003E+03
 8.50000E+00    4.26264E+03
 9.00000E+00    4.39127E+03
 9.50000E+00    4.46902E+03
 1.00000E+01    4.51422E+03
 1.05000E+01    4.53794E+03
 1.10000E+01    4.54678E+03
 1.15000E+01    4.54524E+03
 1.20000E+01    4.53663E+03
 1.25000E+01    4.52370E+03
 1.30000E+01    4.50850E+03
 1.35000E+01    4.49236E+03
 1.40000E+01    4.47619E+03
 1.45000E+01    4.46471E+03
 1.50000E+01    4.45038E+03
 1.55000E+01    4.47462E+03
 1.60000E+01    4.55066E+03
 1.65000E+01    4.66732E+03
 1.70000E+01    4.80086E+03
 1.75000E+01    4.93115E+03
 1.80000E+01    5.04204E+03
 1.85000E+01    5.13639E+03
 1.90000E+01    5.21048E+03
 1.95000E+01    5.26662E+03
 2.00000E+01    5.30741E+03
