# n + W 183 : (n,t)     
# jendl.ad   N.Iwamoto                         EVAL-Apr14
# uncertainties: n
# # energies =    39
#   E(MeV)       xs(mb) 
 4.83036E+00    0.00000E+00
 4.83664E+00    5.90730E-31
 4.96738E+00    2.08520E-29
 4.98979E+00    2.43270E-29
 5.13365E+00    4.66340E-29
 5.16976E+00    2.96610E-27
 5.31520E+00    1.66770E-26
 5.32828E+00    1.79110E-26
 5.37586E+00    2.24010E-26
 5.44897E+00    2.93000E-26
 6.00000E+00    8.12970E-26
 6.50000E+00    4.27930E-21
 7.00000E+00    9.86330E-17
 7.50000E+00    7.07680E-14
 8.00000E+00    6.74200E-12
 8.50000E+00    1.79290E-10
 9.00000E+00    2.18950E-09
 9.50000E+00    2.03450E-08
 1.00000E+01    1.94650E-07
 1.05000E+01    1.63848E-06
 1.10000E+01    1.05489E-05
 1.15000E+01    5.20308E-05
 1.20000E+01    2.05077E-04
 1.25000E+01    6.61456E-04
 1.30000E+01    1.87233E-03
 1.35000E+01    4.65310E-03
 1.40000E+01    1.03086E-02
 1.45000E+01    2.05809E-02
 1.50000E+01    3.73868E-02
 1.55000E+01    6.24358E-02
 1.60000E+01    9.69182E-02
 1.65000E+01    1.41381E-01
 1.70000E+01    1.95769E-01
 1.75000E+01    2.59555E-01
 1.80000E+01    3.30322E-01
 1.85000E+01    4.10073E-01
 1.90000E+01    4.96019E-01
 1.95000E+01    5.86639E-01
 2.00000E+01    6.80027E-01
