# n + W 183 : (n,d)m    
# jendl.ad   N.Iwamoto                         EVAL-Apr14
# uncertainties: n
# # energies =    30
#   E(MeV)       xs(mb) 
 5.04208E+00    0.00000E+00
 5.54817E+00    2.87230E-20
 6.50000E+00    8.27450E-20
 7.00000E+00    4.56950E-15
 7.50000E+00    7.20460E-12
 8.00000E+00    1.44160E-09
 8.50000E+00    5.10570E-08
 9.00000E+00    1.18770E-06
 9.50000E+00    1.43506E-05
 1.00000E+01    1.07478E-04
 1.05000E+01    5.62548E-04
 1.10000E+01    2.24019E-03
 1.15000E+01    7.23211E-03
 1.20000E+01    1.96598E-02
 1.25000E+01    4.61550E-02
 1.30000E+01    9.55256E-02
 1.35000E+01    1.77154E-01
 1.40000E+01    2.87395E-01
 1.45000E+01    4.49601E-01
 1.50000E+01    6.57954E-01
 1.55000E+01    9.11979E-01
 1.60000E+01    1.20988E+00
 1.65000E+01    1.54878E+00
 1.70000E+01    1.92424E+00
 1.75000E+01    2.33003E+00
 1.80000E+01    2.75790E+00
 1.85000E+01    3.19790E+00
 1.90000E+01    3.63921E+00
 1.95000E+01    4.07166E+00
 2.00000E+01    4.48514E+00
