# n + Gd158 : (n,n'02)  
# jendl4.0   N.Iwamoto,A.Zukeran,K.Shibata     EVAL-Dec09
# uncertainties: n
# # energies =    83
#   E(MeV)       xs(mb) 
 2.63127E-01    0.00000E+00
 2.75000E-01    1.16901E+00
 3.00000E-01    4.14988E+00
 4.00000E-01    2.39259E+01
 5.00000E-01    5.93783E+01
 5.42464E-01    7.78440E+01
 6.00000E-01    1.05040E+02
 7.00000E-01    1.57533E+02
 8.00000E-01    2.13757E+02
 9.00000E-01    2.71681E+02
 9.09895E-01    2.76580E+02
 9.83386E-01    3.12448E+02
 1.00000E+00    3.17478E+02
 1.03024E+00    3.28662E+02
 1.04829E+00    3.30285E+02
 1.10000E+00    3.26011E+02
 1.16637E+00    3.33697E+02
 1.18399E+00    3.31423E+02
 1.19472E+00    3.31872E+02
 1.20000E+00    3.27873E+02
 1.20381E+00    3.26891E+02
 1.26792E+00    3.23887E+02
 1.27158E+00    3.21001E+02
 1.27360E+00    3.19803E+02
 1.30000E+00    3.08903E+02
 1.35862E+00    2.99807E+02
 1.36715E+00    2.98906E+02
 1.38070E+00    2.96516E+02
 1.38945E+00    2.95412E+02
 1.39988E+00    2.93394E+02
 1.40000E+00    2.93376E+02
 1.41190E+00    2.91536E+02
 1.41568E+00    2.89589E+02
 1.42303E+00    2.87089E+02
 1.44920E+00    2.80043E+02
 1.46163E+00    2.77285E+02
 1.49088E+00    2.71680E+02
 1.50000E+00    2.69876E+02
 1.50868E+00    2.68291E+02
 1.52717E+00    2.64896E+02
 1.60000E+00    2.50920E+02
 1.70000E+00    2.35583E+02
 1.80000E+00    2.17820E+02
 1.90000E+00    2.00799E+02
 2.00000E+00    1.85220E+02
 2.25000E+00    1.50405E+02
 2.50000E+00    1.32619E+02
 2.75000E+00    1.17527E+02
 3.00000E+00    1.09644E+02
 3.50000E+00    1.01598E+02
 4.00000E+00    9.95941E+01
 4.50000E+00    9.99987E+01
 5.00000E+00    1.01694E+02
 5.50000E+00    1.04002E+02
 6.00000E+00    1.06359E+02
 6.50000E+00    1.08215E+02
 7.00000E+00    1.09379E+02
 7.50000E+00    1.09757E+02
 8.00000E+00    1.09510E+02
 8.50000E+00    1.08738E+02
 9.00000E+00    1.07631E+02
 9.50000E+00    1.06300E+02
 1.00000E+01    1.04867E+02
 1.05000E+01    1.03402E+02
 1.10000E+01    1.01963E+02
 1.15000E+01    1.00577E+02
 1.20000E+01    9.92526E+01
 1.25000E+01    9.79787E+01
 1.30000E+01    9.67290E+01
 1.35000E+01    9.54696E+01
 1.40000E+01    9.41668E+01
 1.45000E+01    9.27960E+01
 1.50000E+01    9.13466E+01
 1.55000E+01    8.98243E+01
 1.60000E+01    8.82479E+01
 1.65000E+01    8.66438E+01
 1.70000E+01    8.50388E+01
 1.75000E+01    8.34540E+01
 1.80000E+01    8.19008E+01
 1.85000E+01    8.03805E+01
 1.90000E+01    7.88866E+01
 1.95000E+01    7.74093E+01
 2.00000E+01    7.59407E+01
