# n + Gd158 : (n,n'04)  
# jendl4.0   N.Iwamoto,A.Zukeran,K.Shibata     EVAL-Dec09
# uncertainties: n
# # energies =    73
#   E(MeV)       xs(mb) 
 9.09895E-01    0.00000E+00
 9.83386E-01    8.78886E-05
 1.00000E+00    1.65065E-04
 1.03024E+00    6.13104E-04
 1.04829E+00    8.79697E-04
 1.10000E+00    2.13773E-03
 1.16637E+00    5.54857E-03
 1.18399E+00    6.77205E-03
 1.19472E+00    7.30155E-03
 1.20000E+00    7.68113E-03
 1.20381E+00    7.98914E-03
 1.26792E+00    1.49077E-02
 1.27158E+00    1.54123E-02
 1.27360E+00    1.56964E-02
 1.30000E+00    1.97385E-02
 1.35862E+00    3.17400E-02
 1.36715E+00    3.38326E-02
 1.38070E+00    3.70774E-02
 1.38945E+00    3.85040E-02
 1.39988E+00    4.06903E-02
 1.40000E+00    4.07707E-02
 1.41190E+00    4.36532E-02
 1.41568E+00    4.46180E-02
 1.42303E+00    4.63582E-02
 1.44920E+00    5.35235E-02
 1.46163E+00    5.68203E-02
 1.49088E+00    6.58189E-02
 1.50000E+00    6.84941E-02
 1.50868E+00    7.15343E-02
 1.52717E+00    7.78088E-02
 1.60000E+00    1.06768E-01
 1.70000E+00    1.59070E-01
 1.80000E+00    2.23457E-01
 1.90000E+00    3.03701E-01
 2.00000E+00    3.94963E-01
 2.25000E+00    6.62746E-01
 2.50000E+00    1.03701E+00
 2.75000E+00    1.42947E+00
 3.00000E+00    2.63450E+00
 3.50000E+00    3.47923E+00
 4.00000E+00    4.18100E+00
 4.50000E+00    4.69677E+00
 5.00000E+00    5.08665E+00
 5.50000E+00    5.43056E+00
 6.00000E+00    5.79261E+00
 6.50000E+00    6.15066E+00
 7.00000E+00    6.44040E+00
 7.50000E+00    6.59710E+00
 8.00000E+00    6.63148E+00
 8.50000E+00    6.58063E+00
 9.00000E+00    6.50336E+00
 9.50000E+00    6.43289E+00
 1.00000E+01    6.37931E+00
 1.05000E+01    6.33953E+00
 1.10000E+01    6.30540E+00
 1.15000E+01    6.27130E+00
 1.20000E+01    6.23418E+00
 1.25000E+01    6.19160E+00
 1.30000E+01    6.14021E+00
 1.35000E+01    6.07738E+00
 1.40000E+01    5.99951E+00
 1.45000E+01    5.90655E+00
 1.50000E+01    5.80218E+00
 1.55000E+01    5.69778E+00
 1.60000E+01    5.58931E+00
 1.65000E+01    5.47393E+00
 1.70000E+01    5.35518E+00
 1.75000E+01    5.24568E+00
 1.80000E+01    5.12783E+00
 1.85000E+01    5.00118E+00
 1.90000E+01    4.86860E+00
 1.95000E+01    4.73713E+00
 2.00000E+01    4.61663E+00
