# n + Gd158 : (n,tot)   
# jendl4.0   N.Iwamoto,A.Zukeran,K.Shibata     EVAL-Dec09
# uncertainties: n
# # energies =   171
#   E(MeV)       xs(mb) 
 1.00000E-11    2.93928E+04
 1.00000E-07    4.42621E+03
 4.13990E-07    4.14397E+03
 5.31580E-07    4.08301E+03
 6.82560E-07    4.02881E+03
 8.76420E-07    3.98034E+03
 1.12540E-06    3.93705E+03
 1.44500E-06    3.89856E+03
 1.85540E-06    3.86208E+03
 2.37240E-06    3.82780E+03
 3.05900E-06    3.79462E+03
 3.92790E-06    3.76060E+03
 5.04350E-06    3.72729E+03
 6.47600E-06    3.69061E+03
 8.31530E-06    3.65289E+03
 1.06770E-05    3.61860E+03
 1.37100E-05    3.68080E+03
 1.76030E-05    2.23239E+05
 2.26030E-05    1.89032E+04
 2.92030E-05    4.30212E+03
 3.72670E-05    3.89241E+03
 4.78510E-05    3.71504E+03
 6.14420E-05    3.58886E+03
 7.88930E-05    4.81089E+03
 1.01300E-04    4.14237E+03
 1.30070E-04    3.21982E+03
 1.67020E-04    2.95183E+03
 2.14450E-04    1.66241E+04
 2.75360E-04    3.24975E+04
 3.53580E-04    2.94929E+04
 4.54000E-04    2.07912E+04
 5.82950E-04    3.24328E+04
 7.48520E-04    4.79959E+04
 9.61120E-04    1.69434E+04
 1.23410E-03    2.95967E+04
 1.58460E-03    1.64516E+04
 2.03470E-03    5.99103E+03
 2.24870E-03    1.74270E+04
 2.48520E-03    9.40638E+03
 2.61260E-03    9.55948E+03
 2.74650E-03    3.21514E+04
 3.03540E-03    6.35658E+03
 3.35460E-03    1.81062E+04
 3.70740E-03    2.22436E+04
 4.30740E-03    1.03458E+04
 5.53080E-03    1.69379E+04
 7.10170E-03    1.52830E+04
 9.11880E-03    1.41660E+04
 1.17090E-02    1.32236E+04
 1.50340E-02    1.23523E+04
 1.93050E-02    1.17469E+04
 2.18750E-02    1.14645E+04
 2.35790E-02    1.13268E+04
 2.41760E-02    1.12586E+04
 2.47880E-02    1.11576E+04
 2.60580E-02    1.10429E+04
 2.70000E-02    1.09246E+04
 2.85000E-02    1.07127E+04
 3.18280E-02    1.04891E+04
 3.43070E-02    1.01988E+04
 4.08680E-02    9.88012E+03
 4.63090E-02    9.63602E+03
 5.24750E-02    9.44492E+03
 5.65620E-02    9.21762E+03
 6.73790E-02    9.01379E+03
 7.20000E-02    8.88259E+03
 7.95000E-02    8.77665E+03
 8.25000E-02    8.71149E+03
 8.65170E-02    8.58018E+03
 9.80370E-02    8.40275E+03
 1.11090E-01    8.29272E+03
 1.16790E-01    8.23079E+03
 1.22770E-01    8.16930E+03
 1.29070E-01    8.10819E+03
 1.35690E-01    8.04767E+03
 1.42640E-01    7.98754E+03
 1.49960E-01    7.92933E+03
 1.57640E-01    7.87516E+03
 1.65730E-01    7.83031E+03
 1.74220E-01    7.78631E+03
 1.83160E-01    7.74253E+03
 1.92550E-01    7.69903E+03
 2.02420E-01    7.65586E+03
 2.12800E-01    7.61287E+03
 2.23710E-01    7.57001E+03
 2.35180E-01    7.52747E+03
 2.47240E-01    7.48192E+03
 2.73240E-01    7.45141E+03
 2.87250E-01    7.43541E+03
 2.94520E-01    7.42794E+03
 2.97200E-01    7.42496E+03
 2.98500E-01    7.42139E+03
 3.01970E-01    7.39540E+03
 3.33730E-01    7.35004E+03
 3.68830E-01    7.32070E+03
 3.87740E-01    7.30013E+03
 4.07620E-01    7.29014E+03
 4.50490E-01    7.28758E+03
 4.97870E-01    7.28549E+03
 5.23400E-01    7.28400E+03
 5.50230E-01    7.28244E+03
 5.78440E-01    7.28089E+03
 6.08100E-01    7.28112E+03
 6.39280E-01    7.28210E+03
 6.72060E-01    7.28313E+03
 7.06510E-01    7.28421E+03
 7.42740E-01    7.28535E+03
 7.80820E-01    7.28654E+03
 8.20850E-01    7.28780E+03
 8.62940E-01    7.28912E+03
 9.07180E-01    7.29063E+03
 9.61640E-01    7.29207E+03
 1.00260E+00    7.27716E+03
 1.10800E+00    7.25389E+03
 1.16480E+00    7.23728E+03
 1.22460E+00    7.21214E+03
 1.28730E+00    7.17955E+03
 1.35340E+00    7.14528E+03
 1.42270E+00    7.10928E+03
 1.49570E+00    7.06519E+03
 1.57240E+00    7.01101E+03
 1.65300E+00    6.95404E+03
 1.73770E+00    6.89415E+03
 1.82680E+00    6.83114E+03
 1.92050E+00    6.76252E+03
 2.01900E+00    6.68858E+03
 2.12250E+00    6.61087E+03
 2.23130E+00    6.54318E+03
 2.30690E+00    6.50119E+03
 2.34570E+00    6.47977E+03
 2.36530E+00    6.46531E+03
 2.38520E+00    6.42860E+03
 2.46600E+00    6.35486E+03
 2.59240E+00    6.27033E+03
 2.72530E+00    6.18244E+03
 2.86500E+00    6.09046E+03
 3.01190E+00    6.00320E+03
 3.16640E+00    5.91544E+03
 3.32870E+00    5.78200E+03
 3.67880E+00    5.60801E+03
 4.06570E+00    5.43972E+03
 4.49330E+00    5.31725E+03
 4.72370E+00    5.24365E+03
 4.96590E+00    5.16965E+03
 5.22050E+00    5.10679E+03
 5.48810E+00    5.04691E+03
 5.76950E+00    4.99808E+03
 6.06530E+00    4.95660E+03
 6.37630E+00    4.92994E+03
 6.59240E+00    4.91524E+03
 6.70320E+00    4.90411E+03
 7.04690E+00    4.89119E+03
 7.40820E+00    4.89064E+03
 7.78800E+00    4.90159E+03
 8.18730E+00    4.91943E+03
 8.60710E+00    4.94759E+03
 9.04840E+00    4.98011E+03
 9.51230E+00    5.02252E+03
 1.00000E+01    5.07033E+03
 1.05130E+01    5.12381E+03
 1.10520E+01    5.17955E+03
 1.16180E+01    5.23481E+03
 1.22140E+01    5.28639E+03
 1.28400E+01    5.33092E+03
 1.34990E+01    5.35794E+03
 1.38400E+01    5.37216E+03
 1.41910E+01    5.38279E+03
 1.45500E+01    5.38984E+03
 1.49180E+01    5.39344E+03
 1.56830E+01    5.38503E+03
 1.64870E+01    5.36083E+03
