# n + Gd158 : (n,xa)    
# jendl4.0   N.Iwamoto,A.Zukeran,K.Shibata     EVAL-Dec09
# 
# # energies =   100
#   E(MeV)        xs(mb) 
 8.00209E-02    1.40920E-09
 9.00000E-02    1.14320E-09
 1.00000E-01    1.06990E-09
 1.05000E-01    1.07600E-09
 1.10000E-01    1.08210E-09
 1.20000E-01    1.05480E-09
 1.30000E-01    1.04290E-09
 1.40000E-01    1.03990E-09
 1.50000E-01    1.04710E-09
 1.60000E-01    1.06170E-09
 1.70000E-01    1.08453E-09
 1.80000E-01    1.11010E-09
 1.90000E-01    1.14417E-09
 2.00000E-01    1.18050E-09
 2.25000E-01    1.35740E-09
 2.50000E-01    1.49220E-09
 2.63127E-01    1.58178E-09
 2.75000E-01    1.66280E-09
 3.00000E-01    1.85230E-09
 4.00000E-01    3.09540E-09
 5.00000E-01    5.41900E-09
 5.42464E-01    7.14607E-09
 6.00000E-01    9.50170E-09
 7.00000E-01    1.66700E-08
 8.00000E-01    2.94600E-08
 9.00000E-01    5.13090E-08
 9.09895E-01    5.83010E-08
 9.83386E-01    8.18110E-08
 1.00000E+00    8.48930E-08
 1.03024E+00    1.03260E-07
 1.04829E+00    1.07300E-07
 1.10000E+00    1.23470E-07
 1.16637E+00    1.67720E-07
 1.18399E+00    1.76640E-07
 1.19472E+00    1.83130E-07
 1.20000E+00    1.84080E-07
 1.20381E+00    1.85810E-07
 1.26792E+00    2.40930E-07
 1.27158E+00    2.41590E-07
 1.27360E+00    2.41080E-07
 1.30000E+00    2.51290E-07
 1.35862E+00    3.17420E-07
 1.36715E+00    3.24994E-07
 1.38070E+00    3.37025E-07
 1.38945E+00    3.45167E-07
 1.39988E+00    3.55315E-07
 1.40000E+00    3.55432E-07
 1.41190E+00    3.67210E-07
 1.41568E+00    4.05110E-07
 1.42303E+00    4.11311E-07
 1.44920E+00    4.33390E-07
 1.46163E+00    4.46792E-07
 1.49088E+00    4.78909E-07
 1.50000E+00    4.89700E-07
 1.50867E+00    5.00787E-07
 1.50868E+00    5.00800E-07
 1.52717E+00    5.76170E-07
 1.60000E+00    6.83820E-07
 1.70000E+00    9.59701E-07
 1.80000E+00    1.31191E-06
 1.90000E+00    1.76787E-06
 2.00000E+00    2.35764E-06
 2.25000E+00    4.73720E-06
 2.50000E+00    8.82723E-06
 2.75000E+00    1.64116E-05
 3.00000E+00    2.75172E-05
 3.50000E+00    7.32073E-05
 4.00000E+00    1.67098E-04
 4.50000E+00    3.34356E-04
 5.00000E+00    6.00464E-04
 5.50000E+00    9.89772E-04
 6.00000E+00    1.53093E-03
 6.50000E+00    2.27133E-03
 7.00000E+00    3.31156E-03
 7.50000E+00    4.86297E-03
 8.00000E+00    7.35725E-03
 8.50000E+00    1.16146E-02
 9.00000E+00    1.90557E-02
 9.50000E+00    3.19576E-02
 1.00000E+01    5.39617E-02
 1.05000E+01    9.06964E-02
 1.10000E+01    1.50236E-01
 1.15000E+01    2.41648E-01
 1.20000E+01    3.82271E-01
 1.25000E+01    5.86564E-01
 1.30000E+01    8.70626E-01
 1.35000E+01    1.24860E+00
 1.40000E+01    1.73084E+00
 1.45000E+01    2.32279E+00
 1.50000E+01    3.02485E+00
 1.55000E+01    3.83520E+00
 1.60000E+01    4.74037E+00
 1.65000E+01    5.73282E+00
 1.70000E+01    6.80568E+00
 1.75000E+01    7.93773E+00
 1.80000E+01    9.12304E+00
 1.85000E+01    1.03488E+01
 1.90000E+01    1.15989E+01
 1.95000E+01    1.28689E+01
 2.00000E+01    1.41446E+01
