# n + Gd158 : (n,el)    
# jendl4.0   N.Iwamoto,A.Zukeran,K.Shibata     EVAL-Dec09
# uncertainties: n
# # energies =   171
#   E(MeV)       xs(mb) 
 1.00000E-11    5.62528E+03
 1.00000E-07    3.62762E+03
 4.13990E-07    3.62225E+03
 5.31580E-07    3.61971E+03
 6.82560E-07    3.61645E+03
 8.76420E-07    3.61226E+03
 1.12540E-06    3.60688E+03
 1.44500E-06    3.59997E+03
 1.85540E-06    3.59119E+03
 2.37240E-06    3.57982E+03
 3.05900E-06    3.56504E+03
 3.92790E-06    3.54313E+03
 5.04350E-06    3.51307E+03
 6.47600E-06    3.47348E+03
 8.31530E-06    3.40937E+03
 1.06770E-05    3.29879E+03
 1.37100E-05    3.04515E+03
 1.76030E-05    1.58549E+04
 2.26030E-05    6.91618E+03
 2.92030E-05    4.10958E+03
 3.72670E-05    3.83643E+03
 4.78510E-05    3.68913E+03
 6.14420E-05    3.57107E+03
 7.88930E-05    3.40841E+03
 1.01300E-04    3.44278E+03
 1.30070E-04    3.21022E+03
 1.67020E-04    2.93725E+03
 2.14450E-04    7.54935E+03
 2.75360E-04    1.83547E+04
 3.53580E-04    2.17722E+04
 4.54000E-04    1.55080E+04
 5.82950E-04    2.76505E+04
 7.48520E-04    4.42120E+04
 9.61120E-04    1.50581E+04
 1.23410E-03    2.58561E+04
 1.58460E-03    1.42992E+04
 2.03470E-03    5.45171E+03
 2.24870E-03    1.56402E+04
 2.48520E-03    7.72550E+03
 2.61260E-03    7.99617E+03
 2.74650E-03    3.07631E+04
 3.03540E-03    5.75261E+03
 3.35460E-03    1.73583E+04
 3.70740E-03    2.15172E+04
 4.30740E-03    9.87706E+03
 5.53080E-03    1.64407E+04
 7.10170E-03    1.46682E+04
 9.11880E-03    1.36194E+04
 1.17090E-02    1.27370E+04
 1.50340E-02    1.19199E+04
 1.93050E-02    1.13518E+04
 2.18750E-02    1.10879E+04
 2.35790E-02    1.09591E+04
 2.41760E-02    1.08955E+04
 2.47880E-02    1.08010E+04
 2.60580E-02    1.06936E+04
 2.70000E-02    1.05826E+04
 2.85000E-02    1.03843E+04
 3.18280E-02    1.01752E+04
 3.43070E-02    9.90358E+03
 4.08680E-02    9.60457E+03
 4.63090E-02    9.37515E+03
 5.24750E-02    9.19465E+03
 5.65620E-02    8.97923E+03
 6.73790E-02    8.78540E+03
 7.20000E-02    8.66004E+03
 7.95000E-02    8.55189E+03
 8.25000E-02    8.46824E+03
 8.65170E-02    8.29633E+03
 9.80370E-02    8.05442E+03
 1.11090E-01    7.89766E+03
 1.16790E-01    7.80979E+03
 1.22770E-01    7.72314E+03
 1.29070E-01    7.63697E+03
 1.35690E-01    7.55129E+03
 1.42640E-01    7.46683E+03
 1.49960E-01    7.38425E+03
 1.57640E-01    7.30610E+03
 1.65730E-01    7.23656E+03
 1.74220E-01    7.16763E+03
 1.83160E-01    7.09994E+03
 1.92550E-01    7.03260E+03
 2.02420E-01    6.96470E+03
 2.12800E-01    6.89717E+03
 2.23710E-01    6.83001E+03
 2.35180E-01    6.76279E+03
 2.47240E-01    6.67899E+03
 2.73240E-01    6.60725E+03
 2.87250E-01    6.56941E+03
 2.94520E-01    6.55173E+03
 2.97200E-01    6.54468E+03
 2.98500E-01    6.53624E+03
 3.01970E-01    6.47849E+03
 3.33730E-01    6.38222E+03
 3.68830E-01    6.30551E+03
 3.87740E-01    6.25914E+03
 4.07620E-01    6.19933E+03
 4.50490E-01    6.12861E+03
 4.97870E-01    6.07321E+03
 5.23400E-01    6.03409E+03
 5.50230E-01    5.99891E+03
 5.78440E-01    5.96412E+03
 6.08100E-01    5.92756E+03
 6.39280E-01    5.88911E+03
 6.72060E-01    5.84870E+03
 7.06510E-01    5.80644E+03
 7.42740E-01    5.76910E+03
 7.80820E-01    5.73330E+03
 8.20850E-01    5.69566E+03
 8.62940E-01    5.65609E+03
 9.07180E-01    5.61118E+03
 9.61640E-01    5.55948E+03
 1.00260E+00    5.39581E+03
 1.10800E+00    5.23443E+03
 1.16480E+00    5.13146E+03
 1.22460E+00    5.00505E+03
 1.28730E+00    4.86444E+03
 1.35340E+00    4.75100E+03
 1.42270E+00    4.64654E+03
 1.49570E+00    4.53956E+03
 1.57240E+00    4.43824E+03
 1.65300E+00    4.33449E+03
 1.73770E+00    4.23171E+03
 1.82680E+00    4.12584E+03
 1.92050E+00    4.01816E+03
 2.01900E+00    3.91213E+03
 2.12250E+00    3.80304E+03
 2.23130E+00    3.71681E+03
 2.30690E+00    3.66422E+03
 2.34570E+00    3.63740E+03
 2.36530E+00    3.61929E+03
 2.38520E+00    3.57541E+03
 2.46600E+00    3.49032E+03
 2.59240E+00    3.38419E+03
 2.72530E+00    3.28030E+03
 2.86500E+00    3.17559E+03
 3.01190E+00    3.07465E+03
 3.16640E+00    2.97358E+03
 3.32870E+00    2.83087E+03
 3.67880E+00    2.65291E+03
 4.06570E+00    2.49527E+03
 4.49330E+00    2.38971E+03
 4.72370E+00    2.32757E+03
 4.96590E+00    2.27133E+03
 5.22050E+00    2.22395E+03
 5.48810E+00    2.18237E+03
 5.76950E+00    2.14878E+03
 6.06530E+00    2.12621E+03
 6.37630E+00    2.11182E+03
 6.59240E+00    2.10741E+03
 6.70320E+00    2.10498E+03
 7.04690E+00    2.11129E+03
 7.40820E+00    2.12603E+03
 7.78800E+00    2.14895E+03
 8.18730E+00    2.18668E+03
 8.60710E+00    2.23170E+03
 9.04840E+00    2.28423E+03
 9.51230E+00    2.34374E+03
 1.00000E+01    2.40795E+03
 1.05130E+01    2.47666E+03
 1.10520E+01    2.54666E+03
 1.16180E+01    2.61553E+03
 1.22140E+01    2.68062E+03
 1.28400E+01    2.73926E+03
 1.34990E+01    2.77755E+03
 1.38400E+01    2.79967E+03
 1.41910E+01    2.81831E+03
 1.45500E+01    2.83358E+03
 1.49180E+01    2.85034E+03
 1.56830E+01    2.85910E+03
 1.64870E+01    2.85167E+03
