# n + Mo  0 : (n,xp)
# jendl4.0   K.Shibata, A.Ichihara, S.Kunieda+ EVAL-MAR09
#
# # energies =    64
#   E(MeV)          xs(mb) 
 2.06287E-01    0.00000E+00
 3.00000E-01    0.00000E+00
 4.00000E-01    0.00000E+00
 5.00000E-01    0.00000E+00
 6.00000E-01    0.00000E+00
 7.00000E-01    0.00000E+00
 7.73936E-01    0.00000E+00
 7.94557E-01    0.00000E+00
 8.00000E-01    0.00000E+00
 8.29349E-01    0.00000E+00
 9.00000E-01    0.00000E+00
 9.57747E-01    0.00000E+00
 1.00000E+00    0.00000E+00
 1.05032E+00    0.00000E+00
 1.06799E+00    0.00000E+00
 1.08513E+00    0.00000E+00
 1.10361E+00    0.00000E+00
 1.31643E+00    0.00000E+00
 1.33807E+00    0.00000E+00
 1.38429E+00    0.00000E+00
 1.39063E+00    0.00000E+00
 1.44129E+00    0.00000E+00
 1.45581E+00    0.00000E+00
 1.50000E+00    0.00000E+00
 1.55717E+00    2.74186E-03
 1.56821E+00    3.27138E-03
 1.63744E+00    6.59187E-03
 1.66258E+00    7.79767E-03
 1.67794E+00    8.53439E-03
 1.68371E+00    8.81113E-03
 1.70089E+00    9.63514E-03
 1.71605E+00    1.03623E-02
 1.76179E+00    1.25561E-02
 1.81576E+00    1.51447E-02
 1.82746E+00    1.57059E-02
 1.83756E+00    1.61903E-02
 2.00000E+00    2.39814E-02
 2.50000E+00    2.91306E-01
 3.00000E+00    1.04031E+00
 3.50000E+00    2.26773E+00
 4.00000E+00    4.02006E+00
 4.50000E+00    5.85838E+00
 5.00000E+00    9.47963E+00
 5.50000E+00    1.28702E+01
 6.00000E+00    1.72779E+01
 6.50000E+00    2.01689E+01
 7.00000E+00    2.37367E+01
 7.50000E+00    2.54973E+01
 8.10000E+00    2.80452E+01
 8.50000E+00    2.90979E+01
 9.00000E+00    3.07999E+01
 9.50000E+00    3.24124E+01
 1.00000E+01    3.44717E+01
 1.10000E+01    4.87903E+01
 1.20000E+01    8.77471E+01
 1.30000E+01    1.31292E+02
 1.40000E+01    1.49379E+02
 1.45000E+01    1.54544E+02
 1.50000E+01    1.58547E+02
 1.60000E+01    1.60810E+02
 1.70000E+01    1.62798E+02
 1.80000E+01    1.64906E+02
 1.90000E+01    1.67248E+02
 2.00000E+01    1.69919E+02
