# n + Na 22 : (n,xd)    
# jeff3.3    A.J. Koning and D. Rochman        EVAL-DEC15
# 
# # energies =   128
#   E(MeV)        xs(mb) 
 6.09851E-01    0.00000E+00
 6.87297E-01    0.00000E+00
 7.00000E-01    0.00000E+00
 8.00000E-01    0.00000E+00
 9.00000E-01    0.00000E+00
 9.31663E-01    0.00000E+00
 1.00000E+00    0.00000E+00
 1.20000E+00    0.00000E+00
 1.40000E+00    0.00000E+00
 1.59822E+00    0.00000E+00
 1.60000E+00    0.00000E+00
 1.80000E+00    0.00000E+00
 2.00000E+00    0.00000E+00
 2.02526E+00    0.00000E+00
 2.04165E+00    0.00000E+00
 2.07432E+00    0.00000E+00
 2.20000E+00    0.00000E+00
 2.31306E+00    0.00000E+00
 2.40000E+00    0.00000E+00
 2.60000E+00    0.00000E+00
 2.68964E+00    0.00000E+00
 2.80000E+00    0.00000E+00
 3.00000E+00    0.00000E+00
 3.10516E+00    0.00000E+00
 3.20000E+00    0.00000E+00
 3.20072E+00    0.00000E+00
 3.40000E+00    0.00000E+00
 3.60000E+00    0.00000E+00
 3.68108E+00    0.00000E+00
 3.80000E+00    0.00000E+00
 3.87690E+00    0.00000E+00
 4.00000E+00    0.00000E+00
 4.12529E+00    0.00000E+00
 4.20000E+00    0.00000E+00
 4.25828E+00    0.00000E+00
 4.40000E+00    0.00000E+00
 4.49322E+00    0.00000E+00
 4.51780E+00    0.00000E+00
 4.56055E+00    0.00000E+00
 4.60000E+00    0.00000E+00
 4.67343E+00    0.00000E+00
 4.73137E+00    2.42718E-05
 4.79297E+00    1.70711E-04
 4.80000E+00    1.87423E-04
 4.83397E+00    2.68177E-04
 4.92642E+00    4.87954E-04
 4.98980E+00    6.38623E-04
 5.00000E+00    6.62871E-04
 5.20000E+00    1.13832E-03
 5.29519E+00    9.62896E-03
 5.33483E+00    1.31647E-02
 5.36631E+00    1.59727E-02
 5.40000E+00    1.89777E-02
 5.41128E+00    2.34969E-02
 5.56188E+00    8.38322E-02
 5.60000E+00    9.91043E-02
 5.69157E+00    2.21833E-01
 5.80000E+00    3.67160E-01
 6.00000E+00    9.87345E-01
 6.20000E+00    2.13320E+00
 6.40000E+00    3.82789E+00
 6.60000E+00    5.26154E+00
 6.80000E+00    7.46384E+00
 7.00000E+00    9.52287E+00
 7.20000E+00    1.11345E+01
 7.40000E+00    1.36369E+01
 7.60000E+00    1.57688E+01
 7.80000E+00    1.67241E+01
 8.00000E+00    1.85719E+01
 8.50000E+00    2.26859E+01
 9.00000E+00    2.64212E+01
 9.50000E+00    2.89430E+01
 1.00000E+01    3.18509E+01
 1.05000E+01    3.42574E+01
 1.10000E+01    3.64945E+01
 1.15000E+01    3.85871E+01
 1.20000E+01    4.01729E+01
 1.25000E+01    4.13826E+01
 1.30000E+01    4.35005E+01
 1.35000E+01    4.50623E+01
 1.40000E+01    4.72064E+01
 1.45000E+01    4.95264E+01
 1.50000E+01    5.18607E+01
 1.60000E+01    5.69675E+01
 1.70000E+01    6.22429E+01
 1.80000E+01    6.73162E+01
 1.90000E+01    7.23198E+01
 2.00000E+01    7.68414E+01
 2.10000E+01    8.06555E+01
 2.20000E+01    8.23521E+01
 2.30000E+01    8.49508E+01
 2.40000E+01    8.63402E+01
 2.50000E+01    8.73002E+01
 2.60000E+01    8.78716E+01
 2.70000E+01    8.81195E+01
 2.80000E+01    8.79525E+01
 2.90000E+01    8.72732E+01
 3.00000E+01    8.67999E+01
 3.00000E+01    9.91074E+01
 3.20000E+01    1.01106E+02
 3.40000E+01    1.00618E+02
 3.60000E+01    1.03005E+02
 3.80000E+01    1.03561E+02
 4.00000E+01    1.04239E+02
 4.20000E+01    1.04806E+02
 4.40000E+01    1.05532E+02
 4.60000E+01    1.06003E+02
 4.80000E+01    1.06488E+02
 5.00000E+01    1.06349E+02
 5.20000E+01    1.06138E+02
 5.40000E+01    1.06155E+02
 5.60000E+01    1.06093E+02
 5.80000E+01    1.06243E+02
 6.00000E+01    1.06792E+02
 6.50000E+01    1.07683E+02
 7.00000E+01    1.10770E+02
 7.50000E+01    1.13407E+02
 8.00000E+01    1.17012E+02
 9.00000E+01    1.21900E+02
 1.00000E+02    1.29050E+02
 1.10000E+02    1.35376E+02
 1.20000E+02    1.43762E+02
 1.30000E+02    1.53811E+02
 1.40000E+02    1.64060E+02
 1.50000E+02    1.72113E+02
 1.60000E+02    1.80293E+02
 1.80000E+02    1.98264E+02
 2.00000E+02    2.16180E+02
