# n + Na 22 : (n,n'07)  
# jeff3.3    A.J. Koning and D. Rochman        EVAL-DEC15
# uncertainties: n
# # energies =    82
#   E(MeV)       xs(mb) 
 2.07432E+00    0.00000E+00
 2.20000E+00    2.11860E+01
 2.31306E+00    3.45985E+01
 2.40000E+00    4.49124E+01
 2.60000E+00    5.99617E+01
 2.68964E+00    6.33793E+01
 2.80000E+00    6.75869E+01
 3.00000E+00    7.05156E+01
 3.10516E+00    7.04267E+01
 3.20000E+00    7.03465E+01
 3.20072E+00    7.03376E+01
 3.40000E+00    6.78804E+01
 3.60000E+00    6.47785E+01
 3.68108E+00    6.33744E+01
 3.80000E+00    6.13151E+01
 3.87690E+00    6.00041E+01
 4.00000E+00    5.79055E+01
 4.12529E+00    5.59044E+01
 4.20000E+00    5.47111E+01
 4.25828E+00    5.37913E+01
 4.40000E+00    5.15545E+01
 4.49322E+00    5.01769E+01
 4.51780E+00    4.98136E+01
 4.56055E+00    4.91818E+01
 4.60000E+00    4.85988E+01
 4.67343E+00    4.74843E+01
 4.73137E+00    4.66049E+01
 4.79297E+00    4.56700E+01
 4.80000E+00    4.55633E+01
 4.83397E+00    4.50556E+01
 4.92642E+00    4.36740E+01
 4.98980E+00    4.27267E+01
 5.00000E+00    4.25743E+01
 5.20000E+00    3.97450E+01
 5.29519E+00    3.85509E+01
 5.33483E+00    3.80536E+01
 5.36631E+00    3.76587E+01
 5.40000E+00    3.72361E+01
 5.41128E+00    3.67424E+01
 5.56188E+00    3.01509E+01
 5.60000E+00    2.84825E+01
 5.69157E+00    2.76514E+01
 5.80000E+00    2.66673E+01
 6.00000E+00    2.48310E+01
 6.20000E+00    2.35042E+01
 6.40000E+00    2.19190E+01
 6.60000E+00    1.97705E+01
 6.80000E+00    1.89059E+01
 7.00000E+00    1.72597E+01
 7.20000E+00    1.58210E+01
 7.40000E+00    1.50281E+01
 7.60000E+00    1.36442E+01
 7.80000E+00    1.23332E+01
 8.00000E+00    1.13687E+01
 8.50000E+00    9.28961E+00
 9.00000E+00    7.35557E+00
 9.50000E+00    5.75622E+00
 1.00000E+01    4.49909E+00
 1.05000E+01    3.49019E+00
 1.10000E+01    2.66256E+00
 1.15000E+01    2.06384E+00
 1.20000E+01    1.57133E+00
 1.25000E+01    1.16092E+00
 1.30000E+01    8.81123E-01
 1.35000E+01    6.69808E-01
 1.40000E+01    5.08332E-01
 1.45000E+01    3.80733E-01
 1.50000E+01    2.86120E-01
 1.60000E+01    1.59745E-01
 1.70000E+01    8.95855E-02
 1.80000E+01    4.74163E-02
 1.90000E+01    2.39700E-02
 2.00000E+01    1.11112E-02
 2.10000E+01    4.36328E-03
 2.20000E+01    1.57447E-03
 2.30000E+01    6.95020E-09
 2.40000E+01    0.00000E+00
 2.50000E+01    7.15340E-10
 2.60000E+01    7.94850E-10
 2.70000E+01    0.00000E+00
 2.80000E+01    1.29110E-09
 2.90000E+01    9.34020E-10
