# n + Na 22 : (n,xp)    
# jeff3.3    A.J. Koning and D. Rochman        EVAL-DEC15
# 
# # energies =   128
#   E(MeV)        xs(mb) 
 6.09851E-01    5.74874E+02
 6.87297E-01    5.56986E+02
 7.00000E-01    5.54001E+02
 8.00000E-01    5.30499E+02
 9.00000E-01    5.09078E+02
 9.31663E-01    4.99219E+02
 1.00000E+00    4.77939E+02
 1.20000E+00    4.27179E+02
 1.40000E+00    3.91541E+02
 1.59822E+00    3.66090E+02
 1.60000E+00    3.65861E+02
 1.80000E+00    3.40181E+02
 2.00000E+00    3.20840E+02
 2.02526E+00    3.17460E+02
 2.04165E+00    3.15267E+02
 2.07432E+00    3.10895E+02
 2.20000E+00    2.94077E+02
 2.31306E+00    2.79550E+02
 2.40000E+00    2.68554E+02
 2.60000E+00    2.49827E+02
 2.68964E+00    2.43876E+02
 2.80000E+00    2.36549E+02
 3.00000E+00    2.28548E+02
 3.10516E+00    2.26220E+02
 3.20000E+00    2.24122E+02
 3.20072E+00    2.24106E+02
 3.40000E+00    2.20872E+02
 3.60000E+00    2.21197E+02
 3.68108E+00    2.22253E+02
 3.80000E+00    2.23801E+02
 3.87690E+00    2.25255E+02
 4.00000E+00    2.27970E+02
 4.12529E+00    2.31610E+02
 4.20000E+00    2.33932E+02
 4.25828E+00    2.35743E+02
 4.40000E+00    2.40148E+02
 4.49322E+00    2.43390E+02
 4.51780E+00    2.44245E+02
 4.56055E+00    2.45731E+02
 4.60000E+00    2.47103E+02
 4.67343E+00    2.49396E+02
 4.73137E+00    2.51041E+02
 4.79297E+00    2.52791E+02
 4.80000E+00    2.52991E+02
 4.83397E+00    2.53955E+02
 4.92642E+00    2.55873E+02
 4.98980E+00    2.57188E+02
 5.00000E+00    2.57400E+02
 5.20000E+00    2.61502E+02
 5.29519E+00    2.63398E+02
 5.33483E+00    2.64187E+02
 5.36631E+00    2.64814E+02
 5.40000E+00    2.65485E+02
 5.41128E+00    2.73469E+02
 5.56188E+00    3.80074E+02
 5.60000E+00    4.07058E+02
 5.69157E+00    4.06663E+02
 5.80000E+00    4.06196E+02
 6.00000E+00    4.07523E+02
 6.20000E+00    4.06548E+02
 6.40000E+00    4.03831E+02
 6.60000E+00    3.99720E+02
 6.80000E+00    3.96668E+02
 7.00000E+00    3.94016E+02
 7.20000E+00    3.84421E+02
 7.40000E+00    3.83824E+02
 7.60000E+00    3.79956E+02
 7.80000E+00    3.72195E+02
 8.00000E+00    3.74656E+02
 8.50000E+00    3.93410E+02
 9.00000E+00    4.11421E+02
 9.50000E+00    4.30091E+02
 1.00000E+01    4.47963E+02
 1.05000E+01    4.61970E+02
 1.10000E+01    4.70318E+02
 1.15000E+01    4.79099E+02
 1.20000E+01    4.87046E+02
 1.25000E+01    4.87399E+02
 1.30000E+01    4.89845E+02
 1.35000E+01    4.89846E+02
 1.40000E+01    4.88029E+02
 1.45000E+01    4.84846E+02
 1.50000E+01    4.79556E+02
 1.60000E+01    4.67732E+02
 1.70000E+01    4.57188E+02
 1.80000E+01    4.43707E+02
 1.90000E+01    4.32064E+02
 2.00000E+01    4.26560E+02
 2.10000E+01    4.18893E+02
 2.20000E+01    4.15773E+02
 2.30000E+01    4.10894E+02
 2.40000E+01    4.07424E+02
 2.50000E+01    4.05509E+02
 2.60000E+01    4.03102E+02
 2.70000E+01    4.01171E+02
 2.80000E+01    3.98207E+02
 2.90000E+01    3.95971E+02
 3.00000E+01    3.92448E+02
 3.00000E+01    4.00162E+02
 3.20000E+01    3.98528E+02
 3.40000E+01    3.99468E+02
 3.60000E+01    3.97332E+02
 3.80000E+01    3.96627E+02
 4.00000E+01    3.96375E+02
 4.20000E+01    3.96394E+02
 4.40000E+01    3.95191E+02
 4.60000E+01    3.94519E+02
 4.80000E+01    3.95305E+02
 5.00000E+01    3.95641E+02
 5.20000E+01    3.95227E+02
 5.40000E+01    3.94830E+02
 5.60000E+01    3.95285E+02
 5.80000E+01    3.96023E+02
 6.00000E+01    3.95657E+02
 6.50000E+01    3.97133E+02
 7.00000E+01    3.98244E+02
 7.50000E+01    4.02112E+02
 8.00000E+01    4.07116E+02
 9.00000E+01    4.19039E+02
 1.00000E+02    4.34041E+02
 1.10000E+02    4.42610E+02
 1.20000E+02    4.57230E+02
 1.30000E+02    4.71835E+02
 1.40000E+02    4.86685E+02
 1.50000E+02    5.03266E+02
 1.60000E+02    5.20869E+02
 1.80000E+02    5.52727E+02
 2.00000E+02    5.84578E+02
