# n + Na 22 : (n,n'05)  
# jeff3.3    A.J. Koning and D. Rochman        EVAL-DEC15
# uncertainties: n
# # energies =    84
#   E(MeV)       xs(mb) 
 2.02526E+00    0.00000E+00
 2.04165E+00    5.50368E-01
 2.07432E+00    1.64740E+00
 2.20000E+00    5.86765E+00
 2.31306E+00    9.16134E+00
 2.40000E+00    1.16941E+01
 2.60000E+00    1.52900E+01
 2.68964E+00    1.60651E+01
 2.80000E+00    1.70194E+01
 3.00000E+00    1.77707E+01
 3.10516E+00    1.78601E+01
 3.20000E+00    1.79408E+01
 3.20072E+00    1.79395E+01
 3.40000E+00    1.75794E+01
 3.60000E+00    1.71191E+01
 3.68108E+00    1.69193E+01
 3.80000E+00    1.66263E+01
 3.87690E+00    1.64580E+01
 4.00000E+00    1.61885E+01
 4.12529E+00    1.59381E+01
 4.20000E+00    1.57888E+01
 4.25828E+00    1.56660E+01
 4.40000E+00    1.53673E+01
 4.49322E+00    1.51612E+01
 4.51780E+00    1.51069E+01
 4.56055E+00    1.50123E+01
 4.60000E+00    1.49251E+01
 4.67343E+00    1.47358E+01
 4.73137E+00    1.45864E+01
 4.79297E+00    1.44275E+01
 4.80000E+00    1.44094E+01
 4.83397E+00    1.43123E+01
 4.92642E+00    1.40480E+01
 4.98980E+00    1.38668E+01
 5.00000E+00    1.38376E+01
 5.20000E+00    1.33041E+01
 5.29519E+00    1.30644E+01
 5.33483E+00    1.29646E+01
 5.36631E+00    1.28853E+01
 5.40000E+00    1.28005E+01
 5.41128E+00    1.26429E+01
 5.56188E+00    1.05386E+01
 5.60000E+00    1.00060E+01
 5.69157E+00    9.79179E+00
 5.80000E+00    9.53814E+00
 6.00000E+00    9.01620E+00
 6.20000E+00    8.64391E+00
 6.40000E+00    8.14706E+00
 6.60000E+00    7.41473E+00
 6.80000E+00    7.14356E+00
 7.00000E+00    6.56323E+00
 7.20000E+00    6.04990E+00
 7.40000E+00    5.77347E+00
 7.60000E+00    5.26427E+00
 7.80000E+00    4.77671E+00
 8.00000E+00    4.41755E+00
 8.50000E+00    3.63306E+00
 9.00000E+00    2.88897E+00
 9.50000E+00    2.26729E+00
 1.00000E+01    1.77513E+00
 1.05000E+01    1.37785E+00
 1.10000E+01    1.05068E+00
 1.15000E+01    8.12772E-01
 1.20000E+01    6.17521E-01
 1.25000E+01    4.54864E-01
 1.30000E+01    3.43935E-01
 1.35000E+01    2.60323E-01
 1.40000E+01    1.96636E-01
 1.45000E+01    1.46544E-01
 1.50000E+01    1.09557E-01
 1.60000E+01    6.05204E-02
 1.70000E+01    3.35905E-02
 1.80000E+01    1.76104E-02
 1.90000E+01    8.82745E-03
 2.00000E+01    4.06165E-03
 2.10000E+01    1.58457E-03
 2.20000E+01    5.68450E-04
 2.30000E+01    2.49600E-09
 2.40000E+01    0.00000E+00
 2.50000E+01    2.54430E-10
 2.60000E+01    2.81550E-10
 2.70000E+01    0.00000E+00
 2.80000E+01    4.54630E-10
 2.90000E+01    3.28280E-10
