# n + Na 22 : (n,xn)    
# jeff3.3    A.J. Koning and D. Rochman        EVAL-DEC15
# 
# # energies =   128
#   E(MeV)        xs(mb) 
 6.09851E-01    0.00000E+00
 6.87297E-01    9.75865E+00
 7.00000E-01    1.15618E+01
 8.00000E-01    2.87568E+01
 9.00000E-01    4.43477E+01
 9.31663E-01    4.81452E+01
 1.00000E+00    1.09375E+02
 1.20000E+00    2.20324E+02
 1.40000E+00    2.80691E+02
 1.59822E+00    3.05043E+02
 1.60000E+00    3.08643E+02
 1.80000E+00    3.45326E+02
 2.00000E+00    3.59268E+02
 2.02526E+00    3.58095E+02
 2.04165E+00    3.57884E+02
 2.07432E+00    3.62039E+02
 2.20000E+00    3.99210E+02
 2.31306E+00    4.19242E+02
 2.40000E+00    4.36804E+02
 2.60000E+00    4.59199E+02
 2.68964E+00    4.62334E+02
 2.80000E+00    4.71927E+02
 3.00000E+00    4.77107E+02
 3.10516E+00    4.74996E+02
 3.20000E+00    4.79562E+02
 3.20072E+00    4.79556E+02
 3.40000E+00    4.84076E+02
 3.60000E+00    4.84050E+02
 3.68108E+00    4.81532E+02
 3.80000E+00    4.83487E+02
 3.87690E+00    4.81649E+02
 4.00000E+00    4.84109E+02
 4.12529E+00    4.83654E+02
 4.20000E+00    4.83971E+02
 4.25828E+00    4.82711E+02
 4.40000E+00    4.85186E+02
 4.49322E+00    4.84649E+02
 4.51780E+00    4.84546E+02
 4.56055E+00    4.84651E+02
 4.60000E+00    4.85424E+02
 4.67343E+00    4.84219E+02
 4.73137E+00    4.85156E+02
 4.79297E+00    4.88518E+02
 4.80000E+00    4.89156E+02
 4.83397E+00    4.89756E+02
 4.92642E+00    4.91897E+02
 4.98980E+00    4.95470E+02
 5.00000E+00    4.96454E+02
 5.20000E+00    5.03726E+02
 5.29519E+00    5.04586E+02
 5.33483E+00    5.05341E+02
 5.36631E+00    5.06666E+02
 5.40000E+00    5.08084E+02
 5.41128E+00    5.03520E+02
 5.56188E+00    4.42586E+02
 5.60000E+00    4.27163E+02
 5.69157E+00    4.24644E+02
 5.80000E+00    4.26766E+02
 6.00000E+00    4.24012E+02
 6.20000E+00    4.27590E+02
 6.40000E+00    4.26445E+02
 6.60000E+00    4.14627E+02
 6.80000E+00    4.23215E+02
 7.00000E+00    4.17340E+02
 7.20000E+00    4.12508E+02
 7.40000E+00    4.20234E+02
 7.60000E+00    4.15046E+02
 7.80000E+00    4.08411E+02
 8.00000E+00    4.09043E+02
 8.50000E+00    4.17576E+02
 9.00000E+00    4.20114E+02
 9.50000E+00    4.27450E+02
 1.00000E+01    4.37287E+02
 1.05000E+01    4.49781E+02
 1.10000E+01    4.59622E+02
 1.15000E+01    4.71256E+02
 1.20000E+01    4.82781E+02
 1.25000E+01    4.90766E+02
 1.30000E+01    5.03410E+02
 1.35000E+01    5.16589E+02
 1.40000E+01    5.29770E+02
 1.45000E+01    5.43457E+02
 1.50000E+01    5.57285E+02
 1.60000E+01    5.81362E+02
 1.70000E+01    6.05348E+02
 1.80000E+01    6.20561E+02
 1.90000E+01    6.36359E+02
 2.00000E+01    6.52775E+02
 2.10000E+01    6.63780E+02
 2.20000E+01    6.75551E+02
 2.30000E+01    6.80514E+02
 2.40000E+01    6.87824E+02
 2.50000E+01    6.93906E+02
 2.60000E+01    6.99369E+02
 2.70000E+01    7.01991E+02
 2.80000E+01    7.03299E+02
 2.90000E+01    7.02520E+02
 3.00000E+01    7.00209E+02
 3.00000E+01    7.26235E+02
 3.20000E+01    7.30903E+02
 3.40000E+01    7.34852E+02
 3.60000E+01    7.33200E+02
 3.80000E+01    7.30947E+02
 4.00000E+01    7.29769E+02
 4.20000E+01    7.26973E+02
 4.40000E+01    7.24046E+02
 4.60000E+01    7.20557E+02
 4.80000E+01    7.18552E+02
 5.00000E+01    7.16406E+02
 5.20000E+01    7.13381E+02
 5.40000E+01    7.09187E+02
 5.60000E+01    7.06093E+02
 5.80000E+01    7.03668E+02
 6.00000E+01    7.00797E+02
 6.50000E+01    6.98937E+02
 7.00000E+01    6.96556E+02
 7.50000E+01    6.99172E+02
 8.00000E+01    7.04822E+02
 9.00000E+01    7.18123E+02
 1.00000E+02    7.35194E+02
 1.10000E+02    7.41932E+02
 1.20000E+02    7.58008E+02
 1.30000E+02    7.75096E+02
 1.40000E+02    7.92487E+02
 1.50000E+02    8.09231E+02
 1.60000E+02    8.27292E+02
 1.80000E+02    8.57923E+02
 2.00000E+02    8.87167E+02
