# n + Na 22 : (n,n'09)  
# jeff3.3    A.J. Koning and D. Rochman        EVAL-DEC15
# uncertainties: n
# # energies =    77
#   E(MeV)       xs(mb) 
 2.68964E+00    0.00000E+00
 2.80000E+00    5.73366E+00
 3.00000E+00    1.34741E+01
 3.10516E+00    1.63700E+01
 3.20000E+00    1.89817E+01
 3.20072E+00    1.89934E+01
 3.40000E+00    2.22266E+01
 3.60000E+00    2.40355E+01
 3.68108E+00    2.43238E+01
 3.80000E+00    2.47467E+01
 3.87690E+00    2.47390E+01
 4.00000E+00    2.47268E+01
 4.12529E+00    2.45036E+01
 4.20000E+00    2.43705E+01
 4.25828E+00    2.41983E+01
 4.40000E+00    2.37796E+01
 4.49322E+00    2.34526E+01
 4.51780E+00    2.33664E+01
 4.56055E+00    2.32165E+01
 4.60000E+00    2.30781E+01
 4.67343E+00    2.27644E+01
 4.73137E+00    2.25169E+01
 4.79297E+00    2.22537E+01
 4.80000E+00    2.22237E+01
 4.83397E+00    2.20466E+01
 4.92642E+00    2.15648E+01
 4.98980E+00    2.12345E+01
 5.00000E+00    2.11813E+01
 5.20000E+00    2.01092E+01
 5.29519E+00    1.96306E+01
 5.33483E+00    1.94313E+01
 5.36631E+00    1.92731E+01
 5.40000E+00    1.91037E+01
 5.41128E+00    1.88594E+01
 5.56188E+00    1.55984E+01
 5.60000E+00    1.47730E+01
 5.69157E+00    1.43973E+01
 5.80000E+00    1.39525E+01
 6.00000E+00    1.30618E+01
 6.20000E+00    1.24035E+01
 6.40000E+00    1.15894E+01
 6.60000E+00    1.04665E+01
 6.80000E+00    1.00182E+01
 7.00000E+00    9.15895E+00
 7.20000E+00    8.40852E+00
 7.40000E+00    8.00478E+00
 7.60000E+00    7.28781E+00
 7.80000E+00    6.60964E+00
 8.00000E+00    6.11903E+00
 8.50000E+00    5.06547E+00
 9.00000E+00    4.07472E+00
 9.50000E+00    3.24538E+00
 1.00000E+01    2.58426E+00
 1.05000E+01    2.04210E+00
 1.10000E+01    1.58523E+00
 1.15000E+01    1.24741E+00
 1.20000E+01    9.63065E-01
 1.25000E+01    7.19815E-01
 1.30000E+01    5.51339E-01
 1.35000E+01    4.21933E-01
 1.40000E+01    3.21644E-01
 1.45000E+01    2.41506E-01
 1.50000E+01    1.81647E-01
 1.60000E+01    1.01238E-01
 1.70000E+01    5.65428E-02
 1.80000E+01    2.97990E-02
 1.90000E+01    1.50143E-02
 2.00000E+01    6.94629E-03
 2.10000E+01    2.72580E-03
 2.20000E+01    9.83730E-04
 2.30000E+01    4.34500E-09
 2.40000E+01    0.00000E+00
 2.50000E+01    4.47680E-10
 2.60000E+01    4.97590E-10
 2.70000E+01    0.00000E+00
 2.80000E+01    8.08680E-10
 2.90000E+01    5.85180E-10
