# n + Na 22 : (n,n'10)  
# jeff3.3    A.J. Koning and D. Rochman        EVAL-DEC15
# uncertainties: n
# # energies =    74
#   E(MeV)       xs(mb) 
 3.10516E+00    0.00000E+00
 3.20000E+00    6.46989E+00
 3.20072E+00    6.50920E+00
 3.40000E+00    1.73893E+01
 3.60000E+00    2.61569E+01
 3.68108E+00    2.84484E+01
 3.80000E+00    3.18092E+01
 3.87690E+00    3.30224E+01
 4.00000E+00    3.49644E+01
 4.12529E+00    3.58497E+01
 4.20000E+00    3.63776E+01
 4.25828E+00    3.64163E+01
 4.40000E+00    3.65103E+01
 4.49322E+00    3.62092E+01
 4.51780E+00    3.61297E+01
 4.56055E+00    3.59916E+01
 4.60000E+00    3.58642E+01
 4.67343E+00    3.53835E+01
 4.73137E+00    3.50042E+01
 4.79297E+00    3.46009E+01
 4.80000E+00    3.45549E+01
 4.83397E+00    3.42754E+01
 4.92642E+00    3.35146E+01
 4.98980E+00    3.29930E+01
 5.00000E+00    3.29091E+01
 5.20000E+00    3.11065E+01
 5.29519E+00    3.02797E+01
 5.33483E+00    2.99354E+01
 5.36631E+00    2.96620E+01
 5.40000E+00    2.93694E+01
 5.41128E+00    2.89855E+01
 5.56188E+00    2.38603E+01
 5.60000E+00    2.25630E+01
 5.69157E+00    2.19249E+01
 5.80000E+00    2.11693E+01
 6.00000E+00    1.97345E+01
 6.20000E+00    1.86976E+01
 6.40000E+00    1.74591E+01
 6.60000E+00    1.57779E+01
 6.80000E+00    1.51269E+01
 7.00000E+00    1.38645E+01
 7.20000E+00    1.27690E+01
 7.40000E+00    1.21972E+01
 7.60000E+00    1.11479E+01
 7.80000E+00    1.01509E+01
 8.00000E+00    9.42967E+00
 8.50000E+00    7.86777E+00
 9.00000E+00    6.36011E+00
 9.50000E+00    5.07186E+00
 1.00000E+01    4.02828E+00
 1.05000E+01    3.16561E+00
 1.10000E+01    2.43898E+00
 1.15000E+01    1.90408E+00
 1.20000E+01    1.45690E+00
 1.25000E+01    1.07981E+00
 1.30000E+01    8.21111E-01
 1.35000E+01    6.24859E-01
 1.40000E+01    4.74534E-01
 1.45000E+01    3.55620E-01
 1.50000E+01    2.67433E-01
 1.60000E+01    1.49646E-01
 1.70000E+01    8.42201E-02
 1.80000E+01    4.47749E-02
 1.90000E+01    2.27418E-02
 2.00000E+01    1.05891E-02
 2.10000E+01    4.17452E-03
 2.20000E+01    1.51122E-03
 2.30000E+01    6.68810E-09
 2.40000E+01    0.00000E+00
 2.50000E+01    6.90880E-10
 2.60000E+01    7.68710E-10
 2.70000E+01    0.00000E+00
 2.80000E+01    1.25150E-09
 2.90000E+01    9.06270E-10
