# n + Nd143 : (n,n'16)  
# jeff3.3    A.J. Koning and D. Rochman        EVAL-DEC15
# uncertainties: n
# # energies =    75
#   E(MeV)       xs(mb) 
 1.86564E+00    0.00000E+00
 1.91371E+00    7.61925E+00
 1.92430E+00    9.29779E+00
 1.93416E+00    1.08606E+01
 1.97988E+00    1.81074E+01
 2.00000E+00    2.12965E+01
 2.00225E+00    2.13365E+01
 2.01049E+00    2.14829E+01
 2.01882E+00    2.16309E+01
 2.02550E+00    2.17496E+01
 2.03312E+00    2.18850E+01
 2.04171E+00    2.20376E+01
 2.04997E+00    2.21844E+01
 2.07842E+00    2.26899E+01
 2.08143E+00    2.27433E+01
 2.08864E+00    2.28715E+01
 2.20000E+00    2.48501E+01
 2.40000E+00    2.72645E+01
 2.60000E+00    2.76581E+01
 2.80000E+00    2.51075E+01
 3.00000E+00    2.07579E+01
 3.20000E+00    1.61357E+01
 3.40000E+00    1.21086E+01
 3.60000E+00    8.93050E+00
 3.80000E+00    6.54031E+00
 4.00000E+00    4.78223E+00
 4.20000E+00    3.49858E+00
 4.40000E+00    2.56735E+00
 4.60000E+00    1.88997E+00
 4.80000E+00    1.39589E+00
 5.00000E+00    1.03366E+00
 5.20000E+00    7.66914E-01
 5.40000E+00    5.69954E-01
 5.60000E+00    4.24061E-01
 5.80000E+00    3.16005E-01
 6.00000E+00    2.35971E-01
 6.20000E+00    1.76352E-01
 6.40000E+00    1.31963E-01
 6.60000E+00    9.93478E-02
 6.80000E+00    7.47266E-02
 7.00000E+00    5.64366E-02
 7.20000E+00    4.27542E-02
 7.40000E+00    3.24133E-02
 7.60000E+00    2.47424E-02
 7.80000E+00    1.89019E-02
 8.00000E+00    1.45041E-02
 8.50000E+00    7.57866E-03
 9.00000E+00    4.02522E-03
 9.50000E+00    2.16560E-03
 1.00000E+01    1.17795E-03
 1.05000E+01    6.46893E-04
 1.10000E+01    3.58534E-04
 1.15000E+01    2.00638E-04
 1.20000E+01    1.13372E-04
 1.25000E+01    6.47313E-05
 1.30000E+01    3.73070E-05
 1.35000E+01    2.17130E-05
 1.40000E+01    1.27449E-05
 1.45000E+01    7.54546E-06
 1.50000E+01    4.49925E-06
 1.60000E+01    1.63373E-06
 1.70000E+01    6.09330E-07
 1.80000E+01    2.32630E-07
 1.90000E+01    9.03800E-08
 2.00000E+01    3.60250E-08
 2.10000E+01    1.46510E-08
 2.20000E+01    6.06710E-09
 2.30000E+01    2.56480E-09
 2.40000E+01    1.10240E-09
 2.50000E+01    4.81990E-10
 2.60000E+01    2.13910E-10
 2.70000E+01    9.63070E-11
 2.80000E+01    4.39000E-11
 2.90000E+01    2.02360E-11
 3.00000E+01    9.42840E-12
