# n + Nd143 : (n,n'08)  
# jeff3.3    A.J. Koning and D. Rochman        EVAL-DEC15
# uncertainties: n
# # energies =    85
#   E(MeV)       xs(mb) 
 1.56861E+00    0.00000E+00
 1.56980E+00    4.95004E-01
 1.60000E+00    1.30566E+01
 1.61973E+00    1.47393E+01
 1.70193E+00    2.17500E+01
 1.75149E+00    2.59768E+01
 1.78738E+00    2.90378E+01
 1.80000E+00    3.01141E+01
 1.81222E+00    3.03863E+01
 1.86457E+00    3.15523E+01
 1.86564E+00    3.15761E+01
 1.91371E+00    3.26468E+01
 1.92430E+00    3.28826E+01
 1.93416E+00    3.31023E+01
 1.97988E+00    3.41206E+01
 2.00000E+00    3.45687E+01
 2.00225E+00    3.45592E+01
 2.01049E+00    3.45243E+01
 2.01882E+00    3.44890E+01
 2.02550E+00    3.44607E+01
 2.03312E+00    3.44284E+01
 2.04171E+00    3.43921E+01
 2.04997E+00    3.43571E+01
 2.07842E+00    3.42366E+01
 2.08143E+00    3.42238E+01
 2.08864E+00    3.41933E+01
 2.20000E+00    3.37217E+01
 2.40000E+00    2.96930E+01
 2.60000E+00    2.40239E+01
 2.80000E+00    1.84766E+01
 3.00000E+00    1.38796E+01
 3.20000E+00    1.03440E+01
 3.40000E+00    7.70024E+00
 3.60000E+00    5.74174E+00
 3.80000E+00    4.29138E+00
 4.00000E+00    3.21511E+00
 4.20000E+00    2.41358E+00
 4.40000E+00    1.81740E+00
 4.60000E+00    1.37169E+00
 4.80000E+00    1.03750E+00
 5.00000E+00    7.85962E-01
 5.20000E+00    5.96190E-01
 5.40000E+00    4.52952E-01
 5.60000E+00    3.44627E-01
 5.80000E+00    2.62801E-01
 6.00000E+00    2.00808E-01
 6.20000E+00    1.53546E-01
 6.40000E+00    1.17594E-01
 6.60000E+00    9.03826E-02
 6.80000E+00    6.94082E-02
 7.00000E+00    5.34210E-02
 7.20000E+00    4.11428E-02
 7.40000E+00    3.16672E-02
 7.60000E+00    2.44764E-02
 7.80000E+00    1.88945E-02
 8.00000E+00    1.46220E-02
 8.50000E+00    7.73863E-03
 9.00000E+00    4.12544E-03
 9.50000E+00    2.21534E-03
 1.00000E+01    1.19958E-03
 1.05000E+01    6.55387E-04
 1.10000E+01    3.61531E-04
 1.15000E+01    2.01535E-04
 1.20000E+01    1.13547E-04
 1.25000E+01    6.46976E-05
 1.30000E+01    3.72391E-05
 1.35000E+01    2.16593E-05
 1.40000E+01    1.27123E-05
 1.45000E+01    7.52929E-06
 1.50000E+01    4.49337E-06
 1.60000E+01    1.63568E-06
 1.70000E+01    6.11580E-07
 1.80000E+01    2.33780E-07
 1.90000E+01    9.08090E-08
 2.00000E+01    3.61650E-08
 2.10000E+01    1.47010E-08
 2.20000E+01    6.08960E-09
 2.30000E+01    2.57700E-09
 2.40000E+01    1.10900E-09
 2.50000E+01    4.85370E-10
 2.60000E+01    2.15460E-10
 2.70000E+01    9.69630E-11
 2.80000E+01    4.41620E-11
 2.90000E+01    2.03410E-11
 3.00000E+01    9.47290E-12
