# n + Nd143 : (n,n'15)  
# jeff3.3    A.J. Koning and D. Rochman        EVAL-DEC15
# uncertainties: n
# # energies =    76
#   E(MeV)       xs(mb) 
 1.86457E+00    0.00000E+00
 1.86564E+00    5.54837E-01
 1.91371E+00    2.54805E+01
 1.92430E+00    3.09717E+01
 1.93416E+00    3.60844E+01
 1.97988E+00    5.97915E+01
 2.00000E+00    7.02243E+01
 2.00225E+00    7.02086E+01
 2.01049E+00    7.01509E+01
 2.01882E+00    7.00927E+01
 2.02550E+00    7.00459E+01
 2.03312E+00    6.99926E+01
 2.04171E+00    6.99325E+01
 2.04997E+00    6.98748E+01
 2.07842E+00    6.96758E+01
 2.08143E+00    6.96547E+01
 2.08864E+00    6.96043E+01
 2.20000E+00    6.88253E+01
 2.40000E+00    6.85841E+01
 2.60000E+00    6.52800E+01
 2.80000E+00    5.70100E+01
 3.00000E+00    4.59184E+01
 3.20000E+00    3.48989E+01
 3.40000E+00    2.55823E+01
 3.60000E+00    1.83962E+01
 3.80000E+00    1.31238E+01
 4.00000E+00    9.35268E+00
 4.20000E+00    6.67991E+00
 4.40000E+00    4.79690E+00
 4.60000E+00    3.46451E+00
 4.80000E+00    2.51678E+00
 5.00000E+00    1.83729E+00
 5.20000E+00    1.34664E+00
 5.40000E+00    9.90451E-01
 5.60000E+00    7.30457E-01
 5.80000E+00    5.40285E-01
 6.00000E+00    4.00923E-01
 6.20000E+00    2.98056E-01
 6.40000E+00    2.22083E-01
 6.60000E+00    1.66626E-01
 6.80000E+00    1.25011E-01
 7.00000E+00    9.42435E-02
 7.20000E+00    7.13133E-02
 7.40000E+00    5.40354E-02
 7.60000E+00    4.12452E-02
 7.80000E+00    3.15201E-02
 8.00000E+00    2.42028E-02
 8.50000E+00    1.26791E-02
 9.00000E+00    6.75572E-03
 9.50000E+00    3.64664E-03
 1.00000E+01    1.98990E-03
 1.05000E+01    1.09619E-03
 1.10000E+01    6.09430E-04
 1.15000E+01    3.42121E-04
 1.20000E+01    1.93955E-04
 1.25000E+01    1.11122E-04
 1.30000E+01    6.42723E-05
 1.35000E+01    3.75437E-05
 1.40000E+01    2.21182E-05
 1.45000E+01    1.31427E-05
 1.50000E+01    7.86477E-06
 1.60000E+01    2.87502E-06
 1.70000E+01    1.07870E-06
 1.80000E+01    4.13940E-07
 1.90000E+01    1.61530E-07
 2.00000E+01    6.46350E-08
 2.10000E+01    2.63820E-08
 2.20000E+01    1.09630E-08
 2.30000E+01    4.65010E-09
 2.40000E+01    2.00530E-09
 2.50000E+01    8.79520E-10
 2.60000E+01    3.91430E-10
 2.70000E+01    1.76670E-10
 2.80000E+01    8.06960E-11
 2.90000E+01    3.72630E-11
 3.00000E+01    1.73880E-11
