# n + Hg199 : (n,n'21)  
# tendl.2019 A.J. Koning and D. Rochman        EVAL-NOV19
# uncertainties: n
# # energies =    74
#   E(MeV)       xs(mb) 
 1.04125E+00    0.00000E+00
 1.10960E+00    9.29099E+00
 1.20000E+00    2.15793E+01
 1.22736E+00    2.30351E+01
 1.27413E+00    2.55237E+01
 1.28056E+00    2.58658E+01
 1.32438E+00    2.81974E+01
 1.33453E+00    2.87375E+01
 1.36408E+00    3.03098E+01
 1.36579E+00    3.04008E+01
 1.40000E+00    3.22211E+01
 1.44680E+00    3.26870E+01
 1.60000E+00    3.42119E+01
 1.80000E+00    2.79036E+01
 2.00000E+00    2.02061E+01
 2.20000E+00    1.41034E+01
 2.40000E+00    9.82245E+00
 2.60000E+00    6.90430E+00
 2.80000E+00    4.91013E+00
 3.00000E+00    3.52680E+00
 3.20000E+00    2.55119E+00
 3.40000E+00    1.85384E+00
 3.60000E+00    1.35128E+00
 3.80000E+00    9.86981E-01
 4.00000E+00    7.22504E-01
 4.20000E+00    5.30090E-01
 4.40000E+00    3.89953E-01
 4.60000E+00    2.87652E-01
 4.80000E+00    2.12803E-01
 5.00000E+00    1.57878E-01
 5.20000E+00    1.17428E-01
 5.40000E+00    8.75705E-02
 5.60000E+00    6.51950E-02
 5.80000E+00    4.87222E-02
 6.00000E+00    3.65300E-02
 6.20000E+00    2.73979E-02
 6.40000E+00    2.06256E-02
 6.60000E+00    1.55355E-02
 6.80000E+00    1.17143E-02
 7.00000E+00    8.84870E-03
 7.20000E+00    6.67643E-03
 7.40000E+00    5.04808E-03
 7.60000E+00    3.81414E-03
 7.80000E+00    2.88375E-03
 8.00000E+00    2.18412E-03
 8.50000E+00    1.09424E-03
 9.00000E+00    5.52841E-04
 9.50000E+00    2.81821E-04
 1.00000E+01    1.44889E-04
 1.05000E+01    7.50842E-05
 1.10000E+01    3.92083E-05
 1.15000E+01    2.06267E-05
 1.20000E+01    1.09340E-05
 1.25000E+01    5.84268E-06
 1.30000E+01    3.14835E-06
 1.35000E+01    1.71103E-06
 1.40000E+01    9.37930E-07
 1.45000E+01    5.18450E-07
 1.50000E+01    2.88790E-07
 1.60000E+01    9.14720E-08
 1.70000E+01    2.95160E-08
 1.80000E+01    9.76200E-09
 1.90000E+01    3.29220E-09
 2.00000E+01    1.13270E-09
 2.10000E+01    3.97540E-10
 2.20000E+01    1.42140E-10
 2.30000E+01    5.18900E-11
 2.40000E+01    1.92870E-11
 2.50000E+01    7.30810E-12
 2.60000E+01    2.81070E-12
 2.70000E+01    1.09720E-12
 2.80000E+01    4.34350E-13
 2.90000E+01    1.74360E-13
 3.00000E+01    7.09470E-14
