# n + Cr 52 : (n,any)   
# endfb8.0   S.Chiba,M.Chadwick,D.Hetrick      EVAL-OCT97
# uncertainties: n
# # energies =   154
#   E(MeV)       xs(mb) 
 2.00000E+01    0.00000E+00
 2.00000E+01    1.27880E+03
 2.10000E+01    1.26461E+03
 2.13863E+01    1.25904E+03
 2.17135E+01    1.25428E+03
 2.19697E+01    1.25054E+03
 2.20000E+01    1.25010E+03
 2.24277E+01    1.24398E+03
 2.28433E+01    1.23823E+03
 2.30000E+01    1.23609E+03
 2.34049E+01    1.23057E+03
 2.40000E+01    1.22240E+03
 2.41316E+01    1.22056E+03
 2.50000E+01    1.20820E+03
 2.51522E+01    1.20599E+03
 2.60000E+01    1.19350E+03
 2.70000E+01    1.17881E+03
 2.75774E+01    1.17054E+03
 2.80000E+01    1.16460E+03
 2.81870E+01    1.16198E+03
 2.90000E+01    1.15067E+03
 2.90523E+01    1.14995E+03
 2.92937E+01    1.14669E+03
 3.00000E+01    1.13760E+03
 3.04365E+01    1.13232E+03
 3.05082E+01    1.13146E+03
 3.10000E+01    1.12571E+03
 3.20000E+01    1.11453E+03
 3.23357E+01    1.11091E+03
 3.27457E+01    1.10658E+03
 3.30000E+01    1.10393E+03
 3.40000E+01    1.09382E+03
 3.46205E+01    1.08774E+03
 3.49663E+01    1.08442E+03
 3.50000E+01    1.08410E+03
 3.60000E+01    1.07479E+03
 3.70000E+01    1.06586E+03
 3.80000E+01    1.05725E+03
 3.82481E+01    1.05515E+03
 3.85952E+01    1.05224E+03
 3.86878E+01    1.05147E+03
 3.89395E+01    1.04938E+03
 3.90000E+01    1.04888E+03
 4.00000E+01    1.04070E+03
 4.04258E+01    1.03726E+03
 4.05417E+01    1.03633E+03
 4.10000E+01    1.03268E+03
 4.16614E+01    1.02747E+03
 4.20000E+01    1.02484E+03
 4.30000E+01    1.01717E+03
 4.38806E+01    1.01058E+03
 4.38830E+01    1.01056E+03
 4.40000E+01    1.00969E+03
 4.49735E+01    1.00259E+03
 4.50000E+01    1.00240E+03
 4.53673E+01    9.99768E+02
 4.57535E+01    9.97029E+02
 4.60000E+01    9.95295E+02
 4.67682E+01    9.89961E+02
 4.70000E+01    9.88371E+02
 4.80000E+01    9.81612E+02
 4.90000E+01    9.75002E+02
 5.00000E+01    9.68530E+02
 5.02991E+01    9.66621E+02
 5.07172E+01    9.63975E+02
 5.10000E+01    9.62201E+02
 5.20000E+01    9.56018E+02
 5.30000E+01    9.49968E+02
 5.35976E+01    9.46409E+02
 5.37685E+01    9.45399E+02
 5.40000E+01    9.44035E+02
 5.50000E+01    9.38210E+02
 5.60000E+01    9.32502E+02
 5.70000E+01    9.26927E+02
 5.70412E+01    9.26701E+02
 5.72795E+01    9.25393E+02
 5.80000E+01    9.21482E+02
 5.86202E+01    9.18167E+02
 5.86682E+01    9.17912E+02
 5.88242E+01    9.17087E+02
 5.90000E+01    9.16160E+02
 6.00000E+01    9.10960E+02
 6.10000E+01    9.05876E+02
 6.20000E+01    9.00903E+02
 6.30000E+01    8.96037E+02
 6.40000E+01    8.91274E+02
 6.50000E+01    8.86610E+02
 6.60000E+01    8.82058E+02
 6.60012E+01    8.82053E+02
 6.60259E+01    8.81942E+02
 6.61415E+01    8.81424E+02
 6.70000E+01    8.77627E+02
 6.80000E+01    8.73303E+02
 6.90000E+01    8.69077E+02
 7.00000E+01    8.64940E+02
 7.02138E+01    8.64067E+02
 7.10000E+01    8.60903E+02
 7.19978E+01    8.56986E+02
 7.20000E+01    8.56977E+02
 7.30000E+01    8.53152E+02
 7.40000E+01    8.49419E+02
 7.47698E+01    8.46603E+02
 7.50000E+01    8.45770E+02
 7.60000E+01    8.42212E+02
 7.70000E+01    8.38753E+02
 7.79160E+01    8.35666E+02
 7.80000E+01    8.35386E+02
 7.90000E+01    8.32104E+02
 8.00000E+01    8.28900E+02
 8.10000E+01    8.25780E+02
 8.20000E+01    8.22747E+02
 8.30000E+01    8.19797E+02
 8.40000E+01    8.16923E+02
 8.50000E+01    8.14120E+02
 8.60000E+01    8.11390E+02
 8.70000E+01    8.08737E+02
 8.80000E+01    8.06157E+02
 8.90000E+01    8.03649E+02
 9.00000E+01    8.01210E+02
 9.10000E+01    7.98843E+02
 9.20000E+01    7.96548E+02
 9.30000E+01    7.94316E+02
 9.40000E+01    7.92139E+02
 9.50000E+01    7.90010E+02
 9.60000E+01    7.87936E+02
 9.70000E+01    7.85927E+02
 9.80000E+01    7.83979E+02
 9.90000E+01    7.82088E+02
 1.00000E+02    7.80250E+02
 1.02000E+02    7.76749E+02
 1.04000E+02    7.73472E+02
 1.06000E+02    7.70392E+02
 1.08000E+02    7.67482E+02
 1.10000E+02    7.64720E+02
 1.12000E+02    7.62116E+02
 1.14000E+02    7.59684E+02
 1.16000E+02    7.57411E+02
 1.18000E+02    7.55284E+02
 1.20000E+02    7.53290E+02
 1.22000E+02    7.51432E+02
 1.24000E+02    7.49707E+02
 1.26000E+02    7.48102E+02
 1.28000E+02    7.46603E+02
 1.30000E+02    7.45200E+02
 1.32000E+02    7.43900E+02
 1.34000E+02    7.42715E+02
 1.36000E+02    7.41641E+02
 1.38000E+02    7.40674E+02
 1.40000E+02    7.39810E+02
 1.42000E+02    7.39067E+02
 1.44000E+02    7.38455E+02
 1.46000E+02    7.37962E+02
 1.48000E+02    7.37574E+02
 1.50000E+02    7.37280E+02
