# n + Mo 98 : (n,n'08)  
# jendl4.0   K.Shibata, A.Ichihara, S.Kunieda+ EVAL-MAR09
# uncertainties: n
# # energies =    29
#   E(MeV)       xs(mb) 
 1.98330E+00    0.00000E+00
 2.00000E+00    7.05500E+00
 2.50000E+00    5.72400E+01
 3.00000E+00    3.69900E+01
 3.50000E+00    2.42800E+01
 4.00000E+00    1.40100E+01
 4.50000E+00    7.62500E+00
 5.00000E+00    4.06300E+00
 5.50000E+00    2.33200E+00
 6.00000E+00    1.39200E+00
 6.50000E+00    1.07700E+00
 7.00000E+00    8.19000E-01
 7.50000E+00    8.00900E-01
 8.00000E+00    6.90100E-01
 8.50000E+00    7.20700E-01
 9.00000E+00    6.48900E-01
 9.50000E+00    6.78300E-01
 1.00000E+01    6.24500E-01
 1.10000E+01    6.03700E-01
 1.20000E+01    5.86700E-01
 1.30000E+01    5.74200E-01
 1.40000E+01    5.65800E-01
 1.45000E+01    5.16800E-01
 1.50000E+01    5.12600E-01
 1.60000E+01    5.08700E-01
 1.70000E+01    5.07500E-01
 1.80000E+01    5.07400E-01
 1.90000E+01    5.07000E-01
 2.00000E+01    5.05300E-01
