# n + Mo 98 : (n,n'02)  
# jendl4.0   K.Shibata, A.Ichihara, S.Kunieda+ EVAL-MAR09
# uncertainties: n
# # energies =    33
#   E(MeV)       xs(mb) 
 7.95496E-01    0.00000E+00
 8.00000E-01    4.94000E+01
 9.00000E-01    5.85900E+02
 1.00000E+00    7.97000E+02
 1.50000E+00    1.02000E+03
 2.00000E+00    7.09600E+02
 2.50000E+00    4.54300E+02
 3.00000E+00    3.15200E+02
 3.50000E+00    2.37800E+02
 4.00000E+00    1.78800E+02
 4.50000E+00    1.43900E+02
 5.00000E+00    1.23300E+02
 5.50000E+00    1.11600E+02
 6.00000E+00    1.04700E+02
 6.50000E+00    9.97800E+01
 7.00000E+00    9.55000E+01
 7.50000E+00    9.13400E+01
 8.00000E+00    8.72700E+01
 8.50000E+00    8.33700E+01
 9.00000E+00    7.97500E+01
 9.50000E+00    7.64600E+01
 1.00000E+01    7.35400E+01
 1.10000E+01    6.88300E+01
 1.20000E+01    6.52700E+01
 1.30000E+01    6.23900E+01
 1.40000E+01    5.98300E+01
 1.45000E+01    5.86400E+01
 1.50000E+01    5.75000E+01
 1.60000E+01    5.53900E+01
 1.70000E+01    5.34700E+01
 1.80000E+01    5.16600E+01
 1.90000E+01    4.99100E+01
 2.00000E+01    4.81800E+01
