# n + Mo 98 : (n,n'06)  
# jendl4.0   K.Shibata, A.Ichihara, S.Kunieda+ EVAL-MAR09
# uncertainties: n
# # energies =    29
#   E(MeV)       xs(mb) 
 1.89028E+00    0.00000E+00
 2.00000E+00    1.27000E+02
 2.50000E+00    1.73600E+02
 3.00000E+00    1.18400E+02
 3.50000E+00    8.21800E+01
 4.00000E+00    4.77000E+01
 4.50000E+00    2.61800E+01
 5.00000E+00    1.42200E+01
 5.50000E+00    8.32700E+00
 6.00000E+00    5.07800E+00
 6.50000E+00    3.99500E+00
 7.00000E+00    3.07900E+00
 7.50000E+00    3.04400E+00
 8.00000E+00    2.64900E+00
 8.50000E+00    2.79600E+00
 9.00000E+00    2.54600E+00
 9.50000E+00    2.69100E+00
 1.00000E+01    2.50600E+00
 1.10000E+01    2.47300E+00
 1.20000E+01    2.44300E+00
 1.30000E+01    2.41600E+00
 1.40000E+01    2.39500E+00
 1.45000E+01    2.19100E+00
 1.50000E+01    2.17600E+00
 1.60000E+01    2.16200E+00
 1.70000E+01    2.15900E+00
 1.80000E+01    2.15800E+00
 1.90000E+01    2.15600E+00
 2.00000E+01    2.15100E+00
