# n + Mo 98 : (n,xd)    
# jendl4.0   K.Shibata, A.Ichihara, S.Kunieda+ EVAL-MAR09
# 
# # energies =    52
#   E(MeV)        xs(mb) 
 7.42320E-01    0.00000E+00
 7.95496E-01    0.00000E+00
 8.00000E-01    0.00000E+00
 9.00000E-01    0.00000E+00
 1.00000E+00    0.00000E+00
 1.44696E+00    0.00000E+00
 1.50000E+00    0.00000E+00
 1.52560E+00    0.00000E+00
 1.77660E+00    0.00000E+00
 1.89028E+00    0.00000E+00
 1.90023E+00    0.00000E+00
 1.98330E+00    0.00000E+00
 2.00000E+00    0.00000E+00
 2.03831E+00    0.00000E+00
 2.05852E+00    0.00000E+00
 2.12640E+00    0.00000E+00
 2.22932E+00    0.00000E+00
 2.23176E+00    0.00000E+00
 2.24676E+00    0.00000E+00
 2.26308E+00    0.00000E+00
 2.35748E+00    0.00000E+00
 2.35805E+00    0.00000E+00
 2.36775E+00    0.00000E+00
 2.37421E+00    0.00000E+00
 2.38431E+00    0.00000E+00
 2.50000E+00    0.00000E+00
 3.00000E+00    0.00000E+00
 3.50000E+00    0.00000E+00
 4.00000E+00    0.00000E+00
 4.50000E+00    0.00000E+00
 5.00000E+00    0.00000E+00
 5.50000E+00    0.00000E+00
 6.00000E+00    0.00000E+00
 6.50000E+00    0.00000E+00
 7.00000E+00    0.00000E+00
 7.50000E+00    0.00000E+00
 8.00000E+00    0.00000E+00
 8.50000E+00    0.00000E+00
 9.00000E+00    0.00000E+00
 9.50000E+00    0.00000E+00
 1.00000E+01    0.00000E+00
 1.10000E+01    9.45300E-06
 1.20000E+01    6.09100E-05
 1.30000E+01    5.56800E-02
 1.40000E+01    2.57400E-01
 1.45000E+01    4.14300E-01
 1.50000E+01    8.74500E-01
 1.60000E+01    2.20000E+00
 1.70000E+01    4.30000E+00
 1.80000E+01    7.02300E+00
 1.90000E+01    1.01704E+01
 2.00000E+01    1.35744E+01
