# n + B  10 : (n,tot)   
# jendl.ad   S.CHIBA                           EVAL-MAR87
# uncertainties: n
# # energies =    69
#   E(MeV)       xs(mb) 
 1.00000E-10    2.68071E+07
 5.00000E-09    7.29913E+06
 1.00000E-08    5.52778E+06
 1.50000E-08    4.64438E+06
 2.00000E-08    4.08591E+06
 2.50000E-08    3.69145E+06
 3.00000E-08    3.39366E+06
 3.50000E-08    3.11980E+06
 4.20000E-08    2.85346E+06
 5.00000E-08    2.63202E+06
 5.80000E-08    2.44619E+06
 6.70000E-08    2.25741E+06
 8.00000E-08    2.04267E+06
 1.00000E-07    1.77689E+06
 1.40000E-07    1.53292E+06
 1.80000E-07    1.36857E+06
 2.20000E-07    1.26013E+06
 2.50000E-07    1.18624E+06
 2.80000E-07    1.13322E+06
 3.00000E-07    1.09596E+06
 3.20000E-07    1.05446E+06
 3.50000E-07    9.97310E+05
 4.00000E-07    9.12365E+05
 5.00000E-07    8.15901E+05
 6.25000E-07    7.29903E+05
 7.80000E-07    6.75824E+05
 8.50000E-07    6.50064E+05
 9.10000E-07    6.32019E+05
 9.50000E-07    6.21681E+05
 9.72000E-07    6.14402E+05
 9.96000E-07    6.06940E+05
 1.02000E-06    5.99696E+05
 1.04500E-06    5.92463E+05
 1.07100E-06    5.85302E+05
 1.09700E-06    5.78420E+05
 1.12300E-06    5.71650E+05
 1.15000E-06    5.51123E+05
 1.30000E-06    5.15650E+05
 1.50000E-06    4.57813E+05
 2.10000E-06    3.98580E+05
 2.60000E-06    3.55965E+05
 3.30000E-06    3.19568E+05
 4.00000E-06    2.44785E+05
 9.87700E-06    1.72005E+05
 1.59680E-05    1.32960E+05
 2.77000E-05    1.00902E+05
 4.80520E-05    7.84163E+04
 7.55014E-05    5.92182E+04
 1.48728E-04    3.98735E+04
 3.67262E-04    2.52560E+04
 9.06898E-04    1.78011E+04
 1.42510E-03    1.41290E+04
 2.23945E-03    1.12135E+04
 3.51910E-03    8.89974E+03
 5.53000E-03    6.98056E+03
 9.11800E-03    5.42237E+03
 1.50300E-02    4.25787E+03
 2.47800E-02    3.25026E+03
 4.08500E-02    2.59377E+03
 6.73400E-02    2.11410E+03
 1.11000E-01    1.66541E+03
 1.83000E-01    1.23495E+03
 3.02000E-01    8.87555E+02
 5.00000E-01    5.05682E+02
 8.21000E-01    2.52035E+02
 1.35300E+00    4.60182E+02
 2.23100E+00    3.22839E+02
 3.67900E+00    3.76812E+02
 6.06500E+00    2.94076E+02
