# n + B  10 : (n,d)     
# jendl.ad   S.CHIBA                           EVAL-MAR87
# uncertainties: n
# # energies =    20
#   E(MeV)       xs(mb) 
 4.80140E+00    0.00000E+00
 5.00000E+00    5.80900E-02
 6.06700E+00    2.29000E+01
 6.49000E+00    3.18000E+01
 6.91300E+00    3.49000E+01
 7.47620E+00    3.81477E+01
 7.62400E+00    3.95147E+01
 8.00000E+00    4.08242E+01
 9.00000E+00    4.99110E+01
 1.00000E+01    5.40580E+01
 1.10000E+01    5.35066E+01
 1.20000E+01    5.14365E+01
 1.30000E+01    4.93596E+01
 1.40000E+01    4.76277E+01
 1.50000E+01    4.70054E+01
 1.60000E+01    4.56300E+01
 1.70000E+01    4.36643E+01
 1.80000E+01    4.13902E+01
 1.90000E+01    3.90592E+01
 2.00000E+01    3.68297E+01
