# n + Pm147 : (n,tot)   
# endfb8.0   JNDC FP Nuclear Data W.G.         EVAL-MAR90
# uncertainties: n
# # energies =   171
#   E(MeV)       xs(mb) 
 1.00000E-11    1.86117E+06
 1.00000E-07    7.66402E+04
 4.13990E-07    5.29958E+04
 5.31580E-07    4.80030E+04
 6.82560E-07    4.38543E+04
 8.76420E-07    4.06804E+04
 1.12540E-06    3.87533E+04
 1.44500E-06    3.86276E+04
 1.85540E-06    4.16476E+04
 2.37240E-06    5.20961E+04
 3.05900E-06    9.04841E+04
 3.92790E-06    5.57247E+05
 5.04350E-06    9.36301E+06
 6.47600E-06    1.04807E+06
 8.31530E-06    3.26050E+04
 1.06770E-05    1.54277E+04
 1.37100E-05    5.37215E+04
 1.76030E-05    9.83849E+04
 2.26030E-05    1.20825E+04
 2.92030E-05    2.56555E+04
 3.72670E-05    3.29104E+05
 4.78510E-05    8.46746E+04
 6.14420E-05    1.23994E+05
 7.88930E-05    1.26178E+05
 1.01300E-04    1.18769E+05
 1.30070E-04    1.07912E+05
 1.67020E-04    9.54681E+04
 2.14450E-04    8.44742E+04
 2.75360E-04    7.47802E+04
 3.53580E-04    6.62298E+04
 4.54000E-04    5.86748E+04
 5.82950E-04    5.20185E+04
 7.48520E-04    4.61394E+04
 9.61120E-04    4.09525E+04
 1.23410E-03    3.63741E+04
 1.58460E-03    3.23429E+04
 2.03470E-03    2.97874E+04
 2.24870E-03    2.84328E+04
 2.48520E-03    2.74588E+04
 2.61260E-03    2.68311E+04
 2.74650E-03    2.59206E+04
 3.03540E-03    2.47581E+04
 3.35460E-03    2.36553E+04
 3.70740E-03    2.23480E+04
 4.30740E-03    2.04267E+04
 5.53080E-03    1.82736E+04
 7.10170E-03    1.63768E+04
 9.11880E-03    1.47038E+04
 1.17090E-02    1.32299E+04
 1.50340E-02    1.19345E+04
 1.93050E-02    1.10587E+04
 2.18750E-02    1.06265E+04
 2.35790E-02    1.04179E+04
 2.41760E-02    1.03171E+04
 2.47880E-02    1.01666E+04
 2.60580E-02    9.99870E+03
 2.70000E-02    9.82846E+03
 2.85000E-02    9.52488E+03
 3.18280E-02    9.19415E+03
 3.43070E-02    8.77538E+03
 4.08680E-02    8.30418E+03
 4.63090E-02    7.93964E+03
 5.24750E-02    7.66412E+03
 5.65620E-02    7.33934E+03
 6.73790E-02    7.04177E+03
 7.20000E-02    6.84947E+03
 7.95000E-02    6.67099E+03
 8.25000E-02    6.51731E+03
 8.65170E-02    6.29569E+03
 9.80370E-02    6.18319E+03
 1.11090E-01    6.04736E+03
 1.16790E-01    5.96833E+03
 1.22770E-01    5.89262E+03
 1.29070E-01    5.81299E+03
 1.35690E-01    5.73665E+03
 1.42640E-01    5.66206E+03
 1.49960E-01    5.59817E+03
 1.57640E-01    5.55022E+03
 1.65730E-01    5.49989E+03
 1.74220E-01    5.44708E+03
 1.83160E-01    5.39793E+03
 1.92550E-01    5.35030E+03
 2.02420E-01    5.31663E+03
 2.12800E-01    5.29268E+03
 2.23710E-01    5.26751E+03
 2.35180E-01    5.24105E+03
 2.47240E-01    5.21595E+03
 2.73240E-01    5.20910E+03
 2.87250E-01    5.20584E+03
 2.94520E-01    5.20431E+03
 2.97200E-01    5.20371E+03
 2.98500E-01    5.20400E+03
 3.01970E-01    5.22997E+03
 3.33730E-01    5.28110E+03
 3.68830E-01    5.32277E+03
 3.87740E-01    5.35258E+03
 4.07620E-01    5.41828E+03
 4.50490E-01    5.53973E+03
 4.97870E-01    5.64113E+03
 5.23400E-01    5.72263E+03
 5.50230E-01    5.80982E+03
 5.78440E-01    5.90149E+03
 6.08100E-01    5.99787E+03
 6.39280E-01    6.09892E+03
 6.72060E-01    6.19946E+03
 7.06510E-01    6.30289E+03
 7.42740E-01    6.41163E+03
 7.80820E-01    6.52460E+03
 8.20850E-01    6.62912E+03
 8.62940E-01    6.73513E+03
 9.07180E-01    6.84578E+03
 9.61640E-01    6.94056E+03
 1.00260E+00    7.04890E+03
 1.10800E+00    7.15043E+03
 1.16480E+00    7.22277E+03
 1.22460E+00    7.28916E+03
 1.28730E+00    7.31704E+03
 1.35340E+00    7.34150E+03
 1.42270E+00    7.36720E+03
 1.49570E+00    7.37476E+03
 1.57240E+00    7.35798E+03
 1.65300E+00    7.34027E+03
 1.73770E+00    7.31369E+03
 1.82680E+00    7.26372E+03
 1.92050E+00    7.20986E+03
 2.01900E+00    7.12952E+03
 2.12250E+00    7.02508E+03
 2.23130E+00    6.93410E+03
 2.30690E+00    6.88030E+03
 2.34570E+00    6.85625E+03
 2.36530E+00    6.84001E+03
 2.38520E+00    6.79881E+03
 2.46600E+00    6.71391E+03
 2.59240E+00    6.60983E+03
 2.72530E+00    6.51350E+03
 2.86500E+00    6.41400E+03
 3.01190E+00    6.28202E+03
 3.16640E+00    6.12289E+03
 3.32870E+00    5.89429E+03
 3.67880E+00    5.60054E+03
 4.06570E+00    5.30282E+03
 4.49330E+00    5.08229E+03
 4.72370E+00    4.93979E+03
 4.96590E+00    4.82502E+03
 5.22050E+00    4.75159E+03
 5.48810E+00    4.67523E+03
 5.76950E+00    4.60199E+03
 6.06530E+00    4.56464E+03
 6.37630E+00    4.54614E+03
 6.59240E+00    4.53467E+03
 6.70320E+00    4.51930E+03
 7.04690E+00    4.52661E+03
 7.40820E+00    4.55382E+03
 7.78800E+00    4.58243E+03
 8.18730E+00    4.61309E+03
 8.60710E+00    4.65576E+03
 9.04840E+00    4.70466E+03
 9.51230E+00    4.76574E+03
 1.00000E+01    4.83630E+03
 1.05130E+01    4.90986E+03
 1.10520E+01    4.98992E+03
 1.16180E+01    5.07673E+03
 1.22140E+01    5.16405E+03
 1.28400E+01    5.25557E+03
 1.34990E+01    5.33088E+03
 1.38400E+01    5.37664E+03
 1.41910E+01    5.39502E+03
 1.45500E+01    5.40950E+03
 1.49180E+01    5.43793E+03
 1.56830E+01    5.48345E+03
 1.64870E+01    5.52661E+03
