# n + Rb 87 : (n,xn)    
# jendl4.0   K.Shibata, A.Ichihara, S.Kunieda  EVAL-AUG09
# 
# # energies =    52
#   E(MeV)        xs(mb) 
 4.07259E-01    0.00000E+00
 5.00000E-01    3.26000E+02
 6.00000E-01    5.62400E+02
 7.00000E-01    7.00400E+02
 8.00000E-01    7.75100E+02
 8.55252E-01    7.91178E+02
 9.00000E-01    8.37880E+02
 1.00000E+00    9.01900E+02
 1.36504E+00    9.17159E+02
 1.40595E+00    9.47447E+02
 1.47998E+00    1.05252E+03
 1.50000E+00    1.08799E+03
 1.59632E+00    1.09228E+03
 1.59642E+00    1.09231E+03
 1.76078E+00    1.19671E+03
 1.91497E+00    1.37000E+03
 1.97263E+00    1.44377E+03
 2.00000E+00    1.48669E+03
 2.03636E+00    1.49689E+03
 2.31051E+00    1.65773E+03
 2.40601E+00    1.73284E+03
 2.40661E+00    1.73343E+03
 2.42482E+00    1.75403E+03
 2.44248E+00    1.77546E+03
 2.45260E+00    1.78936E+03
 2.50000E+00    1.85496E+03
 3.00000E+00    1.96584E+03
 3.50000E+00    1.98731E+03
 4.00000E+00    1.94069E+03
 4.50000E+00    1.88152E+03
 5.00000E+00    1.82660E+03
 5.50000E+00    1.79021E+03
 6.00000E+00    1.76937E+03
 6.50000E+00    1.76167E+03
 7.00000E+00    1.76055E+03
 7.50000E+00    1.76228E+03
 8.00000E+00    1.76394E+03
 8.50000E+00    1.76332E+03
 9.00000E+00    1.76131E+03
 9.50000E+00    1.75767E+03
 1.00000E+01    1.75348E+03
 1.10000E+01    1.92535E+03
 1.20000E+01    2.31619E+03
 1.30000E+01    2.59181E+03
 1.40000E+01    2.75891E+03
 1.45000E+01    2.81187E+03
 1.50000E+01    2.84269E+03
 1.60000E+01    2.87350E+03
 1.70000E+01    2.88307E+03
 1.80000E+01    2.88649E+03
 1.90000E+01    2.88643E+03
 2.00000E+01    2.89237E+03
