# n + Rb 87 : (n,el)    
# jendl4.0   K.Shibata, A.Ichihara, S.Kunieda  EVAL-AUG09
# uncertainties: n
# # energies =   171
#   E(MeV)       xs(mb) 
 1.00000E-11    7.98790E+03
 1.00000E-07    4.36255E+03
 4.13990E-07    4.36026E+03
 5.31580E-07    4.35967E+03
 6.82560E-07    4.35949E+03
 8.76420E-07    4.35927E+03
 1.12540E-06    4.35899E+03
 1.44500E-06    4.35863E+03
 1.85540E-06    4.35817E+03
 2.37240E-06    4.35757E+03
 3.05900E-06    4.35680E+03
 3.92790E-06    4.35582E+03
 5.04350E-06    4.35456E+03
 6.47600E-06    4.35295E+03
 8.31530E-06    4.35081E+03
 1.06770E-05    4.34796E+03
 1.37100E-05    4.34431E+03
 1.76030E-05    4.33961E+03
 2.26030E-05    4.33350E+03
 2.92030E-05    4.32575E+03
 3.72670E-05    4.31592E+03
 4.78510E-05    4.30317E+03
 6.14420E-05    4.28679E+03
 7.88930E-05    4.26453E+03
 1.01300E-04    4.22638E+03
 1.30070E-04    4.17217E+03
 1.67020E-04    4.07584E+03
 2.14450E-04    4.33388E+03
 2.75360E-04    3.11947E+03
 3.53580E-04    5.92996E+04
 4.54000E-04    5.27851E+03
 5.82950E-04    4.80616E+03
 7.48520E-04    4.61716E+03
 9.61120E-04    4.46875E+03
 1.23410E-03    4.32383E+03
 1.58460E-03    4.13414E+03
 2.03470E-03    3.95496E+03
 2.24870E-03    3.81359E+03
 2.48520E-03    3.67926E+03
 2.61260E-03    3.56737E+03
 2.74650E-03    3.34392E+03
 3.03540E-03    2.86394E+03
 3.35460E-03    1.74116E+03
 3.70740E-03    3.05882E+04
 4.30740E-03    1.77888E+04
 5.53080E-03    3.77716E+03
 7.10170E-03    3.81874E+04
 9.11880E-03    1.35883E+04
 1.17090E-02    8.84893E+03
 1.50340E-02    8.80270E+03
 1.93050E-02    8.62134E+03
 2.18750E-02    8.56985E+03
 2.35790E-02    8.54408E+03
 2.41760E-02    8.53065E+03
 2.47880E-02    8.50983E+03
 2.60580E-02    8.48520E+03
 2.70000E-02    8.45816E+03
 2.85000E-02    8.41049E+03
 3.18280E-02    8.37444E+03
 3.43070E-02    8.32586E+03
 4.08680E-02    8.27595E+03
 4.63090E-02    8.24096E+03
 5.24750E-02    8.21909E+03
 5.65620E-02    8.19574E+03
 6.73790E-02    8.17782E+03
 7.20000E-02    8.16896E+03
 7.95000E-02    8.16243E+03
 8.25000E-02    8.15998E+03
 8.65170E-02    8.15546E+03
 9.80370E-02    8.15114E+03
 1.11090E-01    8.14898E+03
 1.16790E-01    8.14767E+03
 1.22770E-01    8.14630E+03
 1.29070E-01    8.14485E+03
 1.35690E-01    8.14333E+03
 1.42640E-01    8.14173E+03
 1.49960E-01    8.14005E+03
 1.57640E-01    8.13828E+03
 1.65730E-01    8.13642E+03
 1.74220E-01    8.13447E+03
 1.83160E-01    8.13242E+03
 1.92550E-01    8.12995E+03
 2.02420E-01    8.12002E+03
 2.12800E-01    8.10642E+03
 2.23710E-01    8.09213E+03
 2.35180E-01    8.07710E+03
 2.47240E-01    8.05300E+03
 2.73240E-01    8.02724E+03
 2.87250E-01    8.01359E+03
 2.94520E-01    8.00722E+03
 2.97200E-01    8.00467E+03
 2.98500E-01    8.00100E+03
 3.01970E-01    7.95966E+03
 3.33730E-01    7.87937E+03
 3.68830E-01    7.81395E+03
 3.87740E-01    7.76628E+03
 4.07620E-01    7.59614E+03
 4.50490E-01    7.29614E+03
 4.97870E-01    7.05840E+03
 5.23400E-01    6.90081E+03
 5.50230E-01    6.73522E+03
 5.78440E-01    6.56205E+03
 6.08100E-01    6.39839E+03
 6.39280E-01    6.23353E+03
 6.72060E-01    6.06069E+03
 7.06510E-01    5.89643E+03
 7.42740E-01    5.73278E+03
 7.80820E-01    5.56459E+03
 8.20850E-01    5.40926E+03
 8.62940E-01    5.22866E+03
 9.07180E-01    5.03370E+03
 9.61640E-01    4.85540E+03
 1.00260E+00    4.66960E+03
 1.10800E+00    4.49176E+03
 1.16480E+00    4.36495E+03
 1.22460E+00    4.23171E+03
 1.28730E+00    4.09164E+03
 1.35340E+00    3.92637E+03
 1.42270E+00    3.68581E+03
 1.49570E+00    3.50106E+03
 1.57240E+00    3.40913E+03
 1.65300E+00    3.27845E+03
 1.73770E+00    3.12669E+03
 1.82680E+00    2.93554E+03
 1.92050E+00    2.72734E+03
 2.01900E+00    2.59329E+03
 2.12250E+00    2.49183E+03
 2.23130E+00    2.40305E+03
 2.30690E+00    2.34478E+03
 2.34570E+00    2.31086E+03
 2.36530E+00    2.28792E+03
 2.38520E+00    2.22024E+03
 2.46600E+00    2.09218E+03
 2.59240E+00    2.04237E+03
 2.72530E+00    1.99700E+03
 2.86500E+00    1.94941E+03
 3.01190E+00    1.92185E+03
 3.16640E+00    1.90980E+03
 3.32870E+00    1.89757E+03
 3.67880E+00    1.92184E+03
 4.06570E+00    1.96990E+03
 4.49330E+00    2.01751E+03
 4.72370E+00    2.05545E+03
 4.96590E+00    2.09557E+03
 5.22050E+00    2.13775E+03
 5.48810E+00    2.18169E+03
 5.76950E+00    2.22403E+03
 6.06530E+00    2.26685E+03
 6.37630E+00    2.30077E+03
 6.59240E+00    2.32101E+03
 6.70320E+00    2.34489E+03
 7.04690E+00    2.37851E+03
 7.40820E+00    2.40703E+03
 7.78800E+00    2.42960E+03
 8.18730E+00    2.44503E+03
 8.60710E+00    2.45404E+03
 9.04840E+00    2.45131E+03
 9.51230E+00    2.44075E+03
 1.00000E+01    2.42158E+03
 1.05130E+01    2.38653E+03
 1.10520E+01    2.34250E+03
 1.16180E+01    2.29101E+03
 1.22140E+01    2.22953E+03
 1.28400E+01    2.16113E+03
 1.34990E+01    2.10473E+03
 1.38400E+01    2.06567E+03
 1.41910E+01    2.02519E+03
 1.45500E+01    1.98342E+03
 1.49180E+01    1.91925E+03
 1.56830E+01    1.83198E+03
 1.64870E+01    1.74446E+03
