# n + Rb 87 : (n,xt)    
# jendl4.0   K.Shibata, A.Ichihara, S.Kunieda  EVAL-AUG09
# 
# # energies =    52
#   E(MeV)        xs(mb) 
 4.07259E-01    0.00000E+00
 5.00000E-01    0.00000E+00
 6.00000E-01    0.00000E+00
 7.00000E-01    0.00000E+00
 8.00000E-01    0.00000E+00
 8.55252E-01    0.00000E+00
 9.00000E-01    0.00000E+00
 1.00000E+00    0.00000E+00
 1.36504E+00    0.00000E+00
 1.40595E+00    0.00000E+00
 1.47998E+00    0.00000E+00
 1.50000E+00    0.00000E+00
 1.59632E+00    0.00000E+00
 1.59642E+00    0.00000E+00
 1.76078E+00    0.00000E+00
 1.91497E+00    0.00000E+00
 1.97263E+00    0.00000E+00
 2.00000E+00    0.00000E+00
 2.03636E+00    0.00000E+00
 2.31051E+00    0.00000E+00
 2.40601E+00    0.00000E+00
 2.40661E+00    0.00000E+00
 2.42482E+00    0.00000E+00
 2.44248E+00    0.00000E+00
 2.45260E+00    0.00000E+00
 2.50000E+00    0.00000E+00
 3.00000E+00    0.00000E+00
 3.50000E+00    0.00000E+00
 4.00000E+00    0.00000E+00
 4.50000E+00    0.00000E+00
 5.00000E+00    0.00000E+00
 5.50000E+00    0.00000E+00
 6.00000E+00    0.00000E+00
 6.50000E+00    0.00000E+00
 7.00000E+00    0.00000E+00
 7.50000E+00    0.00000E+00
 8.00000E+00    0.00000E+00
 8.50000E+00    0.00000E+00
 9.00000E+00    0.00000E+00
 9.50000E+00    0.00000E+00
 1.00000E+01    0.00000E+00
 1.10000E+01    0.00000E+00
 1.20000E+01    0.00000E+00
 1.30000E+01    6.01100E-06
 1.40000E+01    1.00100E-04
 1.45000E+01    2.27700E-04
 1.50000E+01    4.07700E-04
 1.60000E+01    2.22200E-02
 1.70000E+01    7.20700E-02
 1.80000E+01    1.86600E-01
 1.90000E+01    3.91700E-01
 2.00000E+01    6.88700E-01
