# n + Am241 : (n,n'19)  
# endfb8.0   T.Kawano,M.B.Chadwick             EVAL-Oct10
# uncertainties: n
# # energies =    78
#   E(MeV)       xs(mb) 
 5.27870E-01    0.00000E+00
 6.00000E-01    1.19670E-03
 7.00000E-01    7.04958E-03
 8.00000E-01    2.21472E-02
 9.00000E-01    5.16025E-02
 1.00000E+00    9.88827E-02
 1.10000E+00    1.63288E-01
 1.20000E+00    2.38194E-01
 1.30000E+00    3.20079E-01
 1.40000E+00    4.09728E-01
 1.50000E+00    5.11280E-01
 1.60000E+00    6.21751E-01
 1.70000E+00    7.22617E-01
 1.80000E+00    7.89045E-01
 1.90000E+00    8.12402E-01
 2.00000E+00    8.01135E-01
 2.10000E+00    7.58732E-01
 2.20000E+00    7.11365E-01
 2.30000E+00    6.54513E-01
 2.40000E+00    5.93485E-01
 2.50000E+00    5.32031E-01
 2.60000E+00    4.74407E-01
 2.70000E+00    4.18601E-01
 2.80000E+00    3.67122E-01
 2.90000E+00    3.20298E-01
 3.00000E+00    2.78177E-01
 3.10000E+00    2.41220E-01
 3.20000E+00    2.07556E-01
 3.30000E+00    1.77766E-01
 3.40000E+00    1.51671E-01
 3.50000E+00    1.28945E-01
 3.60000E+00    1.09218E-01
 3.80000E+00    7.76540E-02
 4.00000E+00    5.46114E-02
 4.50000E+00    2.29064E-02
 5.00000E+00    8.88011E-03
 5.50000E+00    3.57062E-03
 6.00000E+00    1.53624E-03
 6.50000E+00    7.28633E-04
 6.75000E+00    3.96546E-04
 7.00000E+00    2.63766E-04
 7.25000E+00    1.75897E-04
 7.50000E+00    1.17479E-04
 8.00000E+00    5.24882E-05
 8.50000E+00    2.34751E-05
 9.00000E+00    1.05322E-05
 9.50000E+00    4.75823E-06
 1.00000E+01    2.17226E-06
 1.05000E+01    1.00472E-06
 1.10000E+01    4.52900E-07
 1.15000E+01    2.15210E-07
 1.20000E+01    1.03750E-07
 1.25000E+01    5.06940E-08
 1.30000E+01    2.50950E-08
 1.35000E+01    1.25790E-08
 1.40000E+01    6.38030E-09
 1.45000E+01    3.27400E-09
 1.50000E+01    1.69950E-09
 1.55000E+01    8.91560E-10
 1.60000E+01    4.70350E-10
 1.65000E+01    2.51660E-10
 1.70000E+01    1.35850E-10
 1.75000E+01    7.38350E-11
 1.80000E+01    4.01880E-11
 1.85000E+01    2.17480E-11
 1.90000E+01    1.17380E-11
 1.95000E+01    6.34650E-12
 2.00000E+01    3.44260E-12
 2.10000E+01    1.02720E-12
 2.20000E+01    3.12660E-13
 2.30000E+01    9.71170E-14
 2.40000E+01    3.07810E-14
 2.50000E+01    9.94410E-15
 2.60000E+01    3.27340E-15
 2.70000E+01    1.19090E-15
 2.80000E+01    4.07070E-16
 2.90000E+01    1.41390E-16
 3.00000E+01    4.98450E-17
