# n + Am241 : (n,n'27)  
# endfb8.0   T.Kawano,M.B.Chadwick             EVAL-Oct10
# uncertainties: n
# # energies =    77
#   E(MeV)       xs(mb) 
 6.47699E-01    0.00000E+00
 7.00000E-01    1.57658E-06
 8.00000E-01    3.59709E-05
 9.00000E-01    2.34370E-04
 1.00000E+00    8.83153E-04
 1.10000E+00    2.39854E-03
 1.20000E+00    5.21277E-03
 1.30000E+00    9.79994E-03
 1.40000E+00    1.67518E-02
 1.50000E+00    2.69028E-02
 1.60000E+00    4.09678E-02
 1.70000E+00    5.85847E-02
 1.80000E+00    7.78945E-02
 1.90000E+00    9.67640E-02
 2.00000E+00    1.13799E-01
 2.10000E+00    1.26838E-01
 2.20000E+00    1.37706E-01
 2.30000E+00    1.44458E-01
 2.40000E+00    1.47058E-01
 2.50000E+00    1.45823E-01
 2.60000E+00    1.41855E-01
 2.70000E+00    1.34849E-01
 2.80000E+00    1.26004E-01
 2.90000E+00    1.16005E-01
 3.00000E+00    1.05452E-01
 3.10000E+00    9.51935E-02
 3.20000E+00    8.47020E-02
 3.30000E+00    7.46983E-02
 3.40000E+00    6.54048E-02
 3.50000E+00    5.69142E-02
 3.60000E+00    4.92422E-02
 3.80000E+00    3.63638E-02
 4.00000E+00    2.64402E-02
 4.50000E+00    1.18819E-02
 5.00000E+00    4.89103E-03
 5.50000E+00    2.09413E-03
 6.00000E+00    9.70477E-04
 6.50000E+00    5.03270E-04
 6.75000E+00    2.53923E-04
 7.00000E+00    1.72427E-04
 7.25000E+00    1.17247E-04
 7.50000E+00    7.97363E-05
 8.00000E+00    3.67620E-05
 8.50000E+00    1.68606E-05
 9.00000E+00    7.71823E-06
 9.50000E+00    3.54568E-06
 1.00000E+01    1.64261E-06
 1.05000E+01    7.70100E-07
 1.10000E+01    3.51650E-07
 1.15000E+01    1.69210E-07
 1.20000E+01    8.25660E-08
 1.25000E+01    4.08180E-08
 1.30000E+01    2.04320E-08
 1.35000E+01    1.03500E-08
 1.40000E+01    5.30210E-09
 1.45000E+01    2.74610E-09
 1.50000E+01    1.43800E-09
 1.55000E+01    7.60550E-10
 1.60000E+01    4.04330E-10
 1.65000E+01    2.17910E-10
 1.70000E+01    1.18450E-10
 1.75000E+01    6.47990E-11
 1.80000E+01    3.54900E-11
 1.85000E+01    1.93200E-11
 1.90000E+01    1.04870E-11
 1.95000E+01    5.70060E-12
 2.00000E+01    3.10820E-12
 2.10000E+01    9.36320E-13
 2.20000E+01    2.87450E-13
 2.30000E+01    8.99800E-14
 2.40000E+01    2.87190E-14
 2.50000E+01    9.33780E-15
 2.60000E+01    3.09210E-15
 2.70000E+01    1.13120E-15
 2.80000E+01    3.88660E-16
 2.90000E+01    1.35650E-16
 3.00000E+01    4.80410E-17
