# n + Am241 : (n,n'10)  
# endfb8.0   T.Kawano,M.B.Chadwick             EVAL-Oct10
# uncertainties: n
# # energies =    82
#   E(MeV)       xs(mb) 
 3.21138E-01    0.00000E+00
 3.50000E-01    2.71933E+00
 4.00000E-01    9.01324E+00
 4.50000E-01    1.53344E+01
 5.00000E-01    2.08147E+01
 6.00000E-01    2.80411E+01
 7.00000E-01    2.92843E+01
 8.00000E-01    2.54514E+01
 9.00000E-01    2.03095E+01
 1.00000E+00    1.64073E+01
 1.10000E+00    1.36227E+01
 1.20000E+00    1.16396E+01
 1.30000E+00    1.05990E+01
 1.40000E+00    1.05898E+01
 1.50000E+00    1.12615E+01
 1.60000E+00    1.18071E+01
 1.70000E+00    1.16445E+01
 1.80000E+00    1.07738E+01
 1.90000E+00    9.54323E+00
 2.00000E+00    8.28134E+00
 2.10000E+00    7.04859E+00
 2.20000E+00    6.06001E+00
 2.30000E+00    5.18216E+00
 2.40000E+00    4.40881E+00
 2.50000E+00    3.73194E+00
 2.60000E+00    3.15573E+00
 2.70000E+00    2.64856E+00
 2.80000E+00    2.21456E+00
 2.90000E+00    1.84573E+00
 3.00000E+00    1.53423E+00
 3.10000E+00    1.27447E+00
 3.20000E+00    1.05338E+00
 3.30000E+00    8.68159E-01
 3.40000E+00    7.14105E-01
 3.50000E+00    5.86390E-01
 3.60000E+00    4.80634E-01
 3.80000E+00    3.21839E-01
 4.00000E+00    2.14741E-01
 4.50000E+00    8.13005E-02
 5.00000E+00    2.90405E-02
 5.50000E+00    1.07060E-02
 6.00000E+00    4.11780E-03
 6.50000E+00    1.68326E-03
 6.75000E+00    9.75127E-04
 7.00000E+00    6.19000E-04
 7.25000E+00    3.94435E-04
 7.50000E+00    2.52281E-04
 8.00000E+00    1.04324E-04
 8.50000E+00    4.37666E-05
 9.00000E+00    1.86364E-05
 9.50000E+00    8.06038E-06
 1.00000E+01    3.54285E-06
 1.05000E+01    1.58309E-06
 1.10000E+01    6.90820E-07
 1.15000E+01    3.18220E-07
 1.20000E+01    1.48880E-07
 1.25000E+01    7.06870E-08
 1.30000E+01    3.40460E-08
 1.35000E+01    1.66270E-08
 1.40000E+01    8.22820E-09
 1.45000E+01    4.12480E-09
 1.50000E+01    2.09430E-09
 1.55000E+01    1.07590E-09
 1.60000E+01    5.56420E-10
 1.65000E+01    2.92130E-10
 1.70000E+01    1.54890E-10
 1.75000E+01    8.27580E-11
 1.80000E+01    4.43200E-11
 1.85000E+01    2.36150E-11
 1.90000E+01    1.25590E-11
 1.95000E+01    6.69500E-12
 2.00000E+01    3.58290E-12
 2.10000E+01    1.04230E-12
 2.20000E+01    3.10010E-13
 2.30000E+01    9.42910E-14
 2.40000E+01    2.93220E-14
 2.50000E+01    9.31080E-15
 2.60000E+01    3.01680E-15
 2.70000E+01    1.08150E-15
 2.80000E+01    3.64640E-16
 2.90000E+01    1.25030E-16
 3.00000E+01    4.35570E-17
