# n + Am241 : (n,n'09)  
# endfb8.0   T.Kawano,M.B.Chadwick             EVAL-Oct10
# uncertainties: n
# # energies =    83
#   E(MeV)       xs(mb) 
 2.74343E-01    0.00000E+00
 3.00000E-01    1.74841E+01
 3.50000E-01    3.97317E+01
 4.00000E-01    5.75555E+01
 4.50000E-01    7.13015E+01
 5.00000E-01    8.06400E+01
 6.00000E-01    8.66335E+01
 7.00000E-01    7.82428E+01
 8.00000E-01    6.05448E+01
 9.00000E-01    4.41071E+01
 1.00000E+00    3.29103E+01
 1.10000E+00    2.54034E+01
 1.20000E+00    2.04053E+01
 1.30000E+00    1.76685E+01
 1.40000E+00    1.68738E+01
 1.50000E+00    1.71105E+01
 1.60000E+00    1.71370E+01
 1.70000E+00    1.62869E+01
 1.80000E+00    1.46399E+01
 1.90000E+00    1.26672E+01
 2.00000E+00    1.07812E+01
 2.10000E+00    9.02702E+00
 2.20000E+00    7.65675E+00
 2.30000E+00    6.47182E+00
 2.40000E+00    5.45006E+00
 2.50000E+00    4.57143E+00
 2.60000E+00    3.83367E+00
 2.70000E+00    3.19303E+00
 2.80000E+00    2.65080E+00
 2.90000E+00    2.19446E+00
 3.00000E+00    1.81243E+00
 3.10000E+00    1.49620E+00
 3.20000E+00    1.22932E+00
 3.30000E+00    1.00736E+00
 3.40000E+00    8.23997E-01
 3.50000E+00    6.72978E-01
 3.60000E+00    5.48719E-01
 3.80000E+00    3.63774E-01
 4.00000E+00    2.40465E-01
 4.50000E+00    8.92147E-02
 5.00000E+00    3.13239E-02
 5.50000E+00    1.13698E-02
 6.00000E+00    4.30925E-03
 6.50000E+00    1.73710E-03
 6.75000E+00    1.00520E-03
 7.00000E+00    6.34421E-04
 7.25000E+00    4.02070E-04
 7.50000E+00    2.55863E-04
 8.00000E+00    1.04852E-04
 8.50000E+00    4.36491E-05
 9.00000E+00    1.84611E-05
 9.50000E+00    7.93593E-06
 1.00000E+01    3.46836E-06
 1.05000E+01    1.54144E-06
 1.10000E+01    6.69150E-07
 1.15000E+01    3.06700E-07
 1.20000E+01    1.42800E-07
 1.25000E+01    6.74900E-08
 1.30000E+01    3.23650E-08
 1.35000E+01    1.57410E-08
 1.40000E+01    7.75930E-09
 1.45000E+01    3.87540E-09
 1.50000E+01    1.96090E-09
 1.55000E+01    1.00410E-09
 1.60000E+01    5.17680E-10
 1.65000E+01    2.71000E-10
 1.70000E+01    1.43290E-10
 1.75000E+01    7.63600E-11
 1.80000E+01    4.07930E-11
 1.85000E+01    2.16850E-11
 1.90000E+01    1.15070E-11
 1.95000E+01    6.12110E-12
 2.00000E+01    3.26920E-12
 2.10000E+01    9.47550E-13
 2.20000E+01    2.80890E-13
 2.30000E+01    8.51820E-14
 2.40000E+01    2.64200E-14
 2.50000E+01    8.36950E-15
 2.60000E+01    2.70600E-15
 2.70000E+01    9.68170E-16
 2.80000E+01    3.25820E-16
 2.90000E+01    1.11530E-16
 3.00000E+01    3.87920E-17
