# n + Am241 : (n,n'22)  
# endfb8.0   T.Kawano,M.B.Chadwick             EVAL-Oct10
# uncertainties: n
# # energies =    78
#   E(MeV)       xs(mb) 
 5.52703E-01    0.00000E+00
 6.00000E-01    2.37322E+01
 7.00000E-01    6.45592E+01
 8.00000E-01    8.22560E+01
 9.00000E-01    8.17555E+01
 1.00000E+00    7.08580E+01
 1.10000E+00    5.60284E+01
 1.20000E+00    4.23294E+01
 1.30000E+00    3.22461E+01
 1.40000E+00    2.59281E+01
 1.50000E+00    2.23442E+01
 1.60000E+00    2.02454E+01
 1.70000E+00    1.86107E+01
 1.80000E+00    1.68277E+01
 1.90000E+00    1.48800E+01
 2.00000E+00    1.29930E+01
 2.10000E+00    1.11384E+01
 2.20000E+00    9.63277E+00
 2.30000E+00    8.25622E+00
 2.40000E+00    7.01171E+00
 2.50000E+00    5.90156E+00
 2.60000E+00    4.94479E+00
 2.70000E+00    4.10026E+00
 2.80000E+00    3.37950E+00
 2.90000E+00    2.77190E+00
 3.00000E+00    2.26506E+00
 3.10000E+00    1.84837E+00
 3.20000E+00    1.50082E+00
 3.30000E+00    1.21538E+00
 3.40000E+00    9.82730E-01
 3.50000E+00    7.93727E-01
 3.60000E+00    6.40309E-01
 3.80000E+00    4.16107E-01
 4.00000E+00    2.69993E-01
 4.50000E+00    9.58636E-02
 5.00000E+00    3.22231E-02
 5.50000E+00    1.12209E-02
 6.00000E+00    4.10629E-03
 6.50000E+00    1.61701E-03
 6.75000E+00    9.24118E-04
 7.00000E+00    5.79477E-04
 7.25000E+00    3.65812E-04
 7.50000E+00    2.32356E-04
 8.00000E+00    9.52163E-05
 8.50000E+00    3.96900E-05
 9.00000E+00    1.67876E-05
 9.50000E+00    7.20208E-06
 1.00000E+01    3.13559E-06
 1.05000E+01    1.38661E-06
 1.10000E+01    5.98690E-07
 1.15000E+01    2.72960E-07
 1.20000E+01    1.26480E-07
 1.25000E+01    5.95210E-08
 1.30000E+01    2.84370E-08
 1.35000E+01    1.37860E-08
 1.40000E+01    6.77600E-09
 1.45000E+01    3.37570E-09
 1.50000E+01    1.70410E-09
 1.55000E+01    8.70720E-10
 1.60000E+01    4.48040E-10
 1.65000E+01    2.34120E-10
 1.70000E+01    1.23580E-10
 1.75000E+01    6.57470E-11
 1.80000E+01    3.50670E-11
 1.85000E+01    1.86130E-11
 1.90000E+01    9.86200E-12
 1.95000E+01    5.23840E-12
 2.00000E+01    2.79400E-12
 2.10000E+01    8.07910E-13
 2.20000E+01    2.39040E-13
 2.30000E+01    7.23670E-14
 2.40000E+01    2.24070E-14
 2.50000E+01    7.08560E-15
 2.60000E+01    2.28700E-15
 2.70000E+01    8.17100E-16
 2.80000E+01    2.74680E-16
 2.90000E+01    9.39500E-17
 3.00000E+01    3.26540E-17
