# n + Am241 : (n,n'30)  
# endfb8.0   T.Kawano,M.B.Chadwick             EVAL-Oct10
# uncertainties: n
# # energies =    77
#   E(MeV)       xs(mb) 
 6.73045E-01    0.00000E+00
 7.00000E-01    8.86174E+00
 8.00000E-01    2.18680E+01
 9.00000E-01    2.36111E+01
 1.00000E+00    2.07274E+01
 1.10000E+00    1.69590E+01
 1.20000E+00    1.37547E+01
 1.30000E+00    1.16380E+01
 1.40000E+00    1.04216E+01
 1.50000E+00    9.67484E+00
 1.60000E+00    9.10600E+00
 1.70000E+00    8.51758E+00
 1.80000E+00    7.76905E+00
 1.90000E+00    6.91612E+00
 2.00000E+00    6.08717E+00
 2.10000E+00    5.26726E+00
 2.20000E+00    4.60625E+00
 2.30000E+00    3.99353E+00
 2.40000E+00    3.43002E+00
 2.50000E+00    2.91836E+00
 2.60000E+00    2.47043E+00
 2.70000E+00    2.06835E+00
 2.80000E+00    1.72022E+00
 2.90000E+00    1.42284E+00
 3.00000E+00    1.17177E+00
 3.10000E+00    9.63143E-01
 3.20000E+00    7.87299E-01
 3.30000E+00    6.41544E-01
 3.40000E+00    5.21779E-01
 3.50000E+00    4.23773E-01
 3.60000E+00    3.43689E-01
 3.80000E+00    2.25656E-01
 4.00000E+00    1.47902E-01
 4.50000E+00    5.38881E-02
 5.00000E+00    1.85947E-02
 5.50000E+00    6.64224E-03
 6.00000E+00    2.49490E-03
 6.50000E+00    1.01713E-03
 6.75000E+00    5.54146E-04
 7.00000E+00    3.46512E-04
 7.25000E+00    2.17884E-04
 7.50000E+00    1.37755E-04
 8.00000E+00    5.59035E-05
 8.50000E+00    2.31036E-05
 9.00000E+00    9.70835E-06
 9.50000E+00    4.14598E-06
 1.00000E+01    1.79938E-06
 1.05000E+01    7.93870E-07
 1.10000E+01    3.42080E-07
 1.15000E+01    1.55660E-07
 1.20000E+01    7.19810E-08
 1.25000E+01    3.38020E-08
 1.30000E+01    1.61130E-08
 1.35000E+01    7.79310E-09
 1.40000E+01    3.82120E-09
 1.45000E+01    1.89880E-09
 1.50000E+01    9.56070E-10
 1.55000E+01    4.87240E-10
 1.60000E+01    2.50060E-10
 1.65000E+01    1.30340E-10
 1.70000E+01    6.86320E-11
 1.75000E+01    3.64340E-11
 1.80000E+01    1.93940E-11
 1.85000E+01    1.02750E-11
 1.90000E+01    5.43530E-12
 1.95000E+01    2.88270E-12
 2.00000E+01    1.53540E-12
 2.10000E+01    4.42770E-13
 2.20000E+01    1.30650E-13
 2.30000E+01    3.94550E-14
 2.40000E+01    1.21890E-14
 2.50000E+01    3.84740E-15
 2.60000E+01    1.23980E-15
 2.70000E+01    4.42310E-16
 2.80000E+01    1.48470E-16
 2.90000E+01    5.07040E-17
 3.00000E+01    1.75980E-17
