# n + Am241 : (n,n'36)  
# endfb8.0   T.Kawano,M.B.Chadwick             EVAL-Oct10
# uncertainties: n
# # energies =    75
#   E(MeV)       xs(mb) 
 8.25440E-01    0.00000E+00
 9.00000E-01    1.31403E+01
 1.00000E+00    2.64870E+01
 1.10000E+00    2.94378E+01
 1.20000E+00    2.62942E+01
 1.30000E+00    2.17727E+01
 1.40000E+00    1.81755E+01
 1.50000E+00    1.58755E+01
 1.60000E+00    1.44260E+01
 1.70000E+00    1.32730E+01
 1.80000E+00    1.20648E+01
 1.90000E+00    1.08158E+01
 2.00000E+00    9.66405E+00
 2.10000E+00    8.53893E+00
 2.20000E+00    7.63944E+00
 2.30000E+00    6.77424E+00
 2.40000E+00    5.93721E+00
 2.50000E+00    5.13686E+00
 2.60000E+00    4.40491E+00
 2.70000E+00    3.72206E+00
 2.80000E+00    3.11386E+00
 2.90000E+00    2.58347E+00
 3.00000E+00    2.12921E+00
 3.10000E+00    1.74826E+00
 3.20000E+00    1.42560E+00
 3.30000E+00    1.15777E+00
 3.40000E+00    9.37899E-01
 3.50000E+00    7.58468E-01
 3.60000E+00    6.12436E-01
 3.80000E+00    3.98670E-01
 4.00000E+00    2.59215E-01
 4.50000E+00    9.25924E-02
 5.00000E+00    3.12384E-02
 5.50000E+00    1.08840E-02
 6.00000E+00    3.97716E-03
 6.50000E+00    1.56323E-03
 6.75000E+00    8.90106E-04
 7.00000E+00    5.57676E-04
 7.25000E+00    3.52003E-04
 7.50000E+00    2.23734E-04
 8.00000E+00    9.19927E-05
 8.50000E+00    3.85289E-05
 9.00000E+00    1.63725E-05
 9.50000E+00    7.05068E-06
 1.00000E+01    3.07808E-06
 1.05000E+01    1.36361E-06
 1.10000E+01    5.89390E-07
 1.15000E+01    2.68900E-07
 1.20000E+01    1.24660E-07
 1.25000E+01    5.86940E-08
 1.30000E+01    2.80570E-08
 1.35000E+01    1.36090E-08
 1.40000E+01    6.69260E-09
 1.45000E+01    3.33570E-09
 1.50000E+01    1.68460E-09
 1.55000E+01    8.61070E-10
 1.60000E+01    4.43200E-10
 1.65000E+01    2.31640E-10
 1.70000E+01    1.22300E-10
 1.75000E+01    6.50820E-11
 1.80000E+01    3.47220E-11
 1.85000E+01    1.84350E-11
 1.90000E+01    9.77120E-12
 1.95000E+01    5.19200E-12
 2.00000E+01    2.77010E-12
 2.10000E+01    8.01520E-13
 2.20000E+01    2.37270E-13
 2.30000E+01    7.18610E-14
 2.40000E+01    2.22570E-14
 2.50000E+01    7.03990E-15
 2.60000E+01    2.27270E-15
 2.70000E+01    8.12150E-16
 2.80000E+01    2.73090E-16
 2.90000E+01    9.34320E-17
 3.00000E+01    3.24840E-17
