# n + Am241 : (n,n'18)  
# endfb8.0   T.Kawano,M.B.Chadwick             EVAL-Oct10
# uncertainties: n
# # energies =    78
#   E(MeV)       xs(mb) 
 5.06562E-01    0.00000E+00
 6.00000E-01    6.28164E+01
 7.00000E-01    9.95446E+01
 8.00000E-01    1.06775E+02
 9.00000E-01    9.71942E+01
 1.00000E+00    7.95641E+01
 1.10000E+00    6.03354E+01
 1.20000E+00    4.42315E+01
 1.30000E+00    3.30433E+01
 1.40000E+00    2.62274E+01
 1.50000E+00    2.23653E+01
 1.60000E+00    2.01098E+01
 1.70000E+00    1.84004E+01
 1.80000E+00    1.65648E+01
 1.90000E+00    1.45630E+01
 2.00000E+00    1.26274E+01
 2.10000E+00    1.07417E+01
 2.20000E+00    9.22157E+00
 2.30000E+00    7.84906E+00
 2.40000E+00    6.62378E+00
 2.50000E+00    5.54342E+00
 2.60000E+00    4.62123E+00
 2.70000E+00    3.81468E+00
 2.80000E+00    3.13140E+00
 2.90000E+00    2.55897E+00
 3.00000E+00    2.08401E+00
 3.10000E+00    1.69519E+00
 3.20000E+00    1.37231E+00
 3.30000E+00    1.10808E+00
 3.40000E+00    8.93435E-01
 3.50000E+00    7.19605E-01
 3.60000E+00    5.78936E-01
 3.80000E+00    3.74260E-01
 4.00000E+00    2.41666E-01
 4.50000E+00    8.49879E-02
 5.00000E+00    2.83779E-02
 5.50000E+00    9.83334E-03
 6.00000E+00    3.58776E-03
 6.50000E+00    1.41495E-03
 6.75000E+00    7.96226E-04
 7.00000E+00    4.97663E-04
 7.25000E+00    3.13146E-04
 7.50000E+00    1.98266E-04
 8.00000E+00    8.07412E-05
 8.50000E+00    3.34611E-05
 9.00000E+00    1.40784E-05
 9.50000E+00    6.01119E-06
 1.00000E+01    2.60597E-06
 1.05000E+01    1.14798E-06
 1.10000E+01    4.93920E-07
 1.15000E+01    2.24470E-07
 1.20000E+01    1.03700E-07
 1.25000E+01    4.86670E-08
 1.30000E+01    2.31910E-08
 1.35000E+01    1.12150E-08
 1.40000E+01    5.50000E-09
 1.45000E+01    2.73410E-09
 1.50000E+01    1.37750E-09
 1.55000E+01    7.02510E-10
 1.60000E+01    3.60850E-10
 1.65000E+01    1.88250E-10
 1.70000E+01    9.92160E-11
 1.75000E+01    5.27110E-11
 1.80000E+01    2.80770E-11
 1.85000E+01    1.48830E-11
 1.90000E+01    7.87640E-12
 1.95000E+01    4.17900E-12
 2.00000E+01    2.22650E-12
 2.10000E+01    6.42530E-13
 2.20000E+01    1.89760E-13
 2.30000E+01    5.73540E-14
 2.40000E+01    1.77310E-14
 2.50000E+01    5.59940E-15
 2.60000E+01    1.80510E-15
 2.70000E+01    6.44240E-16
 2.80000E+01    2.16360E-16
 2.90000E+01    7.39360E-17
 3.00000E+01    2.56750E-17
