# n + Am241 : (n,n'06)  
# endfb8.0   T.Kawano,M.B.Chadwick             EVAL-Oct10
# uncertainties: n
# # energies =    84
#   E(MeV)       xs(mb) 
 2.36184E-01    0.00000E+00
 2.50000E-01    3.39643E+01
 3.00000E-01    8.89510E+01
 3.50000E-01    1.25342E+02
 4.00000E-01    1.50012E+02
 4.50000E-01    1.66442E+02
 5.00000E-01    1.73936E+02
 6.00000E-01    1.67368E+02
 7.00000E-01    1.40011E+02
 8.00000E-01    1.01908E+02
 9.00000E-01    7.03424E+01
 1.00000E+00    4.97251E+01
 1.10000E+00    3.65512E+01
 1.20000E+00    2.82644E+01
 1.30000E+00    2.37491E+01
 1.40000E+00    2.19357E+01
 1.50000E+00    2.13673E+01
 1.60000E+00    2.06380E+01
 1.70000E+00    1.91088E+01
 1.80000E+00    1.68553E+01
 1.90000E+00    1.43654E+01
 2.00000E+00    1.20726E+01
 2.10000E+00    9.99767E+00
 2.20000E+00    8.40257E+00
 2.30000E+00    7.04540E+00
 2.40000E+00    5.89097E+00
 2.50000E+00    4.90971E+00
 2.60000E+00    4.09342E+00
 2.70000E+00    3.39110E+00
 2.80000E+00    2.80118E+00
 2.90000E+00    2.30805E+00
 3.00000E+00    1.89774E+00
 3.10000E+00    1.55986E+00
 3.20000E+00    1.27636E+00
 3.30000E+00    1.04174E+00
 3.40000E+00    8.48833E-01
 3.50000E+00    6.90662E-01
 3.60000E+00    5.61086E-01
 3.80000E+00    3.69388E-01
 4.00000E+00    2.42584E-01
 4.50000E+00    8.87342E-02
 5.00000E+00    3.07806E-02
 5.50000E+00    1.10511E-02
 6.00000E+00    4.14725E-03
 6.50000E+00    1.65912E-03
 6.75000E+00    9.54164E-04
 7.00000E+00    5.99423E-04
 7.25000E+00    3.78235E-04
 7.50000E+00    2.39717E-04
 8.00000E+00    9.75252E-05
 8.50000E+00    4.03470E-05
 9.00000E+00    1.69714E-05
 9.50000E+00    7.25953E-06
 1.00000E+01    3.15820E-06
 1.05000E+01    1.39754E-06
 1.10000E+01    6.04190E-07
 1.15000E+01    2.75840E-07
 1.20000E+01    1.27960E-07
 1.25000E+01    6.02620E-08
 1.30000E+01    2.88030E-08
 1.35000E+01    1.39650E-08
 1.40000E+01    6.86320E-09
 1.45000E+01    3.41830E-09
 1.50000E+01    1.72510E-09
 1.55000E+01    8.81140E-10
 1.60000E+01    4.53230E-10
 1.65000E+01    2.36740E-10
 1.70000E+01    1.24910E-10
 1.75000E+01    6.64330E-11
 1.80000E+01    3.54220E-11
 1.85000E+01    1.87960E-11
 1.90000E+01    9.95700E-12
 1.95000E+01    5.28790E-12
 2.00000E+01    2.81980E-12
 2.10000E+01    8.15000E-13
 2.20000E+01    2.40990E-13
 2.30000E+01    7.29230E-14
 2.40000E+01    2.25720E-14
 2.50000E+01    7.13770E-15
 2.60000E+01    2.30390E-15
 2.70000E+01    8.23050E-16
 2.80000E+01    2.76590E-16
 2.90000E+01    9.45580E-17
 3.00000E+01    3.28490E-17
