# n + Am241 : (n,n'33)  
# endfb8.0   T.Kawano,M.B.Chadwick             EVAL-Oct10
# uncertainties: n
# # energies =    76
#   E(MeV)       xs(mb) 
 7.35063E-01    0.00000E+00
 8.00000E-01    1.62631E+01
 9.00000E-01    3.62542E+01
 1.00000E+00    4.26872E+01
 1.10000E+00    3.91969E+01
 1.20000E+00    3.19798E+01
 1.30000E+00    2.52789E+01
 1.40000E+00    2.06199E+01
 1.50000E+00    1.78281E+01
 1.60000E+00    1.61477E+01
 1.70000E+00    1.48566E+01
 1.80000E+00    1.35086E+01
 1.90000E+00    1.20906E+01
 2.00000E+00    1.07503E+01
 2.10000E+00    9.42073E+00
 2.20000E+00    8.33898E+00
 2.30000E+00    7.30852E+00
 2.40000E+00    6.33220E+00
 2.50000E+00    5.42151E+00
 2.60000E+00    4.60710E+00
 2.70000E+00    3.86370E+00
 2.80000E+00    3.21275E+00
 2.90000E+00    2.65279E+00
 3.00000E+00    2.17837E+00
 3.10000E+00    1.78379E+00
 3.20000E+00    1.45177E+00
 3.30000E+00    1.17747E+00
 3.40000E+00    9.53029E-01
 3.50000E+00    7.70270E-01
 3.60000E+00    6.21732E-01
 3.80000E+00    4.04499E-01
 4.00000E+00    2.62844E-01
 4.50000E+00    9.36996E-02
 5.00000E+00    3.15669E-02
 5.50000E+00    1.09946E-02
 6.00000E+00    4.01910E-03
 6.50000E+00    1.58065E-03
 6.75000E+00    9.01189E-04
 7.00000E+00    5.64817E-04
 7.25000E+00    3.56556E-04
 7.50000E+00    2.26597E-04
 8.00000E+00    9.30770E-05
 8.50000E+00    3.89224E-05
 9.00000E+00    1.65135E-05
 9.50000E+00    7.10201E-06
 1.00000E+01    3.09748E-06
 1.05000E+01    1.37132E-06
 1.10000E+01    5.92490E-07
 1.15000E+01    2.70250E-07
 1.20000E+01    1.25270E-07
 1.25000E+01    5.89690E-08
 1.30000E+01    2.81840E-08
 1.35000E+01    1.36680E-08
 1.40000E+01    6.72040E-09
 1.45000E+01    3.34900E-09
 1.50000E+01    1.69110E-09
 1.55000E+01    8.64280E-10
 1.60000E+01    4.44810E-10
 1.65000E+01    2.32460E-10
 1.70000E+01    1.22720E-10
 1.75000E+01    6.53030E-11
 1.80000E+01    3.48370E-11
 1.85000E+01    1.84940E-11
 1.90000E+01    9.80150E-12
 1.95000E+01    5.20750E-12
 2.00000E+01    2.77810E-12
 2.10000E+01    8.03650E-13
 2.20000E+01    2.37860E-13
 2.30000E+01    7.20290E-14
 2.40000E+01    2.23070E-14
 2.50000E+01    7.05510E-15
 2.60000E+01    2.27750E-15
 2.70000E+01    8.13800E-16
 2.80000E+01    2.73620E-16
 2.90000E+01    9.36040E-17
 3.00000E+01    3.25400E-17
