# n + Am241 : (n,n'01)  
# endfb8.0   T.Kawano,M.B.Chadwick             EVAL-Oct10
# uncertainties: n
# # energies =    94
#   E(MeV)       xs(mb) 
 4.13483E-02    0.00000E+00
 4.50000E-02    6.73705E+01
 5.00000E-02    1.04442E+02
 5.50000E-02    1.35428E+02
 6.00000E-02    1.64097E+02
 7.00000E-02    2.17011E+02
 8.00000E-02    2.64801E+02
 9.00000E-02    3.07814E+02
 1.00000E-01    3.45168E+02
 1.50000E-01    4.69783E+02
 2.00000E-01    5.32544E+02
 2.50000E-01    5.54071E+02
 3.00000E-01    5.58363E+02
 3.50000E-01    5.55325E+02
 4.00000E-01    5.50112E+02
 4.50000E-01    5.43296E+02
 5.00000E-01    5.29015E+02
 6.00000E-01    4.84940E+02
 7.00000E-01    4.29201E+02
 8.00000E-01    3.73304E+02
 9.00000E-01    3.26359E+02
 1.00000E+00    2.89907E+02
 1.10000E+00    2.62330E+02
 1.20000E+00    2.43510E+02
 1.30000E+00    2.32920E+02
 1.40000E+00    2.28616E+02
 1.50000E+00    2.27964E+02
 1.60000E+00    2.28627E+02
 1.70000E+00    2.29126E+02
 1.80000E+00    2.28849E+02
 1.90000E+00    2.27962E+02
 2.00000E+00    2.26787E+02
 2.10000E+00    2.25252E+02
 2.20000E+00    2.23658E+02
 2.30000E+00    2.21722E+02
 2.40000E+00    2.19447E+02
 2.50000E+00    2.16862E+02
 2.60000E+00    2.14031E+02
 2.70000E+00    2.10968E+02
 2.80000E+00    2.07746E+02
 2.90000E+00    2.04416E+02
 3.00000E+00    2.01023E+02
 3.10000E+00    1.97607E+02
 3.20000E+00    1.94191E+02
 3.30000E+00    1.90806E+02
 3.40000E+00    1.87472E+02
 3.50000E+00    1.84202E+02
 3.60000E+00    1.81006E+02
 3.80000E+00    1.74862E+02
 4.00000E+00    1.69063E+02
 4.50000E+00    1.56120E+02
 5.00000E+00    1.45459E+02
 5.50000E+00    1.37256E+02
 6.00000E+00    1.31415E+02
 6.50000E+00    1.27420E+02
 6.75000E+00    1.25888E+02
 7.00000E+00    1.24545E+02
 7.25000E+00    1.23310E+02
 7.50000E+00    1.22115E+02
 8.00000E+00    1.19655E+02
 8.50000E+00    1.16935E+02
 9.00000E+00    1.13946E+02
 9.50000E+00    1.10792E+02
 1.00000E+01    1.07598E+02
 1.05000E+01    1.04441E+02
 1.10000E+01    1.01351E+02
 1.15000E+01    9.83251E+01
 1.20000E+01    9.53553E+01
 1.25000E+01    9.24400E+01
 1.30000E+01    8.95903E+01
 1.35000E+01    8.68271E+01
 1.40000E+01    8.41740E+01
 1.45000E+01    8.16518E+01
 1.50000E+01    7.92748E+01
 1.55000E+01    7.70501E+01
 1.60000E+01    7.49786E+01
 1.65000E+01    7.30567E+01
 1.70000E+01    7.12781E+01
 1.75000E+01    6.96350E+01
 1.80000E+01    6.81185E+01
 1.85000E+01    6.67191E+01
 1.90000E+01    6.54272E+01
 1.95000E+01    6.42332E+01
 2.00000E+01    6.31278E+01
 2.10000E+01    6.11518E+01
 2.20000E+01    5.94513E+01
 2.30000E+01    5.80009E+01
 2.40000E+01    5.67850E+01
 2.50000E+01    5.57799E+01
 2.60000E+01    5.49485E+01
 2.70000E+01    5.42487E+01
 2.80000E+01    5.36427E+01
 2.90000E+01    5.31049E+01
 3.00000E+01    5.26233E+01
