# n + Am241 : (n,n'24)  
# endfb8.0   T.Kawano,M.B.Chadwick             EVAL-Oct10
# uncertainties: n
# # energies =    77
#   E(MeV)       xs(mb) 
 6.27816E-01    0.00000E+00
 7.00000E-01    1.64336E+01
 8.00000E-01    3.53425E+01
 9.00000E-01    4.33710E+01
 1.00000E+00    4.26441E+01
 1.10000E+00    3.69568E+01
 1.20000E+00    2.99460E+01
 1.30000E+00    2.40332E+01
 1.40000E+00    2.00593E+01
 1.50000E+00    1.77777E+01
 1.60000E+00    1.64659E+01
 1.70000E+00    1.54030E+01
 1.80000E+00    1.41506E+01
 1.90000E+00    1.27154E+01
 2.00000E+00    1.12816E+01
 2.10000E+00    9.82134E+00
 2.20000E+00    8.61042E+00
 2.30000E+00    7.46927E+00
 2.40000E+00    6.40969E+00
 2.50000E+00    5.44328E+00
 2.60000E+00    4.59607E+00
 2.70000E+00    3.83671E+00
 2.80000E+00    3.18099E+00
 2.90000E+00    2.62282E+00
 3.00000E+00    2.15344E+00
 3.10000E+00    1.76507E+00
 3.20000E+00    1.43900E+00
 3.30000E+00    1.16981E+00
 3.40000E+00    9.49392E-01
 3.50000E+00    7.69563E-01
 3.60000E+00    6.23007E-01
 3.80000E+00    4.07644E-01
 4.00000E+00    2.66230E-01
 4.50000E+00    9.58296E-02
 5.00000E+00    3.25492E-02
 5.50000E+00    1.14346E-02
 6.00000E+00    4.21880E-03
 6.50000E+00    1.67275E-03
 6.75000E+00    9.62725E-04
 7.00000E+00    6.06390E-04
 7.25000E+00    3.84503E-04
 7.50000E+00    2.45295E-04
 8.00000E+00    1.01353E-04
 8.50000E+00    4.25645E-05
 9.00000E+00    1.81234E-05
 9.50000E+00    7.82167E-06
 1.00000E+01    3.42397E-06
 1.05000E+01    1.52182E-06
 1.10000E+01    6.60190E-07
 1.15000E+01    3.02340E-07
 1.20000E+01    1.40680E-07
 1.25000E+01    6.64680E-08
 1.30000E+01    3.18740E-08
 1.35000E+01    1.55060E-08
 1.40000E+01    7.64600E-09
 1.45000E+01    3.82050E-09
 1.50000E+01    1.93400E-09
 1.55000E+01    9.90740E-10
 1.60000E+01    5.11020E-10
 1.65000E+01    2.67620E-10
 1.70000E+01    1.41560E-10
 1.75000E+01    7.54630E-11
 1.80000E+01    4.03250E-11
 1.85000E+01    2.14420E-11
 1.90000E+01    1.13810E-11
 1.95000E+01    6.05530E-12
 2.00000E+01    3.23480E-12
 2.10000E+01    9.38160E-13
 2.20000E+01    2.78300E-13
 2.30000E+01    8.44520E-14
 2.40000E+01    2.62030E-14
 2.50000E+01    8.30200E-15
 2.60000E+01    2.68430E-15
 2.70000E+01    9.60550E-16
 2.80000E+01    3.23370E-16
 2.90000E+01    1.10750E-16
 3.00000E+01    3.85430E-17
