# n + Am241 : (n,n'15)  
# endfb8.0   T.Kawano,M.B.Chadwick             EVAL-Oct10
# uncertainties: n
# # energies =    79
#   E(MeV)       xs(mb) 
 4.60921E-01    0.00000E+00
 5.00000E-01    2.89177E+01
 6.00000E-01    6.55889E+01
 7.00000E-01    7.49284E+01
 8.00000E-01    6.33904E+01
 9.00000E-01    4.72421E+01
 1.00000E+00    3.49900E+01
 1.10000E+00    2.66543E+01
 1.20000E+00    2.12042E+01
 1.30000E+00    1.81804E+01
 1.40000E+00    1.70159E+01
 1.50000E+00    1.67554E+01
 1.60000E+00    1.63998E+01
 1.70000E+00    1.54599E+01
 1.80000E+00    1.39357E+01
 1.90000E+00    1.21545E+01
 2.00000E+00    1.04456E+01
 2.10000E+00    8.82715E+00
 2.20000E+00    7.54942E+00
 2.30000E+00    6.42259E+00
 2.40000E+00    5.43357E+00
 2.50000E+00    4.57052E+00
 2.60000E+00    3.83773E+00
 2.70000E+00    3.19615E+00
 2.80000E+00    2.65032E+00
 2.90000E+00    2.18971E+00
 3.00000E+00    1.80389E+00
 3.10000E+00    1.48475E+00
 3.20000E+00    1.21617E+00
 3.30000E+00    9.93496E-01
 3.40000E+00    8.10214E-01
 3.50000E+00    6.59831E-01
 3.60000E+00    5.36558E-01
 3.80000E+00    3.53990E-01
 4.00000E+00    2.32984E-01
 4.50000E+00    8.56140E-02
 5.00000E+00    2.97754E-02
 5.50000E+00    1.07008E-02
 6.00000E+00    4.01668E-03
 6.50000E+00    1.60825E-03
 6.75000E+00    9.23527E-04
 7.00000E+00    5.80685E-04
 7.25000E+00    3.66897E-04
 7.50000E+00    2.32923E-04
 8.00000E+00    9.51286E-05
 8.50000E+00    3.95024E-05
 9.00000E+00    1.66670E-05
 9.50000E+00    7.14530E-06
 1.00000E+01    3.11320E-06
 1.05000E+01    1.37894E-06
 1.10000E+01    5.96520E-07
 1.15000E+01    2.72470E-07
 1.20000E+01    1.26450E-07
 1.25000E+01    5.95800E-08
 1.30000E+01    2.84910E-08
 1.35000E+01    1.38200E-08
 1.40000E+01    6.79550E-09
 1.45000E+01    3.38600E-09
 1.50000E+01    1.70930E-09
 1.55000E+01    8.73330E-10
 1.60000E+01    4.49310E-10
 1.65000E+01    2.34730E-10
 1.70000E+01    1.23880E-10
 1.75000E+01    6.58960E-11
 1.80000E+01    3.51440E-11
 1.85000E+01    1.86530E-11
 1.90000E+01    9.88400E-12
 1.95000E+01    5.25060E-12
 2.00000E+01    2.80070E-12
 2.10000E+01    8.09890E-13
 2.20000E+01    2.39580E-13
 2.30000E+01    7.25170E-14
 2.40000E+01    2.24510E-14
 2.50000E+01    7.10060E-15
 2.60000E+01    2.29230E-15
 2.70000E+01    8.19060E-16
 2.80000E+01    2.75320E-16
 2.90000E+01    9.41450E-17
 3.00000E+01    3.27140E-17
