# n + Am241 : (n,n'37)  
# endfb8.0   T.Kawano,M.B.Chadwick             EVAL-Oct10
# uncertainties: n
# # energies =    75
#   E(MeV)       xs(mb) 
 8.54862E-01    0.00000E+00
 9.00000E-01    8.82780E-08
 1.00000E+00    1.05619E-06
 1.10000E+00    4.74414E-06
 1.20000E+00    1.49671E-05
 1.30000E+00    4.02637E-05
 1.40000E+00    1.02779E-04
 1.50000E+00    2.57781E-04
 1.60000E+00    6.00965E-04
 1.70000E+00    1.20728E-03
 1.80000E+00    2.07138E-03
 1.90000E+00    3.15378E-03
 2.00000E+00    4.41977E-03
 2.10000E+00    5.76746E-03
 2.20000E+00    7.22740E-03
 2.30000E+00    8.64940E-03
 2.40000E+00    9.94316E-03
 2.50000E+00    1.10393E-02
 2.60000E+00    1.19415E-02
 2.70000E+00    1.25558E-02
 2.80000E+00    1.29224E-02
 2.90000E+00    1.30592E-02
 3.00000E+00    1.29921E-02
 3.10000E+00    1.29698E-02
 3.20000E+00    1.25610E-02
 3.30000E+00    1.20245E-02
 3.40000E+00    1.13968E-02
 3.50000E+00    1.07048E-02
 3.60000E+00    9.96876E-03
 3.80000E+00    8.45620E-03
 4.00000E+00    6.98525E-03
 4.50000E+00    4.12245E-03
 5.00000E+00    2.11187E-03
 5.50000E+00    1.07638E-03
 6.00000E+00    5.75074E-04
 6.50000E+00    3.37836E-04
 6.75000E+00    1.46998E-04
 7.00000E+00    1.01117E-04
 7.25000E+00    6.95350E-05
 7.50000E+00    4.77968E-05
 8.00000E+00    2.25306E-05
 8.50000E+00    1.05899E-05
 9.00000E+00    4.97754E-06
 9.50000E+00    2.34963E-06
 1.00000E+01    1.11786E-06
 1.05000E+01    5.37350E-07
 1.10000E+01    2.51040E-07
 1.15000E+01    1.23310E-07
 1.20000E+01    6.13020E-08
 1.25000E+01    3.08190E-08
 1.30000E+01    1.56640E-08
 1.35000E+01    8.04510E-09
 1.40000E+01    4.17310E-09
 1.45000E+01    2.18600E-09
 1.50000E+01    1.15650E-09
 1.55000E+01    6.17480E-10
 1.60000E+01    3.31140E-10
 1.65000E+01    1.79920E-10
 1.70000E+01    9.85510E-11
 1.75000E+01    5.43150E-11
 1.80000E+01    2.99620E-11
 1.85000E+01    1.64250E-11
 1.90000E+01    8.97600E-12
 1.95000E+01    4.91110E-12
 2.00000E+01    2.69440E-12
 2.10000E+01    8.21000E-13
 2.20000E+01    2.54600E-13
 2.30000E+01    8.04150E-14
 2.40000E+01    2.58770E-14
 2.50000E+01    8.47850E-15
 2.60000E+01    2.82770E-15
 2.70000E+01    1.04130E-15
 2.80000E+01    3.59990E-16
 2.90000E+01    1.26350E-16
 3.00000E+01    4.49820E-17
