# n + Am241 : (n,n'34)  
# endfb8.0   T.Kawano,M.B.Chadwick             EVAL-Oct10
# uncertainties: n
# # energies =    76
#   E(MeV)       xs(mb) 
 7.77038E-01    0.00000E+00
 8.00000E-01    1.31770E-07
 9.00000E-01    7.67358E-06
 1.00000E+00    6.02528E-05
 1.10000E+00    2.44895E-04
 1.20000E+00    6.93888E-04
 1.30000E+00    1.58356E-03
 1.40000E+00    3.14426E-03
 1.50000E+00    5.68851E-03
 1.60000E+00    9.55968E-03
 1.70000E+00    1.49036E-02
 1.80000E+00    2.14408E-02
 1.90000E+00    2.86140E-02
 2.00000E+00    3.58383E-02
 2.10000E+00    4.21143E-02
 2.20000E+00    4.76442E-02
 2.30000E+00    5.14969E-02
 2.40000E+00    5.34560E-02
 2.50000E+00    5.35833E-02
 2.60000E+00    5.23442E-02
 2.70000E+00    4.97432E-02
 2.80000E+00    4.63431E-02
 2.90000E+00    4.24933E-02
 3.00000E+00    3.84770E-02
 3.10000E+00    3.47622E-02
 3.20000E+00    3.09104E-02
 3.30000E+00    2.73041E-02
 3.40000E+00    2.40068E-02
 3.50000E+00    2.10323E-02
 3.60000E+00    1.83669E-02
 3.80000E+00    1.39075E-02
 4.00000E+00    1.04339E-02
 4.50000E+00    5.11961E-03
 5.00000E+00    2.31337E-03
 5.50000E+00    1.09748E-03
 6.00000E+00    5.72128E-04
 6.50000E+00    3.37645E-04
 6.75000E+00    1.46788E-04
 7.00000E+00    1.02388E-04
 7.25000E+00    7.13755E-05
 7.50000E+00    4.96590E-05
 8.00000E+00    2.38057E-05
 8.50000E+00    1.12582E-05
 9.00000E+00    5.27887E-06
 9.50000E+00    2.47299E-06
 1.00000E+01    1.16526E-06
 1.05000E+01    5.54880E-07
 1.10000E+01    2.57170E-07
 1.15000E+01    1.25540E-07
 1.20000E+01    6.21240E-08
 1.25000E+01    3.11290E-08
 1.30000E+01    1.57850E-08
 1.35000E+01    8.09410E-09
 1.40000E+01    4.19410E-09
 1.45000E+01    2.19570E-09
 1.50000E+01    1.16130E-09
 1.55000E+01    6.20040E-10
 1.60000E+01    3.32570E-10
 1.65000E+01    1.80740E-10
 1.70000E+01    9.90190E-11
 1.75000E+01    5.45790E-11
 1.80000E+01    3.01070E-11
 1.85000E+01    1.65010E-11
 1.90000E+01    9.01580E-12
 1.95000E+01    4.93140E-12
 2.00000E+01    2.70480E-12
 2.10000E+01    8.23790E-13
 2.20000E+01    2.55420E-13
 2.30000E+01    8.06720E-14
 2.40000E+01    2.59570E-14
 2.50000E+01    8.50240E-15
 2.60000E+01    2.83470E-15
 2.70000E+01    1.04360E-15
 2.80000E+01    3.60720E-16
 2.90000E+01    1.26610E-16
 3.00000E+01    4.50710E-17
