# n + Am241 : (n,n'16)  
# endfb8.0   T.Kawano,M.B.Chadwick             EVAL-Oct10
# uncertainties: n
# # energies =    79
#   E(MeV)       xs(mb) 
 4.73786E-01    0.00000E+00
 5.00000E-01    1.67905E+01
 6.00000E-01    6.78954E+01
 7.00000E-01    8.82286E+01
 8.00000E-01    8.74895E+01
 9.00000E-01    7.67618E+01
 1.00000E+00    6.14888E+01
 1.10000E+00    4.60318E+01
 1.20000E+00    3.35603E+01
 1.30000E+00    2.50798E+01
 1.40000E+00    1.99550E+01
 1.50000E+00    1.70554E+01
 1.60000E+00    1.53887E+01
 1.70000E+00    1.41425E+01
 1.80000E+00    1.27687E+01
 1.90000E+00    1.12309E+01
 2.00000E+00    9.72539E+00
 2.10000E+00    8.25342E+00
 2.20000E+00    7.06853E+00
 2.30000E+00    6.00255E+00
 2.40000E+00    5.05496E+00
 2.50000E+00    4.22281E+00
 2.60000E+00    3.51487E+00
 2.70000E+00    2.89759E+00
 2.80000E+00    2.37590E+00
 2.90000E+00    1.93966E+00
 3.00000E+00    1.57824E+00
 3.10000E+00    1.28272E+00
 3.20000E+00    1.03757E+00
 3.30000E+00    8.37097E-01
 3.40000E+00    6.74352E-01
 3.50000E+00    5.42638E-01
 3.60000E+00    4.36120E-01
 3.80000E+00    2.81308E-01
 4.00000E+00    1.81208E-01
 4.50000E+00    6.33649E-02
 5.00000E+00    2.10717E-02
 5.50000E+00    7.29224E-03
 6.00000E+00    2.67172E-03
 6.50000E+00    1.07033E-03
 6.75000E+00    5.81055E-04
 7.00000E+00    3.62275E-04
 7.25000E+00    2.27391E-04
 7.50000E+00    1.43620E-04
 8.00000E+00    5.82224E-05
 8.50000E+00    2.40338E-05
 9.00000E+00    1.00784E-05
 9.50000E+00    4.29123E-06
 1.00000E+01    1.85586E-06
 1.05000E+01    8.15810E-07
 1.10000E+01    3.50320E-07
 1.15000E+01    1.58920E-07
 1.20000E+01    7.32930E-08
 1.25000E+01    3.43390E-08
 1.30000E+01    1.63380E-08
 1.35000E+01    7.88960E-09
 1.40000E+01    3.86370E-09
 1.45000E+01    1.91830E-09
 1.50000E+01    9.65320E-10
 1.55000E+01    4.91800E-10
 1.60000E+01    2.52370E-10
 1.65000E+01    1.31540E-10
 1.70000E+01    6.92630E-11
 1.75000E+01    3.67670E-11
 1.80000E+01    1.95680E-11
 1.85000E+01    1.03640E-11
 1.90000E+01    5.48050E-12
 1.95000E+01    2.90550E-12
 2.00000E+01    1.54680E-12
 2.10000E+01    4.45750E-13
 2.20000E+01    1.31480E-13
 2.30000E+01    3.96930E-14
 2.40000E+01    1.22580E-14
 2.50000E+01    3.86740E-15
 2.60000E+01    1.24560E-15
 2.70000E+01    4.44190E-16
 2.80000E+01    1.49070E-16
 2.90000E+01    5.09040E-17
 3.00000E+01    1.76650E-17
