# n + Am241 : (n,n'25)  
# endfb8.0   T.Kawano,M.B.Chadwick             EVAL-Oct10
# uncertainties: n
# # energies =    77
#   E(MeV)       xs(mb) 
 6.32435E-01    0.00000E+00
 7.00000E-01    1.17943E-04
 8.00000E-01    1.02033E-03
 9.00000E-01    3.36324E-03
 1.00000E+00    7.23493E-03
 1.10000E+00    1.25069E-02
 1.20000E+00    1.94199E-02
 1.30000E+00    2.96066E-02
 1.40000E+00    4.73775E-02
 1.50000E+00    8.01491E-02
 1.60000E+00    1.31333E-01
 1.70000E+00    1.90825E-01
 1.80000E+00    2.43988E-01
 1.90000E+00    2.84139E-01
 2.00000E+00    3.11098E-01
 2.10000E+00    3.22774E-01
 2.20000E+00    3.27476E-01
 2.30000E+00    3.22355E-01
 2.40000E+00    3.09457E-01
 2.50000E+00    2.91000E-01
 2.60000E+00    2.70086E-01
 2.70000E+00    2.46508E-01
 2.80000E+00    2.22546E-01
 2.90000E+00    1.99150E-01
 3.00000E+00    1.76951E-01
 3.10000E+00    1.56775E-01
 3.20000E+00    1.37619E-01
 3.30000E+00    1.20164E-01
 3.40000E+00    1.04484E-01
 3.50000E+00    9.05078E-02
 3.60000E+00    7.81041E-02
 3.80000E+00    5.76327E-02
 4.00000E+00    4.20492E-02
 4.50000E+00    1.92557E-02
 5.00000E+00    8.05349E-03
 5.50000E+00    3.42293E-03
 6.00000E+00    1.51789E-03
 6.50000E+00    7.25754E-04
 6.75000E+00    3.95919E-04
 7.00000E+00    2.62231E-04
 7.25000E+00    1.73930E-04
 7.50000E+00    1.15508E-04
 8.00000E+00    5.11053E-05
 8.50000E+00    2.27239E-05
 9.00000E+00    1.01789E-05
 9.50000E+00    4.60631E-06
 1.00000E+01    2.11045E-06
 1.05000E+01    9.80310E-07
 1.10000E+01    4.43730E-07
 1.15000E+01    2.11630E-07
 1.20000E+01    1.02330E-07
 1.25000E+01    5.01220E-08
 1.30000E+01    2.48600E-08
 1.35000E+01    1.24800E-08
 1.40000E+01    6.33690E-09
 1.45000E+01    3.25420E-09
 1.50000E+01    1.69010E-09
 1.55000E+01    8.86830E-10
 1.60000E+01    4.67910E-10
 1.65000E+01    2.50360E-10
 1.70000E+01    1.35150E-10
 1.75000E+01    7.34590E-11
 1.80000E+01    3.99900E-11
 1.85000E+01    2.16450E-11
 1.90000E+01    1.16860E-11
 1.95000E+01    6.32010E-12
 2.00000E+01    3.42920E-12
 2.10000E+01    1.02360E-12
 2.20000E+01    3.11590E-13
 2.30000E+01    9.67840E-14
 2.40000E+01    3.06770E-14
 2.50000E+01    9.91260E-15
 2.60000E+01    3.26390E-15
 2.70000E+01    1.18770E-15
 2.80000E+01    4.06050E-16
 2.90000E+01    1.41040E-16
 3.00000E+01    4.97260E-17
