# n + Am241 : (n,n'04)  
# endfb8.0   T.Kawano,M.B.Chadwick             EVAL-Oct10
# uncertainties: n
# # energies =    84
#   E(MeV)       xs(mb) 
 2.06746E-01    0.00000E+00
 2.50000E-01    9.15574E+01
 3.00000E-01    1.46911E+02
 3.50000E-01    1.81917E+02
 4.00000E-01    2.04281E+02
 4.50000E-01    2.18150E+02
 5.00000E-01    2.21685E+02
 6.00000E-01    2.04995E+02
 7.00000E-01    1.66473E+02
 8.00000E-01    1.19233E+02
 9.00000E-01    8.17287E+01
 1.00000E+00    5.68109E+01
 1.10000E+00    4.07142E+01
 1.20000E+00    3.06580E+01
 1.30000E+00    2.51319E+01
 1.40000E+00    2.25865E+01
 1.50000E+00    2.13556E+01
 1.60000E+00    2.01526E+01
 1.70000E+00    1.84039E+01
 1.80000E+00    1.60957E+01
 1.90000E+00    1.36269E+01
 2.00000E+00    1.13854E+01
 2.10000E+00    9.37747E+00
 2.20000E+00    7.84482E+00
 2.30000E+00    6.54980E+00
 2.40000E+00    5.45516E+00
 2.50000E+00    4.53005E+00
 2.60000E+00    3.76420E+00
 2.70000E+00    3.10859E+00
 2.80000E+00    2.56027E+00
 2.90000E+00    2.10371E+00
 3.00000E+00    1.72519E+00
 3.10000E+00    1.41444E+00
 3.20000E+00    1.15460E+00
 3.30000E+00    9.40178E-01
 3.40000E+00    7.64352E-01
 3.50000E+00    6.20562E-01
 3.60000E+00    5.03060E-01
 3.80000E+00    3.29826E-01
 4.00000E+00    2.15758E-01
 4.50000E+00    7.82431E-02
 5.00000E+00    2.69376E-02
 5.50000E+00    9.60782E-03
 6.00000E+00    3.58911E-03
 6.50000E+00    1.43654E-03
 6.75000E+00    8.13531E-04
 7.00000E+00    5.09164E-04
 7.25000E+00    3.20146E-04
 7.50000E+00    2.02232E-04
 8.00000E+00    8.17930E-05
 8.50000E+00    3.36706E-05
 9.00000E+00    1.41030E-05
 9.50000E+00    6.01018E-06
 1.00000E+01    2.60604E-06
 1.05000E+01    1.14974E-06
 1.10000E+01    4.95690E-07
 1.15000E+01    2.25720E-07
 1.20000E+01    1.04460E-07
 1.25000E+01    4.90780E-08
 1.30000E+01    2.34050E-08
 1.35000E+01    1.13230E-08
 1.40000E+01    5.55370E-09
 1.45000E+01    2.76080E-09
 1.50000E+01    1.39070E-09
 1.55000E+01    7.09100E-10
 1.60000E+01    3.64140E-10
 1.65000E+01    1.89910E-10
 1.70000E+01    1.00060E-10
 1.75000E+01    5.31410E-11
 1.80000E+01    2.82980E-11
 1.85000E+01    1.49960E-11
 1.90000E+01    7.93440E-12
 1.95000E+01    4.20880E-12
 2.00000E+01    2.24180E-12
 2.10000E+01    6.46590E-13
 2.20000E+01    1.90840E-13
 2.30000E+01    5.76510E-14
 2.40000E+01    1.78190E-14
 2.50000E+01    5.62690E-15
 2.60000E+01    1.81400E-15
 2.70000E+01    6.47300E-16
 2.80000E+01    2.17300E-16
 2.90000E+01    7.42150E-17
 3.00000E+01    2.57580E-17
