# n + Am241 : (n,n'13)  
# endfb8.0   T.Kawano,M.B.Chadwick             EVAL-Oct10
# uncertainties: n
# # energies =    80
#   E(MeV)       xs(mb) 
 4.19930E-01    0.00000E+00
 4.50000E-01    5.91684E-04
 5.00000E-01    3.47685E-03
 6.00000E-01    2.20435E-02
 7.00000E-01    7.46572E-02
 8.00000E-01    1.83415E-01
 9.00000E-01    3.61283E-01
 1.00000E+00    6.06667E-01
 1.10000E+00    8.92865E-01
 1.20000E+00    1.17220E+00
 1.30000E+00    1.42723E+00
 1.40000E+00    1.67153E+00
 1.50000E+00    1.92733E+00
 1.60000E+00    2.18285E+00
 1.70000E+00    2.37551E+00
 1.80000E+00    2.43906E+00
 1.90000E+00    2.37362E+00
 2.00000E+00    2.22710E+00
 2.10000E+00    2.01989E+00
 2.20000E+00    1.82533E+00
 2.30000E+00    1.62594E+00
 2.40000E+00    1.43182E+00
 2.50000E+00    1.24914E+00
 2.60000E+00    1.08556E+00
 2.70000E+00    9.34598E-01
 2.80000E+00    8.00585E-01
 2.90000E+00    6.82932E-01
 3.00000E+00    5.80547E-01
 3.10000E+00    4.93036E-01
 3.20000E+00    4.16106E-01
 3.30000E+00    3.49902E-01
 3.40000E+00    2.93389E-01
 3.50000E+00    2.45345E-01
 3.60000E+00    2.04583E-01
 3.80000E+00    1.41326E-01
 4.00000E+00    9.68670E-02
 4.50000E+00    3.85553E-02
 5.00000E+00    1.43092E-02
 5.50000E+00    5.50605E-03
 6.00000E+00    2.25038E-03
 6.50000E+00    1.00220E-03
 6.75000E+00    5.65813E-04
 7.00000E+00    3.70160E-04
 7.25000E+00    2.42982E-04
 7.50000E+00    1.59905E-04
 8.00000E+00    6.96108E-05
 8.50000E+00    3.04785E-05
 9.00000E+00    1.34389E-05
 9.50000E+00    5.98321E-06
 1.00000E+01    2.69648E-06
 1.05000E+01    1.23248E-06
 1.10000E+01    5.49360E-07
 1.15000E+01    2.58260E-07
 1.20000E+01    1.23220E-07
 1.25000E+01    5.96160E-08
 1.30000E+01    2.92370E-08
 1.35000E+01    1.45260E-08
 1.40000E+01    7.30710E-09
 1.45000E+01    3.72050E-09
 1.50000E+01    1.91730E-09
 1.55000E+01    9.98980E-10
 1.60000E+01    5.23640E-10
 1.65000E+01    2.78470E-10
 1.70000E+01    1.49460E-10
 1.75000E+01    8.07870E-11
 1.80000E+01    4.37430E-11
 1.85000E+01    2.35530E-11
 1.90000E+01    1.26520E-11
 1.95000E+01    6.80920E-12
 2.00000E+01    3.67750E-12
 2.10000E+01    1.08840E-12
 2.20000E+01    3.28870E-13
 2.30000E+01    1.01480E-13
 2.40000E+01    3.19680E-14
 2.50000E+01    1.02710E-14
 2.60000E+01    3.36350E-15
 2.70000E+01    1.21780E-15
 2.80000E+01    4.14400E-16
 2.90000E+01    1.43330E-16
 3.00000E+01    5.03320E-17
