# n + Am241 : (n,n'38)  
# endfb8.0   T.Kawano,M.B.Chadwick             EVAL-Oct10
# uncertainties: n
# # energies =    75
#   E(MeV)       xs(mb) 
 8.67414E-01    0.00000E+00
 9.00000E-01    9.94170E-02
 1.00000E+00    6.39554E-01
 1.10000E+00    1.14153E+00
 1.20000E+00    1.44457E+00
 1.30000E+00    1.59391E+00
 1.40000E+00    1.68796E+00
 1.50000E+00    1.80684E+00
 1.60000E+00    1.96902E+00
 1.70000E+00    2.13500E+00
 1.80000E+00    2.25400E+00
 1.90000E+00    2.31271E+00
 2.00000E+00    2.32439E+00
 2.10000E+00    2.27113E+00
 2.20000E+00    2.20577E+00
 2.30000E+00    2.09330E+00
 2.40000E+00    1.94078E+00
 2.50000E+00    1.76038E+00
 2.60000E+00    1.57204E+00
 2.70000E+00    1.37677E+00
 2.80000E+00    1.18983E+00
 2.90000E+00    1.01742E+00
 3.00000E+00    8.62814E-01
 3.10000E+00    7.28415E-01
 3.20000E+00    6.09913E-01
 3.30000E+00    5.08266E-01
 3.40000E+00    4.22230E-01
 3.50000E+00    3.49939E-01
 3.60000E+00    2.89416E-01
 3.80000E+00    1.97256E-01
 4.00000E+00    1.33885E-01
 4.50000E+00    5.23659E-02
 5.00000E+00    1.90084E-02
 5.50000E+00    7.08179E-03
 6.00000E+00    2.77597E-03
 6.50000E+00    1.17845E-03
 6.75000E+00    6.68650E-04
 7.00000E+00    4.31605E-04
 7.25000E+00    2.80335E-04
 7.50000E+00    1.83065E-04
 8.00000E+00    7.90017E-05
 8.50000E+00    3.44594E-05
 9.00000E+00    1.51520E-05
 9.50000E+00    6.72128E-06
 1.00000E+01    3.01374E-06
 1.05000E+01    1.36877E-06
 1.10000E+01    6.05780E-07
 1.15000E+01    2.82700E-07
 1.20000E+01    1.33930E-07
 1.25000E+01    6.43690E-08
 1.30000E+01    3.13750E-08
 1.35000E+01    1.55010E-08
 1.40000E+01    7.75620E-09
 1.45000E+01    3.92930E-09
 1.50000E+01    2.01500E-09
 1.55000E+01    1.04490E-09
 1.60000E+01    5.45220E-10
 1.65000E+01    2.88670E-10
 1.70000E+01    1.54290E-10
 1.75000E+01    8.30680E-11
 1.80000E+01    4.48120E-11
 1.85000E+01    2.40460E-11
 1.90000E+01    1.28750E-11
 1.95000E+01    6.90820E-12
 2.00000E+01    3.72020E-12
 2.10000E+01    1.09510E-12
 2.20000E+01    3.29260E-13
 2.30000E+01    1.01130E-13
 2.40000E+01    3.17180E-14
 2.50000E+01    1.01480E-14
 2.60000E+01    3.31040E-15
 2.70000E+01    1.19430E-15
 2.80000E+01    4.05120E-16
 2.90000E+01    1.39720E-16
 3.00000E+01    4.89380E-17
