# n + Am241 : (n,n'31)  
# endfb8.0   T.Kawano,M.B.Chadwick             EVAL-Oct10
# uncertainties: n
# # energies =    77
#   E(MeV)       xs(mb) 
 6.84954E-01    0.00000E+00
 7.00000E-01    1.02811E+00
 8.00000E-01    9.04863E+00
 9.00000E-01    1.53545E+01
 1.00000E+00    1.81342E+01
 1.10000E+00    1.79724E+01
 1.20000E+00    1.61505E+01
 1.30000E+00    1.40344E+01
 1.40000E+00    1.24309E+01
 1.50000E+00    1.15268E+01
 1.60000E+00    1.10726E+01
 1.70000E+00    1.06806E+01
 1.80000E+00    1.00848E+01
 1.90000E+00    9.29501E+00
 2.00000E+00    8.44079E+00
 2.10000E+00    7.50450E+00
 2.20000E+00    6.69915E+00
 2.30000E+00    5.90264E+00
 2.40000E+00    5.13345E+00
 2.50000E+00    4.40986E+00
 2.60000E+00    3.76091E+00
 2.70000E+00    3.16739E+00
 2.80000E+00    2.64696E+00
 2.90000E+00    2.19833E+00
 3.00000E+00    1.81698E+00
 3.10000E+00    1.49871E+00
 3.20000E+00    1.22904E+00
 3.30000E+00    1.00473E+00
 3.40000E+00    8.19815E-01
 3.50000E+00    6.67995E-01
 3.60000E+00    5.43522E-01
 3.80000E+00    3.59102E-01
 4.00000E+00    2.36678E-01
 4.50000E+00    8.68560E-02
 5.00000E+00    2.99561E-02
 5.50000E+00    1.06656E-02
 6.00000E+00    3.98784E-03
 6.50000E+00    1.60322E-03
 6.75000E+00    9.23545E-04
 7.00000E+00    5.85182E-04
 7.25000E+00    3.73229E-04
 7.50000E+00    2.39456E-04
 8.00000E+00    9.99912E-05
 8.50000E+00    4.23852E-05
 9.00000E+00    1.81937E-05
 9.50000E+00    7.90818E-06
 1.00000E+01    3.48418E-06
 1.05000E+01    1.55781E-06
 1.10000E+01    6.79580E-07
 1.15000E+01    3.12870E-07
 1.20000E+01    1.46320E-07
 1.25000E+01    6.94580E-08
 1.30000E+01    3.34590E-08
 1.35000E+01    1.63460E-08
 1.40000E+01    8.09250E-09
 1.45000E+01    4.05880E-09
 1.50000E+01    2.06190E-09
 1.55000E+01    1.05970E-09
 1.60000E+01    5.48310E-10
 1.65000E+01    2.87990E-10
 1.70000E+01    1.52760E-10
 1.75000E+01    8.16480E-11
 1.80000E+01    4.37410E-11
 1.85000E+01    2.33140E-11
 1.90000E+01    1.24030E-11
 1.95000E+01    6.61370E-12
 2.00000E+01    3.54050E-12
 2.10000E+01    1.03080E-12
 2.20000E+01    3.06850E-13
 2.30000E+01    9.34020E-14
 2.40000E+01    2.90610E-14
 2.50000E+01    9.23050E-15
 2.60000E+01    2.99130E-15
 2.70000E+01    1.07260E-15
 2.80000E+01    3.61800E-16
 2.90000E+01    1.24130E-16
 3.00000E+01    4.32690E-17
