# n + Am241 : (n,n'29)  
# endfb8.0   T.Kawano,M.B.Chadwick             EVAL-Oct10
# uncertainties: n
# # energies =    77
#   E(MeV)       xs(mb) 
 6.55963E-01    0.00000E+00
 7.00000E-01    1.31561E+01
 8.00000E-01    2.48063E+01
 9.00000E-01    2.53801E+01
 1.00000E+00    2.17892E+01
 1.10000E+00    1.76139E+01
 1.20000E+00    1.41764E+01
 1.30000E+00    1.19345E+01
 1.40000E+00    1.06576E+01
 1.50000E+00    9.88504E+00
 1.60000E+00    9.30367E+00
 1.70000E+00    8.70147E+00
 1.80000E+00    7.93187E+00
 1.90000E+00    7.05265E+00
 2.00000E+00    6.19684E+00
 2.10000E+00    5.35145E+00
 2.20000E+00    4.67009E+00
 2.30000E+00    4.04082E+00
 2.40000E+00    3.46450E+00
 2.50000E+00    2.94326E+00
 2.60000E+00    2.48844E+00
 2.70000E+00    2.08137E+00
 2.80000E+00    1.72972E+00
 2.90000E+00    1.42987E+00
 3.00000E+00    1.17705E+00
 3.10000E+00    9.67180E-01
 3.20000E+00    7.90429E-01
 3.30000E+00    6.44001E-01
 3.40000E+00    5.23724E-01
 3.50000E+00    4.25321E-01
 3.60000E+00    3.44923E-01
 3.80000E+00    2.26437E-01
 4.00000E+00    1.48391E-01
 4.50000E+00    5.40427E-02
 5.00000E+00    1.86419E-02
 5.50000E+00    6.65787E-03
 6.00000E+00    2.50053E-03
 6.50000E+00    1.01934E-03
 6.75000E+00    5.55479E-04
 7.00000E+00    3.47340E-04
 7.25000E+00    2.18394E-04
 7.50000E+00    1.38067E-04
 8.00000E+00    5.60167E-05
 8.50000E+00    2.31440E-05
 9.00000E+00    9.72286E-06
 9.50000E+00    4.15134E-06
 1.00000E+01    1.80145E-06
 1.05000E+01    7.94710E-07
 1.10000E+01    3.42420E-07
 1.15000E+01    1.55810E-07
 1.20000E+01    7.20480E-08
 1.25000E+01    3.38320E-08
 1.30000E+01    1.61270E-08
 1.35000E+01    7.79950E-09
 1.40000E+01    3.82410E-09
 1.45000E+01    1.90020E-09
 1.50000E+01    9.56760E-10
 1.55000E+01    4.87580E-10
 1.60000E+01    2.50230E-10
 1.65000E+01    1.30420E-10
 1.70000E+01    6.86760E-11
 1.75000E+01    3.64570E-11
 1.80000E+01    1.94060E-11
 1.85000E+01    1.02810E-11
 1.90000E+01    5.43850E-12
 1.95000E+01    2.88440E-12
 2.00000E+01    1.53620E-12
 2.10000E+01    4.42990E-13
 2.20000E+01    1.30720E-13
 2.30000E+01    3.94730E-14
 2.40000E+01    1.21940E-14
 2.50000E+01    3.84900E-15
 2.60000E+01    1.24030E-15
 2.70000E+01    4.42480E-16
 2.80000E+01    1.48520E-16
 2.90000E+01    5.07220E-17
 3.00000E+01    1.76040E-17
