# n + Am241 : (n,n'08)  
# endfb8.0   T.Kawano,M.B.Chadwick             EVAL-Oct10
# uncertainties: n
# # energies =    83
#   E(MeV)       xs(mb) 
 2.74142E-01    0.00000E+00
 3.00000E-01    5.17865E+00
 3.50000E-01    1.49801E+01
 4.00000E-01    2.39513E+01
 4.50000E-01    3.15822E+01
 5.00000E-01    3.76313E+01
 6.00000E-01    4.62284E+01
 7.00000E-01    4.98550E+01
 8.00000E-01    4.95981E+01
 9.00000E-01    4.68605E+01
 1.00000E+00    4.26266E+01
 1.10000E+00    3.72384E+01
 1.20000E+00    3.15127E+01
 1.30000E+00    2.66265E+01
 1.40000E+00    2.31863E+01
 1.50000E+00    2.10790E+01
 1.60000E+00    1.96760E+01
 1.70000E+00    1.82487E+01
 1.80000E+00    1.63929E+01
 1.90000E+00    1.42657E+01
 2.00000E+00    1.22014E+01
 2.10000E+00    1.02415E+01
 2.20000E+00    8.68227E+00
 2.30000E+00    7.31991E+00
 2.40000E+00    6.13966E+00
 2.50000E+00    5.12455E+00
 2.60000E+00    4.27426E+00
 2.70000E+00    3.54008E+00
 2.80000E+00    2.92268E+00
 2.90000E+00    2.40667E+00
 3.00000E+00    1.97773E+00
 3.10000E+00    1.62508E+00
 3.20000E+00    1.32936E+00
 3.30000E+00    1.08487E+00
 3.40000E+00    8.83950E-01
 3.50000E+00    7.19247E-01
 3.60000E+00    5.84312E-01
 3.80000E+00    3.84584E-01
 4.00000E+00    2.52353E-01
 4.50000E+00    9.17303E-02
 5.00000E+00    3.15187E-02
 5.50000E+00    1.12347E-02
 6.00000E+00    4.21561E-03
 6.50000E+00    1.69915E-03
 6.75000E+00    9.84037E-04
 7.00000E+00    6.23520E-04
 7.25000E+00    3.97161E-04
 7.50000E+00    2.54170E-04
 8.00000E+00    1.05360E-04
 8.50000E+00    4.43020E-05
 9.00000E+00    1.88848E-05
 9.50000E+00    8.16596E-06
 1.00000E+01    3.58512E-06
 1.05000E+01    1.59942E-06
 1.10000E+01    6.96780E-07
 1.15000E+01    3.20470E-07
 1.20000E+01    1.49740E-07
 1.25000E+01    7.10210E-08
 1.30000E+01    3.41780E-08
 1.35000E+01    1.66810E-08
 1.40000E+01    8.25090E-09
 1.45000E+01    4.13490E-09
 1.50000E+01    2.09910E-09
 1.55000E+01    1.07830E-09
 1.60000E+01    5.57650E-10
 1.65000E+01    2.92780E-10
 1.70000E+01    1.55230E-10
 1.75000E+01    8.29340E-11
 1.80000E+01    4.44080E-11
 1.85000E+01    2.36570E-11
 1.90000E+01    1.25780E-11
 1.95000E+01    6.70350E-12
 2.00000E+01    3.58660E-12
 2.10000E+01    1.04320E-12
 2.20000E+01    3.10270E-13
 2.30000E+01    9.43820E-14
 2.40000E+01    2.93520E-14
 2.50000E+01    9.31950E-15
 2.60000E+01    3.01910E-15
 2.70000E+01    1.08230E-15
 2.80000E+01    3.64890E-16
 2.90000E+01    1.25130E-16
 3.00000E+01    4.35970E-17
