# n + Am241 : (n,n'12)  
# endfb8.0   T.Kawano,M.B.Chadwick             EVAL-Oct10
# uncertainties: n
# # energies =    81
#   E(MeV)       xs(mb) 
 3.82695E-01    0.00000E+00
 4.00000E-01    3.94952E-01
 4.50000E-01    1.83637E+00
 5.00000E-01    3.38765E+00
 6.00000E-01    6.03890E+00
 7.00000E-01    7.47634E+00
 8.00000E-01    7.51678E+00
 9.00000E-01    6.79750E+00
 1.00000E+00    6.10381E+00
 1.10000E+00    5.54224E+00
 1.20000E+00    5.08050E+00
 1.30000E+00    4.88215E+00
 1.40000E+00    5.12373E+00
 1.50000E+00    5.76833E+00
 1.60000E+00    6.41663E+00
 1.70000E+00    6.65917E+00
 1.80000E+00    6.42189E+00
 1.90000E+00    5.88691E+00
 2.00000E+00    5.25742E+00
 2.10000E+00    4.58570E+00
 2.20000E+00    4.02417E+00
 2.30000E+00    3.50291E+00
 2.40000E+00    3.02724E+00
 2.50000E+00    2.59881E+00
 2.60000E+00    2.22595E+00
 2.70000E+00    1.89053E+00
 2.80000E+00    1.59841E+00
 2.90000E+00    1.34626E+00
 3.00000E+00    1.13030E+00
 3.10000E+00    9.48073E-01
 3.20000E+00    7.90861E-01
 3.30000E+00    6.57643E-01
 3.40000E+00    5.45634E-01
 3.50000E+00    4.51804E-01
 3.60000E+00    3.73322E-01
 3.80000E+00    2.53834E-01
 4.00000E+00    1.71782E-01
 4.50000E+00    6.70367E-02
 5.00000E+00    2.45523E-02
 5.50000E+00    9.25331E-03
 6.00000E+00    3.63480E-03
 6.50000E+00    1.51809E-03
 6.75000E+00    8.76940E-04
 7.00000E+00    5.60818E-04
 7.25000E+00    3.59867E-04
 7.50000E+00    2.31678E-04
 8.00000E+00    9.69254E-05
 8.50000E+00    4.10683E-05
 9.00000E+00    1.76384E-05
 9.50000E+00    7.68749E-06
 1.00000E+01    3.40288E-06
 1.05000E+01    1.53068E-06
 1.10000E+01    6.72180E-07
 1.15000E+01    3.11520E-07
 1.20000E+01    1.46600E-07
 1.25000E+01    6.99900E-08
 1.30000E+01    3.38890E-08
 1.35000E+01    1.66340E-08
 1.40000E+01    8.27030E-09
 1.45000E+01    4.16440E-09
 1.50000E+01    2.12340E-09
 1.55000E+01    1.09520E-09
 1.60000E+01    5.68540E-10
 1.65000E+01    2.99560E-10
 1.70000E+01    1.59370E-10
 1.75000E+01    8.54300E-11
 1.80000E+01    4.58930E-11
 1.85000E+01    2.45260E-11
 1.90000E+01    1.30810E-11
 1.95000E+01    6.99190E-12
 2.00000E+01    3.75140E-12
 2.10000E+01    1.09660E-12
 2.20000E+01    3.27560E-13
 2.30000E+01    1.00010E-13
 2.40000E+01    3.12090E-14
 2.50000E+01    9.94140E-15
 2.60000E+01    3.23040E-15
 2.70000E+01    1.16120E-15
 2.80000E+01    3.92440E-16
 2.90000E+01    1.34870E-16
 3.00000E+01    4.70820E-17
