# n + Am241 : (n,n'14)  
# endfb8.0   T.Kawano,M.B.Chadwick             EVAL-Oct10
# uncertainties: n
# # energies =    79
#   E(MeV)       xs(mb) 
 4.54996E-01    0.00000E+00
 5.00000E-01    2.23445E-02
 6.00000E-01    1.77904E-01
 7.00000E-01    4.78543E-01
 8.00000E-01    8.28889E-01
 9.00000E-01    1.10402E+00
 1.00000E+00    1.28472E+00
 1.10000E+00    1.39208E+00
 1.20000E+00    1.44807E+00
 1.30000E+00    1.53096E+00
 1.40000E+00    1.74244E+00
 1.50000E+00    2.13553E+00
 1.60000E+00    2.59208E+00
 1.70000E+00    2.90169E+00
 1.80000E+00    2.97741E+00
 1.90000E+00    2.87479E+00
 2.00000E+00    2.68288E+00
 2.10000E+00    2.43008E+00
 2.20000E+00    2.20157E+00
 2.30000E+00    1.97000E+00
 2.40000E+00    1.74417E+00
 2.50000E+00    1.52989E+00
 2.60000E+00    1.33605E+00
 2.70000E+00    1.15498E+00
 2.80000E+00    9.92589E-01
 2.90000E+00    8.48804E-01
 3.00000E+00    7.22869E-01
 3.10000E+00    6.14652E-01
 3.20000E+00    5.19323E-01
 3.30000E+00    4.37143E-01
 3.40000E+00    3.66940E-01
 3.50000E+00    3.07249E-01
 3.60000E+00    2.56605E-01
 3.80000E+00    1.78001E-01
 4.00000E+00    1.22686E-01
 4.50000E+00    4.97704E-02
 5.00000E+00    1.88262E-02
 5.50000E+00    7.30584E-03
 6.00000E+00    2.95444E-03
 6.50000E+00    1.27324E-03
 6.75000E+00    7.30432E-04
 7.00000E+00    4.71645E-04
 7.25000E+00    3.05397E-04
 7.50000E+00    1.98278E-04
 8.00000E+00    8.42088E-05
 8.50000E+00    3.61391E-05
 9.00000E+00    1.56933E-05
 9.50000E+00    6.90691E-06
 1.00000E+01    3.08473E-06
 1.05000E+01    1.39915E-06
 1.10000E+01    6.19270E-07
 1.15000E+01    2.89150E-07
 1.20000E+01    1.37040E-07
 1.25000E+01    6.58740E-08
 1.30000E+01    3.21010E-08
 1.35000E+01    1.58510E-08
 1.40000E+01    7.92620E-09
 1.45000E+01    4.01250E-09
 1.50000E+01    2.05630E-09
 1.55000E+01    1.06560E-09
 1.60000E+01    5.55660E-10
 1.65000E+01    2.94030E-10
 1.70000E+01    1.57060E-10
 1.75000E+01    8.45180E-11
 1.80000E+01    4.55710E-11
 1.85000E+01    2.44410E-11
 1.90000E+01    1.30800E-11
 1.95000E+01    7.01440E-12
 2.00000E+01    3.77540E-12
 2.10000E+01    1.11010E-12
 2.20000E+01    3.33350E-13
 2.30000E+01    1.02270E-13
 2.40000E+01    3.20530E-14
 2.50000E+01    1.02510E-14
 2.60000E+01    3.34300E-15
 2.70000E+01    1.20570E-15
 2.80000E+01    4.08770E-16
 2.90000E+01    1.40890E-16
 3.00000E+01    4.93140E-17
