# n + Am241 : (n,n'20)  
# endfb8.0   T.Kawano,M.B.Chadwick             EVAL-Oct10
# uncertainties: n
# # energies =    78
#   E(MeV)       xs(mb) 
 5.33122E-01    0.00000E+00
 6.00000E-01    1.21859E-02
 7.00000E-01    5.88319E-02
 8.00000E-01    1.31078E-01
 9.00000E-01    2.03611E-01
 1.00000E+00    2.63663E-01
 1.10000E+00    3.11853E-01
 1.20000E+00    3.50954E-01
 1.30000E+00    3.98950E-01
 1.40000E+00    4.85379E-01
 1.50000E+00    6.37596E-01
 1.60000E+00    8.34954E-01
 1.70000E+00    1.00647E+00
 1.80000E+00    1.10452E+00
 1.90000E+00    1.13280E+00
 2.00000E+00    1.11522E+00
 2.10000E+00    1.05863E+00
 2.20000E+00    9.98254E-01
 2.30000E+00    9.24747E-01
 2.40000E+00    8.43846E-01
 2.50000E+00    7.60167E-01
 2.60000E+00    6.79881E-01
 2.70000E+00    6.00606E-01
 2.80000E+00    5.26535E-01
 2.90000E+00    4.58667E-01
 3.00000E+00    3.97450E-01
 3.10000E+00    3.43648E-01
 3.20000E+00    2.94923E-01
 3.30000E+00    2.51995E-01
 3.40000E+00    2.14586E-01
 3.50000E+00    1.82177E-01
 3.60000E+00    1.54184E-01
 3.80000E+00    1.09667E-01
 4.00000E+00    7.73532E-02
 4.50000E+00    3.29758E-02
 5.00000E+00    1.30099E-02
 5.50000E+00    5.24920E-03
 6.00000E+00    2.20848E-03
 6.50000E+00    9.94640E-04
 6.75000E+00    5.62222E-04
 7.00000E+00    3.67328E-04
 7.25000E+00    2.40492E-04
 7.50000E+00    1.57757E-04
 8.00000E+00    6.82447E-05
 8.50000E+00    2.97530E-05
 9.00000E+00    1.30982E-05
 9.50000E+00    5.83567E-06
 1.00000E+01    2.63569E-06
 1.05000E+01    1.20808E-06
 1.10000E+01    5.40020E-07
 1.15000E+01    2.54530E-07
 1.20000E+01    1.21710E-07
 1.25000E+01    5.89970E-08
 1.30000E+01    2.89780E-08
 1.35000E+01    1.44150E-08
 1.40000E+01    7.25800E-09
 1.45000E+01    3.69800E-09
 1.50000E+01    1.90660E-09
 1.55000E+01    9.93630E-10
 1.60000E+01    5.20900E-10
 1.65000E+01    2.77030E-10
 1.70000E+01    1.48690E-10
 1.75000E+01    8.03820E-11
 1.80000E+01    4.35310E-11
 1.85000E+01    2.34450E-11
 1.90000E+01    1.25980E-11
 1.95000E+01    6.78200E-12
 2.00000E+01    3.66380E-12
 2.10000E+01    1.08480E-12
 2.20000E+01    3.27790E-13
 2.30000E+01    1.01140E-13
 2.40000E+01    3.18630E-14
 2.50000E+01    1.02390E-14
 2.60000E+01    3.35390E-15
 2.70000E+01    1.21460E-15
 2.80000E+01    4.13350E-16
 2.90000E+01    1.42970E-16
 3.00000E+01    5.02090E-17
