# n + Am241 : (n,n'32)  
# endfb8.0   T.Kawano,M.B.Chadwick             EVAL-Oct10
# uncertainties: n
# # energies =    76
#   E(MeV)       xs(mb) 
 7.26929E-01    0.00000E+00
 8.00000E-01    4.75666E-05
 9.00000E-01    3.37856E-04
 1.00000E+00    1.00553E-03
 1.10000E+00    2.07690E-03
 1.20000E+00    3.58674E-03
 1.30000E+00    5.80826E-03
 1.40000E+00    9.56145E-03
 1.50000E+00    1.65048E-02
 1.60000E+00    2.80790E-02
 1.70000E+00    4.29959E-02
 1.80000E+00    5.80768E-02
 1.90000E+00    7.12924E-02
 2.00000E+00    8.19734E-02
 2.10000E+00    8.89477E-02
 2.20000E+00    9.38700E-02
 2.30000E+00    9.56902E-02
 2.40000E+00    9.47785E-02
 2.50000E+00    9.17098E-02
 2.60000E+00    8.74424E-02
 2.70000E+00    8.19214E-02
 2.80000E+00    7.58971E-02
 2.90000E+00    6.97020E-02
 3.00000E+00    6.35675E-02
 3.10000E+00    5.79387E-02
 3.20000E+00    5.22152E-02
 3.30000E+00    4.68032E-02
 3.40000E+00    4.17657E-02
 3.50000E+00    3.71158E-02
 3.60000E+00    3.28418E-02
 3.80000E+00    2.54288E-02
 4.00000E+00    1.94068E-02
 4.50000E+00    9.78883E-03
 5.00000E+00    4.43479E-03
 5.50000E+00    2.02575E-03
 6.00000E+00    9.67331E-04
 6.50000E+00    5.03129E-04
 6.75000E+00    2.54416E-04
 7.00000E+00    1.71313E-04
 7.25000E+00    1.15429E-04
 7.50000E+00    7.78146E-05
 8.00000E+00    3.53908E-05
 8.50000E+00    1.61239E-05
 9.00000E+00    7.37887E-06
 9.50000E+00    3.40365E-06
 1.00000E+01    1.58671E-06
 1.05000E+01    7.48880E-07
 1.10000E+01    3.44040E-07
 1.15000E+01    1.66370E-07
 1.20000E+01    8.14990E-08
 1.25000E+01    4.04090E-08
 1.30000E+01    2.02720E-08
 1.35000E+01    1.02860E-08
 1.40000E+01    5.27480E-09
 1.45000E+01    2.73390E-09
 1.50000E+01    1.43210E-09
 1.55000E+01    7.57560E-10
 1.60000E+01    4.02740E-10
 1.65000E+01    2.17030E-10
 1.70000E+01    1.17960E-10
 1.75000E+01    6.45280E-11
 1.80000E+01    3.53440E-11
 1.85000E+01    1.92430E-11
 1.90000E+01    1.04480E-11
 1.95000E+01    5.68080E-12
 2.00000E+01    3.09810E-12
 2.10000E+01    9.33580E-13
 2.20000E+01    2.86630E-13
 2.30000E+01    8.97210E-14
 2.40000E+01    2.86380E-14
 2.50000E+01    9.31340E-15
 2.60000E+01    3.08490E-15
 2.70000E+01    1.12880E-15
 2.80000E+01    3.87910E-16
 2.90000E+01    1.35400E-16
 3.00000E+01    4.79510E-17
