# n + Am241 : (n,n'26)  
# endfb8.0   T.Kawano,M.B.Chadwick             EVAL-Oct10
# uncertainties: n
# # energies =    77
#   E(MeV)       xs(mb) 
 6.39529E-01    0.00000E+00
 7.00000E-01    1.94746E+01
 8.00000E-01    4.11356E+01
 9.00000E-01    4.78604E+01
 1.00000E+00    4.39824E+01
 1.10000E+00    3.53058E+01
 1.20000E+00    2.65847E+01
 1.30000E+00    2.00828E+01
 1.40000E+00    1.59871E+01
 1.50000E+00    1.36422E+01
 1.60000E+00    1.23276E+01
 1.70000E+00    1.14120E+01
 1.80000E+00    1.04455E+01
 1.90000E+00    9.36456E+00
 2.00000E+00    8.29256E+00
 2.10000E+00    7.20198E+00
 2.20000E+00    6.30449E+00
 2.30000E+00    5.45857E+00
 2.40000E+00    4.67302E+00
 2.50000E+00    3.95672E+00
 2.60000E+00    3.32905E+00
 2.70000E+00    2.76755E+00
 2.80000E+00    2.28378E+00
 2.90000E+00    1.87323E+00
 3.00000E+00    1.52929E+00
 3.10000E+00    1.24580E+00
 3.20000E+00    1.00924E+00
 3.30000E+00    8.15056E-01
 3.40000E+00    6.57045E-01
 3.50000E+00    5.28992E-01
 3.60000E+00    4.25363E-01
 3.80000E+00    2.74676E-01
 4.00000E+00    1.77177E-01
 4.50000E+00    6.21626E-02
 5.00000E+00    2.07074E-02
 5.50000E+00    7.16676E-03
 6.00000E+00    2.62337E-03
 6.50000E+00    1.05003E-03
 6.75000E+00    5.68715E-04
 7.00000E+00    3.54450E-04
 7.25000E+00    2.22493E-04
 7.50000E+00    1.40599E-04
 8.00000E+00    5.71166E-05
 8.50000E+00    2.36412E-05
 9.00000E+00    9.93913E-06
 9.50000E+00    4.24050E-06
 1.00000E+01    1.83652E-06
 1.05000E+01    8.08030E-07
 1.10000E+01    3.47170E-07
 1.15000E+01    1.57540E-07
 1.20000E+01    7.26750E-08
 1.25000E+01    3.40590E-08
 1.30000E+01    1.62090E-08
 1.35000E+01    7.82970E-09
 1.40000E+01    3.83550E-09
 1.45000E+01    1.90480E-09
 1.50000E+01    9.58730E-10
 1.55000E+01    4.88520E-10
 1.60000E+01    2.50720E-10
 1.65000E+01    1.30700E-10
 1.70000E+01    6.88290E-11
 1.75000E+01    3.65410E-11
 1.80000E+01    1.94510E-11
 1.85000E+01    1.03040E-11
 1.90000E+01    5.44990E-12
 1.95000E+01    2.88980E-12
 2.00000E+01    1.53880E-12
 2.10000E+01    4.43600E-13
 2.20000E+01    1.30880E-13
 2.30000E+01    3.95220E-14
 2.40000E+01    1.22080E-14
 2.50000E+01    3.85200E-15
 2.60000E+01    1.24080E-15
 2.70000E+01    4.42520E-16
 2.80000E+01    1.48530E-16
 2.90000E+01    5.07290E-17
 3.00000E+01    1.76080E-17
