# n + Am241 : (n,n'35)  
# endfb8.0   T.Kawano,M.B.Chadwick             EVAL-Oct10
# uncertainties: n
# # energies =    76
#   E(MeV)       xs(mb) 
 7.90494E-01    0.00000E+00
 8.00000E-01    7.32115E-02
 9.00000E-01    1.95111E+00
 1.00000E+00    3.98687E+00
 1.10000E+00    5.26057E+00
 1.20000E+00    5.66823E+00
 1.30000E+00    5.57894E+00
 1.40000E+00    5.39092E+00
 1.50000E+00    5.32897E+00
 1.60000E+00    5.39393E+00
 1.70000E+00    5.45120E+00
 1.80000E+00    5.37950E+00
 1.90000E+00    5.17660E+00
 2.00000E+00    4.90118E+00
 2.10000E+00    4.53401E+00
 2.20000E+00    4.19550E+00
 2.30000E+00    3.81647E+00
 2.40000E+00    3.41191E+00
 2.50000E+00    3.00054E+00
 2.60000E+00    2.61027E+00
 2.70000E+00    2.23570E+00
 2.80000E+00    1.89555E+00
 2.90000E+00    1.59413E+00
 3.00000E+00    1.33221E+00
 3.10000E+00    1.10986E+00
 3.20000E+00    9.18337E-01
 3.30000E+00    7.56985E-01
 3.40000E+00    6.22498E-01
 3.50000E+00    5.11012E-01
 3.60000E+00    4.18801E-01
 3.80000E+00    2.80586E-01
 4.00000E+00    1.87421E-01
 4.50000E+00    7.08252E-02
 5.00000E+00    2.50003E-02
 5.50000E+00    9.07840E-03
 6.00000E+00    3.46148E-03
 6.50000E+00    1.42216E-03
 6.75000E+00    8.15142E-04
 7.00000E+00    5.20563E-04
 7.25000E+00    3.34614E-04
 7.50000E+00    2.16333E-04
 8.00000E+00    9.16587E-05
 8.50000E+00    3.93567E-05
 9.00000E+00    1.70805E-05
 9.50000E+00    7.49411E-06
 1.00000E+01    3.32866E-06
 1.05000E+01    1.49910E-06
 1.10000E+01    6.58330E-07
 1.15000E+01    3.04980E-07
 1.20000E+01    1.43480E-07
 1.25000E+01    6.85000E-08
 1.30000E+01    3.31770E-08
 1.35000E+01    1.62920E-08
 1.40000E+01    8.10560E-09
 1.45000E+01    4.08420E-09
 1.50000E+01    2.08380E-09
 1.55000E+01    1.07540E-09
 1.60000E+01    5.58590E-10
 1.65000E+01    2.94480E-10
 1.70000E+01    1.56740E-10
 1.75000E+01    8.40590E-11
 1.80000E+01    4.51770E-11
 1.85000E+01    2.41540E-11
 1.90000E+01    1.28880E-11
 1.95000E+01    6.89180E-12
 2.00000E+01    3.69940E-12
 2.10000E+01    1.08250E-12
 2.20000E+01    3.23700E-13
 2.30000E+01    9.89300E-14
 2.40000E+01    3.08930E-14
 2.50000E+01    9.84440E-15
 2.60000E+01    3.19970E-15
 2.70000E+01    1.15050E-15
 2.80000E+01    3.89020E-16
 2.90000E+01    1.33780E-16
 3.00000E+01    4.67330E-17
