# n + Am241 : (n,n'07)  
# endfb8.0   T.Kawano,M.B.Chadwick             EVAL-Oct10
# uncertainties: n
# # energies =    84
#   E(MeV)       xs(mb) 
 2.40000E-01    0.00000E+00
 2.50000E-01    1.31764E-02
 3.00000E-01    1.86696E-01
 3.50000E-01    4.51021E-01
 4.00000E-01    7.79473E-01
 4.50000E-01    1.18052E+00
 5.00000E-01    1.65004E+00
 6.00000E-01    2.76700E+00
 7.00000E-01    3.99015E+00
 8.00000E-01    5.20876E+00
 9.00000E-01    6.32223E+00
 1.00000E+00    7.22430E+00
 1.10000E+00    7.74536E+00
 1.20000E+00    7.80968E+00
 1.30000E+00    7.61943E+00
 1.40000E+00    7.40783E+00
 1.50000E+00    7.30358E+00
 1.60000E+00    7.24524E+00
 1.70000E+00    7.04353E+00
 1.80000E+00    6.56968E+00
 1.90000E+00    5.89757E+00
 2.00000E+00    5.17778E+00
 2.10000E+00    4.44801E+00
 2.20000E+00    3.84812E+00
 2.30000E+00    3.30752E+00
 2.40000E+00    2.82735E+00
 2.50000E+00    2.40522E+00
 2.60000E+00    2.04510E+00
 2.70000E+00    1.72709E+00
 2.80000E+00    1.45403E+00
 2.90000E+00    1.22086E+00
 3.00000E+00    1.02270E+00
 3.10000E+00    8.56429E-01
 3.20000E+00    7.13371E-01
 3.30000E+00    5.92371E-01
 3.40000E+00    4.90724E-01
 3.50000E+00    4.05617E-01
 3.60000E+00    3.34468E-01
 3.80000E+00    2.26273E-01
 4.00000E+00    1.52195E-01
 4.50000E+00    5.82897E-02
 5.00000E+00    2.09560E-02
 5.50000E+00    7.81161E-03
 6.00000E+00    3.07725E-03
 6.50000E+00    1.30927E-03
 6.75000E+00    7.52118E-04
 7.00000E+00    4.85187E-04
 7.25000E+00    3.14177E-04
 7.50000E+00    2.04091E-04
 8.00000E+00    8.67988E-05
 8.50000E+00    3.72760E-05
 9.00000E+00    1.61781E-05
 9.50000E+00    7.10839E-06
 1.00000E+01    3.16734E-06
 1.05000E+01    1.43298E-06
 1.10000E+01    6.32700E-07
 1.15000E+01    2.94760E-07
 1.20000E+01    1.39420E-07
 1.25000E+01    6.68990E-08
 1.30000E+01    3.25510E-08
 1.35000E+01    1.60530E-08
 1.40000E+01    8.01860E-09
 1.45000E+01    4.05610E-09
 1.50000E+01    2.07740E-09
 1.55000E+01    1.07620E-09
 1.60000E+01    5.61040E-10
 1.65000E+01    2.96820E-10
 1.70000E+01    1.58520E-10
 1.75000E+01    8.52810E-11
 1.80000E+01    4.59670E-11
 1.85000E+01    2.46430E-11
 1.90000E+01    1.31820E-11
 1.95000E+01    7.06580E-12
 2.00000E+01    3.80140E-12
 2.10000E+01    1.11710E-12
 2.20000E+01    3.35340E-13
 2.30000E+01    1.02870E-13
 2.40000E+01    3.22360E-14
 2.50000E+01    1.03070E-14
 2.60000E+01    3.36030E-15
 2.70000E+01    1.21160E-15
 2.80000E+01    4.10670E-16
 2.90000E+01    1.41520E-16
 3.00000E+01    4.95280E-17
