# n + Sr 84 : (n,n'09)  
# jendl4.0   K.Shibata, A.Ichihara, S.Kunieda  EVAL-AUG09
# uncertainties: n
# # energies =    28
#   E(MeV)       xs(mb) 
 2.47774E+00    0.00000E+00
 2.50000E+00    1.94800E+01
 3.00000E+00    1.20500E+02
 3.50000E+00    1.28200E+02
 4.00000E+00    9.48900E+01
 4.50000E+00    6.79000E+01
 5.00000E+00    4.23800E+01
 5.50000E+00    2.64700E+01
 6.00000E+00    1.56600E+01
 6.50000E+00    9.69400E+00
 7.00000E+00    6.13000E+00
 7.50000E+00    4.30800E+00
 8.00000E+00    3.17000E+00
 8.50000E+00    2.65700E+00
 9.00000E+00    2.22600E+00
 9.50000E+00    2.06500E+00
 1.00000E+01    1.83000E+00
 1.10000E+01    1.59200E+00
 1.20000E+01    1.41000E+00
 1.30000E+01    1.26400E+00
 1.40000E+01    1.14800E+00
 1.45000E+01    1.05100E+00
 1.50000E+01    1.04400E+00
 1.60000E+01    9.50700E-01
 1.70000E+01    8.67600E-01
 1.80000E+01    7.93100E-01
 1.90000E+01    6.71200E-01
 2.00000E+01    6.17900E-01
