# n + Sr 84 : (n,n'10)  
# jendl4.0   K.Shibata, A.Ichihara, S.Kunieda  EVAL-AUG09
# uncertainties: n
# # energies =    27
#   E(MeV)       xs(mb) 
 2.55535E+00    0.00000E+00
 3.00000E+00    5.29200E+01
 3.50000E+00    5.55700E+01
 4.00000E+00    3.68000E+01
 4.50000E+00    2.42500E+01
 5.00000E+00    1.43400E+01
 5.50000E+00    8.45900E+00
 6.00000E+00    4.71600E+00
 6.50000E+00    2.74400E+00
 7.00000E+00    1.63500E+00
 7.50000E+00    1.09000E+00
 8.00000E+00    7.67000E-01
 8.50000E+00    6.20200E-01
 9.00000E+00    5.05000E-01
 9.50000E+00    4.57800E-01
 1.00000E+01    3.97800E-01
 1.10000E+01    3.34800E-01
 1.20000E+01    2.88600E-01
 1.30000E+01    2.53500E-01
 1.40000E+01    2.27000E-01
 1.45000E+01    2.06800E-01
 1.50000E+01    2.04400E-01
 1.60000E+01    1.84700E-01
 1.70000E+01    1.67000E-01
 1.80000E+01    1.51100E-01
 1.90000E+01    1.26700E-01
 2.00000E+01    1.15900E-01
