# n + Sr 84 : (n,n'18)  
# jendl4.0   K.Shibata, A.Ichihara, S.Kunieda  EVAL-AUG09
# uncertainties: n
# # energies =    26
#   E(MeV)       xs(mb) 
 3.19559E+00    0.00000E+00
 3.50000E+00    6.42400E-01
 4.00000E+00    1.80100E+00
 4.50000E+00    2.87400E+00
 5.00000E+00    3.00000E+00
 5.50000E+00    2.73600E+00
 6.00000E+00    2.13800E+00
 6.50000E+00    1.66200E+00
 7.00000E+00    1.26800E+00
 7.50000E+00    1.04900E+00
 8.00000E+00    8.92900E-01
 8.50000E+00    8.51900E-01
 9.00000E+00    8.01000E-01
 9.50000E+00    8.24800E-01
 1.00000E+01    8.03300E-01
 1.10000E+01    8.22600E-01
 1.20000E+01    8.33600E-01
 1.30000E+01    8.35500E-01
 1.40000E+01    8.33200E-01
 1.45000E+01    7.95100E-01
 1.50000E+01    8.20100E-01
 1.60000E+01    7.99400E-01
 1.70000E+01    7.72800E-01
 1.80000E+01    7.42100E-01
 1.90000E+01    6.55500E-01
 2.00000E+01    6.27000E-01
