# n + Sr 84 : (n,n'08)  
# jendl4.0   K.Shibata, A.Ichihara, S.Kunieda  EVAL-AUG09
# uncertainties: n
# # energies =    28
#   E(MeV)       xs(mb) 
 2.41873E+00    0.00000E+00
 2.50000E+00    6.21200E+01
 3.00000E+00    1.89700E+02
 3.50000E+00    1.79000E+02
 4.00000E+00    1.22800E+02
 4.50000E+00    8.29700E+01
 5.00000E+00    4.96700E+01
 5.50000E+00    2.96500E+01
 6.00000E+00    1.67700E+01
 6.50000E+00    9.93300E+00
 7.00000E+00    6.03700E+00
 7.50000E+00    4.10200E+00
 8.00000E+00    2.93500E+00
 8.50000E+00    2.40500E+00
 9.00000E+00    1.97900E+00
 9.50000E+00    1.81000E+00
 1.00000E+01    1.58500E+00
 1.10000E+01    1.35300E+00
 1.20000E+01    1.18200E+00
 1.30000E+01    1.05000E+00
 1.40000E+01    9.48100E-01
 1.45000E+01    8.66300E-01
 1.50000E+01    8.58400E-01
 1.60000E+01    7.78300E-01
 1.70000E+01    7.05500E-01
 1.80000E+01    6.39800E-01
 1.90000E+01    5.37200E-01
 2.00000E+01    4.91300E-01
