# n + Sr 84 : (n,a)     
# jendl4.0   K.Shibata, A.Ichihara, S.Kunieda  EVAL-AUG09
# uncertainties: n
# # energies =    26
#   E(MeV)       xs(mb) 
 3.00000E+00    0.00000E+00
 3.50000E+00    1.05800E-03
 4.00000E+00    9.79500E-03
 4.50000E+00    7.14200E-02
 5.00000E+00    2.08100E-01
 5.50000E+00    5.22400E-01
 6.00000E+00    8.63700E-01
 6.50000E+00    1.27900E+00
 7.00000E+00    1.73400E+00
 7.50000E+00    2.18900E+00
 8.00000E+00    2.48500E+00
 8.50000E+00    2.75400E+00
 9.00000E+00    2.87600E+00
 9.50000E+00    3.09900E+00
 1.00000E+01    3.25400E+00
 1.10000E+01    4.00600E+00
 1.20000E+01    5.25700E+00
 1.30000E+01    6.99000E+00
 1.40000E+01    9.08200E+00
 1.45000E+01    1.01900E+01
 1.50000E+01    1.11600E+01
 1.60000E+01    1.25900E+01
 1.70000E+01    1.28900E+01
 1.80000E+01    1.21200E+01
 1.90000E+01    1.07300E+01
 2.00000E+01    9.22200E+00
