# n + Sr 84 : (n,el)    
# jendl4.0   K.Shibata, A.Ichihara, S.Kunieda  EVAL-AUG09
# uncertainties: n
# # energies =   171
#   E(MeV)       xs(mb) 
 1.00000E-11    1.02640E+04
 1.00000E-07    5.54507E+03
 4.13990E-07    5.54134E+03
 5.31580E-07    5.54057E+03
 6.82560E-07    5.53991E+03
 8.76420E-07    5.53906E+03
 1.12540E-06    5.53797E+03
 1.44500E-06    5.53657E+03
 1.85540E-06    5.53478E+03
 2.37240E-06    5.53248E+03
 3.05900E-06    5.52964E+03
 3.92790E-06    5.52611E+03
 5.04350E-06    5.52158E+03
 6.47600E-06    5.51575E+03
 8.31530E-06    5.50828E+03
 1.06770E-05    5.49868E+03
 1.37100E-05    5.48635E+03
 1.76030E-05    5.47053E+03
 2.26030E-05    5.44991E+03
 2.92030E-05    5.42376E+03
 3.72670E-05    5.39060E+03
 4.78510E-05    5.34758E+03
 6.14420E-05    5.28967E+03
 7.88930E-05    5.20368E+03
 1.01300E-04    5.08608E+03
 1.30070E-04    4.90293E+03
 1.67020E-04    4.59146E+03
 2.14450E-04    3.92998E+03
 2.75360E-04    1.89942E+03
 3.53580E-04    1.46088E+05
 4.54000E-04    7.36138E+03
 5.82950E-04    2.24751E+04
 7.48520E-04    7.15491E+03
 9.61120E-04    6.52166E+03
 1.23410E-03    5.90914E+03
 1.58460E-03    8.99666E+03
 2.03470E-03    5.78328E+03
 2.24870E-03    1.06300E+04
 2.48520E-03    5.67401E+03
 2.61260E-03    5.21331E+03
 2.74650E-03    2.33293E+04
 3.03540E-03    1.79642E+04
 3.35460E-03    1.97037E+04
 3.70740E-03    1.57936E+04
 4.30740E-03    1.49142E+04
 5.53080E-03    1.39272E+04
 7.10170E-03    1.30757E+04
 9.11880E-03    1.23882E+04
 1.17090E-02    1.19025E+04
 1.50340E-02    1.13090E+04
 1.93050E-02    1.08240E+04
 2.18750E-02    1.06782E+04
 2.35790E-02    1.06046E+04
 2.41760E-02    1.05663E+04
 2.47880E-02    1.05069E+04
 2.60580E-02    1.04366E+04
 2.70000E-02    1.03595E+04
 2.85000E-02    1.02213E+04
 3.18280E-02    1.01069E+04
 3.43070E-02    9.94828E+03
 4.08680E-02    9.77693E+03
 4.63090E-02    9.64777E+03
 5.24750E-02    9.55709E+03
 5.65620E-02    9.44934E+03
 6.73790E-02    9.35388E+03
 7.20000E-02    9.29476E+03
 7.95000E-02    9.24626E+03
 8.25000E-02    9.21925E+03
 8.65170E-02    9.16308E+03
 9.80370E-02    9.09106E+03
 1.11090E-01    9.04894E+03
 1.16790E-01    9.02324E+03
 1.22770E-01    8.99622E+03
 1.29070E-01    8.96779E+03
 1.35690E-01    8.93792E+03
 1.42640E-01    8.90652E+03
 1.49960E-01    8.87351E+03
 1.57640E-01    8.83881E+03
 1.65730E-01    8.80233E+03
 1.74220E-01    8.76397E+03
 1.83160E-01    8.72363E+03
 1.92550E-01    8.68139E+03
 2.02420E-01    8.64027E+03
 2.12800E-01    8.59845E+03
 2.23710E-01    8.55450E+03
 2.35180E-01    8.50828E+03
 2.47240E-01    8.43417E+03
 2.73240E-01    8.35495E+03
 2.87250E-01    8.31297E+03
 2.94520E-01    8.29337E+03
 2.97200E-01    8.28555E+03
 2.98500E-01    8.27607E+03
 3.01970E-01    8.20428E+03
 3.33730E-01    8.06596E+03
 3.68830E-01    7.95325E+03
 3.87740E-01    7.87298E+03
 4.07620E-01    7.74468E+03
 4.50490E-01    7.55878E+03
 4.97870E-01    7.40937E+03
 5.23400E-01    7.30657E+03
 5.50230E-01    7.19852E+03
 5.78440E-01    7.08523E+03
 6.08100E-01    6.97238E+03
 6.39280E-01    6.85619E+03
 6.72060E-01    6.73425E+03
 7.06510E-01    6.61352E+03
 7.42740E-01    6.49045E+03
 7.80820E-01    6.34506E+03
 8.20850E-01    6.06076E+03
 8.62940E-01    5.73431E+03
 9.07180E-01    5.43523E+03
 9.61640E-01    5.17915E+03
 1.00260E+00    4.93286E+03
 1.10800E+00    4.70837E+03
 1.16480E+00    4.54830E+03
 1.22460E+00    4.38012E+03
 1.28730E+00    4.20330E+03
 1.35340E+00    4.01741E+03
 1.42270E+00    3.81043E+03
 1.49570E+00    3.57319E+03
 1.57240E+00    3.44439E+03
 1.65300E+00    3.30718E+03
 1.73770E+00    3.15890E+03
 1.82680E+00    2.96786E+03
 1.92050E+00    2.76265E+03
 2.01900E+00    2.68482E+03
 2.12250E+00    2.62307E+03
 2.23130E+00    2.55469E+03
 2.30690E+00    2.50955E+03
 2.34570E+00    2.47477E+03
 2.36530E+00    2.44959E+03
 2.38520E+00    2.37522E+03
 2.46600E+00    2.21648E+03
 2.59240E+00    2.16820E+03
 2.72530E+00    2.10365E+03
 2.86500E+00    2.01080E+03
 3.01190E+00    1.94108E+03
 3.16640E+00    1.90804E+03
 3.32870E+00    1.77169E+03
 3.67880E+00    1.73871E+03
 4.06570E+00    1.76081E+03
 4.49330E+00    1.79121E+03
 4.72370E+00    1.81947E+03
 4.96590E+00    1.84941E+03
 5.22050E+00    1.88245E+03
 5.48810E+00    1.91774E+03
 5.76950E+00    1.95484E+03
 6.06530E+00    1.99210E+03
 6.37630E+00    2.02152E+03
 6.59240E+00    2.03934E+03
 6.70320E+00    2.06032E+03
 7.04690E+00    2.09013E+03
 7.40820E+00    2.11592E+03
 7.78800E+00    2.13632E+03
 8.18730E+00    2.15045E+03
 8.60710E+00    2.15880E+03
 9.04840E+00    2.15742E+03
 9.51230E+00    2.14987E+03
 1.00000E+01    2.13225E+03
 1.05130E+01    2.10810E+03
 1.10520E+01    2.07565E+03
 1.16180E+01    2.03998E+03
 1.22140E+01    1.99488E+03
 1.28400E+01    1.93377E+03
 1.34990E+01    1.88885E+03
 1.38400E+01    1.85789E+03
 1.41910E+01    1.82548E+03
 1.45500E+01    1.79188E+03
 1.49180E+01    1.74027E+03
 1.56830E+01    1.66988E+03
 1.64870E+01    1.59795E+03
