# n + Gd157 : (n,tot)   
# jendl4.0   N.Iwamoto,A.Zukeran,K.Shibata     EVAL-Dec09
# uncertainties: n
# # energies =   171
#   E(MeV)       xs(mb) 
 1.00000E-11    2.10737E+09
 1.00000E-07    1.22394E+07
 4.13990E-07    8.32153E+05
 5.31580E-07    4.38331E+05
 6.82560E-07    2.33564E+05
 8.76420E-07    1.26550E+05
 1.12540E-06    7.06967E+04
 1.44500E-06    4.26288E+04
 1.85540E-06    3.58101E+04
 2.37240E-06    4.41512E+05
 3.05900E-06    3.20942E+04
 3.92790E-06    7.58305E+03
 5.04350E-06    4.57057E+03
 6.47600E-06    3.46750E+03
 8.31530E-06    3.15735E+03
 1.06770E-05    4.23873E+03
 1.37100E-05    5.09045E+05
 1.76030E-05    3.44231E+05
 2.26030E-05    5.03176E+04
 2.92030E-05    2.56760E+03
 3.72670E-05    5.75924E+04
 4.78510E-05    2.11865E+05
 6.14420E-05    2.53776E+04
 7.88930E-05    9.97644E+04
 1.01300E-04    2.03171E+05
 1.30070E-04    7.37866E+04
 1.67020E-04    9.95060E+04
 2.14450E-04    7.53654E+04
 2.75360E-04    5.54719E+04
 3.53580E-04    4.74108E+04
 4.54000E-04    4.25359E+04
 5.82950E-04    3.81962E+04
 7.48520E-04    3.43706E+04
 9.61120E-04    3.10570E+04
 1.23410E-03    2.82366E+04
 1.58460E-03    2.56756E+04
 2.03470E-03    2.40146E+04
 2.24870E-03    2.31188E+04
 2.48520E-03    2.24674E+04
 2.61260E-03    2.20442E+04
 2.74650E-03    2.14253E+04
 3.03540E-03    2.06259E+04
 3.35460E-03    1.98563E+04
 3.70740E-03    1.89537E+04
 4.30740E-03    1.77356E+04
 5.53080E-03    1.63401E+04
 7.10170E-03    1.51007E+04
 9.11880E-03    1.40171E+04
 1.17090E-02    1.31040E+04
 1.50340E-02    1.22586E+04
 1.93050E-02    1.16707E+04
 2.18750E-02    1.13968E+04
 2.35790E-02    1.12631E+04
 2.41760E-02    1.11972E+04
 2.47880E-02    1.10991E+04
 2.60580E-02    1.09876E+04
 2.70000E-02    1.08724E+04
 2.85000E-02    1.06666E+04
 3.18280E-02    1.04495E+04
 3.43070E-02    1.01674E+04
 4.08680E-02    9.85713E+03
 4.63090E-02    9.61939E+03
 5.24750E-02    9.43315E+03
 5.65620E-02    9.20889E+03
 6.73790E-02    9.01081E+03
 7.20000E-02    8.88296E+03
 7.95000E-02    8.77895E+03
 8.25000E-02    8.71496E+03
 8.65170E-02    8.58598E+03
 9.80370E-02    8.41534E+03
 1.11090E-01    8.30945E+03
 1.16790E-01    8.24469E+03
 1.22770E-01    8.18115E+03
 1.29070E-01    8.12461E+03
 1.35690E-01    8.06562E+03
 1.42640E-01    8.00360E+03
 1.49960E-01    7.94288E+03
 1.57640E-01    7.89169E+03
 1.65730E-01    7.84244E+03
 1.74220E-01    7.80115E+03
 1.83160E-01    7.75830E+03
 1.92550E-01    7.71328E+03
 2.02420E-01    7.66594E+03
 2.12800E-01    7.62117E+03
 2.23710E-01    7.58094E+03
 2.35180E-01    7.53868E+03
 2.47240E-01    7.48525E+03
 2.73240E-01    7.45094E+03
 2.87250E-01    7.43358E+03
 2.94520E-01    7.42548E+03
 2.97200E-01    7.42224E+03
 2.98500E-01    7.41837E+03
 3.01970E-01    7.39018E+03
 3.33730E-01    7.33911E+03
 3.68830E-01    7.30695E+03
 3.87740E-01    7.28507E+03
 4.07620E-01    7.27235E+03
 4.50490E-01    7.26547E+03
 4.97870E-01    7.25987E+03
 5.23400E-01    7.25588E+03
 5.50230E-01    7.25169E+03
 5.78440E-01    7.24728E+03
 6.08100E-01    7.24264E+03
 6.39280E-01    7.23953E+03
 6.72060E-01    7.23957E+03
 7.06510E-01    7.23969E+03
 7.42740E-01    7.23981E+03
 7.80820E-01    7.23995E+03
 8.20850E-01    7.24008E+03
 8.62940E-01    7.24023E+03
 9.07180E-01    7.24040E+03
 9.61640E-01    7.24054E+03
 1.00260E+00    7.22568E+03
 1.10800E+00    7.20323E+03
 1.16480E+00    7.18723E+03
 1.22460E+00    7.16587E+03
 1.28730E+00    7.13538E+03
 1.35340E+00    7.10318E+03
 1.42270E+00    7.06935E+03
 1.49570E+00    7.02955E+03
 1.57240E+00    6.97900E+03
 1.65300E+00    6.92562E+03
 1.73770E+00    6.86949E+03
 1.82680E+00    6.81044E+03
 1.92050E+00    6.74523E+03
 2.01900E+00    6.67429E+03
 2.12250E+00    6.59975E+03
 2.23130E+00    6.53481E+03
 2.30690E+00    6.49452E+03
 2.34570E+00    6.47399E+03
 2.36530E+00    6.46011E+03
 2.38520E+00    6.42489E+03
 2.46600E+00    6.35233E+03
 2.59240E+00    6.26303E+03
 2.72530E+00    6.17848E+03
 2.86500E+00    6.09095E+03
 3.01190E+00    5.99891E+03
 3.16640E+00    5.91030E+03
 3.32870E+00    5.77950E+03
 3.67880E+00    5.60317E+03
 4.06570E+00    5.43244E+03
 4.49330E+00    5.30963E+03
 4.72370E+00    5.23327E+03
 4.96590E+00    5.15984E+03
 5.22050E+00    5.09504E+03
 5.48810E+00    5.03396E+03
 5.76950E+00    4.98387E+03
 6.06530E+00    4.93983E+03
 6.37630E+00    4.91155E+03
 6.59240E+00    4.89658E+03
 6.70320E+00    4.88431E+03
 7.04690E+00    4.87017E+03
 7.40820E+00    4.86870E+03
 7.78800E+00    4.87882E+03
 8.18730E+00    4.89739E+03
 8.60710E+00    4.92483E+03
 9.04840E+00    4.95773E+03
 9.51230E+00    5.00008E+03
 1.00000E+01    5.04744E+03
 1.05130E+01    5.10009E+03
 1.10520E+01    5.15499E+03
 1.16180E+01    5.20968E+03
 1.22140E+01    5.26127E+03
 1.28400E+01    5.30661E+03
 1.34990E+01    5.33486E+03
 1.38400E+01    5.35019E+03
 1.41910E+01    5.36201E+03
 1.45500E+01    5.37019E+03
 1.49180E+01    5.37517E+03
 1.56830E+01    5.36767E+03
 1.64870E+01    5.34348E+03
