# n + Gd157 : (n,n'05)  
# jendl4.0   N.Iwamoto,A.Zukeran,K.Shibata     EVAL-Dec09
# uncertainties: n
# # energies =    87
#   E(MeV)       xs(mb) 
 1.81387E-01    0.00000E+00
 1.90000E-01    1.27691E+00
 2.00000E-01    2.73911E+00
 2.25000E-01    7.18294E+00
 2.28771E-01    7.90818E+00
 2.50000E-01    1.13063E+01
 2.74000E-01    1.58825E+01
 2.75000E-01    1.60307E+01
 3.00000E-01    2.07967E+01
 3.17025E-01    2.41955E+01
 3.49482E-01    3.02310E+01
 3.63421E-01    3.27286E+01
 3.74391E-01    3.47186E+01
 4.00000E-01    3.94617E+01
 4.29342E-01    4.51388E+01
 4.37218E-01    4.65628E+01
 4.77680E-01    5.22604E+01
 4.81948E-01    5.26948E+01
 5.00000E-01    5.51775E+01
 5.12272E-01    5.69093E+01
 5.17979E-01    5.77199E+01
 5.28224E-01    5.80624E+01
 5.69638E-01    6.13794E+01
 5.83185E-01    6.23966E+01
 6.00000E-01    6.29737E+01
 6.11494E-01    6.35526E+01
 6.16336E-01    6.34465E+01
 6.21449E-01    6.35620E+01
 6.44677E-01    6.37251E+01
 6.59915E-01    6.42131E+01
 6.68801E-01    6.43675E+01
 6.87290E-01    6.46885E+01
 6.87625E-01    6.46970E+01
 6.91082E-01    6.46684E+01
 7.00000E-01    6.44470E+01
 7.05898E-01    6.44771E+01
 8.00000E-01    6.67609E+01
 9.00000E-01    6.60540E+01
 1.00000E+00    6.24724E+01
 1.10000E+00    5.80661E+01
 1.20000E+00    5.34582E+01
 1.30000E+00    4.82111E+01
 1.40000E+00    4.31676E+01
 1.50000E+00    3.83741E+01
 1.60000E+00    3.39563E+01
 1.70000E+00    2.99438E+01
 1.80000E+00    2.63206E+01
 1.90000E+00    2.30672E+01
 2.00000E+00    2.01744E+01
 2.25000E+00    1.40802E+01
 2.50000E+00    1.01342E+01
 2.75000E+00    7.06972E+00
 3.00000E+00    5.10233E+00
 3.50000E+00    2.54274E+00
 4.00000E+00    1.27388E+00
 4.50000E+00    6.57873E-01
 5.00000E+00    3.65229E-01
 5.50000E+00    2.26225E-01
 6.00000E+00    1.58805E-01
 6.50000E+00    1.24191E-01
 7.00000E+00    1.04812E-01
 7.50000E+00    9.25226E-02
 8.00000E+00    8.36731E-02
 8.50000E+00    7.66678E-02
 9.00000E+00    7.07804E-02
 9.50000E+00    6.56849E-02
 1.00000E+01    6.11972E-02
 1.05000E+01    5.72173E-02
 1.10000E+01    5.36565E-02
 1.15000E+01    5.04536E-02
 1.20000E+01    4.75545E-02
 1.25000E+01    4.49142E-02
 1.30000E+01    4.24959E-02
 1.35000E+01    4.02723E-02
 1.40000E+01    3.82210E-02
 1.45000E+01    3.63232E-02
 1.50000E+01    3.45638E-02
 1.55000E+01    3.29333E-02
 1.60000E+01    3.14191E-02
 1.65000E+01    3.00130E-02
 1.70000E+01    2.87073E-02
 1.75000E+01    2.74945E-02
 1.80000E+01    2.63646E-02
 1.85000E+01    2.53066E-02
 1.90000E+01    2.43096E-02
 1.95000E+01    2.33650E-02
 2.00000E+01    2.24666E-02
