# n + Gd157 : (n,n'07)  
# jendl4.0   N.Iwamoto,A.Zukeran,K.Shibata     EVAL-Dec09
# uncertainties: n
# # energies =    81
#   E(MeV)       xs(mb) 
 2.74000E-01    0.00000E+00
 2.75000E-01    1.89377E-01
 3.00000E-01    1.36980E+00
 3.17025E-01    2.22685E+00
 3.49482E-01    3.80848E+00
 3.63421E-01    4.52009E+00
 3.74391E-01    5.09686E+00
 4.00000E-01    6.38781E+00
 4.29342E-01    7.96045E+00
 4.37218E-01    8.36302E+00
 4.77680E-01    1.03814E+01
 4.81948E-01    1.05997E+01
 5.00000E-01    1.15185E+01
 5.12272E-01    1.21488E+01
 5.17979E-01    1.24447E+01
 5.28224E-01    1.26975E+01
 5.69638E-01    1.41221E+01
 5.83185E-01    1.45338E+01
 6.00000E-01    1.49819E+01
 6.11494E-01    1.53354E+01
 6.16336E-01    1.54325E+01
 6.21449E-01    1.55690E+01
 6.44677E-01    1.59467E+01
 6.59915E-01    1.63371E+01
 6.68801E-01    1.65020E+01
 6.87290E-01    1.67507E+01
 6.87625E-01    1.67562E+01
 6.91082E-01    1.68142E+01
 7.00000E-01    1.69037E+01
 7.05898E-01    1.69913E+01
 8.00000E-01    1.88888E+01
 9.00000E-01    2.07419E+01
 1.00000E+00    2.10047E+01
 1.10000E+00    2.07947E+01
 1.20000E+00    2.03712E+01
 1.30000E+00    1.96895E+01
 1.40000E+00    1.86032E+01
 1.50000E+00    1.73568E+01
 1.60000E+00    1.60407E+01
 1.70000E+00    1.47102E+01
 1.80000E+00    1.33948E+01
 1.90000E+00    1.21209E+01
 2.00000E+00    1.09147E+01
 2.25000E+00    8.11692E+00
 2.50000E+00    6.15270E+00
 2.75000E+00    4.48840E+00
 3.00000E+00    3.48843E+00
 3.50000E+00    1.89831E+00
 4.00000E+00    1.04139E+00
 4.50000E+00    5.95455E-01
 5.00000E+00    3.69339E-01
 5.50000E+00    2.54488E-01
 6.00000E+00    1.94221E-01
 6.50000E+00    1.60360E-01
 7.00000E+00    1.39454E-01
 7.50000E+00    1.24978E-01
 8.00000E+00    1.13865E-01
 8.50000E+00    1.04721E-01
 9.00000E+00    9.68695E-02
 9.50000E+00    8.99953E-02
 1.00000E+01    8.39032E-02
 1.05000E+01    7.84821E-02
 1.10000E+01    7.36224E-02
 1.15000E+01    6.92466E-02
 1.20000E+01    6.52834E-02
 1.25000E+01    6.16726E-02
 1.30000E+01    5.83642E-02
 1.35000E+01    5.53213E-02
 1.40000E+01    5.25131E-02
 1.45000E+01    4.99143E-02
 1.50000E+01    4.75040E-02
 1.55000E+01    4.52732E-02
 1.60000E+01    4.32012E-02
 1.65000E+01    4.12765E-02
 1.70000E+01    3.94888E-02
 1.75000E+01    3.78281E-02
 1.80000E+01    3.62812E-02
 1.85000E+01    3.48330E-02
 1.90000E+01    3.34687E-02
 1.95000E+01    3.21763E-02
 2.00000E+01    3.09469E-02
