# n + Gd157 : (n,n'06)  
# jendl4.0   N.Iwamoto,A.Zukeran,K.Shibata     EVAL-Dec09
# uncertainties: n
# # energies =    83
#   E(MeV)       xs(mb) 
 2.28771E-01    0.00000E+00
 2.50000E-01    1.14894E+01
 2.74000E-01    1.81471E+01
 2.75000E-01    1.83847E+01
 3.00000E-01    2.43192E+01
 3.17025E-01    2.80133E+01
 3.49482E-01    3.39945E+01
 3.63421E-01    3.63685E+01
 3.74391E-01    3.82128E+01
 4.00000E-01    4.22814E+01
 4.29342E-01    4.69723E+01
 4.37218E-01    4.82295E+01
 4.77680E-01    5.38203E+01
 4.81948E-01    5.43814E+01
 5.00000E-01    5.65781E+01
 5.12272E-01    5.80696E+01
 5.17979E-01    5.87679E+01
 5.28224E-01    5.91244E+01
 5.69638E-01    6.19719E+01
 5.83185E-01    6.30114E+01
 6.00000E-01    6.37614E+01
 6.11494E-01    6.45571E+01
 6.16336E-01    6.46221E+01
 6.21449E-01    6.48753E+01
 6.44677E-01    6.52772E+01
 6.59915E-01    6.59645E+01
 6.68801E-01    6.62795E+01
 6.87290E-01    6.69461E+01
 6.87625E-01    6.69565E+01
 6.91082E-01    6.70779E+01
 7.00000E-01    6.71853E+01
 7.05898E-01    6.73641E+01
 8.00000E-01    7.17070E+01
 9.00000E-01    7.43378E+01
 1.00000E+00    7.27804E+01
 1.10000E+00    7.05370E+01
 1.20000E+00    6.81275E+01
 1.30000E+00    6.48410E+01
 1.40000E+00    6.12785E+01
 1.50000E+00    5.78056E+01
 1.60000E+00    5.46071E+01
 1.70000E+00    5.17448E+01
 1.80000E+00    4.92249E+01
 1.90000E+00    4.70442E+01
 2.00000E+00    4.52020E+01
 2.25000E+00    4.16569E+01
 2.50000E+00    4.02336E+01
 2.75000E+00    3.96499E+01
 3.00000E+00    4.01547E+01
 3.50000E+00    4.20714E+01
 4.00000E+00    4.43009E+01
 4.50000E+00    4.61155E+01
 5.00000E+00    4.75452E+01
 5.50000E+00    4.86448E+01
 6.00000E+00    4.94740E+01
 6.50000E+00    4.99883E+01
 7.00000E+00    5.02200E+01
 7.50000E+00    5.01818E+01
 8.00000E+00    4.99400E+01
 8.50000E+00    4.95259E+01
 9.00000E+00    4.89954E+01
 9.50000E+00    4.83839E+01
 1.00000E+01    4.77356E+01
 1.05000E+01    4.70790E+01
 1.10000E+01    4.64347E+01
 1.15000E+01    4.58114E+01
 1.20000E+01    4.52078E+01
 1.25000E+01    4.46154E+01
 1.30000E+01    4.40227E+01
 1.35000E+01    4.34181E+01
 1.40000E+01    4.27932E+01
 1.45000E+01    4.21423E+01
 1.50000E+01    4.14625E+01
 1.55000E+01    4.07529E+01
 1.60000E+01    4.00148E+01
 1.65000E+01    3.92537E+01
 1.70000E+01    3.84790E+01
 1.75000E+01    3.77030E+01
 1.80000E+01    3.69376E+01
 1.85000E+01    3.61907E+01
 1.90000E+01    3.54648E+01
 1.95000E+01    3.47577E+01
 2.00000E+01    3.40654E+01
