# n + Gd157 : (n,xn)    
# jendl4.0   N.Iwamoto,A.Zukeran,K.Shibata     EVAL-Dec09
# 
# # energies =   107
#   E(MeV)        xs(mb) 
 5.48835E-02    0.00000E+00
 6.00000E-02    2.31480E+02
 6.43278E-02    2.82955E+02
 7.00000E-02    5.13425E+02
 8.00000E-02    6.32803E+02
 9.00000E-02    7.08900E+02
 1.00000E-01    7.66080E+02
 1.05000E-01    7.88581E+02
 1.10000E-01    8.11090E+02
 1.16461E-01    8.35813E+02
 1.20000E-01    8.73192E+02
 1.30000E-01    9.19826E+02
 1.32300E-01    9.28533E+02
 1.40000E-01    9.66015E+02
 1.50000E-01    1.00291E+03
 1.60000E-01    1.03527E+03
 1.70000E-01    1.06345E+03
 1.80000E-01    1.08852E+03
 1.81387E-01    1.09140E+03
 1.81388E-01    1.09140E+03
 1.90000E-01    1.11162E+03
 2.00000E-01    1.13337E+03
 2.25000E-01    1.18043E+03
 2.28771E-01    1.18631E+03
 2.50000E-01    1.22109E+03
 2.74000E-01    1.26159E+03
 2.75000E-01    1.26330E+03
 3.00000E-01    1.30095E+03
 3.17025E-01    1.32377E+03
 3.49482E-01    1.36176E+03
 3.63421E-01    1.37725E+03
 3.74391E-01    1.38894E+03
 4.00000E-01    1.41488E+03
 4.29342E-01    1.45437E+03
 4.37218E-01    1.46456E+03
 4.77680E-01    1.54647E+03
 4.81948E-01    1.57023E+03
 5.00000E-01    1.61438E+03
 5.12272E-01    1.63874E+03
 5.17979E-01    1.64922E+03
 5.28224E-01    1.66968E+03
 5.69638E-01    1.75583E+03
 5.83185E-01    1.77782E+03
 6.00000E-01    1.80534E+03
 6.11494E-01    1.82228E+03
 6.16336E-01    1.83331E+03
 6.21449E-01    1.84220E+03
 6.44677E-01    1.88197E+03
 6.59915E-01    1.90664E+03
 6.68801E-01    1.92060E+03
 6.87289E-01    1.94802E+03
 6.87290E-01    1.94804E+03
 6.87625E-01    1.95048E+03
 6.91082E-01    1.96407E+03
 7.00000E-01    1.98758E+03
 7.05898E-01    2.00006E+03
 8.00000E-01    2.15695E+03
 9.00000E-01    2.27657E+03
 1.00000E+00    2.38779E+03
 1.10000E+00    2.48103E+03
 1.20000E+00    2.55592E+03
 1.30000E+00    2.61566E+03
 1.40000E+00    2.66275E+03
 1.50000E+00    2.70006E+03
 1.60000E+00    2.72928E+03
 1.70000E+00    2.75213E+03
 1.80000E+00    2.77000E+03
 1.90000E+00    2.78413E+03
 2.00000E+00    2.79544E+03
 2.25000E+00    2.81724E+03
 2.50000E+00    2.83258E+03
 2.75000E+00    2.84862E+03
 3.00000E+00    2.86449E+03
 3.50000E+00    2.88605E+03
 4.00000E+00    2.88636E+03
 4.50000E+00    2.86570E+03
 5.00000E+00    2.83544E+03
 5.50000E+00    2.80134E+03
 6.00000E+00    2.76907E+03
 6.50000E+00    2.81461E+03
 7.00000E+00    2.93948E+03
 7.50000E+00    3.36159E+03
 8.00000E+00    3.72014E+03
 8.50000E+00    3.96747E+03
 9.00000E+00    4.13199E+03
 9.50000E+00    4.24068E+03
 1.00000E+01    4.31096E+03
 1.05000E+01    4.35572E+03
 1.10000E+01    4.38342E+03
 1.15000E+01    4.39994E+03
 1.20000E+01    4.40896E+03
 1.25000E+01    4.41289E+03
 1.30000E+01    4.41278E+03
 1.35000E+01    4.40950E+03
 1.40000E+01    4.40352E+03
 1.45000E+01    4.39425E+03
 1.50000E+01    4.38420E+03
 1.55000E+01    4.37386E+03
 1.60000E+01    4.38553E+03
 1.65000E+01    4.44396E+03
 1.70000E+01    4.55074E+03
 1.75000E+01    4.69104E+03
 1.80000E+01    4.83360E+03
 1.85000E+01    4.98514E+03
 1.90000E+01    5.11273E+03
 1.95000E+01    5.22330E+03
 2.00000E+01    5.31841E+03
