# n + Gd157 : (n,n'11)  
# jendl4.0   N.Iwamoto,A.Zukeran,K.Shibata     EVAL-Dec09
# uncertainties: n
# # energies =    75
#   E(MeV)       xs(mb) 
 3.74391E-01    0.00000E+00
 4.00000E-01    1.16501E-02
 4.29342E-01    3.61381E-02
 4.37218E-01    4.30450E-02
 4.77680E-01    1.01717E-01
 4.81948E-01    1.09742E-01
 5.00000E-01    1.45311E-01
 5.12272E-01    1.75158E-01
 5.17979E-01    1.90261E-01
 5.28224E-01    2.18926E-01
 5.69638E-01    3.60745E-01
 5.83185E-01    4.09160E-01
 6.00000E-01    4.77907E-01
 6.11494E-01    5.31159E-01
 6.16336E-01    5.54750E-01
 6.21449E-01    5.80468E-01
 6.44677E-01    6.96902E-01
 6.59915E-01    7.81977E-01
 6.68801E-01    8.24502E-01
 6.87290E-01    9.18212E-01
 6.87625E-01    9.20151E-01
 6.91082E-01    9.40339E-01
 7.00000E-01    9.94103E-01
 7.05898E-01    1.03104E+00
 8.00000E-01    1.74192E+00
 9.00000E-01    2.61440E+00
 1.00000E+00    3.49870E+00
 1.10000E+00    4.17122E+00
 1.20000E+00    4.73690E+00
 1.30000E+00    5.19562E+00
 1.40000E+00    5.51409E+00
 1.50000E+00    5.61037E+00
 1.60000E+00    5.57677E+00
 1.70000E+00    5.44232E+00
 1.80000E+00    5.22938E+00
 1.90000E+00    4.96047E+00
 2.00000E+00    4.65774E+00
 2.25000E+00    3.78190E+00
 2.50000E+00    3.07314E+00
 2.75000E+00    2.37592E+00
 3.00000E+00    2.04313E+00
 3.50000E+00    1.23281E+00
 4.00000E+00    7.45206E-01
 4.50000E+00    4.68088E-01
 5.00000E+00    3.16427E-01
 5.50000E+00    2.33278E-01
 6.00000E+00    1.86289E-01
 6.50000E+00    1.57872E-01
 7.00000E+00    1.39151E-01
 7.50000E+00    1.25534E-01
 8.00000E+00    1.14753E-01
 8.50000E+00    1.05728E-01
 9.00000E+00    9.79058E-02
 9.50000E+00    9.10221E-02
 1.00000E+01    8.49031E-02
 1.05000E+01    7.94469E-02
 1.10000E+01    7.45515E-02
 1.15000E+01    7.01407E-02
 1.20000E+01    6.61443E-02
 1.25000E+01    6.25022E-02
 1.30000E+01    5.91643E-02
 1.35000E+01    5.60931E-02
 1.40000E+01    5.32578E-02
 1.45000E+01    5.06328E-02
 1.50000E+01    4.81974E-02
 1.55000E+01    4.59436E-02
 1.60000E+01    4.38497E-02
 1.65000E+01    4.19043E-02
 1.70000E+01    4.00967E-02
 1.75000E+01    3.84175E-02
 1.80000E+01    3.68535E-02
 1.85000E+01    3.53861E-02
 1.90000E+01    3.39965E-02
 1.95000E+01    3.26809E-02
 2.00000E+01    3.14300E-02
