# n + Gd157 : (n,n'08)  
# jendl4.0   N.Iwamoto,A.Zukeran,K.Shibata     EVAL-Dec09
# uncertainties: n
# # energies =    78
#   E(MeV)       xs(mb) 
 3.17025E-01    0.00000E+00
 3.49482E-01    4.65459E+00
 3.63421E-01    6.83755E+00
 3.74391E-01    8.63630E+00
 4.00000E-01    1.29469E+01
 4.29342E-01    1.80551E+01
 4.37218E-01    1.94033E+01
 4.77680E-01    2.58826E+01
 4.81948E-01    2.64818E+01
 5.00000E-01    2.91686E+01
 5.12272E-01    3.10094E+01
 5.17979E-01    3.18699E+01
 5.28224E-01    3.26719E+01
 5.69638E-01    3.74560E+01
 5.83185E-01    3.86793E+01
 6.00000E-01    4.00034E+01
 6.11494E-01    4.09829E+01
 6.16336E-01    4.12319E+01
 6.21449E-01    4.15900E+01
 6.44677E-01    4.27835E+01
 6.59915E-01    4.37997E+01
 6.68801E-01    4.42765E+01
 6.87290E-01    4.52435E+01
 6.87625E-01    4.52634E+01
 6.91082E-01    4.54037E+01
 7.00000E-01    4.56746E+01
 7.05898E-01    4.59437E+01
 8.00000E-01    4.95619E+01
 9.00000E-01    5.21044E+01
 1.00000E+00    5.11081E+01
 1.10000E+00    4.81463E+01
 1.20000E+00    4.49575E+01
 1.30000E+00    4.17323E+01
 1.40000E+00    3.80019E+01
 1.50000E+00    3.42057E+01
 1.60000E+00    3.05915E+01
 1.70000E+00    2.72249E+01
 1.80000E+00    2.41210E+01
 1.90000E+00    2.12855E+01
 2.00000E+00    1.87280E+01
 2.25000E+00    1.32254E+01
 2.50000E+00    9.59862E+00
 2.75000E+00    6.73672E+00
 3.00000E+00    4.94771E+00
 3.50000E+00    2.51422E+00
 4.00000E+00    1.29541E+00
 4.50000E+00    6.96843E-01
 5.00000E+00    4.07955E-01
 5.50000E+00    2.68002E-01
 6.00000E+00    1.97972E-01
 6.50000E+00    1.60461E-01
 7.00000E+00    1.38294E-01
 7.50000E+00    1.23463E-01
 8.00000E+00    1.12320E-01
 8.50000E+00    1.03254E-01
 9.00000E+00    9.55089E-02
 9.50000E+00    8.87418E-02
 1.00000E+01    8.27486E-02
 1.05000E+01    7.74155E-02
 1.10000E+01    7.26345E-02
 1.15000E+01    6.83290E-02
 1.20000E+01    6.44288E-02
 1.25000E+01    6.08748E-02
 1.30000E+01    5.76179E-02
 1.35000E+01    5.46189E-02
 1.40000E+01    5.18466E-02
 1.45000E+01    4.92809E-02
 1.50000E+01    4.69015E-02
 1.55000E+01    4.47135E-02
 1.60000E+01    4.26655E-02
 1.65000E+01    4.07619E-02
 1.70000E+01    3.89937E-02
 1.75000E+01    3.73511E-02
 1.80000E+01    3.58211E-02
 1.85000E+01    3.43892E-02
 1.90000E+01    3.30405E-02
 1.95000E+01    3.17632E-02
 2.00000E+01    3.05485E-02
