# n + Gd157 : (n,n'12)  
# jendl4.0   N.Iwamoto,A.Zukeran,K.Shibata     EVAL-Dec09
# uncertainties: n
# # energies =    73
#   E(MeV)       xs(mb) 
 4.29342E-01    0.00000E+00
 4.37218E-01    7.86954E-02
 4.77680E-01    5.66548E-01
 4.81948E-01    6.34455E-01
 5.00000E-01    9.47860E-01
 5.12272E-01    1.18889E+00
 5.17979E-01    1.31006E+00
 5.28224E-01    1.52725E+00
 5.69638E-01    2.53397E+00
 5.83185E-01    2.86065E+00
 6.00000E-01    3.29077E+00
 6.11494E-01    3.60944E+00
 6.16336E-01    3.74689E+00
 6.21449E-01    3.89536E+00
 6.44677E-01    4.55461E+00
 6.59915E-01    5.02870E+00
 6.68801E-01    5.26672E+00
 6.87290E-01    5.76311E+00
 6.87625E-01    5.77259E+00
 6.91082E-01    5.87012E+00
 7.00000E-01    6.12411E+00
 7.05898E-01    6.29649E+00
 8.00000E-01    9.38985E+00
 9.00000E-01    1.24474E+01
 1.00000E+00    1.47720E+01
 1.10000E+00    1.61648E+01
 1.20000E+00    1.66036E+01
 1.30000E+00    1.66593E+01
 1.40000E+00    1.64371E+01
 1.50000E+00    1.57275E+01
 1.60000E+00    1.47508E+01
 1.70000E+00    1.36780E+01
 1.80000E+00    1.25672E+01
 1.90000E+00    1.14627E+01
 2.00000E+00    1.03994E+01
 2.25000E+00    7.87544E+00
 2.50000E+00    6.07489E+00
 2.75000E+00    4.50568E+00
 3.00000E+00    3.56259E+00
 3.50000E+00    1.98184E+00
 4.00000E+00    1.09859E+00
 4.50000E+00    6.29711E-01
 5.00000E+00    3.91696E-01
 5.50000E+00    2.71578E-01
 6.00000E+00    2.09037E-01
 6.50000E+00    1.73892E-01
 7.00000E+00    1.52027E-01
 7.50000E+00    1.36712E-01
 8.00000E+00    1.24837E-01
 8.50000E+00    1.14993E-01
 9.00000E+00    1.06496E-01
 9.50000E+00    9.90293E-02
 1.00000E+01    9.23927E-02
 1.05000E+01    8.64731E-02
 1.10000E+01    8.11616E-02
 1.15000E+01    7.63748E-02
 1.20000E+01    7.20290E-02
 1.25000E+01    6.80684E-02
 1.30000E+01    6.44384E-02
 1.35000E+01    6.10983E-02
 1.40000E+01    5.80143E-02
 1.45000E+01    5.51588E-02
 1.50000E+01    5.25092E-02
 1.55000E+01    5.00685E-02
 1.60000E+01    4.77945E-02
 1.65000E+01    4.56699E-02
 1.70000E+01    4.36957E-02
 1.75000E+01    4.18616E-02
 1.80000E+01    4.01535E-02
 1.85000E+01    3.85555E-02
 1.90000E+01    3.70509E-02
 1.95000E+01    3.56265E-02
 2.00000E+01    3.42720E-02
