# n + Gd157 : (n,el)    
# jendl4.0   N.Iwamoto,A.Zukeran,K.Shibata     EVAL-Dec09
# uncertainties: n
# # energies =   171
#   E(MeV)       xs(mb) 
 1.00000E-11    9.61511E+05
 1.00000E-07    1.15426E+05
 4.13990E-07    1.80424E+04
 5.31580E-07    1.19279E+04
 6.82560E-07    8.13760E+03
 8.76420E-07    5.73947E+03
 1.12540E-06    4.18058E+03
 1.44500E-06    3.11585E+03
 1.85540E-06    2.27203E+03
 2.37240E-06    3.33065E+03
 3.05900E-06    2.65302E+03
 3.92790E-06    1.90153E+03
 5.04350E-06    1.58584E+03
 6.47600E-06    1.34419E+03
 8.31530E-06    1.10483E+03
 1.06770E-05    8.22605E+02
 1.37100E-05    5.46705E+04
 1.76030E-05    3.89234E+04
 2.26030E-05    3.71953E+03
 2.92030E-05    1.72023E+03
 3.72670E-05    4.23136E+03
 4.78510E-05    4.06614E+04
 6.14420E-05    4.53001E+03
 7.88930E-05    1.86979E+04
 1.01300E-04    8.23530E+04
 1.30070E-04    2.03638E+04
 1.67020E-04    4.07440E+04
 2.14450E-04    4.01235E+04
 2.75360E-04    2.49021E+04
 3.53580E-04    2.46433E+04
 4.54000E-04    2.33096E+04
 5.82950E-04    2.20700E+04
 7.48520E-04    2.08523E+04
 9.61120E-04    1.97107E+04
 1.23410E-03    1.86745E+04
 1.58460E-03    1.76929E+04
 2.03470E-03    1.69841E+04
 2.24870E-03    1.65457E+04
 2.48520E-03    1.62241E+04
 2.61260E-03    1.60136E+04
 2.74650E-03    1.57036E+04
 3.03540E-03    1.52980E+04
 3.35460E-03    1.49037E+04
 3.70740E-03    1.44316E+04
 4.30740E-03    1.37583E+04
 5.53080E-03    1.29670E+04
 7.10170E-03    1.22246E+04
 9.11880E-03    1.15384E+04
 1.17090E-02    1.09301E+04
 1.50340E-02    1.03574E+04
 1.93050E-02    9.95319E+03
 2.18750E-02    9.75936E+03
 2.35790E-02    9.66434E+03
 2.41760E-02    9.61740E+03
 2.47880E-02    9.54744E+03
 2.60580E-02    9.46791E+03
 2.70000E-02    9.38579E+03
 2.85000E-02    9.23796E+03
 3.18280E-02    9.08124E+03
 3.43070E-02    8.87655E+03
 4.08680E-02    8.65251E+03
 4.63090E-02    8.48083E+03
 5.24750E-02    8.33358E+03
 5.65620E-02    8.00661E+03
 6.73790E-02    7.72125E+03
 7.20000E-02    7.56728E+03
 7.95000E-02    7.45031E+03
 8.25000E-02    7.38128E+03
 8.65170E-02    7.24328E+03
 9.80370E-02    7.05951E+03
 1.11090E-01    6.94040E+03
 1.16790E-01    6.86934E+03
 1.22770E-01    6.80166E+03
 1.29070E-01    6.73109E+03
 1.35690E-01    6.65887E+03
 1.42640E-01    6.59348E+03
 1.49960E-01    6.52635E+03
 1.57640E-01    6.45951E+03
 1.65730E-01    6.40704E+03
 1.74220E-01    6.35420E+03
 1.83160E-01    6.29864E+03
 1.92550E-01    6.24216E+03
 2.02420E-01    6.19177E+03
 2.12800E-01    6.13996E+03
 2.23710E-01    6.08550E+03
 2.35180E-01    6.03028E+03
 2.47240E-01    5.96256E+03
 2.73240E-01    5.90507E+03
 2.87250E-01    5.87663E+03
 2.94520E-01    5.86335E+03
 2.97200E-01    5.85805E+03
 2.98500E-01    5.85171E+03
 3.01970E-01    5.80604E+03
 3.33730E-01    5.73135E+03
 3.68830E-01    5.67499E+03
 3.87740E-01    5.63514E+03
 4.07620E-01    5.58379E+03
 4.50490E-01    5.50035E+03
 4.97870E-01    5.41993E+03
 5.23400E-01    5.36885E+03
 5.50230E-01    5.31530E+03
 5.78440E-01    5.26639E+03
 6.08100E-01    5.21906E+03
 6.39280E-01    5.16930E+03
 6.72060E-01    5.11477E+03
 7.06510E-01    5.05211E+03
 7.42740E-01    4.99767E+03
 7.80820E-01    4.94109E+03
 8.20850E-01    4.89340E+03
 8.62940E-01    4.84844E+03
 9.07180E-01    4.79712E+03
 9.61640E-01    4.74729E+03
 1.00260E+00    4.67454E+03
 1.10800E+00    4.59476E+03
 1.16480E+00    4.53796E+03
 1.22460E+00    4.48283E+03
 1.28730E+00    4.42777E+03
 1.35340E+00    4.36989E+03
 1.42270E+00    4.30906E+03
 1.49570E+00    4.24514E+03
 1.57240E+00    4.18134E+03
 1.65300E+00    4.11622E+03
 1.73770E+00    4.04776E+03
 1.82680E+00    3.97576E+03
 1.92050E+00    3.90005E+03
 2.01900E+00    3.82048E+03
 2.12250E+00    3.73724E+03
 2.23130E+00    3.66833E+03
 2.30690E+00    3.62636E+03
 2.34570E+00    3.60496E+03
 2.36530E+00    3.59051E+03
 2.38520E+00    3.55382E+03
 2.46600E+00    3.47823E+03
 2.59240E+00    3.38571E+03
 2.72530E+00    3.29422E+03
 2.86500E+00    3.19866E+03
 3.01190E+00    3.10440E+03
 3.16640E+00    3.00868E+03
 3.32870E+00    2.87278E+03
 3.67880E+00    2.69989E+03
 4.06570E+00    2.54450E+03
 4.49330E+00    2.44116E+03
 4.72370E+00    2.37882E+03
 4.96590E+00    2.32329E+03
 5.22050E+00    2.27635E+03
 5.48810E+00    2.23588E+03
 5.76950E+00    2.20339E+03
 6.06530E+00    2.17951E+03
 6.37630E+00    2.14232E+03
 6.59240E+00    2.13527E+03
 6.70320E+00    2.14903E+03
 7.04690E+00    2.16612E+03
 7.40820E+00    2.18135E+03
 7.78800E+00    2.20692E+03
 8.18730E+00    2.24278E+03
 8.60710E+00    2.28743E+03
 9.04840E+00    2.33984E+03
 9.51230E+00    2.39954E+03
 1.00000E+01    2.46435E+03
 1.05130E+01    2.53321E+03
 1.10520E+01    2.60340E+03
 1.16180E+01    2.67253E+03
 1.22140E+01    2.73802E+03
 1.28400E+01    2.79715E+03
 1.34990E+01    2.83588E+03
 1.38400E+01    2.85839E+03
 1.41910E+01    2.87757E+03
 1.45500E+01    2.89333E+03
 1.49180E+01    2.91013E+03
 1.56830E+01    2.91903E+03
 1.64870E+01    2.91133E+03
