# n + Gd157 : (n,g)     
# jendl4.0   N.Iwamoto,A.Zukeran,K.Shibata     EVAL-Dec09
# uncertainties: n
# # energies =    69
#   E(MeV)       xs(mb) 
 1.00000E-10    1.36348E+09
 5.00000E-09    4.07857E+08
 1.00000E-08    3.29570E+08
 1.50000E-08    2.91352E+08
 2.00000E-08    2.65800E+08
 2.50000E-08    2.44564E+08
 3.00000E-08    2.24888E+08
 3.50000E-08    2.02759E+08
 4.20000E-08    1.75980E+08
 5.00000E-08    1.48246E+08
 5.80000E-08    1.21438E+08
 6.70000E-08    9.31639E+07
 8.00000E-08    6.10333E+07
 1.00000E-07    3.05261E+07
 1.40000E-07    1.42500E+07
 1.80000E-07    7.79659E+06
 2.20000E-07    5.00112E+06
 2.50000E-07    3.62510E+06
 2.80000E-07    2.83907E+06
 3.00000E-07    2.37850E+06
 3.20000E-07    1.94242E+06
 3.50000E-07    1.45205E+06
 4.00000E-07    9.18776E+05
 5.00000E-07    5.14963E+05
 6.25000E-07    2.91163E+05
 7.80000E-07    1.95073E+05
 8.50000E-07    1.60710E+05
 9.10000E-07    1.39852E+05
 9.50000E-07    1.28865E+05
 9.72000E-07    1.21581E+05
 9.96000E-07    1.14602E+05
 1.02000E-06    1.08075E+05
 1.04500E-06    1.01853E+05
 1.07100E-06    9.60423E+04
 1.09700E-06    9.07159E+04
 1.12300E-06    8.57394E+04
 1.15000E-06    7.24095E+04
 1.30000E-06    5.36926E+04
 1.50000E-06    3.55553E+04
 2.10000E-06    5.16473E+04
 2.60000E-06    4.58355E+05
 3.30000E-06    1.53932E+04
 4.00000E-06    3.19458E+03
 9.87700E-06    8.09829E+03
 1.59680E-05    3.61065E+05
 2.77000E-05    2.51696E+04
 4.80520E-05    1.05600E+05
 7.55014E-05    8.91098E+04
 1.48728E-04    3.93081E+04
 3.67262E-04    1.79318E+04
 9.06898E-04    1.10001E+04
 1.42510E-03    7.99437E+03
 2.23945E-03    5.81008E+03
 3.51910E-03    4.24597E+03
 5.53000E-03    3.11737E+03
 9.11800E-03    2.31977E+03
 1.50300E-02    1.78068E+03
 2.47800E-02    1.39570E+03
 4.08500E-02    1.08275E+03
 6.73400E-02    6.62532E+02
 1.11000E-01    4.37826E+02
 1.83000E-01    3.04558E+02
 3.02000E-01    2.37533E+02
 5.00000E-01    1.74442E+02
 8.21000E-01    1.17741E+02
 1.35300E+00    6.57964E+01
 2.23100E+00    2.95447E+01
 3.67900E+00    8.58574E+00
 6.06500E+00    1.70955E+00
