# n + Fe 58 : (n,xp)    
# jendl4.0   S.IIJIMA,H.YAMAKOSHI              EVAL-MAR87
# 
# # energies =   171
#   E(MeV)        xs(mb) 
 8.24917E-01    0.00000E+00
 8.25198E-01    0.00000E+00
 8.25757E-01    0.00000E+00
 8.26313E-01    0.00000E+00
 8.27417E-01    0.00000E+00
 8.28504E-01    0.00000E+00
 8.29577E-01    0.00000E+00
 8.30633E-01    0.00000E+00
 8.32718E-01    0.00000E+00
 8.34742E-01    0.00000E+00
 8.36708E-01    0.00000E+00
 8.38617E-01    0.00000E+00
 8.40470E-01    0.00000E+00
 8.42270E-01    0.00000E+00
 8.45767E-01    0.00000E+00
 8.49058E-01    0.00000E+00
 8.52156E-01    0.00000E+00
 8.55070E-01    0.00000E+00
 8.57812E-01    0.00000E+00
 8.60389E-01    0.00000E+00
 8.65244E-01    0.00000E+00
 8.69514E-01    0.00000E+00
 8.73267E-01    0.00000E+00
 8.76565E-01    0.00000E+00
 8.82366E-01    0.00000E+00
 8.86742E-01    0.00000E+00
 8.93346E-01    0.00000E+00
 9.00000E-01    0.00000E+00
 9.11931E-01    0.00000E+00
 9.22501E-01    0.00000E+00
 9.31850E-01    0.00000E+00
 9.48439E-01    0.00000E+00
 9.61075E-01    0.00000E+00
 9.80344E-01    0.00000E+00
 1.00000E+00    0.00000E+00
 1.01404E+00    0.00000E+00
 1.02739E+00    0.00000E+00
 1.04006E+00    0.00000E+00
 1.06424E+00    0.00000E+00
 1.08586E+00    0.00000E+00
 1.10514E+00    0.00000E+00
 1.12228E+00    0.00000E+00
 1.13751E+00    0.00000E+00
 1.16464E+00    0.00000E+00
 1.18542E+00    0.00000E+00
 1.21728E+00    0.00000E+00
 1.25000E+00    0.00000E+00
 1.27881E+00    0.00000E+00
 1.30457E+00    0.00000E+00
 1.32754E+00    0.00000E+00
 1.34796E+00    0.00000E+00
 1.38446E+00    0.00000E+00
 1.41248E+00    0.00000E+00
 1.45558E+00    0.00000E+00
 1.50000E+00    0.00000E+00
 1.54856E+00    0.00000E+00
 1.58600E+00    0.00000E+00
 1.64388E+00    0.00000E+00
 1.70386E+00    0.00000E+00
 1.71528E+00    0.00000E+00
 1.73255E+00    0.00000E+00
 1.75000E+00    0.00000E+00
 1.77946E+00    0.00000E+00
 1.83220E+00    0.00000E+00
 1.87278E+00    0.00000E+00
 1.90381E+00    0.00000E+00
 1.95131E+00    0.00000E+00
 2.00000E+00    0.00000E+00
 2.05555E+00    0.00000E+00
 2.11265E+00    0.00000E+00
 2.17105E+00    0.00000E+00
 2.20198E+00    0.00000E+00
 2.24919E+00    0.00000E+00
 2.29742E+00    0.00000E+00
 2.33831E+00    0.00000E+00
 2.41163E+00    0.00000E+00
 2.46813E+00    0.00000E+00
 2.51137E+00    0.00000E+00
 2.57765E+00    0.00000E+00
 2.64568E+00    0.00000E+00
 2.73645E+00    0.00000E+00
 2.83034E+00    0.00000E+00
 2.87801E+00    0.00000E+00
 2.92648E+00    0.00000E+00
 3.00000E+00    0.00000E+00
 3.06807E+00    0.00000E+00
 3.13769E+00    0.00000E+00
 3.18755E+00    0.00000E+00
 3.28929E+00    0.00000E+00
 3.30048E+00    0.00000E+00
 3.37344E+00    0.00000E+00
 3.44801E+00    0.00000E+00
 3.57842E+00    0.00000E+00
 3.67946E+00    0.00000E+00
 3.75710E+00    0.00000E+00
 3.87665E+00    0.00000E+00
 4.00000E+00    0.00000E+00
 4.11314E+00    0.00000E+00
 4.21476E+00    0.00000E+00
 4.39868E+00    0.00000E+00
 4.54187E+00    0.00000E+00
 4.65231E+00    0.00000E+00
 4.82302E+00    0.00000E+00
 5.00000E+00    0.00000E+00
 5.23318E+00    0.00000E+00
 5.41517E+00    3.48390E-08
 5.70009E+00    1.02387E-06
 6.00000E+00    2.06494E-06
 6.48074E+00    5.20797E-03
 7.00000E+00    1.08310E-02
 8.00000E+00    1.56539E-01
 9.00000E+00    8.85462E-01
 1.00000E+01    2.39919E+00
 1.01146E+01    2.60190E+00
 1.02232E+01    2.79406E+00
 1.03261E+01    2.97607E+00
 1.05219E+01    3.32231E+00
 1.06962E+01    3.71543E+00
 1.08511E+01    4.12594E+00
 1.09885E+01    4.49001E+00
 1.11101E+01    4.78824E+00
 1.12176E+01    5.04966E+00
 1.14083E+01    5.51326E+00
 1.15534E+01    5.86612E+00
 1.16635E+01    6.13370E+00
 1.18305E+01    6.53988E+00
 1.20000E+01    6.95186E+00
 1.21162E+01    7.27067E+00
 1.22261E+01    7.57235E+00
 1.23301E+01    7.85767E+00
 1.24283E+01    8.12735E+00
 1.25212E+01    8.38214E+00
 1.26089E+01    8.62273E+00
 1.27749E+01    9.07838E+00
 1.29220E+01    9.48199E+00
 1.30520E+01    9.85264E+00
 1.31669E+01    1.01981E+01
 1.32683E+01    1.05029E+01
 1.33576E+01    1.07715E+01
 1.34363E+01    1.10081E+01
 1.35750E+01    1.14253E+01
 1.36801E+01    1.17411E+01
 1.37594E+01    1.19796E+01
 1.38792E+01    1.23398E+01
 1.40000E+01    1.27032E+01
 1.41213E+01    1.31328E+01
 1.42282E+01    1.35117E+01
 1.43225E+01    1.38456E+01
 1.44889E+01    1.44353E+01
 1.46150E+01    1.48821E+01
 1.47103E+01    1.52197E+01
 1.48545E+01    1.57303E+01
 1.50000E+01    1.62458E+01
 1.51215E+01    1.67827E+01
 1.53365E+01    1.77327E+01
 1.54997E+01    1.84541E+01
 1.56233E+01    1.90001E+01
 1.58105E+01    1.98274E+01
 1.60000E+01    2.06646E+01
 1.62373E+01    2.18824E+01
 1.64478E+01    2.29628E+01
 1.66343E+01    2.39196E+01
 1.67992E+01    2.47657E+01
 1.69448E+01    2.55130E+01
 1.72026E+01    2.68834E+01
 1.73986E+01    2.79345E+01
 1.75470E+01    2.87308E+01
 1.77721E+01    2.99379E+01
 1.80000E+01    3.11605E+01
 1.89737E+01    3.60479E+01
 2.00000E+01    4.09132E+01
