# n + Fe 58 : (n,xa)    
# jendl4.0   S.IIJIMA,H.YAMAKOSHI              EVAL-MAR87
# 
# # energies =   171
#   E(MeV)        xs(mb) 
 8.24917E-01    0.00000E+00
 8.25198E-01    0.00000E+00
 8.25757E-01    0.00000E+00
 8.26313E-01    0.00000E+00
 8.27417E-01    0.00000E+00
 8.28504E-01    0.00000E+00
 8.29577E-01    0.00000E+00
 8.30633E-01    0.00000E+00
 8.32718E-01    0.00000E+00
 8.34742E-01    0.00000E+00
 8.36708E-01    0.00000E+00
 8.38617E-01    0.00000E+00
 8.40470E-01    0.00000E+00
 8.42270E-01    0.00000E+00
 8.45767E-01    0.00000E+00
 8.49058E-01    0.00000E+00
 8.52156E-01    0.00000E+00
 8.55070E-01    0.00000E+00
 8.57812E-01    0.00000E+00
 8.60389E-01    0.00000E+00
 8.65244E-01    0.00000E+00
 8.69514E-01    0.00000E+00
 8.73267E-01    0.00000E+00
 8.76565E-01    0.00000E+00
 8.82366E-01    0.00000E+00
 8.86742E-01    0.00000E+00
 8.93346E-01    0.00000E+00
 9.00000E-01    0.00000E+00
 9.11931E-01    0.00000E+00
 9.22501E-01    0.00000E+00
 9.31850E-01    0.00000E+00
 9.48439E-01    0.00000E+00
 9.61075E-01    0.00000E+00
 9.80344E-01    0.00000E+00
 1.00000E+00    0.00000E+00
 1.01404E+00    0.00000E+00
 1.02739E+00    0.00000E+00
 1.04006E+00    0.00000E+00
 1.06424E+00    0.00000E+00
 1.08586E+00    0.00000E+00
 1.10514E+00    0.00000E+00
 1.12228E+00    0.00000E+00
 1.13751E+00    0.00000E+00
 1.16464E+00    0.00000E+00
 1.18542E+00    0.00000E+00
 1.21728E+00    0.00000E+00
 1.25000E+00    0.00000E+00
 1.27881E+00    0.00000E+00
 1.30457E+00    0.00000E+00
 1.32754E+00    0.00000E+00
 1.34796E+00    0.00000E+00
 1.38446E+00    0.00000E+00
 1.41248E+00    1.32376E-13
 1.45558E+00    5.93942E-12
 1.50000E+00    1.19237E-11
 1.54856E+00    1.84657E-11
 1.58600E+00    2.35108E-11
 1.64388E+00    3.13081E-11
 1.70386E+00    3.93899E-11
 1.71528E+00    4.09285E-11
 1.73255E+00    4.32557E-11
 1.75000E+00    4.56064E-11
 1.77946E+00    4.95749E-11
 1.83220E+00    5.66812E-11
 1.87278E+00    6.21489E-11
 1.90381E+00    6.63289E-11
 1.95131E+00    7.27292E-11
 2.00000E+00    7.92891E-11
 2.05555E+00    8.67739E-11
 2.11265E+00    9.44665E-11
 2.17105E+00    1.02335E-10
 2.20198E+00    1.06501E-10
 2.24919E+00    1.12863E-10
 2.29742E+00    1.19361E-10
 2.33831E+00    1.24870E-10
 2.41163E+00    1.34749E-10
 2.46813E+00    1.42360E-10
 2.51137E+00    1.48186E-10
 2.57765E+00    1.57116E-10
 2.64568E+00    1.66282E-10
 2.73645E+00    1.78512E-10
 2.83034E+00    1.91162E-10
 2.87801E+00    1.97584E-10
 2.92648E+00    2.04115E-10
 3.00000E+00    2.14020E-10
 3.06807E+00    2.76983E-07
 3.13769E+00    5.60032E-07
 3.18755E+00    7.62752E-07
 3.28929E+00    1.17641E-06
 3.30048E+00    1.22190E-06
 3.37344E+00    1.51854E-06
 3.44801E+00    1.82173E-06
 3.57842E+00    2.35195E-06
 3.67946E+00    2.76273E-06
 3.75710E+00    3.07842E-06
 3.87665E+00    3.56448E-06
 4.00000E+00    4.06600E-06
 4.11314E+00    9.42444E-05
 4.21476E+00    1.75240E-04
 4.39868E+00    3.21828E-04
 4.54187E+00    4.35952E-04
 4.65231E+00    5.23976E-04
 4.82302E+00    6.60042E-04
 5.00000E+00    8.01100E-04
 5.23318E+00    5.51388E-03
 5.41517E+00    9.19215E-03
 5.70009E+00    1.49508E-02
 6.00000E+00    2.10124E-02
 6.48074E+00    9.99609E-02
 7.00000E+00    1.85235E-01
 8.00000E+00    8.90620E-01
 9.00000E+00    2.61773E+00
 1.00000E+01    4.49814E+00
 1.01146E+01    4.68762E+00
 1.02232E+01    4.86723E+00
 1.03261E+01    5.03737E+00
 1.05219E+01    5.36100E+00
 1.06962E+01    5.57279E+00
 1.08511E+01    5.70582E+00
 1.09885E+01    5.82381E+00
 1.11101E+01    5.98748E+00
 1.12176E+01    6.13766E+00
 1.14083E+01    6.40398E+00
 1.15534E+01    6.60669E+00
 1.16635E+01    6.76041E+00
 1.18305E+01    6.99374E+00
 1.20000E+01    7.23041E+00
 1.21162E+01    7.46099E+00
 1.22261E+01    7.67917E+00
 1.23301E+01    7.88552E+00
 1.24283E+01    8.08057E+00
 1.25212E+01    8.26483E+00
 1.26089E+01    8.43883E+00
 1.27749E+01    8.76837E+00
 1.29220E+01    9.06028E+00
 1.30520E+01    9.36784E+00
 1.31669E+01    9.70491E+00
 1.32683E+01    1.00023E+01
 1.33576E+01    1.02643E+01
 1.34363E+01    1.04951E+01
 1.35750E+01    1.09022E+01
 1.36801E+01    1.12103E+01
 1.37594E+01    1.14429E+01
 1.38792E+01    1.17944E+01
 1.40000E+01    1.21489E+01
 1.41213E+01    1.26445E+01
 1.42282E+01    1.30816E+01
 1.43225E+01    1.34668E+01
 1.44889E+01    1.41470E+01
 1.46150E+01    1.46624E+01
 1.47103E+01    1.50518E+01
 1.48545E+01    1.56408E+01
 1.50000E+01    1.62355E+01
 1.51215E+01    1.68866E+01
 1.53365E+01    1.80388E+01
 1.54997E+01    1.89136E+01
 1.56233E+01    1.95758E+01
 1.58105E+01    2.05791E+01
 1.60000E+01    2.15944E+01
 1.62373E+01    2.31666E+01
 1.64478E+01    2.45613E+01
 1.66343E+01    2.57966E+01
 1.67992E+01    2.68889E+01
 1.69448E+01    2.78536E+01
 1.72026E+01    2.97915E+01
 1.73986E+01    3.13118E+01
 1.75470E+01    3.24634E+01
 1.77721E+01    3.42092E+01
 1.80000E+01    3.59774E+01
 1.89737E+01    4.41968E+01
 2.00000E+01    5.34571E+01
