# n + Fe 58 : (n,tot)   
# jendl4.0   S.IIJIMA,H.YAMAKOSHI              EVAL-MAR87
# uncertainties: n
# # energies =    69
#   E(MeV)       xs(mb) 
 1.00000E-10    1.85515E+04
 5.00000E-09    9.14767E+03
 1.00000E-08    8.45954E+03
 1.50000E-08    8.12581E+03
 2.00000E-08    7.91806E+03
 2.50000E-08    7.77269E+03
 3.00000E-08    7.66369E+03
 3.50000E-08    7.56429E+03
 4.20000E-08    7.46804E+03
 5.00000E-08    7.38839E+03
 5.80000E-08    7.32189E+03
 6.70000E-08    7.25456E+03
 8.00000E-08    7.17835E+03
 1.00000E-07    7.08452E+03
 1.40000E-07    6.99886E+03
 1.80000E-07    6.94141E+03
 2.20000E-07    6.90362E+03
 2.50000E-07    6.87788E+03
 2.80000E-07    6.85954E+03
 3.00000E-07    6.84648E+03
 3.20000E-07    6.83214E+03
 3.50000E-07    6.81236E+03
 4.00000E-07    6.78293E+03
 5.00000E-07    6.74961E+03
 6.25000E-07    6.71983E+03
 7.80000E-07    6.70128E+03
 8.50000E-07    6.69209E+03
 9.10000E-07    6.68611E+03
 9.50000E-07    6.68271E+03
 9.72000E-07    6.68020E+03
 9.96000E-07    6.67758E+03
 1.02000E-06    6.67490E+03
 1.04500E-06    6.67214E+03
 1.07100E-06    6.66996E+03
 1.09700E-06    6.66804E+03
 1.12300E-06    6.66609E+03
 1.15000E-06    6.65966E+03
 1.30000E-06    6.64681E+03
 1.50000E-06    6.62974E+03
 2.10000E-06    6.61105E+03
 2.60000E-06    6.59227E+03
 3.30000E-06    6.58161E+03
 4.00000E-06    6.55485E+03
 9.87700E-06    6.52909E+03
 1.59680E-05    6.50824E+03
 2.77000E-05    6.49353E+03
 4.80520E-05    6.47486E+03
 7.55014E-05    6.44370E+03
 1.48728E-04    7.16213E+03
 3.67262E-04    6.21979E+03
 9.06898E-04    5.96843E+03
 1.42510E-03    5.67440E+03
 2.23945E-03    5.21220E+03
 3.51910E-03    4.44102E+03
 5.53000E-03    3.43045E+03
 9.11800E-03    2.51118E+04
 1.50300E-02    3.74900E+03
 2.47800E-02    2.37371E+03
 4.08500E-02    2.11155E+04
 6.73400E-02    9.92282E+03
 1.11000E-01    7.36122E+03
 1.83000E-01    5.61593E+03
 3.02000E-01    4.81263E+03
 5.00000E-01    3.78666E+03
 8.21000E-01    3.46478E+03
 1.35300E+00    3.38577E+03
 2.23100E+00    3.46405E+03
 3.67900E+00    3.58985E+03
 6.06500E+00    3.38275E+03
