# n + Fe 58 :  n        
# jendl4.0   S.IIJIMA,H.YAMAKOSHI              EVAL-MAR87
# uncertainties: n
# # energies =   153
#   E(MeV)       xs(mb) 
 3.44801E+00    0.00000E+00
 3.44901E+00    3.52808E-01
 3.45101E+00    1.05704E+00
 3.45300E+00    1.75853E+00
 3.45697E+00    3.15601E+00
 3.46091E+00    4.54258E+00
 3.46483E+00    5.91831E+00
 3.46872E+00    7.28330E+00
 3.47645E+00    9.99194E+00
 3.48408E+00    1.26583E+01
 3.49160E+00    1.52829E+01
 3.49903E+00    1.78666E+01
 3.50635E+00    2.04098E+01
 3.51357E+00    2.29134E+01
 3.52784E+00    2.78422E+01
 3.54171E+00    3.26170E+01
 3.55521E+00    3.72426E+01
 3.56833E+00    4.17237E+01
 3.58109E+00    4.60647E+01
 3.59349E+00    5.02700E+01
 3.60554E+00    5.43440E+01
 3.61726E+00    5.82906E+01
 3.64007E+00    6.59372E+01
 3.66158E+00    7.31059E+01
 3.68187E+00    7.98265E+01
 3.70099E+00    8.61271E+01
 3.71901E+00    9.20339E+01
 3.73597E+00    9.75715E+01
 3.75195E+00    1.02763E+02
 3.78210E+00    1.12497E+02
 3.80867E+00    1.21015E+02
 3.83208E+00    1.28467E+02
 3.85268E+00    1.34988E+02
 3.88899E+00    1.46400E+02
 3.91645E+00    1.54959E+02
 3.93717E+00    1.61378E+02
 3.96846E+00    1.71007E+02
 4.00000E+00    1.80636E+02
 4.02799E+00    1.95208E+02
 4.05529E+00    2.09324E+02
 4.08192E+00    2.22999E+02
 4.10788E+00    2.36247E+02
 4.13319E+00    2.49080E+02
 4.15785E+00    2.61513E+02
 4.18188E+00    2.73557E+02
 4.20530E+00    2.85225E+02
 4.22811E+00    2.96528E+02
 4.27265E+00    3.18428E+02
 4.31484E+00    3.38959E+02
 4.35477E+00    3.58207E+02
 4.39254E+00    3.76252E+02
 4.42824E+00    3.93170E+02
 4.46198E+00    4.09029E+02
 4.49384E+00    4.23898E+02
 4.52392E+00    4.37837E+02
 4.58085E+00    4.63974E+02
 4.63126E+00    4.86843E+02
 4.67583E+00    5.06853E+02
 4.71517E+00    5.24362E+02
 4.74987E+00    5.39683E+02
 4.81120E+00    5.66494E+02
 4.85772E+00    5.86602E+02
 4.92835E+00    6.16765E+02
 5.00000E+00    6.46927E+02
 5.05730E+00    6.68505E+02
 5.11162E+00    6.88735E+02
 5.16307E+00    7.07701E+02
 5.21177E+00    7.25480E+02
 5.30434E+00    7.58818E+02
 5.38668E+00    7.87988E+02
 5.45978E+00    8.13513E+02
 5.52455E+00    8.35846E+02
 5.58186E+00    8.55388E+02
 5.68358E+00    8.89586E+02
 5.76109E+00    9.15235E+02
 5.81991E+00    9.34471E+02
 5.90927E+00    9.63326E+02
 6.00000E+00    9.92181E+02
 6.11673E+00    1.01799E+03
 6.22074E+00    1.04057E+03
 6.31319E+00    1.06033E+03
 6.39521E+00    1.07762E+03
 6.54133E+00    1.10788E+03
 6.65310E+00    1.13057E+03
 6.82434E+00    1.16461E+03
 7.00000E+00    1.19865E+03
 7.23762E+00    1.22751E+03
 7.42112E+00    1.24915E+03
 7.56179E+00    1.26538E+03
 7.77781E+00    1.28973E+03
 8.00000E+00    1.31408E+03
 8.23907E+00    1.32836E+03
 8.61113E+00    1.34979E+03
 9.00000E+00    1.37121E+03
 9.48683E+00    1.38207E+03
 1.00000E+01    1.39292E+03
 1.01146E+01    1.36275E+03
 1.02232E+01    1.33446E+03
 1.03261E+01    1.30794E+03
 1.05219E+01    1.25821E+03
 1.06962E+01    1.21470E+03
 1.08511E+01    1.17663E+03
 1.09885E+01    1.14332E+03
 1.11101E+01    1.11417E+03
 1.12176E+01    1.08867E+03
 1.14083E+01    1.04403E+03
 1.15534E+01    1.01056E+03
 1.16635E+01    9.85454E+02
 1.18305E+01    9.47795E+02
 1.20000E+01    9.10136E+02
 1.21162E+01    8.79456E+02
 1.22261E+01    8.50693E+02
 1.23301E+01    8.23727E+02
 1.24283E+01    7.98447E+02
 1.25212E+01    7.74747E+02
 1.26089E+01    7.52529E+02
 1.27749E+01    7.10869E+02
 1.29220E+01    6.74416E+02
 1.30520E+01    6.42520E+02
 1.31669E+01    6.14611E+02
 1.32683E+01    5.90191E+02
 1.33576E+01    5.68823E+02
 1.35154E+01    5.31430E+02
 1.36350E+01    5.03385E+02
 1.37253E+01    4.82351E+02
 1.38620E+01    4.50800E+02
 1.40000E+01    4.19249E+02
 1.41213E+01    4.04213E+02
 1.42282E+01    3.91056E+02
 1.43225E+01    3.79545E+02
 1.44889E+01    3.59399E+02
 1.46150E+01    3.44289E+02
 1.47103E+01    3.32957E+02
 1.48545E+01    3.15959E+02
 1.50000E+01    2.98961E+02
 1.51215E+01    2.90211E+02
 1.53365E+01    2.74899E+02
 1.54997E+01    2.63415E+02
 1.56233E+01    2.54802E+02
 1.58105E+01    2.41883E+02
 1.60000E+01    2.28963E+02
 1.62373E+01    2.20350E+02
 1.64478E+01    2.12814E+02
 1.66343E+01    2.06219E+02
 1.67992E+01    2.00449E+02
 1.69448E+01    1.95400E+02
 1.72026E+01    1.86565E+02
 1.73986E+01    1.79939E+02
 1.75470E+01    1.74969E+02
 1.77721E+01    1.67514E+02
 1.80000E+01    1.60059E+02
 1.89737E+01    1.61002E+02
 2.00000E+01    1.61945E+02
