# n + Fe 58 : (n,el)    
# jendl4.0   S.IIJIMA,H.YAMAKOSHI              EVAL-MAR87
# uncertainties: n
# # energies =    69
#   E(MeV)       xs(mb) 
 1.00000E-10    9.47315E+03
 5.00000E-09    6.67580E+03
 1.00000E-08    6.58750E+03
 1.50000E-08    6.55290E+03
 2.00000E-08    6.53418E+03
 2.50000E-08    6.52256E+03
 3.00000E-08    6.51436E+03
 3.50000E-08    6.50766E+03
 4.20000E-08    6.50169E+03
 5.00000E-08    6.49679E+03
 5.80000E-08    6.49347E+03
 6.70000E-08    6.48986E+03
 8.00000E-08    6.48651E+03
 1.00000E-07    6.48247E+03
 1.40000E-07    6.47959E+03
 1.80000E-07    6.47735E+03
 2.20000E-07    6.47650E+03
 2.50000E-07    6.47596E+03
 2.80000E-07    6.47551E+03
 3.00000E-07    6.47515E+03
 3.20000E-07    6.47470E+03
 3.50000E-07    6.47399E+03
 4.00000E-07    6.47327E+03
 5.00000E-07    6.47290E+03
 6.25000E-07    6.47245E+03
 7.80000E-07    6.47208E+03
 8.50000E-07    6.47187E+03
 9.10000E-07    6.47170E+03
 9.50000E-07    6.47160E+03
 9.72000E-07    6.47153E+03
 9.96000E-07    6.47145E+03
 1.02000E-06    6.47137E+03
 1.04500E-06    6.47129E+03
 1.07100E-06    6.47120E+03
 1.09700E-06    6.47112E+03
 1.12300E-06    6.47103E+03
 1.15000E-06    6.47077E+03
 1.30000E-06    6.47060E+03
 1.50000E-06    6.47042E+03
 2.10000E-06    6.47017E+03
 2.60000E-06    6.46990E+03
 3.30000E-06    6.46959E+03
 4.00000E-06    6.46830E+03
 9.87700E-06    6.46552E+03
 1.59680E-05    6.46164E+03
 2.77000E-05    6.45460E+03
 4.80520E-05    6.44390E+03
 7.55014E-05    6.42264E+03
 1.48728E-04    6.39142E+03
 3.67262E-04    6.20626E+03
 9.06898E-04    5.96090E+03
 1.42510E-03    5.66853E+03
 2.23945E-03    5.20861E+03
 3.51910E-03    4.43767E+03
 5.53000E-03    3.39496E+03
 9.11800E-03    2.50217E+04
 1.50300E-02    3.74250E+03
 2.47800E-02    2.36433E+03
 4.08500E-02    2.11048E+04
 6.73400E-02    9.91480E+03
 1.11000E-01    7.35456E+03
 1.83000E-01    5.61173E+03
 3.02000E-01    4.80945E+03
 5.00000E-01    3.78342E+03
 8.21000E-01    3.09205E+03
 1.35300E+00    2.70652E+03
 2.23100E+00    2.44125E+03
 3.67900E+00    2.26748E+03
 6.06500E+00    1.94692E+03
