# n + C   0 : (n,xn)    
# jendl4.0   K.SHIBATA                         EVAL-AUG83
# 
# # energies =   152
#   E(MeV)        xs(mb) 
 4.81200E+00    0.00000E+00
 4.96456E+00    5.73077E+01
 5.00583E+00    5.77446E+01
 5.04711E+00    6.01573E+01
 5.08838E+00    6.43215E+01
 5.12966E+00    7.00124E+01
 5.21221E+00    8.50759E+01
 5.29476E+00    1.03552E+02
 5.45986E+00    1.43553E+02
 5.54241E+00    1.61487E+02
 5.62496E+00    1.75646E+02
 5.72187E+00    1.92458E+02
 5.81878E+00    2.13599E+02
 6.01259E+00    2.57528E+02
 6.10950E+00    2.74650E+02
 6.20641E+00    2.84762E+02
 6.30331E+00    2.85034E+02
 6.40022E+00    2.72627E+02
 6.51507E+00    2.40739E+02
 6.62993E+00    2.00151E+02
 6.74478E+00    1.63465E+02
 6.80221E+00    1.50524E+02
 6.85963E+00    1.43283E+02
 6.89911E+00    1.42391E+02
 6.93859E+00    1.44803E+02
 7.01756E+00    1.58205E+02
 7.09652E+00    1.80817E+02
 7.17548E+00    2.09966E+02
 7.33340E+00    2.77182E+02
 7.49132E+00    3.38467E+02
 7.52722E+00    3.44931E+02
 7.56311E+00    3.42669E+02
 7.63489E+00    3.21643E+02
 7.70667E+00    2.94754E+02
 7.74257E+00    2.85159E+02
 7.77846E+00    2.81360E+02
 7.83588E+00    2.90010E+02
 7.88700E+00    3.09709E+02
 7.89331E+00    3.12141E+02
 8.00816E+00    3.72134E+02
 8.06559E+00    3.97624E+02
 8.12302E+00    4.11866E+02
 8.13041E+00    4.11456E+02
 8.18044E+00    4.08681E+02
 8.23787E+00    3.81885E+02
 8.29302E+00    3.49013E+02
 8.33478E+00    3.24598E+02
 8.43168E+00    2.87260E+02
 8.52858E+00    2.65671E+02
 8.62550E+00    2.56254E+02
 8.67244E+00    2.55861E+02
 8.72240E+00    2.55451E+02
 8.81931E+00    2.59693E+02
 9.00000E+00    2.68374E+02
 9.01313E+00    2.68888E+02
 9.17105E+00    2.67228E+02
 9.21447E+00    2.67491E+02
 9.32897E+00    2.68211E+02
 9.48689E+00    2.83230E+02
 9.50000E+00    2.85942E+02
 9.56586E+00    2.99635E+02
 9.64482E+00    3.23838E+02
 9.70224E+00    3.39986E+02
 9.75650E+00    3.47428E+02
 9.75967E+00    3.47864E+02
 9.87452E+00    3.44749E+02
 9.98938E+00    3.26273E+02
 1.00000E+01    3.24238E+02
 1.01042E+01    3.15404E+02
 1.02000E+01    3.14380E+02
 1.02478E+01    3.14344E+02
 1.02985E+01    3.18955E+02
 1.03914E+01    3.27462E+02
 1.04503E+01    3.37696E+02
 1.05000E+01    3.71126E+02
 1.06785E+01    4.03924E+02
 1.07500E+01    4.18226E+02
 1.08000E+01    4.29282E+02
 1.08405E+01    4.28210E+02
 1.09656E+01    4.37256E+02
 1.10000E+01    4.37783E+02
 1.11092E+01    4.40464E+02
 1.12000E+01    4.35926E+02
 1.12528E+01    4.35133E+02
 1.13826E+01    4.29218E+02
 1.15000E+01    4.46937E+02
 1.16835E+01    4.32703E+02
 1.19246E+01    4.20663E+02
 1.20000E+01    4.26949E+02
 1.21142E+01    4.16949E+02
 1.24666E+01    3.93436E+02
 1.25000E+01    3.95584E+02
 1.25448E+01    3.93541E+02
 1.29000E+01    3.82561E+02
 1.29755E+01    3.80462E+02
 1.30000E+01    3.80005E+02
 1.30087E+01    3.79792E+02
 1.33100E+01    3.81363E+02
 1.34963E+01    3.94628E+02
 1.35000E+01    3.94791E+02
 1.35507E+01    3.96762E+02
 1.37045E+01    4.09474E+02
 1.38369E+01    4.17553E+02
 1.40000E+01    4.26915E+02
 1.40927E+01    4.31495E+02
 1.40993E+01    4.35549E+02
 1.42676E+01    4.46902E+02
 1.43290E+01    4.50376E+02
 1.45000E+01    4.55069E+02
 1.45479E+01    4.56720E+02
 1.46347E+01    4.57859E+02
 1.46983E+01    4.62141E+02
 1.49248E+01    4.76366E+02
 1.49965E+01    4.76848E+02
 1.50000E+01    4.76791E+02
 1.51768E+01    4.73687E+02
 1.52152E+01    4.75151E+02
 1.55000E+01    4.87806E+02
 1.55206E+01    4.88729E+02
 1.57188E+01    4.82764E+02
 1.57320E+01    4.83230E+02
 1.58938E+01    4.89977E+02
 1.60000E+01    4.90695E+02
 1.61164E+01    4.91403E+02
 1.62489E+01    4.84777E+02
 1.62608E+01    4.84259E+02
 1.65000E+01    4.86236E+02
 1.67122E+01    4.88352E+02
 1.67657E+01    4.84670E+02
 1.68028E+01    4.82363E+02
 1.70000E+01    4.77043E+02
 1.72825E+01    4.69287E+02
 1.73449E+01    4.67996E+02
 1.75000E+01    4.72887E+02
 1.76884E+01    4.78674E+02
 1.77994E+01    4.75410E+02
 1.78869E+01    4.72781E+02
 1.79038E+01    4.77082E+02
 1.80000E+01    4.75461E+02
 1.81371E+01    4.73366E+02
 1.83162E+01    4.66548E+02
 1.84289E+01    4.62598E+02
 1.85000E+01    4.64244E+02
 1.85857E+01    4.66177E+02
 1.89710E+01    4.54011E+02
 1.90000E+01    4.55678E+02
 1.90343E+01    4.57549E+02
 1.90954E+01    4.55983E+02
 1.94830E+01    4.46327E+02
 1.95000E+01    4.45344E+02
 1.95130E+01    4.44538E+02
 2.00000E+01    4.33319E+02
