# n + C   0 : (n,el)    
# jendl4.0   K.SHIBATA                         EVAL-AUG83
# uncertainties: n
# # energies =    69
#   E(MeV)       xs(mb) 
 1.00000E-10    1.19265E+04
 5.00000E-09    5.46347E+03
 1.00000E-08    5.15316E+03
 1.50000E-08    5.03102E+03
 2.00000E-08    4.96500E+03
 2.50000E-08    4.92351E+03
 3.00000E-08    4.89493E+03
 3.50000E-08    4.87095E+03
 4.20000E-08    4.84948E+03
 5.00000E-08    4.83304E+03
 5.80000E-08    4.82031E+03
 6.70000E-08    4.80833E+03
 8.00000E-08    4.79585E+03
 1.00000E-07    4.78228E+03
 1.40000E-07    4.77130E+03
 1.80000E-07    4.76480E+03
 2.20000E-07    4.76103E+03
 2.50000E-07    4.75841E+03
 2.80000E-07    4.75700E+03
 3.00000E-07    4.75590E+03
 3.20000E-07    4.75453E+03
 3.50000E-07    4.75284E+03
 4.00000E-07    4.75090E+03
 5.00000E-07    4.74842E+03
 6.25000E-07    4.74686E+03
 7.80000E-07    4.74566E+03
 8.50000E-07    4.74499E+03
 9.10000E-07    4.74478E+03
 9.50000E-07    4.74475E+03
 9.72000E-07    4.74472E+03
 9.96000E-07    4.74469E+03
 1.02000E-06    4.74466E+03
 1.04500E-06    4.74463E+03
 1.07100E-06    4.74460E+03
 1.09700E-06    4.74457E+03
 1.12300E-06    4.74454E+03
 1.15000E-06    4.74444E+03
 1.30000E-06    4.74424E+03
 1.50000E-06    4.74380E+03
 2.10000E-06    4.74316E+03
 2.60000E-06    4.74247E+03
 3.30000E-06    4.74166E+03
 4.00000E-06    4.74032E+03
 9.87700E-06    4.74017E+03
 1.59680E-05    4.74014E+03
 2.77000E-05    4.74008E+03
 4.80520E-05    4.73999E+03
 7.55014E-05    4.73980E+03
 1.48728E-04    4.73928E+03
 3.67262E-04    4.73791E+03
 9.06898E-04    4.73577E+03
 1.42510E-03    4.73323E+03
 2.23945E-03    4.72923E+03
 3.51910E-03    4.72296E+03
 5.53000E-03    4.71238E+03
 9.11800E-03    4.69432E+03
 1.50300E-02    4.66777E+03
 2.47800E-02    4.62736E+03
 4.08500E-02    4.56077E+03
 6.73400E-02    4.45101E+03
 1.11000E-01    4.29672E+03
 1.83000E-01    4.01943E+03
 3.02000E-01    3.64090E+03
 5.00000E-01    3.13015E+03
 8.21000E-01    2.50720E+03
 1.35300E+00    1.91275E+03
 2.23100E+00    1.97036E+03
 3.67900E+00    1.50188E+03
 6.06500E+00    9.21745E+02
