# n + C   0 : (n,xa)    
# jendl4.0   K.SHIBATA                         EVAL-AUG83
# 
# # energies =   152
#   E(MeV)        xs(mb) 
 4.81200E+00    0.00000E+00
 4.96456E+00    0.00000E+00
 5.00583E+00    0.00000E+00
 5.04711E+00    0.00000E+00
 5.08838E+00    0.00000E+00
 5.12966E+00    0.00000E+00
 5.21221E+00    0.00000E+00
 5.29476E+00    0.00000E+00
 5.45986E+00    0.00000E+00
 5.54241E+00    0.00000E+00
 5.62496E+00    0.00000E+00
 5.72187E+00    0.00000E+00
 5.81878E+00    0.00000E+00
 6.01259E+00    0.00000E+00
 6.10950E+00    0.00000E+00
 6.20641E+00    1.71233E-02
 6.30331E+00    8.17859E-02
 6.40022E+00    1.46455E-01
 6.51507E+00    2.23096E-01
 6.62993E+00    2.99744E-01
 6.74478E+00    3.76385E-01
 6.80221E+00    4.14708E-01
 6.85963E+00    4.53026E-01
 6.89911E+00    4.79371E-01
 6.93859E+00    5.05717E-01
 7.01756E+00    5.58414E-01
 7.09652E+00    6.11105E-01
 7.17548E+00    6.63796E-01
 7.33340E+00    1.05573E+01
 7.49132E+00    3.30882E+01
 7.52722E+00    3.80411E+01
 7.56311E+00    4.29926E+01
 7.63489E+00    5.27347E+01
 7.70667E+00    8.10218E+01
 7.74257E+00    1.01080E+02
 7.77846E+00    1.23499E+02
 7.83588E+00    1.57950E+02
 7.88700E+00    1.81370E+02
 7.89331E+00    1.83099E+02
 8.00816E+00    1.81995E+02
 8.06559E+00    1.67039E+02
 8.12302E+00    1.51985E+02
 8.13041E+00    1.49977E+02
 8.18044E+00    1.36384E+02
 8.23787E+00    1.20781E+02
 8.29302E+00    1.07664E+02
 8.33478E+00    9.90014E+01
 8.43168E+00    8.64376E+01
 8.52858E+00    8.56168E+01
 8.62550E+00    9.31431E+01
 8.67244E+00    9.71963E+01
 8.72240E+00    1.02043E+02
 8.81931E+00    1.13612E+02
 9.00000E+00    1.57779E+02
 9.01313E+00    1.62099E+02
 9.17105E+00    2.47284E+02
 9.21447E+00    2.71336E+02
 9.32897E+00    3.08293E+02
 9.48689E+00    2.73685E+02
 9.50000E+00    2.69289E+02
 9.56586E+00    2.45011E+02
 9.64482E+00    2.14440E+02
 9.70224E+00    1.94765E+02
 9.75650E+00    1.88572E+02
 9.75967E+00    1.88496E+02
 9.87452E+00    1.90919E+02
 9.98938E+00    1.83926E+02
 1.00000E+01    1.82760E+02
 1.01042E+01    1.67853E+02
 1.02000E+01    1.52476E+02
 1.02478E+01    1.44750E+02
 1.02985E+01    1.38699E+02
 1.03914E+01    1.28853E+02
 1.04503E+01    1.23836E+02
 1.05000E+01    1.19603E+02
 1.06785E+01    1.04958E+02
 1.07500E+01    9.92210E+01
 1.08000E+01    9.57899E+01
 1.08405E+01    9.34591E+01
 1.09656E+01    8.62596E+01
 1.10000E+01    8.47466E+01
 1.11092E+01    8.20579E+01
 1.12000E+01    8.17984E+01
 1.12528E+01    8.27531E+01
 1.13826E+01    8.51002E+01
 1.15000E+01    8.72229E+01
 1.16835E+01    9.08621E+01
 1.19246E+01    9.63825E+01
 1.20000E+01    9.81089E+01
 1.21142E+01    1.00080E+02
 1.24666E+01    1.02350E+02
 1.25000E+01    1.01818E+02
 1.25448E+01    1.01104E+02
 1.29000E+01    9.04166E+01
 1.29755E+01    8.72757E+01
 1.30000E+01    8.62565E+01
 1.30087E+01    8.58946E+01
 1.33100E+01    7.64495E+01
 1.34963E+01    7.35857E+01
 1.35000E+01    7.35433E+01
 1.35507E+01    7.29611E+01
 1.37045E+01    7.21630E+01
 1.38369E+01    7.18977E+01
 1.40000E+01    7.26547E+01
 1.40927E+01    7.30969E+01
 1.40993E+01    7.31283E+01
 1.42676E+01    7.39311E+01
 1.43290E+01    7.41768E+01
 1.45000E+01    7.44157E+01
 1.45479E+01    7.44826E+01
 1.46347E+01    7.46039E+01
 1.46983E+01    7.46928E+01
 1.49248E+01    7.34721E+01
 1.49965E+01    7.27546E+01
 1.50000E+01    7.27196E+01
 1.51768E+01    7.09506E+01
 1.52152E+01    7.05663E+01
 1.55000E+01    6.72464E+01
 1.55206E+01    6.68960E+01
 1.57188E+01    6.35240E+01
 1.57320E+01    6.32994E+01
 1.58938E+01    6.05467E+01
 1.60000E+01    5.87399E+01
 1.61164E+01    5.66378E+01
 1.62489E+01    5.39861E+01
 1.62608E+01    5.37480E+01
 1.65000E+01    4.89610E+01
 1.67122E+01    4.47143E+01
 1.67657E+01    4.36436E+01
 1.68028E+01    4.29012E+01
 1.70000E+01    3.89547E+01
 1.72825E+01    3.33011E+01
 1.73449E+01    3.20523E+01
 1.75000E+01    2.93616E+01
 1.76884E+01    2.61700E+01
 1.77994E+01    2.46201E+01
 1.78869E+01    2.33983E+01
 1.79038E+01    2.31623E+01
 1.80000E+01    2.18190E+01
 1.81371E+01    2.04372E+01
 1.83162E+01    1.86550E+01
 1.84289E+01    1.79035E+01
 1.85000E+01    1.74877E+01
 1.85857E+01    1.71749E+01
 1.89710E+01    1.72476E+01
 1.90000E+01    1.74182E+01
 1.90343E+01    1.76200E+01
 1.90954E+01    1.79795E+01
 1.94830E+01    2.24318E+01
 1.95000E+01    2.27300E+01
 1.95130E+01    2.29580E+01
 2.00000E+01    3.24598E+01
