# n + C   0 : (n,tot)   
# jendl4.0   K.SHIBATA                         EVAL-AUG83
# uncertainties: n
# # energies =   171
#   E(MeV)       xs(mb) 
 1.00000E-11    1.83813E+04
 1.00000E-07    4.76777E+03
 4.13990E-07    4.75115E+03
 5.31580E-07    4.74874E+03
 6.82560E-07    4.74667E+03
 8.76420E-07    4.74533E+03
 1.12540E-06    4.74433E+03
 1.44500E-06    4.74306E+03
 1.85540E-06    4.74240E+03
 2.37240E-06    4.74240E+03
 3.05900E-06    4.74240E+03
 3.92790E-06    4.74239E+03
 5.04350E-06    4.74239E+03
 6.47600E-06    4.74238E+03
 8.31530E-06    4.74237E+03
 1.06770E-05    4.74236E+03
 1.37100E-05    4.74235E+03
 1.76030E-05    4.74233E+03
 2.26030E-05    4.74230E+03
 2.92030E-05    4.74227E+03
 3.72670E-05    4.74223E+03
 4.78510E-05    4.74218E+03
 6.14420E-05    4.74211E+03
 7.88930E-05    4.74203E+03
 1.01300E-04    4.74192E+03
 1.30070E-04    4.74177E+03
 1.67020E-04    4.74159E+03
 2.14450E-04    4.74136E+03
 2.75360E-04    4.74106E+03
 3.53580E-04    4.74068E+03
 4.54000E-04    4.74019E+03
 5.82950E-04    4.73955E+03
 7.48520E-04    4.73874E+03
 9.61120E-04    4.73770E+03
 1.23410E-03    4.73636E+03
 1.58460E-03    4.73464E+03
 2.03470E-03    4.73317E+03
 2.24870E-03    4.73220E+03
 2.48520E-03    4.73141E+03
 2.61260E-03    4.73085E+03
 2.74650E-03    4.72994E+03
 3.03540E-03    4.72863E+03
 3.35460E-03    4.72718E+03
 3.70740E-03    4.72514E+03
 4.30740E-03    4.72129E+03
 5.53080E-03    4.71529E+03
 7.10170E-03    4.70758E+03
 9.11880E-03    4.69817E+03
 1.17090E-02    4.68849E+03
 1.50340E-02    4.67637E+03
 1.93050E-02    4.66519E+03
 2.18750E-02    4.65828E+03
 2.35790E-02    4.65456E+03
 2.41760E-02    4.65262E+03
 2.47880E-02    4.64962E+03
 2.60580E-02    4.64606E+03
 2.70000E-02    4.64216E+03
 2.85000E-02    4.63449E+03
 3.18280E-02    4.62512E+03
 3.43070E-02    4.61088E+03
 4.08680E-02    4.59150E+03
 4.63090E-02    4.57291E+03
 5.24750E-02    4.55633E+03
 5.65620E-02    4.53285E+03
 6.73790E-02    4.50766E+03
 7.20000E-02    4.48833E+03
 7.95000E-02    4.47132E+03
 8.25000E-02    4.46008E+03
 8.65170E-02    4.43549E+03
 9.80370E-02    4.39612E+03
 1.11090E-01    4.36568E+03
 1.16790E-01    4.34695E+03
 1.22770E-01    4.32821E+03
 1.29070E-01    4.31196E+03
 1.35690E-01    4.29521E+03
 1.42640E-01    4.29549E+03
 1.49960E-01    4.39819E+03
 1.57640E-01    4.24267E+03
 1.65730E-01    4.20508E+03
 1.74220E-01    4.17701E+03
 1.83160E-01    4.15239E+03
 1.92550E-01    4.12651E+03
 2.02420E-01    4.09930E+03
 2.12800E-01    4.07070E+03
 2.23710E-01    4.04063E+03
 2.35180E-01    4.00901E+03
 2.47240E-01    3.95831E+03
 2.73240E-01    3.90592E+03
 2.87250E-01    3.88006E+03
 2.94520E-01    3.86798E+03
 2.97200E-01    3.86316E+03
 2.98500E-01    3.85740E+03
 3.01970E-01    3.81539E+03
 3.33730E-01    3.73454E+03
 3.68830E-01    3.66880E+03
 3.87740E-01    3.62537E+03
 4.07620E-01    3.55786E+03
 4.50490E-01    3.46000E+03
 4.97870E-01    3.38316E+03
 5.23400E-01    3.33229E+03
 5.50230E-01    3.27882E+03
 5.78440E-01    3.22260E+03
 6.08100E-01    3.16512E+03
 6.39280E-01    3.10917E+03
 6.72060E-01    3.05062E+03
 7.06510E-01    2.98908E+03
 7.42740E-01    2.92819E+03
 7.80820E-01    2.86723E+03
 8.20850E-01    2.80314E+03
 8.62940E-01    2.73854E+03
 9.07180E-01    2.66956E+03
 9.61640E-01    2.60265E+03
 1.00260E+00    2.50918E+03
 1.10800E+00    2.40783E+03
 1.16480E+00    2.34162E+03
 1.22460E+00    2.27296E+03
 1.28730E+00    2.20600E+03
 1.35340E+00    2.13825E+03
 1.42270E+00    2.07137E+03
 1.49570E+00    2.00476E+03
 1.57240E+00    1.93718E+03
 1.65300E+00    1.87313E+03
 1.73770E+00    1.81192E+03
 1.82680E+00    1.75087E+03
 1.92050E+00    1.68988E+03
 2.01900E+00    2.19268E+03
 2.12250E+00    1.65563E+03
 2.23130E+00    1.60531E+03
 2.30690E+00    1.59104E+03
 2.34570E+00    1.58705E+03
 2.36530E+00    1.58443E+03
 2.38520E+00    1.58467E+03
 2.46600E+00    1.60686E+03
 2.59240E+00    1.69548E+03
 2.72530E+00    2.01465E+03
 2.86500E+00    2.40385E+03
 3.01190E+00    1.50801E+03
 3.16640E+00    2.14171E+03
 3.32870E+00    2.57410E+03
 3.67880E+00    2.17345E+03
 4.06570E+00    1.96280E+03
 4.49330E+00    1.51633E+03
 4.72370E+00    1.29943E+03
 4.96590E+00    1.15440E+03
 5.22050E+00    1.21533E+03
 5.48810E+00    1.09021E+03
 5.76950E+00    1.08646E+03
 6.06530E+00    1.49582E+03
 6.37630E+00    1.01704E+03
 6.59240E+00    8.00778E+02
 6.70320E+00    7.79271E+02
 7.04690E+00    1.09987E+03
 7.40820E+00    1.87753E+03
 7.78800E+00    1.91044E+03
 8.18730E+00    1.19332E+03
 8.60710E+00    1.08496E+03
 9.04840E+00    1.27737E+03
 9.51230E+00    1.22060E+03
 1.00000E+01    1.14718E+03
 1.05130E+01    1.34639E+03
 1.10520E+01    1.39326E+03
 1.16180E+01    1.40511E+03
 1.22140E+01    1.36181E+03
 1.28400E+01    1.39371E+03
 1.34990E+01    1.36111E+03
 1.38400E+01    1.30634E+03
 1.41910E+01    1.30970E+03
 1.45500E+01    1.38349E+03
 1.49180E+01    1.44332E+03
 1.56830E+01    1.48583E+03
 1.64870E+01    1.40512E+03
