# n + C   0 : (n,el)    
# jendl4.0   K.SHIBATA                         EVAL-AUG83
# uncertainties: n
# # energies =   171
#   E(MeV)       xs(mb) 
 1.00000E-11    1.83394E+04
 1.00000E-07    4.76637E+03
 4.13990E-07    4.75031E+03
 5.31580E-07    4.74787E+03
 6.82560E-07    4.74607E+03
 8.76420E-07    4.74471E+03
 1.12540E-06    4.74438E+03
 1.44500E-06    4.74396E+03
 1.85540E-06    4.74343E+03
 2.37240E-06    4.74274E+03
 3.05900E-06    4.74185E+03
 3.92790E-06    4.74072E+03
 5.04350E-06    4.74020E+03
 6.47600E-06    4.74019E+03
 8.31530E-06    4.74019E+03
 1.06770E-05    4.74018E+03
 1.37100E-05    4.74016E+03
 1.76030E-05    4.74015E+03
 2.26030E-05    4.74012E+03
 2.92030E-05    4.74009E+03
 3.72670E-05    4.74006E+03
 4.78510E-05    4.74001E+03
 6.14420E-05    4.73995E+03
 7.88930E-05    4.73988E+03
 1.01300E-04    4.73978E+03
 1.30070E-04    4.73965E+03
 1.67020E-04    4.73949E+03
 2.14450E-04    4.73928E+03
 2.75360E-04    4.73901E+03
 3.53580E-04    4.73866E+03
 4.54000E-04    4.73822E+03
 5.82950E-04    4.73765E+03
 7.48520E-04    4.73692E+03
 9.61120E-04    4.73598E+03
 1.23410E-03    4.73478E+03
 1.58460E-03    4.73324E+03
 2.03470E-03    4.73192E+03
 2.24870E-03    4.73104E+03
 2.48520E-03    4.73033E+03
 2.61260E-03    4.72983E+03
 2.74650E-03    4.72901E+03
 3.03540E-03    4.72783E+03
 3.35460E-03    4.72653E+03
 3.70740E-03    4.72470E+03
 4.30740E-03    4.72123E+03
 5.53080E-03    4.71584E+03
 7.10170E-03    4.70891E+03
 9.11880E-03    4.70001E+03
 1.17090E-02    4.68860E+03
 1.50340E-02    4.67549E+03
 1.93050E-02    4.66437E+03
 2.18750E-02    4.65749E+03
 2.35790E-02    4.65379E+03
 2.41760E-02    4.65186E+03
 2.47880E-02    4.64886E+03
 2.60580E-02    4.64532E+03
 2.70000E-02    4.64144E+03
 2.85000E-02    4.63380E+03
 3.18280E-02    4.62448E+03
 3.43070E-02    4.61030E+03
 4.08680E-02    4.59100E+03
 4.63090E-02    4.57249E+03
 5.24750E-02    4.55599E+03
 5.65620E-02    4.53261E+03
 6.73790E-02    4.50753E+03
 7.20000E-02    4.48829E+03
 7.95000E-02    4.47135E+03
 8.25000E-02    4.46016E+03
 8.65170E-02    4.43568E+03
 9.80370E-02    4.39649E+03
 1.11090E-01    4.36618E+03
 1.16790E-01    4.34753E+03
 1.22770E-01    4.32792E+03
 1.29070E-01    4.30957E+03
 1.35690E-01    4.29423E+03
 1.42640E-01    4.29546E+03
 1.49960E-01    4.39817E+03
 1.57640E-01    4.24265E+03
 1.65730E-01    4.20506E+03
 1.74220E-01    4.17699E+03
 1.83160E-01    4.15236E+03
 1.92550E-01    4.12649E+03
 2.02420E-01    4.09928E+03
 2.12800E-01    4.07068E+03
 2.23710E-01    4.04061E+03
 2.35180E-01    4.00899E+03
 2.47240E-01    3.95829E+03
 2.73240E-01    3.90590E+03
 2.87250E-01    3.88004E+03
 2.94520E-01    3.86796E+03
 2.97200E-01    3.86314E+03
 2.98500E-01    3.85738E+03
 3.01970E-01    3.81537E+03
 3.33730E-01    3.73451E+03
 3.68830E-01    3.66878E+03
 3.87740E-01    3.62535E+03
 4.07620E-01    3.55784E+03
 4.50490E-01    3.45997E+03
 4.97870E-01    3.38314E+03
 5.23400E-01    3.33227E+03
 5.50230E-01    3.27880E+03
 5.78440E-01    3.22258E+03
 6.08100E-01    3.16510E+03
 6.39280E-01    3.10915E+03
 6.72060E-01    3.05060E+03
 7.06510E-01    2.98906E+03
 7.42740E-01    2.92817E+03
 7.80820E-01    2.86721E+03
 8.20850E-01    2.80312E+03
 8.62940E-01    2.73852E+03
 9.07180E-01    2.66954E+03
 9.61640E-01    2.60263E+03
 1.00260E+00    2.50916E+03
 1.10800E+00    2.40780E+03
 1.16480E+00    2.34159E+03
 1.22460E+00    2.27294E+03
 1.28730E+00    2.20598E+03
 1.35340E+00    2.13823E+03
 1.42270E+00    2.07135E+03
 1.49570E+00    2.00474E+03
 1.57240E+00    1.93716E+03
 1.65300E+00    1.87311E+03
 1.73770E+00    1.81190E+03
 1.82680E+00    1.75085E+03
 1.92050E+00    1.68986E+03
 2.01900E+00    2.19266E+03
 2.12250E+00    1.65561E+03
 2.23130E+00    1.60528E+03
 2.30690E+00    1.59102E+03
 2.34570E+00    1.58703E+03
 2.36530E+00    1.58441E+03
 2.38520E+00    1.58464E+03
 2.46600E+00    1.60684E+03
 2.59240E+00    1.69546E+03
 2.72530E+00    2.01463E+03
 2.86500E+00    2.40383E+03
 3.01190E+00    1.50798E+03
 3.16640E+00    2.14169E+03
 3.32870E+00    2.57408E+03
 3.67880E+00    2.17343E+03
 4.06570E+00    1.96278E+03
 4.49330E+00    1.51631E+03
 4.72370E+00    1.28128E+03
 4.96590E+00    1.08682E+03
 5.22050E+00    1.09746E+03
 5.48810E+00    9.13919E+02
 5.76950E+00    8.50980E+02
 6.06530E+00    1.21560E+03
 6.37630E+00    7.68598E+02
 6.59240E+00    6.05702E+02
 6.70320E+00    6.25764E+02
 7.04690E+00    8.62283E+02
 7.40820E+00    1.50319E+03
 7.78800E+00    1.38806E+03
 8.18730E+00    7.81987E+02
 8.60710E+00    7.02533E+02
 9.04840E+00    7.38228E+02
 9.51230E+00    6.85606E+02
 1.00000E+01    6.75183E+02
 1.05130E+01    8.32010E+02
 1.10520E+01    8.71010E+02
 1.16180E+01    8.84878E+02
 1.22140E+01    8.66737E+02
 1.28400E+01    9.29377E+02
 1.34990E+01    8.82522E+02
 1.38400E+01    8.04813E+02
 1.41910E+01    7.84474E+02
 1.45500E+01    8.43667E+02
 1.49180E+01    8.89779E+02
 1.56830E+01    9.23342E+02
 1.64870E+01    8.52407E+02
