# n + C   0 : (n,n'01)  
# jendl4.0   K.SHIBATA                         EVAL-AUG83
# uncertainties: n
# # energies =    88
#   E(MeV)       xs(mb) 
 4.81200E+00    0.00000E+00
 4.96456E+00    5.73077E+01
 5.00583E+00    5.77446E+01
 5.04711E+00    6.01573E+01
 5.08838E+00    6.43215E+01
 5.12966E+00    7.00124E+01
 5.21221E+00    8.50759E+01
 5.29476E+00    1.03552E+02
 5.45986E+00    1.43553E+02
 5.54241E+00    1.61487E+02
 5.62496E+00    1.75646E+02
 5.72187E+00    1.92458E+02
 5.81878E+00    2.13599E+02
 6.01259E+00    2.57528E+02
 6.10950E+00    2.74650E+02
 6.20641E+00    2.84762E+02
 6.30331E+00    2.85034E+02
 6.40022E+00    2.72627E+02
 6.51507E+00    2.40739E+02
 6.62993E+00    2.00151E+02
 6.74478E+00    1.63465E+02
 6.80221E+00    1.50524E+02
 6.85963E+00    1.43283E+02
 6.89911E+00    1.42391E+02
 6.93859E+00    1.44803E+02
 7.01756E+00    1.58205E+02
 7.09652E+00    1.80817E+02
 7.17548E+00    2.09966E+02
 7.33340E+00    2.77182E+02
 7.49132E+00    3.38467E+02
 7.52722E+00    3.44931E+02
 7.56311E+00    3.42669E+02
 7.63489E+00    3.21643E+02
 7.70667E+00    2.94754E+02
 7.74257E+00    2.85159E+02
 7.77846E+00    2.81360E+02
 7.83588E+00    2.90010E+02
 7.89331E+00    3.12140E+02
 8.00816E+00    3.72117E+02
 8.06559E+00    3.97600E+02
 8.12302E+00    4.11834E+02
 8.18044E+00    4.08638E+02
 8.23787E+00    3.81831E+02
 8.33478E+00    3.24048E+02
 8.43168E+00    2.85595E+02
 8.52858E+00    2.62902E+02
 8.62550E+00    2.52394E+02
 8.72240E+00    2.50505E+02
 8.81931E+00    2.53664E+02
 9.01313E+00    2.60842E+02
 9.17105E+00    2.58844E+02
 9.32897E+00    2.59465E+02
 9.48689E+00    2.74116E+02
 9.56586E+00    2.90270E+02
 9.64482E+00    3.14210E+02
 9.70224E+00    3.30169E+02
 9.75967E+00    3.37856E+02
 9.87452E+00    3.34323E+02
 9.98938E+00    3.15433E+02
 1.00000E+01    3.13359E+02
 1.01042E+01    3.03431E+02
 1.02000E+01    3.01410E+02
 1.02478E+01    3.00879E+02
 1.03914E+01    3.12466E+02
 1.05000E+01    3.30164E+02
 1.06785E+01    3.49733E+02
 1.08000E+01    3.65155E+02
 1.09656E+01    3.45327E+02
 1.10000E+01    3.39270E+02
 1.11092E+01    3.31508E+02
 1.12000E+01    3.18290E+02
 1.12528E+01    3.12452E+02
 1.15000E+01    2.77582E+02
 1.16835E+01    2.60873E+02
 1.21142E+01    2.33602E+02
 1.25448E+01    2.15491E+02
 1.29755E+01    2.03752E+02
 1.38369E+01    1.88241E+02
 1.42676E+01    1.78893E+02
 1.46983E+01    1.64767E+02
 1.52152E+01    1.45421E+02
 1.57320E+01    1.29287E+02
 1.62489E+01    1.16424E+02
 1.67657E+01    1.06894E+02
 1.72825E+01    1.00755E+02
 1.77994E+01    9.80678E+01
 1.83162E+01    9.50000E+01
 2.00000E+01    9.00000E+01
