# n + S   0 : (n,n'01)
# jeff3.3    A.J. Koning and D. Rochman        EVAL-DEC15
# uncertainties: y
# # energies =    96
#   E(MeV)          xs(mb) 
 8.66709E-01    0.00000E+00
 9.00000E-01    2.43745E-01
 1.00000E+00    7.24581E-01
 1.20000E+00    1.18830E+00
 1.40000E+00    1.33634E+00
 1.60000E+00    1.37926E+00
 1.80000E+00    1.39040E+00
 2.00000E+00    1.39413E+00
 2.02737E+00    1.38078E+00
 2.20000E+00    3.49805E+00
 2.38417E+00    2.05646E+02
 2.40000E+00    2.43065E+02
 2.60000E+00    3.85017E+02
 2.80000E+00    4.50707E+02
 2.95535E+00    4.78262E+02
 3.00000E+00    4.86182E+02
 3.02452E+00    4.88527E+02
 3.06001E+00    4.91922E+02
 3.20000E+00    5.05313E+02
 3.31922E+00    5.10324E+02
 3.40000E+00    5.13732E+02
 3.60000E+00    5.11586E+02
 3.64541E+00    5.10130E+02
 3.80000E+00    5.05173E+02
 3.89554E+00    4.98348E+02
 3.94882E+00    4.94541E+02
 4.00000E+00    4.90885E+02
 4.05510E+00    4.85924E+02
 4.17241E+00    4.75361E+02
 4.17941E+00    4.74731E+02
 4.20000E+00    4.72877E+02
 4.22037E+00    4.70767E+02
 4.27110E+00    4.65511E+02
 4.33967E+00    4.58407E+02
 4.40000E+00    4.52156E+02
 4.50925E+00    4.30060E+02
 4.55906E+00    4.19986E+02
 4.60000E+00    4.11706E+02
 4.80000E+00    3.72772E+02
 4.87480E+00    3.60188E+02
 4.89253E+00    3.57204E+02
 4.94189E+00    3.48899E+02
 5.00000E+00    3.39122E+02
 5.01558E+00    3.36872E+02
 5.06832E+00    3.29257E+02
 5.09298E+00    3.25696E+02
 5.20000E+00    3.10243E+02
 5.33641E+00    2.90278E+02
 5.36877E+00    2.85541E+02
 5.40000E+00    2.80971E+02
 5.43431E+00    2.76769E+02
 5.44410E+00    2.75571E+02
 5.44800E+00    2.75093E+02
 5.50542E+00    2.68062E+02
 5.60000E+00    2.56481E+02
 5.80000E+00    2.32241E+02
 6.00000E+00    2.12602E+02
 6.20000E+00    1.95320E+02
 6.40000E+00    1.80933E+02
 6.60000E+00    1.67462E+02
 6.80000E+00    1.54982E+02
 7.00000E+00    1.43158E+02
 7.20000E+00    1.33018E+02
 7.40000E+00    1.24118E+02
 7.60000E+00    1.16343E+02
 7.80000E+00    1.09018E+02
 8.00000E+00    1.00538E+02
 8.50000E+00    8.71288E+01
 9.00000E+00    7.67645E+01
 9.50000E+00    6.88779E+01
 1.00000E+01    6.28429E+01
 1.05000E+01    5.80789E+01
 1.10000E+01    5.44155E+01
 1.15000E+01    5.15775E+01
 1.20000E+01    4.93396E+01
 1.25000E+01    4.76059E+01
 1.30000E+01    4.62272E+01
 1.35000E+01    4.50981E+01
 1.40000E+01    4.41773E+01
 1.45000E+01    4.34203E+01
 1.50000E+01    4.27903E+01
 1.60000E+01    4.18113E+01
 1.70000E+01    4.10913E+01
 1.80000E+01    4.05342E+01
 1.90000E+01    4.00600E+01
 2.00000E+01    3.96056E+01
 2.10000E+01    3.91249E+01
 2.20000E+01    3.85942E+01
 2.30000E+01    3.80082E+01
 2.40000E+01    3.73742E+01
 2.50000E+01    3.67058E+01
 2.60000E+01    3.60177E+01
 2.70000E+01    3.53217E+01
 2.80000E+01    3.46273E+01
 2.90000E+01    3.39403E+01
 3.00000E+01    3.32637E+01
