# n + Ce142 : (n,el)    
# endfb8.0   JNDC FPND W.G., Mughabghab        EVAL-JAN05
# uncertainties: n
# # energies =   171
#   E(MeV)       xs(mb) 
 1.00000E-11    4.53503E+03
 1.00000E-07    2.84330E+03
 4.13990E-07    2.83730E+03
 5.31580E-07    2.83431E+03
 6.82560E-07    2.83048E+03
 8.76420E-07    2.82568E+03
 1.12540E-06    2.81988E+03
 1.44500E-06    2.81247E+03
 1.85540E-06    2.80305E+03
 2.37240E-06    2.79084E+03
 3.05900E-06    2.77504E+03
 3.92790E-06    2.75489E+03
 5.04350E-06    2.72902E+03
 6.47600E-06    2.69580E+03
 8.31530E-06    2.65315E+03
 1.06770E-05    2.59837E+03
 1.37100E-05    2.52963E+03
 1.76030E-05    2.44564E+03
 2.26030E-05    2.33650E+03
 2.92030E-05    2.20417E+03
 3.72670E-05    2.04290E+03
 4.78510E-05    1.84602E+03
 6.14420E-05    1.61139E+03
 7.88930E-05    1.33842E+03
 1.01300E-04    1.03105E+03
 1.30070E-04    7.01555E+02
 1.67020E-04    3.77060E+02
 2.14450E-04    1.12437E+02
 2.75360E-04    2.11840E+01
 3.53580E-04    3.64122E+02
 4.54000E-04    1.86617E+03
 5.82950E-04    7.26754E+03
 7.48520E-04    3.57586E+04
 9.61120E-04    7.11488E+05
 1.23410E-03    6.99140E+05
 1.58460E-03    1.18403E+05
 2.03470E-03    2.56986E+04
 2.24870E-03    1.59341E+04
 2.48520E-03    9.12219E+03
 2.61260E-03    2.75887E+03
 2.74650E-03    1.07226E+05
 3.03540E-03    1.25140E+04
 3.35460E-03    4.19009E+03
 3.70740E-03    8.16818E+04
 4.30740E-03    1.15602E+04
 5.53080E-03    7.53454E+03
 7.10170E-03    1.01041E+04
 9.11880E-03    6.18715E+03
 1.17090E-02    8.59107E+03
 1.50340E-02    6.51052E+03
 1.93050E-02    6.18019E+03
 2.18750E-02    6.01674E+03
 2.35790E-02    5.93822E+03
 2.41760E-02    5.89909E+03
 2.47880E-02    5.84283E+03
 2.60580E-02    5.77962E+03
 2.70000E-02    5.71447E+03
 2.85000E-02    5.59945E+03
 3.18280E-02    5.47444E+03
 3.43070E-02    5.31574E+03
 4.08680E-02    5.13713E+03
 4.63090E-02    4.99924E+03
 5.24750E-02    4.89341E+03
 5.65620E-02    4.77066E+03
 6.73790E-02    4.65548E+03
 7.20000E-02    4.58186E+03
 7.95000E-02    4.52089E+03
 8.25000E-02    4.48601E+03
 8.65170E-02    4.41374E+03
 9.80370E-02    4.36387E+03
 1.11090E-01    4.37696E+03
 1.16790E-01    4.38478E+03
 1.22770E-01    4.39301E+03
 1.29070E-01    4.40166E+03
 1.35690E-01    4.41075E+03
 1.42640E-01    4.42031E+03
 1.49960E-01    4.43315E+03
 1.57640E-01    4.45453E+03
 1.65730E-01    4.47747E+03
 1.74220E-01    4.50158E+03
 1.83160E-01    4.52694E+03
 1.92550E-01    4.55358E+03
 2.02420E-01    4.58308E+03
 2.12800E-01    4.61875E+03
 2.23710E-01    4.65660E+03
 2.35180E-01    4.69638E+03
 2.47240E-01    4.76089E+03
 2.73240E-01    4.83332E+03
 2.87250E-01    4.87223E+03
 2.94520E-01    4.89040E+03
 2.97200E-01    4.89765E+03
 2.98500E-01    4.90633E+03
 3.01970E-01    4.97375E+03
 3.33730E-01    5.10753E+03
 3.68830E-01    5.21445E+03
 3.87740E-01    5.28219E+03
 4.07620E-01    5.38983E+03
 4.50490E-01    5.54239E+03
 4.97870E-01    5.66217E+03
 5.23400E-01    5.74755E+03
 5.50230E-01    5.83741E+03
 5.78440E-01    5.93189E+03
 6.08100E-01    6.03087E+03
 6.39280E-01    6.09300E+03
 6.72060E-01    6.08024E+03
 7.06510E-01    6.11459E+03
 7.42740E-01    6.17671E+03
 7.80820E-01    6.24202E+03
 8.20850E-01    6.31068E+03
 8.62940E-01    6.38285E+03
 9.07180E-01    6.46262E+03
 9.61640E-01    6.52898E+03
 1.00260E+00    6.60661E+03
 1.10800E+00    6.67705E+03
 1.16480E+00    6.72705E+03
 1.22460E+00    6.74913E+03
 1.28730E+00    6.73397E+03
 1.35340E+00    6.71792E+03
 1.42270E+00    6.70106E+03
 1.49570E+00    6.66894E+03
 1.57240E+00    6.57529E+03
 1.65300E+00    6.46101E+03
 1.73770E+00    6.33017E+03
 1.82680E+00    6.18763E+03
 1.92050E+00    6.03776E+03
 2.01900E+00    5.86488E+03
 2.12250E+00    5.66790E+03
 2.23130E+00    5.49632E+03
 2.30690E+00    5.38986E+03
 2.34570E+00    5.33612E+03
 2.36530E+00    5.30036E+03
 2.38520E+00    5.20956E+03
 2.46600E+00    5.02251E+03
 2.59240E+00    4.78815E+03
 2.72530E+00    4.55790E+03
 2.86500E+00    4.33067E+03
 3.01190E+00    4.11050E+03
 3.16640E+00    3.89645E+03
 3.32870E+00    3.58461E+03
 3.67880E+00    3.18588E+03
 4.06570E+00    2.86466E+03
 4.49330E+00    2.65747E+03
 4.72370E+00    2.52445E+03
 4.96590E+00    2.41757E+03
 5.22050E+00    2.34967E+03
 5.48810E+00    2.28097E+03
 5.76950E+00    2.21562E+03
 6.06530E+00    2.18972E+03
 6.37630E+00    2.18358E+03
 6.59240E+00    2.17978E+03
 6.70320E+00    2.17586E+03
 7.04690E+00    2.24288E+03
 7.40820E+00    2.25202E+03
 7.78800E+00    2.24474E+03
 8.18730E+00    2.27923E+03
 8.60710E+00    2.31352E+03
 9.04840E+00    2.36678E+03
 9.51230E+00    2.41924E+03
 1.00000E+01    2.45923E+03
 1.05130E+01    2.49010E+03
 1.10520E+01    2.55545E+03
 1.16180E+01    2.64417E+03
 1.22140E+01    2.70068E+03
 1.28400E+01    2.74268E+03
 1.34990E+01    2.77529E+03
 1.38400E+01    2.80276E+03
 1.41910E+01    2.81562E+03
 1.45500E+01    2.82733E+03
 1.49180E+01    2.83837E+03
 1.56830E+01    2.84036E+03
 1.64870E+01    2.82558E+03
