# n + Ce142 : (n,tot)   
# endfb8.0   JNDC FPND W.G., Mughabghab        EVAL-JAN05
# uncertainties: n
# # energies =   171
#   E(MeV)       xs(mb) 
 1.00000E-11    1.49684E+04
 1.00000E-07    3.19064E+03
 4.13990E-07    3.06126E+03
 5.31580E-07    3.03194E+03
 6.82560E-07    3.00492E+03
 8.76420E-07    2.97965E+03
 1.12540E-06    2.95589E+03
 1.44500E-06    2.93329E+03
 1.85540E-06    2.90889E+03
 2.37240E-06    2.88507E+03
 3.05900E-06    2.85714E+03
 3.92790E-06    2.82663E+03
 5.04350E-06    2.79278E+03
 6.47600E-06    2.75011E+03
 8.31530E-06    2.70219E+03
 1.06770E-05    2.64227E+03
 1.37100E-05    2.56796E+03
 1.76030E-05    2.47909E+03
 2.26030E-05    2.36536E+03
 2.92030E-05    2.22980E+03
 3.72670E-05    2.06543E+03
 4.78510E-05    1.86538E+03
 6.14420E-05    1.62819E+03
 7.88930E-05    1.35308E+03
 1.01300E-04    1.04364E+03
 1.30070E-04    7.12481E+02
 1.67020E-04    3.86573E+02
 2.14450E-04    1.20857E+02
 2.75360E-04    2.88661E+01
 3.53580E-04    3.71531E+02
 4.54000E-04    1.87407E+03
 5.82950E-04    7.27777E+03
 7.48520E-04    3.57798E+04
 9.61120E-04    7.11882E+05
 1.23410E-03    6.99368E+05
 1.58460E-03    1.18719E+05
 2.03470E-03    2.57014E+04
 2.24870E-03    1.59365E+04
 2.48520E-03    9.12565E+03
 2.61260E-03    2.77435E+03
 2.74650E-03    1.07813E+05
 3.03540E-03    1.25157E+04
 3.35460E-03    4.19378E+03
 3.70740E-03    8.17736E+04
 4.30740E-03    1.16116E+04
 5.53080E-03    7.60218E+03
 7.10170E-03    1.01531E+04
 9.11880E-03    6.21625E+03
 1.17090E-02    8.62100E+03
 1.50340E-02    6.53476E+03
 1.93050E-02    6.20171E+03
 2.18750E-02    6.03700E+03
 2.35790E-02    5.95791E+03
 2.41760E-02    5.91849E+03
 2.47880E-02    5.86183E+03
 2.60580E-02    5.79819E+03
 2.70000E-02    5.73265E+03
 2.85000E-02    5.61694E+03
 3.18280E-02    5.49124E+03
 3.43070E-02    5.33170E+03
 4.08680E-02    5.15220E+03
 4.63090E-02    5.01365E+03
 5.24750E-02    4.90732E+03
 5.65620E-02    4.78401E+03
 6.73790E-02    4.66836E+03
 7.20000E-02    4.59441E+03
 7.95000E-02    4.53315E+03
 8.25000E-02    4.49810E+03
 8.65170E-02    4.42547E+03
 9.80370E-02    4.37516E+03
 1.11090E-01    4.38800E+03
 1.16790E-01    4.39568E+03
 1.22770E-01    4.40374E+03
 1.29070E-01    4.41223E+03
 1.35690E-01    4.42114E+03
 1.42640E-01    4.43051E+03
 1.49960E-01    4.44319E+03
 1.57640E-01    4.46447E+03
 1.65730E-01    4.48731E+03
 1.74220E-01    4.51133E+03
 1.83160E-01    4.53658E+03
 1.92550E-01    4.56312E+03
 2.02420E-01    4.59252E+03
 2.12800E-01    4.62819E+03
 2.23710E-01    4.66602E+03
 2.35180E-01    4.70579E+03
 2.47240E-01    4.77029E+03
 2.73240E-01    4.84276E+03
 2.87250E-01    4.88170E+03
 2.94520E-01    4.89988E+03
 2.97200E-01    4.90714E+03
 2.98500E-01    4.91582E+03
 3.01970E-01    4.98337E+03
 3.33730E-01    5.11744E+03
 3.68830E-01    5.22459E+03
 3.87740E-01    5.29248E+03
 4.07620E-01    5.40036E+03
 4.50490E-01    5.55328E+03
 4.97870E-01    5.67339E+03
 5.23400E-01    5.75906E+03
 5.50230E-01    5.84926E+03
 5.78440E-01    5.94410E+03
 6.08100E-01    6.04333E+03
 6.39280E-01    6.14058E+03
 6.72060E-01    6.24041E+03
 7.06510E-01    6.34537E+03
 7.42740E-01    6.45552E+03
 7.80820E-01    6.56194E+03
 8.20850E-01    6.66852E+03
 8.62940E-01    6.78056E+03
 9.07180E-01    6.89993E+03
 9.61640E-01    7.00542E+03
 1.00260E+00    7.14339E+03
 1.10800E+00    7.28067E+03
 1.16480E+00    7.37831E+03
 1.22460E+00    7.45851E+03
 1.28730E+00    7.51103E+03
 1.35340E+00    7.55609E+03
 1.42270E+00    7.60286E+03
 1.49570E+00    7.63914E+03
 1.57240E+00    7.63601E+03
 1.65300E+00    7.62204E+03
 1.73770E+00    7.58001E+03
 1.82680E+00    7.51231E+03
 1.92050E+00    7.43990E+03
 2.01900E+00    7.34218E+03
 2.12250E+00    7.21797E+03
 2.23130E+00    7.10549E+03
 2.30690E+00    7.02964E+03
 2.34570E+00    6.99091E+03
 2.36530E+00    6.96475E+03
 2.38520E+00    6.89834E+03
 2.46600E+00    6.76105E+03
 2.59240E+00    6.58529E+03
 2.72530E+00    6.40357E+03
 2.86500E+00    6.23243E+03
 3.01190E+00    6.05534E+03
 3.16640E+00    5.87824E+03
 3.32870E+00    5.62535E+03
 3.67880E+00    5.30372E+03
 4.06570E+00    5.00711E+03
 4.49330E+00    4.79940E+03
 4.72370E+00    4.66394E+03
 4.96590E+00    4.55858E+03
 5.22050E+00    4.50008E+03
 5.48810E+00    4.43933E+03
 5.76950E+00    4.37967E+03
 6.06530E+00    4.36949E+03
 6.37630E+00    4.37924E+03
 6.59240E+00    4.38529E+03
 6.70320E+00    4.39363E+03
 7.04690E+00    4.41118E+03
 7.40820E+00    4.43807E+03
 7.78800E+00    4.46652E+03
 8.18730E+00    4.49738E+03
 8.60710E+00    4.53412E+03
 9.04840E+00    4.57760E+03
 9.51230E+00    4.63164E+03
 1.00000E+01    4.69639E+03
 1.05130E+01    4.77097E+03
 1.10520E+01    4.84676E+03
 1.16180E+01    4.92214E+03
 1.22140E+01    4.98061E+03
 1.28400E+01    5.03449E+03
 1.34990E+01    5.07519E+03
 1.38400E+01    5.10008E+03
 1.41910E+01    5.11214E+03
 1.45500E+01    5.12237E+03
 1.49180E+01    5.13126E+03
 1.56830E+01    5.13257E+03
 1.64870E+01    5.12177E+03
