# n + Hf178 : (n,non)   
# jendl4.0   K. Shibata (JAEA)                 EVAL-AUG09
# uncertainties: n
# # energies =   108
#   E(MeV)       xs(mb) 
 1.50000E-03    0.00000E+00
 1.50000E-03    1.94700E+03
 2.00000E-03    1.41900E+03
 3.00000E-03    1.05800E+03
 4.00000E-03    8.75100E+02
 5.00000E-03    7.66000E+02
 6.00000E-03    6.93100E+02
 7.00000E-03    6.39600E+02
 8.00000E-03    5.98000E+02
 9.00000E-03    5.65100E+02
 1.00000E-02    5.37900E+02
 2.00000E-02    4.02200E+02
 3.00000E-02    3.45000E+02
 4.00000E-02    3.23800E+02
 5.00000E-02    3.16000E+02
 6.00000E-02    3.00200E+02
 7.00000E-02    2.74700E+02
 8.00000E-02    2.54400E+02
 9.00000E-02    2.47900E+02
 9.37082E-02    2.24501E+02
 1.00000E-01    3.04000E+02
 2.00000E-01    7.86300E+02
 3.00000E-01    1.15595E+03
 3.08357E-01    1.17904E+03
 4.00000E-01    1.45134E+03
 5.00000E-01    1.69371E+03
 6.00000E-01    1.89501E+03
 6.35760E-01    1.95487E+03
 7.00000E-01    2.06249E+03
 8.00000E-01    2.20431E+03
 9.00000E-01    2.32365E+03
 1.00000E+00    2.42050E+03
 1.06456E+00    2.42695E+03
 1.15392E+00    2.43588E+03
 1.18129E+00    2.43862E+03
 1.20619E+00    2.50148E+03
 1.25000E+00    2.66496E+03
 1.26739E+00    2.62819E+03
 1.27573E+00    2.61654E+03
 1.28393E+00    2.60994E+03
 1.31750E+00    2.61162E+03
 1.32639E+00    2.61909E+03
 1.32996E+00    2.62209E+03
 1.37027E+00    2.67991E+03
 1.37182E+00    2.68333E+03
 1.39231E+00    2.72853E+03
 1.41743E+00    2.78912E+03
 1.44175E+00    2.85778E+03
 1.44234E+00    2.85991E+03
 1.45212E+00    2.89996E+03
 1.45858E+00    2.92997E+03
 1.48742E+00    3.07016E+03
 1.50000E+00    3.13129E+03
 1.50490E+00    3.12577E+03
 1.52116E+00    3.11126E+03
 1.52219E+00    3.11038E+03
 1.52241E+00    3.11024E+03
 1.54184E+00    3.10002E+03
 1.54751E+00    3.09729E+03
 1.56281E+00    3.09159E+03
 1.57038E+00    3.08882E+03
 1.57555E+00    3.08816E+03
 1.57991E+00    3.08854E+03
 1.61055E+00    3.09127E+03
 1.64487E+00    3.09432E+03
 1.64601E+00    3.09453E+03
 1.64906E+00    3.09517E+03
 1.64975E+00    3.09544E+03
 1.65819E+00    3.09911E+03
 1.66082E+00    3.10029E+03
 1.66348E+00    3.10156E+03
 1.70067E+00    3.12264E+03
 1.71072E+00    3.12840E+03
 2.00000E+00    3.56553E+03
 2.50000E+00    3.47882E+03
 3.00000E+00    3.40635E+03
 3.50000E+00    3.29310E+03
 4.00000E+00    3.22454E+03
 4.50000E+00    3.17838E+03
 5.00000E+00    3.13827E+03
 5.14865E+00    3.12672E+03
 5.50000E+00    3.09943E+03
 5.84296E+00    3.07434E+03
 5.96904E+00    3.06511E+03
 6.00000E+00    3.06284E+03
 6.50000E+00    3.02537E+03
 7.00000E+00    2.99008E+03
 7.38583E+00    2.96587E+03
 7.50000E+00    2.95871E+03
 7.66918E+00    2.91916E+03
 8.00000E+00    2.93124E+03
 8.50000E+00    2.90796E+03
 9.00000E+00    2.88816E+03
 9.50000E+00    2.87119E+03
 1.00000E+01    2.85445E+03
 1.10000E+01    2.82362E+03
 1.20000E+01    2.79110E+03
 1.22617E+01    2.78331E+03
 1.30000E+01    2.76135E+03
 1.40000E+01    2.73471E+03
 1.40888E+01    2.73246E+03
 1.45000E+01    2.72213E+03
 1.50000E+01    2.71150E+03
 1.60000E+01    2.69186E+03
 1.70000E+01    2.67531E+03
 1.80000E+01    2.65805E+03
 1.90000E+01    2.64134E+03
 2.00000E+01    2.62482E+03
