# n + Hf178 : (n,tot)   
# jendl4.0   K. Shibata (JAEA)                 EVAL-AUG09
# uncertainties: n
# # energies =   171
#   E(MeV)       xs(mb) 
 1.00000E-11    9.10567E+05
 1.00000E-07    3.57509E+04
 4.13990E-07    2.55813E+04
 5.31580E-07    2.35064E+04
 6.82560E-07    2.17404E+04
 8.76420E-07    2.02723E+04
 1.12540E-06    1.91189E+04
 1.44500E-06    1.83331E+04
 1.85540E-06    1.80699E+04
 2.37240E-06    1.87530E+04
 3.05900E-06    2.17243E+04
 3.92790E-06    3.24020E+04
 5.04350E-06    9.56757E+04
 6.47600E-06    1.30343E+07
 8.31530E-06    4.05961E+05
 1.06770E-05    6.43915E+04
 1.37100E-05    3.37205E+04
 1.76030E-05    2.35434E+04
 2.26030E-05    1.84673E+04
 2.92030E-05    1.53792E+04
 3.72670E-05    1.32178E+04
 4.78510E-05    1.15135E+04
 6.14420E-05    1.00885E+04
 7.88930E-05    8.68546E+03
 1.01300E-04    2.15324E+04
 1.30070E-04    1.58220E+04
 1.67020E-04    6.04220E+03
 2.14450E-04    1.01100E+05
 2.75360E-04    1.80584E+04
 3.53580E-04    6.74343E+04
 4.54000E-04    3.66934E+04
 5.82950E-04    3.94798E+04
 7.48520E-04    4.80285E+04
 9.61120E-04    3.04219E+04
 1.23410E-03    3.88712E+04
 1.58460E-03    3.16997E+04
 2.03470E-03    2.91058E+04
 2.24870E-03    2.81177E+04
 2.48520E-03    2.73127E+04
 2.61260E-03    2.67392E+04
 2.74650E-03    2.58230E+04
 3.03540E-03    2.48261E+04
 3.35460E-03    2.39465E+04
 3.70740E-03    2.27732E+04
 4.30740E-03    2.11667E+04
 5.53080E-03    1.93318E+04
 7.10170E-03    1.77266E+04
 9.11880E-03    1.64004E+04
 1.17090E-02    1.54199E+04
 1.50340E-02    1.42184E+04
 1.93050E-02    1.32261E+04
 2.18750E-02    1.28988E+04
 2.35790E-02    1.27318E+04
 2.41760E-02    1.26448E+04
 2.47880E-02    1.25098E+04
 2.60580E-02    1.23502E+04
 2.70000E-02    1.21750E+04
 2.85000E-02    1.18589E+04
 3.18280E-02    1.15875E+04
 3.43070E-02    1.12071E+04
 4.08680E-02    1.07781E+04
 4.63090E-02    1.04378E+04
 5.24750E-02    1.01910E+04
 5.65620E-02    9.88995E+03
 6.73790E-02    9.61157E+03
 7.20000E-02    9.38997E+03
 7.95000E-02    9.20595E+03
 8.25000E-02    9.11858E+03
 8.65170E-02    8.93881E+03
 9.80370E-02    8.72261E+03
 1.11090E-01    8.61210E+03
 1.16790E-01    8.54501E+03
 1.22770E-01    8.47448E+03
 1.29070E-01    8.40027E+03
 1.35690E-01    8.32233E+03
 1.42640E-01    8.24036E+03
 1.49960E-01    8.15421E+03
 1.57640E-01    8.06363E+03
 1.65730E-01    7.96839E+03
 1.74220E-01    7.86828E+03
 1.83160E-01    7.76300E+03
 1.92550E-01    7.65432E+03
 2.02420E-01    7.58691E+03
 2.12800E-01    7.53615E+03
 2.23710E-01    7.48327E+03
 2.35180E-01    7.42787E+03
 2.47240E-01    7.33903E+03
 2.73240E-01    7.24406E+03
 2.87250E-01    7.19374E+03
 2.94520E-01    7.17025E+03
 2.97200E-01    7.16087E+03
 2.98500E-01    7.14965E+03
 3.01970E-01    7.10353E+03
 3.33730E-01    7.02312E+03
 3.68830E-01    6.95760E+03
 3.87740E-01    6.91103E+03
 4.07620E-01    6.86268E+03
 4.50490E-01    6.80623E+03
 4.97870E-01    6.76234E+03
 5.23400E-01    6.74502E+03
 5.50230E-01    6.72912E+03
 5.78440E-01    6.71240E+03
 6.08100E-01    6.69778E+03
 6.39280E-01    6.69089E+03
 6.72060E-01    6.68443E+03
 7.06510E-01    6.68751E+03
 7.42740E-01    6.69587E+03
 7.80820E-01    6.70466E+03
 8.20850E-01    6.71423E+03
 8.62940E-01    6.73154E+03
 9.07180E-01    6.75456E+03
 9.61640E-01    6.77690E+03
 1.00260E+00    6.81457E+03
 1.10800E+00    6.86489E+03
 1.16480E+00    6.90138E+03
 1.22460E+00    6.93707E+03
 1.28730E+00    6.95465E+03
 1.35340E+00    6.96904E+03
 1.42270E+00    6.98416E+03
 1.49570E+00    7.00007E+03
 1.57240E+00    7.01678E+03
 1.65300E+00    7.03435E+03
 1.73770E+00    7.05282E+03
 1.82680E+00    7.07334E+03
 1.92050E+00    7.09508E+03
 2.01900E+00    7.09036E+03
 2.12250E+00    7.07129E+03
 2.23130E+00    7.05468E+03
 2.30690E+00    7.04437E+03
 2.34570E+00    7.03912E+03
 2.36530E+00    7.03557E+03
 2.38520E+00    7.02656E+03
 2.46600E+00    7.00783E+03
 2.59240E+00    6.97644E+03
 2.72530E+00    6.93903E+03
 2.86500E+00    6.89970E+03
 3.01190E+00    6.84209E+03
 3.16640E+00    6.76064E+03
 3.32870E+00    6.62991E+03
 3.67880E+00    6.44039E+03
 4.06570E+00    6.24127E+03
 4.49330E+00    6.08621E+03
 4.72370E+00    5.97574E+03
 4.96590E+00    5.86127E+03
 5.22050E+00    5.75383E+03
 5.48810E+00    5.64587E+03
 5.76950E+00    5.54437E+03
 6.06530E+00    5.44470E+03
 6.37630E+00    5.36716E+03
 6.59240E+00    5.32263E+03
 6.70320E+00    5.27013E+03
 7.04690E+00    5.19612E+03
 7.40820E+00    5.13444E+03
 7.78800E+00    5.08636E+03
 8.18730E+00    5.05210E+03
 8.60710E+00    5.03004E+03
 9.04840E+00    5.02729E+03
 9.51230E+00    5.03388E+03
 1.00000E+01    5.05475E+03
 1.05130E+01    5.08530E+03
 1.10520E+01    5.12328E+03
 1.16180E+01    5.16754E+03
 1.22140E+01    5.21543E+03
 1.28400E+01    5.26468E+03
 1.34990E+01    5.30048E+03
 1.38400E+01    5.32469E+03
 1.41910E+01    5.34763E+03
 1.45500E+01    5.36859E+03
 1.49180E+01    5.39513E+03
 1.56830E+01    5.42444E+03
 1.64870E+01    5.44175E+03
