# n + Hf178 : (n,n')    
# jendl4.0   K. Shibata (JAEA)                 EVAL-AUG09
# uncertainties: n
# # energies =    81
#   E(MeV)       xs(mb) 
 9.37082E-02    0.00000E+00
 1.00000E-01    1.19200E+02
 2.00000E-01    6.81700E+02
 3.00000E-01    1.06600E+03
 3.08357E-01    1.08965E+03
 4.00000E-01    1.36806E+03
 5.00000E-01    1.61267E+03
 6.00000E-01    1.81270E+03
 6.35760E-01    1.87171E+03
 7.00000E-01    1.97778E+03
 8.00000E-01    2.11411E+03
 9.00000E-01    2.22792E+03
 1.00000E+00    2.31630E+03
 1.06456E+00    2.31914E+03
 1.15392E+00    2.32306E+03
 1.18129E+00    2.32426E+03
 1.20619E+00    2.38574E+03
 1.25000E+00    2.54676E+03
 1.26739E+00    2.51224E+03
 1.27573E+00    2.50167E+03
 1.28393E+00    2.49613E+03
 1.31750E+00    2.50215E+03
 1.32996E+00    2.51423E+03
 1.37027E+00    2.57727E+03
 1.37182E+00    2.58088E+03
 1.39231E+00    2.62874E+03
 1.41743E+00    2.69257E+03
 1.44175E+00    2.76438E+03
 1.44234E+00    2.76658E+03
 1.45212E+00    2.80790E+03
 1.45858E+00    2.83875E+03
 1.48742E+00    2.98267E+03
 1.50000E+00    3.04542E+03
 1.50490E+00    3.04023E+03
 1.52116E+00    3.02683E+03
 1.52219E+00    3.02602E+03
 1.52241E+00    3.02590E+03
 1.54184E+00    3.01700E+03
 1.54751E+00    3.01466E+03
 1.56281E+00    3.00999E+03
 1.57038E+00    3.00774E+03
 1.57555E+00    3.00743E+03
 1.57991E+00    3.00811E+03
 1.61055E+00    3.01293E+03
 1.64487E+00    3.01832E+03
 1.64601E+00    3.01860E+03
 1.64906E+00    3.01945E+03
 1.64975E+00    3.01977E+03
 1.65819E+00    3.02401E+03
 1.66082E+00    3.02537E+03
 1.66348E+00    3.02682E+03
 1.70067E+00    3.05043E+03
 1.71072E+00    3.05687E+03
 2.00000E+00    3.51370E+03
 2.50000E+00    3.43754E+03
 3.00000E+00    3.37699E+03
 3.50000E+00    3.27145E+03
 4.00000E+00    3.21003E+03
 4.50000E+00    3.16833E+03
 5.00000E+00    3.13149E+03
 5.50000E+00    3.09467E+03
 6.00000E+00    3.05934E+03
 6.50000E+00    3.02269E+03
 7.00000E+00    2.98770E+03
 7.50000E+00    2.95662E+03
 8.00000E+00    2.83969E+03
 8.50000E+00    2.32659E+03
 9.00000E+00    1.78592E+03
 9.50000E+00    1.41083E+03
 1.00000E+01    1.16771E+03
 1.10000E+01    9.08003E+02
 1.20000E+01    7.70126E+02
 1.30000E+01    6.83300E+02
 1.40000E+01    6.20421E+02
 1.45000E+01    5.97482E+02
 1.50000E+01    5.71016E+02
 1.60000E+01    5.33840E+02
 1.70000E+01    5.01618E+02
 1.80000E+01    4.72938E+02
 1.90000E+01    4.46879E+02
 2.00000E+01    4.23145E+02
