# n + Hf178 : (n,el)    
# jendl4.0   K. Shibata (JAEA)                 EVAL-AUG09
# uncertainties: n
# # energies =   171
#   E(MeV)       xs(mb) 
 1.00000E-11    6.74303E+03
 1.00000E-07    4.23259E+03
 4.13990E-07    3.93387E+03
 5.31580E-07    3.77149E+03
 6.82560E-07    3.56026E+03
 8.76420E-07    3.28478E+03
 1.12540E-06    2.92431E+03
 1.44500E-06    2.45315E+03
 1.85540E-06    1.85063E+03
 2.37240E-06    1.08821E+03
 3.05900E-06    2.85330E+02
 3.92790E-06    5.36494E+02
 5.04350E-06    1.56205E+04
 6.47600E-06    5.89248E+06
 8.31530E-06    2.40551E+05
 1.06770E-05    5.16725E+04
 1.37100E-05    3.02835E+04
 1.76030E-05    2.22280E+04
 2.26030E-05    1.78663E+04
 2.92030E-05    1.50662E+04
 3.72670E-05    1.30396E+04
 4.78510E-05    1.14070E+04
 6.14420E-05    1.00205E+04
 7.88930E-05    8.61212E+03
 1.01300E-04    1.01239E+04
 1.30070E-04    8.75207E+03
 1.67020E-04    5.98996E+03
 2.14450E-04    8.33745E+04
 2.75360E-04    1.53734E+04
 3.53580E-04    5.82327E+04
 4.54000E-04    3.03272E+04
 5.82950E-04    3.73814E+04
 7.48520E-04    4.58136E+04
 9.61120E-04    2.87636E+04
 1.23410E-03    3.73982E+04
 1.58460E-03    3.00690E+04
 2.03470E-03    2.77373E+04
 2.24870E-03    2.68305E+04
 2.48520E-03    2.60916E+04
 2.61260E-03    2.55653E+04
 2.74650E-03    2.47244E+04
 3.03540E-03    2.38032E+04
 3.35460E-03    2.29851E+04
 3.70740E-03    2.18925E+04
 4.30740E-03    2.03853E+04
 5.53080E-03    1.86523E+04
 7.10170E-03    1.71289E+04
 9.11880E-03    1.58652E+04
 1.17090E-02    1.49268E+04
 1.50340E-02    1.37766E+04
 1.93050E-02    1.28264E+04
 2.18750E-02    1.25122E+04
 2.35790E-02    1.23518E+04
 2.41760E-02    1.22682E+04
 2.47880E-02    1.21386E+04
 2.60580E-02    1.19854E+04
 2.70000E-02    1.18171E+04
 2.85000E-02    1.15129E+04
 3.18280E-02    1.12490E+04
 3.43070E-02    1.08779E+04
 4.08680E-02    1.04570E+04
 4.63090E-02    1.01216E+04
 5.24750E-02    9.88206E+03
 5.65620E-02    9.59494E+03
 6.73790E-02    9.33579E+03
 7.20000E-02    9.12682E+03
 7.95000E-02    8.95214E+03
 8.25000E-02    8.86710E+03
 8.65170E-02    8.69295E+03
 9.80370E-02    8.39848E+03
 1.11090E-01    8.24099E+03
 1.16790E-01    8.14573E+03
 1.22770E-01    8.04560E+03
 1.29070E-01    7.94024E+03
 1.35690E-01    7.82957E+03
 1.42640E-01    7.71321E+03
 1.49960E-01    7.59088E+03
 1.57640E-01    7.46228E+03
 1.65730E-01    7.32707E+03
 1.74220E-01    7.18494E+03
 1.83160E-01    7.03546E+03
 1.92550E-01    6.88068E+03
 2.02420E-01    6.77264E+03
 2.12800E-01    6.68250E+03
 2.23710E-01    6.58774E+03
 2.35180E-01    6.48817E+03
 2.47240E-01    6.32848E+03
 2.73240E-01    6.15779E+03
 2.87250E-01    6.06735E+03
 2.94520E-01    6.02513E+03
 2.97200E-01    6.00827E+03
 2.98500E-01    5.98982E+03
 3.01970E-01    5.89549E+03
 3.33730E-01    5.71586E+03
 3.68830E-01    5.56948E+03
 3.87740E-01    5.46614E+03
 4.07620E-01    5.34120E+03
 4.50490E-01    5.17412E+03
 4.97870E-01    5.04617E+03
 5.23400E-01    4.97665E+03
 5.50230E-01    4.90429E+03
 5.78440E-01    4.82841E+03
 6.08100E-01    4.76341E+03
 6.39280E-01    4.70443E+03
 6.72060E-01    4.64246E+03
 7.06510E-01    4.58958E+03
 7.42740E-01    4.54447E+03
 7.80820E-01    4.49752E+03
 8.20850E-01    4.45978E+03
 8.62940E-01    4.42519E+03
 9.07180E-01    4.39207E+03
 9.61640E-01    4.36776E+03
 1.00260E+00    4.38811E+03
 1.10800E+00    4.43257E+03
 1.16480E+00    4.42339E+03
 1.22460E+00    4.31222E+03
 1.28730E+00    4.33046E+03
 1.35340E+00    4.24126E+03
 1.42270E+00    4.03804E+03
 1.49570E+00    3.88593E+03
 1.57240E+00    3.92044E+03
 1.65300E+00    3.90760E+03
 1.73770E+00    3.81603E+03
 1.82680E+00    3.69934E+03
 1.92050E+00    3.57894E+03
 2.01900E+00    3.53786E+03
 2.12250E+00    3.53843E+03
 2.23130E+00    3.53893E+03
 2.30690E+00    3.53924E+03
 2.34570E+00    3.53940E+03
 2.36530E+00    3.53950E+03
 2.38520E+00    3.53977E+03
 2.46600E+00    3.53625E+03
 2.59240E+00    3.52164E+03
 2.72530E+00    3.50569E+03
 2.86500E+00    3.48883E+03
 3.01190E+00    3.45442E+03
 3.16640E+00    3.40572E+03
 3.32870E+00    3.32604E+03
 3.67880E+00    3.19257E+03
 4.06570E+00    3.03908E+03
 4.49330E+00    2.91172E+03
 4.72370E+00    2.82067E+03
 4.96590E+00    2.72847E+03
 5.22050E+00    2.64116E+03
 5.48810E+00    2.55463E+03
 5.76950E+00    2.47308E+03
 6.06530E+00    2.39777E+03
 6.37630E+00    2.33884E+03
 6.59240E+00    2.30702E+03
 6.70320E+00    2.26800E+03
 7.04690E+00    2.21851E+03
 7.40820E+00    2.19315E+03
 7.78800E+00    2.15681E+03
 8.18730E+00    2.13687E+03
 8.60710E+00    2.13598E+03
 9.04840E+00    2.14664E+03
 9.51230E+00    2.17002E+03
 1.00000E+01    2.20814E+03
 1.05130E+01    2.25490E+03
 1.10520E+01    2.31048E+03
 1.16180E+01    2.37352E+03
 1.22140E+01    2.43993E+03
 1.28400E+01    2.50771E+03
 1.34990E+01    2.55695E+03
 1.38400E+01    2.59030E+03
 1.41910E+01    2.62222E+03
 1.45500E+01    2.65142E+03
 1.49180E+01    2.68946E+03
 1.56830E+01    2.73374E+03
 1.64870E+01    2.76494E+03
