# n + Hf178 : (n,g)     
# jendl4.0   K. Shibata (JAEA)                 EVAL-AUG09
# uncertainties: n
# # energies =    69
#   E(MeV)       xs(mb) 
 1.00000E-10    5.83525E+05
 5.00000E-09    1.59113E+05
 1.00000E-08    1.20642E+05
 1.50000E-08    1.01476E+05
 2.00000E-08    8.93793E+04
 2.50000E-08    8.08410E+04
 3.00000E-08    7.43949E+04
 3.50000E-08    6.84898E+04
 4.20000E-08    6.27496E+04
 5.00000E-08    5.79850E+04
 5.80000E-08    5.39962E+04
 6.70000E-08    4.99517E+04
 8.00000E-08    4.53665E+04
 1.00000E-07    3.97291E+04
 1.40000E-07    3.45978E+04
 1.80000E-07    3.11801E+04
 2.20000E-07    2.89510E+04
 2.50000E-07    2.74466E+04
 2.80000E-07    2.63759E+04
 3.00000E-07    2.56292E+04
 3.20000E-07    2.48055E+04
 3.50000E-07    2.36820E+04
 4.00000E-07    2.20509E+04
 5.00000E-07    2.02648E+04
 6.25000E-07    1.87697E+04
 7.80000E-07    1.78912E+04
 8.50000E-07    1.75062E+04
 9.10000E-07    1.72497E+04
 9.50000E-07    1.71072E+04
 9.72000E-07    1.70084E+04
 9.96000E-07    1.69118E+04
 1.02000E-06    1.68196E+04
 1.04500E-06    1.67293E+04
 1.07100E-06    1.66434E+04
 1.09700E-06    1.65642E+04
 1.12300E-06    1.64885E+04
 1.15000E-06    1.62818E+04
 1.30000E-06    1.60031E+04
 1.50000E-06    1.59289E+04
 2.10000E-06    1.66490E+04
 2.60000E-06    1.85426E+04
 3.30000E-06    2.25211E+04
 4.00000E-06    2.04833E+06
 9.87700E-06    1.39231E+04
 1.59680E-05    1.25768E+03
 2.77000E-05    2.63094E+02
 4.80520E-05    8.99554E+01
 7.55014E-05    4.24284E+03
 1.48728E-04    7.61807E+03
 3.67262E-04    5.49095E+03
 9.06898E-04    1.28890E+03
 1.42510E-03    1.63668E+03
 2.23945E-03    1.13481E+03
 3.51910E-03    8.33346E+02
 5.53000E-03    6.38608E+02
 9.11800E-03    5.14211E+02
 1.50300E-02    4.16734E+02
 2.47800E-02    3.44177E+02
 4.08500E-02    3.08930E+02
 6.73400E-02    2.34916E+02
 1.11000E-01    1.49502E+02
 1.83000E-01    1.00102E+02
 3.02000E-01    8.47100E+01
 5.00000E-01    8.42566E+01
 8.21000E-01    1.05515E+02
 1.35300E+00    7.05804E+01
 2.23100E+00    3.29168E+01
 3.67900E+00    9.39610E+00
 6.06500E+00    2.29751E+00
