# n + Hg196 : (n,n'13)  
# tendl.2019 A.J. Koning and D. Rochman        EVAL-NOV19
# uncertainties: n
# # energies =    78
#   E(MeV)       xs(mb) 
 1.82454E+00    0.00000E+00
 1.85082E+00    5.54652E+00
 1.85490E+00    6.40764E+00
 1.93189E+00    2.26568E+01
 1.98919E+00    3.47503E+01
 1.99612E+00    3.62129E+01
 1.99843E+00    3.67005E+01
 2.00000E+00    3.70318E+01
 2.02296E+00    3.94754E+01
 2.05462E+00    4.28450E+01
 2.06906E+00    4.43819E+01
 2.07498E+00    4.50119E+01
 2.10858E+00    4.85880E+01
 2.20000E+00    5.83178E+01
 2.27441E+00    6.28430E+01
 2.35436E+00    6.77051E+01
 2.35828E+00    6.79435E+01
 2.37103E+00    6.87189E+01
 2.40000E+00    7.04807E+01
 2.45155E+00    7.11881E+01
 2.46744E+00    7.14061E+01
 2.60000E+00    7.32251E+01
 2.80000E+00    6.38039E+01
 3.00000E+00    5.04460E+01
 3.20000E+00    3.83543E+01
 3.40000E+00    2.88952E+01
 3.60000E+00    2.17850E+01
 3.80000E+00    1.64356E+01
 4.00000E+00    1.23729E+01
 4.20000E+00    9.27264E+00
 4.40000E+00    6.91203E+00
 4.60000E+00    5.12668E+00
 4.80000E+00    3.78824E+00
 5.00000E+00    2.79190E+00
 5.20000E+00    2.05417E+00
 5.40000E+00    1.50968E+00
 5.60000E+00    1.10483E+00
 5.80000E+00    8.09974E-01
 6.00000E+00    5.94330E-01
 6.20000E+00    4.36779E-01
 6.40000E+00    3.21546E-01
 6.60000E+00    2.37249E-01
 6.80000E+00    1.75233E-01
 7.00000E+00    1.29747E-01
 7.20000E+00    9.60907E-02
 7.40000E+00    7.13888E-02
 7.60000E+00    5.30938E-02
 7.80000E+00    3.95332E-02
 8.00000E+00    2.95450E-02
 8.50000E+00    1.43980E-02
 9.00000E+00    7.14857E-03
 9.50000E+00    3.61262E-03
 1.00000E+01    1.85118E-03
 1.05000E+01    9.60055E-04
 1.10000E+01    5.03280E-04
 1.15000E+01    2.66391E-04
 1.20000E+01    1.42263E-04
 1.25000E+01    7.66547E-05
 1.30000E+01    4.16738E-05
 1.35000E+01    2.28608E-05
 1.40000E+01    1.26539E-05
 1.45000E+01    7.06596E-06
 1.50000E+01    3.97916E-06
 1.60000E+01    1.29182E-06
 1.70000E+01    4.29400E-07
 1.80000E+01    1.46810E-07
 1.90000E+01    5.13200E-08
 2.00000E+01    1.83260E-08
 2.10000E+01    6.67980E-09
 2.20000E+01    2.48460E-09
 2.30000E+01    9.43540E-10
 2.40000E+01    3.65910E-10
 2.50000E+01    1.44630E-10
 2.60000E+01    5.83060E-11
 2.70000E+01    2.38110E-11
 2.80000E+01    9.85580E-12
 2.90000E+01    4.13240E-12
 3.00000E+01    1.75500E-12
