# n + Ca 41 : (n,xt)    
# endfb8.0      G. Nobre, D. Brown, M. Herman  EVAL-Jul17
# 
# # energies =    71
#   E(MeV)        xs(mb) 
 1.99060E+00    1.86188E-04
 2.00000E+00    1.87352E-04
 2.05939E+00    1.94705E-04
 2.25000E+00    2.18303E-04
 2.50000E+00    2.49254E-04
 2.52293E+00    2.52093E-04
 2.63994E+00    2.66580E-04
 2.66976E+00    2.70271E-04
 2.72250E+00    2.76800E-04
 2.73626E+00    2.78504E-04
 2.75000E+00    2.80205E-04
 2.95491E+00    3.05574E-04
 3.00000E+00    3.11156E-04
 3.03217E+00    3.15139E-04
 3.12500E+00    3.26631E-04
 3.20000E+00    3.35916E-04
 3.20810E+00    3.36919E-04
 3.28013E+00    3.45837E-04
 3.40000E+00    3.60677E-04
 3.45256E+00    3.67185E-04
 3.48372E+00    3.71042E-04
 3.58096E+00    3.83081E-04
 3.60000E+00    3.85438E-04
 3.61416E+00    3.87191E-04
 3.70248E+00    3.98125E-04
 3.70340E+00    3.98239E-04
 3.76754E+00    4.06180E-04
 3.80000E+00    4.10199E-04
 3.82246E+00    4.12980E-04
 3.83250E+00    4.14223E-04
 3.92414E+00    4.25567E-04
 3.94060E+00    4.27606E-04
 4.00000E+00    4.34959E-04
 4.01120E+00    4.36346E-04
 4.01653E+00    4.37005E-04
 4.04153E+00    4.40101E-04
 4.07227E+00    4.43906E-04
 4.07391E+00    4.44109E-04
 4.11397E+00    4.49069E-04
 4.19778E+00    4.59446E-04
 4.20000E+00    4.59720E-04
 4.28723E+00    4.70520E-04
 4.38263E+00    4.82330E-04
 4.40000E+00    4.84481E-04
 4.43457E+00    4.88761E-04
 4.45005E+00    4.90676E-04
 4.52372E+00    4.99797E-04
 4.56060E+00    5.04364E-04
 4.60000E+00    5.09241E-04
 4.63089E+00    5.13066E-04
 4.66214E+00    5.16935E-04
 4.68151E+00    5.19332E-04
 4.71645E+00    5.23658E-04
 4.80000E+00    5.34002E-04
 5.00000E+00    5.58763E-04
 5.50000E+00    6.20665E-04
 6.00000E+00    6.82566E-04
 7.00000E+00    8.06370E-04
 8.00000E+00    9.30173E-04
 9.00000E+00    1.05398E-03
 1.00000E+01    1.17778E-03
 1.10000E+01    4.11671E-02
 1.20000E+01    9.15216E-02
 1.30000E+01    1.34983E-01
 1.40000E+01    1.63575E-01
 1.50000E+01    2.58054E-01
 1.60000E+01    4.96970E-01
 1.70000E+01    8.25543E-01
 1.80000E+01    1.41598E+00
 1.90000E+01    2.87233E+00
 2.00000E+01    6.44014E+00
