# n + Ca 41 : (n,xg)    
# endfb8.0      G. Nobre, D. Brown, M. Herman  EVAL-Jul17
# 
# # energies =    71
#   E(MeV)        xs(mb) 
 1.99060E+00    2.52344E-05
 2.00000E+00    2.53921E-05
 2.05939E+00    2.63886E-05
 2.25000E+00    2.95869E-05
 2.50000E+00    3.37817E-05
 2.52293E+00    3.41665E-05
 2.63994E+00    3.61299E-05
 2.66976E+00    3.66302E-05
 2.72250E+00    3.75151E-05
 2.73626E+00    3.77460E-05
 2.75000E+00    3.79765E-05
 2.95491E+00    4.14148E-05
 3.00000E+00    4.21713E-05
 3.03217E+00    4.27111E-05
 3.12500E+00    4.42688E-05
 3.20000E+00    4.55272E-05
 3.20810E+00    4.56631E-05
 3.28013E+00    4.68717E-05
 3.40000E+00    4.88830E-05
 3.45256E+00    4.97650E-05
 3.48372E+00    5.02878E-05
 3.58096E+00    5.19194E-05
 3.60000E+00    5.22389E-05
 3.61416E+00    5.24764E-05
 3.70248E+00    5.39584E-05
 3.70340E+00    5.39739E-05
 3.76754E+00    5.50501E-05
 3.80000E+00    5.55947E-05
 3.82246E+00    5.59717E-05
 3.83250E+00    5.61401E-05
 3.92414E+00    5.76777E-05
 3.94060E+00    5.79539E-05
 4.00000E+00    5.89506E-05
 4.01120E+00    5.91385E-05
 4.01653E+00    5.92279E-05
 4.04153E+00    5.96474E-05
 4.07227E+00    6.01632E-05
 4.07391E+00    6.01907E-05
 4.11397E+00    6.08629E-05
 4.19778E+00    6.22692E-05
 4.20000E+00    6.23064E-05
 4.28723E+00    6.37701E-05
 4.38263E+00    6.53708E-05
 4.40000E+00    6.56623E-05
 4.43457E+00    6.62424E-05
 4.45005E+00    6.65020E-05
 4.52372E+00    6.77382E-05
 4.56060E+00    6.83571E-05
 4.60000E+00    6.90181E-05
 4.63089E+00    6.95365E-05
 4.66214E+00    7.00609E-05
 4.68151E+00    7.03858E-05
 4.71645E+00    7.09721E-05
 4.80000E+00    7.23740E-05
 5.00000E+00    7.57298E-05
 5.50000E+00    8.41195E-05
 6.00000E+00    9.25091E-05
 7.00000E+00    1.09288E-04
 8.00000E+00    1.26068E-04
 9.00000E+00    3.20030E-02
 1.00000E+01    3.17153E-01
 1.10000E+01    2.87648E+00
 1.20000E+01    2.69622E+01
 1.30000E+01    7.85690E+01
 1.40000E+01    1.57835E+02
 1.50000E+01    2.74097E+02
 1.60000E+01    4.28511E+02
 1.70000E+01    6.07587E+02
 1.80000E+01    7.84962E+02
 1.90000E+01    1.95002E-05
 2.00000E+01    4.50131E-04
