# n + Zn 70 : (n,a)     
# endfb8.0   N.Iwamoto                         EVAL-Dec09
# uncertainties: n
# # energies =    44
#   E(MeV)       xs(mb) 
 1.78099E-01    0.00000E+00
 8.82211E-01    1.77310E-12
 1.21281E+00    3.79020E-12
 1.33454E+00    6.58060E-12
 1.91277E+00    2.15390E-11
 2.25000E+00    3.04390E-11
 2.40926E+00    8.08030E-11
 2.50000E+00    1.98200E-10
 2.75000E+00    3.06430E-09
 3.00000E+00    3.46270E-08
 3.50000E+00    1.70557E-06
 4.00000E+00    3.20138E-05
 4.50000E+00    3.10164E-04
 5.00000E+00    1.87997E-03
 5.50000E+00    8.05908E-03
 6.00000E+00    2.64105E-02
 6.50000E+00    6.96859E-02
 7.00000E+00    1.53345E-01
 7.50000E+00    2.88277E-01
 8.00000E+00    4.72050E-01
 8.50000E+00    6.73378E-01
 9.00000E+00    8.96203E-01
 9.50000E+00    1.13598E+00
 1.00000E+01    1.41553E+00
 1.05000E+01    1.75478E+00
 1.10000E+01    2.16380E+00
 1.15000E+01    2.63159E+00
 1.20000E+01    3.15928E+00
 1.25000E+01    3.72997E+00
 1.30000E+01    4.33583E+00
 1.35000E+01    4.92800E+00
 1.40000E+01    5.47763E+00
 1.45000E+01    5.92421E+00
 1.50000E+01    6.27282E+00
 1.55000E+01    6.49373E+00
 1.60000E+01    6.57452E+00
 1.65000E+01    6.51336E+00
 1.70000E+01    6.33907E+00
 1.75000E+01    6.02364E+00
 1.80000E+01    5.60135E+00
 1.85000E+01    5.07830E+00
 1.90000E+01    4.51442E+00
 1.95000E+01    4.00349E+00
 2.00000E+01    3.46820E+00
