# n + Zn 70 : (n,xp)    
# endfb8.0   N.Iwamoto                         EVAL-Dec09
# 
# # energies =    79
#   E(MeV)        xs(mb) 
 1.05000E-01    0.00000E+00
 1.10000E-01    0.00000E+00
 1.20000E-01    0.00000E+00
 1.30000E-01    0.00000E+00
 1.40000E-01    0.00000E+00
 1.50000E-01    0.00000E+00
 1.60000E-01    0.00000E+00
 1.70000E-01    0.00000E+00
 1.80000E-01    0.00000E+00
 1.90000E-01    0.00000E+00
 2.00000E-01    0.00000E+00
 2.25000E-01    0.00000E+00
 2.50000E-01    0.00000E+00
 2.75000E-01    0.00000E+00
 3.00000E-01    0.00000E+00
 4.00000E-01    0.00000E+00
 5.00000E-01    0.00000E+00
 6.00000E-01    0.00000E+00
 7.00000E-01    0.00000E+00
 8.00000E-01    0.00000E+00
 8.97563E-01    0.00000E+00
 9.00000E-01    0.00000E+00
 1.00000E+00    0.00000E+00
 1.08371E+00    0.00000E+00
 1.10000E+00    0.00000E+00
 1.20000E+00    0.00000E+00
 1.30000E+00    0.00000E+00
 1.40000E+00    0.00000E+00
 1.50000E+00    0.00000E+00
 1.57642E+00    0.00000E+00
 1.60000E+00    0.00000E+00
 1.70000E+00    0.00000E+00
 1.78447E+00    0.00000E+00
 1.78448E+00    0.00000E+00
 1.80000E+00    0.00000E+00
 1.81227E+00    0.00000E+00
 1.90000E+00    0.00000E+00
 1.98594E+00    0.00000E+00
 2.00000E+00    0.00000E+00
 2.17128E+00    0.00000E+00
 2.25000E+00    0.00000E+00
 2.40926E+00    0.00000E+00
 2.50000E+00    0.00000E+00
 2.75000E+00    0.00000E+00
 3.00000E+00    0.00000E+00
 3.50000E+00    0.00000E+00
 4.00000E+00    0.00000E+00
 4.50000E+00    0.00000E+00
 5.00000E+00    0.00000E+00
 5.50000E+00    0.00000E+00
 6.00000E+00    1.63770E-06
 6.50000E+00    1.39041E-04
 7.00000E+00    3.46009E-04
 7.50000E+00    7.15774E-04
 8.00000E+00    8.55216E-03
 8.50000E+00    4.34226E-02
 9.00000E+00    1.25534E-01
 9.50000E+00    2.63520E-01
 1.00000E+01    4.63109E-01
 1.05000E+01    7.35335E-01
 1.10000E+01    1.10140E+00
 1.15000E+01    1.58443E+00
 1.20000E+01    2.21854E+00
 1.25000E+01    3.02825E+00
 1.30000E+01    4.05007E+00
 1.35000E+01    5.27813E+00
 1.40000E+01    6.78450E+00
 1.45000E+01    8.53584E+00
 1.50000E+01    1.05651E+01
 1.55000E+01    1.28292E+01
 1.60000E+01    1.53629E+01
 1.65000E+01    1.80928E+01
 1.70000E+01    2.10603E+01
 1.75000E+01    2.41724E+01
 1.80000E+01    2.74783E+01
 1.85000E+01    3.08778E+01
 1.90000E+01    3.44258E+01
 1.95000E+01    3.80218E+01
 2.00000E+01    4.17411E+01
