# n + Zn 70 : (n,xt)    
# endfb8.0   N.Iwamoto                         EVAL-Dec09
# 
# # energies =    79
#   E(MeV)        xs(mb) 
 1.05000E-01    0.00000E+00
 1.10000E-01    0.00000E+00
 1.20000E-01    0.00000E+00
 1.30000E-01    0.00000E+00
 1.40000E-01    0.00000E+00
 1.50000E-01    0.00000E+00
 1.60000E-01    0.00000E+00
 1.70000E-01    0.00000E+00
 1.80000E-01    0.00000E+00
 1.90000E-01    0.00000E+00
 2.00000E-01    0.00000E+00
 2.25000E-01    0.00000E+00
 2.50000E-01    0.00000E+00
 2.75000E-01    0.00000E+00
 3.00000E-01    0.00000E+00
 4.00000E-01    0.00000E+00
 5.00000E-01    0.00000E+00
 6.00000E-01    0.00000E+00
 7.00000E-01    0.00000E+00
 8.00000E-01    0.00000E+00
 8.97563E-01    0.00000E+00
 9.00000E-01    0.00000E+00
 1.00000E+00    0.00000E+00
 1.08371E+00    0.00000E+00
 1.10000E+00    0.00000E+00
 1.20000E+00    0.00000E+00
 1.30000E+00    0.00000E+00
 1.40000E+00    0.00000E+00
 1.50000E+00    0.00000E+00
 1.57642E+00    0.00000E+00
 1.60000E+00    0.00000E+00
 1.70000E+00    0.00000E+00
 1.78447E+00    0.00000E+00
 1.78448E+00    0.00000E+00
 1.80000E+00    0.00000E+00
 1.81227E+00    0.00000E+00
 1.90000E+00    0.00000E+00
 1.98594E+00    0.00000E+00
 2.00000E+00    0.00000E+00
 2.17128E+00    0.00000E+00
 2.25000E+00    0.00000E+00
 2.40926E+00    0.00000E+00
 2.50000E+00    0.00000E+00
 2.75000E+00    0.00000E+00
 3.00000E+00    0.00000E+00
 3.50000E+00    0.00000E+00
 4.00000E+00    0.00000E+00
 4.50000E+00    0.00000E+00
 5.00000E+00    0.00000E+00
 5.50000E+00    0.00000E+00
 6.00000E+00    0.00000E+00
 6.50000E+00    0.00000E+00
 7.00000E+00    0.00000E+00
 7.50000E+00    0.00000E+00
 8.00000E+00    0.00000E+00
 8.50000E+00    0.00000E+00
 9.00000E+00    0.00000E+00
 9.50000E+00    0.00000E+00
 1.00000E+01    0.00000E+00
 1.05000E+01    0.00000E+00
 1.10000E+01    0.00000E+00
 1.15000E+01    1.46834E-08
 1.20000E+01    3.36359E-08
 1.25000E+01    5.36910E-08
 1.30000E+01    4.23772E-06
 1.35000E+01    6.56869E-05
 1.40000E+01    4.16162E-04
 1.45000E+01    1.54826E-03
 1.50000E+01    4.49054E-03
 1.55000E+01    1.11642E-02
 1.60000E+01    2.43470E-02
 1.65000E+01    4.65557E-02
 1.70000E+01    7.95811E-02
 1.75000E+01    1.24308E-01
 1.80000E+01    1.81293E-01
 1.85000E+01    2.50122E-01
 1.90000E+01    3.31125E-01
 1.95000E+01    4.23382E-01
 2.00000E+01    5.26317E-01
