# n + Zn 70 : (n,el)    
# endfb8.0   N.Iwamoto                         EVAL-Dec09
# uncertainties: n
# # energies =    69
#   E(MeV)       xs(mb) 
 1.00000E-10    6.01348E+03
 5.00000E-09    4.41887E+03
 1.00000E-08    4.37021E+03
 1.50000E-08    4.35110E+03
 2.00000E-08    4.34080E+03
 2.50000E-08    4.33438E+03
 3.00000E-08    4.32983E+03
 3.50000E-08    4.32624E+03
 4.20000E-08    4.32277E+03
 5.00000E-08    4.32033E+03
 5.80000E-08    4.31814E+03
 6.70000E-08    4.31651E+03
 8.00000E-08    4.31434E+03
 1.00000E-07    4.31239E+03
 1.40000E-07    4.31047E+03
 1.80000E-07    4.30968E+03
 2.20000E-07    4.30903E+03
 2.50000E-07    4.30848E+03
 2.80000E-07    4.30803E+03
 3.00000E-07    4.30790E+03
 3.20000E-07    4.30781E+03
 3.50000E-07    4.30766E+03
 4.00000E-07    4.30739E+03
 5.00000E-07    4.30697E+03
 6.25000E-07    4.30644E+03
 7.80000E-07    4.30605E+03
 8.50000E-07    4.30600E+03
 9.10000E-07    4.30598E+03
 9.50000E-07    4.30597E+03
 9.72000E-07    4.30596E+03
 9.96000E-07    4.30595E+03
 1.02000E-06    4.30594E+03
 1.04500E-06    4.30593E+03
 1.07100E-06    4.30592E+03
 1.09700E-06    4.30591E+03
 1.12300E-06    4.30590E+03
 1.15000E-06    4.30587E+03
 1.30000E-06    4.30580E+03
 1.50000E-06    4.30565E+03
 2.10000E-06    4.30543E+03
 2.60000E-06    4.30520E+03
 3.30000E-06    4.30493E+03
 4.00000E-06    4.30382E+03
 9.87700E-06    4.30142E+03
 1.59680E-05    4.29808E+03
 2.77000E-05    4.29202E+03
 4.80520E-05    4.28279E+03
 7.55014E-05    4.26447E+03
 1.48728E-04    4.21323E+03
 3.67262E-04    4.10451E+03
 9.06898E-04    3.97580E+03
 1.42510E-03    3.86562E+03
 2.23945E-03    3.73960E+03
 3.51910E-03    3.59478E+03
 5.53000E-03    3.38648E+03
 9.11800E-03    3.99858E+03
 1.50300E-02    6.69418E+03
 2.47800E-02    6.45359E+03
 4.08500E-02    5.94961E+03
 6.73400E-02    5.31853E+03
 1.11000E-01    5.09291E+03
 1.83000E-01    5.54472E+03
 3.02000E-01    5.04974E+03
 5.00000E-01    4.28545E+03
 8.21000E-01    3.18466E+03
 1.35300E+00    2.08489E+03
 2.23100E+00    1.67056E+03
 3.67900E+00    1.99639E+03
 6.06500E+00    2.19642E+03
