# n + Zn 70 : (n,xh)    
# endfb8.0   N.Iwamoto                         EVAL-Dec09
# 
# # energies =    79
#   E(MeV)        xs(mb) 
 1.05000E-01    0.00000E+00
 1.10000E-01    0.00000E+00
 1.20000E-01    0.00000E+00
 1.30000E-01    0.00000E+00
 1.40000E-01    0.00000E+00
 1.50000E-01    0.00000E+00
 1.60000E-01    0.00000E+00
 1.70000E-01    0.00000E+00
 1.80000E-01    0.00000E+00
 1.90000E-01    0.00000E+00
 2.00000E-01    0.00000E+00
 2.25000E-01    0.00000E+00
 2.50000E-01    0.00000E+00
 2.75000E-01    0.00000E+00
 3.00000E-01    0.00000E+00
 4.00000E-01    0.00000E+00
 5.00000E-01    0.00000E+00
 6.00000E-01    0.00000E+00
 7.00000E-01    0.00000E+00
 8.00000E-01    0.00000E+00
 8.97563E-01    0.00000E+00
 9.00000E-01    0.00000E+00
 1.00000E+00    0.00000E+00
 1.08371E+00    0.00000E+00
 1.10000E+00    0.00000E+00
 1.20000E+00    0.00000E+00
 1.30000E+00    0.00000E+00
 1.40000E+00    0.00000E+00
 1.50000E+00    0.00000E+00
 1.57642E+00    0.00000E+00
 1.60000E+00    0.00000E+00
 1.70000E+00    0.00000E+00
 1.78447E+00    0.00000E+00
 1.78448E+00    0.00000E+00
 1.80000E+00    0.00000E+00
 1.81227E+00    0.00000E+00
 1.90000E+00    0.00000E+00
 1.98594E+00    0.00000E+00
 2.00000E+00    0.00000E+00
 2.17128E+00    0.00000E+00
 2.25000E+00    0.00000E+00
 2.40926E+00    0.00000E+00
 2.50000E+00    0.00000E+00
 2.75000E+00    0.00000E+00
 3.00000E+00    0.00000E+00
 3.50000E+00    0.00000E+00
 4.00000E+00    0.00000E+00
 4.50000E+00    0.00000E+00
 5.00000E+00    0.00000E+00
 5.50000E+00    0.00000E+00
 6.00000E+00    0.00000E+00
 6.50000E+00    0.00000E+00
 7.00000E+00    0.00000E+00
 7.50000E+00    0.00000E+00
 8.00000E+00    0.00000E+00
 8.50000E+00    0.00000E+00
 9.00000E+00    0.00000E+00
 9.50000E+00    0.00000E+00
 1.00000E+01    0.00000E+00
 1.05000E+01    0.00000E+00
 1.10000E+01    0.00000E+00
 1.15000E+01    0.00000E+00
 1.20000E+01    0.00000E+00
 1.25000E+01    0.00000E+00
 1.30000E+01    0.00000E+00
 1.35000E+01    1.51700E-13
 1.40000E+01    3.67000E-13
 1.45000E+01    5.82300E-13
 1.50000E+01    7.97600E-13
 1.55000E+01    1.01290E-12
 1.60000E+01    7.48080E-11
 1.65000E+01    1.52860E-09
 1.70000E+01    1.36250E-08
 1.75000E+01    6.95380E-08
 1.80000E+01    2.40140E-07
 1.85000E+01    6.24650E-07
 1.90000E+01    1.30910E-06
 1.95000E+01    2.30884E-06
 2.00000E+01    3.52760E-06
