# n + Ir193 : (n,t)     
# jendl.ad   N.Iwamoto                         EVAL-Apr14
# uncertainties: n
# # energies =    69
#   E(MeV)       xs(mb) 
 5.04480E+00    0.00000E+00
 5.11957E+00    1.00510E-26
 5.12969E+00    1.14830E-26
 5.17743E+00    1.82400E-26
 5.18747E+00    1.96610E-26
 5.22139E+00    2.44620E-26
 5.30889E+00    3.68460E-26
 5.31898E+00    3.82740E-26
 5.35401E+00    4.32320E-26
 5.36071E+00    4.41800E-26
 5.37943E+00    4.68290E-26
 5.39947E+00    4.96660E-26
 5.45776E+00    5.79150E-26
 5.46413E+00    5.88170E-26
 5.48065E+00    6.11550E-26
 5.48405E+00    6.16360E-26
 5.48911E+00    6.23520E-26
 5.49406E+00    6.30530E-26
 5.50975E+00    6.52730E-26
 5.51891E+00    6.65700E-26
 5.53496E+00    6.88410E-26
 5.55560E+00    7.17630E-26
 5.56691E+00    7.33630E-26
 5.62196E+00    8.11550E-26
 5.65996E+00    8.65330E-26
 5.66724E+00    8.75630E-26
 5.67881E+00    8.92010E-26
 5.68575E+00    9.01830E-26
 5.71589E+00    9.44490E-26
 5.72605E+00    9.58860E-26
 5.73722E+00    9.74670E-26
 5.74152E+00    9.80760E-26
 5.77000E+00    1.02110E-25
 5.79705E+00    1.05940E-25
 5.81116E+00    1.07930E-25
 5.81346E+00    1.08260E-25
 5.84361E+00    1.12530E-25
 5.85356E+00    1.13930E-25
 5.86449E+00    1.15480E-25
 5.86928E+00    1.16160E-25
 5.87299E+00    1.16680E-25
 6.50000E+00    2.05420E-25
 7.00000E+00    1.02500E-19
 7.50000E+00    4.59880E-16
 8.00000E+00    1.50740E-13
 8.50000E+00    9.76770E-12
 9.00000E+00    2.16180E-10
 9.50000E+00    2.34720E-09
 1.00000E+01    1.78900E-08
 1.05000E+01    1.34570E-07
 1.10000E+01    1.00420E-06
 1.15000E+01    6.25639E-06
 1.20000E+01    3.10234E-05
 1.25000E+01    1.22285E-04
 1.30000E+01    4.09581E-04
 1.35000E+01    1.17977E-03
 1.40000E+01    2.98960E-03
 1.45000E+01    6.76881E-03
 1.50000E+01    1.38366E-02
 1.55000E+01    2.57562E-02
 1.60000E+01    4.40468E-02
 1.65000E+01    6.98941E-02
 1.70000E+01    1.03976E-01
 1.75000E+01    1.46417E-01
 1.80000E+01    1.96797E-01
 1.85000E+01    2.54160E-01
 1.90000E+01    3.16984E-01
 1.95000E+01    3.83149E-01
 2.00000E+01    4.50015E-01
