# n + Ir193 : (n,d)     
# jendl.ad   N.Iwamoto                         EVAL-Apr14
# uncertainties: n
# # energies =    72
#   E(MeV)       xs(mb) 
 3.73714E+00    0.00000E+00
 3.94401E+00    2.78620E-24
 4.22876E+00    6.62480E-24
 4.32045E+00    1.04300E-23
 4.43112E+00    1.51430E-23
 4.65149E+00    2.45300E-23
 4.69868E+00    3.81570E-23
 4.81227E+00    8.09110E-23
 4.83206E+00    8.84030E-23
 4.87054E+00    1.03000E-22
 4.88664E+00    1.09110E-22
 4.94973E+00    1.33070E-22
 5.00000E+00    1.52160E-22
 5.08530E+00    1.15830E-18
 5.10628E+00    1.44320E-18
 5.15437E+00    2.09640E-18
 5.19503E+00    2.64870E-18
 5.20135E+00    2.73450E-18
 5.21014E+00    2.85390E-18
 5.30590E+00    4.15460E-18
 5.33720E+00    4.57970E-18
 5.35844E+00    4.86820E-18
 5.39084E+00    5.30830E-18
 5.41093E+00    5.58120E-18
 5.45446E+00    6.17250E-18
 5.45900E+00    6.23410E-18
 5.47999E+00    6.51930E-18
 5.50000E+00    6.79100E-18
 5.52679E+00    9.47660E-16
 5.55430E+00    1.91380E-15
 5.57320E+00    2.57760E-15
 5.58414E+00    2.96180E-15
 5.60482E+00    3.68810E-15
 5.61477E+00    4.03750E-15
 5.61561E+00    4.06700E-15
 5.62575E+00    4.42320E-15
 5.64197E+00    4.99280E-15
 5.64977E+00    5.26670E-15
 5.66886E+00    5.93720E-15
 5.67120E+00    6.01940E-15
 5.68416E+00    6.47450E-15
 5.68728E+00    6.58410E-15
 5.68808E+00    6.61220E-15
 6.00000E+00    1.75670E-14
 6.50000E+00    3.43660E-12
 7.00000E+00    1.43690E-10
 7.50000E+00    2.28140E-09
 8.00000E+00    2.51240E-08
 8.50000E+00    3.48050E-07
 9.00000E+00    4.44549E-06
 9.50000E+00    3.91000E-05
 1.00000E+01    2.39997E-04
 1.05000E+01    1.09978E-03
 1.10000E+01    3.99565E-03
 1.15000E+01    1.20319E-02
 1.20000E+01    3.10285E-02
 1.25000E+01    7.01684E-02
 1.30000E+01    1.41613E-01
 1.35000E+01    2.58663E-01
 1.40000E+01    4.32926E-01
 1.45000E+01    6.71831E-01
 1.50000E+01    9.77630E-01
 1.55000E+01    1.34796E+00
 1.60000E+01    1.77730E+00
 1.65000E+01    2.25836E+00
 1.70000E+01    2.78320E+00
 1.75000E+01    3.34363E+00
 1.80000E+01    3.93092E+00
 1.85000E+01    4.53532E+00
 1.90000E+01    5.14552E+00
 1.95000E+01    5.74797E+00
 2.00000E+01    6.32837E+00
