# n + Ir193 : (n,p)     
# jendl.ad   N.Iwamoto                         EVAL-Apr14
# uncertainties: n
# # energies =    55
#   E(MeV)       xs(mb) 
 3.60733E-01    0.00000E+00
 4.02434E-01    5.96400E-21
 4.34015E-01    2.54120E-20
 4.64003E-01    5.35740E-20
 5.95812E-01    1.91070E-19
 6.57960E-01    2.96380E-19
 6.69421E-01    3.16890E-19
 7.61833E-01    4.87570E-19
 7.97967E-01    5.56750E-19
 8.18883E-01    6.05140E-19
 1.40000E+00    2.08410E-18
 1.50000E+00    5.47430E-18
 1.60000E+00    6.79360E-17
 1.70000E+00    7.43510E-16
 1.80000E+00    6.27780E-15
 1.90000E+00    4.20340E-14
 2.00000E+00    2.31320E-13
 2.25000E+00    8.06370E-12
 2.50000E+00    1.42520E-10
 2.75000E+00    1.41200E-09
 3.00000E+00    9.40520E-09
 3.50000E+00    1.75180E-07
 4.00000E+00    1.44408E-06
 4.50000E+00    6.84508E-06
 5.00000E+00    2.19527E-05
 5.50000E+00    5.31993E-05
 6.00000E+00    1.07538E-04
 6.50000E+00    2.05558E-04
 7.00000E+00    4.25499E-04
 7.50000E+00    1.00644E-03
 8.00000E+00    2.54740E-03
 8.50000E+00    6.32592E-03
 9.00000E+00    1.47130E-02
 9.50000E+00    3.16067E-02
 1.00000E+01    6.27524E-02
 1.05000E+01    1.15826E-01
 1.10000E+01    2.00237E-01
 1.15000E+01    3.26652E-01
 1.20000E+01    5.06283E-01
 1.25000E+01    7.50009E-01
 1.30000E+01    1.06730E+00
 1.35000E+01    1.46509E+00
 1.40000E+01    1.94654E+00
 1.45000E+01    2.51024E+00
 1.50000E+01    3.14965E+00
 1.55000E+01    3.85303E+00
 1.60000E+01    4.60489E+00
 1.65000E+01    5.38657E+00
 1.70000E+01    6.17851E+00
 1.75000E+01    6.96132E+00
 1.80000E+01    7.71760E+00
 1.85000E+01    8.43250E+00
 1.90000E+01    9.09533E+00
 1.95000E+01    9.69888E+00
 2.00000E+01    1.02395E+01
