# n + Ir193 : (n,g)     
# jendl.ad   N.Iwamoto                         EVAL-Apr14
# uncertainties: n
# # energies =    69
#   E(MeV)       xs(mb) 
 1.00000E-10    7.53738E+05
 5.00000E-09    2.06756E+05
 1.00000E-08    1.57509E+05
 1.50000E-08    1.33114E+05
 2.00000E-08    1.17786E+05
 2.50000E-08    1.07024E+05
 3.00000E-08    9.89531E+04
 3.50000E-08    9.16216E+04
 4.20000E-08    8.45389E+04
 5.00000E-08    7.87415E+04
 5.80000E-08    7.39342E+04
 6.70000E-08    6.91316E+04
 8.00000E-08    6.38303E+04
 1.00000E-07    5.76328E+04
 1.40000E-07    5.24731E+04
 1.80000E-07    4.95913E+04
 2.20000E-07    4.81254E+04
 2.50000E-07    4.74537E+04
 2.80000E-07    4.71979E+04
 3.00000E-07    4.71754E+04
 3.20000E-07    4.73630E+04
 3.50000E-07    4.80830E+04
 4.00000E-07    5.07800E+04
 5.00000E-07    5.84106E+04
 6.25000E-07    7.70912E+04
 7.80000E-07    1.05450E+05
 8.50000E-07    1.33363E+05
 9.10000E-07    1.65061E+05
 9.50000E-07    1.91792E+05
 9.72000E-07    2.16923E+05
 9.96000E-07    2.49431E+05
 1.02000E-06    2.91649E+05
 1.04500E-06    3.49177E+05
 1.07100E-06    4.28617E+05
 1.09700E-06    5.40497E+05
 1.12300E-06    7.09340E+05
 1.15000E-06    3.50797E+06
 1.30000E-06    3.22919E+06
 1.50000E-06    1.20121E+05
 2.10000E-06    1.65884E+04
 2.60000E-06    7.10798E+03
 3.30000E-06    3.99537E+03
 4.00000E-06    7.62742E+04
 9.87700E-06    2.37781E+03
 1.59680E-05    7.33593E+04
 2.77000E-05    8.21138E+04
 4.80520E-05    6.83397E+04
 7.55014E-05    2.71790E+04
 1.48728E-04    2.73240E+04
 3.67262E-04    1.68968E+04
 9.06898E-04    9.52906E+03
 1.42510E-03    6.58683E+03
 2.23945E-03    4.55579E+03
 3.51910E-03    3.17310E+03
 5.53000E-03    2.21571E+03
 9.11800E-03    1.53006E+03
 1.50300E-02    1.10677E+03
 2.47800E-02    8.36854E+02
 4.08500E-02    6.62258E+02
 6.73400E-02    5.34752E+02
 1.11000E-01    4.10532E+02
 1.83000E-01    2.69222E+02
 3.02000E-01    1.80018E+02
 5.00000E-01    1.13260E+02
 8.21000E-01    8.10537E+01
 1.35300E+00    6.31908E+01
 2.23100E+00    3.03045E+01
 3.67900E+00    8.14062E+00
 6.06500E+00    1.47527E+00
