# n + Ir193 : (n,tot)   
# jendl.ad   N.Iwamoto                         EVAL-Apr14
# uncertainties: n
# # energies =    69
#   E(MeV)       xs(mb) 
 1.00000E-10    7.54004E+05
 5.00000E-09    2.06769E+05
 1.00000E-08    1.57509E+05
 1.50000E-08    1.33115E+05
 2.00000E-08    1.17785E+05
 2.50000E-08    1.07029E+05
 3.00000E-08    9.89526E+04
 3.50000E-08    9.16192E+04
 4.20000E-08    8.45422E+04
 5.00000E-08    7.87424E+04
 5.80000E-08    7.39339E+04
 6.70000E-08    6.91312E+04
 8.00000E-08    6.38292E+04
 1.00000E-07    5.76323E+04
 1.40000E-07    5.24729E+04
 1.80000E-07    4.95906E+04
 2.20000E-07    4.81248E+04
 2.50000E-07    4.74551E+04
 2.80000E-07    4.71991E+04
 3.00000E-07    4.71767E+04
 3.20000E-07    4.73631E+04
 3.50000E-07    4.80831E+04
 4.00000E-07    5.07815E+04
 5.00000E-07    5.84306E+04
 6.25000E-07    7.71156E+04
 7.80000E-07    1.05479E+05
 8.50000E-07    1.33399E+05
 9.10000E-07    1.65113E+05
 9.50000E-07    1.91861E+05
 9.72000E-07    2.16953E+05
 9.96000E-07    2.49480E+05
 1.02000E-06    2.91794E+05
 1.04500E-06    3.49271E+05
 1.07100E-06    4.28725E+05
 1.09700E-06    5.40636E+05
 1.12300E-06    7.09480E+05
 1.15000E-06    3.50788E+06
 1.30000E-06    3.22915E+06
 1.50000E-06    1.20126E+05
 2.10000E-06    1.65856E+04
 2.60000E-06    7.10708E+03
 3.30000E-06    3.99435E+03
 4.00000E-06    7.62766E+04
 9.87700E-06    2.37755E+03
 1.59680E-05    7.33567E+04
 2.77000E-05    8.21156E+04
 4.80520E-05    6.83394E+04
 7.55014E-05    2.71796E+04
 1.48728E-04    2.73280E+04
 3.67262E-04    1.68998E+04
 9.06898E-04    9.53340E+03
 1.42510E-03    6.58833E+03
 2.23945E-03    4.55697E+03
 3.51910E-03    3.17365E+03
 5.53000E-03    2.21618E+03
 9.11800E-03    1.53050E+03
 1.50300E-02    1.10702E+03
 2.47800E-02    8.37129E+02
 4.08500E-02    6.62340E+02
 6.73400E-02    5.34795E+02
 1.11000E-01    4.10436E+02
 1.83000E-01    2.69123E+02
 3.02000E-01    1.79971E+02
 5.00000E-01    1.13241E+02
 8.21000E-01    8.10502E+01
 1.35300E+00    6.32119E+01
 2.23100E+00    3.03008E+01
 3.67900E+00    8.13944E+00
 6.06500E+00    2.33014E+03
