# n + Dy161 : (n,g)     
# jeff3.3    Kim,Herman,Oh,Oblozinsky          EVAL-FEB06
# uncertainties: n
# # energies =    69
#   E(MeV)       xs(mb) 
 1.00000E-10    4.28727E+06
 5.00000E-09    1.16041E+06
 1.00000E-08    8.74590E+05
 1.50000E-08    7.31345E+05
 2.00000E-08    6.40437E+05
 2.50000E-08    5.75923E+05
 3.00000E-08    5.26964E+05
 3.50000E-08    4.81860E+05
 4.20000E-08    4.37732E+05
 5.00000E-08    4.00832E+05
 5.80000E-08    3.69708E+05
 6.70000E-08    3.37876E+05
 8.00000E-08    3.01377E+05
 1.00000E-07    2.55700E+05
 1.40000E-07    2.13194E+05
 1.80000E-07    1.84159E+05
 2.20000E-07    1.64840E+05
 2.50000E-07    1.51602E+05
 2.80000E-07    1.42074E+05
 3.00000E-07    1.35366E+05
 3.20000E-07    1.27904E+05
 3.50000E-07    1.17619E+05
 4.00000E-07    1.02435E+05
 5.00000E-07    8.54595E+04
 6.25000E-07    7.08767E+04
 7.80000E-07    6.20990E+04
 8.50000E-07    5.81800E+04
 9.10000E-07    5.55416E+04
 9.50000E-07    5.40570E+04
 9.72000E-07    5.30316E+04
 9.96000E-07    5.20188E+04
 1.02000E-06    5.10429E+04
 1.04500E-06    5.00856E+04
 1.07100E-06    4.91694E+04
 1.09700E-06    4.83153E+04
 1.12300E-06    4.74953E+04
 1.15000E-06    4.52357E+04
 1.30000E-06    4.21817E+04
 1.50000E-06    4.43820E+04
 2.10000E-06    1.63699E+05
 2.60000E-06    6.71664E+05
 3.30000E-06    1.27432E+06
 4.00000E-06    1.71804E+05
 9.87700E-06    1.54583E+05
 1.59680E-05    1.88007E+05
 2.77000E-05    1.27415E+05
 4.80520E-05    7.86062E+04
 7.55014E-05    4.58900E+04
 1.48728E-04    4.37453E+04
 3.67262E-04    1.79603E+04
 9.06898E-04    1.47213E+04
 1.42510E-03    1.13872E+04
 2.23945E-03    8.52796E+03
 3.51910E-03    6.38621E+03
 5.53000E-03    4.73855E+03
 9.11800E-03    3.51059E+03
 1.50300E-02    2.66447E+03
 2.47800E-02    2.00315E+03
 4.08500E-02    1.40415E+03
 6.73400E-02    9.50906E+02
 1.11000E-01    5.99683E+02
 1.83000E-01    4.01821E+02
 3.02000E-01    2.82053E+02
 5.00000E-01    1.96983E+02
 8.21000E-01    1.05134E+02
 1.35300E+00    4.97510E+01
 2.23100E+00    2.05948E+01
 3.67900E+00    5.48040E+00
 6.06500E+00    1.29001E+00
