# n + Dy161 : (n,tot)   
# jeff3.3    Kim,Herman,Oh,Oblozinsky          EVAL-FEB06
# uncertainties: n
# # energies =   171
#   E(MeV)       xs(mb) 
 1.00000E-11    6.66575E+06
 1.00000E-07    2.01615E+05
 4.13990E-07    1.12210E+05
 5.31580E-07    9.30557E+04
 6.82560E-07    7.67627E+04
 8.76420E-07    6.34982E+04
 1.12540E-06    5.38120E+04
 1.44500E-06    4.98314E+04
 1.85540E-06    6.98086E+04
 2.37240E-06    6.96167E+05
 3.05900E-06    1.02606E+06
 3.92790E-06    5.58194E+05
 5.04350E-06    2.14072E+04
 6.47600E-06    9.04948E+04
 8.31530E-06    3.18078E+04
 1.06770E-05    4.80313E+04
 1.37100E-05    4.63502E+05
 1.76030E-05    2.18160E+05
 2.26030E-05    4.29774E+04
 2.92030E-05    3.96739E+04
 3.72670E-05    2.53718E+05
 4.78510E-05    1.40532E+05
 6.14420E-05    3.83606E+04
 7.88930E-05    6.04859E+04
 1.01300E-04    7.25382E+04
 1.30070E-04    5.40204E+04
 1.67020E-04    1.00274E+05
 2.14450E-04    4.13163E+04
 2.75360E-04    5.79542E+04
 3.53580E-04    4.03716E+04
 4.54000E-04    3.63380E+04
 5.82950E-04    3.45452E+04
 7.48520E-04    2.99495E+04
 9.61120E-04    3.01186E+04
 1.23410E-03    2.69079E+04
 1.58460E-03    2.45727E+04
 2.03470E-03    2.30938E+04
 2.24870E-03    2.23099E+04
 2.48520E-03    2.17461E+04
 2.61260E-03    2.13827E+04
 2.74650E-03    2.08599E+04
 3.03540E-03    2.01851E+04
 3.35460E-03    1.95428E+04
 3.70740E-03    1.87846E+04
 4.30740E-03    1.76693E+04
 5.53080E-03    1.64161E+04
 7.10170E-03    1.53098E+04
 9.11880E-03    1.43287E+04
 1.17090E-02    1.34595E+04
 1.50340E-02    1.26873E+04
 1.93050E-02    1.21602E+04
 2.18750E-02    1.18981E+04
 2.35790E-02    1.17709E+04
 2.41760E-02    1.17085E+04
 2.47880E-02    1.16159E+04
 2.60580E-02    1.14961E+04
 2.70000E-02    1.13576E+04
 2.85000E-02    1.11029E+04
 3.18280E-02    1.08843E+04
 3.43070E-02    1.05845E+04
 4.08680E-02    1.02507E+04
 4.63090E-02    9.99617E+03
 5.24750E-02    9.81144E+03
 5.65620E-02    9.59047E+03
 6.73790E-02    9.38971E+03
 7.20000E-02    9.24170E+03
 7.95000E-02    9.11727E+03
 8.25000E-02    9.06258E+03
 8.65170E-02    8.94690E+03
 9.80370E-02    8.77274E+03
 1.11090E-01    8.64415E+03
 1.16790E-01    8.56503E+03
 1.22770E-01    8.49277E+03
 1.29070E-01    8.42638E+03
 1.35690E-01    8.35666E+03
 1.42640E-01    8.28334E+03
 1.49960E-01    8.21305E+03
 1.57640E-01    8.15825E+03
 1.65730E-01    8.10175E+03
 1.74220E-01    8.04236E+03
 1.83160E-01    7.97990E+03
 1.92550E-01    7.91444E+03
 2.02420E-01    7.86484E+03
 2.12800E-01    7.82612E+03
 2.23710E-01    7.78541E+03
 2.35180E-01    7.74261E+03
 2.47240E-01    7.67398E+03
 2.73240E-01    7.60062E+03
 2.87250E-01    7.56175E+03
 2.94520E-01    7.54360E+03
 2.97200E-01    7.53635E+03
 2.98500E-01    7.52768E+03
 3.01970E-01    7.49563E+03
 3.33730E-01    7.44122E+03
 3.68830E-01    7.39689E+03
 3.87740E-01    7.36530E+03
 4.07620E-01    7.33113E+03
 4.50490E-01    7.29446E+03
 4.97870E-01    7.26485E+03
 5.23400E-01    7.25161E+03
 5.50230E-01    7.24134E+03
 5.78440E-01    7.23054E+03
 6.08100E-01    7.21919E+03
 6.39280E-01    7.20782E+03
 6.72060E-01    7.20020E+03
 7.06510E-01    7.19308E+03
 7.42740E-01    7.18561E+03
 7.80820E-01    7.17775E+03
 8.20850E-01    7.16948E+03
 8.62940E-01    7.16080E+03
 9.07180E-01    7.15095E+03
 9.61640E-01    7.14253E+03
 1.00260E+00    7.13056E+03
 1.10800E+00    7.11706E+03
 1.16480E+00    7.10743E+03
 1.22460E+00    7.09731E+03
 1.28730E+00    7.08667E+03
 1.35340E+00    7.07549E+03
 1.42270E+00    7.06373E+03
 1.49570E+00    7.05104E+03
 1.57240E+00    7.02989E+03
 1.65300E+00    7.00431E+03
 1.73770E+00    6.97742E+03
 1.82680E+00    6.94914E+03
 1.92050E+00    6.91643E+03
 2.01900E+00    6.87179E+03
 2.12250E+00    6.82402E+03
 2.23130E+00    6.78241E+03
 2.30690E+00    6.75659E+03
 2.34570E+00    6.74343E+03
 2.36530E+00    6.73454E+03
 2.38520E+00    6.71197E+03
 2.46600E+00    6.66529E+03
 2.59240E+00    6.59784E+03
 2.72530E+00    6.52200E+03
 2.86500E+00    6.44227E+03
 3.01190E+00    6.35839E+03
 3.16640E+00    6.26696E+03
 3.32870E+00    6.11685E+03
 3.67880E+00    5.89923E+03
 4.06570E+00    5.67968E+03
 4.49330E+00    5.51537E+03
 4.72370E+00    5.39831E+03
 4.96590E+00    5.29333E+03
 5.22050E+00    5.21350E+03
 5.48810E+00    5.13004E+03
 5.76950E+00    5.04241E+03
 6.06530E+00    4.97266E+03
 6.37630E+00    4.92658E+03
 6.59240E+00    4.90575E+03
 6.70320E+00    4.88340E+03
 7.04690E+00    4.86236E+03
 7.40820E+00    4.85470E+03
 7.78800E+00    4.85027E+03
 8.18730E+00    4.87139E+03
 8.60710E+00    4.89864E+03
 9.04840E+00    4.93336E+03
 9.51230E+00    4.98148E+03
 1.00000E+01    5.03518E+03
 1.05130E+01    5.09448E+03
 1.10520E+01    5.15678E+03
 1.16180E+01    5.22117E+03
 1.22140E+01    5.27569E+03
 1.28400E+01    5.32258E+03
 1.34990E+01    5.34738E+03
 1.38400E+01    5.36198E+03
 1.41910E+01    5.36660E+03
 1.45500E+01    5.36986E+03
 1.49180E+01    5.36336E+03
 1.56830E+01    5.33546E+03
 1.64870E+01    5.28296E+03
