# n + Dy161 : (n,xp)    
# jeff3.3    Kim,Herman,Oh,Oblozinsky          EVAL-FEB06
# 
# # energies =    71
#   E(MeV)        xs(mb) 
 2.58108E-02    0.00000E+00
 3.00000E-02    0.00000E+00
 4.00000E-02    0.00000E+00
 4.40947E-02    0.00000E+00
 5.00000E-02    0.00000E+00
 6.00000E-02    0.00000E+00
 7.50374E-02    0.00000E+00
 8.00000E-02    0.00000E+00
 9.00000E-02    0.00000E+00
 1.00000E-01    0.00000E+00
 1.01029E-01    0.00000E+00
 1.03706E-01    0.00000E+00
 1.20000E-01    0.00000E+00
 1.32586E-01    0.00000E+00
 1.50000E-01    0.00000E+00
 1.85385E-01    0.00000E+00
 2.00000E-01    0.00000E+00
 2.02350E-01    0.00000E+00
 2.14285E-01    0.00000E+00
 2.69116E-01    0.00000E+00
 2.97000E-01    0.00000E+00
 3.00000E-01    0.00000E+00
 3.16914E-01    0.00000E+00
 3.22700E-01    0.00000E+00
 3.69270E-01    0.00000E+00
 4.00000E-01    0.00000E+00
 4.09541E-01    0.00000E+00
 4.20861E-01    0.00000E+00
 4.46179E-01    0.00000E+00
 4.54260E-01    0.00000E+00
 4.60096E-01    0.00000E+00
 4.88603E-01    0.00000E+00
 5.00000E-01    0.00000E+00
 6.00000E-01    0.00000E+00
 7.00000E-01    0.00000E+00
 8.00000E-01    0.00000E+00
 9.00000E-01    0.00000E+00
 1.00000E+00    0.00000E+00
 1.10000E+00    0.00000E+00
 1.20000E+00    0.00000E+00
 1.30000E+00    0.00000E+00
 1.40000E+00    0.00000E+00
 1.50000E+00    0.00000E+00
 1.60000E+00    0.00000E+00
 1.70000E+00    6.27390E-10
 1.80000E+00    3.18430E-09
 1.90000E+00    9.32040E-09
 2.00000E+00    2.23420E-08
 2.50000E+00    5.62500E-07
 3.00000E+00    5.32598E-06
 3.50000E+00    2.98408E-05
 4.00000E+00    1.62942E-04
 5.00000E+00    1.11265E-03
 6.00000E+00    3.77182E-03
 6.40000E+00    6.40536E-03
 6.60000E+00    8.40328E-03
 7.00000E+00    1.54139E-02
 8.00000E+00    5.98194E-02
 9.00000E+00    2.02181E-01
 1.00000E+01    5.31803E-01
 1.10000E+01    1.23202E+00
 1.20000E+01    2.38893E+00
 1.30000E+01    4.04415E+00
 1.40000E+01    6.18708E+00
 1.45000E+01    7.41937E+00
 1.50000E+01    8.75615E+00
 1.60000E+01    1.24468E+01
 1.70000E+01    1.59493E+01
 1.80000E+01    2.07300E+01
 1.90000E+01    2.60110E+01
 2.00000E+01    3.16799E+01
