# n + Dy161 : (n,el)    
# jeff3.3    Kim,Herman,Oh,Oblozinsky          EVAL-FEB06
# uncertainties: n
# # energies =   171
#   E(MeV)       xs(mb) 
 1.00000E-11    2.72874E+04
 1.00000E-07    1.55638E+04
 4.13990E-07    1.35839E+04
 5.31580E-07    1.27297E+04
 6.82560E-07    1.17718E+04
 8.76420E-07    1.07143E+04
 1.12540E-06    9.55197E+03
 1.44500E-06    8.21908E+03
 1.85540E-06    6.33327E+03
 2.37240E-06    9.81455E+03
 3.05900E-06    2.33935E+04
 3.92790E-06    1.80705E+04
 5.04350E-06    7.53537E+03
 6.47600E-06    6.14454E+03
 8.31530E-06    5.02062E+03
 1.06770E-05    4.14808E+03
 1.37100E-05    2.84074E+04
 1.76030E-05    2.41366E+04
 2.26030E-05    5.57927E+03
 2.92030E-05    4.20804E+03
 3.72670E-05    2.92315E+04
 4.78510E-05    2.17337E+04
 6.14420E-05    7.91541E+03
 7.88930E-05    1.08201E+04
 1.01300E-04    2.01656E+04
 1.30070E-04    1.35259E+04
 1.67020E-04    2.79292E+04
 2.14450E-04    1.46241E+04
 2.75360E-04    2.75229E+04
 3.53580E-04    1.84904E+04
 4.54000E-04    1.61652E+04
 5.82950E-04    1.77871E+04
 7.48520E-04    1.66887E+04
 9.61120E-04    1.49784E+04
 1.23410E-03    1.36353E+04
 1.58460E-03    1.32492E+04
 2.03470E-03    1.29773E+04
 2.24870E-03    1.28214E+04
 2.48520E-03    1.27045E+04
 2.61260E-03    1.26266E+04
 2.74650E-03    1.25104E+04
 3.03540E-03    1.23546E+04
 3.35460E-03    1.21990E+04
 3.70740E-03    1.20048E+04
 4.30740E-03    1.16960E+04
 5.53080E-03    1.13133E+04
 7.10170E-03    1.09362E+04
 9.11880E-03    1.05653E+04
 1.17090E-02    1.02026E+04
 1.50340E-02    9.84951E+03
 1.93050E-02    9.59116E+03
 2.18750E-02    9.45648E+03
 2.35790E-02    9.38972E+03
 2.41760E-02    9.35661E+03
 2.47880E-02    9.30650E+03
 2.60580E-02    9.22926E+03
 2.70000E-02    9.13235E+03
 2.85000E-02    8.95526E+03
 3.18280E-02    8.80901E+03
 3.43070E-02    8.61128E+03
 4.08680E-02    8.39144E+03
 4.63090E-02    8.10803E+03
 5.24750E-02    7.90453E+03
 5.65620E-02    7.68135E+03
 6.73790E-02    7.49372E+03
 7.20000E-02    7.34914E+03
 7.95000E-02    7.20643E+03
 8.25000E-02    7.14657E+03
 8.65170E-02    7.02286E+03
 9.80370E-02    6.84212E+03
 1.11090E-01    6.67440E+03
 1.16790E-01    6.57068E+03
 1.22770E-01    6.50324E+03
 1.29070E-01    6.43914E+03
 1.35690E-01    6.35120E+03
 1.42640E-01    6.25202E+03
 1.49960E-01    6.16236E+03
 1.57640E-01    6.09359E+03
 1.65730E-01    6.02173E+03
 1.74220E-01    5.94619E+03
 1.83160E-01    5.86674E+03
 1.92550E-01    5.78520E+03
 2.02420E-01    5.72797E+03
 2.12800E-01    5.67808E+03
 2.23710E-01    5.61207E+03
 2.35180E-01    5.54104E+03
 2.47240E-01    5.42712E+03
 2.73240E-01    5.30536E+03
 2.87250E-01    5.24085E+03
 2.94520E-01    5.21072E+03
 2.97200E-01    5.19870E+03
 2.98500E-01    5.18491E+03
 3.01970E-01    5.13356E+03
 3.33730E-01    5.02827E+03
 3.68830E-01    4.93688E+03
 3.87740E-01    4.87019E+03
 4.07620E-01    4.81850E+03
 4.50490E-01    4.71319E+03
 4.97870E-01    4.61424E+03
 5.23400E-01    4.57235E+03
 5.50230E-01    4.52847E+03
 5.78440E-01    4.48232E+03
 6.08100E-01    4.43779E+03
 6.39280E-01    4.39805E+03
 6.72060E-01    4.35642E+03
 7.06510E-01    4.31559E+03
 7.42740E-01    4.27961E+03
 7.80820E-01    4.24235E+03
 8.20850E-01    4.20994E+03
 8.62940E-01    4.17884E+03
 9.07180E-01    4.14334E+03
 9.61640E-01    4.10888E+03
 1.00260E+00    4.07517E+03
 1.10800E+00    4.04807E+03
 1.16480E+00    4.03031E+03
 1.22460E+00    4.01795E+03
 1.28730E+00    4.00563E+03
 1.35340E+00    3.99268E+03
 1.42270E+00    3.97965E+03
 1.49570E+00    3.96640E+03
 1.57240E+00    3.95033E+03
 1.65300E+00    3.93195E+03
 1.73770E+00    3.91263E+03
 1.82680E+00    3.89230E+03
 1.92050E+00    3.86512E+03
 2.01900E+00    3.82894E+03
 2.12250E+00    3.79090E+03
 2.23130E+00    3.75776E+03
 2.30690E+00    3.73719E+03
 2.34570E+00    3.72671E+03
 2.36530E+00    3.71963E+03
 2.38520E+00    3.70166E+03
 2.46600E+00    3.66325E+03
 2.59240E+00    3.60478E+03
 2.72530E+00    3.54112E+03
 2.86500E+00    3.47419E+03
 3.01190E+00    3.40379E+03
 3.16640E+00    3.32861E+03
 3.32870E+00    3.20677E+03
 3.67880E+00    3.03108E+03
 4.06570E+00    2.86133E+03
 4.49330E+00    2.73351E+03
 4.72370E+00    2.64244E+03
 4.96590E+00    2.56128E+03
 5.22050E+00    2.50057E+03
 5.48810E+00    2.43711E+03
 5.76950E+00    2.37121E+03
 6.06530E+00    2.32565E+03
 6.37630E+00    2.29787E+03
 6.59240E+00    2.28740E+03
 6.70320E+00    2.27835E+03
 7.04690E+00    2.28257E+03
 7.40820E+00    2.29737E+03
 7.78800E+00    2.31618E+03
 8.18730E+00    2.35911E+03
 8.60710E+00    2.40878E+03
 9.04840E+00    2.46802E+03
 9.51230E+00    2.53845E+03
 1.00000E+01    2.61286E+03
 1.05130E+01    2.69142E+03
 1.10520E+01    2.77140E+03
 1.16180E+01    2.85238E+03
 1.22140E+01    2.92181E+03
 1.28400E+01    2.98284E+03
 1.34990E+01    3.01724E+03
 1.38400E+01    3.03821E+03
 1.41910E+01    3.04845E+03
 1.45500E+01    3.05740E+03
 1.49180E+01    3.05964E+03
 1.56830E+01    3.04137E+03
 1.64870E+01    2.99851E+03
