# n + Te125 : (n,d)     
# jendl.ad   K.Shibata (JAEA)                  EVAL-Nov13
# uncertainties: n
# # energies =    56
#   E(MeV)       xs(mb) 
 6.51853E+00    0.00000E+00
 6.52948E+00    2.37670E-15
 6.55567E+00    1.08880E-14
 6.55967E+00    1.22980E-14
 6.59995E+00    2.65060E-14
 6.60684E+00    2.89370E-14
 6.62302E+00    3.46440E-14
 6.64477E+00    4.23160E-14
 6.65129E+00    4.46160E-14
 6.66974E+00    5.11230E-14
 6.70004E+00    6.18110E-14
 6.71610E+00    6.74760E-14
 6.73487E+00    7.40970E-14
 6.74182E+00    7.65480E-14
 6.75190E+00    8.01040E-14
 6.76891E+00    8.61040E-14
 6.80798E+00    9.98850E-14
 6.88984E+00    1.28760E-13
 6.89336E+00    1.30000E-13
 6.90617E+00    1.34520E-13
 6.90794E+00    1.35140E-13
 6.92466E+00    1.41040E-13
 6.94098E+00    1.46800E-13
 6.96125E+00    1.53950E-13
 6.96780E+00    1.56260E-13
 6.99360E+00    1.65360E-13
 7.00644E+00    1.69890E-13
 7.04544E+00    1.83640E-13
 7.08820E+00    1.98730E-13
 7.10515E+00    2.04710E-13
 7.11632E+00    2.08650E-13
 7.12203E+00    2.10660E-13
 7.13617E+00    2.15650E-13
 7.16577E+00    2.26090E-13
 7.16637E+00    2.26300E-13
 7.17681E+00    2.29980E-13
 7.26950E+00    2.62680E-13
 7.28184E+00    2.67030E-13
 7.29475E+00    2.71580E-13
 7.32929E+00    2.83770E-13
 8.00000E+00    5.20350E-13
 8.50000E+00    8.64380E-10
 9.00000E+00    1.25700E-07
 9.50000E+00    4.62539E-06
 1.00000E+01    4.98136E-05
 1.10000E+01    2.60439E-03
 1.20000E+01    3.99471E-02
 1.30000E+01    2.04680E-01
 1.40000E+01    6.01545E-01
 1.45000E+01    9.93340E-01
 1.50000E+01    1.36199E+00
 1.60000E+01    2.32188E+00
 1.70000E+01    3.45225E+00
 1.80000E+01    4.79722E+00
 1.90000E+01    5.99507E+00
 2.00000E+01    7.41217E+00
