# n + Te125 : (n,xa)    
# jendl.ad   K.Shibata (JAEA)                  EVAL-Nov13
# 
# # energies =    70
#   E(MeV)        xs(mb) 
 1.45944E-01    1.58364E-04
 2.00000E-01    1.49659E-04
 3.00000E-01    1.59960E-04
 3.23683E-01    1.65289E-04
 4.00000E-01    1.84742E-04
 4.05337E-01    1.87113E-04
 4.47144E-01    2.05689E-04
 4.67109E-01    2.04722E-04
 5.00000E-01    2.03130E-04
 5.29470E-01    2.07359E-04
 5.42194E-01    2.09185E-04
 6.00000E-01    1.99550E-04
 6.41228E-01    1.99999E-04
 6.47392E-01    2.01508E-04
 6.58172E-01    2.04147E-04
 6.76867E-01    2.08148E-04
 7.00000E-01    2.09770E-04
 7.35118E-01    2.16497E-04
 7.92929E-01    2.26673E-04
 8.00000E-01    2.28162E-04
 8.11098E-01    2.30919E-04
 8.47701E-01    2.40499E-04
 9.00000E-01    2.57975E-04
 1.00000E+00    3.02760E-04
 1.02595E+00    3.18488E-04
 1.03771E+00    3.25616E-04
 1.06236E+00    3.41100E-04
 1.07492E+00    3.47819E-04
 1.08053E+00    3.50820E-04
 1.10021E+00    3.61347E-04
 1.14248E+00    3.82815E-04
 1.15798E+00    3.90592E-04
 1.20135E+00    4.14403E-04
 1.21938E+00    4.25241E-04
 1.25286E+00    4.46589E-04
 1.25568E+00    4.48387E-04
 1.27539E+00    4.60954E-04
 1.32109E+00    4.90092E-04
 1.32522E+00    4.92725E-04
 1.33020E+00    4.95900E-04
 1.33301E+00    4.97692E-04
 1.50000E+00    6.06439E-04
 2.00000E+00    1.11287E-03
 2.50000E+00    1.97706E-03
 3.00000E+00    3.29000E-03
 3.50000E+00    5.15801E-03
 4.00000E+00    7.56873E-03
 4.50000E+00    1.04448E-02
 5.00000E+00    1.38493E-02
 5.50000E+00    1.78037E-02
 6.00000E+00    2.24847E-02
 6.50000E+00    2.85466E-02
 7.00000E+00    3.71580E-02
 7.50000E+00    5.04282E-02
 8.00000E+00    7.14035E-02
 8.50000E+00    1.04072E-01
 9.00000E+00    1.53274E-01
 9.50000E+00    2.24612E-01
 1.00000E+01    3.22888E-01
 1.10000E+01    6.18237E-01
 1.20000E+01    1.04870E+00
 1.30000E+01    1.59735E+00
 1.40000E+01    2.23017E+00
 1.45000E+01    2.56275E+00
 1.50000E+01    2.90368E+00
 1.60000E+01    3.58459E+00
 1.70000E+01    4.25147E+00
 1.80000E+01    4.89286E+00
 1.90000E+01    5.50519E+00
 2.00000E+01    6.08692E+00
