# n + Te125 : (n,xn)    
# jendl.ad   K.Shibata (JAEA)                  EVAL-Nov13
# 
# # energies =    70
#   E(MeV)        xs(mb) 
 1.45944E-01    0.00000E+00
 2.00000E-01    0.00000E+00
 3.00000E-01    0.00000E+00
 3.23683E-01    0.00000E+00
 4.00000E-01    0.00000E+00
 4.05337E-01    0.00000E+00
 4.47144E-01    0.00000E+00
 4.67109E-01    0.00000E+00
 5.00000E-01    0.00000E+00
 5.29470E-01    0.00000E+00
 5.42194E-01    0.00000E+00
 6.00000E-01    0.00000E+00
 6.41228E-01    0.00000E+00
 6.47392E-01    0.00000E+00
 6.58172E-01    0.00000E+00
 6.76867E-01    0.00000E+00
 7.00000E-01    0.00000E+00
 7.35118E-01    0.00000E+00
 7.92929E-01    0.00000E+00
 8.00000E-01    0.00000E+00
 8.11098E-01    0.00000E+00
 8.47701E-01    0.00000E+00
 9.00000E-01    0.00000E+00
 1.00000E+00    0.00000E+00
 1.02595E+00    0.00000E+00
 1.03771E+00    0.00000E+00
 1.06236E+00    0.00000E+00
 1.07492E+00    0.00000E+00
 1.08053E+00    0.00000E+00
 1.10021E+00    0.00000E+00
 1.14248E+00    0.00000E+00
 1.15798E+00    0.00000E+00
 1.20135E+00    0.00000E+00
 1.21938E+00    0.00000E+00
 1.25286E+00    0.00000E+00
 1.25568E+00    0.00000E+00
 1.27539E+00    0.00000E+00
 1.32109E+00    0.00000E+00
 1.32522E+00    0.00000E+00
 1.33020E+00    0.00000E+00
 1.33301E+00    0.00000E+00
 1.50000E+00    0.00000E+00
 2.00000E+00    0.00000E+00
 2.50000E+00    1.67381E-24
 3.00000E+00    5.21611E-24
 3.50000E+00    8.75841E-24
 4.00000E+00    1.23007E-23
 4.50000E+00    1.58430E-23
 5.00000E+00    1.16510E-18
 5.50000E+00    4.18220E-15
 6.00000E+00    2.07100E-12
 6.50000E+00    2.58210E-10
 7.00000E+00    6.70020E+01
 7.50000E+00    3.63910E+02
 8.00000E+00    8.38408E+02
 8.50000E+00    1.37772E+03
 9.00000E+00    1.88003E+03
 9.50000E+00    2.28606E+03
 1.00000E+01    2.60500E+03
 1.10000E+01    3.01928E+03
 1.20000E+01    3.23357E+03
 1.30000E+01    3.33647E+03
 1.40000E+01    3.37952E+03
 1.45000E+01    3.38575E+03
 1.50000E+01    3.38816E+03
 1.60000E+01    3.38422E+03
 1.70000E+01    3.38167E+03
 1.80000E+01    3.48771E+03
 1.90000E+01    3.71458E+03
 2.00000E+01    3.96416E+03
