# n + Te125 : (n,xd)    
# jendl.ad   K.Shibata (JAEA)                  EVAL-Nov13
# 
# # energies =    70
#   E(MeV)        xs(mb) 
 1.45944E-01    0.00000E+00
 2.00000E-01    0.00000E+00
 3.00000E-01    0.00000E+00
 3.23683E-01    0.00000E+00
 4.00000E-01    0.00000E+00
 4.05337E-01    0.00000E+00
 4.47144E-01    0.00000E+00
 4.67109E-01    0.00000E+00
 5.00000E-01    0.00000E+00
 5.29470E-01    0.00000E+00
 5.42194E-01    0.00000E+00
 6.00000E-01    0.00000E+00
 6.41228E-01    0.00000E+00
 6.47392E-01    0.00000E+00
 6.58172E-01    0.00000E+00
 6.76867E-01    0.00000E+00
 7.00000E-01    0.00000E+00
 7.35118E-01    0.00000E+00
 7.92929E-01    0.00000E+00
 8.00000E-01    0.00000E+00
 8.11098E-01    0.00000E+00
 8.47701E-01    0.00000E+00
 9.00000E-01    0.00000E+00
 1.00000E+00    0.00000E+00
 1.02595E+00    0.00000E+00
 1.03771E+00    0.00000E+00
 1.06236E+00    0.00000E+00
 1.07492E+00    0.00000E+00
 1.08053E+00    0.00000E+00
 1.10021E+00    0.00000E+00
 1.14248E+00    0.00000E+00
 1.15798E+00    0.00000E+00
 1.20135E+00    0.00000E+00
 1.21938E+00    0.00000E+00
 1.25286E+00    0.00000E+00
 1.25568E+00    0.00000E+00
 1.27539E+00    0.00000E+00
 1.32109E+00    0.00000E+00
 1.32522E+00    0.00000E+00
 1.33020E+00    0.00000E+00
 1.33301E+00    0.00000E+00
 1.50000E+00    0.00000E+00
 2.00000E+00    0.00000E+00
 2.50000E+00    0.00000E+00
 3.00000E+00    0.00000E+00
 3.50000E+00    0.00000E+00
 4.00000E+00    0.00000E+00
 4.50000E+00    0.00000E+00
 5.00000E+00    0.00000E+00
 5.50000E+00    0.00000E+00
 6.00000E+00    0.00000E+00
 6.50000E+00    0.00000E+00
 7.00000E+00    1.67618E-13
 7.50000E+00    3.43985E-13
 8.00000E+00    5.20350E-13
 8.50000E+00    8.64380E-10
 9.00000E+00    1.25700E-07
 9.50000E+00    4.62539E-06
 1.00000E+01    4.98136E-05
 1.10000E+01    2.60439E-03
 1.20000E+01    3.99471E-02
 1.30000E+01    2.04680E-01
 1.40000E+01    6.01545E-01
 1.45000E+01    9.93340E-01
 1.50000E+01    1.36199E+00
 1.60000E+01    2.32188E+00
 1.70000E+01    3.45256E+00
 1.80000E+01    4.80288E+00
 1.90000E+01    6.04090E+00
 2.00000E+01    7.59277E+00
