# n + Sr 90 : (n,n'07)  
# jeff3.3    A.J. Koning and D. Rochman        EVAL-DEC15
# uncertainties: n
# # energies =    80
#   E(MeV)       xs(mb) 
 2.59944E+00    0.00000E+00
 2.61501E+00    5.64139E+00
 2.70400E+00    3.90873E+01
 2.80000E+00    7.51678E+01
 2.96055E+00    9.84574E+01
 3.00000E+00    1.04180E+02
 3.00445E+00    1.04117E+02
 3.06690E+00    1.03229E+02
 3.07208E+00    1.03156E+02
 3.07336E+00    1.03138E+02
 3.18018E+00    1.01620E+02
 3.18129E+00    1.01604E+02
 3.20000E+00    1.01338E+02
 3.30466E+00    9.64654E+01
 3.40000E+00    9.20267E+01
 3.42135E+00    9.11463E+01
 3.43208E+00    9.07039E+01
 3.48852E+00    8.83766E+01
 3.51803E+00    8.71598E+01
 3.54736E+00    8.59504E+01
 3.59569E+00    8.39575E+01
 3.60000E+00    8.37798E+01
 3.62463E+00    8.27451E+01
 3.63432E+00    8.23380E+01
 3.66770E+00    8.09356E+01
 3.76173E+00    7.69852E+01
 3.80000E+00    7.53774E+01
 3.82645E+00    7.45221E+01
 3.84668E+00    7.38679E+01
 3.88814E+00    7.25272E+01
 4.00000E+00    6.89100E+01
 4.20000E+00    6.09687E+01
 4.40000E+00    5.24588E+01
 4.60000E+00    4.45026E+01
 4.80000E+00    3.74332E+01
 5.00000E+00    3.12651E+01
 5.20000E+00    2.59301E+01
 5.40000E+00    2.13479E+01
 5.60000E+00    1.74464E+01
 5.80000E+00    1.41575E+01
 6.00000E+00    1.14123E+01
 6.20000E+00    9.15445E+00
 6.40000E+00    7.31071E+00
 6.60000E+00    5.81703E+00
 6.80000E+00    4.61678E+00
 7.00000E+00    3.65507E+00
 7.20000E+00    2.88054E+00
 7.40000E+00    2.26847E+00
 7.60000E+00    1.78588E+00
 7.80000E+00    1.40679E+00
 8.00000E+00    1.11163E+00
 8.50000E+00    6.17288E-01
 9.00000E+00    3.45804E-01
 9.50000E+00    1.95805E-01
 1.00000E+01    1.12113E-01
 1.05000E+01    6.48454E-02
 1.10000E+01    3.78691E-02
 1.15000E+01    2.23292E-02
 1.20000E+01    1.32953E-02
 1.25000E+01    7.99315E-03
 1.30000E+01    4.85052E-03
 1.35000E+01    2.97111E-03
 1.40000E+01    1.83634E-03
 1.45000E+01    1.14454E-03
 1.50000E+01    7.19315E-04
 1.60000E+01    2.90758E-04
 1.70000E+01    1.20984E-04
 1.80000E+01    5.16438E-05
 1.90000E+01    2.25413E-05
 2.00000E+01    1.00318E-05
 2.10000E+01    4.54561E-06
 2.20000E+01    2.07436E-06
 2.30000E+01    9.69150E-07
 2.40000E+01    4.59590E-07
 2.50000E+01    2.21520E-07
 2.60000E+01    1.08010E-07
 2.70000E+01    5.33830E-08
 2.80000E+01    2.67240E-08
 2.90000E+01    1.35440E-08
 3.00000E+01    6.94550E-09
