# n + Sr 90 : (n,xa)    
# jeff3.3    A.J. Koning and D. Rochman        EVAL-DEC15
# 
# # energies =   126
#   E(MeV)        xs(mb) 
 8.41011E-01    1.00011E-17
 9.00000E-01    1.00010E-17
 1.00000E+00    1.00009E-17
 1.20000E+00    1.00007E-17
 1.40000E+00    1.00004E-17
 1.60000E+00    1.00002E-17
 1.67449E+00    1.00001E-17
 1.80000E+00    1.11170E-17
 1.91359E+00    9.96406E-15
 2.00000E+00    1.75540E-14
 2.20000E+00    3.15830E-13
 2.23178E+00    8.49983E-13
 2.40000E+00    3.67740E-12
 2.52534E+00    2.22538E-11
 2.55628E+00    2.68393E-11
 2.59944E+00    3.32360E-11
 2.60000E+00    3.33190E-11
 2.61501E+00    4.61227E-11
 2.70400E+00    1.22032E-10
 2.80000E+00    2.03920E-10
 2.96055E+00    9.67560E-10
 3.00000E+00    1.15520E-09
 3.00445E+00    1.25239E-09
 3.06690E+00    2.61633E-09
 3.07208E+00    2.72946E-09
 3.07336E+00    2.75742E-09
 3.18018E+00    5.09042E-09
 3.18129E+00    5.11466E-09
 3.20000E+00    5.52330E-09
 3.30466E+00    1.47201E-08
 3.40000E+00    2.30980E-08
 3.42135E+00    2.95367E-08
 3.43208E+00    3.27727E-08
 3.48852E+00    4.97938E-08
 3.51803E+00    5.86935E-08
 3.54736E+00    6.75388E-08
 3.59569E+00    8.21142E-08
 3.60000E+00    8.34140E-08
 3.62463E+00    1.29287E-07
 3.63432E+00    1.47335E-07
 3.66770E+00    2.09504E-07
 3.76173E+00    3.84633E-07
 3.80000E+00    4.55910E-07
 3.82645E+00    5.34975E-07
 3.84668E+00    5.95446E-07
 3.88814E+00    7.19378E-07
 4.00000E+00    1.05375E-06
 4.20000E+00    2.77342E-06
 4.40000E+00    7.19270E-06
 4.60000E+00    1.11034E-05
 4.80000E+00    2.86961E-05
 5.00000E+00    4.95074E-05
 5.20000E+00    8.13739E-05
 5.40000E+00    1.59178E-04
 5.60000E+00    2.27253E-04
 5.80000E+00    3.98212E-04
 6.00000E+00    6.01579E-04
 6.20000E+00    8.26666E-04
 6.40000E+00    1.30538E-03
 6.60000E+00    1.71440E-03
 6.80000E+00    2.42835E-03
 7.00000E+00    3.26382E-03
 7.20000E+00    4.02728E-03
 7.40000E+00    5.44200E-03
 7.60000E+00    6.61523E-03
 7.80000E+00    8.23952E-03
 8.00000E+00    1.01226E-02
 8.50000E+00    1.54597E-02
 9.00000E+00    2.20125E-02
 9.50000E+00    2.98627E-02
 1.00000E+01    3.97758E-02
 1.05000E+01    5.39807E-02
 1.10000E+01    7.68121E-02
 1.15000E+01    1.14329E-01
 1.20000E+01    1.73238E-01
 1.25000E+01    2.59449E-01
 1.30000E+01    3.77701E-01
 1.35000E+01    5.32557E-01
 1.40000E+01    7.27826E-01
 1.45000E+01    9.67204E-01
 1.50000E+01    1.25611E+00
 1.60000E+01    2.00392E+00
 1.70000E+01    3.04542E+00
 1.80000E+01    4.52243E+00
 1.90000E+01    6.19828E+00
 2.00000E+01    7.92317E+00
 2.10000E+01    9.41479E+00
 2.20000E+01    1.02672E+01
 2.30000E+01    1.14415E+01
 2.40000E+01    1.26633E+01
 2.50000E+01    1.39248E+01
 2.60000E+01    1.52147E+01
 2.70000E+01    1.65136E+01
 2.80000E+01    1.78274E+01
 2.90000E+01    1.91420E+01
 3.00000E+01    2.04688E+01
 3.00000E+01    2.03430E+01
 3.20000E+01    2.30382E+01
 3.40000E+01    2.58605E+01
 3.60000E+01    2.89211E+01
 3.80000E+01    3.24235E+01
 4.00000E+01    3.63002E+01
 4.20000E+01    4.07865E+01
 4.40000E+01    4.55790E+01
 4.60000E+01    5.10901E+01
 4.80000E+01    5.69426E+01
 5.00000E+01    6.30845E+01
 5.20000E+01    6.93063E+01
 5.40000E+01    7.56339E+01
 5.60000E+01    8.15859E+01
 5.80000E+01    8.74538E+01
 6.00000E+01    9.31049E+01
 6.50000E+01    1.05571E+02
 7.00000E+01    1.13826E+02
 7.50000E+01    1.21131E+02
 8.00000E+01    1.25151E+02
 9.00000E+01    1.29925E+02
 1.00000E+02    1.27649E+02
 1.10000E+02    1.36084E+02
 1.20000E+02    1.49701E+02
 1.30000E+02    1.60466E+02
 1.40000E+02    1.69508E+02
 1.50000E+02    1.81161E+02
 1.60000E+02    1.95957E+02
 1.80000E+02    2.37272E+02
 2.00000E+02    2.98326E+02
