# n + Sr 90 : (n,n'14)  
# jeff3.3    A.J. Koning and D. Rochman        EVAL-DEC15
# uncertainties: n
# # energies =    71
#   E(MeV)       xs(mb) 
 3.07336E+00    0.00000E+00
 3.18018E+00    7.97259E+00
 3.18129E+00    8.05542E+00
 3.20000E+00    9.45186E+00
 3.30466E+00    1.32854E+01
 3.40000E+00    1.67776E+01
 3.42135E+00    1.69142E+01
 3.43208E+00    1.69828E+01
 3.48852E+00    1.73439E+01
 3.51803E+00    1.75327E+01
 3.54736E+00    1.77203E+01
 3.59569E+00    1.80295E+01
 3.60000E+00    1.80571E+01
 3.62463E+00    1.79282E+01
 3.63432E+00    1.78775E+01
 3.66770E+00    1.77029E+01
 3.76173E+00    1.72108E+01
 3.80000E+00    1.70106E+01
 3.82645E+00    1.68151E+01
 3.84668E+00    1.66655E+01
 3.88814E+00    1.63591E+01
 4.00000E+00    1.55322E+01
 4.20000E+00    1.35637E+01
 4.40000E+00    1.15257E+01
 4.60000E+00    9.69449E+00
 4.80000E+00    8.12471E+00
 5.00000E+00    6.79101E+00
 5.20000E+00    5.65460E+00
 5.40000E+00    4.68350E+00
 5.60000E+00    3.85395E+00
 5.80000E+00    3.14849E+00
 6.00000E+00    2.55304E+00
 6.20000E+00    2.05787E+00
 6.40000E+00    1.64956E+00
 6.60000E+00    1.31620E+00
 6.80000E+00    1.04664E+00
 7.00000E+00    8.29886E-01
 7.20000E+00    6.55055E-01
 7.40000E+00    5.16459E-01
 7.60000E+00    4.07036E-01
 7.80000E+00    3.21106E-01
 8.00000E+00    2.54120E-01
 8.50000E+00    1.41763E-01
 9.00000E+00    7.98448E-02
 9.50000E+00    4.54301E-02
 1.00000E+01    2.60890E-02
 1.05000E+01    1.50935E-02
 1.10000E+01    8.79220E-03
 1.15000E+01    5.15954E-03
 1.20000E+01    3.05323E-03
 1.25000E+01    1.82349E-03
 1.30000E+01    1.09962E-03
 1.35000E+01    6.69910E-04
 1.40000E+01    4.12255E-04
 1.45000E+01    2.56100E-04
 1.50000E+01    1.60546E-04
 1.60000E+01    6.46226E-05
 1.70000E+01    2.67494E-05
 1.80000E+01    1.13346E-05
 1.90000E+01    4.90355E-06
 2.00000E+01    2.16315E-06
 2.10000E+01    9.73110E-07
 2.20000E+01    4.41900E-07
 2.30000E+01    2.05890E-07
 2.40000E+01    9.75060E-08
 2.50000E+01    4.69600E-08
 2.60000E+01    2.28750E-08
 2.70000E+01    1.12910E-08
 2.80000E+01    5.64280E-09
 2.90000E+01    2.85470E-09
 3.00000E+01    1.46160E-09
