# n + Sr 90 : (n,n'15)  
# jeff3.3    A.J. Koning and D. Rochman        EVAL-DEC15
# uncertainties: n
# # energies =    70
#   E(MeV)       xs(mb) 
 3.18018E+00    0.00000E+00
 3.18129E+00    2.61565E-01
 3.20000E+00    4.67114E+00
 3.30466E+00    2.03568E+01
 3.40000E+00    3.46456E+01
 3.42135E+00    3.60578E+01
 3.43208E+00    3.67675E+01
 3.48852E+00    4.05006E+01
 3.51803E+00    4.24525E+01
 3.54736E+00    4.43925E+01
 3.59569E+00    4.75892E+01
 3.60000E+00    4.78743E+01
 3.62463E+00    4.81188E+01
 3.63432E+00    4.82150E+01
 3.66770E+00    4.85463E+01
 3.76173E+00    4.94796E+01
 3.80000E+00    4.98595E+01
 3.82645E+00    4.96664E+01
 3.84668E+00    4.95187E+01
 3.88814E+00    4.92161E+01
 4.00000E+00    4.83995E+01
 4.20000E+00    4.41273E+01
 4.40000E+00    3.86577E+01
 4.60000E+00    3.33408E+01
 4.80000E+00    2.85888E+01
 5.00000E+00    2.44187E+01
 5.20000E+00    2.07550E+01
 5.40000E+00    1.75237E+01
 5.60000E+00    1.46771E+01
 5.80000E+00    1.21845E+01
 6.00000E+00    1.00217E+01
 6.20000E+00    8.17771E+00
 6.40000E+00    6.62246E+00
 6.60000E+00    5.32752E+00
 6.80000E+00    4.26288E+00
 7.00000E+00    3.39513E+00
 7.20000E+00    2.68760E+00
 7.40000E+00    2.12255E+00
 7.60000E+00    1.67424E+00
 7.80000E+00    1.32005E+00
 8.00000E+00    1.04380E+00
 8.50000E+00    5.79896E-01
 9.00000E+00    3.25224E-01
 9.50000E+00    1.84664E-01
 1.00000E+01    1.06192E-01
 1.05000E+01    6.17377E-02
 1.10000E+01    3.62405E-02
 1.15000E+01    2.14669E-02
 1.20000E+01    1.28300E-02
 1.25000E+01    7.73633E-03
 1.30000E+01    4.70550E-03
 1.35000E+01    2.88748E-03
 1.40000E+01    1.78717E-03
 1.45000E+01    1.11513E-03
 1.50000E+01    7.01453E-04
 1.60000E+01    2.83928E-04
 1.70000E+01    1.18292E-04
 1.80000E+01    5.05657E-05
 1.90000E+01    2.21027E-05
 2.00000E+01    9.84996E-06
 2.10000E+01    4.46884E-06
 2.20000E+01    2.04189E-06
 2.30000E+01    9.55190E-07
 2.40000E+01    4.53540E-07
 2.50000E+01    2.18850E-07
 2.60000E+01    1.06800E-07
 2.70000E+01    5.28220E-08
 2.80000E+01    2.64560E-08
 2.90000E+01    1.34130E-08
 3.00000E+01    6.88070E-09
