# n + Pu240 : (n,tot)   
# jendl.ad   O.Iwamoto,N.Otuka,S.Chiba,+       EVAL-JAN10
# uncertainties: n
# # energies =   171
#   E(MeV)       xs(mb) 
 1.00000E-11    2.99380E+06
 1.00000E-07    1.55242E+05
 4.13990E-07    2.03780E+05
 5.31580E-07    3.05491E+05
 6.82560E-07    7.69345E+05
 8.76420E-07    3.03322E+07
 1.12540E-06    1.77645E+06
 1.44500E-06    1.24766E+05
 1.85540E-06    3.24548E+04
 2.37240E-06    1.16283E+04
 3.05900E-06    4.84579E+03
 3.92790E-06    2.26285E+03
 5.04350E-06    1.14814E+03
 6.47600E-06    6.32080E+02
 8.31530E-06    3.84383E+02
 1.06770E-05    2.73458E+02
 1.37100E-05    3.01478E+02
 1.76030E-05    9.85037E+04
 2.26030E-05    2.91525E+02
 2.92030E-05    1.03148E+03
 3.72670E-05    2.18425E+05
 4.78510E-05    3.22042E+02
 6.14420E-05    1.13830E+05
 7.88930E-05    2.39457E+04
 1.01300E-04    3.79882E+04
 1.30070E-04    2.19531E+04
 1.67020E-04    1.09483E+04
 2.14450E-04    5.67438E+03
 2.75360E-04    1.12531E+04
 3.53580E-04    7.28053E+03
 4.54000E-04    4.97873E+03
 5.82950E-04    3.93308E+03
 7.48520E-04    6.45438E+03
 9.61120E-04    3.84872E+03
 1.23410E-03    3.48791E+03
 1.58460E-03    3.24088E+03
 2.03470E-03    2.10982E+03
 2.24870E-03    2.93652E+03
 2.48520E-03    2.22845E+03
 2.61260E-03    3.25936E+03
 2.74650E-03    2.35462E+03
 3.03540E-03    2.14771E+03
 3.35460E-03    1.92378E+03
 3.70740E-03    1.78641E+03
 4.30740E-03    1.68171E+03
 5.53080E-03    1.48949E+03
 7.10170E-03    1.35250E+03
 9.11880E-03    1.24001E+03
 1.17090E-02    1.17005E+03
 1.50340E-02    1.05263E+03
 1.93050E-02    9.95747E+02
 2.18750E-02    9.51362E+02
 2.35790E-02    9.29870E+02
 2.41760E-02    9.21218E+02
 2.47880E-02    9.09051E+02
 2.60580E-02    8.94715E+02
 2.70000E-02    8.80709E+02
 2.85000E-02    8.62115E+02
 3.18280E-02    8.71140E+02
 3.43070E-02    8.24376E+02
 4.08680E-02    7.84197E+02
 4.63090E-02    6.68060E+02
 5.24750E-02    6.05857E+02
 5.65620E-02    5.79406E+02
 6.73790E-02    5.44793E+02
 7.20000E-02    5.12561E+02
 7.95000E-02    5.16300E+02
 8.25000E-02    4.95833E+02
 8.65170E-02    4.47856E+02
 9.80370E-02    4.01323E+02
 1.11090E-01    3.93749E+02
 1.16790E-01    3.88977E+02
 1.22770E-01    3.78846E+02
 1.29070E-01    3.68824E+02
 1.35690E-01    3.60270E+02
 1.42640E-01    3.52843E+02
 1.49960E-01    3.47949E+02
 1.57640E-01    3.44585E+02
 1.65730E-01    3.41196E+02
 1.74220E-01    3.36956E+02
 1.83160E-01    3.32620E+02
 1.92550E-01    3.28561E+02
 2.02420E-01    3.23843E+02
 2.12800E-01    3.18843E+02
 2.23710E-01    3.14373E+02
 2.35180E-01    3.09914E+02
 2.47240E-01    3.05479E+02
 2.73240E-01    3.03612E+02
 2.87250E-01    3.03294E+02
 2.94520E-01    3.03386E+02
 2.97200E-01    3.03558E+02
 2.98500E-01    3.03819E+02
 3.01970E-01    3.08120E+02
 3.33730E-01    3.24469E+02
 3.68830E-01    3.36587E+02
 3.87740E-01    3.46240E+02
 4.07620E-01    3.87198E+02
 4.50490E-01    4.73551E+02
 4.97870E-01    5.66704E+02
 5.23400E-01    6.44538E+02
 5.50230E-01    7.28670E+02
 5.78440E-01    8.16793E+02
 6.08100E-01    8.82775E+02
 6.39280E-01    9.44489E+02
 6.72060E-01    1.01737E+03
 7.06510E-01    1.08164E+03
 7.42740E-01    1.14532E+03
 7.80820E-01    1.22130E+03
 8.20850E-01    1.31975E+03
 8.62940E-01    1.43160E+03
 9.07180E-01    1.51289E+03
 9.61640E-01    1.56593E+03
 1.00260E+00    1.58565E+03
 1.10800E+00    1.58539E+03
 1.16480E+00    1.58567E+03
 1.22460E+00    1.59681E+03
 1.28730E+00    1.61159E+03
 1.35340E+00    1.62797E+03
 1.42270E+00    1.64525E+03
 1.49570E+00    1.66343E+03
 1.57240E+00    1.68152E+03
 1.65300E+00    1.69958E+03
 1.73770E+00    1.71868E+03
 1.82680E+00    1.73829E+03
 1.92050E+00    1.75848E+03
 2.01900E+00    1.76064E+03
 2.12250E+00    1.75327E+03
 2.23130E+00    1.74717E+03
 2.30690E+00    1.74333E+03
 2.34570E+00    1.74126E+03
 2.36530E+00    1.73987E+03
 2.38520E+00    1.73646E+03
 2.46600E+00    1.72952E+03
 2.59240E+00    1.72088E+03
 2.72530E+00    1.71130E+03
 2.86500E+00    1.70136E+03
 3.01190E+00    1.68670E+03
 3.16640E+00    1.66831E+03
 3.32870E+00    1.63881E+03
 3.67880E+00    1.59014E+03
 4.06570E+00    1.54923E+03
 4.49330E+00    1.52028E+03
 4.72370E+00    1.49733E+03
 4.96590E+00    1.47673E+03
 5.22050E+00    1.46081E+03
 5.48810E+00    1.47919E+03
 5.76950E+00    1.54159E+03
 6.06530E+00    1.63679E+03
 6.37630E+00    1.73211E+03
 6.59240E+00    1.80269E+03
 6.70320E+00    1.91196E+03
 7.04690E+00    2.15241E+03
 7.40820E+00    2.37230E+03
 7.78800E+00    2.51359E+03
 8.18730E+00    2.57240E+03
 8.60710E+00    2.62355E+03
 9.04840E+00    2.66882E+03
 9.51230E+00    2.70860E+03
 1.00000E+01    2.73767E+03
 1.05130E+01    2.74787E+03
 1.10520E+01    2.72601E+03
 1.16180E+01    2.68247E+03
 1.22140E+01    2.70459E+03
 1.28400E+01    2.75485E+03
 1.34990E+01    2.81689E+03
 1.38400E+01    2.84636E+03
 1.41910E+01    2.85391E+03
 1.45500E+01    2.85649E+03
 1.49180E+01    2.82283E+03
 1.56830E+01    2.74198E+03
 1.64870E+01    2.67785E+03
