# n + Nd148 : (n,n'09)  
# jendl4.0   N.Iwamoto,A.Zukeran,K.Shibata     EVAL-Dec09
# uncertainties: n
# # energies =    71
#   E(MeV)       xs(mb) 
 1.28842E+00    0.00000E+00
 1.30000E+00    2.70461E-02
 1.40000E+00    6.32678E-01
 1.40955E+00    7.51288E-01
 1.44176E+00    1.21942E+00
 1.48506E+00    2.04317E+00
 1.50000E+00    2.34037E+00
 1.52182E+00    2.78925E+00
 1.52594E+00    2.84379E+00
 1.53184E+00    2.95743E+00
 1.58775E+00    4.25001E+00
 1.60000E+00    4.56763E+00
 1.61091E+00    4.86023E+00
 1.61292E+00    4.91514E+00
 1.65582E+00    5.48459E+00
 1.65680E+00    5.50767E+00
 1.66528E+00    5.71243E+00
 1.67123E+00    5.85582E+00
 1.69488E+00    6.48207E+00
 1.69942E+00    6.35490E+00
 1.70000E+00    6.34203E+00
 1.73676E+00    7.06487E+00
 1.74079E+00    7.16485E+00
 1.79012E+00    8.48689E+00
 1.80000E+00    8.76761E+00
 1.82093E+00    9.39469E+00
 1.83684E+00    9.89200E+00
 1.84953E+00    1.02982E+01
 1.86896E+00    1.09352E+01
 1.87127E+00    1.10125E+01
 1.89987E+00    1.19688E+01
 1.90000E+00    1.19187E+01
 2.00000E+00    1.45631E+01
 2.25000E+00    1.77317E+01
 2.50000E+00    1.84792E+01
 2.75000E+00    1.49264E+01
 3.00000E+00    1.48649E+01
 3.50000E+00    9.33663E+00
 4.00000E+00    5.87366E+00
 4.50000E+00    3.91658E+00
 5.00000E+00    2.86056E+00
 5.50000E+00    2.27562E+00
 6.00000E+00    1.92414E+00
 6.50000E+00    1.69244E+00
 7.00000E+00    1.52558E+00
 7.50000E+00    1.39327E+00
 8.00000E+00    1.28159E+00
 8.50000E+00    1.18246E+00
 9.00000E+00    1.09173E+00
 9.50000E+00    1.00774E+00
 1.00000E+01    9.30289E-01
 1.05000E+01    8.60478E-01
 1.10000E+01    7.96246E-01
 1.15000E+01    7.40534E-01
 1.20000E+01    6.89922E-01
 1.25000E+01    6.46195E-01
 1.30000E+01    6.06670E-01
 1.35000E+01    5.71881E-01
 1.40000E+01    5.40366E-01
 1.45000E+01    5.11872E-01
 1.50000E+01    4.85810E-01
 1.55000E+01    4.61653E-01
 1.60000E+01    4.40824E-01
 1.65000E+01    4.19358E-01
 1.70000E+01    3.97930E-01
 1.75000E+01    3.78327E-01
 1.80000E+01    3.60616E-01
 1.85000E+01    3.44306E-01
 1.90000E+01    3.29211E-01
 1.95000E+01    3.12655E-01
 2.00000E+01    2.97318E-01
