# n + Sm147 : (n,n'08)  
# jendl4.0   N.Iwamoto,A.Zukeran               EVAL-Nov09
# uncertainties: n
# # energies =    79
#   E(MeV)       xs(mb) 
 9.06179E-01    0.00000E+00
 9.29136E-01    1.02403E+02
 9.37996E-01    1.14793E+02
 9.84715E-01    1.53987E+02
 1.00000E+00    1.62473E+02
 1.02700E+00    1.74440E+02
 1.03778E+00    1.74778E+02
 1.05066E+00    1.78054E+02
 1.06154E+00    1.80907E+02
 1.07120E+00    1.82796E+02
 1.07639E+00    1.82771E+02
 1.08439E+00    1.80977E+02
 1.10000E+00    1.78976E+02
 1.11446E+00    1.79511E+02
 1.16998E+00    1.78578E+02
 1.17703E+00    1.78109E+02
 1.18105E+00    1.78069E+02
 1.18820E+00    1.77630E+02
 1.20000E+00    1.75171E+02
 1.22968E+00    1.74333E+02
 1.26664E+00    1.74735E+02
 1.30000E+00    1.72789E+02
 1.32672E+00    1.71734E+02
 1.32690E+00    1.71711E+02
 1.32712E+00    1.71580E+02
 1.35892E+00    1.67526E+02
 1.40000E+00    1.61792E+02
 1.43982E+00    1.59759E+02
 1.44787E+00    1.59369E+02
 1.45906E+00    1.58308E+02
 1.46319E+00    1.57707E+02
 1.46841E+00    1.57197E+02
 1.47405E+00    1.56806E+02
 1.48151E+00    1.55916E+02
 1.48198E+00    1.55845E+02
 1.50000E+00    1.54476E+02
 1.60000E+00    1.43310E+02
 1.70000E+00    1.28250E+02
 1.80000E+00    1.14861E+02
 1.90000E+00    1.02762E+02
 2.00000E+00    9.01620E+01
 2.25000E+00    6.55583E+01
 2.50000E+00    4.38626E+01
 2.75000E+00    3.07405E+01
 3.00000E+00    2.05339E+01
 3.50000E+00    9.69525E+00
 4.00000E+00    4.58220E+00
 4.50000E+00    2.19236E+00
 5.00000E+00    1.08703E+00
 5.50000E+00    5.90981E-01
 6.00000E+00    3.69282E-01
 6.50000E+00    2.68034E-01
 7.00000E+00    2.18187E-01
 7.50000E+00    1.90312E-01
 8.00000E+00    1.71940E-01
 8.50000E+00    1.57859E-01
 9.00000E+00    1.45931E-01
 9.50000E+00    1.35355E-01
 1.00000E+01    1.25953E-01
 1.05000E+01    1.17659E-01
 1.10000E+01    1.10267E-01
 1.15000E+01    1.03696E-01
 1.20000E+01    9.78497E-02
 1.25000E+01    9.26201E-02
 1.30000E+01    8.79014E-02
 1.35000E+01    8.36015E-02
 1.40000E+01    7.96472E-02
 1.45000E+01    7.59816E-02
 1.50000E+01    7.26562E-02
 1.55000E+01    6.93376E-02
 1.60000E+01    6.69854E-02
 1.65000E+01    6.40873E-02
 1.70000E+01    6.07032E-02
 1.75000E+01    5.80888E-02
 1.80000E+01    5.62404E-02
 1.85000E+01    5.40328E-02
 1.90000E+01    5.14624E-02
 1.95000E+01    4.88628E-02
 2.00000E+01    4.68508E-02
