# n + Sm147 : (n,tot)   
# jendl4.0   N.Iwamoto,A.Zukeran               EVAL-Nov09
# uncertainties: n
# # energies =   171
#   E(MeV)       xs(mb) 
 1.00000E-11    6.27501E+05
 1.00000E-07    2.76861E+04
 4.13990E-07    2.03308E+04
 5.31580E-07    1.87544E+04
 6.82560E-07    1.73808E+04
 8.76420E-07    1.62235E+04
 1.12540E-06    1.53529E+04
 1.44500E-06    1.50131E+04
 1.85540E-06    1.62825E+04
 2.37240E-06    3.26169E+04
 3.05900E-06    8.12424E+05
 3.92790E-06    1.65828E+04
 5.04350E-06    7.99392E+03
 6.47600E-06    6.03417E+03
 8.31530E-06    5.00630E+03
 1.06770E-05    5.41884E+03
 1.37100E-05    4.94876E+04
 1.76030E-05    1.93186E+06
 2.26030E-05    7.79717E+04
 2.92030E-05    4.83485E+05
 3.72670E-05    4.50719E+05
 4.78510E-05    1.50610E+05
 6.14420E-05    5.58596E+04
 7.88930E-05    3.03666E+05
 1.01300E-04    2.63496E+05
 1.30070E-04    1.62999E+05
 1.67020E-04    1.51199E+05
 2.14450E-04    1.39911E+05
 2.75360E-04    4.33601E+04
 3.53580E-04    1.07250E+05
 4.54000E-04    1.12155E+05
 5.82950E-04    6.89552E+04
 7.48520E-04    9.76272E+04
 9.61120E-04    6.81441E+04
 1.23410E-03    5.61660E+04
 1.58460E-03    4.98659E+04
 2.03470E-03    4.58589E+04
 2.24870E-03    4.37278E+04
 2.48520E-03    4.21920E+04
 2.61260E-03    4.11996E+04
 2.74650E-03    3.97588E+04
 3.03540E-03    3.79108E+04
 3.35460E-03    3.61493E+04
 3.70740E-03    3.40740E+04
 4.30740E-03    3.10675E+04
 5.53080E-03    2.76766E+04
 7.10170E-03    2.46779E+04
 9.11880E-03    2.20351E+04
 1.17090E-02    1.97251E+04
 1.50340E-02    1.76613E+04
 1.93050E-02    1.62573E+04
 2.18750E-02    1.55739E+04
 2.35790E-02    1.52435E+04
 2.41760E-02    1.50812E+04
 2.47880E-02    1.48412E+04
 2.60580E-02    1.45725E+04
 2.70000E-02    1.42955E+04
 2.85000E-02    1.38041E+04
 3.18280E-02    1.32750E+04
 3.43070E-02    1.25994E+04
 4.08680E-02    1.18477E+04
 4.63090E-02    1.12687E+04
 5.24750E-02    1.08254E+04
 5.65620E-02    1.03059E+04
 6.73790E-02    9.84016E+03
 7.20000E-02    9.54198E+03
 7.95000E-02    9.30331E+03
 8.25000E-02    9.15876E+03
 8.65170E-02    8.87062E+03
 9.80370E-02    8.48839E+03
 1.11090E-01    8.25488E+03
 1.16790E-01    8.12461E+03
 1.22770E-01    7.99671E+03
 1.29070E-01    7.87046E+03
 1.35690E-01    7.74654E+03
 1.42640E-01    7.62440E+03
 1.49960E-01    7.50944E+03
 1.57640E-01    7.40415E+03
 1.65730E-01    7.32454E+03
 1.74220E-01    7.24491E+03
 1.83160E-01    7.16175E+03
 1.92550E-01    7.08576E+03
 2.02420E-01    7.01034E+03
 2.12800E-01    6.93106E+03
 2.23710E-01    6.85283E+03
 2.35180E-01    6.77858E+03
 2.47240E-01    6.70690E+03
 2.73240E-01    6.67270E+03
 2.87250E-01    6.65495E+03
 2.94520E-01    6.64667E+03
 2.97200E-01    6.64336E+03
 2.98500E-01    6.63940E+03
 3.01970E-01    6.61301E+03
 3.33730E-01    6.57154E+03
 3.68830E-01    6.53879E+03
 3.87740E-01    6.51897E+03
 4.07620E-01    6.54826E+03
 4.50490E-01    6.60434E+03
 4.97870E-01    6.65003E+03
 5.23400E-01    6.68257E+03
 5.50230E-01    6.71409E+03
 5.78440E-01    6.74530E+03
 6.08100E-01    6.77811E+03
 6.39280E-01    6.81260E+03
 6.72060E-01    6.84886E+03
 7.06510E-01    6.88698E+03
 7.42740E-01    6.92705E+03
 7.80820E-01    6.96918E+03
 8.20850E-01    7.01347E+03
 8.62940E-01    7.05648E+03
 9.07180E-01    7.09860E+03
 9.61640E-01    7.13938E+03
 1.00260E+00    7.18561E+03
 1.10800E+00    7.21935E+03
 1.16480E+00    7.23031E+03
 1.22460E+00    7.23784E+03
 1.28730E+00    7.23728E+03
 1.35340E+00    7.22285E+03
 1.42270E+00    7.20705E+03
 1.49570E+00    7.17860E+03
 1.57240E+00    7.14255E+03
 1.65300E+00    7.10304E+03
 1.73770E+00    7.04866E+03
 1.82680E+00    6.98871E+03
 1.92050E+00    6.92567E+03
 2.01900E+00    6.85284E+03
 2.12250E+00    6.77075E+03
 2.23130E+00    6.69925E+03
 2.30690E+00    6.65488E+03
 2.34570E+00    6.63226E+03
 2.36530E+00    6.61699E+03
 2.38520E+00    6.57820E+03
 2.46600E+00    6.49830E+03
 2.59240E+00    6.39804E+03
 2.72530E+00    6.29256E+03
 2.86500E+00    6.18114E+03
 3.01190E+00    6.06386E+03
 3.16640E+00    5.94059E+03
 3.32870E+00    5.75147E+03
 3.67880E+00    5.49128E+03
 4.06570E+00    5.23160E+03
 4.49330E+00    5.04503E+03
 4.72370E+00    4.92782E+03
 4.96590E+00    4.82235E+03
 5.22050E+00    4.73226E+03
 5.48810E+00    4.65454E+03
 5.76950E+00    4.59474E+03
 6.06530E+00    4.55286E+03
 6.37630E+00    4.52910E+03
 6.59240E+00    4.52138E+03
 6.70320E+00    4.51788E+03
 7.04690E+00    4.52784E+03
 7.40820E+00    4.54877E+03
 7.78800E+00    4.58203E+03
 8.18730E+00    4.62153E+03
 8.60710E+00    4.67118E+03
 9.04840E+00    4.72514E+03
 9.51230E+00    4.78186E+03
 1.00000E+01    4.84188E+03
 1.05130E+01    4.90417E+03
 1.10520E+01    4.96610E+03
 1.16180E+01    5.02552E+03
 1.22140E+01    5.07964E+03
 1.28400E+01    5.12537E+03
 1.34990E+01    5.15243E+03
 1.38400E+01    5.16623E+03
 1.41910E+01    5.17591E+03
 1.45500E+01    5.18140E+03
 1.49180E+01    5.18111E+03
 1.56830E+01    5.16406E+03
 1.64870E+01    5.12641E+03
