# n + Sm147 : (n,n'13)  
# jendl4.0   N.Iwamoto,A.Zukeran               EVAL-Nov09
# uncertainties: n
# # energies =    73
#   E(MeV)       xs(mb) 
 1.03778E+00    0.00000E+00
 1.05066E+00    1.27911E+01
 1.06154E+00    1.62733E+01
 1.07120E+00    1.89479E+01
 1.07639E+00    2.03324E+01
 1.08439E+00    2.22495E+01
 1.10000E+00    2.59465E+01
 1.11446E+00    2.90913E+01
 1.16998E+00    3.96787E+01
 1.17703E+00    3.99492E+01
 1.18105E+00    4.04636E+01
 1.18820E+00    4.06801E+01
 1.20000E+00    4.17407E+01
 1.22968E+00    4.47467E+01
 1.26664E+00    4.85199E+01
 1.30000E+00    5.14031E+01
 1.32672E+00    5.33071E+01
 1.32690E+00    5.33196E+01
 1.32712E+00    5.31528E+01
 1.35892E+00    5.38762E+01
 1.40000E+00    5.61285E+01
 1.43982E+00    5.82540E+01
 1.44787E+00    5.85564E+01
 1.45906E+00    5.86696E+01
 1.46319E+00    5.83028E+01
 1.46841E+00    5.82508E+01
 1.47405E+00    5.78113E+01
 1.48151E+00    5.71731E+01
 1.48198E+00    5.71568E+01
 1.50000E+00    5.68953E+01
 1.60000E+00    5.58706E+01
 1.70000E+00    5.28675E+01
 1.80000E+00    4.84980E+01
 1.90000E+00    4.44178E+01
 2.00000E+00    4.05493E+01
 2.25000E+00    3.18865E+01
 2.50000E+00    2.25056E+01
 2.75000E+00    1.65711E+01
 3.00000E+00    1.15705E+01
 3.50000E+00    5.84308E+00
 4.00000E+00    2.92272E+00
 4.50000E+00    1.47818E+00
 5.00000E+00    7.73875E-01
 5.50000E+00    4.38194E-01
 6.00000E+00    2.79074E-01
 6.50000E+00    2.02256E-01
 7.00000E+00    1.63090E-01
 7.50000E+00    1.41051E-01
 8.00000E+00    1.26858E-01
 8.50000E+00    1.16323E-01
 9.00000E+00    1.07629E-01
 9.50000E+00    1.00029E-01
 1.00000E+01    9.32350E-02
 1.05000E+01    8.71391E-02
 1.10000E+01    8.16961E-02
 1.15000E+01    7.68543E-02
 1.20000E+01    7.25429E-02
 1.25000E+01    6.86856E-02
 1.30000E+01    6.52060E-02
 1.35000E+01    6.20366E-02
 1.40000E+01    5.91228E-02
 1.45000E+01    5.64217E-02
 1.50000E+01    5.38988E-02
 1.55000E+01    5.15453E-02
 1.60000E+01    4.92877E-02
 1.65000E+01    4.71718E-02
 1.70000E+01    4.51650E-02
 1.75000E+01    4.32510E-02
 1.80000E+01    4.13837E-02
 1.85000E+01    3.96353E-02
 1.90000E+01    3.79829E-02
 1.95000E+01    3.64449E-02
 2.00000E+01    3.49332E-02
