# n + Sm147 : (n,n'02)  
# jendl4.0   N.Iwamoto,A.Zukeran               EVAL-Nov09
# uncertainties: n
# # energies =    96
#   E(MeV)       xs(mb) 
 1.98755E-01    0.00000E+00
 2.00000E-01    1.29804E+01
 2.25000E-01    3.84211E+01
 2.50000E-01    5.66175E+01
 2.75000E-01    7.34250E+01
 3.00000E-01    8.90904E+01
 4.00000E-01    1.40511E+02
 5.00000E-01    1.89340E+02
 6.00000E-01    2.30075E+02
 7.00000E-01    2.61176E+02
 7.21520E-01    2.67649E+02
 7.24943E-01    2.68211E+02
 8.00000E-01    2.87509E+02
 8.04687E-01    2.88705E+02
 8.14856E-01    2.85171E+02
 8.90069E-01    2.76610E+02
 9.00000E-01    2.76165E+02
 9.06179E-01    2.76002E+02
 9.29136E-01    2.65090E+02
 9.37996E-01    2.62445E+02
 9.84715E-01    2.56146E+02
 1.00000E+00    2.54424E+02
 1.02700E+00    2.52223E+02
 1.03778E+00    2.48954E+02
 1.05066E+00    2.47092E+02
 1.06154E+00    2.42685E+02
 1.07120E+00    2.39288E+02
 1.07639E+00    2.35762E+02
 1.08439E+00    2.31566E+02
 1.10000E+00    2.21742E+02
 1.11446E+00    2.17253E+02
 1.16998E+00    2.04883E+02
 1.17703E+00    2.03569E+02
 1.18105E+00    2.02536E+02
 1.18820E+00    2.01088E+02
 1.20000E+00    1.97634E+02
 1.22968E+00    1.91158E+02
 1.26664E+00    1.84214E+02
 1.30000E+00    1.76817E+02
 1.32672E+00    1.71732E+02
 1.32690E+00    1.71635E+02
 1.32712E+00    1.71556E+02
 1.35892E+00    1.64305E+02
 1.40000E+00    1.53914E+02
 1.43982E+00    1.46574E+02
 1.44787E+00    1.44452E+02
 1.45906E+00    1.42223E+02
 1.46319E+00    1.41459E+02
 1.46841E+00    1.39946E+02
 1.47405E+00    1.38788E+02
 1.48151E+00    1.37366E+02
 1.48198E+00    1.37099E+02
 1.50000E+00    1.32546E+02
 1.60000E+00    1.14773E+02
 1.70000E+00    9.80910E+01
 1.80000E+00    8.40073E+01
 1.90000E+00    7.19332E+01
 2.00000E+00    6.16780E+01
 2.25000E+00    4.38241E+01
 2.50000E+00    2.95417E+01
 2.75000E+00    2.10479E+01
 3.00000E+00    1.53685E+01
 3.50000E+00    7.84587E+00
 4.00000E+00    4.13673E+00
 4.50000E+00    2.36107E+00
 5.00000E+00    1.51491E+00
 5.50000E+00    1.10761E+00
 6.00000E+00    9.01599E-01
 6.50000E+00    7.86473E-01
 7.00000E+00    7.11557E-01
 7.50000E+00    6.54274E-01
 8.00000E+00    6.05128E-01
 8.50000E+00    5.60554E-01
 9.00000E+00    5.19572E-01
 9.50000E+00    4.82146E-01
 1.00000E+01    4.48340E-01
 1.05000E+01    4.18201E-01
 1.10000E+01    3.91484E-01
 1.15000E+01    3.67847E-01
 1.20000E+01    3.46840E-01
 1.25000E+01    3.28011E-01
 1.30000E+01    3.10962E-01
 1.35000E+01    2.95372E-01
 1.40000E+01    2.81005E-01
 1.45000E+01    2.67678E-01
 1.50000E+01    2.55232E-01
 1.55000E+01    2.43490E-01
 1.60000E+01    2.32365E-01
 1.65000E+01    2.21900E-01
 1.70000E+01    2.11962E-01
 1.75000E+01    2.02502E-01
 1.80000E+01    1.93467E-01
 1.85000E+01    1.84970E-01
 1.90000E+01    1.76967E-01
 1.95000E+01    1.69395E-01
 2.00000E+01    1.62289E-01
