# n + Sm147 : (n,n'03)  
# jendl4.0   N.Iwamoto,A.Zukeran               EVAL-Nov09
# uncertainties: n
# # energies =    86
#   E(MeV)       xs(mb) 
 7.21520E-01    0.00000E+00
 7.24943E-01    8.75274E+01
 8.00000E-01    2.27828E+02
 8.04687E-01    2.32046E+02
 8.14856E-01    2.40841E+02
 8.90069E-01    2.67186E+02
 9.00000E-01    2.71239E+02
 9.06179E-01    2.73738E+02
 9.29136E-01    2.81623E+02
 9.37996E-01    2.84787E+02
 9.84715E-01    2.70805E+02
 1.00000E+00    2.72469E+02
 1.02700E+00    2.76783E+02
 1.03778E+00    2.72675E+02
 1.05066E+00    2.69747E+02
 1.06154E+00    2.69726E+02
 1.07120E+00    2.70095E+02
 1.07639E+00    2.70378E+02
 1.08439E+00    2.66632E+02
 1.10000E+00    2.65201E+02
 1.11446E+00    2.65147E+02
 1.16998E+00    2.56630E+02
 1.17703E+00    2.53966E+02
 1.18105E+00    2.53383E+02
 1.18820E+00    2.50677E+02
 1.20000E+00    2.45371E+02
 1.22968E+00    2.40647E+02
 1.26664E+00    2.37433E+02
 1.30000E+00    2.34422E+02
 1.32672E+00    2.33035E+02
 1.32690E+00    2.33025E+02
 1.32712E+00    2.32177E+02
 1.35892E+00    2.24028E+02
 1.40000E+00    2.16505E+02
 1.43982E+00    2.11476E+02
 1.44787E+00    2.10664E+02
 1.45906E+00    2.08796E+02
 1.46319E+00    2.06376E+02
 1.46841E+00    2.05014E+02
 1.47405E+00    2.03232E+02
 1.48151E+00    1.99561E+02
 1.48198E+00    1.99422E+02
 1.50000E+00    1.95560E+02
 1.60000E+00    1.79989E+02
 1.70000E+00    1.64173E+02
 1.80000E+00    1.47794E+02
 1.90000E+00    1.31930E+02
 2.00000E+00    1.17292E+02
 2.25000E+00    8.95756E+01
 2.50000E+00    6.56696E+01
 2.75000E+00    5.11889E+01
 3.00000E+00    4.29775E+01
 3.50000E+00    3.04071E+01
 4.00000E+00    2.38833E+01
 4.50000E+00    2.01694E+01
 5.00000E+00    1.78178E+01
 5.50000E+00    1.62524E+01
 6.00000E+00    1.51973E+01
 6.50000E+00    1.45115E+01
 7.00000E+00    1.40480E+01
 7.50000E+00    1.36983E+01
 8.00000E+00    1.33699E+01
 8.50000E+00    1.30135E+01
 9.00000E+00    1.26198E+01
 9.50000E+00    1.21962E+01
 1.00000E+01    1.17640E+01
 1.05000E+01    1.13418E+01
 1.10000E+01    1.09438E+01
 1.15000E+01    1.05771E+01
 1.20000E+01    1.02426E+01
 1.25000E+01    9.93637E+00
 1.30000E+01    9.65225E+00
 1.35000E+01    9.38359E+00
 1.40000E+01    9.12496E+00
 1.45000E+01    8.87278E+00
 1.50000E+01    8.62544E+00
 1.55000E+01    8.38307E+00
 1.60000E+01    8.14637E+00
 1.65000E+01    7.91786E+00
 1.70000E+01    7.69937E+00
 1.75000E+01    7.49283E+00
 1.80000E+01    7.29963E+00
 1.85000E+01    7.12087E+00
 1.90000E+01    6.95681E+00
 1.95000E+01    6.80695E+00
 2.00000E+01    6.67059E+00
