# n + Sm147 : (n,n'09)  
# jendl4.0   N.Iwamoto,A.Zukeran               EVAL-Nov09
# uncertainties: n
# # energies =    78
#   E(MeV)       xs(mb) 
 9.29136E-01    0.00000E+00
 9.37996E-01    3.75329E+00
 9.84715E-01    7.56811E+00
 1.00000E+00    8.32252E+00
 1.02700E+00    9.55012E+00
 1.03778E+00    9.99889E+00
 1.05066E+00    1.05297E+01
 1.06154E+00    1.06492E+01
 1.07120E+00    1.07660E+01
 1.07639E+00    1.07927E+01
 1.08439E+00    1.09923E+01
 1.10000E+00    1.13145E+01
 1.11446E+00    1.16998E+01
 1.16998E+00    1.35047E+01
 1.17703E+00    1.37604E+01
 1.18105E+00    1.37549E+01
 1.18820E+00    1.39085E+01
 1.20000E+00    1.42280E+01
 1.22968E+00    1.51730E+01
 1.26664E+00    1.64073E+01
 1.30000E+00    1.75672E+01
 1.32672E+00    1.85314E+01
 1.32690E+00    1.85201E+01
 1.32712E+00    1.85198E+01
 1.35892E+00    1.92241E+01
 1.40000E+00    1.99900E+01
 1.43982E+00    2.08774E+01
 1.44787E+00    2.08548E+01
 1.45906E+00    2.10234E+01
 1.46319E+00    2.10961E+01
 1.46841E+00    2.10303E+01
 1.47405E+00    2.10796E+01
 1.48151E+00    2.11746E+01
 1.48198E+00    2.11311E+01
 1.50000E+00    2.09854E+01
 1.60000E+00    2.14503E+01
 1.70000E+00    2.07192E+01
 1.80000E+00    1.98567E+01
 1.90000E+00    1.88497E+01
 2.00000E+00    1.74685E+01
 2.25000E+00    1.40770E+01
 2.50000E+00    1.02518E+01
 2.75000E+00    7.69544E+00
 3.00000E+00    5.61254E+00
 3.50000E+00    2.95500E+00
 4.00000E+00    1.54445E+00
 4.50000E+00    8.30380E-01
 5.00000E+00    4.78895E-01
 5.50000E+00    3.11256E-01
 6.00000E+00    2.30639E-01
 6.50000E+00    1.89943E-01
 7.00000E+00    1.66991E-01
 7.50000E+00    1.51863E-01
 8.00000E+00    1.40185E-01
 8.50000E+00    1.30106E-01
 9.00000E+00    1.20926E-01
 9.50000E+00    1.12452E-01
 1.00000E+01    1.04788E-01
 1.05000E+01    9.79833E-02
 1.10000E+01    9.18769E-02
 1.15000E+01    8.65097E-02
 1.20000E+01    8.18529E-02
 1.25000E+01    7.76672E-02
 1.30000E+01    7.38730E-02
 1.35000E+01    7.03991E-02
 1.40000E+01    6.71886E-02
 1.45000E+01    6.41970E-02
 1.50000E+01    6.13883E-02
 1.55000E+01    5.78274E-02
 1.60000E+01    5.61135E-02
 1.65000E+01    5.39779E-02
 1.70000E+01    5.12700E-02
 1.75000E+01    4.84564E-02
 1.80000E+01    4.70951E-02
 1.85000E+01    4.54373E-02
 1.90000E+01    4.34601E-02
 1.95000E+01    4.12320E-02
 2.00000E+01    3.90900E-02
