# n + Sm147 :  n        
# jendl4.0   N.Iwamoto,A.Zukeran               EVAL-Nov09
# uncertainties: n
# # energies =   107
#   E(MeV)       xs(mb) 
 1.05000E-01    0.00000E+00
 1.10000E-01    1.15487E-02
 1.20000E-01    1.37526E-02
 1.22052E-01    1.41328E-02
 1.30000E-01    1.45166E-02
 1.40000E-01    1.51297E-02
 1.50000E-01    1.54698E-02
 1.60000E-01    1.56888E-02
 1.70000E-01    1.58871E-02
 1.80000E-01    1.60059E-02
 1.90000E-01    1.60842E-02
 1.98755E-01    1.61283E-02
 2.00000E-01    1.60306E-02
 2.25000E-01    7.80333E-02
 2.50000E-01    9.13697E-02
 2.75000E-01    9.92138E-02
 3.00000E-01    1.03895E-01
 4.00000E-01    3.33291E-01
 5.00000E-01    8.11906E-01
 6.00000E-01    1.60951E+00
 7.00000E-01    2.88034E+00
 7.21520E-01    3.70390E+00
 7.24943E-01    3.64240E+00
 8.00000E-01    4.25567E+00
 8.04687E-01    4.28365E+00
 8.14856E-01    5.03634E+00
 8.90069E-01    5.64128E+00
 9.00000E-01    5.68959E+00
 9.06179E-01    5.72231E+00
 9.29136E-01    6.69488E+00
 9.37996E-01    6.82874E+00
 9.84715E-01    6.97911E+00
 1.00000E+00    7.02771E+00
 1.02700E+00    8.13928E+00
 1.03778E+00    8.25852E+00
 1.05066E+00    8.32750E+00
 1.06154E+00    8.38918E+00
 1.07120E+00    8.42005E+00
 1.07639E+00    8.36081E+00
 1.08439E+00    8.25443E+00
 1.10000E+00    8.14005E+00
 1.11446E+00    8.83807E+00
 1.16998E+00    9.09948E+00
 1.17703E+00    9.03208E+00
 1.18105E+00    9.02880E+00
 1.18820E+00    8.95593E+00
 1.20000E+00    8.83438E+00
 1.22968E+00    9.71127E+00
 1.26664E+00    1.01566E+01
 1.30000E+00    1.01011E+01
 1.32672E+00    1.09798E+01
 1.32690E+00    1.09815E+01
 1.32712E+00    1.09718E+01
 1.35892E+00    1.12355E+01
 1.40000E+00    1.13270E+01
 1.43982E+00    1.25025E+01
 1.44787E+00    1.26390E+01
 1.45906E+00    1.26970E+01
 1.46319E+00    1.26909E+01
 1.46841E+00    1.27092E+01
 1.47405E+00    1.27312E+01
 1.48151E+00    1.27146E+01
 1.48198E+00    1.27122E+01
 1.50000E+00    1.27389E+01
 1.60000E+00    9.31247E+01
 1.70000E+00    2.59588E+02
 1.80000E+00    4.41254E+02
 1.90000E+00    6.27810E+02
 2.00000E+00    8.12958E+02
 2.25000E+00    1.19998E+03
 2.50000E+00    1.62032E+03
 2.75000E+00    1.89647E+03
 3.00000E+00    2.12121E+03
 3.50000E+00    2.36935E+03
 4.00000E+00    2.46062E+03
 4.50000E+00    2.47038E+03
 5.00000E+00    2.45120E+03
 5.50000E+00    2.42673E+03
 6.00000E+00    2.40810E+03
 6.50000E+00    2.39209E+03
 7.00000E+00    2.31739E+03
 7.50000E+00    2.18262E+03
 8.00000E+00    1.97710E+03
 8.50000E+00    1.70393E+03
 9.00000E+00    1.40124E+03
 9.50000E+00    1.13452E+03
 1.00000E+01    9.07025E+02
 1.05000E+01    7.21849E+02
 1.10000E+01    5.80140E+02
 1.15000E+01    4.75999E+02
 1.20000E+01    3.99979E+02
 1.25000E+01    3.43928E+02
 1.30000E+01    3.01888E+02
 1.35000E+01    2.69781E+02
 1.40000E+01    2.44790E+02
 1.45000E+01    2.24953E+02
 1.50000E+01    2.08786E+02
 1.55000E+01    1.95280E+02
 1.60000E+01    1.83549E+02
 1.65000E+01    1.74171E+02
 1.70000E+01    1.64956E+02
 1.75000E+01    1.57287E+02
 1.80000E+01    1.50234E+02
 1.85000E+01    1.43633E+02
 1.90000E+01    1.37901E+02
 1.95000E+01    1.31692E+02
 2.00000E+01    1.26572E+02
