# n + Sm147 : (n,el)    
# jendl4.0   N.Iwamoto,A.Zukeran               EVAL-Nov09
# uncertainties: n
# # energies =   171
#   E(MeV)       xs(mb) 
 1.00000E-11    1.13902E+04
 1.00000E-07    7.01519E+03
 4.13990E-07    6.78134E+03
 5.31580E-07    6.65911E+03
 6.82560E-07    6.50342E+03
 8.76420E-07    6.30569E+03
 1.12540E-06    6.05210E+03
 1.44500E-06    5.72665E+03
 1.85540E-06    5.30060E+03
 2.37240E-06    4.71894E+03
 3.05900E-06    2.08344E+04
 3.92790E-06    5.04669E+03
 5.04350E-06    3.80565E+03
 6.47600E-06    2.82924E+03
 8.31530E-06    1.78063E+03
 1.06770E-05    7.74859E+02
 1.37100E-05    1.70874E+04
 1.76030E-05    9.71009E+05
 2.26030E-05    1.04743E+04
 2.92030E-05    1.50874E+05
 3.72670E-05    2.23554E+05
 4.78510E-05    4.61450E+04
 6.14420E-05    1.04305E+04
 7.88930E-05    1.99001E+05
 1.01300E-04    1.77295E+05
 1.30070E-04    9.75790E+04
 1.67020E-04    1.11206E+05
 2.14450E-04    9.26510E+04
 2.75360E-04    2.43762E+04
 3.53580E-04    7.90597E+04
 4.54000E-04    8.53608E+04
 5.82950E-04    5.02331E+04
 7.48520E-04    8.56717E+04
 9.61120E-04    5.81832E+04
 1.23410E-03    4.78751E+04
 1.58460E-03    4.31027E+04
 2.03470E-03    4.00047E+04
 2.24870E-03    3.83308E+04
 2.48520E-03    3.71172E+04
 2.61260E-03    3.63264E+04
 2.74650E-03    3.51737E+04
 3.03540E-03    3.36850E+04
 3.35460E-03    3.22520E+04
 3.70740E-03    3.05499E+04
 4.30740E-03    2.80367E+04
 5.53080E-03    2.51647E+04
 7.10170E-03    2.25819E+04
 9.11880E-03    2.02689E+04
 1.17090E-02    1.82170E+04
 1.50340E-02    1.63718E+04
 1.93050E-02    1.51100E+04
 2.18750E-02    1.44912E+04
 2.35790E-02    1.41919E+04
 2.41760E-02    1.40449E+04
 2.47880E-02    1.38264E+04
 2.60580E-02    1.35823E+04
 2.70000E-02    1.33305E+04
 2.85000E-02    1.28832E+04
 3.18280E-02    1.24005E+04
 3.43070E-02    1.17832E+04
 4.08680E-02    1.10952E+04
 4.63090E-02    1.05643E+04
 5.24750E-02    1.01567E+04
 5.65620E-02    9.67816E+03
 6.73790E-02    9.24842E+03
 7.20000E-02    8.97269E+03
 7.95000E-02    8.75175E+03
 8.25000E-02    8.61763E+03
 8.65170E-02    8.34994E+03
 9.80370E-02    7.99380E+03
 1.11090E-01    7.77589E+03
 1.16790E-01    7.65324E+03
 1.22770E-01    7.42006E+03
 1.29070E-01    7.16871E+03
 1.35690E-01    7.01484E+03
 1.42640E-01    6.87551E+03
 1.49960E-01    6.74897E+03
 1.57640E-01    6.63470E+03
 1.65730E-01    6.54661E+03
 1.74220E-01    6.45820E+03
 1.83160E-01    6.37013E+03
 1.92550E-01    6.28768E+03
 2.02420E-01    6.20127E+03
 2.12800E-01    6.11370E+03
 2.23710E-01    6.03406E+03
 2.35180E-01    5.95152E+03
 2.47240E-01    5.86526E+03
 2.73240E-01    5.80477E+03
 2.87250E-01    5.77788E+03
 2.94520E-01    5.76732E+03
 2.97200E-01    5.76311E+03
 2.98500E-01    5.75806E+03
 3.01970E-01    5.72133E+03
 3.33730E-01    5.65139E+03
 3.68830E-01    5.60115E+03
 3.87740E-01    5.57042E+03
 4.07620E-01    5.57261E+03
 4.50490E-01    5.58725E+03
 4.97870E-01    5.59919E+03
 5.23400E-01    5.60769E+03
 5.50230E-01    5.61700E+03
 5.78440E-01    5.62800E+03
 6.08100E-01    5.63966E+03
 6.39280E-01    5.65192E+03
 6.72060E-01    5.66481E+03
 7.06510E-01    5.64059E+03
 7.42740E-01    5.58582E+03
 7.80820E-01    5.55269E+03
 8.20850E-01    5.49935E+03
 8.62940E-01    5.42955E+03
 9.07180E-01    5.35109E+03
 9.61640E-01    5.27982E+03
 1.00260E+00    5.18662E+03
 1.10800E+00    5.04292E+03
 1.16480E+00    4.95905E+03
 1.22460E+00    4.88788E+03
 1.28730E+00    4.82343E+03
 1.35340E+00    4.75818E+03
 1.42270E+00    4.69363E+03
 1.49570E+00    4.62989E+03
 1.57240E+00    4.56296E+03
 1.65300E+00    4.49263E+03
 1.73770E+00    4.41886E+03
 1.82680E+00    4.34269E+03
 1.92050E+00    4.26290E+03
 2.01900E+00    4.17904E+03
 2.12250E+00    4.09090E+03
 2.23130E+00    4.01349E+03
 2.30690E+00    3.96505E+03
 2.34570E+00    3.94035E+03
 2.36530E+00    3.92367E+03
 2.38520E+00    3.88133E+03
 2.46600E+00    3.79409E+03
 2.59240E+00    3.68474E+03
 2.72530E+00    3.57336E+03
 2.86500E+00    3.45792E+03
 3.01190E+00    3.33694E+03
 3.16640E+00    3.21816E+03
 3.32870E+00    3.03982E+03
 3.67880E+00    2.80651E+03
 4.06570E+00    2.58914E+03
 4.49330E+00    2.44020E+03
 4.72370E+00    2.35058E+03
 4.96590E+00    2.27054E+03
 5.22050E+00    2.20309E+03
 5.48810E+00    2.14633E+03
 5.76950E+00    2.10141E+03
 6.06530E+00    2.07431E+03
 6.37630E+00    2.05951E+03
 6.59240E+00    2.05853E+03
 6.70320E+00    2.06144E+03
 7.04690E+00    2.08041E+03
 7.40820E+00    2.11230E+03
 7.78800E+00    2.15818E+03
 8.18730E+00    2.21688E+03
 8.60710E+00    2.28395E+03
 9.04840E+00    2.35891E+03
 9.51230E+00    2.43781E+03
 1.00000E+01    2.51992E+03
 1.05130E+01    2.60182E+03
 1.10520E+01    2.68085E+03
 1.16180E+01    2.75468E+03
 1.22140E+01    2.82091E+03
 1.28400E+01    2.87713E+03
 1.34990E+01    2.91145E+03
 1.38400E+01    2.92994E+03
 1.41910E+01    2.94433E+03
 1.45500E+01    2.95458E+03
 1.49180E+01    2.96130E+03
 1.56830E+01    2.95617E+03
 1.64870E+01    2.93194E+03
