# n + Sm147 : (n,n'12)  
# jendl4.0   N.Iwamoto,A.Zukeran               EVAL-Nov09
# uncertainties: n
# # energies =    74
#   E(MeV)       xs(mb) 
 1.02700E+00    0.00000E+00
 1.03778E+00    6.07978E+01
 1.05066E+00    8.15381E+01
 1.06154E+00    9.30911E+01
 1.07120E+00    1.01272E+02
 1.07639E+00    1.04941E+02
 1.08439E+00    1.06494E+02
 1.10000E+00    1.12991E+02
 1.11446E+00    1.18471E+02
 1.16998E+00    1.30365E+02
 1.17703E+00    1.30960E+02
 1.18105E+00    1.31589E+02
 1.18820E+00    1.31935E+02
 1.20000E+00    1.29524E+02
 1.22968E+00    1.30627E+02
 1.26664E+00    1.33484E+02
 1.30000E+00    1.33846E+02
 1.32672E+00    1.34836E+02
 1.32690E+00    1.34843E+02
 1.32712E+00    1.34606E+02
 1.35892E+00    1.33110E+02
 1.40000E+00    1.32523E+02
 1.43982E+00    1.33276E+02
 1.44787E+00    1.33277E+02
 1.45906E+00    1.32591E+02
 1.46319E+00    1.31779E+02
 1.46841E+00    1.31383E+02
 1.47405E+00    1.31043E+02
 1.48151E+00    1.29897E+02
 1.48198E+00    1.29852E+02
 1.50000E+00    1.28921E+02
 1.60000E+00    1.25111E+02
 1.70000E+00    1.17018E+02
 1.80000E+00    1.06278E+02
 1.90000E+00    9.61778E+01
 2.00000E+00    8.68160E+01
 2.25000E+00    6.55358E+01
 2.50000E+00    4.45436E+01
 2.75000E+00    3.14305E+01
 3.00000E+00    2.11807E+01
 3.50000E+00    1.00647E+01
 4.00000E+00    4.83296E+00
 4.50000E+00    2.39046E+00
 5.00000E+00    1.25552E+00
 5.50000E+00    7.38858E-01
 6.00000E+00    5.02979E-01
 6.50000E+00    3.91076E-01
 7.00000E+00    3.32908E-01
 7.50000E+00    2.98027E-01
 8.00000E+00    2.73371E-01
 8.50000E+00    2.53358E-01
 9.00000E+00    2.35746E-01
 9.50000E+00    2.19751E-01
 1.00000E+01    2.05171E-01
 1.05000E+01    1.91963E-01
 1.10000E+01    1.80066E-01
 1.15000E+01    1.69415E-01
 1.20000E+01    1.59912E-01
 1.25000E+01    1.51416E-01
 1.30000E+01    1.43748E-01
 1.35000E+01    1.36759E-01
 1.40000E+01    1.30333E-01
 1.45000E+01    1.24374E-01
 1.50000E+01    1.18809E-01
 1.55000E+01    1.13654E-01
 1.60000E+01    1.08630E-01
 1.65000E+01    1.03971E-01
 1.70000E+01    9.95510E-02
 1.75000E+01    9.53325E-02
 1.80000E+01    9.12011E-02
 1.85000E+01    8.73503E-02
 1.90000E+01    8.37109E-02
 1.95000E+01    8.04438E-02
 2.00000E+01    7.69929E-02
