# n + Sm147 : (n,n'15)  
# jendl4.0   N.Iwamoto,A.Zukeran               EVAL-Nov09
# uncertainties: n
# # energies =    71
#   E(MeV)       xs(mb) 
 1.06154E+00    0.00000E+00
 1.07120E+00    7.32380E+00
 1.07639E+00    8.29964E+00
 1.08439E+00    9.74426E+00
 1.10000E+00    1.19527E+01
 1.11446E+00    1.36944E+01
 1.16998E+00    1.92826E+01
 1.17703E+00    1.98882E+01
 1.18105E+00    2.02042E+01
 1.18820E+00    2.07936E+01
 1.20000E+00    2.17631E+01
 1.22968E+00    2.40855E+01
 1.26664E+00    2.65409E+01
 1.30000E+00    2.84028E+01
 1.32672E+00    2.98248E+01
 1.32690E+00    2.97729E+01
 1.32712E+00    2.97550E+01
 1.35892E+00    3.04349E+01
 1.40000E+00    3.16420E+01
 1.43982E+00    3.30350E+01
 1.44787E+00    3.31648E+01
 1.45906E+00    3.33950E+01
 1.46319E+00    3.34604E+01
 1.46841E+00    3.34158E+01
 1.47405E+00    3.34597E+01
 1.48151E+00    3.35400E+01
 1.48198E+00    3.35083E+01
 1.50000E+00    3.34151E+01
 1.60000E+00    3.36458E+01
 1.70000E+00    3.28307E+01
 1.80000E+00    3.05259E+01
 1.90000E+00    2.82374E+01
 2.00000E+00    2.60595E+01
 2.25000E+00    2.10340E+01
 2.50000E+00    1.52090E+01
 2.75000E+00    1.14017E+01
 3.00000E+00    8.11829E+00
 3.50000E+00    4.21484E+00
 4.00000E+00    2.15764E+00
 4.50000E+00    1.11432E+00
 5.00000E+00    5.95730E-01
 5.50000E+00    3.46324E-01
 6.00000E+00    2.27560E-01
 6.50000E+00    1.70203E-01
 7.00000E+00    1.40747E-01
 7.50000E+00    1.23820E-01
 8.00000E+00    1.12526E-01
 8.50000E+00    1.03812E-01
 9.00000E+00    9.63896E-02
 9.50000E+00    8.97666E-02
 1.00000E+01    8.37690E-02
 1.05000E+01    7.83532E-02
 1.10000E+01    7.34957E-02
 1.15000E+01    6.91627E-02
 1.20000E+01    6.52970E-02
 1.25000E+01    6.18345E-02
 1.30000E+01    5.87092E-02
 1.35000E+01    5.58615E-02
 1.40000E+01    5.32431E-02
 1.45000E+01    5.08154E-02
 1.50000E+01    4.85476E-02
 1.55000E+01    4.64230E-02
 1.60000E+01    4.44077E-02
 1.65000E+01    4.24981E-02
 1.70000E+01    4.06873E-02
 1.75000E+01    3.89623E-02
 1.80000E+01    3.72940E-02
 1.85000E+01    3.57165E-02
 1.90000E+01    3.42256E-02
 1.95000E+01    3.28096E-02
 2.00000E+01    3.14748E-02
