# n + Sm147 : (n,n'01)  
# jendl4.0   N.Iwamoto,A.Zukeran               EVAL-Nov09
# uncertainties: n
# # energies =   104
#   E(MeV)       xs(mb) 
 1.22052E-01    0.00000E+00
 1.30000E-01    2.65296E+02
 1.40000E-01    3.28861E+02
 1.50000E-01    3.64964E+02
 1.60000E-01    3.90124E+02
 1.70000E-01    4.10548E+02
 1.80000E-01    4.27233E+02
 1.90000E-01    4.40672E+02
 1.98755E-01    4.50264E+02
 2.00000E-01    4.47020E+02
 2.25000E-01    4.60083E+02
 2.50000E-01    4.69157E+02
 2.75000E-01    4.86384E+02
 3.00000E-01    4.99702E+02
 4.00000E-01    5.37507E+02
 5.00000E-01    5.90939E+02
 6.00000E-01    6.17896E+02
 7.00000E-01    6.49640E+02
 7.21520E-01    6.56998E+02
 7.24943E-01    6.50131E+02
 8.00000E-01    6.46980E+02
 8.04687E-01    6.46631E+02
 8.14856E-01    6.40439E+02
 8.90069E-01    5.91950E+02
 9.00000E-01    5.89166E+02
 9.06179E-01    5.87509E+02
 9.29136E-01    5.58089E+02
 9.37996E-01    5.52525E+02
 9.84715E-01    5.25634E+02
 1.00000E+00    5.19492E+02
 1.02700E+00    5.10748E+02
 1.03778E+00    4.99420E+02
 1.05066E+00    4.92607E+02
 1.06154E+00    4.84885E+02
 1.07120E+00    4.78648E+02
 1.07639E+00    4.72187E+02
 1.08439E+00    4.61358E+02
 1.10000E+00    4.41485E+02
 1.11446E+00    4.31228E+02
 1.16998E+00    3.94122E+02
 1.17703E+00    3.90153E+02
 1.18105E+00    3.87861E+02
 1.18820E+00    3.83890E+02
 1.20000E+00    3.73818E+02
 1.22968E+00    3.58007E+02
 1.26664E+00    3.40882E+02
 1.30000E+00    3.22691E+02
 1.32672E+00    3.11433E+02
 1.32690E+00    3.11293E+02
 1.32712E+00    3.11018E+02
 1.35892E+00    2.93965E+02
 1.40000E+00    2.72199E+02
 1.43982E+00    2.57223E+02
 1.44787E+00    2.53729E+02
 1.45906E+00    2.49155E+02
 1.46319E+00    2.47294E+02
 1.46841E+00    2.44761E+02
 1.47405E+00    2.42539E+02
 1.48151E+00    2.39379E+02
 1.48198E+00    2.39032E+02
 1.50000E+00    2.31382E+02
 1.60000E+00    1.97484E+02
 1.70000E+00    1.66114E+02
 1.80000E+00    1.40155E+02
 1.90000E+00    1.18370E+02
 2.00000E+00    1.00186E+02
 2.25000E+00    6.91861E+01
 2.50000E+00    4.54291E+01
 2.75000E+00    3.16877E+01
 3.00000E+00    2.10688E+01
 3.50000E+00    9.77148E+00
 4.00000E+00    4.46467E+00
 4.50000E+00    2.05361E+00
 5.00000E+00    9.78736E-01
 5.50000E+00    5.10644E-01
 6.00000E+00    3.06124E-01
 6.50000E+00    2.14283E-01
 7.00000E+00    1.69724E-01
 7.50000E+00    1.45152E-01
 8.00000E+00    1.29262E-01
 8.50000E+00    1.17417E-01
 9.00000E+00    1.07722E-01
 9.50000E+00    9.94236E-02
 1.00000E+01    9.21869E-02
 1.05000E+01    8.58575E-02
 1.10000E+01    8.03083E-02
 1.15000E+01    7.54283E-02
 1.20000E+01    7.10783E-02
 1.25000E+01    6.71833E-02
 1.30000E+01    6.36604E-02
 1.35000E+01    6.04417E-02
 1.40000E+01    5.74779E-02
 1.45000E+01    5.47307E-02
 1.50000E+01    5.21668E-02
 1.55000E+01    4.97716E-02
 1.60000E+01    4.75014E-02
 1.65000E+01    4.53652E-02
 1.70000E+01    4.33359E-02
 1.75000E+01    4.14039E-02
 1.80000E+01    3.95588E-02
 1.85000E+01    3.78237E-02
 1.90000E+01    3.61987E-02
 1.95000E+01    3.46639E-02
 2.00000E+01    3.32240E-02
