# n + Ni 58 : (n,2p)    
# jendl.ad   S.IIJIMA                          EVAL-MAR87
# uncertainties: n
# # energies =   102
#   E(MeV)       xs(mb) 
 1.05000E+01    0.00000E+00
 1.10000E+01    1.00000E-01
 1.10312E+01    1.07494E-01
 1.10615E+01    1.15289E-01
 1.10908E+01    1.23380E-01
 1.11193E+01    1.31758E-01
 1.11468E+01    1.40417E-01
 1.11734E+01    1.49347E-01
 1.11993E+01    1.58540E-01
 1.12243E+01    1.67985E-01
 1.12485E+01    1.77670E-01
 1.12720E+01    1.87586E-01
 1.12948E+01    1.97719E-01
 1.13168E+01    2.08056E-01
 1.13382E+01    2.18586E-01
 1.13588E+01    2.29295E-01
 1.13789E+01    2.40169E-01
 1.13983E+01    2.51195E-01
 1.14359E+01    2.74019E-01
 1.14712E+01    2.97296E-01
 1.15042E+01    3.20912E-01
 1.15352E+01    3.44752E-01
 1.15642E+01    3.68708E-01
 1.15915E+01    3.92676E-01
 1.16170E+01    4.16560E-01
 1.16410E+01    4.40269E-01
 1.16634E+01    4.63720E-01
 1.16844E+01    4.86839E-01
 1.17042E+01    5.09558E-01
 1.17411E+01    5.55053E-01
 1.17735E+01    5.98181E-01
 1.18018E+01    6.38659E-01
 1.18266E+01    6.76317E-01
 1.18483E+01    7.11086E-01
 1.18862E+01    7.76286E-01
 1.19146E+01    8.29081E-01
 1.19360E+01    8.71020E-01
 1.19680E+01    9.37939E-01
 1.20000E+01    1.01000E+00
 1.20312E+01    1.05708E+00
 1.20918E+01    1.15463E+00
 1.21486E+01    1.25425E+00
 1.22018E+01    1.35544E+00
 1.22517E+01    1.45770E+00
 1.22984E+01    1.56056E+00
 1.23423E+01    1.66358E+00
 1.23834E+01    1.76633E+00
 1.24219E+01    1.86841E+00
 1.24581E+01    1.96947E+00
 1.24919E+01    2.06917E+00
 1.25237E+01    2.16721E+00
 1.25832E+01    2.36374E+00
 1.26353E+01    2.55027E+00
 1.26809E+01    2.72552E+00
 1.27208E+01    2.88871E+00
 1.27557E+01    3.03950E+00
 1.28168E+01    3.32257E+00
 1.28626E+01    3.55204E+00
 1.28969E+01    3.73449E+00
 1.29485E+01    4.02588E+00
 1.30000E+01    4.34000E+00
 1.30625E+01    4.64714E+00
 1.31172E+01    4.93367E+00
 1.31650E+01    5.19885E+00
 1.32069E+01    5.44253E+00
 1.32802E+01    5.89680E+00
 1.33351E+01    6.26221E+00
 1.33764E+01    6.55105E+00
 1.34382E+01    7.00948E+00
 1.35000E+01    7.50000E+00
 1.35625E+01    7.93714E+00
 1.36172E+01    8.34048E+00
 1.37129E+01    9.09628E+00
 1.37847E+01    9.70775E+00
 1.38385E+01    1.01932E+01
 1.39192E+01    1.09672E+01
 1.40000E+01    1.18000E+01
 1.40625E+01    1.23601E+01
 1.41719E+01    1.34049E+01
 1.42539E+01    1.42462E+01
 1.43154E+01    1.49115E+01
 1.44077E+01    1.59683E+01
 1.45000E+01    1.71000E+01
 1.46250E+01    1.84751E+01
 1.47188E+01    1.95785E+01
 1.48594E+01    2.13583E+01
 1.50000E+01    2.33000E+01
 1.51250E+01    2.46531E+01
 1.52344E+01    2.59014E+01
 1.54258E+01    2.82398E+01
 1.55693E+01    3.01312E+01
 1.56770E+01    3.16325E+01
 1.58385E+01    3.40257E+01
 1.60000E+01    3.66000E+01
 1.62500E+01    3.92687E+01
 1.64375E+01    4.13971E+01
 1.67188E+01    4.48080E+01
 1.70000E+01    4.85000E+01
 1.75000E+01    5.27167E+01
 1.80000E+01    5.73000E+01
 1.90000E+01    6.24000E+01
 2.00000E+01    6.44000E+01
