# n + Ni 58 : (n,np)    
# jendl.ad   S.IIJIMA                          EVAL-MAR87
# uncertainties: n
# # energies =   113
#   E(MeV)       xs(mb) 
 9.00000E+00    0.00000E+00
 9.25000E+00    7.00000E-01
 9.25781E+00    7.39185E-01
 9.26538E+00    7.79236E-01
 9.27271E+00    8.20104E-01
 9.27981E+00    8.61737E-01
 9.28670E+00    9.04084E-01
 9.29336E+00    9.47090E-01
 9.29982E+00    9.90703E-01
 9.31233E+00    1.08100E+00
 9.32406E+00    1.17312E+00
 9.33506E+00    1.26659E+00
 9.34536E+00    1.36097E+00
 9.35503E+00    1.45584E+00
 9.36409E+00    1.55077E+00
 9.37259E+00    1.64538E+00
 9.38055E+00    1.73932E+00
 9.38801E+00    1.83225E+00
 9.39501E+00    1.92387E+00
 9.40158E+00    2.01393E+00
 9.41388E+00    2.19430E+00
 9.42464E+00    2.36533E+00
 9.43406E+00    2.52588E+00
 9.44230E+00    2.67528E+00
 9.44952E+00    2.81323E+00
 9.46214E+00    3.07198E+00
 9.47160E+00    3.28155E+00
 9.47870E+00    3.44806E+00
 9.48935E+00    3.71379E+00
 9.50000E+00    4.00000E+00
 9.51562E+00    4.26107E+00
 9.53027E+00    4.52127E+00
 9.54401E+00    4.77962E+00
 9.55688E+00    5.03522E+00
 9.56895E+00    5.28725E+00
 9.58027E+00    5.53496E+00
 9.60148E+00    6.03114E+00
 9.62005E+00    6.50165E+00
 9.63629E+00    6.94336E+00
 9.65051E+00    7.35441E+00
 9.66294E+00    7.73398E+00
 9.68471E+00    8.44599E+00
 9.70103E+00    9.02269E+00
 9.71327E+00    9.48092E+00
 9.73164E+00    1.02122E+01
 9.75000E+00    1.10000E+01
 9.78125E+00    1.19542E+01
 9.80859E+00    1.28568E+01
 9.83252E+00    1.37023E+01
 9.85345E+00    1.44875E+01
 9.87177E+00    1.52115E+01
 9.90383E+00    1.65666E+01
 9.92787E+00    1.76615E+01
 9.94590E+00    1.85300E+01
 9.97295E+00    1.99133E+01
 1.00000E+01    2.14000E+01
 1.00312E+01    2.27261E+01
 1.00605E+01    2.40438E+01
 1.00880E+01    2.53485E+01
 1.01138E+01    2.66359E+01
 1.01379E+01    2.79021E+01
 1.01832E+01    3.04408E+01
 1.02228E+01    3.28509E+01
 1.02574E+01    3.51158E+01
 1.02877E+01    3.72253E+01
 1.03143E+01    3.91749E+01
 1.03607E+01    4.28354E+01
 1.03955E+01    4.58035E+01
 1.04216E+01    4.81638E+01
 1.04608E+01    5.19343E+01
 1.05000E+01    5.60000E+01
 1.05625E+01    6.09310E+01
 1.06172E+01    6.56006E+01
 1.06650E+01    6.99791E+01
 1.07069E+01    7.40494E+01
 1.07436E+01    7.78046E+01
 1.08077E+01    8.48403E+01
 1.08557E+01    9.05315E+01
 1.08918E+01    9.50491E+01
 1.09459E+01    1.02252E+02
 1.10000E+01    1.10000E+02
 1.10625E+01    1.18535E+02
 1.11172E+01    1.26545E+02
 1.11650E+01    1.33997E+02
 1.12069E+01    1.40876E+02
 1.12802E+01    1.53774E+02
 1.13351E+01    1.64218E+02
 1.13764E+01    1.72513E+02
 1.14382E+01    1.85749E+02
 1.15000E+01    2.00000E+02
 1.16250E+01    2.17551E+02
 1.17188E+01    2.31719E+02
 1.17891E+01    2.42946E+02
 1.18945E+01    2.60816E+02
 1.20000E+01    2.80000E+02
 1.21250E+01    2.98570E+02
 1.22188E+01    3.13301E+02
 1.23594E+01    3.36771E+02
 1.25000E+01    3.62000E+02
 1.26250E+01    3.79013E+02
 1.28125E+01    4.06042E+02
 1.30000E+01    4.35000E+02
 1.32500E+01    4.66369E+02
 1.35000E+01    5.00000E+02
 1.37500E+01    5.29150E+02
 1.40000E+01    5.60000E+02
 1.45000E+01    6.12000E+02
 1.50000E+01    6.68000E+02
 1.60000E+01    7.23000E+02
 1.70000E+01    7.56000E+02
 1.80000E+01    7.72000E+02
 1.90000E+01    7.77000E+02
 2.00000E+01    7.73000E+02
