# n + Yb168 : (n,g)     
# endfb8.0   S.Kunieda, A.Ichihara, K.Shibata+ EVAL-FEB10
# uncertainties: n
# # energies =    69
#   E(MeV)       xs(mb) 
 1.00000E-10    1.48126E+07
 5.00000E-09    4.12050E+06
 1.00000E-08    3.17594E+06
 1.50000E-08    2.71511E+06
 2.00000E-08    2.43073E+06
 2.50000E-08    2.23480E+06
 3.00000E-08    2.09086E+06
 3.50000E-08    1.96333E+06
 4.20000E-08    1.84473E+06
 5.00000E-08    1.75206E+06
 5.80000E-08    1.68040E+06
 6.70000E-08    1.61570E+06
 8.00000E-08    1.55704E+06
 1.00000E-07    1.52441E+06
 1.40000E-07    1.56868E+06
 1.80000E-07    1.69769E+06
 2.20000E-07    1.88162E+06
 2.50000E-07    2.10484E+06
 2.80000E-07    2.35042E+06
 3.00000E-07    2.59890E+06
 3.20000E-07    2.99793E+06
 3.50000E-07    3.95230E+06
 4.00000E-07    8.71614E+06
 5.00000E-07    6.99328E+07
 6.25000E-07    2.21748E+07
 7.80000E-07    2.86330E+06
 8.50000E-07    1.61387E+06
 9.10000E-07    1.12464E+06
 9.50000E-07    9.23265E+05
 9.72000E-07    8.07670E+05
 9.96000E-07    7.07739E+05
 1.02000E-06    6.23087E+05
 1.04500E-06    5.49510E+05
 1.07100E-06    4.86568E+05
 1.09700E-06    4.33441E+05
 1.12300E-06    3.87452E+05
 1.15000E-06    2.81736E+05
 1.30000E-06    1.62001E+05
 1.50000E-06    6.98413E+04
 2.10000E-06    2.69351E+04
 2.60000E-06    1.36007E+04
 3.30000E-06    7.31004E+03
 4.00000E-06    5.92034E+03
 9.87700E-06    1.46692E+03
 1.59680E-05    2.93972E+05
 2.77000E-05    8.08863E+02
 4.80520E-05    3.51804E+01
 7.55014E-05    1.51841E+01
 1.48728E-04    2.52073E+04
 3.67262E-04    1.49276E+04
 9.06898E-04    8.79417E+03
 1.42510E-03    6.25306E+03
 2.23945E-03    4.45800E+03
 3.51910E-03    3.20097E+03
 5.53000E-03    2.32374E+03
 9.11800E-03    1.75347E+03
 1.50300E-02    1.37738E+03
 2.47800E-02    1.12421E+03
 4.08500E-02    9.50346E+02
 6.73400E-02    8.05149E+02
 1.11000E-01    6.20615E+02
 1.83000E-01    5.15535E+02
 3.02000E-01    4.83607E+02
 5.00000E-01    5.11128E+02
 8.21000E-01    5.91194E+02
 1.35300E+00    5.10238E+02
 2.23100E+00    3.66454E+02
 3.67900E+00    1.41325E+02
 6.06500E+00    1.95313E+01
