# n + Yb168 : (n,xd)    
# endfb8.0   S.Kunieda, A.Ichihara, K.Shibata+ EVAL-FEB10
# 
# # energies =    76
#   E(MeV)        xs(mb) 
 8.82569E-02    0.00000E+00
 9.00000E-02    0.00000E+00
 1.00000E-01    0.00000E+00
 1.20000E-01    0.00000E+00
 1.40000E-01    0.00000E+00
 1.60000E-01    0.00000E+00
 1.80000E-01    0.00000E+00
 2.00000E-01    0.00000E+00
 2.50000E-01    0.00000E+00
 2.88272E-01    0.00000E+00
 3.00000E-01    0.00000E+00
 3.50000E-01    0.00000E+00
 4.00000E-01    0.00000E+00
 4.50000E-01    0.00000E+00
 5.00000E-01    0.00000E+00
 5.50000E-01    0.00000E+00
 5.88765E-01    0.00000E+00
 6.00000E-01    0.00000E+00
 6.50000E-01    0.00000E+00
 7.00000E-01    0.00000E+00
 7.50000E-01    0.00000E+00
 8.00000E-01    0.00000E+00
 8.50000E-01    0.00000E+00
 9.00000E-01    0.00000E+00
 9.50000E-01    0.00000E+00
 9.75846E-01    0.00000E+00
 9.89759E-01    0.00000E+00
 1.00000E+00    0.00000E+00
 1.07336E+00    0.00000E+00
 1.10459E+00    0.00000E+00
 1.16093E+00    0.00000E+00
 1.16797E+00    0.00000E+00
 1.17824E+00    0.00000E+00
 1.20000E+00    0.00000E+00
 1.20419E+00    0.00000E+00
 1.23839E+00    0.00000E+00
 1.24059E+00    0.00000E+00
 1.28467E+00    0.00000E+00
 1.29473E+00    0.00000E+00
 1.40000E+00    0.00000E+00
 1.60000E+00    0.00000E+00
 1.80000E+00    0.00000E+00
 2.00000E+00    0.00000E+00
 2.20000E+00    0.00000E+00
 2.40000E+00    0.00000E+00
 2.60000E+00    0.00000E+00
 2.80000E+00    0.00000E+00
 3.00000E+00    0.00000E+00
 3.25000E+00    0.00000E+00
 3.50000E+00    0.00000E+00
 3.75000E+00    0.00000E+00
 4.00000E+00    0.00000E+00
 4.25000E+00    0.00000E+00
 4.50000E+00    0.00000E+00
 4.75000E+00    0.00000E+00
 5.00000E+00    0.00000E+00
 5.50000E+00    0.00000E+00
 6.00000E+00    0.00000E+00
 6.50000E+00    0.00000E+00
 7.00000E+00    0.00000E+00
 7.50000E+00    0.00000E+00
 8.00000E+00    0.00000E+00
 8.50000E+00    8.72000E-07
 9.00000E+00    3.55400E-06
 9.50000E+00    1.52700E-04
 1.00000E+01    6.54700E-04
 1.10000E+01    1.15800E-02
 1.20000E+01    9.37500E-02
 1.30000E+01    4.35700E-01
 1.40000E+01    1.31300E+00
 1.50000E+01    2.87500E+00
 1.60000E+01    5.04800E+00
 1.70000E+01    7.66200E+00
 1.80000E+01    1.05602E+01
 1.90000E+01    1.36040E+01
 2.00000E+01    1.67126E+01
