# n + Ba134 : (n,n')    
# jendl.ad   N.Iwamoto                         EVAL-Apr14
# uncertainties: n
# # energies =   113
#   E(MeV)       xs(mb) 
 1.05000E-01    0.00000E+00
 1.10000E-01    5.27102E-04
 1.20000E-01    6.62609E-04
 1.30000E-01    7.14005E-04
 1.40000E-01    7.47308E-04
 1.50000E-01    7.74069E-04
 1.60000E-01    8.00353E-04
 1.70000E-01    8.31951E-04
 1.80000E-01    8.61330E-04
 1.90000E-01    8.87886E-04
 2.00000E-01    9.11074E-04
 2.25000E-01    4.87824E-03
 2.50000E-01    5.48822E-03
 2.75000E-01    6.12796E-03
 3.00000E-01    6.71778E-03
 4.00000E-01    2.36504E-02
 5.00000E-01    6.30057E-02
 6.00000E-01    1.34160E-01
 6.09277E-01    1.62209E-01
 7.00000E-01    6.84069E+02
 8.00000E-01    8.99801E+02
 9.00000E-01    1.05172E+03
 1.00000E+00    1.17504E+03
 1.10000E+00    1.26560E+03
 1.17677E+00    1.32482E+03
 1.20000E+00    1.42479E+03
 1.30000E+00    1.55585E+03
 1.40000E+00    1.62285E+03
 1.41114E+00    1.62896E+03
 1.50000E+00    1.69136E+03
 1.60000E+00    1.74023E+03
 1.65572E+00    1.75930E+03
 1.70000E+00    1.79731E+03
 1.77382E+00    1.83191E+03
 1.80000E+00    1.85544E+03
 1.90000E+00    1.89578E+03
 1.98476E+00    1.92166E+03
 2.00000E+00    1.92849E+03
 2.00131E+00    1.92895E+03
 2.04453E+00    1.94416E+03
 2.10402E+00    1.98291E+03
 2.13416E+00    2.00815E+03
 2.17595E+00    2.03272E+03
 2.18092E+00    2.03726E+03
 2.18093E+00    2.03726E+03
 2.22796E+00    2.06406E+03
 2.25000E+00    2.07435E+03
 2.26190E+00    2.07965E+03
 2.27194E+00    2.08493E+03
 2.28868E+00    2.09431E+03
 2.29704E+00    2.09821E+03
 2.30255E+00    2.10289E+03
 2.30256E+00    2.10291E+03
 2.31702E+00    2.11136E+03
 2.32841E+00    2.11738E+03
 2.35235E+00    2.13587E+03
 2.35442E+00    2.13904E+03
 2.38888E+00    2.16467E+03
 2.39501E+00    2.17088E+03
 2.39703E+00    2.17240E+03
 2.48284E+00    2.21862E+03
 2.48818E+00    2.22260E+03
 2.49767E+00    2.22777E+03
 2.49902E+00    2.22861E+03
 2.50000E+00    2.22934E+03
 2.50717E+00    2.23307E+03
 2.50718E+00    2.23308E+03
 2.52514E+00    2.24223E+03
 2.55038E+00    2.25355E+03
 2.55602E+00    2.25583E+03
 2.58403E+00    2.26895E+03
 2.59024E+00    2.27270E+03
 2.59370E+00    2.27512E+03
 2.61946E+00    2.28866E+03
 2.67624E+00    2.31184E+03
 2.68193E+00    2.31450E+03
 2.69793E+00    2.32053E+03
 2.75000E+00    2.33573E+03
 3.00000E+00    2.38937E+03
 3.50000E+00    2.44881E+03
 4.00000E+00    2.46502E+03
 4.50000E+00    2.45383E+03
 5.00000E+00    2.43114E+03
 5.50000E+00    2.40488E+03
 6.00000E+00    2.38102E+03
 6.50000E+00    2.36108E+03
 7.00000E+00    2.34453E+03
 7.50000E+00    2.33073E+03
 8.00000E+00    2.31792E+03
 8.50000E+00    2.30526E+03
 9.00000E+00    2.29180E+03
 9.50000E+00    2.27785E+03
 1.00000E+01    2.16209E+03
 1.05000E+01    1.78385E+03
 1.10000E+01    1.38801E+03
 1.15000E+01    1.07793E+03
 1.20000E+01    8.57393E+02
 1.25000E+01    7.03479E+02
 1.30000E+01    5.95363E+02
 1.35000E+01    5.18328E+02
 1.40000E+01    4.62534E+02
 1.45000E+01    4.21315E+02
 1.50000E+01    3.91669E+02
 1.55000E+01    3.66156E+02
 1.60000E+01    3.46455E+02
 1.65000E+01    3.29846E+02
 1.70000E+01    3.15004E+02
 1.75000E+01    3.02701E+02
 1.80000E+01    2.91300E+02
 1.85000E+01    2.80750E+02
 1.90000E+01    2.70821E+02
 1.95000E+01    2.62419E+02
 2.00000E+01    2.54284E+02
