# n + Ba134 : (n,p)g    
# jendl.ad   N.Iwamoto                         EVAL-Apr14
# uncertainties: n
# # energies =    63
#   E(MeV)       xs(mb) 
 1.28595E+00    0.00000E+00
 1.42574E+00    7.11860E-14
 2.29704E+00    5.14880E-13
 2.30256E+00    5.86050E-13
 2.31702E+00    1.12760E-12
 2.32841E+00    1.47800E-12
 2.35235E+00    2.57990E-12
 2.35442E+00    3.39530E-12
 2.38888E+00    7.45900E-12
 2.39501E+00    8.53830E-12
 2.39703E+00    8.92870E-12
 2.48284E+00    5.62810E-11
 2.48818E+00    6.31220E-11
 2.49767E+00    7.72660E-11
 2.49902E+00    7.92110E-11
 2.50000E+00    8.03360E-11
 2.50718E+00    9.18520E-11
 2.52514E+00    1.28410E-10
 2.55038E+00    2.04040E-10
 2.55602E+00    2.26030E-10
 2.58403E+00    3.72710E-10
 2.59024E+00    4.15590E-10
 2.59370E+00    4.41250E-10
 2.61946E+00    6.83290E-10
 2.67624E+00    1.72800E-09
 2.68193E+00    1.89020E-09
 2.69793E+00    2.42120E-09
 2.75000E+00    5.28750E-09
 3.00000E+00    1.40050E-07
 3.50000E+00    1.52326E-05
 4.00000E+00    3.43563E-04
 4.50000E+00    2.95559E-03
 5.00000E+00    1.31530E-02
 5.50000E+00    3.82930E-02
 6.00000E+00    8.15189E-02
 6.50000E+00    1.38057E-01
 7.00000E+00    1.97923E-01
 7.50000E+00    2.52730E-01
 8.00000E+00    3.01464E-01
 8.50000E+00    3.50309E-01
 9.00000E+00    4.08825E-01
 9.50000E+00    4.87766E-01
 1.00000E+01    5.97587E-01
 1.05000E+01    7.48119E-01
 1.10000E+01    9.47772E-01
 1.15000E+01    1.20300E+00
 1.20000E+01    1.51694E+00
 1.25000E+01    1.88859E+00
 1.30000E+01    2.31296E+00
 1.35000E+01    2.78250E+00
 1.40000E+01    3.28839E+00
 1.45000E+01    3.81944E+00
 1.50000E+01    4.36764E+00
 1.55000E+01    4.92055E+00
 1.60000E+01    5.47728E+00
 1.65000E+01    5.97939E+00
 1.70000E+01    6.47218E+00
 1.75000E+01    6.87658E+00
 1.80000E+01    7.26529E+00
 1.85000E+01    7.57865E+00
 1.90000E+01    7.83266E+00
 1.95000E+01    8.03811E+00
 2.00000E+01    8.17595E+00
