# n + Ba134 : (n,p)     
# jendl.ad   N.Iwamoto                         EVAL-Apr14
# uncertainties: n
# # energies =   102
#   E(MeV)       xs(mb) 
 1.28595E+00    0.00000E+00
 1.29728E+00    5.76960E-15
 1.34644E+00    3.08040E-14
 1.42574E+00    7.11860E-14
 1.46106E+00    8.97020E-14
 1.46369E+00    9.10810E-14
 1.46392E+00    9.12010E-14
 1.47765E+00    9.83990E-14
 1.48103E+00    1.00170E-13
 1.48523E+00    1.02370E-13
 1.49708E+00    1.08590E-13
 1.52205E+00    1.21680E-13
 1.54500E+00    1.33710E-13
 1.55563E+00    1.39280E-13
 1.55935E+00    1.41230E-13
 1.57911E+00    1.51590E-13
 1.63291E+00    1.79790E-13
 1.66590E+00    1.97090E-13
 1.67182E+00    2.00190E-13
 1.72340E+00    2.27230E-13
 1.73958E+00    2.35710E-13
 1.74078E+00    2.36340E-13
 1.74346E+00    2.37750E-13
 1.77325E+00    2.53360E-13
 1.79258E+00    2.63500E-13
 1.80919E+00    2.72200E-13
 1.82968E+00    2.82950E-13
 1.86108E+00    2.99410E-13
 1.86945E+00    3.03790E-13
 1.87453E+00    3.06460E-13
 1.90359E+00    3.21690E-13
 1.91264E+00    3.26440E-13
 1.91466E+00    3.27490E-13
 1.93148E+00    3.36310E-13
 1.93477E+00    3.38040E-13
 1.94418E+00    3.42970E-13
 1.95596E+00    3.49150E-13
 1.96705E+00    3.54960E-13
 1.97178E+00    3.57440E-13
 1.97561E+00    3.59450E-13
 1.97977E+00    3.61630E-13
 2.29704E+00    5.27950E-13
 2.30256E+00    5.99200E-13
 2.31702E+00    1.14100E-12
 2.32841E+00    1.49150E-12
 2.35235E+00    2.59380E-12
 2.35442E+00    3.40920E-12
 2.38888E+00    7.47350E-12
 2.39501E+00    8.55290E-12
 2.39703E+00    8.94320E-12
 2.48284E+00    5.62970E-11
 2.48818E+00    6.31400E-11
 2.49767E+00    7.72880E-11
 2.49902E+00    7.92340E-11
 2.50000E+00    8.03600E-11
 2.50718E+00    9.18790E-11
 2.52514E+00    1.28450E-10
 2.55038E+00    2.04110E-10
 2.55602E+00    2.26160E-10
 2.58403E+00    3.72950E-10
 2.59024E+00    4.15870E-10
 2.59370E+00    4.41540E-10
 2.61946E+00    6.83810E-10
 2.67624E+00    1.72970E-09
 2.68193E+00    1.89220E-09
 2.69793E+00    2.42390E-09
 2.75000E+00    5.29490E-09
 3.00000E+00    1.40510E-07
 3.50000E+00    1.53831E-05
 4.00000E+00    3.50499E-04
 4.50000E+00    3.05091E-03
 5.00000E+00    1.37364E-02
 5.50000E+00    4.04582E-02
 6.00000E+00    8.71818E-02
 6.50000E+00    1.49708E-01
 7.00000E+00    2.18334E-01
 7.50000E+00    2.85031E-01
 8.00000E+00    3.49944E-01
 8.50000E+00    4.21530E-01
 9.00000E+00    5.12644E-01
 9.50000E+00    6.38044E-01
 1.00000E+01    8.12638E-01
 1.05000E+01    1.05081E+00
 1.10000E+01    1.36529E+00
 1.15000E+01    1.76615E+00
 1.20000E+01    2.25900E+00
 1.25000E+01    2.84382E+00
 1.30000E+01    3.51483E+00
 1.35000E+01    4.26188E+00
 1.40000E+01    5.07190E+00
 1.45000E+01    5.92977E+00
 1.50000E+01    6.81777E+00
 1.55000E+01    7.70983E+00
 1.60000E+01    8.60829E+00
 1.65000E+01    9.46070E+00
 1.70000E+01    1.02638E+01
 1.75000E+01    1.09450E+01
 1.80000E+01    1.15927E+01
 1.85000E+01    1.21484E+01
 1.90000E+01    1.25490E+01
 1.95000E+01    1.28944E+01
 2.00000E+01    1.31614E+01
