# n + Nb 93 : (n,xa)    
# endfb8.0   M.Chadwick,P.Young,D.L.Smith      EVAL-DEC97
# 
# # energies =   156
#   E(MeV)        xs(mb) 
 3.10600E-02    3.63444E-04
 4.00000E-02    4.98489E-04
 5.00000E-02    6.49547E-04
 6.00000E-02    8.00604E-04
 8.00000E-02    1.10272E-03
 1.00000E-01    1.40483E-03
 1.50000E-01    2.16012E-03
 2.00000E-01    2.91541E-03
 3.00000E-01    4.42598E-03
 4.00000E-01    5.93656E-03
 5.00000E-01    7.44713E-03
 6.00000E-01    8.95770E-03
 6.87300E-01    1.02764E-02
 7.00000E-01    1.04683E-02
 7.20000E-01    1.07704E-02
 7.40000E-01    1.10725E-02
 7.52000E-01    1.12538E-02
 7.60000E-01    1.13746E-02
 7.80000E-01    1.16767E-02
 8.00000E-01    1.19789E-02
 8.09600E-01    1.21239E-02
 8.16700E-01    1.22311E-02
 8.20000E-01    1.22810E-02
 8.40000E-01    1.25831E-02
 8.60000E-01    1.28852E-02
 8.80000E-01    1.31873E-02
 9.00000E-01    1.34894E-02
 9.20000E-01    1.37915E-02
 9.40000E-01    1.40937E-02
 9.60000E-01    1.43958E-02
 9.60200E-01    1.43988E-02
 9.80000E-01    1.46979E-02
 9.89500E-01    1.48414E-02
 1.00000E+00    1.50000E-02
 1.09200E+00    1.77600E-02
 1.10000E+00    1.80000E-02
 1.20000E+00    2.10000E-02
 1.30000E+00    2.40000E-02
 1.31400E+00    2.44200E-02
 1.33400E+00    2.50200E-02
 1.34400E+00    2.53200E-02
 1.38500E+00    2.65500E-02
 1.40000E+00    2.70000E-02
 1.40500E+00    2.71500E-02
 1.49600E+00    2.98800E-02
 1.50000E+00    3.00000E-02
 1.51600E+00    3.04800E-02
 1.60000E+00    3.30000E-02
 1.61700E+00    3.35100E-02
 1.68800E+00    3.56400E-02
 1.69800E+00    3.59400E-02
 1.69900E+00    3.59700E-02
 1.70000E+00    3.60000E-02
 1.70800E+00    3.62400E-02
 1.80000E+00    3.90000E-02
 1.90000E+00    4.20000E-02
 1.97100E+00    4.41731E-02
 2.00000E+00    4.51569E-02
 2.17800E+00    5.56449E-02
 2.20000E+00    5.69412E-02
 2.40000E+00    6.87255E-02
 2.50000E+00    7.46176E-02
 2.60000E+00    8.05098E-02
 2.80000E+00    9.22941E-02
 3.00000E+00    1.04078E-01
 3.20000E+00    1.24863E-01
 3.40000E+00    1.45647E-01
 3.50000E+00    1.56039E-01
 3.60000E+00    1.66431E-01
 3.80000E+00    1.87216E-01
 3.86000E+00    1.93451E-01
 4.00000E+00    2.08000E-01
 4.20000E+00    2.38200E-01
 4.40000E+00    2.68400E-01
 4.50000E+00    2.83500E-01
 4.60000E+00    2.98600E-01
 4.80000E+00    3.28800E-01
 5.00000E+00    3.59000E-01
 5.50000E+00    4.79500E-01
 6.00000E+00    6.00000E-01
 6.11000E+00    6.46750E-01
 6.26000E+00    7.10500E-01
 6.50000E+00    8.12500E-01
 7.00000E+00    1.02500E+00
 7.50000E+00    1.32250E+00
 8.00000E+00    1.62000E+00
 8.50000E+00    2.18500E+00
 8.92000E+00    2.65960E+00
 9.00000E+00    2.75000E+00
 9.04000E+00    2.81000E+00
 9.06000E+00    2.84000E+00
 9.10000E+00    2.90000E+00
 9.20000E+00    3.05000E+00
 9.30000E+00    3.20000E+00
 9.40000E+00    3.35000E+00
 9.50000E+00    3.50000E+00
 9.60000E+00    3.65000E+00
 9.70000E+00    3.80000E+00
 9.80000E+00    3.95000E+00
 9.90000E+00    4.10000E+00
 1.00000E+01    4.25000E+00
 1.02000E+01    4.63500E+00
 1.04000E+01    5.02000E+00
 1.06000E+01    5.40500E+00
 1.08000E+01    5.79000E+00
 1.10000E+01    6.17500E+00
 1.12000E+01    6.57000E+00
 1.14000E+01    6.96500E+00
 1.16000E+01    7.36000E+00
 1.18000E+01    7.75500E+00
 1.20000E+01    8.15000E+00
 1.25000E+01    9.13750E+00
 1.26000E+01    9.33500E+00
 1.30000E+01    1.01250E+01
 1.35000E+01    1.10625E+01
 1.35000E+01    1.10625E+01
 1.40000E+01    1.20000E+01
 1.45000E+01    1.29500E+01
 1.50000E+01    1.39000E+01
 1.55000E+01    1.46000E+01
 1.60000E+01    1.53000E+01
 1.69000E+01    1.65600E+01
 1.70000E+01    1.67000E+01
 1.72000E+01    1.69000E+01
 1.75000E+01    1.72000E+01
 1.78000E+01    1.75000E+01
 1.80000E+01    1.77000E+01
 1.85000E+01    1.84000E+01
 1.90000E+01    1.91000E+01
 1.95000E+01    1.98000E+01
 2.00000E+01    2.05000E+01
 2.00000E+01    2.13827E+01
 2.20000E+01    2.33863E+01
 2.40000E+01    2.50183E+01
 2.60000E+01    2.62569E+01
 2.80000E+01    2.72512E+01
 3.00000E+01    2.79360E+01
 3.50000E+01    2.88282E+01
 4.00000E+01    2.94776E+01
 4.50000E+01    3.05172E+01
 5.00000E+01    3.27150E+01
 5.50000E+01    3.67968E+01
 6.00000E+01    4.27184E+01
 6.50000E+01    4.99017E+01
 7.00000E+01    5.85570E+01
 7.50000E+01    6.62115E+01
 8.00000E+01    7.50337E+01
 8.50000E+01    8.39247E+01
 9.00000E+01    9.21931E+01
 9.50000E+01    1.00654E+02
 1.00000E+02    1.07709E+02
 1.10000E+02    1.20947E+02
 1.20000E+02    1.32419E+02
 1.30000E+02    1.44118E+02
 1.40000E+02    1.53223E+02
 1.50000E+02    1.63613E+02
