# n + Nb 93 : (n,xn)    
# endfb8.0   M.Chadwick,P.Young,D.L.Smith      EVAL-DEC97
# 
# # energies =   156
#   E(MeV)        xs(mb) 
 3.10600E-02    0.00000E+00
 4.00000E-02    6.00000E-02
 5.00000E-02    1.50000E-01
 6.00000E-02    2.50000E-01
 8.00000E-02    5.20000E-01
 1.00000E-01    8.60000E-01
 1.50000E-01    1.97000E+00
 2.00000E-01    3.43000E+00
 3.00000E-01    7.19000E+00
 4.00000E-01    1.18800E+01
 5.00000E-01    1.72700E+01
 6.00000E-01    2.31700E+01
 6.87300E-01    2.82159E+01
 7.00000E-01    3.14500E+01
 7.20000E-01    3.62560E+01
 7.40000E-01    3.99620E+01
 7.52000E-01    4.12856E+01
 7.60000E-01    5.97680E+01
 7.80000E-01    1.00474E+02
 8.00000E-01    1.42380E+02
 8.09600E-01    1.59955E+02
 8.16700E-01    1.75206E+02
 8.20000E-01    1.84994E+02
 8.40000E-01    2.44808E+02
 8.60000E-01    2.96422E+02
 8.80000E-01    3.41936E+02
 9.00000E-01    3.80150E+02
 9.20000E-01    4.13998E+02
 9.40000E-01    4.42246E+02
 9.60000E-01    4.66994E+02
 9.60200E-01    4.67196E+02
 9.80000E-01    5.41642E+02
 9.89500E-01    5.68312E+02
 1.00000E+00    6.28090E+02
 1.09200E+00    9.35559E+02
 1.10000E+00    9.75195E+02
 1.20000E+00    1.21040E+03
 1.30000E+00    1.32620E+03
 1.31400E+00    1.32610E+03
 1.33400E+00    1.34438E+03
 1.34400E+00    1.35569E+03
 1.38500E+00    1.41295E+03
 1.40000E+00    1.43500E+03
 1.40500E+00    1.43807E+03
 1.49600E+00    1.51531E+03
 1.50000E+00    1.51945E+03
 1.51600E+00    1.52770E+03
 1.60000E+00    1.62190E+03
 1.61700E+00    1.63117E+03
 1.68800E+00    1.70181E+03
 1.69800E+00    1.71263E+03
 1.69900E+00    1.71416E+03
 1.70000E+00    1.71609E+03
 1.70800E+00    1.72190E+03
 1.80000E+00    1.82568E+03
 1.90000E+00    1.90171E+03
 1.97100E+00    1.91458E+03
 2.00000E+00    1.95022E+03
 2.17800E+00    1.99080E+03
 2.20000E+00    2.01117E+03
 2.40000E+00    1.98202E+03
 2.50000E+00    1.99396E+03
 2.60000E+00    2.00489E+03
 2.80000E+00    2.01286E+03
 3.00000E+00    2.00709E+03
 3.20000E+00    1.99111E+03
 3.40000E+00    1.97613E+03
 3.50000E+00    1.96564E+03
 3.60000E+00    1.95556E+03
 3.80000E+00    1.92539E+03
 3.86000E+00    1.92334E+03
 4.00000E+00    1.90522E+03
 4.20000E+00    1.91172E+03
 4.40000E+00    1.91823E+03
 4.50000E+00    1.92648E+03
 4.60000E+00    1.92830E+03
 4.80000E+00    1.94195E+03
 5.00000E+00    1.95559E+03
 5.50000E+00    1.98983E+03
 6.00000E+00    1.99408E+03
 6.11000E+00    1.99287E+03
 6.26000E+00    1.98123E+03
 6.50000E+00    1.97861E+03
 7.00000E+00    1.95314E+03
 7.50000E+00    1.90770E+03
 8.00000E+00    1.85227E+03
 8.50000E+00    1.82701E+03
 8.92000E+00    1.81259E+03
 9.00000E+00    1.81556E+03
 9.04000E+00    1.82293E+03
 9.06000E+00    1.82420E+03
 9.10000E+00    1.82690E+03
 9.20000E+00    1.82924E+03
 9.30000E+00    1.83779E+03
 9.40000E+00    1.84954E+03
 9.50000E+00    1.87349E+03
 9.60000E+00    1.92744E+03
 9.70000E+00    1.99098E+03
 9.80000E+00    2.07333E+03
 9.90000E+00    2.16428E+03
 1.00000E+01    2.22323E+03
 1.02000E+01    2.32132E+03
 1.04000E+01    2.41742E+03
 1.06000E+01    2.50152E+03
 1.08000E+01    2.58660E+03
 1.10000E+01    2.66170E+03
 1.12000E+01    2.73580E+03
 1.14000E+01    2.79789E+03
 1.16000E+01    2.86199E+03
 1.18000E+01    2.92709E+03
 1.20000E+01    2.98018E+03
 1.25000E+01    3.07681E+03
 1.26000E+01    3.08733E+03
 1.30000E+01    3.12244E+03
 1.35000E+01    3.14308E+03
 1.35000E+01    3.14308E+03
 1.40000E+01    3.16473E+03
 1.45000E+01    3.17359E+03
 1.50000E+01    3.17445E+03
 1.55000E+01    3.17131E+03
 1.60000E+01    3.16217E+03
 1.69000E+01    3.14503E+03
 1.70000E+01    3.14551E+03
 1.72000E+01    3.14446E+03
 1.75000E+01    3.14260E+03
 1.78000E+01    3.16189E+03
 1.80000E+01    3.18042E+03
 1.85000E+01    3.27103E+03
 1.90000E+01    3.36264E+03
 1.95000E+01    3.42406E+03
 2.00000E+01    3.45687E+03
 2.00000E+01    3.16493E+03
 2.20000E+01    3.34702E+03
 2.40000E+01    3.46628E+03
 2.60000E+01    3.52456E+03
 2.80000E+01    3.54765E+03
 3.00000E+01    3.55511E+03
 3.50000E+01    3.59377E+03
 4.00000E+01    3.67821E+03
 4.50000E+01    3.74223E+03
 5.00000E+01    3.80644E+03
 5.50000E+01    3.87426E+03
 6.00000E+01    3.93293E+03
 6.50000E+01    3.97131E+03
 7.00000E+01    3.95504E+03
 7.50000E+01    3.97761E+03
 8.00000E+01    4.00854E+03
 8.50000E+01    4.04173E+03
 9.00000E+01    4.06846E+03
 9.50000E+01    4.08921E+03
 1.00000E+02    4.10943E+03
 1.10000E+02    4.15561E+03
 1.20000E+02    4.20529E+03
 1.30000E+02    4.28208E+03
 1.40000E+02    4.35255E+03
 1.50000E+02    4.44658E+03
