# n + Nb 93 : (n,xp)    
# endfb8.0   M.Chadwick,P.Young,D.L.Smith      EVAL-DEC97
# 
# # energies =   156
#   E(MeV)        xs(mb) 
 3.10600E-02    4.45825E-04
 4.00000E-02    6.11480E-04
 5.00000E-02    7.96777E-04
 6.00000E-02    9.82075E-04
 8.00000E-02    1.35267E-03
 1.00000E-01    1.72326E-03
 1.50000E-01    2.64975E-03
 2.00000E-01    3.57623E-03
 3.00000E-01    5.42921E-03
 4.00000E-01    7.28218E-03
 5.00000E-01    9.13515E-03
 6.00000E-01    1.09881E-02
 6.87300E-01    1.26058E-02
 7.00000E-01    1.28411E-02
 7.20000E-01    1.32117E-02
 7.40000E-01    1.35823E-02
 7.52000E-01    1.38046E-02
 7.60000E-01    1.39529E-02
 7.80000E-01    1.43235E-02
 8.00000E-01    1.46941E-02
 8.09600E-01    1.48719E-02
 8.16700E-01    1.50035E-02
 8.20000E-01    1.50647E-02
 8.40000E-01    1.54352E-02
 8.60000E-01    1.58058E-02
 8.80000E-01    1.61764E-02
 9.00000E-01    1.65470E-02
 9.20000E-01    1.69176E-02
 9.40000E-01    1.72882E-02
 9.60000E-01    1.76588E-02
 9.60200E-01    1.76625E-02
 9.80000E-01    1.80294E-02
 9.89500E-01    1.82054E-02
 1.00000E+00    1.84000E-02
 1.09200E+00    1.98352E-02
 1.10000E+00    1.99600E-02
 1.20000E+00    2.15200E-02
 1.30000E+00    2.30800E-02
 1.31400E+00    2.32984E-02
 1.33400E+00    2.36104E-02
 1.34400E+00    2.37664E-02
 1.38500E+00    2.44060E-02
 1.40000E+00    2.46400E-02
 1.40500E+00    2.47180E-02
 1.49600E+00    2.61376E-02
 1.50000E+00    2.62000E-02
 1.51600E+00    2.64496E-02
 1.60000E+00    2.77600E-02
 1.61700E+00    2.80252E-02
 1.68800E+00    2.91328E-02
 1.69800E+00    2.92888E-02
 1.69900E+00    2.93044E-02
 1.70000E+00    2.93200E-02
 1.70800E+00    2.94448E-02
 1.80000E+00    3.08800E-02
 1.90000E+00    3.24400E-02
 1.97100E+00    3.35476E-02
 2.00000E+00    3.40000E-02
 2.17800E+00    5.67840E-02
 2.20000E+00    5.96000E-02
 2.40000E+00    8.52000E-02
 2.50000E+00    9.80000E-02
 2.60000E+00    1.10800E-01
 2.80000E+00    1.36400E-01
 3.00000E+00    1.62000E-01
 3.20000E+00    1.87600E-01
 3.40000E+00    2.13200E-01
 3.50000E+00    2.26000E-01
 3.60000E+00    2.38800E-01
 3.80000E+00    2.64400E-01
 3.86000E+00    2.72080E-01
 4.00000E+00    2.90000E-01
 4.20000E+00    3.96200E-01
 4.40000E+00    5.02400E-01
 4.50000E+00    5.55500E-01
 4.60000E+00    6.08600E-01
 4.80000E+00    7.14800E-01
 5.00000E+00    8.21000E-01
 5.50000E+00    1.08650E+00
 6.00000E+00    1.35200E+00
 6.11000E+00    1.60170E+00
 6.26000E+00    1.94776E+00
 6.50000E+00    2.50146E+00
 7.00000E+00    3.65500E+00
 7.50000E+00    4.83700E+00
 8.00000E+00    6.01900E+00
 8.50000E+00    8.40375E+00
 8.92000E+00    1.04069E+01
 9.00000E+00    1.07885E+01
 9.04000E+00    1.09793E+01
 9.06000E+00    1.10747E+01
 9.10000E+00    1.12655E+01
 9.20000E+00    1.17424E+01
 9.30000E+00    1.22194E+01
 9.40000E+00    1.26963E+01
 9.50000E+00    1.31733E+01
 9.60000E+00    1.36502E+01
 9.70000E+00    1.41271E+01
 9.80000E+00    1.46041E+01
 9.90000E+00    1.50810E+01
 1.00000E+01    1.55580E+01
 1.02000E+01    1.67922E+01
 1.04000E+01    1.80264E+01
 1.06000E+01    1.92606E+01
 1.08000E+01    2.04948E+01
 1.10000E+01    2.17290E+01
 1.12000E+01    2.29632E+01
 1.14000E+01    2.41974E+01
 1.16000E+01    2.54316E+01
 1.18000E+01    2.66658E+01
 1.20000E+01    2.79000E+01
 1.25000E+01    3.18900E+01
 1.26000E+01    3.26880E+01
 1.30000E+01    3.58800E+01
 1.35000E+01    3.98700E+01
 1.35000E+01    3.98701E+01
 1.40000E+01    4.38600E+01
 1.45000E+01    4.80350E+01
 1.50000E+01    5.22100E+01
 1.55000E+01    5.63850E+01
 1.60000E+01    6.05600E+01
 1.69000E+01    6.92360E+01
 1.70000E+01    7.02000E+01
 1.72000E+01    7.21280E+01
 1.75000E+01    7.50200E+01
 1.78000E+01    7.79120E+01
 1.80000E+01    7.98400E+01
 1.85000E+01    8.44550E+01
 1.90000E+01    8.90700E+01
 1.95000E+01    9.36850E+01
 2.00000E+01    9.83000E+01
 2.00000E+01    1.64907E+02
 2.20000E+01    1.99161E+02
 2.40000E+01    2.33759E+02
 2.60000E+01    2.70022E+02
 2.80000E+01    3.11345E+02
 3.00000E+01    3.64013E+02
 3.50000E+01    5.10749E+02
 4.00000E+01    6.31993E+02
 4.50000E+01    7.24692E+02
 5.00000E+01    7.88079E+02
 5.50000E+01    8.33225E+02
 6.00000E+01    8.69130E+02
 6.50000E+01    9.00935E+02
 7.00000E+01    9.37478E+02
 7.50000E+01    9.61013E+02
 8.00000E+01    9.84358E+02
 8.50000E+01    1.00396E+03
 9.00000E+01    1.02349E+03
 9.50000E+01    1.04580E+03
 1.00000E+02    1.06605E+03
 1.10000E+02    1.10922E+03
 1.20000E+02    1.15253E+03
 1.30000E+02    1.20304E+03
 1.40000E+02    1.25175E+03
 1.50000E+02    1.30921E+03
