# n + Cu  0 : (n,any)
# endfb8.0   A.Koning,M.Chadwick,Hetrick       EVAL-FEB98
# uncertainties: n
# # energies =   154
#   E(MeV)          xs(mb) 
 2.00000E+01    0.00000E+00
 2.00000E+01    0.00000E+00
 2.10000E+01    1.39032E+03
 2.20000E+01    1.37052E+03
 2.22264E+01    1.36642E+03
 2.28344E+01    1.35578E+03
 2.30000E+01    1.35298E+03
 2.30433E+01    1.35227E+03
 2.36374E+01    1.34294E+03
 2.39703E+01    1.33790E+03
 2.40000E+01    1.33746E+03
 2.42565E+01    1.33386E+03
 2.50000E+01    1.32396E+03
 2.60000E+01    1.31192E+03
 2.64687E+01    1.30672E+03
 2.69772E+01    1.30116E+03
 2.70000E+01    1.30091E+03
 2.80000E+01    1.29038E+03
 2.84437E+01    1.28578E+03
 2.90000E+01    1.28002E+03
 2.91247E+01    1.27874E+03
 3.00000E+01    1.26971E+03
 3.05998E+01    1.26351E+03
 3.10000E+01    1.25941E+03
 3.10209E+01    1.25919E+03
 3.16536E+01    1.25282E+03
 3.20000E+01    1.24938E+03
 3.21808E+01    1.24760E+03
 3.30000E+01    1.23967E+03
 3.30352E+01    1.23934E+03
 3.40000E+01    1.23030E+03
 3.44104E+01    1.22659E+03
 3.45861E+01    1.22502E+03
 3.50000E+01    1.22131E+03
 3.60000E+01    1.21268E+03
 3.70000E+01    1.20437E+03
 3.80000E+01    1.19632E+03
 3.81492E+01    1.19515E+03
 3.86520E+01    1.19123E+03
 3.90000E+01    1.18853E+03
 3.90784E+01    1.18793E+03
 4.00000E+01    1.18095E+03
 4.04698E+01    1.17746E+03
 4.08001E+01    1.17502E+03
 4.10000E+01    1.17354E+03
 4.14064E+01    1.17057E+03
 4.20000E+01    1.16625E+03
 4.30000E+01    1.15909E+03
 4.32922E+01    1.15702E+03
 4.40000E+01    1.15204E+03
 4.50000E+01    1.14512E+03
 4.59759E+01    1.13841E+03
 4.60000E+01    1.13824E+03
 4.70000E+01    1.13136E+03
 4.80000E+01    1.12452E+03
 4.85326E+01    1.12089E+03
 4.90000E+01    1.11772E+03
 4.97612E+01    1.11260E+03
 5.00000E+01    1.11101E+03
 5.00405E+01    1.11074E+03
 5.03015E+01    1.10900E+03
 5.04829E+01    1.10779E+03
 5.10000E+01    1.10435E+03
 5.20000E+01    1.09774E+03
 5.21723E+01    1.09660E+03
 5.30000E+01    1.09115E+03
 5.40000E+01    1.08460E+03
 5.48452E+01    1.07910E+03
 5.50000E+01    1.07809E+03
 5.51156E+01    1.07734E+03
 5.60000E+01    1.07164E+03
 5.70000E+01    1.06523E+03
 5.80000E+01    1.05889E+03
 5.80301E+01    1.05871E+03
 5.90000E+01    1.05261E+03
 5.97806E+01    1.04773E+03
 6.00000E+01    1.04636E+03
 6.02587E+01    1.04476E+03
 6.07577E+01    1.04167E+03
 6.10000E+01    1.04019E+03
 6.16146E+01    1.03645E+03
 6.20000E+01    1.03411E+03
 6.27254E+01    1.02977E+03
 6.30000E+01    1.02812E+03
 6.40000E+01    1.02221E+03
 6.50000E+01    1.01635E+03
 6.50854E+01    1.01586E+03
 6.60000E+01    1.01058E+03
 6.70000E+01    1.00488E+03
 6.75245E+01    1.00193E+03
 6.80000E+01    9.99254E+02
 6.90000E+01    9.93697E+02
 7.00000E+01    9.88192E+02
 7.01634E+01    9.87303E+02
 7.10000E+01    9.82763E+02
 7.20000E+01    9.77430E+02
 7.30000E+01    9.72184E+02
 7.34245E+01    9.69988E+02
 7.40000E+01    9.67020E+02
 7.50000E+01    9.61928E+02
 7.52011E+01    9.60918E+02
 7.60000E+01    9.56916E+02
 7.70000E+01    9.51992E+02
 7.79315E+01    9.47482E+02
 7.80000E+01    9.47151E+02
 7.90000E+01    9.42392E+02
 7.93933E+01    9.40548E+02
 8.00000E+01    9.37711E+02
 8.10000E+01    9.33106E+02
 8.20000E+01    9.28576E+02
 8.30000E+01    9.24120E+02
 8.40000E+01    9.19739E+02
 8.50000E+01    9.15432E+02
 8.60000E+01    9.11199E+02
 8.60506E+01    9.10988E+02
 8.70000E+01    9.07040E+02
 8.80000E+01    9.02953E+02
 8.90000E+01    8.98935E+02
 9.00000E+01    8.94985E+02
 9.10000E+01    8.91111E+02
 9.20000E+01    8.87320E+02
 9.30000E+01    8.83603E+02
 9.40000E+01    8.79952E+02
 9.50000E+01    8.76360E+02
 9.60000E+01    8.72832E+02
 9.70000E+01    8.69371E+02
 9.80000E+01    8.65973E+02
 9.90000E+01    8.62633E+02
 1.00000E+02    8.59346E+02
 1.02000E+02    8.52974E+02
 1.04000E+02    8.46879E+02
 1.06000E+02    8.41032E+02
 1.08000E+02    8.35404E+02
 1.10000E+02    8.29970E+02
 1.12000E+02    8.24744E+02
 1.14000E+02    8.19740E+02
 1.16000E+02    8.14936E+02
 1.18000E+02    8.10312E+02
 1.20000E+02    8.05852E+02
 1.22000E+02    8.01577E+02
 1.24000E+02    7.97507E+02
 1.26000E+02    7.93623E+02
 1.28000E+02    7.89907E+02
 1.30000E+02    7.86345E+02
 1.32000E+02    7.82936E+02
 1.34000E+02    7.79680E+02
 1.36000E+02    7.76566E+02
 1.38000E+02    7.73585E+02
 1.40000E+02    7.70727E+02
 1.42000E+02    7.68003E+02
 1.44000E+02    7.65425E+02
 1.46000E+02    7.62987E+02
 1.48000E+02    7.60681E+02
 1.50000E+02    7.58502E+02
