# n + Ta  0 : (n,d)
# jendl.ad   K.Shibata (JAEA)                  EVAL-Oct14
# uncertainties: n
# # energies =    66
#   E(MeV)          xs(mb) 
 3.74500E+00    0.00000E+00
 3.83884E+00    1.38840E-23
 4.05530E+00    4.59090E-23
 4.38943E+00    9.53440E-23
 4.83498E+00    1.61260E-22
 4.85304E+00    1.63940E-22
 4.85841E+00    1.64730E-22
 4.89286E+00    1.69830E-22
 4.91535E+00    1.73630E-22
 4.93492E+00    1.76940E-22
 4.94426E+00    1.78510E-22
 4.95135E+00    1.79710E-22
 5.00000E+00    1.87930E-22
 5.01249E+00    1.26320E-18
 5.04324E+00    4.37280E-18
 5.05240E+00    5.29910E-18
 5.06803E+00    6.87960E-18
 5.10665E+00    1.07850E-17
 5.12211E+00    1.23480E-17
 5.12681E+00    1.28240E-17
 5.13401E+00    1.35520E-17
 5.13792E+00    1.39470E-17
 5.16206E+00    1.63880E-17
 5.16211E+00    1.63930E-17
 5.17352E+00    1.75470E-17
 5.18256E+00    1.84610E-17
 5.19705E+00    1.99270E-17
 5.22548E+00    2.28020E-17
 5.23567E+00    2.38320E-17
 5.23754E+00    2.40210E-17
 5.26141E+00    2.64350E-17
 5.27850E+00    2.81630E-17
 5.29262E+00    2.95910E-17
 5.31049E+00    3.13980E-17
 5.31271E+00    3.16230E-17
 5.35132E+00    3.55270E-17
 5.36151E+00    3.65570E-17
 5.36310E+00    3.67180E-17
 5.36629E+00    3.70410E-17
 5.36681E+00    3.70930E-17
 5.38449E+00    3.88810E-17
 5.50000E+00    5.05620E-17
 6.00000E+00    1.00800E-13
 6.50000E+00    1.50820E-11
 7.00000E+00    4.85630E-10
 7.50000E+00    6.16860E-09
 8.00000E+00    6.38330E-08
 8.50000E+00    9.01080E-07
 9.00000E+00    1.06591E-05
 9.50000E+00    8.50676E-05
 1.00000E+01    4.80008E-04
 1.10000E+01    7.08445E-03
 1.20000E+01    5.06773E-02
 1.25000E+01    1.10633E-01
 1.30000E+01    2.15886E-01
 1.40000E+01    6.32456E-01
 1.41000E+01    6.73632E-01
 1.42000E+01    7.46233E-01
 1.45000E+01    9.27097E-01
 1.50000E+01    1.27303E+00
 1.60000E+01    2.36039E+00
 1.70000E+01    3.52450E+00
 1.75000E+01    4.27682E+00
 1.80000E+01    5.10119E+00
 1.90000E+01    6.62846E+00
 2.00000E+01    8.21344E+00
