# n + Ge 73 : (n,n'09)  
# tendl.2019 A.J. Koning and D. Rochman        EVAL-NOV19
# uncertainties: n
# # energies =    91
#   E(MeV)       xs(mb) 
 5.58621E-01    0.00000E+00
 5.62616E-01    3.34472E+00
 6.00000E-01    3.46436E+01
 6.06059E-01    3.65236E+01
 6.68014E-01    5.57473E+01
 7.00000E-01    6.56721E+01
 7.52091E-01    7.56130E+01
 7.88356E-01    8.25337E+01
 8.00000E-01    8.47558E+01
 8.20190E-01    8.67765E+01
 8.31342E-01    8.78927E+01
 8.37131E-01    8.84721E+01
 8.80026E-01    9.27653E+01
 9.00000E-01    9.47644E+01
 9.06467E-01    9.50380E+01
 9.16504E-01    9.54627E+01
 9.19221E-01    9.55777E+01
 9.28487E-01    9.59697E+01
 9.44455E-01    9.66454E+01
 1.00000E+00    9.89956E+01
 1.00777E+00    9.87078E+01
 1.02412E+00    9.81022E+01
 1.04019E+00    9.75070E+01
 1.05337E+00    9.70188E+01
 1.05770E+00    9.68585E+01
 1.14590E+00    9.35916E+01
 1.14721E+00    9.35431E+01
 1.20000E+00    9.15878E+01
 1.40000E+00    7.75178E+01
 1.60000E+00    6.32379E+01
 1.80000E+00    5.07913E+01
 2.00000E+00    4.06982E+01
 2.20000E+00    3.27907E+01
 2.40000E+00    2.66690E+01
 2.60000E+00    2.19057E+01
 2.80000E+00    1.81607E+01
 3.00000E+00    1.51403E+01
 3.20000E+00    1.26686E+01
 3.40000E+00    1.05939E+01
 3.60000E+00    8.84136E+00
 3.80000E+00    7.35109E+00
 4.00000E+00    6.08572E+00
 4.20000E+00    5.01678E+00
 4.40000E+00    4.12071E+00
 4.60000E+00    3.37581E+00
 4.80000E+00    2.76088E+00
 5.00000E+00    2.25676E+00
 5.20000E+00    1.84590E+00
 5.40000E+00    1.51190E+00
 5.60000E+00    1.24154E+00
 5.80000E+00    1.02301E+00
 6.00000E+00    8.45555E-01
 6.20000E+00    7.03001E-01
 6.40000E+00    5.87016E-01
 6.60000E+00    4.93165E-01
 6.80000E+00    4.17063E-01
 7.00000E+00    3.54654E-01
 7.20000E+00    3.04065E-01
 7.40000E+00    2.62325E-01
 7.60000E+00    2.27996E-01
 7.80000E+00    1.99173E-01
 8.00000E+00    1.75482E-01
 8.50000E+00    1.32686E-01
 9.00000E+00    1.05494E-01
 9.50000E+00    8.79698E-02
 1.00000E+01    7.65480E-02
 1.05000E+01    6.91047E-02
 1.10000E+01    6.42958E-02
 1.15000E+01    6.12571E-02
 1.20000E+01    5.94304E-02
 1.25000E+01    5.84426E-02
 1.30000E+01    5.80540E-02
 1.35000E+01    5.81027E-02
 1.40000E+01    5.84783E-02
 1.45000E+01    5.91007E-02
 1.50000E+01    5.99073E-02
 1.60000E+01    6.18738E-02
 1.70000E+01    6.40582E-02
 1.80000E+01    6.62667E-02
 1.90000E+01    6.84127E-02
 2.00000E+01    7.04792E-02
 2.10000E+01    7.24774E-02
 2.20000E+01    7.44198E-02
 2.30000E+01    7.63057E-02
 2.40000E+01    7.81202E-02
 2.50000E+01    7.98377E-02
 2.60000E+01    8.14294E-02
 2.70000E+01    8.28685E-02
 2.80000E+01    8.41361E-02
 2.90000E+01    8.52216E-02
 3.00000E+01    8.61227E-02
