# n + Fe  0 : (n,h)
# jeff3.3    A.J. Koning                       EVAL-OCT04
# uncertainties: n
# # energies =    75
#   E(MeV)          xs(mb) 
 1.07225E+01    2.56687E-09
 1.40000E+01    3.33884E-04
 1.40228E+01    3.61642E-04
 1.40447E+01    3.90359E-04
 1.40655E+01    4.19661E-04
 1.40855E+01    4.49805E-04
 1.41044E+01    4.80378E-04
 1.41226E+01    5.11651E-04
 1.41459E+01    5.54622E-04
 1.41678E+01    5.98231E-04
 1.41883E+01    6.42266E-04
 1.42076E+01    6.86570E-04
 1.42257E+01    7.30942E-04
 1.42507E+01    7.96903E-04
 1.42736E+01    8.62789E-04
 1.42943E+01    9.26743E-04
 1.43132E+01    9.89705E-04
 1.43364E+01    1.07270E-03
 1.43568E+01    1.15128E-03
 1.43746E+01    1.22485E-03
 1.43971E+01    1.32434E-03
 1.44159E+01    1.41400E-03
 1.44369E+01    1.52128E-03
 1.44594E+01    1.64554E-03
 1.44797E+01    1.76631E-03
 1.45000E+01    1.89617E-03
 1.45308E+01    2.03369E-03
 1.45596E+01    2.17128E-03
 1.45995E+01    2.37558E-03
 1.46362E+01    2.57939E-03
 1.46692E+01    2.77689E-03
 1.46996E+01    2.97111E-03
 1.47368E+01    3.22697E-03
 1.47695E+01    3.46873E-03
 1.47981E+01    3.69481E-03
 1.48349E+01    4.00673E-03
 1.48734E+01    4.36035E-03
 1.49050E+01    4.67211E-03
 1.49388E+01    5.03102E-03
 1.49694E+01    5.37760E-03
 1.50000E+01    5.74822E-03
 1.50616E+01    6.18875E-03
 1.51395E+01    6.78257E-03
 1.52049E+01    7.31592E-03
 1.52782E+01    7.95241E-03
 1.53570E+01    8.68783E-03
 1.54283E+01    9.40110E-03
 1.55000E+01    1.01672E-02
 1.55887E+01    1.10140E-02
 1.56633E+01    1.17701E-02
 1.57468E+01    1.26695E-02
 1.58368E+01    1.37019E-02
 1.59182E+01    1.46977E-02
 1.60617E+01    1.66632E-02
 1.61701E+01    1.83345E-02
 1.62828E+01    2.01945E-02
 1.63600E+01    2.15482E-02
 1.64532E+01    2.32709E-02
 1.65617E+01    2.54077E-02
 1.66702E+01    2.76950E-02
 1.67828E+01    3.02420E-02
 1.69066E+01    3.32590E-02
 1.70000E+01    3.56988E-02
 1.71236E+01    3.88908E-02
 1.72521E+01    4.24421E-02
 1.73933E+01    4.66442E-02
 1.75000E+01    5.00403E-02
 1.76237E+01    5.33491E-02
 1.78108E+01    5.86783E-02
 1.80000E+01    6.44847E-02
 1.82483E+01    7.06089E-02
 1.85000E+01    7.71774E-02
 1.90000E+01    8.69257E-02
 1.95000E+01    9.36798E-02
 2.00000E+01    9.77612E-02
