# n + Nd144 : (n,n'08)  
# jendl4.0   N.Iwamoto,A.Zukeran,K.Shibata     EVAL-Dec09
# uncertainties: n
# # energies =    71
#   E(MeV)       xs(mb) 
 2.10795E+00    0.00000E+00
 2.12458E+00    1.60197E+00
 2.19424E+00    5.51076E+00
 2.20107E+00    5.88179E+00
 2.22025E+00    7.01487E+00
 2.23386E+00    7.72810E+00
 2.25000E+00    8.64974E+00
 2.31150E+00    1.24717E+01
 2.33817E+00    1.35257E+01
 2.34450E+00    1.38384E+01
 2.36345E+00    1.49213E+01
 2.38542E+00    1.62533E+01
 2.41632E+00    1.81823E+01
 2.43717E+00    1.91340E+01
 2.46889E+00    2.04518E+01
 2.48127E+00    2.07132E+01
 2.50000E+00    2.16109E+01
 2.50745E+00    2.19828E+01
 2.52600E+00    2.28882E+01
 2.54551E+00    2.34432E+01
 2.58248E+00    2.51486E+01
 2.60042E+00    2.59190E+01
 2.60815E+00    2.62134E+01
 2.61070E+00    2.63115E+01
 2.61722E+00    2.65638E+01
 2.61997E+00    2.64735E+01
 2.62124E+00    2.63662E+01
 2.62420E+00    2.62950E+01
 2.63138E+00    2.60695E+01
 2.63232E+00    2.60697E+01
 2.67371E+00    2.67741E+01
 2.67415E+00    2.67728E+01
 2.67462E+00    2.67794E+01
 2.69436E+00    2.69530E+01
 2.70047E+00    2.70907E+01
 2.75000E+00    2.77227E+01
 3.00000E+00    2.70864E+01
 3.50000E+00    1.87869E+01
 4.00000E+00    1.17474E+01
 4.50000E+00    7.26419E+00
 5.00000E+00    4.49491E+00
 5.50000E+00    2.80759E+00
 6.00000E+00    1.80673E+00
 6.50000E+00    1.22915E+00
 7.00000E+00    9.00296E-01
 7.50000E+00    7.12039E-01
 8.00000E+00    6.01288E-01
 8.50000E+00    5.31698E-01
 9.00000E+00    4.83292E-01
 9.50000E+00    4.45695E-01
 1.00000E+01    4.13830E-01
 1.05000E+01    3.85685E-01
 1.10000E+01    3.59573E-01
 1.15000E+01    3.36252E-01
 1.20000E+01    3.14454E-01
 1.25000E+01    2.95250E-01
 1.30000E+01    2.77504E-01
 1.35000E+01    2.61974E-01
 1.40000E+01    2.47615E-01
 1.45000E+01    2.34911E-01
 1.50000E+01    2.23161E-01
 1.55000E+01    2.12552E-01
 1.60000E+01    2.02659E-01
 1.65000E+01    1.93423E-01
 1.70000E+01    1.84750E-01
 1.75000E+01    1.76523E-01
 1.80000E+01    1.68811E-01
 1.85000E+01    1.61305E-01
 1.90000E+01    1.54248E-01
 1.95000E+01    1.47226E-01
 2.00000E+01    1.40658E-01
