# n + Nd144 : (n,n'09)  
# jendl4.0   N.Iwamoto,A.Zukeran,K.Shibata     EVAL-Dec09
# uncertainties: n
# # energies =    70
#   E(MeV)       xs(mb) 
 2.12458E+00    0.00000E+00
 2.19424E+00    4.33089E+01
 2.20107E+00    4.41013E+01
 2.22025E+00    4.73147E+01
 2.23386E+00    4.91779E+01
 2.25000E+00    5.15440E+01
 2.31150E+00    6.03704E+01
 2.33817E+00    6.12836E+01
 2.34450E+00    6.18719E+01
 2.36345E+00    6.41312E+01
 2.38542E+00    6.67261E+01
 2.41632E+00    7.05704E+01
 2.43717E+00    7.29009E+01
 2.46889E+00    7.53561E+01
 2.48127E+00    7.51447E+01
 2.50000E+00    7.69526E+01
 2.50745E+00    7.77300E+01
 2.52600E+00    7.94178E+01
 2.54551E+00    8.10623E+01
 2.58248E+00    8.46292E+01
 2.60042E+00    8.57380E+01
 2.60815E+00    8.58511E+01
 2.61070E+00    8.60305E+01
 2.61722E+00    8.62474E+01
 2.61997E+00    8.62662E+01
 2.62124E+00    8.58192E+01
 2.62420E+00    8.52351E+01
 2.63138E+00    8.47162E+01
 2.63232E+00    8.47028E+01
 2.67371E+00    8.62084E+01
 2.67415E+00    8.60939E+01
 2.67462E+00    8.60332E+01
 2.69436E+00    8.53108E+01
 2.70047E+00    8.55283E+01
 2.75000E+00    8.76850E+01
 3.00000E+00    8.26091E+01
 3.50000E+00    5.16058E+01
 4.00000E+00    2.88348E+01
 4.50000E+00    1.62303E+01
 5.00000E+00    9.56186E+00
 5.50000E+00    6.02262E+00
 6.00000E+00    4.12772E+00
 6.50000E+00    3.09429E+00
 7.00000E+00    2.50745E+00
 7.50000E+00    2.15337E+00
 8.00000E+00    1.92329E+00
 8.50000E+00    1.75933E+00
 9.00000E+00    1.63016E+00
 9.50000E+00    1.51932E+00
 1.00000E+01    1.41888E+00
 1.05000E+01    1.32662E+00
 1.10000E+01    1.23903E+00
 1.15000E+01    1.15986E+00
 1.20000E+01    1.08532E+00
 1.25000E+01    1.01940E+00
 1.30000E+01    9.58322E-01
 1.35000E+01    9.04757E-01
 1.40000E+01    8.55225E-01
 1.45000E+01    8.11335E-01
 1.50000E+01    7.70779E-01
 1.55000E+01    7.34158E-01
 1.60000E+01    7.00057E-01
 1.65000E+01    6.68100E-01
 1.70000E+01    6.38213E-01
 1.75000E+01    6.09768E-01
 1.80000E+01    5.83187E-01
 1.85000E+01    5.57239E-01
 1.90000E+01    5.32922E-01
 1.95000E+01    5.08660E-01
 2.00000E+01    4.86025E-01
