# n + Nd144 : (n,tot)   
# jendl4.0   N.Iwamoto,A.Zukeran,K.Shibata     EVAL-Dec09
# uncertainties: n
# # energies =   171
#   E(MeV)       xs(mb) 
 1.00000E-11    4.06230E+04
 1.00000E-07    2.20017E+03
 4.13990E-07    1.73069E+03
 5.31580E-07    1.62825E+03
 6.82560E-07    1.53646E+03
 8.76420E-07    1.45372E+03
 1.12540E-06    1.37864E+03
 1.44500E-06    1.30960E+03
 1.85540E-06    1.24554E+03
 2.37240E-06    1.18347E+03
 3.05900E-06    1.12257E+03
 3.92790E-06    1.06173E+03
 5.04350E-06    9.98909E+02
 6.47600E-06    9.32182E+02
 8.31530E-06    8.59604E+02
 1.06770E-05    7.79045E+02
 1.37100E-05    6.89242E+02
 1.76030E-05    5.88767E+02
 2.26030E-05    4.76600E+02
 2.92030E-05    3.58646E+02
 3.72670E-05    2.43016E+02
 4.78510E-05    1.43804E+02
 6.14420E-05    9.67267E+01
 7.88930E-05    1.71775E+02
 1.01300E-04    5.23058E+02
 1.30070E-04    1.54429E+03
 1.67020E-04    4.52227E+03
 2.14450E-04    1.60725E+04
 2.75360E-04    1.81356E+05
 3.53580E-04    1.67200E+06
 4.54000E-04    4.03017E+04
 5.82950E-04    2.75642E+04
 7.48520E-04    2.71066E+03
 9.61120E-04    2.15273E+04
 1.23410E-03    3.13755E+05
 1.58460E-03    9.61044E+04
 2.03470E-03    2.57104E+04
 2.24870E-03    1.06889E+04
 2.48520E-03    6.93301E+03
 2.61260E-03    3.37595E+03
 2.74650E-03    2.99253E+04
 3.03540E-03    3.67405E+03
 3.35460E-03    5.47032E+04
 3.70740E-03    9.49063E+03
 4.30740E-03    1.97997E+04
 5.53080E-03    2.75895E+04
 7.10170E-03    1.08260E+04
 9.11880E-03    6.28218E+04
 1.17090E-02    1.66599E+04
 1.50340E-02    1.52621E+04
 1.93050E-02    1.39027E+04
 2.18750E-02    1.32365E+04
 2.35790E-02    1.29158E+04
 2.41760E-02    1.27586E+04
 2.47880E-02    1.25266E+04
 2.60580E-02    1.22673E+04
 2.70000E-02    1.20009E+04
 2.85000E-02    1.15297E+04
 3.18280E-02    1.10237E+04
 3.43070E-02    1.03814E+04
 4.08680E-02    9.65553E+03
 4.63090E-02    9.09285E+03
 5.24750E-02    8.68167E+03
 5.65620E-02    8.20298E+03
 6.73790E-02    7.76327E+03
 7.20000E-02    7.48554E+03
 7.95000E-02    7.26663E+03
 8.25000E-02    7.13864E+03
 8.65170E-02    6.88507E+03
 9.80370E-02    6.54616E+03
 1.11090E-01    6.33505E+03
 1.16790E-01    6.21803E+03
 1.22770E-01    6.10323E+03
 1.29070E-01    6.00124E+03
 1.35690E-01    5.91943E+03
 1.42640E-01    5.83894E+03
 1.49960E-01    5.75956E+03
 1.57640E-01    5.68126E+03
 1.65730E-01    5.60404E+03
 1.74220E-01    5.52784E+03
 1.83160E-01    5.45266E+03
 1.92550E-01    5.38008E+03
 2.02420E-01    5.34475E+03
 2.12800E-01    5.32428E+03
 2.23710E-01    5.30275E+03
 2.35180E-01    5.28013E+03
 2.47240E-01    5.24404E+03
 2.73240E-01    5.20963E+03
 2.87250E-01    5.19302E+03
 2.94520E-01    5.18526E+03
 2.97200E-01    5.18217E+03
 2.98500E-01    5.18041E+03
 3.01970E-01    5.21295E+03
 3.33730E-01    5.27777E+03
 3.68830E-01    5.33059E+03
 3.87740E-01    5.37107E+03
 4.07620E-01    5.47467E+03
 4.50490E-01    5.63670E+03
 4.97870E-01    5.77411E+03
 5.23400E-01    5.88046E+03
 5.50230E-01    5.99329E+03
 5.78440E-01    6.11192E+03
 6.08100E-01    6.23523E+03
 6.39280E-01    6.35618E+03
 6.72060E-01    6.48162E+03
 7.06510E-01    6.57651E+03
 7.42740E-01    6.64876E+03
 7.80820E-01    6.72475E+03
 8.20850E-01    6.80957E+03
 8.62940E-01    6.90225E+03
 9.07180E-01    7.00068E+03
 9.61640E-01    7.08242E+03
 1.00260E+00    7.17146E+03
 1.10800E+00    7.25192E+03
 1.16480E+00    7.30463E+03
 1.22460E+00    7.31771E+03
 1.28730E+00    7.32119E+03
 1.35340E+00    7.32484E+03
 1.42270E+00    7.32868E+03
 1.49570E+00    7.31179E+03
 1.57240E+00    7.26750E+03
 1.65300E+00    7.22088E+03
 1.73770E+00    7.17185E+03
 1.82680E+00    7.12059E+03
 1.92050E+00    7.06930E+03
 2.01900E+00    6.99896E+03
 2.12250E+00    6.91064E+03
 2.23130E+00    6.83371E+03
 2.30690E+00    6.78597E+03
 2.34570E+00    6.76243E+03
 2.36530E+00    6.74742E+03
 2.38520E+00    6.70932E+03
 2.46600E+00    6.62879E+03
 2.59240E+00    6.51657E+03
 2.72530E+00    6.39683E+03
 2.86500E+00    6.27554E+03
 3.01190E+00    6.15037E+03
 3.16640E+00    6.01648E+03
 3.32870E+00    5.80597E+03
 3.67880E+00    5.51191E+03
 4.06570E+00    5.21340E+03
 4.49330E+00    4.99557E+03
 4.72370E+00    4.85995E+03
 4.96590E+00    4.73377E+03
 5.22050E+00    4.62385E+03
 5.48810E+00    4.52904E+03
 5.76950E+00    4.45378E+03
 6.06530E+00    4.40360E+03
 6.37630E+00    4.37193E+03
 6.59240E+00    4.36254E+03
 6.70320E+00    4.35735E+03
 7.04690E+00    4.36694E+03
 7.40820E+00    4.39012E+03
 7.78800E+00    4.42837E+03
 8.18730E+00    4.47457E+03
 8.60710E+00    4.52950E+03
 9.04840E+00    4.58738E+03
 9.51230E+00    4.64824E+03
 1.00000E+01    4.70968E+03
 1.05130E+01    4.77051E+03
 1.10520E+01    4.82856E+03
 1.16180E+01    4.88426E+03
 1.22140E+01    4.93400E+03
 1.28400E+01    4.97851E+03
 1.34990E+01    5.00522E+03
 1.38400E+01    5.02161E+03
 1.41910E+01    5.03138E+03
 1.45500E+01    5.04020E+03
 1.49180E+01    5.04523E+03
 1.56830E+01    5.03798E+03
 1.64870E+01    5.01145E+03
