# n + Nd144 : (n,xa)    
# jendl4.0   N.Iwamoto,A.Zukeran,K.Shibata     EVAL-Dec09
# 
# # energies =   111
#   E(MeV)        xs(mb) 
 1.05000E-01    2.45482E-04
 1.10000E-01    2.45620E-04
 1.20000E-01    2.45894E-04
 1.30000E-01    2.46169E-04
 1.40000E-01    2.48483E-04
 1.50000E-01    2.51003E-04
 1.60000E-01    2.53523E-04
 1.70000E-01    2.56043E-04
 1.80000E-01    2.58492E-04
 1.90000E-01    2.60900E-04
 2.00000E-01    2.63308E-04
 2.25000E-01    2.78514E-04
 2.50000E-01    2.93720E-04
 2.75000E-01    3.08468E-04
 3.00000E-01    3.23093E-04
 4.00000E-01    4.21385E-04
 5.00000E-01    5.63749E-04
 6.00000E-01    7.62612E-04
 7.00000E-01    1.03668E-03
 7.01443E-01    1.04091E-03
 8.00000E-01    8.15004E-04
 9.00000E-01    9.40325E-04
 1.00000E+00    1.13901E-03
 1.10000E+00    1.40639E-03
 1.20000E+00    1.74234E-03
 1.30000E+00    2.18787E-03
 1.32388E+00    2.31120E-03
 1.40000E+00    2.30416E-03
 1.50000E+00    2.80425E-03
 1.52146E+00    2.93595E-03
 1.57186E+00    2.84314E-03
 1.60000E+00    2.81373E-03
 1.70000E+00    3.25928E-03
 1.80000E+00    3.89399E-03
 1.80402E+00    3.92056E-03
 1.90000E+00    4.64942E-03
 2.00000E+00    5.58429E-03
 2.08744E+00    6.62946E-03
 2.09929E+00    6.66500E-03
 2.10795E+00    6.71768E-03
 2.12458E+00    6.86083E-03
 2.19424E+00    7.46047E-03
 2.20107E+00    7.45683E-03
 2.22025E+00    7.44661E-03
 2.23386E+00    7.46150E-03
 2.25000E+00    7.59144E-03
 2.31150E+00    8.36982E-03
 2.33817E+00    8.63445E-03
 2.34450E+00    8.62356E-03
 2.36345E+00    8.78917E-03
 2.38542E+00    8.91510E-03
 2.41632E+00    9.13397E-03
 2.43717E+00    9.28165E-03
 2.46889E+00    9.57936E-03
 2.48127E+00    9.65228E-03
 2.50000E+00    9.76259E-03
 2.50745E+00    9.84039E-03
 2.52600E+00    9.95089E-03
 2.54551E+00    1.00593E-02
 2.58248E+00    1.03455E-02
 2.60042E+00    1.04763E-02
 2.60815E+00    1.04983E-02
 2.61070E+00    1.04928E-02
 2.61722E+00    1.04787E-02
 2.61997E+00    1.04394E-02
 2.62124E+00    1.04213E-02
 2.62419E+00    1.03709E-02
 2.62420E+00    1.03707E-02
 2.63138E+00    1.03030E-02
 2.63232E+00    1.02941E-02
 2.67371E+00    1.04252E-02
 2.67415E+00    1.04149E-02
 2.67462E+00    1.04038E-02
 2.69436E+00    1.04153E-02
 2.70047E+00    1.04395E-02
 2.75000E+00    1.08011E-02
 3.00000E+00    1.33665E-02
 3.50000E+00    1.98154E-02
 4.00000E+00    2.85356E-02
 4.50000E+00    3.90508E-02
 5.00000E+00    5.13429E-02
 5.50000E+00    6.58055E-02
 6.00000E+00    8.38056E-02
 6.50000E+00    1.08012E-01
 7.00000E+00    1.44003E-01
 7.50000E+00    2.01222E-01
 8.00000E+00    2.91266E-01
 8.50000E+00    3.80220E-01
 9.00000E+00    4.78901E-01
 9.50000E+00    6.18188E-01
 1.00000E+01    8.11370E-01
 1.05000E+01    1.06268E+00
 1.10000E+01    1.37497E+00
 1.15000E+01    1.74806E+00
 1.20000E+01    2.17658E+00
 1.25000E+01    2.65456E+00
 1.30000E+01    3.17152E+00
 1.35000E+01    3.71933E+00
 1.40000E+01    4.28662E+00
 1.45000E+01    4.86600E+00
 1.50000E+01    5.44709E+00
 1.55000E+01    6.02301E+00
 1.60000E+01    6.59116E+00
 1.65000E+01    7.14058E+00
 1.70000E+01    7.67530E+00
 1.75000E+01    8.18405E+00
 1.80000E+01    8.67023E+00
 1.85000E+01    9.12775E+00
 1.90000E+01    9.56161E+00
 1.95000E+01    9.96783E+00
 2.00000E+01    1.03488E+01
