# n + In115 : (n,tot)   
# endfb8.0   JNDC FPND W.G., Mughabghab        EVAL-MAR05
# uncertainties: n
# # energies =   171
#   E(MeV)       xs(mb) 
 1.00000E-11    2.11970E+06
 1.00000E-07    9.84586E+04
 4.13990E-07    1.00504E+05
 5.31580E-07    1.18398E+05
 6.82560E-07    1.64532E+05
 8.76420E-07    3.33243E+05
 1.12540E-06    5.36795E+06
 1.44500E-06    6.71401E+06
 1.85540E-06    1.49736E+05
 2.37240E-06    4.06402E+04
 3.05900E-06    1.70442E+05
 3.92790E-06    4.26301E+04
 5.04350E-06    8.90836E+03
 6.47600E-06    8.86670E+03
 8.31530E-06    1.72948E+05
 1.06770E-05    1.25827E+04
 1.37100E-05    5.79160E+03
 1.76030E-05    8.29911E+03
 2.26030E-05    1.86291E+04
 2.92030E-05    5.21322E+03
 3.72670E-05    2.76824E+04
 4.78510E-05    7.02626E+03
 6.14420E-05    7.13409E+03
 7.88930E-05    1.75939E+04
 1.01300E-04    7.01321E+03
 1.30070E-04    1.34418E+04
 1.67020E-04    1.68037E+04
 2.14450E-04    1.47343E+04
 2.75360E-04    1.23657E+04
 3.53580E-04    1.18158E+04
 4.54000E-04    9.80456E+03
 5.82950E-04    7.95750E+03
 7.48520E-04    9.06272E+03
 9.61120E-04    8.17097E+03
 1.23410E-03    6.97739E+03
 1.58460E-03    9.28940E+03
 2.03470E-03    1.09892E+04
 2.24870E-03    1.06698E+04
 2.48520E-03    1.04409E+04
 2.61260E-03    1.02939E+04
 2.74650E-03    1.00815E+04
 3.03540E-03    9.81261E+03
 3.35460E-03    9.55666E+03
 3.70740E-03    9.25702E+03
 4.30740E-03    8.82225E+03
 5.53080E-03    8.34572E+03
 7.10170E-03    7.93651E+03
 9.11880E-03    7.58979E+03
 1.17090E-02    7.29962E+03
 1.50340E-02    7.05824E+03
 1.93050E-02    6.90606E+03
 2.18750E-02    6.83558E+03
 2.35790E-02    6.80342E+03
 2.41760E-02    6.78694E+03
 2.47880E-02    6.76354E+03
 2.60580E-02    6.73868E+03
 2.70000E-02    6.71272E+03
 2.85000E-02    6.66942E+03
 3.18280E-02    6.62428E+03
 3.43070E-02    6.57122E+03
 4.08680E-02    6.51648E+03
 4.63090E-02    6.47856E+03
 5.24750E-02    6.45240E+03
 5.65620E-02    6.42464E+03
 6.73790E-02    6.40146E+03
 7.20000E-02    6.38794E+03
 7.95000E-02    6.37772E+03
 8.25000E-02    6.37183E+03
 8.65170E-02    6.36065E+03
 9.80370E-02    6.34619E+03
 1.11090E-01    6.34171E+03
 1.16790E-01    6.33935E+03
 1.22770E-01    6.33687E+03
 1.29070E-01    6.33426E+03
 1.35690E-01    6.33151E+03
 1.42640E-01    6.32863E+03
 1.49960E-01    6.32559E+03
 1.57640E-01    6.32240E+03
 1.65730E-01    6.31990E+03
 1.74220E-01    6.31938E+03
 1.83160E-01    6.31892E+03
 1.92550E-01    6.31852E+03
 2.02420E-01    6.31999E+03
 2.12800E-01    6.32236E+03
 2.23710E-01    6.32484E+03
 2.35180E-01    6.32746E+03
 2.47240E-01    6.33165E+03
 2.73240E-01    6.33613E+03
 2.87250E-01    6.33850E+03
 2.94520E-01    6.33961E+03
 2.97200E-01    6.34005E+03
 2.98500E-01    6.34058E+03
 3.01970E-01    6.34444E+03
 3.33730E-01    6.35186E+03
 3.68830E-01    6.35790E+03
 3.87740E-01    6.36221E+03
 4.07620E-01    6.36912E+03
 4.50490E-01    6.37914E+03
 4.97870E-01    6.38730E+03
 5.23400E-01    6.39312E+03
 5.50230E-01    6.39923E+03
 5.78440E-01    6.40381E+03
 6.08100E-01    6.40516E+03
 6.39280E-01    6.40650E+03
 6.72060E-01    6.40777E+03
 7.06510E-01    6.40411E+03
 7.42740E-01    6.39766E+03
 7.80820E-01    6.39088E+03
 8.20850E-01    6.38375E+03
 8.62940E-01    6.37543E+03
 9.07180E-01    6.35656E+03
 9.61640E-01    6.33618E+03
 1.00260E+00    6.30485E+03
 1.10800E+00    6.25893E+03
 1.16480E+00    6.22029E+03
 1.22460E+00    6.17968E+03
 1.28730E+00    6.13437E+03
 1.35340E+00    6.07708E+03
 1.42270E+00    6.01598E+03
 1.49570E+00    5.95053E+03
 1.57240E+00    5.87428E+03
 1.65300E+00    5.79282E+03
 1.73770E+00    5.70696E+03
 1.82680E+00    5.61340E+03
 1.92050E+00    5.51387E+03
 2.01900E+00    5.40568E+03
 2.12250E+00    5.28683E+03
 2.23130E+00    5.18596E+03
 2.30690E+00    5.13027E+03
 2.34570E+00    5.10222E+03
 2.36530E+00    5.08328E+03
 2.38520E+00    5.03519E+03
 2.46600E+00    4.94120E+03
 2.59240E+00    4.83532E+03
 2.72530E+00    4.72753E+03
 2.86500E+00    4.62593E+03
 3.01190E+00    4.53051E+03
 3.16640E+00    4.44332E+03
 3.32870E+00    4.31265E+03
 3.67880E+00    4.14494E+03
 4.06570E+00    4.02966E+03
 4.49330E+00    3.95992E+03
 4.72370E+00    3.91373E+03
 4.96590E+00    3.88356E+03
 5.22050E+00    3.87835E+03
 5.48810E+00    3.87328E+03
 5.76950E+00    3.86890E+03
 6.06530E+00    3.89194E+03
 6.37630E+00    3.92269E+03
 6.59240E+00    3.94176E+03
 6.70320E+00    3.96805E+03
 7.04690E+00    4.02251E+03
 7.40820E+00    4.09384E+03
 7.78800E+00    4.16894E+03
 8.18730E+00    4.25242E+03
 8.60710E+00    4.34255E+03
 9.04840E+00    4.43652E+03
 9.51230E+00    4.52868E+03
 1.00000E+01    4.60026E+03
 1.05130E+01    4.65030E+03
 1.10520E+01    4.70084E+03
 1.16180E+01    4.74632E+03
 1.22140E+01    4.72616E+03
 1.28400E+01    4.68709E+03
 1.34990E+01    4.65795E+03
 1.38400E+01    4.63424E+03
 1.41910E+01    4.58775E+03
 1.45500E+01    4.53852E+03
 1.49180E+01    4.45404E+03
 1.56830E+01    4.32622E+03
 1.64870E+01    4.18291E+03
