# n + In115 : (n,el)    
# endfb8.0   JNDC FPND W.G., Mughabghab        EVAL-MAR05
# uncertainties: n
# # energies =   171
#   E(MeV)       xs(mb) 
 1.00000E-11    4.26038E+03
 1.00000E-07    2.34171E+03
 4.13990E-07    2.17247E+03
 5.31580E-07    2.18040E+03
 6.82560E-07    2.52798E+03
 8.76420E-07    5.36446E+03
 1.12540E-06    1.84795E+05
 1.44500E-06    3.00410E+05
 1.85540E-06    1.88705E+04
 2.37240E-06    1.00843E+04
 3.05900E-06    7.70010E+03
 3.92790E-06    7.55315E+03
 5.04350E-06    6.09050E+03
 6.47600E-06    5.24923E+03
 8.31530E-06    9.04883E+03
 1.06770E-05    5.89553E+03
 1.37100E-05    5.51076E+03
 1.76030E-05    5.10986E+03
 2.26030E-05    5.63052E+03
 2.92030E-05    5.03825E+03
 3.72670E-05    6.18173E+03
 4.78510E-05    5.22125E+03
 6.14420E-05    5.01887E+03
 7.88930E-05    5.88403E+03
 1.01300E-04    5.09088E+03
 1.30070E-04    5.88154E+03
 1.67020E-04    7.38462E+03
 2.14450E-04    7.75284E+03
 2.75360E-04    6.12158E+03
 3.53580E-04    5.83787E+03
 4.54000E-04    5.88205E+03
 5.82950E-04    5.59553E+03
 7.48520E-04    5.75870E+03
 9.61120E-04    5.82956E+03
 1.23410E-03    5.49355E+03
 1.58460E-03    6.79456E+03
 2.03470E-03    7.92797E+03
 2.24870E-03    7.79305E+03
 2.48520E-03    7.69391E+03
 2.61260E-03    7.62896E+03
 2.74650E-03    7.53327E+03
 3.03540E-03    7.40927E+03
 3.35460E-03    7.28825E+03
 3.70740E-03    7.14249E+03
 4.30740E-03    6.92329E+03
 5.53080E-03    6.67400E+03
 7.10170E-03    6.45444E+03
 9.11880E-03    6.26863E+03
 1.17090E-02    6.11946E+03
 1.50340E-02    6.00501E+03
 1.93050E-02    5.94123E+03
 2.18750E-02    5.91578E+03
 2.35790E-02    5.90543E+03
 2.41760E-02    5.90019E+03
 2.47880E-02    5.89316E+03
 2.60580E-02    5.88626E+03
 2.70000E-02    5.87941E+03
 2.85000E-02    5.87016E+03
 3.18280E-02    5.86313E+03
 3.43070E-02    5.85985E+03
 4.08680E-02    5.86175E+03
 4.63090E-02    5.86817E+03
 5.24750E-02    5.87580E+03
 5.65620E-02    5.88808E+03
 6.73790E-02    5.90148E+03
 7.20000E-02    5.91148E+03
 7.95000E-02    5.91991E+03
 8.25000E-02    5.92507E+03
 8.65170E-02    5.93552E+03
 9.80370E-02    5.94493E+03
 1.11090E-01    5.95293E+03
 1.16790E-01    5.95834E+03
 1.22770E-01    5.96402E+03
 1.29070E-01    5.97001E+03
 1.35690E-01    5.97629E+03
 1.42640E-01    5.98290E+03
 1.49960E-01    5.98985E+03
 1.57640E-01    5.99715E+03
 1.65730E-01    6.00483E+03
 1.74220E-01    6.01290E+03
 1.83160E-01    6.02042E+03
 1.92550E-01    6.02564E+03
 2.02420E-01    6.03097E+03
 2.12800E-01    6.03657E+03
 2.23710E-01    6.04246E+03
 2.35180E-01    6.04865E+03
 2.47240E-01    6.05858E+03
 2.73240E-01    6.06920E+03
 2.87250E-01    6.07482E+03
 2.94520E-01    6.07745E+03
 2.97200E-01    6.07850E+03
 2.98500E-01    6.07975E+03
 3.01970E-01    6.08888E+03
 3.33730E-01    6.10532E+03
 3.68830E-01    6.11351E+03
 3.87740E-01    6.11848E+03
 4.07620E-01    6.12644E+03
 4.50490E-01    6.13799E+03
 4.97870E-01    6.14740E+03
 5.23400E-01    6.15382E+03
 5.50230E-01    6.15748E+03
 5.78440E-01    6.16031E+03
 6.08100E-01    6.15687E+03
 6.39280E-01    6.15001E+03
 6.72060E-01    6.14280E+03
 7.06510E-01    6.13523E+03
 7.42740E-01    6.12723E+03
 7.80820E-01    6.11325E+03
 8.20850E-01    6.09444E+03
 8.62940E-01    6.07441E+03
 9.07180E-01    6.04023E+03
 9.61640E-01    5.97550E+03
 1.00260E+00    5.86455E+03
 1.10800E+00    5.74719E+03
 1.16480E+00    5.63383E+03
 1.22460E+00    5.50875E+03
 1.28730E+00    5.38890E+03
 1.35340E+00    5.25867E+03
 1.42270E+00    5.11532E+03
 1.49570E+00    4.93914E+03
 1.57240E+00    4.75806E+03
 1.65300E+00    4.58407E+03
 1.73770E+00    4.41212E+03
 1.82680E+00    4.23687E+03
 1.92050E+00    4.06749E+03
 2.01900E+00    3.89330E+03
 2.12250E+00    3.71882E+03
 2.23130E+00    3.57813E+03
 2.30690E+00    3.49818E+03
 2.34570E+00    3.45845E+03
 2.36530E+00    3.43162E+03
 2.38520E+00    3.36395E+03
 2.46600E+00    3.22638E+03
 2.59240E+00    3.06123E+03
 2.72530E+00    2.90388E+03
 2.86500E+00    2.75480E+03
 3.01190E+00    2.62086E+03
 3.16640E+00    2.49801E+03
 3.32870E+00    2.32540E+03
 3.67880E+00    2.10702E+03
 4.06570E+00    1.97026E+03
 4.49330E+00    1.90230E+03
 4.72370E+00    1.85687E+03
 4.96590E+00    1.83384E+03
 5.22050E+00    1.85135E+03
 5.48810E+00    1.87040E+03
 5.76950E+00    1.89137E+03
 6.06530E+00    1.94094E+03
 6.37630E+00    1.99474E+03
 6.59240E+00    2.02812E+03
 6.70320E+00    2.07428E+03
 7.04690E+00    2.15683E+03
 7.40820E+00    2.25007E+03
 7.78800E+00    2.34513E+03
 8.18730E+00    2.44378E+03
 8.60710E+00    2.54824E+03
 9.04840E+00    2.72386E+03
 9.51230E+00    2.89369E+03
 1.00000E+01    3.00868E+03
 1.05130E+01    3.05285E+03
 1.10520E+01    3.09495E+03
 1.16180E+01    3.16937E+03
 1.22140E+01    3.08771E+03
 1.28400E+01    3.00370E+03
 1.34990E+01    2.95759E+03
 1.38400E+01    2.93914E+03
 1.41910E+01    2.88806E+03
 1.45500E+01    2.83210E+03
 1.49180E+01    2.73337E+03
 1.56830E+01    2.58450E+03
 1.64870E+01    2.45322E+03
