# n + Os194 : (n,n'11)  
# tendl.2019 A.J. Koning and D. Rochman        EVAL-NOV19
# uncertainties: n
# # energies =    81
#   E(MeV)       xs(mb) 
 1.74603E+00    0.00000E+00
 1.80000E+00    1.68002E+01
 1.80132E+00    1.69570E+01
 1.84454E+00    2.20914E+01
 1.88777E+00    2.72270E+01
 1.96617E+00    3.65407E+01
 2.00000E+00    4.05596E+01
 2.12901E+00    5.21204E+01
 2.17927E+00    5.66243E+01
 2.20000E+00    5.84819E+01
 2.40000E+00    6.83937E+01
 2.55421E+00    7.29796E+01
 2.55642E+00    7.30453E+01
 2.56292E+00    7.32386E+01
 2.56694E+00    7.33582E+01
 2.57099E+00    7.34786E+01
 2.57404E+00    7.35693E+01
 2.57913E+00    7.37207E+01
 2.58316E+00    7.38405E+01
 2.58561E+00    7.39134E+01
 2.58916E+00    7.40190E+01
 2.59188E+00    7.40998E+01
 2.59402E+00    7.41635E+01
 2.59705E+00    7.42536E+01
 2.60000E+00    7.43413E+01
 2.80000E+00    7.15958E+01
 3.00000E+00    6.12275E+01
 3.20000E+00    4.86722E+01
 3.40000E+00    3.73361E+01
 3.60000E+00    2.81350E+01
 3.80000E+00    2.09513E+01
 4.00000E+00    1.54403E+01
 4.20000E+00    1.12647E+01
 4.40000E+00    8.13852E+00
 4.60000E+00    5.82857E+00
 4.80000E+00    4.14305E+00
 5.00000E+00    2.92685E+00
 5.20000E+00    2.05977E+00
 5.40000E+00    1.44658E+00
 5.60000E+00    1.01034E+00
 5.80000E+00    7.07497E-01
 6.00000E+00    4.96208E-01
 6.20000E+00    3.48982E-01
 6.40000E+00    2.46166E-01
 6.60000E+00    1.74241E-01
 6.80000E+00    1.23693E-01
 7.00000E+00    8.81529E-02
 7.20000E+00    6.30031E-02
 7.40000E+00    4.51172E-02
 7.60000E+00    3.24887E-02
 7.80000E+00    2.34107E-02
 8.00000E+00    1.69500E-02
 8.50000E+00    7.63972E-03
 9.00000E+00    3.50579E-03
 9.50000E+00    1.63700E-03
 1.00000E+01    7.77028E-04
 1.05000E+01    3.74451E-04
 1.10000E+01    1.82943E-04
 1.15000E+01    9.05248E-05
 1.20000E+01    4.53336E-05
 1.25000E+01    2.29726E-05
 1.30000E+01    1.17785E-05
 1.35000E+01    6.11025E-06
 1.40000E+01    3.20672E-06
 1.45000E+01    1.70210E-06
 1.50000E+01    9.13350E-07
 1.60000E+01    2.71170E-07
 1.70000E+01    8.34550E-08
 1.80000E+01    2.63480E-08
 1.90000E+01    8.57300E-09
 2.00000E+01    2.85640E-09
 2.10000E+01    9.74310E-10
 2.20000E+01    3.40080E-10
 2.30000E+01    1.21630E-10
 2.40000E+01    4.44530E-11
 2.50000E+01    1.65860E-11
 2.60000E+01    6.30960E-12
 2.70000E+01    2.44090E-12
 2.80000E+01    9.60110E-13
 2.90000E+01    3.83650E-13
 3.00000E+01    1.55410E-13
