# n + Os194 : (n,n'13)  
# tendl.2019 A.J. Koning and D. Rochman        EVAL-NOV19
# uncertainties: n
# # energies =    78
#   E(MeV)       xs(mb) 
 1.84454E+00    0.00000E+00
 1.88777E+00    3.71571E+00
 1.96617E+00    1.04543E+01
 2.00000E+00    1.33621E+01
 2.12901E+00    1.81468E+01
 2.17927E+00    2.00109E+01
 2.20000E+00    2.07797E+01
 2.40000E+00    2.46199E+01
 2.55421E+00    2.57782E+01
 2.55642E+00    2.57948E+01
 2.56292E+00    2.58436E+01
 2.56694E+00    2.58738E+01
 2.57099E+00    2.59042E+01
 2.57404E+00    2.59271E+01
 2.57913E+00    2.59653E+01
 2.58316E+00    2.59956E+01
 2.58561E+00    2.60140E+01
 2.58916E+00    2.60407E+01
 2.59188E+00    2.60611E+01
 2.59402E+00    2.60772E+01
 2.59705E+00    2.60999E+01
 2.60000E+00    2.61221E+01
 2.80000E+00    2.47077E+01
 3.00000E+00    2.08834E+01
 3.20000E+00    1.63503E+01
 3.40000E+00    1.22916E+01
 3.60000E+00    9.06075E+00
 3.80000E+00    6.60526E+00
 4.00000E+00    4.77282E+00
 4.20000E+00    3.41926E+00
 4.40000E+00    2.42824E+00
 4.60000E+00    1.71038E+00
 4.80000E+00    1.19630E+00
 5.00000E+00    8.32104E-01
 5.20000E+00    5.77068E-01
 5.40000E+00    3.99790E-01
 5.60000E+00    2.75724E-01
 5.80000E+00    1.90805E-01
 6.00000E+00    1.32296E-01
 6.20000E+00    9.19752E-02
 6.40000E+00    6.41340E-02
 6.60000E+00    4.48374E-02
 6.80000E+00    3.14171E-02
 7.00000E+00    2.20773E-02
 7.20000E+00    1.55371E-02
 7.40000E+00    1.09452E-02
 7.60000E+00    7.74123E-03
 7.80000E+00    5.47358E-03
 8.00000E+00    3.88532E-03
 8.50000E+00    1.66437E-03
 9.00000E+00    7.27879E-04
 9.50000E+00    3.26261E-04
 1.00000E+01    1.50015E-04
 1.05000E+01    7.06088E-05
 1.10000E+01    3.38919E-05
 1.15000E+01    1.65289E-05
 1.20000E+01    8.16686E-06
 1.25000E+01    4.08268E-06
 1.30000E+01    2.06390E-06
 1.35000E+01    1.05520E-06
 1.40000E+01    5.45780E-07
 1.45000E+01    2.85660E-07
 1.50000E+01    1.51320E-07
 1.60000E+01    4.39620E-08
 1.70000E+01    1.33130E-08
 1.80000E+01    4.14970E-09
 1.90000E+01    1.33480E-09
 2.00000E+01    4.39680E-10
 2.10000E+01    1.48250E-10
 2.20000E+01    5.11900E-11
 2.30000E+01    1.81450E-11
 2.40000E+01    6.58850E-12
 2.50000E+01    2.44850E-12
 2.60000E+01    9.29630E-13
 2.70000E+01    3.59210E-13
 2.80000E+01    1.41010E-13
 2.90000E+01    5.61440E-14
 3.00000E+01    2.26280E-14
