# n + Cl 37 : (n,n'09)  
# jendl4.0   T.WATANABE                        EVAL-MAR94
# uncertainties: n
# # energies =   131
#   E(MeV)       xs(mb) 
 4.29046E+00    0.00000E+00
 4.29060E+00    9.24243E-03
 4.29206E+00    1.07529E-01
 4.29495E+00    3.01030E-01
 4.29774E+00    4.88484E-01
 4.30316E+00    8.51676E-01
 4.30825E+00    1.19217E+00
 4.31302E+00    1.51138E+00
 4.32199E+00    2.10990E+00
 4.32985E+00    2.63361E+00
 4.33674E+00    3.09185E+00
 4.34882E+00    3.89377E+00
 4.35791E+00    4.49521E+00
 4.37157E+00    5.39738E+00
 4.38528E+00    6.29954E+00
 4.38908E+00    6.41735E+00
 4.40477E+00    6.82309E+00
 4.43235E+00    7.53312E+00
 4.45315E+00    8.06565E+00
 4.48454E+00    8.86445E+00
 4.51615E+00    9.66324E+00
 4.54875E+00    1.03341E+01
 4.58159E+00    1.10049E+01
 4.62555E+00    1.18297E+01
 4.66993E+00    1.26545E+01
 4.69809E+00    1.31378E+01
 4.74779E+00    1.39836E+01
 4.78540E+00    1.46180E+01
 4.84238E+00    1.55696E+01
 4.90004E+00    1.65211E+01
 4.93209E+00    1.70273E+01
 4.94205E+00    1.71610E+01
 4.96948E+00    1.75502E+01
 4.98633E+00    1.77691E+01
 5.00000E+00    1.79412E+01
 5.03789E+00    1.84026E+01
 5.05515E+00    1.86058E+01
 5.05721E+00    1.86257E+01
 5.09604E+00    1.90817E+01
 5.10960E+00    1.92219E+01
 5.14586E+00    1.96162E+01
 5.19301E+00    2.00884E+01
 5.19702E+00    2.01184E+01
 5.19794E+00    2.00958E+01
 5.29202E+00    2.05909E+01
 5.37573E+00    2.10241E+01
 5.45007E+00    2.14031E+01
 5.58263E+00    2.20664E+01
 5.68417E+00    2.25639E+01
 5.76153E+00    2.29370E+01
 5.87956E+00    2.34967E+01
 6.00000E+00    2.40564E+01
 6.11673E+00    2.36280E+01
 6.22074E+00    2.32532E+01
 6.31319E+00    2.29253E+01
 6.47830E+00    2.23513E+01
 6.60496E+00    2.19209E+01
 6.70158E+00    2.15980E+01
 6.84917E+00    2.11138E+01
 7.00000E+00    2.06295E+01
 7.11782E+00    1.98740E+01
 7.22254E+00    1.92129E+01
 7.31543E+00    1.86344E+01
 7.39769E+00    1.81283E+01
 7.47043E+00    1.76854E+01
 7.59944E+00    1.69103E+01
 7.69766E+00    1.63290E+01
 7.77216E+00    1.58931E+01
 7.88525E+00    1.52391E+01
 8.00000E+00    1.45852E+01
 8.11865E+00    1.39942E+01
 8.22392E+00    1.34770E+01
 8.31715E+00    1.30246E+01
 8.39958E+00    1.26286E+01
 8.47239E+00    1.22822E+01
 8.60132E+00    1.16759E+01
 8.69930E+00    1.12212E+01
 8.77352E+00    1.08802E+01
 8.88604E+00    1.03686E+01
 9.00000E+00    9.85709E+00
 9.11932E+00    9.45045E+00
 9.22501E+00    9.09465E+00
 9.31850E+00    8.78331E+00
 9.40108E+00    8.51090E+00
 9.47394E+00    8.27253E+00
 9.60280E+00    7.85540E+00
 9.70060E+00    7.54255E+00
 9.77460E+00    7.30791E+00
 9.88666E+00    6.95595E+00
 1.00000E+01    6.60399E+00
 1.01199E+01    6.36080E+00
 1.02259E+01    6.14801E+00
 1.03196E+01    5.96182E+00
 1.04023E+01    5.79890E+00
 1.05486E+01    5.51379E+00
 1.06597E+01    5.29996E+00
 1.07438E+01    5.13959E+00
 1.08711E+01    4.89903E+00
 1.10000E+01    4.65847E+00
 1.11203E+01    4.50720E+00
 1.12266E+01    4.37485E+00
 1.13205E+01    4.25903E+00
 1.14867E+01    4.05636E+00
 1.16129E+01    3.90435E+00
 1.17085E+01    3.79035E+00
 1.18534E+01    3.61934E+00
 1.20000E+01    3.44834E+00
 1.21207E+01    3.36433E+00
 1.23348E+01    3.21731E+00
 1.24978E+01    3.10704E+00
 1.26215E+01    3.02434E+00
 1.28094E+01    2.90029E+00
 1.30000E+01    2.77624E+00
 1.32431E+01    2.69615E+00
 1.34284E+01    2.63609E+00
 1.37112E+01    2.54599E+00
 1.40000E+01    2.45589E+00
 1.42478E+01    2.41326E+00
 1.45000E+01    2.37064E+00
 1.47479E+01    2.34143E+00
 1.50000E+01    2.31223E+00
 1.54919E+01    2.27500E+00
 1.60000E+01    2.23776E+00
 1.64924E+01    2.21178E+00
 1.70000E+01    2.18580E+00
 1.74929E+01    2.16247E+00
 1.80000E+01    2.13914E+00
 1.84932E+01    2.11612E+00
 1.90000E+01    2.09309E+00
 1.94936E+01    2.06973E+00
 2.00000E+01    2.04637E+00
