# n + Cl 37 : (n,xn)    
# jendl4.0   T.WATANABE                        EVAL-MAR94
# 
# # energies =   202
#   E(MeV)        xs(mb) 
 1.77367E+00    0.00000E+00
 1.77370E+00    3.40892E-03
 1.77412E+00    5.30548E-02
 1.77495E+00    1.52151E-01
 1.77660E+00    3.49569E-01
 1.77825E+00    5.45445E-01
 1.77988E+00    7.39790E-01
 1.78313E+00    1.12544E+00
 1.78633E+00    1.50507E+00
 1.78948E+00    1.87877E+00
 1.79260E+00    2.24662E+00
 1.79567E+00    2.60873E+00
 1.79869E+00    2.96518E+00
 1.80466E+00    3.66694E+00
 1.81047E+00    4.34677E+00
 1.81611E+00    5.00536E+00
 1.82159E+00    5.64336E+00
 1.82692E+00    6.26143E+00
 1.83210E+00    6.86019E+00
 1.83712E+00    7.44023E+00
 1.84690E+00    8.56406E+00
 1.85612E+00    9.61765E+00
 1.86480E+00    1.06054E+01
 1.87297E+00    1.15314E+01
 1.88067E+00    1.23995E+01
 1.88792E+00    1.32134E+01
 1.90158E+00    1.47394E+01
 1.91361E+00    1.60747E+01
 1.92420E+00    1.72430E+01
 1.93352E+00    1.82653E+01
 1.94993E+00    2.00544E+01
 1.96233E+00    2.13962E+01
 1.97168E+00    2.24025E+01
 1.98579E+00    2.39120E+01
 2.00000E+00    2.54215E+01
 2.01271E+00    2.67004E+01
 2.02530E+00    2.79594E+01
 2.03777E+00    2.91987E+01
 2.05013E+00    3.04186E+01
 2.06236E+00    3.16194E+01
 2.07447E+00    3.28015E+01
 2.09852E+00    3.51287E+01
 2.12209E+00    3.73833E+01
 2.14517E+00    3.95673E+01
 2.16778E+00    4.16831E+01
 2.18990E+00    4.37328E+01
 2.21154E+00    4.57184E+01
 2.23272E+00    4.76420E+01
 2.25342E+00    4.95055E+01
 2.27367E+00    5.13107E+01
 2.29345E+00    5.30595E+01
 2.31278E+00    5.47537E+01
 2.33166E+00    5.63949E+01
 2.35009E+00    5.79849E+01
 2.38623E+00    6.10654E+01
 2.42061E+00    6.39534E+01
 2.45330E+00    6.66608E+01
 2.48434E+00    6.91991E+01
 2.51380E+00    7.15787E+01
 2.54173E+00    7.38096E+01
 2.56820E+00    7.59011E+01
 2.59327E+00    7.78618E+01
 2.61699E+00    7.97000E+01
 2.66206E+00    8.31466E+01
 2.70212E+00    8.61624E+01
 2.73768E+00    8.88013E+01
 2.76917E+00    9.11102E+01
 2.79702E+00    9.31306E+01
 2.84644E+00    9.66662E+01
 2.88408E+00    9.93179E+01
 2.94147E+00    1.03295E+02
 3.00000E+00    1.07273E+02
 3.04170E+00    1.10925E+02
 3.07335E+00    1.13663E+02
 3.12145E+00    1.17771E+02
 3.17030E+00    1.21879E+02
 3.17074E+00    1.21920E+02
 3.18790E+00    1.33752E+02
 3.18800E+00    1.33779E+02
 3.21916E+00    1.42168E+02
 3.24865E+00    1.50033E+02
 3.27654E+00    1.57406E+02
 3.30291E+00    1.64319E+02
 3.32782E+00    1.70799E+02
 3.35135E+00    1.76875E+02
 3.37355E+00    1.82570E+02
 3.41558E+00    1.93250E+02
 3.45279E+00    2.02594E+02
 3.48568E+00    2.10771E+02
 3.51472E+00    2.17925E+02
 3.54032E+00    2.24185E+02
 3.58558E+00    2.35141E+02
 3.61990E+00    2.43357E+02
 3.67200E+00    2.55681E+02
 3.72485E+00    2.68006E+02
 3.72490E+00    2.68021E+02
 3.76666E+00    2.81132E+02
 3.80888E+00    2.94243E+02
 3.80900E+00    2.94292E+02
 3.84288E+00    3.08244E+02
 3.84330E+00    3.08388E+02
 3.88189E+00    3.21646E+02
 3.91109E+00    3.31590E+02
 3.95529E+00    3.46505E+02
 4.00000E+00    3.61421E+02
 4.05917E+00    3.76915E+02
 4.11921E+00    3.92409E+02
 4.11930E+00    3.92451E+02
 4.12579E+00    3.95470E+02
 4.12590E+00    3.95506E+02
 4.16644E+00    4.08836E+02
 4.22799E+00    4.28832E+02
 4.29046E+00    4.48827E+02
 4.29060E+00    4.48870E+02
 4.33768E+00    4.63521E+02
 4.38528E+00    4.78172E+02
 4.38540E+00    4.78222E+02
 4.38908E+00    4.79787E+02
 4.38920E+00    4.79825E+02
 4.45222E+00    4.99745E+02
 4.51615E+00    5.19666E+02
 4.51630E+00    5.19719E+02
 4.58159E+00    5.42614E+02
 4.62555E+00    5.56075E+02
 4.66993E+00    5.69535E+02
 4.72642E+00    5.85197E+02
 4.81245E+00    6.08691E+02
 4.90004E+00    6.32184E+02
 4.93209E+00    6.40897E+02
 4.94205E+00    6.44522E+02
 4.96948E+00    6.54567E+02
 4.98633E+00    6.60793E+02
 5.00000E+00    6.65852E+02
 5.03789E+00    6.76424E+02
 5.05515E+00    6.82446E+02
 5.05721E+00    6.83124E+02
 5.09604E+00    6.94086E+02
 5.10960E+00    6.98221E+02
 5.14586E+00    7.07630E+02
 5.19301E+00    7.20066E+02
 5.19702E+00    7.21452E+02
 5.19794E+00    7.21787E+02
 5.29202E+00    7.39906E+02
 5.37573E+00    7.55759E+02
 5.45007E+00    7.69632E+02
 5.58263E+00    7.93908E+02
 5.68417E+00    8.12115E+02
 5.76153E+00    8.25770E+02
 5.87956E+00    8.46253E+02
 6.00000E+00    8.66736E+02
 6.11673E+00    8.75857E+02
 6.32651E+00    8.91820E+02
 6.48855E+00    9.03792E+02
 6.73943E+00    9.21750E+02
 7.00000E+00    9.39708E+02
 7.23762E+00    9.47381E+02
 7.60927E+00    9.58890E+02
 8.00000E+00    9.70399E+02
 8.23907E+00    9.77857E+02
 8.61113E+00    9.89043E+02
 9.00000E+00    1.00024E+03
 1.00000E+01    1.00109E+03
 1.04881E+01    1.00218E+03
 1.10000E+01    1.01441E+03
 1.12419E+01    1.03321E+03
 1.14268E+01    1.04792E+03
 1.17099E+01    1.07097E+03
 1.20000E+01    1.09524E+03
 1.21207E+01    1.11341E+03
 1.23348E+01    1.14608E+03
 1.24978E+01    1.17132E+03
 1.26215E+01    1.19068E+03
 1.28094E+01    1.22041E+03
 1.30000E+01    1.25098E+03
 1.31210E+01    1.26955E+03
 1.33354E+01    1.30284E+03
 1.34986E+01    1.32848E+03
 1.36222E+01    1.34809E+03
 1.38098E+01    1.37814E+03
 1.40000E+01    1.40895E+03
 1.42478E+01    1.44138E+03
 1.43734E+01    1.45799E+03
 1.45000E+01    1.47485E+03
 1.47479E+01    1.50291E+03
 1.50000E+01    1.53183E+03
 1.52440E+01    1.55174E+03
 1.54296E+01    1.56705E+03
 1.57122E+01    1.59063E+03
 1.60000E+01    1.61497E+03
 1.62443E+01    1.62671E+03
 1.66179E+01    1.64493E+03
 1.68079E+01    1.65432E+03
 1.70000E+01    1.66391E+03
 1.72447E+01    1.67060E+03
 1.76183E+01    1.68102E+03
 1.80000E+01    1.69189E+03
 1.82450E+01    1.69577E+03
 1.86187E+01    1.70186E+03
 1.90000E+01    1.70824E+03
 1.94936E+01    1.71311E+03
 1.97452E+01    1.71570E+03
 2.00000E+01    1.71838E+03
