# n + Cl 37 : (n,n'03)  
# jendl4.0   T.WATANABE                        EVAL-MAR94
# uncertainties: n
# # energies =   156
#   E(MeV)       xs(mb) 
 3.18790E+00    0.00000E+00
 3.18800E+00    9.85067E-03
 3.18897E+00    1.08531E-01
 3.19090E+00    3.05506E-01
 3.19283E+00    5.01711E-01
 3.19668E+00    8.92588E-01
 3.20050E+00    1.28041E+00
 3.20430E+00    1.66520E+00
 3.20807E+00    2.04699E+00
 3.21556E+00    2.80460E+00
 3.22296E+00    3.55037E+00
 3.23026E+00    4.28448E+00
 3.23745E+00    5.00713E+00
 3.24456E+00    5.71849E+00
 3.25156E+00    6.41873E+00
 3.25847E+00    7.10803E+00
 3.27212E+00    8.46508E+00
 3.28540E+00    9.77973E+00
 3.29832E+00    1.10533E+01
 3.31087E+00    1.22871E+01
 3.32309E+00    1.34823E+01
 3.33496E+00    1.46401E+01
 3.34650E+00    1.57618E+01
 3.35772E+00    1.68484E+01
 3.37957E+00    1.89538E+01
 3.40018E+00    2.09275E+01
 3.41962E+00    2.27779E+01
 3.43794E+00    2.45127E+01
 3.45520E+00    2.61390E+01
 3.47147E+00    2.76637E+01
 3.48679E+00    2.90930E+01
 3.51569E+00    3.17731E+01
 3.54118E+00    3.41182E+01
 3.56364E+00    3.61702E+01
 3.58340E+00    3.79656E+01
 3.61825E+00    4.11077E+01
 3.64461E+00    4.34642E+01
 3.66451E+00    4.52316E+01
 3.69456E+00    4.78827E+01
 3.72485E+00    5.05338E+01
 3.76663E+00    5.34629E+01
 3.80888E+00    5.63919E+01
 3.84288E+00    5.86657E+01
 3.88157E+00    6.05864E+01
 3.94034E+00    6.34676E+01
 4.00000E+00    6.63487E+01
 4.05917E+00    6.93969E+01
 4.11921E+00    7.24451E+01
 4.12579E+00    7.16304E+01
 4.20732E+00    7.39619E+01
 4.29046E+00    7.62934E+01
 4.38528E+00    7.86547E+01
 4.38908E+00    7.87606E+01
 4.51615E+00    7.98897E+01
 4.58159E+00    8.05542E+01
 4.66993E+00    8.01910E+01
 4.90004E+00    7.97801E+01
 4.93209E+00    7.96749E+01
 4.94205E+00    7.95855E+01
 4.96948E+00    7.91472E+01
 4.98633E+00    7.88873E+01
 5.00000E+00    7.86504E+01
 5.03789E+00    7.82430E+01
 5.05515E+00    7.78253E+01
 5.05721E+00    7.76561E+01
 5.09604E+00    7.65961E+01
 5.10960E+00    7.63060E+01
 5.14586E+00    7.55852E+01
 5.19301E+00    7.46200E+01
 5.19702E+00    7.45134E+01
 5.19794E+00    7.44543E+01
 5.29202E+00    7.21113E+01
 5.37573E+00    7.00612E+01
 5.45007E+00    6.82673E+01
 5.51595E+00    6.66977E+01
 5.57425E+00    6.53243E+01
 5.67777E+00    6.29208E+01
 5.75667E+00    6.11182E+01
 5.81656E+00    5.97663E+01
 5.90757E+00    5.77383E+01
 6.00000E+00    5.57104E+01
 6.11673E+00    5.35944E+01
 6.22074E+00    5.17430E+01
 6.31319E+00    5.01229E+01
 6.39521E+00    4.87054E+01
 6.46786E+00    4.74650E+01
 6.53210E+00    4.63797E+01
 6.64606E+00    4.44804E+01
 6.73283E+00    4.30560E+01
 6.79865E+00    4.19876E+01
 6.89859E+00    4.03851E+01
 7.00000E+00    3.87826E+01
 7.11782E+00    3.73508E+01
 7.22254E+00    3.60979E+01
 7.31543E+00    3.50017E+01
 7.39769E+00    3.40425E+01
 7.47043E+00    3.32032E+01
 7.59944E+00    3.17344E+01
 7.69766E+00    3.06328E+01
 7.77216E+00    2.98066E+01
 7.88525E+00    2.85673E+01
 8.00000E+00    2.73280E+01
 8.11865E+00    2.63503E+01
 8.22392E+00    2.54948E+01
 8.31715E+00    2.47462E+01
 8.39958E+00    2.40912E+01
 8.47239E+00    2.35181E+01
 8.60132E+00    2.25152E+01
 8.69930E+00    2.17629E+01
 8.77352E+00    2.11988E+01
 8.88604E+00    2.03525E+01
 9.00000E+00    1.95063E+01
 9.11932E+00    1.88288E+01
 9.22501E+00    1.82359E+01
 9.31850E+00    1.77171E+01
 9.40108E+00    1.72632E+01
 9.54736E+00    1.64689E+01
 9.65856E+00    1.58732E+01
 9.74281E+00    1.54263E+01
 9.87057E+00    1.47561E+01
 1.00000E+01    1.40859E+01
 1.01199E+01    1.36751E+01
 1.02259E+01    1.33156E+01
 1.03196E+01    1.30011E+01
 1.04856E+01    1.24506E+01
 1.06119E+01    1.20378E+01
 1.07077E+01    1.17282E+01
 1.08528E+01    1.12637E+01
 1.10000E+01    1.07993E+01
 1.11203E+01    1.05503E+01
 1.12266E+01    1.03325E+01
 1.14152E+01    9.95125E+00
 1.15586E+01    9.66532E+00
 1.16674E+01    9.45087E+00
 1.18326E+01    9.12921E+00
 1.20000E+01    8.80754E+00
 1.22425E+01    8.53701E+00
 1.24277E+01    8.33412E+00
 1.25683E+01    8.18195E+00
 1.27824E+01    7.95369E+00
 1.30000E+01    7.72543E+00
 1.32431E+01    7.60117E+00
 1.36163E+01    7.41478E+00
 1.40000E+01    7.22839E+00
 1.45000E+01    7.10020E+00
 1.50000E+01    7.01268E+00
 1.54919E+01    6.95404E+00
 1.60000E+01    6.89540E+00
 1.64924E+01    6.84669E+00
 1.70000E+01    6.79798E+00
 1.74929E+01    6.74473E+00
 1.80000E+01    6.69149E+00
 1.84932E+01    6.63030E+00
 1.90000E+01    6.56911E+00
 1.94936E+01    6.50037E+00
 2.00000E+01    6.43162E+00
