# n + Cl 37 : (n,n'11)  
# jendl4.0   T.WATANABE                        EVAL-MAR94
# uncertainties: n
# # energies =   122
#   E(MeV)       xs(mb) 
 4.38908E+00    0.00000E+00
 4.38920E+00    7.05146E-03
 4.39116E+00    1.26812E-01
 4.39308E+00    2.44701E-01
 4.39688E+00    4.76795E-01
 4.40056E+00    7.01635E-01
 4.40769E+00    1.13726E+00
 4.41439E+00    1.54567E+00
 4.42069E+00    1.92854E+00
 4.42659E+00    2.28749E+00
 4.43769E+00    2.96051E+00
 4.44742E+00    3.54941E+00
 4.45596E+00    4.06469E+00
 4.47093E+00    4.96644E+00
 4.48219E+00    5.64275E+00
 4.49914E+00    6.65722E+00
 4.51615E+00    7.67168E+00
 4.53242E+00    8.22200E+00
 4.55694E+00    9.04749E+00
 4.58159E+00    9.87298E+00
 4.60352E+00    1.04563E+01
 4.63660E+00    1.13314E+01
 4.66993E+00    1.22064E+01
 4.69809E+00    1.29138E+01
 4.72287E+00    1.35328E+01
 4.76655E+00    1.46161E+01
 4.79958E+00    1.54286E+01
 4.84955E+00    1.66472E+01
 4.90004E+00    1.78659E+01
 4.93209E+00    1.85902E+01
 4.94205E+00    1.87887E+01
 4.96948E+00    1.92656E+01
 4.98633E+00    1.95679E+01
 5.00000E+00    1.98299E+01
 5.03789E+00    2.04856E+01
 5.05515E+00    2.07079E+01
 5.05721E+00    2.07069E+01
 5.09604E+00    2.12158E+01
 5.10960E+00    2.14084E+01
 5.14586E+00    2.19423E+01
 5.19301E+00    2.26020E+01
 5.19702E+00    2.26474E+01
 5.19794E+00    2.26527E+01
 5.29202E+00    2.34786E+01
 5.37573E+00    2.42012E+01
 5.45007E+00    2.48336E+01
 5.51595E+00    2.53868E+01
 5.63317E+00    2.63551E+01
 5.72272E+00    2.70813E+01
 5.79082E+00    2.76259E+01
 5.89448E+00    2.84428E+01
 6.00000E+00    2.92598E+01
 6.23574E+00    2.88103E+01
 6.41860E+00    2.84731E+01
 6.70300E+00    2.79674E+01
 7.00000E+00    2.74617E+01
 7.11782E+00    2.66675E+01
 7.22254E+00    2.59725E+01
 7.31543E+00    2.53644E+01
 7.39769E+00    2.48323E+01
 7.54388E+00    2.39012E+01
 7.65541E+00    2.32029E+01
 7.74014E+00    2.26791E+01
 7.86900E+00    2.18934E+01
 8.00000E+00    2.11078E+01
 8.11865E+00    2.03690E+01
 8.22392E+00    1.97225E+01
 8.31715E+00    1.91568E+01
 8.39958E+00    1.86619E+01
 8.47239E+00    1.82288E+01
 8.60132E+00    1.74709E+01
 8.69930E+00    1.69025E+01
 8.77352E+00    1.64762E+01
 8.88604E+00    1.58367E+01
 9.00000E+00    1.51972E+01
 9.11932E+00    1.46429E+01
 9.22501E+00    1.41578E+01
 9.31850E+00    1.37334E+01
 9.40108E+00    1.33620E+01
 9.54736E+00    1.27122E+01
 9.65856E+00    1.22247E+01
 9.74281E+00    1.18592E+01
 9.87057E+00    1.13108E+01
 1.00000E+01    1.07625E+01
 1.01199E+01    1.04179E+01
 1.02259E+01    1.01164E+01
 1.03196E+01    9.85263E+00
 1.04856E+01    9.39096E+00
 1.06119E+01    9.04471E+00
 1.07077E+01    8.78503E+00
 1.08528E+01    8.39550E+00
 1.10000E+01    8.00597E+00
 1.11203E+01    7.78478E+00
 1.12266E+01    7.59125E+00
 1.14152E+01    7.25256E+00
 1.15586E+01    6.99854E+00
 1.16674E+01    6.80803E+00
 1.18326E+01    6.52226E+00
 1.20000E+01    6.23649E+00
 1.21207E+01    6.11252E+00
 1.23348E+01    5.89558E+00
 1.24978E+01    5.73287E+00
 1.26215E+01    5.61083E+00
 1.28094E+01    5.42779E+00
 1.30000E+01    5.24474E+00
 1.32431E+01    5.12645E+00
 1.34284E+01    5.03773E+00
 1.37112E+01    4.90466E+00
 1.40000E+01    4.77158E+00
 1.42478E+01    4.70855E+00
 1.45000E+01    4.64552E+00
 1.50000E+01    4.55828E+00
 1.54919E+01    4.50049E+00
 1.60000E+01    4.44270E+00
 1.64924E+01    4.39832E+00
 1.70000E+01    4.35394E+00
 1.74929E+01    4.31086E+00
 1.80000E+01    4.26778E+00
 1.84932E+01    4.22344E+00
 1.90000E+01    4.17911E+00
 1.94936E+01    4.13335E+00
 2.00000E+01    4.08759E+00
