# n + Cl 37 : (n,el)    
# jendl4.0   T.WATANABE                        EVAL-MAR94
# uncertainties: n
# # energies =    69
#   E(MeV)       xs(mb) 
 1.00000E-10    1.91633E+03
 5.00000E-09    1.20769E+03
 1.00000E-08    1.18309E+03
 1.50000E-08    1.17346E+03
 2.00000E-08    1.16824E+03
 2.50000E-08    1.16498E+03
 3.00000E-08    1.16274E+03
 3.50000E-08    1.16083E+03
 4.20000E-08    1.15913E+03
 5.00000E-08    1.15786E+03
 5.80000E-08    1.15684E+03
 6.70000E-08    1.15589E+03
 8.00000E-08    1.15493E+03
 1.00000E-07    1.15383E+03
 1.40000E-07    1.15294E+03
 1.80000E-07    1.15247E+03
 2.20000E-07    1.15212E+03
 2.50000E-07    1.15188E+03
 2.80000E-07    1.15179E+03
 3.00000E-07    1.15173E+03
 3.20000E-07    1.15164E+03
 3.50000E-07    1.15150E+03
 4.00000E-07    1.15125E+03
 5.00000E-07    1.15107E+03
 6.25000E-07    1.15094E+03
 7.80000E-07    1.15084E+03
 8.50000E-07    1.15078E+03
 9.10000E-07    1.15074E+03
 9.50000E-07    1.15071E+03
 9.72000E-07    1.15069E+03
 9.96000E-07    1.15067E+03
 1.02000E-06    1.15064E+03
 1.04500E-06    1.15062E+03
 1.07100E-06    1.15060E+03
 1.09700E-06    1.15058E+03
 1.12300E-06    1.15055E+03
 1.15000E-06    1.15049E+03
 1.30000E-06    1.15045E+03
 1.50000E-06    1.15037E+03
 2.10000E-06    1.15027E+03
 2.60000E-06    1.15016E+03
 3.30000E-06    1.15003E+03
 4.00000E-06    1.14949E+03
 9.87700E-06    1.14833E+03
 1.59680E-05    1.14672E+03
 2.77000E-05    1.14379E+03
 4.80520E-05    1.13933E+03
 7.55014E-05    1.13047E+03
 1.48728E-04    1.10957E+03
 3.67262E-04    1.06938E+03
 9.06898E-04    1.02626E+03
 1.42510E-03    9.87798E+02
 2.23945E-03    9.33128E+02
 3.51910E-03    8.28842E+02
 5.53000E-03    7.84056E+03
 9.11800E-03    2.28610E+03
 1.50300E-02    1.90171E+03
 2.47800E-02    5.60925E+03
 4.08500E-02    3.70306E+03
 6.73400E-02    2.33467E+03
 1.11000E-01    3.13893E+03
 1.83000E-01    2.08868E+03
 3.02000E-01    1.95957E+03
 5.00000E-01    2.07970E+03
 8.21000E-01    2.43397E+03
 1.35300E+00    3.00427E+03
 2.23100E+00    3.28042E+03
 3.67900E+00    2.65809E+03
 6.06500E+00    1.67276E+03
