# n + Cl 37 : (n,n'06)  
# jendl4.0   T.WATANABE                        EVAL-MAR94
# uncertainties: n
# # energies =   134
#   E(MeV)       xs(mb) 
 3.84288E+00    0.00000E+00
 3.84330E+00    4.04636E-02
 3.84450E+00    1.60685E-01
 3.84688E+00    3.99249E-01
 3.84923E+00    6.34085E-01
 3.85385E+00    1.09642E+00
 3.85834E+00    1.54430E+00
 3.86269E+00    1.97819E+00
 3.87113E+00    2.81885E+00
 3.87906E+00    3.60697E+00
 3.88651E+00    4.34582E+00
 3.89351E+00    5.03851E+00
 3.90667E+00    6.33728E+00
 3.91821E+00    7.47371E+00
 3.92834E+00    8.46808E+00
 3.93723E+00    9.33816E+00
 3.95283E+00    1.08608E+01
 3.96457E+00    1.20028E+01
 3.98225E+00    1.37157E+01
 4.00000E+00    1.54287E+01
 4.02948E+00    1.67917E+01
 4.05172E+00    1.78140E+01
 4.08533E+00    1.93474E+01
 4.11921E+00    2.08808E+01
 4.12579E+00    2.11003E+01
 4.16636E+00    2.26657E+01
 4.19704E+00    2.38398E+01
 4.24349E+00    2.56008E+01
 4.29046E+00    2.73619E+01
 4.33761E+00    2.87884E+01
 4.38528E+00    3.02149E+01
 4.38908E+00    3.03336E+01
 4.45216E+00    3.20105E+01
 4.51615E+00    3.36873E+01
 4.58159E+00    3.53564E+01
 4.62555E+00    3.62826E+01
 4.66993E+00    3.72087E+01
 4.72642E+00    3.83992E+01
 4.76924E+00    3.92921E+01
 4.83420E+00    4.06315E+01
 4.90004E+00    4.19708E+01
 4.93209E+00    4.25928E+01
 4.94205E+00    4.27240E+01
 4.96948E+00    4.30642E+01
 4.98633E+00    4.32538E+01
 5.00000E+00    4.34616E+01
 5.03789E+00    4.38788E+01
 5.05515E+00    4.40081E+01
 5.05721E+00    4.39840E+01
 5.09604E+00    4.42630E+01
 5.10960E+00    4.43614E+01
 5.14586E+00    4.46428E+01
 5.19301E+00    4.48682E+01
 5.19702E+00    4.48643E+01
 5.19794E+00    4.48288E+01
 5.38780E+00    4.41450E+01
 5.53473E+00    4.36322E+01
 5.76267E+00    4.28629E+01
 6.00000E+00    4.20937E+01
 6.11673E+00    4.08246E+01
 6.22074E+00    3.97142E+01
 6.31319E+00    3.87426E+01
 6.39521E+00    3.78924E+01
 6.46786E+00    3.71485E+01
 6.59697E+00    3.58467E+01
 6.69550E+00    3.48703E+01
 6.77036E+00    3.41380E+01
 6.88422E+00    3.30396E+01
 7.00000E+00    3.19412E+01
 7.11782E+00    3.07582E+01
 7.22254E+00    2.97231E+01
 7.31543E+00    2.88174E+01
 7.39769E+00    2.80249E+01
 7.47043E+00    2.73315E+01
 7.59944E+00    2.61180E+01
 7.69766E+00    2.52079E+01
 7.77216E+00    2.45253E+01
 7.88525E+00    2.35014E+01
 8.00000E+00    2.24775E+01
 8.11865E+00    2.16401E+01
 8.22392E+00    2.09074E+01
 8.31715E+00    2.02663E+01
 8.39958E+00    1.97053E+01
 8.47239E+00    1.92144E+01
 8.60132E+00    1.83554E+01
 8.69930E+00    1.77112E+01
 8.77352E+00    1.72280E+01
 8.88604E+00    1.65032E+01
 9.00000E+00    1.57784E+01
 9.11932E+00    1.52110E+01
 9.22501E+00    1.47145E+01
 9.31850E+00    1.42800E+01
 9.40108E+00    1.38999E+01
 9.54736E+00    1.32347E+01
 9.65856E+00    1.27358E+01
 9.74281E+00    1.23616E+01
 9.87057E+00    1.18003E+01
 1.00000E+01    1.12390E+01
 1.01199E+01    1.08950E+01
 1.02259E+01    1.05940E+01
 1.03196E+01    1.03307E+01
 1.04856E+01    9.86981E+00
 1.06119E+01    9.52415E+00
 1.07077E+01    9.26491E+00
 1.08528E+01    8.87604E+00
 1.10000E+01    8.48718E+00
 1.11203E+01    8.27726E+00
 1.12266E+01    8.09359E+00
 1.14152E+01    7.77215E+00
 1.15586E+01    7.53108E+00
 1.16674E+01    7.35027E+00
 1.18326E+01    7.07906E+00
 1.20000E+01    6.80785E+00
 1.22425E+01    6.57817E+00
 1.24277E+01    6.40591E+00
 1.25683E+01    6.27672E+00
 1.27824E+01    6.08293E+00
 1.30000E+01    5.88914E+00
 1.32431E+01    5.78238E+00
 1.36163E+01    5.62224E+00
 1.38068E+01    5.54217E+00
 1.40000E+01    5.46210E+00
 1.45000E+01    5.35064E+00
 1.50000E+01    5.27374E+00
 1.54919E+01    5.22198E+00
 1.60000E+01    5.17023E+00
 1.64924E+01    5.12816E+00
 1.70000E+01    5.08608E+00
 1.74929E+01    5.04251E+00
 1.80000E+01    4.99894E+00
 1.84932E+01    4.95146E+00
 1.90000E+01    4.90398E+00
 1.94936E+01    4.85253E+00
 2.00000E+01    4.80108E+00
