# n + Cl 37 : (n,n'10)  
# jendl4.0   T.WATANABE                        EVAL-MAR94
# uncertainties: n
# # energies =   134
#   E(MeV)       xs(mb) 
 4.38528E+00    0.00000E+00
 4.38540E+00    2.77026E-02
 4.38724E+00    4.54876E-01
 4.38908E+00    8.82047E-01
 4.39692E+00    1.12837E+00
 4.40427E+00    1.35930E+00
 4.41119E+00    1.57579E+00
 4.42417E+00    1.98172E+00
 4.43557E+00    2.33691E+00
 4.44556E+00    2.64769E+00
 4.46310E+00    3.19157E+00
 4.47631E+00    3.59948E+00
 4.49618E+00    4.21135E+00
 4.51615E+00    4.82321E+00
 4.54875E+00    5.36463E+00
 4.58159E+00    5.90606E+00
 4.60352E+00    6.22592E+00
 4.63660E+00    6.70570E+00
 4.66993E+00    7.18549E+00
 4.69809E+00    7.57634E+00
 4.72287E+00    7.91834E+00
 4.76655E+00    8.51683E+00
 4.79958E+00    8.96570E+00
 4.84955E+00    9.63900E+00
 4.90004E+00    1.03123E+01
 4.93209E+00    1.07573E+01
 4.94205E+00    1.08826E+01
 4.96948E+00    1.12421E+01
 4.98633E+00    1.14522E+01
 5.00000E+00    1.15983E+01
 5.03789E+00    1.20350E+01
 5.05515E+00    1.22321E+01
 5.05721E+00    1.22566E+01
 5.09604E+00    1.27295E+01
 5.10960E+00    1.28587E+01
 5.14586E+00    1.32829E+01
 5.19301E+00    1.38183E+01
 5.19702E+00    1.38530E+01
 5.19794E+00    1.38576E+01
 5.24477E+00    1.42558E+01
 5.28905E+00    1.46291E+01
 5.37310E+00    1.53291E+01
 5.44773E+00    1.59416E+01
 5.51388E+00    1.64775E+01
 5.57242E+00    1.69464E+01
 5.62416E+00    1.73567E+01
 5.71585E+00    1.80748E+01
 5.78560E+00    1.86133E+01
 5.89183E+00    1.94211E+01
 6.00000E+00    2.02289E+01
 6.11673E+00    1.98402E+01
 6.22074E+00    1.95000E+01
 6.31319E+00    1.92024E+01
 6.47830E+00    1.86815E+01
 6.60496E+00    1.82909E+01
 6.70158E+00    1.79979E+01
 6.84917E+00    1.75585E+01
 7.00000E+00    1.71190E+01
 7.11782E+00    1.64409E+01
 7.22254E+00    1.58475E+01
 7.31543E+00    1.53283E+01
 7.39769E+00    1.48740E+01
 7.47043E+00    1.44765E+01
 7.53466E+00    1.41287E+01
 7.64839E+00    1.35200E+01
 7.73482E+00    1.30635E+01
 7.80028E+00    1.27211E+01
 7.89951E+00    1.22076E+01
 8.00000E+00    1.16940E+01
 8.11865E+00    1.12137E+01
 8.22392E+00    1.07935E+01
 8.31715E+00    1.04257E+01
 8.39958E+00    1.01040E+01
 8.47239E+00    9.82243E+00
 8.60132E+00    9.32974E+00
 8.69930E+00    8.96022E+00
 8.77352E+00    8.68308E+00
 8.88604E+00    8.26737E+00
 9.00000E+00    7.85166E+00
 9.11932E+00    7.52543E+00
 9.22501E+00    7.23997E+00
 9.31850E+00    6.99020E+00
 9.40108E+00    6.77165E+00
 9.47394E+00    6.58042E+00
 9.60280E+00    6.24576E+00
 9.70060E+00    5.99477E+00
 9.77460E+00    5.80652E+00
 9.88666E+00    5.52416E+00
 1.00000E+01    5.24179E+00
 1.01199E+01    5.04966E+00
 1.02259E+01    4.88156E+00
 1.03196E+01    4.73446E+00
 1.04023E+01    4.60575E+00
 1.05486E+01    4.38051E+00
 1.06597E+01    4.21158E+00
 1.07438E+01    4.08488E+00
 1.08711E+01    3.89484E+00
 1.10000E+01    3.70479E+00
 1.11203E+01    3.58679E+00
 1.12266E+01    3.48353E+00
 1.13205E+01    3.39319E+00
 1.14867E+01    3.23508E+00
 1.16129E+01    3.11650E+00
 1.17085E+01    3.02757E+00
 1.18534E+01    2.89416E+00
 1.20000E+01    2.76076E+00
 1.21207E+01    2.69289E+00
 1.23348E+01    2.57412E+00
 1.24978E+01    2.48505E+00
 1.26215E+01    2.41824E+00
 1.28094E+01    2.31803E+00
 1.30000E+01    2.21782E+00
 1.32431E+01    2.14121E+00
 1.34284E+01    2.08376E+00
 1.35691E+01    2.04066E+00
 1.37829E+01    1.97603E+00
 1.40000E+01    1.91139E+00
 1.42478E+01    1.85924E+00
 1.45000E+01    1.80709E+00
 1.47479E+01    1.76423E+00
 1.50000E+01    1.72137E+00
 1.52440E+01    1.68723E+00
 1.56174E+01    1.63603E+00
 1.60000E+01    1.58482E+00
 1.62443E+01    1.55791E+00
 1.66179E+01    1.51756E+00
 1.70000E+01    1.47720E+00
 1.72447E+01    1.45503E+00
 1.76183E+01    1.42178E+00
 1.80000E+01    1.38853E+00
 1.84932E+01    1.35093E+00
 1.90000E+01    1.31333E+00
 1.94936E+01    1.28027E+00
 2.00000E+01    1.24720E+00
