# n + Cl 37 : (n,n'04)  
# jendl4.0   T.WATANABE                        EVAL-MAR94
# uncertainties: n
# # energies =   156
#   E(MeV)       xs(mb) 
 3.72485E+00    0.00000E+00
 3.72490E+00    7.74543E-03
 3.72620E+00    2.15060E-01
 3.72875E+00    6.23210E-01
 3.73123E+00    1.01860E+00
 3.73604E+00    1.78468E+00
 3.74055E+00    2.50288E+00
 3.74478E+00    3.17619E+00
 3.75274E+00    4.43864E+00
 3.75971E+00    5.54329E+00
 3.76582E+00    6.50985E+00
 3.77654E+00    8.20134E+00
 3.78460E+00    9.46996E+00
 3.79672E+00    1.13729E+01
 3.80888E+00    1.32758E+01
 3.82584E+00    1.43740E+01
 3.84288E+00    1.54722E+01
 3.86218E+00    1.65081E+01
 3.87914E+00    1.74145E+01
 3.90901E+00    1.90006E+01
 3.93156E+00    2.01903E+01
 3.96563E+00    2.19747E+01
 4.00000E+00    2.37592E+01
 4.02948E+00    2.50861E+01
 4.05172E+00    2.60812E+01
 4.08533E+00    2.75739E+01
 4.11921E+00    2.90666E+01
 4.12579E+00    2.93590E+01
 4.16636E+00    3.10336E+01
 4.19704E+00    3.22896E+01
 4.24349E+00    3.41735E+01
 4.29046E+00    3.60575E+01
 4.33761E+00    3.80307E+01
 4.38528E+00    4.00038E+01
 4.38908E+00    4.01200E+01
 4.42051E+00    4.14843E+01
 4.46807E+00    4.35308E+01
 4.51615E+00    4.55772E+01
 4.58159E+00    4.81153E+01
 4.62555E+00    4.99183E+01
 4.66993E+00    5.17213E+01
 4.72642E+00    5.40482E+01
 4.76924E+00    5.57933E+01
 4.83420E+00    5.84111E+01
 4.90004E+00    6.10288E+01
 4.93209E+00    6.22737E+01
 4.94205E+00    6.24864E+01
 4.96948E+00    6.30732E+01
 4.98633E+00    6.33670E+01
 5.00000E+00    6.33631E+01
 5.03789E+00    6.42690E+01
 5.05515E+00    6.43773E+01
 5.05721E+00    6.44054E+01
 5.09604E+00    6.50207E+01
 5.10960E+00    6.50841E+01
 5.14586E+00    6.55684E+01
 5.19301E+00    6.59541E+01
 5.19702E+00    6.59128E+01
 5.19794E+00    6.59010E+01
 5.29202E+00    6.51275E+01
 5.46077E+00    6.37739E+01
 5.59085E+00    6.27587E+01
 5.69045E+00    6.19972E+01
 5.84317E+00    6.08551E+01
 6.00000E+00    5.97130E+01
 6.05809E+00    5.83583E+01
 6.11305E+00    5.70882E+01
 6.21746E+00    5.47068E+01
 6.31028E+00    5.26231E+01
 6.39263E+00    5.07999E+01
 6.46558E+00    4.92045E+01
 6.53008E+00    4.78086E+01
 6.58705E+00    4.65872E+01
 6.68795E+00    4.44497E+01
 6.76463E+00    4.28466E+01
 6.82272E+00    4.16442E+01
 6.91079E+00    3.98407E+01
 7.00000E+00    3.80372E+01
 7.11782E+00    3.62755E+01
 7.22254E+00    3.47339E+01
 7.31543E+00    3.33851E+01
 7.39769E+00    3.22049E+01
 7.47043E+00    3.11722E+01
 7.53466E+00    3.02686E+01
 7.59131E+00    2.94779E+01
 7.69148E+00    2.80943E+01
 7.76748E+00    2.70565E+01
 7.82497E+00    2.62782E+01
 7.91200E+00    2.51108E+01
 8.00000E+00    2.39433E+01
 8.11865E+00    2.29237E+01
 8.22392E+00    2.20315E+01
 8.31715E+00    2.12509E+01
 8.39958E+00    2.05679E+01
 8.47239E+00    1.99702E+01
 8.53661E+00    1.94472E+01
 8.65017E+00    1.85321E+01
 8.73633E+00    1.78457E+01
 8.80152E+00    1.73309E+01
 8.90020E+00    1.65587E+01
 9.00000E+00    1.57865E+01
 9.11932E+00    1.51380E+01
 9.22501E+00    1.45705E+01
 9.31850E+00    1.40740E+01
 9.40108E+00    1.36395E+01
 9.47394E+00    1.32594E+01
 9.60280E+00    1.25941E+01
 9.70060E+00    1.20952E+01
 9.77460E+00    1.17209E+01
 9.88666E+00    1.11596E+01
 1.00000E+01    1.05983E+01
 1.01199E+01    1.02128E+01
 1.02259E+01    9.87543E+00
 1.03196E+01    9.58026E+00
 1.04023E+01    9.32198E+00
 1.05486E+01    8.87000E+00
 1.06597E+01    8.53102E+00
 1.07438E+01    8.27678E+00
 1.08711E+01    7.89542E+00
 1.10000E+01    7.51406E+00
 1.11203E+01    7.28243E+00
 1.12266E+01    7.07976E+00
 1.13205E+01    6.90242E+00
 1.14867E+01    6.59207E+00
 1.16129E+01    6.35931E+00
 1.17085E+01    6.18475E+00
 1.18534E+01    5.92289E+00
 1.20000E+01    5.66104E+00
 1.21207E+01    5.52523E+00
 1.23348E+01    5.28757E+00
 1.24978E+01    5.10932E+00
 1.26215E+01    4.97563E+00
 1.28094E+01    4.77510E+00
 1.30000E+01    4.57457E+00
 1.32431E+01    4.41667E+00
 1.34284E+01    4.29824E+00
 1.35691E+01    4.20942E+00
 1.37829E+01    4.07619E+00
 1.40000E+01    3.94296E+00
 1.42478E+01    3.83291E+00
 1.45000E+01    3.72285E+00
 1.47479E+01    3.63165E+00
 1.50000E+01    3.54044E+00
 1.52440E+01    3.46781E+00
 1.56174E+01    3.35886E+00
 1.60000E+01    3.24991E+00
 1.62443E+01    3.19326E+00
 1.66179E+01    3.10829E+00
 1.70000E+01    3.02332E+00
 1.72447E+01    2.97697E+00
 1.76183E+01    2.90744E+00
 1.80000E+01    2.83791E+00
 1.84932E+01    2.75886E+00
 1.90000E+01    2.67980E+00
 1.94936E+01    2.60942E+00
 2.00000E+01    2.53904E+00
