# n + Cl 37 : (n,xa)    
# jendl4.0   T.WATANABE                        EVAL-MAR94
# 
# # energies =   202
#   E(MeV)        xs(mb) 
 1.77367E+00    0.00000E+00
 1.77370E+00    0.00000E+00
 1.77412E+00    0.00000E+00
 1.77495E+00    0.00000E+00
 1.77660E+00    0.00000E+00
 1.77825E+00    0.00000E+00
 1.77988E+00    0.00000E+00
 1.78313E+00    0.00000E+00
 1.78633E+00    0.00000E+00
 1.78948E+00    0.00000E+00
 1.79260E+00    0.00000E+00
 1.79567E+00    0.00000E+00
 1.79869E+00    0.00000E+00
 1.80466E+00    0.00000E+00
 1.81047E+00    0.00000E+00
 1.81611E+00    0.00000E+00
 1.82159E+00    0.00000E+00
 1.82692E+00    0.00000E+00
 1.83210E+00    0.00000E+00
 1.83712E+00    0.00000E+00
 1.84690E+00    0.00000E+00
 1.85612E+00    0.00000E+00
 1.86480E+00    0.00000E+00
 1.87297E+00    0.00000E+00
 1.88067E+00    0.00000E+00
 1.88792E+00    0.00000E+00
 1.90158E+00    0.00000E+00
 1.91361E+00    0.00000E+00
 1.92420E+00    0.00000E+00
 1.93352E+00    0.00000E+00
 1.94993E+00    0.00000E+00
 1.96233E+00    0.00000E+00
 1.97168E+00    0.00000E+00
 1.98579E+00    0.00000E+00
 2.00000E+00    0.00000E+00
 2.01271E+00    1.38539E-06
 2.02530E+00    2.75774E-06
 2.03777E+00    4.11701E-06
 2.05013E+00    5.46324E-06
 2.06236E+00    6.79637E-06
 2.07447E+00    8.11646E-06
 2.09852E+00    1.07381E-05
 2.12209E+00    1.33068E-05
 2.14517E+00    1.58227E-05
 2.16778E+00    1.82861E-05
 2.18990E+00    2.06972E-05
 2.21154E+00    2.30565E-05
 2.23272E+00    2.53643E-05
 2.25342E+00    2.76210E-05
 2.27367E+00    2.98272E-05
 2.29345E+00    3.19833E-05
 2.31278E+00    3.40899E-05
 2.33166E+00    3.61476E-05
 2.35009E+00    3.81571E-05
 2.38623E+00    4.20957E-05
 2.42061E+00    4.58431E-05
 2.45330E+00    4.94054E-05
 2.48434E+00    5.27886E-05
 2.51380E+00    5.59993E-05
 2.54173E+00    5.90439E-05
 2.56820E+00    6.19290E-05
 2.59327E+00    6.46609E-05
 2.61699E+00    6.72464E-05
 2.66206E+00    7.21580E-05
 2.70212E+00    7.65250E-05
 2.73768E+00    8.04001E-05
 2.76917E+00    8.38325E-05
 2.79702E+00    8.68683E-05
 2.84644E+00    9.22545E-05
 2.88408E+00    9.63565E-05
 2.94147E+00    1.02612E-04
 3.00000E+00    1.08991E-04
 3.04170E+00    2.84696E-03
 3.07335E+00    4.92539E-03
 3.12145E+00    8.08366E-03
 3.17030E+00    1.12914E-02
 3.17074E+00    1.13202E-02
 3.18790E+00    1.24470E-02
 3.18800E+00    1.24536E-02
 3.21916E+00    1.44997E-02
 3.24865E+00    1.64361E-02
 3.27654E+00    1.82676E-02
 3.30291E+00    1.99989E-02
 3.32782E+00    2.16346E-02
 3.35135E+00    2.31793E-02
 3.37355E+00    2.46374E-02
 3.41558E+00    2.73974E-02
 3.45279E+00    2.98406E-02
 3.48568E+00    3.20002E-02
 3.51472E+00    3.39068E-02
 3.54032E+00    3.55880E-02
 3.58558E+00    3.85597E-02
 3.61990E+00    4.08133E-02
 3.67200E+00    4.42343E-02
 3.72485E+00    4.77046E-02
 3.72490E+00    4.77079E-02
 3.76666E+00    5.04497E-02
 3.80888E+00    5.32223E-02
 3.80900E+00    5.32301E-02
 3.84288E+00    5.54548E-02
 3.84330E+00    5.54824E-02
 3.88189E+00    5.80163E-02
 3.91109E+00    5.99334E-02
 3.95529E+00    6.28361E-02
 4.00000E+00    6.57717E-02
 4.05917E+00    1.97094E-01
 4.11921E+00    3.30359E-01
 4.11930E+00    3.30559E-01
 4.12579E+00    3.44964E-01
 4.12590E+00    3.45207E-01
 4.16644E+00    4.35183E-01
 4.22799E+00    5.71807E-01
 4.29046E+00    7.10450E-01
 4.29060E+00    7.10760E-01
 4.33768E+00    8.15258E-01
 4.38528E+00    9.20904E-01
 4.38540E+00    9.21170E-01
 4.38908E+00    9.29338E-01
 4.38920E+00    9.29605E-01
 4.45222E+00    1.06948E+00
 4.51615E+00    1.21137E+00
 4.51630E+00    1.21170E+00
 4.58159E+00    1.35662E+00
 4.62555E+00    1.45418E+00
 4.66993E+00    1.55269E+00
 4.72642E+00    1.67808E+00
 4.81245E+00    1.86901E+00
 4.90004E+00    2.06342E+00
 4.93209E+00    2.13455E+00
 4.94205E+00    2.15666E+00
 4.96948E+00    2.21754E+00
 4.98633E+00    2.25494E+00
 5.00000E+00    2.28528E+00
 5.03789E+00    2.71846E+00
 5.05515E+00    2.91578E+00
 5.05721E+00    2.93933E+00
 5.09604E+00    3.38326E+00
 5.10960E+00    3.53828E+00
 5.14586E+00    3.95283E+00
 5.19301E+00    4.49187E+00
 5.19702E+00    4.53772E+00
 5.19794E+00    4.54823E+00
 5.29202E+00    5.62378E+00
 5.37573E+00    6.58083E+00
 5.45007E+00    7.43066E+00
 5.58263E+00    8.94625E+00
 5.68417E+00    1.01071E+01
 5.76153E+00    1.09915E+01
 5.87956E+00    1.23409E+01
 6.00000E+00    1.37178E+01
 6.11673E+00    1.51447E+01
 6.32651E+00    1.77089E+01
 6.48855E+00    1.96896E+01
 6.73943E+00    2.27562E+01
 7.00000E+00    2.59413E+01
 7.23762E+00    2.71957E+01
 7.60927E+00    2.91576E+01
 8.00000E+00    3.12203E+01
 8.23907E+00    3.18121E+01
 8.61113E+00    3.27332E+01
 9.00000E+00    3.36959E+01
 1.00000E+01    4.09170E+01
 1.04881E+01    4.21624E+01
 1.10000E+01    4.34687E+01
 1.12419E+01    4.35967E+01
 1.14268E+01    4.36945E+01
 1.17099E+01    4.38443E+01
 1.20000E+01    4.39978E+01
 1.21207E+01    4.36620E+01
 1.23348E+01    4.30664E+01
 1.24978E+01    4.26127E+01
 1.26215E+01    4.22686E+01
 1.28094E+01    4.17459E+01
 1.30000E+01    4.12155E+01
 1.31210E+01    4.08249E+01
 1.33354E+01    4.01327E+01
 1.34986E+01    3.96060E+01
 1.36222E+01    3.92068E+01
 1.38098E+01    3.86012E+01
 1.40000E+01    3.79871E+01
 1.42478E+01    3.67187E+01
 1.43734E+01    3.60760E+01
 1.45000E+01    3.54277E+01
 1.47479E+01    3.41048E+01
 1.50000E+01    3.27593E+01
 1.52440E+01    3.14952E+01
 1.54296E+01    3.05337E+01
 1.57122E+01    2.90695E+01
 1.60000E+01    2.75784E+01
 1.62443E+01    2.66514E+01
 1.66179E+01    2.52344E+01
 1.68079E+01    2.45137E+01
 1.70000E+01    2.37848E+01
 1.72447E+01    2.30555E+01
 1.76183E+01    2.19418E+01
 1.80000E+01    2.08040E+01
 1.82450E+01    2.02677E+01
 1.86187E+01    1.94494E+01
 1.90000E+01    1.86145E+01
 1.94936E+01    1.76541E+01
 1.97452E+01    1.71645E+01
 2.00000E+01    1.66687E+01
