# n + Y  89 : (n,el)    
# endfb8.0   Rochman,Chadwick,Herman,Kawano+   EVAL-AUG06
# uncertainties: y
# # energies =    69
#   E(MeV)       xs(mb)       xslow(mb)      xsupp(mb)
 1.00000E-10    1.01722E+04    1.01722E+04    1.01722E+04
 5.00000E-09    7.84792E+03    7.84792E+03    7.84792E+03
 1.00000E-08    7.77948E+03    7.77948E+03    7.77948E+03
 1.50000E-08    7.75273E+03    7.75273E+03    7.75273E+03
 2.00000E-08    7.73792E+03    7.73792E+03    7.73792E+03
 2.50000E-08    7.72902E+03    7.72902E+03    7.72902E+03
 3.00000E-08    7.72257E+03    7.72257E+03    7.72257E+03
 3.50000E-08    7.71751E+03    7.71751E+03    7.71751E+03
 4.20000E-08    7.71240E+03    7.71240E+03    7.71240E+03
 5.00000E-08    7.70904E+03    7.70904E+03    7.70904E+03
 5.80000E-08    7.70609E+03    7.70609E+03    7.70609E+03
 6.70000E-08    7.70304E+03    7.70304E+03    7.70304E+03
 8.00000E-08    7.70055E+03    7.70055E+03    7.70055E+03
 1.00000E-07    7.69686E+03    7.69686E+03    7.69686E+03
 1.40000E-07    7.69436E+03    7.69436E+03    7.69436E+03
 1.80000E-07    7.69218E+03    7.69218E+03    7.69218E+03
 2.20000E-07    7.69064E+03    7.69064E+03    7.69064E+03
 2.50000E-07    7.69003E+03    7.69003E+03    7.69003E+03
 2.80000E-07    7.68954E+03    7.68954E+03    7.68954E+03
 3.00000E-07    7.68915E+03    7.68915E+03    7.68915E+03
 3.20000E-07    7.68866E+03    7.68866E+03    7.68866E+03
 3.50000E-07    7.68788E+03    7.68788E+03    7.68788E+03
 4.00000E-07    7.68643E+03    7.68643E+03    7.68643E+03
 5.00000E-07    7.68423E+03    7.68423E+03    7.68423E+03
 6.25000E-07    7.68221E+03    7.68221E+03    7.68221E+03
 7.80000E-07    7.68090E+03    7.68090E+03    7.68090E+03
 8.50000E-07    7.68015E+03    7.68015E+03    7.68015E+03
 9.10000E-07    7.67958E+03    7.67958E+03    7.67958E+03
 9.50000E-07    7.67923E+03    7.67923E+03    7.67923E+03
 9.72000E-07    7.67897E+03    7.67897E+03    7.67897E+03
 9.96000E-07    7.67869E+03    7.67869E+03    7.67869E+03
 1.02000E-06    7.67841E+03    7.67841E+03    7.67841E+03
 1.04500E-06    7.67812E+03    7.67812E+03    7.67812E+03
 1.07100E-06    7.67783E+03    7.67783E+03    7.67783E+03
 1.09700E-06    7.67753E+03    7.67753E+03    7.67753E+03
 1.12300E-06    7.67723E+03    7.67723E+03    7.67723E+03
 1.15000E-06    7.67623E+03    7.67623E+03    7.67623E+03
 1.30000E-06    7.67425E+03    7.67425E+03    7.67425E+03
 1.50000E-06    7.66985E+03    7.66985E+03    7.66985E+03
 2.10000E-06    7.66349E+03    7.66349E+03    7.66349E+03
 2.60000E-06    7.65670E+03    7.65670E+03    7.65670E+03
 3.30000E-06    7.64869E+03    7.64869E+03    7.64869E+03
 4.00000E-06    7.61615E+03    7.61615E+03    7.61615E+03
 9.87700E-06    7.55222E+03    7.55222E+03    7.55222E+03
 1.59680E-05    7.46879E+03    7.46879E+03    7.46879E+03
 2.77000E-05    7.32286E+03    7.32286E+03    7.32286E+03
 4.80520E-05    7.13602E+03    7.13602E+03    7.13602E+03
 7.55014E-05    6.84761E+03    6.84761E+03    6.84761E+03
 1.48728E-04    6.35215E+03    6.35215E+03    6.35215E+03
 3.67262E-04    5.80067E+03    5.80067E+03    5.80067E+03
 9.06898E-04    5.47123E+03    5.47123E+03    5.47123E+03
 1.42510E-03    5.27424E+03    5.27424E+03    5.27424E+03
 2.23945E-03    7.20079E+03    7.20079E+03    7.20079E+03
 3.51910E-03    5.05261E+03    5.05261E+03    5.05261E+03
 5.53000E-03    7.30017E+03    7.30017E+03    7.30017E+03
 9.11800E-03    6.88554E+03    6.88554E+03    6.88554E+03
 1.50300E-02    7.07278E+03    7.07278E+03    7.07278E+03
 2.47800E-02    7.44829E+03    7.44829E+03    7.44829E+03
 4.08500E-02    8.02475E+03    8.02475E+03    8.02475E+03
 6.73400E-02    7.55878E+03    7.55878E+03    7.55878E+03
 1.11000E-01    7.56338E+03    7.56338E+03    7.56338E+03
 1.83000E-01    7.69658E+03    7.69658E+03    7.69658E+03
 3.02000E-01    7.97083E+03    7.97083E+03    7.97083E+03
 5.00000E-01    7.69312E+03    7.69312E+03    7.69312E+03
 8.21000E-01    6.13042E+03    6.13042E+03    6.13042E+03
 1.35300E+00    4.17432E+03    4.17432E+03    4.17432E+03
 2.23100E+00    2.54170E+03    2.54170E+03    2.54170E+03
 3.67900E+00    2.05820E+03    2.05820E+03    2.05820E+03
 6.06500E+00    2.46743E+03    2.46743E+03    2.46743E+03
