# n + Ca 44 : (n,n')    
# jendl4.0   K.Shibata                         EVAL-JUN06
# uncertainties: n
# # energies =    69
#   E(MeV)       xs(mb) 
 1.18365E+00    0.00000E+00
 1.50000E+00    3.59188E+02
 1.92672E+00    5.11189E+02
 2.00000E+00    5.83980E+02
 2.33549E+00    6.60535E+02
 2.50000E+00    7.18368E+02
 2.71746E+00    7.27826E+02
 3.00000E+00    8.84408E+02
 3.11416E+00    8.76414E+02
 3.36038E+00    8.74724E+02
 3.37706E+00    8.74633E+02
 3.38381E+00    8.78145E+02
 3.43424E+00    9.16860E+02
 3.50000E+00    9.98515E+02
 3.66256E+00    9.81502E+02
 3.74552E+00    9.82631E+02
 3.76046E+00    9.85263E+02
 3.79698E+00    9.97289E+02
 3.86285E+00    1.02361E+03
 3.95369E+00    1.08659E+03
 4.00000E+00    1.11934E+03
 4.00330E+00    1.11868E+03
 4.01261E+00    1.11689E+03
 4.10345E+00    1.10499E+03
 4.18590E+00    1.09961E+03
 4.26467E+00    1.10309E+03
 4.29198E+00    1.10725E+03
 4.35796E+00    1.12622E+03
 4.41422E+00    1.14842E+03
 4.45841E+00    1.17205E+03
 4.50000E+00    1.20130E+03
 4.50035E+00    1.20120E+03
 4.51038E+00    1.19883E+03
 4.53882E+00    1.19325E+03
 4.58260E+00    1.18689E+03
 4.65707E+00    1.18007E+03
 4.66965E+00    1.17951E+03
 4.67794E+00    1.17920E+03
 4.68929E+00    1.17924E+03
 4.70965E+00    1.18022E+03
 4.75773E+00    1.18514E+03
 4.79783E+00    1.19205E+03
 4.91393E+00    1.22102E+03
 4.93470E+00    1.22806E+03
 4.97776E+00    1.24649E+03
 4.99608E+00    1.25922E+03
 5.00000E+00    1.26364E+03
 5.01715E+00    1.26159E+03
 5.50000E+00    1.30074E+03
 6.00000E+00    1.33524E+03
 6.50000E+00    1.37029E+03
 7.00000E+00    1.38781E+03
 7.50000E+00    1.39502E+03
 8.00000E+00    1.39141E+03
 8.50000E+00    1.37887E+03
 9.20000E+00    1.35033E+03
 9.50000E+00    1.33582E+03
 1.00000E+01    1.31052E+03
 1.10000E+01    1.26297E+03
 1.20000E+01    1.13486E+03
 1.30000E+01    8.72083E+02
 1.40000E+01    6.17299E+02
 1.45000E+01    5.19954E+02
 1.50000E+01    4.42199E+02
 1.60000E+01    3.33881E+02
 1.70000E+01    2.66682E+02
 1.80000E+01    2.23070E+02
 1.90000E+01    1.93569E+02
 2.00000E+01    1.73002E+02
