# n + Ca 44 : (n,xa)    
# jendl4.0   K.Shibata                         EVAL-JUN06
# 
# # energies =    69
#   E(MeV)        xs(mb) 
 1.18365E+00    0.00000E+00
 1.50000E+00    0.00000E+00
 1.92672E+00    0.00000E+00
 2.00000E+00    0.00000E+00
 2.33549E+00    0.00000E+00
 2.50000E+00    0.00000E+00
 2.71746E+00    0.00000E+00
 3.00000E+00    0.00000E+00
 3.11416E+00    0.00000E+00
 3.36038E+00    0.00000E+00
 3.37706E+00    0.00000E+00
 3.38381E+00    0.00000E+00
 3.43424E+00    0.00000E+00
 3.50000E+00    0.00000E+00
 3.66256E+00    0.00000E+00
 3.74552E+00    0.00000E+00
 3.76046E+00    0.00000E+00
 3.79698E+00    0.00000E+00
 3.86285E+00    0.00000E+00
 3.95369E+00    0.00000E+00
 4.00000E+00    0.00000E+00
 4.00330E+00    0.00000E+00
 4.01261E+00    0.00000E+00
 4.10345E+00    0.00000E+00
 4.18590E+00    0.00000E+00
 4.26467E+00    0.00000E+00
 4.29198E+00    0.00000E+00
 4.35796E+00    0.00000E+00
 4.41422E+00    0.00000E+00
 4.45841E+00    0.00000E+00
 4.50000E+00    0.00000E+00
 4.50035E+00    0.00000E+00
 4.51038E+00    0.00000E+00
 4.53882E+00    0.00000E+00
 4.58260E+00    0.00000E+00
 4.65707E+00    0.00000E+00
 4.66965E+00    0.00000E+00
 4.67794E+00    0.00000E+00
 4.68929E+00    0.00000E+00
 4.70965E+00    0.00000E+00
 4.75773E+00    0.00000E+00
 4.79783E+00    0.00000E+00
 4.91393E+00    0.00000E+00
 4.93470E+00    0.00000E+00
 4.97776E+00    0.00000E+00
 4.99608E+00    0.00000E+00
 5.00000E+00    0.00000E+00
 5.01715E+00    9.89685E-06
 5.50000E+00    2.88570E-04
 6.00000E+00    5.02880E-03
 6.50000E+00    4.23922E-02
 7.00000E+00    2.17489E-01
 7.50000E+00    7.70596E-01
 8.00000E+00    2.01472E+00
 8.50000E+00    4.00679E+00
 9.20000E+00    7.03494E+00
 9.50000E+00    8.00944E+00
 1.00000E+01    8.96065E+00
 1.10000E+01    9.16586E+00
 1.20000E+01    9.39687E+00
 1.30000E+01    1.29350E+01
 1.40000E+01    2.22232E+01
 1.45000E+01    2.93270E+01
 1.50000E+01    3.80711E+01
 1.60000E+01    6.02966E+01
 1.70000E+01    8.77652E+01
 1.80000E+01    1.18717E+02
 1.90000E+01    1.51405E+02
 2.00000E+01    1.84264E+02
