# n + Sm146 : (n,n'06)  
# tendl.2019 A.J. Koning and D. Rochman        EVAL-NOV19
# uncertainties: n
# # energies =    84
#   E(MeV)       xs(mb) 
 2.05982E+00    0.00000E+00
 2.09780E+00    8.17636E+00
 2.17070E+00    2.38703E+01
 2.20000E+00    3.01780E+01
 2.22628E+00    3.23613E+01
 2.23780E+00    3.33183E+01
 2.24033E+00    3.35286E+01
 2.24642E+00    3.40345E+01
 2.28552E+00    3.72829E+01
 2.29655E+00    3.81992E+01
 2.34711E+00    4.23997E+01
 2.40000E+00    4.67937E+01
 2.41751E+00    4.75640E+01
 2.42565E+00    4.79221E+01
 2.45584E+00    4.92503E+01
 2.53074E+00    5.25453E+01
 2.54850E+00    5.33267E+01
 2.55558E+00    5.36381E+01
 2.56175E+00    5.39096E+01
 2.56957E+00    5.42536E+01
 2.60000E+00    5.55923E+01
 2.61797E+00    5.54270E+01
 2.62076E+00    5.54014E+01
 2.62309E+00    5.53800E+01
 2.65422E+00    5.50937E+01
 2.66801E+00    5.49669E+01
 2.68558E+00    5.48053E+01
 2.69673E+00    5.47028E+01
 2.80000E+00    5.37531E+01
 3.00000E+00    4.49224E+01
 3.20000E+00    3.44911E+01
 3.40000E+00    2.51622E+01
 3.60000E+00    1.80009E+01
 3.80000E+00    1.28787E+01
 4.00000E+00    9.28822E+00
 4.20000E+00    6.77332E+00
 4.40000E+00    4.99200E+00
 4.60000E+00    3.71510E+00
 4.80000E+00    2.78649E+00
 5.00000E+00    2.10381E+00
 5.20000E+00    1.59642E+00
 5.40000E+00    1.21533E+00
 5.60000E+00    9.27421E-01
 5.80000E+00    7.08750E-01
 6.00000E+00    5.42488E-01
 6.20000E+00    4.14472E-01
 6.40000E+00    3.17772E-01
 6.60000E+00    2.43906E-01
 6.80000E+00    1.87830E-01
 7.00000E+00    1.44606E-01
 7.20000E+00    1.11838E-01
 7.40000E+00    8.65614E-02
 7.60000E+00    6.71808E-02
 7.80000E+00    5.22897E-02
 8.00000E+00    4.07150E-02
 8.50000E+00    2.20511E-02
 9.00000E+00    1.20594E-02
 9.50000E+00    6.62301E-03
 1.00000E+01    3.64543E-03
 1.05000E+01    2.01593E-03
 1.10000E+01    1.12310E-03
 1.15000E+01    6.31369E-04
 1.20000E+01    3.58415E-04
 1.25000E+01    2.05600E-04
 1.30000E+01    1.19122E-04
 1.35000E+01    6.97223E-05
 1.40000E+01    4.12094E-05
 1.45000E+01    2.45672E-05
 1.50000E+01    1.47630E-05
 1.60000E+01    5.44197E-06
 1.70000E+01    2.05385E-06
 1.80000E+01    7.92220E-07
 1.90000E+01    3.10760E-07
 2.00000E+01    1.25410E-07
 2.10000E+01    5.19120E-08
 2.20000E+01    2.18970E-08
 2.30000E+01    9.42790E-09
 2.40000E+01    4.12920E-09
 2.50000E+01    1.83720E-09
 2.60000E+01    8.28680E-10
 2.70000E+01    3.78650E-10
 2.80000E+01    1.75060E-10
 2.90000E+01    8.18460E-11
 3.00000E+01    3.86910E-11
