# n + Sm146 : (n,n'15)  
# tendl.2019 A.J. Koning and D. Rochman        EVAL-NOV19
# uncertainties: n
# # energies =    74
#   E(MeV)       xs(mb) 
 2.34711E+00    0.00000E+00
 2.40000E+00    2.05248E+01
 2.41751E+00    2.10262E+01
 2.42565E+00    2.12593E+01
 2.45584E+00    2.21238E+01
 2.53074E+00    2.42686E+01
 2.54850E+00    2.47772E+01
 2.55558E+00    2.49799E+01
 2.56175E+00    2.51566E+01
 2.56957E+00    2.53805E+01
 2.60000E+00    2.62519E+01
 2.61797E+00    2.61680E+01
 2.62076E+00    2.61549E+01
 2.62309E+00    2.61441E+01
 2.65422E+00    2.59986E+01
 2.66801E+00    2.59342E+01
 2.68558E+00    2.58522E+01
 2.69673E+00    2.58001E+01
 2.80000E+00    2.53177E+01
 3.00000E+00    2.25365E+01
 3.20000E+00    1.82575E+01
 3.40000E+00    1.35995E+01
 3.60000E+00    9.60913E+00
 3.80000E+00    6.61886E+00
 4.00000E+00    4.52261E+00
 4.20000E+00    3.09928E+00
 4.40000E+00    2.14148E+00
 4.60000E+00    1.49568E+00
 4.80000E+00    1.05602E+00
 5.00000E+00    7.53517E-01
 5.20000E+00    5.42586E-01
 5.40000E+00    3.93382E-01
 5.60000E+00    2.86712E-01
 5.80000E+00    2.09745E-01
 6.00000E+00    1.53966E-01
 6.20000E+00    1.13002E-01
 6.40000E+00    8.33860E-02
 6.60000E+00    6.17824E-02
 6.80000E+00    4.60026E-02
 7.00000E+00    3.43597E-02
 7.20000E+00    2.58658E-02
 7.40000E+00    1.95349E-02
 7.60000E+00    1.48526E-02
 7.80000E+00    1.13547E-02
 8.00000E+00    8.70926E-03
 8.50000E+00    4.59186E-03
 9.00000E+00    2.46986E-03
 9.50000E+00    1.33999E-03
 1.00000E+01    7.28797E-04
 1.05000E+01    3.97521E-04
 1.10000E+01    2.17933E-04
 1.15000E+01    1.20330E-04
 1.20000E+01    6.70173E-05
 1.25000E+01    3.77111E-05
 1.30000E+01    2.14487E-05
 1.35000E+01    1.23409E-05
 1.40000E+01    7.18277E-06
 1.45000E+01    4.22415E-06
 1.50000E+01    2.50810E-06
 1.60000E+01    9.06020E-07
 1.70000E+01    3.36350E-07
 1.80000E+01    1.27950E-07
 1.90000E+01    4.95640E-08
 2.00000E+01    1.97660E-08
 2.10000E+01    8.08930E-09
 2.20000E+01    3.37760E-09
 2.30000E+01    1.44210E-09
 2.40000E+01    6.27820E-10
 2.50000E+01    2.78350E-10
 2.60000E+01    1.25340E-10
 2.70000E+01    5.71940E-11
 2.80000E+01    2.63830E-11
 2.90000E+01    1.22850E-11
 3.00000E+01    5.77600E-12
