 Z=  11 A=  20 Na
  U[MeV]  fE1[mb/MeV]
    0.100   6.387E-06
    0.200   2.555E-05
    0.300   5.752E-05
    0.400   1.023E-04
    0.500   1.600E-04
    0.600   2.306E-04
    0.700   3.142E-04
    0.800   4.109E-04
    0.900   5.208E-04
    1.000   6.440E-04
    1.100   7.806E-04
    1.200   9.308E-04
    1.300   1.095E-03
    1.400   1.272E-03
    1.500   1.464E-03
    1.600   1.670E-03
    1.700   1.891E-03
    1.800   2.126E-03
    1.900   2.377E-03
    2.000   2.642E-03
    2.100   2.923E-03
    2.200   3.220E-03
    2.300   3.533E-03
    2.400   3.863E-03
    2.500   4.209E-03
    2.600   4.573E-03
    2.700   4.954E-03
    2.800   5.354E-03
    2.900   5.772E-03
    3.000   6.209E-03
    3.100   6.665E-03
    3.200   7.142E-03
    3.300   7.640E-03
    3.400   8.159E-03
    3.500   8.700E-03
    3.600   9.264E-03
    3.700   9.851E-03
    3.800   1.046E-02
    3.900   1.110E-02
    4.000   1.176E-02
    4.100   1.245E-02
    4.200   1.317E-02
    4.300   1.391E-02
    4.400   1.469E-02
    4.500   1.549E-02
    4.600   1.633E-02
    4.700   1.721E-02
    4.800   1.811E-02
    4.900   1.906E-02
    5.000   2.004E-02
    5.100   2.106E-02
    5.200   2.212E-02
    5.300   2.323E-02
    5.400   2.438E-02
    5.500   2.557E-02
    5.600   2.682E-02
    5.700   2.812E-02
    5.800   2.947E-02
    5.900   3.088E-02
    6.000   3.235E-02
    6.100   3.389E-02
    6.200   3.549E-02
    6.300   3.716E-02
    6.400   3.890E-02
    6.500   4.072E-02
    6.600   4.262E-02
    6.700   4.461E-02
    6.800   4.669E-02
    6.900   4.887E-02
    7.000   5.115E-02
    7.100   5.354E-02
    7.200   5.604E-02
    7.300   5.867E-02
    7.400   6.142E-02
    7.500   6.431E-02
    7.600   6.735E-02
    7.700   7.054E-02
    7.800   7.389E-02
    7.900   7.742E-02
    8.000   8.113E-02
    8.100   8.503E-02
    8.200   8.914E-02
    8.300   9.347E-02
    8.400   9.803E-02
    8.500   1.028E-01
    8.600   1.079E-01
    8.700   1.132E-01
    8.800   1.188E-01
    8.900   1.246E-01
    9.000   1.308E-01
    9.100   1.372E-01
    9.200   1.440E-01
    9.300   1.510E-01
    9.400   1.584E-01
    9.500   1.660E-01
    9.600   1.740E-01
    9.700   1.821E-01
    9.800   1.905E-01
    9.900   1.991E-01
   10.000   2.079E-01
   10.100   2.168E-01
   10.200   2.257E-01
   10.300   2.347E-01
   10.400   2.436E-01
   10.500   2.524E-01
   10.600   2.612E-01
   10.700   2.697E-01
   10.800   2.781E-01
   10.900   2.863E-01
   11.000   2.943E-01
   11.100   3.022E-01
   11.200   3.099E-01
   11.300   3.175E-01
   11.400   3.250E-01
   11.500   3.325E-01
   11.600   3.401E-01
   11.700   3.478E-01
   11.800   3.556E-01
   11.900   3.637E-01
   12.000   3.720E-01
   12.100   3.806E-01
   12.200   3.896E-01
   12.300   3.989E-01
   12.400   4.087E-01
   12.500   4.189E-01
   12.600   4.296E-01
   12.700   4.408E-01
   12.800   4.526E-01
   12.900   4.650E-01
   13.000   4.780E-01
   13.100   4.916E-01
   13.200   5.059E-01
   13.300   5.209E-01
   13.400   5.365E-01
   13.500   5.527E-01
   13.600   5.695E-01
   13.700   5.868E-01
   13.800   6.046E-01
   13.900   6.227E-01
   14.000   6.411E-01
   14.100   6.595E-01
   14.200   6.779E-01
   14.300   6.960E-01
   14.400   7.136E-01
   14.500   7.306E-01
   14.600   7.467E-01
   14.700   7.616E-01
   14.800   7.753E-01
   14.900   7.875E-01
   15.000   7.980E-01
   15.100   8.069E-01
   15.200   8.140E-01
   15.300   8.194E-01
   15.400   8.231E-01
   15.500   8.253E-01
   15.600   8.261E-01
   15.700   8.257E-01
   15.800   8.243E-01
   15.900   8.222E-01
   16.000   8.195E-01
   16.100   8.165E-01
   16.200   8.134E-01
   16.300   8.102E-01
   16.400   8.072E-01
   16.500   8.045E-01
   16.600   8.020E-01
   16.700   8.000E-01
   16.800   7.984E-01
   16.900   7.973E-01
   17.000   7.967E-01
   17.100   7.966E-01
   17.200   7.971E-01
   17.300   7.983E-01
   17.400   8.002E-01
   17.500   8.028E-01
   17.600   8.062E-01
   17.700   8.104E-01
   17.800   8.155E-01
   17.900   8.215E-01
   18.000   8.284E-01
   18.100   8.362E-01
   18.200   8.448E-01
   18.300   8.543E-01
   18.400   8.644E-01
   18.500   8.752E-01
   18.600   8.865E-01
   18.700   8.981E-01
   18.800   9.098E-01
   18.900   9.216E-01
   19.000   9.330E-01
   19.100   9.440E-01
   19.200   9.543E-01
   19.300   9.637E-01
   19.400   9.721E-01
   19.500   9.791E-01
   19.600   9.847E-01
   19.700   9.887E-01
   19.800   9.910E-01
   19.900   9.916E-01
   20.000   9.905E-01
   20.100   9.876E-01
   20.200   9.831E-01
   20.300   9.769E-01
   20.400   9.693E-01
   20.500   9.602E-01
   20.600   9.500E-01
   20.700   9.386E-01
   20.800   9.264E-01
   20.900   9.135E-01
   21.000   9.000E-01
   21.100   8.862E-01
   21.200   8.721E-01
   21.300   8.579E-01
   21.400   8.438E-01
   21.500   8.298E-01
   21.600   8.161E-01
   21.700   8.027E-01
   21.800   7.897E-01
   21.900   7.770E-01
   22.000   7.648E-01
   22.100   7.531E-01
   22.200   7.418E-01
   22.300   7.310E-01
   22.400   7.206E-01
   22.500   7.107E-01
   22.600   7.012E-01
   22.700   6.921E-01
   22.800   6.834E-01
   22.900   6.750E-01
   23.000   6.670E-01
   23.100   6.593E-01
   23.200   6.520E-01
   23.300   6.449E-01
   23.400   6.381E-01
   23.500   6.316E-01
   23.600   6.253E-01
   23.700   6.192E-01
   23.800   6.134E-01
   23.900   6.078E-01
   24.000   6.024E-01
   24.100   5.971E-01
   24.200   5.921E-01
   24.300   5.872E-01
   24.400   5.825E-01
   24.500   5.780E-01
   24.600   5.737E-01
   24.700   5.695E-01
   24.800   5.654E-01
   24.900   5.616E-01
   25.000   5.579E-01
   25.100   5.543E-01
   25.200   5.509E-01
   25.300   5.476E-01
   25.400   5.444E-01
   25.500   5.412E-01
   25.600   5.382E-01
   25.700   5.352E-01
   25.800   5.323E-01
   25.900   5.294E-01
   26.000   5.265E-01
   26.100   5.236E-01
   26.200   5.206E-01
   26.300   5.176E-01
   26.400   5.146E-01
   26.500   5.115E-01
   26.600   5.083E-01
   26.700   5.050E-01
   26.800   5.017E-01
   26.900   4.983E-01
   27.000   4.948E-01
   27.100   4.912E-01
   27.200   4.876E-01
   27.300   4.839E-01
   27.400   4.802E-01
   27.500   4.764E-01
   27.600   4.725E-01
   27.700   4.686E-01
   27.800   4.647E-01
   27.900   4.607E-01
   28.000   4.566E-01
   28.100   4.524E-01
   28.200   4.482E-01
   28.300   4.439E-01
   28.400   4.395E-01
   28.500   4.351E-01
   28.600   4.305E-01
   28.700   4.259E-01
   28.800   4.212E-01
   28.900   4.165E-01
   29.000   4.116E-01
   29.100   4.068E-01
   29.200   4.018E-01
   29.300   3.969E-01
   29.400   3.919E-01
   29.500   3.869E-01
   29.600   3.820E-01
   29.700   3.770E-01
   29.800   3.721E-01
   29.900   3.671E-01
   30.000   3.623E-01
 
 Z=  11 A=  21 Na
  U[MeV]  fE1[mb/MeV]
    0.100   5.817E-06
    0.200   2.328E-05
    0.300   5.239E-05
    0.400   9.318E-05
    0.500   1.457E-04
    0.600   2.100E-04
    0.700   2.861E-04
    0.800   3.741E-04
    0.900   4.741E-04
    1.000   5.861E-04
    1.100   7.103E-04
    1.200   8.468E-04
    1.300   9.957E-04
    1.400   1.157E-03
    1.500   1.331E-03
    1.600   1.518E-03
    1.700   1.718E-03
    1.800   1.932E-03
    1.900   2.158E-03
    2.000   2.399E-03
    2.100   2.653E-03
    2.200   2.921E-03
    2.300   3.204E-03
    2.400   3.501E-03
    2.500   3.814E-03
    2.600   4.141E-03
    2.700   4.485E-03
    2.800   4.844E-03
    2.900   5.220E-03
    3.000   5.612E-03
    3.100   6.021E-03
    3.200   6.449E-03
    3.300   6.894E-03
    3.400   7.357E-03
    3.500   7.840E-03
    3.600   8.343E-03
    3.700   8.865E-03
    3.800   9.409E-03
    3.900   9.974E-03
    4.000   1.056E-02
    4.100   1.117E-02
    4.200   1.180E-02
    4.300   1.246E-02
    4.400   1.315E-02
    4.500   1.385E-02
    4.600   1.459E-02
    4.700   1.536E-02
    4.800   1.615E-02
    4.900   1.697E-02
    5.000   1.783E-02
    5.100   1.872E-02
    5.200   1.964E-02
    5.300   2.060E-02
    5.400   2.159E-02
    5.500   2.263E-02
    5.600   2.370E-02
    5.700   2.481E-02
    5.800   2.597E-02
    5.900   2.718E-02
    6.000   2.843E-02
    6.100   2.974E-02
    6.200   3.109E-02
    6.300   3.251E-02
    6.400   3.398E-02
    6.500   3.551E-02
    6.600   3.711E-02
    6.700   3.878E-02
    6.800   4.051E-02
    6.900   4.233E-02
    7.000   4.422E-02
    7.100   4.620E-02
    7.200   4.826E-02
    7.300   5.043E-02
    7.400   5.269E-02
    7.500   5.505E-02
    7.600   5.753E-02
    7.700   6.013E-02
    7.800   6.285E-02
    7.900   6.571E-02
    8.000   6.871E-02
    8.100   7.186E-02
    8.200   7.516E-02
    8.300   7.863E-02
    8.400   8.228E-02
    8.500   8.611E-02
    8.600   9.013E-02
    8.700   9.435E-02
    8.800   9.879E-02
    8.900   1.034E-01
    9.000   1.083E-01
    9.100   1.134E-01
    9.200   1.188E-01
    9.300   1.244E-01
    9.400   1.302E-01
    9.500   1.362E-01
    9.600   1.425E-01
    9.700   1.491E-01
    9.800   1.558E-01
    9.900   1.628E-01
   10.000   1.699E-01
   10.100   1.773E-01
   10.200   1.848E-01
   10.300   1.926E-01
   10.400   2.004E-01
   10.500   2.084E-01
   10.600   2.166E-01
   10.700   2.248E-01
   10.800   2.331E-01
   10.900   2.415E-01
   11.000   2.499E-01
   11.100   2.584E-01
   11.200   2.669E-01
   11.300   2.755E-01
   11.400   2.840E-01
   11.500   2.927E-01
   11.600   3.014E-01
   11.700   3.103E-01
   11.800   3.194E-01
   11.900   3.287E-01
   12.000   3.384E-01
   12.100   3.485E-01
   12.200   3.591E-01
   12.300   3.703E-01
   12.400   3.821E-01
   12.500   3.946E-01
   12.600   4.079E-01
   12.700   4.221E-01
   12.800   4.372E-01
   12.900   4.532E-01
   13.000   4.703E-01
   13.100   4.885E-01
   13.200   5.077E-01
   13.300   5.280E-01
   13.400   5.495E-01
   13.500   5.721E-01
   13.600   5.958E-01
   13.700   6.207E-01
   13.800   6.466E-01
   13.900   6.735E-01
   14.000   7.015E-01
   14.100   7.303E-01
   14.200   7.599E-01
   14.300   7.901E-01
   14.400   8.208E-01
   14.500   8.517E-01
   14.600   8.825E-01
   14.700   9.128E-01
   14.800   9.423E-01
   14.900   9.706E-01
   15.000   9.973E-01
   15.100   1.022E+00
   15.200   1.044E+00
   15.300   1.063E+00
   15.400   1.080E+00
   15.500   1.093E+00
   15.600   1.104E+00
   15.700   1.111E+00
   15.800   1.116E+00
   15.900   1.118E+00
   16.000   1.119E+00
   16.100   1.117E+00
   16.200   1.115E+00
   16.300   1.111E+00
   16.400   1.107E+00
   16.500   1.103E+00
   16.600   1.099E+00
   16.700   1.094E+00
   16.800   1.090E+00
   16.900   1.086E+00
   17.000   1.081E+00
   17.100   1.077E+00
   17.200   1.072E+00
   17.300   1.067E+00
   17.400   1.061E+00
   17.500   1.055E+00
   17.600   1.048E+00
   17.700   1.040E+00
   17.800   1.032E+00
   17.900   1.023E+00
   18.000   1.013E+00
   18.100   1.003E+00
   18.200   9.929E-01
   18.300   9.826E-01
   18.400   9.723E-01
   18.500   9.622E-01
   18.600   9.522E-01
   18.700   9.427E-01
   18.800   9.335E-01
   18.900   9.247E-01
   19.000   9.165E-01
   19.100   9.087E-01
   19.200   9.014E-01
   19.300   8.945E-01
   19.400   8.881E-01
   19.500   8.821E-01
   19.600   8.764E-01
   19.700   8.711E-01
   19.800   8.660E-01
   19.900   8.612E-01
   20.000   8.565E-01
   20.100   8.520E-01
   20.200   8.476E-01
   20.300   8.432E-01
   20.400   8.388E-01
   20.500   8.344E-01
   20.600   8.299E-01
   20.700   8.253E-01
   20.800   8.206E-01
   20.900   8.158E-01
   21.000   8.108E-01
   21.100   8.057E-01
   21.200   8.005E-01
   21.300   7.952E-01
   21.400   7.899E-01
   21.500   7.845E-01
   21.600   7.791E-01
   21.700   7.737E-01
   21.800   7.683E-01
   21.900   7.630E-01
   22.000   7.577E-01
   22.100   7.524E-01
   22.200   7.472E-01
   22.300   7.420E-01
   22.400   7.368E-01
   22.500   7.316E-01
   22.600   7.264E-01
   22.700   7.211E-01
   22.800   7.158E-01
   22.900   7.104E-01
   23.000   7.049E-01
   23.100   6.994E-01
   23.200   6.937E-01
   23.300   6.879E-01
   23.400   6.820E-01
   23.500   6.760E-01
   23.600   6.699E-01
   23.700   6.637E-01
   23.800   6.575E-01
   23.900   6.512E-01
   24.000   6.449E-01
   24.100   6.385E-01
   24.200   6.321E-01
   24.300   6.256E-01
   24.400   6.192E-01
   24.500   6.127E-01
   24.600   6.062E-01
   24.700   5.998E-01
   24.800   5.934E-01
   24.900   5.869E-01
   25.000   5.805E-01
   25.100   5.742E-01
   25.200   5.679E-01
   25.300   5.616E-01
   25.400   5.553E-01
   25.500   5.491E-01
   25.600   5.430E-01
   25.700   5.369E-01
   25.800   5.308E-01
   25.900   5.249E-01
   26.000   5.190E-01
   26.100   5.131E-01
   26.200   5.074E-01
   26.300   5.017E-01
   26.400   4.961E-01
   26.500   4.906E-01
   26.600   4.851E-01
   26.700   4.798E-01
   26.800   4.745E-01
   26.900   4.693E-01
   27.000   4.641E-01
   27.100   4.590E-01
   27.200   4.540E-01
   27.300   4.491E-01
   27.400   4.442E-01
   27.500   4.393E-01
   27.600   4.345E-01
   27.700   4.297E-01
   27.800   4.249E-01
   27.900   4.202E-01
   28.000   4.155E-01
   28.100   4.108E-01
   28.200   4.061E-01
   28.300   4.014E-01
   28.400   3.967E-01
   28.500   3.921E-01
   28.600   3.875E-01
   28.700   3.829E-01
   28.800   3.784E-01
   28.900   3.739E-01
   29.000   3.695E-01
   29.100   3.651E-01
   29.200   3.608E-01
   29.300   3.566E-01
   29.400   3.524E-01
   29.500   3.483E-01
   29.600   3.443E-01
   29.700   3.404E-01
   29.800   3.366E-01
   29.900   3.328E-01
   30.000   3.291E-01
 
 Z=  11 A=  22 Na
  U[MeV]  fE1[mb/MeV]
    0.100   5.662E-06
    0.200   2.265E-05
    0.300   5.098E-05
    0.400   9.068E-05
    0.500   1.418E-04
    0.600   2.043E-04
    0.700   2.784E-04
    0.800   3.640E-04
    0.900   4.612E-04
    1.000   5.702E-04
    1.100   6.910E-04
    1.200   8.237E-04
    1.300   9.685E-04
    1.400   1.125E-03
    1.500   1.295E-03
    1.600   1.476E-03
    1.700   1.671E-03
    1.800   1.878E-03
    1.900   2.098E-03
    2.000   2.331E-03
    2.100   2.578E-03
    2.200   2.838E-03
    2.300   3.113E-03
    2.400   3.401E-03
    2.500   3.704E-03
    2.600   4.021E-03
    2.700   4.354E-03
    2.800   4.702E-03
    2.900   5.065E-03
    3.000   5.445E-03
    3.100   5.841E-03
    3.200   6.254E-03
    3.300   6.684E-03
    3.400   7.132E-03
    3.500   7.598E-03
    3.600   8.082E-03
    3.700   8.586E-03
    3.800   9.110E-03
    3.900   9.654E-03
    4.000   1.022E-02
    4.100   1.081E-02
    4.200   1.141E-02
    4.300   1.205E-02
    4.400   1.270E-02
    4.500   1.338E-02
    4.600   1.409E-02
    4.700   1.482E-02
    4.800   1.558E-02
    4.900   1.637E-02
    5.000   1.718E-02
    5.100   1.803E-02
    5.200   1.891E-02
    5.300   1.982E-02
    5.400   2.077E-02
    5.500   2.175E-02
    5.600   2.277E-02
    5.700   2.383E-02
    5.800   2.492E-02
    5.900   2.606E-02
    6.000   2.725E-02
    6.100   2.848E-02
    6.200   2.976E-02
    6.300   3.108E-02
    6.400   3.247E-02
    6.500   3.390E-02
    6.600   3.540E-02
    6.700   3.696E-02
    6.800   3.858E-02
    6.900   4.027E-02
    7.000   4.203E-02
    7.100   4.387E-02
    7.200   4.578E-02
    7.300   4.778E-02
    7.400   4.987E-02
    7.500   5.205E-02
    7.600   5.433E-02
    7.700   5.672E-02
    7.800   5.922E-02
    7.900   6.183E-02
    8.000   6.456E-02
    8.100   6.743E-02
    8.200   7.043E-02
    8.300   7.358E-02
    8.400   7.688E-02
    8.500   8.034E-02
    8.600   8.396E-02
    8.700   8.776E-02
    8.800   9.174E-02
    8.900   9.590E-02
    9.000   1.003E-01
    9.100   1.048E-01
    9.200   1.096E-01
    9.300   1.145E-01
    9.400   1.196E-01
    9.500   1.250E-01
    9.600   1.305E-01
    9.700   1.363E-01
    9.800   1.422E-01
    9.900   1.483E-01
   10.000   1.547E-01
   10.100   1.612E-01
   10.200   1.680E-01
   10.300   1.749E-01
   10.400   1.822E-01
   10.500   1.897E-01
   10.600   1.975E-01
   10.700   2.057E-01
   10.800   2.142E-01
   10.900   2.230E-01
   11.000   2.323E-01
   11.100   2.420E-01
   11.200   2.521E-01
   11.300   2.627E-01
   11.400   2.738E-01
   11.500   2.853E-01
   11.600   2.972E-01
   11.700   3.096E-01
   11.800   3.224E-01
   11.900   3.357E-01
   12.000   3.494E-01
   12.100   3.635E-01
   12.200   3.781E-01
   12.300   3.931E-01
   12.400   4.086E-01
   12.500   4.246E-01
   12.600   4.411E-01
   12.700   4.581E-01
   12.800   4.758E-01
   12.900   4.942E-01
   13.000   5.133E-01
   13.100   5.334E-01
   13.200   5.544E-01
   13.300   5.766E-01
   13.400   6.001E-01
   13.500   6.250E-01
   13.600   6.514E-01
   13.700   6.795E-01
   13.800   7.093E-01
   13.900   7.409E-01
   14.000   7.742E-01
   14.100   8.093E-01
   14.200   8.461E-01
   14.300   8.843E-01
   14.400   9.237E-01
   14.500   9.639E-01
   14.600   1.005E+00
   14.700   1.045E+00
   14.800   1.084E+00
   14.900   1.122E+00
   15.000   1.158E+00
   15.100   1.191E+00
   15.200   1.219E+00
   15.300   1.243E+00
   15.400   1.262E+00
   15.500   1.276E+00
   15.600   1.284E+00
   15.700   1.287E+00
   15.800   1.284E+00
   15.900   1.277E+00
   16.000   1.266E+00
   16.100   1.252E+00
   16.200   1.235E+00
   16.300   1.216E+00
   16.400   1.196E+00
   16.500   1.175E+00
   16.600   1.154E+00
   16.700   1.133E+00
   16.800   1.113E+00
   16.900   1.094E+00
   17.000   1.076E+00
   17.100   1.059E+00
   17.200   1.043E+00
   17.300   1.029E+00
   17.400   1.015E+00
   17.500   1.003E+00
   17.600   9.912E-01
   17.700   9.806E-01
   17.800   9.709E-01
   17.900   9.620E-01
   18.000   9.539E-01
   18.100   9.466E-01
   18.200   9.401E-01
   18.300   9.343E-01
   18.400   9.293E-01
   18.500   9.248E-01
   18.600   9.210E-01
   18.700   9.176E-01
   18.800   9.146E-01
   18.900   9.119E-01
   19.000   9.094E-01
   19.100   9.069E-01
   19.200   9.044E-01
   19.300   9.018E-01
   19.400   8.991E-01
   19.500   8.961E-01
   19.600   8.930E-01
   19.700   8.896E-01
   19.800   8.860E-01
   19.900   8.823E-01
   20.000   8.784E-01
   20.100   8.744E-01
   20.200   8.702E-01
   20.300   8.660E-01
   20.400   8.617E-01
   20.500   8.574E-01
   20.600   8.531E-01
   20.700   8.487E-01
   20.800   8.443E-01
   20.900   8.399E-01
   21.000   8.355E-01
   21.100   8.311E-01
   21.200   8.267E-01
   21.300   8.223E-01
   21.400   8.179E-01
   21.500   8.134E-01
   21.600   8.089E-01
   21.700   8.043E-01
   21.800   7.996E-01
   21.900   7.948E-01
   22.000   7.898E-01
   22.100   7.847E-01
   22.200   7.793E-01
   22.300   7.738E-01
   22.400   7.680E-01
   22.500   7.620E-01
   22.600   7.559E-01
   22.700   7.495E-01
   22.800   7.430E-01
   22.900   7.364E-01
   23.000   7.296E-01
   23.100   7.228E-01
   23.200   7.158E-01
   23.300   7.088E-01
   23.400   7.018E-01
   23.500   6.947E-01
   23.600   6.876E-01
   23.700   6.806E-01
   23.800   6.735E-01
   23.900   6.664E-01
   24.000   6.594E-01
   24.100   6.524E-01
   24.200   6.455E-01
   24.300   6.386E-01
   24.400   6.318E-01
   24.500   6.250E-01
   24.600   6.183E-01
   24.700   6.116E-01
   24.800   6.050E-01
   24.900   5.985E-01
   25.000   5.920E-01
   25.100   5.856E-01
   25.200   5.792E-01
   25.300   5.728E-01
   25.400   5.666E-01
   25.500   5.604E-01
   25.600   5.542E-01
   25.700   5.481E-01
   25.800   5.421E-01
   25.900   5.361E-01
   26.000   5.303E-01
   26.100   5.244E-01
   26.200   5.187E-01
   26.300   5.130E-01
   26.400   5.074E-01
   26.500   5.019E-01
   26.600   4.964E-01
   26.700   4.910E-01
   26.800   4.857E-01
   26.900   4.804E-01
   27.000   4.753E-01
   27.100   4.702E-01
   27.200   4.651E-01
   27.300   4.602E-01
   27.400   4.553E-01
   27.500   4.505E-01
   27.600   4.457E-01
   27.700   4.410E-01
   27.800   4.364E-01
   27.900   4.318E-01
   28.000   4.273E-01
   28.100   4.228E-01
   28.200   4.184E-01
   28.300   4.140E-01
   28.400   4.096E-01
   28.500   4.053E-01
   28.600   4.011E-01
   28.700   3.969E-01
   28.800   3.928E-01
   28.900   3.887E-01
   29.000   3.846E-01
   29.100   3.806E-01
   29.200   3.767E-01
   29.300   3.728E-01
   29.400   3.690E-01
   29.500   3.652E-01
   29.600   3.615E-01
   29.700   3.578E-01
   29.800   3.541E-01
   29.900   3.505E-01
   30.000   3.469E-01
 
 Z=  11 A=  23 Na
  U[MeV]  fE1[mb/MeV]
    0.100   5.766E-06
    0.200   2.307E-05
    0.300   5.193E-05
    0.400   9.236E-05
    0.500   1.444E-04
    0.600   2.081E-04
    0.700   2.835E-04
    0.800   3.707E-04
    0.900   4.698E-04
    1.000   5.808E-04
    1.100   7.038E-04
    1.200   8.390E-04
    1.300   9.864E-04
    1.400   1.146E-03
    1.500   1.319E-03
    1.600   1.504E-03
    1.700   1.702E-03
    1.800   1.913E-03
    1.900   2.137E-03
    2.000   2.375E-03
    2.100   2.626E-03
    2.200   2.891E-03
    2.300   3.170E-03
    2.400   3.464E-03
    2.500   3.773E-03
    2.600   4.096E-03
    2.700   4.435E-03
    2.800   4.789E-03
    2.900   5.159E-03
    3.000   5.546E-03
    3.100   5.949E-03
    3.200   6.370E-03
    3.300   6.808E-03
    3.400   7.264E-03
    3.500   7.739E-03
    3.600   8.233E-03
    3.700   8.746E-03
    3.800   9.279E-03
    3.900   9.833E-03
    4.000   1.041E-02
    4.100   1.101E-02
    4.200   1.163E-02
    4.300   1.227E-02
    4.400   1.294E-02
    4.500   1.363E-02
    4.600   1.435E-02
    4.700   1.509E-02
    4.800   1.587E-02
    4.900   1.667E-02
    5.000   1.750E-02
    5.100   1.836E-02
    5.200   1.926E-02
    5.300   2.019E-02
    5.400   2.115E-02
    5.500   2.215E-02
    5.600   2.318E-02
    5.700   2.426E-02
    5.800   2.537E-02
    5.900   2.653E-02
    6.000   2.774E-02
    6.100   2.899E-02
    6.200   3.029E-02
    6.300   3.164E-02
    6.400   3.304E-02
    6.500   3.450E-02
    6.600   3.602E-02
    6.700   3.760E-02
    6.800   3.924E-02
    6.900   4.096E-02
    7.000   4.274E-02
    7.100   4.460E-02
    7.200   4.655E-02
    7.300   4.857E-02
    7.400   5.069E-02
    7.500   5.290E-02
    7.600   5.521E-02
    7.700   5.762E-02
    7.800   6.015E-02
    7.900   6.279E-02
    8.000   6.556E-02
    8.100   6.846E-02
    8.200   7.150E-02
    8.300   7.469E-02
    8.400   7.804E-02
    8.500   8.155E-02
    8.600   8.523E-02
    8.700   8.910E-02
    8.800   9.315E-02
    8.900   9.741E-02
    9.000   1.019E-01
    9.100   1.066E-01
    9.200   1.115E-01
    9.300   1.166E-01
    9.400   1.219E-01
    9.500   1.275E-01
    9.600   1.334E-01
    9.700   1.395E-01
    9.800   1.458E-01
    9.900   1.524E-01
   10.000   1.593E-01
   10.100   1.665E-01
   10.200   1.740E-01
   10.300   1.817E-01
   10.400   1.899E-01
   10.500   1.984E-01
   10.600   2.073E-01
   10.700   2.167E-01
   10.800   2.266E-01
   10.900   2.370E-01
   11.000   2.480E-01
   11.100   2.595E-01
   11.200   2.717E-01
   11.300   2.845E-01
   11.400   2.979E-01
   11.500   3.120E-01
   11.600   3.266E-01
   11.700   3.419E-01
   11.800   3.576E-01
   11.900   3.739E-01
   12.000   3.905E-01
   12.100   4.075E-01
   12.200   4.249E-01
   12.300   4.425E-01
   12.400   4.603E-01
   12.500   4.784E-01
   12.600   4.967E-01
   12.700   5.154E-01
   12.800   5.345E-01
   12.900   5.542E-01
   13.000   5.746E-01
   13.100   5.959E-01
   13.200   6.184E-01
   13.300   6.423E-01
   13.400   6.678E-01
   13.500   6.950E-01
   13.600   7.242E-01
   13.700   7.555E-01
   13.800   7.891E-01
   13.900   8.250E-01
   14.000   8.633E-01
   14.100   9.038E-01
   14.200   9.464E-01
   14.300   9.909E-01
   14.400   1.037E+00
   14.500   1.084E+00
   14.600   1.131E+00
   14.700   1.178E+00
   14.800   1.224E+00
   14.900   1.268E+00
   15.000   1.308E+00
   15.100   1.344E+00
   15.200   1.374E+00
   15.300   1.399E+00
   15.400   1.416E+00
   15.500   1.427E+00
   15.600   1.430E+00
   15.700   1.426E+00
   15.800   1.415E+00
   15.900   1.399E+00
   16.000   1.377E+00
   16.100   1.352E+00
   16.200   1.323E+00
   16.300   1.293E+00
   16.400   1.262E+00
   16.500   1.230E+00
   16.600   1.198E+00
   16.700   1.168E+00
   16.800   1.139E+00
   16.900   1.111E+00
   17.000   1.086E+00
   17.100   1.063E+00
   17.200   1.042E+00
   17.300   1.023E+00
   17.400   1.007E+00
   17.500   9.924E-01
   17.600   9.804E-01
   17.700   9.705E-01
   17.800   9.626E-01
   17.900   9.564E-01
   18.000   9.518E-01
   18.100   9.486E-01
   18.200   9.467E-01
   18.300   9.456E-01
   18.400   9.453E-01
   18.500   9.454E-01
   18.600   9.457E-01
   18.700   9.461E-01
   18.800   9.462E-01
   18.900   9.459E-01
   19.000   9.452E-01
   19.100   9.438E-01
   19.200   9.418E-01
   19.300   9.390E-01
   19.400   9.356E-01
   19.500   9.316E-01
   19.600   9.271E-01
   19.700   9.223E-01
   19.800   9.171E-01
   19.900   9.118E-01
   20.000   9.065E-01
   20.100   9.012E-01
   20.200   8.962E-01
   20.300   8.913E-01
   20.400   8.867E-01
   20.500   8.825E-01
   20.600   8.786E-01
   20.700   8.751E-01
   20.800   8.718E-01
   20.900   8.689E-01
   21.000   8.661E-01
   21.100   8.636E-01
   21.200   8.612E-01
   21.300   8.589E-01
   21.400   8.565E-01
   21.500   8.540E-01
   21.600   8.513E-01
   21.700   8.483E-01
   21.800   8.449E-01
   21.900   8.410E-01
   22.000   8.367E-01
   22.100   8.318E-01
   22.200   8.265E-01
   22.300   8.206E-01
   22.400   8.142E-01
   22.500   8.074E-01
   22.600   8.001E-01
   22.700   7.926E-01
   22.800   7.848E-01
   22.900   7.768E-01
   23.000   7.686E-01
   23.100   7.603E-01
   23.200   7.519E-01
   23.300   7.435E-01
   23.400   7.352E-01
   23.500   7.268E-01
   23.600   7.185E-01
   23.700   7.103E-01
   23.800   7.021E-01
   23.900   6.940E-01
   24.000   6.861E-01
   24.100   6.782E-01
   24.200   6.704E-01
   24.300   6.627E-01
   24.400   6.551E-01
   24.500   6.476E-01
   24.600   6.402E-01
   24.700   6.329E-01
   24.800   6.257E-01
   24.900   6.186E-01
   25.000   6.115E-01
   25.100   6.045E-01
   25.200   5.976E-01
   25.300   5.908E-01
   25.400   5.840E-01
   25.500   5.773E-01
   25.600   5.707E-01
   25.700   5.642E-01
   25.800   5.577E-01
   25.900   5.513E-01
   26.000   5.450E-01
   26.100   5.388E-01
   26.200   5.326E-01
   26.300   5.265E-01
   26.400   5.205E-01
   26.500   5.146E-01
   26.600   5.088E-01
   26.700   5.030E-01
   26.800   4.973E-01
   26.900   4.918E-01
   27.000   4.863E-01
   27.100   4.809E-01
   27.200   4.756E-01
   27.300   4.704E-01
   27.400   4.652E-01
   27.500   4.602E-01
   27.600   4.552E-01
   27.700   4.504E-01
   27.800   4.456E-01
   27.900   4.409E-01
   28.000   4.363E-01
   28.100   4.317E-01
   28.200   4.273E-01
   28.300   4.228E-01
   28.400   4.185E-01
   28.500   4.142E-01
   28.600   4.099E-01
   28.700   4.056E-01
   28.800   4.014E-01
   28.900   3.972E-01
   29.000   3.931E-01
   29.100   3.890E-01
   29.200   3.848E-01
   29.300   3.808E-01
   29.400   3.767E-01
   29.500   3.727E-01
   29.600   3.688E-01
   29.700   3.649E-01
   29.800   3.611E-01
   29.900   3.574E-01
   30.000   3.538E-01
 
 Z=  11 A=  24 Na
  U[MeV]  fE1[mb/MeV]
    0.100   6.120E-06
    0.200   2.448E-05
    0.300   5.511E-05
    0.400   9.802E-05
    0.500   1.533E-04
    0.600   2.209E-04
    0.700   3.009E-04
    0.800   3.935E-04
    0.900   4.986E-04
    1.000   6.164E-04
    1.100   7.470E-04
    1.200   8.905E-04
    1.300   1.047E-03
    1.400   1.217E-03
    1.500   1.400E-03
    1.600   1.596E-03
    1.700   1.807E-03
    1.800   2.031E-03
    1.900   2.269E-03
    2.000   2.521E-03
    2.100   2.788E-03
    2.200   3.070E-03
    2.300   3.367E-03
    2.400   3.679E-03
    2.500   4.007E-03
    2.600   4.351E-03
    2.700   4.711E-03
    2.800   5.088E-03
    2.900   5.482E-03
    3.000   5.893E-03
    3.100   6.322E-03
    3.200   6.770E-03
    3.300   7.236E-03
    3.400   7.722E-03
    3.500   8.227E-03
    3.600   8.753E-03
    3.700   9.299E-03
    3.800   9.867E-03
    3.900   1.046E-02
    4.000   1.107E-02
    4.100   1.171E-02
    4.200   1.237E-02
    4.300   1.305E-02
    4.400   1.377E-02
    4.500   1.451E-02
    4.600   1.527E-02
    4.700   1.607E-02
    4.800   1.689E-02
    4.900   1.775E-02
    5.000   1.864E-02
    5.100   1.956E-02
    5.200   2.051E-02
    5.300   2.151E-02
    5.400   2.253E-02
    5.500   2.360E-02
    5.600   2.471E-02
    5.700   2.586E-02
    5.800   2.706E-02
    5.900   2.830E-02
    6.000   2.958E-02
    6.100   3.092E-02
    6.200   3.231E-02
    6.300   3.376E-02
    6.400   3.526E-02
    6.500   3.683E-02
    6.600   3.845E-02
    6.700   4.015E-02
    6.800   4.191E-02
    6.900   4.375E-02
    7.000   4.566E-02
    7.100   4.766E-02
    7.200   4.974E-02
    7.300   5.191E-02
    7.400   5.418E-02
    7.500   5.655E-02
    7.600   5.903E-02
    7.700   6.162E-02
    7.800   6.433E-02
    7.900   6.717E-02
    8.000   7.015E-02
    8.100   7.327E-02
    8.200   7.654E-02
    8.300   7.998E-02
    8.400   8.359E-02
    8.500   8.738E-02
    8.600   9.136E-02
    8.700   9.556E-02
    8.800   9.997E-02
    8.900   1.046E-01
    9.000   1.095E-01
    9.100   1.147E-01
    9.200   1.201E-01
    9.300   1.258E-01
    9.400   1.318E-01
    9.500   1.382E-01
    9.600   1.448E-01
    9.700   1.518E-01
    9.800   1.592E-01
    9.900   1.669E-01
   10.000   1.750E-01
   10.100   1.834E-01
   10.200   1.922E-01
   10.300   2.014E-01
   10.400   2.109E-01
   10.500   2.208E-01
   10.600   2.310E-01
   10.700   2.415E-01
   10.800   2.524E-01
   10.900   2.636E-01
   11.000   2.751E-01
   11.100   2.869E-01
   11.200   2.992E-01
   11.300   3.118E-01
   11.400   3.249E-01
   11.500   3.384E-01
   11.600   3.524E-01
   11.700   3.670E-01
   11.800   3.821E-01
   11.900   3.978E-01
   12.000   4.142E-01
   12.100   4.312E-01
   12.200   4.488E-01
   12.300   4.670E-01
   12.400   4.859E-01
   12.500   5.052E-01
   12.600   5.251E-01
   12.700   5.453E-01
   12.800   5.658E-01
   12.900   5.865E-01
   13.000   6.073E-01
   13.100   6.281E-01
   13.200   6.487E-01
   13.300   6.691E-01
   13.400   6.893E-01
   13.500   7.094E-01
   13.600   7.293E-01
   13.700   7.492E-01
   13.800   7.693E-01
   13.900   7.896E-01
   14.000   8.103E-01
   14.100   8.316E-01
   14.200   8.537E-01
   14.300   8.766E-01
   14.400   9.006E-01
   14.500   9.255E-01
   14.600   9.515E-01
   14.700   9.786E-01
   14.800   1.007E+00
   14.900   1.036E+00
   15.000   1.065E+00
   15.100   1.095E+00
   15.200   1.126E+00
   15.300   1.156E+00
   15.400   1.186E+00
   15.500   1.215E+00
   15.600   1.243E+00
   15.700   1.268E+00
   15.800   1.291E+00
   15.900   1.311E+00
   16.000   1.327E+00
   16.100   1.340E+00
   16.200   1.349E+00
   16.300   1.353E+00
   16.400   1.354E+00
   16.500   1.352E+00
   16.600   1.346E+00
   16.700   1.337E+00
   16.800   1.326E+00
   16.900   1.313E+00
   17.000   1.299E+00
   17.100   1.285E+00
   17.200   1.270E+00
   17.300   1.255E+00
   17.400   1.241E+00
   17.500   1.227E+00
   17.600   1.214E+00
   17.700   1.202E+00
   17.800   1.191E+00
   17.900   1.180E+00
   18.000   1.169E+00
   18.100   1.159E+00
   18.200   1.150E+00
   18.300   1.141E+00
   18.400   1.132E+00
   18.500   1.124E+00
   18.600   1.116E+00
   18.700   1.108E+00
   18.800   1.100E+00
   18.900   1.093E+00
   19.000   1.086E+00
   19.100   1.079E+00
   19.200   1.072E+00
   19.300   1.066E+00
   19.400   1.059E+00
   19.500   1.053E+00
   19.600   1.047E+00
   19.700   1.041E+00
   19.800   1.035E+00
   19.900   1.028E+00
   20.000   1.022E+00
   20.100   1.016E+00
   20.200   1.009E+00
   20.300   1.003E+00
   20.400   9.962E-01
   20.500   9.898E-01
   20.600   9.835E-01
   20.700   9.772E-01
   20.800   9.711E-01
   20.900   9.651E-01
   21.000   9.593E-01
   21.100   9.536E-01
   21.200   9.481E-01
   21.300   9.426E-01
   21.400   9.373E-01
   21.500   9.321E-01
   21.600   9.269E-01
   21.700   9.218E-01
   21.800   9.167E-01
   21.900   9.116E-01
   22.000   9.065E-01
   22.100   9.013E-01
   22.200   8.961E-01
   22.300   8.907E-01
   22.400   8.851E-01
   22.500   8.793E-01
   22.600   8.733E-01
   22.700   8.669E-01
   22.800   8.601E-01
   22.900   8.530E-01
   23.000   8.454E-01
   23.100   8.374E-01
   23.200   8.291E-01
   23.300   8.203E-01
   23.400   8.111E-01
   23.500   8.017E-01
   23.600   7.920E-01
   23.700   7.821E-01
   23.800   7.720E-01
   23.900   7.619E-01
   24.000   7.517E-01
   24.100   7.416E-01
   24.200   7.316E-01
   24.300   7.216E-01
   24.400   7.118E-01
   24.500   7.022E-01
   24.600   6.927E-01
   24.700   6.834E-01
   24.800   6.743E-01
   24.900   6.654E-01
   25.000   6.567E-01
   25.100   6.482E-01
   25.200   6.398E-01
   25.300   6.317E-01
   25.400   6.236E-01
   25.500   6.158E-01
   25.600   6.081E-01
   25.700   6.005E-01
   25.800   5.931E-01
   25.900   5.857E-01
   26.000   5.785E-01
   26.100   5.714E-01
   26.200   5.644E-01
   26.300   5.574E-01
   26.400   5.506E-01
   26.500   5.438E-01
   26.600   5.371E-01
   26.700   5.304E-01
   26.800   5.238E-01
   26.900   5.173E-01
   27.000   5.109E-01
   27.100   5.045E-01
   27.200   4.982E-01
   27.300   4.919E-01
   27.400   4.857E-01
   27.500   4.795E-01
   27.600   4.734E-01
   27.700   4.674E-01
   27.800   4.614E-01
   27.900   4.555E-01
   28.000   4.497E-01
   28.100   4.440E-01
   28.200   4.383E-01
   28.300   4.328E-01
   28.400   4.273E-01
   28.500   4.218E-01
   28.600   4.165E-01
   28.700   4.113E-01
   28.800   4.062E-01
   28.900   4.011E-01
   29.000   3.962E-01
   29.100   3.913E-01
   29.200   3.866E-01
   29.300   3.820E-01
   29.400   3.775E-01
   29.500   3.731E-01
   29.600   3.688E-01
   29.700   3.647E-01
   29.800   3.606E-01
   29.900   3.567E-01
   30.000   3.528E-01
 
 Z=  11 A=  25 Na
  U[MeV]  fE1[mb/MeV]
    0.100   6.021E-06
    0.200   2.409E-05
    0.300   5.422E-05
    0.400   9.645E-05
    0.500   1.508E-04
    0.600   2.173E-04
    0.700   2.961E-04
    0.800   3.872E-04
    0.900   4.906E-04
    1.000   6.066E-04
    1.100   7.351E-04
    1.200   8.763E-04
    1.300   1.030E-03
    1.400   1.197E-03
    1.500   1.378E-03
    1.600   1.571E-03
    1.700   1.778E-03
    1.800   1.999E-03
    1.900   2.233E-03
    2.000   2.482E-03
    2.100   2.745E-03
    2.200   3.022E-03
    2.300   3.315E-03
    2.400   3.622E-03
    2.500   3.945E-03
    2.600   4.284E-03
    2.700   4.639E-03
    2.800   5.010E-03
    2.900   5.398E-03
    3.000   5.803E-03
    3.100   6.226E-03
    3.200   6.668E-03
    3.300   7.127E-03
    3.400   7.606E-03
    3.500   8.105E-03
    3.600   8.623E-03
    3.700   9.162E-03
    3.800   9.723E-03
    3.900   1.031E-02
    4.000   1.091E-02
    4.100   1.154E-02
    4.200   1.219E-02
    4.300   1.287E-02
    4.400   1.357E-02
    4.500   1.430E-02
    4.600   1.506E-02
    4.700   1.585E-02
    4.800   1.666E-02
    4.900   1.751E-02
    5.000   1.839E-02
    5.100   1.930E-02
    5.200   2.025E-02
    5.300   2.123E-02
    5.400   2.225E-02
    5.500   2.330E-02
    5.600   2.440E-02
    5.700   2.554E-02
    5.800   2.673E-02
    5.900   2.796E-02
    6.000   2.923E-02
    6.100   3.056E-02
    6.200   3.194E-02
    6.300   3.338E-02
    6.400   3.488E-02
    6.500   3.643E-02
    6.600   3.805E-02
    6.700   3.974E-02
    6.800   4.149E-02
    6.900   4.332E-02
    7.000   4.523E-02
    7.100   4.723E-02
    7.200   4.931E-02
    7.300   5.148E-02
    7.400   5.375E-02
    7.500   5.612E-02
    7.600   5.860E-02
    7.700   6.120E-02
    7.800   6.393E-02
    7.900   6.678E-02
    8.000   6.978E-02
    8.100   7.292E-02
    8.200   7.622E-02
    8.300   7.969E-02
    8.400   8.334E-02
    8.500   8.718E-02
    8.600   9.122E-02
    8.700   9.548E-02
    8.800   9.997E-02
    8.900   1.047E-01
    9.000   1.097E-01
    9.100   1.150E-01
    9.200   1.205E-01
    9.300   1.264E-01
    9.400   1.325E-01
    9.500   1.391E-01
    9.600   1.459E-01
    9.700   1.531E-01
    9.800   1.606E-01
    9.900   1.685E-01
   10.000   1.768E-01
   10.100   1.853E-01
   10.200   1.942E-01
   10.300   2.034E-01
   10.400   2.129E-01
   10.500   2.227E-01
   10.600   2.327E-01
   10.700   2.430E-01
   10.800   2.535E-01
   10.900   2.642E-01
   11.000   2.752E-01
   11.100   2.865E-01
   11.200   2.982E-01
   11.300   3.102E-01
   11.400   3.227E-01
   11.500   3.356E-01
   11.600   3.491E-01
   11.700   3.632E-01
   11.800   3.779E-01
   11.900   3.933E-01
   12.000   4.095E-01
   12.100   4.264E-01
   12.200   4.442E-01
   12.300   4.629E-01
   12.400   4.825E-01
   12.500   5.031E-01
   12.600   5.248E-01
   12.700   5.474E-01
   12.800   5.712E-01
   12.900   5.959E-01
   13.000   6.215E-01
   13.100   6.480E-01
   13.200   6.751E-01
   13.300   7.028E-01
   13.400   7.307E-01
   13.500   7.588E-01
   13.600   7.868E-01
   13.700   8.147E-01
   13.800   8.422E-01
   13.900   8.695E-01
   14.000   8.963E-01
   14.100   9.228E-01
   14.200   9.491E-01
   14.300   9.753E-01
   14.400   1.001E+00
   14.500   1.028E+00
   14.600   1.054E+00
   14.700   1.081E+00
   14.800   1.107E+00
   14.900   1.134E+00
   15.000   1.161E+00
   15.100   1.188E+00
   15.200   1.215E+00
   15.300   1.241E+00
   15.400   1.266E+00
   15.500   1.291E+00
   15.600   1.313E+00
   15.700   1.334E+00
   15.800   1.353E+00
   15.900   1.368E+00
   16.000   1.381E+00
   16.100   1.390E+00
   16.200   1.397E+00
   16.300   1.399E+00
   16.400   1.399E+00
   16.500   1.395E+00
   16.600   1.389E+00
   16.700   1.381E+00
   16.800   1.371E+00
   16.900   1.360E+00
   17.000   1.349E+00
   17.100   1.338E+00
   17.200   1.327E+00
   17.300   1.316E+00
   17.400   1.306E+00
   17.500   1.296E+00
   17.600   1.287E+00
   17.700   1.279E+00
   17.800   1.272E+00
   17.900   1.264E+00
   18.000   1.257E+00
   18.100   1.250E+00
   18.200   1.243E+00
   18.300   1.235E+00
   18.400   1.227E+00
   18.500   1.219E+00
   18.600   1.209E+00
   18.700   1.200E+00
   18.800   1.189E+00
   18.900   1.179E+00
   19.000   1.168E+00
   19.100   1.158E+00
   19.200   1.148E+00
   19.300   1.138E+00
   19.400   1.128E+00
   19.500   1.119E+00
   19.600   1.110E+00
   19.700   1.101E+00
   19.800   1.093E+00
   19.900   1.086E+00
   20.000   1.079E+00
   20.100   1.072E+00
   20.200   1.065E+00
   20.300   1.059E+00
   20.400   1.054E+00
   20.500   1.048E+00
   20.600   1.043E+00
   20.700   1.038E+00
   20.800   1.033E+00
   20.900   1.028E+00
   21.000   1.024E+00
   21.100   1.019E+00
   21.200   1.015E+00
   21.300   1.010E+00
   21.400   1.006E+00
   21.500   1.001E+00
   21.600   9.962E-01
   21.700   9.913E-01
   21.800   9.862E-01
   21.900   9.809E-01
   22.000   9.755E-01
   22.100   9.698E-01
   22.200   9.639E-01
   22.300   9.578E-01
   22.400   9.514E-01
   22.500   9.448E-01
   22.600   9.379E-01
   22.700   9.306E-01
   22.800   9.231E-01
   22.900   9.152E-01
   23.000   9.070E-01
   23.100   8.985E-01
   23.200   8.895E-01
   23.300   8.802E-01
   23.400   8.706E-01
   23.500   8.606E-01
   23.600   8.503E-01
   23.700   8.397E-01
   23.800   8.289E-01
   23.900   8.179E-01
   24.000   8.067E-01
   24.100   7.953E-01
   24.200   7.839E-01
   24.300   7.725E-01
   24.400   7.611E-01
   24.500   7.498E-01
   24.600   7.386E-01
   24.700   7.275E-01
   24.800   7.165E-01
   24.900   7.057E-01
   25.000   6.950E-01
   25.100   6.846E-01
   25.200   6.743E-01
   25.300   6.642E-01
   25.400   6.543E-01
   25.500   6.446E-01
   25.600   6.350E-01
   25.700   6.257E-01
   25.800   6.164E-01
   25.900   6.074E-01
   26.000   5.985E-01
   26.100   5.898E-01
   26.200   5.812E-01
   26.300   5.728E-01
   26.400   5.645E-01
   26.500   5.564E-01
   26.600   5.484E-01
   26.700   5.406E-01
   26.800   5.330E-01
   26.900   5.255E-01
   27.000   5.181E-01
   27.100   5.109E-01
   27.200   5.039E-01
   27.300   4.970E-01
   27.400   4.902E-01
   27.500   4.836E-01
   27.600   4.771E-01
   27.700   4.708E-01
   27.800   4.645E-01
   27.900   4.584E-01
   28.000   4.525E-01
   28.100   4.466E-01
   28.200   4.409E-01
   28.300   4.353E-01
   28.400   4.298E-01
   28.500   4.244E-01
   28.600   4.191E-01
   28.700   4.139E-01
   28.800   4.088E-01
   28.900   4.038E-01
   29.000   3.990E-01
   29.100   3.942E-01
   29.200   3.895E-01
   29.300   3.850E-01
   29.400   3.805E-01
   29.500   3.762E-01
   29.600   3.719E-01
   29.700   3.678E-01
   29.800   3.637E-01
   29.900   3.597E-01
   30.000   3.558E-01
 
 Z=  11 A=  26 Na
  U[MeV]  fE1[mb/MeV]
    0.100   6.669E-06
    0.200   2.668E-05
    0.300   6.006E-05
    0.400   1.068E-04
    0.500   1.670E-04
    0.600   2.407E-04
    0.700   3.280E-04
    0.800   4.289E-04
    0.900   5.436E-04
    1.000   6.721E-04
    1.100   8.145E-04
    1.200   9.711E-04
    1.300   1.142E-03
    1.400   1.327E-03
    1.500   1.527E-03
    1.600   1.741E-03
    1.700   1.971E-03
    1.800   2.216E-03
    1.900   2.476E-03
    2.000   2.752E-03
    2.100   3.044E-03
    2.200   3.352E-03
    2.300   3.677E-03
    2.400   4.019E-03
    2.500   4.378E-03
    2.600   4.754E-03
    2.700   5.149E-03
    2.800   5.562E-03
    2.900   5.994E-03
    3.000   6.445E-03
    3.100   6.916E-03
    3.200   7.408E-03
    3.300   7.920E-03
    3.400   8.454E-03
    3.500   9.010E-03
    3.600   9.589E-03
    3.700   1.019E-02
    3.800   1.082E-02
    3.900   1.147E-02
    4.000   1.215E-02
    4.100   1.285E-02
    4.200   1.358E-02
    4.300   1.434E-02
    4.400   1.513E-02
    4.500   1.595E-02
    4.600   1.680E-02
    4.700   1.768E-02
    4.800   1.860E-02
    4.900   1.955E-02
    5.000   2.054E-02
    5.100   2.156E-02
    5.200   2.263E-02
    5.300   2.374E-02
    5.400   2.489E-02
    5.500   2.609E-02
    5.600   2.733E-02
    5.700   2.862E-02
    5.800   2.996E-02
    5.900   3.136E-02
    6.000   3.281E-02
    6.100   3.433E-02
    6.200   3.590E-02
    6.300   3.754E-02
    6.400   3.925E-02
    6.500   4.102E-02
    6.600   4.288E-02
    6.700   4.481E-02
    6.800   4.683E-02
    6.900   4.893E-02
    7.000   5.113E-02
    7.100   5.343E-02
    7.200   5.583E-02
    7.300   5.834E-02
    7.400   6.097E-02
    7.500   6.372E-02
    7.600   6.661E-02
    7.700   6.963E-02
    7.800   7.280E-02
    7.900   7.612E-02
    8.000   7.961E-02
    8.100   8.327E-02
    8.200   8.712E-02
    8.300   9.116E-02
    8.400   9.541E-02
    8.500   9.987E-02
    8.600   1.046E-01
    8.700   1.095E-01
    8.800   1.147E-01
    8.900   1.201E-01
    9.000   1.258E-01
    9.100   1.317E-01
    9.200   1.380E-01
    9.300   1.444E-01
    9.400   1.512E-01
    9.500   1.582E-01
    9.600   1.655E-01
    9.700   1.730E-01
    9.800   1.806E-01
    9.900   1.885E-01
   10.000   1.966E-01
   10.100   2.048E-01
   10.200   2.131E-01
   10.300   2.215E-01
   10.400   2.300E-01
   10.500   2.386E-01
   10.600   2.473E-01
   10.700   2.562E-01
   10.800   2.651E-01
   10.900   2.742E-01
   11.000   2.834E-01
   11.100   2.929E-01
   11.200   3.025E-01
   11.300   3.125E-01
   11.400   3.227E-01
   11.500   3.332E-01
   11.600   3.440E-01
   11.700   3.553E-01
   11.800   3.669E-01
   11.900   3.791E-01
   12.000   3.917E-01
   12.100   4.048E-01
   12.200   4.185E-01
   12.300   4.328E-01
   12.400   4.477E-01
   12.500   4.632E-01
   12.600   4.794E-01
   12.700   4.963E-01
   12.800   5.139E-01
   12.900   5.321E-01
   13.000   5.510E-01
   13.100   5.706E-01
   13.200   5.908E-01
   13.300   6.118E-01
   13.400   6.333E-01
   13.500   6.555E-01
   13.600   6.782E-01
   13.700   7.016E-01
   13.800   7.256E-01
   13.900   7.502E-01
   14.000   7.754E-01
   14.100   8.012E-01
   14.200   8.277E-01
   14.300   8.548E-01
   14.400   8.824E-01
   14.500   9.106E-01
   14.600   9.392E-01
   14.700   9.682E-01
   14.800   9.975E-01
   14.900   1.027E+00
   15.000   1.056E+00
   15.100   1.086E+00
   15.200   1.115E+00
   15.300   1.143E+00
   15.400   1.171E+00
   15.500   1.199E+00
   15.600   1.225E+00
   15.700   1.250E+00
   15.800   1.274E+00
   15.900   1.297E+00
   16.000   1.318E+00
   16.100   1.337E+00
   16.200   1.355E+00
   16.300   1.370E+00
   16.400   1.383E+00
   16.500   1.395E+00
   16.600   1.404E+00
   16.700   1.412E+00
   16.800   1.418E+00
   16.900   1.422E+00
   17.000   1.425E+00
   17.100   1.426E+00
   17.200   1.426E+00
   17.300   1.425E+00
   17.400   1.424E+00
   17.500   1.421E+00
   17.600   1.418E+00
   17.700   1.414E+00
   17.800   1.410E+00
   17.900   1.406E+00
   18.000   1.402E+00
   18.100   1.399E+00
   18.200   1.396E+00
   18.300   1.394E+00
   18.400   1.392E+00
   18.500   1.390E+00
   18.600   1.389E+00
   18.700   1.389E+00
   18.800   1.389E+00
   18.900   1.389E+00
   19.000   1.388E+00
   19.100   1.387E+00
   19.200   1.386E+00
   19.300   1.384E+00
   19.400   1.381E+00
   19.500   1.377E+00
   19.600   1.372E+00
   19.700   1.365E+00
   19.800   1.358E+00
   19.900   1.350E+00
   20.000   1.340E+00
   20.100   1.330E+00
   20.200   1.320E+00
   20.300   1.308E+00
   20.400   1.296E+00
   20.500   1.284E+00
   20.600   1.272E+00
   20.700   1.259E+00
   20.800   1.246E+00
   20.900   1.233E+00
   21.000   1.219E+00
   21.100   1.206E+00
   21.200   1.192E+00
   21.300   1.178E+00
   21.400   1.164E+00
   21.500   1.150E+00
   21.600   1.136E+00
   21.700   1.122E+00
   21.800   1.109E+00
   21.900   1.095E+00
   22.000   1.082E+00
   22.100   1.069E+00
   22.200   1.056E+00
   22.300   1.044E+00
   22.400   1.032E+00
   22.500   1.021E+00
   22.600   1.009E+00
   22.700   9.984E-01
   22.800   9.877E-01
   22.900   9.772E-01
   23.000   9.670E-01
   23.100   9.568E-01
   23.200   9.467E-01
   23.300   9.367E-01
   23.400   9.267E-01
   23.500   9.167E-01
   23.600   9.065E-01
   23.700   8.963E-01
   23.800   8.859E-01
   23.900   8.755E-01
   24.000   8.648E-01
   24.100   8.540E-01
   24.200   8.431E-01
   24.300   8.320E-01
   24.400   8.208E-01
   24.500   8.095E-01
   24.600   7.980E-01
   24.700   7.865E-01
   24.800   7.749E-01
   24.900   7.632E-01
   25.000   7.514E-01
   25.100   7.397E-01
   25.200   7.279E-01
   25.300   7.161E-01
   25.400   7.044E-01
   25.500   6.927E-01
   25.600   6.811E-01
   25.700   6.695E-01
   25.800   6.581E-01
   25.900   6.469E-01
   26.000   6.357E-01
   26.100   6.248E-01
   26.200   6.140E-01
   26.300   6.035E-01
   26.400   5.931E-01
   26.500   5.830E-01
   26.600   5.731E-01
   26.700   5.634E-01
   26.800   5.540E-01
   26.900   5.448E-01
   27.000   5.359E-01
   27.100   5.272E-01
   27.200   5.187E-01
   27.300   5.105E-01
   27.400   5.026E-01
   27.500   4.948E-01
   27.600   4.873E-01
   27.700   4.800E-01
   27.800   4.730E-01
   27.900   4.661E-01
   28.000   4.594E-01
   28.100   4.530E-01
   28.200   4.467E-01
   28.300   4.406E-01
   28.400   4.347E-01
   28.500   4.290E-01
   28.600   4.234E-01
   28.700   4.180E-01
   28.800   4.127E-01
   28.900   4.076E-01
   29.000   4.026E-01
   29.100   3.977E-01
   29.200   3.930E-01
   29.300   3.883E-01
   29.400   3.837E-01
   29.500   3.793E-01
   29.600   3.749E-01
   29.700   3.705E-01
   29.800   3.662E-01
   29.900   3.620E-01
   30.000   3.579E-01
 
 Z=  11 A=  27 Na
  U[MeV]  fE1[mb/MeV]
    0.100   7.965E-06
    0.200   3.187E-05
    0.300   7.173E-05
    0.400   1.276E-04
    0.500   1.995E-04
    0.600   2.875E-04
    0.700   3.918E-04
    0.800   5.123E-04
    0.900   6.493E-04
    1.000   8.028E-04
    1.100   9.730E-04
    1.200   1.160E-03
    1.300   1.364E-03
    1.400   1.586E-03
    1.500   1.824E-03
    1.600   2.081E-03
    1.700   2.355E-03
    1.800   2.648E-03
    1.900   2.959E-03
    2.000   3.289E-03
    2.100   3.639E-03
    2.200   4.007E-03
    2.300   4.396E-03
    2.400   4.805E-03
    2.500   5.235E-03
    2.600   5.686E-03
    2.700   6.158E-03
    2.800   6.653E-03
    2.900   7.171E-03
    3.000   7.711E-03
    3.100   8.276E-03
    3.200   8.865E-03
    3.300   9.480E-03
    3.400   1.012E-02
    3.500   1.079E-02
    3.600   1.148E-02
    3.700   1.220E-02
    3.800   1.296E-02
    3.900   1.374E-02
    4.000   1.455E-02
    4.100   1.540E-02
    4.200   1.627E-02
    4.300   1.719E-02
    4.400   1.814E-02
    4.500   1.912E-02
    4.600   2.014E-02
    4.700   2.121E-02
    4.800   2.231E-02
    4.900   2.346E-02
    5.000   2.465E-02
    5.100   2.588E-02
    5.200   2.717E-02
    5.300   2.850E-02
    5.400   2.989E-02
    5.500   3.133E-02
    5.600   3.283E-02
    5.700   3.439E-02
    5.800   3.601E-02
    5.900   3.769E-02
    6.000   3.944E-02
    6.100   4.126E-02
    6.200   4.316E-02
    6.300   4.514E-02
    6.400   4.719E-02
    6.500   4.933E-02
    6.600   5.157E-02
    6.700   5.390E-02
    6.800   5.632E-02
    6.900   5.886E-02
    7.000   6.150E-02
    7.100   6.426E-02
    7.200   6.715E-02
    7.300   7.016E-02
    7.400   7.332E-02
    7.500   7.661E-02
    7.600   8.006E-02
    7.700   8.368E-02
    7.800   8.746E-02
    7.900   9.142E-02
    8.000   9.558E-02
    8.100   9.993E-02
    8.200   1.045E-01
    8.300   1.093E-01
    8.400   1.143E-01
    8.500   1.196E-01
    8.600   1.251E-01
    8.700   1.309E-01
    8.800   1.370E-01
    8.900   1.434E-01
    9.000   1.500E-01
    9.100   1.570E-01
    9.200   1.643E-01
    9.300   1.719E-01
    9.400   1.798E-01
    9.500   1.880E-01
    9.600   1.965E-01
    9.700   2.053E-01
    9.800   2.144E-01
    9.900   2.237E-01
   10.000   2.332E-01
   10.100   2.429E-01
   10.200   2.527E-01
   10.300   2.627E-01
   10.400   2.728E-01
   10.500   2.829E-01
   10.600   2.931E-01
   10.700   3.033E-01
   10.800   3.136E-01
   10.900   3.238E-01
   11.000   3.342E-01
   11.100   3.445E-01
   11.200   3.550E-01
   11.300   3.656E-01
   11.400   3.763E-01
   11.500   3.871E-01
   11.600   3.982E-01
   11.700   4.096E-01
   11.800   4.212E-01
   11.900   4.331E-01
   12.000   4.455E-01
   12.100   4.582E-01
   12.200   4.714E-01
   12.300   4.851E-01
   12.400   4.994E-01
   12.500   5.142E-01
   12.600   5.298E-01
   12.700   5.460E-01
   12.800   5.629E-01
   12.900   5.806E-01
   13.000   5.992E-01
   13.100   6.185E-01
   13.200   6.388E-01
   13.300   6.599E-01
   13.400   6.820E-01
   13.500   7.049E-01
   13.600   7.287E-01
   13.700   7.533E-01
   13.800   7.787E-01
   13.900   8.047E-01
   14.000   8.313E-01
   14.100   8.583E-01
   14.200   8.856E-01
   14.300   9.130E-01
   14.400   9.405E-01
   14.500   9.678E-01
   14.600   9.949E-01
   14.700   1.022E+00
   14.800   1.048E+00
   14.900   1.074E+00
   15.000   1.099E+00
   15.100   1.124E+00
   15.200   1.149E+00
   15.300   1.173E+00
   15.400   1.196E+00
   15.500   1.220E+00
   15.600   1.242E+00
   15.700   1.264E+00
   15.800   1.286E+00
   15.900   1.307E+00
   16.000   1.327E+00
   16.100   1.346E+00
   16.200   1.365E+00
   16.300   1.382E+00
   16.400   1.397E+00
   16.500   1.412E+00
   16.600   1.425E+00
   16.700   1.437E+00
   16.800   1.448E+00
   16.900   1.457E+00
   17.000   1.465E+00
   17.100   1.472E+00
   17.200   1.478E+00
   17.300   1.483E+00
   17.400   1.487E+00
   17.500   1.491E+00
   17.600   1.494E+00
   17.700   1.496E+00
   17.800   1.497E+00
   17.900   1.498E+00
   18.000   1.498E+00
   18.100   1.497E+00
   18.200   1.496E+00
   18.300   1.495E+00
   18.400   1.493E+00
   18.500   1.491E+00
   18.600   1.489E+00
   18.700   1.487E+00
   18.800   1.484E+00
   18.900   1.482E+00
   19.000   1.479E+00
   19.100   1.476E+00
   19.200   1.472E+00
   19.300   1.469E+00
   19.400   1.464E+00
   19.500   1.459E+00
   19.600   1.453E+00
   19.700   1.447E+00
   19.800   1.439E+00
   19.900   1.430E+00
   20.000   1.421E+00
   20.100   1.410E+00
   20.200   1.398E+00
   20.300   1.385E+00
   20.400   1.371E+00
   20.500   1.357E+00
   20.600   1.342E+00
   20.700   1.326E+00
   20.800   1.310E+00
   20.900   1.294E+00
   21.000   1.278E+00
   21.100   1.261E+00
   21.200   1.245E+00
   21.300   1.229E+00
   21.400   1.213E+00
   21.500   1.197E+00
   21.600   1.182E+00
   21.700   1.167E+00
   21.800   1.152E+00
   21.900   1.138E+00
   22.000   1.124E+00
   22.100   1.110E+00
   22.200   1.097E+00
   22.300   1.084E+00
   22.400   1.071E+00
   22.500   1.059E+00
   22.600   1.047E+00
   22.700   1.035E+00
   22.800   1.023E+00
   22.900   1.012E+00
   23.000   1.000E+00
   23.100   9.888E-01
   23.200   9.774E-01
   23.300   9.660E-01
   23.400   9.546E-01
   23.500   9.432E-01
   23.600   9.317E-01
   23.700   9.201E-01
   23.800   9.085E-01
   23.900   8.969E-01
   24.000   8.852E-01
   24.100   8.734E-01
   24.200   8.616E-01
   24.300   8.496E-01
   24.400   8.376E-01
   24.500   8.256E-01
   24.600   8.134E-01
   24.700   8.012E-01
   24.800   7.888E-01
   24.900   7.765E-01
   25.000   7.641E-01
   25.100   7.517E-01
   25.200   7.393E-01
   25.300   7.270E-01
   25.400   7.147E-01
   25.500   7.026E-01
   25.600   6.906E-01
   25.700   6.787E-01
   25.800   6.671E-01
   25.900   6.556E-01
   26.000   6.443E-01
   26.100   6.332E-01
   26.200   6.224E-01
   26.300   6.117E-01
   26.400   6.013E-01
   26.500   5.912E-01
   26.600   5.812E-01
   26.700   5.716E-01
   26.800   5.621E-01
   26.900   5.529E-01
   27.000   5.439E-01
   27.100   5.352E-01
   27.200   5.267E-01
   27.300   5.185E-01
   27.400   5.104E-01
   27.500   5.027E-01
   27.600   4.951E-01
   27.700   4.877E-01
   27.800   4.806E-01
   27.900   4.737E-01
   28.000   4.669E-01
   28.100   4.603E-01
   28.200   4.540E-01
   28.300   4.477E-01
   28.400   4.417E-01
   28.500   4.358E-01
   28.600   4.300E-01
   28.700   4.244E-01
   28.800   4.189E-01
   28.900   4.136E-01
   29.000   4.084E-01
   29.100   4.032E-01
   29.200   3.983E-01
   29.300   3.934E-01
   29.400   3.886E-01
   29.500   3.839E-01
   29.600   3.793E-01
   29.700   3.749E-01
   29.800   3.704E-01
   29.900   3.661E-01
   30.000   3.619E-01
 
 Z=  11 A=  28 Na
  U[MeV]  fE1[mb/MeV]
    0.100   1.171E-05
    0.200   4.687E-05
    0.300   1.055E-04
    0.400   1.877E-04
    0.500   2.937E-04
    0.600   4.235E-04
    0.700   5.773E-04
    0.800   7.555E-04
    0.900   9.582E-04
    1.000   1.186E-03
    1.100   1.439E-03
    1.200   1.717E-03
    1.300   2.022E-03
    1.400   2.353E-03
    1.500   2.711E-03
    1.600   3.096E-03
    1.700   3.510E-03
    1.800   3.953E-03
    1.900   4.426E-03
    2.000   4.928E-03
    2.100   5.462E-03
    2.200   6.029E-03
    2.300   6.628E-03
    2.400   7.261E-03
    2.500   7.929E-03
    2.600   8.634E-03
    2.700   9.376E-03
    2.800   1.016E-02
    2.900   1.098E-02
    3.000   1.184E-02
    3.100   1.275E-02
    3.200   1.370E-02
    3.300   1.470E-02
    3.400   1.574E-02
    3.500   1.684E-02
    3.600   1.799E-02
    3.700   1.919E-02
    3.800   2.045E-02
    3.900   2.177E-02
    4.000   2.315E-02
    4.100   2.459E-02
    4.200   2.610E-02
    4.300   2.768E-02
    4.400   2.933E-02
    4.500   3.105E-02
    4.600   3.285E-02
    4.700   3.473E-02
    4.800   3.668E-02
    4.900   3.873E-02
    5.000   4.086E-02
    5.100   4.308E-02
    5.200   4.539E-02
    5.300   4.779E-02
    5.400   5.029E-02
    5.500   5.288E-02
    5.600   5.557E-02
    5.700   5.836E-02
    5.800   6.124E-02
    5.900   6.422E-02
    6.000   6.729E-02
    6.100   7.046E-02
    6.200   7.372E-02
    6.300   7.708E-02
    6.400   8.052E-02
    6.500   8.405E-02
    6.600   8.767E-02
    6.700   9.137E-02
    6.800   9.515E-02
    6.900   9.902E-02
    7.000   1.030E-01
    7.100   1.070E-01
    7.200   1.111E-01
    7.300   1.153E-01
    7.400   1.196E-01
    7.500   1.239E-01
    7.600   1.284E-01
    7.700   1.329E-01
    7.800   1.375E-01
    7.900   1.423E-01
    8.000   1.472E-01
    8.100   1.522E-01
    8.200   1.573E-01
    8.300   1.625E-01
    8.400   1.679E-01
    8.500   1.735E-01
    8.600   1.792E-01
    8.700   1.850E-01
    8.800   1.911E-01
    8.900   1.973E-01
    9.000   2.038E-01
    9.100   2.104E-01
    9.200   2.173E-01
    9.300   2.243E-01
    9.400   2.316E-01
    9.500   2.391E-01
    9.600   2.469E-01
    9.700   2.548E-01
    9.800   2.630E-01
    9.900   2.714E-01
   10.000   2.800E-01
   10.100   2.888E-01
   10.200   2.978E-01
   10.300   3.071E-01
   10.400   3.165E-01
   10.500   3.260E-01
   10.600   3.358E-01
   10.700   3.457E-01
   10.800   3.557E-01
   10.900   3.658E-01
   11.000   3.761E-01
   11.100   3.865E-01
   11.200   3.969E-01
   11.300   4.074E-01
   11.400   4.180E-01
   11.500   4.287E-01
   11.600   4.395E-01
   11.700   4.503E-01
   11.800   4.612E-01
   11.900   4.722E-01
   12.000   4.833E-01
   12.100   4.945E-01
   12.200   5.058E-01
   12.300   5.172E-01
   12.400   5.288E-01
   12.500   5.406E-01
   12.600   5.525E-01
   12.700   5.647E-01
   12.800   5.771E-01
   12.900   5.897E-01
   13.000   6.026E-01
   13.100   6.158E-01
   13.200   6.292E-01
   13.300   6.431E-01
   13.400   6.573E-01
   13.500   6.718E-01
   13.600   6.868E-01
   13.700   7.022E-01
   13.800   7.181E-01
   13.900   7.345E-01
   14.000   7.513E-01
   14.100   7.687E-01
   14.200   7.867E-01
   14.300   8.052E-01
   14.400   8.242E-01
   14.500   8.438E-01
   14.600   8.639E-01
   14.700   8.845E-01
   14.800   9.056E-01
   14.900   9.271E-01
   15.000   9.490E-01
   15.100   9.711E-01
   15.200   9.935E-01
   15.300   1.016E+00
   15.400   1.039E+00
   15.500   1.061E+00
   15.600   1.083E+00
   15.700   1.105E+00
   15.800   1.127E+00
   15.900   1.148E+00
   16.000   1.169E+00
   16.100   1.189E+00
   16.200   1.208E+00
   16.300   1.227E+00
   16.400   1.245E+00
   16.500   1.263E+00
   16.600   1.279E+00
   16.700   1.296E+00
   16.800   1.311E+00
   16.900   1.327E+00
   17.000   1.341E+00
   17.100   1.355E+00
   17.200   1.369E+00
   17.300   1.383E+00
   17.400   1.396E+00
   17.500   1.408E+00
   17.600   1.421E+00
   17.700   1.432E+00
   17.800   1.444E+00
   17.900   1.455E+00
   18.000   1.465E+00
   18.100   1.474E+00
   18.200   1.483E+00
   18.300   1.491E+00
   18.400   1.498E+00
   18.500   1.504E+00
   18.600   1.509E+00
   18.700   1.512E+00
   18.800   1.515E+00
   18.900   1.516E+00
   19.000   1.517E+00
   19.100   1.516E+00
   19.200   1.514E+00
   19.300   1.510E+00
   19.400   1.506E+00
   19.500   1.501E+00
   19.600   1.494E+00
   19.700   1.487E+00
   19.800   1.479E+00
   19.900   1.470E+00
   20.000   1.460E+00
   20.100   1.450E+00
   20.200   1.439E+00
   20.300   1.428E+00
   20.400   1.416E+00
   20.500   1.404E+00
   20.600   1.392E+00
   20.700   1.379E+00
   20.800   1.366E+00
   20.900   1.353E+00
   21.000   1.340E+00
   21.100   1.327E+00
   21.200   1.314E+00
   21.300   1.301E+00
   21.400   1.288E+00
   21.500   1.275E+00
   21.600   1.263E+00
   21.700   1.251E+00
   21.800   1.239E+00
   21.900   1.227E+00
   22.000   1.216E+00
   22.100   1.205E+00
   22.200   1.194E+00
   22.300   1.183E+00
   22.400   1.173E+00
   22.500   1.162E+00
   22.600   1.152E+00
   22.700   1.142E+00
   22.800   1.131E+00
   22.900   1.121E+00
   23.000   1.110E+00
   23.100   1.099E+00
   23.200   1.088E+00
   23.300   1.076E+00
   23.400   1.064E+00
   23.500   1.052E+00
   23.600   1.040E+00
   23.700   1.027E+00
   23.800   1.014E+00
   23.900   1.000E+00
   24.000   9.868E-01
   24.100   9.731E-01
   24.200   9.593E-01
   24.300   9.455E-01
   24.400   9.317E-01
   24.500   9.180E-01
   24.600   9.045E-01
   24.700   8.912E-01
   24.800   8.781E-01
   24.900   8.654E-01
   25.000   8.530E-01
   25.100   8.410E-01
   25.200   8.294E-01
   25.300   8.182E-01
   25.400   8.073E-01
   25.500   7.969E-01
   25.600   7.869E-01
   25.700   7.773E-01
   25.800   7.679E-01
   25.900   7.590E-01
   26.000   7.502E-01
   26.100   7.418E-01
   26.200   7.335E-01
   26.300   7.254E-01
   26.400   7.175E-01
   26.500   7.096E-01
   26.600   7.017E-01
   26.700   6.939E-01
   26.800   6.861E-01
   26.900   6.782E-01
   27.000   6.703E-01
   27.100   6.623E-01
   27.200   6.541E-01
   27.300   6.459E-01
   27.400   6.376E-01
   27.500   6.292E-01
   27.600   6.207E-01
   27.700   6.121E-01
   27.800   6.035E-01
   27.900   5.949E-01
   28.000   5.863E-01
   28.100   5.777E-01
   28.200   5.691E-01
   28.300   5.607E-01
   28.400   5.523E-01
   28.500   5.440E-01
   28.600   5.358E-01
   28.700   5.278E-01
   28.800   5.200E-01
   28.900   5.122E-01
   29.000   5.047E-01
   29.100   4.972E-01
   29.200   4.900E-01
   29.300   4.828E-01
   29.400   4.759E-01
   29.500   4.690E-01
   29.600   4.623E-01
   29.700   4.557E-01
   29.800   4.492E-01
   29.900   4.429E-01
   30.000   4.367E-01
 
 Z=  11 A=  29 Na
  U[MeV]  fE1[mb/MeV]
    0.100   1.521E-05
    0.200   6.088E-05
    0.300   1.371E-04
    0.400   2.439E-04
    0.500   3.816E-04
    0.600   5.503E-04
    0.700   7.504E-04
    0.800   9.821E-04
    0.900   1.246E-03
    1.000   1.542E-03
    1.100   1.871E-03
    1.200   2.234E-03
    1.300   2.631E-03
    1.400   3.063E-03
    1.500   3.530E-03
    1.600   4.034E-03
    1.700   4.575E-03
    1.800   5.154E-03
    1.900   5.772E-03
    2.000   6.431E-03
    2.100   7.131E-03
    2.200   7.874E-03
    2.300   8.662E-03
    2.400   9.494E-03
    2.500   1.037E-02
    2.600   1.130E-02
    2.700   1.228E-02
    2.800   1.331E-02
    2.900   1.440E-02
    3.000   1.554E-02
    3.100   1.675E-02
    3.200   1.801E-02
    3.300   1.934E-02
    3.400   2.073E-02
    3.500   2.219E-02
    3.600   2.373E-02
    3.700   2.534E-02
    3.800   2.702E-02
    3.900   2.879E-02
    4.000   3.065E-02
    4.100   3.259E-02
    4.200   3.463E-02
    4.300   3.676E-02
    4.400   3.900E-02
    4.500   4.134E-02
    4.600   4.379E-02
    4.700   4.635E-02
    4.800   4.903E-02
    4.900   5.182E-02
    5.000   5.475E-02
    5.100   5.780E-02
    5.200   6.099E-02
    5.300   6.431E-02
    5.400   6.776E-02
    5.500   7.136E-02
    5.600   7.510E-02
    5.700   7.899E-02
    5.800   8.301E-02
    5.900   8.719E-02
    6.000   9.150E-02
    6.100   9.595E-02
    6.200   1.005E-01
    6.300   1.053E-01
    6.400   1.101E-01
    6.500   1.151E-01
    6.600   1.202E-01
    6.700   1.255E-01
    6.800   1.308E-01
    6.900   1.363E-01
    7.000   1.419E-01
    7.100   1.476E-01
    7.200   1.534E-01
    7.300   1.593E-01
    7.400   1.653E-01
    7.500   1.714E-01
    7.600   1.777E-01
    7.700   1.841E-01
    7.800   1.906E-01
    7.900   1.973E-01
    8.000   2.041E-01
    8.100   2.110E-01
    8.200   2.181E-01
    8.300   2.254E-01
    8.400   2.329E-01
    8.500   2.405E-01
    8.600   2.483E-01
    8.700   2.562E-01
    8.800   2.644E-01
    8.900   2.728E-01
    9.000   2.813E-01
    9.100   2.901E-01
    9.200   2.991E-01
    9.300   3.082E-01
    9.400   3.176E-01
    9.500   3.272E-01
    9.600   3.369E-01
    9.700   3.469E-01
    9.800   3.571E-01
    9.900   3.674E-01
   10.000   3.779E-01
   10.100   3.886E-01
   10.200   3.994E-01
   10.300   4.104E-01
   10.400   4.214E-01
   10.500   4.327E-01
   10.600   4.440E-01
   10.700   4.554E-01
   10.800   4.669E-01
   10.900   4.785E-01
   11.000   4.901E-01
   11.100   5.019E-01
   11.200   5.137E-01
   11.300   5.255E-01
   11.400   5.375E-01
   11.500   5.495E-01
   11.600   5.616E-01
   11.700   5.738E-01
   11.800   5.861E-01
   11.900   5.986E-01
   12.000   6.112E-01
   12.100   6.239E-01
   12.200   6.368E-01
   12.300   6.499E-01
   12.400   6.633E-01
   12.500   6.768E-01
   12.600   6.906E-01
   12.700   7.047E-01
   12.800   7.191E-01
   12.900   7.337E-01
   13.000   7.487E-01
   13.100   7.641E-01
   13.200   7.798E-01
   13.300   7.958E-01
   13.400   8.123E-01
   13.500   8.292E-01
   13.600   8.465E-01
   13.700   8.642E-01
   13.800   8.824E-01
   13.900   9.011E-01
   14.000   9.202E-01
   14.100   9.398E-01
   14.200   9.598E-01
   14.300   9.803E-01
   14.400   1.001E+00
   14.500   1.022E+00
   14.600   1.044E+00
   14.700   1.066E+00
   14.800   1.088E+00
   14.900   1.110E+00
   15.000   1.132E+00
   15.100   1.154E+00
   15.200   1.175E+00
   15.300   1.197E+00
   15.400   1.218E+00
   15.500   1.238E+00
   15.600   1.258E+00
   15.700   1.277E+00
   15.800   1.296E+00
   15.900   1.314E+00
   16.000   1.331E+00
   16.100   1.347E+00
   16.200   1.362E+00
   16.300   1.377E+00
   16.400   1.391E+00
   16.500   1.404E+00
   16.600   1.417E+00
   16.700   1.429E+00
   16.800   1.441E+00
   16.900   1.453E+00
   17.000   1.465E+00
   17.100   1.476E+00
   17.200   1.487E+00
   17.300   1.497E+00
   17.400   1.508E+00
   17.500   1.519E+00
   17.600   1.529E+00
   17.700   1.539E+00
   17.800   1.549E+00
   17.900   1.559E+00
   18.000   1.568E+00
   18.100   1.577E+00
   18.200   1.585E+00
   18.300   1.592E+00
   18.400   1.599E+00
   18.500   1.605E+00
   18.600   1.610E+00
   18.700   1.614E+00
   18.800   1.616E+00
   18.900   1.618E+00
   19.000   1.618E+00
   19.100   1.617E+00
   19.200   1.614E+00
   19.300   1.610E+00
   19.400   1.605E+00
   19.500   1.598E+00
   19.600   1.590E+00
   19.700   1.581E+00
   19.800   1.571E+00
   19.900   1.560E+00
   20.000   1.548E+00
   20.100   1.535E+00
   20.200   1.522E+00
   20.300   1.508E+00
   20.400   1.493E+00
   20.500   1.478E+00
   20.600   1.463E+00
   20.700   1.448E+00
   20.800   1.432E+00
   20.900   1.417E+00
   21.000   1.401E+00
   21.100   1.386E+00
   21.200   1.370E+00
   21.300   1.355E+00
   21.400   1.340E+00
   21.500   1.325E+00
   21.600   1.310E+00
   21.700   1.296E+00
   21.800   1.282E+00
   21.900   1.268E+00
   22.000   1.254E+00
   22.100   1.240E+00
   22.200   1.227E+00
   22.300   1.213E+00
   22.400   1.200E+00
   22.500   1.187E+00
   22.600   1.173E+00
   22.700   1.160E+00
   22.800   1.147E+00
   22.900   1.133E+00
   23.000   1.120E+00
   23.100   1.106E+00
   23.200   1.092E+00
   23.300   1.077E+00
   23.400   1.063E+00
   23.500   1.048E+00
   23.600   1.033E+00
   23.700   1.017E+00
   23.800   1.002E+00
   23.900   9.862E-01
   24.000   9.705E-01
   24.100   9.548E-01
   24.200   9.390E-01
   24.300   9.234E-01
   24.400   9.078E-01
   24.500   8.925E-01
   24.600   8.774E-01
   24.700   8.625E-01
   24.800   8.480E-01
   24.900   8.339E-01
   25.000   8.202E-01
   25.100   8.069E-01
   25.200   7.940E-01
   25.300   7.816E-01
   25.400   7.697E-01
   25.500   7.582E-01
   25.600   7.472E-01
   25.700   7.367E-01
   25.800   7.266E-01
   25.900   7.169E-01
   26.000   7.077E-01
   26.100   6.988E-01
   26.200   6.902E-01
   26.300   6.820E-01
   26.400   6.740E-01
   26.500   6.663E-01
   26.600   6.588E-01
   26.700   6.514E-01
   26.800   6.442E-01
   26.900   6.371E-01
   27.000   6.300E-01
   27.100   6.230E-01
   27.200   6.159E-01
   27.300   6.088E-01
   27.400   6.017E-01
   27.500   5.945E-01
   27.600   5.872E-01
   27.700   5.799E-01
   27.800   5.724E-01
   27.900   5.649E-01
   28.000   5.574E-01
   28.100   5.498E-01
   28.200   5.421E-01
   28.300   5.345E-01
   28.400   5.268E-01
   28.500   5.192E-01
   28.600   5.117E-01
   28.700   5.042E-01
   28.800   4.968E-01
   28.900   4.895E-01
   29.000   4.823E-01
   29.100   4.753E-01
   29.200   4.684E-01
   29.300   4.616E-01
   29.400   4.550E-01
   29.500   4.485E-01
   29.600   4.423E-01
   29.700   4.361E-01
   29.800   4.301E-01
   29.900   4.243E-01
   30.000   4.186E-01
 
 Z=  11 A=  30 Na
  U[MeV]  fE1[mb/MeV]
    0.100   1.547E-05
    0.200   6.192E-05
    0.300   1.394E-04
    0.400   2.480E-04
    0.500   3.880E-04
    0.600   5.596E-04
    0.700   7.629E-04
    0.800   9.984E-04
    0.900   1.266E-03
    1.000   1.567E-03
    1.100   1.902E-03
    1.200   2.270E-03
    1.300   2.673E-03
    1.400   3.111E-03
    1.500   3.585E-03
    1.600   4.096E-03
    1.700   4.644E-03
    1.800   5.231E-03
    1.900   5.857E-03
    2.000   6.524E-03
    2.100   7.233E-03
    2.200   7.984E-03
    2.300   8.780E-03
    2.400   9.621E-03
    2.500   1.051E-02
    2.600   1.145E-02
    2.700   1.244E-02
    2.800   1.348E-02
    2.900   1.457E-02
    3.000   1.572E-02
    3.100   1.693E-02
    3.200   1.820E-02
    3.300   1.954E-02
    3.400   2.094E-02
    3.500   2.241E-02
    3.600   2.395E-02
    3.700   2.557E-02
    3.800   2.726E-02
    3.900   2.904E-02
    4.000   3.090E-02
    4.100   3.286E-02
    4.200   3.490E-02
    4.300   3.705E-02
    4.400   3.930E-02
    4.500   4.166E-02
    4.600   4.413E-02
    4.700   4.672E-02
    4.800   4.943E-02
    4.900   5.228E-02
    5.000   5.526E-02
    5.100   5.838E-02
    5.200   6.165E-02
    5.300   6.507E-02
    5.400   6.865E-02
    5.500   7.240E-02
    5.600   7.632E-02
    5.700   8.042E-02
    5.800   8.471E-02
    5.900   8.918E-02
    6.000   9.384E-02
    6.100   9.870E-02
    6.200   1.038E-01
    6.300   1.090E-01
    6.400   1.145E-01
    6.500   1.201E-01
    6.600   1.260E-01
    6.700   1.321E-01
    6.800   1.383E-01
    6.900   1.447E-01
    7.000   1.513E-01
    7.100   1.581E-01
    7.200   1.650E-01
    7.300   1.721E-01
    7.400   1.793E-01
    7.500   1.866E-01
    7.600   1.940E-01
    7.700   2.016E-01
    7.800   2.092E-01
    7.900   2.169E-01
    8.000   2.247E-01
    8.100   2.326E-01
    8.200   2.406E-01
    8.300   2.486E-01
    8.400   2.568E-01
    8.500   2.651E-01
    8.600   2.734E-01
    8.700   2.820E-01
    8.800   2.906E-01
    8.900   2.994E-01
    9.000   3.084E-01
    9.100   3.177E-01
    9.200   3.271E-01
    9.300   3.368E-01
    9.400   3.468E-01
    9.500   3.571E-01
    9.600   3.677E-01
    9.700   3.786E-01
    9.800   3.899E-01
    9.900   4.015E-01
   10.000   4.134E-01
   10.100   4.258E-01
   10.200   4.384E-01
   10.300   4.514E-01
   10.400   4.647E-01
   10.500   4.783E-01
   10.600   4.922E-01
   10.700   5.063E-01
   10.800   5.206E-01
   10.900   5.351E-01
   11.000   5.496E-01
   11.100   5.643E-01
   11.200   5.790E-01
   11.300   5.937E-01
   11.400   6.084E-01
   11.500   6.230E-01
   11.600   6.375E-01
   11.700   6.519E-01
   11.800   6.661E-01
   11.900   6.801E-01
   12.000   6.940E-01
   12.100   7.077E-01
   12.200   7.211E-01
   12.300   7.344E-01
   12.400   7.475E-01
   12.500   7.604E-01
   12.600   7.732E-01
   12.700   7.858E-01
   12.800   7.984E-01
   12.900   8.108E-01
   13.000   8.233E-01
   13.100   8.357E-01
   13.200   8.483E-01
   13.300   8.609E-01
   13.400   8.737E-01
   13.500   8.867E-01
   13.600   9.000E-01
   13.700   9.136E-01
   13.800   9.276E-01
   13.900   9.421E-01
   14.000   9.572E-01
   14.100   9.728E-01
   14.200   9.890E-01
   14.300   1.006E+00
   14.400   1.024E+00
   14.500   1.042E+00
   14.600   1.061E+00
   14.700   1.082E+00
   14.800   1.103E+00
   14.900   1.124E+00
   15.000   1.147E+00
   15.100   1.171E+00
   15.200   1.195E+00
   15.300   1.220E+00
   15.400   1.246E+00
   15.500   1.272E+00
   15.600   1.299E+00
   15.700   1.326E+00
   15.800   1.354E+00
   15.900   1.381E+00
   16.000   1.409E+00
   16.100   1.436E+00
   16.200   1.464E+00
   16.300   1.490E+00
   16.400   1.517E+00
   16.500   1.542E+00
   16.600   1.567E+00
   16.700   1.591E+00
   16.800   1.615E+00
   16.900   1.638E+00
   17.000   1.659E+00
   17.100   1.680E+00
   17.200   1.700E+00
   17.300   1.720E+00
   17.400   1.738E+00
   17.500   1.755E+00
   17.600   1.772E+00
   17.700   1.787E+00
   17.800   1.802E+00
   17.900   1.815E+00
   18.000   1.827E+00
   18.100   1.838E+00
   18.200   1.847E+00
   18.300   1.855E+00
   18.400   1.861E+00
   18.500   1.866E+00
   18.600   1.869E+00
   18.700   1.871E+00
   18.800   1.870E+00
   18.900   1.869E+00
   19.000   1.865E+00
   19.100   1.860E+00
   19.200   1.854E+00
   19.300   1.846E+00
   19.400   1.837E+00
   19.500   1.827E+00
   19.600   1.816E+00
   19.700   1.804E+00
   19.800   1.790E+00
   19.900   1.776E+00
   20.000   1.762E+00
   20.100   1.746E+00
   20.200   1.729E+00
   20.300   1.712E+00
   20.400   1.694E+00
   20.500   1.676E+00
   20.600   1.657E+00
   20.700   1.637E+00
   20.800   1.617E+00
   20.900   1.596E+00
   21.000   1.575E+00
   21.100   1.554E+00
   21.200   1.532E+00
   21.300   1.511E+00
   21.400   1.489E+00
   21.500   1.467E+00
   21.600   1.446E+00
   21.700   1.424E+00
   21.800   1.403E+00
   21.900   1.382E+00
   22.000   1.362E+00
   22.100   1.341E+00
   22.200   1.321E+00
   22.300   1.301E+00
   22.400   1.282E+00
   22.500   1.263E+00
   22.600   1.244E+00
   22.700   1.225E+00
   22.800   1.206E+00
   22.900   1.188E+00
   23.000   1.169E+00
   23.100   1.151E+00
   23.200   1.133E+00
   23.300   1.114E+00
   23.400   1.096E+00
   23.500   1.077E+00
   23.600   1.059E+00
   23.700   1.040E+00
   23.800   1.022E+00
   23.900   1.004E+00
   24.000   9.852E-01
   24.100   9.670E-01
   24.200   9.490E-01
   24.300   9.312E-01
   24.400   9.136E-01
   24.500   8.963E-01
   24.600   8.794E-01
   24.700   8.628E-01
   24.800   8.467E-01
   24.900   8.310E-01
   25.000   8.158E-01
   25.100   8.011E-01
   25.200   7.869E-01
   25.300   7.732E-01
   25.400   7.600E-01
   25.500   7.473E-01
   25.600   7.352E-01
   25.700   7.235E-01
   25.800   7.122E-01
   25.900   7.014E-01
   26.000   6.910E-01
   26.100   6.809E-01
   26.200   6.711E-01
   26.300   6.617E-01
   26.400   6.524E-01
   26.500   6.434E-01
   26.600   6.345E-01
   26.700   6.258E-01
   26.800   6.171E-01
   26.900   6.085E-01
   27.000   6.000E-01
   27.100   5.915E-01
   27.200   5.830E-01
   27.300   5.745E-01
   27.400   5.660E-01
   27.500   5.575E-01
   27.600   5.491E-01
   27.700   5.407E-01
   27.800   5.324E-01
   27.900   5.241E-01
   28.000   5.160E-01
   28.100   5.080E-01
   28.200   5.002E-01
   28.300   4.925E-01
   28.400   4.849E-01
   28.500   4.776E-01
   28.600   4.705E-01
   28.700   4.636E-01
   28.800   4.569E-01
   28.900   4.504E-01
   29.000   4.442E-01
   29.100   4.381E-01
   29.200   4.323E-01
   29.300   4.267E-01
   29.400   4.213E-01
   29.500   4.161E-01
   29.600   4.110E-01
   29.700   4.061E-01
   29.800   4.014E-01
   29.900   3.967E-01
   30.000   3.923E-01
 
 Z=  11 A=  31 Na
  U[MeV]  fE1[mb/MeV]
    0.100   1.768E-05
    0.200   7.075E-05
    0.300   1.593E-04
    0.400   2.836E-04
    0.500   4.437E-04
    0.600   6.401E-04
    0.700   8.730E-04
    0.800   1.143E-03
    0.900   1.451E-03
    1.000   1.797E-03
    1.100   2.181E-03
    1.200   2.606E-03
    1.300   3.071E-03
    1.400   3.578E-03
    1.500   4.127E-03
    1.600   4.720E-03
    1.700   5.358E-03
    1.800   6.043E-03
    1.900   6.776E-03
    2.000   7.559E-03
    2.100   8.393E-03
    2.200   9.280E-03
    2.300   1.022E-02
    2.400   1.123E-02
    2.500   1.229E-02
    2.600   1.341E-02
    2.700   1.460E-02
    2.800   1.587E-02
    2.900   1.720E-02
    3.000   1.861E-02
    3.100   2.011E-02
    3.200   2.168E-02
    3.300   2.335E-02
    3.400   2.512E-02
    3.500   2.699E-02
    3.600   2.896E-02
    3.700   3.106E-02
    3.800   3.327E-02
    3.900   3.562E-02
    4.000   3.811E-02
    4.100   4.075E-02
    4.200   4.356E-02
    4.300   4.654E-02
    4.400   4.971E-02
    4.500   5.308E-02
    4.600   5.668E-02
    4.700   6.051E-02
    4.800   6.460E-02
    4.900   6.897E-02
    5.000   7.364E-02
    5.100   7.863E-02
    5.200   8.398E-02
    5.300   8.970E-02
    5.400   9.583E-02
    5.500   1.024E-01
    5.600   1.094E-01
    5.700   1.169E-01
    5.800   1.249E-01
    5.900   1.334E-01
    6.000   1.424E-01
    6.100   1.519E-01
    6.200   1.618E-01
    6.300   1.722E-01
    6.400   1.828E-01
    6.500   1.937E-01
    6.600   2.047E-01
    6.700   2.156E-01
    6.800   2.264E-01
    6.900   2.369E-01
    7.000   2.469E-01
    7.100   2.565E-01
    7.200   2.657E-01
    7.300   2.744E-01
    7.400   2.828E-01
    7.500   2.912E-01
    7.600   2.995E-01
    7.700   3.082E-01
    7.800   3.173E-01
    7.900   3.270E-01
    8.000   3.376E-01
    8.100   3.493E-01
    8.200   3.621E-01
    8.300   3.762E-01
    8.400   3.917E-01
    8.500   4.086E-01
    8.600   4.271E-01
    8.700   4.471E-01
    8.800   4.685E-01
    8.900   4.914E-01
    9.000   5.155E-01
    9.100   5.407E-01
    9.200   5.668E-01
    9.300   5.933E-01
    9.400   6.199E-01
    9.500   6.463E-01
    9.600   6.719E-01
    9.700   6.963E-01
    9.800   7.190E-01
    9.900   7.398E-01
   10.000   7.584E-01
   10.100   7.745E-01
   10.200   7.882E-01
   10.300   7.995E-01
   10.400   8.087E-01
   10.500   8.159E-01
   10.600   8.217E-01
   10.700   8.263E-01
   10.800   8.303E-01
   10.900   8.341E-01
   11.000   8.381E-01
   11.100   8.428E-01
   11.200   8.485E-01
   11.300   8.556E-01
   11.400   8.643E-01
   11.500   8.748E-01
   11.600   8.874E-01
   11.700   9.021E-01
   11.800   9.189E-01
   11.900   9.379E-01
   12.000   9.591E-01
   12.100   9.824E-01
   12.200   1.008E+00
   12.300   1.036E+00
   12.400   1.065E+00
   12.500   1.097E+00
   12.600   1.132E+00
   12.700   1.169E+00
   12.800   1.208E+00
   12.900   1.250E+00
   13.000   1.295E+00
   13.100   1.342E+00
   13.200   1.391E+00
   13.300   1.442E+00
   13.400   1.495E+00
   13.500   1.549E+00
   13.600   1.604E+00
   13.700   1.658E+00
   13.800   1.711E+00
   13.900   1.761E+00
   14.000   1.808E+00
   14.100   1.849E+00
   14.200   1.886E+00
   14.300   1.916E+00
   14.400   1.940E+00
   14.500   1.959E+00
   14.600   1.971E+00
   14.700   1.980E+00
   14.800   1.984E+00
   14.900   1.985E+00
   15.000   1.983E+00
   15.100   1.979E+00
   15.200   1.974E+00
   15.300   1.967E+00
   15.400   1.958E+00
   15.500   1.948E+00
   15.600   1.936E+00
   15.700   1.923E+00
   15.800   1.908E+00
   15.900   1.891E+00
   16.000   1.874E+00
   16.100   1.856E+00
   16.200   1.837E+00
   16.300   1.818E+00
   16.400   1.799E+00
   16.500   1.781E+00
   16.600   1.764E+00
   16.700   1.747E+00
   16.800   1.732E+00
   16.900   1.717E+00
   17.000   1.703E+00
   17.100   1.690E+00
   17.200   1.676E+00
   17.300   1.662E+00
   17.400   1.647E+00
   17.500   1.631E+00
   17.600   1.614E+00
   17.700   1.594E+00
   17.800   1.574E+00
   17.900   1.553E+00
   18.000   1.531E+00
   18.100   1.508E+00
   18.200   1.486E+00
   18.300   1.465E+00
   18.400   1.445E+00
   18.500   1.426E+00
   18.600   1.408E+00
   18.700   1.393E+00
   18.800   1.378E+00
   18.900   1.366E+00
   19.000   1.355E+00
   19.100   1.345E+00
   19.200   1.337E+00
   19.300   1.329E+00
   19.400   1.323E+00
   19.500   1.316E+00
   19.600   1.311E+00
   19.700   1.305E+00
   19.800   1.298E+00
   19.900   1.292E+00
   20.000   1.285E+00
   20.100   1.278E+00
   20.200   1.270E+00
   20.300   1.261E+00
   20.400   1.252E+00
   20.500   1.243E+00
   20.600   1.234E+00
   20.700   1.224E+00
   20.800   1.214E+00
   20.900   1.205E+00
   21.000   1.195E+00
   21.100   1.186E+00
   21.200   1.176E+00
   21.300   1.167E+00
   21.400   1.158E+00
   21.500   1.149E+00
   21.600   1.140E+00
   21.700   1.132E+00
   21.800   1.123E+00
   21.900   1.115E+00
   22.000   1.107E+00
   22.100   1.099E+00
   22.200   1.091E+00
   22.300   1.083E+00
   22.400   1.075E+00
   22.500   1.067E+00
   22.600   1.059E+00
   22.700   1.051E+00
   22.800   1.043E+00
   22.900   1.034E+00
   23.000   1.026E+00
   23.100   1.017E+00
   23.200   1.007E+00
   23.300   9.972E-01
   23.400   9.870E-01
   23.500   9.763E-01
   23.600   9.652E-01
   23.700   9.537E-01
   23.800   9.420E-01
   23.900   9.299E-01
   24.000   9.176E-01
   24.100   9.051E-01
   24.200   8.924E-01
   24.300   8.796E-01
   24.400   8.666E-01
   24.500   8.536E-01
   24.600   8.406E-01
   24.700   8.275E-01
   24.800   8.145E-01
   24.900   8.016E-01
   25.000   7.888E-01
   25.100   7.761E-01
   25.200   7.635E-01
   25.300   7.512E-01
   25.400   7.390E-01
   25.500   7.270E-01
   25.600   7.153E-01
   25.700   7.038E-01
   25.800   6.925E-01
   25.900   6.815E-01
   26.000   6.707E-01
   26.100   6.601E-01
   26.200   6.498E-01
   26.300   6.397E-01
   26.400   6.297E-01
   26.500   6.200E-01
   26.600   6.104E-01
   26.700   6.010E-01
   26.800   5.918E-01
   26.900   5.827E-01
   27.000   5.738E-01
   27.100   5.651E-01
   27.200   5.565E-01
   27.300   5.480E-01
   27.400   5.397E-01
   27.500   5.316E-01
   27.600   5.235E-01
   27.700   5.156E-01
   27.800   5.077E-01
   27.900   5.000E-01
   28.000   4.923E-01
   28.100   4.847E-01
   28.200   4.772E-01
   28.300   4.698E-01
   28.400   4.625E-01
   28.500   4.552E-01
   28.600   4.480E-01
   28.700   4.408E-01
   28.800   4.337E-01
   28.900   4.267E-01
   29.000   4.196E-01
   29.100   4.126E-01
   29.200   4.057E-01
   29.300   3.989E-01
   29.400   3.921E-01
   29.500   3.855E-01
   29.600   3.790E-01
   29.700   3.726E-01
   29.800   3.664E-01
   29.900   3.604E-01
   30.000   3.546E-01
 
 Z=  11 A=  32 Na
  U[MeV]  fE1[mb/MeV]
    0.100   2.500E-05
    0.200   1.001E-04
    0.300   2.254E-04
    0.400   4.012E-04
    0.500   6.280E-04
    0.600   9.063E-04
    0.700   1.237E-03
    0.800   1.620E-03
    0.900   2.058E-03
    1.000   2.550E-03
    1.100   3.099E-03
    1.200   3.705E-03
    1.300   4.371E-03
    1.400   5.097E-03
    1.500   5.887E-03
    1.600   6.741E-03
    1.700   7.663E-03
    1.800   8.654E-03
    1.900   9.719E-03
    2.000   1.086E-02
    2.100   1.208E-02
    2.200   1.338E-02
    2.300   1.477E-02
    2.400   1.625E-02
    2.500   1.783E-02
    2.600   1.951E-02
    2.700   2.130E-02
    2.800   2.320E-02
    2.900   2.522E-02
    3.000   2.737E-02
    3.100   2.966E-02
    3.200   3.209E-02
    3.300   3.468E-02
    3.400   3.744E-02
    3.500   4.038E-02
    3.600   4.351E-02
    3.700   4.685E-02
    3.800   5.041E-02
    3.900   5.422E-02
    4.000   5.828E-02
    4.100   6.263E-02
    4.200   6.728E-02
    4.300   7.227E-02
    4.400   7.760E-02
    4.500   8.332E-02
    4.600   8.945E-02
    4.700   9.602E-02
    4.800   1.031E-01
    4.900   1.106E-01
    5.000   1.186E-01
    5.100   1.272E-01
    5.200   1.363E-01
    5.300   1.460E-01
    5.400   1.561E-01
    5.500   1.668E-01
    5.600   1.780E-01
    5.700   1.895E-01
    5.800   2.014E-01
    5.900   2.135E-01
    6.000   2.257E-01
    6.100   2.381E-01
    6.200   2.504E-01
    6.300   2.627E-01
    6.400   2.749E-01
    6.500   2.869E-01
    6.600   2.986E-01
    6.700   3.101E-01
    6.800   3.214E-01
    6.900   3.323E-01
    7.000   3.429E-01
    7.100   3.533E-01
    7.200   3.635E-01
    7.300   3.737E-01
    7.400   3.841E-01
    7.500   3.947E-01
    7.600   4.059E-01
    7.700   4.177E-01
    7.800   4.305E-01
    7.900   4.442E-01
    8.000   4.591E-01
    8.100   4.753E-01
    8.200   4.927E-01
    8.300   5.115E-01
    8.400   5.316E-01
    8.500   5.529E-01
    8.600   5.755E-01
    8.700   5.992E-01
    8.800   6.240E-01
    8.900   6.497E-01
    9.000   6.762E-01
    9.100   7.032E-01
    9.200   7.305E-01
    9.300   7.577E-01
    9.400   7.845E-01
    9.500   8.105E-01
    9.600   8.351E-01
    9.700   8.580E-01
    9.800   8.787E-01
    9.900   8.969E-01
   10.000   9.124E-01
   10.100   9.253E-01
   10.200   9.354E-01
   10.300   9.432E-01
   10.400   9.488E-01
   10.500   9.528E-01
   10.600   9.556E-01
   10.700   9.577E-01
   10.800   9.596E-01
   10.900   9.618E-01
   11.000   9.649E-01
   11.100   9.691E-01
   11.200   9.749E-01
   11.300   9.825E-01
   11.400   9.922E-01
   11.500   1.004E+00
   11.600   1.018E+00
   11.700   1.035E+00
   11.800   1.053E+00
   11.900   1.074E+00
   12.000   1.098E+00
   12.100   1.123E+00
   12.200   1.151E+00
   12.300   1.180E+00
   12.400   1.212E+00
   12.500   1.246E+00
   12.600   1.283E+00
   12.700   1.321E+00
   12.800   1.362E+00
   12.900   1.405E+00
   13.000   1.450E+00
   13.100   1.497E+00
   13.200   1.546E+00
   13.300   1.596E+00
   13.400   1.646E+00
   13.500   1.696E+00
   13.600   1.745E+00
   13.700   1.792E+00
   13.800   1.836E+00
   13.900   1.877E+00
   14.000   1.914E+00
   14.100   1.947E+00
   14.200   1.974E+00
   14.300   1.997E+00
   14.400   2.015E+00
   14.500   2.028E+00
   14.600   2.038E+00
   14.700   2.044E+00
   14.800   2.048E+00
   14.900   2.048E+00
   15.000   2.046E+00
   15.100   2.041E+00
   15.200   2.033E+00
   15.300   2.023E+00
   15.400   2.010E+00
   15.500   1.994E+00
   15.600   1.976E+00
   15.700   1.956E+00
   15.800   1.934E+00
   15.900   1.911E+00
   16.000   1.887E+00
   16.100   1.863E+00
   16.200   1.839E+00
   16.300   1.814E+00
   16.400   1.791E+00
   16.500   1.769E+00
   16.600   1.747E+00
   16.700   1.726E+00
   16.800   1.706E+00
   16.900   1.686E+00
   17.000   1.666E+00
   17.100   1.646E+00
   17.200   1.625E+00
   17.300   1.603E+00
   17.400   1.580E+00
   17.500   1.556E+00
   17.600   1.532E+00
   17.700   1.508E+00
   17.800   1.483E+00
   17.900   1.459E+00
   18.000   1.436E+00
   18.100   1.414E+00
   18.200   1.394E+00
   18.300   1.375E+00
   18.400   1.358E+00
   18.500   1.342E+00
   18.600   1.329E+00
   18.700   1.317E+00
   18.800   1.306E+00
   18.900   1.297E+00
   19.000   1.289E+00
   19.100   1.282E+00
   19.200   1.276E+00
   19.300   1.270E+00
   19.400   1.265E+00
   19.500   1.260E+00
   19.600   1.254E+00
   19.700   1.249E+00
   19.800   1.243E+00
   19.900   1.237E+00
   20.000   1.231E+00
   20.100   1.225E+00
   20.200   1.219E+00
   20.300   1.212E+00
   20.400   1.206E+00
   20.500   1.200E+00
   20.600   1.193E+00
   20.700   1.187E+00
   20.800   1.182E+00
   20.900   1.176E+00
   21.000   1.171E+00
   21.100   1.166E+00
   21.200   1.161E+00
   21.300   1.156E+00
   21.400   1.151E+00
   21.500   1.146E+00
   21.600   1.142E+00
   21.700   1.137E+00
   21.800   1.133E+00
   21.900   1.129E+00
   22.000   1.124E+00
   22.100   1.119E+00
   22.200   1.114E+00
   22.300   1.108E+00
   22.400   1.102E+00
   22.500   1.096E+00
   22.600   1.088E+00
   22.700   1.080E+00
   22.800   1.072E+00
   22.900   1.062E+00
   23.000   1.052E+00
   23.100   1.042E+00
   23.200   1.030E+00
   23.300   1.019E+00
   23.400   1.007E+00
   23.500   9.945E-01
   23.600   9.820E-01
   23.700   9.694E-01
   23.800   9.566E-01
   23.900   9.438E-01
   24.000   9.310E-01
   24.100   9.182E-01
   24.200   9.054E-01
   24.300   8.928E-01
   24.400   8.802E-01
   24.500   8.677E-01
   24.600   8.554E-01
   24.700   8.432E-01
   24.800   8.312E-01
   24.900   8.193E-01
   25.000   8.076E-01
   25.100   7.960E-01
   25.200   7.846E-01
   25.300   7.734E-01
   25.400   7.623E-01
   25.500   7.514E-01
   25.600   7.406E-01
   25.700   7.300E-01
   25.800   7.195E-01
   25.900   7.090E-01
   26.000   6.987E-01
   26.100   6.884E-01
   26.200   6.782E-01
   26.300   6.681E-01
   26.400   6.581E-01
   26.500   6.481E-01
   26.600   6.382E-01
   26.700   6.285E-01
   26.800   6.189E-01
   26.900   6.094E-01
   27.000   6.001E-01
   27.100   5.910E-01
   27.200   5.820E-01
   27.300   5.731E-01
   27.400   5.645E-01
   27.500   5.560E-01
   27.600   5.476E-01
   27.700   5.394E-01
   27.800   5.313E-01
   27.900   5.233E-01
   28.000   5.155E-01
   28.100   5.076E-01
   28.200   4.999E-01
   28.300   4.921E-01
   28.400   4.844E-01
   28.500   4.766E-01
   28.600   4.689E-01
   28.700   4.612E-01
   28.800   4.536E-01
   28.900   4.460E-01
   29.000   4.385E-01
   29.100   4.312E-01
   29.200   4.240E-01
   29.300   4.170E-01
   29.400   4.102E-01
   29.500   4.036E-01
   29.600   3.972E-01
   29.700   3.910E-01
   29.800   3.850E-01
   29.900   3.792E-01
   30.000   3.736E-01
 
 Z=  11 A=  33 Na
  U[MeV]  fE1[mb/MeV]
    0.100   3.003E-05
    0.200   1.202E-04
    0.300   2.707E-04
    0.400   4.820E-04
    0.500   7.545E-04
    0.600   1.089E-03
    0.700   1.487E-03
    0.800   1.948E-03
    0.900   2.475E-03
    1.000   3.068E-03
    1.100   3.730E-03
    1.200   4.461E-03
    1.300   5.265E-03
    1.400   6.143E-03
    1.500   7.098E-03
    1.600   8.133E-03
    1.700   9.251E-03
    1.800   1.046E-02
    1.900   1.175E-02
    2.000   1.314E-02
    2.100   1.463E-02
    2.200   1.622E-02
    2.300   1.792E-02
    2.400   1.973E-02
    2.500   2.167E-02
    2.600   2.374E-02
    2.700   2.594E-02
    2.800   2.829E-02
    2.900   3.079E-02
    3.000   3.346E-02
    3.100   3.630E-02
    3.200   3.934E-02
    3.300   4.258E-02
    3.400   4.604E-02
    3.500   4.973E-02
    3.600   5.368E-02
    3.700   5.790E-02
    3.800   6.242E-02
    3.900   6.726E-02
    4.000   7.245E-02
    4.100   7.801E-02
    4.200   8.398E-02
    4.300   9.039E-02
    4.400   9.727E-02
    4.500   1.047E-01
    4.600   1.126E-01
    4.700   1.211E-01
    4.800   1.303E-01
    4.900   1.400E-01
    5.000   1.505E-01
    5.100   1.616E-01
    5.200   1.734E-01
    5.300   1.858E-01
    5.400   1.988E-01
    5.500   2.124E-01
    5.600   2.264E-01
    5.700   2.406E-01
    5.800   2.551E-01
    5.900   2.695E-01
    6.000   2.838E-01
    6.100   2.978E-01
    6.200   3.115E-01
    6.300   3.249E-01
    6.400   3.378E-01
    6.500   3.503E-01
    6.600   3.626E-01
    6.700   3.746E-01
    6.800   3.865E-01
    6.900   3.983E-01
    7.000   4.101E-01
    7.100   4.218E-01
    7.200   4.338E-01
    7.300   4.458E-01
    7.400   4.582E-01
    7.500   4.711E-01
    7.600   4.845E-01
    7.700   4.986E-01
    7.800   5.135E-01
    7.900   5.295E-01
    8.000   5.465E-01
    8.100   5.646E-01
    8.200   5.838E-01
    8.300   6.041E-01
    8.400   6.253E-01
    8.500   6.474E-01
    8.600   6.703E-01
    8.700   6.939E-01
    8.800   7.181E-01
    8.900   7.429E-01
    9.000   7.684E-01
    9.100   7.943E-01
    9.200   8.208E-01
    9.300   8.477E-01
    9.400   8.748E-01
    9.500   9.019E-01
    9.600   9.285E-01
    9.700   9.542E-01
    9.800   9.785E-01
    9.900   1.001E+00
   10.000   1.021E+00
   10.100   1.038E+00
   10.200   1.053E+00
   10.300   1.064E+00
   10.400   1.072E+00
   10.500   1.078E+00
   10.600   1.081E+00
   10.700   1.083E+00
   10.800   1.083E+00
   10.900   1.082E+00
   11.000   1.082E+00
   11.100   1.081E+00
   11.200   1.082E+00
   11.300   1.083E+00
   11.400   1.087E+00
   11.500   1.092E+00
   11.600   1.099E+00
   11.700   1.109E+00
   11.800   1.122E+00
   11.900   1.136E+00
   12.000   1.154E+00
   12.100   1.173E+00
   12.200   1.195E+00
   12.300   1.220E+00
   12.400   1.246E+00
   12.500   1.276E+00
   12.600   1.307E+00
   12.700   1.341E+00
   12.800   1.377E+00
   12.900   1.416E+00
   13.000   1.457E+00
   13.100   1.500E+00
   13.200   1.545E+00
   13.300   1.592E+00
   13.400   1.640E+00
   13.500   1.689E+00
   13.600   1.739E+00
   13.700   1.788E+00
   13.800   1.837E+00
   13.900   1.884E+00
   14.000   1.928E+00
   14.100   1.969E+00
   14.200   2.006E+00
   14.300   2.038E+00
   14.400   2.065E+00
   14.500   2.088E+00
   14.600   2.106E+00
   14.700   2.120E+00
   14.800   2.130E+00
   14.900   2.136E+00
   15.000   2.139E+00
   15.100   2.139E+00
   15.200   2.136E+00
   15.300   2.130E+00
   15.400   2.121E+00
   15.500   2.108E+00
   15.600   2.092E+00
   15.700   2.074E+00
   15.800   2.052E+00
   15.900   2.028E+00
   16.000   2.002E+00
   16.100   1.975E+00
   16.200   1.946E+00
   16.300   1.917E+00
   16.400   1.889E+00
   16.500   1.860E+00
   16.600   1.833E+00
   16.700   1.806E+00
   16.800   1.781E+00
   16.900   1.757E+00
   17.000   1.734E+00
   17.100   1.711E+00
   17.200   1.690E+00
   17.300   1.668E+00
   17.400   1.646E+00
   17.500   1.624E+00
   17.600   1.601E+00
   17.700   1.578E+00
   17.800   1.554E+00
   17.900   1.530E+00
   18.000   1.507E+00
   18.100   1.485E+00
   18.200   1.463E+00
   18.300   1.443E+00
   18.400   1.424E+00
   18.500   1.407E+00
   18.600   1.391E+00
   18.700   1.377E+00
   18.800   1.365E+00
   18.900   1.355E+00
   19.000   1.345E+00
   19.100   1.338E+00
   19.200   1.331E+00
   19.300   1.325E+00
   19.400   1.319E+00
   19.500   1.314E+00
   19.600   1.309E+00
   19.700   1.305E+00
   19.800   1.300E+00
   19.900   1.295E+00
   20.000   1.289E+00
   20.100   1.284E+00
   20.200   1.278E+00
   20.300   1.272E+00
   20.400   1.266E+00
   20.500   1.259E+00
   20.600   1.253E+00
   20.700   1.247E+00
   20.800   1.241E+00
   20.900   1.235E+00
   21.000   1.229E+00
   21.100   1.223E+00
   21.200   1.218E+00
   21.300   1.213E+00
   21.400   1.207E+00
   21.500   1.202E+00
   21.600   1.197E+00
   21.700   1.192E+00
   21.800   1.187E+00
   21.900   1.182E+00
   22.000   1.177E+00
   22.100   1.172E+00
   22.200   1.166E+00
   22.300   1.159E+00
   22.400   1.153E+00
   22.500   1.145E+00
   22.600   1.137E+00
   22.700   1.128E+00
   22.800   1.119E+00
   22.900   1.109E+00
   23.000   1.098E+00
   23.100   1.087E+00
   23.200   1.074E+00
   23.300   1.062E+00
   23.400   1.049E+00
   23.500   1.035E+00
   23.600   1.021E+00
   23.700   1.007E+00
   23.800   9.924E-01
   23.900   9.779E-01
   24.000   9.635E-01
   24.100   9.490E-01
   24.200   9.347E-01
   24.300   9.205E-01
   24.400   9.064E-01
   24.500   8.926E-01
   24.600   8.789E-01
   24.700   8.655E-01
   24.800   8.522E-01
   24.900   8.392E-01
   25.000   8.264E-01
   25.100   8.137E-01
   25.200   8.012E-01
   25.300   7.890E-01
   25.400   7.769E-01
   25.500   7.650E-01
   25.600   7.534E-01
   25.700   7.420E-01
   25.800   7.308E-01
   25.900   7.198E-01
   26.000   7.091E-01
   26.100   6.986E-01
   26.200   6.883E-01
   26.300   6.781E-01
   26.400   6.681E-01
   26.500   6.582E-01
   26.600   6.484E-01
   26.700   6.386E-01
   26.800   6.290E-01
   26.900   6.194E-01
   27.000   6.099E-01
   27.100   6.005E-01
   27.200   5.912E-01
   27.300   5.821E-01
   27.400   5.732E-01
   27.500   5.645E-01
   27.600   5.560E-01
   27.700   5.477E-01
   27.800   5.395E-01
   27.900   5.316E-01
   28.000   5.239E-01
   28.100   5.163E-01
   28.200   5.088E-01
   28.300   5.014E-01
   28.400   4.941E-01
   28.500   4.869E-01
   28.600   4.797E-01
   28.700   4.725E-01
   28.800   4.653E-01
   28.900   4.582E-01
   29.000   4.510E-01
   29.100   4.439E-01
   29.200   4.369E-01
   29.300   4.299E-01
   29.400   4.231E-01
   29.500   4.164E-01
   29.600   4.100E-01
   29.700   4.037E-01
   29.800   3.976E-01
   29.900   3.917E-01
   30.000   3.861E-01
 
 Z=  11 A=  34 Na
  U[MeV]  fE1[mb/MeV]
    0.100   2.924E-05
    0.200   1.170E-04
    0.300   2.637E-04
    0.400   4.696E-04
    0.500   7.353E-04
    0.600   1.062E-03
    0.700   1.450E-03
    0.800   1.901E-03
    0.900   2.416E-03
    1.000   2.997E-03
    1.100   3.645E-03
    1.200   4.363E-03
    1.300   5.153E-03
    1.400   6.018E-03
    1.500   6.960E-03
    1.600   7.983E-03
    1.700   9.090E-03
    1.800   1.028E-02
    1.900   1.157E-02
    2.000   1.296E-02
    2.100   1.444E-02
    2.200   1.604E-02
    2.300   1.775E-02
    2.400   1.958E-02
    2.500   2.155E-02
    2.600   2.365E-02
    2.700   2.590E-02
    2.800   2.831E-02
    2.900   3.089E-02
    3.000   3.365E-02
    3.100   3.662E-02
    3.200   3.980E-02
    3.300   4.321E-02
    3.400   4.688E-02
    3.500   5.083E-02
    3.600   5.508E-02
    3.700   5.966E-02
    3.800   6.461E-02
    3.900   6.996E-02
    4.000   7.574E-02
    4.100   8.202E-02
    4.200   8.883E-02
    4.300   9.623E-02
    4.400   1.043E-01
    4.500   1.131E-01
    4.600   1.226E-01
    4.700   1.330E-01
    4.800   1.444E-01
    4.900   1.567E-01
    5.000   1.702E-01
    5.100   1.847E-01
    5.200   2.004E-01
    5.300   2.171E-01
    5.400   2.349E-01
    5.500   2.536E-01
    5.600   2.729E-01
    5.700   2.926E-01
    5.800   3.122E-01
    5.900   3.314E-01
    6.000   3.497E-01
    6.100   3.667E-01
    6.200   3.824E-01
    6.300   3.966E-01
    6.400   4.094E-01
    6.500   4.211E-01
    6.600   4.322E-01
    6.700   4.429E-01
    6.800   4.537E-01
    6.900   4.649E-01
    7.000   4.766E-01
    7.100   4.890E-01
    7.200   5.022E-01
    7.300   5.163E-01
    7.400   5.312E-01
    7.500   5.472E-01
    7.600   5.643E-01
    7.700   5.828E-01
    7.800   6.027E-01
    7.900   6.242E-01
    8.000   6.473E-01
    8.100   6.720E-01
    8.200   6.980E-01
    8.300   7.250E-01
    8.400   7.526E-01
    8.500   7.803E-01
    8.600   8.077E-01
    8.700   8.346E-01
    8.800   8.607E-01
    8.900   8.862E-01
    9.000   9.116E-01
    9.100   9.371E-01
    9.200   9.633E-01
    9.300   9.907E-01
    9.400   1.020E+00
    9.500   1.050E+00
    9.600   1.081E+00
    9.700   1.113E+00
    9.800   1.144E+00
    9.900   1.174E+00
   10.000   1.201E+00
   10.100   1.224E+00
   10.200   1.243E+00
   10.300   1.257E+00
   10.400   1.265E+00
   10.500   1.269E+00
   10.600   1.267E+00
   10.700   1.262E+00
   10.800   1.254E+00
   10.900   1.244E+00
   11.000   1.232E+00
   11.100   1.221E+00
   11.200   1.211E+00
   11.300   1.202E+00
   11.400   1.195E+00
   11.500   1.192E+00
   11.600   1.191E+00
   11.700   1.195E+00
   11.800   1.202E+00
   11.900   1.213E+00
   12.000   1.228E+00
   12.100   1.247E+00
   12.200   1.269E+00
   12.300   1.295E+00
   12.400   1.324E+00
   12.500   1.357E+00
   12.600   1.393E+00
   12.700   1.432E+00
   12.800   1.474E+00
   12.900   1.519E+00
   13.000   1.567E+00
   13.100   1.618E+00
   13.200   1.672E+00
   13.300   1.728E+00
   13.400   1.788E+00
   13.500   1.849E+00
   13.600   1.913E+00
   13.700   1.977E+00
   13.800   2.041E+00
   13.900   2.103E+00
   14.000   2.162E+00
   14.100   2.215E+00
   14.200   2.262E+00
   14.300   2.301E+00
   14.400   2.332E+00
   14.500   2.356E+00
   14.600   2.373E+00
   14.700   2.385E+00
   14.800   2.391E+00
   14.900   2.395E+00
   15.000   2.394E+00
   15.100   2.391E+00
   15.200   2.383E+00
   15.300   2.371E+00
   15.400   2.354E+00
   15.500   2.332E+00
   15.600   2.306E+00
   15.700   2.274E+00
   15.800   2.238E+00
   15.900   2.198E+00
   16.000   2.156E+00
   16.100   2.112E+00
   16.200   2.066E+00
   16.300   2.020E+00
   16.400   1.976E+00
   16.500   1.932E+00
   16.600   1.891E+00
   16.700   1.853E+00
   16.800   1.819E+00
   16.900   1.787E+00
   17.000   1.758E+00
   17.100   1.732E+00
   17.200   1.707E+00
   17.300   1.684E+00
   17.400   1.660E+00
   17.500   1.636E+00
   17.600   1.611E+00
   17.700   1.585E+00
   17.800   1.560E+00
   17.900   1.534E+00
   18.000   1.509E+00
   18.100   1.485E+00
   18.200   1.463E+00
   18.300   1.444E+00
   18.400   1.427E+00
   18.500   1.412E+00
   18.600   1.401E+00
   18.700   1.392E+00
   18.800   1.385E+00
   18.900   1.381E+00
   19.000   1.378E+00
   19.100   1.377E+00
   19.200   1.378E+00
   19.300   1.380E+00
   19.400   1.382E+00
   19.500   1.385E+00
   19.600   1.388E+00
   19.700   1.390E+00
   19.800   1.392E+00
   19.900   1.393E+00
   20.000   1.393E+00
   20.100   1.392E+00
   20.200   1.390E+00
   20.300   1.388E+00
   20.400   1.386E+00
   20.500   1.383E+00
   20.600   1.380E+00
   20.700   1.377E+00
   20.800   1.374E+00
   20.900   1.371E+00
   21.000   1.368E+00
   21.100   1.365E+00
   21.200   1.362E+00
   21.300   1.360E+00
   21.400   1.357E+00
   21.500   1.354E+00
   21.600   1.350E+00
   21.700   1.346E+00
   21.800   1.341E+00
   21.900   1.336E+00
   22.000   1.329E+00
   22.100   1.322E+00
   22.200   1.313E+00
   22.300   1.303E+00
   22.400   1.293E+00
   22.500   1.281E+00
   22.600   1.268E+00
   22.700   1.255E+00
   22.800   1.240E+00
   22.900   1.225E+00
   23.000   1.209E+00
   23.100   1.192E+00
   23.200   1.174E+00
   23.300   1.156E+00
   23.400   1.137E+00
   23.500   1.118E+00
   23.600   1.099E+00
   23.700   1.079E+00
   23.800   1.060E+00
   23.900   1.041E+00
   24.000   1.022E+00
   24.100   1.003E+00
   24.200   9.841E-01
   24.300   9.659E-01
   24.400   9.480E-01
   24.500   9.305E-01
   24.600   9.133E-01
   24.700   8.964E-01
   24.800   8.798E-01
   24.900   8.635E-01
   25.000   8.474E-01
   25.100   8.316E-01
   25.200   8.161E-01
   25.300   8.008E-01
   25.400   7.858E-01
   25.500   7.711E-01
   25.600   7.567E-01
   25.700   7.426E-01
   25.800   7.290E-01
   25.900   7.156E-01
   26.000   7.027E-01
   26.100   6.902E-01
   26.200   6.780E-01
   26.300   6.662E-01
   26.400   6.546E-01
   26.500   6.433E-01
   26.600   6.323E-01
   26.700   6.213E-01
   26.800   6.105E-01
   26.900   5.998E-01
   27.000   5.892E-01
   27.100   5.788E-01
   27.200   5.685E-01
   27.300   5.585E-01
   27.400   5.488E-01
   27.500   5.394E-01
   27.600   5.304E-01
   27.700   5.217E-01
   27.800   5.134E-01
   27.900   5.055E-01
   28.000   4.978E-01
   28.100   4.902E-01
   28.200   4.829E-01
   28.300   4.756E-01
   28.400   4.683E-01
   28.500   4.610E-01
   28.600   4.536E-01
   28.700   4.462E-01
   28.800   4.386E-01
   28.900   4.311E-01
   29.000   4.235E-01
   29.100   4.160E-01
   29.200   4.086E-01
   29.300   4.013E-01
   29.400   3.943E-01
   29.500   3.875E-01
   29.600   3.809E-01
   29.700   3.747E-01
   29.800   3.688E-01
   29.900   3.632E-01
   30.000   3.580E-01
 
 Z=  11 A=  35 Na
  U[MeV]  fE1[mb/MeV]
    0.100   3.080E-05
    0.200   1.233E-04
    0.300   2.777E-04
    0.400   4.945E-04
    0.500   7.744E-04
    0.600   1.118E-03
    0.700   1.527E-03
    0.800   2.002E-03
    0.900   2.544E-03
    1.000   3.156E-03
    1.100   3.838E-03
    1.200   4.595E-03
    1.300   5.426E-03
    1.400   6.337E-03
    1.500   7.328E-03
    1.600   8.405E-03
    1.700   9.570E-03
    1.800   1.083E-02
    1.900   1.218E-02
    2.000   1.364E-02
    2.100   1.520E-02
    2.200   1.688E-02
    2.300   1.868E-02
    2.400   2.061E-02
    2.500   2.267E-02
    2.600   2.487E-02
    2.700   2.724E-02
    2.800   2.976E-02
    2.900   3.247E-02
    3.000   3.537E-02
    3.100   3.847E-02
    3.200   4.180E-02
    3.300   4.537E-02
    3.400   4.921E-02
    3.500   5.333E-02
    3.600   5.776E-02
    3.700   6.254E-02
    3.800   6.769E-02
    3.900   7.325E-02
    4.000   7.926E-02
    4.100   8.577E-02
    4.200   9.284E-02
    4.300   1.005E-01
    4.400   1.088E-01
    4.500   1.179E-01
    4.600   1.278E-01
    4.700   1.386E-01
    4.800   1.504E-01
    4.900   1.632E-01
    5.000   1.772E-01
    5.100   1.924E-01
    5.200   2.090E-01
    5.300   2.268E-01
    5.400   2.460E-01
    5.500   2.664E-01
    5.600   2.878E-01
    5.700   3.102E-01
    5.800   3.330E-01
    5.900   3.558E-01
    6.000   3.782E-01
    6.100   3.994E-01
    6.200   4.192E-01
    6.300   4.370E-01
    6.400   4.527E-01
    6.500   4.664E-01
    6.600   4.783E-01
    6.700   4.889E-01
    6.800   4.988E-01
    6.900   5.085E-01
    7.000   5.186E-01
    7.100   5.295E-01
    7.200   5.416E-01
    7.300   5.551E-01
    7.400   5.701E-01
    7.500   5.867E-01
    7.600   6.050E-01
    7.700   6.250E-01
    7.800   6.467E-01
    7.900   6.701E-01
    8.000   6.954E-01
    8.100   7.226E-01
    8.200   7.514E-01
    8.300   7.817E-01
    8.400   8.131E-01
    8.500   8.452E-01
    8.600   8.771E-01
    8.700   9.082E-01
    8.800   9.378E-01
    8.900   9.654E-01
    9.000   9.907E-01
    9.100   1.014E+00
    9.200   1.035E+00
    9.300   1.055E+00
    9.400   1.076E+00
    9.500   1.096E+00
    9.600   1.118E+00
    9.700   1.143E+00
    9.800   1.169E+00
    9.900   1.198E+00
   10.000   1.228E+00
   10.100   1.259E+00
   10.200   1.289E+00
   10.300   1.318E+00
   10.400   1.345E+00
   10.500   1.367E+00
   10.600   1.385E+00
   10.700   1.398E+00
   10.800   1.405E+00
   10.900   1.408E+00
   11.000   1.406E+00
   11.100   1.400E+00
   11.200   1.392E+00
   11.300   1.381E+00
   11.400   1.369E+00
   11.500   1.357E+00
   11.600   1.347E+00
   11.700   1.338E+00
   11.800   1.331E+00
   11.900   1.328E+00
   12.000   1.328E+00
   12.100   1.332E+00
   12.200   1.341E+00
   12.300   1.353E+00
   12.400   1.370E+00
   12.500   1.390E+00
   12.600   1.415E+00
   12.700   1.442E+00
   12.800   1.473E+00
   12.900   1.507E+00
   13.000   1.544E+00
   13.100   1.583E+00
   13.200   1.625E+00
   13.300   1.669E+00
   13.400   1.716E+00
   13.500   1.765E+00
   13.600   1.817E+00
   13.700   1.871E+00
   13.800   1.928E+00
   13.900   1.987E+00
   14.000   2.048E+00
   14.100   2.109E+00
   14.200   2.170E+00
   14.300   2.228E+00
   14.400   2.282E+00
   14.500   2.330E+00
   14.600   2.370E+00
   14.700   2.403E+00
   14.800   2.428E+00
   14.900   2.446E+00
   15.000   2.457E+00
   15.100   2.464E+00
   15.200   2.466E+00
   15.300   2.465E+00
   15.400   2.461E+00
   15.500   2.453E+00
   15.600   2.442E+00
   15.700   2.427E+00
   15.800   2.407E+00
   15.900   2.382E+00
   16.000   2.352E+00
   16.100   2.318E+00
   16.200   2.279E+00
   16.300   2.238E+00
   16.400   2.193E+00
   16.500   2.147E+00
   16.600   2.100E+00
   16.700   2.054E+00
   16.800   2.008E+00
   16.900   1.963E+00
   17.000   1.921E+00
   17.100   1.883E+00
   17.200   1.848E+00
   17.300   1.816E+00
   17.400   1.788E+00
   17.500   1.763E+00
   17.600   1.741E+00
   17.700   1.721E+00
   17.800   1.702E+00
   17.900   1.684E+00
   18.000   1.666E+00
   18.100   1.647E+00
   18.200   1.629E+00
   18.300   1.610E+00
   18.400   1.592E+00
   18.500   1.574E+00
   18.600   1.558E+00
   18.700   1.543E+00
   18.800   1.531E+00
   18.900   1.520E+00
   19.000   1.512E+00
   19.100   1.506E+00
   19.200   1.501E+00
   19.300   1.499E+00
   19.400   1.498E+00
   19.500   1.498E+00
   19.600   1.499E+00
   19.700   1.501E+00
   19.800   1.502E+00
   19.900   1.504E+00
   20.000   1.506E+00
   20.100   1.506E+00
   20.200   1.506E+00
   20.300   1.505E+00
   20.400   1.502E+00
   20.500   1.498E+00
   20.600   1.493E+00
   20.700   1.486E+00
   20.800   1.479E+00
   20.900   1.472E+00
   21.000   1.463E+00
   21.100   1.455E+00
   21.200   1.446E+00
   21.300   1.437E+00
   21.400   1.429E+00
   21.500   1.420E+00
   21.600   1.411E+00
   21.700   1.402E+00
   21.800   1.392E+00
   21.900   1.382E+00
   22.000   1.372E+00
   22.100   1.361E+00
   22.200   1.348E+00
   22.300   1.335E+00
   22.400   1.321E+00
   22.500   1.306E+00
   22.600   1.290E+00
   22.700   1.274E+00
   22.800   1.256E+00
   22.900   1.239E+00
   23.000   1.221E+00
   23.100   1.203E+00
   23.200   1.185E+00
   23.300   1.167E+00
   23.400   1.149E+00
   23.500   1.130E+00
   23.600   1.112E+00
   23.700   1.093E+00
   23.800   1.074E+00
   23.900   1.055E+00
   24.000   1.036E+00
   24.100   1.017E+00
   24.200   9.978E-01
   24.300   9.785E-01
   24.400   9.592E-01
   24.500   9.400E-01
   24.600   9.210E-01
   24.700   9.020E-01
   24.800   8.833E-01
   24.900   8.648E-01
   25.000   8.466E-01
   25.100   8.286E-01
   25.200   8.110E-01
   25.300   7.937E-01
   25.400   7.769E-01
   25.500   7.605E-01
   25.600   7.446E-01
   25.700   7.292E-01
   25.800   7.143E-01
   25.900   6.999E-01
   26.000   6.860E-01
   26.100   6.727E-01
   26.200   6.599E-01
   26.300   6.477E-01
   26.400   6.361E-01
   26.500   6.251E-01
   26.600   6.146E-01
   26.700   6.046E-01
   26.800   5.950E-01
   26.900   5.858E-01
   27.000   5.768E-01
   27.100   5.681E-01
   27.200   5.595E-01
   27.300   5.509E-01
   27.400   5.424E-01
   27.500   5.340E-01
   27.600   5.255E-01
   27.700   5.172E-01
   27.800   5.089E-01
   27.900   5.008E-01
   28.000   4.928E-01
   28.100   4.851E-01
   28.200   4.777E-01
   28.300   4.705E-01
   28.400   4.637E-01
   28.500   4.572E-01
   28.600   4.510E-01
   28.700   4.450E-01
   28.800   4.393E-01
   28.900   4.337E-01
   29.000   4.283E-01
   29.100   4.229E-01
   29.200   4.175E-01
   29.300   4.121E-01
   29.400   4.067E-01
   29.500   4.012E-01
   29.600   3.956E-01
   29.700   3.900E-01
   29.800   3.844E-01
   29.900   3.789E-01
   30.000   3.735E-01
 
 Z=  11 A=  36 Na
  U[MeV]  fE1[mb/MeV]
    0.100   3.323E-05
    0.200   1.330E-04
    0.300   2.996E-04
    0.400   5.336E-04
    0.500   8.356E-04
    0.600   1.207E-03
    0.700   1.648E-03
    0.800   2.160E-03
    0.900   2.746E-03
    1.000   3.406E-03
    1.100   4.143E-03
    1.200   4.960E-03
    1.300   5.858E-03
    1.400   6.841E-03
    1.500   7.913E-03
    1.600   9.076E-03
    1.700   1.034E-02
    1.800   1.170E-02
    1.900   1.316E-02
    2.000   1.474E-02
    2.100   1.643E-02
    2.200   1.824E-02
    2.300   2.019E-02
    2.400   2.228E-02
    2.500   2.451E-02
    2.600   2.690E-02
    2.700   2.946E-02
    2.800   3.220E-02
    2.900   3.514E-02
    3.000   3.828E-02
    3.100   4.165E-02
    3.200   4.527E-02
    3.300   4.915E-02
    3.400   5.332E-02
    3.500   5.780E-02
    3.600   6.262E-02
    3.700   6.782E-02
    3.800   7.343E-02
    3.900   7.950E-02
    4.000   8.606E-02
    4.100   9.317E-02
    4.200   1.009E-01
    4.300   1.093E-01
    4.400   1.184E-01
    4.500   1.283E-01
    4.600   1.392E-01
    4.700   1.510E-01
    4.800   1.640E-01
    4.900   1.781E-01
    5.000   1.936E-01
    5.100   2.105E-01
    5.200   2.288E-01
    5.300   2.487E-01
    5.400   2.702E-01
    5.500   2.931E-01
    5.600   3.174E-01
    5.700   3.428E-01
    5.800   3.688E-01
    5.900   3.951E-01
    6.000   4.209E-01
    6.100   4.455E-01
    6.200   4.684E-01
    6.300   4.888E-01
    6.400   5.066E-01
    6.500   5.216E-01
    6.600   5.342E-01
    6.700   5.448E-01
    6.800   5.540E-01
    6.900   5.628E-01
    7.000   5.717E-01
    7.100   5.814E-01
    7.200   5.925E-01
    7.300   6.055E-01
    7.400   6.205E-01
    7.500   6.379E-01
    7.600   6.578E-01
    7.700   6.801E-01
    7.800   7.050E-01
    7.900   7.325E-01
    8.000   7.625E-01
    8.100   7.949E-01
    8.200   8.296E-01
    8.300   8.663E-01
    8.400   9.044E-01
    8.500   9.434E-01
    8.600   9.823E-01
    8.700   1.020E+00
    8.800   1.056E+00
    8.900   1.088E+00
    9.000   1.116E+00
    9.100   1.141E+00
    9.200   1.161E+00
    9.300   1.179E+00
    9.400   1.194E+00
    9.500   1.209E+00
    9.600   1.224E+00
    9.700   1.240E+00
    9.800   1.259E+00
    9.900   1.281E+00
   10.000   1.306E+00
   10.100   1.333E+00
   10.200   1.362E+00
   10.300   1.393E+00
   10.400   1.423E+00
   10.500   1.451E+00
   10.600   1.476E+00
   10.700   1.498E+00
   10.800   1.515E+00
   10.900   1.527E+00
   11.000   1.534E+00
   11.100   1.537E+00
   11.200   1.535E+00
   11.300   1.529E+00
   11.400   1.521E+00
   11.500   1.512E+00
   11.600   1.502E+00
   11.700   1.493E+00
   11.800   1.485E+00
   11.900   1.480E+00
   12.000   1.479E+00
   12.100   1.481E+00
   12.200   1.487E+00
   12.300   1.498E+00
   12.400   1.512E+00
   12.500   1.530E+00
   12.600   1.552E+00
   12.700   1.578E+00
   12.800   1.606E+00
   12.900   1.637E+00
   13.000   1.670E+00
   13.100   1.705E+00
   13.200   1.741E+00
   13.300   1.779E+00
   13.400   1.819E+00
   13.500   1.861E+00
   13.600   1.905E+00
   13.700   1.951E+00
   13.800   2.001E+00
   13.900   2.053E+00
   14.000   2.108E+00
   14.100   2.164E+00
   14.200   2.221E+00
   14.300   2.278E+00
   14.400   2.331E+00
   14.500   2.380E+00
   14.600   2.423E+00
   14.700   2.458E+00
   14.800   2.486E+00
   14.900   2.506E+00
   15.000   2.520E+00
   15.100   2.528E+00
   15.200   2.531E+00
   15.300   2.530E+00
   15.400   2.527E+00
   15.500   2.520E+00
   15.600   2.509E+00
   15.700   2.495E+00
   15.800   2.476E+00
   15.900   2.452E+00
   16.000   2.423E+00
   16.100   2.389E+00
   16.200   2.350E+00
   16.300   2.308E+00
   16.400   2.263E+00
   16.500   2.216E+00
   16.600   2.167E+00
   16.700   2.118E+00
   16.800   2.070E+00
   16.900   2.022E+00
   17.000   1.977E+00
   17.100   1.934E+00
   17.200   1.894E+00
   17.300   1.857E+00
   17.400   1.824E+00
   17.500   1.795E+00
   17.600   1.770E+00
   17.700   1.747E+00
   17.800   1.727E+00
   17.900   1.708E+00
   18.000   1.691E+00
   18.100   1.674E+00
   18.200   1.657E+00
   18.300   1.640E+00
   18.400   1.624E+00
   18.500   1.607E+00
   18.600   1.592E+00
   18.700   1.578E+00
   18.800   1.565E+00
   18.900   1.554E+00
   19.000   1.545E+00
   19.100   1.538E+00
   19.200   1.533E+00
   19.300   1.530E+00
   19.400   1.527E+00
   19.500   1.527E+00
   19.600   1.527E+00
   19.700   1.528E+00
   19.800   1.529E+00
   19.900   1.530E+00
   20.000   1.531E+00
   20.100   1.532E+00
   20.200   1.532E+00
   20.300   1.530E+00
   20.400   1.528E+00
   20.500   1.524E+00
   20.600   1.519E+00
   20.700   1.513E+00
   20.800   1.506E+00
   20.900   1.498E+00
   21.000   1.490E+00
   21.100   1.481E+00
   21.200   1.472E+00
   21.300   1.463E+00
   21.400   1.454E+00
   21.500   1.444E+00
   21.600   1.434E+00
   21.700   1.424E+00
   21.800   1.413E+00
   21.900   1.402E+00
   22.000   1.389E+00
   22.100   1.376E+00
   22.200   1.361E+00
   22.300   1.345E+00
   22.400   1.328E+00
   22.500   1.309E+00
   22.600   1.290E+00
   22.700   1.271E+00
   22.800   1.251E+00
   22.900   1.231E+00
   23.000   1.212E+00
   23.100   1.192E+00
   23.200   1.173E+00
   23.300   1.154E+00
   23.400   1.136E+00
   23.500   1.118E+00
   23.600   1.100E+00
   23.700   1.082E+00
   23.800   1.064E+00
   23.900   1.046E+00
   24.000   1.028E+00
   24.100   1.010E+00
   24.200   9.921E-01
   24.300   9.738E-01
   24.400   9.555E-01
   24.500   9.370E-01
   24.600   9.184E-01
   24.700   8.997E-01
   24.800   8.811E-01
   24.900   8.625E-01
   25.000   8.440E-01
   25.100   8.258E-01
   25.200   8.079E-01
   25.300   7.904E-01
   25.400   7.733E-01
   25.500   7.567E-01
   25.600   7.407E-01
   25.700   7.251E-01
   25.800   7.101E-01
   25.900   6.956E-01
   26.000   6.816E-01
   26.100   6.682E-01
   26.200   6.553E-01
   26.300   6.429E-01
   26.400   6.312E-01
   26.500   6.200E-01
   26.600   6.095E-01
   26.700   5.995E-01
   26.800   5.900E-01
   26.900   5.811E-01
   27.000   5.724E-01
   27.100   5.641E-01
   27.200   5.559E-01
   27.300   5.478E-01
   27.400   5.397E-01
   27.500   5.316E-01
   27.600   5.234E-01
   27.700   5.153E-01
   27.800   5.072E-01
   27.900   4.992E-01
   28.000   4.914E-01
   28.100   4.839E-01
   28.200   4.767E-01
   28.300   4.699E-01
   28.400   4.634E-01
   28.500   4.573E-01
   28.600   4.515E-01
   28.700   4.460E-01
   28.800   4.408E-01
   28.900   4.358E-01
   29.000   4.310E-01
   29.100   4.262E-01
   29.200   4.214E-01
   29.300   4.167E-01
   29.400   4.118E-01
   29.500   4.068E-01
   29.600   4.017E-01
   29.700   3.965E-01
   29.800   3.911E-01
   29.900   3.857E-01
   30.000   3.803E-01
 
