# n + Te126 : (n,tot)   
# jendl4.0   JNDC FP NUCLEAR DATA W.G.         EVAL-MAR90
# uncertainties: n
# # energies =   171
#   E(MeV)       xs(mb) 
 1.00000E-11    1.04079E+04
 1.00000E-07    3.59208E+03
 4.13990E-07    3.53361E+03
 5.31580E-07    3.52090E+03
 6.82560E-07    3.50946E+03
 8.76420E-07    3.49917E+03
 1.12540E-06    3.49016E+03
 1.44500E-06    3.48282E+03
 1.85540E-06    3.47380E+03
 2.37240E-06    3.46619E+03
 3.05900E-06    3.46003E+03
 3.92790E-06    3.45219E+03
 5.04350E-06    3.44217E+03
 6.47600E-06    3.43362E+03
 8.31530E-06    3.42551E+03
 1.06770E-05    3.41510E+03
 1.37100E-05    3.40172E+03
 1.76030E-05    3.38494E+03
 2.26030E-05    3.36617E+03
 2.92030E-05    3.34302E+03
 3.72670E-05    3.31366E+03
 4.78510E-05    3.27557E+03
 6.14420E-05    3.22232E+03
 7.88930E-05    3.13628E+03
 1.01300E-04    2.97737E+03
 1.30070E-04    2.56664E+03
 1.67020E-04    1.18599E+05
 2.14450E-04    5.75328E+03
 2.75360E-04    4.23327E+03
 3.53580E-04    4.50148E+03
 4.54000E-04    3.83219E+03
 5.82950E-04    3.74104E+03
 7.48520E-04    3.67683E+03
 9.61120E-04    3.65116E+03
 1.23410E-03    4.11812E+03
 1.58460E-03    3.91363E+03
 2.03470E-03    3.81997E+03
 2.24870E-03    2.46299E+03
 2.48520E-03    3.64119E+04
 2.61260E-03    4.46406E+03
 2.74650E-03    1.27421E+04
 3.03540E-03    4.71429E+03
 3.35460E-03    4.13058E+03
 3.70740E-03    3.92650E+03
 4.30740E-03    5.31951E+03
 5.53080E-03    5.61134E+03
 7.10170E-03    4.84855E+03
 9.11880E-03    4.53545E+03
 1.17090E-02    5.78265E+03
 1.50340E-02    5.86669E+03
 1.93050E-02    5.52991E+03
 2.18750E-02    7.16358E+03
 2.35790E-02    4.71699E+03
 2.41760E-02    4.50760E+03
 2.47880E-02    5.60715E+03
 2.60580E-02    5.83299E+03
 2.70000E-02    5.26256E+03
 2.85000E-02    5.55504E+03
 3.18280E-02    5.68951E+03
 3.43070E-02    5.68376E+03
 4.08680E-02    5.68218E+03
 4.63090E-02    5.68144E+03
 5.24750E-02    5.68255E+03
 5.65620E-02    5.68529E+03
 6.73790E-02    5.68898E+03
 7.20000E-02    5.69205E+03
 7.95000E-02    5.69474E+03
 8.25000E-02    5.69644E+03
 8.65170E-02    5.70016E+03
 9.80370E-02    5.69479E+03
 1.11090E-01    5.67690E+03
 1.16790E-01    5.66648E+03
 1.22770E-01    5.65631E+03
 1.29070E-01    5.64576E+03
 1.35690E-01    5.63555E+03
 1.42640E-01    5.62515E+03
 1.49960E-01    5.61990E+03
 1.57640E-01    5.62029E+03
 1.65730E-01    5.62070E+03
 1.74220E-01    5.62112E+03
 1.83160E-01    5.62158E+03
 1.92550E-01    5.62231E+03
 2.02420E-01    5.62916E+03
 2.12800E-01    5.63897E+03
 2.23710E-01    5.64874E+03
 2.35180E-01    5.65847E+03
 2.47240E-01    5.67955E+03
 2.73240E-01    5.70627E+03
 2.87250E-01    5.71965E+03
 2.94520E-01    5.72590E+03
 2.97200E-01    5.72840E+03
 2.98500E-01    5.73167E+03
 3.01970E-01    5.76276E+03
 3.33730E-01    5.82298E+03
 3.68830E-01    5.87206E+03
 3.87740E-01    5.90630E+03
 4.07620E-01    5.95376E+03
 4.50490E-01    6.02142E+03
 4.97870E-01    6.07656E+03
 5.23400E-01    6.11585E+03
 5.50230E-01    6.15669E+03
 5.78440E-01    6.19650E+03
 6.08100E-01    6.23774E+03
 6.39280E-01    6.28110E+03
 6.72060E-01    6.32667E+03
 7.06510E-01    6.37129E+03
 7.42740E-01    6.41040E+03
 7.80820E-01    6.45120E+03
 8.20850E-01    6.49310E+03
 8.62940E-01    6.52763E+03
 9.07180E-01    6.56443E+03
 9.61640E-01    6.59452E+03
 1.00260E+00    6.62142E+03
 1.10800E+00    6.64144E+03
 1.16480E+00    6.65517E+03
 1.22460E+00    6.66494E+03
 1.28730E+00    6.65488E+03
 1.35340E+00    6.64196E+03
 1.42270E+00    6.62032E+03
 1.49570E+00    6.58385E+03
 1.57240E+00    6.53814E+03
 1.65300E+00    6.48820E+03
 1.73770E+00    6.43500E+03
 1.82680E+00    6.36539E+03
 1.92050E+00    6.28689E+03
 2.01900E+00    6.20439E+03
 2.12250E+00    6.11671E+03
 2.23130E+00    6.03581E+03
 2.30690E+00    5.98509E+03
 2.34570E+00    5.95923E+03
 2.36530E+00    5.94177E+03
 2.38520E+00    5.89743E+03
 2.46600E+00    5.80631E+03
 2.59240E+00    5.69452E+03
 2.72530E+00    5.57781E+03
 2.86500E+00    5.46013E+03
 3.01190E+00    5.33664E+03
 3.16640E+00    5.20119E+03
 3.32870E+00    5.00165E+03
 3.67880E+00    4.74821E+03
 4.06570E+00    4.51663E+03
 4.49330E+00    4.35417E+03
 4.72370E+00    4.24749E+03
 4.96590E+00    4.16384E+03
 5.22050E+00    4.11580E+03
 5.48810E+00    4.06588E+03
 5.76950E+00    4.01615E+03
 6.06530E+00    4.01560E+03
 6.37630E+00    4.03396E+03
 6.59240E+00    4.04534E+03
 6.70320E+00    4.06141E+03
 7.04690E+00    4.11262E+03
 7.40820E+00    4.18277E+03
 7.78800E+00    4.25652E+03
 8.18730E+00    4.33406E+03
 8.60710E+00    4.41558E+03
 9.04840E+00    4.49682E+03
 9.51230E+00    4.57185E+03
 1.00000E+01    4.63876E+03
 1.05130E+01    4.69630E+03
 1.10520E+01    4.75430E+03
 1.16180E+01    4.81250E+03
 1.22140E+01    4.86398E+03
 1.28400E+01    4.91385E+03
 1.34990E+01    4.95154E+03
 1.38400E+01    4.97727E+03
 1.41910E+01    5.00521E+03
 1.45500E+01    5.03356E+03
 1.49180E+01    5.07209E+03
 1.56830E+01    5.10462E+03
 1.64870E+01    5.07832E+03
