# n + Te126 : (n,g)     
# jendl4.0   JNDC FP NUCLEAR DATA W.G.         EVAL-MAR90
# uncertainties: n
# # energies =    69
#   E(MeV)       xs(mb) 
 1.00000E-10    3.07311E+03
 5.00000E-09    8.36666E+02
 1.00000E-08    6.33598E+02
 1.50000E-08    5.32288E+02
 2.00000E-08    4.68266E+02
 2.50000E-08    4.23014E+02
 3.00000E-08    3.88817E+02
 3.50000E-08    3.57449E+02
 4.20000E-08    3.26897E+02
 5.00000E-08    3.01482E+02
 5.80000E-08    2.80167E+02
 6.70000E-08    2.58505E+02
 8.00000E-08    2.33851E+02
 1.00000E-07    2.03347E+02
 1.40000E-07    1.75341E+02
 1.80000E-07    1.56453E+02
 2.20000E-07    1.43989E+02
 2.50000E-07    1.35489E+02
 2.80000E-07    1.29384E+02
 3.00000E-07    1.25090E+02
 3.20000E-07    1.20313E+02
 3.50000E-07    1.13715E+02
 4.00000E-07    1.03913E+02
 5.00000E-07    9.27605E+01
 6.25000E-07    8.27978E+01
 7.80000E-07    7.64828E+01
 8.50000E-07    7.35054E+01
 9.10000E-07    7.14250E+01
 9.50000E-07    7.02197E+01
 9.72000E-07    6.93671E+01
 9.96000E-07    6.85094E+01
 1.02000E-06    6.76643E+01
 1.04500E-06    6.68171E+01
 1.07100E-06    6.59827E+01
 1.09700E-06    6.51749E+01
 1.12300E-06    6.43872E+01
 1.15000E-06    6.19954E+01
 1.30000E-06    5.78526E+01
 1.50000E-06    5.10596E+01
 2.10000E-06    4.40710E+01
 2.60000E-06    3.90111E+01
 3.30000E-06    3.46485E+01
 4.00000E-06    2.56427E+01
 9.87700E-06    1.69080E+01
 1.59680E-05    1.25017E+01
 2.77000E-05    9.54304E+00
 4.80520E-05    8.68505E+00
 7.55014E-05    1.48025E+01
 1.48728E-04    7.19297E+03
 3.67262E-04    1.51571E+02
 9.06898E-04    1.76345E+02
 1.42510E-03    3.86738E+02
 2.23945E-03    7.05801E+02
 3.51910E-03    1.84551E+02
 5.53000E-03    1.85162E+02
 9.11800E-03    1.53966E+02
 1.50300E-02    1.38584E+02
 2.47800E-02    8.32993E+01
 4.08500E-02    6.07020E+01
 6.73400E-02    5.11825E+01
 1.11000E-01    4.52913E+01
 1.83000E-01    4.19451E+01
 3.02000E-01    4.30528E+01
 5.00000E-01    4.29302E+01
 8.21000E-01    3.39284E+01
 1.35300E+00    3.44108E+01
 2.23100E+00    2.62262E+01
 3.67900E+00    9.75227E+00
 6.06500E+00    1.96750E+00
