# n + Te126 : (n,el)    
# jendl4.0   JNDC FP NUCLEAR DATA W.G.         EVAL-MAR90
# uncertainties: n
# # energies =   171
#   E(MeV)       xs(mb) 
 1.00000E-11    5.64831E+03
 1.00000E-07    3.43419E+03
 4.13990E-07    3.43217E+03
 5.31580E-07    3.43141E+03
 6.82560E-07    3.43084E+03
 8.76420E-07    3.43014E+03
 1.12540E-06    3.42924E+03
 1.44500E-06    3.42809E+03
 1.85540E-06    3.42663E+03
 2.37240E-06    3.42473E+03
 3.05900E-06    3.42227E+03
 3.92790E-06    3.41914E+03
 5.04350E-06    3.41511E+03
 6.47600E-06    3.40995E+03
 8.31530E-06    3.40331E+03
 1.06770E-05    3.39480E+03
 1.37100E-05    3.38426E+03
 1.76030E-05    3.37102E+03
 2.26030E-05    3.35377E+03
 2.92030E-05    3.33189E+03
 3.72670E-05    3.30415E+03
 4.78510E-05    3.26808E+03
 6.14420E-05    3.21273E+03
 7.88930E-05    3.12628E+03
 1.01300E-04    2.96238E+03
 1.30070E-04    2.53026E+03
 1.67020E-04    9.26913E+04
 2.14450E-04    5.68032E+03
 2.75360E-04    4.22727E+03
 3.53580E-04    3.95495E+03
 4.54000E-04    3.83123E+03
 5.82950E-04    3.74038E+03
 7.48520E-04    3.67675E+03
 9.61120E-04    3.60824E+03
 1.23410E-03    3.63757E+03
 1.58460E-03    3.56587E+03
 2.03470E-03    3.45064E+03
 2.24870E-03    2.42951E+03
 2.48520E-03    3.10608E+04
 2.61260E-03    4.37730E+03
 2.74650E-03    1.25289E+04
 3.03540E-03    4.49029E+03
 3.35460E-03    4.06185E+03
 3.70740E-03    3.79274E+03
 4.30740E-03    5.09292E+03
 5.53080E-03    5.44710E+03
 7.10170E-03    4.64241E+03
 9.11880E-03    4.38060E+03
 1.17090E-02    5.62951E+03
 1.50340E-02    5.69430E+03
 1.93050E-02    5.42755E+03
 2.18750E-02    7.04855E+03
 2.35790E-02    4.59516E+03
 2.41760E-02    4.43798E+03
 2.47880E-02    5.50035E+03
 2.60580E-02    5.74277E+03
 2.70000E-02    5.12631E+03
 2.85000E-02    5.48543E+03
 3.18280E-02    5.61350E+03
 3.43070E-02    5.61290E+03
 4.08680E-02    5.61631E+03
 4.63090E-02    5.61946E+03
 5.24750E-02    5.62314E+03
 5.65620E-02    5.62869E+03
 6.73790E-02    5.63452E+03
 7.20000E-02    5.63895E+03
 7.95000E-02    5.64274E+03
 8.25000E-02    5.64501E+03
 8.65170E-02    5.64995E+03
 9.80370E-02    5.64627E+03
 1.11090E-01    5.62933E+03
 1.16790E-01    5.61945E+03
 1.22770E-01    5.60980E+03
 1.29070E-01    5.59979E+03
 1.35690E-01    5.59010E+03
 1.42640E-01    5.58023E+03
 1.49960E-01    5.57542E+03
 1.57640E-01    5.57615E+03
 1.65730E-01    5.57691E+03
 1.74220E-01    5.57772E+03
 1.83160E-01    5.57856E+03
 1.92550E-01    5.57970E+03
 2.02420E-01    5.58683E+03
 2.12800E-01    5.59686E+03
 2.23710E-01    5.60685E+03
 2.35180E-01    5.61681E+03
 2.47240E-01    5.63806E+03
 2.73240E-01    5.66480E+03
 2.87250E-01    5.67819E+03
 2.94520E-01    5.68444E+03
 2.97200E-01    5.68694E+03
 2.98500E-01    5.69020E+03
 3.01970E-01    5.72099E+03
 3.33730E-01    5.78061E+03
 3.68830E-01    5.82919E+03
 3.87740E-01    5.86299E+03
 4.07620E-01    5.90877E+03
 4.50490E-01    5.97386E+03
 4.97870E-01    6.02690E+03
 5.23400E-01    6.06468E+03
 5.50230E-01    6.10440E+03
 5.78440E-01    6.14616E+03
 6.08100E-01    6.19006E+03
 6.39280E-01    6.23581E+03
 6.72060E-01    6.18160E+03
 7.06510E-01    6.11836E+03
 7.42740E-01    6.09986E+03
 7.80820E-01    6.08088E+03
 8.20850E-01    6.07292E+03
 8.62940E-01    6.06980E+03
 9.07180E-01    6.06624E+03
 9.61640E-01    6.06278E+03
 1.00260E+00    6.04873E+03
 1.10800E+00    6.02261E+03
 1.16480E+00    6.00367E+03
 1.22460E+00    5.98284E+03
 1.28730E+00    5.94658E+03
 1.35340E+00    5.90183E+03
 1.42270E+00    5.81695E+03
 1.49570E+00    5.69729E+03
 1.57240E+00    5.59542E+03
 1.65300E+00    5.48922E+03
 1.73770E+00    5.37879E+03
 1.82680E+00    5.26262E+03
 1.92050E+00    5.12843E+03
 2.01900E+00    4.98009E+03
 2.12250E+00    4.81432E+03
 2.23130E+00    4.66819E+03
 2.30690E+00    4.57752E+03
 2.34570E+00    4.53130E+03
 2.36530E+00    4.50008E+03
 2.38520E+00    4.42081E+03
 2.46600E+00    4.25996E+03
 2.59240E+00    4.06641E+03
 2.72530E+00    3.87684E+03
 2.86500E+00    3.69216E+03
 3.01190E+00    3.50776E+03
 3.16640E+00    3.33061E+03
 3.32870E+00    3.08279E+03
 3.67880E+00    2.77936E+03
 4.06570E+00    2.54762E+03
 4.49330E+00    2.40176E+03
 4.72370E+00    2.30978E+03
 4.96590E+00    2.24219E+03
 5.22050E+00    2.21349E+03
 5.48810E+00    2.18394E+03
 5.76950E+00    2.15537E+03
 6.06530E+00    2.16607E+03
 6.37630E+00    2.19035E+03
 6.59240E+00    2.20541E+03
 6.70320E+00    2.22654E+03
 7.04690E+00    2.28526E+03
 7.40820E+00    2.36307E+03
 7.78800E+00    2.44693E+03
 8.18730E+00    2.54811E+03
 8.60710E+00    2.65840E+03
 9.04840E+00    2.84250E+03
 9.51230E+00    2.92983E+03
 1.00000E+01    2.95534E+03
 1.05130E+01    2.98532E+03
 1.10520E+01    3.10634E+03
 1.16180E+01    3.26155E+03
 1.22140E+01    3.31862E+03
 1.28400E+01    3.36062E+03
 1.34990E+01    3.41636E+03
 1.38400E+01    3.45057E+03
 1.41910E+01    3.46407E+03
 1.45500E+01    3.47400E+03
 1.49180E+01    3.48215E+03
 1.56830E+01    3.47842E+03
 1.64870E+01    3.44605E+03
