# n + Pu239 : (n,xn)    
# jendl4.0   O.Iwamoto,N.Otuka,S.Chiba,+       EVAL-DEC09
# 
# # energies =    92
#   E(MeV)        xs(mb) 
 7.89417E-03    0.00000E+00
 1.00000E-02    2.89574E+02
 2.00000E-02    3.63323E+02
 3.00000E-02    3.80874E+02
 5.00000E-02    4.22989E+02
 5.75167E-02    4.35146E+02
 7.00000E-02    4.74463E+02
 7.60244E-02    4.94257E+02
 1.00000E-01    5.78867E+02
 1.15000E-01    6.11419E+02
 1.30000E-01    6.43978E+02
 1.64451E-01    7.21553E+02
 1.70000E-01    7.35663E+02
 1.93614E-01    8.01601E+02
 2.00000E-01    8.19855E+02
 2.86664E-01    9.42784E+02
 3.00000E-01    9.71892E+02
 3.19844E-01    9.88716E+02
 3.31517E-01    9.98508E+02
 3.59611E-01    1.02839E+03
 3.89055E-01    1.05629E+03
 3.93236E-01    1.06010E+03
 4.00000E-01    1.06690E+03
 4.35831E-01    1.10374E+03
 4.63949E-01    1.13409E+03
 4.71782E-01    1.14389E+03
 4.89055E-01    1.18667E+03
 4.94176E-01    1.19682E+03
 5.00000E-01    1.21730E+03
 5.07733E-01    1.23074E+03
 5.13998E-01    1.24393E+03
 5.21491E-01    1.25841E+03
 5.40270E-01    1.28960E+03
 5.58547E-01    1.31875E+03
 5.67384E-01    1.33184E+03
 5.73008E-01    1.33977E+03
 5.85460E-01    1.35622E+03
 6.00000E-01    1.37390E+03
 6.22616E-01    1.39874E+03
 6.36675E-01    1.41297E+03
 6.63889E-01    1.43835E+03
 6.63890E-01    1.43835E+03
 7.00000E-01    1.46784E+03
 7.19021E-01    1.47081E+03
 7.55675E-01    1.47309E+03
 7.59190E-01    1.47527E+03
 8.00000E-01    1.48077E+03
 9.00000E-01    1.50050E+03
 1.00000E+00    1.54047E+03
 1.10000E+00    1.54598E+03
 1.30000E+00    1.58462E+03
 1.60000E+00    1.68315E+03
 1.80000E+00    1.75417E+03
 2.00000E+00    1.81385E+03
 2.30000E+00    1.88089E+03
 2.50000E+00    1.90940E+03
 2.70000E+00    1.89806E+03
 3.00000E+00    1.92651E+03
 3.50000E+00    1.87767E+03
 4.00000E+00    1.84819E+03
 4.50000E+00    1.82478E+03
 5.00000E+00    1.82660E+03
 5.50000E+00    1.72666E+03
 6.00000E+00    1.46745E+03
 6.50000E+00    1.30440E+03
 7.00000E+00    1.23148E+03
 7.50000E+00    1.17946E+03
 8.00000E+00    1.15173E+03
 8.50000E+00    1.14660E+03
 9.00000E+00    1.13280E+03
 9.50000E+00    1.12824E+03
 1.00000E+01    1.13913E+03
 1.05000E+01    1.14581E+03
 1.10000E+01    1.18199E+03
 1.15000E+01    1.19673E+03
 1.20000E+01    1.18504E+03
 1.25000E+01    1.12599E+03
 1.30000E+01    1.04395E+03
 1.35000E+01    9.57885E+02
 1.40000E+01    8.82480E+02
 1.45000E+01    8.24916E+02
 1.50000E+01    7.77961E+02
 1.55000E+01    7.49095E+02
 1.60000E+01    7.28061E+02
 1.65000E+01    7.27084E+02
 1.70000E+01    7.27219E+02
 1.75000E+01    7.37365E+02
 1.80000E+01    7.48954E+02
 1.85000E+01    7.76645E+02
 1.90000E+01    8.03867E+02
 1.95000E+01    8.43243E+02
 2.00000E+01    8.76409E+02
