# n + Sc 45 : (n,g)     
# jendl.ad   F.Minato                          EVAL-May14
# uncertainties: n
# # energies =    69
#   E(MeV)       xs(mb) 
 1.00000E-10    1.89511E+05
 5.00000E-09    5.15987E+04
 1.00000E-08    3.90769E+04
 1.50000E-08    3.28322E+04
 2.00000E-08    2.88888E+04
 2.50000E-08    2.61027E+04
 3.00000E-08    2.39955E+04
 3.50000E-08    2.20605E+04
 4.20000E-08    2.01764E+04
 5.00000E-08    1.86110E+04
 5.80000E-08    1.72981E+04
 6.70000E-08    1.59616E+04
 8.00000E-08    1.44406E+04
 1.00000E-07    1.25621E+04
 1.40000E-07    1.08375E+04
 1.80000E-07    9.67382E+03
 2.20000E-07    8.90796E+03
 2.50000E-07    8.38621E+03
 2.80000E-07    8.01032E+03
 3.00000E-07    7.74600E+03
 3.20000E-07    7.45205E+03
 3.50000E-07    7.04639E+03
 4.00000E-07    6.44558E+03
 5.00000E-07    5.76192E+03
 6.25000E-07    5.15075E+03
 7.80000E-07    4.76414E+03
 8.50000E-07    4.58309E+03
 9.10000E-07    4.45708E+03
 9.50000E-07    4.38318E+03
 9.72000E-07    4.33093E+03
 9.96000E-07    4.27844E+03
 1.02000E-06    4.22674E+03
 1.04500E-06    4.17484E+03
 1.07100E-06    4.12382E+03
 1.09700E-06    4.07455E+03
 1.12300E-06    4.02644E+03
 1.15000E-06    3.88025E+03
 1.30000E-06    3.62751E+03
 1.50000E-06    3.21466E+03
 2.10000E-06    2.79150E+03
 2.60000E-06    2.48488E+03
 3.30000E-06    2.22191E+03
 4.00000E-06    1.67851E+03
 9.87700E-06    1.14044E+03
 1.59680E-05    8.43401E+02
 2.77000E-05    5.92190E+02
 4.80520E-05    4.11418E+02
 7.55014E-05    2.57252E+02
 1.48728E-04    1.15587E+02
 3.67262E-04    8.56986E+01
 9.06898E-04    5.55892E+01
 1.42510E-03    1.33418E+01
 2.23945E-03    3.65154E+02
 3.51910E-03    2.12224E+02
 5.53000E-03    1.49407E+02
 9.11800E-03    1.63108E+02
 1.50300E-02    9.39487E+01
 2.47800E-02    5.56810E+01
 4.08500E-02    4.65110E+01
 6.73400E-02    3.44099E+01
 1.11000E-01    2.55030E+01
 1.83000E-01    1.82600E+01
 3.02000E-01    1.32804E+01
 5.00000E-01    9.74206E+00
 8.21000E-01    6.76575E+00
 1.35300E+00    2.82906E+00
 2.23100E+00    1.06331E+00
 3.67900E+00    4.31587E-01
 6.06500E+00    2.75036E-01
