# n + Sc 45 : (n,a)     
# jendl.ad   F.Minato                          EVAL-May14
# uncertainties: n
# # energies =    72
#   E(MeV)       xs(mb) 
 4.08805E-01    0.00000E+00
 5.18030E-01    1.66800E-09
 6.72861E-01    9.01640E-09
 1.06186E+00    4.15950E-08
 1.10605E+00    4.66130E-08
 1.12357E+00    4.87800E-08
 1.21026E+00    6.12690E-08
 1.26964E+00    7.07670E-08
 1.54448E+00    1.18270E-07
 1.57805E+00    1.24440E-07
 1.63358E+00    1.35180E-07
 1.69178E+00    1.46780E-07
 1.70353E+00    1.49260E-07
 1.71092E+00    1.50850E-07
 1.81564E+00    1.74120E-07
 1.81682E+00    1.74400E-07
 1.84026E+00    1.80260E-07
 1.84832E+00    1.82350E-07
 1.89448E+00    1.94800E-07
 1.90530E+00    1.97770E-07
 1.93149E+00    2.05070E-07
 2.50000E+00    3.64780E-07
 2.65000E+00    5.21460E-07
 2.80000E+00    1.32904E-06
 2.95000E+00    4.93217E-06
 3.10000E+00    2.18122E-05
 3.25000E+00    1.09196E-04
 3.40000E+00    2.19966E-04
 3.55000E+00    1.90285E-03
 3.70000E+00    4.35144E-03
 3.85000E+00    8.46443E-03
 4.00000E+00    1.38972E-02
 4.30000E+00    3.47466E-02
 4.60000E+00    8.08227E-02
 4.90000E+00    1.86015E-01
 5.20000E+00    3.91509E-01
 5.50000E+00    7.71127E-01
 5.80000E+00    1.37408E+00
 6.10000E+00    2.27020E+00
 6.40000E+00    3.50444E+00
 6.70000E+00    4.90204E+00
 7.00000E+00    6.83385E+00
 7.30000E+00    9.10229E+00
 7.60000E+00    1.16889E+01
 7.90000E+00    1.45648E+01
 8.20000E+00    1.76141E+01
 8.50000E+00    2.07892E+01
 8.80000E+00    2.40055E+01
 9.10000E+00    2.71652E+01
 9.40000E+00    3.01621E+01
 9.70000E+00    3.22166E+01
 1.00000E+01    3.50713E+01
 1.05000E+01    3.91934E+01
 1.10000E+01    4.30792E+01
 1.15000E+01    4.60502E+01
 1.20000E+01    4.92508E+01
 1.25000E+01    5.16884E+01
 1.30000E+01    5.37926E+01
 1.35000E+01    5.50289E+01
 1.40000E+01    5.56666E+01
 1.45000E+01    5.40353E+01
 1.50000E+01    5.15046E+01
 1.55000E+01    4.76605E+01
 1.60000E+01    4.30052E+01
 1.65000E+01    3.78649E+01
 1.70000E+01    3.25061E+01
 1.75000E+01    2.78342E+01
 1.80000E+01    2.37886E+01
 1.85000E+01    1.99916E+01
 1.90000E+01    1.71840E+01
 1.95000E+01    1.47885E+01
 2.00000E+01    1.25095E+01
