# n + Sc 45 : (n,xp)    
# jendl.ad   F.Minato                          EVAL-May14
# 
# # energies =   112
#   E(MeV)        xs(mb) 
 1.26782E-02    4.38134E-03
 2.00000E-02    4.68289E-03
 3.00000E-02    4.97125E-03
 5.00000E-02    5.36090E-03
 7.00000E-02    5.63491E-03
 1.00000E-01    5.94574E-03
 1.12946E-01    6.85625E-03
 1.25892E-01    7.77134E-03
 1.58489E-01    1.09472E-02
 1.99526E-01    1.67308E-02
 2.51189E-01    2.84834E-02
 3.16228E-01    5.24311E-02
 3.84947E-01    9.33914E-02
 3.98107E-01    1.03123E-01
 5.01187E-01    2.17894E-01
 5.55244E-01    3.14814E-01
 5.55245E-01    3.14816E-01
 6.30957E-01    4.53665E-01
 7.36277E-01    7.69952E-01
 7.94328E-01    9.45385E-01
 9.60314E-01    1.78137E+00
 9.96242E-01    2.00890E+00
 1.00000E+00    1.89631E+00
 1.09155E+00    2.46729E+00
 1.15000E+00    2.92686E+00
 1.26445E+00    3.98010E+00
 1.30000E+00    4.20519E+00
 1.33242E+00    4.50387E+00
 1.44048E+00    5.57677E+00
 1.45000E+00    5.42583E+00
 1.46564E+00    5.52357E+00
 1.50554E+00    5.44769E+00
 1.59112E+00    5.95155E+00
 1.60000E+00    6.01843E+00
 1.69929E+00    6.94368E+00
 1.75000E+00    7.19864E+00
 1.75450E+00    7.23326E+00
 1.84039E+00    7.89406E+00
 1.90000E+00    8.39661E+00
 1.94335E+00    8.81668E+00
 1.97392E+00    9.11291E+00
 1.97893E+00    9.16107E+00
 2.05000E+00    9.83898E+00
 2.07677E+00    1.01323E+01
 2.13689E+00    1.07048E+01
 2.13996E+00    1.07341E+01
 2.15346E+00    1.07563E+01
 2.15353E+00    1.07298E+01
 2.18638E+00    1.08008E+01
 2.19926E+00    1.08875E+01
 2.20000E+00    1.08925E+01
 2.20028E+00    1.08944E+01
 2.27165E+00    1.15057E+01
 2.27410E+00    1.15260E+01
 2.33985E+00    1.20543E+01
 2.35000E+00    1.19986E+01
 2.35549E+00    1.20308E+01
 2.37359E+00    1.20640E+01
 2.39352E+00    1.21859E+01
 2.40498E+00    1.21013E+01
 2.43851E+00    1.22742E+01
 2.50000E+00    1.24951E+01
 2.65000E+00    1.31063E+01
 2.80000E+00    1.39785E+01
 2.95000E+00    1.42816E+01
 3.10000E+00    1.51462E+01
 3.25000E+00    1.59375E+01
 3.40000E+00    1.63917E+01
 3.55000E+00    1.72664E+01
 3.70000E+00    1.79994E+01
 3.85000E+00    1.90012E+01
 4.00000E+00    1.79371E+01
 4.30000E+00    1.99122E+01
 4.60000E+00    2.23247E+01
 4.90000E+00    2.50412E+01
 5.20000E+00    2.79388E+01
 5.50000E+00    3.15971E+01
 5.80000E+00    3.47127E+01
 6.10000E+00    3.78282E+01
 6.40000E+00    4.10691E+01
 6.70000E+00    4.43923E+01
 7.00000E+00    4.77840E+01
 7.30000E+00    5.11757E+01
 7.60000E+00    5.45676E+01
 7.90000E+00    5.80892E+01
 8.20000E+00    6.22954E+01
 8.50000E+00    6.83119E+01
 8.80000E+00    7.78356E+01
 9.10000E+00    9.06594E+01
 9.40000E+00    1.06895E+02
 9.70000E+00    1.28104E+02
 1.00000E+01    1.55240E+02
 1.05000E+01    2.08886E+02
 1.10000E+01    2.73462E+02
 1.15000E+01    3.44362E+02
 1.20000E+01    4.16041E+02
 1.25000E+01    4.51657E+02
 1.30000E+01    4.65796E+02
 1.35000E+01    4.64161E+02
 1.40000E+01    4.52867E+02
 1.45000E+01    4.35997E+02
 1.50000E+01    4.20759E+02
 1.55000E+01    4.08436E+02
 1.60000E+01    3.99754E+02
 1.65000E+01    3.90419E+02
 1.70000E+01    3.85048E+02
 1.75000E+01    3.80918E+02
 1.80000E+01    3.77891E+02
 1.85000E+01    3.74819E+02
 1.90000E+01    3.69704E+02
 1.95000E+01    3.67349E+02
 2.00000E+01    3.69217E+02
