# n + Sc 45 : (n,d)     
# jendl.ad   F.Minato                          EVAL-May14
# uncertainties: n
# # energies =    66
#   E(MeV)       xs(mb) 
 4.76836E+00    0.00000E+00
 5.80000E+00    1.06925E-05
 5.95137E+00    9.92821E-05
 6.10000E+00    1.90732E-04
 6.40000E+00    1.26296E-03
 6.69413E+00    4.70338E-03
 6.70000E+00    4.77211E-03
 7.00000E+00    1.23826E-02
 7.10272E+00    1.66278E-02
 7.30000E+00    2.47960E-02
 7.48446E+00    3.53877E-02
 7.60000E+00    4.20220E-02
 7.88099E+00    6.32423E-02
 7.90000E+00    6.46815E-02
 8.12706E+00    8.65435E-02
 8.14373E+00    8.81485E-02
 8.15043E+00    8.87936E-02
 8.20000E+00    9.35664E-02
 8.20088E+00    9.36705E-02
 8.42909E+00    1.20672E-01
 8.50000E+00    1.29063E-01
 8.51204E+00    1.30814E-01
 8.52690E+00    1.32976E-01
 8.56344E+00    1.38292E-01
 8.62928E+00    1.47873E-01
 8.72007E+00    1.61086E-01
 8.76971E+00    1.68311E-01
 8.77897E+00    1.69659E-01
 8.80000E+00    1.72721E-01
 8.86976E+00    1.87192E-01
 8.95217E+00    2.04290E-01
 9.03089E+00    2.20622E-01
 9.05819E+00    2.26286E-01
 9.10000E+00    2.34967E-01
 9.12414E+00    2.43615E-01
 9.18037E+00    2.63767E-01
 9.22456E+00    2.79608E-01
 9.26646E+00    2.94629E-01
 9.27644E+00    2.98207E-01
 9.30491E+00    3.08415E-01
 9.34867E+00    3.24106E-01
 9.40000E+00    3.42512E-01
 9.42312E+00    3.57462E-01
 9.43568E+00    3.65584E-01
 9.70000E+00    5.36496E-01
 1.00000E+01    8.59618E-01
 1.05000E+01    1.64646E+00
 1.10000E+01    2.95527E+00
 1.15000E+01    4.84365E+00
 1.20000E+01    6.73680E+00
 1.25000E+01    8.94518E+00
 1.30000E+01    1.15890E+01
 1.35000E+01    1.45407E+01
 1.40000E+01    1.68602E+01
 1.45000E+01    1.91714E+01
 1.50000E+01    2.17950E+01
 1.55000E+01    2.43620E+01
 1.60000E+01    2.70320E+01
 1.65000E+01    2.97535E+01
 1.70000E+01    3.25749E+01
 1.75000E+01    3.42712E+01
 1.80000E+01    3.68917E+01
 1.85000E+01    3.86153E+01
 1.90000E+01    3.99289E+01
 1.95000E+01    4.14358E+01
 2.00000E+01    4.33472E+01
