# n + Sc 45 : (n,xa)    
# jendl.ad   F.Minato                          EVAL-May14
# 
# # energies =   112
#   E(MeV)        xs(mb) 
 1.26782E-02    0.00000E+00
 2.00000E-02    0.00000E+00
 3.00000E-02    0.00000E+00
 5.00000E-02    0.00000E+00
 7.00000E-02    0.00000E+00
 1.00000E-01    0.00000E+00
 1.12946E-01    0.00000E+00
 1.25892E-01    0.00000E+00
 1.58489E-01    0.00000E+00
 1.99526E-01    0.00000E+00
 2.51189E-01    0.00000E+00
 3.16228E-01    0.00000E+00
 3.84947E-01    0.00000E+00
 3.98107E-01    0.00000E+00
 5.01187E-01    1.41079E-09
 5.55244E-01    3.43420E-09
 5.55245E-01    3.43425E-09
 6.30957E-01    7.02760E-09
 7.36277E-01    1.43275E-08
 7.94328E-01    1.91892E-08
 9.60314E-01    3.30905E-08
 9.96242E-01    3.60995E-08
 1.00000E+00    3.64142E-08
 1.09155E+00    4.49665E-08
 1.15000E+00    5.25876E-08
 1.26445E+00    6.99368E-08
 1.30000E+00    7.60144E-08
 1.33242E+00    8.16178E-08
 1.44048E+00    1.00295E-07
 1.45000E+00    1.01940E-07
 1.46564E+00    1.04643E-07
 1.50554E+00    1.11540E-07
 1.59112E+00    1.26968E-07
 1.60000E+00    1.28685E-07
 1.69929E+00    1.48365E-07
 1.75000E+00    1.59534E-07
 1.75450E+00    1.60534E-07
 1.84039E+00    1.80294E-07
 1.90000E+00    1.96315E-07
 1.94335E+00    2.08402E-07
 1.97392E+00    2.16990E-07
 1.97893E+00    2.18397E-07
 2.05000E+00    2.38363E-07
 2.07677E+00    2.45883E-07
 2.13689E+00    2.62772E-07
 2.13996E+00    2.63635E-07
 2.15346E+00    2.67427E-07
 2.15353E+00    2.67447E-07
 2.18638E+00    2.76676E-07
 2.19926E+00    2.80294E-07
 2.20000E+00    2.80502E-07
 2.20028E+00    2.80580E-07
 2.27165E+00    3.00630E-07
 2.27410E+00    3.01319E-07
 2.33985E+00    3.19790E-07
 2.35000E+00    3.22641E-07
 2.35549E+00    3.24183E-07
 2.37359E+00    3.29268E-07
 2.39352E+00    3.34867E-07
 2.40498E+00    3.38086E-07
 2.43851E+00    3.47506E-07
 2.50000E+00    3.64780E-07
 2.65000E+00    5.21460E-07
 2.80000E+00    1.32904E-06
 2.95000E+00    4.93217E-06
 3.10000E+00    2.18122E-05
 3.25000E+00    1.09196E-04
 3.40000E+00    2.19966E-04
 3.55000E+00    1.90285E-03
 3.70000E+00    4.35144E-03
 3.85000E+00    8.46443E-03
 4.00000E+00    1.38972E-02
 4.30000E+00    3.47466E-02
 4.60000E+00    8.08227E-02
 4.90000E+00    1.86015E-01
 5.20000E+00    3.91509E-01
 5.50000E+00    7.71127E-01
 5.80000E+00    1.37408E+00
 6.10000E+00    2.27020E+00
 6.40000E+00    3.50444E+00
 6.70000E+00    4.90204E+00
 7.00000E+00    6.83385E+00
 7.30000E+00    9.10229E+00
 7.60000E+00    1.16889E+01
 7.90000E+00    1.45648E+01
 8.20000E+00    1.76141E+01
 8.50000E+00    2.07892E+01
 8.80000E+00    2.40055E+01
 9.10000E+00    2.71652E+01
 9.40000E+00    3.01621E+01
 9.70000E+00    3.22166E+01
 1.00000E+01    3.50713E+01
 1.05000E+01    3.91934E+01
 1.10000E+01    4.30796E+01
 1.15000E+01    4.60577E+01
 1.20000E+01    4.92907E+01
 1.25000E+01    5.18360E+01
 1.30000E+01    5.42933E+01
 1.35000E+01    5.65098E+01
 1.40000E+01    5.89092E+01
 1.45000E+01    6.09407E+01
 1.50000E+01    6.29651E+01
 1.55000E+01    6.48348E+01
 1.60000E+01    6.66901E+01
 1.65000E+01    6.82725E+01
 1.70000E+01    6.95056E+01
 1.75000E+01    7.09539E+01
 1.80000E+01    7.22211E+01
 1.85000E+01    7.33124E+01
 1.90000E+01    7.40854E+01
 1.95000E+01    7.48385E+01
 2.00000E+01    7.57446E+01
