# n + Tm169 : (n,d)     
# jendl4.0   N.Iwamoto                         EVAL-Jul09
# uncertainties: n
# # energies =    73
#   E(MeV)       xs(mb) 
 3.36762E+00    0.00000E+00
 3.44790E+00    3.18920E-23
 3.63329E+00    1.17020E-22
 3.91965E+00    3.04900E-19
 4.19370E+00    5.96600E-19
 4.26877E+00    6.82660E-19
 4.30147E+00    7.20430E-19
 4.36831E+00    7.97660E-19
 4.46820E+00    9.13100E-19
 4.49187E+00    9.40450E-19
 4.50000E+00    9.49850E-19
 4.56778E+00    6.30930E-17
 4.59205E+00    8.54080E-17
 4.63908E+00    1.28670E-16
 4.64125E+00    1.30670E-16
 4.65151E+00    1.40110E-16
 4.68691E+00    1.72700E-16
 4.73464E+00    2.16640E-16
 4.77279E+00    2.51760E-16
 4.77975E+00    2.58160E-16
 4.78715E+00    2.64980E-16
 4.79821E+00    2.75160E-16
 4.80764E+00    2.83840E-16
 4.80913E+00    2.85210E-16
 4.82524E+00    3.00040E-16
 4.86968E+00    3.40950E-16
 4.91839E+00    3.85800E-16
 4.91854E+00    3.85930E-16
 4.94644E+00    4.11620E-16
 4.95114E+00    4.15950E-16
 4.98306E+00    4.45330E-16
 4.99261E+00    4.54120E-16
 4.99409E+00    4.55490E-16
 5.00000E+00    4.60940E-16
 5.00183E+00    5.73970E-15
 5.01084E+00    3.17300E-14
 5.03105E+00    9.00270E-14
 5.03378E+00    9.79020E-14
 5.08581E+00    2.47990E-13
 5.09707E+00    2.80470E-13
 5.11468E+00    3.31260E-13
 5.13890E+00    4.01130E-13
 5.14635E+00    4.22620E-13
 5.50000E+00    1.44280E-12
 6.00000E+00    2.62570E-10
 6.50000E+00    9.09700E-09
 7.00000E+00    1.10160E-07
 7.50000E+00    6.81070E-07
 8.00000E+00    3.06935E-06
 8.50000E+00    1.51224E-05
 9.00000E+00    8.47804E-05
 9.50000E+00    4.23505E-04
 1.00000E+01    1.71018E-03
 1.05000E+01    5.62402E-03
 1.10000E+01    1.55099E-02
 1.15000E+01    3.67786E-02
 1.20000E+01    7.64858E-02
 1.25000E+01    1.41798E-01
 1.30000E+01    2.38030E-01
 1.35000E+01    3.67508E-01
 1.40000E+01    5.29674E-01
 1.45000E+01    7.22058E-01
 1.50000E+01    9.41266E-01
 1.55000E+01    1.15430E+00
 1.60000E+01    1.46185E+00
 1.65000E+01    1.72925E+00
 1.70000E+01    2.01878E+00
 1.75000E+01    2.32775E+00
 1.80000E+01    2.65246E+00
 1.85000E+01    2.88602E+00
 1.90000E+01    3.21710E+00
 1.95000E+01    3.43369E+00
 2.00000E+01    3.74460E+00
