# n + Tm169 : (n,el)    
# jendl4.0   N.Iwamoto                         EVAL-Jul09
# uncertainties: n
# # energies =   171
#   E(MeV)       xs(mb) 
 1.00000E-11    9.72581E+03
 1.00000E-07    6.13151E+03
 4.13990E-07    5.81760E+03
 5.31580E-07    5.63897E+03
 6.82560E-07    5.39764E+03
 8.76420E-07    5.06460E+03
 1.12540E-06    4.59116E+03
 1.44500E-06    3.89022E+03
 1.85540E-06    2.80744E+03
 2.37240E-06    1.21051E+03
 3.05900E-06    2.09758E+05
 3.92790E-06    2.03360E+05
 5.04350E-06    1.95091E+04
 6.47600E-06    1.29722E+04
 8.31530E-06    1.03786E+04
 1.06770E-05    8.72459E+03
 1.37100E-05    2.77433E+04
 1.76030E-05    9.02992E+03
 2.26030E-05    6.70120E+03
 2.92030E-05    9.67733E+03
 3.72670E-05    6.63782E+03
 4.78510E-05    1.05714E+04
 6.14420E-05    6.82332E+04
 7.88930E-05    1.88331E+04
 1.01300E-04    1.03504E+04
 1.30070E-04    2.95569E+04
 1.67020E-04    6.88184E+03
 2.14450E-04    7.48520E+04
 2.75360E-04    1.96701E+04
 3.53580E-04    2.34069E+04
 4.54000E-04    1.23924E+04
 5.82950E-04    2.85483E+04
 7.48520E-04    1.32010E+04
 9.61120E-04    2.00729E+04
 1.23410E-03    1.82360E+04
 1.58460E-03    1.73099E+04
 2.03470E-03    1.66792E+04
 2.24870E-03    1.62839E+04
 2.48520E-03    1.59893E+04
 2.61260E-03    1.57966E+04
 2.74650E-03    1.55116E+04
 3.03540E-03    1.51387E+04
 3.35460E-03    1.47756E+04
 3.70740E-03    1.43418E+04
 4.30740E-03    1.37382E+04
 5.53080E-03    1.30279E+04
 7.10170E-03    1.23399E+04
 9.11880E-03    1.14119E+04
 1.17090E-02    1.08134E+04
 1.50340E-02    1.02535E+04
 1.93050E-02    9.85675E+03
 2.18750E-02    9.68377E+03
 2.35790E-02    9.59973E+03
 2.41760E-02    9.55830E+03
 2.47880E-02    9.49553E+03
 2.60580E-02    9.42477E+03
 2.70000E-02    9.35157E+03
 2.85000E-02    9.21965E+03
 3.18280E-02    9.07843E+03
 3.43070E-02    8.89286E+03
 4.08680E-02    8.68334E+03
 4.63090E-02    8.51676E+03
 5.24750E-02    8.38339E+03
 5.65620E-02    8.21968E+03
 6.73790E-02    8.06542E+03
 7.20000E-02    7.96269E+03
 7.95000E-02    7.87836E+03
 8.25000E-02    7.82515E+03
 8.65170E-02    7.71652E+03
 9.80370E-02    7.56082E+03
 1.11090E-01    7.45838E+03
 1.16790E-01    7.39949E+03
 1.22770E-01    7.33758E+03
 1.29070E-01    7.27243E+03
 1.35690E-01    7.20401E+03
 1.42640E-01    7.13207E+03
 1.49960E-01    7.05648E+03
 1.57640E-01    6.98752E+03
 1.65730E-01    6.92323E+03
 1.74220E-01    6.85564E+03
 1.83160E-01    6.78825E+03
 1.92550E-01    6.72552E+03
 2.02420E-01    6.65984E+03
 2.12800E-01    6.59078E+03
 2.23710E-01    6.52145E+03
 2.35180E-01    6.45681E+03
 2.47240E-01    6.36335E+03
 2.73240E-01    6.28328E+03
 2.87250E-01    6.24197E+03
 2.94520E-01    6.22267E+03
 2.97200E-01    6.21497E+03
 2.98500E-01    6.20576E+03
 3.01970E-01    6.14022E+03
 3.33730E-01    5.99778E+03
 3.68830E-01    5.86060E+03
 3.87740E-01    5.78551E+03
 4.07620E-01    5.70111E+03
 4.50490E-01    5.58954E+03
 4.97870E-01    5.49169E+03
 5.23400E-01    5.43136E+03
 5.50230E-01    5.36876E+03
 5.78440E-01    5.30602E+03
 6.08100E-01    5.24507E+03
 6.39280E-01    5.19622E+03
 6.72060E-01    5.15669E+03
 7.06510E-01    5.11514E+03
 7.42740E-01    5.07378E+03
 7.80820E-01    5.03549E+03
 8.20850E-01    4.99543E+03
 8.62940E-01    4.95332E+03
 9.07180E-01    4.90524E+03
 9.61640E-01    4.85856E+03
 1.00260E+00    4.78947E+03
 1.10800E+00    4.72099E+03
 1.16480E+00    4.67447E+03
 1.22460E+00    4.62560E+03
 1.28730E+00    4.57471E+03
 1.35340E+00    4.52627E+03
 1.42270E+00    4.47669E+03
 1.49570E+00    4.42453E+03
 1.57240E+00    4.36972E+03
 1.65300E+00    4.31212E+03
 1.73770E+00    4.25156E+03
 1.82680E+00    4.18787E+03
 1.92050E+00    4.12090E+03
 2.01900E+00    4.05052E+03
 2.12250E+00    3.97664E+03
 2.23130E+00    3.91447E+03
 2.30690E+00    3.87670E+03
 2.34570E+00    3.85744E+03
 2.36530E+00    3.84443E+03
 2.38520E+00    3.81141E+03
 2.46600E+00    3.74338E+03
 2.59240E+00    3.65801E+03
 2.72530E+00    3.56826E+03
 2.86500E+00    3.47450E+03
 3.01190E+00    3.37868E+03
 3.16640E+00    3.27832E+03
 3.32870E+00    3.12854E+03
 3.67880E+00    2.92611E+03
 4.06570E+00    2.73329E+03
 4.49330E+00    2.59846E+03
 4.72370E+00    2.51621E+03
 4.96590E+00    2.43774E+03
 5.22050E+00    2.36697E+03
 5.48810E+00    2.30108E+03
 5.76950E+00    2.24126E+03
 6.06530E+00    2.19197E+03
 6.37630E+00    2.15544E+03
 6.59240E+00    2.13971E+03
 6.70320E+00    2.12114E+03
 7.04690E+00    2.10500E+03
 7.40820E+00    2.10104E+03
 7.78800E+00    2.11597E+03
 8.18730E+00    2.13920E+03
 8.60710E+00    2.17188E+03
 9.04840E+00    2.21990E+03
 9.51230E+00    2.27660E+03
 1.00000E+01    2.33997E+03
 1.05130E+01    2.40872E+03
 1.10520E+01    2.47988E+03
 1.16180E+01    2.55120E+03
 1.22140E+01    2.62114E+03
 1.28400E+01    2.68767E+03
 1.34990E+01    2.73408E+03
 1.38400E+01    2.76297E+03
 1.41910E+01    2.78966E+03
 1.45500E+01    2.81407E+03
 1.49180E+01    2.84604E+03
 1.56830E+01    2.87943E+03
 1.64870E+01    2.90109E+03
