# n + Tm169 : (n,n'10)  
# jendl4.0   N.Iwamoto                         EVAL-Jul09
# uncertainties: n
# # energies =    69
#   E(MeV)       xs(mb) 
 4.32693E-01    0.00000E+00
 4.36112E-01    7.10183E-01
 4.75708E-01    4.73089E+00
 4.77809E-01    4.90593E+00
 5.00000E-01    7.08709E+00
 5.74237E-01    1.37273E+01
 5.78816E-01    1.41149E+01
 5.91712E-01    1.51934E+01
 6.00000E-01    1.57824E+01
 6.06500E-01    1.62460E+01
 6.37077E-01    1.83906E+01
 6.40803E-01    1.84604E+01
 6.50624E-01    1.89956E+01
 6.95327E-01    2.13292E+01
 7.00000E-01    2.15551E+01
 7.23083E-01    2.26981E+01
 7.29782E-01    2.28261E+01
 7.45676E-01    2.34963E+01
 8.00000E-01    2.62619E+01
 9.00000E-01    3.07073E+01
 1.00000E+00    3.39964E+01
 1.10000E+00    3.60269E+01
 1.20000E+00    3.66416E+01
 1.30000E+00    3.67596E+01
 1.40000E+00    3.65073E+01
 1.50000E+00    3.50502E+01
 1.60000E+00    3.27599E+01
 1.70000E+00    3.01847E+01
 1.80000E+00    2.75020E+01
 1.90000E+00    2.48510E+01
 2.00000E+00    2.23337E+01
 2.25000E+00    1.72000E+01
 2.50000E+00    1.25366E+01
 2.75000E+00    9.32905E+00
 3.00000E+00    6.74465E+00
 3.50000E+00    3.48510E+00
 4.00000E+00    1.76212E+00
 4.50000E+00    8.89514E-01
 5.00000E+00    4.58632E-01
 5.50000E+00    2.49908E-01
 6.00000E+00    1.50566E-01
 6.50000E+00    1.03146E-01
 7.00000E+00    8.01744E-02
 7.50000E+00    6.85513E-02
 8.00000E+00    6.20838E-02
 8.50000E+00    5.79148E-02
 9.00000E+00    5.47692E-02
 9.50000E+00    5.20924E-02
 1.00000E+01    4.96826E-02
 1.05000E+01    4.74796E-02
 1.10000E+01    4.54719E-02
 1.15000E+01    4.36404E-02
 1.20000E+01    4.19509E-02
 1.25000E+01    4.03688E-02
 1.30000E+01    3.88646E-02
 1.35000E+01    3.74280E-02
 1.40000E+01    3.60472E-02
 1.45000E+01    3.47217E-02
 1.50000E+01    3.34525E-02
 1.55000E+01    3.22529E-02
 1.60000E+01    3.10987E-02
 1.65000E+01    2.99935E-02
 1.70000E+01    2.89897E-02
 1.75000E+01    2.80180E-02
 1.80000E+01    2.71049E-02
 1.85000E+01    2.62345E-02
 1.90000E+01    2.53930E-02
 1.95000E+01    2.45666E-02
 2.00000E+01    2.37878E-02
