# n + Tm169 : (n,n'06)  
# jendl4.0   N.Iwamoto                         EVAL-Jul09
# uncertainties: n
# # energies =    74
#   E(MeV)       xs(mb) 
 3.43982E-01    0.00000E+00
 3.47091E-01    3.51065E+01
 3.69865E-01    8.94037E+01
 3.81534E-01    1.06149E+02
 4.00000E-01    1.26994E+02
 4.32693E-01    1.55232E+02
 4.36112E-01    1.57685E+02
 4.75708E-01    1.78200E+02
 4.77809E-01    1.79062E+02
 5.00000E-01    1.81631E+02
 5.74237E-01    1.86875E+02
 5.78816E-01    1.84946E+02
 5.91712E-01    1.83470E+02
 6.00000E-01    1.82491E+02
 6.06500E-01    1.81628E+02
 6.37077E-01    1.78275E+02
 6.40803E-01    1.77744E+02
 6.50624E-01    1.77060E+02
 6.95327E-01    1.74324E+02
 7.00000E-01    1.74057E+02
 7.23083E-01    1.72760E+02
 7.29782E-01    1.72370E+02
 7.45676E-01    1.71527E+02
 8.00000E-01    1.68107E+02
 9.00000E-01    1.57584E+02
 1.00000E+00    1.41699E+02
 1.10000E+00    1.24607E+02
 1.20000E+00    1.08957E+02
 1.30000E+00    9.49010E+01
 1.40000E+00    8.15449E+01
 1.50000E+00    6.90391E+01
 1.60000E+00    5.80955E+01
 1.70000E+00    4.87283E+01
 1.80000E+00    4.07891E+01
 1.90000E+00    3.41220E+01
 2.00000E+00    2.85728E+01
 2.25000E+00    1.88564E+01
 2.50000E+00    1.20081E+01
 2.75000E+00    7.95547E+00
 3.00000E+00    5.13222E+00
 3.50000E+00    2.23955E+00
 4.00000E+00    9.89554E-01
 4.50000E+00    4.42539E-01
 5.00000E+00    2.01308E-01
 5.50000E+00    9.51247E-02
 6.00000E+00    4.86249E-02
 6.50000E+00    2.81039E-02
 7.00000E+00    1.89192E-02
 7.50000E+00    1.46794E-02
 8.00000E+00    1.25761E-02
 8.50000E+00    1.13965E-02
 9.00000E+00    1.06199E-02
 9.50000E+00    1.00249E-02
 1.00000E+01    9.52250E-03
 1.05000E+01    9.07939E-03
 1.10000E+01    8.68399E-03
 1.15000E+01    8.32714E-03
 1.20000E+01    8.00010E-03
 1.25000E+01    7.69511E-03
 1.30000E+01    7.40563E-03
 1.35000E+01    7.12951E-03
 1.40000E+01    6.86442E-03
 1.45000E+01    6.61019E-03
 1.50000E+01    6.36700E-03
 1.55000E+01    6.13693E-03
 1.60000E+01    5.91730E-03
 1.65000E+01    5.70812E-03
 1.70000E+01    5.51587E-03
 1.75000E+01    5.32974E-03
 1.80000E+01    5.15474E-03
 1.85000E+01    4.98786E-03
 1.90000E+01    4.82651E-03
 1.95000E+01    4.66814E-03
 2.00000E+01    4.51895E-03
