# n + Tm169 : (n,tot)   
# jendl4.0   N.Iwamoto                         EVAL-Jul09
# uncertainties: n
# # energies =   171
#   E(MeV)       xs(mb) 
 1.00000E-11    1.13541E+06
 1.00000E-07    4.67178E+04
 4.13990E-07    3.51413E+04
 5.31580E-07    3.31906E+04
 6.82560E-07    3.19061E+04
 8.76420E-07    3.14850E+04
 1.12540E-06    3.24170E+04
 1.44500E-06    3.59992E+04
 1.85540E-06    4.65077E+04
 2.37240E-06    8.97758E+04
 3.05900E-06    3.60338E+06
 3.92790E-06    2.28457E+06
 5.04350E-06    4.96056E+04
 6.47600E-06    2.05983E+04
 8.31530E-06    1.38169E+04
 1.06770E-05    1.48379E+04
 1.37100E-05    2.57288E+05
 1.76030E-05    1.61321E+04
 2.26030E-05    1.00819E+04
 2.92030E-05    6.77819E+04
 3.72670E-05    3.14574E+04
 4.78510E-05    6.70420E+04
 6.14420E-05    1.16957E+05
 7.88930E-05    6.57356E+04
 1.01300E-04    3.48308E+04
 1.30070E-04    5.55173E+04
 1.67020E-04    1.68178E+04
 2.14450E-04    1.07037E+05
 2.75360E-04    4.20746E+04
 3.53580E-04    4.07285E+04
 4.54000E-04    2.37221E+04
 5.82950E-04    4.19856E+04
 7.48520E-04    1.90493E+04
 9.61120E-04    2.71803E+04
 1.23410E-03    2.56823E+04
 1.58460E-03    2.35682E+04
 2.03470E-03    2.21873E+04
 2.24870E-03    2.14379E+04
 2.48520E-03    2.08915E+04
 2.61260E-03    2.05356E+04
 2.74650E-03    2.00142E+04
 3.03540E-03    1.93381E+04
 3.35460E-03    1.86849E+04
 3.70740E-03    1.79192E+04
 4.30740E-03    1.69080E+04
 5.53080E-03    1.57438E+04
 7.10170E-03    1.47061E+04
 9.11880E-03    1.37970E+04
 1.17090E-02    1.30307E+04
 1.50340E-02    1.23147E+04
 1.93050E-02    1.18124E+04
 2.18750E-02    1.15767E+04
 2.35790E-02    1.14614E+04
 2.41760E-02    1.14044E+04
 2.47880E-02    1.13196E+04
 2.60580E-02    1.12230E+04
 2.70000E-02    1.11231E+04
 2.85000E-02    1.09439E+04
 3.18280E-02    1.07537E+04
 3.43070E-02    1.05048E+04
 4.08680E-02    1.02257E+04
 4.63090E-02    1.00075E+04
 5.24750E-02    9.83607E+03
 5.65620E-02    9.62870E+03
 6.73790E-02    9.43650E+03
 7.20000E-02    9.30943E+03
 7.95000E-02    9.20637E+03
 8.25000E-02    9.14293E+03
 8.65170E-02    9.01501E+03
 9.80370E-02    8.83499E+03
 1.11090E-01    8.71840E+03
 1.16790E-01    8.65397E+03
 1.22770E-01    8.58624E+03
 1.29070E-01    8.51498E+03
 1.35690E-01    8.44843E+03
 1.42640E-01    8.38584E+03
 1.49960E-01    8.32004E+03
 1.57640E-01    8.25304E+03
 1.65730E-01    8.19772E+03
 1.74220E-01    8.14247E+03
 1.83160E-01    8.08437E+03
 1.92550E-01    8.02339E+03
 2.02420E-01    7.96765E+03
 2.12800E-01    7.91489E+03
 2.23710E-01    7.85943E+03
 2.35180E-01    7.80112E+03
 2.47240E-01    7.73199E+03
 2.73240E-01    7.67999E+03
 2.87250E-01    7.65263E+03
 2.94520E-01    7.63986E+03
 2.97200E-01    7.63476E+03
 2.98500E-01    7.62865E+03
 3.01970E-01    7.58544E+03
 3.33730E-01    7.51695E+03
 3.68830E-01    7.46473E+03
 3.87740E-01    7.43060E+03
 4.07620E-01    7.42947E+03
 4.50490E-01    7.43978E+03
 4.97870E-01    7.44819E+03
 5.23400E-01    7.45417E+03
 5.50230E-01    7.46046E+03
 5.78440E-01    7.46708E+03
 6.08100E-01    7.47404E+03
 6.39280E-01    7.49181E+03
 6.72060E-01    7.52327E+03
 7.06510E-01    7.55638E+03
 7.42740E-01    7.59118E+03
 7.80820E-01    7.62776E+03
 8.20850E-01    7.66623E+03
 8.62940E-01    7.70267E+03
 9.07180E-01    7.73820E+03
 9.61640E-01    7.77266E+03
 1.00260E+00    7.80527E+03
 1.10800E+00    7.81317E+03
 1.16480E+00    7.80723E+03
 1.22460E+00    7.79932E+03
 1.28730E+00    7.77694E+03
 1.35340E+00    7.75024E+03
 1.42270E+00    7.72016E+03
 1.49570E+00    7.67526E+03
 1.57240E+00    7.62567E+03
 1.65300E+00    7.57355E+03
 1.73770E+00    7.51518E+03
 1.82680E+00    7.45041E+03
 1.92050E+00    7.38231E+03
 2.01900E+00    7.31073E+03
 2.12250E+00    7.23550E+03
 2.23130E+00    7.16997E+03
 2.30690E+00    7.12932E+03
 2.34570E+00    7.10859E+03
 2.36530E+00    7.09459E+03
 2.38520E+00    7.06051E+03
 2.46600E+00    6.99135E+03
 2.59240E+00    6.90456E+03
 2.72530E+00    6.81333E+03
 2.86500E+00    6.71741E+03
 3.01190E+00    6.61653E+03
 3.16640E+00    6.51044E+03
 3.32870E+00    6.34032E+03
 3.67880E+00    6.10309E+03
 4.06570E+00    5.86763E+03
 4.49330E+00    5.69722E+03
 4.72370E+00    5.58369E+03
 4.96590E+00    5.47888E+03
 5.22050E+00    5.37947E+03
 5.48810E+00    5.28772E+03
 5.76950E+00    5.20793E+03
 6.06530E+00    5.14251E+03
 6.37630E+00    5.09656E+03
 6.59240E+00    5.07554E+03
 6.70320E+00    5.05394E+03
 7.04690E+00    5.03102E+03
 7.40820E+00    5.02422E+03
 7.78800E+00    5.03189E+03
 8.18730E+00    5.04891E+03
 8.60710E+00    5.07592E+03
 9.04840E+00    5.10802E+03
 9.51230E+00    5.14885E+03
 1.00000E+01    5.19378E+03
 1.05130E+01    5.24336E+03
 1.10520E+01    5.29571E+03
 1.16180E+01    5.34884E+03
 1.22140E+01    5.40072E+03
 1.28400E+01    5.44876E+03
 1.34990E+01    5.48081E+03
 1.38400E+01    5.49979E+03
 1.41910E+01    5.51634E+03
 1.45500E+01    5.53044E+03
 1.49180E+01    5.54691E+03
 1.56830E+01    5.56059E+03
 1.64870E+01    5.56497E+03
