# n + Tm169 : (n,n'02)  
# jendl4.0   N.Iwamoto                         EVAL-Jul09
# uncertainties: n
# # energies =    91
#   E(MeV)       xs(mb) 
 1.18896E-01    0.00000E+00
 1.20000E-01    1.00665E+01
 1.30000E-01    3.73073E+01
 1.39764E-01    6.52114E+01
 1.40000E-01    6.53575E+01
 1.50000E-01    9.09028E+01
 1.60000E-01    1.15897E+02
 1.70000E-01    1.38338E+02
 1.80000E-01    1.59765E+02
 1.90000E-01    1.78860E+02
 2.00000E-01    1.96609E+02
 2.25000E-01    2.36430E+02
 2.50000E-01    2.69225E+02
 2.75000E-01    3.01872E+02
 3.00000E-01    3.29252E+02
 3.18036E-01    3.47957E+02
 3.34102E-01    3.59696E+02
 3.43982E-01    3.68029E+02
 3.47091E-01    3.67703E+02
 3.69865E-01    3.71619E+02
 3.81534E-01    3.75875E+02
 4.00000E-01    3.82338E+02
 4.32693E-01    4.00024E+02
 4.36112E-01    4.01800E+02
 4.75708E-01    4.23079E+02
 4.77809E-01    4.24161E+02
 5.00000E-01    4.26576E+02
 5.74237E-01    4.54677E+02
 5.78816E-01    4.53817E+02
 5.91712E-01    4.56726E+02
 6.00000E-01    4.59135E+02
 6.06500E-01    4.61216E+02
 6.37077E-01    4.71093E+02
 6.40803E-01    4.70103E+02
 6.50624E-01    4.71324E+02
 6.95327E-01    4.79816E+02
 7.00000E-01    4.80879E+02
 7.23083E-01    4.86428E+02
 7.29782E-01    4.87284E+02
 7.45676E-01    4.90969E+02
 8.00000E-01    5.01151E+02
 9.00000E-01    5.12875E+02
 1.00000E+00    5.15376E+02
 1.10000E+00    5.01226E+02
 1.20000E+00    4.78779E+02
 1.30000E+00    4.54824E+02
 1.40000E+00    4.32663E+02
 1.50000E+00    4.12937E+02
 1.60000E+00    3.95730E+02
 1.70000E+00    3.81031E+02
 1.80000E+00    3.68563E+02
 1.90000E+00    3.58133E+02
 2.00000E+00    3.49582E+02
 2.25000E+00    3.35749E+02
 2.50000E+00    3.27451E+02
 2.75000E+00    3.24824E+02
 3.00000E+00    3.24530E+02
 3.50000E+00    3.26990E+02
 4.00000E+00    3.28888E+02
 4.50000E+00    3.30636E+02
 5.00000E+00    3.32282E+02
 5.50000E+00    3.32955E+02
 6.00000E+00    3.32483E+02
 6.50000E+00    3.31095E+02
 7.00000E+00    3.29321E+02
 7.50000E+00    3.27348E+02
 8.00000E+00    3.25005E+02
 8.50000E+00    3.21829E+02
 9.00000E+00    3.17582E+02
 9.50000E+00    3.12096E+02
 1.00000E+01    3.05600E+02
 1.05000E+01    2.98298E+02
 1.10000E+01    2.90521E+02
 1.15000E+01    2.82556E+02
 1.20000E+01    2.74624E+02
 1.25000E+01    2.66865E+02
 1.30000E+01    2.59349E+02
 1.35000E+01    2.52089E+02
 1.40000E+01    2.45084E+02
 1.45000E+01    2.38343E+02
 1.50000E+01    2.31901E+02
 1.55000E+01    2.25821E+02
 1.60000E+01    2.20173E+02
 1.65000E+01    2.15013E+02
 1.70000E+01    2.10367E+02
 1.75000E+01    2.06220E+02
 1.80000E+01    2.02521E+02
 1.85000E+01    1.99195E+02
 1.90000E+01    1.96162E+02
 1.95000E+01    1.93351E+02
 2.00000E+01    1.90707E+02
