# n + Tm169 : (n,n'07)  
# jendl4.0   N.Iwamoto                         EVAL-Jul09
# uncertainties: n
# # energies =    73
#   E(MeV)       xs(mb) 
 3.47091E-01    0.00000E+00
 3.69865E-01    5.35296E+01
 3.81534E-01    6.70937E+01
 4.00000E-01    8.51500E+01
 4.32693E-01    1.12302E+02
 4.36112E-01    1.14846E+02
 4.75708E-01    1.39105E+02
 4.77809E-01    1.40234E+02
 5.00000E-01    1.47891E+02
 5.74237E-01    1.68868E+02
 5.78816E-01    1.68215E+02
 5.91712E-01    1.69901E+02
 6.00000E-01    1.71144E+02
 6.06500E-01    1.71788E+02
 6.37077E-01    1.75062E+02
 6.40803E-01    1.74332E+02
 6.50624E-01    1.74696E+02
 6.95327E-01    1.77561E+02
 7.00000E-01    1.77922E+02
 7.23083E-01    1.79787E+02
 7.29782E-01    1.79842E+02
 7.45676E-01    1.80887E+02
 8.00000E-01    1.83813E+02
 9.00000E-01    1.84346E+02
 1.00000E+00    1.76595E+02
 1.10000E+00    1.62065E+02
 1.20000E+00    1.47554E+02
 1.30000E+00    1.33525E+02
 1.40000E+00    1.18710E+02
 1.50000E+00    1.03476E+02
 1.60000E+00    8.94300E+01
 1.70000E+00    7.68682E+01
 1.80000E+00    6.58116E+01
 1.90000E+00    5.62147E+01
 2.00000E+00    4.79931E+01
 2.25000E+00    3.30700E+01
 2.50000E+00    2.18893E+01
 2.75000E+00    1.50009E+01
 3.00000E+00    9.97210E+00
 3.50000E+00    4.55997E+00
 4.00000E+00    2.08595E+00
 4.50000E+00    9.57581E-01
 5.00000E+00    4.43728E-01
 5.50000E+00    2.11718E-01
 6.00000E+00    1.08072E-01
 6.50000E+00    6.15702E-02
 7.00000E+00    4.04922E-02
 7.50000E+00    3.06973E-02
 8.00000E+00    2.58574E-02
 8.50000E+00    2.31919E-02
 9.00000E+00    2.14885E-02
 9.50000E+00    2.02212E-02
 1.00000E+01    1.91752E-02
 1.05000E+01    1.82677E-02
 1.10000E+01    1.74645E-02
 1.15000E+01    1.67430E-02
 1.20000E+01    1.60835E-02
 1.25000E+01    1.54695E-02
 1.30000E+01    1.48872E-02
 1.35000E+01    1.43320E-02
 1.40000E+01    1.37992E-02
 1.45000E+01    1.32882E-02
 1.50000E+01    1.27995E-02
 1.55000E+01    1.23368E-02
 1.60000E+01    1.18952E-02
 1.65000E+01    1.14746E-02
 1.70000E+01    1.10894E-02
 1.75000E+01    1.07152E-02
 1.80000E+01    1.03633E-02
 1.85000E+01    1.00278E-02
 1.90000E+01    9.70337E-03
 1.95000E+01    9.38494E-03
 2.00000E+01    9.08499E-03
