# n + Tm169 : (n,n'01)  
# jendl4.0   N.Iwamoto                         EVAL-Jul09
# uncertainties: n
# # energies =   103
#   E(MeV)       xs(mb) 
 8.46021E-03    0.00000E+00
 1.00000E-02    5.67132E+02
 2.00000E-02    7.02843E+02
 3.00000E-02    6.91824E+02
 4.00000E-02    6.89397E+02
 5.00000E-02    6.94909E+02
 6.00000E-02    7.00967E+02
 7.00000E-02    7.08606E+02
 8.00000E-02    7.14516E+02
 9.00000E-02    7.21414E+02
 1.00000E-01    7.29773E+02
 1.10000E-01    7.35643E+02
 1.18896E-01    7.38340E+02
 1.20000E-01    7.36640E+02
 1.30000E-01    7.33738E+02
 1.39764E-01    7.30927E+02
 1.40000E-01    7.30781E+02
 1.50000E-01    7.27362E+02
 1.60000E-01    7.24271E+02
 1.70000E-01    7.19270E+02
 1.80000E-01    7.13042E+02
 1.90000E-01    7.07981E+02
 2.00000E-01    7.03711E+02
 2.25000E-01    6.96254E+02
 2.50000E-01    6.93009E+02
 2.75000E-01    6.91365E+02
 3.00000E-01    6.90595E+02
 3.18036E-01    6.90910E+02
 3.34102E-01    6.89532E+02
 3.43982E-01    6.89126E+02
 3.47091E-01    6.79885E+02
 3.69865E-01    6.52285E+02
 3.81534E-01    6.44839E+02
 4.00000E-01    6.35134E+02
 4.32693E-01    6.29030E+02
 4.36112E-01    6.28487E+02
 4.75708E-01    6.24535E+02
 4.77809E-01    6.24398E+02
 5.00000E-01    6.07770E+02
 5.74237E-01    5.94138E+02
 5.78816E-01    5.88418E+02
 5.91712E-01    5.83099E+02
 6.00000E-01    5.80853E+02
 6.06500E-01    5.79491E+02
 6.37077E-01    5.75050E+02
 6.40803E-01    5.72638E+02
 6.50624E-01    5.69346E+02
 6.95327E-01    5.58234E+02
 7.00000E-01    5.57289E+02
 7.23083E-01    5.53040E+02
 7.29782E-01    5.51386E+02
 7.45676E-01    5.48787E+02
 8.00000E-01    5.43307E+02
 9.00000E-01    5.26805E+02
 1.00000E+00    5.01695E+02
 1.10000E+00    4.60545E+02
 1.20000E+00    4.20793E+02
 1.30000E+00    3.85210E+02
 1.40000E+00    3.54862E+02
 1.50000E+00    3.29394E+02
 1.60000E+00    3.08231E+02
 1.70000E+00    2.90866E+02
 1.80000E+00    2.76646E+02
 1.90000E+00    2.65100E+02
 2.00000E+00    2.55873E+02
 2.25000E+00    2.41385E+02
 2.50000E+00    2.33009E+02
 2.75000E+00    2.29886E+02
 3.00000E+00    2.28457E+02
 3.50000E+00    2.27594E+02
 4.00000E+00    2.26520E+02
 4.50000E+00    2.25876E+02
 5.00000E+00    2.25651E+02
 5.50000E+00    2.25278E+02
 6.00000E+00    2.24528E+02
 6.50000E+00    2.23432E+02
 7.00000E+00    2.22161E+02
 7.50000E+00    2.20708E+02
 8.00000E+00    2.18918E+02
 8.50000E+00    2.16508E+02
 9.00000E+00    2.13377E+02
 9.50000E+00    2.09445E+02
 1.00000E+01    2.04864E+02
 1.05000E+01    1.99777E+02
 1.10000E+01    1.94414E+02
 1.15000E+01    1.88982E+02
 1.20000E+01    1.83630E+02
 1.25000E+01    1.78437E+02
 1.30000E+01    1.73429E+02
 1.35000E+01    1.68595E+02
 1.40000E+01    1.63923E+02
 1.45000E+01    1.59417E+02
 1.50000E+01    1.55107E+02
 1.55000E+01    1.51040E+02
 1.60000E+01    1.47268E+02
 1.65000E+01    1.43829E+02
 1.70000E+01    1.40736E+02
 1.75000E+01    1.37976E+02
 1.80000E+01    1.35510E+02
 1.85000E+01    1.33286E+02
 1.90000E+01    1.31249E+02
 1.95000E+01    1.29355E+02
 2.00000E+01    1.27570E+02
