# n + Tm169 : (n,n'09)  
# jendl4.0   N.Iwamoto                         EVAL-Jul09
# uncertainties: n
# # energies =    71
#   E(MeV)       xs(mb) 
 3.81534E-01    0.00000E+00
 4.00000E-01    6.53095E+00
 4.32693E-01    1.84128E+01
 4.36112E-01    1.96235E+01
 4.75708E-01    3.37509E+01
 4.77809E-01    3.44475E+01
 5.00000E-01    4.10223E+01
 5.74237E-01    6.01337E+01
 5.78816E-01    6.06895E+01
 5.91712E-01    6.31556E+01
 6.00000E-01    6.48183E+01
 6.06500E-01    6.61468E+01
 6.37077E-01    7.20904E+01
 6.40803E-01    7.18793E+01
 6.50624E-01    7.28102E+01
 6.95327E-01    7.75632E+01
 7.00000E-01    7.81094E+01
 7.23083E-01    8.08435E+01
 7.29782E-01    8.11829E+01
 7.45676E-01    8.27890E+01
 8.00000E-01    8.87261E+01
 9.00000E-01    9.57344E+01
 1.00000E+00    9.81824E+01
 1.10000E+00    9.47251E+01
 1.20000E+00    8.99232E+01
 1.30000E+00    8.45647E+01
 1.40000E+00    7.86673E+01
 1.50000E+00    7.09125E+01
 1.60000E+00    6.31580E+01
 1.70000E+00    5.57789E+01
 1.80000E+00    4.89438E+01
 1.90000E+00    4.27546E+01
 2.00000E+00    3.72622E+01
 2.25000E+00    2.68581E+01
 2.50000E+00    1.85094E+01
 2.75000E+00    1.31287E+01
 3.00000E+00    9.07263E+00
 3.50000E+00    4.38462E+00
 4.00000E+00    2.10778E+00
 4.50000E+00    1.02150E+00
 5.00000E+00    5.08513E-01
 5.50000E+00    2.68767E-01
 6.00000E+00    1.58056E-01
 6.50000E+00    1.06566E-01
 7.00000E+00    8.21664E-02
 7.50000E+00    7.00432E-02
 8.00000E+00    6.33777E-02
 8.50000E+00    5.91048E-02
 9.00000E+00    5.58826E-02
 9.50000E+00    5.31384E-02
 1.00000E+01    5.06675E-02
 1.05000E+01    4.84103E-02
 1.10000E+01    4.63548E-02
 1.15000E+01    4.44798E-02
 1.20000E+01    4.27521E-02
 1.25000E+01    4.11360E-02
 1.30000E+01    3.95993E-02
 1.35000E+01    3.81315E-02
 1.40000E+01    3.67210E-02
 1.45000E+01    3.53673E-02
 1.50000E+01    3.40715E-02
 1.55000E+01    3.28379E-02
 1.60000E+01    3.16601E-02
 1.65000E+01    3.05382E-02
 1.70000E+01    2.95193E-02
 1.75000E+01    2.85326E-02
 1.80000E+01    2.76052E-02
 1.85000E+01    2.67165E-02
 1.90000E+01    2.58515E-02
 1.95000E+01    2.50025E-02
 2.00000E+01    2.42027E-02
