# n + Tm169 : (n,n'03)  
# jendl4.0   N.Iwamoto                         EVAL-Jul09
# uncertainties: n
# # energies =    88
#   E(MeV)       xs(mb) 
 1.39764E-01    0.00000E+00
 1.40000E-01    2.27238E+00
 1.50000E-01    1.31517E+01
 1.60000E-01    2.11108E+01
 1.70000E-01    2.86381E+01
 1.80000E-01    3.57788E+01
 1.90000E-01    4.22921E+01
 2.00000E-01    4.85137E+01
 2.25000E-01    6.19900E+01
 2.50000E-01    7.38532E+01
 2.75000E-01    8.50137E+01
 3.00000E-01    9.61582E+01
 3.18036E-01    1.03204E+02
 3.34102E-01    1.05516E+02
 3.43982E-01    1.08279E+02
 3.47091E-01    1.09138E+02
 3.69865E-01    1.10670E+02
 3.81534E-01    1.12904E+02
 4.00000E-01    1.15466E+02
 4.32693E-01    1.23559E+02
 4.36112E-01    1.24284E+02
 4.75708E-01    1.34087E+02
 4.77809E-01    1.34537E+02
 5.00000E-01    1.37346E+02
 5.74237E-01    1.53363E+02
 5.78816E-01    1.53404E+02
 5.91712E-01    1.55483E+02
 6.00000E-01    1.57035E+02
 6.06500E-01    1.58335E+02
 6.37077E-01    1.65093E+02
 6.40803E-01    1.64946E+02
 6.50624E-01    1.66847E+02
 6.95327E-01    1.76744E+02
 7.00000E-01    1.77892E+02
 7.23083E-01    1.83727E+02
 7.29782E-01    1.84672E+02
 7.45676E-01    1.88351E+02
 8.00000E-01    2.00713E+02
 9.00000E-01    2.16089E+02
 1.00000E+00    2.24697E+02
 1.10000E+00    2.26663E+02
 1.20000E+00    2.21436E+02
 1.30000E+00    2.11141E+02
 1.40000E+00    1.99257E+02
 1.50000E+00    1.86887E+02
 1.60000E+00    1.74769E+02
 1.70000E+00    1.63507E+02
 1.80000E+00    1.53398E+02
 1.90000E+00    1.44646E+02
 2.00000E+00    1.37354E+02
 2.25000E+00    1.25667E+02
 2.50000E+00    1.18858E+02
 2.75000E+00    1.16274E+02
 3.00000E+00    1.14671E+02
 3.50000E+00    1.11531E+02
 4.00000E+00    1.06814E+02
 4.50000E+00    1.00860E+02
 5.00000E+00    9.44092E+01
 5.50000E+00    8.82417E+01
 6.00000E+00    8.28865E+01
 6.50000E+00    7.84201E+01
 7.00000E+00    7.44864E+01
 7.50000E+00    7.08247E+01
 8.00000E+00    6.72915E+01
 8.50000E+00    6.38898E+01
 9.00000E+00    6.06395E+01
 9.50000E+00    5.75882E+01
 1.00000E+01    5.47436E+01
 1.05000E+01    5.21301E+01
 1.10000E+01    4.97406E+01
 1.15000E+01    4.75573E+01
 1.20000E+01    4.55472E+01
 1.25000E+01    4.36684E+01
 1.30000E+01    4.18816E+01
 1.35000E+01    4.01590E+01
 1.40000E+01    3.84877E+01
 1.45000E+01    3.68662E+01
 1.50000E+01    3.53013E+01
 1.55000E+01    3.38047E+01
 1.60000E+01    3.23888E+01
 1.65000E+01    3.10625E+01
 1.70000E+01    2.98288E+01
 1.75000E+01    2.86845E+01
 1.80000E+01    2.76229E+01
 1.85000E+01    2.66361E+01
 1.90000E+01    2.57168E+01
 1.95000E+01    2.48583E+01
 2.00000E+01    2.40554E+01
