# n + Ca 42 : (n,el)    
# jendl4.0   K.Shibata                         EVAL-JUN06
# uncertainties: n
# # energies =   171
#   E(MeV)       xs(mb) 
 1.00000E-11    2.85973E+03
 1.00000E-07    1.22386E+03
 4.13990E-07    1.22266E+03
 5.31580E-07    1.22245E+03
 6.82560E-07    1.22220E+03
 8.76420E-07    1.22212E+03
 1.12540E-06    1.22206E+03
 1.44500E-06    1.22199E+03
 1.85540E-06    1.22190E+03
 2.37240E-06    1.22178E+03
 3.05900E-06    1.22164E+03
 3.92790E-06    1.22144E+03
 5.04350E-06    1.22120E+03
 6.47600E-06    1.22088E+03
 8.31530E-06    1.22048E+03
 1.06770E-05    1.21996E+03
 1.37100E-05    1.21929E+03
 1.76030E-05    1.21844E+03
 2.26030E-05    1.21732E+03
 2.92030E-05    1.21590E+03
 3.72670E-05    1.21411E+03
 4.78510E-05    1.21178E+03
 6.14420E-05    1.20879E+03
 7.88930E-05    1.20495E+03
 1.01300E-04    1.20002E+03
 1.30070E-04    1.19369E+03
 1.67020E-04    1.18556E+03
 2.14450E-04    1.17513E+03
 2.75360E-04    1.16258E+03
 3.53580E-04    1.14785E+03
 4.54000E-04    1.12896E+03
 5.82950E-04    1.10564E+03
 7.48520E-04    1.07881E+03
 9.61120E-04    1.04640E+03
 1.23410E-03    1.00930E+03
 1.58460E-03    9.67327E+02
 2.03470E-03    9.35551E+02
 2.24870E-03    9.15758E+02
 2.48520E-03    9.01059E+02
 2.61260E-03    8.91165E+02
 2.74650E-03    8.75310E+02
 3.03540E-03    8.54313E+02
 3.35460E-03    8.32519E+02
 3.70740E-03    8.04847E+02
 4.30740E-03    7.58437E+02
 5.53080E-03    6.96229E+02
 7.10170E-03    6.07536E+02
 9.11880E-03    1.22796E+03
 1.17090E-02    5.20705E+02
 1.50340E-02    4.18577E+02
 1.93050E-02    2.94656E+02
 2.18750E-02    2.39346E+03
 2.35790E-02    3.70261E+02
 2.41760E-02    3.08548E+02
 2.47880E-02    2.41322E+02
 2.60580E-02    6.37016E+02
 2.70000E-02    1.67188E+02
 2.85000E-02    6.40893E+01
 3.18280E-02    8.12454E+01
 3.43070E-02    1.56071E+04
 4.08680E-02    2.08545E+03
 4.63090E-02    1.39382E+03
 5.24750E-02    7.51232E+02
 5.65620E-02    9.60554E+02
 6.73790E-02    4.54416E+02
 7.20000E-02    2.99309E+02
 7.95000E-02    1.78671E+02
 8.25000E-02    3.23635E+02
 8.65170E-02    6.73143E+01
 9.80370E-02    4.27662E+02
 1.11090E-01    3.81885E+03
 1.16790E-01    2.74184E+04
 1.22770E-01    3.12516E+04
 1.29070E-01    2.13197E+04
 1.35690E-01    1.00206E+04
 1.42640E-01    6.23394E+03
 1.49960E-01    4.16236E+03
 1.57640E-01    3.02529E+03
 1.65730E-01    1.73183E+03
 1.74220E-01    9.41823E+03
 1.83160E-01    4.25009E+03
 1.92550E-01    2.96310E+03
 2.02420E-01    2.92619E+03
 2.12800E-01    5.42100E+03
 2.23710E-01    2.83051E+03
 2.35180E-01    2.19295E+03
 2.47240E-01    2.37845E+03
 2.73240E-01    5.29681E+03
 2.87250E-01    2.84362E+03
 2.94520E-01    2.51413E+03
 2.97200E-01    2.42870E+03
 2.98500E-01    2.76125E+03
 3.01970E-01    3.03014E+03
 3.33730E-01    2.97929E+03
 3.68830E-01    2.93785E+03
 3.87740E-01    2.90880E+03
 4.07620E-01    2.88246E+03
 4.50490E-01    2.85125E+03
 4.97870E-01    2.82913E+03
 5.23400E-01    2.82209E+03
 5.50230E-01    2.81499E+03
 5.78440E-01    2.80787E+03
 6.08100E-01    2.80727E+03
 6.39280E-01    2.80935E+03
 6.72060E-01    2.81152E+03
 7.06510E-01    2.81589E+03
 7.42740E-01    2.82536E+03
 7.80820E-01    2.83553E+03
 8.20850E-01    2.84800E+03
 8.62940E-01    2.86468E+03
 9.07180E-01    2.88388E+03
 9.61640E-01    2.90552E+03
 1.00260E+00    2.94203E+03
 1.10800E+00    2.98341E+03
 1.16480E+00    3.01360E+03
 1.22460E+00    3.04536E+03
 1.28730E+00    3.07876E+03
 1.35340E+00    3.11388E+03
 1.42270E+00    3.15077E+03
 1.49570E+00    3.18874E+03
 1.57240E+00    3.18104E+03
 1.65300E+00    3.14485E+03
 1.73770E+00    3.10680E+03
 1.82680E+00    3.06269E+03
 1.92050E+00    2.98134E+03
 2.01900E+00    2.95225E+03
 2.12250E+00    2.95500E+03
 2.23130E+00    2.95740E+03
 2.30690E+00    2.95889E+03
 2.34570E+00    2.95965E+03
 2.36530E+00    2.96017E+03
 2.38520E+00    2.96147E+03
 2.46600E+00    2.90156E+03
 2.59240E+00    2.85764E+03
 2.72530E+00    2.82451E+03
 2.86500E+00    2.77847E+03
 3.01190E+00    2.74089E+03
 3.16640E+00    2.71680E+03
 3.32870E+00    2.63090E+03
 3.67880E+00    2.47987E+03
 4.06570E+00    2.32705E+03
 4.49330E+00    2.20397E+03
 4.72370E+00    2.13525E+03
 4.96590E+00    2.04132E+03
 5.22050E+00    1.97408E+03
 5.48810E+00    1.87532E+03
 5.76950E+00    1.80304E+03
 6.06530E+00    1.72810E+03
 6.37630E+00    1.66541E+03
 6.59240E+00    1.62759E+03
 6.70320E+00    1.57800E+03
 7.04690E+00    1.50962E+03
 7.40820E+00    1.44479E+03
 7.78800E+00    1.38285E+03
 8.18730E+00    1.32432E+03
 8.60710E+00    1.26718E+03
 9.04840E+00    1.21171E+03
 9.51230E+00    1.15777E+03
 1.00000E+01    1.10704E+03
 1.05130E+01    1.05646E+03
 1.10520E+01    1.01356E+03
 1.16180E+01    9.71382E+02
 1.22140E+01    9.31653E+02
 1.28400E+01    8.98689E+02
 1.34990E+01    8.78912E+02
 1.38400E+01    8.66210E+02
 1.41910E+01    8.56720E+02
 1.45500E+01    8.49373E+02
 1.49180E+01    8.42812E+02
 1.56830E+01    8.39321E+02
 1.64870E+01    8.44356E+02
