# n + Ca 42 : (n,xn)    
# jendl4.0   K.Shibata                         EVAL-JUN06
# 
# # energies =    68
#   E(MeV)        xs(mb) 
 1.56135E+00    0.00000E+00
 1.88147E+00    2.87997E+02
 2.00000E+00    4.55526E+02
 2.48248E+00    5.67486E+02
 2.50000E+00    6.39264E+02
 2.81857E+00    7.32624E+02
 3.00000E+00    8.10848E+02
 3.26597E+00    8.28264E+02
 3.33212E+00    8.32734E+02
 3.37933E+00    8.40841E+02
 3.47354E+00    8.71802E+02
 3.50000E+00    9.17768E+02
 3.52986E+00    9.16684E+02
 3.74184E+00    9.37631E+02
 3.97839E+00    1.01963E+03
 4.00000E+00    1.04143E+03
 4.04946E+00    1.03517E+03
 4.09585E+00    1.03137E+03
 4.14429E+00    1.03126E+03
 4.19825E+00    1.03559E+03
 4.21597E+00    1.03723E+03
 4.33373E+00    1.05853E+03
 4.45867E+00    1.09911E+03
 4.50000E+00    1.11719E+03
 4.52421E+00    1.11206E+03
 4.54981E+00    1.10786E+03
 4.55902E+00    1.10661E+03
 4.61330E+00    1.10325E+03
 4.67679E+00    1.10288E+03
 4.80285E+00    1.11066E+03
 4.82835E+00    1.11396E+03
 4.87412E+00    1.12174E+03
 4.98298E+00    1.15525E+03
 5.00000E+00    1.16757E+03
 5.01370E+00    1.16520E+03
 5.02189E+00    1.16385E+03
 5.06592E+00    1.15791E+03
 5.09050E+00    1.15554E+03
 5.13771E+00    1.15249E+03
 5.19700E+00    1.15003E+03
 5.28200E+00    1.15011E+03
 5.31272E+00    1.15133E+03
 5.33525E+00    1.15336E+03
 5.34037E+00    1.15421E+03
 5.44789E+00    1.17493E+03
 5.47349E+00    1.18157E+03
 5.48578E+00    1.18572E+03
 5.50000E+00    1.19291E+03
 6.00000E+00    1.19994E+03
 6.50000E+00    1.20326E+03
 7.00000E+00    1.19863E+03
 7.50000E+00    1.17748E+03
 8.00000E+00    1.14932E+03
 8.50000E+00    1.11680E+03
 9.00000E+00    1.08494E+03
 9.50000E+00    1.05452E+03
 1.00000E+01    1.02563E+03
 1.10000E+01    9.74464E+02
 1.20000E+01    9.39742E+02
 1.30000E+01    1.02372E+03
 1.40000E+01    1.14722E+03
 1.45000E+01    1.20827E+03
 1.50000E+01    1.25239E+03
 1.60000E+01    1.31712E+03
 1.70000E+01    1.35010E+03
 1.80000E+01    1.36250E+03
 1.90000E+01    1.36014E+03
 2.00000E+01    1.34650E+03
