# n + Ca 42 : (n,xa)    
# jendl4.0   K.Shibata                         EVAL-JUN06
# 
# # energies =    68
#   E(MeV)        xs(mb) 
 1.56135E+00    7.45806E-05
 1.88147E+00    4.63712E-04
 2.00000E+00    6.07800E-04
 2.48248E+00    1.54027E-02
 2.50000E+00    1.59400E-02
 2.81857E+00    9.61933E-02
 3.00000E+00    1.41900E-01
 3.26597E+00    5.12269E-01
 3.33212E+00    6.04389E-01
 3.37933E+00    6.70127E-01
 3.47354E+00    8.01319E-01
 3.50000E+00    8.38163E-01
 3.52986E+00    9.60678E-01
 3.74184E+00    1.83029E+00
 3.97839E+00    2.80073E+00
 4.00000E+00    2.88937E+00
 4.04946E+00    3.32872E+00
 4.09585E+00    3.74077E+00
 4.14429E+00    4.17102E+00
 4.19825E+00    4.65037E+00
 4.21597E+00    4.80774E+00
 4.33373E+00    5.85379E+00
 4.45867E+00    6.96351E+00
 4.50000E+00    7.33065E+00
 4.52421E+00    7.67250E+00
 4.54981E+00    8.03406E+00
 4.55902E+00    8.16421E+00
 4.61330E+00    8.93069E+00
 4.67679E+00    9.82732E+00
 4.80285E+00    1.16076E+01
 4.82835E+00    1.19677E+01
 4.87412E+00    1.26141E+01
 4.98298E+00    1.41514E+01
 5.00000E+00    1.43918E+01
 5.01370E+00    1.46399E+01
 5.02189E+00    1.47883E+01
 5.06592E+00    1.55858E+01
 5.09050E+00    1.60309E+01
 5.13771E+00    1.68859E+01
 5.19700E+00    1.79597E+01
 5.28200E+00    1.94991E+01
 5.31272E+00    2.00555E+01
 5.33525E+00    2.04635E+01
 5.34037E+00    2.05563E+01
 5.44789E+00    2.25036E+01
 5.47349E+00    2.29673E+01
 5.48578E+00    2.31899E+01
 5.50000E+00    2.34474E+01
 6.00000E+00    3.32090E+01
 6.50000E+00    4.28958E+01
 7.00000E+00    5.37933E+01
 7.50000E+00    6.60956E+01
 8.00000E+00    7.93810E+01
 8.50000E+00    9.12764E+01
 9.00000E+00    9.92919E+01
 9.50000E+00    1.05688E+02
 1.00000E+01    1.18546E+02
 1.10000E+01    1.79131E+02
 1.20000E+01    2.57329E+02
 1.30000E+01    2.86564E+02
 1.40000E+01    2.95423E+02
 1.45000E+01    2.92736E+02
 1.50000E+01    2.96117E+02
 1.60000E+01    2.95610E+02
 1.70000E+01    2.94430E+02
 1.80000E+01    2.92510E+02
 1.90000E+01    2.90950E+02
 2.00000E+01    2.89400E+02
