# n + Ca 42 : (n,xp)    
# jendl4.0   K.Shibata                         EVAL-JUN06
# 
# # energies =    68
#   E(MeV)        xs(mb) 
 1.56135E+00    0.00000E+00
 1.88147E+00    0.00000E+00
 2.00000E+00    0.00000E+00
 2.48248E+00    0.00000E+00
 2.50000E+00    0.00000E+00
 2.81857E+00    0.00000E+00
 3.00000E+00    0.00000E+00
 3.26597E+00    1.32022E-03
 3.33212E+00    1.64859E-03
 3.37933E+00    1.88292E-03
 3.47354E+00    2.35057E-03
 3.50000E+00    2.48190E-03
 3.52986E+00    2.18704E-02
 3.74184E+00    1.59491E-01
 3.97839E+00    3.13069E-01
 4.00000E+00    3.27096E-01
 4.04946E+00    5.95490E-01
 4.09585E+00    8.47209E-01
 4.14429E+00    1.11004E+00
 4.19825E+00    1.40288E+00
 4.21597E+00    1.49901E+00
 4.33373E+00    2.13803E+00
 4.45867E+00    2.81595E+00
 4.50000E+00    3.04023E+00
 4.52421E+00    3.38209E+00
 4.54981E+00    3.74366E+00
 4.55902E+00    3.87381E+00
 4.61330E+00    4.64031E+00
 4.67679E+00    5.53697E+00
 4.80285E+00    7.31728E+00
 4.82835E+00    7.67739E+00
 4.87412E+00    8.32384E+00
 4.98298E+00    9.86119E+00
 5.00000E+00    1.01016E+01
 5.01370E+00    1.04461E+01
 5.02189E+00    1.06521E+01
 5.06592E+00    1.17596E+01
 5.09050E+00    1.23776E+01
 5.13771E+00    1.35649E+01
 5.19700E+00    1.50560E+01
 5.28200E+00    1.71936E+01
 5.31272E+00    1.79662E+01
 5.33525E+00    1.85328E+01
 5.34037E+00    1.86615E+01
 5.44789E+00    2.13657E+01
 5.47349E+00    2.20095E+01
 5.48578E+00    2.23186E+01
 5.50000E+00    2.26762E+01
 6.00000E+00    4.16200E+01
 6.50000E+00    6.61200E+01
 7.00000E+00    9.29500E+01
 7.50000E+00    1.18300E+02
 8.00000E+00    1.40700E+02
 8.50000E+00    1.59800E+02
 9.00000E+00    1.75500E+02
 9.50000E+00    1.88400E+02
 1.00000E+01    1.97900E+02
 1.10000E+01    2.11011E+02
 1.20000E+01    2.18737E+02
 1.30000E+01    2.32821E+02
 1.40000E+01    2.44808E+02
 1.45000E+01    2.50189E+02
 1.50000E+01    2.56618E+02
 1.60000E+01    2.72334E+02
 1.70000E+01    2.90010E+02
 1.80000E+01    3.04800E+02
 1.90000E+01    3.15280E+02
 2.00000E+01    3.20360E+02
