# n + Ca 42 : (n,tot)   
# jendl4.0   K.Shibata                         EVAL-JUN06
# uncertainties: n
# # energies =   171
#   E(MeV)       xs(mb) 
 1.00000E-11    1.02456E+04
 1.00000E-07    1.46980E+03
 4.13990E-07    1.38133E+03
 5.31580E-07    1.36246E+03
 6.82560E-07    1.34583E+03
 8.76420E-07    1.33117E+03
 1.12540E-06    1.31838E+03
 1.44500E-06    1.30735E+03
 1.85540E-06    1.29715E+03
 2.37240E-06    1.28870E+03
 3.05900E-06    1.28019E+03
 3.92790E-06    1.27350E+03
 5.04350E-06    1.26670E+03
 6.47600E-06    1.26155E+03
 8.31530E-06    1.25566E+03
 1.06770E-05    1.25159E+03
 1.37100E-05    1.24691E+03
 1.76030E-05    1.24241E+03
 2.26030E-05    1.23898E+03
 2.92030E-05    1.23464E+03
 3.72670E-05    1.23002E+03
 4.78510E-05    1.22627E+03
 6.14420E-05    1.22155E+03
 7.88930E-05    1.21550E+03
 1.01300E-04    1.20890E+03
 1.30070E-04    1.20196E+03
 1.67020E-04    1.19305E+03
 2.14450E-04    1.18161E+03
 2.75360E-04    1.16806E+03
 3.53580E-04    1.15253E+03
 4.54000E-04    1.13261E+03
 5.82950E-04    1.10915E+03
 7.48520E-04    1.08130E+03
 9.61120E-04    1.04883E+03
 1.23410E-03    1.01107E+03
 1.58460E-03    9.68713E+02
 2.03470E-03    9.36570E+02
 2.24870E-03    9.16799E+02
 2.48520E-03    9.02258E+02
 2.61260E-03    8.91954E+02
 2.74650E-03    8.75986E+02
 3.03540E-03    8.55146E+02
 3.35460E-03    8.33055E+02
 3.70740E-03    8.05354E+02
 4.30740E-03    7.58978E+02
 5.53080E-03    6.96417E+02
 7.10170E-03    6.08843E+02
 9.11880E-03    1.40505E+03
 1.17090E-02    5.20886E+02
 1.50340E-02    4.18749E+02
 1.93050E-02    2.94926E+02
 2.18750E-02    2.44050E+03
 2.35790E-02    3.70691E+02
 2.41760E-02    3.08880E+02
 2.47880E-02    2.41770E+02
 2.60580E-02    7.33926E+02
 2.70000E-02    1.67587E+02
 2.85000E-02    6.46844E+01
 3.18280E-02    8.27669E+01
 3.43070E-02    1.56384E+04
 4.08680E-02    2.08625E+03
 4.63090E-02    1.40678E+03
 5.24750E-02    7.51369E+02
 5.65620E-02    9.72859E+02
 6.73790E-02    4.54509E+02
 7.20000E-02    2.99390E+02
 7.95000E-02    1.79002E+02
 8.25000E-02    3.42413E+02
 8.65170E-02    7.03747E+01
 9.80370E-02    4.28024E+02
 1.11090E-01    3.82007E+03
 1.16790E-01    2.74376E+04
 1.22770E-01    3.12638E+04
 1.29070E-01    2.13270E+04
 1.35690E-01    1.00231E+04
 1.42640E-01    6.24182E+03
 1.49960E-01    4.16712E+03
 1.57640E-01    3.02581E+03
 1.65730E-01    1.73418E+03
 1.74220E-01    9.42548E+03
 1.83160E-01    4.25163E+03
 1.92550E-01    2.96533E+03
 2.02420E-01    2.92808E+03
 2.12800E-01    5.42352E+03
 2.23710E-01    2.83277E+03
 2.35180E-01    2.19299E+03
 2.47240E-01    2.37949E+03
 2.73240E-01    5.29949E+03
 2.87250E-01    2.84367E+03
 2.94520E-01    2.51416E+03
 2.97200E-01    2.42873E+03
 2.98500E-01    2.76414E+03
 3.01970E-01    3.03515E+03
 3.33730E-01    2.98414E+03
 3.68830E-01    2.94258E+03
 3.87740E-01    2.91345E+03
 4.07620E-01    2.88703E+03
 4.50490E-01    2.85573E+03
 4.97870E-01    2.83354E+03
 5.23400E-01    2.82646E+03
 5.50230E-01    2.81931E+03
 5.78440E-01    2.81214E+03
 6.08100E-01    2.81152E+03
 6.39280E-01    2.81359E+03
 6.72060E-01    2.81576E+03
 7.06510E-01    2.82011E+03
 7.42740E-01    2.82958E+03
 7.80820E-01    2.83974E+03
 8.20850E-01    2.85221E+03
 8.62940E-01    2.86892E+03
 9.07180E-01    2.88814E+03
 9.61640E-01    2.90981E+03
 1.00260E+00    2.94640E+03
 1.10800E+00    2.98787E+03
 1.16480E+00    3.01817E+03
 1.22460E+00    3.05005E+03
 1.28730E+00    3.08357E+03
 1.35340E+00    3.11881E+03
 1.42270E+00    3.15585E+03
 1.49570E+00    3.19441E+03
 1.57240E+00    3.23082E+03
 1.65300E+00    3.26802E+03
 1.73770E+00    3.30712E+03
 1.82680E+00    3.34825E+03
 1.92050E+00    3.39147E+03
 2.01900E+00    3.42575E+03
 2.12250E+00    3.45240E+03
 2.23130E+00    3.47561E+03
 2.30690E+00    3.49001E+03
 2.34570E+00    3.49735E+03
 2.36530E+00    3.50231E+03
 2.38520E+00    3.51490E+03
 2.46600E+00    3.53667E+03
 2.59240E+00    3.54650E+03
 2.72530E+00    3.55467E+03
 2.86500E+00    3.56320E+03
 3.01190E+00    3.55952E+03
 3.16640E+00    3.54614E+03
 3.32870E+00    3.52215E+03
 3.67880E+00    3.46552E+03
 4.06570E+00    3.39231E+03
 4.49330E+00    3.32675E+03
 4.72370E+00    3.27999E+03
 4.96590E+00    3.23084E+03
 5.22050E+00    3.17918E+03
 5.48810E+00    3.12510E+03
 5.76950E+00    3.07345E+03
 6.06530E+00    3.02126E+03
 6.37630E+00    2.97626E+03
 6.59240E+00    2.95110E+03
 6.70320E+00    2.91758E+03
 7.04690E+00    2.86530E+03
 7.40820E+00    2.81034E+03
 7.78800E+00    2.75257E+03
 8.18730E+00    2.69218E+03
 8.60710E+00    2.63007E+03
 9.04840E+00    2.56491E+03
 9.51230E+00    2.49641E+03
 1.00000E+01    2.42768E+03
 1.05130E+01    2.35883E+03
 1.10520E+01    2.29274E+03
 1.16180E+01    2.22863E+03
 1.22140E+01    2.17238E+03
 1.28400E+01    2.12097E+03
 1.34990E+01    2.08887E+03
 1.38400E+01    2.06795E+03
 1.41910E+01    2.05103E+03
 1.45500E+01    2.03660E+03
 1.49180E+01    2.01992E+03
 1.56830E+01    2.00307E+03
 1.64870E+01    1.99458E+03
