# n + B   0 : (n,xt)
# jendl4.0   T.FUKAHORI                        EVAL-MAY88
#
# # energies =   123
#   E(MeV)          xs(mb) 
 2.31970E+00    6.74242E+00
 2.31980E+00    6.74273E+00
 2.31990E+00    6.74305E+00
 2.32000E+00    6.74337E+00
 2.34000E+00    6.80672E+00
 2.36000E+00    6.87007E+00
 2.38000E+00    6.92438E+00
 2.40000E+00    6.96764E+00
 2.42000E+00    7.06819E+00
 2.44000E+00    7.16874E+00
 2.46000E+00    7.26929E+00
 2.48000E+00    7.36983E+00
 2.50000E+00    7.47038E+00
 2.52000E+00    7.57093E+00
 2.54000E+00    7.67148E+00
 2.56000E+00    7.77203E+00
 2.58000E+00    7.87258E+00
 2.60000E+00    7.97312E+00
 2.62000E+00    8.11802E+00
 2.64000E+00    8.26291E+00
 2.67000E+00    8.48025E+00
 2.70000E+00    8.69759E+00
 2.73300E+00    8.93666E+00
 2.76700E+00    9.18298E+00
 2.80000E+00    9.42205E+00
 2.83300E+00    9.68236E+00
 2.86700E+00    9.95056E+00
 2.90000E+00    1.02109E+01
 2.93300E+00    1.04712E+01
 2.96700E+00    1.07394E+01
 3.00000E+00    1.09997E+01
 3.03300E+00    1.12858E+01
 3.06700E+00    1.15806E+01
 3.10000E+00    1.18667E+01
 3.13300E+00    1.21528E+01
 3.16700E+00    1.24476E+01
 3.20000E+00    1.27337E+01
 3.23300E+00    1.30574E+01
 3.26700E+00    1.33910E+01
 3.30000E+00    1.37148E+01
 3.33300E+00    1.40386E+01
 3.36700E+00    1.43722E+01
 3.40000E+00    1.46960E+01
 3.43300E+00    1.50668E+01
 3.46700E+00    1.54489E+01
 3.50000E+00    1.58197E+01
 3.53300E+00    1.61905E+01
 3.56700E+00    1.65726E+01
 3.60000E+00    1.69434E+01
 3.63300E+00    1.73789E+01
 3.66700E+00    1.78276E+01
 3.70000E+00    1.82631E+01
 3.75000E+00    1.89229E+01
 3.80000E+00    1.95828E+01
 3.85000E+00    2.03453E+01
 3.90000E+00    2.11079E+01
 3.95000E+00    2.18719E+01
 4.00000E+00    2.26758E+01
 4.00000E+00    2.26758E+01
 4.05000E+00    2.35813E+01
 4.10000E+00    2.44869E+01
 4.15000E+00    2.53924E+01
 4.20000E+00    2.62980E+01
 4.25000E+00    2.73373E+01
 4.30000E+00    2.83766E+01
 4.35000E+00    2.94159E+01
 4.40000E+00    3.04552E+01
 4.45000E+00    3.13640E+01
 4.50000E+00    3.22729E+01
 4.55000E+00    3.31818E+01
 4.60000E+00    3.40907E+01
 4.65000E+00    3.47888E+01
 4.70000E+00    3.54868E+01
 4.75000E+00    3.61849E+01
 4.80000E+00    3.68830E+01
 4.85000E+00    3.74350E+01
 4.85225E+00    3.74598E+01
 4.90000E+00    3.79869E+01
 4.95000E+00    3.84478E+01
 5.00000E+00    3.89088E+01
 5.05000E+00    3.92426E+01
 5.10000E+00    3.95764E+01
 5.15000E+00    3.99103E+01
 5.20000E+00    4.02441E+01
 5.25000E+00    4.04410E+01
 5.30000E+00    4.05504E+01
 5.47990E+00    4.09097E+01
 5.47993E+00    4.09097E+01
 5.50000E+00    4.09498E+01
 5.60994E+00    4.11380E+01
 5.73996E+00    4.09216E+01
 6.00000E+00    4.01720E+01
 6.50000E+00    3.73192E+01
 7.00000E+00    3.38669E+01
 7.36079E+00    3.15653E+01
 7.36080E+00    3.15653E+01
 7.41428E+00    3.12385E+01
 7.41430E+00    3.12384E+01
 7.70714E+00    2.95322E+01
 7.70715E+00    2.95322E+01
 7.85966E+00    2.87342E+01
 8.00000E+00    2.80000E+01
 8.00000E+00    2.80000E+01
 9.00000E+00    2.38428E+01
 1.00000E+01    2.10918E+01
 1.00320E+01    2.10421E+01
 1.02740E+01    2.06670E+01
 1.05160E+01    2.03031E+01
 1.10000E+01    1.96203E+01
 1.15710E+01    2.12320E+01
 1.15712E+01    2.12325E+01
 1.20000E+01    2.24428E+01
 1.30000E+01    2.68622E+01
 1.40000E+01    3.13407E+01
 1.50000E+01    3.57979E+01
 1.57000E+01    3.90316E+01
 1.60000E+01    4.03622E+01
 1.63000E+01    4.15262E+01
 1.70000E+01    4.37839E+01
 1.80000E+01    4.70078E+01
 1.90000E+01    4.73865E+01
 1.90000E+01    4.73865E+01
 2.00000E+01    4.66348E+01
