# n + B   0 : (n,n'01)
# jendl4.0   T.FUKAHORI                        EVAL-MAY88
# uncertainties: n
# # energies =   105
#   E(MeV)          xs(mb) 
 2.31970E+00    1.16113E+01
 2.31980E+00    1.16491E+01
 2.31990E+00    1.16869E+01
 2.32000E+00    1.17247E+01
 2.34000E+00    1.16668E+01
 2.36000E+00    1.15759E+01
 2.38000E+00    1.14850E+01
 2.40000E+00    1.14062E+01
 2.42000E+00    1.13940E+01
 2.44000E+00    1.14263E+01
 2.46000E+00    1.15425E+01
 2.48000E+00    1.18340E+01
 2.50000E+00    1.25455E+01
 2.52000E+00    1.44669E+01
 2.54000E+00    2.04986E+01
 2.56000E+00    3.36430E+01
 2.58000E+00    2.85203E+01
 2.60000E+00    2.02698E+01
 2.62000E+00    1.69173E+01
 2.64000E+00    1.55087E+01
 2.67000E+00    1.47469E+01
 2.70000E+00    1.46684E+01
 2.73300E+00    1.49677E+01
 2.76700E+00    1.55302E+01
 2.80000E+00    1.62315E+01
 2.83300E+00    1.70614E+01
 2.86700E+00    1.79138E+01
 2.90000E+00    1.86611E+01
 2.93300E+00    1.92664E+01
 2.96700E+00    1.97066E+01
 3.00000E+00    1.99590E+01
 3.03300E+00    2.01150E+01
 3.06700E+00    2.01920E+01
 3.10000E+00    2.02509E+01
 3.13300E+00    2.03612E+01
 3.16700E+00    2.05994E+01
 3.20000E+00    2.10217E+01
 3.23300E+00    2.17425E+01
 3.26700E+00    2.28712E+01
 3.30000E+00    2.44790E+01
 3.33300E+00    2.67677E+01
 3.36700E+00    3.00723E+01
 3.40000E+00    3.44309E+01
 3.43300E+00    4.00257E+01
 3.46700E+00    4.65968E+01
 3.50000E+00    5.23110E+01
 3.53300E+00    5.52166E+01
 3.56700E+00    5.40172E+01
 3.60000E+00    4.97906E+01
 3.63300E+00    4.45962E+01
 3.66700E+00    3.97396E+01
 3.70000E+00    3.60859E+01
 3.75000E+00    3.26392E+01
 3.80000E+00    3.13820E+01
 3.85000E+00    3.19853E+01
 3.90000E+00    3.40419E+01
 3.95000E+00    3.65973E+01
 4.00000E+00    3.79321E+01
 4.00000E+00    3.79321E+01
 4.05000E+00    4.05513E+01
 4.10000E+00    4.27800E+01
 4.15000E+00    4.56543E+01
 4.20000E+00    4.94028E+01
 4.25000E+00    5.42264E+01
 4.30000E+00    6.03091E+01
 4.35000E+00    6.78723E+01
 4.40000E+00    7.71270E+01
 4.45000E+00    8.81985E+01
 4.50000E+00    1.00904E+02
 4.55000E+00    1.14547E+02
 4.60000E+00    1.27686E+02
 4.65000E+00    1.38389E+02
 4.70000E+00    1.45099E+02
 4.75000E+00    1.47445E+02
 4.80000E+00    1.46391E+02
 4.85000E+00    1.43518E+02
 4.90000E+00    1.40452E+02
 4.95000E+00    1.38613E+02
 5.00000E+00    1.39132E+02
 5.05000E+00    1.42778E+02
 5.10000E+00    1.49472E+02
 5.15000E+00    1.57538E+02
 5.20000E+00    1.63189E+02
 5.25000E+00    1.62125E+02
 5.30000E+00    1.52415E+02
 5.50000E+00    1.40066E+02
 6.00000E+00    1.27724E+02
 7.00000E+00    1.03551E+02
 8.00000E+00    8.59406E+01
 8.00000E+00    8.59406E+01
 9.00000E+00    7.75456E+01
 1.00000E+01    6.91507E+01
 1.00320E+01    6.88333E+01
 1.10000E+01    5.83965E+01
 1.15712E+01    5.31518E+01
 1.20000E+01    4.90115E+01
 1.30000E+01    3.99141E+01
 1.40000E+01    3.16541E+01
 1.50000E+01    2.46796E+01
 1.60000E+01    1.83848E+01
 1.70000E+01    1.41021E+01
 1.80000E+01    1.06594E+01
 1.90000E+01    9.28096E+00
 1.90000E+01    9.28096E+00
 2.00000E+01    8.21567E+00
