# n + B   0 : (n,xa)
# jendl4.0   T.FUKAHORI                        EVAL-MAY88
#
# # energies =   123
#   E(MeV)          xs(mb) 
 2.31970E+00    7.13014E+01
 2.31980E+00    7.12927E+01
 2.31990E+00    7.12841E+01
 2.32000E+00    7.12754E+01
 2.34000E+00    6.95468E+01
 2.36000E+00    6.78181E+01
 2.38000E+00    6.63524E+01
 2.40000E+00    6.52081E+01
 2.42000E+00    6.55417E+01
 2.44000E+00    6.58753E+01
 2.46000E+00    6.62089E+01
 2.48000E+00    6.65424E+01
 2.50000E+00    6.68760E+01
 2.52000E+00    6.72096E+01
 2.54000E+00    6.75431E+01
 2.56000E+00    6.78767E+01
 2.58000E+00    6.82103E+01
 2.60000E+00    6.85438E+01
 2.62000E+00    6.91566E+01
 2.64000E+00    6.97693E+01
 2.67000E+00    7.06884E+01
 2.70000E+00    7.16075E+01
 2.73300E+00    7.26185E+01
 2.76700E+00    7.36601E+01
 2.80000E+00    7.46712E+01
 2.83300E+00    7.42331E+01
 2.86700E+00    7.37818E+01
 2.90000E+00    7.33438E+01
 2.93300E+00    7.29057E+01
 2.96700E+00    7.24544E+01
 3.00000E+00    7.20164E+01
 3.03300E+00    7.10753E+01
 3.06700E+00    7.01057E+01
 3.10000E+00    6.91647E+01
 3.13300E+00    6.82236E+01
 3.16700E+00    6.72540E+01
 3.20000E+00    6.63130E+01
 3.23300E+00    6.66793E+01
 3.26700E+00    6.70567E+01
 3.30000E+00    6.74231E+01
 3.33300E+00    6.77894E+01
 3.36700E+00    6.81668E+01
 3.40000E+00    6.85332E+01
 3.43300E+00    6.90651E+01
 3.46700E+00    6.96132E+01
 3.50000E+00    7.01452E+01
 3.53300E+00    7.06771E+01
 3.56700E+00    7.12252E+01
 3.60000E+00    7.17572E+01
 3.63300E+00    7.30677E+01
 3.66700E+00    7.44180E+01
 3.70000E+00    7.57286E+01
 3.75000E+00    7.77143E+01
 3.80000E+00    7.97000E+01
 3.85000E+00    8.27076E+01
 3.90000E+00    8.57153E+01
 3.95000E+00    8.87073E+01
 4.00000E+00    9.12570E+01
 4.00000E+00    9.12570E+01
 4.05000E+00    9.31111E+01
 4.10000E+00    9.49651E+01
 4.15000E+00    9.68191E+01
 4.20000E+00    9.86731E+01
 4.25000E+00    9.97377E+01
 4.30000E+00    1.00802E+02
 4.35000E+00    1.01867E+02
 4.40000E+00    1.02931E+02
 4.45000E+00    1.03005E+02
 4.50000E+00    1.03079E+02
 4.55000E+00    1.03153E+02
 4.60000E+00    1.03226E+02
 4.65000E+00    1.03157E+02
 4.70000E+00    1.03088E+02
 4.75000E+00    1.03019E+02
 4.80000E+00    1.02950E+02
 4.85000E+00    1.03158E+02
 4.85225E+00    1.03167E+02
 4.90000E+00    1.03365E+02
 4.95000E+00    1.03678E+02
 5.00000E+00    1.03991E+02
 5.05000E+00    1.04250E+02
 5.10000E+00    1.04509E+02
 5.15000E+00    1.04768E+02
 5.20000E+00    1.05027E+02
 5.25000E+00    1.04957E+02
 5.30000E+00    1.04677E+02
 5.47990E+00    1.03588E+02
 5.47993E+00    1.03588E+02
 5.50000E+00    1.03466E+02
 5.60994E+00    1.02816E+02
 5.73996E+00    1.01974E+02
 6.00000E+00    9.91008E+01
 6.50000E+00    9.32395E+01
 7.00000E+00    8.10363E+01
 7.36079E+00    7.44105E+01
 7.36080E+00    7.44104E+01
 7.41428E+00    7.34814E+01
 7.41430E+00    7.34810E+01
 7.70714E+00    6.91518E+01
 7.70715E+00    6.91517E+01
 7.85966E+00    6.72058E+01
 8.00000E+00    6.54153E+01
 8.00000E+00    6.54153E+01
 9.00000E+00    6.25046E+01
 1.00000E+01    6.46998E+01
 1.00320E+01    6.49479E+01
 1.02740E+01    6.68244E+01
 1.05160E+01    6.87009E+01
 1.10000E+01    7.24537E+01
 1.15710E+01    8.65954E+01
 1.15712E+01    8.66004E+01
 1.20000E+01    9.72202E+01
 1.30000E+01    1.29947E+02
 1.40000E+01    1.82147E+02
 1.50000E+01    2.58526E+02
 1.57000E+01    3.27016E+02
 1.60000E+01    3.54474E+02
 1.63000E+01    3.78377E+02
 1.70000E+01    4.27001E+02
 1.80000E+01    5.28037E+02
 1.90000E+01    6.03442E+02
 1.90000E+01    6.03442E+02
 2.00000E+01    6.55176E+02
