# n + Ru106 : (n,tot)   
# jendl4.0   JNDC FP NUCLEAR DATA W.G.         EVAL-MAR90
# uncertainties: n
# # energies =   171
#   E(MeV)       xs(mb) 
 1.00000E-11    1.07734E+04
 1.00000E-07    5.40266E+03
 4.13990E-07    5.37811E+03
 5.31580E-07    5.37110E+03
 6.82560E-07    5.36427E+03
 8.76420E-07    5.35763E+03
 1.12540E-06    5.35088E+03
 1.44500E-06    5.34527E+03
 1.85540E-06    5.34090E+03
 2.37240E-06    5.33525E+03
 3.05900E-06    5.32792E+03
 3.92790E-06    5.32226E+03
 5.04350E-06    5.32211E+03
 6.47600E-06    5.32208E+03
 8.31530E-06    5.32203E+03
 1.06770E-05    5.32196E+03
 1.37100E-05    5.32188E+03
 1.76030E-05    5.32178E+03
 2.26030E-05    5.32165E+03
 2.92030E-05    5.32148E+03
 3.72670E-05    5.32126E+03
 4.78510E-05    5.32098E+03
 6.14420E-05    5.32062E+03
 7.88930E-05    5.32016E+03
 1.01300E-04    5.31956E+03
 1.30070E-04    5.31880E+03
 1.67020E-04    5.31782E+03
 2.14450E-04    5.31657E+03
 2.75360E-04    5.31495E+03
 3.53580E-04    5.31288E+03
 4.54000E-04    9.28552E+03
 5.82950E-04    1.10397E+04
 7.48520E-04    1.02419E+04
 9.61120E-04    9.53920E+03
 1.23410E-03    8.92958E+03
 1.58460E-03    8.42956E+03
 2.03470E-03    8.10126E+03
 2.24870E-03    7.93378E+03
 2.48520E-03    7.80938E+03
 2.61260E-03    7.74395E+03
 2.74650E-03    7.63967E+03
 3.03540E-03    7.51924E+03
 3.35460E-03    7.40676E+03
 3.70740E-03    7.25841E+03
 4.30740E-03    7.07296E+03
 5.53080E-03    6.88722E+03
 7.10170E-03    6.75882E+03
 9.11880E-03    6.67943E+03
 1.17090E-02    6.64386E+03
 1.50340E-02    6.65421E+03
 1.93050E-02    6.68900E+03
 2.18750E-02    6.72425E+03
 2.35790E-02    6.74357E+03
 2.41760E-02    6.75364E+03
 2.47880E-02    6.76916E+03
 2.60580E-02    6.78740E+03
 2.70000E-02    6.80742E+03
 2.85000E-02    6.84656E+03
 3.18280E-02    6.89357E+03
 3.43070E-02    6.96856E+03
 4.08680E-02    7.06856E+03
 4.63090E-02    7.15970E+03
 5.24750E-02    7.23587E+03
 5.65620E-02    7.33808E+03
 6.73790E-02    7.44040E+03
 7.20000E-02    7.51165E+03
 7.95000E-02    7.57129E+03
 8.25000E-02    7.60481E+03
 8.65170E-02    7.67799E+03
 9.80370E-02    7.75407E+03
 1.11090E-01    7.76103E+03
 1.16790E-01    7.76445E+03
 1.22770E-01    7.76769E+03
 1.29070E-01    7.77079E+03
 1.35690E-01    7.77404E+03
 1.42640E-01    7.77746E+03
 1.49960E-01    7.77666E+03
 1.57640E-01    7.77125E+03
 1.65730E-01    7.76556E+03
 1.74220E-01    7.76008E+03
 1.83160E-01    7.75464E+03
 1.92550E-01    7.74868E+03
 2.02420E-01    7.73678E+03
 2.12800E-01    7.72195E+03
 2.23710E-01    7.70636E+03
 2.35180E-01    7.68997E+03
 2.47240E-01    7.66368E+03
 2.73240E-01    7.63544E+03
 2.87250E-01    7.61741E+03
 2.94520E-01    7.60790E+03
 2.97200E-01    7.60411E+03
 2.98500E-01    7.59957E+03
 3.01970E-01    7.56457E+03
 3.33730E-01    7.49325E+03
 3.68830E-01    7.43490E+03
 3.87740E-01    7.40002E+03
 4.07620E-01    7.35357E+03
 4.50490E-01    7.28580E+03
 4.97870E-01    7.22416E+03
 5.23400E-01    7.17754E+03
 5.50230E-01    7.12863E+03
 5.78440E-01    7.07720E+03
 6.08100E-01    7.02314E+03
 6.39280E-01    6.96768E+03
 6.72060E-01    6.91407E+03
 7.06510E-01    6.85809E+03
 7.42740E-01    6.79924E+03
 7.80820E-01    6.73737E+03
 8.20850E-01    6.67234E+03
 8.62940E-01    6.60396E+03
 9.07180E-01    6.52590E+03
 9.61640E-01    6.45084E+03
 1.00260E+00    6.34606E+03
 1.10800E+00    6.22873E+03
 1.16480E+00    6.14507E+03
 1.22460E+00    6.05845E+03
 1.28730E+00    5.97126E+03
 1.35340E+00    5.87986E+03
 1.42270E+00    5.78729E+03
 1.49570E+00    5.69568E+03
 1.57240E+00    5.59950E+03
 1.65300E+00    5.49903E+03
 1.73770E+00    5.40007E+03
 1.82680E+00    5.29783E+03
 1.92050E+00    5.19142E+03
 2.01900E+00    5.08575E+03
 2.12250E+00    4.97566E+03
 2.23130E+00    4.88470E+03
 2.30690E+00    4.83391E+03
 2.34570E+00    4.80803E+03
 2.36530E+00    4.79055E+03
 2.38520E+00    4.74617E+03
 2.46600E+00    4.65961E+03
 2.59240E+00    4.56136E+03
 2.72530E+00    4.46070E+03
 2.86500E+00    4.36684E+03
 3.01190E+00    4.28477E+03
 3.16640E+00    4.21760E+03
 3.32870E+00    4.11567E+03
 3.67880E+00    3.98498E+03
 4.06570E+00    3.91256E+03
 4.49330E+00    3.88062E+03
 4.72370E+00    3.85786E+03
 4.96590E+00    3.84423E+03
 5.22050E+00    3.84726E+03
 5.48810E+00    3.85071E+03
 5.76950E+00    3.85438E+03
 6.06530E+00    3.86711E+03
 6.37630E+00    3.88380E+03
 6.59240E+00    3.89414E+03
 6.70320E+00    3.90841E+03
 7.04690E+00    3.93588E+03
 7.40820E+00    3.97389E+03
 7.78800E+00    4.01422E+03
 8.18730E+00    4.06555E+03
 8.60710E+00    4.12417E+03
 9.04840E+00    4.18741E+03
 9.51230E+00    4.25860E+03
 1.00000E+01    4.32709E+03
 1.05130E+01    4.39119E+03
 1.10520E+01    4.45612E+03
 1.16180E+01    4.51785E+03
 1.22140E+01    4.53251E+03
 1.28400E+01    4.53336E+03
 1.34990E+01    4.53400E+03
 1.38400E+01    4.53159E+03
 1.41910E+01    4.51454E+03
 1.45500E+01    4.49548E+03
 1.49180E+01    4.46452E+03
 1.56830E+01    4.42096E+03
 1.64870E+01    4.38192E+03
