# n + Cd  0 : (n,tot)   
# irdff2.0   IRMM/ENDF/B-VII.1(isotopic)       EVAL-2010 
# uncertainties: n
# # energies =   171
#   E(MeV)       xs(mb) 
 1.00000E-11    2.03899E+07
 1.00000E-07    3.82618E+06
 4.13990E-07    1.88671E+05
 5.31580E-07    8.28537E+04
 6.82560E-07    4.05916E+04
 8.76420E-07    2.22074E+04
 1.12540E-06    1.37154E+04
 1.44500E-06    9.60422E+03
 1.85540E-06    7.54410E+03
 2.37240E-06    6.45655E+03
 3.05900E-06    5.85915E+03
 3.92790E-06    5.61622E+03
 5.04350E-06    5.31567E+03
 6.47600E-06    5.22200E+03
 8.31530E-06    5.07288E+03
 1.06770E-05    4.99278E+03
 1.37100E-05    4.93541E+03
 1.76030E-05    5.72936E+03
 2.26030E-05    1.47491E+04
 2.92030E-05    4.91120E+03
 3.72670E-05    4.68439E+03
 4.78510E-05    4.68695E+03
 6.14420E-05    1.33972E+04
 7.88930E-05    5.61076E+04
 1.01300E-04    2.68224E+04
 1.30070E-04    1.05895E+04
 1.67020E-04    7.40640E+03
 2.14450E-04    1.25986E+04
 2.75360E-04    5.79814E+03
 3.53580E-04    3.77163E+04
 4.54000E-04    6.94620E+03
 5.82950E-04    1.25600E+04
 7.48520E-04    1.36920E+04
 9.61120E-04    9.88098E+03
 1.23410E-03    1.34137E+04
 1.58460E-03    8.14582E+03
 2.03470E-03    1.25425E+04
 2.24870E-03    9.63444E+03
 2.48520E-03    1.08251E+04
 2.61260E-03    1.62132E+04
 2.74650E-03    7.37114E+03
 3.03540E-03    1.28963E+04
 3.35460E-03    7.58736E+03
 3.70740E-03    8.47094E+03
 4.30740E-03    7.80884E+03
 5.53080E-03    8.11552E+03
 7.10170E-03    7.89416E+03
 9.11880E-03    7.96007E+03
 1.17090E-02    7.67119E+03
 1.50340E-02    7.57450E+03
 1.93050E-02    7.52538E+03
 2.18750E-02    7.50765E+03
 2.35790E-02    7.50090E+03
 2.41760E-02    7.49806E+03
 2.47880E-02    7.49439E+03
 2.60580E-02    7.49112E+03
 2.70000E-02    7.48855E+03
 2.85000E-02    7.48666E+03
 3.18280E-02    7.48787E+03
 3.43070E-02    7.49604E+03
 4.08680E-02    7.51319E+03
 4.63090E-02    7.53374E+03
 5.24750E-02    7.55348E+03
 5.65620E-02    7.58213E+03
 6.73790E-02    7.61244E+03
 7.20000E-02    7.63465E+03
 7.95000E-02    7.65342E+03
 8.25000E-02    7.66522E+03
 8.65170E-02    7.68954E+03
 9.80370E-02    7.58459E+03
 1.11090E-01    7.57577E+03
 1.16790E-01    7.58599E+03
 1.22770E-01    7.59674E+03
 1.29070E-01    7.60804E+03
 1.35690E-01    7.61953E+03
 1.42640E-01    7.63060E+03
 1.49960E-01    7.64205E+03
 1.57640E-01    7.64952E+03
 1.65730E-01    7.65409E+03
 1.74220E-01    7.65879E+03
 1.83160E-01    7.66377E+03
 1.92550E-01    7.66878E+03
 2.02420E-01    7.66730E+03
 2.12800E-01    7.66110E+03
 2.23710E-01    7.65420E+03
 2.35180E-01    7.64695E+03
 2.47240E-01    7.63532E+03
 2.73240E-01    7.62289E+03
 2.87250E-01    7.61630E+03
 2.94520E-01    7.61323E+03
 2.97200E-01    7.61200E+03
 2.98500E-01    7.61043E+03
 3.01970E-01    7.59685E+03
 3.33730E-01    7.57065E+03
 3.68830E-01    7.54893E+03
 3.87740E-01    7.53334E+03
 4.07620E-01    7.50558E+03
 4.50490E-01    7.45736E+03
 4.97870E-01    7.41703E+03
 5.23400E-01    7.38830E+03
 5.50230E-01    7.35810E+03
 5.78440E-01    7.32622E+03
 6.08100E-01    7.29139E+03
 6.39280E-01    7.24867E+03
 6.72060E-01    7.20291E+03
 7.06510E-01    7.15480E+03
 7.42740E-01    7.10421E+03
 7.80820E-01    7.05126E+03
 8.20850E-01    6.99600E+03
 8.62940E-01    6.93791E+03
 9.07180E-01    6.87160E+03
 9.61640E-01    6.80724E+03
 1.00260E+00    6.70986E+03
 1.10800E+00    6.60178E+03
 1.16480E+00    6.52563E+03
 1.22460E+00    6.44900E+03
 1.28730E+00    6.36895E+03
 1.35340E+00    6.28493E+03
 1.42270E+00    6.19724E+03
 1.49570E+00    6.10421E+03
 1.57240E+00    6.00448E+03
 1.65300E+00    5.89956E+03
 1.73770E+00    5.78926E+03
 1.82680E+00    5.67412E+03
 1.92050E+00    5.55458E+03
 2.01900E+00    5.43551E+03
 2.12250E+00    5.31349E+03
 2.23130E+00    5.20836E+03
 2.30690E+00    5.14423E+03
 2.34570E+00    5.11174E+03
 2.36530E+00    5.08980E+03
 2.38520E+00    5.03414E+03
 2.46600E+00    4.92620E+03
 2.59240E+00    4.81017E+03
 2.72530E+00    4.69252E+03
 2.86500E+00    4.57124E+03
 3.01190E+00    4.46892E+03
 3.16640E+00    4.38098E+03
 3.32870E+00    4.25298E+03
 3.67880E+00    4.12589E+03
 4.06570E+00    4.05275E+03
 4.49330E+00    4.02844E+03
 4.72370E+00    4.02886E+03
 4.96590E+00    4.03424E+03
 5.22050E+00    4.05203E+03
 5.48810E+00    4.07221E+03
 5.76950E+00    4.09454E+03
 6.06530E+00    4.12908E+03
 6.37630E+00    4.16660E+03
 6.59240E+00    4.19012E+03
 6.70320E+00    4.22254E+03
 7.04690E+00    4.26845E+03
 7.40820E+00    4.31072E+03
 7.78800E+00    4.35514E+03
 8.18730E+00    4.40281E+03
 8.60710E+00    4.45419E+03
 9.04840E+00    4.49870E+03
 9.51230E+00    4.53566E+03
 1.00000E+01    4.56275E+03
 1.05130E+01    4.57702E+03
 1.10520E+01    4.59089E+03
 1.16180E+01    4.60099E+03
 1.22140E+01    4.57412E+03
 1.28400E+01    4.53411E+03
 1.34990E+01    4.50204E+03
 1.38400E+01    4.47895E+03
 1.41910E+01    4.45179E+03
 1.45500E+01    4.42333E+03
 1.49180E+01    4.37705E+03
 1.56830E+01    4.30927E+03
 1.64870E+01    4.23346E+03
