# n + Cd  0 : (n,el)    
# irdff2.0   IRMM/ENDF/B-VII.1(isotopic)       EVAL-2010 
# uncertainties: n
# # energies =   171
#   E(MeV)       xs(mb) 
 1.00000E-11    1.18334E+04
 1.00000E-07    2.62921E+04
 4.13990E-07    8.23799E+03
 5.31580E-07    6.92279E+03
 6.82560E-07    6.23722E+03
 8.76420E-07    5.84158E+03
 1.12540E-06    5.59495E+03
 1.44500E-06    5.43043E+03
 1.85540E-06    5.31457E+03
 2.37240E-06    5.22843E+03
 3.05900E-06    5.15955E+03
 3.92790E-06    5.10201E+03
 5.04350E-06    5.05003E+03
 6.47600E-06    5.00211E+03
 8.31530E-06    4.95574E+03
 1.06770E-05    4.90693E+03
 1.37100E-05    4.84967E+03
 1.76030E-05    4.79861E+03
 2.26030E-05    5.07885E+03
 2.92030E-05    4.78444E+03
 3.72670E-05    4.64707E+03
 4.78510E-05    4.47093E+03
 6.14420E-05    5.31307E+03
 7.88930E-05    3.50613E+04
 1.01300E-04    1.61916E+04
 1.30070E-04    6.51129E+03
 1.67020E-04    6.36573E+03
 2.14450E-04    7.01501E+03
 2.75360E-04    5.03219E+03
 3.53580E-04    3.36917E+04
 4.54000E-04    5.72497E+03
 5.82950E-04    1.08688E+04
 7.48520E-04    1.16664E+04
 9.61120E-04    8.74689E+03
 1.23410E-03    1.21385E+04
 1.58460E-03    7.08654E+03
 2.03470E-03    1.17041E+04
 2.24870E-03    8.82144E+03
 2.48520E-03    9.80988E+03
 2.61260E-03    1.50887E+04
 2.74650E-03    6.52077E+03
 3.03540E-03    1.17647E+04
 3.35460E-03    6.91092E+03
 3.70740E-03    7.73252E+03
 4.30740E-03    7.06189E+03
 5.53080E-03    7.37265E+03
 7.10170E-03    7.27477E+03
 9.11880E-03    7.38573E+03
 1.17090E-02    7.11394E+03
 1.50340E-02    7.08230E+03
 1.93050E-02    7.07997E+03
 2.18750E-02    7.08569E+03
 2.35790E-02    7.09035E+03
 2.41760E-02    7.09329E+03
 2.47880E-02    7.09803E+03
 2.60580E-02    7.10398E+03
 2.70000E-02    7.11114E+03
 2.85000E-02    7.12660E+03
 3.18280E-02    7.14694E+03
 3.43070E-02    7.18002E+03
 4.08680E-02    7.22524E+03
 4.63090E-02    7.26733E+03
 5.24750E-02    7.30277E+03
 5.65620E-02    7.34944E+03
 6.73790E-02    7.39593E+03
 7.20000E-02    7.42825E+03
 7.95000E-02    7.45497E+03
 8.25000E-02    7.47151E+03
 8.65170E-02    7.50512E+03
 9.80370E-02    7.40714E+03
 1.11090E-01    7.40259E+03
 1.16790E-01    7.41583E+03
 1.22770E-01    7.42969E+03
 1.29070E-01    7.44332E+03
 1.35690E-01    7.45720E+03
 1.42640E-01    7.47176E+03
 1.49960E-01    7.48667E+03
 1.57640E-01    7.49578E+03
 1.65730E-01    7.50274E+03
 1.74220E-01    7.51006E+03
 1.83160E-01    7.51776E+03
 1.92550E-01    7.52546E+03
 2.02420E-01    7.52393E+03
 2.12800E-01    7.51814E+03
 2.23710E-01    7.51206E+03
 2.35180E-01    7.50567E+03
 2.47240E-01    7.49124E+03
 2.73240E-01    7.47349E+03
 2.87250E-01    7.46408E+03
 2.94520E-01    7.45967E+03
 2.97200E-01    7.45786E+03
 2.98500E-01    7.45562E+03
 3.01970E-01    7.42804E+03
 3.33730E-01    7.37296E+03
 3.68830E-01    7.32473E+03
 3.87740E-01    7.28995E+03
 4.07620E-01    7.23310E+03
 4.50490E-01    7.15206E+03
 4.97870E-01    7.09475E+03
 5.23400E-01    7.04624E+03
 5.50230E-01    6.98000E+03
 5.78440E-01    6.84975E+03
 6.08100E-01    6.74575E+03
 6.39280E-01    6.62699E+03
 6.72060E-01    6.47543E+03
 7.06510E-01    6.30348E+03
 7.42740E-01    6.12159E+03
 7.80820E-01    5.94176E+03
 8.20850E-01    5.82223E+03
 8.62940E-01    5.70952E+03
 9.07180E-01    5.58160E+03
 9.61640E-01    5.45901E+03
 1.00260E+00    5.30669E+03
 1.10800E+00    5.14953E+03
 1.16480E+00    5.02999E+03
 1.22460E+00    4.93180E+03
 1.28730E+00    4.80534E+03
 1.35340E+00    4.62143E+03
 1.42270E+00    4.48802E+03
 1.49570E+00    4.33391E+03
 1.57240E+00    4.15834E+03
 1.65300E+00    4.01914E+03
 1.73770E+00    3.86999E+03
 1.82680E+00    3.74029E+03
 1.92050E+00    3.58322E+03
 2.01900E+00    3.44575E+03
 2.12250E+00    3.33818E+03
 2.23130E+00    3.23520E+03
 2.30690E+00    3.16773E+03
 2.34570E+00    3.13190E+03
 2.36530E+00    3.10775E+03
 2.38520E+00    3.04363E+03
 2.46600E+00    2.92248E+03
 2.59240E+00    2.79857E+03
 2.72530E+00    2.67113E+03
 2.86500E+00    2.53785E+03
 3.01190E+00    2.42174E+03
 3.16640E+00    2.31769E+03
 3.32870E+00    2.16254E+03
 3.67880E+00    2.00853E+03
 4.06570E+00    1.91209E+03
 4.49330E+00    1.87449E+03
 4.72370E+00    1.87165E+03
 4.96590E+00    1.88362E+03
 5.22050E+00    1.91956E+03
 5.48810E+00    1.95891E+03
 5.76950E+00    2.00188E+03
 6.06530E+00    2.06574E+03
 6.37630E+00    2.12899E+03
 6.59240E+00    2.16832E+03
 6.70320E+00    2.22250E+03
 7.04690E+00    2.30897E+03
 7.40820E+00    2.38996E+03
 7.78800E+00    2.46033E+03
 8.18730E+00    2.53179E+03
 8.60710E+00    2.60626E+03
 9.04840E+00    2.66455E+03
 9.51230E+00    2.71486E+03
 1.00000E+01    2.74660E+03
 1.05130E+01    2.75766E+03
 1.10520E+01    2.76915E+03
 1.16180E+01    2.77676E+03
 1.22140E+01    2.74036E+03
 1.28400E+01    2.68865E+03
 1.34990E+01    2.64814E+03
 1.38400E+01    2.61828E+03
 1.41910E+01    2.57805E+03
 1.45500E+01    2.53578E+03
 1.49180E+01    2.46869E+03
 1.56830E+01    2.37194E+03
 1.64870E+01    2.26361E+03
