# n + Zr 94 : (n,g)     
# jendl.ad   A.Ichihara, S.Kunieda, K.Shibata+ EVAL-AUG13
# uncertainties: n
# # energies =    69
#   E(MeV)       xs(mb) 
 1.00000E-10    3.53840E+02
 5.00000E-09    9.63462E+01
 1.00000E-08    7.29794E+01
 1.50000E-08    6.13256E+01
 2.00000E-08    5.39525E+01
 2.50000E-08    4.87414E+01
 3.00000E-08    4.48090E+01
 3.50000E-08    4.11994E+01
 4.20000E-08    3.76794E+01
 5.00000E-08    3.47523E+01
 5.80000E-08    3.23020E+01
 6.70000E-08    2.98134E+01
 8.00000E-08    2.69749E+01
 1.00000E-07    2.34663E+01
 1.40000E-07    2.02510E+01
 1.80000E-07    1.80793E+01
 2.20000E-07    1.66478E+01
 2.50000E-07    1.56753E+01
 2.80000E-07    1.49772E+01
 3.00000E-07    1.44843E+01
 3.20000E-07    1.39360E+01
 3.50000E-07    1.31795E+01
 4.00000E-07    1.20573E+01
 5.00000E-07    1.07862E+01
 6.25000E-07    9.64810E+00
 7.80000E-07    8.92829E+00
 8.50000E-07    8.58950E+00
 9.10000E-07    8.35300E+00
 9.50000E-07    8.21642E+00
 9.72000E-07    8.12084E+00
 9.96000E-07    8.02558E+00
 1.02000E-06    7.93052E+00
 1.04500E-06    7.83347E+00
 1.07100E-06    7.73735E+00
 1.09700E-06    7.64634E+00
 1.12300E-06    7.55743E+00
 1.15000E-06    7.28553E+00
 1.30000E-06    6.81627E+00
 1.50000E-06    6.04976E+00
 2.10000E-06    5.26702E+00
 2.60000E-06    4.70110E+00
 3.30000E-06    4.21661E+00
 4.00000E-06    3.22252E+00
 9.87700E-06    2.24993E+00
 1.59680E-05    1.72352E+00
 2.77000E-05    1.28654E+00
 4.80520E-05    9.75054E-01
 7.55014E-05    7.03579E-01
 1.48728E-04    4.24409E-01
 3.67262E-04    2.20713E-01
 9.06898E-04    1.56039E-01
 1.42510E-03    1.00586E+02
 2.23945E-03    6.87527E+01
 3.51910E-03    4.88050E+01
 5.53000E-03    1.28486E+02
 9.11800E-03    5.72527E+01
 1.50300E-02    4.87959E+01
 2.47800E-02    1.48785E+01
 4.08500E-02    1.71572E+01
 6.73400E-02    1.30247E+01
 1.11000E-01    1.09302E+01
 1.83000E-01    9.98651E+00
 3.02000E-01    9.42774E+00
 5.00000E-01    9.57633E+00
 8.21000E-01    6.45415E+00
 1.35300E+00    3.48489E+00
 2.23100E+00    2.19203E+00
 3.67900E+00    1.20124E+00
 6.06500E+00    3.28533E-01
