# n + Pd  0 : (n,xa)
# jendl4.0   N.Iwamoto,K.Shibata               EVAL-Dec09
#
# # energies =   113
#   E(MeV)          xs(mb) 
 1.05000E-01    1.90004E-03
 1.10000E-01    1.87452E-03
 1.20000E-01    1.83181E-03
 1.30000E-01    1.79767E-03
 1.40000E-01    1.77203E-03
 1.50000E-01    1.75237E-03
 1.60000E-01    1.73690E-03
 1.70000E-01    1.72779E-03
 1.80000E-01    1.72129E-03
 1.90000E-01    1.71910E-03
 2.00000E-01    1.72194E-03
 2.25000E-01    1.74125E-03
 2.50000E-01    1.77439E-03
 2.75000E-01    1.81887E-03
 3.00000E-01    1.80623E-03
 4.00000E-01    1.54186E-03
 5.00000E-01    1.44298E-03
 5.16726E-01    1.43738E-03
 6.00000E-01    1.37504E-03
 7.00000E-01    1.38081E-03
 8.00000E-01    1.38105E-03
 9.00000E-01    1.45434E-03
 1.00000E+00    1.54215E-03
 1.10000E+00    1.63373E-03
 1.13875E+00    1.67092E-03
 1.14457E+00    1.67725E-03
 1.20000E+00    1.74810E-03
 1.24096E+00    1.82716E-03
 1.30000E+00    1.93930E-03
 1.40000E+00    2.18130E-03
 1.50000E+00    2.49247E-03
 1.57249E+00    2.73689E-03
 1.57713E+00    2.75135E-03
 1.60000E+00    2.82264E-03
 1.70000E+00    3.20997E-03
 1.72264E+00    3.31562E-03
 1.80000E+00    3.67254E-03
 1.90000E+00    4.22812E-03
 1.92245E+00    4.37566E-03
 1.92764E+00    4.40978E-03
 1.95068E+00    4.55758E-03
 2.00000E+00    4.85809E-03
 2.02055E+00    5.01662E-03
 2.09606E+00    5.60094E-03
 2.09607E+00    5.60102E-03
 2.09641E+00    5.60362E-03
 2.10371E+00    5.65959E-03
 2.25000E+00    6.83411E-03
 2.26385E+00    6.97838E-03
 2.29981E+00    7.33903E-03
 2.30468E+00    7.38758E-03
 2.32752E+00    7.61678E-03
 2.33080E+00    7.65004E-03
 2.37320E+00    8.07869E-03
 2.38849E+00    8.23483E-03
 2.42033E+00    8.55869E-03
 2.42034E+00    8.55879E-03
 2.42427E+00    8.59770E-03
 2.46233E+00    8.97722E-03
 2.49625E+00    9.32881E-03
 2.50000E+00    9.36762E-03
 2.50832E+00    9.45065E-03
 2.51876E+00    9.55343E-03
 2.52381E+00    9.60547E-03
 2.52412E+00    9.60867E-03
 2.60298E+00    1.04213E-02
 2.60457E+00    1.04364E-02
 2.61588E+00    1.05439E-02
 2.64940E+00    1.08653E-02
 2.65189E+00    1.08896E-02
 2.67413E+00    1.11069E-02
 2.72507E+00    1.16101E-02
 2.73107E+00    1.16697E-02
 2.73783E+00    1.17367E-02
 2.73944E+00    1.17527E-02
 2.73945E+00    1.17528E-02
 2.74344E+00    1.17924E-02
 2.75000E+00    1.18570E-02
 3.00000E+00    1.56136E-02
 3.50000E+00    2.64946E-02
 4.00000E+00    4.38515E-02
 4.50000E+00    7.03599E-02
 5.00000E+00    1.08826E-01
 5.50000E+00    1.61109E-01
 6.00000E+00    2.27033E-01
 6.50000E+00    3.07663E-01
 7.00000E+00    3.98775E-01
 7.50000E+00    5.00038E-01
 8.00000E+00    6.05879E-01
 8.50000E+00    7.22291E-01
 9.00000E+00    8.49951E-01
 9.50000E+00    9.95500E-01
 1.00000E+01    1.16456E+00
 1.05000E+01    1.38637E+00
 1.10000E+01    1.65166E+00
 1.15000E+01    1.95842E+00
 1.20000E+01    2.33444E+00
 1.25000E+01    2.79163E+00
 1.30000E+01    3.34205E+00
 1.35000E+01    3.99210E+00
 1.40000E+01    4.74501E+00
 1.45000E+01    5.59993E+00
 1.50000E+01    6.55596E+00
 1.55000E+01    7.59894E+00
 1.60000E+01    8.70723E+00
 1.65000E+01    9.84951E+00
 1.70000E+01    1.10598E+01
 1.75000E+01    1.22835E+01
 1.80000E+01    1.35558E+01
 1.85000E+01    1.48511E+01
 1.90000E+01    1.61635E+01
 1.95000E+01    1.74899E+01
 2.00000E+01    1.88484E+01
