# n + Pd  0 : (n,xp)
# jendl4.0   N.Iwamoto,K.Shibata               EVAL-Dec09
#
# # energies =   113
#   E(MeV)          xs(mb) 
 1.05000E-01    0.00000E+00
 1.10000E-01    0.00000E+00
 1.20000E-01    0.00000E+00
 1.30000E-01    0.00000E+00
 1.40000E-01    0.00000E+00
 1.50000E-01    0.00000E+00
 1.60000E-01    0.00000E+00
 1.70000E-01    0.00000E+00
 1.80000E-01    9.08590E-14
 1.90000E-01    1.10718E-12
 2.00000E-01    2.12351E-12
 2.25000E-01    4.66431E-12
 2.50000E-01    9.39988E-12
 2.75000E-01    2.58242E-11
 3.00000E-01    4.77092E-11
 4.00000E-01    1.72634E-10
 5.00000E-01    4.07889E-10
 5.16726E-01    4.60416E-10
 6.00000E-01    7.48801E-10
 7.00000E-01    1.24723E-09
 8.00000E-01    2.49778E-09
 9.00000E-01    6.04297E-09
 1.00000E+00    1.96112E-08
 1.10000E+00    6.42593E-08
 1.13875E+00    9.99812E-08
 1.14457E+00    1.06902E-07
 1.20000E+00    1.96589E-07
 1.24096E+00    3.41824E-07
 1.30000E+00    5.51167E-07
 1.40000E+00    1.39977E-06
 1.50000E+00    3.25262E-06
 1.57249E+00    5.92172E-06
 1.57713E+00    6.09270E-06
 1.60000E+00    6.93546E-06
 1.70000E+00    1.39151E-05
 1.72264E+00    1.67611E-05
 1.80000E+00    2.65152E-05
 1.90000E+00    4.83272E-05
 1.92245E+00    5.64608E-05
 1.92764E+00    5.83411E-05
 1.95068E+00    6.67066E-05
 2.00000E+00    8.47077E-05
 2.02055E+00    1.01714E-04
 2.09606E+00    1.64207E-04
 2.09607E+00    1.64215E-04
 2.09641E+00    1.64497E-04
 2.10371E+00    1.70539E-04
 2.25000E+00    2.95076E-04
 2.26385E+00    3.25454E-04
 2.29981E+00    4.04785E-04
 2.30468E+00    4.15544E-04
 2.32752E+00    4.66256E-04
 2.33080E+00    4.73628E-04
 2.37320E+00    5.69172E-04
 2.38849E+00    6.04077E-04
 2.42033E+00    6.77005E-04
 2.42034E+00    6.77028E-04
 2.42427E+00    6.86170E-04
 2.46233E+00    7.75058E-04
 2.49625E+00    8.55719E-04
 2.50000E+00    8.64680E-04
 2.50832E+00    9.02761E-04
 2.51876E+00    9.50738E-04
 2.52381E+00    9.74140E-04
 2.52412E+00    9.75578E-04
 2.60298E+00    1.34385E-03
 2.60457E+00    1.35132E-03
 2.61588E+00    1.40465E-03
 2.64940E+00    1.56404E-03
 2.65189E+00    1.57600E-03
 2.67413E+00    1.68289E-03
 2.72507E+00    1.93204E-03
 2.73107E+00    1.96239E-03
 2.73783E+00    1.99659E-03
 2.73944E+00    2.00473E-03
 2.73945E+00    2.00478E-03
 2.74344E+00    2.02494E-03
 2.75000E+00    2.05738E-03
 3.00000E+00    4.46177E-03
 3.50000E+00    1.58960E-02
 4.00000E+00    4.27843E-02
 4.50000E+00    9.38242E-02
 5.00000E+00    1.77374E-01
 5.50000E+00    3.02623E-01
 6.00000E+00    4.77959E-01
 6.50000E+00    7.10750E-01
 7.00000E+00    9.90783E-01
 7.50000E+00    1.34931E+00
 8.00000E+00    1.78252E+00
 8.50000E+00    2.30232E+00
 9.00000E+00    2.92012E+00
 9.50000E+00    3.68535E+00
 1.00000E+01    4.62587E+00
 1.05000E+01    5.78472E+00
 1.10000E+01    7.20213E+00
 1.15000E+01    8.91141E+00
 1.20000E+01    1.09213E+01
 1.25000E+01    1.32524E+01
 1.30000E+01    1.59148E+01
 1.35000E+01    1.89128E+01
 1.40000E+01    2.22688E+01
 1.45000E+01    2.59678E+01
 1.50000E+01    3.00495E+01
 1.55000E+01    3.44424E+01
 1.60000E+01    3.91348E+01
 1.65000E+01    4.39999E+01
 1.70000E+01    4.91677E+01
 1.75000E+01    5.44633E+01
 1.80000E+01    6.00270E+01
 1.85000E+01    6.56966E+01
 1.90000E+01    7.16472E+01
 1.95000E+01    7.77022E+01
 2.00000E+01    8.40226E+01
