# n + Pd  0 : (n,n'01)
# jendl4.0   N.Iwamoto,K.Shibata               EVAL-Dec09
# uncertainties: n
# # energies =    93
#   E(MeV)          xs(mb) 
 5.61206E-01    2.77113E+02
 6.00000E-01    3.75894E+02
 7.00000E-01    5.20599E+02
 8.00000E-01    5.99918E+02
 9.00000E-01    6.39381E+02
 1.00000E+00    6.50128E+02
 1.10000E+00    6.47005E+02
 1.20000E+00    6.17801E+02
 1.30000E+00    5.79906E+02
 1.33644E+00    5.71915E+02
 1.34654E+00    5.69106E+02
 1.35470E+00    5.65993E+02
 1.40000E+00    5.43113E+02
 1.50000E+00    5.09613E+02
 1.60000E+00    4.77012E+02
 1.70000E+00    4.47545E+02
 1.80000E+00    4.28306E+02
 1.81026E+00    4.27107E+02
 1.81172E+00    4.26894E+02
 1.83832E+00    4.22488E+02
 1.90000E+00    4.11871E+02
 1.96004E+00    4.01164E+02
 1.96691E+00    3.99610E+02
 2.00000E+00    3.92864E+02
 2.01851E+00    3.88525E+02
 2.09010E+00    3.70640E+02
 2.10260E+00    3.67302E+02
 2.12342E+00    3.62224E+02
 2.14613E+00    3.56698E+02
 2.15946E+00    3.53389E+02
 2.19965E+00    3.44608E+02
 2.20274E+00    3.43922E+02
 2.21328E+00    3.41595E+02
 2.21469E+00    3.41269E+02
 2.24963E+00    3.33477E+02
 2.25000E+00    3.33390E+02
 2.26669E+00    3.30438E+02
 2.27134E+00    3.29504E+02
 2.28730E+00    3.26459E+02
 2.29860E+00    3.24366E+02
 2.31223E+00    3.21810E+02
 2.32122E+00    3.20199E+02
 2.36060E+00    3.13270E+02
 2.37443E+00    3.10913E+02
 2.46823E+00    2.96768E+02
 2.48045E+00    2.95061E+02
 2.48893E+00    2.93861E+02
 2.50000E+00    2.92260E+02
 2.50306E+00    2.91771E+02
 2.51559E+00    2.89700E+02
 2.51619E+00    2.89601E+02
 2.54588E+00    2.84424E+02
 2.55799E+00    2.82317E+02
 2.59525E+00    2.76078E+02
 2.59747E+00    2.75711E+02
 2.63877E+00    2.69835E+02
 2.64766E+00    2.68625E+02
 2.75000E+00    2.56389E+02
 3.00000E+00    2.35487E+02
 3.50000E+00    2.05966E+02
 4.00000E+00    1.89544E+02
 4.50000E+00    1.81717E+02
 5.00000E+00    1.78103E+02
 5.50000E+00    1.75943E+02
 6.00000E+00    1.73321E+02
 6.50000E+00    1.69268E+02
 7.00000E+00    1.63734E+02
 7.50000E+00    1.57179E+02
 8.00000E+00    1.50186E+02
 8.50000E+00    1.43276E+02
 9.00000E+00    1.36805E+02
 9.50000E+00    1.30948E+02
 1.00000E+01    1.25742E+02
 1.05000E+01    1.21385E+02
 1.10000E+01    1.17031E+02
 1.15000E+01    1.13450E+02
 1.20000E+01    1.09870E+02
 1.25000E+01    1.06725E+02
 1.30000E+01    1.03580E+02
 1.35000E+01    1.00757E+02
 1.40000E+01    9.79341E+01
 1.45000E+01    9.54578E+01
 1.50000E+01    9.29818E+01
 1.55000E+01    9.08823E+01
 1.60000E+01    8.87829E+01
 1.65000E+01    8.70217E+01
 1.70000E+01    8.52607E+01
 1.75000E+01    8.37580E+01
 1.80000E+01    8.22555E+01
 1.85000E+01    8.09455E+01
 1.90000E+01    7.96355E+01
 1.95000E+01    7.84853E+01
 2.00000E+01    7.73355E+01
