# n + Pd  0 : (n,xn)
# jendl4.0   N.Iwamoto,K.Shibata               EVAL-Dec09
#
# # energies =   113
#   E(MeV)          xs(mb) 
 1.05000E-01    0.00000E+00
 1.10000E-01    2.16538E-03
 1.20000E-01    2.70664E-03
 1.30000E-01    2.95712E-03
 1.40000E-01    3.08444E-03
 1.50000E-01    3.15328E-03
 1.60000E-01    3.18573E-03
 1.70000E-01    3.20829E-03
 1.80000E-01    3.22154E-03
 1.90000E-01    3.22735E-03
 2.00000E-01    3.23427E-03
 2.25000E-01    1.85616E-02
 2.50000E-01    2.13200E-02
 2.75000E-01    2.25299E-02
 3.00000E-01    9.07185E+00
 4.00000E-01    1.84508E+02
 5.00000E-01    4.14893E+02
 5.16726E-01    4.45682E+02
 6.00000E-01    7.05257E+02
 7.00000E-01    8.98377E+02
 8.00000E-01    1.01737E+03
 9.00000E-01    1.10915E+03
 1.00000E+00    1.20178E+03
 1.10000E+00    1.29529E+03
 1.13875E+00    1.32609E+03
 1.14457E+00    1.33706E+03
 1.20000E+00    1.42220E+03
 1.24096E+00    1.47050E+03
 1.30000E+00    1.53862E+03
 1.40000E+00    1.65167E+03
 1.50000E+00    1.75530E+03
 1.57249E+00    1.80532E+03
 1.57713E+00    1.81006E+03
 1.60000E+00    1.83389E+03
 1.70000E+00    1.90543E+03
 1.72264E+00    1.91808E+03
 1.80000E+00    1.96134E+03
 1.90000E+00    2.01600E+03
 1.92245E+00    2.02757E+03
 1.92764E+00    2.03049E+03
 1.95068E+00    2.04568E+03
 2.00000E+00    2.07689E+03
 2.02055E+00    2.08360E+03
 2.09606E+00    2.11287E+03
 2.09607E+00    2.11288E+03
 2.09641E+00    2.11302E+03
 2.10371E+00    2.11603E+03
 2.25000E+00    2.17239E+03
 2.26385E+00    2.17697E+03
 2.29981E+00    2.18996E+03
 2.30468E+00    2.19188E+03
 2.32752E+00    2.20016E+03
 2.33080E+00    2.20134E+03
 2.37320E+00    2.21626E+03
 2.38849E+00    2.22114E+03
 2.42033E+00    2.23127E+03
 2.42034E+00    2.23127E+03
 2.42427E+00    2.23253E+03
 2.46233E+00    2.24453E+03
 2.49625E+00    2.25482E+03
 2.50000E+00    2.25604E+03
 2.50832E+00    2.25684E+03
 2.51876E+00    2.25799E+03
 2.52381E+00    2.25860E+03
 2.52412E+00    2.25868E+03
 2.60298E+00    2.26805E+03
 2.60457E+00    2.26819E+03
 2.61588E+00    2.26910E+03
 2.64940E+00    2.27168E+03
 2.65189E+00    2.27188E+03
 2.67413E+00    2.27334E+03
 2.72507E+00    2.27595E+03
 2.73107E+00    2.27622E+03
 2.73783E+00    2.27657E+03
 2.73944E+00    2.27665E+03
 2.73945E+00    2.27665E+03
 2.74344E+00    2.27686E+03
 2.75000E+00    2.27721E+03
 3.00000E+00    2.29087E+03
 3.50000E+00    2.28313E+03
 4.00000E+00    2.28119E+03
 4.50000E+00    2.28542E+03
 5.00000E+00    2.28882E+03
 5.50000E+00    2.28239E+03
 6.00000E+00    2.26281E+03
 6.50000E+00    2.23440E+03
 7.00000E+00    2.20234E+03
 7.50000E+00    2.17402E+03
 8.00000E+00    2.16545E+03
 8.50000E+00    2.17604E+03
 9.00000E+00    2.20026E+03
 9.50000E+00    2.27277E+03
 1.00000E+01    2.46305E+03
 1.05000E+01    2.71355E+03
 1.10000E+01    2.94341E+03
 1.15000E+01    3.12554E+03
 1.20000E+01    3.25861E+03
 1.25000E+01    3.35026E+03
 1.30000E+01    3.41220E+03
 1.35000E+01    3.45133E+03
 1.40000E+01    3.47697E+03
 1.45000E+01    3.48904E+03
 1.50000E+01    3.49628E+03
 1.55000E+01    3.49383E+03
 1.60000E+01    3.49175E+03
 1.65000E+01    3.48580E+03
 1.70000E+01    3.48704E+03
 1.75000E+01    3.49097E+03
 1.80000E+01    3.50911E+03
 1.85000E+01    3.53732E+03
 1.90000E+01    3.58487E+03
 1.95000E+01    3.64257E+03
 2.00000E+01    3.71091E+03
