# n + Po208 : (n,el)    
# jeff3.3    A.J. Koning and D. Rochman        EVAL-DEC15
# uncertainties: y
# # energies =    69
#   E(MeV)       xs(mb)       xslow(mb)      xsupp(mb)
 1.00000E-10    9.00161E+03    9.00161E+03    9.00161E+03
 5.00000E-09    7.90136E+03    7.90136E+03    7.90136E+03
 1.00000E-08    7.87158E+03    7.87158E+03    7.87158E+03
 1.50000E-08    7.85996E+03    7.85996E+03    7.85996E+03
 2.00000E-08    7.85325E+03    7.85325E+03    7.85325E+03
 2.50000E-08    7.84955E+03    7.84955E+03    7.84955E+03
 3.00000E-08    7.84715E+03    7.84715E+03    7.84715E+03
 3.50000E-08    7.84441E+03    7.84441E+03    7.84441E+03
 4.20000E-08    7.84260E+03    7.84260E+03    7.84260E+03
 5.00000E-08    7.84124E+03    7.84124E+03    7.84124E+03
 5.80000E-08    7.83981E+03    7.83981E+03    7.83981E+03
 6.70000E-08    7.83828E+03    7.83828E+03    7.83828E+03
 8.00000E-08    7.83749E+03    7.83749E+03    7.83749E+03
 1.00000E-07    7.83628E+03    7.83628E+03    7.83628E+03
 1.40000E-07    7.83469E+03    7.83469E+03    7.83469E+03
 1.80000E-07    7.83416E+03    7.83416E+03    7.83416E+03
 2.20000E-07    7.83398E+03    7.83398E+03    7.83398E+03
 2.50000E-07    7.83383E+03    7.83383E+03    7.83383E+03
 2.80000E-07    7.83370E+03    7.83370E+03    7.83370E+03
 3.00000E-07    7.83360E+03    7.83360E+03    7.83360E+03
 3.20000E-07    7.83347E+03    7.83347E+03    7.83347E+03
 3.50000E-07    7.83327E+03    7.83327E+03    7.83327E+03
 4.00000E-07    7.83289E+03    7.83289E+03    7.83289E+03
 5.00000E-07    7.83232E+03    7.83232E+03    7.83232E+03
 6.25000E-07    7.83165E+03    7.83165E+03    7.83165E+03
 7.80000E-07    7.83140E+03    7.83140E+03    7.83140E+03
 8.50000E-07    7.83132E+03    7.83132E+03    7.83132E+03
 9.10000E-07    7.83126E+03    7.83126E+03    7.83126E+03
 9.50000E-07    7.83122E+03    7.83122E+03    7.83122E+03
 9.72000E-07    7.83120E+03    7.83120E+03    7.83120E+03
 9.96000E-07    7.83117E+03    7.83117E+03    7.83117E+03
 1.02000E-06    7.83114E+03    7.83114E+03    7.83114E+03
 1.04500E-06    7.83111E+03    7.83111E+03    7.83111E+03
 1.07100E-06    7.83108E+03    7.83108E+03    7.83108E+03
 1.09700E-06    7.83105E+03    7.83105E+03    7.83105E+03
 1.12300E-06    7.83102E+03    7.83102E+03    7.83102E+03
 1.15000E-06    7.83092E+03    7.83092E+03    7.83092E+03
 1.30000E-06    7.83071E+03    7.83071E+03    7.83071E+03
 1.50000E-06    7.83026E+03    7.83026E+03    7.83026E+03
 2.10000E-06    7.82961E+03    7.82961E+03    7.82961E+03
 2.60000E-06    7.82891E+03    7.82891E+03    7.82891E+03
 3.30000E-06    7.82808E+03    7.82808E+03    7.82808E+03
 4.00000E-06    7.82473E+03    7.82473E+03    7.82473E+03
 9.87700E-06    7.81748E+03    7.81748E+03    7.81748E+03
 1.59680E-05    7.80738E+03    7.80738E+03    7.80738E+03
 2.77000E-05    7.78902E+03    7.78902E+03    7.78902E+03
 4.80520E-05    7.76111E+03    7.76111E+03    7.76111E+03
 7.55014E-05    7.70569E+03    7.70569E+03    7.70569E+03
 1.48728E-04    7.53824E+03    7.53824E+03    7.53824E+03
 3.67262E-04    7.41834E+03    7.41834E+03    7.41834E+03
 9.06898E-04    7.83152E+03    7.83152E+03    7.83152E+03
 1.42510E-03    1.26640E+04    1.26640E+04    1.26640E+04
 2.23945E-03    1.10383E+04    1.10383E+04    1.10383E+04
 3.51910E-03    8.14092E+03    8.14092E+03    8.14092E+03
 5.53000E-03    1.47016E+04    1.47016E+04    1.47016E+04
 9.11800E-03    1.44198E+04    6.08479E+03    2.27547E+04
 1.50300E-02    1.36854E+04    5.77492E+03    2.15959E+04
 2.47800E-02    1.29893E+04    5.48117E+03    2.04974E+04
 4.08500E-02    1.22752E+04    6.96473E+03    1.75857E+04
 6.73400E-02    1.14182E+04    6.47848E+03    1.63579E+04
 1.11000E-01    1.03747E+04    5.88640E+03    1.48629E+04
 1.83000E-01    9.00800E+03    5.11098E+03    1.29050E+04
 3.02000E-01    7.36889E+03    3.66319E+03    1.10746E+04
 5.00000E-01    5.65187E+03    2.80963E+03    8.49411E+03
 8.21000E-01    4.21743E+03    2.46526E+03    5.96960E+03
 1.35300E+00    4.04684E+03    3.05907E+03    5.03461E+03
 2.23100E+00    4.88613E+03    4.26939E+03    5.50288E+03
 3.67900E+00    4.61607E+03    4.09600E+03    5.13615E+03
 6.06500E+00    3.07153E+03    2.53616E+03    3.60690E+03
