# n + Po208 : (n,xp)    
# jeff3.3    A.J. Koning and D. Rochman        EVAL-DEC15
# 
# # energies =   128
#   E(MeV)        xs(mb) 
 6.89856E-01    5.81492E-06
 7.00000E-01    6.12190E-06
 8.00000E-01    9.14813E-06
 9.00000E-01    1.58279E-05
 1.00000E+00    2.90096E-05
 1.20000E+00    9.65651E-05
 1.26916E+00    1.36881E-04
 1.27777E+00    1.41900E-04
 1.35309E+00    1.85807E-04
 1.40000E+00    2.13152E-04
 1.42709E+00    2.33969E-04
 1.53156E+00    3.14246E-04
 1.53563E+00    3.17373E-04
 1.54646E+00    3.25696E-04
 1.59089E+00    3.59837E-04
 1.60000E+00    3.66837E-04
 1.80000E+00    6.90615E-04
 2.00000E+00    1.69061E-03
 2.00514E+00    1.73244E-03
 2.05113E+00    2.10669E-03
 2.15985E+00    2.99142E-03
 2.17057E+00    3.07866E-03
 2.20000E+00    3.31815E-03
 2.25159E+00    3.96699E-03
 2.29168E+00    4.47121E-03
 2.30471E+00    4.63508E-03
 2.34667E+00    5.16281E-03
 2.38071E+00    5.59093E-03
 2.40000E+00    5.83354E-03
 2.42626E+00    6.65110E-03
 2.51944E+00    9.55210E-03
 2.53864E+00    1.01499E-02
 2.56691E+00    1.10300E-02
 2.56829E+00    1.10730E-02
 2.58711E+00    1.16589E-02
 2.60000E+00    1.20602E-02
 2.71614E+00    1.64865E-02
 2.80000E+00    1.96825E-02
 2.81370E+00    2.07677E-02
 2.89823E+00    2.74633E-02
 2.94087E+00    3.08407E-02
 3.00000E+00    3.55244E-02
 3.12804E+00    5.15413E-02
 3.15998E+00    5.55367E-02
 3.20000E+00    6.05429E-02
 3.40000E+00    8.94892E-02
 3.60000E+00    1.36581E-01
 3.80000E+00    1.79744E-01
 4.00000E+00    2.36610E-01
 4.20000E+00    3.01800E-01
 4.40000E+00    3.62268E-01
 4.60000E+00    4.41915E-01
 4.80000E+00    5.09192E-01
 5.00000E+00    5.80140E-01
 5.20000E+00    6.51088E-01
 5.40000E+00    7.06861E-01
 5.60000E+00    7.68187E-01
 5.80000E+00    8.16647E-01
 6.00000E+00    8.61728E-01
 6.20000E+00    9.03533E-01
 6.40000E+00    9.37083E-01
 6.60000E+00    9.72644E-01
 6.80000E+00    1.00038E+00
 7.00000E+00    1.02811E+00
 7.20000E+00    1.05258E+00
 7.40000E+00    1.08396E+00
 7.60000E+00    1.13251E+00
 7.80000E+00    1.17032E+00
 8.00000E+00    1.22426E+00
 8.50000E+00    1.42570E+00
 9.00000E+00    1.73917E+00
 9.50000E+00    2.18790E+00
 1.00000E+01    2.77435E+00
 1.05000E+01    3.50798E+00
 1.10000E+01    4.43063E+00
 1.15000E+01    5.56028E+00
 1.20000E+01    6.91592E+00
 1.25000E+01    8.50506E+00
 1.30000E+01    1.03221E+01
 1.35000E+01    1.23456E+01
 1.40000E+01    1.45805E+01
 1.45000E+01    1.69355E+01
 1.50000E+01    1.94245E+01
 1.60000E+01    2.46928E+01
 1.70000E+01    3.10460E+01
 1.80000E+01    3.71846E+01
 1.90000E+01    4.39393E+01
 2.00000E+01    5.15104E+01
 2.10000E+01    5.93625E+01
 2.20000E+01    6.77036E+01
 2.30000E+01    7.62212E+01
 2.40000E+01    8.47510E+01
 2.50000E+01    9.31664E+01
 2.60000E+01    1.01474E+02
 2.70000E+01    1.09814E+02
 2.80000E+01    1.18176E+02
 2.90000E+01    1.26740E+02
 3.00000E+01    1.35451E+02
 3.00000E+01    1.35780E+02
 3.20000E+01    1.53452E+02
 3.40000E+01    1.71719E+02
 3.60000E+01    1.88266E+02
 3.80000E+01    2.04705E+02
 4.00000E+01    2.22182E+02
 4.20000E+01    2.39121E+02
 4.40000E+01    2.55622E+02
 4.60000E+01    2.72159E+02
 4.80000E+01    2.88581E+02
 5.00000E+01    3.04928E+02
 5.20000E+01    3.20981E+02
 5.40000E+01    3.36915E+02
 5.60000E+01    3.52527E+02
 5.80000E+01    3.68017E+02
 6.00000E+01    3.83206E+02
 6.50000E+01    4.19685E+02
 7.00000E+01    4.55010E+02
 7.50000E+01    4.86854E+02
 8.00000E+01    5.18700E+02
 9.00000E+01    5.79100E+02
 1.00000E+02    6.31197E+02
 1.10000E+02    6.79853E+02
 1.20000E+02    7.28071E+02
 1.30000E+02    7.79689E+02
 1.40000E+02    8.27088E+02
 1.50000E+02    8.83440E+02
 1.60000E+02    9.72560E+02
 1.80000E+02    1.37833E+03
 2.00000E+02    2.16261E+03
