# n + Po208 : (n,n'12)  
# jeff3.3    A.J. Koning and D. Rochman        EVAL-DEC15
# uncertainties: n
# # energies =    78
#   E(MeV)       xs(mb) 
 2.15985E+00    0.00000E+00
 2.17057E+00    1.01658E+00
 2.20000E+00    3.80743E+00
 2.25159E+00    9.19710E+00
 2.29168E+00    1.33854E+01
 2.30471E+00    1.47466E+01
 2.34667E+00    1.91302E+01
 2.38071E+00    2.26864E+01
 2.40000E+00    2.47017E+01
 2.42626E+00    2.66814E+01
 2.51944E+00    3.37063E+01
 2.53864E+00    3.51538E+01
 2.56691E+00    3.72851E+01
 2.56829E+00    3.73892E+01
 2.58711E+00    3.88080E+01
 2.60000E+00    3.97798E+01
 2.71614E+00    4.52059E+01
 2.80000E+00    4.91238E+01
 2.81370E+00    4.96049E+01
 2.89823E+00    5.25733E+01
 2.94087E+00    5.40707E+01
 3.00000E+00    5.61471E+01
 3.12804E+00    6.03289E+01
 3.15998E+00    6.13720E+01
 3.20000E+00    6.26791E+01
 3.40000E+00    6.70431E+01
 3.60000E+00    6.84293E+01
 3.80000E+00    6.70405E+01
 4.00000E+00    6.31231E+01
 4.20000E+00    5.70675E+01
 4.40000E+00    4.95570E+01
 4.60000E+00    4.14569E+01
 4.80000E+00    3.35727E+01
 5.00000E+00    2.64841E+01
 5.20000E+00    2.04906E+01
 5.40000E+00    1.56106E+01
 5.60000E+00    1.17990E+01
 5.80000E+00    8.87980E+00
 6.00000E+00    6.66981E+00
 6.20000E+00    5.00435E+00
 6.40000E+00    3.74887E+00
 6.60000E+00    2.80539E+00
 6.80000E+00    2.09503E+00
 7.00000E+00    1.56113E+00
 7.20000E+00    1.16250E+00
 7.40000E+00    8.63918E-01
 7.60000E+00    6.42355E-01
 7.80000E+00    4.77602E-01
 8.00000E+00    3.55511E-01
 8.50000E+00    1.71446E-01
 9.00000E+00    8.39625E-02
 9.50000E+00    4.17821E-02
 1.00000E+01    2.10832E-02
 1.05000E+01    1.07525E-02
 1.10000E+01    5.52740E-03
 1.15000E+01    2.85907E-03
 1.20000E+01    1.48772E-03
 1.25000E+01    7.78974E-04
 1.30000E+01    4.10576E-04
 1.35000E+01    2.17856E-04
 1.40000E+01    1.16373E-04
 1.45000E+01    6.25670E-05
 1.50000E+01    3.38452E-05
 1.60000E+01    1.00733E-05
 1.70000E+01    3.04859E-06
 1.80000E+01    9.44520E-07
 1.90000E+01    2.98620E-07
 2.00000E+01    9.64750E-08
 2.10000E+01    3.18870E-08
 2.20000E+01    1.07620E-08
 2.30000E+01    3.70820E-09
 2.40000E+01    1.29950E-09
 2.50000E+01    4.62570E-10
 2.60000E+01    1.67100E-10
 2.70000E+01    6.12310E-11
 2.80000E+01    2.27650E-11
 2.90000E+01    8.58820E-12
 3.00000E+01    3.28700E-12
