# n + Xe132 : (n,xn)    
# endfb8.0   B.S.Yu+, Mughabghab               EVAL-JAN05
# 
# # energies =    71
#   E(MeV)        xs(mb) 
 6.72810E-01    0.00000E+00
 7.00000E-01    2.08600E+02
 8.00000E-01    4.45230E+02
 9.00000E-01    5.67680E+02
 1.00000E+00    6.55080E+02
 1.15000E+00    7.58730E+02
 1.30780E+00    8.49040E+02
 1.45130E+00    1.06051E+03
 1.60000E+00    1.20342E+03
 1.81750E+00    1.33982E+03
 1.97800E+00    1.45971E+03
 2.00090E+00    1.47637E+03
 2.05600E+00    1.53358E+03
 2.12640E+00    1.58805E+03
 2.12800E+00    1.58968E+03
 2.18370E+00    1.62992E+03
 2.20390E+00    1.64426E+03
 2.23100E+00    1.67168E+03
 2.32100E+00    1.73730E+03
 2.36860E+00    1.76712E+03
 2.41320E+00    1.79417E+03
 2.44330E+00    1.81243E+03
 2.48800E+00    1.84204E+03
 2.60000E+00    1.94363E+03
 2.74560E+00    2.09602E+03
 2.81590E+00    2.16471E+03
 3.00000E+00    2.31215E+03
 3.25000E+00    2.44439E+03
 3.50000E+00    2.52512E+03
 4.00000E+00    2.59784E+03
 4.50000E+00    2.60434E+03
 5.00000E+00    2.57409E+03
 5.50000E+00    2.52852E+03
 6.00000E+00    2.48306E+03
 6.50000E+00    2.44488E+03
 6.95210E+00    2.41934E+03
 7.20000E+00    2.40896E+03
 7.50000E+00    2.39955E+03
 8.00000E+00    2.38962E+03
 8.50000E+00    2.38414E+03
 8.75000E+00    2.38196E+03
 9.00300E+00    2.37985E+03
 9.19360E+00    2.38318E+03
 9.34410E+00    2.39979E+03
 9.50000E+00    2.43483E+03
 9.75000E+00    2.52153E+03
 1.00000E+01    2.62460E+03
 1.02500E+01    2.74187E+03
 1.05000E+01    2.85927E+03
 1.07500E+01    2.96512E+03
 1.10000E+01    3.06043E+03
 1.15000E+01    3.22868E+03
 1.20000E+01    3.35374E+03
 1.25000E+01    3.43632E+03
 1.30000E+01    3.48908E+03
 1.35000E+01    3.52306E+03
 1.40000E+01    3.54232E+03
 1.45000E+01    3.55453E+03
 1.46000E+01    3.55565E+03
 1.50000E+01    3.55607E+03
 1.55000E+01    3.55085E+03
 1.56730E+01    3.54774E+03
 1.60000E+01    3.54055E+03
 1.65000E+01    3.52673E+03
 1.70000E+01    3.51399E+03
 1.75000E+01    3.50811E+03
 1.80000E+01    3.51238E+03
 1.85000E+01    3.52749E+03
 1.90000E+01    3.55288E+03
 1.95000E+01    3.58305E+03
 2.00000E+01    3.61257E+03
