# n + Hf172 : (n,n'18)  
# tendl.2019 A.J. Koning and D. Rochman        EVAL-NOV19
# uncertainties: n
# # energies =    75
#   E(MeV)       xs(mb) 
 1.42687E+00    0.00000E+00
 1.47146E+00    4.42325E+00
 1.48036E+00    5.30612E+00
 1.49097E+00    6.35861E+00
 1.50455E+00    7.70572E+00
 1.51233E+00    8.47749E+00
 1.53014E+00    1.02442E+01
 1.54330E+00    1.15497E+01
 1.58414E+00    1.56009E+01
 1.60000E+00    1.71742E+01
 1.60699E+00    1.74623E+01
 1.61002E+00    1.75872E+01
 1.63101E+00    1.84524E+01
 1.64931E+00    1.92067E+01
 1.80000E+00    2.54181E+01
 2.00000E+00    2.63370E+01
 2.20000E+00    2.31295E+01
 2.40000E+00    1.91484E+01
 2.60000E+00    1.54910E+01
 2.80000E+00    1.23835E+01
 3.00000E+00    9.81672E+00
 3.20000E+00    7.72399E+00
 3.40000E+00    6.03276E+00
 3.60000E+00    4.67662E+00
 3.80000E+00    3.60075E+00
 4.00000E+00    2.75281E+00
 4.20000E+00    2.09079E+00
 4.40000E+00    1.57765E+00
 4.60000E+00    1.18290E+00
 4.80000E+00    8.81508E-01
 5.00000E+00    6.52931E-01
 5.20000E+00    4.80983E-01
 5.40000E+00    3.52247E-01
 5.60000E+00    2.56543E-01
 5.80000E+00    1.85253E-01
 6.00000E+00    1.33341E-01
 6.20000E+00    9.56283E-02
 6.40000E+00    6.82168E-02
 6.60000E+00    4.86877E-02
 6.80000E+00    3.46717E-02
 7.00000E+00    2.46971E-02
 7.20000E+00    1.76285E-02
 7.40000E+00    1.25757E-02
 7.60000E+00    9.01164E-03
 7.80000E+00    6.46285E-03
 8.00000E+00    4.64563E-03
 8.50000E+00    2.06556E-03
 9.00000E+00    9.37405E-04
 9.50000E+00    4.34479E-04
 1.00000E+01    2.05806E-04
 1.05000E+01    9.94306E-05
 1.10000E+01    4.89201E-05
 1.15000E+01    2.44729E-05
 1.20000E+01    1.24236E-05
 1.25000E+01    6.38908E-06
 1.30000E+01    3.32512E-06
 1.35000E+01    1.75081E-06
 1.40000E+01    9.31990E-07
 1.45000E+01    5.01490E-07
 1.50000E+01    2.72730E-07
 1.60000E+01    8.31730E-08
 1.70000E+01    2.64030E-08
 1.80000E+01    8.64240E-09
 1.90000E+01    2.93320E-09
 2.00000E+01    1.02530E-09
 2.10000E+01    3.68250E-10
 2.20000E+01    1.35610E-10
 2.30000E+01    5.10840E-11
 2.40000E+01    1.96080E-11
 2.50000E+01    7.68080E-12
 2.60000E+01    3.07180E-12
 2.70000E+01    1.25270E-12
 2.80000E+01    5.20320E-13
 2.90000E+01    2.19800E-13
 3.00000E+01    9.43360E-14
