# n + Hf172 : (n,n'13)  
# tendl.2019 A.J. Koning and D. Rochman        EVAL-NOV19
# uncertainties: n
# # energies =    81
#   E(MeV)       xs(mb) 
 1.34350E+00    0.00000E+00
 1.36730E+00    1.15528E+01
 1.38090E+00    1.81543E+01
 1.40000E+00    2.74256E+01
 1.40218E+00    2.75441E+01
 1.40568E+00    2.77342E+01
 1.42687E+00    2.88856E+01
 1.47146E+00    3.13086E+01
 1.48036E+00    3.17922E+01
 1.49097E+00    3.23687E+01
 1.50455E+00    3.31066E+01
 1.51233E+00    3.35293E+01
 1.53014E+00    3.44971E+01
 1.54330E+00    3.52122E+01
 1.58414E+00    3.74313E+01
 1.60000E+00    3.82931E+01
 1.60699E+00    3.83266E+01
 1.61002E+00    3.83411E+01
 1.63101E+00    3.84416E+01
 1.64931E+00    3.85293E+01
 1.80000E+00    3.92509E+01
 2.00000E+00    3.24092E+01
 2.20000E+00    2.41542E+01
 2.40000E+00    1.72290E+01
 2.60000E+00    1.20794E+01
 2.80000E+00    8.42459E+00
 3.00000E+00    5.88003E+00
 3.20000E+00    4.11820E+00
 3.40000E+00    2.89638E+00
 3.60000E+00    2.04462E+00
 3.80000E+00    1.44823E+00
 4.00000E+00    1.02769E+00
 4.20000E+00    7.30180E-01
 4.40000E+00    5.19031E-01
 4.60000E+00    3.69006E-01
 4.80000E+00    2.62418E-01
 5.00000E+00    1.86690E-01
 5.20000E+00    1.32947E-01
 5.40000E+00    9.47140E-02
 5.60000E+00    6.74866E-02
 5.80000E+00    4.79204E-02
 6.00000E+00    3.40420E-02
 6.20000E+00    2.41657E-02
 6.40000E+00    1.71007E-02
 6.60000E+00    1.21083E-02
 6.80000E+00    8.56140E-03
 7.00000E+00    6.05154E-03
 7.20000E+00    4.28465E-03
 7.40000E+00    3.03030E-03
 7.60000E+00    2.15051E-03
 7.80000E+00    1.52632E-03
 8.00000E+00    1.08492E-03
 8.50000E+00    4.67474E-04
 9.00000E+00    2.04873E-04
 9.50000E+00    9.15870E-05
 1.00000E+01    4.18983E-05
 1.05000E+01    1.96138E-05
 1.10000E+01    9.39042E-06
 1.15000E+01    4.59069E-06
 1.20000E+01    2.28539E-06
 1.25000E+01    1.15555E-06
 1.30000E+01    5.92290E-07
 1.35000E+01    3.07480E-07
 1.40000E+01    1.61490E-07
 1.45000E+01    8.57800E-08
 1.50000E+01    4.60770E-08
 1.60000E+01    1.37370E-08
 1.70000E+01    4.27910E-09
 1.80000E+01    1.37990E-09
 1.90000E+01    4.62840E-10
 2.00000E+01    1.60270E-10
 2.10000E+01    5.71130E-11
 2.20000E+01    2.08790E-11
 2.30000E+01    7.80530E-12
 2.40000E+01    2.97130E-12
 2.50000E+01    1.15440E-12
 2.60000E+01    4.58280E-13
 2.70000E+01    1.85820E-13
 2.80000E+01    7.68820E-14
 2.90000E+01    3.24020E-14
 3.00000E+01    1.38830E-14
