# n + Hf172 : (n,n'19)  
# tendl.2019 A.J. Koning and D. Rochman        EVAL-NOV19
# uncertainties: n
# # energies =    74
#   E(MeV)       xs(mb) 
 1.47146E+00    0.00000E+00
 1.48036E+00    2.03462E-01
 1.49097E+00    4.46014E-01
 1.50455E+00    7.56462E-01
 1.51233E+00    9.34320E-01
 1.53014E+00    1.34147E+00
 1.54330E+00    1.64232E+00
 1.58414E+00    2.57595E+00
 1.60000E+00    2.93852E+00
 1.60699E+00    3.11255E+00
 1.61002E+00    3.18798E+00
 1.63101E+00    3.71056E+00
 1.64931E+00    4.16617E+00
 1.80000E+00    7.91783E+00
 2.00000E+00    1.04581E+01
 2.20000E+00    1.05395E+01
 2.40000E+00    9.48464E+00
 2.60000E+00    8.08444E+00
 2.80000E+00    6.69543E+00
 3.00000E+00    5.45377E+00
 3.20000E+00    4.39513E+00
 3.40000E+00    3.51455E+00
 3.60000E+00    2.79237E+00
 3.80000E+00    2.20756E+00
 4.00000E+00    1.73636E+00
 4.20000E+00    1.35932E+00
 4.40000E+00    1.05878E+00
 4.60000E+00    8.20256E-01
 4.80000E+00    6.31893E-01
 5.00000E+00    4.83841E-01
 5.20000E+00    3.68314E-01
 5.40000E+00    2.78540E-01
 5.60000E+00    2.09283E-01
 5.80000E+00    1.55718E-01
 6.00000E+00    1.15332E-01
 6.20000E+00    8.49206E-02
 6.40000E+00    6.20823E-02
 6.60000E+00    4.53110E-02
 6.80000E+00    3.28978E-02
 7.00000E+00    2.38433E-02
 7.20000E+00    1.72619E-02
 7.40000E+00    1.24610E-02
 7.60000E+00    9.01699E-03
 7.80000E+00    6.51594E-03
 8.00000E+00    4.71131E-03
 8.50000E+00    2.11296E-03
 9.00000E+00    9.61727E-04
 9.50000E+00    4.45755E-04
 1.00000E+01    2.10935E-04
 1.05000E+01    1.01817E-04
 1.10000E+01    5.00809E-05
 1.15000E+01    2.50677E-05
 1.20000E+01    1.27431E-05
 1.25000E+01    6.56712E-06
 1.30000E+01    3.42699E-06
 1.35000E+01    1.81017E-06
 1.40000E+01    9.66990E-07
 1.45000E+01    5.22300E-07
 1.50000E+01    2.85180E-07
 1.60000E+01    8.76760E-08
 1.70000E+01    2.80510E-08
 1.80000E+01    9.24440E-09
 1.90000E+01    3.15490E-09
 2.00000E+01    1.10780E-09
 2.10000E+01    3.99500E-10
 2.20000E+01    1.47720E-10
 2.30000E+01    5.58730E-11
 2.40000E+01    2.15260E-11
 2.50000E+01    8.46010E-12
 2.60000E+01    3.39320E-12
 2.70000E+01    1.38730E-12
 2.80000E+01    5.77610E-13
 2.90000E+01    2.44590E-13
 3.00000E+01    1.05220E-13
