# n + Te126 : (n,n'09)  
# jeff3.3    A.J. Koning and D. Rochman        EVAL-DEC15
# uncertainties: n
# # energies =    81
#   E(MeV)       xs(mb) 
 2.14544E+00    0.00000E+00
 2.19899E+00    3.01479E+01
 2.20000E+00    3.07165E+01
 2.20185E+00    3.10459E+01
 2.23597E+00    3.71217E+01
 2.32768E+00    5.34525E+01
 2.36963E+00    6.09225E+01
 2.40000E+00    6.63305E+01
 2.40493E+00    6.65197E+01
 2.41036E+00    6.67280E+01
 2.41562E+00    6.69298E+01
 2.44055E+00    6.78863E+01
 2.49960E+00    7.01519E+01
 2.51683E+00    7.08130E+01
 2.52361E+00    7.10732E+01
 2.53536E+00    7.15240E+01
 2.55415E+00    7.22449E+01
 2.59847E+00    7.39454E+01
 2.60000E+00    7.40041E+01
 2.60267E+00    7.40164E+01
 2.60618E+00    7.40327E+01
 2.60964E+00    7.40487E+01
 2.66155E+00    7.42888E+01
 2.68275E+00    7.43869E+01
 2.70024E+00    7.44678E+01
 2.80000E+00    7.49293E+01
 3.00000E+00    7.68395E+01
 3.20000E+00    7.72840E+01
 3.40000E+00    7.51598E+01
 3.60000E+00    7.04804E+01
 3.80000E+00    6.37710E+01
 4.00000E+00    5.57786E+01
 4.20000E+00    4.73003E+01
 4.40000E+00    3.90381E+01
 4.60000E+00    3.15018E+01
 4.80000E+00    2.49758E+01
 5.00000E+00    1.95471E+01
 5.20000E+00    1.51575E+01
 5.40000E+00    1.16759E+01
 5.60000E+00    8.95161E+00
 5.80000E+00    6.83827E+00
 6.00000E+00    5.21001E+00
 6.20000E+00    3.96202E+00
 6.40000E+00    3.00174E+00
 6.60000E+00    2.27478E+00
 6.80000E+00    1.72626E+00
 7.00000E+00    1.30935E+00
 7.20000E+00    9.96373E-01
 7.40000E+00    7.58378E-01
 7.60000E+00    5.78545E-01
 7.80000E+00    4.42587E-01
 8.00000E+00    3.38957E-01
 8.50000E+00    1.76680E-01
 9.00000E+00    9.38829E-02
 9.50000E+00    5.08556E-02
 1.00000E+01    2.79744E-02
 1.05000E+01    1.55862E-02
 1.10000E+01    8.78622E-03
 1.15000E+01    5.00683E-03
 1.20000E+01    2.88241E-03
 1.25000E+01    1.67576E-03
 1.30000E+01    9.83572E-04
 1.35000E+01    5.82580E-04
 1.40000E+01    3.48186E-04
 1.45000E+01    2.09922E-04
 1.50000E+01    1.27629E-04
 1.60000E+01    4.83333E-05
 1.70000E+01    1.88631E-05
 1.80000E+01    7.56448E-06
 1.90000E+01    3.10894E-06
 2.00000E+01    1.30023E-06
 2.10000E+01    5.58400E-07
 2.20000E+01    2.44400E-07
 2.30000E+01    1.09130E-07
 2.40000E+01    4.93720E-08
 2.50000E+01    2.26610E-08
 2.60000E+01    1.05540E-08
 2.70000E+01    4.98830E-09
 2.80000E+01    2.39160E-09
 2.90000E+01    1.16310E-09
 3.00000E+01    5.72910E-10
