# n + Pr141 : (n,el)    
# jendl4.0   JNDC FP NUCLEAR DATA W.G.         EVAL-MAR90
# uncertainties: n
# # energies =   171
#   E(MeV)       xs(mb) 
 1.00000E-11    4.34525E+03
 1.00000E-07    2.69974E+03
 4.13990E-07    2.67163E+03
 5.31580E-07    2.65712E+03
 6.82560E-07    2.63895E+03
 8.76420E-07    2.61585E+03
 1.12540E-06    2.58759E+03
 1.44500E-06    2.55156E+03
 1.85540E-06    2.50703E+03
 2.37240E-06    2.45357E+03
 3.05900E-06    2.38516E+03
 3.92790E-06    2.30585E+03
 5.04350E-06    2.21071E+03
 6.47600E-06    2.10136E+03
 8.31530E-06    1.97768E+03
 1.06770E-05    1.84097E+03
 1.37100E-05    1.69458E+03
 1.76030E-05    1.54155E+03
 2.26030E-05    1.38452E+03
 2.92030E-05    1.23055E+03
 3.72670E-05    1.08197E+03
 4.78510E-05    9.33760E+02
 6.14420E-05    7.69759E+02
 7.88930E-05    1.37636E+03
 1.01300E-04    6.25660E+02
 1.30070E-04    7.21741E+02
 1.67020E-04    1.20058E+04
 2.14450E-04    3.31053E+05
 2.75360E-04    2.39391E+03
 3.53580E-04    8.66710E+04
 4.54000E-04    2.43707E+04
 5.82950E-04    9.36795E+04
 7.48520E-04    8.56222E+04
 9.61120E-04    1.97501E+04
 1.23410E-03    2.28285E+04
 1.58460E-03    1.25065E+04
 2.03470E-03    4.36404E+04
 2.24870E-03    9.02643E+03
 2.48520E-03    4.63509E+03
 2.61260E-03    2.49583E+03
 2.74650E-03    3.20622E+04
 3.03540E-03    8.26175E+03
 3.35460E-03    1.40942E+04
 3.70740E-03    1.70237E+04
 4.30740E-03    1.16575E+04
 5.53080E-03    9.13189E+03
 7.10170E-03    8.46575E+03
 9.11880E-03    9.30390E+03
 1.17090E-02    7.08165E+03
 1.50340E-02    8.20932E+03
 1.93050E-02    7.81461E+03
 2.18750E-02    7.62547E+03
 2.35790E-02    7.53573E+03
 2.41760E-02    7.49289E+03
 2.47880E-02    7.42705E+03
 2.60580E-02    7.35124E+03
 2.70000E-02    7.27455E+03
 2.85000E-02    7.13901E+03
 3.18280E-02    6.98914E+03
 3.43070E-02    6.80482E+03
 4.08680E-02    6.59521E+03
 4.63090E-02    6.43348E+03
 5.24750E-02    6.30898E+03
 5.65620E-02    6.16463E+03
 6.73790E-02    6.03238E+03
 7.20000E-02    5.94488E+03
 7.95000E-02    5.87547E+03
 8.25000E-02    5.83072E+03
 8.65170E-02    5.74696E+03
 9.80370E-02    5.63631E+03
 1.11090E-01    5.55808E+03
 1.16790E-01    5.51377E+03
 1.22770E-01    5.46964E+03
 1.29070E-01    5.42598E+03
 1.35690E-01    5.38270E+03
 1.42640E-01    5.31319E+03
 1.49960E-01    5.17584E+03
 1.57640E-01    5.11715E+03
 1.65730E-01    5.06111E+03
 1.74220E-01    5.00253E+03
 1.83160E-01    4.94205E+03
 1.92550E-01    4.88730E+03
 2.02420E-01    4.85196E+03
 2.12800E-01    4.82904E+03
 2.23710E-01    4.80495E+03
 2.35180E-01    4.77962E+03
 2.47240E-01    4.75339E+03
 2.73240E-01    4.74272E+03
 2.87250E-01    4.73744E+03
 2.94520E-01    4.73497E+03
 2.97200E-01    4.73398E+03
 2.98500E-01    4.73379E+03
 3.01970E-01    4.75529E+03
 3.33730E-01    4.79779E+03
 3.68830E-01    4.83243E+03
 3.87740E-01    4.85709E+03
 4.07620E-01    4.89179E+03
 4.50490E-01    4.93936E+03
 4.97870E-01    4.98520E+03
 5.23400E-01    5.03647E+03
 5.50230E-01    5.09098E+03
 5.78440E-01    5.14830E+03
 6.08100E-01    5.20814E+03
 6.39280E-01    5.26618E+03
 6.72060E-01    5.32580E+03
 7.06510E-01    5.38848E+03
 7.42740E-01    5.45437E+03
 7.80820E-01    5.52364E+03
 8.20850E-01    5.59644E+03
 8.62940E-01    5.66594E+03
 9.07180E-01    5.73904E+03
 9.61640E-01    5.80971E+03
 1.00260E+00    5.89403E+03
 1.10800E+00    5.97273E+03
 1.16480E+00    5.97757E+03
 1.22460E+00    5.97821E+03
 1.28730E+00    5.96364E+03
 1.35340E+00    5.91982E+03
 1.42270E+00    5.86266E+03
 1.49570E+00    5.75311E+03
 1.57240E+00    5.64834E+03
 1.65300E+00    5.53913E+03
 1.73770E+00    5.42567E+03
 1.82680E+00    5.29733E+03
 1.92050E+00    5.16235E+03
 2.01900E+00    5.01895E+03
 2.12250E+00    4.86444E+03
 2.23130E+00    4.74041E+03
 2.30690E+00    4.66737E+03
 2.34570E+00    4.63012E+03
 2.36530E+00    4.60497E+03
 2.38520E+00    4.54424E+03
 2.46600E+00    4.42342E+03
 2.59240E+00    4.27429E+03
 2.72530E+00    4.13294E+03
 2.86500E+00    3.98982E+03
 3.01190E+00    3.84069E+03
 3.16640E+00    3.68224E+03
 3.32870E+00    3.45925E+03
 3.67880E+00    3.18092E+03
 4.06570E+00    2.93125E+03
 4.49330E+00    2.75809E+03
 4.72370E+00    2.64920E+03
 4.96590E+00    2.56045E+03
 5.22050E+00    2.50263E+03
 5.48810E+00    2.44427E+03
 5.76950E+00    2.38854E+03
 6.06530E+00    2.34483E+03
 6.37630E+00    2.31239E+03
 6.59240E+00    2.29227E+03
 6.70320E+00    2.26565E+03
 7.04690E+00    2.27752E+03
 7.40820E+00    2.32236E+03
 7.78800E+00    2.37471E+03
 8.18730E+00    2.46671E+03
 8.60710E+00    2.57111E+03
 9.04840E+00    2.72646E+03
 9.51230E+00    2.84177E+03
 1.00000E+01    2.90119E+03
 1.05130E+01    2.95769E+03
 1.10520E+01    3.02025E+03
 1.16180E+01    3.07762E+03
 1.22140E+01    3.02825E+03
 1.28400E+01    2.97194E+03
 1.34990E+01    2.96003E+03
 1.38400E+01    2.95287E+03
 1.41910E+01    2.94501E+03
 1.45500E+01    2.94057E+03
 1.49180E+01    2.93052E+03
 1.56830E+01    2.91565E+03
 1.64870E+01    2.93080E+03
