# n + S  34 : (n,el)    
# jendl4.0   H.NAKAMURA                        EVAL-MAY87
# uncertainties: n
# # energies =   171
#   E(MeV)       xs(mb) 
 1.00000E-11    5.25848E+03
 1.00000E-07    2.08170E+03
 4.13990E-07    2.07922E+03
 5.31580E-07    2.07886E+03
 6.82560E-07    2.07844E+03
 8.76420E-07    2.07834E+03
 1.12540E-06    2.07832E+03
 1.44500E-06    2.07830E+03
 1.85540E-06    2.07827E+03
 2.37240E-06    2.07823E+03
 3.05900E-06    2.07819E+03
 3.92790E-06    2.07813E+03
 5.04350E-06    2.07805E+03
 6.47600E-06    2.07795E+03
 8.31530E-06    2.07783E+03
 1.06770E-05    2.07767E+03
 1.37100E-05    2.07746E+03
 1.76030E-05    2.07719E+03
 2.26030E-05    2.07685E+03
 2.92030E-05    2.07641E+03
 3.72670E-05    2.07585E+03
 4.78510E-05    2.07513E+03
 6.14420E-05    2.07420E+03
 7.88930E-05    2.07300E+03
 1.01300E-04    2.07147E+03
 1.30070E-04    2.06950E+03
 1.67020E-04    2.06698E+03
 2.14450E-04    2.06373E+03
 2.75360E-04    2.05957E+03
 3.53580E-04    2.05422E+03
 4.54000E-04    2.04735E+03
 5.82950E-04    2.03853E+03
 7.48520E-04    2.02721E+03
 9.61120E-04    2.01392E+03
 1.23410E-03    1.99921E+03
 1.58460E-03    1.98036E+03
 2.03470E-03    1.96429E+03
 2.24870E-03    1.95397E+03
 2.48520E-03    1.94693E+03
 2.61260E-03    1.94212E+03
 2.74650E-03    1.93440E+03
 3.03540E-03    1.92321E+03
 3.35460E-03    1.91085E+03
 3.70740E-03    1.89421E+03
 4.30740E-03    1.86830E+03
 5.53080E-03    1.83181E+03
 7.10170E-03    1.79380E+03
 9.11880E-03    1.75489E+03
 1.17090E-02    1.71603E+03
 1.50340E-02    1.67805E+03
 1.93050E-02    1.65039E+03
 2.18750E-02    1.63673E+03
 2.35790E-02    1.62937E+03
 2.41760E-02    1.62553E+03
 2.47880E-02    1.61998E+03
 2.60580E-02    1.61477E+03
 2.70000E-02    1.60927E+03
 2.85000E-02    1.59847E+03
 3.18280E-02    1.58549E+03
 3.43070E-02    1.57056E+03
 4.08680E-02    1.55141E+03
 4.63090E-02    1.53680E+03
 5.24750E-02    1.52491E+03
 5.65620E-02    1.50887E+03
 6.73790E-02    1.49453E+03
 7.20000E-02    1.48407E+03
 7.95000E-02    1.47486E+03
 8.25000E-02    1.46879E+03
 8.65170E-02    1.45675E+03
 9.80370E-02    1.44281E+03
 1.11090E-01    1.52166E+03
 1.16790E-01    4.28411E+03
 1.22770E-01    1.44168E+03
 1.29070E-01    1.40337E+03
 1.35690E-01    1.38637E+03
 1.42640E-01    1.37035E+03
 1.49960E-01    1.35407E+03
 1.57640E-01    1.33711E+03
 1.65730E-01    1.31928E+03
 1.74220E-01    1.29844E+03
 1.83160E-01    1.27434E+03
 1.92550E-01    1.24574E+03
 2.02420E-01    1.21163E+03
 2.12800E-01    1.16872E+03
 2.23710E-01    1.11322E+03
 2.35180E-01    1.03754E+03
 2.47240E-01    8.37779E+02
 2.73240E-01    4.10290E+02
 2.87250E-01    6.67543E+01
 2.94520E-01    5.59903E+02
 2.97200E-01    1.79815E+03
 2.98500E-01    5.48132E+03
 3.01970E-01    4.42874E+03
 3.33730E-01    2.53191E+03
 3.68830E-01    2.80130E+03
 3.87740E-01    5.14057E+03
 4.07620E-01    2.44350E+03
 4.50490E-01    2.19296E+03
 4.97870E-01    2.33412E+03
 5.23400E-01    2.33744E+03
 5.50230E-01    2.34092E+03
 5.78440E-01    2.34459E+03
 6.08100E-01    2.34983E+03
 6.39280E-01    2.35851E+03
 6.72060E-01    2.36775E+03
 7.06510E-01    2.37753E+03
 7.42740E-01    2.38985E+03
 7.80820E-01    2.40380E+03
 8.20850E-01    2.41847E+03
 8.62940E-01    2.43388E+03
 9.07180E-01    2.45300E+03
 9.61640E-01    2.47342E+03
 1.00260E+00    2.50435E+03
 1.10800E+00    2.53918E+03
 1.16480E+00    2.56399E+03
 1.22460E+00    2.59007E+03
 1.28730E+00    2.61638E+03
 1.35340E+00    2.64111E+03
 1.42270E+00    2.66693E+03
 1.49570E+00    2.69410E+03
 1.57240E+00    2.72265E+03
 1.65300E+00    2.75265E+03
 1.73770E+00    2.78394E+03
 1.82680E+00    2.81316E+03
 1.92050E+00    2.84264E+03
 2.01900E+00    2.87345E+03
 2.12250E+00    2.89950E+03
 2.23130E+00    2.89282E+03
 2.30690E+00    2.88283E+03
 2.34570E+00    2.87774E+03
 2.36530E+00    2.87430E+03
 2.38520E+00    2.86557E+03
 2.46600E+00    2.84759E+03
 2.59240E+00    2.82502E+03
 2.72530E+00    2.80352E+03
 2.86500E+00    2.78387E+03
 3.01190E+00    2.76464E+03
 3.16640E+00    2.74927E+03
 3.32870E+00    2.70379E+03
 3.67880E+00    2.59717E+03
 4.06570E+00    2.47102E+03
 4.49330E+00    2.35079E+03
 4.72370E+00    2.27037E+03
 4.96590E+00    2.18846E+03
 5.22050E+00    2.10350E+03
 5.48810E+00    2.01500E+03
 5.76950E+00    1.92680E+03
 6.06530E+00    1.83541E+03
 6.37630E+00    1.75761E+03
 6.59240E+00    1.71518E+03
 6.70320E+00    1.65920E+03
 7.04690E+00    1.57264E+03
 7.40820E+00    1.48290E+03
 7.78800E+00    1.39583E+03
 8.18730E+00    1.31048E+03
 8.60710E+00    1.23222E+03
 9.04840E+00    1.15834E+03
 9.51230E+00    1.08785E+03
 1.00000E+01    1.02202E+03
 1.05130E+01    9.61165E+02
 1.10520E+01    9.07794E+02
 1.16180E+01    8.43044E+02
 1.22140E+01    8.03162E+02
 1.28400E+01    7.97422E+02
 1.34990E+01    7.67614E+02
 1.38400E+01    7.48953E+02
 1.41910E+01    7.39272E+02
 1.45500E+01    7.33427E+02
 1.49180E+01    7.29906E+02
 1.56830E+01    7.30785E+02
 1.64870E+01    7.40848E+02
