# n + Yb171 : (n,xd)    
# jendl.ad   kunieda                           EVAL-Mar14
# 
# # energies =    67
#   E(MeV)        xs(mb) 
 6.71147E-02    0.00000E+00
 7.00000E-02    0.00000E+00
 7.63257E-02    0.00000E+00
 8.00000E-02    0.00000E+00
 9.00000E-02    0.00000E+00
 9.58342E-02    0.00000E+00
 1.00000E-01    0.00000E+00
 1.11570E-01    0.00000E+00
 1.23140E-01    0.00000E+00
 1.68647E-01    0.00000E+00
 2.00000E-01    0.00000E+00
 2.09235E-01    0.00000E+00
 2.31984E-01    0.00000E+00
 2.48063E-01    0.00000E+00
 2.60595E-01    0.00000E+00
 3.00000E-01    0.00000E+00
 3.19175E-01    0.00000E+00
 4.00000E-01    0.00000E+00
 5.00000E-01    0.00000E+00
 6.00000E-01    0.00000E+00
 7.00000E-01    0.00000E+00
 8.00000E-01    0.00000E+00
 9.00000E-01    0.00000E+00
 1.00000E+00    0.00000E+00
 1.20000E+00    0.00000E+00
 1.40000E+00    0.00000E+00
 1.60000E+00    0.00000E+00
 1.80000E+00    0.00000E+00
 2.00000E+00    0.00000E+00
 2.20000E+00    0.00000E+00
 2.40000E+00    0.00000E+00
 2.70000E+00    0.00000E+00
 3.00000E+00    0.00000E+00
 3.50000E+00    0.00000E+00
 4.00000E+00    0.00000E+00
 4.50000E+00    0.00000E+00
 5.00000E+00    1.22121E-20
 5.50000E+00    1.16627E-18
 6.00000E+00    2.35730E-18
 6.50000E+00    4.62240E-15
 7.00000E+00    9.36430E-12
 7.50000E+00    2.35370E-09
 8.00000E+00    9.14890E-08
 8.50000E+00    2.25500E-06
 9.00000E+00    3.08039E-05
 9.50000E+00    2.11419E-04
 1.00000E+01    1.04849E-03
 1.05000E+01    4.54515E-03
 1.10000E+01    1.51181E-02
 1.15000E+01    3.61208E-02
 1.20000E+01    9.96965E-02
 1.25000E+01    2.06212E-01
 1.30000E+01    3.61772E-01
 1.35000E+01    6.00489E-01
 1.40000E+01    9.43098E-01
 1.45000E+01    1.40562E+00
 1.50000E+01    1.99801E+00
 1.55000E+01    2.72464E+00
 1.60000E+01    3.41462E+00
 1.65000E+01    3.88649E+00
 1.70000E+01    4.91313E+00
 1.75000E+01    6.06477E+00
 1.80000E+01    6.43129E+00
 1.85000E+01    7.72922E+00
 1.90000E+01    8.86210E+00
 1.95000E+01    9.55485E+00
 2.00000E+01    1.07896E+01
