# n + Yb171 : (n,d)     
# jendl.ad   kunieda                           EVAL-Mar14
# uncertainties: n
# # energies =    50
#   E(MeV)       xs(mb) 
 4.60293E+00    0.00000E+00
 4.64187E+00    7.39290E-22
 4.71815E+00    2.87460E-21
 4.75353E+00    3.95290E-21
 4.78720E+00    5.02630E-21
 4.78721E+00    5.02660E-21
 4.80858E+00    5.72890E-21
 4.82393E+00    6.24020E-21
 4.84157E+00    6.83320E-21
 4.85154E+00    7.17010E-21
 4.87507E+00    7.96840E-21
 4.92414E+00    9.63460E-21
 4.93196E+00    9.90020E-21
 4.95473E+00    1.06740E-20
 4.96007E+00    1.08550E-20
 4.96316E+00    1.09600E-20
 4.98661E+00    1.17570E-20
 5.00803E+00    1.24850E-20
 5.01474E+00    1.95710E-20
 5.02460E+00    3.54710E-20
 5.03195E+00    5.13540E-20
 6.00000E+00    2.35730E-18
 6.50000E+00    4.62240E-15
 7.00000E+00    9.36430E-12
 7.50000E+00    2.35370E-09
 8.00000E+00    9.14890E-08
 8.50000E+00    2.25500E-06
 9.00000E+00    3.08039E-05
 9.50000E+00    2.11419E-04
 1.00000E+01    1.04849E-03
 1.05000E+01    4.54515E-03
 1.10000E+01    1.51181E-02
 1.15000E+01    3.61208E-02
 1.20000E+01    9.96965E-02
 1.25000E+01    2.06212E-01
 1.30000E+01    3.61772E-01
 1.35000E+01    6.00489E-01
 1.40000E+01    9.43098E-01
 1.45000E+01    1.40562E+00
 1.50000E+01    1.99801E+00
 1.55000E+01    2.72463E+00
 1.60000E+01    3.41459E+00
 1.65000E+01    3.88630E+00
 1.70000E+01    4.91229E+00
 1.75000E+01    6.06165E+00
 1.80000E+01    6.42253E+00
 1.85000E+01    7.70727E+00
 1.90000E+01    8.81185E+00
 1.95000E+01    9.44924E+00
 2.00000E+01    1.05858E+01
