# n + Yb171 : (n,np)    
# jendl.ad   kunieda                           EVAL-Mar14
# uncertainties: n
# # energies =    26
#   E(MeV)       xs(mb) 
 6.84062E+00    0.00000E+00
 8.00000E+00    8.76640E-18
 8.50000E+00    3.10170E-12
 9.00000E+00    3.64060E-09
 9.50000E+00    2.42450E-07
 1.00000E+01    5.83619E-06
 1.05000E+01    6.43691E-05
 1.10000E+01    4.26807E-04
 1.15000E+01    1.66159E-03
 1.20000E+01    5.94858E-03
 1.25000E+01    1.57705E-02
 1.30000E+01    3.86551E-02
 1.35000E+01    8.40046E-02
 1.40000E+01    1.67479E-01
 1.45000E+01    3.16861E-01
 1.50000E+01    5.70457E-01
 1.55000E+01    9.70709E-01
 1.60000E+01    1.51813E+00
 1.65000E+01    2.34275E+00
 1.70000E+01    3.50668E+00
 1.75000E+01    5.05117E+00
 1.80000E+01    6.63937E+00
 1.85000E+01    8.92207E+00
 1.90000E+01    1.15239E+01
 1.95000E+01    1.39938E+01
 2.00000E+01    1.71928E+01
