# n + Th230 : (n,xg)    
# jendl4.0   O.Iwamoto, T.Nakagawa, et al.     EVAL-FEB10
# 
# # energies =    73
#   E(MeV)        xs(mb) 
 5.34333E-02    0.00000E+00
 7.00000E-02    0.00000E+00
 1.00000E-01    0.00000E+00
 1.10967E-01    0.00000E+00
 1.20000E-01    0.00000E+00
 1.40000E-01    0.00000E+00
 1.70000E-01    0.00000E+00
 1.74863E-01    0.00000E+00
 2.00000E-01    0.00000E+00
 2.50000E-01    0.00000E+00
 3.00000E-01    0.00000E+00
 3.58164E-01    0.00000E+00
 4.00000E-01    0.00000E+00
 5.00000E-01    0.00000E+00
 5.10388E-01    0.00000E+00
 5.74277E-01    0.00000E+00
 5.96705E-01    0.00000E+00
 6.00000E-01    0.00000E+00
 6.37684E-01    0.00000E+00
 6.80571E-01    0.00000E+00
 6.89711E-01    0.00000E+00
 7.00000E-01    0.00000E+00
 8.00000E-01    0.00000E+00
 9.00000E-01    0.00000E+00
 1.00000E+00    0.00000E+00
 1.10000E+00    0.00000E+00
 1.20000E+00    0.00000E+00
 1.30000E+00    0.00000E+00
 1.40000E+00    0.00000E+00
 1.50000E+00    0.00000E+00
 1.60000E+00    0.00000E+00
 1.70000E+00    0.00000E+00
 1.80000E+00    0.00000E+00
 1.90000E+00    0.00000E+00
 2.00000E+00    0.00000E+00
 2.30000E+00    0.00000E+00
 2.50000E+00    0.00000E+00
 2.70000E+00    0.00000E+00
 3.00000E+00    0.00000E+00
 3.50000E+00    0.00000E+00
 4.00000E+00    0.00000E+00
 4.50000E+00    0.00000E+00
 5.00000E+00    0.00000E+00
 5.50000E+00    0.00000E+00
 6.00000E+00    0.00000E+00
 6.50000E+00    0.00000E+00
 7.00000E+00    0.00000E+00
 7.50000E+00    0.00000E+00
 8.00000E+00    0.00000E+00
 8.50000E+00    0.00000E+00
 9.00000E+00    0.00000E+00
 9.50000E+00    0.00000E+00
 1.00000E+01    0.00000E+00
 1.05000E+01    0.00000E+00
 1.10000E+01    0.00000E+00
 1.15000E+01    0.00000E+00
 1.20000E+01    0.00000E+00
 1.25000E+01    0.00000E+00
 1.30000E+01    0.00000E+00
 1.35000E+01    0.00000E+00
 1.40000E+01    0.00000E+00
 1.45000E+01    0.00000E+00
 1.50000E+01    0.00000E+00
 1.55000E+01    0.00000E+00
 1.60000E+01    0.00000E+00
 1.65000E+01    0.00000E+00
 1.70000E+01    0.00000E+00
 1.75000E+01    0.00000E+00
 1.80000E+01    0.00000E+00
 1.85000E+01    0.00000E+00
 1.90000E+01    0.00000E+00
 1.95000E+01    0.00000E+00
 2.00000E+01    0.00000E+00
