# n + Th230 : (n,n'02)  
# jendl4.0   O.Iwamoto, T.Nakagawa, et al.     EVAL-FEB10
# uncertainties: y
# # energies =    66
#   E(MeV)       xs(mb)       xslow(mb)      xsupp(mb)
 1.74863E-01    0.00000E+00    0.00000E+00    0.00000E+00
 2.00000E-01    1.74889E+00    1.07907E+00    2.41872E+00
 2.50000E-01    8.85636E+00    5.46437E+00    1.22483E+01
 3.00000E-01    2.06465E+01    1.36060E+01    2.76870E+01
 3.58164E-01    3.95571E+01    2.60681E+01    5.30461E+01
 4.00000E-01    5.61123E+01    3.23768E+01    7.98478E+01
 5.00000E-01    1.05974E+02    6.11470E+01    1.50801E+02
 5.10388E-01    1.11180E+02    6.41509E+01    1.58209E+02
 5.74277E-01    1.40123E+02    8.08510E+01    1.99395E+02
 5.96705E-01    1.46234E+02    8.43770E+01    2.08091E+02
 6.00000E-01    1.47424E+02    6.92893E+01    2.25559E+02
 6.37684E-01    1.62419E+02    7.63369E+01    2.48501E+02
 6.80571E-01    1.81190E+02    8.51593E+01    2.77221E+02
 6.89711E-01    1.82785E+02    8.59089E+01    2.79661E+02
 7.00000E-01    1.85965E+02    8.74035E+01    2.84526E+02
 8.00000E-01    2.09205E+02    8.89121E+01    3.29498E+02
 9.00000E-01    2.23815E+02    9.51214E+01    3.52509E+02
 1.00000E+00    2.29594E+02    1.05613E+02    3.53575E+02
 1.10000E+00    2.29397E+02    1.05523E+02    3.53271E+02
 1.20000E+00    2.26164E+02    1.17831E+02    3.34497E+02
 1.30000E+00    2.19246E+02    1.14227E+02    3.24265E+02
 1.40000E+00    2.11818E+02    1.10357E+02    3.13279E+02
 1.50000E+00    2.02620E+02    1.19343E+02    2.85897E+02
 1.60000E+00    1.94308E+02    1.14447E+02    2.74169E+02
 1.70000E+00    1.84783E+02    1.08837E+02    2.60729E+02
 1.80000E+00    1.76510E+02    1.03964E+02    2.49056E+02
 1.90000E+00    1.67507E+02    9.86616E+01    2.36352E+02
 2.00000E+00    1.59808E+02    1.04674E+02    2.14942E+02
 2.30000E+00    1.37794E+02    9.02551E+01    1.85333E+02
 2.50000E+00    1.25301E+02    7.76866E+01    1.72915E+02
 2.70000E+00    1.15098E+02    7.13608E+01    1.58835E+02
 3.00000E+00    1.02931E+02    5.62003E+01    1.49662E+02
 3.50000E+00    9.03697E+01    4.91611E+01    1.31578E+02
 4.00000E+00    8.13345E+01    4.57913E+01    1.16878E+02
 4.50000E+00    7.61582E+01    4.28771E+01    1.09439E+02
 5.00000E+00    7.14146E+01    4.21346E+01    1.00695E+02
 5.50000E+00    6.83832E+01    4.03461E+01    9.64203E+01
 6.00000E+00    6.53981E+01    3.85849E+01    9.22113E+01
 6.50000E+00    6.32016E+01    3.72889E+01    8.91143E+01
 7.00000E+00    6.10102E+01    3.49588E+01    8.70616E+01
 7.50000E+00    5.86231E+01    3.35910E+01    8.36552E+01
 8.00000E+00    5.62367E+01    3.16050E+01    8.08684E+01
 8.50000E+00    5.36090E+01    3.01283E+01    7.70897E+01
 9.00000E+00    5.09815E+01    2.86006E+01    7.33624E+01
 9.50000E+00    4.84969E+01    2.72068E+01    6.97870E+01
 1.00000E+01    4.60123E+01    2.60890E+01    6.59356E+01
 1.05000E+01    4.38050E+01    2.48374E+01    6.27726E+01
 1.10000E+01    4.15977E+01    2.35859E+01    5.96095E+01
 1.15000E+01    3.96116E+01    2.24598E+01    5.67634E+01
 1.20000E+01    3.76255E+01    2.20862E+01    5.31648E+01
 1.25000E+01    3.58241E+01    2.10287E+01    5.06195E+01
 1.30000E+01    3.40228E+01    1.99714E+01    4.80742E+01
 1.35000E+01    3.24178E+01    1.90292E+01    4.58064E+01
 1.40000E+01    3.08128E+01    1.87034E+01    4.29222E+01
 1.45000E+01    2.94152E+01    1.78550E+01    4.09754E+01
 1.50000E+01    2.80176E+01    1.72308E+01    3.88044E+01
 1.55000E+01    2.68131E+01    1.64901E+01    3.71361E+01
 1.60000E+01    2.56085E+01    1.59029E+01    3.53141E+01
 1.65000E+01    2.45661E+01    1.52555E+01    3.38767E+01
 1.70000E+01    2.35238E+01    1.46083E+01    3.24393E+01
 1.75000E+01    2.26141E+01    1.40434E+01    3.11848E+01
 1.80000E+01    2.17045E+01    1.37172E+01    2.96918E+01
 1.85000E+01    2.09086E+01    1.32142E+01    2.86030E+01
 1.90000E+01    2.01126E+01    1.27112E+01    2.75140E+01
 1.95000E+01    1.94197E+01    1.22733E+01    2.65662E+01
 2.00000E+01    1.87269E+01    1.18354E+01    2.56184E+01
