# n + Th230 : (n,g)     
# jendl4.0   O.Iwamoto, T.Nakagawa, et al.     EVAL-FEB10
# uncertainties: y
# # energies =    69
#   E(MeV)       xs(mb)       xslow(mb)      xsupp(mb)
 1.00000E-10    1.59077E+05    1.59077E+05    1.59077E+05
 5.00000E-09    4.36152E+04    4.36152E+04    4.36152E+04
 1.00000E-08    3.32188E+04    3.32188E+04    3.32188E+04
 1.50000E-08    2.80654E+04    2.80654E+04    2.80654E+04
 2.00000E-08    2.48298E+04    2.48298E+04    2.48298E+04
 2.50000E-08    2.25580E+04    2.25580E+04    2.25580E+04
 3.00000E-08    2.08524E+04    2.08524E+04    2.08524E+04
 3.50000E-08    1.93001E+04    1.93001E+04    1.93001E+04
 4.20000E-08    1.78031E+04    1.78031E+04    1.78031E+04
 5.00000E-08    1.65730E+04    1.65730E+04    1.65730E+04
 5.80000E-08    1.55547E+04    1.55547E+04    1.55547E+04
 6.70000E-08    1.45375E+04    1.45375E+04    1.45375E+04
 8.00000E-08    1.34100E+04    1.34100E+04    1.34100E+04
 1.00000E-07    1.20845E+04    1.20845E+04    1.20845E+04
 1.40000E-07    1.09725E+04    1.09725E+04    1.09725E+04
 1.80000E-07    1.03325E+04    1.03325E+04    1.03325E+04
 2.20000E-07    9.99177E+03    9.99177E+03    9.99177E+03
 2.50000E-07    9.82006E+03    9.82006E+03    9.82006E+03
 2.80000E-07    9.73756E+03    9.73756E+03    9.73756E+03
 3.00000E-07    9.70809E+03    9.70809E+03    9.70809E+03
 3.20000E-07    9.71076E+03    9.71076E+03    9.71076E+03
 3.50000E-07    9.79484E+03    9.79484E+03    9.79484E+03
 4.00000E-07    1.01922E+04    1.01922E+04    1.01922E+04
 5.00000E-07    1.13693E+04    1.13693E+04    1.13693E+04
 6.25000E-07    1.41420E+04    1.41420E+04    1.41420E+04
 7.80000E-07    1.80343E+04    1.80343E+04    1.80343E+04
 8.50000E-07    2.15233E+04    2.15233E+04    2.15233E+04
 9.10000E-07    2.51758E+04    2.51758E+04    2.51758E+04
 9.50000E-07    2.80440E+04    2.80440E+04    2.80440E+04
 9.72000E-07    3.05820E+04    3.05820E+04    3.05820E+04
 9.96000E-07    3.36818E+04    3.36818E+04    3.36818E+04
 1.02000E-06    3.74402E+04    3.74402E+04    3.74402E+04
 1.04500E-06    4.21610E+04    4.21610E+04    4.21610E+04
 1.07100E-06    4.80772E+04    4.80772E+04    4.80772E+04
 1.09700E-06    5.54809E+04    5.54809E+04    5.54809E+04
 1.12300E-06    6.51381E+04    6.51381E+04    6.51381E+04
 1.15000E-06    1.45894E+05    1.45894E+05    1.45894E+05
 1.30000E-06    4.87845E+06    4.87845E+06    4.87845E+06
 1.50000E-06    1.22808E+05    1.22808E+05    1.22808E+05
 2.10000E-06    5.50551E+03    5.50551E+03    5.50551E+03
 2.60000E-06    1.98533E+03    1.98533E+03    1.98533E+03
 3.30000E-06    9.84157E+02    9.84157E+02    9.84157E+02
 4.00000E-06    4.71260E+02    4.71260E+02    4.71260E+02
 9.87700E-06    1.50295E+03    1.50295E+03    1.50295E+03
 1.59680E-05    3.11400E+05    3.11400E+05    3.11400E+05
 2.77000E-05    5.35895E+04    5.35895E+04    5.35895E+04
 4.80520E-05    3.51677E+04    3.51677E+04    3.51677E+04
 7.55014E-05    3.15522E+04    3.15522E+04    3.15522E+04
 1.48728E-04    1.48319E+04    1.48319E+04    1.48319E+04
 3.67262E-04    5.20405E+03    5.20405E+03    5.20405E+03
 9.06898E-04    3.63895E+03    2.60185E+03    4.67605E+03
 1.42510E-03    2.67415E+03    1.91202E+03    3.43629E+03
 2.23945E-03    2.01578E+03    1.47152E+03    2.56004E+03
 3.51910E-03    1.58066E+03    1.15388E+03    2.00743E+03
 5.53000E-03    1.27200E+03    9.52725E+02    1.59127E+03
 9.11800E-03    1.04685E+03    7.92466E+02    1.30124E+03
 1.50300E-02    8.69872E+02    6.60233E+02    1.07951E+03
 2.47800E-02    7.17420E+02    5.49543E+02    8.85296E+02
 4.08500E-02    5.74850E+02    4.41485E+02    7.08215E+02
 6.73400E-02    3.95602E+02    3.00658E+02    4.90547E+02
 1.11000E-01    2.82339E+02    2.08649E+02    3.56030E+02
 1.83000E-01    2.45222E+02    1.81219E+02    3.09224E+02
 3.02000E-01    2.33528E+02    1.66973E+02    3.00084E+02
 5.00000E-01    2.24688E+02    1.56832E+02    2.92544E+02
 8.21000E-01    1.73905E+02    1.15647E+02    2.32163E+02
 1.35300E+00    1.15193E+02    7.64881E+01    1.53898E+02
 2.23100E+00    4.91999E+01    3.13403E+01    6.70595E+01
 3.67900E+00    8.71358E+00    4.82732E+00    1.25998E+01
 6.06500E+00    1.24092E+00    6.91193E-01    1.79065E+00
