# n + Th230 : (n,n'07)  
# jendl4.0   O.Iwamoto, T.Nakagawa, et al.     EVAL-FEB10
# uncertainties: y
# # energies =    55
#   E(MeV)       xs(mb)       xslow(mb)      xsupp(mb)
 6.37684E-01    0.00000E+00    0.00000E+00    0.00000E+00
 6.80571E-01    5.37664E+01    4.35508E+01    6.39820E+01
 6.89711E-01    6.14605E+01    4.97830E+01    7.31380E+01
 7.00000E-01    6.92681E+01    5.61072E+01    8.24290E+01
 8.00000E-01    1.11933E+02    9.06657E+01    1.33200E+02
 9.00000E-01    1.23114E+02    9.97223E+01    1.46506E+02
 1.00000E+00    1.18642E+02    8.36426E+01    1.53641E+02
 1.10000E+00    1.07701E+02    7.59292E+01    1.39473E+02
 1.20000E+00    9.40106E+01    6.61835E+01    1.21838E+02
 1.30000E+00    8.05984E+01    5.67413E+01    1.04456E+02
 1.40000E+00    6.74299E+01    4.74706E+01    8.73892E+01
 1.50000E+00    5.59911E+01    4.39530E+01    6.80292E+01
 1.60000E+00    4.63288E+01    3.63681E+01    5.62895E+01
 1.70000E+00    3.81694E+01    2.99630E+01    4.63758E+01
 1.80000E+00    3.11702E+01    2.44686E+01    3.78718E+01
 1.90000E+00    2.54280E+01    1.99610E+01    3.08950E+01
 2.00000E+00    2.07147E+01    1.77939E+01    2.36355E+01
 2.30000E+00    1.11401E+01    9.56935E+00    1.27109E+01
 2.50000E+00    7.32118E+00    6.34746E+00    8.29490E+00
 2.70000E+00    4.76670E+00    4.13273E+00    5.40067E+00
 3.00000E+00    2.47081E+00    2.20890E+00    2.73272E+00
 3.50000E+00    8.33256E-01    7.44098E-01    9.22414E-01
 4.00000E+00    2.97218E-01    2.60660E-01    3.33776E-01
 4.50000E+00    1.31897E-01    1.15674E-01    1.48120E-01
 5.00000E+00    7.79318E-02    6.36703E-02    9.21933E-02
 5.50000E+00    5.80496E-02    4.74265E-02    6.86727E-02
 6.00000E+00    4.93658E-02    3.79623E-02    6.07693E-02
 6.50000E+00    4.39306E-02    3.37826E-02    5.40786E-02
 7.00000E+00    3.98711E-02    3.01824E-02    4.95598E-02
 7.50000E+00    3.64311E-02    2.75783E-02    4.52839E-02
 8.00000E+00    3.37823E-02    2.54381E-02    4.21265E-02
 8.50000E+00    3.13472E-02    2.36044E-02    3.90900E-02
 9.00000E+00    2.92740E-02    2.21019E-02    3.64461E-02
 9.50000E+00    2.73102E-02    2.06192E-02    3.40012E-02
 1.00000E+01    2.55431E-02    1.94383E-02    3.16479E-02
 1.05000E+01    2.27640E-02    1.73234E-02    2.82046E-02
 1.10000E+01    1.99714E-02    1.51982E-02    2.47446E-02
 1.15000E+01    2.01989E-02    1.53714E-02    2.50264E-02
 1.20000E+01    2.17335E-02    1.68000E-02    2.66670E-02
 1.25000E+01    2.07560E-02    1.60444E-02    2.54676E-02
 1.30000E+01    1.64051E-02    1.26811E-02    2.01291E-02
 1.35000E+01    1.47671E-02    1.14150E-02    1.81192E-02
 1.40000E+01    1.54376E-02    1.21031E-02    1.87721E-02
 1.45000E+01    1.79680E-02    1.40869E-02    2.18491E-02
 1.50000E+01    1.82918E-02    1.44322E-02    2.21514E-02
 1.55000E+01    1.71171E-02    1.35054E-02    2.07288E-02
 1.60000E+01    1.53905E-02    1.22047E-02    1.85763E-02
 1.65000E+01    1.19775E-02    9.49816E-03    1.44568E-02
 1.70000E+01    1.13557E-02    9.00507E-03    1.37063E-02
 1.75000E+01    1.06062E-02    8.41072E-03    1.28017E-02
 1.80000E+01    1.07133E-02    8.58135E-03    1.28452E-02
 1.85000E+01    1.22572E-02    9.81802E-03    1.46964E-02
 1.90000E+01    1.36559E-02    1.09384E-02    1.63734E-02
 1.95000E+01    1.45026E-02    1.16166E-02    1.73886E-02
 2.00000E+01    1.47166E-02    1.17880E-02    1.76452E-02
