# n + Th230 : (n,n'03)  
# jendl4.0   O.Iwamoto, T.Nakagawa, et al.     EVAL-FEB10
# uncertainties: y
# # energies =    62
#   E(MeV)       xs(mb)       xslow(mb)      xsupp(mb)
 3.58164E-01    0.00000E+00    0.00000E+00    0.00000E+00
 4.00000E-01    1.06229E-02    5.81073E-03    1.54351E-02
 5.00000E-01    1.56464E-01    8.55858E-02    2.27342E-01
 5.10388E-01    1.91627E-01    1.04820E-01    2.78434E-01
 5.74277E-01    5.23209E-01    2.86195E-01    7.60223E-01
 5.96705E-01    6.69719E-01    3.66336E-01    9.73102E-01
 6.00000E-01    6.94710E-01    1.82709E-01    1.20671E+00
 6.37684E-01    1.03500E+00    2.72205E-01    1.79779E+00
 6.80571E-01    1.55507E+00    4.08983E-01    2.70116E+00
 6.89711E-01    1.68352E+00    4.42766E-01    2.92427E+00
 7.00000E-01    1.82120E+00    4.78976E-01    3.16342E+00
 8.00000E-01    3.60893E+00    6.53216E-01    6.56464E+00
 9.00000E-01    5.74891E+00    1.04055E+00    1.04573E+01
 1.00000E+00    8.09418E+00    1.65121E+00    1.45371E+01
 1.10000E+00    1.07172E+01    2.18631E+00    1.92481E+01
 1.20000E+00    1.33522E+01    3.24458E+00    2.34598E+01
 1.30000E+00    1.61924E+01    3.93475E+00    2.84500E+01
 1.40000E+00    1.87265E+01    4.55054E+00    3.29025E+01
 1.50000E+00    2.11158E+01    6.18693E+00    3.60447E+01
 1.60000E+00    2.30662E+01    6.75840E+00    3.93740E+01
 1.70000E+00    2.47861E+01    7.26233E+00    4.23099E+01
 1.80000E+00    2.61931E+01    7.67458E+00    4.47116E+01
 1.90000E+00    2.72481E+01    7.98369E+00    4.65125E+01
 2.00000E+00    2.81240E+01    1.04340E+01    4.58140E+01
 2.30000E+00    2.93457E+01    1.08873E+01    4.78041E+01
 2.50000E+00    2.92765E+01    1.34086E+01    4.51444E+01
 2.70000E+00    2.90297E+01    1.32956E+01    4.47638E+01
 3.00000E+00    2.85181E+01    1.37457E+01    4.32905E+01
 3.50000E+00    2.54642E+01    1.20191E+01    3.89093E+01
 4.00000E+00    2.36052E+01    1.04335E+01    3.67769E+01
 4.50000E+00    2.10287E+01    9.29469E+00    3.27627E+01
 5.00000E+00    1.86611E+01    8.28553E+00    2.90367E+01
 5.50000E+00    1.71157E+01    7.59937E+00    2.66320E+01
 6.00000E+00    1.55978E+01    7.64292E+00    2.35527E+01
 6.50000E+00    1.47087E+01    7.20726E+00    2.22101E+01
 7.00000E+00    1.38229E+01    6.82851E+00    2.08173E+01
 7.50000E+00    1.31215E+01    6.48202E+00    1.97610E+01
 8.00000E+00    1.24206E+01    5.94947E+00    1.88917E+01
 8.50000E+00    1.17367E+01    5.62188E+00    1.78515E+01
 9.00000E+00    1.10528E+01    5.22797E+00    1.68776E+01
 9.50000E+00    1.03937E+01    4.91622E+00    1.58712E+01
 1.00000E+01    9.73457E+00    4.62392E+00    1.48452E+01
 1.05000E+01    9.13045E+00    4.33696E+00    1.39239E+01
 1.10000E+01    8.52633E+00    4.05001E+00    1.30027E+01
 1.15000E+01    7.98569E+00    3.79320E+00    1.21782E+01
 1.20000E+01    7.44505E+00    3.63318E+00    1.12569E+01
 1.25000E+01    6.97342E+00    3.40303E+00    1.05438E+01
 1.30000E+01    6.50178E+00    3.17287E+00    9.83069E+00
 1.35000E+01    6.10302E+00    2.97827E+00    9.22777E+00
 1.40000E+01    5.70427E+00    2.84073E+00    8.56781E+00
 1.45000E+01    5.37436E+00    2.67643E+00    8.07229E+00
 1.50000E+01    5.04446E+00    2.52223E+00    7.56669E+00
 1.55000E+01    4.77212E+00    2.38606E+00    7.15818E+00
 1.60000E+01    4.49977E+00    2.25888E+00    6.74065E+00
 1.65000E+01    4.27139E+00    2.14424E+00    6.39854E+00
 1.70000E+01    4.04301E+00    2.02959E+00    6.05643E+00
 1.75000E+01    3.84739E+00    1.93139E+00    5.76339E+00
 1.80000E+01    3.65177E+00    1.85510E+00    5.44844E+00
 1.85000E+01    3.48209E+00    1.76890E+00    5.19528E+00
 1.90000E+01    3.31240E+00    1.68270E+00    4.94210E+00
 1.95000E+01    3.16515E+00    1.60790E+00    4.72240E+00
 2.00000E+01    3.01790E+00    1.53309E+00    4.50271E+00
