# n + Th230 :  n        
# jendl4.0   O.Iwamoto, T.Nakagawa, et al.     EVAL-FEB10
# uncertainties: y
# # energies =    70
#   E(MeV)       xs(mb)       xslow(mb)      xsupp(mb)
 1.10967E-01    0.00000E+00    0.00000E+00    0.00000E+00
 1.20000E-01    1.53587E-02    1.16112E-02    1.91062E-02
 1.40000E-01    1.84817E-02    1.39722E-02    2.29912E-02
 1.70000E-01    4.05229E-02    3.06353E-02    5.04105E-02
 1.74863E-01    4.18161E-02    3.16130E-02    5.20192E-02
 2.00000E-01    4.58116E-02    3.46336E-02    5.69896E-02
 2.50000E-01    1.44938E-01    1.09573E-01    1.80303E-01
 3.00000E-01    3.07503E-01    2.31857E-01    3.83149E-01
 3.58164E-01    7.43488E-01    5.60590E-01    9.26386E-01
 4.00000E-01    9.88309E-01    7.35302E-01    1.24132E+00
 5.00000E-01    2.51637E+00    1.87218E+00    3.16056E+00
 5.10388E-01    2.88654E+00    2.14759E+00    3.62549E+00
 5.74277E-01    4.10070E+00    3.05092E+00    5.15048E+00
 5.96705E-01    4.37843E+00    3.25755E+00    5.49931E+00
 6.00000E-01    4.40004E+00    3.19003E+00    5.61005E+00
 6.37684E-01    5.28295E+00    3.83014E+00    6.73576E+00
 6.80571E-01    6.83358E+00    4.95435E+00    8.71281E+00
 6.89711E-01    6.92373E+00    5.01970E+00    8.82776E+00
 7.00000E-01    7.02164E+00    5.09069E+00    8.95259E+00
 8.00000E-01    8.75611E+01    7.26757E+01    1.02446E+02
 9.00000E-01    2.76451E+02    2.29454E+02    3.23448E+02
 1.00000E+00    5.12377E+02    4.04778E+02    6.19976E+02
 1.10000E+00    7.55865E+02    5.97133E+02    9.14597E+02
 1.20000E+00    9.94488E+02    7.48849E+02    1.24013E+03
 1.30000E+00    1.22338E+03    9.21205E+02    1.52555E+03
 1.40000E+00    1.43470E+03    1.08033E+03    1.78907E+03
 1.50000E+00    1.62816E+03    1.19344E+03    2.06288E+03
 1.60000E+00    1.79998E+03    1.31939E+03    2.28057E+03
 1.70000E+00    1.95395E+03    1.43225E+03    2.47565E+03
 1.80000E+00    2.08958E+03    1.53166E+03    2.64750E+03
 1.90000E+00    2.20729E+03    1.61794E+03    2.79664E+03
 2.00000E+00    2.30849E+03    1.75445E+03    2.86253E+03
 2.30000E+00    2.52637E+03    1.92004E+03    3.13270E+03
 2.50000E+00    2.61764E+03    2.11767E+03    3.11761E+03
 2.70000E+00    2.67987E+03    2.16801E+03    3.19173E+03
 3.00000E+00    2.73552E+03    2.32246E+03    3.14858E+03
 3.50000E+00    2.77548E+03    2.42022E+03    3.13074E+03
 4.00000E+00    2.78542E+03    2.48459E+03    3.08625E+03
 4.50000E+00    2.76701E+03    2.46817E+03    3.06585E+03
 5.00000E+00    2.77236E+03    2.50982E+03    3.03490E+03
 5.50000E+00    2.75219E+03    2.49156E+03    3.01282E+03
 6.00000E+00    2.72535E+03    2.46072E+03    2.98998E+03
 6.50000E+00    2.50687E+03    2.26345E+03    2.75029E+03
 7.00000E+00    2.23039E+03    1.93598E+03    2.52480E+03
 7.50000E+00    1.77053E+03    1.53682E+03    2.00424E+03
 8.00000E+00    1.30965E+03    1.11189E+03    1.50741E+03
 8.50000E+00    9.53723E+02    8.09711E+02    1.09774E+03
 9.00000E+00    7.13349E+02    5.96360E+02    8.30338E+02
 9.50000E+00    5.52361E+02    4.61774E+02    6.42948E+02
 1.00000E+01    4.47325E+02    3.66806E+02    5.27844E+02
 1.05000E+01    3.78416E+02    3.10301E+02    4.46531E+02
 1.10000E+01    3.29269E+02    2.70001E+02    3.88537E+02
 1.15000E+01    2.93132E+02    2.40368E+02    3.45896E+02
 1.20000E+01    2.66045E+02    2.10974E+02    3.21116E+02
 1.25000E+01    2.46934E+02    1.95819E+02    2.98049E+02
 1.30000E+01    2.31405E+02    1.83504E+02    2.79306E+02
 1.35000E+01    2.18632E+02    1.73375E+02    2.63889E+02
 1.40000E+01    2.07633E+02    1.62161E+02    2.53105E+02
 1.45000E+01    1.97843E+02    1.54515E+02    2.41171E+02
 1.50000E+01    1.89066E+02    1.47661E+02    2.30471E+02
 1.55000E+01    1.82078E+02    1.42203E+02    2.21953E+02
 1.60000E+01    1.74452E+02    1.36596E+02    2.12308E+02
 1.65000E+01    1.68207E+02    1.31706E+02    2.04708E+02
 1.70000E+01    1.62240E+02    1.27034E+02    1.97446E+02
 1.75000E+01    1.56710E+02    1.22704E+02    1.90716E+02
 1.80000E+01    1.50210E+02    1.18516E+02    1.81904E+02
 1.85000E+01    1.45059E+02    1.14452E+02    1.75666E+02
 1.90000E+01    1.40035E+02    1.10488E+02    1.69582E+02
 1.95000E+01    1.35175E+02    1.06653E+02    1.63697E+02
 2.00000E+01    1.31536E+02    1.03782E+02    1.59290E+02
