# n + Th230 : (n,n'08)  
# jendl4.0   O.Iwamoto, T.Nakagawa, et al.     EVAL-FEB10
# uncertainties: y
# # energies =    54
#   E(MeV)       xs(mb)       xslow(mb)      xsupp(mb)
 6.80571E-01    0.00000E+00    0.00000E+00    0.00000E+00
 6.89711E-01    2.86297E+01    2.33046E+01    3.39548E+01
 7.00000E-01    4.66660E+01    3.79861E+01    5.53459E+01
 8.00000E-01    1.63761E+02    1.33301E+02    1.94221E+02
 9.00000E-01    2.14302E+02    1.74442E+02    2.54162E+02
 1.00000E+00    2.28447E+02    1.54202E+02    3.02692E+02
 1.10000E+00    2.20570E+02    1.48885E+02    2.92255E+02
 1.20000E+00    2.05332E+02    1.31207E+02    2.79457E+02
 1.30000E+00    1.84382E+02    1.17820E+02    2.50944E+02
 1.40000E+00    1.62949E+02    1.04124E+02    2.21774E+02
 1.50000E+00    1.40635E+02    9.81632E+01    1.83107E+02
 1.60000E+00    1.20870E+02    8.43673E+01    1.57373E+02
 1.70000E+00    1.03536E+02    7.22681E+01    1.34804E+02
 1.80000E+00    8.73514E+01    6.09713E+01    1.13732E+02
 1.90000E+00    7.32662E+01    5.11398E+01    9.53926E+01
 2.00000E+00    6.10383E+01    4.88917E+01    7.31849E+01
 2.30000E+00    3.46621E+01    2.77643E+01    4.15599E+01
 2.50000E+00    2.33294E+01    1.96900E+01    2.69688E+01
 2.70000E+00    1.54920E+01    1.30752E+01    1.79088E+01
 3.00000E+00    8.20427E+00    7.31821E+00    9.09033E+00
 3.50000E+00    2.77615E+00    2.49576E+00    3.05654E+00
 4.00000E+00    9.27507E-01    8.09714E-01    1.04530E+00
 4.50000E+00    3.37763E-01    2.94867E-01    3.80659E-01
 5.00000E+00    1.46898E-01    1.24276E-01    1.69520E-01
 5.50000E+00    8.29898E-02    7.02094E-02    9.57702E-02
 6.00000E+00    5.97043E-02    4.73455E-02    7.20631E-02
 6.50000E+00    4.89828E-02    3.88434E-02    5.91222E-02
 7.00000E+00    4.27990E-02    3.26128E-02    5.29852E-02
 7.50000E+00    3.83856E-02    2.92498E-02    4.75214E-02
 8.00000E+00    3.52380E-02    2.65695E-02    4.39066E-02
 8.50000E+00    3.25168E-02    2.45177E-02    4.05159E-02
 9.00000E+00    3.02739E-02    2.28568E-02    3.76910E-02
 9.50000E+00    2.82059E-02    2.12955E-02    3.51163E-02
 1.00000E+01    2.63848E-02    2.00788E-02    3.26908E-02
 1.05000E+01    2.60090E-02    1.97928E-02    3.22252E-02
 1.10000E+01    2.36294E-02    1.79820E-02    2.92768E-02
 1.15000E+01    2.25240E-02    1.71408E-02    2.79072E-02
 1.20000E+01    2.12309E-02    1.64115E-02    2.60503E-02
 1.25000E+01    2.14043E-02    1.65455E-02    2.62631E-02
 1.30000E+01    1.94569E-02    1.50402E-02    2.38736E-02
 1.35000E+01    1.74635E-02    1.34993E-02    2.14277E-02
 1.40000E+01    1.81029E-02    1.41746E-02    2.20312E-02
 1.45000E+01    1.72764E-02    1.35274E-02    2.10254E-02
 1.50000E+01    1.61742E-02    1.27614E-02    1.95870E-02
 1.55000E+01    1.61102E-02    1.27109E-02    1.95095E-02
 1.60000E+01    1.58437E-02    1.25641E-02    1.91233E-02
 1.65000E+01    1.41903E-02    1.12529E-02    1.71277E-02
 1.70000E+01    1.36368E-02    1.08140E-02    1.64596E-02
 1.75000E+01    1.32642E-02    1.05185E-02    1.60099E-02
 1.80000E+01    1.26793E-02    1.01308E-02    1.52278E-02
 1.85000E+01    1.17228E-02    9.36652E-03    1.40791E-02
 1.90000E+01    1.09799E-02    8.77294E-03    1.31869E-02
 1.95000E+01    1.18418E-02    9.46160E-03    1.42220E-02
 2.00000E+01    1.23194E-02    9.84320E-03    1.47956E-02
