# n + Th230 : (n,n'04)  
# jendl4.0   O.Iwamoto, T.Nakagawa, et al.     EVAL-FEB10
# uncertainties: y
# # energies =    59
#   E(MeV)       xs(mb)       xslow(mb)      xsupp(mb)
 5.10388E-01    0.00000E+00    0.00000E+00    0.00000E+00
 5.74277E-01    2.18264E+02    1.75484E+02    2.61044E+02
 5.96705E-01    2.55108E+02    2.05107E+02    3.05109E+02
 6.00000E-01    2.59878E+02    2.08942E+02    3.10814E+02
 6.37684E-01    3.03564E+02    2.44065E+02    3.63063E+02
 6.80571E-01    3.32331E+02    2.67194E+02    3.97468E+02
 6.89711E-01    3.34742E+02    2.69133E+02    4.00351E+02
 7.00000E-01    3.39205E+02    2.72721E+02    4.05689E+02
 8.00000E-01    3.47559E+02    2.51633E+02    4.43485E+02
 9.00000E-01    3.30199E+02    2.39064E+02    4.21334E+02
 1.00000E+00    3.03953E+02    2.06080E+02    4.01826E+02
 1.10000E+00    2.66908E+02    1.80964E+02    3.52852E+02
 1.20000E+00    2.31115E+02    1.64092E+02    2.98138E+02
 1.30000E+00    1.95360E+02    1.38706E+02    2.52014E+02
 1.40000E+00    1.63716E+02    1.16238E+02    2.11194E+02
 1.50000E+00    1.37212E+02    1.11142E+02    1.63282E+02
 1.60000E+00    1.13075E+02    9.15908E+01    1.34559E+02
 1.70000E+00    9.27595E+01    7.51352E+01    1.10384E+02
 1.80000E+00    7.54404E+01    6.11067E+01    8.97741E+01
 1.90000E+00    6.14915E+01    4.98081E+01    7.31749E+01
 2.00000E+00    4.97452E+01    4.47956E+01    5.46948E+01
 2.30000E+00    2.62433E+01    2.36321E+01    2.88545E+01
 2.50000E+00    1.70213E+01    1.53021E+01    1.87404E+01
 2.70000E+00    1.09602E+01    9.85322E+00    1.20672E+01
 3.00000E+00    5.62610E+00    5.00160E+00    6.25060E+00
 3.50000E+00    1.84855E+00    1.62118E+00    2.07592E+00
 4.00000E+00    5.81215E-01    4.96939E-01    6.65491E-01
 4.50000E+00    1.85950E-01    1.58987E-01    2.12913E-01
 5.00000E+00    5.89275E-02    4.79670E-02    6.98880E-02
 5.50000E+00    1.94799E-02    1.58566E-02    2.31032E-02
 6.00000E+00    6.69673E-03    5.25024E-03    8.14322E-03
 6.50000E+00    2.42688E-03    1.90267E-03    2.95109E-03
 7.00000E+00    9.18325E-04    7.11702E-04    1.12495E-03
 7.50000E+00    3.63707E-04    2.81873E-04    4.45541E-04
 8.00000E+00    1.49282E-04    1.16141E-04    1.82423E-04
 8.50000E+00    6.36013E-05    4.94818E-05    7.77208E-05
 9.00000E+00    2.78325E-05    2.17650E-05    3.39000E-05
 9.50000E+00    1.25657E-05    9.82638E-06    1.53050E-05
 1.00000E+01    5.78640E-06    4.52496E-06    7.04784E-06
 1.05000E+01    2.73974E-06    2.14248E-06    3.33700E-06
 1.10000E+01    1.48533E-03    1.16153E-03    1.80913E-03
 1.15000E+01    6.47810E-07    5.06587E-07    7.89033E-07
 1.20000E+01    3.22850E-07    2.50532E-07    3.95168E-07
 1.25000E+01    1.64350E-07    1.27536E-07    2.01164E-07
 1.30000E+01    1.61400E-03    1.25246E-03    1.97554E-03
 1.35000E+01    4.58427E-03    3.55739E-03    5.61115E-03
 1.40000E+01    2.71413E-03    2.12788E-03    3.30038E-03
 1.45000E+01    1.26740E-08    9.93642E-09    1.54116E-08
 1.50000E+01    6.89130E-09    5.27184E-09    8.51076E-09
 1.55000E+01    3.80450E-09    2.91044E-09    4.69856E-09
 1.60000E+01    2.11720E-09    1.61119E-09    2.62321E-09
 1.65000E+01    1.19420E-09    9.08786E-10    1.47961E-09
 1.70000E+01    4.50862E-03    3.43106E-03    5.58618E-03
 1.75000E+01    6.80104E-03    5.17559E-03    8.42649E-03
 1.80000E+01    7.43839E-03    5.95815E-03    8.91863E-03
 1.85000E+01    6.66949E-03    5.34226E-03    7.99672E-03
 1.90000E+01    5.02414E-03    4.02434E-03    6.02394E-03
 1.95000E+01    2.29480E-03    1.83813E-03    2.75147E-03
 2.00000E+01    2.79380E-11    2.23783E-11    3.34977E-11
