# n + Th230 : (n,n'05)  
# jendl4.0   O.Iwamoto, T.Nakagawa, et al.     EVAL-FEB10
# uncertainties: y
# # energies =    58
#   E(MeV)       xs(mb)       xslow(mb)      xsupp(mb)
 5.74277E-01    0.00000E+00    0.00000E+00    0.00000E+00
 5.96705E-01    2.34265E+01    1.72185E+01    2.96345E+01
 6.00000E-01    2.65524E+01    1.95160E+01    3.35888E+01
 6.37684E-01    6.10544E+01    4.48750E+01    7.72338E+01
 6.80571E-01    9.49968E+01    6.98227E+01    1.20171E+02
 6.89711E-01    9.88811E+01    7.26776E+01    1.25085E+02
 7.00000E-01    1.04706E+02    7.69589E+01    1.32453E+02
 8.00000E-01    1.47083E+02    1.01193E+02    1.92973E+02
 9.00000E-01    1.67078E+02    1.14950E+02    2.19206E+02
 1.00000E+00    1.72311E+02    1.06833E+02    2.37789E+02
 1.10000E+00    1.67633E+02    1.03932E+02    2.31334E+02
 1.20000E+00    1.56218E+02    9.84173E+01    2.14019E+02
 1.30000E+00    1.43052E+02    9.01228E+01    1.95981E+02
 1.40000E+00    1.27434E+02    8.02834E+01    1.74585E+02
 1.50000E+00    1.12993E+02    8.02250E+01    1.45761E+02
 1.60000E+00    9.92969E+01    7.05008E+01    1.28093E+02
 1.70000E+00    8.58233E+01    6.09345E+01    1.10712E+02
 1.80000E+00    7.34779E+01    5.21693E+01    9.47865E+01
 1.90000E+00    6.24001E+01    4.43041E+01    8.04961E+01
 2.00000E+00    5.27874E+01    4.40775E+01    6.14973E+01
 2.30000E+00    3.07668E+01    2.56903E+01    3.58433E+01
 2.50000E+00    2.10242E+01    1.87326E+01    2.33158E+01
 2.70000E+00    1.41451E+01    1.26033E+01    1.56869E+01
 3.00000E+00    7.66016E+00    6.92172E+00    8.39860E+00
 3.50000E+00    2.67077E+00    2.38500E+00    2.95654E+00
 4.00000E+00    8.83315E-01    7.66717E-01    9.99913E-01
 4.50000E+00    2.92050E-01    2.53499E-01    3.30601E-01
 5.00000E+00    9.55447E-02    7.82511E-02    1.12838E-01
 5.50000E+00    3.22641E-02    2.64243E-02    3.81039E-02
 6.00000E+00    1.13379E-02    8.94560E-03    1.37302E-02
 6.50000E+00    4.27903E-03    3.37615E-03    5.18190E-03
 7.00000E+00    3.05542E-03    2.56350E-03    3.54734E-03
 7.50000E+00    3.13710E-03    2.63203E-03    3.64217E-03
 8.00000E+00    3.59676E-03    2.77670E-03    4.41682E-03
 8.50000E+00    4.09036E-03    3.15776E-03    5.02296E-03
 9.00000E+00    4.54149E-03    3.44245E-03    5.64053E-03
 9.50000E+00    4.89670E-03    3.71170E-03    6.08170E-03
 1.00000E+01    5.17310E-03    3.94190E-03    6.40430E-03
 1.05000E+01    5.11330E-06    3.89633E-06    6.33027E-06
 1.10000E+01    6.69310E-03    5.10014E-03    8.28606E-03
 1.15000E+01    8.87064E-03    6.75943E-03    1.09819E-02
 1.20000E+01    6.19149E-03    4.78602E-03    7.59696E-03
 1.25000E+01    4.44835E-04    3.43857E-04    5.45813E-04
 1.30000E+01    1.55769E-03    1.20409E-03    1.91129E-03
 1.35000E+01    6.12917E-03    4.73785E-03    7.52049E-03
 1.40000E+01    8.51444E-03    6.67532E-03    1.03536E-02
 1.45000E+01    8.61629E-03    6.75517E-03    1.04774E-02
 1.50000E+01    6.98695E-03    5.51270E-03    8.46120E-03
 1.55000E+01    4.14755E-03    3.27242E-03    5.02268E-03
 1.60000E+01    3.96696E-04    3.14580E-04    4.78812E-04
 1.65000E+01    2.35120E-09    1.86450E-09    2.83790E-09
 1.70000E+01    3.38340E-03    2.68304E-03    4.08376E-03
 1.75000E+01    5.61744E-03    4.45463E-03    6.78025E-03
 1.80000E+01    7.01391E-03    5.61814E-03    8.40968E-03
 1.85000E+01    7.65842E-03    6.13439E-03    9.18245E-03
 1.90000E+01    8.05363E-03    6.45096E-03    9.65630E-03
 1.95000E+01    7.94799E-03    6.36634E-03    9.52964E-03
 2.00000E+01    7.32265E-03    5.86544E-03    8.77986E-03
