# n + Th230 : (n,tot)   
# jendl4.0   O.Iwamoto, T.Nakagawa, et al.     EVAL-FEB10
# uncertainties: y
# # energies =    69
#   E(MeV)       xs(mb)       xslow(mb)      xsupp(mb)
 1.00000E-10    1.70954E+05    1.70954E+05    1.70954E+05
 5.00000E-09    5.41053E+04    5.41053E+04    5.41053E+04
 1.00000E-08    4.36631E+04    4.36631E+04    4.36631E+04
 1.50000E-08    3.84883E+04    3.84883E+04    3.84883E+04
 2.00000E-08    3.52383E+04    3.52383E+04    3.52383E+04
 2.50000E-08    3.29554E+04    3.29554E+04    3.29554E+04
 3.00000E-08    3.12405E+04    3.12405E+04    3.12405E+04
 3.50000E-08    2.96783E+04    2.96783E+04    2.96783E+04
 4.20000E-08    2.81700E+04    2.81700E+04    2.81700E+04
 5.00000E-08    2.69285E+04    2.69285E+04    2.69285E+04
 5.80000E-08    2.58990E+04    2.58990E+04    2.58990E+04
 6.70000E-08    2.48677E+04    2.48677E+04    2.48677E+04
 8.00000E-08    2.37196E+04    2.37196E+04    2.37196E+04
 1.00000E-07    2.23576E+04    2.23576E+04    2.23576E+04
 1.40000E-07    2.11946E+04    2.11946E+04    2.11946E+04
 1.80000E-07    2.05021E+04    2.05021E+04    2.05021E+04
 2.20000E-07    2.01133E+04    2.01133E+04    2.01133E+04
 2.50000E-07    1.98989E+04    1.98989E+04    1.98989E+04
 2.80000E-07    1.97793E+04    1.97793E+04    1.97793E+04
 3.00000E-07    1.97197E+04    1.97197E+04    1.97197E+04
 3.20000E-07    1.96830E+04    1.96830E+04    1.96830E+04
 3.50000E-07    1.97020E+04    1.97020E+04    1.97020E+04
 4.00000E-07    1.99661E+04    1.99661E+04    1.99661E+04
 5.00000E-07    2.09049E+04    2.09049E+04    2.09049E+04
 6.25000E-07    2.32932E+04    2.32932E+04    2.32932E+04
 7.80000E-07    2.67673E+04    2.67673E+04    2.67673E+04
 8.50000E-07    2.99483E+04    2.99483E+04    2.99483E+04
 9.10000E-07    3.33164E+04    3.33164E+04    3.33164E+04
 9.50000E-07    3.59824E+04    3.59824E+04    3.59824E+04
 9.72000E-07    3.83555E+04    3.83555E+04    3.83555E+04
 9.96000E-07    4.12647E+04    4.12647E+04    4.12647E+04
 1.02000E-06    4.48080E+04    4.48080E+04    4.48080E+04
 1.04500E-06    4.92805E+04    4.92805E+04    4.92805E+04
 1.07100E-06    5.49119E+04    5.49119E+04    5.49119E+04
 1.09700E-06    6.19955E+04    6.19955E+04    6.19955E+04
 1.12300E-06    7.12737E+04    7.12737E+04    7.12737E+04
 1.15000E-06    1.50150E+05    1.50150E+05    1.50150E+05
 1.30000E-06    4.95192E+06    4.95192E+06    4.95192E+06
 1.50000E-06    1.43072E+05    1.43072E+05    1.43072E+05
 2.10000E-06    1.87659E+04    1.87659E+04    1.87659E+04
 2.60000E-06    1.42820E+04    1.42820E+04    1.42820E+04
 3.30000E-06    1.27480E+04    1.27480E+04    1.27480E+04
 4.00000E-06    1.12161E+04    1.12161E+04    1.12161E+04
 9.87700E-06    9.15758E+03    9.15758E+03    9.15758E+03
 1.59680E-05    4.42657E+05    4.42657E+05    4.42657E+05
 2.77000E-05    7.71124E+04    7.71124E+04    7.71124E+04
 4.80520E-05    6.18956E+04    6.18956E+04    6.18956E+04
 7.55014E-05    6.68330E+04    6.68330E+04    6.68330E+04
 1.48728E-04    6.93809E+04    6.93809E+04    6.93809E+04
 3.67262E-04    3.58617E+04    3.58617E+04    3.58617E+04
 9.06898E-04    2.44071E+04    1.50836E+04    3.37305E+04
 1.42510E-03    2.19792E+04    1.35832E+04    3.03753E+04
 2.23945E-03    2.00263E+04    1.28969E+04    2.71557E+04
 3.51910E-03    1.84967E+04    1.19119E+04    2.50816E+04
 5.53000E-03    1.72063E+04    1.16659E+04    2.27467E+04
 9.11800E-03    1.61480E+04    1.12228E+04    2.10731E+04
 1.50300E-02    1.52714E+04    1.07358E+04    1.98071E+04
 2.47800E-02    1.45014E+04    1.05570E+04    1.84458E+04
 4.08500E-02    1.37544E+04    1.04396E+04    1.70692E+04
 6.73400E-02    1.29166E+04    1.01008E+04    1.57324E+04
 1.11000E-01    1.18502E+04    9.72902E+03    1.39714E+04
 1.83000E-01    1.06439E+04    8.73865E+03    1.25492E+04
 3.02000E-01    9.19141E+03    8.69416E+03    9.68867E+03
 5.00000E-01    7.80764E+03    7.48675E+03    8.12853E+03
 8.21000E-01    6.91249E+03    6.23852E+03    7.58646E+03
 1.35300E+00    7.00994E+03    6.37554E+03    7.64434E+03
 2.23100E+00    7.68405E+03    7.21302E+03    8.15508E+03
 3.67900E+00    7.51498E+03    7.14675E+03    7.88321E+03
 6.06500E+00    6.21175E+03    5.81234E+03    6.61117E+03
