# n + Li  6 : (n,tot)   
# jendl.ad   S.CHIBA AND K.SHIBATA             EVAL-MAR85
# uncertainties: n
# # energies =    69
#   E(MeV)       xs(mb) 
 1.00000E-10    6.56872E+06
 5.00000E-09    1.78851E+06
 1.00000E-08    1.35454E+06
 1.50000E-08    1.13807E+06
 2.00000E-08    1.00125E+06
 2.50000E-08    9.04605E+05
 3.00000E-08    8.31523E+05
 3.50000E-08    7.64493E+05
 4.20000E-08    6.99283E+05
 5.00000E-08    6.45009E+05
 5.80000E-08    5.99483E+05
 6.70000E-08    5.53221E+05
 8.00000E-08    5.00630E+05
 1.00000E-07    4.35550E+05
 1.40000E-07    3.75824E+05
 1.80000E-07    3.35596E+05
 2.20000E-07    3.09050E+05
 2.50000E-07    2.90950E+05
 2.80000E-07    2.77961E+05
 3.00000E-07    2.68830E+05
 3.20000E-07    2.58687E+05
 3.50000E-07    2.44680E+05
 4.00000E-07    2.23869E+05
 5.00000E-07    2.00267E+05
 6.25000E-07    1.79174E+05
 7.80000E-07    1.65853E+05
 8.50000E-07    1.59576E+05
 9.10000E-07    1.55200E+05
 9.50000E-07    1.52655E+05
 9.72000E-07    1.50867E+05
 9.96000E-07    1.49062E+05
 1.02000E-06    1.47335E+05
 1.04500E-06    1.45541E+05
 1.07100E-06    1.43730E+05
 1.09700E-06    1.42071E+05
 1.12300E-06    1.40414E+05
 1.15000E-06    1.35358E+05
 1.30000E-06    1.26670E+05
 1.50000E-06    1.12473E+05
 2.10000E-06    9.79436E+04
 2.60000E-06    8.74834E+04
 3.30000E-06    7.85487E+04
 4.00000E-06    6.01908E+04
 9.87700E-06    4.23205E+04
 1.59680E-05    3.27224E+04
 2.77000E-05    2.48396E+04
 4.80520E-05    1.93110E+04
 7.55014E-05    1.45951E+04
 1.48728E-04    9.86020E+03
 3.67262E-04    6.27304E+03
 9.06898E-04    4.44070E+03
 1.42510E-03    3.54339E+03
 2.23945E-03    2.82894E+03
 3.51910E-03    2.26053E+03
 5.53000E-03    1.78853E+03
 9.11800E-03    1.40509E+03
 1.50300E-02    1.10987E+03
 2.47800E-02    8.90127E+02
 4.08500E-02    7.36328E+02
 6.73400E-02    6.65886E+02
 1.11000E-01    9.02950E+02
 1.83000E-01    2.45485E+03
 3.02000E-01    6.97275E+02
 5.00000E-01    3.35509E+02
 8.21000E-01    2.67612E+02
 1.35300E+00    2.20294E+02
 2.23100E+00    1.59865E+02
 3.67900E+00    1.18171E+02
 6.06500E+00    7.40295E+01
