# n + Li  6 : (n,tot)   
# jendl.ad   S.CHIBA AND K.SHIBATA             EVAL-MAR85
# uncertainties: n
# # energies =   171
#   E(MeV)       xs(mb) 
 1.00000E-11    1.01733E+07
 1.00000E-07    3.38762E+05
 4.13990E-07    2.18620E+05
 5.31580E-07    1.92938E+05
 6.82560E-07    1.70270E+05
 8.76420E-07    1.50273E+05
 1.12540E-06    1.32611E+05
 1.44500E-06    1.17029E+05
 1.85540E-06    1.03393E+05
 2.37240E-06    9.12339E+04
 3.05900E-06    8.04320E+04
 3.92790E-06    7.09660E+04
 5.04350E-06    6.26345E+04
 6.47600E-06    5.52740E+04
 8.31530E-06    4.87750E+04
 1.06770E-05    4.30397E+04
 1.37100E-05    3.79806E+04
 1.76030E-05    3.35198E+04
 2.26030E-05    2.95299E+04
 2.92030E-05    2.60551E+04
 3.72670E-05    2.30291E+04
 4.78510E-05    2.03219E+04
 6.14420E-05    1.79368E+04
 7.88930E-05    1.58248E+04
 1.01300E-04    1.39622E+04
 1.30070E-04    1.23240E+04
 1.67020E-04    1.08723E+04
 2.14450E-04    9.59293E+03
 2.75360E-04    8.46776E+03
 3.53580E-04    7.47045E+03
 4.54000E-04    6.59182E+03
 5.82950E-04    5.81856E+03
 7.48520E-04    5.13356E+03
 9.61120E-04    4.52952E+03
 1.23410E-03    3.99911E+03
 1.58460E-03    3.52844E+03
 2.03470E-03    3.23256E+03
 2.24870E-03    3.07533E+03
 2.48520E-03    2.96306E+03
 2.61260E-03    2.89045E+03
 2.74650E-03    2.78352E+03
 3.03540E-03    2.64855E+03
 3.35460E-03    2.52100E+03
 3.70740E-03    2.36878E+03
 4.30740E-03    2.14735E+03
 5.53080E-03    1.89792E+03
 7.10170E-03    1.67895E+03
 9.11880E-03    1.48811E+03
 1.17090E-02    1.32182E+03
 1.50340E-02    1.17377E+03
 1.93050E-02    1.07468E+03
 2.18750E-02    1.02793E+03
 2.35790E-02    1.00512E+03
 2.41760E-02    9.94292E+02
 2.47880E-02    9.78176E+02
 2.60580E-02    9.59857E+02
 2.70000E-02    9.40921E+02
 2.85000E-02    9.07630E+02
 3.18280E-02    8.73651E+02
 3.43070E-02    8.30753E+02
 4.08680E-02    7.83654E+02
 4.63090E-02    7.48657E+02
 5.24750E-02    7.24388E+02
 5.65620E-02    6.98495E+02
 6.73790E-02    6.77698E+02
 7.20000E-02    6.68043E+02
 7.95000E-02    6.61359E+02
 8.25000E-02    6.59709E+02
 8.65170E-02    6.58717E+02
 9.80370E-02    6.68779E+02
 1.11090E-01    6.87619E+02
 1.16790E-01    7.04254E+02
 1.22770E-01    7.26905E+02
 1.29070E-01    7.55321E+02
 1.35690E-01    7.93615E+02
 1.42640E-01    8.59190E+02
 1.49960E-01    9.41285E+02
 1.57640E-01    1.04020E+03
 1.65730E-01    1.17572E+03
 1.74220E-01    1.35870E+03
 1.83160E-01    1.60613E+03
 1.92550E-01    1.93565E+03
 2.02420E-01    2.35320E+03
 2.12800E-01    2.82208E+03
 2.23710E-01    3.21643E+03
 2.35180E-01    3.34500E+03
 2.47240E-01    2.83353E+03
 2.73240E-01    2.03139E+03
 2.87250E-01    1.68538E+03
 2.94520E-01    1.55093E+03
 2.97200E-01    1.50300E+03
 2.98500E-01    1.44812E+03
 3.01970E-01    1.14964E+03
 3.33730E-01    8.01696E+02
 3.68830E-01    6.47475E+02
 3.87740E-01    5.77643E+02
 4.07620E-01    5.02388E+02
 4.50490E-01    4.33210E+02
 4.97870E-01    3.96478E+02
 5.23400E-01    3.77378E+02
 5.50230E-01    3.61123E+02
 5.78440E-01    3.47234E+02
 6.08100E-01    3.35286E+02
 6.39280E-01    3.24921E+02
 6.72060E-01    3.15860E+02
 7.06510E-01    3.07874E+02
 7.42740E-01    3.00761E+02
 7.80820E-01    2.94366E+02
 8.20850E-01    2.88579E+02
 8.62940E-01    2.83292E+02
 9.07180E-01    2.78006E+02
 9.61640E-01    2.73419E+02
 1.00260E+00    2.67281E+02
 1.10800E+00    2.60910E+02
 1.16480E+00    2.56640E+02
 1.22460E+00    2.52255E+02
 1.28730E+00    2.47666E+02
 1.35340E+00    2.42794E+02
 1.42270E+00    2.37577E+02
 1.49570E+00    2.31930E+02
 1.57240E+00    2.25813E+02
 1.65300E+00    2.19177E+02
 1.73770E+00    2.12286E+02
 1.82680E+00    2.09760E+02
 1.92050E+00    2.08818E+02
 2.01900E+00    2.07829E+02
 2.12250E+00    2.06787E+02
 2.23130E+00    2.03301E+02
 2.30690E+00    1.98692E+02
 2.34570E+00    1.96328E+02
 2.36530E+00    1.94732E+02
 2.38520E+00    1.90679E+02
 2.46600E+00    1.82363E+02
 2.59240E+00    1.72030E+02
 2.72530E+00    1.61228E+02
 2.86500E+00    1.50086E+02
 3.01190E+00    1.40084E+02
 3.16640E+00    1.33057E+02
 3.32870E+00    1.32826E+02
 3.67880E+00    1.37773E+02
 4.06570E+00    1.36317E+02
 4.49330E+00    1.21436E+02
 4.72370E+00    1.17191E+02
 4.96590E+00    1.10829E+02
 5.22050E+00    1.01958E+02
 5.48810E+00    9.39633E+01
 5.76950E+00    8.81301E+01
 6.06530E+00    8.31790E+01
 6.37630E+00    7.90127E+01
 6.59240E+00    7.67814E+01
 6.70320E+00    7.52691E+01
 7.04690E+00    7.32388E+01
 7.40820E+00    7.14617E+01
 7.78800E+00    7.03203E+01
 8.18730E+00    6.98816E+01
 8.60710E+00    7.05480E+01
 9.04840E+00    7.24582E+01
 9.51230E+00    7.56579E+01
 1.00000E+01    7.94567E+01
 1.05130E+01    8.38782E+01
 1.10520E+01    8.89416E+01
 1.16180E+01    9.47549E+01
 1.22140E+01    1.01547E+02
 1.28400E+01    1.07938E+02
 1.34990E+01    1.11065E+02
 1.38400E+01    1.12628E+02
 1.41910E+01    1.12259E+02
 1.45500E+01    1.11626E+02
 1.49180E+01    1.10636E+02
 1.56830E+01    1.08874E+02
 1.64870E+01    1.06116E+02
