# n + Os186 : (n,n'21)  
# jendl4.0   N.Iwamoto                         EVAL-Jan10
# uncertainties: n
# # energies =    51
#   E(MeV)       xs(mb) 
 1.64971E+00    0.00000E+00
 1.66255E+00    1.85120E+01
 1.70000E+00    3.21462E+01
 1.71385E+00    3.57903E+01
 1.76030E+00    4.60256E+01
 1.76402E+00    4.67664E+01
 1.78151E+00    4.94598E+01
 1.78428E+00    4.99496E+01
 1.78543E+00    5.01549E+01
 1.80000E+00    5.27235E+01
 1.82245E+00    5.63926E+01
 1.90000E+00    6.82895E+01
 2.00000E+00    7.84335E+01
 2.25000E+00    8.01962E+01
 2.50000E+00    6.85933E+01
 2.75000E+00    5.09249E+01
 3.00000E+00    3.70319E+01
 3.50000E+00    1.76327E+01
 4.00000E+00    8.09587E+00
 4.50000E+00    3.67049E+00
 5.00000E+00    1.69472E+00
 5.50000E+00    8.32848E-01
 6.00000E+00    4.60670E-01
 6.50000E+00    2.98239E-01
 7.00000E+00    2.25241E-01
 7.50000E+00    1.89522E-01
 8.00000E+00    1.69438E-01
 8.50000E+00    1.56270E-01
 9.00000E+00    1.46491E-01
 9.50000E+00    1.38538E-01
 1.00000E+01    1.31645E-01
 1.05000E+01    1.25369E-01
 1.10000E+01    1.19466E-01
 1.15000E+01    1.13817E-01
 1.20000E+01    1.08386E-01
 1.25000E+01    1.03207E-01
 1.30000E+01    9.82909E-02
 1.35000E+01    9.36617E-02
 1.40000E+01    8.93323E-02
 1.45000E+01    8.52996E-02
 1.50000E+01    8.15487E-02
 1.55000E+01    7.80577E-02
 1.60000E+01    7.47990E-02
 1.65000E+01    7.17451E-02
 1.70000E+01    6.88679E-02
 1.75000E+01    6.61462E-02
 1.80000E+01    6.35629E-02
 1.85000E+01    6.11069E-02
 1.90000E+01    5.87699E-02
 1.95000E+01    5.65497E-02
 2.00000E+01    5.44443E-02
