# n + Os186 : (n,n'11)  
# jendl4.0   N.Iwamoto                         EVAL-Jan10
# uncertainties: n
# # energies =    63
#   E(MeV)       xs(mb) 
 1.42865E+00    0.00000E+00
 1.46078E+00    1.36738E-04
 1.46390E+00    1.56459E-04
 1.46884E+00    1.91395E-04
 1.48810E+00    3.73492E-04
 1.49938E+00    5.20677E-04
 1.50000E+00    5.22291E-04
 1.56829E+00    2.09907E-03
 1.57952E+00    2.50746E-03
 1.60000E+00    3.39557E-03
 1.63200E+00    5.20400E-03
 1.63737E+00    5.54341E-03
 1.64971E+00    6.28594E-03
 1.66255E+00    7.22641E-03
 1.70000E+00    1.05246E-02
 1.71385E+00    1.19764E-02
 1.76030E+00    1.79080E-02
 1.76402E+00    1.82219E-02
 1.78151E+00    2.07094E-02
 1.78428E+00    2.09618E-02
 1.78543E+00    2.10484E-02
 1.80000E+00    2.31171E-02
 1.82245E+00    2.69912E-02
 1.90000E+00    4.21009E-02
 2.00000E+00    7.15356E-02
 2.25000E+00    1.72921E-01
 2.50000E+00    3.39348E-01
 2.75000E+00    4.94054E-01
 3.00000E+00    1.44500E+00
 3.50000E+00    1.59388E+00
 4.00000E+00    1.53908E+00
 4.50000E+00    1.38346E+00
 5.00000E+00    1.22452E+00
 5.50000E+00    1.09243E+00
 6.00000E+00    9.86360E-01
 6.50000E+00    8.96632E-01
 7.00000E+00    8.21339E-01
 7.50000E+00    7.57736E-01
 8.00000E+00    7.04167E-01
 8.50000E+00    6.59623E-01
 9.00000E+00    6.22614E-01
 9.50000E+00    5.91645E-01
 1.00000E+01    5.64581E-01
 1.05000E+01    5.39698E-01
 1.10000E+01    5.15663E-01
 1.15000E+01    4.91774E-01
 1.20000E+01    4.67890E-01
 1.25000E+01    4.44140E-01
 1.30000E+01    4.20799E-01
 1.35000E+01    3.98214E-01
 1.40000E+01    3.76731E-01
 1.45000E+01    3.56637E-01
 1.50000E+01    3.38125E-01
 1.55000E+01    3.21296E-01
 1.60000E+01    3.06124E-01
 1.65000E+01    2.92492E-01
 1.70000E+01    2.80214E-01
 1.75000E+01    2.69092E-01
 1.80000E+01    2.58928E-01
 1.85000E+01    2.49542E-01
 1.90000E+01    2.40766E-01
 1.95000E+01    2.32457E-01
 2.00000E+01    2.24483E-01
