# n + Os186 : (n,n'12)  
# jendl4.0   N.Iwamoto                         EVAL-Jan10
# uncertainties: n
# # energies =    62
#   E(MeV)       xs(mb) 
 1.46078E+00    0.00000E+00
 1.46390E+00    1.39168E+01
 1.46884E+00    2.11377E+01
 1.48810E+00    3.54222E+01
 1.49938E+00    4.08887E+01
 1.50000E+00    4.11692E+01
 1.56829E+00    6.44199E+01
 1.57952E+00    6.75296E+01
 1.60000E+00    7.26236E+01
 1.63200E+00    8.04165E+01
 1.63737E+00    8.16034E+01
 1.64971E+00    8.43116E+01
 1.66255E+00    8.57958E+01
 1.70000E+00    9.08022E+01
 1.71385E+00    9.31460E+01
 1.76030E+00    9.92068E+01
 1.76402E+00    9.97009E+01
 1.78151E+00    1.00751E+02
 1.78428E+00    1.01035E+02
 1.78543E+00    1.01156E+02
 1.80000E+00    1.02535E+02
 1.82245E+00    1.04945E+02
 1.90000E+00    1.11185E+02
 2.00000E+00    1.14300E+02
 2.25000E+00    9.79518E+01
 2.50000E+00    8.00459E+01
 2.75000E+00    5.63161E+01
 3.00000E+00    4.03083E+01
 3.50000E+00    1.88578E+01
 4.00000E+00    8.56181E+00
 4.50000E+00    3.85974E+00
 5.00000E+00    1.78459E+00
 5.50000E+00    8.85417E-01
 6.00000E+00    4.98254E-01
 6.50000E+00    3.28803E-01
 7.00000E+00    2.51855E-01
 7.50000E+00    2.13501E-01
 8.00000E+00    1.91488E-01
 8.50000E+00    1.76832E-01
 9.00000E+00    1.65839E-01
 9.50000E+00    1.56824E-01
 1.00000E+01    1.48945E-01
 1.05000E+01    1.41714E-01
 1.10000E+01    1.34882E-01
 1.15000E+01    1.28341E-01
 1.20000E+01    1.22079E-01
 1.25000E+01    1.16120E-01
 1.30000E+01    1.10486E-01
 1.35000E+01    1.05200E-01
 1.40000E+01    1.00274E-01
 1.45000E+01    9.56981E-02
 1.50000E+01    9.14504E-02
 1.55000E+01    8.75031E-02
 1.60000E+01    8.38213E-02
 1.65000E+01    8.03722E-02
 1.70000E+01    7.71229E-02
 1.75000E+01    7.40485E-02
 1.80000E+01    7.11304E-02
 1.85000E+01    6.83564E-02
 1.90000E+01    6.57180E-02
 1.95000E+01    6.32135E-02
 2.00000E+01    6.08410E-02
