# n + Os186 : (n,n'26)  
# jendl4.0   N.Iwamoto                         EVAL-Jan10
# uncertainties: n
# # energies =    45
#   E(MeV)       xs(mb) 
 1.78151E+00    0.00000E+00
 1.78428E+00    2.15561E-01
 1.78543E+00    2.51907E-01
 1.80000E+00    4.95021E-01
 1.82245E+00    7.23391E-01
 1.90000E+00    1.51289E+00
 2.00000E+00    2.87750E+00
 2.25000E+00    6.08093E+00
 2.50000E+00    7.80301E+00
 2.75000E+00    7.40009E+00
 3.00000E+00    6.78490E+00
 3.50000E+00    4.53053E+00
 4.00000E+00    2.72451E+00
 4.50000E+00    1.54171E+00
 5.00000E+00    8.63574E-01
 5.50000E+00    5.05937E-01
 6.00000E+00    3.26747E-01
 6.50000E+00    2.37742E-01
 7.00000E+00    1.92674E-01
 7.50000E+00    1.67846E-01
 8.00000E+00    1.52358E-01
 8.50000E+00    1.41388E-01
 9.00000E+00    1.32857E-01
 9.50000E+00    1.25765E-01
 1.00000E+01    1.19574E-01
 1.05000E+01    1.13941E-01
 1.10000E+01    1.08657E-01
 1.15000E+01    1.03609E-01
 1.20000E+01    9.87496E-02
 1.25000E+01    9.41061E-02
 1.30000E+01    8.96854E-02
 1.35000E+01    8.55106E-02
 1.40000E+01    8.15962E-02
 1.45000E+01    7.79424E-02
 1.50000E+01    7.45386E-02
 1.55000E+01    7.13670E-02
 1.60000E+01    6.84043E-02
 1.65000E+01    6.56271E-02
 1.70000E+01    6.30102E-02
 1.75000E+01    6.05353E-02
 1.80000E+01    5.81864E-02
 1.85000E+01    5.59531E-02
 1.90000E+01    5.38275E-02
 1.95000E+01    5.18070E-02
 2.00000E+01    4.98896E-02
