# n + Os186 : (n,n'15)  
# jendl4.0   N.Iwamoto                         EVAL-Jan10
# uncertainties: n
# # energies =    59
#   E(MeV)       xs(mb) 
 1.48810E+00    0.00000E+00
 1.49938E+00    2.83431E+01
 1.50000E+00    2.89537E+01
 1.56829E+00    6.12555E+01
 1.57952E+00    6.47874E+01
 1.60000E+00    7.06006E+01
 1.63200E+00    7.91495E+01
 1.63737E+00    8.05569E+01
 1.64971E+00    8.36851E+01
 1.66255E+00    8.62194E+01
 1.70000E+00    9.29106E+01
 1.71385E+00    9.55011E+01
 1.76030E+00    1.03088E+02
 1.76402E+00    1.03601E+02
 1.78151E+00    1.05288E+02
 1.78428E+00    1.05609E+02
 1.78543E+00    1.05744E+02
 1.80000E+00    1.07441E+02
 1.82245E+00    1.10056E+02
 1.90000E+00    1.18374E+02
 2.00000E+00    1.21236E+02
 2.25000E+00    1.03267E+02
 2.50000E+00    8.31781E+01
 2.75000E+00    5.76373E+01
 3.00000E+00    4.08996E+01
 3.50000E+00    1.89447E+01
 4.00000E+00    8.52239E+00
 4.50000E+00    3.79850E+00
 5.00000E+00    1.73105E+00
 5.50000E+00    8.43772E-01
 6.00000E+00    4.65611E-01
 6.50000E+00    3.02040E-01
 7.00000E+00    2.28656E-01
 7.50000E+00    1.92580E-01
 8.00000E+00    1.72156E-01
 8.50000E+00    1.58719E-01
 9.00000E+00    1.48733E-01
 9.50000E+00    1.40603E-01
 1.00000E+01    1.33528E-01
 1.05000E+01    1.27055E-01
 1.10000E+01    1.20948E-01
 1.15000E+01    1.15105E-01
 1.20000E+01    1.09510E-01
 1.25000E+01    1.04182E-01
 1.30000E+01    9.91420E-02
 1.35000E+01    9.44113E-02
 1.40000E+01    8.99997E-02
 1.45000E+01    8.58999E-02
 1.50000E+01    8.20934E-02
 1.55000E+01    7.85552E-02
 1.60000E+01    7.52547E-02
 1.65000E+01    7.21626E-02
 1.70000E+01    6.92496E-02
 1.75000E+01    6.64935E-02
 1.80000E+01    6.38774E-02
 1.85000E+01    6.13903E-02
 1.90000E+01    5.90244E-02
 1.95000E+01    5.67782E-02
 2.00000E+01    5.46500E-02
