# n + Os186 : (n,xh)    
# jendl4.0   N.Iwamoto                         EVAL-Jan10
# 
# # energies =   100
#   E(MeV)        xs(mb) 
 1.05000E-01    0.00000E+00
 1.10000E-01    0.00000E+00
 1.20000E-01    0.00000E+00
 1.30000E-01    0.00000E+00
 1.37903E-01    0.00000E+00
 1.40000E-01    0.00000E+00
 1.50000E-01    0.00000E+00
 1.60000E-01    0.00000E+00
 1.70000E-01    0.00000E+00
 1.80000E-01    0.00000E+00
 1.90000E-01    0.00000E+00
 2.00000E-01    0.00000E+00
 2.25000E-01    0.00000E+00
 2.50000E-01    0.00000E+00
 2.75000E-01    0.00000E+00
 3.00000E-01    0.00000E+00
 4.00000E-01    0.00000E+00
 4.36442E-01    0.00000E+00
 5.00000E-01    0.00000E+00
 6.00000E-01    0.00000E+00
 7.00000E-01    0.00000E+00
 7.71641E-01    0.00000E+00
 8.00000E-01    0.00000E+00
 8.73653E-01    0.00000E+00
 9.00000E-01    0.00000E+00
 9.15410E-01    0.00000E+00
 1.00000E+00    0.00000E+00
 1.06676E+00    0.00000E+00
 1.07629E+00    0.00000E+00
 1.10000E+00    0.00000E+00
 1.20000E+00    0.00000E+00
 1.21499E+00    0.00000E+00
 1.21500E+00    0.00000E+00
 1.28253E+00    0.00000E+00
 1.30000E+00    0.00000E+00
 1.35926E+00    0.00000E+00
 1.40000E+00    0.00000E+00
 1.42865E+00    0.00000E+00
 1.46078E+00    0.00000E+00
 1.46390E+00    0.00000E+00
 1.46884E+00    0.00000E+00
 1.48810E+00    0.00000E+00
 1.49938E+00    0.00000E+00
 1.50000E+00    0.00000E+00
 1.56829E+00    0.00000E+00
 1.57952E+00    0.00000E+00
 1.60000E+00    0.00000E+00
 1.63200E+00    0.00000E+00
 1.63737E+00    0.00000E+00
 1.64971E+00    0.00000E+00
 1.66255E+00    0.00000E+00
 1.70000E+00    0.00000E+00
 1.71385E+00    0.00000E+00
 1.76030E+00    0.00000E+00
 1.76402E+00    0.00000E+00
 1.78151E+00    0.00000E+00
 1.78428E+00    0.00000E+00
 1.78543E+00    0.00000E+00
 1.80000E+00    0.00000E+00
 1.82245E+00    0.00000E+00
 1.90000E+00    0.00000E+00
 2.00000E+00    0.00000E+00
 2.25000E+00    0.00000E+00
 2.50000E+00    0.00000E+00
 2.75000E+00    0.00000E+00
 3.00000E+00    0.00000E+00
 3.50000E+00    0.00000E+00
 4.00000E+00    0.00000E+00
 4.50000E+00    0.00000E+00
 5.00000E+00    0.00000E+00
 5.50000E+00    0.00000E+00
 6.00000E+00    0.00000E+00
 6.50000E+00    0.00000E+00
 7.00000E+00    1.88690E-32
 7.50000E+00    5.23670E-28
 8.00000E+00    1.36700E-24
 8.50000E+00    6.76340E-22
 9.00000E+00    9.86750E-20
 9.50000E+00    5.70350E-18
 1.00000E+01    1.60270E-16
 1.05000E+01    2.53890E-15
 1.10000E+01    2.53280E-14
 1.15000E+01    1.73780E-13
 1.20000E+01    8.91900E-13
 1.25000E+01    3.87270E-12
 1.30000E+01    1.76530E-11
 1.35000E+01    9.92720E-11
 1.40000E+01    6.29560E-10
 1.45000E+01    3.05080E-09
 1.50000E+01    1.48790E-08
 1.55000E+01    6.15870E-08
 1.60000E+01    2.19040E-07
 1.65000E+01    6.80930E-07
 1.70000E+01    1.88172E-06
 1.75000E+01    4.69457E-06
 1.80000E+01    1.07195E-05
 1.85000E+01    2.26736E-05
 1.90000E+01    4.48909E-05
 1.95000E+01    8.39388E-05
 2.00000E+01    1.49342E-04
