# n + Os186 : (n,n'25)  
# jendl4.0   N.Iwamoto                         EVAL-Jan10
# uncertainties: n
# # energies =    46
#   E(MeV)       xs(mb) 
 1.76402E+00    0.00000E+00
 1.78151E+00    2.88520E+01
 1.78428E+00    3.06334E+01
 1.78543E+00    3.13374E+01
 1.80000E+00    3.86275E+01
 1.82245E+00    4.68685E+01
 1.90000E+00    6.60635E+01
 2.00000E+00    8.16436E+01
 2.25000E+00    8.65680E+01
 2.50000E+00    7.54163E+01
 2.75000E+00    5.49378E+01
 3.00000E+00    3.89927E+01
 3.50000E+00    1.76123E+01
 4.00000E+00    7.75578E+00
 4.50000E+00    3.40839E+00
 5.00000E+00    1.53925E+00
 5.50000E+00    7.47945E-01
 6.00000E+00    4.14023E-01
 6.50000E+00    2.70637E-01
 7.00000E+00    2.06792E-01
 7.50000E+00    1.75545E-01
 8.00000E+00    1.57801E-01
 8.50000E+00    1.45970E-01
 9.00000E+00    1.37037E-01
 9.50000E+00    1.29701E-01
 1.00000E+01    1.23318E-01
 1.05000E+01    1.17509E-01
 1.10000E+01    1.12055E-01
 1.15000E+01    1.06841E-01
 1.20000E+01    1.01820E-01
 1.25000E+01    9.70223E-02
 1.30000E+01    9.24565E-02
 1.35000E+01    8.81460E-02
 1.40000E+01    8.41055E-02
 1.45000E+01    8.03351E-02
 1.50000E+01    7.68233E-02
 1.55000E+01    7.35516E-02
 1.60000E+01    7.04958E-02
 1.65000E+01    6.76313E-02
 1.70000E+01    6.49322E-02
 1.75000E+01    6.23795E-02
 1.80000E+01    5.99568E-02
 1.85000E+01    5.76534E-02
 1.90000E+01    5.54610E-02
 1.95000E+01    5.33774E-02
 2.00000E+01    5.14002E-02
