# n + Os186 : (n,t)     
# jendl4.0   N.Iwamoto                         EVAL-Jan10
# uncertainties: n
# # energies =    52
#   E(MeV)       xs(mb) 
 5.68199E+00    0.00000E+00
 5.73830E+00    2.85710E-28
 5.75639E+00    3.83600E-28
 5.78729E+00    5.57290E-28
 5.82476E+00    7.70210E-28
 5.87102E+00    1.03380E-27
 5.91927E+00    1.30890E-27
 5.92430E+00    1.33750E-27
 5.93536E+00    1.40060E-27
 5.99468E+00    1.73880E-27
 6.03188E+00    1.10520E-25
 6.05400E+00    1.93660E-25
 6.07210E+00    2.69570E-25
 6.08215E+00    3.13910E-25
 6.12438E+00    5.07130E-25
 6.12439E+00    5.07170E-25
 6.15856E+00    6.65200E-25
 6.15857E+00    6.65250E-25
 6.18269E+00    7.77370E-25
 6.20984E+00    9.03740E-25
 6.23397E+00    1.01610E-24
 6.26614E+00    1.16590E-24
 6.27519E+00    1.20800E-24
 6.27520E+00    1.20810E-24
 6.28726E+00    1.26420E-24
 7.00000E+00    4.58350E-24
 7.50000E+00    2.37330E-20
 8.00000E+00    2.91440E-16
 8.50000E+00    2.06330E-13
 9.00000E+00    2.83570E-11
 9.50000E+00    1.35710E-09
 1.00000E+01    3.05450E-08
 1.05000E+01    3.89080E-07
 1.10000E+01    3.19885E-06
 1.15000E+01    1.87267E-05
 1.20000E+01    8.41002E-05
 1.25000E+01    3.06271E-04
 1.30000E+01    9.32508E-04
 1.35000E+01    2.49840E-03
 1.40000E+01    5.92993E-03
 1.45000E+01    1.26346E-02
 1.50000E+01    2.44022E-02
 1.55000E+01    4.31140E-02
 1.60000E+01    7.03765E-02
 1.65000E+01    1.07258E-01
 1.70000E+01    1.54220E-01
 1.75000E+01    2.11147E-01
 1.80000E+01    2.77472E-01
 1.85000E+01    3.52307E-01
 1.90000E+01    4.34508E-01
 1.95000E+01    5.22657E-01
 2.00000E+01    6.14986E-01
