# n + Se 82 : (n,n'13)  
# jeff3.3    A.J. Koning and D. Rochman        EVAL-DEC15
# uncertainties: n
# # energies =    70
#   E(MeV)       xs(mb) 
 3.48833E+00    0.00000E+00
 3.49671E+00    9.65862E-01
 3.56182E+00    8.47015E+00
 3.60000E+00    1.28706E+01
 3.63592E+00    1.51926E+01
 3.67600E+00    1.77835E+01
 3.70912E+00    1.99244E+01
 3.73432E+00    2.15534E+01
 3.80000E+00    2.57992E+01
 3.80326E+00    2.58575E+01
 3.84477E+00    2.65991E+01
 3.87817E+00    2.71959E+01
 3.91267E+00    2.78124E+01
 3.96614E+00    2.87678E+01
 4.00000E+00    2.93728E+01
 4.08590E+00    2.90780E+01
 4.14471E+00    2.88762E+01
 4.18490E+00    2.87383E+01
 4.20000E+00    2.86865E+01
 4.40000E+00    2.61690E+01
 4.44547E+00    2.57327E+01
 4.52099E+00    2.50080E+01
 4.59084E+00    2.43378E+01
 4.60000E+00    2.42499E+01
 4.80000E+00    2.14961E+01
 5.00000E+00    1.77530E+01
 5.20000E+00    1.41625E+01
 5.40000E+00    1.11616E+01
 5.60000E+00    8.72830E+00
 5.80000E+00    6.78288E+00
 6.00000E+00    5.24315E+00
 6.20000E+00    4.03557E+00
 6.40000E+00    3.09715E+00
 6.60000E+00    2.37506E+00
 6.80000E+00    1.82520E+00
 7.00000E+00    1.40480E+00
 7.20000E+00    1.08505E+00
 7.40000E+00    8.39427E-01
 7.60000E+00    6.52101E-01
 7.80000E+00    5.08108E-01
 8.00000E+00    3.97190E-01
 8.50000E+00    2.18879E-01
 9.00000E+00    1.24067E-01
 9.50000E+00    7.18433E-02
 1.00000E+01    4.24545E-02
 1.05000E+01    2.55114E-02
 1.10000E+01    1.55473E-02
 1.15000E+01    9.58722E-03
 1.20000E+01    5.97340E-03
 1.25000E+01    3.75593E-03
 1.30000E+01    2.38240E-03
 1.35000E+01    1.52372E-03
 1.40000E+01    9.81967E-04
 1.45000E+01    6.37523E-04
 1.50000E+01    4.16855E-04
 1.60000E+01    1.81692E-04
 1.70000E+01    8.09310E-05
 1.80000E+01    3.67344E-05
 1.90000E+01    1.69978E-05
 2.00000E+01    8.02459E-06
 2.10000E+01    3.86914E-06
 2.20000E+01    1.89715E-06
 2.30000E+01    9.39160E-07
 2.40000E+01    4.75610E-07
 2.50000E+01    2.44750E-07
 2.60000E+01    1.26690E-07
 2.70000E+01    6.59620E-08
 2.80000E+01    3.46960E-08
 2.90000E+01    1.83880E-08
 3.00000E+01    9.85490E-09
