# n + Ag107 : (n,n'15)  
# jeff3.3    A.J. Koning and D. Rochman        EVAL-DEC15
# uncertainties: n
# # energies =    79
#   E(MeV)       xs(mb) 
 1.23353E+00    0.00000E+00
 1.23455E+00    3.41326E-02
 1.27077E+00    1.24623E+00
 1.33831E+00    3.50645E+00
 1.40000E+00    5.57089E+00
 1.46268E+00    6.64890E+00
 1.47852E+00    6.92132E+00
 1.49699E+00    7.23898E+00
 1.52223E+00    7.67307E+00
 1.58683E+00    8.78411E+00
 1.59223E+00    8.87698E+00
 1.60000E+00    9.01061E+00
 1.63024E+00    9.24320E+00
 1.66860E+00    9.53824E+00
 1.67162E+00    9.56147E+00
 1.70090E+00    9.78668E+00
 1.80000E+00    1.05489E+01
 1.81667E+00    1.06587E+01
 1.83717E+00    1.07936E+01
 2.00000E+00    1.18657E+01
 2.20000E+00    1.32498E+01
 2.40000E+00    1.44162E+01
 2.60000E+00    1.49205E+01
 2.80000E+00    1.46112E+01
 3.00000E+00    1.35697E+01
 3.20000E+00    1.15116E+01
 3.40000E+00    9.75509E+00
 3.60000E+00    8.02247E+00
 3.80000E+00    6.45794E+00
 4.00000E+00    5.12635E+00
 4.20000E+00    3.98477E+00
 4.40000E+00    3.07967E+00
 4.60000E+00    2.39710E+00
 4.80000E+00    1.86132E+00
 5.00000E+00    1.44483E+00
 5.20000E+00    1.12184E+00
 5.40000E+00    8.71263E-01
 5.60000E+00    6.76816E-01
 5.80000E+00    5.26337E-01
 6.00000E+00    4.09740E-01
 6.20000E+00    3.19204E-01
 6.40000E+00    2.49316E-01
 6.60000E+00    1.94908E-01
 6.80000E+00    1.50884E-01
 7.00000E+00    1.17932E-01
 7.20000E+00    9.28071E-02
 7.40000E+00    7.34666E-02
 7.60000E+00    5.83147E-02
 7.80000E+00    4.64992E-02
 8.00000E+00    3.71917E-02
 8.50000E+00    2.15779E-02
 9.00000E+00    1.27385E-02
 9.50000E+00    7.62698E-03
 1.00000E+01    4.61594E-03
 1.05000E+01    2.81884E-03
 1.10000E+01    1.73475E-03
 1.15000E+01    1.07494E-03
 1.20000E+01    6.70486E-04
 1.25000E+01    4.21155E-04
 1.30000E+01    2.66387E-04
 1.35000E+01    1.69716E-04
 1.40000E+01    1.08854E-04
 1.45000E+01    7.02635E-05
 1.50000E+01    4.56884E-05
 1.60000E+01    1.96926E-05
 1.70000E+01    8.71780E-06
 1.80000E+01    3.93961E-06
 1.90000E+01    1.81999E-06
 2.00000E+01    8.54820E-07
 2.10000E+01    4.07360E-07
 2.20000E+01    1.97930E-07
 2.30000E+01    9.74050E-08
 2.40000E+01    4.84560E-08
 2.50000E+01    2.43780E-08
 2.60000E+01    1.24330E-08
 2.70000E+01    6.42250E-09
 2.80000E+01    3.36790E-09
 2.90000E+01    1.78670E-09
 3.00000E+01    9.56860E-10
