# n + Ag107 : (n,n'18)  
# jeff3.3    A.J. Koning and D. Rochman        EVAL-DEC15
# uncertainties: n
# # energies =    76
#   E(MeV)       xs(mb) 
 1.33831E+00    0.00000E+00
 1.40000E+00    4.11928E+01
 1.46268E+00    6.10060E+01
 1.47852E+00    6.60131E+01
 1.49699E+00    7.18514E+01
 1.52223E+00    7.98298E+01
 1.58683E+00    1.00250E+02
 1.59223E+00    1.01957E+02
 1.60000E+00    1.04413E+02
 1.63024E+00    1.04961E+02
 1.66860E+00    1.05655E+02
 1.67162E+00    1.05710E+02
 1.70090E+00    1.06240E+02
 1.80000E+00    1.08035E+02
 1.81667E+00    1.06955E+02
 1.83717E+00    1.05626E+02
 2.00000E+00    9.50740E+01
 2.20000E+00    8.41897E+01
 2.40000E+00    7.44201E+01
 2.60000E+00    6.38415E+01
 2.80000E+00    5.28066E+01
 3.00000E+00    4.21653E+01
 3.20000E+00    3.21441E+01
 3.40000E+00    2.41943E+01
 3.60000E+00    1.78494E+01
 3.80000E+00    1.29848E+01
 4.00000E+00    9.36768E+00
 4.20000E+00    6.71691E+00
 4.40000E+00    4.75765E+00
 4.60000E+00    3.41363E+00
 4.80000E+00    2.45714E+00
 5.00000E+00    1.77702E+00
 5.20000E+00    1.29218E+00
 5.40000E+00    9.44938E-01
 5.60000E+00    6.94739E-01
 5.80000E+00    5.13796E-01
 6.00000E+00    3.82374E-01
 6.20000E+00    2.85901E-01
 6.40000E+00    2.15245E-01
 6.60000E+00    1.62765E-01
 6.80000E+00    1.22242E-01
 7.00000E+00    9.29699E-02
 7.20000E+00    7.13436E-02
 7.40000E+00    5.51741E-02
 7.60000E+00    4.28555E-02
 7.80000E+00    3.34856E-02
 8.00000E+00    2.62715E-02
 8.50000E+00    1.45856E-02
 9.00000E+00    8.27978E-03
 9.50000E+00    4.78711E-03
 1.00000E+01    2.80906E-03
 1.05000E+01    1.66959E-03
 1.10000E+01    1.00332E-03
 1.15000E+01    6.08632E-04
 1.20000E+01    3.72324E-04
 1.25000E+01    2.29752E-04
 1.30000E+01    1.42987E-04
 1.35000E+01    8.97577E-05
 1.40000E+01    5.67928E-05
 1.45000E+01    3.61989E-05
 1.50000E+01    2.32561E-05
 1.60000E+01    9.79614E-06
 1.70000E+01    4.24452E-06
 1.80000E+01    1.88345E-06
 1.90000E+01    8.57440E-07
 2.00000E+01    3.98060E-07
 2.10000E+01    1.87800E-07
 2.20000E+01    9.04160E-08
 2.30000E+01    4.41270E-08
 2.40000E+01    2.17950E-08
 2.50000E+01    1.08990E-08
 2.60000E+01    5.52920E-09
 2.70000E+01    2.84300E-09
 2.80000E+01    1.48440E-09
 2.90000E+01    7.84160E-10
 3.00000E+01    4.18260E-10
