# n + Ag107 : (n,n'11)  
# jeff3.3    A.J. Koning and D. Rochman        EVAL-DEC15
# uncertainties: n
# # energies =    84
#   E(MeV)       xs(mb) 
 1.07121E+00    0.00000E+00
 1.15277E+00    1.22233E+01
 1.15384E+00    1.23836E+01
 1.15772E+00    1.29651E+01
 1.20000E+00    1.93016E+01
 1.23353E+00    2.14116E+01
 1.23455E+00    2.14758E+01
 1.27077E+00    2.37550E+01
 1.33831E+00    2.80052E+01
 1.40000E+00    3.18872E+01
 1.46268E+00    3.26686E+01
 1.47852E+00    3.28661E+01
 1.49699E+00    3.30964E+01
 1.52223E+00    3.34110E+01
 1.58683E+00    3.42164E+01
 1.59223E+00    3.42837E+01
 1.60000E+00    3.43806E+01
 1.63024E+00    3.46413E+01
 1.66860E+00    3.49719E+01
 1.67162E+00    3.49980E+01
 1.70090E+00    3.52504E+01
 1.80000E+00    3.61046E+01
 1.81667E+00    3.62361E+01
 1.83717E+00    3.63979E+01
 2.00000E+00    3.76828E+01
 2.20000E+00    3.89118E+01
 2.40000E+00    3.88602E+01
 2.60000E+00    3.69569E+01
 2.80000E+00    3.34915E+01
 3.00000E+00    2.90383E+01
 3.20000E+00    2.32678E+01
 3.40000E+00    1.87085E+01
 3.60000E+00    1.46790E+01
 3.80000E+00    1.13206E+01
 4.00000E+00    8.57713E+00
 4.20000E+00    6.40555E+00
 4.40000E+00    4.82699E+00
 4.60000E+00    3.62815E+00
 4.80000E+00    2.72782E+00
 5.00000E+00    2.05292E+00
 5.20000E+00    1.54757E+00
 5.40000E+00    1.16885E+00
 5.60000E+00    8.84758E-01
 5.80000E+00    6.71292E-01
 6.00000E+00    5.11253E-01
 6.20000E+00    3.90303E-01
 6.40000E+00    2.99282E-01
 6.60000E+00    2.30232E-01
 6.80000E+00    1.75626E-01
 7.00000E+00    1.35524E-01
 7.20000E+00    1.05447E-01
 7.40000E+00    8.26321E-02
 7.60000E+00    6.49995E-02
 7.80000E+00    5.14200E-02
 8.00000E+00    4.08277E-02
 8.50000E+00    2.33238E-02
 9.00000E+00    1.35941E-02
 9.50000E+00    8.04997E-03
 1.00000E+01    4.82497E-03
 1.05000E+01    2.92136E-03
 1.10000E+01    1.78419E-03
 1.15000E+01    1.09794E-03
 1.20000E+01    6.80404E-04
 1.25000E+01    4.24753E-04
 1.30000E+01    2.67057E-04
 1.35000E+01    1.69136E-04
 1.40000E+01    1.07843E-04
 1.45000E+01    6.92014E-05
 1.50000E+01    4.47314E-05
 1.60000E+01    1.90532E-05
 1.70000E+01    8.34037E-06
 1.80000E+01    3.73386E-06
 1.90000E+01    1.71312E-06
 2.00000E+01    8.00880E-07
 2.10000E+01    3.80240E-07
 2.20000E+01    1.84040E-07
 2.30000E+01    9.01730E-08
 2.40000E+01    4.46590E-08
 2.50000E+01    2.23760E-08
 2.60000E+01    1.13720E-08
 2.70000E+01    5.85860E-09
 2.80000E+01    3.06540E-09
 2.90000E+01    1.62310E-09
 3.00000E+01    8.67830E-10
