# n + Ag107 : (n,xp)    
# jeff3.3    A.J. Koning and D. Rochman        EVAL-DEC15
# 
# # energies =   134
#   E(MeV)        xs(mb) 
 9.40036E-02    7.79063E-10
 1.00000E-01    8.64170E-10
 1.26775E-01    2.20574E-09
 2.00000E-01    5.87470E-09
 3.00000E-01    3.59180E-08
 3.27875E-01    6.51064E-08
 4.00000E-01    1.40630E-07
 4.27142E-01    2.33475E-07
 5.00000E-01    4.82700E-07
 6.00000E-01    1.65500E-06
 7.00000E-01    5.41757E-06
 7.80606E-01    1.40571E-05
 7.94012E-01    1.54940E-05
 8.00000E-01    1.61358E-05
 9.00000E-01    4.23683E-05
 9.30760E-01    5.96079E-05
 9.58661E-01    7.52452E-05
 9.82483E-01    8.85963E-05
 1.00000E+00    9.84138E-05
 1.00035E+00    9.89930E-05
 1.07121E+00    2.16253E-04
 1.15277E+00    3.51220E-04
 1.15384E+00    3.52991E-04
 1.15772E+00    3.59411E-04
 1.20000E+00    4.29377E-04
 1.23353E+00    6.02694E-04
 1.23455E+00    6.07966E-04
 1.27077E+00    7.95188E-04
 1.33831E+00    1.14430E-03
 1.40000E+00    1.46318E-03
 1.46268E+00    2.37131E-03
 1.47852E+00    2.60080E-03
 1.49699E+00    2.86840E-03
 1.52223E+00    3.23409E-03
 1.58683E+00    4.17003E-03
 1.59223E+00    4.24827E-03
 1.60000E+00    4.36084E-03
 1.63024E+00    5.49131E-03
 1.66860E+00    6.92533E-03
 1.67162E+00    7.03823E-03
 1.70090E+00    8.13281E-03
 1.80000E+00    1.18375E-02
 1.81667E+00    1.32372E-02
 1.83717E+00    1.49586E-02
 2.00000E+00    2.86309E-02
 2.20000E+00    6.40934E-02
 2.40000E+00    1.32317E-01
 2.60000E+00    2.48720E-01
 2.80000E+00    4.27138E-01
 3.00000E+00    6.75415E-01
 3.20000E+00    9.73069E-01
 3.40000E+00    1.34418E+00
 3.60000E+00    1.76486E+00
 3.80000E+00    2.22486E+00
 4.00000E+00    2.71101E+00
 4.20000E+00    3.19149E+00
 4.40000E+00    3.69667E+00
 4.60000E+00    4.18097E+00
 4.80000E+00    4.66357E+00
 5.00000E+00    5.15430E+00
 5.20000E+00    5.60923E+00
 5.40000E+00    6.07626E+00
 5.60000E+00    6.52348E+00
 5.80000E+00    6.94215E+00
 6.00000E+00    7.44513E+00
 6.20000E+00    7.87157E+00
 6.40000E+00    8.36904E+00
 6.60000E+00    8.86651E+00
 6.80000E+00    9.19240E+00
 7.00000E+00    9.72822E+00
 7.20000E+00    1.02344E+01
 7.40000E+00    1.08522E+01
 7.60000E+00    1.14704E+01
 7.80000E+00    1.20414E+01
 8.00000E+00    1.28297E+01
 8.50000E+00    1.48888E+01
 9.00000E+00    1.80898E+01
 9.50000E+00    2.43774E+01
 1.00000E+01    3.05125E+01
 1.05000E+01    3.22690E+01
 1.10000E+01    3.27979E+01
 1.15000E+01    3.40934E+01
 1.20000E+01    3.59764E+01
 1.25000E+01    3.79767E+01
 1.30000E+01    4.05428E+01
 1.35000E+01    4.34796E+01
 1.40000E+01    4.66522E+01
 1.45000E+01    5.01360E+01
 1.50000E+01    5.38338E+01
 1.60000E+01    6.19675E+01
 1.70000E+01    7.08428E+01
 1.80000E+01    8.00987E+01
 1.90000E+01    8.97815E+01
 2.00000E+01    1.00148E+02
 2.10000E+01    1.10825E+02
 2.20000E+01    1.20810E+02
 2.30000E+01    1.31352E+02
 2.40000E+01    1.41647E+02
 2.50000E+01    1.52135E+02
 2.60000E+01    1.62744E+02
 2.70000E+01    1.73731E+02
 2.80000E+01    1.86105E+02
 2.90000E+01    1.99569E+02
 3.00000E+01    2.12557E+02
 3.00000E+01    2.12593E+02
 3.20000E+01    2.35098E+02
 3.40000E+01    2.53180E+02
 3.60000E+01    2.69874E+02
 3.80000E+01    2.86832E+02
 4.00000E+01    3.05087E+02
 4.20000E+01    3.25095E+02
 4.40000E+01    3.46215E+02
 4.60000E+01    3.68218E+02
 4.80000E+01    3.92611E+02
 5.00000E+01    4.19926E+02
 5.20000E+01    4.47595E+02
 5.40000E+01    4.73211E+02
 5.60000E+01    4.94181E+02
 5.80000E+01    5.13750E+02
 6.00000E+01    5.31931E+02
 6.50000E+01    5.72841E+02
 7.00000E+01    6.21068E+02
 7.50000E+01    6.56955E+02
 8.00000E+01    7.01665E+02
 9.00000E+01    7.82407E+02
 1.00000E+02    8.59745E+02
 1.10000E+02    9.58254E+02
 1.20000E+02    1.05859E+03
 1.30000E+02    1.14537E+03
 1.40000E+02    1.21565E+03
 1.50000E+02    1.39706E+03
 1.60000E+02    1.63136E+03
 1.80000E+02    2.15958E+03
 2.00000E+02    2.69030E+03
