# n + Ag107 : (n,n'21)  
# jeff3.3    A.J. Koning and D. Rochman        EVAL-DEC15
# uncertainties: n
# # energies =    72
#   E(MeV)       xs(mb) 
 1.49699E+00    0.00000E+00
 1.52223E+00    5.66545E+00
 1.58683E+00    2.01657E+01
 1.59223E+00    2.13778E+01
 1.60000E+00    2.31219E+01
 1.63024E+00    2.71318E+01
 1.66860E+00    3.22185E+01
 1.67162E+00    3.26190E+01
 1.70090E+00    3.65016E+01
 1.80000E+00    4.96427E+01
 1.81667E+00    5.00352E+01
 1.83717E+00    5.05180E+01
 2.00000E+00    5.43523E+01
 2.20000E+00    5.35711E+01
 2.40000E+00    5.16492E+01
 2.60000E+00    4.78488E+01
 2.80000E+00    4.23771E+01
 3.00000E+00    3.59712E+01
 3.20000E+00    2.86364E+01
 3.40000E+00    2.26798E+01
 3.60000E+00    1.75575E+01
 3.80000E+00    1.33633E+01
 4.00000E+00    1.00518E+01
 4.20000E+00    7.49669E+00
 4.40000E+00    5.54319E+00
 4.60000E+00    4.05321E+00
 4.80000E+00    3.00120E+00
 5.00000E+00    2.22356E+00
 5.20000E+00    1.65219E+00
 5.40000E+00    1.23171E+00
 5.60000E+00    9.21315E-01
 5.80000E+00    6.91872E-01
 6.00000E+00    5.22126E-01
 6.20000E+00    3.95278E-01
 6.40000E+00    3.00928E-01
 6.60000E+00    2.29999E-01
 6.80000E+00    1.74380E-01
 7.00000E+00    1.33817E-01
 7.20000E+00    1.03560E-01
 7.40000E+00    8.07260E-02
 7.60000E+00    6.31779E-02
 7.80000E+00    4.97242E-02
 8.00000E+00    3.92809E-02
 8.50000E+00    2.21620E-02
 9.00000E+00    1.27636E-02
 9.50000E+00    7.47516E-03
 1.00000E+01    4.43703E-03
 1.05000E+01    2.66455E-03
 1.10000E+01    1.61649E-03
 1.15000E+01    9.89342E-04
 1.20000E+01    6.10313E-04
 1.25000E+01    3.79513E-04
 1.30000E+01    2.37804E-04
 1.35000E+01    1.50161E-04
 1.40000E+01    9.54924E-05
 1.45000E+01    6.11303E-05
 1.50000E+01    3.94245E-05
 1.60000E+01    1.67165E-05
 1.70000E+01    7.28362E-06
 1.80000E+01    3.24732E-06
 1.90000E+01    1.48488E-06
 2.00000E+01    6.92350E-07
 2.10000E+01    3.28030E-07
 2.20000E+01    1.58500E-07
 2.30000E+01    7.75640E-08
 2.40000E+01    3.83760E-08
 2.50000E+01    1.92100E-08
 2.60000E+01    9.75240E-09
 2.70000E+01    5.01780E-09
 2.80000E+01    2.62200E-09
 2.90000E+01    1.38650E-09
 3.00000E+01    7.40420E-10
