# n + Eu151 : (n,n'30)  
# jendl4.0   N.Iwamoto                         EVAL-Nov09
# uncertainties: n
# # energies =    59
#   E(MeV)       xs(mb) 
 7.01970E-01    0.00000E+00
 7.02846E-01    7.04210E+00
 7.19658E-01    2.62717E+01
 7.19779E-01    2.63387E+01
 7.23987E-01    2.84950E+01
 7.39922E-01    3.43984E+01
 7.57408E-01    3.86074E+01
 7.62804E-01    3.96729E+01
 8.00000E-01    4.47927E+01
 9.00000E-01    4.98038E+01
 1.00000E+00    5.02369E+01
 1.10000E+00    4.97992E+01
 1.20000E+00    4.74858E+01
 1.30000E+00    4.51874E+01
 1.40000E+00    4.16900E+01
 1.50000E+00    3.77436E+01
 1.60000E+00    3.40320E+01
 1.70000E+00    3.05757E+01
 1.80000E+00    2.67102E+01
 1.90000E+00    2.30825E+01
 2.00000E+00    1.97837E+01
 2.25000E+00    1.33232E+01
 2.50000E+00    8.52879E+00
 2.75000E+00    5.53263E+00
 3.00000E+00    3.65885E+00
 3.50000E+00    1.59107E+00
 4.00000E+00    7.34801E-01
 4.50000E+00    3.80420E-01
 5.00000E+00    2.32428E-01
 5.50000E+00    1.68254E-01
 6.00000E+00    1.38190E-01
 6.50000E+00    1.22001E-01
 7.00000E+00    1.11387E-01
 7.50000E+00    1.02985E-01
 8.00000E+00    9.56377E-02
 8.50000E+00    8.90573E-02
 9.00000E+00    8.32119E-02
 9.50000E+00    7.81121E-02
 1.00000E+01    7.36693E-02
 1.05000E+01    6.97785E-02
 1.10000E+01    6.63152E-02
 1.15000E+01    6.31468E-02
 1.20000E+01    6.01891E-02
 1.25000E+01    5.73920E-02
 1.30000E+01    5.47813E-02
 1.35000E+01    5.23496E-02
 1.40000E+01    5.00824E-02
 1.45000E+01    4.79530E-02
 1.50000E+01    4.59353E-02
 1.55000E+01    4.40188E-02
 1.60000E+01    4.21836E-02
 1.65000E+01    4.05503E-02
 1.70000E+01    3.90133E-02
 1.75000E+01    3.71024E-02
 1.80000E+01    3.55421E-02
 1.85000E+01    3.40680E-02
 1.90000E+01    3.26895E-02
 1.95000E+01    3.17109E-02
 2.00000E+01    3.06333E-02
