# n + Eu151 : (n,xa)    
# jendl4.0   N.Iwamoto                         EVAL-Nov09
# 
# # energies =   115
#   E(MeV)        xs(mb) 
 2.16850E-02    5.50256E-06
 3.00000E-02    4.19001E-06
 4.00000E-02    3.53519E-06
 5.00000E-02    3.30372E-06
 6.00000E-02    3.04898E-06
 7.00000E-02    2.87383E-06
 8.00000E-02    2.74608E-06
 9.00000E-02    2.65464E-06
 1.00000E-01    2.59019E-06
 1.05000E-01    2.56644E-06
 1.10000E-01    2.54568E-06
 1.20000E-01    2.51001E-06
 1.30000E-01    2.48932E-06
 1.40000E-01    2.47474E-06
 1.50000E-01    2.58865E-06
 1.60000E-01    2.59155E-06
 1.70000E-01    2.60509E-06
 1.80000E-01    2.62174E-06
 1.90000E-01    2.64037E-06
 1.97557E-01    2.65712E-06
 1.97854E-01    2.65778E-06
 2.00000E-01    2.60393E-06
 2.18168E-01    2.57967E-06
 2.25000E-01    2.51104E-06
 2.44916E-01    2.62127E-06
 2.50000E-01    2.54905E-06
 2.62211E-01    2.53819E-06
 2.75000E-01    2.44414E-06
 3.00000E-01    2.45433E-06
 3.08317E-01    2.46422E-06
 3.09324E-01    2.43761E-06
 3.09585E-01    2.42295E-06
 3.09918E-01    2.40425E-06
 3.34400E-01    2.22416E-06
 3.38467E-01    2.19587E-06
 3.52188E-01    2.23531E-06
 3.56014E-01    2.21616E-06
 4.00000E-01    2.11732E-06
 4.18569E-01    2.14718E-06
 5.00000E-01    2.42058E-06
 5.03040E-01    2.43079E-06
 5.05627E-01    2.42718E-06
 5.06785E-01    2.42871E-06
 5.14546E-01    2.41941E-06
 5.25680E-01    2.42048E-06
 5.26334E-01    2.41019E-06
 5.49981E-01    2.52790E-06
 5.83886E-01    2.57440E-06
 5.90984E-01    2.57112E-06
 6.00000E-01    2.57315E-06
 6.04493E-01    2.58085E-06
 6.04755E-01    2.58036E-06
 6.15506E-01    2.56031E-06
 6.36929E-01    2.60206E-06
 6.58774E-01    2.79838E-06
 7.00000E-01    2.94182E-06
 7.01970E-01    2.94867E-06
 7.02846E-01    2.94791E-06
 7.19658E-01    3.00869E-06
 7.19779E-01    3.00682E-06
 7.23987E-01    3.00735E-06
 7.39922E-01    3.05646E-06
 7.57408E-01    3.29086E-06
 7.62804E-01    3.31806E-06
 8.00000E-01    3.50557E-06
 9.00000E-01    4.25283E-06
 1.00000E+00    7.57180E-06
 1.10000E+00    1.63835E-05
 1.20000E+00    3.13936E-05
 1.30000E+00    5.52828E-05
 1.40000E+00    8.72481E-05
 1.50000E+00    1.25587E-04
 1.60000E+00    1.71252E-04
 1.70000E+00    2.23746E-04
 1.80000E+00    2.84867E-04
 1.90000E+00    3.57825E-04
 2.00000E+00    4.44170E-04
 2.25000E+00    7.14569E-04
 2.50000E+00    1.11694E-03
 2.75000E+00    1.58844E-03
 3.00000E+00    3.60352E-03
 3.50000E+00    6.45308E-03
 4.00000E+00    1.07753E-02
 4.50000E+00    1.69631E-02
 5.00000E+00    2.57854E-02
 5.50000E+00    3.84973E-02
 6.00000E+00    5.73945E-02
 6.50000E+00    8.59590E-02
 7.00000E+00    1.29754E-01
 7.50000E+00    1.95246E-01
 8.00000E+00    2.91158E-01
 8.50000E+00    4.22146E-01
 9.00000E+00    5.86896E-01
 9.50000E+00    7.90031E-01
 1.00000E+01    1.03851E+00
 1.05000E+01    1.32993E+00
 1.10000E+01    1.66060E+00
 1.15000E+01    2.02432E+00
 1.20000E+01    2.40994E+00
 1.25000E+01    2.81662E+00
 1.30000E+01    3.23382E+00
 1.35000E+01    3.65509E+00
 1.40000E+01    4.07483E+00
 1.45000E+01    4.48816E+00
 1.50000E+01    4.89255E+00
 1.55000E+01    5.28209E+00
 1.60000E+01    5.65593E+00
 1.65000E+01    6.01241E+00
 1.70000E+01    6.34983E+00
 1.75000E+01    6.66887E+00
 1.80000E+01    6.96893E+00
 1.85000E+01    7.25137E+00
 1.90000E+01    7.51848E+00
 1.95000E+01    7.77040E+00
 2.00000E+01    8.01062E+00
