# n + Eu151 : (n,n'27)  
# jendl4.0   N.Iwamoto                         EVAL-Nov09
# uncertainties: n
# # energies =    63
#   E(MeV)       xs(mb) 
 6.15506E-01    0.00000E+00
 6.36929E-01    7.28686E-01
 6.58774E-01    1.17038E+00
 7.00000E-01    1.99007E+00
 7.01970E-01    2.02946E+00
 7.02846E-01    2.04700E+00
 7.19658E-01    2.32626E+00
 7.19779E-01    2.32421E+00
 7.23987E-01    2.37966E+00
 7.39922E-01    2.64336E+00
 7.57408E-01    2.94868E+00
 7.62804E-01    3.03917E+00
 8.00000E-01    3.66391E+00
 9.00000E-01    5.09649E+00
 1.00000E+00    6.09831E+00
 1.10000E+00    6.73530E+00
 1.20000E+00    7.17638E+00
 1.30000E+00    7.33690E+00
 1.40000E+00    7.26811E+00
 1.50000E+00    7.12223E+00
 1.60000E+00    6.91937E+00
 1.70000E+00    6.54857E+00
 1.80000E+00    6.10250E+00
 1.90000E+00    5.62272E+00
 2.00000E+00    5.13264E+00
 2.25000E+00    4.01105E+00
 2.50000E+00    2.93702E+00
 2.75000E+00    2.13365E+00
 3.00000E+00    1.59763E+00
 3.50000E+00    8.11250E-01
 4.00000E+00    4.21408E-01
 4.50000E+00    2.37727E-01
 5.00000E+00    1.52398E-01
 5.50000E+00    1.11783E-01
 6.00000E+00    9.13896E-02
 6.50000E+00    8.00319E-02
 7.00000E+00    7.26093E-02
 7.50000E+00    6.68515E-02
 8.00000E+00    6.19185E-02
 8.50000E+00    5.75663E-02
 9.00000E+00    5.37398E-02
 9.50000E+00    5.04231E-02
 1.00000E+01    4.75432E-02
 1.05000E+01    4.50245E-02
 1.10000E+01    4.27794E-02
 1.15000E+01    4.07251E-02
 1.20000E+01    3.88060E-02
 1.25000E+01    3.69915E-02
 1.30000E+01    3.52995E-02
 1.35000E+01    3.37244E-02
 1.40000E+01    3.22551E-02
 1.45000E+01    3.08754E-02
 1.50000E+01    2.95679E-02
 1.55000E+01    2.83323E-02
 1.60000E+01    2.71422E-02
 1.65000E+01    2.60021E-02
 1.70000E+01    2.48986E-02
 1.75000E+01    2.38507E-02
 1.80000E+01    2.28488E-02
 1.85000E+01    2.19004E-02
 1.90000E+01    2.10099E-02
 1.95000E+01    2.01813E-02
 2.00000E+01    1.94092E-02
