# n + Eu151 : (n,n'31)  
# jendl4.0   N.Iwamoto                         EVAL-Nov09
# uncertainties: n
# # energies =    58
#   E(MeV)       xs(mb) 
 7.02846E-01    0.00000E+00
 7.19658E-01    1.48949E+00
 7.19779E-01    1.49489E+00
 7.23987E-01    1.70526E+00
 7.39922E-01    2.47314E+00
 7.57408E-01    3.28832E+00
 7.62804E-01    3.54083E+00
 8.00000E-01    5.23956E+00
 9.00000E-01    9.08272E+00
 1.00000E+00    1.16645E+01
 1.10000E+00    1.33614E+01
 1.20000E+00    1.40186E+01
 1.30000E+00    1.42873E+01
 1.40000E+00    1.39359E+01
 1.50000E+00    1.32441E+01
 1.60000E+00    1.24749E+01
 1.70000E+00    1.16727E+01
 1.80000E+00    1.06393E+01
 1.90000E+00    9.58870E+00
 2.00000E+00    8.56796E+00
 2.25000E+00    6.37656E+00
 2.50000E+00    4.47719E+00
 2.75000E+00    3.14252E+00
 3.00000E+00    2.18483E+00
 3.50000E+00    1.02473E+00
 4.00000E+00    4.83070E-01
 4.50000E+00    2.39895E-01
 5.00000E+00    1.32553E-01
 5.50000E+00    8.47980E-02
 6.00000E+00    6.28913E-02
 6.50000E+00    5.21368E-02
 7.00000E+00    4.60751E-02
 7.50000E+00    4.19446E-02
 8.00000E+00    3.86735E-02
 8.50000E+00    3.58928E-02
 9.00000E+00    3.34844E-02
 9.50000E+00    3.14086E-02
 1.00000E+01    2.96112E-02
 1.05000E+01    2.80422E-02
 1.10000E+01    2.66480E-02
 1.15000E+01    2.53736E-02
 1.20000E+01    2.41847E-02
 1.25000E+01    2.30605E-02
 1.30000E+01    2.20114E-02
 1.35000E+01    2.10343E-02
 1.40000E+01    2.01233E-02
 1.45000E+01    1.92678E-02
 1.50000E+01    1.84571E-02
 1.55000E+01    1.76870E-02
 1.60000E+01    1.69496E-02
 1.65000E+01    1.62944E-02
 1.70000E+01    1.56816E-02
 1.75000E+01    1.49081E-02
 1.80000E+01    1.42812E-02
 1.85000E+01    1.36888E-02
 1.90000E+01    1.31349E-02
 1.95000E+01    1.27439E-02
 2.00000E+01    1.23134E-02
