# n + Eu151 : (n,n'26)  
# jendl4.0   N.Iwamoto                         EVAL-Nov09
# uncertainties: n
# # energies =    64
#   E(MeV)       xs(mb) 
 6.04755E-01    0.00000E+00
 6.15506E-01    1.83823E+01
 6.36929E-01    2.72554E+01
 6.58774E-01    3.23240E+01
 7.00000E-01    3.82838E+01
 7.01970E-01    3.85186E+01
 7.02846E-01    3.85917E+01
 7.19658E-01    4.01405E+01
 7.19779E-01    4.01480E+01
 7.23987E-01    4.04679E+01
 7.39922E-01    4.16904E+01
 7.57408E-01    4.29361E+01
 7.62804E-01    4.33140E+01
 8.00000E-01    4.51283E+01
 9.00000E-01    4.69584E+01
 1.00000E+00    4.57716E+01
 1.10000E+00    4.31771E+01
 1.20000E+00    4.03299E+01
 1.30000E+00    3.67273E+01
 1.40000E+00    3.29971E+01
 1.50000E+00    2.95759E+01
 1.60000E+00    2.64740E+01
 1.70000E+00    2.32455E+01
 1.80000E+00    2.02543E+01
 1.90000E+00    1.75410E+01
 2.00000E+00    1.51188E+01
 2.25000E+00    1.04259E+01
 2.50000E+00    6.85842E+00
 2.75000E+00    4.56867E+00
 3.00000E+00    2.97077E+00
 3.50000E+00    1.27239E+00
 4.00000E+00    5.46115E-01
 4.50000E+00    2.41703E-01
 5.00000E+00    1.15458E-01
 5.50000E+00    6.28804E-02
 6.00000E+00    4.06068E-02
 6.50000E+00    3.07818E-02
 7.00000E+00    2.59648E-02
 7.50000E+00    2.31215E-02
 8.00000E+00    2.11004E-02
 8.50000E+00    1.94880E-02
 9.00000E+00    1.81382E-02
 9.50000E+00    1.69953E-02
 1.00000E+01    1.60141E-02
 1.05000E+01    1.51608E-02
 1.10000E+01    1.44022E-02
 1.15000E+01    1.37091E-02
 1.20000E+01    1.30620E-02
 1.25000E+01    1.24505E-02
 1.30000E+01    1.18805E-02
 1.35000E+01    1.13502E-02
 1.40000E+01    1.08562E-02
 1.45000E+01    1.03922E-02
 1.50000E+01    9.95241E-03
 1.55000E+01    9.53443E-03
 1.60000E+01    9.13404E-03
 1.65000E+01    8.75042E-03
 1.70000E+01    8.37910E-03
 1.75000E+01    8.02650E-03
 1.80000E+01    7.68936E-03
 1.85000E+01    7.36873E-03
 1.90000E+01    7.06918E-03
 1.95000E+01    6.79050E-03
 2.00000E+01    6.53080E-03
