# n + Eu151 : (n,n'24)  
# jendl4.0   N.Iwamoto                         EVAL-Nov09
# uncertainties: n
# # energies =    67
#   E(MeV)       xs(mb) 
 5.90984E-01    0.00000E+00
 6.00000E-01    2.43306E+01
 6.04493E-01    2.86362E+01
 6.04755E-01    2.88527E+01
 6.15506E-01    3.58375E+01
 6.36929E-01    4.41843E+01
 6.58774E-01    4.96560E+01
 7.00000E-01    5.55189E+01
 7.01970E-01    5.57400E+01
 7.02846E-01    5.56971E+01
 7.19658E-01    5.71174E+01
 7.19779E-01    5.70800E+01
 7.23987E-01    5.72366E+01
 7.39922E-01    5.84149E+01
 7.57408E-01    5.96324E+01
 7.62804E-01    5.99592E+01
 8.00000E-01    6.21633E+01
 9.00000E-01    6.49975E+01
 1.00000E+00    6.49032E+01
 1.10000E+00    6.23699E+01
 1.20000E+00    5.93762E+01
 1.30000E+00    5.43133E+01
 1.40000E+00    4.90615E+01
 1.50000E+00    4.41107E+01
 1.60000E+00    3.94345E+01
 1.70000E+00    3.43363E+01
 1.80000E+00    2.96140E+01
 1.90000E+00    2.53428E+01
 2.00000E+00    2.15623E+01
 2.25000E+00    1.43778E+01
 2.50000E+00    9.18857E+00
 2.75000E+00    5.97454E+00
 3.00000E+00    3.83640E+00
 3.50000E+00    1.60922E+00
 4.00000E+00    6.86372E-01
 4.50000E+00    3.08791E-01
 5.00000E+00    1.55239E-01
 5.50000E+00    9.19938E-02
 6.00000E+00    6.50421E-02
 6.50000E+00    5.26743E-02
 7.00000E+00    4.60800E-02
 7.50000E+00    4.17481E-02
 8.00000E+00    3.83921E-02
 8.50000E+00    3.55780E-02
 9.00000E+00    3.31633E-02
 9.50000E+00    3.10945E-02
 1.00000E+01    2.93084E-02
 1.05000E+01    2.77502E-02
 1.10000E+01    2.63624E-02
 1.15000E+01    2.50934E-02
 1.20000E+01    2.39082E-02
 1.25000E+01    2.27878E-02
 1.30000E+01    2.17435E-02
 1.35000E+01    2.07723E-02
 1.40000E+01    1.98674E-02
 1.45000E+01    1.90176E-02
 1.50000E+01    1.82122E-02
 1.55000E+01    1.74475E-02
 1.60000E+01    1.67150E-02
 1.65000E+01    1.60131E-02
 1.70000E+01    1.53337E-02
 1.75000E+01    1.46886E-02
 1.80000E+01    1.40679E-02
 1.85000E+01    1.34814E-02
 1.90000E+01    1.29335E-02
 1.95000E+01    1.24239E-02
 2.00000E+01    1.19490E-02
