# n + Eu151 : (n,n'07)  
# jendl4.0   N.Iwamoto                         EVAL-Nov09
# uncertainties: n
# # energies =    86
#   E(MeV)       xs(mb) 
 3.08317E-01    0.00000E+00
 3.09324E-01    4.34969E+01
 3.09585E-01    4.75768E+01
 3.09918E-01    5.20582E+01
 3.34400E-01    1.35556E+02
 3.38467E-01    1.37967E+02
 3.52188E-01    1.41207E+02
 3.56014E-01    1.42603E+02
 4.00000E-01    1.51572E+02
 4.18569E-01    1.54526E+02
 5.00000E-01    1.56114E+02
 5.03040E-01    1.56178E+02
 5.05627E-01    1.55300E+02
 5.06785E-01    1.55158E+02
 5.14546E-01    1.54503E+02
 5.25680E-01    1.54053E+02
 5.26334E-01    1.53740E+02
 5.49981E-01    1.50010E+02
 5.83886E-01    1.43757E+02
 5.90984E-01    1.42557E+02
 6.00000E-01    1.40574E+02
 6.04493E-01    1.40015E+02
 6.04755E-01    1.39901E+02
 6.15506E-01    1.37730E+02
 6.36929E-01    1.35786E+02
 6.58774E-01    1.33582E+02
 7.00000E-01    1.29980E+02
 7.01970E-01    1.29928E+02
 7.02846E-01    1.29446E+02
 7.19658E-01    1.27404E+02
 7.19779E-01    1.27362E+02
 7.23987E-01    1.26638E+02
 7.39922E-01    1.24914E+02
 7.57408E-01    1.23478E+02
 7.62804E-01    1.23156E+02
 8.00000E-01    1.21128E+02
 9.00000E-01    1.14971E+02
 1.00000E+00    1.04524E+02
 1.10000E+00    9.34644E+01
 1.20000E+00    8.31308E+01
 1.30000E+00    7.38005E+01
 1.40000E+00    6.40357E+01
 1.50000E+00    5.49531E+01
 1.60000E+00    4.67988E+01
 1.70000E+00    3.96191E+01
 1.80000E+00    3.33858E+01
 1.90000E+00    2.80253E+01
 2.00000E+00    2.34644E+01
 2.25000E+00    1.51932E+01
 2.50000E+00    9.51844E+00
 2.75000E+00    6.10390E+00
 3.00000E+00    3.89536E+00
 3.50000E+00    1.61185E+00
 4.00000E+00    6.86984E-01
 4.50000E+00    3.14925E-01
 5.00000E+00    1.64855E-01
 5.50000E+00    1.03027E-01
 6.00000E+00    7.62756E-02
 6.50000E+00    6.35215E-02
 7.00000E+00    5.62598E-02
 7.50000E+00    5.11673E-02
 8.00000E+00    4.70699E-02
 8.50000E+00    4.35950E-02
 9.00000E+00    4.06159E-02
 9.50000E+00    3.80710E-02
 1.00000E+01    3.58758E-02
 1.05000E+01    3.39579E-02
 1.10000E+01    3.22348E-02
 1.15000E+01    3.06556E-02
 1.20000E+01    2.91793E-02
 1.25000E+01    2.77868E-02
 1.30000E+01    2.64932E-02
 1.35000E+01    2.52930E-02
 1.40000E+01    2.41755E-02
 1.45000E+01    2.31227E-02
 1.50000E+01    2.21236E-02
 1.55000E+01    2.11803E-02
 1.60000E+01    2.02715E-02
 1.65000E+01    1.94013E-02
 1.70000E+01    1.85604E-02
 1.75000E+01    1.77637E-02
 1.80000E+01    1.70044E-02
 1.85000E+01    1.62900E-02
 1.90000E+01    1.56245E-02
 1.95000E+01    1.50067E-02
 2.00000E+01    1.44315E-02
