# n + Eu151 : (n,n'14)  
# jendl4.0   N.Iwamoto                         EVAL-Nov09
# uncertainties: n
# # energies =    79
#   E(MeV)       xs(mb) 
 3.56014E-01    0.00000E+00
 4.00000E-01    6.03194E+01
 4.18569E-01    6.69960E+01
 5.00000E-01    8.27310E+01
 5.03040E-01    8.31744E+01
 5.05627E-01    8.32929E+01
 5.06785E-01    8.34093E+01
 5.14546E-01    8.39220E+01
 5.25680E-01    8.44918E+01
 5.26334E-01    8.44721E+01
 5.49981E-01    8.55099E+01
 5.83886E-01    8.65215E+01
 5.90984E-01    8.66158E+01
 6.00000E-01    8.64753E+01
 6.04493E-01    8.65381E+01
 6.04755E-01    8.62127E+01
 6.15506E-01    8.36548E+01
 6.36929E-01    8.25331E+01
 6.58774E-01    8.23987E+01
 7.00000E-01    8.23820E+01
 7.01970E-01    8.24040E+01
 7.02846E-01    8.23201E+01
 7.19658E-01    8.22740E+01
 7.19779E-01    8.22367E+01
 7.23987E-01    8.20775E+01
 7.39922E-01    8.20118E+01
 7.57408E-01    8.19907E+01
 7.62804E-01    8.18910E+01
 8.00000E-01    8.12937E+01
 9.00000E-01    7.73090E+01
 1.00000E+00    7.08405E+01
 1.10000E+00    6.32142E+01
 1.20000E+00    5.61445E+01
 1.30000E+00    4.98806E+01
 1.40000E+00    4.39850E+01
 1.50000E+00    3.82463E+01
 1.60000E+00    3.30784E+01
 1.70000E+00    2.84958E+01
 1.80000E+00    2.44518E+01
 1.90000E+00    2.09096E+01
 2.00000E+00    1.78350E+01
 2.25000E+00    1.20771E+01
 2.50000E+00    7.85543E+00
 2.75000E+00    5.20107E+00
 3.00000E+00    3.48286E+00
 3.50000E+00    1.54174E+00
 4.00000E+00    7.12388E-01
 4.50000E+00    3.61380E-01
 5.00000E+00    2.11993E-01
 5.50000E+00    1.46410E-01
 6.00000E+00    1.15848E-01
 6.50000E+00    9.99101E-02
 7.00000E+00    8.99457E-02
 7.50000E+00    8.23974E-02
 8.00000E+00    7.60500E-02
 8.50000E+00    7.05422E-02
 9.00000E+00    6.57659E-02
 9.50000E+00    6.16620E-02
 1.00000E+01    5.81128E-02
 1.05000E+01    5.50085E-02
 1.10000E+01    5.22215E-02
 1.15000E+01    4.96681E-02
 1.20000E+01    4.72809E-02
 1.25000E+01    4.50285E-02
 1.30000E+01    4.29347E-02
 1.35000E+01    4.09916E-02
 1.40000E+01    3.91827E-02
 1.45000E+01    3.74833E-02
 1.50000E+01    3.58717E-02
 1.55000E+01    3.43460E-02
 1.60000E+01    3.28841E-02
 1.65000E+01    3.14836E-02
 1.70000E+01    3.01292E-02
 1.75000E+01    2.88451E-02
 1.80000E+01    2.76142E-02
 1.85000E+01    2.64527E-02
 1.90000E+01    2.53703E-02
 1.95000E+01    2.43652E-02
 2.00000E+01    2.34293E-02
