# n + Eu151 : (n,n'29)  
# jendl4.0   N.Iwamoto                         EVAL-Nov09
# uncertainties: n
# # energies =    61
#   E(MeV)       xs(mb) 
 6.58774E-01    0.00000E+00
 7.00000E-01    4.01182E+01
 7.01970E-01    4.06820E+01
 7.02846E-01    4.07254E+01
 7.19658E-01    4.41866E+01
 7.19779E-01    4.42094E+01
 7.23987E-01    4.49422E+01
 7.39922E-01    4.72871E+01
 7.57408E-01    4.94570E+01
 7.62804E-01    4.99874E+01
 8.00000E-01    5.29302E+01
 9.00000E-01    5.60801E+01
 1.00000E+00    5.55046E+01
 1.10000E+00    5.40686E+01
 1.20000E+00    5.14235E+01
 1.30000E+00    4.85605E+01
 1.40000E+00    4.40260E+01
 1.50000E+00    3.97438E+01
 1.60000E+00    3.57424E+01
 1.70000E+00    3.17006E+01
 1.80000E+00    2.75379E+01
 1.90000E+00    2.36941E+01
 2.00000E+00    2.02360E+01
 2.25000E+00    1.35572E+01
 2.50000E+00    8.64121E+00
 2.75000E+00    5.59865E+00
 3.00000E+00    3.77118E+00
 3.50000E+00    1.67521E+00
 4.00000E+00    8.05441E-01
 4.50000E+00    4.43204E-01
 5.00000E+00    2.89794E-01
 5.50000E+00    2.21256E-01
 6.00000E+00    1.87501E-01
 6.50000E+00    1.68060E-01
 7.00000E+00    1.54430E-01
 7.50000E+00    1.43115E-01
 8.00000E+00    1.32996E-01
 8.50000E+00    1.23859E-01
 9.00000E+00    1.15724E-01
 9.50000E+00    1.08626E-01
 1.00000E+01    1.02441E-01
 1.05000E+01    9.70237E-02
 1.10000E+01    9.21958E-02
 1.15000E+01    8.77773E-02
 1.20000E+01    8.36509E-02
 1.25000E+01    7.97489E-02
 1.30000E+01    7.61089E-02
 1.35000E+01    7.27205E-02
 1.40000E+01    6.95623E-02
 1.45000E+01    6.65963E-02
 1.50000E+01    6.37857E-02
 1.55000E+01    6.11279E-02
 1.60000E+01    5.85817E-02
 1.65000E+01    5.61348E-02
 1.70000E+01    5.37515E-02
 1.75000E+01    5.14885E-02
 1.80000E+01    4.93243E-02
 1.85000E+01    4.72802E-02
 1.90000E+01    4.53694E-02
 1.95000E+01    4.36280E-02
 2.00000E+01    4.19232E-02
