# n + Eu151 : (n,n'21)  
# jendl4.0   N.Iwamoto                         EVAL-Nov09
# uncertainties: n
# # energies =    70
#   E(MeV)       xs(mb) 
 5.26334E-01    0.00000E+00
 5.49981E-01    3.52343E+01
 5.83886E-01    4.53472E+01
 5.90984E-01    4.66330E+01
 6.00000E-01    4.80476E+01
 6.04493E-01    4.86999E+01
 6.04755E-01    4.87299E+01
 6.15506E-01    4.99702E+01
 6.36929E-01    5.20764E+01
 6.58774E-01    5.22341E+01
 7.00000E-01    5.33328E+01
 7.01970E-01    5.34002E+01
 7.02846E-01    5.32609E+01
 7.19658E-01    5.34292E+01
 7.19779E-01    5.34306E+01
 7.23987E-01    5.31957E+01
 7.39922E-01    5.28895E+01
 7.57408E-01    5.27792E+01
 7.62804E-01    5.28774E+01
 8.00000E-01    5.30464E+01
 9.00000E-01    5.36566E+01
 1.00000E+00    5.20587E+01
 1.10000E+00    5.00414E+01
 1.20000E+00    4.68154E+01
 1.30000E+00    4.25016E+01
 1.40000E+00    3.85080E+01
 1.50000E+00    3.47367E+01
 1.60000E+00    3.06175E+01
 1.70000E+00    2.65748E+01
 1.80000E+00    2.28594E+01
 1.90000E+00    1.95144E+01
 2.00000E+00    1.65616E+01
 2.25000E+00    1.09750E+01
 2.50000E+00    6.95314E+00
 2.75000E+00    4.48695E+00
 3.00000E+00    2.88185E+00
 3.50000E+00    1.20485E+00
 4.00000E+00    5.20083E-01
 4.50000E+00    2.42692E-01
 5.00000E+00    1.30265E-01
 5.50000E+00    8.36983E-02
 6.00000E+00    6.33855E-02
 6.50000E+00    5.35725E-02
 7.00000E+00    4.78817E-02
 7.50000E+00    4.38009E-02
 8.00000E+00    4.04445E-02
 8.50000E+00    3.75436E-02
 9.00000E+00    3.50215E-02
 9.50000E+00    3.28482E-02
 1.00000E+01    3.09670E-02
 1.05000E+01    2.93218E-02
 1.10000E+01    2.78526E-02
 1.15000E+01    2.65086E-02
 1.20000E+01    2.52500E-02
 1.25000E+01    2.40597E-02
 1.30000E+01    2.29511E-02
 1.35000E+01    2.19209E-02
 1.40000E+01    2.09618E-02
 1.45000E+01    2.00610E-02
 1.50000E+01    1.92072E-02
 1.55000E+01    1.84023E-02
 1.60000E+01    1.76262E-02
 1.65000E+01    1.68801E-02
 1.70000E+01    1.61584E-02
 1.75000E+01    1.54736E-02
 1.80000E+01    1.48194E-02
 1.85000E+01    1.42023E-02
 1.90000E+01    1.36263E-02
 1.95000E+01    1.30907E-02
 2.00000E+01    1.25888E-02
