# n + Eu151 : (n,n'34)  
# jendl4.0   N.Iwamoto                         EVAL-Nov09
# uncertainties: n
# # energies =    55
#   E(MeV)       xs(mb) 
 7.23987E-01    0.00000E+00
 7.39922E-01    7.99175E+00
 7.57408E-01    9.73103E+00
 7.62804E-01    1.01654E+01
 8.00000E-01    1.16728E+01
 9.00000E-01    1.43029E+01
 1.00000E+00    1.56907E+01
 1.10000E+00    1.64986E+01
 1.20000E+00    1.65813E+01
 1.30000E+00    1.63362E+01
 1.40000E+00    1.56224E+01
 1.50000E+00    1.44287E+01
 1.60000E+00    1.32202E+01
 1.70000E+00    1.20372E+01
 1.80000E+00    1.06874E+01
 1.90000E+00    9.33302E+00
 2.00000E+00    8.06895E+00
 2.25000E+00    5.52390E+00
 2.50000E+00    3.56518E+00
 2.75000E+00    2.32438E+00
 3.00000E+00    1.54791E+00
 3.50000E+00    6.76821E-01
 4.00000E+00    3.15794E-01
 4.50000E+00    1.66528E-01
 5.00000E+00    1.04124E-01
 5.50000E+00    7.69310E-02
 6.00000E+00    6.40520E-02
 6.50000E+00    5.69633E-02
 7.00000E+00    5.21979E-02
 7.50000E+00    4.83506E-02
 8.00000E+00    4.49462E-02
 8.50000E+00    4.18767E-02
 9.00000E+00    3.91399E-02
 9.50000E+00    3.67469E-02
 1.00000E+01    3.46601E-02
 1.05000E+01    3.28317E-02
 1.10000E+01    3.12046E-02
 1.15000E+01    2.97161E-02
 1.20000E+01    2.83267E-02
 1.25000E+01    2.70642E-02
 1.30000E+01    2.59021E-02
 1.35000E+01    2.48084E-02
 1.40000E+01    2.37784E-02
 1.45000E+01    2.28013E-02
 1.50000E+01    2.18663E-02
 1.55000E+01    2.07244E-02
 1.60000E+01    1.98600E-02
 1.65000E+01    1.91230E-02
 1.70000E+01    1.85358E-02
 1.75000E+01    1.77175E-02
 1.80000E+01    1.67386E-02
 1.85000E+01    1.60441E-02
 1.90000E+01    1.53945E-02
 1.95000E+01    1.49942E-02
 2.00000E+01    1.45604E-02
