# n + Eu151 :  n        
# jendl4.0   N.Iwamoto                         EVAL-Nov09
# uncertainties: n
# # energies =   106
#   E(MeV)       xs(mb) 
 1.05000E-01    0.00000E+00
 1.10000E-01    1.23539E-02
 1.20000E-01    1.55570E-02
 1.30000E-01    2.43139E-02
 1.40000E-01    2.82858E-02
 1.50000E-01    3.12172E-02
 1.60000E-01    3.36759E-02
 1.70000E-01    3.58052E-02
 1.80000E-01    3.76520E-02
 1.90000E-01    3.92905E-02
 1.97557E-01    4.03896E-02
 1.97854E-01    4.04303E-02
 2.00000E-01    4.02162E-02
 2.18168E-01    1.33654E-01
 2.25000E-01    1.66448E-01
 2.44916E-01    2.14744E-01
 2.50000E-01    2.08420E-01
 2.62211E-01    2.16823E-01
 2.75000E-01    2.20770E-01
 3.00000E-01    2.34445E-01
 3.08317E-01    3.88835E-01
 3.09324E-01    3.94270E-01
 3.09585E-01    3.94908E-01
 3.09918E-01    3.95709E-01
 3.34400E-01    5.41479E-01
 3.38467E-01    5.52697E-01
 3.52188E-01    5.77700E-01
 3.56014E-01    5.77222E-01
 4.00000E-01    5.82115E-01
 4.18569E-01    8.78684E-01
 5.00000E-01    1.32086E+00
 5.03040E-01    1.35488E+00
 5.05627E-01    1.56536E+00
 5.06785E-01    1.60072E+00
 5.14546E-01    1.72239E+00
 5.25680E-01    1.87445E+00
 5.26334E-01    1.88589E+00
 5.49981E-01    2.12689E+00
 5.83886E-01    2.31914E+00
 5.90984E-01    2.32233E+00
 6.00000E-01    2.33384E+00
 6.04493E-01    2.54054E+00
 6.04755E-01    2.56066E+00
 6.15506E-01    2.78679E+00
 6.36929E-01    3.18057E+00
 6.58774E-01    3.50234E+00
 7.00000E-01    3.84484E+00
 7.01970E-01    3.92324E+00
 7.02846E-01    3.94332E+00
 7.19658E-01    4.60548E+00
 7.19779E-01    4.60468E+00
 7.23987E-01    4.66569E+00
 7.39922E-01    5.13231E+00
 7.57408E-01    5.53319E+00
 7.62804E-01    5.64611E+00
 8.00000E-01    6.12537E+00
 9.00000E-01    9.87614E+01
 1.00000E+00    2.87354E+02
 1.10000E+00    4.89973E+02
 1.20000E+00    6.93234E+02
 1.30000E+00    8.91383E+02
 1.40000E+00    1.08191E+03
 1.50000E+00    1.25975E+03
 1.60000E+00    1.42178E+03
 1.70000E+00    1.56844E+03
 1.80000E+00    1.70040E+03
 1.90000E+00    1.81690E+03
 2.00000E+00    1.91814E+03
 2.25000E+00    2.10435E+03
 2.50000E+00    2.24380E+03
 2.75000E+00    2.32324E+03
 3.00000E+00    2.37263E+03
 3.50000E+00    2.39853E+03
 4.00000E+00    2.38163E+03
 4.50000E+00    2.35255E+03
 5.00000E+00    2.32614E+03
 5.50000E+00    2.30403E+03
 6.00000E+00    2.28703E+03
 6.50000E+00    2.27012E+03
 7.00000E+00    2.25089E+03
 7.50000E+00    2.22812E+03
 8.00000E+00    2.20397E+03
 8.50000E+00    2.11496E+03
 9.00000E+00    1.87201E+03
 9.50000E+00    1.56099E+03
 1.00000E+01    1.29443E+03
 1.05000E+01    1.05109E+03
 1.10000E+01    8.53066E+02
 1.15000E+01    6.94825E+02
 1.20000E+01    5.70347E+02
 1.25000E+01    4.74307E+02
 1.30000E+01    4.01429E+02
 1.35000E+01    3.46676E+02
 1.40000E+01    3.05474E+02
 1.45000E+01    2.74184E+02
 1.50000E+01    2.50002E+02
 1.55000E+01    2.30674E+02
 1.60000E+01    2.16275E+02
 1.65000E+01    2.02663E+02
 1.70000E+01    1.92280E+02
 1.75000E+01    1.83092E+02
 1.80000E+01    1.74856E+02
 1.85000E+01    1.67389E+02
 1.90000E+01    1.60573E+02
 1.95000E+01    1.54203E+02
 2.00000E+01    1.49448E+02
