# n + Eu151 : (n,n'19)  
# jendl4.0   N.Iwamoto                         EVAL-Nov09
# uncertainties: n
# # energies =    72
#   E(MeV)       xs(mb) 
 5.14546E-01    0.00000E+00
 5.25680E-01    1.19078E+01
 5.26334E-01    1.21587E+01
 5.49981E-01    1.76583E+01
 5.83886E-01    2.15853E+01
 5.90984E-01    2.21865E+01
 6.00000E-01    2.29451E+01
 6.04493E-01    2.33175E+01
 6.04755E-01    2.33338E+01
 6.15506E-01    2.41608E+01
 6.36929E-01    2.55478E+01
 6.58774E-01    2.68900E+01
 7.00000E-01    2.91604E+01
 7.01970E-01    2.92629E+01
 7.02846E-01    2.93038E+01
 7.19658E-01    3.01359E+01
 7.19779E-01    3.00563E+01
 7.23987E-01    2.98921E+01
 7.39922E-01    3.03169E+01
 7.57408E-01    3.10286E+01
 7.62804E-01    3.12553E+01
 8.00000E-01    3.27382E+01
 9.00000E-01    3.61119E+01
 1.00000E+00    3.74570E+01
 1.10000E+00    3.83783E+01
 1.20000E+00    3.80074E+01
 1.30000E+00    3.67751E+01
 1.40000E+00    3.56070E+01
 1.50000E+00    3.45101E+01
 1.60000E+00    3.29870E+01
 1.70000E+00    3.14926E+01
 1.80000E+00    3.01608E+01
 1.90000E+00    2.90176E+01
 2.00000E+00    2.80679E+01
 2.25000E+00    2.65353E+01
 2.50000E+00    2.54604E+01
 2.75000E+00    2.49028E+01
 3.00000E+00    2.44742E+01
 3.50000E+00    2.36608E+01
 4.00000E+00    2.28316E+01
 4.50000E+00    2.20548E+01
 5.00000E+00    2.12665E+01
 5.50000E+00    2.03673E+01
 6.00000E+00    1.93650E+01
 6.50000E+00    1.83103E+01
 7.00000E+00    1.72800E+01
 7.50000E+00    1.63351E+01
 8.00000E+00    1.54938E+01
 8.50000E+00    1.47617E+01
 9.00000E+00    1.41119E+01
 9.50000E+00    1.35282E+01
 1.00000E+01    1.29893E+01
 1.05000E+01    1.24877E+01
 1.10000E+01    1.20148E+01
 1.15000E+01    1.15634E+01
 1.20000E+01    1.11289E+01
 1.25000E+01    1.07131E+01
 1.30000E+01    1.03231E+01
 1.35000E+01    9.96695E+00
 1.40000E+01    9.64905E+00
 1.45000E+01    9.36804E+00
 1.50000E+01    9.11650E+00
 1.55000E+01    8.88258E+00
 1.60000E+01    8.65287E+00
 1.65000E+01    8.41627E+00
 1.70000E+01    8.16698E+00
 1.75000E+01    7.90534E+00
 1.80000E+01    7.63634E+00
 1.85000E+01    7.36731E+00
 1.90000E+01    7.10592E+00
 1.95000E+01    6.85882E+00
 2.00000E+01    6.63058E+00
