# n + Eu151 : (n,el)    
# jendl4.0   N.Iwamoto                         EVAL-Nov09
# uncertainties: n
# # energies =   171
#   E(MeV)       xs(mb) 
 1.00000E-11    5.71174E+03
 1.00000E-07    8.61729E+03
 4.13990E-07    1.43632E+05
 5.31580E-07    4.14204E+04
 6.82560E-07    1.38444E+04
 8.76420E-07    1.06793E+04
 1.12540E-06    1.10018E+04
 1.44500E-06    6.95278E+03
 1.85540E-06    5.30722E+03
 2.37240E-06    4.70821E+03
 3.05900E-06    1.51785E+04
 3.92790E-06    7.12209E+03
 5.04350E-06    5.06378E+03
 6.47600E-06    1.78261E+04
 8.31530E-06    1.02127E+04
 1.06770E-05    1.01430E+04
 1.37100E-05    1.02479E+04
 1.76030E-05    1.21843E+04
 2.26030E-05    2.30341E+04
 2.92030E-05    1.40405E+04
 3.72670E-05    5.93629E+04
 4.78510E-05    4.04026E+04
 6.14420E-05    2.02904E+04
 7.88930E-05    3.42830E+04
 1.01300E-04    3.05586E+04
 1.30070E-04    3.01867E+04
 1.67020E-04    2.93929E+04
 2.14450E-04    2.82070E+04
 2.75360E-04    2.69322E+04
 3.53580E-04    2.57304E+04
 4.54000E-04    2.46698E+04
 5.82950E-04    2.36626E+04
 7.48520E-04    2.26198E+04
 9.61120E-04    2.15979E+04
 1.23410E-03    2.06293E+04
 1.58460E-03    1.97034E+04
 2.03470E-03    1.89839E+04
 2.24870E-03    1.84985E+04
 2.48520E-03    1.81422E+04
 2.61260E-03    1.79090E+04
 2.74650E-03    1.75656E+04
 3.03540E-03    1.71161E+04
 3.35460E-03    1.66791E+04
 3.70740E-03    1.61486E+04
 4.30740E-03    1.53349E+04
 5.53080E-03    1.43734E+04
 7.10170E-03    1.34382E+04
 9.11880E-03    1.25268E+04
 1.17090E-02    1.16382E+04
 1.50340E-02    1.08092E+04
 1.93050E-02    1.02199E+04
 2.18750E-02    9.87108E+03
 2.35790E-02    9.67901E+03
 2.41760E-02    9.58488E+03
 2.47880E-02    9.44174E+03
 2.60580E-02    9.25951E+03
 2.70000E-02    9.06622E+03
 2.85000E-02    8.73856E+03
 3.18280E-02    8.44465E+03
 3.43070E-02    8.08139E+03
 4.08680E-02    7.67187E+03
 4.63090E-02    7.35161E+03
 5.24750E-02    7.09990E+03
 5.65620E-02    6.79941E+03
 6.73790E-02    6.52459E+03
 7.20000E-02    6.34421E+03
 7.95000E-02    6.19835E+03
 8.25000E-02    6.10780E+03
 8.65170E-02    5.92578E+03
 9.80370E-02    5.67777E+03
 1.11090E-01    5.52180E+03
 1.16790E-01    5.43330E+03
 1.22770E-01    5.34565E+03
 1.29070E-01    5.25839E+03
 1.35690E-01    5.17144E+03
 1.42640E-01    5.08433E+03
 1.49960E-01    5.00080E+03
 1.57640E-01    4.92236E+03
 1.65730E-01    4.85988E+03
 1.74220E-01    4.79682E+03
 1.83160E-01    4.73074E+03
 1.92550E-01    4.65238E+03
 2.02420E-01    4.54765E+03
 2.12800E-01    4.45154E+03
 2.23710E-01    4.33863E+03
 2.35180E-01    4.25334E+03
 2.47240E-01    4.13745E+03
 2.73240E-01    4.00834E+03
 2.87250E-01    3.96974E+03
 2.94520E-01    3.95199E+03
 2.97200E-01    3.94490E+03
 2.98500E-01    3.93643E+03
 3.01970E-01    3.82673E+03
 3.33730E-01    3.63469E+03
 3.68830E-01    3.54945E+03
 3.87740E-01    3.50325E+03
 4.07620E-01    3.48558E+03
 4.50490E-01    3.47253E+03
 4.97870E-01    3.46209E+03
 5.23400E-01    3.45231E+03
 5.50230E-01    3.44203E+03
 5.78440E-01    3.43456E+03
 6.08100E-01    3.43305E+03
 6.39280E-01    3.44408E+03
 6.72060E-01    3.45891E+03
 7.06510E-01    3.47791E+03
 7.42740E-01    3.50075E+03
 7.80820E-01    3.52745E+03
 8.20850E-01    3.55914E+03
 8.62940E-01    3.59248E+03
 9.07180E-01    3.63054E+03
 9.61640E-01    3.66749E+03
 1.00260E+00    3.72342E+03
 1.10800E+00    3.78233E+03
 1.16480E+00    3.82047E+03
 1.22460E+00    3.86054E+03
 1.28730E+00    3.90054E+03
 1.35340E+00    3.93549E+03
 1.42270E+00    3.97162E+03
 1.49570E+00    4.00275E+03
 1.57240E+00    4.03016E+03
 1.65300E+00    4.05296E+03
 1.73770E+00    4.06955E+03
 1.82680E+00    4.08160E+03
 1.92050E+00    4.08519E+03
 2.01900E+00    4.07601E+03
 2.12250E+00    4.05978E+03
 2.23130E+00    4.04376E+03
 2.30690E+00    4.02653E+03
 2.34570E+00    4.01705E+03
 2.36530E+00    4.01064E+03
 2.38520E+00    3.99438E+03
 2.46600E+00    3.95777E+03
 2.59240E+00    3.89878E+03
 2.72530E+00    3.83347E+03
 2.86500E+00    3.75594E+03
 3.01190E+00    3.66734E+03
 3.16640E+00    3.56697E+03
 3.32870E+00    3.41349E+03
 3.67880E+00    3.18670E+03
 4.06570E+00    2.95356E+03
 4.49330E+00    2.78157E+03
 4.72370E+00    2.67326E+03
 4.96590E+00    2.57167E+03
 5.22050E+00    2.48180E+03
 5.48810E+00    2.40265E+03
 5.76950E+00    2.33666E+03
 6.06530E+00    2.28793E+03
 6.37630E+00    2.25613E+03
 6.59240E+00    2.24584E+03
 6.70320E+00    2.23588E+03
 7.04690E+00    2.23586E+03
 7.40820E+00    2.24835E+03
 7.78800E+00    2.27367E+03
 8.18730E+00    2.31378E+03
 8.60710E+00    2.36207E+03
 9.04840E+00    2.41850E+03
 9.51230E+00    2.48222E+03
 1.00000E+01    2.55154E+03
 1.05130E+01    2.62499E+03
 1.10520E+01    2.69982E+03
 1.16180E+01    2.77400E+03
 1.22140E+01    2.84509E+03
 1.28400E+01    2.91112E+03
 1.34990E+01    2.95630E+03
 1.38400E+01    2.98398E+03
 1.41910E+01    3.00914E+03
 1.45500E+01    3.03166E+03
 1.49180E+01    3.06001E+03
 1.56830E+01    3.08588E+03
 1.64870E+01    3.09525E+03
