# n + Eu151 : (n,n'28)  
# jendl4.0   N.Iwamoto                         EVAL-Nov09
# uncertainties: n
# # energies =    62
#   E(MeV)       xs(mb) 
 6.36929E-01    0.00000E+00
 6.58774E-01    2.40999E+01
 7.00000E-01    3.32007E+01
 7.01970E-01    3.34612E+01
 7.02846E-01    3.34580E+01
 7.19658E-01    3.51165E+01
 7.19779E-01    3.51281E+01
 7.23987E-01    3.52927E+01
 7.39922E-01    3.61111E+01
 7.57408E-01    3.67649E+01
 7.62804E-01    3.70353E+01
 8.00000E-01    3.84737E+01
 9.00000E-01    4.07772E+01
 1.00000E+00    4.10440E+01
 1.10000E+00    4.03363E+01
 1.20000E+00    3.88694E+01
 1.30000E+00    3.67323E+01
 1.40000E+00    3.35664E+01
 1.50000E+00    3.05098E+01
 1.60000E+00    2.75946E+01
 1.70000E+00    2.44507E+01
 1.80000E+00    2.12862E+01
 1.90000E+00    1.83499E+01
 2.00000E+00    1.56969E+01
 2.25000E+00    1.05467E+01
 2.50000E+00    6.73024E+00
 2.75000E+00    4.36144E+00
 3.00000E+00    2.90022E+00
 3.50000E+00    1.26689E+00
 4.00000E+00    5.92444E-01
 4.50000E+00    3.14070E-01
 5.00000E+00    1.97747E-01
 5.50000E+00    1.46841E-01
 6.00000E+00    1.22500E-01
 6.50000E+00    1.08982E-01
 7.00000E+00    9.98115E-02
 7.50000E+00    9.23652E-02
 8.00000E+00    8.57757E-02
 8.50000E+00    7.98557E-02
 9.00000E+00    7.45999E-02
 9.50000E+00    7.00214E-02
 1.00000E+01    6.60352E-02
 1.05000E+01    6.25407E-02
 1.10000E+01    5.94235E-02
 1.15000E+01    5.65704E-02
 1.20000E+01    5.39055E-02
 1.25000E+01    5.13858E-02
 1.30000E+01    4.90360E-02
 1.35000E+01    4.68492E-02
 1.40000E+01    4.48115E-02
 1.45000E+01    4.28978E-02
 1.50000E+01    4.10843E-02
 1.55000E+01    3.93736E-02
 1.60000E+01    3.77286E-02
 1.65000E+01    3.61434E-02
 1.70000E+01    3.46091E-02
 1.75000E+01    3.31523E-02
 1.80000E+01    3.17592E-02
 1.85000E+01    3.04436E-02
 1.90000E+01    2.92135E-02
 1.95000E+01    2.80607E-02
 2.00000E+01    2.69862E-02
