# n + Eu151 : (n,xp)    
# jendl4.0   N.Iwamoto                         EVAL-Nov09
# 
# # energies =   115
#   E(MeV)        xs(mb) 
 2.16850E-02    0.00000E+00
 3.00000E-02    0.00000E+00
 4.00000E-02    0.00000E+00
 5.00000E-02    0.00000E+00
 6.00000E-02    0.00000E+00
 7.00000E-02    0.00000E+00
 8.00000E-02    0.00000E+00
 9.00000E-02    0.00000E+00
 1.00000E-01    0.00000E+00
 1.05000E-01    0.00000E+00
 1.10000E-01    0.00000E+00
 1.20000E-01    0.00000E+00
 1.30000E-01    0.00000E+00
 1.40000E-01    0.00000E+00
 1.50000E-01    0.00000E+00
 1.60000E-01    0.00000E+00
 1.70000E-01    0.00000E+00
 1.80000E-01    0.00000E+00
 1.90000E-01    0.00000E+00
 1.97557E-01    0.00000E+00
 1.97854E-01    0.00000E+00
 2.00000E-01    0.00000E+00
 2.18168E-01    0.00000E+00
 2.25000E-01    0.00000E+00
 2.44916E-01    0.00000E+00
 2.50000E-01    0.00000E+00
 2.62211E-01    0.00000E+00
 2.75000E-01    0.00000E+00
 3.00000E-01    9.52520E-15
 3.08317E-01    2.01800E-14
 3.09324E-01    2.06140E-14
 3.09585E-01    2.06920E-14
 3.09918E-01    2.08080E-14
 3.34400E-01    3.74200E-14
 3.38467E-01    4.10200E-14
 3.52188E-01    5.59630E-14
 3.56014E-01    6.09310E-14
 4.00000E-01    1.86050E-13
 4.18569E-01    2.88810E-13
 5.00000E-01    1.65820E-12
 5.03040E-01    1.76460E-12
 5.05627E-01    1.85680E-12
 5.06785E-01    1.90310E-12
 5.14546E-01    2.21870E-12
 5.25680E-01    2.76680E-12
 5.26334E-01    2.76930E-12
 5.49981E-01    4.19740E-12
 5.83886E-01    7.77730E-12
 5.90984E-01    8.64860E-12
 6.00000E-01    1.00710E-11
 6.04493E-01    1.08850E-11
 6.04755E-01    1.09100E-11
 6.15506E-01    1.27210E-11
 6.36929E-01    1.81750E-11
 6.58774E-01    2.62620E-11
 7.00000E-01    5.19350E-11
 7.01970E-01    5.36360E-11
 7.02846E-01    5.43560E-11
 7.19658E-01    7.12050E-11
 7.19779E-01    7.13230E-11
 7.23987E-01    7.60850E-11
 7.39922E-01    9.75460E-11
 7.57408E-01    1.27770E-10
 7.62804E-01    1.38820E-10
 8.00000E-01    2.43100E-10
 9.00000E-01    9.70940E-10
 1.00000E+00    3.32350E-09
 1.10000E+00    1.02680E-08
 1.20000E+00    2.86780E-08
 1.30000E+00    7.35470E-08
 1.40000E+00    1.74880E-07
 1.50000E+00    3.87940E-07
 1.60000E+00    8.09110E-07
 1.70000E+00    1.59702E-06
 1.80000E+00    2.99661E-06
 1.90000E+00    5.36913E-06
 2.00000E+00    9.22636E-06
 2.25000E+00    3.13440E-05
 2.50000E+00    8.27042E-05
 2.75000E+00    1.98095E-04
 3.00000E+00    3.83369E-04
 3.50000E+00    1.15060E-03
 4.00000E+00    2.51762E-03
 4.50000E+00    4.38937E-03
 5.00000E+00    6.51499E-03
 5.50000E+00    8.71494E-03
 6.00000E+00    1.11976E-02
 6.50000E+00    1.50357E-02
 7.00000E+00    2.24510E-02
 7.50000E+00    3.71072E-02
 8.00000E+00    6.46616E-02
 8.50000E+00    1.13372E-01
 9.00000E+00    1.94440E-01
 9.50000E+00    3.22564E-01
 1.00000E+01    5.15489E-01
 1.05000E+01    7.92000E-01
 1.10000E+01    1.17041E+00
 1.15000E+01    1.66620E+00
 1.20000E+01    2.29112E+00
 1.25000E+01    3.05329E+00
 1.30000E+01    3.95738E+00
 1.35000E+01    5.00476E+00
 1.40000E+01    6.19336E+00
 1.45000E+01    7.51796E+00
 1.50000E+01    8.97123E+00
 1.55000E+01    1.05445E+01
 1.60000E+01    1.22298E+01
 1.65000E+01    1.40148E+01
 1.70000E+01    1.58973E+01
 1.75000E+01    1.78658E+01
 1.80000E+01    1.99172E+01
 1.85000E+01    2.20562E+01
 1.90000E+01    2.42737E+01
 1.95000E+01    2.65743E+01
 2.00000E+01    2.89592E+01
