# n + Eu151 : (n,2na)   
# jendl4.0   N.Iwamoto                         EVAL-Nov09
# uncertainties: n
# # energies =    26
#   E(MeV)       xs(mb) 
 5.73351E+00    0.00000E+00
 8.00000E+00    1.26970E-32
 8.50000E+00    2.41240E-26
 9.00000E+00    1.87270E-15
 9.50000E+00    4.31730E-14
 1.00000E+01    6.22820E-13
 1.05000E+01    4.80770E-11
 1.10000E+01    1.80370E-09
 1.15000E+01    3.72460E-08
 1.20000E+01    4.56180E-07
 1.25000E+01    3.66317E-06
 1.30000E+01    2.10978E-05
 1.35000E+01    9.34053E-05
 1.40000E+01    3.34717E-04
 1.45000E+01    9.14546E-04
 1.50000E+01    2.52922E-03
 1.55000E+01    4.99169E-03
 1.60000E+01    8.69807E-03
 1.65000E+01    1.27636E-02
 1.70000E+01    1.84690E-02
 1.75000E+01    2.45049E-02
 1.80000E+01    3.34982E-02
 1.85000E+01    4.52767E-02
 1.90000E+01    6.14637E-02
 1.95000E+01    8.17087E-02
 2.00000E+01    1.10881E-01
