# n + Eu151 : (n,tot)   
# jendl4.0   N.Iwamoto                         EVAL-Nov09
# uncertainties: n
# # energies =   171
#   E(MeV)       xs(mb) 
 1.00000E-11    1.26828E+08
 1.00000E-07    3.48399E+06
 4.13990E-07    1.75206E+07
 5.31580E-07    2.65841E+06
 6.82560E-07    5.75943E+05
 8.76420E-07    1.40724E+06
 1.12540E-06    2.72702E+05
 1.44500E-06    1.01118E+05
 1.85540E-06    6.60885E+04
 2.37240E-06    3.16787E+05
 3.05900E-06    1.08603E+06
 3.92790E-06    1.05873E+05
 5.04350E-06    1.46993E+05
 6.47600E-06    6.00476E+05
 8.31530E-06    2.64828E+05
 1.06770E-05    2.47465E+05
 1.37100E-05    1.65744E+05
 1.76030E-05    2.35118E+05
 2.26030E-05    2.60358E+05
 2.92030E-05    1.79357E+05
 3.72670E-05    3.41966E+05
 4.78510E-05    2.26622E+05
 6.14420E-05    1.20819E+05
 7.88930E-05    1.82659E+05
 1.01300E-04    1.65719E+05
 1.30070E-04    1.46679E+05
 1.67020E-04    1.29828E+05
 2.14450E-04    1.14914E+05
 2.75360E-04    1.01711E+05
 3.53580E-04    9.00457E+04
 4.54000E-04    7.98208E+04
 5.82950E-04    7.07752E+04
 7.48520E-04    6.27924E+04
 9.61120E-04    5.57787E+04
 1.23410E-03    4.96418E+04
 1.58460E-03    4.41816E+04
 2.03470E-03    4.07006E+04
 2.24870E-03    3.88479E+04
 2.48520E-03    3.75109E+04
 2.61260E-03    3.66467E+04
 2.74650E-03    3.53897E+04
 3.03540E-03    3.37787E+04
 3.35460E-03    3.22403E+04
 3.70740E-03    3.04284E+04
 4.30740E-03    2.78133E+04
 5.53080E-03    2.48587E+04
 7.10170E-03    2.22409E+04
 9.11880E-03    1.99295E+04
 1.17090E-02    1.79053E+04
 1.50340E-02    1.60907E+04
 1.93050E-02    1.48495E+04
 2.18750E-02    1.42418E+04
 2.35790E-02    1.39497E+04
 2.41760E-02    1.38067E+04
 2.47880E-02    1.35946E+04
 2.60580E-02    1.33569E+04
 2.70000E-02    1.31117E+04
 2.85000E-02    1.26759E+04
 3.18280E-02    1.22044E+04
 3.43070E-02    1.16008E+04
 4.08680E-02    1.09251E+04
 4.63090E-02    1.04018E+04
 5.24750E-02    1.00006E+04
 5.65620E-02    9.52867E+03
 6.73790E-02    9.10213E+03
 7.20000E-02    8.82746E+03
 7.95000E-02    8.60743E+03
 8.25000E-02    8.47391E+03
 8.65170E-02    8.20849E+03
 9.80370E-02    7.85244E+03
 1.11090E-01    7.63048E+03
 1.16790E-01    7.50722E+03
 1.22770E-01    7.38587E+03
 1.29070E-01    7.26618E+03
 1.35690E-01    7.14872E+03
 1.42640E-01    7.03301E+03
 1.49960E-01    6.92367E+03
 1.57640E-01    6.82244E+03
 1.65730E-01    6.74305E+03
 1.74220E-01    6.66312E+03
 1.83160E-01    6.58029E+03
 1.92550E-01    6.50497E+03
 2.02420E-01    6.42871E+03
 2.12800E-01    6.34886E+03
 2.23710E-01    6.27397E+03
 2.35180E-01    6.19937E+03
 2.47240E-01    6.12361E+03
 2.73240E-01    6.08199E+03
 2.87250E-01    6.06030E+03
 2.94520E-01    6.05017E+03
 2.97200E-01    6.04612E+03
 2.98500E-01    6.04128E+03
 3.01970E-01    6.01074E+03
 3.33730E-01    5.96040E+03
 3.68830E-01    5.91983E+03
 3.87740E-01    5.89662E+03
 4.07620E-01    5.92274E+03
 4.50490E-01    5.97389E+03
 4.97870E-01    6.01557E+03
 5.23400E-01    6.04527E+03
 5.50230E-01    6.07493E+03
 5.78440E-01    6.10461E+03
 6.08100E-01    6.13580E+03
 6.39280E-01    6.17736E+03
 6.72060E-01    6.23255E+03
 7.06510E-01    6.29061E+03
 7.42740E-01    6.35166E+03
 7.80820E-01    6.41438E+03
 8.20850E-01    6.47196E+03
 8.62940E-01    6.53115E+03
 9.07180E-01    6.59874E+03
 9.61640E-01    6.66432E+03
 1.00260E+00    6.74591E+03
 1.10800E+00    6.83113E+03
 1.16480E+00    6.88102E+03
 1.22460E+00    6.92674E+03
 1.28730E+00    6.97346E+03
 1.35340E+00    7.00874E+03
 1.42270E+00    7.04220E+03
 1.49570E+00    7.07111E+03
 1.57240E+00    7.08842E+03
 1.65300E+00    7.10561E+03
 1.73770E+00    7.11346E+03
 1.82680E+00    7.10740E+03
 1.92050E+00    7.09713E+03
 2.01900E+00    7.07806E+03
 2.12250E+00    7.04612E+03
 2.23130E+00    7.01815E+03
 2.30690E+00    6.99652E+03
 2.34570E+00    6.98317E+03
 2.36530E+00    6.97415E+03
 2.38520E+00    6.95125E+03
 2.46600E+00    6.90220E+03
 2.59240E+00    6.82662E+03
 2.72530E+00    6.74302E+03
 2.86500E+00    6.64434E+03
 3.01190E+00    6.53429E+03
 3.16640E+00    6.41125E+03
 3.32870E+00    6.21407E+03
 3.67880E+00    5.93039E+03
 4.06570E+00    5.63833E+03
 4.49330E+00    5.42603E+03
 4.72370E+00    5.28966E+03
 4.96590E+00    5.16546E+03
 5.22050E+00    5.05562E+03
 5.48810E+00    4.95584E+03
 5.76950E+00    4.87371E+03
 6.06530E+00    4.80691E+03
 6.37630E+00    4.76175E+03
 6.59240E+00    4.74109E+03
 6.70320E+00    4.71986E+03
 7.04690E+00    4.69648E+03
 7.40820E+00    4.68753E+03
 7.78800E+00    4.69150E+03
 8.18730E+00    4.70542E+03
 8.60710E+00    4.72941E+03
 9.04840E+00    4.76776E+03
 9.51230E+00    4.81155E+03
 1.00000E+01    4.86523E+03
 1.05130E+01    4.92648E+03
 1.10520E+01    4.99026E+03
 1.16180E+01    5.05367E+03
 1.22140E+01    5.11429E+03
 1.28400E+01    5.17053E+03
 1.34990E+01    5.20892E+03
 1.38400E+01    5.23222E+03
 1.41910E+01    5.25299E+03
 1.45500E+01    5.27091E+03
 1.49180E+01    5.29146E+03
 1.56830E+01    5.30503E+03
 1.64870E+01    5.29920E+03
