# n + Eu151 : (n,n'06)  
# jendl4.0   N.Iwamoto                         EVAL-Nov09
# uncertainties: n
# # energies =    89
#   E(MeV)       xs(mb) 
 2.62211E-01    0.00000E+00
 2.75000E-01    1.60201E+02
 3.00000E-01    2.16859E+02
 3.08317E-01    2.26076E+02
 3.09324E-01    2.22200E+02
 3.09585E-01    2.19470E+02
 3.09918E-01    2.16823E+02
 3.34400E-01    2.04287E+02
 3.38467E-01    2.01070E+02
 3.52188E-01    1.90642E+02
 3.56014E-01    1.89647E+02
 4.00000E-01    1.82176E+02
 4.18569E-01    1.82521E+02
 5.00000E-01    1.77135E+02
 5.03040E-01    1.77132E+02
 5.05627E-01    1.76094E+02
 5.06785E-01    1.75908E+02
 5.14546E-01    1.74877E+02
 5.25680E-01    1.73506E+02
 5.26334E-01    1.73080E+02
 5.49981E-01    1.67260E+02
 5.83886E-01    1.59695E+02
 5.90984E-01    1.58302E+02
 6.00000E-01    1.56060E+02
 6.04493E-01    1.55418E+02
 6.04755E-01    1.55286E+02
 6.15506E-01    1.52794E+02
 6.36929E-01    1.50545E+02
 6.58774E-01    1.48011E+02
 7.00000E-01    1.42034E+02
 7.01970E-01    1.41877E+02
 7.02846E-01    1.41319E+02
 7.19658E-01    1.38910E+02
 7.19779E-01    1.38860E+02
 7.23987E-01    1.38018E+02
 7.39922E-01    1.36026E+02
 7.57408E-01    1.34359E+02
 7.62804E-01    1.33985E+02
 8.00000E-01    1.31605E+02
 9.00000E-01    1.24171E+02
 1.00000E+00    1.10692E+02
 1.10000E+00    9.86946E+01
 1.20000E+00    8.75518E+01
 1.30000E+00    7.67991E+01
 1.40000E+00    6.61738E+01
 1.50000E+00    5.65215E+01
 1.60000E+00    4.79496E+01
 1.70000E+00    4.04669E+01
 1.80000E+00    3.40145E+01
 1.90000E+00    2.84961E+01
 2.00000E+00    2.38212E+01
 2.25000E+00    1.53921E+01
 2.50000E+00    9.62626E+00
 2.75000E+00    6.16913E+00
 3.00000E+00    3.94793E+00
 3.50000E+00    1.63856E+00
 4.00000E+00    7.04341E-01
 4.50000E+00    3.28471E-01
 5.00000E+00    1.76533E-01
 5.50000E+00    1.13526E-01
 6.00000E+00    8.59250E-02
 6.50000E+00    7.24298E-02
 7.00000E+00    6.44966E-02
 7.50000E+00    5.87759E-02
 8.00000E+00    5.41013E-02
 8.50000E+00    5.01129E-02
 9.00000E+00    4.66866E-02
 9.50000E+00    4.37580E-02
 1.00000E+01    4.12296E-02
 1.05000E+01    3.90192E-02
 1.10000E+01    3.70313E-02
 1.15000E+01    3.52087E-02
 1.20000E+01    3.35051E-02
 1.25000E+01    3.18996E-02
 1.30000E+01    3.04088E-02
 1.35000E+01    2.90264E-02
 1.40000E+01    2.77394E-02
 1.45000E+01    2.65300E-02
 1.50000E+01    2.53829E-02
 1.55000E+01    2.42956E-02
 1.60000E+01    2.32538E-02
 1.65000E+01    2.22561E-02
 1.70000E+01    2.12920E-02
 1.75000E+01    2.03787E-02
 1.80000E+01    1.95085E-02
 1.85000E+01    1.86901E-02
 1.90000E+01    1.79281E-02
 1.95000E+01    1.72209E-02
 2.00000E+01    1.65575E-02
