# n + Pu236 : (n,el)    
# jendl4.0   O.Iwamoto, T.Nakagawa, et al.     EVAL-FEB10
# uncertainties: y
# # energies =    69
#   E(MeV)       xs(mb)       xslow(mb)      xsupp(mb)
 1.00000E-10    1.04157E+04    1.04157E+04    1.04157E+04
 5.00000E-09    9.26494E+03    9.26494E+03    9.26494E+03
 1.00000E-08    9.23041E+03    9.23041E+03    9.23041E+03
 1.50000E-08    9.21453E+03    9.21453E+03    9.21453E+03
 2.00000E-08    9.20435E+03    9.20435E+03    9.20435E+03
 2.50000E-08    9.19649E+03    9.19649E+03    9.19649E+03
 3.00000E-08    9.19041E+03    9.19041E+03    9.19041E+03
 3.50000E-08    9.18321E+03    9.18321E+03    9.18321E+03
 4.20000E-08    9.17564E+03    9.17564E+03    9.17564E+03
 5.00000E-08    9.16851E+03    9.16851E+03    9.16851E+03
 5.80000E-08    9.16096E+03    9.16096E+03    9.16096E+03
 6.70000E-08    9.15126E+03    9.15126E+03    9.15126E+03
 8.00000E-08    9.13799E+03    9.13799E+03    9.13799E+03
 1.00000E-07    9.11529E+03    9.11529E+03    9.11529E+03
 1.40000E-07    9.08402E+03    9.08402E+03    9.08402E+03
 1.80000E-07    9.05285E+03    9.05285E+03    9.05285E+03
 2.20000E-07    9.02541E+03    9.02541E+03    9.02541E+03
 2.50000E-07    9.00210E+03    9.00210E+03    9.00210E+03
 2.80000E-07    8.98256E+03    8.98256E+03    8.98256E+03
 3.00000E-07    8.96704E+03    8.96704E+03    8.96704E+03
 3.20000E-07    8.94772E+03    8.94772E+03    8.94772E+03
 3.50000E-07    8.91690E+03    8.91690E+03    8.91690E+03
 4.00000E-07    8.85729E+03    8.85729E+03    8.85729E+03
 5.00000E-07    8.76414E+03    8.76414E+03    8.76414E+03
 6.25000E-07    8.64112E+03    8.64112E+03    8.64112E+03
 7.80000E-07    8.53344E+03    8.53344E+03    8.53344E+03
 8.50000E-07    8.46902E+03    8.46902E+03    8.46902E+03
 9.10000E-07    8.41723E+03    8.41723E+03    8.41723E+03
 9.50000E-07    8.38454E+03    8.38454E+03    8.38454E+03
 9.72000E-07    8.36031E+03    8.36031E+03    8.36031E+03
 9.96000E-07    8.33377E+03    8.33377E+03    8.33377E+03
 1.02000E-06    8.30617E+03    8.30617E+03    8.30617E+03
 1.04500E-06    8.27745E+03    8.27745E+03    8.27745E+03
 1.07100E-06    8.24815E+03    8.24815E+03    8.24815E+03
 1.09700E-06    8.21735E+03    8.21735E+03    8.21735E+03
 1.12300E-06    8.18482E+03    8.18482E+03    8.18482E+03
 1.15000E-06    8.07550E+03    8.07550E+03    8.07550E+03
 1.30000E-06    7.83227E+03    7.83227E+03    7.83227E+03
 1.50000E-06    7.09352E+03    7.09352E+03    7.09352E+03
 2.10000E-06    5.18978E+03    5.18978E+03    5.18978E+03
 2.60000E-06    2.47102E+04    2.47102E+04    2.47102E+04
 3.30000E-06    2.44236E+04    2.44236E+04    2.44236E+04
 4.00000E-06    1.35877E+04    1.35877E+04    1.35877E+04
 9.87700E-06    1.34780E+04    1.34780E+04    1.34780E+04
 1.59680E-05    1.16196E+04    9.62104E+03    1.36182E+04
 2.77000E-05    1.32654E+04    1.09838E+04    1.55471E+04
 4.80520E-05    1.39378E+04    1.15405E+04    1.63352E+04
 7.55014E-05    1.31929E+04    1.09237E+04    1.54621E+04
 1.48728E-04    1.31044E+04    1.08504E+04    1.53584E+04
 3.67262E-04    1.29465E+04    1.07197E+04    1.51732E+04
 9.06898E-04    1.27875E+04    1.05881E+04    1.49870E+04
 1.42510E-03    1.26577E+04    1.04805E+04    1.48348E+04
 2.23945E-03    1.25066E+04    1.03555E+04    1.46578E+04
 3.51910E-03    1.23257E+04    1.02057E+04    1.44458E+04
 5.53000E-03    1.21018E+04    9.99612E+03    1.42076E+04
 9.11800E-03    1.18107E+04    9.75565E+03    1.38658E+04
 1.50300E-02    1.14721E+04    9.47596E+03    1.34683E+04
 2.47800E-02    1.10645E+04    9.16137E+03    1.29675E+04
 4.08500E-02    1.05685E+04    8.87757E+03    1.22595E+04
 6.73400E-02    9.92473E+03    8.45587E+03    1.13936E+04
 1.11000E-01    9.10292E+03    7.97416E+03    1.02317E+04
 1.83000E-01    7.95844E+03    6.97159E+03    8.94528E+03
 3.02000E-01    6.62579E+03    6.30377E+03    6.94780E+03
 5.00000E-01    5.15802E+03    4.97543E+03    5.34061E+03
 8.21000E-01    3.94492E+03    3.78594E+03    4.10390E+03
 1.35300E+00    3.51518E+03    3.16015E+03    3.87022E+03
 2.23100E+00    3.99717E+03    3.47354E+03    4.52080E+03
 3.67900E+00    4.05364E+03    3.86393E+03    4.24335E+03
 6.06500E+00    2.98701E+03    2.69459E+03    3.27944E+03
