# n + Hf182 : (n,xp)    
# jendl4.0   K. Shibata (JAEA)                 EVAL-JUL09
# 
# # energies =    50
#   E(MeV)        xs(mb) 
 9.83321E-02    0.00000E+00
 1.00000E-01    0.00000E+00
 2.00000E-01    0.00000E+00
 3.00000E-01    0.00000E+00
 3.23966E-01    0.00000E+00
 4.00000E-01    0.00000E+00
 5.00000E-01    0.00000E+00
 6.00000E-01    0.00000E+00
 6.69974E-01    0.00000E+00
 7.00000E-01    0.00000E+00
 8.00000E-01    0.00000E+00
 8.22937E-01    0.00000E+00
 9.00000E-01    0.00000E+00
 9.10922E-01    0.00000E+00
 1.00000E+00    0.00000E+00
 1.02767E+00    0.00000E+00
 1.03973E+00    0.00000E+00
 1.12830E+00    0.00000E+00
 1.17938E+00    0.00000E+00
 1.18944E+00    0.00000E+00
 1.25000E+00    0.00000E+00
 1.50000E+00    0.00000E+00
 2.00000E+00    0.00000E+00
 2.50000E+00    0.00000E+00
 3.00000E+00    0.00000E+00
 3.50000E+00    0.00000E+00
 4.00000E+00    0.00000E+00
 4.50000E+00    0.00000E+00
 5.00000E+00    0.00000E+00
 5.50000E+00    0.00000E+00
 6.00000E+00    0.00000E+00
 6.50000E+00    0.00000E+00
 7.00000E+00    0.00000E+00
 7.50000E+00    4.49800E-07
 8.00000E+00    2.22300E-05
 8.50000E+00    1.23100E-04
 9.00000E+00    5.75900E-04
 9.50000E+00    1.84200E-03
 1.00000E+01    5.82700E-03
 1.10000E+01    3.41500E-02
 1.20000E+01    1.33100E-01
 1.30000E+01    3.77129E-01
 1.40000E+01    8.40358E-01
 1.45000E+01    1.16329E+00
 1.50000E+01    1.57660E+00
 1.60000E+01    2.62708E+00
 1.70000E+01    4.05030E+00
 1.80000E+01    5.82030E+00
 1.90000E+01    7.88200E+00
 2.00000E+01    1.02630E+01
