# n + Hf182 : (n,xa)    
# jendl4.0   K. Shibata (JAEA)                 EVAL-JUL09
# 
# # energies =    50
#   E(MeV)        xs(mb) 
 9.83321E-02    0.00000E+00
 1.00000E-01    0.00000E+00
 2.00000E-01    0.00000E+00
 3.00000E-01    0.00000E+00
 3.23966E-01    0.00000E+00
 4.00000E-01    0.00000E+00
 5.00000E-01    0.00000E+00
 6.00000E-01    0.00000E+00
 6.69974E-01    0.00000E+00
 7.00000E-01    0.00000E+00
 8.00000E-01    0.00000E+00
 8.22937E-01    0.00000E+00
 9.00000E-01    0.00000E+00
 9.10922E-01    0.00000E+00
 1.00000E+00    0.00000E+00
 1.02767E+00    0.00000E+00
 1.03973E+00    0.00000E+00
 1.12830E+00    0.00000E+00
 1.17938E+00    0.00000E+00
 1.18944E+00    0.00000E+00
 1.25000E+00    0.00000E+00
 1.50000E+00    0.00000E+00
 2.00000E+00    0.00000E+00
 2.50000E+00    0.00000E+00
 3.00000E+00    0.00000E+00
 3.50000E+00    0.00000E+00
 4.00000E+00    0.00000E+00
 4.50000E+00    0.00000E+00
 5.00000E+00    0.00000E+00
 5.50000E+00    0.00000E+00
 6.00000E+00    2.60600E-06
 6.50000E+00    1.32000E-05
 7.00000E+00    2.85000E-05
 7.50000E+00    7.20800E-05
 8.00000E+00    1.93600E-04
 8.50000E+00    4.31100E-04
 9.00000E+00    9.35400E-04
 9.50000E+00    1.81200E-03
 1.00000E+01    3.53600E-03
 1.10000E+01    1.17145E-02
 1.20000E+01    3.43916E-02
 1.30000E+01    8.81300E-02
 1.40000E+01    1.95020E-01
 1.45000E+01    2.74150E-01
 1.50000E+01    3.73870E-01
 1.60000E+01    6.31130E-01
 1.70000E+01    9.60100E-01
 1.80000E+01    1.34520E+00
 1.90000E+01    1.76780E+00
 2.00000E+01    2.21000E+00
