# n + Xe129 : (n,n'08)  
# jendl4.0   S.Kunieda, A.Ichihara, K.Shibata+ EVAL-FEB22
# uncertainties: n
# # energies =    49
#   E(MeV)       xs(mb) 
 5.22759E-01    0.00000E+00
 5.50000E-01    1.89400E+01
 6.00000E-01    3.49300E+01
 6.50000E-01    4.47700E+01
 7.00000E-01    4.79400E+01
 7.50000E-01    5.39200E+01
 8.00000E-01    5.33800E+01
 8.50000E-01    5.81900E+01
 9.00000E-01    5.63500E+01
 9.50000E-01    6.04200E+01
 1.00000E+00    5.80400E+01
 1.20000E+00    5.89900E+01
 1.40000E+00    5.72900E+01
 1.60000E+00    5.65100E+01
 1.80000E+00    4.98500E+01
 2.00000E+00    4.28200E+01
 2.20000E+00    3.60800E+01
 2.40000E+00    3.00400E+01
 2.60000E+00    2.48700E+01
 2.80000E+00    2.05300E+01
 3.00000E+00    1.69100E+01
 3.25000E+00    1.31500E+01
 3.50000E+00    1.02900E+01
 3.75000E+00    7.90900E+00
 4.00000E+00    6.06000E+00
 4.25000E+00    4.56300E+00
 4.50000E+00    3.40700E+00
 4.75000E+00    2.50400E+00
 5.00000E+00    1.82400E+00
 5.50000E+00    9.35800E-01
 6.00000E+00    4.66400E-01
 6.50000E+00    2.29100E-01
 7.00000E+00    1.12000E-01
 7.50000E+00    5.48700E-02
 8.00000E+00    2.71200E-02
 8.50000E+00    1.36200E-02
 9.00000E+00    6.96100E-03
 9.50000E+00    3.62000E-03
 1.00000E+01    1.91300E-03
 1.10000E+01    5.56800E-04
 1.20000E+01    1.70400E-04
 1.30000E+01    5.44800E-05
 1.40000E+01    1.81700E-05
 1.50000E+01    6.29600E-06
 1.60000E+01    2.25700E-06
 1.70000E+01    8.34600E-07
 1.80000E+01    3.17300E-07
 1.90000E+01    1.23900E-07
 2.00000E+01    4.95000E-08
