# n + Xe129 : (n,el)    
# jendl4.0   S.Kunieda, A.Ichihara, K.Shibata+ EVAL-FEB22
# uncertainties: n
# # energies =    69
#   E(MeV)       xs(mb) 
 1.00000E-10    6.22201E+03
 5.00000E-09    5.11987E+03
 1.00000E-08    5.08817E+03
 1.50000E-08    5.07538E+03
 2.00000E-08    5.06804E+03
 2.50000E-08    5.06329E+03
 3.00000E-08    5.05983E+03
 3.50000E-08    5.05650E+03
 4.20000E-08    5.05354E+03
 5.00000E-08    5.05048E+03
 5.80000E-08    5.04824E+03
 6.70000E-08    5.04566E+03
 8.00000E-08    5.04187E+03
 1.00000E-07    5.03666E+03
 1.40000E-07    5.02995E+03
 1.80000E-07    5.02341E+03
 2.20000E-07    5.01823E+03
 2.50000E-07    5.01388E+03
 2.80000E-07    5.01024E+03
 3.00000E-07    5.00735E+03
 3.20000E-07    5.00375E+03
 3.50000E-07    4.99801E+03
 4.00000E-07    4.98734E+03
 5.00000E-07    4.97113E+03
 6.25000E-07    4.95095E+03
 7.80000E-07    4.93434E+03
 8.50000E-07    4.92491E+03
 9.10000E-07    4.91765E+03
 9.50000E-07    4.91314E+03
 9.72000E-07    4.90982E+03
 9.96000E-07    4.90635E+03
 1.02000E-06    4.90280E+03
 1.04500E-06    4.89911E+03
 1.07100E-06    4.89535E+03
 1.09700E-06    4.89159E+03
 1.12300E-06    4.88775E+03
 1.15000E-06    4.87516E+03
 1.30000E-06    4.84972E+03
 1.50000E-06    4.78955E+03
 2.10000E-06    4.70194E+03
 2.60000E-06    4.60773E+03
 3.30000E-06    4.48362E+03
 4.00000E-06    1.58308E+04
 9.87700E-06    1.03726E+04
 1.59680E-05    4.62861E+03
 2.77000E-05    3.75573E+03
 4.80520E-05    2.86055E+03
 7.55014E-05    4.44799E+04
 1.48728E-04    1.04705E+04
 3.67262E-04    1.81578E+04
 9.06898E-04    1.31553E+04
 1.42510E-03    8.36830E+03
 2.23945E-03    1.09486E+04
 3.51910E-03    9.73195E+03
 5.53000E-03    8.44821E+03
 9.11800E-03    7.52990E+03
 1.50300E-02    6.83017E+03
 2.47800E-02    6.31416E+03
 4.08500E-02    5.75348E+03
 6.73400E-02    5.36404E+03
 1.11000E-01    5.15632E+03
 1.83000E-01    5.11055E+03
 3.02000E-01    5.03844E+03
 5.00000E-01    4.72819E+03
 8.21000E-01    4.59850E+03
 1.35300E+00    4.14525E+03
 2.23100E+00    3.08799E+03
 3.67900E+00    2.15012E+03
 6.06500E+00    2.17893E+03
