# n + Xe129 : (n,n'01)  
# jendl4.0   S.Kunieda, A.Ichihara, K.Shibata+ EVAL-FEB22
# uncertainties: n
# # energies =    67
#   E(MeV)       xs(mb) 
 3.98877E-02    0.00000E+00
 4.00000E-02    5.89600E+01
 5.00000E-02    3.50900E+02
 6.00000E-02    4.62600E+02
 7.00000E-02    5.37000E+02
 8.00000E-02    5.92400E+02
 9.00000E-02    6.35200E+02
 1.00000E-01    6.68800E+02
 1.20000E-01    7.17400E+02
 1.40000E-01    7.50200E+02
 1.60000E-01    7.72700E+02
 1.80000E-01    7.88500E+02
 2.00000E-01    8.00000E+02
 2.50000E-01    8.16700E+02
 3.00000E-01    8.23500E+02
 3.50000E-01    7.57000E+02
 4.00000E-01    6.88600E+02
 4.50000E-01    6.19000E+02
 5.00000E-01    5.58600E+02
 5.50000E-01    5.09500E+02
 6.00000E-01    5.61000E+02
 6.50000E-01    4.96300E+02
 7.00000E-01    4.29500E+02
 7.50000E-01    4.02600E+02
 8.00000E-01    3.54900E+02
 8.50000E-01    3.41400E+02
 9.00000E-01    3.04100E+02
 9.50000E-01    2.95700E+02
 1.00000E+00    2.65100E+02
 1.20000E+00    2.05200E+02
 1.40000E+00    1.59200E+02
 1.60000E+00    1.29800E+02
 1.80000E+00    9.82500E+01
 2.00000E+00    7.43200E+01
 2.20000E+00    5.63400E+01
 2.40000E+00    4.28800E+01
 2.60000E+00    3.28200E+01
 2.80000E+00    2.52900E+01
 3.00000E+00    1.96000E+01
 3.25000E+00    1.42700E+01
 3.50000E+00    1.05600E+01
 3.75000E+00    7.74000E+00
 4.00000E+00    5.69900E+00
 4.25000E+00    4.14900E+00
 4.50000E+00    3.01000E+00
 4.75000E+00    2.15800E+00
 5.00000E+00    1.53700E+00
 5.50000E+00    7.61100E-01
 6.00000E+00    3.69100E-01
 6.50000E+00    1.77300E-01
 7.00000E+00    8.50300E-02
 7.50000E+00    4.09100E-02
 8.00000E+00    1.98700E-02
 8.50000E+00    9.81500E-03
 9.00000E+00    4.93900E-03
 9.50000E+00    2.53100E-03
 1.00000E+01    1.31900E-03
 1.10000E+01    3.74800E-04
 1.20000E+01    1.12400E-04
 1.30000E+01    3.53800E-05
 1.40000E+01    1.16500E-05
 1.50000E+01    3.99600E-06
 1.60000E+01    1.41900E-06
 1.70000E+01    5.19900E-07
 1.80000E+01    1.96000E-07
 1.90000E+01    7.58800E-08
 2.00000E+01    3.01100E-08
