# n + Sm149 : (n,n'21)  
# tendl.2019 A.J. Koning and D. Rochman        EVAL-NOV19
# uncertainties: n
# # energies =    76
#   E(MeV)       xs(mb) 
 8.87914E-01    0.00000E+00
 9.00000E-01    4.54099E+01
 9.31749E-01    5.37439E+01
 9.59233E-01    6.09583E+01
 9.73550E-01    6.47164E+01
 1.00000E+00    7.16594E+01
 1.00134E+00    7.16346E+01
 1.01885E+00    7.13104E+01
 1.04604E+00    7.08069E+01
 1.05510E+00    7.06391E+01
 1.09034E+00    6.99866E+01
 1.12054E+00    6.94274E+01
 1.20000E+00    6.79561E+01
 1.40000E+00    6.08760E+01
 1.60000E+00    5.07793E+01
 1.80000E+00    3.75440E+01
 2.00000E+00    2.54451E+01
 2.20000E+00    1.66221E+01
 2.40000E+00    1.08121E+01
 2.60000E+00    7.11183E+00
 2.80000E+00    4.75419E+00
 3.00000E+00    3.23015E+00
 3.20000E+00    2.22774E+00
 3.40000E+00    1.55586E+00
 3.60000E+00    1.09750E+00
 3.80000E+00    7.79636E-01
 4.00000E+00    5.56918E-01
 4.20000E+00    3.99461E-01
 4.40000E+00    2.87601E-01
 4.60000E+00    2.07846E-01
 4.80000E+00    1.50882E-01
 5.00000E+00    1.10170E-01
 5.20000E+00    8.09558E-02
 5.40000E+00    5.97473E-02
 5.60000E+00    4.45211E-02
 5.80000E+00    3.33489E-02
 6.00000E+00    2.50854E-02
 6.20000E+00    1.90156E-02
 6.40000E+00    1.44653E-02
 6.60000E+00    1.10799E-02
 6.80000E+00    8.51136E-03
 7.00000E+00    6.55842E-03
 7.20000E+00    5.07382E-03
 7.40000E+00    3.93185E-03
 7.60000E+00    3.05965E-03
 7.80000E+00    2.38392E-03
 8.00000E+00    1.86145E-03
 8.50000E+00    1.00976E-03
 9.00000E+00    5.52555E-04
 9.50000E+00    3.05005E-04
 1.00000E+01    1.70051E-04
 1.05000E+01    9.58455E-05
 1.10000E+01    5.46405E-05
 1.15000E+01    3.15142E-05
 1.20000E+01    1.83882E-05
 1.25000E+01    1.08507E-05
 1.30000E+01    6.46870E-06
 1.35000E+01    3.89209E-06
 1.40000E+01    2.36170E-06
 1.45000E+01    1.44379E-06
 1.50000E+01    8.88240E-07
 1.60000E+01    3.42470E-07
 1.70000E+01    1.35200E-07
 1.80000E+01    5.46120E-08
 1.90000E+01    2.23930E-08
 2.00000E+01    9.46650E-09
 2.10000E+01    4.08030E-09
 2.20000E+01    1.79240E-09
 2.30000E+01    8.00780E-10
 2.40000E+01    3.63450E-10
 2.50000E+01    1.67380E-10
 2.60000E+01    7.80750E-11
 2.70000E+01    3.68200E-11
 2.80000E+01    1.75610E-11
 2.90000E+01    8.47070E-12
 3.00000E+01    4.13220E-12
