# n + Sm148 : (n,n'11)  
# jendl4.0   N.Iwamoto,A.Zukeran               EVAL-Nov09
# uncertainties: n
# # energies =    72
#   E(MeV)       xs(mb) 
 1.67563E+00    0.00000E+00
 1.70000E+00    9.88958E+01
 1.72951E+00    1.25733E+02
 1.74528E+00    1.34141E+02
 1.80000E+00    1.52058E+02
 1.90000E+00    1.69368E+02
 1.90774E+00    1.70552E+02
 1.91675E+00    1.71824E+02
 1.91891E+00    1.70958E+02
 1.93407E+00    1.71255E+02
 1.98593E+00    1.74319E+02
 2.00000E+00    1.71396E+02
 2.04525E+00    1.72931E+02
 2.05492E+00    1.73299E+02
 2.07199E+00    1.74250E+02
 2.10988E+00    1.73481E+02
 2.12545E+00    1.73630E+02
 2.14316E+00    1.73596E+02
 2.15711E+00    1.73773E+02
 2.16099E+00    1.73547E+02
 2.16214E+00    1.72544E+02
 2.20902E+00    1.69319E+02
 2.22003E+00    1.69169E+02
 2.22391E+00    1.68832E+02
 2.22932E+00    1.67026E+02
 2.24323E+00    1.65635E+02
 2.25000E+00    1.65089E+02
 2.29253E+00    1.63661E+02
 2.29999E+00    1.62412E+02
 2.32935E+00    1.59052E+02
 2.33431E+00    1.57423E+02
 2.34296E+00    1.54670E+02
 2.34349E+00    1.54517E+02
 2.35516E+00    1.51582E+02
 2.35998E+00    1.50595E+02
 2.50000E+00    1.35009E+02
 2.75000E+00    1.10894E+02
 3.00000E+00    8.02852E+01
 3.50000E+00    4.10884E+01
 4.00000E+00    1.97340E+01
 4.50000E+00    9.26515E+00
 5.00000E+00    4.42572E+00
 5.50000E+00    2.25453E+00
 6.00000E+00    1.29156E+00
 6.50000E+00    8.59667E-01
 7.00000E+00    6.57616E-01
 7.50000E+00    5.54428E-01
 8.00000E+00    4.93340E-01
 8.50000E+00    4.50389E-01
 9.00000E+00    4.15671E-01
 9.50000E+00    3.85313E-01
 1.00000E+01    3.57929E-01
 1.05000E+01    3.33171E-01
 1.10000E+01    3.10871E-01
 1.15000E+01    2.90910E-01
 1.20000E+01    2.73125E-01
 1.25000E+01    2.57228E-01
 1.30000E+01    2.42956E-01
 1.35000E+01    2.30049E-01
 1.40000E+01    2.18277E-01
 1.45000E+01    2.07436E-01
 1.50000E+01    1.97377E-01
 1.55000E+01    1.87974E-01
 1.60000E+01    1.79166E-01
 1.65000E+01    1.70839E-01
 1.70000E+01    1.62972E-01
 1.75000E+01    1.55504E-01
 1.80000E+01    1.48543E-01
 1.85000E+01    1.41854E-01
 1.90000E+01    1.35491E-01
 1.95000E+01    1.29428E-01
 2.00000E+01    1.23820E-01
