# n + Sm148 : (n,n'15)  
# jendl4.0   N.Iwamoto,A.Zukeran               EVAL-Nov09
# uncertainties: n
# # energies =    65
#   E(MeV)       xs(mb) 
 1.91675E+00    0.00000E+00
 1.91891E+00    1.55134E+01
 1.93407E+00    3.65569E+01
 1.98593E+00    5.81277E+01
 2.00000E+00    6.00346E+01
 2.04525E+00    6.72046E+01
 2.05492E+00    6.83631E+01
 2.07199E+00    7.05522E+01
 2.10988E+00    7.43090E+01
 2.12545E+00    7.59658E+01
 2.14316E+00    7.75305E+01
 2.15711E+00    7.90041E+01
 2.16099E+00    7.91947E+01
 2.16214E+00    7.89034E+01
 2.20902E+00    8.12845E+01
 2.22003E+00    8.21089E+01
 2.22391E+00    8.23624E+01
 2.22932E+00    8.20798E+01
 2.24323E+00    8.26595E+01
 2.25000E+00    8.28423E+01
 2.29253E+00    8.57115E+01
 2.29999E+00    8.60985E+01
 2.32935E+00    8.76336E+01
 2.33431E+00    8.72731E+01
 2.34296E+00    8.66564E+01
 2.34349E+00    8.65806E+01
 2.35516E+00    8.56058E+01
 2.35998E+00    8.53237E+01
 2.50000E+00    8.61580E+01
 2.75000E+00    8.00640E+01
 3.00000E+00    6.49617E+01
 3.50000E+00    3.66226E+01
 4.00000E+00    1.81980E+01
 4.50000E+00    8.55442E+00
 5.00000E+00    3.93365E+00
 5.50000E+00    1.80785E+00
 6.00000E+00    8.57050E-01
 6.50000E+00    4.39132E-01
 7.00000E+00    2.56198E-01
 7.50000E+00    1.74813E-01
 8.00000E+00    1.36235E-01
 8.50000E+00    1.15769E-01
 9.00000E+00    1.03122E-01
 9.50000E+00    9.40320E-02
 1.00000E+01    8.67250E-02
 1.05000E+01    8.04936E-02
 1.10000E+01    7.50279E-02
 1.15000E+01    7.01882E-02
 1.20000E+01    6.58897E-02
 1.25000E+01    6.20550E-02
 1.30000E+01    5.86177E-02
 1.35000E+01    5.55158E-02
 1.40000E+01    5.26932E-02
 1.45000E+01    5.00980E-02
 1.50000E+01    4.76919E-02
 1.55000E+01    4.54356E-02
 1.60000E+01    4.33389E-02
 1.65000E+01    4.13417E-02
 1.70000E+01    3.94656E-02
 1.75000E+01    3.76775E-02
 1.80000E+01    3.60121E-02
 1.85000E+01    3.44112E-02
 1.90000E+01    3.28859E-02
 1.95000E+01    3.14255E-02
 2.00000E+01    3.00789E-02
