# n + Sm148 : (n,n'06)  
# jendl4.0   N.Iwamoto,A.Zukeran               EVAL-Nov09
# uncertainties: n
# # energies =    79
#   E(MeV)       xs(mb) 
 1.46403E+00    0.00000E+00
 1.47106E+00    1.03905E+02
 1.47513E+00    1.22504E+02
 1.50000E+00    1.76949E+02
 1.60000E+00    2.38525E+02
 1.60512E+00    2.40234E+02
 1.67072E+00    2.56699E+02
 1.67563E+00    2.57596E+02
 1.70000E+00    2.49999E+02
 1.72951E+00    2.51816E+02
 1.74528E+00    2.50668E+02
 1.80000E+00    2.53213E+02
 1.90000E+00    2.60234E+02
 1.90774E+00    2.60476E+02
 1.91675E+00    2.60369E+02
 1.91891E+00    2.58709E+02
 1.93407E+00    2.56721E+02
 1.98593E+00    2.53900E+02
 2.00000E+00    2.48226E+02
 2.04525E+00    2.44684E+02
 2.05492E+00    2.43939E+02
 2.07199E+00    2.42913E+02
 2.10988E+00    2.38998E+02
 2.12545E+00    2.37217E+02
 2.14316E+00    2.34804E+02
 2.15711E+00    2.33275E+02
 2.16099E+00    2.32502E+02
 2.16214E+00    2.31080E+02
 2.20902E+00    2.21320E+02
 2.22003E+00    2.19853E+02
 2.22391E+00    2.18872E+02
 2.22932E+00    2.15972E+02
 2.24323E+00    2.12598E+02
 2.25000E+00    2.11098E+02
 2.29253E+00    2.04676E+02
 2.29999E+00    2.02292E+02
 2.32935E+00    1.96960E+02
 2.33431E+00    1.94892E+02
 2.34296E+00    1.91396E+02
 2.34349E+00    1.91187E+02
 2.35516E+00    1.87346E+02
 2.35998E+00    1.86049E+02
 2.50000E+00    1.63238E+02
 2.75000E+00    1.24157E+02
 3.00000E+00    8.64464E+01
 3.50000E+00    4.27879E+01
 4.00000E+00    2.01048E+01
 4.50000E+00    9.11175E+00
 5.00000E+00    4.07816E+00
 5.50000E+00    1.85752E+00
 6.00000E+00    8.99702E-01
 6.50000E+00    4.88798E-01
 7.00000E+00    3.10456E-01
 7.50000E+00    2.29783E-01
 8.00000E+00    1.89496E-01
 8.50000E+00    1.66057E-01
 9.00000E+00    1.49929E-01
 9.50000E+00    1.37300E-01
 1.00000E+01    1.26650E-01
 1.05000E+01    1.17399E-01
 1.10000E+01    1.09269E-01
 1.15000E+01    1.02105E-01
 1.20000E+01    9.57730E-02
 1.25000E+01    9.01479E-02
 1.30000E+01    8.51108E-02
 1.35000E+01    8.05580E-02
 1.40000E+01    7.64025E-02
 1.45000E+01    7.25731E-02
 1.50000E+01    6.90189E-02
 1.55000E+01    6.57027E-02
 1.60000E+01    6.25882E-02
 1.65000E+01    5.96457E-02
 1.70000E+01    5.68771E-02
 1.75000E+01    5.42333E-02
 1.80000E+01    5.17823E-02
 1.85000E+01    4.94307E-02
 1.90000E+01    4.71810E-02
 1.95000E+01    4.50579E-02
 2.00000E+01    4.31002E-02
