# n + Sm148 : (n,n'03)  
# jendl4.0   N.Iwamoto,A.Zukeran               EVAL-Nov09
# uncertainties: n
# # energies =    85
#   E(MeV)       xs(mb) 
 1.18831E+00    0.00000E+00
 1.20000E+00    2.15445E+01
 1.30000E+00    5.54958E+01
 1.40000E+00    9.39534E+01
 1.43417E+00    1.09471E+02
 1.44378E+00    1.13931E+02
 1.46403E+00    1.17364E+02
 1.47106E+00    1.17066E+02
 1.47513E+00    1.17929E+02
 1.50000E+00    1.24898E+02
 1.60000E+00    1.58339E+02
 1.60512E+00    1.59806E+02
 1.67072E+00    1.76849E+02
 1.67563E+00    1.73868E+02
 1.70000E+00    1.71366E+02
 1.72951E+00    1.75214E+02
 1.74528E+00    1.77625E+02
 1.80000E+00    1.79951E+02
 1.90000E+00    1.88633E+02
 1.90774E+00    1.89230E+02
 1.91675E+00    1.87354E+02
 1.91891E+00    1.85877E+02
 1.93407E+00    1.84093E+02
 1.98593E+00    1.84204E+02
 2.00000E+00    1.81834E+02
 2.04525E+00    1.81391E+02
 2.05492E+00    1.80604E+02
 2.07199E+00    1.78737E+02
 2.10988E+00    1.77834E+02
 2.12545E+00    1.77788E+02
 2.14316E+00    1.75789E+02
 2.15711E+00    1.75430E+02
 2.16099E+00    1.74865E+02
 2.16214E+00    1.74130E+02
 2.20902E+00    1.68331E+02
 2.22003E+00    1.67439E+02
 2.22391E+00    1.67132E+02
 2.22932E+00    1.65657E+02
 2.24323E+00    1.63195E+02
 2.25000E+00    1.61498E+02
 2.29253E+00    1.56998E+02
 2.29999E+00    1.55985E+02
 2.32935E+00    1.53325E+02
 2.33431E+00    1.52186E+02
 2.34296E+00    1.50246E+02
 2.34349E+00    1.49936E+02
 2.35516E+00    1.46787E+02
 2.35998E+00    1.45710E+02
 2.50000E+00    1.29094E+02
 2.75000E+00    1.03711E+02
 3.00000E+00    7.90899E+01
 3.50000E+00    4.69864E+01
 4.00000E+00    2.82727E+01
 4.50000E+00    1.80670E+01
 5.00000E+00    1.26965E+01
 5.50000E+00    9.77442E+00
 6.00000E+00    8.07290E+00
 6.50000E+00    7.00793E+00
 7.00000E+00    6.30278E+00
 7.50000E+00    5.82635E+00
 8.00000E+00    5.48592E+00
 8.50000E+00    5.22973E+00
 9.00000E+00    5.01530E+00
 9.50000E+00    4.82193E+00
 1.00000E+01    4.63884E+00
 1.05000E+01    4.46478E+00
 1.10000E+01    4.30212E+00
 1.15000E+01    4.15457E+00
 1.20000E+01    4.02501E+00
 1.25000E+01    3.91482E+00
 1.30000E+01    3.82330E+00
 1.35000E+01    3.74775E+00
 1.40000E+01    3.68395E+00
 1.45000E+01    3.62714E+00
 1.50000E+01    3.57308E+00
 1.55000E+01    3.51866E+00
 1.60000E+01    3.46290E+00
 1.65000E+01    3.40496E+00
 1.70000E+01    3.34572E+00
 1.75000E+01    3.28571E+00
 1.80000E+01    3.22538E+00
 1.85000E+01    3.16477E+00
 1.90000E+01    3.10448E+00
 1.95000E+01    3.04532E+00
 2.00000E+01    2.98851E+00
