# n + Sm148 : (n,n'10)  
# jendl4.0   N.Iwamoto,A.Zukeran               EVAL-Nov09
# uncertainties: n
# # energies =    73
#   E(MeV)       xs(mb) 
 1.67072E+00    0.00000E+00
 1.67563E+00    1.14979E+01
 1.70000E+00    2.23508E+01
 1.72951E+00    2.93021E+01
 1.74528E+00    3.23468E+01
 1.80000E+00    3.87287E+01
 1.90000E+00    5.45789E+01
 1.90774E+00    5.59163E+01
 1.91675E+00    5.61316E+01
 1.91891E+00    5.60475E+01
 1.93407E+00    5.74618E+01
 1.98593E+00    6.43756E+01
 2.00000E+00    6.58886E+01
 2.04525E+00    7.22790E+01
 2.05492E+00    7.32080E+01
 2.07199E+00    7.44072E+01
 2.10988E+00    7.76274E+01
 2.12545E+00    7.91159E+01
 2.14316E+00    7.95766E+01
 2.15711E+00    8.06729E+01
 2.16099E+00    8.06819E+01
 2.16214E+00    8.05104E+01
 2.20902E+00    8.22924E+01
 2.22003E+00    8.30593E+01
 2.22391E+00    8.33358E+01
 2.22932E+00    8.32880E+01
 2.24323E+00    8.34656E+01
 2.25000E+00    8.31600E+01
 2.29253E+00    8.50610E+01
 2.29999E+00    8.53364E+01
 2.32935E+00    8.58930E+01
 2.33431E+00    8.56236E+01
 2.34296E+00    8.51566E+01
 2.34349E+00    8.49829E+01
 2.35516E+00    8.38287E+01
 2.35998E+00    8.34495E+01
 2.50000E+00    8.10409E+01
 2.75000E+00    7.38252E+01
 3.00000E+00    5.75852E+01
 3.50000E+00    3.27399E+01
 4.00000E+00    1.71108E+01
 4.50000E+00    8.65542E+00
 5.00000E+00    4.42331E+00
 5.50000E+00    2.39427E+00
 6.00000E+00    1.44314E+00
 6.50000E+00    9.94962E-01
 7.00000E+00    7.75729E-01
 7.50000E+00    6.59241E-01
 8.00000E+00    5.88190E-01
 8.50000E+00    5.37345E-01
 9.00000E+00    4.95942E-01
 9.50000E+00    4.59663E-01
 1.00000E+01    4.26937E-01
 1.05000E+01    3.97362E-01
 1.10000E+01    3.70737E-01
 1.15000E+01    3.46916E-01
 1.20000E+01    3.25696E-01
 1.25000E+01    3.06732E-01
 1.30000E+01    2.89709E-01
 1.35000E+01    2.74315E-01
 1.40000E+01    2.60274E-01
 1.45000E+01    2.47343E-01
 1.50000E+01    2.35346E-01
 1.55000E+01    2.24142E-01
 1.60000E+01    2.13627E-01
 1.65000E+01    2.03704E-01
 1.70000E+01    1.94312E-01
 1.75000E+01    1.85412E-01
 1.80000E+01    1.77102E-01
 1.85000E+01    1.69129E-01
 1.90000E+01    1.61546E-01
 1.95000E+01    1.54308E-01
 2.00000E+01    1.47624E-01
