# n + Sm148 : (n,n'13)  
# jendl4.0   N.Iwamoto,A.Zukeran               EVAL-Nov09
# uncertainties: n
# # energies =    69
#   E(MeV)       xs(mb) 
 1.74528E+00    0.00000E+00
 1.80000E+00    2.47979E+01
 1.90000E+00    4.07697E+01
 1.90774E+00    4.19362E+01
 1.91675E+00    4.20427E+01
 1.91891E+00    4.20054E+01
 1.93407E+00    4.34065E+01
 1.98593E+00    5.01148E+01
 2.00000E+00    5.17522E+01
 2.04525E+00    5.73447E+01
 2.05492E+00    5.81739E+01
 2.07199E+00    5.93380E+01
 2.10988E+00    6.36849E+01
 2.12545E+00    6.56750E+01
 2.14316E+00    6.68648E+01
 2.15711E+00    6.79598E+01
 2.16099E+00    6.79986E+01
 2.16214E+00    6.78902E+01
 2.20902E+00    6.99596E+01
 2.22003E+00    7.07424E+01
 2.22391E+00    7.10240E+01
 2.22932E+00    7.10836E+01
 2.24323E+00    7.13885E+01
 2.25000E+00    7.11718E+01
 2.29253E+00    7.32454E+01
 2.29999E+00    7.35716E+01
 2.32935E+00    7.53551E+01
 2.33431E+00    7.53679E+01
 2.34296E+00    7.53842E+01
 2.34349E+00    7.52489E+01
 2.35516E+00    7.47475E+01
 2.35998E+00    7.46147E+01
 2.50000E+00    7.39181E+01
 2.75000E+00    6.96848E+01
 3.00000E+00    5.70398E+01
 3.50000E+00    3.36248E+01
 4.00000E+00    1.83959E+01
 4.50000E+00    1.00788E+01
 5.00000E+00    5.85874E+00
 5.50000E+00    3.77128E+00
 6.00000E+00    2.73383E+00
 6.50000E+00    2.19538E+00
 7.00000E+00    1.89222E+00
 7.50000E+00    1.70049E+00
 8.00000E+00    1.56142E+00
 8.50000E+00    1.44751E+00
 9.00000E+00    1.34636E+00
 9.50000E+00    1.25328E+00
 1.00000E+01    1.16697E+00
 1.05000E+01    1.08773E+00
 1.10000E+01    1.01575E+00
 1.15000E+01    9.50979E-01
 1.20000E+01    8.93090E-01
 1.25000E+01    8.41240E-01
 1.30000E+01    7.94646E-01
 1.35000E+01    7.52505E-01
 1.40000E+01    7.14075E-01
 1.45000E+01    6.78698E-01
 1.50000E+01    6.45880E-01
 1.55000E+01    6.15183E-01
 1.60000E+01    5.86504E-01
 1.65000E+01    5.59294E-01
 1.70000E+01    5.33652E-01
 1.75000E+01    5.09325E-01
 1.80000E+01    4.86511E-01
 1.85000E+01    4.64812E-01
 1.90000E+01    4.43928E-01
 1.95000E+01    4.24121E-01
 2.00000E+01    4.05902E-01
