# n + Sm148 :  n        
# jendl4.0   N.Iwamoto,A.Zukeran               EVAL-Nov09
# uncertainties: n
# # energies =   110
#   E(MeV)       xs(mb) 
 1.05000E-01    0.00000E+00
 1.10000E-01    3.68852E-03
 1.20000E-01    5.02306E-03
 1.30000E-01    5.73783E-03
 1.40000E-01    6.21381E-03
 1.50000E-01    6.57287E-03
 1.60000E-01    6.89093E-03
 1.70000E-01    7.22024E-03
 1.80000E-01    7.51655E-03
 1.90000E-01    7.78158E-03
 2.00000E-01    8.01362E-03
 2.25000E-01    3.84725E-02
 2.50000E-01    4.63543E-02
 2.75000E-01    5.26414E-02
 3.00000E-01    5.79664E-02
 4.00000E-01    2.00209E-01
 5.00000E-01    5.21770E-01
 5.54007E-01    9.34984E-01
 6.00000E-01    7.50279E-01
 7.00000E-01    1.17876E+00
 8.00000E-01    1.85343E+00
 9.00000E-01    2.81000E+00
 1.00000E+00    4.12049E+00
 1.10000E+00    5.97035E+00
 1.16945E+00    7.76935E+00
 1.18831E+00    7.62200E+00
 1.20000E+00    7.70705E+00
 1.30000E+00    1.00863E+01
 1.40000E+00    1.30113E+01
 1.43417E+00    1.44960E+01
 1.44378E+00    1.45271E+01
 1.46403E+00    1.45254E+01
 1.47106E+00    1.42320E+01
 1.47513E+00    1.35239E+01
 1.50000E+00    1.23881E+01
 1.60000E+00    1.37608E+01
 1.60512E+00    1.38342E+01
 1.67072E+00    1.55125E+01
 1.67563E+00    1.55964E+01
 1.70000E+00    1.55866E+01
 1.72951E+00    1.64021E+01
 1.74528E+00    1.63975E+01
 1.80000E+00    1.72449E+01
 1.90000E+00    1.99623E+01
 1.90774E+00    2.01582E+01
 1.91675E+00    2.04937E+01
 1.91891E+00    2.04919E+01
 1.93407E+00    2.09206E+01
 1.98593E+00    2.20653E+01
 2.00000E+00    2.21162E+01
 2.04525E+00    2.34547E+01
 2.05492E+00    2.35617E+01
 2.07199E+00    2.39166E+01
 2.10988E+00    2.47575E+01
 2.12545E+00    2.54629E+01
 2.14316E+00    2.59824E+01
 2.15711E+00    2.63606E+01
 2.16099E+00    2.63512E+01
 2.16214E+00    2.62692E+01
 2.20902E+00    2.73553E+01
 2.22003E+00    2.78326E+01
 2.22391E+00    2.79565E+01
 2.22932E+00    2.79764E+01
 2.24323E+00    2.82409E+01
 2.25000E+00    2.83375E+01
 2.29253E+00    2.95642E+01
 2.29999E+00    2.96594E+01
 2.32935E+00    3.04964E+01
 2.33431E+00    3.05188E+01
 2.34296E+00    3.05124E+01
 2.34349E+00    3.05045E+01
 2.35516E+00    3.05090E+01
 2.35998E+00    3.04652E+01
 2.50000E+00    8.20580E+01
 2.75000E+00    3.34758E+02
 3.00000E+00    7.81978E+02
 3.50000E+00    1.51993E+03
 4.00000E+00    1.99784E+03
 4.50000E+00    2.22571E+03
 5.00000E+00    2.31786E+03
 5.50000E+00    2.35100E+03
 6.00000E+00    2.36356E+03
 6.50000E+00    2.36857E+03
 7.00000E+00    2.36806E+03
 7.50000E+00    2.36130E+03
 8.00000E+00    2.34842E+03
 8.50000E+00    2.22065E+03
 9.00000E+00    1.80995E+03
 9.50000E+00    1.38681E+03
 1.00000E+01    1.04843E+03
 1.05000E+01    8.05880E+02
 1.10000E+01    6.37730E+02
 1.15000E+01    5.21821E+02
 1.20000E+01    4.40559E+02
 1.25000E+01    3.81869E+02
 1.30000E+01    3.40753E+02
 1.35000E+01    3.06615E+02
 1.40000E+01    2.79663E+02
 1.45000E+01    2.57801E+02
 1.50000E+01    2.39607E+02
 1.55000E+01    2.24127E+02
 1.60000E+01    2.11091E+02
 1.65000E+01    1.99360E+02
 1.70000E+01    1.87638E+02
 1.75000E+01    1.78303E+02
 1.80000E+01    1.69789E+02
 1.85000E+01    1.62156E+02
 1.90000E+01    1.54514E+02
 1.95000E+01    1.47509E+02
 2.00000E+01    1.42287E+02
