# n + Sm148 : (n,xa)    
# jendl4.0   N.Iwamoto,A.Zukeran               EVAL-Nov09
# 
# # energies =   110
#   E(MeV)        xs(mb) 
 1.05000E-01    9.94976E-04
 1.10000E-01    9.97112E-04
 1.20000E-01    1.00138E-03
 1.30000E-01    1.00603E-03
 1.40000E-01    1.01152E-03
 1.50000E-01    1.01701E-03
 1.60000E-01    1.02406E-03
 1.70000E-01    1.03724E-03
 1.80000E-01    1.05137E-03
 1.90000E-01    1.06551E-03
 2.00000E-01    1.07964E-03
 2.25000E-01    1.11326E-03
 2.50000E-01    1.14597E-03
 2.75000E-01    1.21004E-03
 3.00000E-01    1.27695E-03
 4.00000E-01    1.55371E-03
 5.00000E-01    2.02261E-03
 5.54007E-01    2.31050E-03
 6.00000E-01    1.64287E-03
 7.00000E-01    1.78872E-03
 8.00000E-01    2.13609E-03
 9.00000E-01    2.61171E-03
 1.00000E+00    3.22562E-03
 1.10000E+00    4.06466E-03
 1.16945E+00    4.74579E-03
 1.18831E+00    4.48701E-03
 1.20000E+00    4.39989E-03
 1.30000E+00    5.12288E-03
 1.40000E+00    6.13058E-03
 1.43417E+00    6.49848E-03
 1.44378E+00    6.53714E-03
 1.46403E+00    6.47418E-03
 1.47106E+00    6.30960E-03
 1.47513E+00    6.06254E-03
 1.50000E+00    5.71152E-03
 1.60000E+00    6.18068E-03
 1.60512E+00    6.22305E-03
 1.67072E+00    6.76591E-03
 1.67563E+00    6.75671E-03
 1.70000E+00    6.75825E-03
 1.72951E+00    6.94645E-03
 1.74528E+00    6.96776E-03
 1.80000E+00    7.33860E-03
 1.90000E+00    8.42898E-03
 1.90774E+00    8.51777E-03
 1.91675E+00    8.58468E-03
 1.91891E+00    8.55875E-03
 1.93407E+00    8.66004E-03
 1.98593E+00    9.16437E-03
 2.00000E+00    9.27354E-03
 2.04525E+00    9.74862E-03
 2.05492E+00    9.81520E-03
 2.07199E+00    9.97181E-03
 2.10988E+00    1.04468E-02
 2.12545E+00    1.06395E-02
 2.14316E+00    1.08472E-02
 2.15711E+00    1.10449E-02
 2.16099E+00    1.10559E-02
 2.16214E+00    1.10264E-02
 2.20902E+00    1.16107E-02
 2.22003E+00    1.17453E-02
 2.22391E+00    1.17919E-02
 2.22932E+00    1.17860E-02
 2.24323E+00    1.19028E-02
 2.25000E+00    1.19597E-02
 2.29253E+00    1.25278E-02
 2.29999E+00    1.25842E-02
 2.32935E+00    1.30611E-02
 2.33431E+00    1.30722E-02
 2.34296E+00    1.30915E-02
 2.34349E+00    1.30878E-02
 2.35516E+00    1.31167E-02
 2.35998E+00    1.31287E-02
 2.50000E+00    1.50656E-02
 2.75000E+00    2.01245E-02
 3.00000E+00    2.46384E-02
 3.50000E+00    3.80955E-02
 4.00000E+00    5.40015E-02
 4.50000E+00    7.06908E-02
 5.00000E+00    8.72886E-02
 5.50000E+00    1.03539E-01
 6.00000E+00    1.19216E-01
 6.50000E+00    1.34734E-01
 7.00000E+00    1.50890E-01
 7.50000E+00    1.72813E-01
 8.00000E+00    2.06163E-01
 8.50000E+00    2.54890E-01
 9.00000E+00    3.07963E-01
 9.50000E+00    3.78292E-01
 1.00000E+01    4.73705E-01
 1.05000E+01    5.98150E-01
 1.10000E+01    7.55115E-01
 1.15000E+01    9.45042E-01
 1.20000E+01    1.16697E+00
 1.25000E+01    1.41806E+00
 1.30000E+01    1.69535E+00
 1.35000E+01    1.99259E+00
 1.40000E+01    2.30686E+00
 1.45000E+01    2.63491E+00
 1.50000E+01    2.97327E+00
 1.55000E+01    3.32469E+00
 1.60000E+01    3.68092E+00
 1.65000E+01    4.04461E+00
 1.70000E+01    4.40620E+00
 1.75000E+01    4.76456E+00
 1.80000E+01    5.11150E+00
 1.85000E+01    5.49697E+00
 1.90000E+01    6.08190E+00
 1.95000E+01    6.90061E+00
 2.00000E+01    8.34655E+00
