# n + Sm148 : (n,xp)    
# jendl4.0   N.Iwamoto,A.Zukeran               EVAL-Nov09
# 
# # energies =   110
#   E(MeV)        xs(mb) 
 1.05000E-01    0.00000E+00
 1.10000E-01    0.00000E+00
 1.20000E-01    0.00000E+00
 1.30000E-01    0.00000E+00
 1.40000E-01    0.00000E+00
 1.50000E-01    0.00000E+00
 1.60000E-01    0.00000E+00
 1.70000E-01    0.00000E+00
 1.80000E-01    0.00000E+00
 1.90000E-01    0.00000E+00
 2.00000E-01    0.00000E+00
 2.25000E-01    0.00000E+00
 2.50000E-01    0.00000E+00
 2.75000E-01    0.00000E+00
 3.00000E-01    0.00000E+00
 4.00000E-01    0.00000E+00
 5.00000E-01    0.00000E+00
 5.54007E-01    0.00000E+00
 6.00000E-01    0.00000E+00
 7.00000E-01    0.00000E+00
 8.00000E-01    0.00000E+00
 9.00000E-01    0.00000E+00
 1.00000E+00    0.00000E+00
 1.10000E+00    0.00000E+00
 1.16945E+00    0.00000E+00
 1.18831E+00    0.00000E+00
 1.20000E+00    0.00000E+00
 1.30000E+00    0.00000E+00
 1.40000E+00    0.00000E+00
 1.43417E+00    0.00000E+00
 1.44378E+00    0.00000E+00
 1.46403E+00    0.00000E+00
 1.47106E+00    0.00000E+00
 1.47513E+00    0.00000E+00
 1.50000E+00    0.00000E+00
 1.60000E+00    0.00000E+00
 1.60512E+00    0.00000E+00
 1.67072E+00    0.00000E+00
 1.67563E+00    0.00000E+00
 1.70000E+00    1.39628E-17
 1.72951E+00    7.36765E-16
 1.74528E+00    1.12303E-15
 1.80000E+00    2.99736E-14
 1.90000E+00    1.63800E-13
 1.90774E+00    1.75018E-13
 1.91675E+00    1.88081E-13
 1.91891E+00    1.91225E-13
 1.93407E+00    2.13871E-13
 1.98593E+00    2.91625E-13
 2.00000E+00    4.36528E-13
 2.04525E+00    7.65920E-12
 2.05492E+00    9.39787E-12
 2.07199E+00    1.24827E-11
 2.10988E+00    1.95421E-11
 2.12545E+00    2.25359E-11
 2.14316E+00    2.59611E-11
 2.15711E+00    2.86635E-11
 2.16099E+00    2.94164E-11
 2.16214E+00    2.96395E-11
 2.20902E+00    3.88721E-11
 2.22003E+00    4.10422E-11
 2.22391E+00    4.18070E-11
 2.22932E+00    4.28733E-11
 2.24323E+00    4.56340E-11
 2.25000E+00    4.69798E-11
 2.29253E+00    5.54558E-11
 2.29999E+00    5.69435E-11
 2.32935E+00    6.27983E-11
 2.33431E+00    6.37875E-11
 2.34296E+00    6.55125E-11
 2.34349E+00    6.56182E-11
 2.35516E+00    6.79462E-11
 2.35998E+00    6.89078E-11
 2.50000E+00    9.68394E-11
 2.75000E+00    1.46710E-10
 3.00000E+00    2.02870E-10
 3.50000E+00    1.30540E-08
 4.00000E+00    1.30124E-06
 4.50000E+00    2.85247E-05
 5.00000E+00    2.47798E-04
 5.50000E+00    1.19256E-03
 6.00000E+00    3.92845E-03
 6.50000E+00    1.01771E-02
 7.00000E+00    2.29293E-02
 7.50000E+00    4.79112E-02
 8.00000E+00    9.52381E-02
 8.50000E+00    1.80409E-01
 9.00000E+00    3.24649E-01
 9.50000E+00    5.54971E-01
 1.00000E+01    9.03841E-01
 1.05000E+01    1.40855E+00
 1.10000E+01    2.10918E+00
 1.15000E+01    3.04550E+00
 1.20000E+01    4.25227E+00
 1.25000E+01    5.75425E+00
 1.30000E+01    7.56301E+00
 1.35000E+01    9.67722E+00
 1.40000E+01    1.20862E+01
 1.45000E+01    1.47720E+01
 1.50000E+01    1.77140E+01
 1.55000E+01    2.08899E+01
 1.60000E+01    2.42751E+01
 1.65000E+01    2.78453E+01
 1.70000E+01    3.15778E+01
 1.75000E+01    3.54543E+01
 1.80000E+01    3.94627E+01
 1.85000E+01    4.35932E+01
 1.90000E+01    4.78295E+01
 1.95000E+01    5.21745E+01
 2.00000E+01    5.66211E+01
