# n + Sm148 : (n,n'02)  
# jendl4.0   N.Iwamoto,A.Zukeran               EVAL-Nov09
# uncertainties: n
# # energies =    86
#   E(MeV)       xs(mb) 
 1.16945E+00    0.00000E+00
 1.18831E+00    6.36555E+01
 1.20000E+00    7.62352E+01
 1.30000E+00    1.63990E+02
 1.40000E+00    2.35555E+02
 1.43417E+00    2.57165E+02
 1.44378E+00    2.62548E+02
 1.46403E+00    2.63034E+02
 1.47106E+00    2.57939E+02
 1.47513E+00    2.53246E+02
 1.50000E+00    2.47037E+02
 1.60000E+00    2.59513E+02
 1.60512E+00    2.60053E+02
 1.67072E+00    2.66516E+02
 1.67563E+00    2.65690E+02
 1.70000E+00    2.59629E+02
 1.72951E+00    2.58781E+02
 1.74528E+00    2.55382E+02
 1.80000E+00    2.50756E+02
 1.90000E+00    2.41952E+02
 1.90774E+00    2.41477E+02
 1.91675E+00    2.40143E+02
 1.91891E+00    2.38839E+02
 1.93407E+00    2.35960E+02
 1.98593E+00    2.29672E+02
 2.00000E+00    2.25844E+02
 2.04525E+00    2.19907E+02
 2.05492E+00    2.16868E+02
 2.07199E+00    2.13857E+02
 2.10988E+00    2.06215E+02
 2.12545E+00    2.04574E+02
 2.14316E+00    2.02287E+02
 2.15711E+00    2.00958E+02
 2.16099E+00    1.99096E+02
 2.16214E+00    1.98326E+02
 2.20902E+00    1.88900E+02
 2.22003E+00    1.87319E+02
 2.22391E+00    1.86739E+02
 2.22932E+00    1.85204E+02
 2.24323E+00    1.82652E+02
 2.25000E+00    1.81321E+02
 2.29253E+00    1.74935E+02
 2.29999E+00    1.73594E+02
 2.32935E+00    1.68067E+02
 2.33431E+00    1.66837E+02
 2.34296E+00    1.64723E+02
 2.34349E+00    1.64553E+02
 2.35516E+00    1.61702E+02
 2.35998E+00    1.59868E+02
 2.50000E+00    1.34725E+02
 2.75000E+00    1.02669E+02
 3.00000E+00    7.63219E+01
 3.50000E+00    4.10132E+01
 4.00000E+00    2.19304E+01
 4.50000E+00    1.20933E+01
 5.00000E+00    7.21089E+00
 5.50000E+00    4.80694E+00
 6.00000E+00    3.59881E+00
 6.50000E+00    2.95628E+00
 7.00000E+00    2.58123E+00
 7.50000E+00    2.33108E+00
 8.00000E+00    2.13823E+00
 8.50000E+00    1.97271E+00
 9.00000E+00    1.82301E+00
 9.50000E+00    1.68586E+00
 1.00000E+01    1.56087E+00
 1.05000E+01    1.44849E+00
 1.10000E+01    1.34838E+00
 1.15000E+01    1.25984E+00
 1.20000E+01    1.18142E+00
 1.25000E+01    1.11167E+00
 1.30000E+01    1.04909E+00
 1.35000E+01    9.92409E-01
 1.40000E+01    9.40573E-01
 1.45000E+01    8.92766E-01
 1.50000E+01    8.48392E-01
 1.55000E+01    8.06920E-01
 1.60000E+01    7.68377E-01
 1.65000E+01    7.31382E-01
 1.70000E+01    6.96923E-01
 1.75000E+01    6.64373E-01
 1.80000E+01    6.33510E-01
 1.85000E+01    6.04314E-01
 1.90000E+01    5.76680E-01
 1.95000E+01    5.50539E-01
 2.00000E+01    5.26147E-01
