# n + Sm148 : (n,n'09)  
# jendl4.0   N.Iwamoto,A.Zukeran               EVAL-Nov09
# uncertainties: n
# # energies =    74
#   E(MeV)       xs(mb) 
 1.60512E+00    0.00000E+00
 1.67072E+00    4.40649E+00
 1.67563E+00    4.46979E+00
 1.70000E+00    5.90573E+00
 1.72951E+00    7.80715E+00
 1.74528E+00    8.88523E+00
 1.80000E+00    1.16943E+01
 1.90000E+00    1.86082E+01
 1.90774E+00    1.91625E+01
 1.91675E+00    1.93043E+01
 1.91891E+00    1.93650E+01
 1.93407E+00    2.01668E+01
 1.98593E+00    2.34942E+01
 2.00000E+00    2.44308E+01
 2.04525E+00    2.68202E+01
 2.05492E+00    2.69114E+01
 2.07199E+00    2.71391E+01
 2.10988E+00    2.84704E+01
 2.12545E+00    2.91271E+01
 2.14316E+00    2.94199E+01
 2.15711E+00    2.99286E+01
 2.16099E+00    2.97798E+01
 2.16214E+00    2.97835E+01
 2.20902E+00    3.07478E+01
 2.22003E+00    3.11117E+01
 2.22391E+00    3.12448E+01
 2.22932E+00    3.14193E+01
 2.24323E+00    3.15456E+01
 2.25000E+00    3.14159E+01
 2.29253E+00    3.19039E+01
 2.29999E+00    3.20165E+01
 2.32935E+00    3.25301E+01
 2.33431E+00    3.26101E+01
 2.34296E+00    3.27421E+01
 2.34349E+00    3.26945E+01
 2.35516E+00    3.26406E+01
 2.35998E+00    3.24146E+01
 2.50000E+00    3.22480E+01
 2.75000E+00    3.07542E+01
 3.00000E+00    2.74141E+01
 3.50000E+00    1.80747E+01
 4.00000E+00    1.12822E+01
 4.50000E+00    7.04305E+00
 5.00000E+00    4.59571E+00
 5.50000E+00    3.23065E+00
 6.00000E+00    2.47295E+00
 6.50000E+00    2.03989E+00
 7.00000E+00    1.77769E+00
 7.50000E+00    1.60328E+00
 8.00000E+00    1.47278E+00
 8.50000E+00    1.36393E+00
 9.00000E+00    1.26660E+00
 9.50000E+00    1.17705E+00
 1.00000E+01    1.09438E+00
 1.05000E+01    1.01892E+00
 1.10000E+01    9.50729E-01
 1.15000E+01    8.89641E-01
 1.20000E+01    8.35194E-01
 1.25000E+01    7.86547E-01
 1.30000E+01    7.42873E-01
 1.35000E+01    7.03365E-01
 1.40000E+01    6.67307E-01
 1.45000E+01    6.34086E-01
 1.50000E+01    6.03252E-01
 1.55000E+01    5.74259E-01
 1.60000E+01    5.47424E-01
 1.65000E+01    5.21739E-01
 1.70000E+01    4.97748E-01
 1.75000E+01    4.74787E-01
 1.80000E+01    4.53417E-01
 1.85000E+01    4.33053E-01
 1.90000E+01    4.13442E-01
 1.95000E+01    3.94911E-01
 2.00000E+01    3.77860E-01
