# n + Sm148 : (n,n'07)  
# jendl4.0   N.Iwamoto,A.Zukeran               EVAL-Nov09
# uncertainties: n
# # energies =    78
#   E(MeV)       xs(mb) 
 1.47106E+00    0.00000E+00
 1.47513E+00    6.01697E+01
 1.50000E+00    9.74880E+01
 1.60000E+00    1.48284E+02
 1.60512E+00    1.49968E+02
 1.67072E+00    1.66861E+02
 1.67563E+00    1.67878E+02
 1.70000E+00    1.69215E+02
 1.72951E+00    1.72788E+02
 1.74528E+00    1.67268E+02
 1.80000E+00    1.67665E+02
 1.90000E+00    1.71102E+02
 1.90774E+00    1.71130E+02
 1.91675E+00    1.71137E+02
 1.91891E+00    1.70804E+02
 1.93407E+00    1.70309E+02
 1.98593E+00    1.67273E+02
 2.00000E+00    1.65134E+02
 2.04525E+00    1.62613E+02
 2.05492E+00    1.61881E+02
 2.07199E+00    1.60995E+02
 2.10988E+00    1.56293E+02
 2.12545E+00    1.54849E+02
 2.14316E+00    1.53323E+02
 2.15711E+00    1.52217E+02
 2.16099E+00    1.51543E+02
 2.16214E+00    1.51032E+02
 2.20902E+00    1.45629E+02
 2.22003E+00    1.44655E+02
 2.22391E+00    1.43916E+02
 2.22932E+00    1.42669E+02
 2.24323E+00    1.40842E+02
 2.25000E+00    1.40071E+02
 2.29253E+00    1.35869E+02
 2.29999E+00    1.34422E+02
 2.32935E+00    1.28851E+02
 2.33431E+00    1.27862E+02
 2.34296E+00    1.26189E+02
 2.34349E+00    1.26107E+02
 2.35516E+00    1.24299E+02
 2.35998E+00    1.23378E+02
 2.50000E+00    1.07003E+02
 2.75000E+00    8.06933E+01
 3.00000E+00    5.55753E+01
 3.50000E+00    2.70048E+01
 4.00000E+00    1.25679E+01
 4.50000E+00    5.68822E+00
 5.00000E+00    2.54615E+00
 5.50000E+00    1.14990E+00
 6.00000E+00    5.39480E-01
 6.50000E+00    2.74330E-01
 7.00000E+00    1.59025E-01
 7.50000E+00    1.07938E-01
 8.00000E+00    8.37631E-02
 8.50000E+00    7.08736E-02
 9.00000E+00    6.28309E-02
 9.50000E+00    5.70148E-02
 1.00000E+01    5.23546E-02
 1.05000E+01    4.84212E-02
 1.10000E+01    4.50166E-02
 1.15000E+01    4.20405E-02
 1.20000E+01    3.94215E-02
 1.25000E+01    3.71004E-02
 1.30000E+01    3.50247E-02
 1.35000E+01    3.31501E-02
 1.40000E+01    3.14399E-02
 1.45000E+01    2.98642E-02
 1.50000E+01    2.84020E-02
 1.55000E+01    2.70358E-02
 1.60000E+01    2.57568E-02
 1.65000E+01    2.45447E-02
 1.70000E+01    2.34079E-02
 1.75000E+01    2.23191E-02
 1.80000E+01    2.13097E-02
 1.85000E+01    2.03442E-02
 1.90000E+01    1.94177E-02
 1.95000E+01    1.85434E-02
 2.00000E+01    1.77396E-02
