# n + Sm148 : (n,p)     
# jendl4.0   N.Iwamoto,A.Zukeran               EVAL-Nov09
# uncertainties: n
# # energies =    71
#   E(MeV)       xs(mb) 
 1.69943E+00    0.00000E+00
 1.77565E+00    1.86690E-15
 1.83757E+00    7.33400E-14
 1.83827E+00    7.43300E-14
 1.91620E+00    1.87280E-13
 1.92083E+00    1.94020E-13
 1.99343E+00    3.02870E-13
 2.00440E+00    5.26040E-13
 2.00621E+00    7.00550E-13
 2.01044E+00    1.40040E-12
 2.06531E+00    1.12660E-11
 2.08172E+00    1.42550E-11
 2.08736E+00    1.52920E-11
 2.09018E+00    1.58150E-11
 2.11183E+00    1.99110E-11
 2.11575E+00    2.06600E-11
 2.14254E+00    2.58410E-11
 2.15452E+00    2.81610E-11
 2.16458E+00    3.01130E-11
 2.22942E+00    4.28930E-11
 2.23244E+00    4.34890E-11
 2.24654E+00    4.62920E-11
 2.24886E+00    4.67530E-11
 2.25349E+00    4.76740E-11
 2.26456E+00    4.98790E-11
 2.26748E+00    5.04610E-11
 2.27644E+00    5.22470E-11
 2.31480E+00    5.98970E-11
 2.32638E+00    6.22060E-11
 2.34571E+00    6.60610E-11
 2.35961E+00    6.88340E-11
 2.36444E+00    6.97970E-11
 2.37350E+00    7.16040E-11
 2.37692E+00    7.22870E-11
 2.40421E+00    7.77310E-11
 2.75000E+00    1.46710E-10
 3.00000E+00    2.02870E-10
 3.50000E+00    1.30540E-08
 4.00000E+00    1.30124E-06
 4.50000E+00    2.85247E-05
 5.00000E+00    2.47798E-04
 5.50000E+00    1.19256E-03
 6.00000E+00    3.92845E-03
 6.50000E+00    1.01771E-02
 7.00000E+00    2.29293E-02
 7.50000E+00    4.79112E-02
 8.00000E+00    9.52381E-02
 8.50000E+00    1.80409E-01
 9.00000E+00    3.24649E-01
 9.50000E+00    5.54971E-01
 1.00000E+01    9.03838E-01
 1.05000E+01    1.40848E+00
 1.10000E+01    2.10846E+00
 1.15000E+01    3.04118E+00
 1.20000E+01    4.23489E+00
 1.25000E+01    5.70207E+00
 1.30000E+01    7.43612E+00
 1.35000E+01    9.41280E+00
 1.40000E+01    1.15935E+01
 1.45000E+01    1.39260E+01
 1.50000E+01    1.63477E+01
 1.55000E+01    1.88038E+01
 1.60000E+01    2.11598E+01
 1.65000E+01    2.34469E+01
 1.70000E+01    2.53840E+01
 1.75000E+01    2.71554E+01
 1.80000E+01    2.86090E+01
 1.85000E+01    2.97389E+01
 1.90000E+01    3.05850E+01
 1.95000E+01    3.12768E+01
 2.00000E+01    3.16506E+01
