# n + Sm148 : (n,h)     
# jendl4.0   N.Iwamoto,A.Zukeran               EVAL-Nov09
# uncertainties: n
# # energies =    67
#   E(MeV)       xs(mb) 
 5.30696E+00    0.00000E+00
 5.76383E+00    4.31950E-32
 6.22860E+00    3.22150E-31
 6.35629E+00    4.18800E-31
 6.50469E+00    5.33510E-31
 6.61895E+00    1.15320E-29
 6.69316E+00    1.90360E-29
 6.78758E+00    2.86290E-29
 6.83483E+00    3.34320E-29
 6.88968E+00    3.90080E-29
 6.92046E+00    4.21370E-29
 7.00647E+00    5.08810E-29
 7.01529E+00    5.21060E-29
 7.06382E+00    5.92590E-29
 7.08843E+00    6.31550E-29
 7.09624E+00    6.44300E-29
 7.09912E+00    6.49130E-29
 7.10645E+00    6.61640E-29
 7.13132E+00    7.04870E-29
 7.15347E+00    7.43650E-29
 7.20451E+00    8.33570E-29
 7.22529E+00    8.70260E-29
 7.23885E+00    8.94230E-29
 7.29890E+00    1.00050E-28
 7.30944E+00    1.01910E-28
 7.34778E+00    1.08700E-28
 7.35022E+00    1.09130E-28
 7.36644E+00    1.12000E-28
 7.39007E+00    1.16180E-28
 7.39368E+00    1.16820E-28
 7.40469E+00    1.18770E-28
 7.41121E+00    1.19930E-28
 7.41704E+00    1.20960E-28
 7.44086E+00    1.25170E-28
 7.46544E+00    1.29520E-28
 7.47057E+00    1.30430E-28
 7.48773E+00    1.33470E-28
 7.50000E+00    1.36380E-28
 7.51923E+00    1.21030E-27
 7.53038E+00    1.83330E-27
 7.54185E+00    2.47440E-27
 7.54713E+00    2.76960E-27
 8.00000E+00    2.80910E-26
 8.50000E+00    1.38700E-22
 9.00000E+00    8.26300E-20
 9.50000E+00    1.14620E-17
 1.00000E+01    5.59940E-16
 1.05000E+01    1.26340E-14
 1.10000E+01    1.58120E-13
 1.15000E+01    1.24830E-12
 1.20000E+01    6.84540E-12
 1.25000E+01    2.84800E-11
 1.30000E+01    1.02770E-10
 1.35000E+01    4.11100E-10
 1.40000E+01    2.12130E-09
 1.45000E+01    1.17770E-08
 1.50000E+01    5.83230E-08
 1.55000E+01    2.36270E-07
 1.60000E+01    8.37300E-07
 1.65000E+01    2.62702E-06
 1.70000E+01    7.44236E-06
 1.75000E+01    1.78430E-05
 1.80000E+01    3.99018E-05
 1.85000E+01    8.37186E-05
 1.90000E+01    1.58754E-04
 1.95000E+01    2.98544E-04
 2.00000E+01    5.17079E-04
