# n + Sm148 : (n,tot)   
# jendl4.0   N.Iwamoto,A.Zukeran               EVAL-Nov09
# uncertainties: n
# # energies =   171
#   E(MeV)       xs(mb) 
 1.00000E-11    2.78135E+04
 1.00000E-07    2.03902E+03
 4.13990E-07    1.72052E+03
 5.31580E-07    1.65063E+03
 6.82560E-07    1.58819E+03
 8.76420E-07    1.53231E+03
 1.12540E-06    1.48234E+03
 1.44500E-06    1.43729E+03
 1.85540E-06    1.39680E+03
 2.37240E-06    1.35877E+03
 3.05900E-06    1.32261E+03
 3.92790E-06    1.28773E+03
 5.04350E-06    1.25253E+03
 6.47600E-06    1.21533E+03
 8.31530E-06    1.17370E+03
 1.06770E-05    1.12511E+03
 1.37100E-05    1.06634E+03
 1.76030E-05    9.91863E+02
 2.26030E-05    8.94689E+02
 2.92030E-05    7.66822E+02
 3.72670E-05    5.96456E+02
 4.78510E-05    3.79914E+02
 6.14420E-05    4.87045E+02
 7.88930E-05    6.96481E+05
 1.01300E-04    9.58016E+03
 1.30070E-04    2.96468E+04
 1.67020E-04    3.78335E+05
 2.14450E-04    4.95612E+03
 2.75360E-04    8.61199E+04
 3.53580E-04    2.21268E+04
 4.54000E-04    5.31609E+04
 5.82950E-04    2.76921E+04
 7.48520E-04    6.98494E+04
 9.61120E-04    1.03569E+05
 1.23410E-03    2.47899E+04
 1.58460E-03    1.44171E+04
 2.03470E-03    1.24356E+04
 2.24870E-03    2.18402E+04
 2.48520E-03    2.58387E+03
 2.61260E-03    6.77115E+02
 2.74650E-03    1.39261E+05
 3.03540E-03    3.26329E+04
 3.35460E-03    2.98825E+04
 3.70740E-03    3.03763E+04
 4.30740E-03    2.29940E+04
 5.53080E-03    2.96513E+04
 7.10170E-03    2.63374E+04
 9.11880E-03    2.34172E+04
 1.17090E-02    2.08603E+04
 1.50340E-02    1.85856E+04
 1.93050E-02    1.70426E+04
 2.18750E-02    1.62897E+04
 2.35790E-02    1.59263E+04
 2.41760E-02    1.57477E+04
 2.47880E-02    1.54840E+04
 2.60580E-02    1.51887E+04
 2.70000E-02    1.48857E+04
 2.85000E-02    1.43469E+04
 3.18280E-02    1.37668E+04
 3.43070E-02    1.30275E+04
 4.08680E-02    1.22051E+04
 4.63090E-02    1.15723E+04
 5.24750E-02    1.10891E+04
 5.65620E-02    1.05241E+04
 6.73790E-02    1.00183E+04
 7.20000E-02    9.69507E+03
 7.95000E-02    9.43673E+03
 8.25000E-02    9.28021E+03
 8.65170E-02    8.96947E+03
 9.80370E-02    8.55807E+03
 1.11090E-01    8.30734E+03
 1.16790E-01    8.16830E+03
 1.22770E-01    8.03149E+03
 1.29070E-01    7.89664E+03
 1.35690E-01    7.76437E+03
 1.42640E-01    7.63416E+03
 1.49960E-01    7.51199E+03
 1.57640E-01    7.40064E+03
 1.65730E-01    7.31777E+03
 1.74220E-01    7.23513E+03
 1.83160E-01    7.14882E+03
 1.92550E-01    7.07003E+03
 2.02420E-01    6.99187E+03
 2.12800E-01    6.90969E+03
 2.23710E-01    6.82865E+03
 2.35180E-01    6.75179E+03
 2.47240E-01    6.68114E+03
 2.73240E-01    6.65272E+03
 2.87250E-01    6.63808E+03
 2.94520E-01    6.63124E+03
 2.97200E-01    6.62851E+03
 2.98500E-01    6.62525E+03
 3.01970E-01    6.60310E+03
 3.33730E-01    6.56904E+03
 3.68830E-01    6.54252E+03
 3.87740E-01    6.52703E+03
 4.07620E-01    6.56127E+03
 4.50490E-01    6.62408E+03
 4.97870E-01    6.67527E+03
 5.23400E-01    6.71139E+03
 5.50230E-01    6.74693E+03
 5.78440E-01    6.78384E+03
 6.08100E-01    6.82265E+03
 6.39280E-01    6.86345E+03
 6.72060E-01    6.90643E+03
 7.06510E-01    6.95165E+03
 7.42740E-01    6.99920E+03
 7.80820E-01    7.04917E+03
 8.20850E-01    7.10171E+03
 8.62940E-01    7.15625E+03
 9.07180E-01    7.20940E+03
 9.61640E-01    7.25881E+03
 1.00260E+00    7.31017E+03
 1.10800E+00    7.34518E+03
 1.16480E+00    7.35569E+03
 1.22460E+00    7.36384E+03
 1.28730E+00    7.36045E+03
 1.35340E+00    7.34449E+03
 1.42270E+00    7.32720E+03
 1.49570E+00    7.29716E+03
 1.57240E+00    7.25833E+03
 1.65300E+00    7.21675E+03
 1.73770E+00    7.16061E+03
 1.82680E+00    7.09718E+03
 1.92050E+00    7.03049E+03
 2.01900E+00    6.95678E+03
 2.12250E+00    6.87099E+03
 2.23130E+00    6.79601E+03
 2.30690E+00    6.74948E+03
 2.34570E+00    6.72576E+03
 2.36530E+00    6.70974E+03
 2.38520E+00    6.66907E+03
 2.46600E+00    6.58528E+03
 2.59240E+00    6.48013E+03
 2.72530E+00    6.36943E+03
 2.86500E+00    6.25220E+03
 3.01190E+00    6.12879E+03
 3.16640E+00    5.99907E+03
 3.32870E+00    5.80174E+03
 3.67880E+00    5.52970E+03
 4.06570E+00    5.25887E+03
 4.49330E+00    5.06406E+03
 4.72370E+00    4.94535E+03
 4.96590E+00    4.83665E+03
 5.22050E+00    4.74468E+03
 5.48810E+00    4.66662E+03
 5.76950E+00    4.60667E+03
 6.06530E+00    4.56470E+03
 6.37630E+00    4.54146E+03
 6.59240E+00    4.53376E+03
 6.70320E+00    4.53059E+03
 7.04690E+00    4.54048E+03
 7.40820E+00    4.56131E+03
 7.78800E+00    4.59442E+03
 8.18730E+00    4.63299E+03
 8.60710E+00    4.68186E+03
 9.04840E+00    4.73518E+03
 9.51230E+00    4.79122E+03
 1.00000E+01    4.85115E+03
 1.05130E+01    4.91425E+03
 1.10520E+01    4.97764E+03
 1.16180E+01    5.03896E+03
 1.22140E+01    5.09512E+03
 1.28400E+01    5.14282E+03
 1.34990E+01    5.17108E+03
 1.38400E+01    5.18560E+03
 1.41910E+01    5.19584E+03
 1.45500E+01    5.20179E+03
 1.49180E+01    5.20195E+03
 1.56830E+01    5.18505E+03
 1.64870E+01    5.14721E+03
