# n + Xe  0 : (n,n')
# jendl.ad   kunieda                           EVAL-Mar14
# uncertainties: n
# # energies =    85
#   E(MeV)          xs(mb) 
 1.50000E-01    1.82101E+02
 2.00000E-01    2.01916E+02
 3.00000E-01    2.19250E+02
 4.00000E-01    3.08844E+02
 4.46403E-01    3.62517E+02
 5.00000E-01    4.23285E+02
 6.00000E-01    5.01890E+02
 7.00000E-01    6.18980E+02
 8.00000E-01    7.32556E+02
 9.00000E-01    8.31394E+02
 9.77120E-01    8.92889E+02
 1.00000E+00    9.12039E+02
 1.04130E+00    9.39545E+02
 1.20000E+00    1.04737E+03
 1.40000E+00    1.18588E+03
 1.44083E+00    1.20974E+03
 1.59545E+00    1.29776E+03
 1.60000E+00    1.30041E+03
 1.61605E+00    1.30770E+03
 1.61606E+00    1.30771E+03
 1.75074E+00    1.37873E+03
 1.80000E+00    1.40389E+03
 1.89212E+00    1.44764E+03
 2.00000E+00    1.49754E+03
 2.01230E+00    1.50369E+03
 2.01542E+00    1.50527E+03
 2.14383E+00    1.56464E+03
 2.20000E+00    1.58887E+03
 2.24661E+00    1.60906E+03
 2.27066E+00    1.61947E+03
 2.29077E+00    1.62819E+03
 2.29889E+00    1.63175E+03
 2.38042E+00    1.66755E+03
 2.38043E+00    1.66756E+03
 2.40000E+00    1.67610E+03
 2.44017E+00    1.69408E+03
 2.44986E+00    1.69844E+03
 2.46319E+00    1.70443E+03
 2.50209E+00    1.72183E+03
 2.52049E+00    1.73009E+03
 2.53051E+00    1.73457E+03
 2.53235E+00    1.73540E+03
 2.54125E+00    1.73940E+03
 2.57078E+00    1.75262E+03
 2.58501E+00    1.75902E+03
 2.60354E+00    1.76732E+03
 2.61201E+00    1.77111E+03
 2.61907E+00    1.77428E+03
 2.65376E+00    1.78983E+03
 2.70000E+00    1.81052E+03
 3.00000E+00    1.94455E+03
 3.50000E+00    2.14285E+03
 4.00000E+00    2.27093E+03
 4.50000E+00    2.31492E+03
 5.00000E+00    2.29895E+03
 5.50000E+00    2.25566E+03
 6.00000E+00    2.19926E+03
 6.50000E+00    2.14978E+03
 7.00000E+00    2.10739E+03
 7.50000E+00    2.03854E+03
 8.00000E+00    1.91684E+03
 8.50000E+00    1.77071E+03
 9.00000E+00    1.61689E+03
 9.50000E+00    1.41903E+03
 1.00000E+01    1.16608E+03
 1.05000E+01    9.13924E+02
 1.10000E+01    7.17052E+02
 1.15000E+01    5.65673E+02
 1.20000E+01    4.61444E+02
 1.25000E+01    3.79439E+02
 1.30000E+01    3.22738E+02
 1.35000E+01    2.79739E+02
 1.40000E+01    2.48227E+02
 1.45000E+01    2.25190E+02
 1.50000E+01    2.08003E+02
 1.55000E+01    1.94603E+02
 1.60000E+01    1.83883E+02
 1.65000E+01    1.74685E+02
 1.70000E+01    1.66903E+02
 1.75000E+01    1.59878E+02
 1.80000E+01    1.53543E+02
 1.85000E+01    1.48192E+02
 1.90000E+01    1.42081E+02
 1.95000E+01    1.37221E+02
 2.00000E+01    1.32116E+02
