# n + Xe  0 : (n,d)
# jendl.ad   kunieda                           EVAL-Mar14
# uncertainties: n
# # energies =    52
#   E(MeV)          xs(mb) 
 6.07099E+00    1.58015E-15
 6.09856E+00    2.12647E-15
 6.15713E+00    3.36144E-15
 6.20023E+00    4.29792E-15
 6.20564E+00    4.41732E-15
 6.20992E+00    4.51242E-15
 6.21611E+00    4.65078E-15
 6.22359E+00    4.81896E-15
 6.23281E+00    5.02746E-15
 6.23967E+00    5.18312E-15
 6.25278E+00    5.48193E-15
 6.29364E+00    6.41946E-15
 6.29886E+00    6.53964E-15
 6.30538E+00    6.68987E-15
 6.30731E+00    6.73439E-15
 6.33403E+00    7.35143E-15
 6.34281E+00    7.55429E-15
 6.36765E+00    8.12838E-15
 6.36897E+00    8.15891E-15
 6.41820E+00    9.29729E-15
 6.43390E+00    9.66037E-15
 6.44602E+00    9.94071E-15
 6.45056E+00    1.00457E-14
 6.45945E+00    1.02514E-14
 6.46060E+00    1.02780E-14
 6.46606E+00    1.04043E-14
 7.50000E+00    1.96264E-10
 8.00000E+00    3.30282E-09
 8.50000E+00    3.58585E-08
 9.00000E+00    5.96595E-07
 9.50000E+00    7.09227E-06
 1.00000E+01    8.54711E-05
 1.05000E+01    4.65517E-04
 1.10000E+01    2.19790E-03
 1.15000E+01    8.79686E-03
 1.20000E+01    2.32757E-02
 1.25000E+01    7.10841E-02
 1.30000E+01    1.37799E-01
 1.35000E+01    3.00167E-01
 1.40000E+01    5.24607E-01
 1.45000E+01    8.19622E-01
 1.50000E+01    1.19161E+00
 1.55000E+01    1.65410E+00
 1.60000E+01    2.27364E+00
 1.65000E+01    2.95993E+00
 1.70000E+01    3.67967E+00
 1.75000E+01    4.57203E+00
 1.80000E+01    5.22326E+00
 1.85000E+01    6.09654E+00
 1.90000E+01    6.95210E+00
 1.95000E+01    7.90836E+00
 2.00000E+01    8.71278E+00
