# n + U 237 :  n        
# jendl4.0   O.Iwamoto, T.Nakagawa, et al.     EVAL-JAN10
# uncertainties: n
# # energies =    50
#   E(MeV)       xs(mb) 
 4.00000E+00    0.00000E+00
 4.25000E+00    9.32627E-05
 4.50000E+00    1.89756E-04
 5.00000E+00    2.29095E-02
 5.06250E+00    1.65803E-01
 5.12500E+00    3.05180E-01
 5.25000E+00    5.73884E-01
 5.50000E+00    1.08718E+00
 5.75000E+00    9.01641E+00
 6.00000E+00    1.65799E+01
 6.06250E+00    3.00382E+01
 6.12500E+00    4.33533E+01
 6.25000E+00    6.96143E+01
 6.37500E+00    9.54706E+01
 6.50000E+00    1.21012E+02
 6.62500E+00    1.56866E+02
 6.75000E+00    1.93173E+02
 7.00000E+00    2.67786E+02
 7.25000E+00    3.31925E+02
 7.50000E+00    4.03879E+02
 8.00000E+00    5.07623E+02
 8.50000E+00    5.60961E+02
 9.00000E+00    5.73751E+02
 9.50000E+00    5.63034E+02
 9.62500E+00    5.58443E+02
 9.75000E+00    5.53851E+02
 1.00000E+01    5.44669E+02
 1.02500E+01    5.38298E+02
 1.05000E+01    5.31922E+02
 1.10000E+01    5.26893E+02
 1.15000E+01    5.26483E+02
 1.17500E+01    5.21818E+02
 1.20000E+01    5.17002E+02
 1.22500E+01    5.07556E+02
 1.25000E+01    4.98477E+02
 1.30000E+01    4.83688E+02
 1.35000E+01    4.79498E+02
 1.40000E+01    4.80610E+02
 1.45000E+01    4.84251E+02
 1.50000E+01    4.89632E+02
 1.55000E+01    4.93299E+02
 1.60000E+01    4.86274E+02
 1.65000E+01    4.77608E+02
 1.70000E+01    4.72341E+02
 1.75000E+01    4.62070E+02
 1.80000E+01    4.53745E+02
 1.85000E+01    4.45412E+02
 1.90000E+01    4.40996E+02
 1.95000E+01    4.35255E+02
 2.00000E+01    4.25650E+02
