# n + As 75 : (n,n'11)  
# jeff3.3    A.J. Koning and D. Rochman        EVAL-DEC15
# uncertainties: n
# # energies =    86
#   E(MeV)       xs(mb) 
 8.71578E-01    0.00000E+00
 8.77051E-01    1.79250E+00
 8.98334E-01    8.76303E+00
 9.00000E-01    9.30865E+00
 1.00000E+00    2.20885E+01
 1.05745E+00    2.58843E+01
 1.07762E+00    2.72169E+01
 1.08897E+00    2.79668E+01
 1.09535E+00    2.83883E+01
 1.11106E+00    2.94263E+01
 1.11501E+00    2.96873E+01
 1.14187E+00    3.14619E+01
 1.16498E+00    3.29888E+01
 1.18778E+00    3.44952E+01
 1.20000E+00    3.53026E+01
 1.21970E+00    3.54944E+01
 1.27696E+00    3.60519E+01
 1.27798E+00    3.60618E+01
 1.31983E+00    3.64693E+01
 1.32713E+00    3.65404E+01
 1.36757E+00    3.69341E+01
 1.38926E+00    3.71453E+01
 1.40000E+00    3.72499E+01
 1.43932E+00    3.67005E+01
 1.60000E+00    3.44555E+01
 1.80000E+00    2.98640E+01
 2.00000E+00    2.50003E+01
 2.20000E+00    2.05966E+01
 2.40000E+00    1.68427E+01
 2.60000E+00    1.37125E+01
 2.80000E+00    1.11416E+01
 3.00000E+00    9.05501E+00
 3.20000E+00    7.35953E+00
 3.40000E+00    5.96966E+00
 3.60000E+00    4.82158E+00
 3.80000E+00    3.87474E+00
 4.00000E+00    3.10104E+00
 4.20000E+00    2.47387E+00
 4.40000E+00    1.96953E+00
 4.60000E+00    1.56597E+00
 4.80000E+00    1.24550E+00
 5.00000E+00    9.91851E-01
 5.20000E+00    7.90957E-01
 5.40000E+00    6.31599E-01
 5.60000E+00    5.05999E-01
 5.80000E+00    4.05746E-01
 6.00000E+00    3.26733E-01
 6.20000E+00    2.63521E-01
 6.40000E+00    2.13445E-01
 6.60000E+00    1.73364E-01
 6.80000E+00    1.41063E-01
 7.00000E+00    1.15337E-01
 7.20000E+00    9.44313E-02
 7.40000E+00    7.75937E-02
 7.60000E+00    6.37702E-02
 7.80000E+00    5.25286E-02
 8.00000E+00    4.34713E-02
 8.50000E+00    2.73573E-02
 9.00000E+00    1.74781E-02
 9.50000E+00    1.13076E-02
 1.00000E+01    7.39192E-03
 1.05000E+01    4.87671E-03
 1.10000E+01    3.24067E-03
 1.15000E+01    2.16482E-03
 1.20000E+01    1.45249E-03
 1.25000E+01    9.79097E-04
 1.30000E+01    6.63023E-04
 1.35000E+01    4.51195E-04
 1.40000E+01    3.08486E-04
 1.45000E+01    2.11960E-04
 1.50000E+01    1.46325E-04
 1.60000E+01    7.07086E-05
 1.70000E+01    3.47596E-05
 1.80000E+01    1.73957E-05
 1.90000E+01    8.87076E-06
 2.00000E+01    4.60241E-06
 2.10000E+01    2.42878E-06
 2.20000E+01    1.30129E-06
 2.30000E+01    7.06700E-07
 2.40000E+01    3.85680E-07
 2.50000E+01    2.14480E-07
 2.60000E+01    1.20510E-07
 2.70000E+01    6.83260E-08
 2.80000E+01    3.91040E-08
 2.90000E+01    2.25570E-08
 3.00000E+01    1.31200E-08
