# n + Ni 62 : (n,tot)   
# jendl4.0   S.IIJIMA                          EVAL-MAR87
# uncertainties: n
# # energies =   171
#   E(MeV)       xs(mb) 
 1.00000E-11    1.72955E+05
 1.00000E-07    1.46301E+04
 4.13990E-07    1.28124E+04
 5.31580E-07    1.24248E+04
 6.82560E-07    1.20830E+04
 8.76420E-07    1.17824E+04
 1.12540E-06    1.15191E+04
 1.44500E-06    1.12895E+04
 1.85540E-06    1.10875E+04
 2.37240E-06    1.09084E+04
 3.05900E-06    1.07506E+04
 3.92790E-06    1.06156E+04
 5.04350E-06    1.04981E+04
 6.47600E-06    1.03961E+04
 8.31530E-06    1.03137E+04
 1.06770E-05    1.02469E+04
 1.37100E-05    1.01907E+04
 1.76030E-05    1.01578E+04
 2.26030E-05    1.01309E+04
 2.92030E-05    1.01313E+04
 3.72670E-05    1.01549E+04
 4.78510E-05    1.01935E+04
 6.14420E-05    1.02728E+04
 7.88930E-05    1.03790E+04
 1.01300E-04    1.05422E+04
 1.30070E-04    1.07628E+04
 1.67020E-04    1.10689E+04
 2.14450E-04    1.14878E+04
 2.75360E-04    1.20694E+04
 3.53580E-04    1.28751E+04
 4.54000E-04    1.40180E+04
 5.82950E-04    1.56820E+04
 7.48520E-04    1.81821E+04
 9.61120E-04    2.21110E+04
 1.23410E-03    2.84463E+04
 1.58460E-03    4.02356E+04
 2.03470E-03    5.48547E+04
 2.24870E-03    6.85372E+04
 2.48520E-03    8.25986E+04
 2.61260E-03    9.49095E+04
 2.74650E-03    1.19873E+05
 3.03540E-03    1.69981E+05
 3.35460E-03    2.52897E+05
 3.70740E-03    4.21651E+05
 4.30740E-03    4.93570E+05
 5.53080E-03    1.97390E+05
 7.10170E-03    7.65898E+04
 9.11880E-03    3.90480E+04
 1.17090E-02    2.37643E+04
 1.50340E-02    1.61408E+04
 1.93050E-02    1.27184E+04
 2.18750E-02    1.13551E+04
 2.35790E-02    1.07439E+04
 2.41760E-02    1.05112E+04
 2.47880E-02    1.00489E+04
 2.60580E-02    9.60715E+03
 2.70000E-02    9.20044E+03
 2.85000E-02    8.45097E+03
 3.18280E-02    7.59623E+03
 3.43070E-02    6.12938E+03
 4.08680E-02    1.19709E+04
 4.63090E-02    7.17459E+03
 5.24750E-02    6.03191E+03
 5.65620E-02    5.57354E+03
 6.73790E-02    4.19013E+03
 7.20000E-02    4.12797E+03
 7.95000E-02    2.94479E+03
 8.25000E-02    2.10666E+03
 8.65170E-02    5.88430E+03
 9.80370E-02    1.26150E+04
 1.11090E-01    1.38202E+04
 1.16790E-01    1.00346E+04
 1.22770E-01    8.26206E+03
 1.29070E-01    7.15204E+03
 1.35690E-01    6.97465E+03
 1.42640E-01    8.34089E+03
 1.49960E-01    6.13425E+03
 1.57640E-01    5.49894E+03
 1.65730E-01    4.91398E+03
 1.74220E-01    4.45039E+03
 1.83160E-01    4.42063E+03
 1.92550E-01    3.71920E+03
 2.02420E-01    2.89389E+03
 2.12800E-01    2.18989E+03
 2.23710E-01    4.83917E+03
 2.35180E-01    5.82331E+03
 2.47240E-01    3.67831E+03
 2.73240E-01    2.87974E+03
 2.87250E-01    8.16686E+03
 2.94520E-01    4.66643E+03
 2.97200E-01    5.87142E+03
 2.98500E-01    5.24959E+03
 3.01970E-01    3.34410E+03
 3.33730E-01    5.13080E+03
 3.68830E-01    3.01106E+03
 3.87740E-01    6.03588E+03
 4.07620E-01    4.74292E+03
 4.50490E-01    4.36068E+03
 4.97870E-01    5.30881E+03
 5.23400E-01    4.54200E+03
 5.50230E-01    3.22193E+03
 5.78440E-01    2.92591E+03
 6.08100E-01    3.87665E+03
 6.39280E-01    3.72529E+03
 6.72060E-01    4.02340E+03
 7.06510E-01    2.64748E+03
 7.42740E-01    3.22773E+03
 7.80820E-01    3.14732E+03
 8.20850E-01    3.44136E+03
 8.62940E-01    3.36819E+03
 9.07180E-01    3.25309E+03
 9.61640E-01    3.12485E+03
 1.00260E+00    2.96394E+03
 1.10800E+00    3.24705E+03
 1.16480E+00    3.20892E+03
 1.22460E+00    3.47429E+03
 1.28730E+00    3.90250E+03
 1.35340E+00    3.15981E+03
 1.42270E+00    3.52982E+03
 1.49570E+00    3.30121E+03
 1.57240E+00    3.14797E+03
 1.65300E+00    3.35911E+03
 1.73770E+00    3.25491E+03
 1.82680E+00    2.94425E+03
 1.92050E+00    2.93090E+03
 2.01900E+00    3.12719E+03
 2.12250E+00    3.18824E+03
 2.23130E+00    3.21243E+03
 2.30690E+00    3.33393E+03
 2.34570E+00    3.60494E+03
 2.36530E+00    2.97666E+03
 2.38520E+00    3.31600E+03
 2.46600E+00    3.24122E+03
 2.59240E+00    3.17650E+03
 2.72530E+00    3.35665E+03
 2.86500E+00    3.40566E+03
 3.01190E+00    3.24458E+03
 3.16640E+00    3.37402E+03
 3.32870E+00    3.52806E+03
 3.67880E+00    3.50044E+03
 4.06570E+00    3.59084E+03
 4.49330E+00    3.64692E+03
 4.72370E+00    3.64858E+03
 4.96590E+00    3.74861E+03
 5.22050E+00    3.75896E+03
 5.48810E+00    3.77214E+03
 5.76950E+00    3.78401E+03
 6.06530E+00    3.78073E+03
 6.37630E+00    3.71845E+03
 6.59240E+00    3.74621E+03
 6.70320E+00    3.68935E+03
 7.04690E+00    3.66835E+03
 7.40820E+00    3.61008E+03
 7.78800E+00    3.56776E+03
 8.18730E+00    3.49292E+03
 8.60710E+00    3.44537E+03
 9.04840E+00    3.36803E+03
 9.51230E+00    3.33072E+03
 1.00000E+01    3.27028E+03
 1.05130E+01    3.19755E+03
 1.10520E+01    3.11863E+03
 1.16180E+01    3.02516E+03
 1.22140E+01    2.93722E+03
 1.28400E+01    2.87336E+03
 1.34990E+01    2.79557E+03
 1.38400E+01    2.75971E+03
 1.41910E+01    2.72179E+03
 1.45500E+01    2.68213E+03
 1.49180E+01    2.61823E+03
 1.56830E+01    2.55559E+03
 1.64870E+01    2.49518E+03
