# n + Ni 62 : (n,el)    
# jendl4.0   S.IIJIMA                          EVAL-MAR87
# uncertainties: n
# # energies =   171
#   E(MeV)       xs(mb) 
 1.00000E-11    1.94162E+04
 1.00000E-07    9.51670E+03
 4.13990E-07    9.51173E+03
 5.31580E-07    9.51165E+03
 6.82560E-07    9.51253E+03
 8.76420E-07    9.51365E+03
 1.12540E-06    9.51510E+03
 1.44500E-06    9.51696E+03
 1.85540E-06    9.51932E+03
 2.37240E-06    9.52308E+03
 3.05900E-06    9.52850E+03
 3.92790E-06    9.53542E+03
 5.04350E-06    9.54431E+03
 6.47600E-06    9.55571E+03
 8.31530E-06    9.57036E+03
 1.06770E-05    9.58917E+03
 1.37100E-05    9.61332E+03
 1.76030E-05    9.64432E+03
 2.26030E-05    9.68472E+03
 2.92030E-05    9.73595E+03
 3.72670E-05    9.80091E+03
 4.78510E-05    9.88520E+03
 6.14420E-05    9.99342E+03
 7.88930E-05    1.01324E+04
 1.01300E-04    1.03149E+04
 1.30070E-04    1.05666E+04
 1.67020E-04    1.08915E+04
 2.14450E-04    1.13269E+04
 2.75360E-04    1.19204E+04
 3.53580E-04    1.27406E+04
 4.54000E-04    1.38939E+04
 5.82950E-04    1.55626E+04
 7.48520E-04    1.80668E+04
 9.61120E-04    2.19966E+04
 1.23410E-03    2.83235E+04
 1.58460E-03    4.00969E+04
 2.03470E-03    5.46965E+04
 2.24870E-03    6.83592E+04
 2.48520E-03    8.24006E+04
 2.61260E-03    9.46943E+04
 2.74650E-03    1.19623E+05
 3.03540E-03    1.69666E+05
 3.35460E-03    2.52481E+05
 3.70740E-03    4.21056E+05
 4.30740E-03    4.93015E+05
 5.53080E-03    1.97231E+05
 7.10170E-03    7.65304E+04
 9.11880E-03    3.89916E+04
 1.17090E-02    2.37588E+04
 1.50340E-02    1.61316E+04
 1.93050E-02    1.27162E+04
 2.18750E-02    1.13556E+04
 2.35790E-02    1.07389E+04
 2.41760E-02    1.04576E+04
 2.47880E-02    1.00483E+04
 2.60580E-02    9.60803E+03
 2.70000E-02    9.17195E+03
 2.85000E-02    8.42768E+03
 3.18280E-02    7.58134E+03
 3.43070E-02    6.11385E+03
 4.08680E-02    1.19548E+04
 4.63090E-02    7.17438E+03
 5.24750E-02    6.02856E+03
 5.65620E-02    5.56916E+03
 6.73790E-02    4.19043E+03
 7.20000E-02    4.10927E+03
 7.95000E-02    2.94450E+03
 8.25000E-02    2.10638E+03
 8.65170E-02    5.88005E+03
 9.80370E-02    1.26073E+04
 1.11090E-01    1.38142E+04
 1.16790E-01    1.00242E+04
 1.22770E-01    8.26227E+03
 1.29070E-01    7.15196E+03
 1.35690E-01    6.96666E+03
 1.42640E-01    8.32158E+03
 1.49960E-01    6.13268E+03
 1.57640E-01    5.48732E+03
 1.65730E-01    4.91069E+03
 1.74220E-01    4.44740E+03
 1.83160E-01    4.41054E+03
 1.92550E-01    3.71601E+03
 2.02420E-01    2.89067E+03
 2.12800E-01    2.18118E+03
 2.23710E-01    4.83392E+03
 2.35180E-01    5.81730E+03
 2.47240E-01    3.67452E+03
 2.73240E-01    2.87314E+03
 2.87250E-01    8.16182E+03
 2.94520E-01    4.66318E+03
 2.97200E-01    5.85894E+03
 2.98500E-01    5.24236E+03
 3.01970E-01    3.33850E+03
 3.33730E-01    5.12614E+03
 3.68830E-01    3.00590E+03
 3.87740E-01    6.03105E+03
 4.07620E-01    4.73874E+03
 4.50490E-01    4.35627E+03
 4.97870E-01    5.30398E+03
 5.23400E-01    4.53745E+03
 5.50230E-01    3.21750E+03
 5.78440E-01    2.92136E+03
 6.08100E-01    3.87206E+03
 6.39280E-01    3.72065E+03
 6.72060E-01    4.01875E+03
 7.06510E-01    2.64277E+03
 7.42740E-01    3.22298E+03
 7.80820E-01    3.14249E+03
 8.20850E-01    3.43647E+03
 8.62940E-01    3.36324E+03
 9.07180E-01    3.24806E+03
 9.61640E-01    3.11975E+03
 1.00260E+00    2.95869E+03
 1.10800E+00    3.24164E+03
 1.16480E+00    3.18880E+03
 1.22460E+00    3.36216E+03
 1.28730E+00    3.68136E+03
 1.35340E+00    2.82385E+03
 1.42270E+00    3.07319E+03
 1.49570E+00    2.75867E+03
 1.57240E+00    2.56717E+03
 1.65300E+00    2.73835E+03
 1.73770E+00    2.59180E+03
 1.82680E+00    2.23690E+03
 1.92050E+00    2.17796E+03
 2.01900E+00    2.36185E+03
 2.12250E+00    2.41418E+03
 2.23130E+00    2.42784E+03
 2.30690E+00    2.54258E+03
 2.34570E+00    2.79620E+03
 2.36530E+00    2.14706E+03
 2.38520E+00    2.42475E+03
 2.46600E+00    2.25424E+03
 2.59240E+00    2.15017E+03
 2.72530E+00    2.29375E+03
 2.86500E+00    2.30010E+03
 3.01190E+00    2.15126E+03
 3.16640E+00    2.31725E+03
 3.32870E+00    2.30970E+03
 3.67880E+00    2.09004E+03
 4.06570E+00    2.08543E+03
 4.49330E+00    2.10762E+03
 4.72370E+00    2.09388E+03
 4.96590E+00    2.18310E+03
 5.22050E+00    2.19131E+03
 5.48810E+00    2.20597E+03
 5.76950E+00    2.22420E+03
 6.06530E+00    2.22767E+03
 6.37630E+00    2.17143E+03
 6.59240E+00    2.20243E+03
 6.70320E+00    2.15103E+03
 7.04690E+00    2.13526E+03
 7.40820E+00    2.08445E+03
 7.78800E+00    2.04989E+03
 8.18730E+00    1.98367E+03
 8.60710E+00    1.94300E+03
 9.04840E+00    1.87133E+03
 9.51230E+00    1.83956E+03
 1.00000E+01    1.79282E+03
 1.05130E+01    1.73403E+03
 1.10520E+01    1.64432E+03
 1.16180E+01    1.55070E+03
 1.22140E+01    1.45723E+03
 1.28400E+01    1.38788E+03
 1.34990E+01    1.30924E+03
 1.38400E+01    1.27345E+03
 1.41910E+01    1.23832E+03
 1.45500E+01    1.20190E+03
 1.49180E+01    1.14457E+03
 1.56830E+01    1.09215E+03
 1.64870E+01    1.03899E+03
