# n + Ga 69 : (n,el)    
# jendl4.0   T.WATANABE                        EVAL-MAR94
# uncertainties: n
# # energies =    69
#   E(MeV)       xs(mb) 
 1.00000E-10    1.14400E+04
 5.00000E-09    8.38046E+03
 1.00000E-08    8.28677E+03
 1.50000E-08    8.25010E+03
 2.00000E-08    8.23006E+03
 2.50000E-08    8.21779E+03
 3.00000E-08    8.20899E+03
 3.50000E-08    8.20202E+03
 4.20000E-08    8.19529E+03
 5.00000E-08    8.19050E+03
 5.80000E-08    8.18624E+03
 6.70000E-08    8.18299E+03
 8.00000E-08    8.17868E+03
 1.00000E-07    8.17464E+03
 1.40000E-07    8.17064E+03
 1.80000E-07    8.16874E+03
 2.20000E-07    8.16712E+03
 2.50000E-07    8.16575E+03
 2.80000E-07    8.16476E+03
 3.00000E-07    8.16441E+03
 3.20000E-07    8.16400E+03
 3.50000E-07    8.16334E+03
 4.00000E-07    8.16211E+03
 5.00000E-07    8.16025E+03
 6.25000E-07    8.15793E+03
 7.80000E-07    8.15629E+03
 8.50000E-07    8.15562E+03
 9.10000E-07    8.15510E+03
 9.50000E-07    8.15478E+03
 9.72000E-07    8.15454E+03
 9.96000E-07    8.15430E+03
 1.02000E-06    8.15404E+03
 1.04500E-06    8.15378E+03
 1.07100E-06    8.15351E+03
 1.09700E-06    8.15324E+03
 1.12300E-06    8.15297E+03
 1.15000E-06    8.15207E+03
 1.30000E-06    8.15028E+03
 1.50000E-06    8.14630E+03
 2.10000E-06    8.14055E+03
 2.60000E-06    8.13442E+03
 3.30000E-06    8.12717E+03
 4.00000E-06    8.09766E+03
 9.87700E-06    8.03396E+03
 1.59680E-05    7.94511E+03
 2.77000E-05    7.78267E+03
 4.80520E-05    7.48126E+03
 7.55014E-05    1.17278E+04
 1.48728E-04    8.58028E+03
 3.67262E-04    1.31337E+04
 9.06898E-04    5.61467E+03
 1.42510E-03    1.93376E+04
 2.23945E-03    1.86108E+04
 3.51910E-03    1.56330E+04
 5.53000E-03    1.26563E+04
 9.11800E-03    1.04334E+04
 1.50300E-02    9.44394E+03
 2.47800E-02    8.60023E+03
 4.08500E-02    7.88469E+03
 6.73400E-02    7.22855E+03
 1.11000E-01    6.56391E+03
 1.83000E-01    5.88928E+03
 3.02000E-01    5.08290E+03
 5.00000E-01    4.11972E+03
 8.21000E-01    3.07699E+03
 1.35300E+00    2.17274E+03
 2.23100E+00    1.87269E+03
 3.67900E+00    2.09895E+03
 6.06500E+00    2.23383E+03
