# n + Ga 69 : (n,n'09)  
# jendl4.0   T.WATANABE                        EVAL-MAR94
# uncertainties: n
# # energies =   171
#   E(MeV)       xs(mb) 
 1.54820E+00    0.00000E+00
 1.54821E+00    1.08276E-04
 1.54858E+00    7.40720E-02
 1.54931E+00    2.21708E-01
 1.55078E+00    5.15826E-01
 1.55224E+00    8.07646E-01
 1.55369E+00    1.09719E+00
 1.55656E+00    1.67174E+00
 1.55940E+00    2.23732E+00
 1.56220E+00    2.79405E+00
 1.56495E+00    3.34210E+00
 1.56767E+00    3.88157E+00
 1.57036E+00    4.41262E+00
 1.57565E+00    5.45812E+00
 1.58079E+00    6.47094E+00
 1.58579E+00    7.45212E+00
 1.59065E+00    8.40263E+00
 1.59537E+00    9.32344E+00
 1.59996E+00    1.02155E+01
 1.60442E+00    1.10796E+01
 1.61309E+00    1.27539E+01
 1.62126E+00    1.43236E+01
 1.62896E+00    1.57952E+01
 1.63621E+00    1.71747E+01
 1.64303E+00    1.84681E+01
 1.64946E+00    1.96806E+01
 1.66157E+00    2.19541E+01
 1.67224E+00    2.39434E+01
 1.68164E+00    2.56841E+01
 1.68990E+00    2.72071E+01
 1.69717E+00    2.85398E+01
 1.70996E+00    3.08720E+01
 1.71961E+00    3.26211E+01
 1.73419E+00    3.52448E+01
 1.74890E+00    3.78685E+01
 1.75000E+00    3.79623E+01
 1.77018E+00    3.96395E+01
 1.79060E+00    4.13166E+01
 1.80620E+00    4.25173E+01
 1.83382E+00    4.46185E+01
 1.85481E+00    4.61944E+01
 1.87072E+00    4.73763E+01
 1.89483E+00    4.91492E+01
 1.91925E+00    5.09221E+01
 1.95233E+00    5.23029E+01
 1.97602E+00    5.34594E+01
 2.00000E+00    5.46160E+01
 2.00123E+00    5.46710E+01
 2.00194E+00    5.47005E+01
 2.03695E+00    5.58753E+01
 2.05338E+00    5.60438E+01
 2.07510E+00    5.63095E+01
 2.11282E+00    5.69455E+01
 2.17068E+00    5.78996E+01
 2.23013E+00    5.88536E+01
 2.25174E+00    5.92001E+01
 2.28391E+00    5.94554E+01
 2.35341E+00    5.99652E+01
 2.38770E+00    6.01099E+01
 2.45872E+00    6.02618E+01
 2.46420E+00    6.02872E+01
 2.46552E+00    6.02478E+01
 2.58947E+00    5.92738E+01
 2.68651E+00    5.85433E+01
 2.76167E+00    5.79955E+01
 2.87837E+00    5.71737E+01
 3.00000E+00    5.63519E+01
 3.05443E+00    5.54686E+01
 3.10635E+00    5.46406E+01
 3.15583E+00    5.38643E+01
 3.20293E+00    5.31365E+01
 3.29315E+00    5.17719E+01
 3.37418E+00    5.05779E+01
 3.44671E+00    4.95331E+01
 3.51145E+00    4.86189E+01
 3.56909E+00    4.78190E+01
 3.62031E+00    4.71191E+01
 3.71171E+00    4.58942E+01
 3.78178E+00    4.49756E+01
 3.83519E+00    4.42866E+01
 3.91673E+00    4.32532E+01
 4.00000E+00    4.22197E+01
 4.05618E+00    4.14627E+01
 4.10956E+00    4.07530E+01
 4.16024E+00    4.00877E+01
 4.25696E+00    3.88402E+01
 4.34344E+00    3.77486E+01
 4.42055E+00    3.67935E+01
 4.48913E+00    3.59578E+01
 4.55002E+00    3.52265E+01
 4.60398E+00    3.45867E+01
 4.69994E+00    3.34669E+01
 4.77322E+00    3.26271E+01
 4.82893E+00    3.19973E+01
 4.91372E+00    3.10525E+01
 5.00000E+00    3.01077E+01
 5.11526E+00    2.91475E+01
 5.21829E+00    2.83074E+01
 5.31014E+00    2.75723E+01
 5.39184E+00    2.69290E+01
 5.46435E+00    2.63662E+01
 5.52860E+00    2.58737E+01
 5.64286E+00    2.50119E+01
 5.73010E+00    2.43655E+01
 5.79641E+00    2.38807E+01
 5.89733E+00    2.31536E+01
 6.00000E+00    2.24264E+01
 6.11673E+00    2.18565E+01
 6.22074E+00    2.13578E+01
 6.31319E+00    2.09215E+01
 6.39521E+00    2.05397E+01
 6.54133E+00    1.98716E+01
 6.65310E+00    1.93705E+01
 6.73818E+00    1.89947E+01
 6.86784E+00    1.84309E+01
 7.00000E+00    1.78672E+01
 7.11782E+00    1.75066E+01
 7.22254E+00    1.71911E+01
 7.31543E+00    1.69150E+01
 7.48088E+00    1.64319E+01
 7.60741E+00    1.60695E+01
 7.70371E+00    1.57978E+01
 7.85046E+00    1.53901E+01
 8.00000E+00    1.49825E+01
 8.11865E+00    1.47174E+01
 8.22392E+00    1.44855E+01
 8.41143E+00    1.40796E+01
 8.55486E+00    1.37752E+01
 8.66404E+00    1.35469E+01
 8.83042E+00    1.32045E+01
 9.00000E+00    1.28620E+01
 9.24021E+00    1.25206E+01
 9.42457E+00    1.22646E+01
 9.56524E+00    1.20726E+01
 9.78021E+00    1.17845E+01
 1.00000E+01    1.14965E+01
 1.02411E+01    1.12582E+01
 1.04258E+01    1.10794E+01
 1.07091E+01    1.08113E+01
 1.10000E+01    1.05432E+01
 1.12419E+01    1.03437E+01
 1.14268E+01    1.01940E+01
 1.17099E+01    9.96954E+00
 1.20000E+01    9.74507E+00
 1.22425E+01    9.55358E+00
 1.24277E+01    9.40997E+00
 1.27106E+01    9.19454E+00
 1.30000E+01    8.97912E+00
 1.32431E+01    8.79462E+00
 1.34284E+01    8.65624E+00
 1.37112E+01    8.44868E+00
 1.40000E+01    8.24111E+00
 1.42478E+01    8.06751E+00
 1.45000E+01    7.89391E+00
 1.47479E+01    7.72963E+00
 1.50000E+01    7.56535E+00
 1.52440E+01    7.41564E+00
 1.56174E+01    7.19108E+00
 1.60000E+01    6.96652E+00
 1.62443E+01    6.83462E+00
 1.66179E+01    6.63678E+00
 1.70000E+01    6.43894E+00
 1.72447E+01    6.32251E+00
 1.76183E+01    6.14787E+00
 1.80000E+01    5.97322E+00
 1.82450E+01    5.87054E+00
 1.86187E+01    5.71653E+00
 1.90000E+01    5.56251E+00
 1.92452E+01    5.47228E+00
 1.96190E+01    5.33694E+00
 2.00000E+01    5.20160E+00
