# n + Ga 69 : (n,n'08)  
# jendl4.0   T.WATANABE                        EVAL-MAR94
# uncertainties: n
# # energies =   155
#   E(MeV)       xs(mb) 
 1.50930E+00    0.00000E+00
 1.50975E+00    9.60368E-03
 1.51034E+00    2.61697E-01
 1.51151E+00    7.58001E-01
 1.51265E+00    1.23880E+00
 1.51484E+00    2.17033E+00
 1.51691E+00    3.04365E+00
 1.51885E+00    3.86238E+00
 1.52249E+00    5.39750E+00
 1.52568E+00    6.74073E+00
 1.52848E+00    7.91605E+00
 1.53339E+00    9.97287E+00
 1.53708E+00    1.15155E+01
 1.54263E+00    1.38294E+01
 1.54821E+00    1.61433E+01
 1.55412E+00    1.71270E+01
 1.56563E+00    1.90328E+01
 1.57650E+00    2.08196E+01
 1.58676E+00    2.24946E+01
 1.59644E+00    2.40650E+01
 1.60556E+00    2.55373E+01
 1.61417E+00    2.69175E+01
 1.62228E+00    2.82114E+01
 1.63759E+00    3.06376E+01
 1.65111E+00    3.27605E+01
 1.66302E+00    3.46180E+01
 1.67352E+00    3.62433E+01
 1.68277E+00    3.76655E+01
 1.69906E+00    4.01543E+01
 1.71139E+00    4.20209E+01
 1.73004E+00    4.48208E+01
 1.74890E+00    4.76207E+01
 1.75000E+00    4.77457E+01
 1.77018E+00    4.99579E+01
 1.79060E+00    5.21700E+01
 1.80620E+00    5.36125E+01
 1.83382E+00    5.61368E+01
 1.85481E+00    5.80301E+01
 1.87072E+00    5.94501E+01
 1.89483E+00    6.15800E+01
 1.91925E+00    6.37099E+01
 1.95233E+00    6.64075E+01
 1.97602E+00    6.77719E+01
 2.00000E+00    6.91362E+01
 2.00123E+00    6.91952E+01
 2.00194E+00    6.90279E+01
 2.03695E+00    7.00753E+01
 2.05338E+00    7.07525E+01
 2.07510E+00    7.14304E+01
 2.11282E+00    7.27219E+01
 2.17068E+00    7.46591E+01
 2.23013E+00    7.65963E+01
 2.25174E+00    7.72542E+01
 2.28391E+00    7.82515E+01
 2.35341E+00    8.02932E+01
 2.38770E+00    8.07776E+01
 2.45872E+00    8.20318E+01
 2.46420E+00    8.21254E+01
 2.46552E+00    8.21077E+01
 2.71966E+00    8.17968E+01
 3.00000E+00    8.14859E+01
 3.05443E+00    8.04148E+01
 3.10635E+00    7.94107E+01
 3.20610E+00    7.75280E+01
 3.29600E+00    7.58806E+01
 3.37673E+00    7.44391E+01
 3.44899E+00    7.31779E+01
 3.51348E+00    7.20742E+01
 3.57090E+00    7.11086E+01
 3.67366E+00    6.94187E+01
 3.75266E+00    6.81512E+01
 3.81302E+00    6.72006E+01
 3.90539E+00    6.57748E+01
 4.00000E+00    6.43489E+01
 4.11314E+00    6.25926E+01
 4.21476E+00    6.10557E+01
 4.30574E+00    5.97110E+01
 4.38695E+00    5.85344E+01
 4.45927E+00    5.75049E+01
 4.52353E+00    5.66040E+01
 4.63821E+00    5.50275E+01
 4.72613E+00    5.38452E+01
 4.79316E+00    5.29584E+01
 4.89549E+00    5.16283E+01
 5.00000E+00    5.02981E+01
 5.11526E+00    4.91430E+01
 5.21829E+00    4.81322E+01
 5.31014E+00    4.72478E+01
 5.39184E+00    4.64740E+01
 5.53784E+00    4.51197E+01
 5.64993E+00    4.41040E+01
 5.73548E+00    4.33423E+01
 5.86625E+00    4.21996E+01
 6.00000E+00    4.10570E+01
 6.11673E+00    4.02278E+01
 6.22074E+00    3.95023E+01
 6.31319E+00    3.88675E+01
 6.47830E+00    3.77566E+01
 6.60496E+00    3.69234E+01
 6.70158E+00    3.62985E+01
 6.84917E+00    3.53611E+01
 7.00000E+00    3.44238E+01
 7.11782E+00    3.38087E+01
 7.22254E+00    3.32705E+01
 7.40952E+00    3.23286E+01
 7.55292E+00    3.16222E+01
 7.66229E+00    3.10924E+01
 7.82933E+00    3.02977E+01
 8.00000E+00    2.95030E+01
 8.11865E+00    2.90122E+01
 8.33055E+00    2.81533E+01
 8.49309E+00    2.75091E+01
 8.61708E+00    2.70259E+01
 8.80646E+00    2.63012E+01
 9.00000E+00    2.55765E+01
 9.24021E+00    2.49227E+01
 9.42457E+00    2.44324E+01
 9.56524E+00    2.40646E+01
 9.78021E+00    2.35129E+01
 1.00000E+01    2.29613E+01
 1.02411E+01    2.24948E+01
 1.04258E+01    2.21449E+01
 1.07091E+01    2.16201E+01
 1.10000E+01    2.10953E+01
 1.12419E+01    2.06985E+01
 1.14268E+01    2.04009E+01
 1.17099E+01    1.99544E+01
 1.20000E+01    1.95080E+01
 1.22425E+01    1.91244E+01
 1.24277E+01    1.88367E+01
 1.27106E+01    1.84051E+01
 1.30000E+01    1.79735E+01
 1.32431E+01    1.76033E+01
 1.34284E+01    1.73257E+01
 1.37112E+01    1.69092E+01
 1.40000E+01    1.64927E+01
 1.42478E+01    1.61448E+01
 1.45000E+01    1.57969E+01
 1.47479E+01    1.54677E+01
 1.50000E+01    1.51385E+01
 1.52440E+01    1.48387E+01
 1.56174E+01    1.43889E+01
 1.60000E+01    1.39392E+01
 1.62443E+01    1.36752E+01
 1.66179E+01    1.32791E+01
 1.70000E+01    1.28831E+01
 1.72447E+01    1.26498E+01
 1.76183E+01    1.22999E+01
 1.80000E+01    1.19500E+01
 1.82450E+01    1.17445E+01
 1.86187E+01    1.14362E+01
 1.90000E+01    1.11280E+01
 1.92452E+01    1.09475E+01
 1.96190E+01    1.06768E+01
 2.00000E+01    1.04060E+01
