# n + Ga 69 : (n,n'03)  
# jendl4.0   T.WATANABE                        EVAL-MAR94
# uncertainties: n
# # energies =   183
#   E(MeV)       xs(mb) 
 8.84747E-01    0.00000E+00
 8.84760E-01    2.39802E-02
 8.84996E-01    4.65006E-01
 8.85461E-01    1.33327E+00
 8.86363E-01    3.01554E+00
 8.87209E-01    4.59266E+00
 8.88003E-01    6.07122E+00
 8.89494E-01    8.84350E+00
 8.90801E-01    1.12693E+01
 8.91945E-01    1.33918E+01
 8.93952E-01    1.71062E+01
 8.95460E-01    1.98920E+01
 8.97727E-01    2.40708E+01
 9.00000E-01    2.82495E+01
 9.05946E-01    3.08954E+01
 9.11556E-01    3.33759E+01
 9.16847E-01    3.57014E+01
 9.21835E-01    3.78815E+01
 9.26537E-01    3.99254E+01
 9.30966E-01    4.18416E+01
 9.39327E-01    4.54343E+01
 9.46705E-01    4.85780E+01
 9.53209E-01    5.13287E+01
 9.58936E-01    5.37356E+01
 9.69041E-01    5.79476E+01
 9.76690E-01    6.11066E+01
 9.82466E-01    6.34759E+01
 9.91194E-01    6.70298E+01
 1.00000E+00    7.05837E+01
 1.01071E+00    7.36013E+01
 1.01882E+00    7.58645E+01
 1.03110E+00    7.92592E+01
 1.04353E+00    8.26540E+01
 1.05315E+00    8.46600E+01
 1.07019E+00    8.81706E+01
 1.08315E+00    9.08035E+01
 1.10288E+00    9.47528E+01
 1.12298E+00    9.87022E+01
 1.15058E+00    1.01443E+02
 1.17467E+00    1.03951E+02
 1.19306E+00    1.05832E+02
 1.22120E+00    1.08654E+02
 1.25000E+00    1.11476E+02
 1.27573E+00    1.13911E+02
 1.29537E+00    1.15737E+02
 1.32541E+00    1.18477E+02
 1.35614E+00    1.21216E+02
 1.39076E+00    1.22990E+02
 1.41730E+00    1.24320E+02
 1.45806E+00    1.26316E+02
 1.50000E+00    1.28311E+02
 1.50975E+00    1.28697E+02
 1.54821E+00    1.29486E+02
 1.74890E+00    1.29095E+02
 1.75000E+00    1.29070E+02
 1.79060E+00    1.28021E+02
 1.91925E+00    1.26983E+02
 1.95233E+00    1.25649E+02
 2.00000E+00    1.24467E+02
 2.00123E+00    1.24454E+02
 2.00194E+00    1.24401E+02
 2.03695E+00    1.23033E+02
 2.05338E+00    1.21911E+02
 2.07510E+00    1.20519E+02
 2.11282E+00    1.18996E+02
 2.17068E+00    1.16712E+02
 2.23013E+00    1.14428E+02
 2.25174E+00    1.13882E+02
 2.28391E+00    1.12776E+02
 2.35341E+00    1.10746E+02
 2.38770E+00    1.09692E+02
 2.45872E+00    1.07694E+02
 2.46420E+00    1.07578E+02
 2.46552E+00    1.07482E+02
 2.52674E+00    1.05680E+02
 2.58155E+00    1.04103E+02
 2.63048E+00    1.02723E+02
 2.71836E+00    1.00308E+02
 2.78619E+00    9.84971E+01
 2.83817E+00    9.71388E+01
 2.91796E+00    9.51013E+01
 3.00000E+00    9.30639E+01
 3.05443E+00    9.15330E+01
 3.10635E+00    9.00978E+01
 3.15583E+00    8.87523E+01
 3.20293E+00    8.74909E+01
 3.29315E+00    8.51257E+01
 3.37418E+00    8.30562E+01
 3.44671E+00    8.12454E+01
 3.51145E+00    7.96609E+01
 3.56909E+00    7.82745E+01
 3.62031E+00    7.70614E+01
 3.71171E+00    7.49385E+01
 3.78178E+00    7.33463E+01
 3.83519E+00    7.21522E+01
 3.91673E+00    7.03609E+01
 4.00000E+00    6.85697E+01
 4.05618E+00    6.73831E+01
 4.10956E+00    6.62706E+01
 4.21155E+00    6.41847E+01
 4.30287E+00    6.23595E+01
 4.38439E+00    6.07625E+01
 4.45699E+00    5.93651E+01
 4.52151E+00    5.81424E+01
 4.57872E+00    5.70725E+01
 4.68059E+00    5.52002E+01
 4.75848E+00    5.37960E+01
 4.81774E+00    5.27429E+01
 4.90802E+00    5.11631E+01
 5.00000E+00    4.95834E+01
 5.11526E+00    4.82082E+01
 5.21829E+00    4.70049E+01
 5.31014E+00    4.59520E+01
 5.39184E+00    4.50307E+01
 5.46435E+00    4.42246E+01
 5.59360E+00    4.28139E+01
 5.69255E+00    4.17559E+01
 5.76790E+00    4.09624E+01
 5.88281E+00    3.97721E+01
 6.00000E+00    3.85818E+01
 6.11673E+00    3.77116E+01
 6.22074E+00    3.69502E+01
 6.31319E+00    3.62839E+01
 6.39521E+00    3.57009E+01
 6.54133E+00    3.46807E+01
 6.65310E+00    3.39156E+01
 6.73818E+00    3.33417E+01
 6.86784E+00    3.24809E+01
 7.00000E+00    3.16201E+01
 7.11782E+00    3.09684E+01
 7.22254E+00    3.03981E+01
 7.31543E+00    2.98991E+01
 7.48088E+00    2.90259E+01
 7.60741E+00    2.83710E+01
 7.70371E+00    2.78798E+01
 7.85046E+00    2.71431E+01
 8.00000E+00    2.64063E+01
 8.11865E+00    2.59777E+01
 8.33055E+00    2.52277E+01
 8.49309E+00    2.46652E+01
 8.61708E+00    2.42433E+01
 8.80646E+00    2.36105E+01
 9.00000E+00    2.29777E+01
 9.24021E+00    2.24220E+01
 9.42457E+00    2.20052E+01
 9.56524E+00    2.16926E+01
 9.78021E+00    2.12238E+01
 1.00000E+01    2.07549E+01
 1.02411E+01    2.03439E+01
 1.04258E+01    2.00357E+01
 1.07091E+01    1.95733E+01
 1.10000E+01    1.91110E+01
 1.12419E+01    1.87375E+01
 1.14268E+01    1.84573E+01
 1.17099E+01    1.80371E+01
 1.20000E+01    1.76169E+01
 1.22425E+01    1.72502E+01
 1.24277E+01    1.69751E+01
 1.27106E+01    1.65625E+01
 1.30000E+01    1.61499E+01
 1.32431E+01    1.58047E+01
 1.34284E+01    1.55458E+01
 1.37112E+01    1.51575E+01
 1.40000E+01    1.47692E+01
 1.42478E+01    1.44504E+01
 1.45000E+01    1.41316E+01
 1.47479E+01    1.38320E+01
 1.50000E+01    1.35324E+01
 1.52440E+01    1.32611E+01
 1.56174E+01    1.28541E+01
 1.60000E+01    1.24471E+01
 1.62443E+01    1.22086E+01
 1.66179E+01    1.18508E+01
 1.70000E+01    1.14930E+01
 1.72447E+01    1.12830E+01
 1.76183E+01    1.09680E+01
 1.80000E+01    1.06530E+01
 1.82450E+01    1.04689E+01
 1.86187E+01    1.01926E+01
 1.90000E+01    9.91641E+00
 1.92452E+01    9.75526E+00
 1.96190E+01    9.51353E+00
 2.00000E+01    9.27180E+00
