# n + Ga 69 : (n,a)     
# jendl4.0   T.WATANABE                        EVAL-MAR94
# uncertainties: n
# # energies =    27
#   E(MeV)       xs(mb) 
 1.00000E-01    0.00000E+00
 1.00000E-01    7.45320E-08
 3.00000E-01    1.87240E-07
 5.00000E-01    6.89960E-07
 7.00000E-01    3.34617E-06
 1.00000E+00    1.87134E-05
 1.50000E+00    2.70148E-04
 2.00000E+00    6.22002E-03
 3.00000E+00    8.77759E-02
 4.00000E+00    5.73879E-01
 5.00000E+00    1.99359E+00
 6.00000E+00    4.61379E+00
 7.00000E+00    7.89262E+00
 8.00000E+00    1.06637E+01
 9.00000E+00    1.36762E+01
 1.00000E+01    1.69973E+01
 1.10000E+01    2.04483E+01
 1.20000E+01    2.32591E+01
 1.30000E+01    2.45457E+01
 1.40000E+01    2.33445E+01
 1.45000E+01    2.20002E+01
 1.50000E+01    2.04484E+01
 1.60000E+01    1.72035E+01
 1.70000E+01    1.40991E+01
 1.80000E+01    1.18650E+01
 1.90000E+01    9.70464E+00
 2.00000E+01    8.00665E+00
