# n + Ga 69 : (n,n'05)  
# jendl4.0   T.WATANABE                        EVAL-MAR94
# uncertainties: n
# # energies =   181
#   E(MeV)       xs(mb) 
 1.12290E+00    0.00000E+00
 1.12298E+00    1.51440E-03
 1.12341E+00    4.42309E-01
 1.12425E+00    1.31011E+00
 1.12506E+00    2.15080E+00
 1.12664E+00    3.77961E+00
 1.12812E+00    5.30663E+00
 1.12951E+00    6.73820E+00
 1.13212E+00    9.42240E+00
 1.13441E+00    1.17711E+01
 1.13642E+00    1.38262E+01
 1.13995E+00    1.74226E+01
 1.14259E+00    2.01198E+01
 1.14658E+00    2.41658E+01
 1.15058E+00    2.82117E+01
 1.15656E+00    2.97320E+01
 1.16219E+00    3.11573E+01
 1.17282E+00    3.38296E+01
 1.18220E+00    3.61680E+01
 1.19047E+00    3.82140E+01
 1.19775E+00    4.00043E+01
 1.20416E+00    4.15708E+01
 1.21546E+00    4.43122E+01
 1.22400E+00    4.63682E+01
 1.23693E+00    4.94523E+01
 1.25000E+00    5.25363E+01
 1.26280E+00    5.54975E+01
 1.27411E+00    5.80885E+01
 1.28408E+00    6.03556E+01
 1.29288E+00    6.23394E+01
 1.30841E+00    6.58109E+01
 1.32018E+00    6.84146E+01
 1.33804E+00    7.23201E+01
 1.35614E+00    7.62256E+01
 1.37334E+00    7.83391E+01
 1.38857E+00    8.01885E+01
 1.41562E+00    8.34248E+01
 1.43626E+00    8.58521E+01
 1.45194E+00    8.76726E+01
 1.47577E+00    9.04032E+01
 1.50000E+00    9.31339E+01
 1.50975E+00    9.41456E+01
 1.54821E+00    9.66523E+01
 1.57198E+00    9.80033E+01
 1.61446E+00    1.00367E+02
 1.64707E+00    1.02141E+02
 1.69722E+00    1.04800E+02
 1.74890E+00    1.07460E+02
 1.75000E+00    1.07473E+02
 1.79060E+00    1.07859E+02
 1.85381E+00    1.09379E+02
 1.91925E+00    1.10899E+02
 1.95233E+00    1.10998E+02
 2.00000E+00    1.10934E+02
 2.00123E+00    1.10936E+02
 2.00194E+00    1.10856E+02
 2.03695E+00    1.10449E+02
 2.05338E+00    1.09983E+02
 2.07510E+00    1.09072E+02
 2.15122E+00    1.07437E+02
 2.23013E+00    1.05802E+02
 2.25174E+00    1.05596E+02
 2.28391E+00    1.05178E+02
 2.35341E+00    1.04471E+02
 2.38770E+00    1.03679E+02
 2.45872E+00    1.02327E+02
 2.46420E+00    1.02264E+02
 2.46552E+00    1.02164E+02
 2.52674E+00    1.00672E+02
 2.58155E+00    9.93663E+01
 2.63048E+00    9.82240E+01
 2.71836E+00    9.62248E+01
 2.78619E+00    9.47254E+01
 2.83817E+00    9.36009E+01
 2.91796E+00    9.19141E+01
 3.00000E+00    9.02273E+01
 3.05443E+00    8.86716E+01
 3.10635E+00    8.72132E+01
 3.15583E+00    8.58458E+01
 3.20293E+00    8.45640E+01
 3.24773E+00    8.33623E+01
 3.33342E+00    8.11090E+01
 3.41025E+00    7.91374E+01
 3.47893E+00    7.74123E+01
 3.54015E+00    7.59028E+01
 3.59461E+00    7.45820E+01
 3.64295E+00    7.34263E+01
 3.72911E+00    7.14038E+01
 3.79506E+00    6.98869E+01
 3.84529E+00    6.87493E+01
 3.92188E+00    6.70428E+01
 4.00000E+00    6.53363E+01
 4.05618E+00    6.40963E+01
 4.10956E+00    6.29338E+01
 4.16024E+00    6.18439E+01
 4.25696E+00    5.98005E+01
 4.34344E+00    5.80124E+01
 4.42055E+00    5.64479E+01
 4.48913E+00    5.50789E+01
 4.55002E+00    5.38811E+01
 4.60398E+00    5.28330E+01
 4.69994E+00    5.09988E+01
 4.77322E+00    4.96231E+01
 4.82893E+00    4.85914E+01
 4.91372E+00    4.70438E+01
 5.00000E+00    4.54962E+01
 5.11526E+00    4.40543E+01
 5.21829E+00    4.27926E+01
 5.31014E+00    4.16886E+01
 5.39184E+00    4.07226E+01
 5.46435E+00    3.98774E+01
 5.52860E+00    3.91378E+01
 5.64286E+00    3.78435E+01
 5.73010E+00    3.68728E+01
 5.79641E+00    3.61448E+01
 5.89733E+00    3.50527E+01
 6.00000E+00    3.39607E+01
 6.11673E+00    3.31080E+01
 6.22074E+00    3.23619E+01
 6.31319E+00    3.17091E+01
 6.39521E+00    3.11379E+01
 6.54133E+00    3.01382E+01
 6.65310E+00    2.93885E+01
 6.73818E+00    2.88262E+01
 6.86784E+00    2.79828E+01
 7.00000E+00    2.71393E+01
 7.11782E+00    2.65611E+01
 7.22254E+00    2.60551E+01
 7.31543E+00    2.56124E+01
 7.48088E+00    2.48376E+01
 7.60741E+00    2.42566E+01
 7.70371E+00    2.38208E+01
 7.85046E+00    2.31671E+01
 8.00000E+00    2.25134E+01
 8.11865E+00    2.21263E+01
 8.22392E+00    2.17876E+01
 8.41143E+00    2.11949E+01
 8.55486E+00    2.07504E+01
 8.66404E+00    2.04170E+01
 8.83042E+00    1.99169E+01
 9.00000E+00    1.94168E+01
 9.24021E+00    1.89238E+01
 9.42457E+00    1.85541E+01
 9.56524E+00    1.82768E+01
 9.78021E+00    1.78608E+01
 1.00000E+01    1.74449E+01
 1.02411E+01    1.70923E+01
 1.04258E+01    1.68279E+01
 1.07091E+01    1.64312E+01
 1.10000E+01    1.60346E+01
 1.12419E+01    1.57246E+01
 1.14268E+01    1.54921E+01
 1.17099E+01    1.51433E+01
 1.20000E+01    1.47946E+01
 1.22425E+01    1.44920E+01
 1.24277E+01    1.42650E+01
 1.27106E+01    1.39245E+01
 1.30000E+01    1.35840E+01
 1.32431E+01    1.32969E+01
 1.34284E+01    1.30815E+01
 1.37112E+01    1.27585E+01
 1.40000E+01    1.24355E+01
 1.42478E+01    1.21691E+01
 1.45000E+01    1.19028E+01
 1.47479E+01    1.16517E+01
 1.50000E+01    1.14005E+01
 1.52440E+01    1.11729E+01
 1.56174E+01    1.08316E+01
 1.60000E+01    1.04902E+01
 1.62443E+01    1.02898E+01
 1.66179E+01    9.98911E+00
 1.70000E+01    9.68846E+00
 1.72447E+01    9.51197E+00
 1.76183E+01    9.24725E+00
 1.80000E+01    8.98252E+00
 1.82450E+01    8.82739E+00
 1.86187E+01    8.59470E+00
 1.90000E+01    8.36201E+00
 1.92452E+01    8.22611E+00
 1.96190E+01    8.02225E+00
 2.00000E+01    7.81840E+00
