# n + Cm243 : (n,n'21)  
# tendl.2019 A.J. Koning and D. Rochman        EVAL-NOV19
# uncertainties: n
# # energies =    75
#   E(MeV)       xs(mb) 
 9.77038E-01    0.00000E+00
 1.00000E+00    4.30753E+00
 1.01921E+00    5.32945E+00
 1.02725E+00    5.75716E+00
 1.05034E+00    6.98549E+00
 1.14071E+00    1.17929E+01
 1.20000E+00    1.49470E+01
 1.22205E+00    1.52055E+01
 1.22707E+00    1.52643E+01
 1.36464E+00    1.68772E+01
 1.37267E+00    1.69713E+01
 1.40000E+00    1.72917E+01
 1.60000E+00    1.59388E+01
 1.80000E+00    1.34064E+01
 1.90788E+00    1.19454E+01
 2.00000E+00    1.06978E+01
 2.20000E+00    8.05694E+00
 2.40000E+00    5.84988E+00
 2.60000E+00    4.14327E+00
 2.80000E+00    2.87491E+00
 3.00000E+00    1.95854E+00
 3.20000E+00    1.32894E+00
 3.40000E+00    8.79162E-01
 3.60000E+00    5.75454E-01
 3.80000E+00    3.74009E-01
 4.00000E+00    2.44600E-01
 4.20000E+00    1.57796E-01
 4.40000E+00    1.01638E-01
 4.60000E+00    6.54631E-02
 4.80000E+00    4.23596E-02
 5.00000E+00    2.80474E-02
 5.20000E+00    1.92507E-02
 5.40000E+00    1.36291E-02
 5.60000E+00    9.62758E-03
 5.80000E+00    6.83602E-03
 6.00000E+00    4.83303E-03
 6.20000E+00    3.41505E-03
 6.40000E+00    2.43388E-03
 6.60000E+00    1.74421E-03
 6.80000E+00    1.25194E-03
 7.00000E+00    9.04402E-04
 7.20000E+00    6.51021E-04
 7.40000E+00    4.70001E-04
 7.60000E+00    3.38406E-04
 7.80000E+00    2.42900E-04
 8.00000E+00    1.74278E-04
 8.50000E+00    7.59128E-05
 9.00000E+00    3.31435E-05
 9.50000E+00    1.46492E-05
 1.00000E+01    6.57757E-06
 1.05000E+01    3.00386E-06
 1.10000E+01    1.39483E-06
 1.15000E+01    6.58480E-07
 1.20000E+01    3.15850E-07
 1.25000E+01    1.53900E-07
 1.30000E+01    7.61190E-08
 1.35000E+01    3.81960E-08
 1.40000E+01    1.94330E-08
 1.45000E+01    1.00220E-08
 1.50000E+01    5.23410E-09
 1.60000E+01    1.47530E-09
 1.70000E+01    4.38110E-10
 1.80000E+01    1.36460E-10
 1.90000E+01    4.44510E-11
 2.00000E+01    1.51670E-11
 2.10000E+01    5.41660E-12
 2.20000E+01    2.02480E-12
 2.30000E+01    7.94220E-13
 2.40000E+01    3.27150E-13
 2.50000E+01    1.41900E-13
 2.60000E+01    6.46190E-14
 2.70000E+01    3.09200E-14
 2.80000E+01    1.55060E-14
 2.90000E+01    8.14520E-15
 3.00000E+01    4.48440E-15
