# n + Cm243 : (n,n'22)  
# tendl.2019 A.J. Koning and D. Rochman        EVAL-NOV19
# uncertainties: n
# # energies =    73
#   E(MeV)       xs(mb) 
 1.01921E+00    0.00000E+00
 1.02725E+00    1.99948E-01
 1.05034E+00    7.74171E-01
 1.14071E+00    3.02157E+00
 1.20000E+00    4.49605E+00
 1.22205E+00    4.76305E+00
 1.22707E+00    4.82384E+00
 1.36464E+00    6.48965E+00
 1.37267E+00    6.58689E+00
 1.40000E+00    6.91782E+00
 1.60000E+00    7.40183E+00
 1.80000E+00    6.86604E+00
 1.90788E+00    6.34112E+00
 2.00000E+00    5.89288E+00
 2.20000E+00    4.71154E+00
 2.40000E+00    3.59911E+00
 2.60000E+00    2.66289E+00
 2.80000E+00    1.91910E+00
 3.00000E+00    1.35177E+00
 3.20000E+00    9.47846E-01
 3.40000E+00    6.44357E-01
 3.60000E+00    4.32401E-01
 3.80000E+00    2.87450E-01
 4.00000E+00    1.91727E-01
 4.20000E+00    1.26602E-01
 4.40000E+00    8.29859E-02
 4.60000E+00    5.43494E-02
 4.80000E+00    3.57110E-02
 5.00000E+00    2.39851E-02
 5.20000E+00    1.66877E-02
 5.40000E+00    1.19713E-02
 5.60000E+00    8.56458E-03
 5.80000E+00    6.15572E-03
 6.00000E+00    4.40296E-03
 6.20000E+00    3.14621E-03
 6.40000E+00    2.26679E-03
 6.60000E+00    1.64158E-03
 6.80000E+00    1.19041E-03
 7.00000E+00    8.68642E-04
 7.20000E+00    6.31289E-04
 7.40000E+00    4.60054E-04
 7.60000E+00    3.34233E-04
 7.80000E+00    2.41983E-04
 8.00000E+00    1.75063E-04
 8.50000E+00    7.77249E-05
 9.00000E+00    3.45181E-05
 9.50000E+00    1.54924E-05
 1.00000E+01    7.05378E-06
 1.05000E+01    3.26286E-06
 1.10000E+01    1.53321E-06
 1.15000E+01    7.31880E-07
 1.20000E+01    3.54720E-07
 1.25000E+01    1.74510E-07
 1.30000E+01    8.70990E-08
 1.35000E+01    4.40750E-08
 1.40000E+01    2.26010E-08
 1.45000E+01    1.17420E-08
 1.50000E+01    6.17450E-09
 1.60000E+01    1.76220E-09
 1.70000E+01    5.29140E-10
 1.80000E+01    1.66450E-10
 1.90000E+01    5.47070E-11
 2.00000E+01    1.88180E-11
 2.10000E+01    6.76980E-12
 2.20000E+01    2.54750E-12
 2.30000E+01    1.00530E-12
 2.40000E+01    4.16330E-13
 2.50000E+01    1.81480E-13
 2.60000E+01    8.30160E-14
 2.70000E+01    3.98910E-14
 2.80000E+01    2.00830E-14
 2.90000E+01    1.05880E-14
 3.00000E+01    5.84930E-15
