# n + Cm243 : (n,n'20)  
# tendl.2019 A.J. Koning and D. Rochman        EVAL-NOV19
# uncertainties: n
# # energies =    76
#   E(MeV)       xs(mb) 
 9.33859E-01    0.00000E+00
 9.77038E-01    6.43069E+00
 1.00000E+00    9.85044E+00
 1.01921E+00    1.07105E+01
 1.02725E+00    1.10705E+01
 1.05034E+00    1.21043E+01
 1.14071E+00    1.61504E+01
 1.20000E+00    1.88050E+01
 1.22205E+00    1.89019E+01
 1.22707E+00    1.89240E+01
 1.36464E+00    1.95286E+01
 1.37267E+00    1.95639E+01
 1.40000E+00    1.96840E+01
 1.60000E+00    1.73426E+01
 1.80000E+00    1.41485E+01
 1.90788E+00    1.24348E+01
 2.00000E+00    1.09715E+01
 2.20000E+00    8.01685E+00
 2.40000E+00    5.64808E+00
 2.60000E+00    3.89240E+00
 2.80000E+00    2.63935E+00
 3.00000E+00    1.76520E+00
 3.20000E+00    1.17847E+00
 3.40000E+00    7.70735E-01
 3.60000E+00    5.00002E-01
 3.80000E+00    3.23151E-01
 4.00000E+00    2.09717E-01
 4.20000E+00    1.34473E-01
 4.40000E+00    8.62307E-02
 4.60000E+00    5.53407E-02
 4.80000E+00    3.57148E-02
 5.00000E+00    2.36046E-02
 5.20000E+00    1.61848E-02
 5.40000E+00    1.14537E-02
 5.60000E+00    8.09271E-03
 5.80000E+00    5.75114E-03
 6.00000E+00    4.07139E-03
 6.20000E+00    2.88162E-03
 6.40000E+00    2.05736E-03
 6.60000E+00    1.47710E-03
 6.80000E+00    1.06193E-03
 7.00000E+00    7.68267E-04
 7.20000E+00    5.53620E-04
 7.40000E+00    3.99974E-04
 7.60000E+00    2.88113E-04
 7.80000E+00    2.06811E-04
 8.00000E+00    1.48346E-04
 8.50000E+00    6.44957E-05
 9.00000E+00    2.80705E-05
 9.50000E+00    1.23592E-05
 1.00000E+01    5.52629E-06
 1.05000E+01    2.51322E-06
 1.10000E+01    1.16229E-06
 1.15000E+01    5.46630E-07
 1.20000E+01    2.61290E-07
 1.25000E+01    1.26910E-07
 1.30000E+01    6.25950E-08
 1.35000E+01    3.13320E-08
 1.40000E+01    1.59060E-08
 1.45000E+01    8.18710E-09
 1.50000E+01    4.26800E-09
 1.60000E+01    1.19890E-09
 1.70000E+01    3.54870E-10
 1.80000E+01    1.10190E-10
 1.90000E+01    3.57920E-11
 2.00000E+01    1.21810E-11
 2.10000E+01    4.34040E-12
 2.20000E+01    1.61920E-12
 2.30000E+01    6.33900E-13
 2.40000E+01    2.60650E-13
 2.50000E+01    1.12880E-13
 2.60000E+01    5.13260E-14
 2.70000E+01    2.45260E-14
 2.80000E+01    1.22830E-14
 2.90000E+01    6.44450E-15
 3.00000E+01    3.54400E-15
