# n + Cm243 : (n,n'18)  
# tendl.2019 A.J. Koning and D. Rochman        EVAL-NOV19
# uncertainties: n
# # energies =    79
#   E(MeV)       xs(mb) 
 8.95702E-01    0.00000E+00
 9.00000E-01    1.74864E+00
 9.07751E-01    2.37328E+00
 9.33859E-01    4.47728E+00
 9.77038E-01    7.95700E+00
 1.00000E+00    9.80747E+00
 1.01921E+00    1.04217E+01
 1.02725E+00    1.06788E+01
 1.05034E+00    1.14171E+01
 1.14071E+00    1.43068E+01
 1.20000E+00    1.62026E+01
 1.22205E+00    1.62314E+01
 1.22707E+00    1.62379E+01
 1.36464E+00    1.64175E+01
 1.37267E+00    1.64280E+01
 1.40000E+00    1.64637E+01
 1.60000E+00    1.43951E+01
 1.80000E+00    1.18069E+01
 1.90788E+00    1.04384E+01
 2.00000E+00    9.26989E+00
 2.20000E+00    6.87004E+00
 2.40000E+00    4.89933E+00
 2.60000E+00    3.40428E+00
 2.80000E+00    2.31713E+00
 3.00000E+00    1.54956E+00
 3.20000E+00    1.03183E+00
 3.40000E+00    6.71732E-01
 3.60000E+00    4.33251E-01
 3.80000E+00    2.78761E-01
 4.00000E+00    1.79556E-01
 4.20000E+00    1.14392E-01
 4.40000E+00    7.28962E-02
 4.60000E+00    4.64878E-02
 4.80000E+00    2.98078E-02
 5.00000E+00    1.95667E-02
 5.20000E+00    1.33195E-02
 5.40000E+00    9.35414E-03
 5.60000E+00    6.55571E-03
 5.80000E+00    4.61996E-03
 6.00000E+00    3.24290E-03
 6.20000E+00    2.27566E-03
 6.40000E+00    1.61100E-03
 6.60000E+00    1.14728E-03
 6.80000E+00    8.18357E-04
 7.00000E+00    5.87712E-04
 7.20000E+00    4.20615E-04
 7.40000E+00    3.01957E-04
 7.60000E+00    2.16274E-04
 7.80000E+00    1.54444E-04
 8.00000E+00    1.10273E-04
 8.50000E+00    4.74931E-05
 9.00000E+00    2.05274E-05
 9.50000E+00    8.99136E-06
 1.00000E+01    4.00440E-06
 1.05000E+01    1.81526E-06
 1.10000E+01    8.37230E-07
 1.15000E+01    3.92800E-07
 1.20000E+01    1.87350E-07
 1.25000E+01    9.08040E-08
 1.30000E+01    4.46960E-08
 1.35000E+01    2.23280E-08
 1.40000E+01    1.13130E-08
 1.45000E+01    5.81170E-09
 1.50000E+01    3.02420E-09
 1.60000E+01    8.46790E-10
 1.70000E+01    2.50010E-10
 1.80000E+01    7.74600E-11
 1.90000E+01    2.51140E-11
 2.00000E+01    8.53210E-12
 2.10000E+01    3.03510E-12
 2.20000E+01    1.13050E-12
 2.30000E+01    4.41980E-13
 2.40000E+01    1.81510E-13
 2.50000E+01    7.85210E-14
 2.60000E+01    3.56660E-14
 2.70000E+01    1.70260E-14
 2.80000E+01    8.51970E-15
 2.90000E+01    4.46600E-15
 3.00000E+01    2.45410E-15
