# n + Cm243 : (n,n'23)  
# tendl.2019 A.J. Koning and D. Rochman        EVAL-NOV19
# uncertainties: n
# # energies =    72
#   E(MeV)       xs(mb) 
 1.02725E+00    0.00000E+00
 1.05034E+00    4.90945E-04
 1.14071E+00    2.41241E-03
 1.20000E+00    3.67305E-03
 1.22205E+00    5.41303E-03
 1.22707E+00    5.80916E-03
 1.36464E+00    1.66649E-02
 1.37267E+00    1.72986E-02
 1.40000E+00    1.94552E-02
 1.60000E+00    4.84290E-02
 1.80000E+00    8.70529E-02
 1.90788E+00    1.07935E-01
 2.00000E+00    1.25766E-01
 2.20000E+00    1.51135E-01
 2.40000E+00    1.58707E-01
 2.60000E+00    1.50913E-01
 2.80000E+00    1.33078E-01
 3.00000E+00    1.10722E-01
 3.20000E+00    8.96389E-02
 3.40000E+00    6.88898E-02
 3.60000E+00    5.15689E-02
 3.80000E+00    3.78524E-02
 4.00000E+00    2.76907E-02
 4.20000E+00    1.99092E-02
 4.40000E+00    1.40973E-02
 4.60000E+00    9.92429E-03
 4.80000E+00    6.98044E-03
 5.00000E+00    5.00256E-03
 5.20000E+00    3.70671E-03
 5.40000E+00    2.82880E-03
 5.60000E+00    2.14907E-03
 5.80000E+00    1.63767E-03
 6.00000E+00    1.23888E-03
 6.20000E+00    9.34190E-04
 6.40000E+00    7.08633E-04
 6.60000E+00    5.39004E-04
 6.80000E+00    4.09476E-04
 7.00000E+00    3.12297E-04
 7.20000E+00    2.36571E-04
 7.40000E+00    1.79260E-04
 7.60000E+00    1.35081E-04
 7.80000E+00    1.01179E-04
 8.00000E+00    7.55631E-05
 8.50000E+00    3.60110E-05
 9.00000E+00    1.69927E-05
 9.50000E+00    8.04252E-06
 1.00000E+01    3.83999E-06
 1.05000E+01    1.85483E-06
 1.10000E+01    9.07110E-07
 1.15000E+01    4.49430E-07
 1.20000E+01    2.25530E-07
 1.25000E+01    1.14640E-07
 1.30000E+01    5.89930E-08
 1.35000E+01    3.07240E-08
 1.40000E+01    1.61880E-08
 1.45000E+01    8.62840E-09
 1.50000E+01    4.64810E-09
 1.60000E+01    1.38660E-09
 1.70000E+01    4.33140E-10
 1.80000E+01    1.41170E-10
 1.90000E+01    4.79200E-11
 2.00000E+01    1.69770E-11
 2.10000E+01    6.27470E-12
 2.20000E+01    2.42030E-12
 2.30000E+01    9.76810E-13
 2.40000E+01    4.12940E-13
 2.50000E+01    1.83420E-13
 2.60000E+01    8.53670E-14
 2.70000E+01    4.16850E-14
 2.80000E+01    2.13040E-14
 2.90000E+01    1.13900E-14
 3.00000E+01    6.37510E-15
