# n + Sr 87 : (n,n'09)  
# jendl4.0   K.Shibata, A.Ichihara, S.Kunieda  EVAL-AUG09
# uncertainties: n
# # energies =    28
#   E(MeV)       xs(mb) 
 2.13455E+00    0.00000E+00
 2.50000E+00    1.04100E+01
 3.00000E+00    1.30200E+01
 3.50000E+00    1.12800E+01
 4.00000E+00    9.01400E+00
 4.50000E+00    5.93700E+00
 5.00000E+00    3.78000E+00
 5.50000E+00    2.29400E+00
 6.00000E+00    1.53400E+00
 6.50000E+00    1.03800E+00
 7.00000E+00    8.45700E-01
 7.50000E+00    6.61300E-01
 8.00000E+00    6.35600E-01
 8.50000E+00    5.39000E-01
 9.00000E+00    5.58700E-01
 9.50000E+00    4.86100E-01
 1.00000E+01    4.22300E-01
 1.10000E+01    3.98000E-01
 1.20000E+01    3.74400E-01
 1.30000E+01    3.51000E-01
 1.40000E+01    3.28000E-01
 1.45000E+01    3.51300E-01
 1.50000E+01    3.05800E-01
 1.60000E+01    2.85000E-01
 1.70000E+01    2.66000E-01
 1.80000E+01    2.48900E-01
 1.90000E+01    2.33500E-01
 2.00000E+01    2.19400E-01
