# n + Sr 87 : (n,el)    
# jendl4.0   K.Shibata, A.Ichihara, S.Kunieda  EVAL-AUG09
# uncertainties: n
# # energies =   171
#   E(MeV)       xs(mb) 
 1.00000E-11    1.26430E+04
 1.00000E-07    6.88188E+03
 4.13990E-07    6.84898E+03
 5.31580E-07    6.83178E+03
 6.82560E-07    6.80784E+03
 8.76420E-07    6.77395E+03
 1.12540E-06    6.72226E+03
 1.44500E-06    6.63824E+03
 1.85540E-06    6.48074E+03
 2.37240E-06    6.03242E+03
 3.05900E-06    7.87375E+03
 3.92790E-06    8.10725E+03
 5.04350E-06    7.38096E+03
 6.47600E-06    7.15531E+03
 8.31530E-06    7.02045E+03
 1.06770E-05    6.91311E+03
 1.37100E-05    6.81244E+03
 1.76030E-05    6.71137E+03
 2.26030E-05    6.60921E+03
 2.92030E-05    6.50129E+03
 3.72670E-05    6.39686E+03
 4.78510E-05    6.29004E+03
 6.14420E-05    6.18311E+03
 7.88930E-05    6.08070E+03
 1.01300E-04    5.98359E+03
 1.30070E-04    5.89176E+03
 1.67020E-04    5.80068E+03
 2.14450E-04    5.70569E+03
 2.75360E-04    5.62210E+03
 3.53580E-04    5.47802E+03
 4.54000E-04    5.17801E+03
 5.82950E-04    2.03828E+04
 7.48520E-04    6.17299E+03
 9.61120E-04    5.15352E+03
 1.23410E-03    2.33537E+04
 1.58460E-03    6.19295E+03
 2.03470E-03    7.80668E+03
 2.24870E-03    6.78474E+03
 2.48520E-03    5.90182E+03
 2.61260E-03    5.47486E+03
 2.74650E-03    6.96365E+03
 3.03540E-03    5.55727E+03
 3.35460E-03    6.70214E+03
 3.70740E-03    8.49581E+03
 4.30740E-03    1.05638E+04
 5.53080E-03    1.23300E+04
 7.10170E-03    9.43511E+03
 9.11880E-03    9.16531E+03
 1.17090E-02    9.22586E+03
 1.50340E-02    9.44996E+03
 1.93050E-02    9.23418E+03
 2.18750E-02    9.17391E+03
 2.35790E-02    9.14380E+03
 2.41760E-02    9.12812E+03
 2.47880E-02    9.10380E+03
 2.60580E-02    9.07503E+03
 2.70000E-02    9.04345E+03
 2.85000E-02    8.98771E+03
 3.18280E-02    8.94531E+03
 3.43070E-02    8.88803E+03
 4.08680E-02    8.82859E+03
 4.63090E-02    8.78615E+03
 5.24750E-02    8.75787E+03
 5.65620E-02    8.72596E+03
 6.73790E-02    8.69954E+03
 7.20000E-02    8.68333E+03
 7.95000E-02    8.67005E+03
 8.25000E-02    8.66272E+03
 8.65170E-02    8.64705E+03
 9.80370E-02    8.62149E+03
 1.11090E-01    8.60007E+03
 1.16790E-01    8.58687E+03
 1.22770E-01    8.57298E+03
 1.29070E-01    8.55838E+03
 1.35690E-01    8.54303E+03
 1.42640E-01    8.52690E+03
 1.49960E-01    8.50994E+03
 1.57640E-01    8.49211E+03
 1.65730E-01    8.47336E+03
 1.74220E-01    8.45365E+03
 1.83160E-01    8.43293E+03
 1.92550E-01    8.41082E+03
 2.02420E-01    8.37965E+03
 2.12800E-01    8.34348E+03
 2.23710E-01    8.30545E+03
 2.35180E-01    8.26547E+03
 2.47240E-01    8.20135E+03
 2.73240E-01    8.13282E+03
 2.87250E-01    8.09650E+03
 2.94520E-01    8.07955E+03
 2.97200E-01    8.07278E+03
 2.98500E-01    8.06437E+03
 3.01970E-01    7.99568E+03
 3.33730E-01    7.86311E+03
 3.68830E-01    7.75509E+03
 3.87740E-01    7.67755E+03
 4.07620E-01    7.54981E+03
 4.50490E-01    7.36424E+03
 4.97870E-01    7.21437E+03
 5.23400E-01    7.10999E+03
 5.50230E-01    7.00028E+03
 5.78440E-01    6.88520E+03
 6.08100E-01    6.76963E+03
 6.39280E-01    6.65025E+03
 6.72060E-01    6.52494E+03
 7.06510E-01    6.39975E+03
 7.42740E-01    6.27153E+03
 7.80820E-01    6.13851E+03
 8.20850E-01    6.00884E+03
 8.62940E-01    5.87260E+03
 9.07180E-01    5.72111E+03
 9.61640E-01    5.57960E+03
 1.00260E+00    5.41658E+03
 1.10800E+00    5.25202E+03
 1.16480E+00    5.13468E+03
 1.22460E+00    5.00419E+03
 1.28730E+00    4.83275E+03
 1.35340E+00    4.64812E+03
 1.42270E+00    4.45410E+03
 1.49570E+00    4.30623E+03
 1.57240E+00    4.22219E+03
 1.65300E+00    4.13410E+03
 1.73770E+00    4.01288E+03
 1.82680E+00    3.79904E+03
 1.92050E+00    3.55360E+03
 2.01900E+00    3.40597E+03
 2.12250E+00    3.31521E+03
 2.23130E+00    3.18699E+03
 2.30690E+00    3.08724E+03
 2.34570E+00    3.03536E+03
 2.36530E+00    3.00031E+03
 2.38520E+00    2.91079E+03
 2.46600E+00    2.76833E+03
 2.59240E+00    2.66094E+03
 2.72530E+00    2.46032E+03
 2.86500E+00    2.24559E+03
 3.01190E+00    2.11879E+03
 3.16640E+00    2.05996E+03
 3.32870E+00    1.97713E+03
 3.67880E+00    1.92581E+03
 4.06570E+00    1.92303E+03
 4.49330E+00    1.94739E+03
 4.72370E+00    1.97841E+03
 4.96590E+00    2.01181E+03
 5.22050E+00    2.05038E+03
 5.48810E+00    2.09134E+03
 5.76950E+00    2.13441E+03
 6.06530E+00    2.17773E+03
 6.37630E+00    2.21204E+03
 6.59240E+00    2.23286E+03
 6.70320E+00    2.25764E+03
 7.04690E+00    2.29257E+03
 7.40820E+00    2.32220E+03
 7.78800E+00    2.34564E+03
 8.18730E+00    2.36275E+03
 8.60710E+00    2.37163E+03
 9.04840E+00    2.36938E+03
 9.51230E+00    2.35973E+03
 1.00000E+01    2.33806E+03
 1.05130E+01    2.30888E+03
 1.10520E+01    2.26967E+03
 1.16180E+01    2.22172E+03
 1.22140E+01    2.16426E+03
 1.28400E+01    2.10035E+03
 1.34990E+01    2.04782E+03
 1.38400E+01    2.01143E+03
 1.41910E+01    1.97364E+03
 1.45500E+01    1.93444E+03
 1.49180E+01    1.87431E+03
 1.56830E+01    1.79258E+03
 1.64870E+01    1.70958E+03
