# n + Sm150 : (n,n'13)  
# jendl4.0   N.Iwamoto,A.Zukeran               EVAL-Nov09
# uncertainties: n
# # energies =    71
#   E(MeV)       xs(mb) 
 1.51457E+00    0.00000E+00
 1.60000E+00    7.71708E+01
 1.65357E+00    8.98645E+01
 1.66945E+00    9.27751E+01
 1.68395E+00    9.45464E+01
 1.68396E+00    9.45476E+01
 1.69533E+00    9.58554E+01
 1.70000E+00    9.59837E+01
 1.72467E+00    9.88577E+01
 1.77140E+00    1.04162E+02
 1.77656E+00    1.04130E+02
 1.78523E+00    1.04630E+02
 1.79862E+00    1.05542E+02
 1.80000E+00    1.04908E+02
 1.80607E+00    1.04562E+02
 1.83157E+00    1.03216E+02
 1.83398E+00    1.03133E+02
 1.83454E+00    1.03060E+02
 1.84562E+00    1.02604E+02
 1.84923E+00    1.01734E+02
 1.89597E+00    1.02101E+02
 1.90000E+00    1.01435E+02
 1.94027E+00    1.01418E+02
 1.96369E+00    1.00404E+02
 1.97687E+00    1.00092E+02
 1.98359E+00    9.99139E+01
 1.99262E+00    9.96565E+01
 2.00000E+00    9.94587E+01
 2.01899E+00    9.94518E+01
 2.03384E+00    9.85315E+01
 2.03815E+00    9.84117E+01
 2.04891E+00    9.80782E+01
 2.05785E+00    9.80073E+01
 2.25000E+00    9.53475E+01
 2.50000E+00    7.90300E+01
 2.75000E+00    6.29518E+01
 3.00000E+00    4.67659E+01
 3.50000E+00    2.42554E+01
 4.00000E+00    1.24107E+01
 4.50000E+00    6.73232E+00
 5.00000E+00    4.10367E+00
 5.50000E+00    2.87427E+00
 6.00000E+00    2.26781E+00
 6.50000E+00    1.93638E+00
 7.00000E+00    1.72833E+00
 7.50000E+00    1.57678E+00
 8.00000E+00    1.45191E+00
 8.50000E+00    1.34097E+00
 9.00000E+00    1.23926E+00
 9.50000E+00    1.14549E+00
 1.00000E+01    1.06017E+00
 1.05000E+01    9.83726E-01
 1.10000E+01    9.15633E-01
 1.15000E+01    8.55255E-01
 1.20000E+01    8.01670E-01
 1.25000E+01    7.53855E-01
 1.30000E+01    7.10863E-01
 1.35000E+01    6.71855E-01
 1.40000E+01    6.36161E-01
 1.45000E+01    6.03247E-01
 1.50000E+01    5.72720E-01
 1.55000E+01    5.43905E-01
 1.60000E+01    5.18845E-01
 1.65000E+01    4.94200E-01
 1.70000E+01    4.69092E-01
 1.75000E+01    4.46188E-01
 1.80000E+01    4.26091E-01
 1.85000E+01    4.07883E-01
 1.90000E+01    3.89969E-01
 1.95000E+01    3.72031E-01
 2.00000E+01    3.54826E-01
