# n + Sm150 : (n,el)    
# jendl4.0   N.Iwamoto,A.Zukeran               EVAL-Nov09
# uncertainties: n
# # energies =   171
#   E(MeV)       xs(mb) 
 1.00000E-11    1.26215E+04
 1.00000E-07    7.66715E+03
 4.13990E-07    7.27846E+03
 5.31580E-07    7.09331E+03
 6.82560E-07    6.87374E+03
 8.76420E-07    6.61757E+03
 1.12540E-06    6.32476E+03
 1.44500E-06    5.99710E+03
 1.85540E-06    5.63878E+03
 2.37240E-06    5.24762E+03
 3.05900E-06    4.82919E+03
 3.92790E-06    4.38755E+03
 5.04350E-06    3.91426E+03
 6.47600E-06    3.38242E+03
 8.31530E-06    2.73013E+03
 1.06770E-05    1.81889E+03
 1.37100E-05    4.75613E+02
 1.76030E-05    7.98228E+05
 2.26030E-05    1.83153E+04
 2.92030E-05    7.87860E+03
 3.72670E-05    5.17949E+03
 4.78510E-05    2.46263E+04
 6.14420E-05    5.59354E+03
 7.88930E-05    4.70375E+03
 1.01300E-04    8.10790E+03
 1.30070E-04    4.17212E+03
 1.67020E-04    2.51286E+03
 2.14450E-04    1.54294E+05
 2.75360E-04    5.29392E+04
 3.53580E-04    1.40734E+05
 4.54000E-04    7.10211E+04
 5.82950E-04    3.97332E+04
 7.48520E-04    5.94647E+04
 9.61120E-04    4.18395E+04
 1.23410E-03    5.47112E+04
 1.58460E-03    5.76204E+04
 2.03470E-03    5.31173E+04
 2.24870E-03    5.07182E+04
 2.48520E-03    4.89865E+04
 2.61260E-03    4.78680E+04
 2.74650E-03    4.62398E+04
 3.03540E-03    4.41513E+04
 3.35460E-03    4.21566E+04
 3.70740E-03    3.98001E+04
 4.30740E-03    3.63508E+04
 5.53080E-03    3.24496E+04
 7.10170E-03    2.89852E+04
 9.11880E-03    2.59183E+04
 1.17090E-02    2.32236E+04
 1.50340E-02    2.08131E+04
 1.93050E-02    1.91698E+04
 2.18750E-02    1.83647E+04
 2.35790E-02    1.79756E+04
 2.41760E-02    1.77841E+04
 2.47880E-02    1.75012E+04
 2.60580E-02    1.71846E+04
 2.70000E-02    1.68581E+04
 2.85000E-02    1.62780E+04
 3.18280E-02    1.56500E+04
 3.43070E-02    1.48474E+04
 4.08680E-02    1.39471E+04
 4.63090E-02    1.32494E+04
 5.24750E-02    1.27141E+04
 5.65620E-02    1.20840E+04
 6.73790E-02    1.15131E+04
 7.20000E-02    1.11448E+04
 7.95000E-02    1.08498E+04
 8.25000E-02    1.06708E+04
 8.65170E-02    1.03153E+04
 9.80370E-02    9.83682E+03
 1.11090E-01    9.53603E+03
 1.16790E-01    9.36921E+03
 1.22770E-01    9.20518E+03
 1.29070E-01    9.04332E+03
 1.35690E-01    8.88428E+03
 1.42640E-01    8.72831E+03
 1.49960E-01    8.58059E+03
 1.57640E-01    8.44242E+03
 1.65730E-01    8.33008E+03
 1.74220E-01    8.21629E+03
 1.83160E-01    8.10123E+03
 1.92550E-01    7.99560E+03
 2.02420E-01    7.88573E+03
 2.12800E-01    7.77612E+03
 2.23710E-01    7.67468E+03
 2.35180E-01    7.56859E+03
 2.47240E-01    7.44657E+03
 2.73240E-01    7.35931E+03
 2.87250E-01    7.31347E+03
 2.94520E-01    7.29206E+03
 2.97200E-01    7.28381E+03
 2.98500E-01    7.27529E+03
 3.01970E-01    7.21337E+03
 3.33730E-01    6.96383E+03
 3.68830E-01    6.63031E+03
 3.87740E-01    6.40529E+03
 4.07620E-01    6.27263E+03
 4.50490E-01    6.13483E+03
 4.97870E-01    6.03838E+03
 5.23400E-01    5.97929E+03
 5.50230E-01    5.92432E+03
 5.78440E-01    5.86672E+03
 6.08100E-01    5.82188E+03
 6.39280E-01    5.78468E+03
 6.72060E-01    5.74558E+03
 7.06510E-01    5.70627E+03
 7.42740E-01    5.61545E+03
 7.80820E-01    5.51673E+03
 8.20850E-01    5.47619E+03
 8.62940E-01    5.44099E+03
 9.07180E-01    5.40445E+03
 9.61640E-01    5.37577E+03
 1.00260E+00    5.29474E+03
 1.10800E+00    5.14713E+03
 1.16480E+00    5.03918E+03
 1.22460E+00    4.89862E+03
 1.28730E+00    4.79575E+03
 1.35340E+00    4.72537E+03
 1.42270E+00    4.64708E+03
 1.49570E+00    4.57490E+03
 1.57240E+00    4.50455E+03
 1.65300E+00    4.43063E+03
 1.73770E+00    4.34707E+03
 1.82680E+00    4.25415E+03
 1.92050E+00    4.15694E+03
 2.01900E+00    4.05906E+03
 2.12250E+00    3.96655E+03
 2.23130E+00    3.88634E+03
 2.30690E+00    3.83657E+03
 2.34570E+00    3.81120E+03
 2.36530E+00    3.79406E+03
 2.38520E+00    3.75056E+03
 2.46600E+00    3.66349E+03
 2.59240E+00    3.55753E+03
 2.72530E+00    3.44616E+03
 2.86500E+00    3.33085E+03
 3.01190E+00    3.21532E+03
 3.16640E+00    3.09744E+03
 3.32870E+00    2.92781E+03
 3.67880E+00    2.70429E+03
 4.06570E+00    2.49747E+03
 4.49330E+00    2.35602E+03
 4.72370E+00    2.27167E+03
 4.96590E+00    2.19670E+03
 5.22050E+00    2.13427E+03
 5.48810E+00    2.08170E+03
 5.76950E+00    2.04192E+03
 6.06530E+00    2.01890E+03
 6.37630E+00    2.00744E+03
 6.59240E+00    2.00839E+03
 6.70320E+00    2.01330E+03
 7.04690E+00    2.03441E+03
 7.40820E+00    2.06739E+03
 7.78800E+00    2.11971E+03
 8.18730E+00    2.17537E+03
 8.60710E+00    2.23799E+03
 9.04840E+00    2.31119E+03
 9.51230E+00    2.38814E+03
 1.00000E+01    2.46803E+03
 1.05130E+01    2.54851E+03
 1.10520E+01    2.62652E+03
 1.16180E+01    2.69993E+03
 1.22140E+01    2.76633E+03
 1.28400E+01    2.82330E+03
 1.34990E+01    2.85851E+03
 1.38400E+01    2.87770E+03
 1.41910E+01    2.89304E+03
 1.45500E+01    2.90444E+03
 1.49180E+01    2.91366E+03
 1.56830E+01    2.91114E+03
 1.64870E+01    2.89083E+03
