# n + Sm150 : (n,n'09)  
# jendl4.0   N.Iwamoto,A.Zukeran               EVAL-Nov09
# uncertainties: n
# # energies =    78
#   E(MeV)       xs(mb) 
 1.28736E+00    0.00000E+00
 1.30000E+00    3.45548E-02
 1.36666E+00    3.59706E-01
 1.40000E+00    6.37485E-01
 1.42670E+00    9.76847E-01
 1.45874E+00    1.49522E+00
 1.50000E+00    2.05344E+00
 1.51457E+00    2.34060E+00
 1.60000E+00    4.16635E+00
 1.65357E+00    5.58455E+00
 1.66945E+00    5.70173E+00
 1.68395E+00    6.03176E+00
 1.68396E+00    6.03037E+00
 1.69533E+00    5.98154E+00
 1.70000E+00    6.03907E+00
 1.72467E+00    6.48415E+00
 1.77140E+00    7.52960E+00
 1.77656E+00    7.64538E+00
 1.78523E+00    7.85298E+00
 1.79862E+00    8.15086E+00
 1.80000E+00    8.16136E+00
 1.80607E+00    8.28243E+00
 1.83157E+00    8.86991E+00
 1.83398E+00    8.78757E+00
 1.83454E+00    8.71817E+00
 1.84562E+00    8.65782E+00
 1.84923E+00    8.69180E+00
 1.89597E+00    9.53260E+00
 1.90000E+00    9.61809E+00
 1.94027E+00    1.03910E+01
 1.96369E+00    1.08043E+01
 1.97687E+00    1.10249E+01
 1.98359E+00    1.11413E+01
 1.99262E+00    1.10979E+01
 2.00000E+00    1.11774E+01
 2.01899E+00    1.14351E+01
 2.03384E+00    1.16557E+01
 2.03815E+00    1.16129E+01
 2.04891E+00    1.15216E+01
 2.05785E+00    1.15688E+01
 2.25000E+00    1.41708E+01
 2.50000E+00    1.43547E+01
 2.75000E+00    1.37033E+01
 3.00000E+00    1.24255E+01
 3.50000E+00    8.75057E+00
 4.00000E+00    5.98969E+00
 4.50000E+00    4.25880E+00
 5.00000E+00    3.25684E+00
 5.50000E+00    2.68747E+00
 6.00000E+00    2.36954E+00
 6.50000E+00    2.19500E+00
 7.00000E+00    2.09753E+00
 7.50000E+00    2.03619E+00
 8.00000E+00    1.98419E+00
 8.50000E+00    1.92650E+00
 9.00000E+00    1.85927E+00
 9.50000E+00    1.78278E+00
 1.00000E+01    1.70222E+00
 1.05000E+01    1.62187E+00
 1.10000E+01    1.54554E+00
 1.15000E+01    1.47554E+00
 1.20000E+01    1.41275E+00
 1.25000E+01    1.35716E+00
 1.30000E+01    1.30807E+00
 1.35000E+01    1.26440E+00
 1.40000E+01    1.22487E+00
 1.45000E+01    1.18821E+00
 1.50000E+01    1.15330E+00
 1.55000E+01    1.11926E+00
 1.60000E+01    1.08660E+00
 1.65000E+01    1.05420E+00
 1.70000E+01    1.02219E+00
 1.75000E+01    9.91822E-01
 1.80000E+01    9.63343E-01
 1.85000E+01    9.36341E-01
 1.90000E+01    9.09980E-01
 1.95000E+01    8.83749E-01
 2.00000E+01    8.57656E-01
