# n + Sm150 : (n,n'04)  
# jendl4.0   N.Iwamoto,A.Zukeran               EVAL-Nov09
# uncertainties: n
# # energies =    85
#   E(MeV)       xs(mb) 
 1.05308E+00    0.00000E+00
 1.07847E+00    2.24733E+02
 1.10000E+00    2.68414E+02
 1.17345E+00    3.41599E+02
 1.20000E+00    3.47241E+02
 1.20176E+00    3.47959E+02
 1.26385E+00    3.35695E+02
 1.28736E+00    3.38475E+02
 1.30000E+00    3.40496E+02
 1.36666E+00    3.45899E+02
 1.40000E+00    3.49361E+02
 1.42670E+00    3.52305E+02
 1.45874E+00    3.39995E+02
 1.50000E+00    3.36650E+02
 1.51457E+00    3.36214E+02
 1.60000E+00    3.25973E+02
 1.65357E+00    3.25436E+02
 1.66945E+00    3.24663E+02
 1.68395E+00    3.21450E+02
 1.68396E+00    3.21449E+02
 1.69533E+00    3.18765E+02
 1.70000E+00    3.16961E+02
 1.72467E+00    3.11547E+02
 1.77140E+00    2.98815E+02
 1.77656E+00    2.97113E+02
 1.78523E+00    2.95048E+02
 1.79862E+00    2.92116E+02
 1.80000E+00    2.90678E+02
 1.80607E+00    2.88196E+02
 1.83157E+00    2.75453E+02
 1.83398E+00    2.74590E+02
 1.83454E+00    2.74327E+02
 1.84562E+00    2.70389E+02
 1.84923E+00    2.66901E+02
 1.89597E+00    2.52453E+02
 1.90000E+00    2.49436E+02
 1.94027E+00    2.38610E+02
 1.96369E+00    2.30586E+02
 1.97687E+00    2.27272E+02
 1.98359E+00    2.24920E+02
 1.99262E+00    2.22464E+02
 2.00000E+00    2.19888E+02
 2.01899E+00    2.15454E+02
 2.03384E+00    2.10137E+02
 2.03815E+00    2.09004E+02
 2.04891E+00    2.06317E+02
 2.05785E+00    2.04199E+02
 2.25000E+00    1.65967E+02
 2.50000E+00    1.16013E+02
 2.75000E+00    8.36516E+01
 3.00000E+00    5.65369E+01
 3.50000E+00    2.63478E+01
 4.00000E+00    1.21267E+01
 4.50000E+00    5.79123E+00
 5.00000E+00    3.04629E+00
 5.50000E+00    1.85534E+00
 6.00000E+00    1.32139E+00
 6.50000E+00    1.06208E+00
 7.00000E+00    9.18161E-01
 7.50000E+00    8.22937E-01
 8.00000E+00    7.48916E-01
 8.50000E+00    6.85223E-01
 9.00000E+00    6.28411E-01
 9.50000E+00    5.77342E-01
 1.00000E+01    5.31870E-01
 1.05000E+01    4.91852E-01
 1.10000E+01    4.56697E-01
 1.15000E+01    4.25837E-01
 1.20000E+01    3.98577E-01
 1.25000E+01    3.74297E-01
 1.30000E+01    3.52453E-01
 1.35000E+01    3.32609E-01
 1.40000E+01    3.14450E-01
 1.45000E+01    2.97731E-01
 1.50000E+01    2.82264E-01
 1.55000E+01    2.67857E-01
 1.60000E+01    2.55088E-01
 1.65000E+01    2.42604E-01
 1.70000E+01    2.30041E-01
 1.75000E+01    2.18641E-01
 1.80000E+01    2.08475E-01
 1.85000E+01    1.99321E-01
 1.90000E+01    1.90434E-01
 1.95000E+01    1.81673E-01
 2.00000E+01    1.73121E-01
