# n + Sm150 : (n,h)     
# jendl4.0   N.Iwamoto,A.Zukeran               EVAL-Nov09
# uncertainties: n
# # energies =    57
#   E(MeV)       xs(mb) 
 6.54759E+00    0.00000E+00
 6.85132E+00    8.19280E-31
 7.30485E+00    2.04370E-30
 7.47056E+00    2.49200E-30
 7.55351E+00    2.71630E-30
 7.57760E+00    2.82840E-30
 7.72637E+00    3.61830E-30
 7.79809E+00    4.00040E-30
 7.80480E+00    4.03620E-30
 7.83589E+00    4.20190E-30
 7.95701E+00    4.84780E-30
 7.98923E+00    5.01970E-30
 8.03252E+00    5.36270E-30
 8.06927E+00    5.68750E-30
 8.07339E+00    5.72630E-30
 8.07929E+00    5.78480E-30
 8.13520E+00    6.35450E-30
 8.15836E+00    6.59270E-30
 8.16037E+00    6.61340E-30
 8.20326E+00    7.05790E-30
 8.20424E+00    7.06810E-30
 8.21272E+00    7.15610E-30
 8.21867E+00    7.21800E-30
 8.24232E+00    7.46410E-30
 8.24686E+00    7.51130E-30
 8.28420E+00    7.90040E-30
 8.28822E+00    7.94230E-30
 8.33755E+00    8.45640E-30
 8.36836E+00    8.77760E-30
 8.38427E+00    8.94350E-30
 8.39695E+00    9.07560E-30
 8.41638E+00    9.27820E-30
 8.41870E+00    9.30240E-30
 8.44729E+00    9.60040E-30
 9.00000E+00    1.53620E-29
 9.50000E+00    1.38110E-25
 1.00000E+01    2.17510E-22
 1.05000E+01    6.16130E-20
 1.10000E+01    5.22920E-18
 1.15000E+01    1.82660E-16
 1.20000E+01    3.23860E-15
 1.25000E+01    3.37990E-14
 1.30000E+01    2.33290E-13
 1.35000E+01    1.22340E-12
 1.40000E+01    6.59160E-12
 1.45000E+01    5.04430E-11
 1.50000E+01    4.37650E-10
 1.55000E+01    2.99030E-09
 1.60000E+01    1.72630E-08
 1.65000E+01    8.41140E-08
 1.70000E+01    3.35060E-07
 1.75000E+01    1.05669E-06
 1.80000E+01    3.25361E-06
 1.85000E+01    8.33392E-06
 1.90000E+01    1.97072E-05
 1.95000E+01    4.10736E-05
 2.00000E+01    8.48185E-05
