# n + Sm150 : (n,n'01)  
# jendl4.0   N.Iwamoto,A.Zukeran               EVAL-Nov09
# uncertainties: n
# # energies =    95
#   E(MeV)       xs(mb) 
 3.36109E-01    0.00000E+00
 4.00000E-01    7.06565E+02
 5.00000E-01    1.01900E+03
 6.00000E-01    1.22721E+03
 7.00000E-01    1.37199E+03
 7.45363E-01    1.42680E+03
 7.78440E-01    1.42546E+03
 8.00000E-01    1.43194E+03
 9.00000E-01    1.46724E+03
 1.00000E+00    1.47545E+03
 1.05308E+00    1.46404E+03
 1.07847E+00    1.35231E+03
 1.10000E+00    1.31009E+03
 1.17345E+00    1.24095E+03
 1.20000E+00    1.18762E+03
 1.20176E+00    1.18570E+03
 1.26385E+00    1.06350E+03
 1.28736E+00    1.03082E+03
 1.30000E+00    1.01900E+03
 1.36666E+00    9.67769E+02
 1.40000E+00    9.45010E+02
 1.42670E+00    9.27976E+02
 1.45874E+00    8.80807E+02
 1.50000E+00    8.48856E+02
 1.51457E+00    8.39620E+02
 1.60000E+00    7.74797E+02
 1.65357E+00    7.46609E+02
 1.66945E+00    7.37033E+02
 1.68395E+00    7.24867E+02
 1.68396E+00    7.24860E+02
 1.69533E+00    7.17177E+02
 1.70000E+00    7.12984E+02
 1.72467E+00    6.97840E+02
 1.77140E+00    6.66228E+02
 1.77656E+00    6.62313E+02
 1.78523E+00    6.57063E+02
 1.79862E+00    6.49457E+02
 1.80000E+00    6.47017E+02
 1.80607E+00    6.41916E+02
 1.83157E+00    6.17778E+02
 1.83398E+00    6.15916E+02
 1.83454E+00    6.15360E+02
 1.84562E+00    6.06924E+02
 1.84923E+00    6.01195E+02
 1.89597E+00    5.70914E+02
 1.90000E+00    5.65986E+02
 1.94027E+00    5.43413E+02
 1.96369E+00    5.28309E+02
 1.97687E+00    5.21450E+02
 1.98359E+00    5.17038E+02
 1.99262E+00    5.12105E+02
 2.00000E+00    5.07268E+02
 2.01899E+00    4.98179E+02
 2.03384E+00    4.88903E+02
 2.03815E+00    4.86725E+02
 2.04891E+00    4.81465E+02
 2.05785E+00    4.77594E+02
 2.25000E+00    4.14750E+02
 2.50000E+00    3.44811E+02
 2.75000E+00    3.02228E+02
 3.00000E+00    2.66063E+02
 3.50000E+00    2.27196E+02
 4.00000E+00    2.06034E+02
 4.50000E+00    1.92938E+02
 5.00000E+00    1.83759E+02
 5.50000E+00    1.77039E+02
 6.00000E+00    1.72116E+02
 6.50000E+00    1.68516E+02
 7.00000E+00    1.65524E+02
 7.50000E+00    1.62557E+02
 8.00000E+00    1.59237E+02
 8.50000E+00    1.55398E+02
 9.00000E+00    1.51147E+02
 9.50000E+00    1.46638E+02
 1.00000E+01    1.42088E+02
 1.05000E+01    1.37668E+02
 1.10000E+01    1.33486E+02
 1.15000E+01    1.29584E+02
 1.20000E+01    1.25951E+02
 1.25000E+01    1.22543E+02
 1.30000E+01    1.19308E+02
 1.35000E+01    1.16200E+02
 1.40000E+01    1.13189E+02
 1.45000E+01    1.10263E+02
 1.50000E+01    1.07426E+02
 1.55000E+01    1.04692E+02
 1.60000E+01    1.02082E+02
 1.65000E+01    9.96183E+01
 1.70000E+01    9.73192E+01
 1.75000E+01    9.51957E+01
 1.80000E+01    9.32502E+01
 1.85000E+01    9.14769E+01
 1.90000E+01    8.98633E+01
 1.95000E+01    8.83932E+01
 2.00000E+01    8.70493E+01
