# n + Dy156 : (n,n'09)  
# jeff3.3    A.J. Koning and D. Rochman        EVAL-DEC15
# uncertainties: n
# # energies =    86
#   E(MeV)       xs(mb) 
 1.17603E+00    0.00000E+00
 1.20000E+00    4.59832E+00
 1.22347E+00    7.53640E+00
 1.30157E+00    1.73134E+01
 1.34420E+00    2.26500E+01
 1.37721E+00    2.67823E+01
 1.38671E+00    2.79716E+01
 1.39125E+00    2.85399E+01
 1.40000E+00    2.96353E+01
 1.41610E+00    3.12272E+01
 1.44658E+00    3.42410E+01
 1.45674E+00    3.52455E+01
 1.48565E+00    3.81040E+01
 1.52474E+00    4.19691E+01
 1.53504E+00    4.29875E+01
 1.53615E+00    4.30973E+01
 1.60000E+00    4.94105E+01
 1.61974E+00    5.07601E+01
 1.63515E+00    5.18137E+01
 1.63795E+00    5.20051E+01
 1.68800E+00    5.54269E+01
 1.69077E+00    5.56163E+01
 1.73618E+00    5.87209E+01
 1.73997E+00    5.89800E+01
 1.78387E+00    6.19814E+01
 1.80000E+00    6.30842E+01
 2.00000E+00    6.09012E+01
 2.20000E+00    4.96354E+01
 2.40000E+00    3.69422E+01
 2.60000E+00    2.63730E+01
 2.80000E+00    1.86492E+01
 3.00000E+00    1.33235E+01
 3.20000E+00    9.91671E+00
 3.40000E+00    7.45692E+00
 3.60000E+00    5.80944E+00
 3.80000E+00    4.69506E+00
 4.00000E+00    3.92946E+00
 4.20000E+00    3.40639E+00
 4.40000E+00    3.01461E+00
 4.60000E+00    2.72657E+00
 4.80000E+00    2.51133E+00
 5.00000E+00    2.34864E+00
 5.20000E+00    2.22499E+00
 5.40000E+00    2.13104E+00
 5.60000E+00    2.06027E+00
 5.80000E+00    2.00797E+00
 6.00000E+00    1.97032E+00
 6.20000E+00    1.94473E+00
 6.40000E+00    1.92846E+00
 6.60000E+00    1.91912E+00
 6.80000E+00    1.91455E+00
 7.00000E+00    1.91262E+00
 7.20000E+00    1.91151E+00
 7.40000E+00    1.90958E+00
 7.60000E+00    1.90559E+00
 7.80000E+00    1.89864E+00
 8.00000E+00    1.88821E+00
 8.50000E+00    1.84637E+00
 9.00000E+00    1.78561E+00
 9.50000E+00    1.71360E+00
 1.00000E+01    1.63794E+00
 1.05000E+01    1.56434E+00
 1.10000E+01    1.49609E+00
 1.15000E+01    1.43457E+00
 1.20000E+01    1.37949E+00
 1.25000E+01    1.32965E+00
 1.30000E+01    1.28351E+00
 1.35000E+01    1.23971E+00
 1.40000E+01    1.19734E+00
 1.45000E+01    1.15606E+00
 1.50000E+01    1.11593E+00
 1.60000E+01    1.04041E+00
 1.70000E+01    9.73784E-01
 1.80000E+01    9.18227E-01
 1.90000E+01    8.73908E-01
 2.00000E+01    8.39053E-01
 2.10000E+01    8.11062E-01
 2.20000E+01    7.87482E-01
 2.30000E+01    7.66162E-01
 2.40000E+01    7.45138E-01
 2.50000E+01    7.23172E-01
 2.60000E+01    7.00397E-01
 2.70000E+01    6.78062E-01
 2.80000E+01    6.57594E-01
 2.90000E+01    6.39898E-01
 3.00000E+01    6.25101E-01
