# n + Dy156 : (n,n'12)  
# jeff3.3    A.J. Koning and D. Rochman        EVAL-DEC15
# uncertainties: n
# # energies =    82
#   E(MeV)       xs(mb) 
 1.34420E+00    0.00000E+00
 1.37721E+00    2.77265E+00
 1.38671E+00    3.57059E+00
 1.39125E+00    3.95192E+00
 1.40000E+00    4.68687E+00
 1.41610E+00    5.34443E+00
 1.44658E+00    6.58930E+00
 1.45674E+00    7.00425E+00
 1.48565E+00    8.18500E+00
 1.52474E+00    9.78152E+00
 1.53504E+00    1.02022E+01
 1.53615E+00    1.02475E+01
 1.60000E+00    1.28553E+01
 1.61974E+00    1.34825E+01
 1.63515E+00    1.39721E+01
 1.63795E+00    1.40611E+01
 1.68800E+00    1.56513E+01
 1.69077E+00    1.57393E+01
 1.73618E+00    1.71821E+01
 1.73997E+00    1.73025E+01
 1.78387E+00    1.86973E+01
 1.80000E+00    1.92098E+01
 2.00000E+00    2.13827E+01
 2.20000E+00    1.94847E+01
 2.40000E+00    1.56356E+01
 2.60000E+00    1.16474E+01
 2.80000E+00    8.34558E+00
 3.00000E+00    5.86797E+00
 3.20000E+00    4.22312E+00
 3.40000E+00    2.93385E+00
 3.60000E+00    2.04113E+00
 3.80000E+00    1.42568E+00
 4.00000E+00    1.00149E+00
 4.20000E+00    7.09232E-01
 4.40000E+00    5.12205E-01
 4.60000E+00    3.65149E-01
 4.80000E+00    2.61525E-01
 5.00000E+00    1.88010E-01
 5.20000E+00    1.35701E-01
 5.40000E+00    9.83838E-02
 5.60000E+00    7.16594E-02
 5.80000E+00    5.24354E-02
 6.00000E+00    3.83933E-02
 6.20000E+00    2.83184E-02
 6.40000E+00    2.09666E-02
 6.60000E+00    1.55803E-02
 6.80000E+00    1.16500E-02
 7.00000E+00    8.74179E-03
 7.20000E+00    6.59205E-03
 7.40000E+00    4.99095E-03
 7.60000E+00    3.78856E-03
 7.80000E+00    2.88988E-03
 8.00000E+00    2.20861E-03
 8.50000E+00    1.14155E-03
 9.00000E+00    5.99129E-04
 9.50000E+00    3.18989E-04
 1.00000E+01    1.71780E-04
 1.05000E+01    9.32178E-05
 1.10000E+01    5.09614E-05
 1.15000E+01    2.81071E-05
 1.20000E+01    1.56550E-05
 1.25000E+01    8.80829E-06
 1.30000E+01    5.00617E-06
 1.35000E+01    2.87353E-06
 1.40000E+01    1.66587E-06
 1.45000E+01    9.74660E-07
 1.50000E+01    5.75190E-07
 1.60000E+01    2.05380E-07
 1.70000E+01    7.55140E-08
 1.80000E+01    2.85140E-08
 1.90000E+01    1.09360E-08
 2.00000E+01    4.32720E-09
 2.10000E+01    1.75090E-09
 2.20000E+01    7.23000E-10
 2.30000E+01    3.05190E-10
 2.40000E+01    1.31300E-10
 2.50000E+01    5.75350E-11
 2.60000E+01    2.56160E-11
 2.70000E+01    1.15700E-11
 2.80000E+01    5.29300E-12
 2.90000E+01    2.45610E-12
 3.00000E+01    1.15400E-12
