# n + Dy156 : (n,n'11)  
# jeff3.3    A.J. Koning and D. Rochman        EVAL-DEC15
# uncertainties: n
# # energies =    83
#   E(MeV)       xs(mb) 
 1.30157E+00    0.00000E+00
 1.34420E+00    4.62971E+01
 1.37721E+00    8.21466E+01
 1.38671E+00    9.24639E+01
 1.39125E+00    9.73944E+01
 1.40000E+00    1.06897E+02
 1.41610E+00    1.09049E+02
 1.44658E+00    1.13124E+02
 1.45674E+00    1.14483E+02
 1.48565E+00    1.18348E+02
 1.52474E+00    1.23573E+02
 1.53504E+00    1.24951E+02
 1.53615E+00    1.25099E+02
 1.60000E+00    1.33635E+02
 1.61974E+00    1.32270E+02
 1.63515E+00    1.31205E+02
 1.63795E+00    1.31011E+02
 1.68800E+00    1.27551E+02
 1.69077E+00    1.27359E+02
 1.73618E+00    1.24219E+02
 1.73997E+00    1.23957E+02
 1.78387E+00    1.20922E+02
 1.80000E+00    1.19807E+02
 2.00000E+00    9.22122E+01
 2.20000E+00    6.32567E+01
 2.40000E+00    4.08383E+01
 2.60000E+00    2.57099E+01
 2.80000E+00    1.61609E+01
 3.00000E+00    1.02857E+01
 3.20000E+00    6.69295E+00
 3.40000E+00    4.47958E+00
 3.60000E+00    3.09841E+00
 3.80000E+00    2.22616E+00
 4.00000E+00    1.66919E+00
 4.20000E+00    1.31013E+00
 4.40000E+00    1.07670E+00
 4.60000E+00    9.22069E-01
 4.80000E+00    8.19921E-01
 5.00000E+00    7.52570E-01
 5.20000E+00    7.08637E-01
 5.40000E+00    6.80591E-01
 5.60000E+00    6.63389E-01
 5.80000E+00    6.53591E-01
 6.00000E+00    6.48717E-01
 6.20000E+00    6.47356E-01
 6.40000E+00    6.48263E-01
 6.60000E+00    6.50671E-01
 6.80000E+00    6.54097E-01
 7.00000E+00    6.58171E-01
 7.20000E+00    6.62681E-01
 7.40000E+00    6.67450E-01
 7.60000E+00    6.72341E-01
 7.80000E+00    6.77234E-01
 8.00000E+00    6.82004E-01
 8.50000E+00    6.92713E-01
 9.00000E+00    7.00747E-01
 9.50000E+00    7.05649E-01
 1.00000E+01    7.07626E-01
 1.05000E+01    7.07256E-01
 1.10000E+01    7.05238E-01
 1.15000E+01    7.02325E-01
 1.20000E+01    6.99202E-01
 1.25000E+01    6.96435E-01
 1.30000E+01    6.94401E-01
 1.35000E+01    6.93255E-01
 1.40000E+01    6.92943E-01
 1.45000E+01    6.93276E-01
 1.50000E+01    6.94002E-01
 1.60000E+01    6.95615E-01
 1.70000E+01    6.96200E-01
 1.80000E+01    6.95309E-01
 1.90000E+01    6.93844E-01
 2.00000E+01    6.93555E-01
 2.10000E+01    6.96147E-01
 2.20000E+01    7.02618E-01
 2.30000E+01    7.12953E-01
 2.40000E+01    7.26175E-01
 2.50000E+01    7.40651E-01
 2.60000E+01    7.54707E-01
 2.70000E+01    7.67207E-01
 2.80000E+01    7.77782E-01
 2.90000E+01    7.86665E-01
 3.00000E+01    7.94314E-01
