# n + Dy156 : (n,xp)    
# jeff3.3    A.J. Koning and D. Rochman        EVAL-DEC15
# 
# # energies =   133
#   E(MeV)        xs(mb) 
 1.38661E-01    2.00000E-17
 2.00000E-01    2.00000E-17
 3.00000E-01    2.00000E-17
 4.00000E-01    2.00000E-17
 4.06805E-01    2.00000E-17
 5.00000E-01    2.00610E-17
 6.00000E-01    1.22690E-15
 6.79970E-01    2.26353E-14
 7.00000E-01    2.80930E-14
 7.75424E-01    2.77709E-13
 8.00000E-01    3.59090E-13
 8.34000E-01    1.47946E-12
 8.96261E-01    3.53110E-12
 9.00000E-01    3.65431E-12
 1.00000E+00    2.58340E-11
 1.02869E+00    1.33230E-10
 1.09532E+00    3.82648E-10
 1.17603E+00    6.84772E-10
 1.20000E+00    7.74500E-10
 1.22347E+00    2.14051E-09
 1.30157E+00    6.68612E-09
 1.34420E+00    9.16730E-09
 1.37721E+00    1.10886E-08
 1.38671E+00    1.16415E-08
 1.39125E+00    1.19057E-08
 1.40000E+00    1.24150E-08
 1.41610E+00    2.03495E-08
 1.44658E+00    3.53708E-08
 1.45674E+00    4.03779E-08
 1.48565E+00    5.46254E-08
 1.52474E+00    7.38900E-08
 1.53504E+00    7.89661E-08
 1.53615E+00    7.95131E-08
 1.60000E+00    1.10980E-07
 1.61974E+00    1.79718E-07
 1.63515E+00    2.33377E-07
 1.63795E+00    2.43127E-07
 1.68800E+00    4.17409E-07
 1.69077E+00    4.27055E-07
 1.73618E+00    5.85179E-07
 1.73997E+00    5.98377E-07
 1.78387E+00    7.51243E-07
 1.80000E+00    8.07410E-07
 2.00000E+00    3.73668E-06
 2.20000E+00    1.25690E-05
 2.40000E+00    3.42487E-05
 2.60000E+00    7.97575E-05
 2.80000E+00    1.64710E-04
 3.00000E+00    3.09511E-04
 3.20000E+00    5.46164E-04
 3.40000E+00    8.92373E-04
 3.60000E+00    1.38271E-03
 3.80000E+00    2.06655E-03
 4.00000E+00    3.01939E-03
 4.20000E+00    4.20910E-03
 4.40000E+00    5.65570E-03
 4.60000E+00    7.66568E-03
 4.80000E+00    9.91072E-03
 5.00000E+00    1.25213E-02
 5.20000E+00    1.67559E-02
 5.40000E+00    2.04338E-02
 5.60000E+00    2.67825E-02
 5.80000E+00    3.34090E-02
 6.00000E+00    3.95050E-02
 6.20000E+00    5.40710E-02
 6.40000E+00    6.31278E-02
 6.60000E+00    8.22327E-02
 6.80000E+00    1.02372E-01
 7.00000E+00    1.17184E-01
 7.20000E+00    1.63193E-01
 7.40000E+00    1.86568E-01
 7.60000E+00    2.14351E-01
 7.80000E+00    2.97002E-01
 8.00000E+00    3.34177E-01
 8.50000E+00    5.44447E-01
 9.00000E+00    8.57955E-01
 9.50000E+00    1.30534E+00
 1.00000E+01    1.91180E+00
 1.05000E+01    2.69762E+00
 1.10000E+01    3.67890E+00
 1.15000E+01    4.86186E+00
 1.20000E+01    6.25933E+00
 1.25000E+01    7.86026E+00
 1.30000E+01    9.68426E+00
 1.35000E+01    1.17043E+01
 1.40000E+01    1.39421E+01
 1.45000E+01    1.63733E+01
 1.50000E+01    1.90039E+01
 1.60000E+01    2.47999E+01
 1.70000E+01    3.12425E+01
 1.80000E+01    3.81920E+01
 1.90000E+01    4.64097E+01
 2.00000E+01    5.55670E+01
 2.10000E+01    6.42171E+01
 2.20000E+01    7.33298E+01
 2.30000E+01    8.26980E+01
 2.40000E+01    9.23667E+01
 2.50000E+01    1.02193E+02
 2.60000E+01    1.12327E+02
 2.70000E+01    1.22386E+02
 2.80000E+01    1.32366E+02
 2.90000E+01    1.42262E+02
 3.00000E+01            NaN
 3.00000E+01    1.52556E+02
 3.20000E+01    1.71788E+02
 3.40000E+01    1.91321E+02
 3.60000E+01    2.11822E+02
 3.80000E+01    2.31459E+02
 4.00000E+01    2.50549E+02
 4.20000E+01    2.70191E+02
 4.40000E+01    2.89175E+02
 4.60000E+01    3.08142E+02
 4.80000E+01    3.27644E+02
 5.00000E+01    3.46764E+02
 5.20000E+01    3.65527E+02
 5.40000E+01    3.83611E+02
 5.60000E+01    4.01696E+02
 5.80000E+01    4.19976E+02
 6.00000E+01    4.38145E+02
 6.50000E+01    4.82897E+02
 7.00000E+01    5.24054E+02
 7.50000E+01    5.60688E+02
 8.00000E+01    5.91152E+02
 9.00000E+01    6.49698E+02
 1.00000E+02    6.98923E+02
 1.10000E+02    7.62002E+02
 1.20000E+02    8.28098E+02
 1.30000E+02    9.11015E+02
 1.40000E+02    1.01149E+03
 1.50000E+02    1.14110E+03
 1.60000E+02    1.32051E+03
 1.80000E+02    1.90478E+03
 2.00000E+02    2.89877E+03
