# n + W 180 : (n,n'09)  
# jeff3.3    A.J. Koning and D. Rochman        EVAL-JAN16
# uncertainties: n
# # energies =    85
#   E(MeV)       xs(mb) 
 1.23957E+00    0.00000E+00
 1.31487E+00    6.09333E+01
 1.32948E+00    7.27558E+01
 1.36811E+00    1.04015E+02
 1.38975E+00    1.21527E+02
 1.40000E+00    1.29821E+02
 1.46998E+00    1.40128E+02
 1.47824E+00    1.41344E+02
 1.52450E+00    1.48157E+02
 1.53758E+00    1.50084E+02
 1.54419E+00    1.51057E+02
 1.57692E+00    1.55878E+02
 1.59614E+00    1.58708E+02
 1.60000E+00    1.59277E+02
 1.63328E+00    1.57895E+02
 1.64202E+00    1.57532E+02
 1.64380E+00    1.57458E+02
 1.64896E+00    1.57244E+02
 1.67347E+00    1.56226E+02
 1.70305E+00    1.54997E+02
 1.70450E+00    1.54937E+02
 1.71249E+00    1.54605E+02
 1.73521E+00    1.53662E+02
 1.73951E+00    1.53483E+02
 1.80000E+00    1.50971E+02
 2.00000E+00    1.47649E+02
 2.20000E+00    1.42500E+02
 2.40000E+00    1.32775E+02
 2.60000E+00    1.18878E+02
 2.80000E+00    1.01506E+02
 3.00000E+00    8.20151E+01
 3.20000E+00    6.37892E+01
 3.40000E+00    4.61764E+01
 3.60000E+00    3.21009E+01
 3.80000E+00    2.17020E+01
 4.00000E+00    1.44256E+01
 4.20000E+00    9.61232E+00
 4.40000E+00    6.37724E+00
 4.60000E+00    4.20177E+00
 4.80000E+00    2.78698E+00
 5.00000E+00    1.85982E+00
 5.20000E+00    1.24905E+00
 5.40000E+00    8.44587E-01
 5.60000E+00    5.75138E-01
 5.80000E+00    3.91490E-01
 6.00000E+00    2.69154E-01
 6.20000E+00    1.86657E-01
 6.40000E+00    1.30319E-01
 6.60000E+00    9.15891E-02
 6.80000E+00    6.48578E-02
 7.00000E+00    4.61225E-02
 7.20000E+00    3.30389E-02
 7.40000E+00    2.37712E-02
 7.60000E+00    1.71804E-02
 7.80000E+00    1.24898E-02
 8.00000E+00    9.10844E-03
 8.50000E+00    4.22085E-03
 9.00000E+00    1.99797E-03
 9.50000E+00    9.60820E-04
 1.00000E+01    4.68958E-04
 1.05000E+01    2.32373E-04
 1.10000E+01    1.16897E-04
 1.15000E+01    5.96814E-05
 1.20000E+01    3.08999E-05
 1.25000E+01    1.62137E-05
 1.30000E+01    8.62003E-06
 1.35000E+01    4.63779E-06
 1.40000E+01    2.52682E-06
 1.45000E+01    1.39112E-06
 1.50000E+01    7.74660E-07
 1.60000E+01    2.47380E-07
 1.70000E+01    8.18470E-08
 1.80000E+01    2.77770E-08
 1.90000E+01    9.76600E-09
 2.00000E+01    3.53400E-09
 2.10000E+01    1.31230E-09
 2.20000E+01    4.98450E-10
 2.30000E+01    1.94270E-10
 2.40000E+01    7.74500E-11
 2.50000E+01    3.14660E-11
 2.60000E+01    1.30100E-11
 2.70000E+01    5.46200E-12
 2.80000E+01    2.32770E-12
 2.90000E+01    1.00990E-12
 3.00000E+01    4.44490E-13
