# n + W 180 : (n,n'22)  
# jeff3.3    A.J. Koning and D. Rochman        EVAL-JAN16
# uncertainties: n
# # energies =    70
#   E(MeV)       xs(mb) 
 1.64202E+00    0.00000E+00
 1.64380E+00    9.25953E-01
 1.64896E+00    3.61011E+00
 1.67347E+00    1.63599E+01
 1.70305E+00    3.17471E+01
 1.70450E+00    3.25014E+01
 1.71249E+00    3.66577E+01
 1.73521E+00    4.84764E+01
 1.73951E+00    5.07132E+01
 1.80000E+00    8.21794E+01
 2.00000E+00    1.04788E+02
 2.20000E+00    1.08022E+02
 2.40000E+00    1.05248E+02
 2.60000E+00    9.72878E+01
 2.80000E+00    8.47489E+01
 3.00000E+00    6.93505E+01
 3.20000E+00    5.42076E+01
 3.40000E+00    3.94940E+01
 3.60000E+00    2.75657E+01
 3.80000E+00    1.86653E+01
 4.00000E+00    1.23976E+01
 4.20000E+00    8.15512E+00
 4.40000E+00    5.35129E+00
 4.60000E+00    3.55265E+00
 4.80000E+00    2.36451E+00
 5.00000E+00    1.56872E+00
 5.20000E+00    1.04956E+00
 5.40000E+00    7.07066E-01
 5.60000E+00    4.79697E-01
 5.80000E+00    3.25327E-01
 6.00000E+00    2.22810E-01
 6.20000E+00    1.53923E-01
 6.40000E+00    1.07087E-01
 6.60000E+00    7.49977E-02
 6.80000E+00    5.29399E-02
 7.00000E+00    3.75370E-02
 7.20000E+00    2.68161E-02
 7.40000E+00    1.92478E-02
 7.60000E+00    1.38797E-02
 7.80000E+00    1.00704E-02
 8.00000E+00    7.33078E-03
 8.50000E+00    3.38479E-03
 9.00000E+00    1.59811E-03
 9.50000E+00    7.67040E-04
 1.00000E+01    3.73712E-04
 1.05000E+01    1.84832E-04
 1.10000E+01    9.27979E-05
 1.15000E+01    4.72825E-05
 1.20000E+01    2.44312E-05
 1.25000E+01    1.27931E-05
 1.30000E+01    6.78696E-06
 1.35000E+01    3.64338E-06
 1.40000E+01    1.98046E-06
 1.45000E+01    1.08781E-06
 1.50000E+01    6.04410E-07
 1.60000E+01    1.92240E-07
 1.70000E+01    6.34000E-08
 1.80000E+01    2.14640E-08
 1.90000E+01    7.53140E-09
 2.00000E+01    2.72050E-09
 2.10000E+01    1.00850E-09
 2.20000E+01    3.82390E-10
 2.30000E+01    1.48810E-10
 2.40000E+01    5.92480E-11
 2.50000E+01    2.40420E-11
 2.60000E+01    9.92980E-12
 2.70000E+01    4.16470E-12
 2.80000E+01    1.77310E-12
 2.90000E+01    7.68530E-13
 3.00000E+01    3.37950E-13
