# n + W 180 : (n,n'14)  
# jeff3.3    A.J. Koning and D. Rochman        EVAL-JAN16
# uncertainties: n
# # energies =    79
#   E(MeV)       xs(mb) 
 1.46998E+00    0.00000E+00
 1.47824E+00    1.69269E-01
 1.52450E+00    1.11725E+00
 1.53758E+00    1.38530E+00
 1.54419E+00    1.52075E+00
 1.57692E+00    2.19147E+00
 1.59614E+00    2.58534E+00
 1.60000E+00    2.66444E+00
 1.63328E+00    3.29113E+00
 1.64202E+00    3.45571E+00
 1.64380E+00    3.48923E+00
 1.64896E+00    3.58640E+00
 1.67347E+00    4.04794E+00
 1.70305E+00    4.60496E+00
 1.70450E+00    4.63226E+00
 1.71249E+00    4.78272E+00
 1.73521E+00    5.21055E+00
 1.73951E+00    5.29153E+00
 1.80000E+00    6.43060E+00
 2.00000E+00    1.03851E+01
 2.20000E+00    1.42981E+01
 2.40000E+00    1.72200E+01
 2.60000E+00    1.86807E+01
 2.80000E+00    1.86222E+01
 3.00000E+00    1.72065E+01
 3.20000E+00    1.50730E+01
 3.40000E+00    1.22166E+01
 3.60000E+00    9.42897E+00
 3.80000E+00    7.02061E+00
 4.00000E+00    5.09958E+00
 4.20000E+00    3.64808E+00
 4.40000E+00    2.61549E+00
 4.60000E+00    1.87396E+00
 4.80000E+00    1.31832E+00
 5.00000E+00    9.30346E-01
 5.20000E+00    6.57409E-01
 5.40000E+00    4.65516E-01
 5.60000E+00    3.30564E-01
 5.80000E+00    2.33796E-01
 6.00000E+00    1.66451E-01
 6.20000E+00    1.19218E-01
 6.40000E+00    8.57644E-02
 6.60000E+00    6.19825E-02
 6.80000E+00    4.50509E-02
 7.00000E+00    3.28347E-02
 7.20000E+00    2.40760E-02
 7.40000E+00    1.77098E-02
 7.60000E+00    1.30734E-02
 7.80000E+00    9.70064E-03
 8.00000E+00    7.21414E-03
 8.50000E+00    3.50283E-03
 9.00000E+00    1.73194E-03
 9.50000E+00    8.67306E-04
 1.00000E+01    4.39296E-04
 1.05000E+01    2.25084E-04
 1.10000E+01    1.16684E-04
 1.15000E+01    6.12021E-05
 1.20000E+01    3.24678E-05
 1.25000E+01    1.74166E-05
 1.30000E+01    9.44790E-06
 1.35000E+01    5.17796E-06
 1.40000E+01    2.86954E-06
 1.45000E+01    1.60483E-06
 1.50000E+01    9.06770E-07
 1.60000E+01    2.97210E-07
 1.70000E+01    1.00590E-07
 1.80000E+01    3.48230E-08
 1.90000E+01    1.24620E-08
 2.00000E+01    4.58090E-09
 2.10000E+01    1.72510E-09
 2.20000E+01    6.63480E-10
 2.30000E+01    2.61550E-10
 2.40000E+01    1.05350E-10
 2.50000E+01    4.32000E-11
 2.60000E+01    1.80100E-11
 2.70000E+01    7.61790E-12
 2.80000E+01    3.26870E-12
 2.90000E+01    1.42710E-12
 3.00000E+01    6.31850E-13
