# n + W 180 : (n,xa)    
# jeff3.3    A.J. Koning and D. Rochman        EVAL-JAN16
# 
# # energies =   133
#   E(MeV)        xs(mb) 
 1.04111E-01    4.11273E-04
 2.00000E-01    2.27247E-04
 3.00000E-01    2.28350E-04
 3.39408E-01    2.33587E-04
 4.00000E-01    2.41640E-04
 5.00000E-01    2.66723E-04
 6.00000E-01    3.15694E-04
 6.92273E-01    3.89498E-04
 7.00000E-01    3.95683E-04
 8.00000E-01    4.92443E-04
 9.00000E-01    6.00153E-04
 1.00000E+00    7.27327E-04
 1.01197E+00    7.34408E-04
 1.08841E+00    7.79626E-04
 1.12354E+00    8.00407E-04
 1.14481E+00    8.12990E-04
 1.19149E+00    8.40603E-04
 1.20000E+00    8.45638E-04
 1.23957E+00    8.69045E-04
 1.31487E+00    9.13589E-04
 1.32948E+00    9.22232E-04
 1.36811E+00    9.45083E-04
 1.38975E+00    9.57885E-04
 1.40000E+00    9.63948E-04
 1.46998E+00    1.01676E-03
 1.47824E+00    1.02299E-03
 1.52450E+00    1.05790E-03
 1.53758E+00    1.06777E-03
 1.54419E+00    1.07276E-03
 1.57692E+00    1.09746E-03
 1.59614E+00    1.11197E-03
 1.60000E+00    1.11488E-03
 1.63328E+00    1.15840E-03
 1.64202E+00    1.16983E-03
 1.64380E+00    1.17216E-03
 1.64896E+00    1.17890E-03
 1.67347E+00    1.21096E-03
 1.70305E+00    1.24964E-03
 1.70450E+00    1.25153E-03
 1.71249E+00    1.26198E-03
 1.73521E+00    1.29169E-03
 1.73951E+00    1.29732E-03
 1.80000E+00    1.37642E-03
 2.00000E+00    1.78935E-03
 2.20000E+00    2.48783E-03
 2.40000E+00    3.40348E-03
 2.60000E+00    4.51887E-03
 2.80000E+00    5.96256E-03
 3.00000E+00    7.31481E-03
 3.20000E+00    8.95040E-03
 3.40000E+00    1.02232E-02
 3.60000E+00    1.13058E-02
 3.80000E+00    1.23961E-02
 4.00000E+00    1.32687E-02
 4.20000E+00    1.42887E-02
 4.40000E+00    1.54415E-02
 4.60000E+00    1.66905E-02
 4.80000E+00    1.82909E-02
 5.00000E+00    2.01358E-02
 5.20000E+00    2.21766E-02
 5.40000E+00    2.51999E-02
 5.60000E+00    2.86439E-02
 5.80000E+00    3.25965E-02
 6.00000E+00    3.78962E-02
 6.20000E+00    4.36443E-02
 6.40000E+00    5.20973E-02
 6.60000E+00    6.19418E-02
 6.80000E+00    7.36832E-02
 7.00000E+00    8.84415E-02
 7.20000E+00    1.05174E-01
 7.40000E+00    1.28369E-01
 7.60000E+00    1.55134E-01
 7.80000E+00    1.86631E-01
 8.00000E+00    2.26088E-01
 8.50000E+00    3.52118E-01
 9.00000E+00    3.85631E-01
 9.50000E+00    3.87381E-01
 1.00000E+01    4.06312E-01
 1.05000E+01    4.77013E-01
 1.10000E+01    6.02251E-01
 1.15000E+01    7.80562E-01
 1.20000E+01    1.05395E+00
 1.25000E+01    1.42295E+00
 1.30000E+01    1.75764E+00
 1.35000E+01    2.38197E+00
 1.40000E+01    2.70831E+00
 1.45000E+01    3.66495E+00
 1.50000E+01    3.94179E+00
 1.60000E+01    5.58631E+00
 1.70000E+01    7.71978E+00
 1.80000E+01    1.05779E+01
 1.90000E+01    1.45695E+01
 2.00000E+01    1.98415E+01
 2.10000E+01    2.41469E+01
 2.20000E+01    2.73866E+01
 2.30000E+01    2.87145E+01
 2.40000E+01    2.74965E+01
 2.50000E+01    2.71439E+01
 2.60000E+01    2.71067E+01
 2.70000E+01    2.74626E+01
 2.80000E+01    2.77870E+01
 2.90000E+01    2.81963E+01
 3.00000E+01    2.86515E+01
 3.00000E+01    2.85699E+01
 3.20000E+01    2.89763E+01
 3.40000E+01    3.00665E+01
 3.60000E+01    3.09801E+01
 3.80000E+01    3.17320E+01
 4.00000E+01    3.23552E+01
 4.20000E+01    3.29014E+01
 4.40000E+01    3.34020E+01
 4.60000E+01    3.38832E+01
 4.80000E+01    3.43223E+01
 5.00000E+01    3.47469E+01
 5.20000E+01    3.52060E+01
 5.40000E+01    3.57240E+01
 5.60000E+01    3.62984E+01
 5.80000E+01    3.69243E+01
 6.00000E+01    3.76463E+01
 6.50000E+01    3.98554E+01
 7.00000E+01    4.20830E+01
 7.50000E+01    4.50468E+01
 8.00000E+01    4.77064E+01
 9.00000E+01    5.43970E+01
 1.00000E+02    6.04026E+01
 1.10000E+02    6.31075E+01
 1.20000E+02    6.99946E+01
 1.30000E+02    8.02024E+01
 1.40000E+02    8.93769E+01
 1.50000E+02    1.04431E+02
 1.60000E+02    1.22515E+02
 1.80000E+02    1.58416E+02
 2.00000E+02    2.84817E+02
