# n + W 180 : (n,n'17)  
# jeff3.3    A.J. Koning and D. Rochman        EVAL-JAN16
# uncertainties: n
# # energies =    76
#   E(MeV)       xs(mb) 
 1.53758E+00    0.00000E+00
 1.54419E+00    5.80419E-04
 1.57692E+00    3.45440E-03
 1.59614E+00    5.14208E-03
 1.60000E+00    5.48102E-03
 1.63328E+00    1.72469E-02
 1.64202E+00    2.03369E-02
 1.64380E+00    2.09662E-02
 1.64896E+00    2.27905E-02
 1.67347E+00    3.14558E-02
 1.70305E+00    4.19136E-02
 1.70450E+00    4.24263E-02
 1.71249E+00    4.52511E-02
 1.73521E+00    5.32835E-02
 1.73951E+00    5.48038E-02
 1.80000E+00    7.61896E-02
 2.00000E+00    2.56494E-01
 2.20000E+00    5.70654E-01
 2.40000E+00    9.90226E-01
 2.60000E+00    1.43166E+00
 2.80000E+00    1.79224E+00
 3.00000E+00    1.98841E+00
 3.20000E+00    1.96030E+00
 3.40000E+00    1.81941E+00
 3.60000E+00    1.57992E+00
 3.80000E+00    1.30636E+00
 4.00000E+00    1.04328E+00
 4.20000E+00    8.13963E-01
 4.40000E+00    6.28665E-01
 4.60000E+00    4.91927E-01
 4.80000E+00    3.70746E-01
 5.00000E+00    2.78691E-01
 5.20000E+00    2.08641E-01
 5.40000E+00    1.55733E-01
 5.60000E+00    1.16024E-01
 5.80000E+00    8.57279E-02
 6.00000E+00    6.35348E-02
 6.20000E+00    4.72188E-02
 6.40000E+00    3.51466E-02
 6.60000E+00    2.62241E-02
 6.80000E+00    1.96321E-02
 7.00000E+00    1.47120E-02
 7.20000E+00    1.10753E-02
 7.40000E+00    8.35244E-03
 7.60000E+00    6.31360E-03
 7.80000E+00    4.79301E-03
 8.00000E+00    3.64347E-03
 8.50000E+00    1.86238E-03
 9.00000E+00    9.65457E-04
 9.50000E+00    5.05032E-04
 1.00000E+01    2.66245E-04
 1.05000E+01    1.41499E-04
 1.10000E+01    7.58504E-05
 1.15000E+01    4.10267E-05
 1.20000E+01    2.23916E-05
 1.25000E+01    1.23323E-05
 1.30000E+01    6.85641E-06
 1.35000E+01    3.84526E-06
 1.40000E+01    2.17758E-06
 1.45000E+01    1.24287E-06
 1.50000E+01    7.15820E-07
 1.60000E+01    2.42960E-07
 1.70000E+01    8.47970E-08
 1.80000E+01    3.01700E-08
 1.90000E+01    1.10620E-08
 2.00000E+01    4.15600E-09
 2.10000E+01    1.59590E-09
 2.20000E+01    6.24630E-10
 2.30000E+01    2.50110E-10
 2.40000E+01    1.02160E-10
 2.50000E+01    4.24140E-11
 2.60000E+01    1.78780E-11
 2.70000E+01    7.63720E-12
 2.80000E+01    3.30620E-12
 2.90000E+01    1.45520E-12
 3.00000E+01    6.49110E-13
