# n + W 180 : (n,n'07)  
# jeff3.3    A.J. Koning and D. Rochman        EVAL-JAN16
# uncertainties: n
# # energies =    88
#   E(MeV)       xs(mb) 
 1.14481E+00    0.00000E+00
 1.19149E+00    3.36570E-04
 1.20000E+00    3.97928E-04
 1.23957E+00    2.54974E-03
 1.31487E+00    6.64454E-03
 1.32948E+00    7.43904E-03
 1.36811E+00    9.53972E-03
 1.38975E+00    1.07165E-02
 1.40000E+00    1.12739E-02
 1.46998E+00    2.45716E-02
 1.47824E+00    2.61412E-02
 1.52450E+00    3.49315E-02
 1.53758E+00    3.74170E-02
 1.54419E+00    3.86730E-02
 1.57692E+00    4.48924E-02
 1.59614E+00    4.85446E-02
 1.60000E+00    4.92781E-02
 1.63328E+00    6.05429E-02
 1.64202E+00    6.35012E-02
 1.64380E+00    6.41037E-02
 1.64896E+00    6.58503E-02
 1.67347E+00    7.41466E-02
 1.70305E+00    8.41589E-02
 1.70450E+00    8.46497E-02
 1.71249E+00    8.73542E-02
 1.73521E+00    9.50446E-02
 1.73951E+00    9.65001E-02
 1.80000E+00    1.16975E-01
 2.00000E+00    2.58484E-01
 2.20000E+00    5.09745E-01
 2.40000E+00    8.71810E-01
 2.60000E+00    1.30626E+00
 2.80000E+00    1.72642E+00
 3.00000E+00    2.02526E+00
 3.20000E+00    2.11888E+00
 3.40000E+00    2.05577E+00
 3.60000E+00    1.86843E+00
 3.80000E+00    1.62961E+00
 4.00000E+00    1.39935E+00
 4.20000E+00    1.22467E+00
 4.40000E+00    1.06638E+00
 4.60000E+00    9.60585E-01
 4.80000E+00    9.00187E-01
 5.00000E+00    8.77288E-01
 5.20000E+00    8.83429E-01
 5.40000E+00    9.10408E-01
 5.60000E+00    9.50594E-01
 5.80000E+00    9.96153E-01
 6.00000E+00    1.04242E+00
 6.20000E+00    1.08443E+00
 6.40000E+00    1.11876E+00
 6.60000E+00    1.14383E+00
 6.80000E+00    1.15920E+00
 7.00000E+00    1.16524E+00
 7.20000E+00    1.16304E+00
 7.40000E+00    1.15380E+00
 7.60000E+00    1.13893E+00
 7.80000E+00    1.11979E+00
 8.00000E+00    1.09764E+00
 8.50000E+00    1.03629E+00
 9.00000E+00    9.76422E-01
 9.50000E+00    9.25145E-01
 1.00000E+01    8.84440E-01
 1.05000E+01    8.53111E-01
 1.10000E+01    8.28569E-01
 1.15000E+01    8.08200E-01
 1.20000E+01    7.90051E-01
 1.25000E+01    7.73020E-01
 1.30000E+01    7.56686E-01
 1.35000E+01    7.41066E-01
 1.40000E+01    7.26372E-01
 1.45000E+01    7.12841E-01
 1.50000E+01    7.00624E-01
 1.60000E+01    6.80079E-01
 1.70000E+01    6.63305E-01
 1.80000E+01    6.47721E-01
 1.90000E+01    6.31150E-01
 2.00000E+01    6.12574E-01
 2.10000E+01    5.92246E-01
 2.20000E+01    5.71502E-01
 2.30000E+01    5.52031E-01
 2.40000E+01    5.34977E-01
 2.50000E+01    5.20609E-01
 2.60000E+01    5.08492E-01
 2.70000E+01    4.97723E-01
 2.80000E+01    4.87168E-01
 2.90000E+01    4.75861E-01
 3.00000E+01    4.63390E-01
