# n + W 180 : (n,n'18)  
# jeff3.3    A.J. Koning and D. Rochman        EVAL-JAN16
# uncertainties: n
# # energies =    75
#   E(MeV)       xs(mb) 
 1.54419E+00    0.00000E+00
 1.57692E+00    3.70595E+00
 1.59614E+00    5.88219E+00
 1.60000E+00    6.31925E+00
 1.63328E+00    8.52298E+00
 1.64202E+00    9.10172E+00
 1.64380E+00    9.21959E+00
 1.64896E+00    9.56127E+00
 1.67347E+00    1.11843E+01
 1.70305E+00    1.31430E+01
 1.70450E+00    1.32390E+01
 1.71249E+00    1.37681E+01
 1.73521E+00    1.52726E+01
 1.73951E+00    1.55573E+01
 1.80000E+00    1.95628E+01
 2.00000E+00    2.68532E+01
 2.20000E+00    3.27968E+01
 2.40000E+00    3.65735E+01
 2.60000E+00    3.76197E+01
 2.80000E+00    3.59377E+01
 3.00000E+00    3.19640E+01
 3.20000E+00    2.73870E+01
 3.40000E+00    2.14054E+01
 3.60000E+00    1.59472E+01
 3.80000E+00    1.14774E+01
 4.00000E+00    8.07293E+00
 4.20000E+00    5.60407E+00
 4.40000E+00    3.87794E+00
 4.60000E+00    2.72478E+00
 4.80000E+00    1.87639E+00
 5.00000E+00    1.29804E+00
 5.20000E+00    9.01075E-01
 5.40000E+00    6.28028E-01
 5.60000E+00    4.39693E-01
 5.80000E+00    3.07039E-01
 6.00000E+00    2.16079E-01
 6.20000E+00    1.53140E-01
 6.40000E+00    1.09094E-01
 6.60000E+00    7.81296E-02
 6.80000E+00    5.63022E-02
 7.00000E+00    4.06994E-02
 7.20000E+00    2.96074E-02
 7.40000E+00    2.16114E-02
 7.60000E+00    1.58319E-02
 7.80000E+00    1.16592E-02
 8.00000E+00    8.60631E-03
 8.50000E+00    4.10168E-03
 9.00000E+00    1.99157E-03
 9.50000E+00    9.80278E-04
 1.00000E+01    4.88674E-04
 1.05000E+01    2.46802E-04
 1.10000E+01    1.26303E-04
 1.15000E+01    6.54868E-05
 1.20000E+01    3.43817E-05
 1.25000E+01    1.82697E-05
 1.30000E+01    9.82499E-06
 1.35000E+01    5.34155E-06
 1.40000E+01    2.93821E-06
 1.45000E+01    1.63193E-06
 1.50000E+01    9.16220E-07
 1.60000E+01    2.96940E-07
 1.70000E+01    9.95240E-08
 1.80000E+01    3.41660E-08
 1.90000E+01    1.21360E-08
 2.00000E+01    4.43200E-09
 2.10000E+01    1.65950E-09
 2.20000E+01    6.35070E-10
 2.30000E+01    2.49220E-10
 2.40000E+01    9.99760E-11
 2.50000E+01    4.08430E-11
 2.60000E+01    1.69710E-11
 2.70000E+01    7.15710E-12
 2.80000E+01    3.06270E-12
 2.90000E+01    1.33380E-12
 3.00000E+01    5.89170E-13
