# n + Hg202 : (n,g)     
# jendl.ad   K.SHIBATA, T.FUKAHORI, S.CHIBA,+  EVAL-SEP97
# uncertainties: n
# # energies =    69
#   E(MeV)       xs(mb) 
 1.00000E-10    3.45944E+04
 5.00000E-09    9.42169E+03
 1.00000E-08    7.13535E+03
 1.50000E-08    5.99533E+03
 2.00000E-08    5.27423E+03
 2.50000E-08    4.76455E+03
 3.00000E-08    4.38027E+03
 3.50000E-08    4.02740E+03
 4.20000E-08    3.68304E+03
 5.00000E-08    3.39671E+03
 5.80000E-08    3.15691E+03
 6.70000E-08    2.91379E+03
 8.00000E-08    2.63611E+03
 1.00000E-07    2.29277E+03
 1.40000E-07    1.97830E+03
 1.80000E-07    1.76574E+03
 2.20000E-07    1.62561E+03
 2.50000E-07    1.53022E+03
 2.80000E-07    1.46212E+03
 3.00000E-07    1.41382E+03
 3.20000E-07    1.36011E+03
 3.50000E-07    1.28601E+03
 4.00000E-07    1.17602E+03
 5.00000E-07    1.05139E+03
 6.25000E-07    9.39804E+02
 7.80000E-07    8.69142E+02
 8.50000E-07    8.35877E+02
 9.10000E-07    8.12657E+02
 9.50000E-07    7.99163E+02
 9.72000E-07    7.89675E+02
 9.96000E-07    7.80079E+02
 1.02000E-06    7.70669E+02
 1.04500E-06    7.61181E+02
 1.07100E-06    7.51918E+02
 1.09700E-06    7.42905E+02
 1.12300E-06    7.34222E+02
 1.15000E-06    7.07731E+02
 1.30000E-06    6.61486E+02
 1.50000E-06    5.85927E+02
 2.10000E-06    5.08614E+02
 2.60000E-06    4.52561E+02
 3.30000E-06    4.04408E+02
 4.00000E-06    3.04846E+02
 9.87700E-06    2.06093E+02
 1.59680E-05    1.51388E+02
 2.77000E-05    1.05042E+02
 4.80520E-05    7.17066E+01
 7.55014E-05    4.34987E+01
 1.48728E-04    1.83706E+01
 3.67262E-04    5.94073E+00
 9.06898E-04    6.41955E+00
 1.42510E-03    1.42637E+03
 2.23945E-03    2.53829E+00
 3.51910E-03    3.44886E+02
 5.53000E-03    1.55611E+02
 9.11800E-03    1.21591E+02
 1.50300E-02    9.88852E+01
 2.47800E-02    8.05025E+01
 4.08500E-02    6.55402E+01
 6.73400E-02    5.34939E+01
 1.11000E-01    4.73206E+01
 1.83000E-01    4.35504E+01
 3.02000E-01    3.79697E+01
 5.00000E-01    1.93304E+01
 8.21000E-01    1.49095E+01
 1.35300E+00    7.99708E+00
 2.23100E+00    3.89079E+00
 3.67900E+00    1.60985E+00
 6.06500E+00    3.28269E-01
