# n + Cu 65 : (n,any)   
# endfb8.0   A.Koning,M.Chadwick,Hetrick       EVAL-FEB98
# uncertainties: n
# # energies =   154
#   E(MeV)       xs(mb) 
 2.00000E+01    0.00000E+00
 2.00000E+01    1.42540E+03
 2.10000E+01    1.40239E+03
 2.20000E+01    1.38380E+03
 2.22264E+01    1.38024E+03
 2.28344E+01    1.37098E+03
 2.30000E+01    1.36854E+03
 2.30433E+01    1.36790E+03
 2.36374E+01    1.35941E+03
 2.39703E+01    1.35481E+03
 2.40000E+01    1.35441E+03
 2.42565E+01    1.35095E+03
 2.50000E+01    1.34127E+03
 2.60000E+01    1.32900E+03
 2.64687E+01    1.32353E+03
 2.69772E+01    1.31780E+03
 2.70000E+01    1.31754E+03
 2.80000E+01    1.30672E+03
 2.84437E+01    1.30206E+03
 2.90000E+01    1.29630E+03
 2.91247E+01    1.29502E+03
 3.00000E+01    1.28610E+03
 3.05998E+01    1.28006E+03
 3.10000E+01    1.27607E+03
 3.10209E+01    1.27586E+03
 3.16536E+01    1.26964E+03
 3.20000E+01    1.26628E+03
 3.21808E+01    1.26453E+03
 3.30000E+01    1.25673E+03
 3.30352E+01    1.25640E+03
 3.40000E+01    1.24743E+03
 3.44104E+01    1.24369E+03
 3.45861E+01    1.24210E+03
 3.50000E+01    1.23838E+03
 3.60000E+01    1.22960E+03
 3.70000E+01    1.22107E+03
 3.80000E+01    1.21279E+03
 3.81492E+01    1.21158E+03
 3.86520E+01    1.20754E+03
 3.90000E+01    1.20477E+03
 3.90784E+01    1.20415E+03
 4.00000E+01    1.19700E+03
 4.04698E+01    1.19342E+03
 4.08001E+01    1.19093E+03
 4.10000E+01    1.18942E+03
 4.14064E+01    1.18638E+03
 4.20000E+01    1.18198E+03
 4.30000E+01    1.17467E+03
 4.32922E+01    1.17256E+03
 4.40000E+01    1.16748E+03
 4.50000E+01    1.16041E+03
 4.59759E+01    1.15360E+03
 4.60000E+01    1.15343E+03
 4.70000E+01    1.14656E+03
 4.80000E+01    1.13979E+03
 4.85326E+01    1.13621E+03
 4.90000E+01    1.13310E+03
 4.97612E+01    1.12807E+03
 5.00000E+01    1.12650E+03
 5.00405E+01    1.12623E+03
 5.03015E+01    1.12452E+03
 5.04829E+01    1.12333E+03
 5.10000E+01    1.11993E+03
 5.20000E+01    1.11333E+03
 5.21723E+01    1.11219E+03
 5.30000E+01    1.10673E+03
 5.40000E+01    1.10014E+03
 5.48452E+01    1.09458E+03
 5.50000E+01    1.09356E+03
 5.51156E+01    1.09280E+03
 5.60000E+01    1.08702E+03
 5.70000E+01    1.08051E+03
 5.80000E+01    1.07405E+03
 5.80301E+01    1.07386E+03
 5.90000E+01    1.06765E+03
 5.97806E+01    1.06269E+03
 6.00000E+01    1.06130E+03
 6.02587E+01    1.05967E+03
 6.07577E+01    1.05655E+03
 6.10000E+01    1.05505E+03
 6.16146E+01    1.05126E+03
 6.20000E+01    1.04891E+03
 6.27254E+01    1.04452E+03
 6.30000E+01    1.04287E+03
 6.40000E+01    1.03692E+03
 6.50000E+01    1.03105E+03
 6.50854E+01    1.03056E+03
 6.60000E+01    1.02526E+03
 6.70000E+01    1.01952E+03
 6.75245E+01    1.01653E+03
 6.80000E+01    1.01383E+03
 6.90000E+01    1.00820E+03
 7.00000E+01    1.00260E+03
 7.01634E+01    1.00169E+03
 7.10000E+01    9.97074E+02
 7.20000E+01    9.91651E+02
 7.30000E+01    9.86329E+02
 7.34245E+01    9.84098E+02
 7.40000E+01    9.81102E+02
 7.50000E+01    9.75969E+02
 7.52011E+01    9.74947E+02
 7.60000E+01    9.70924E+02
 7.70000E+01    9.65966E+02
 7.79315E+01    9.61423E+02
 7.80000E+01    9.61091E+02
 7.90000E+01    9.56297E+02
 7.93933E+01    9.54432E+02
 8.00000E+01    9.51580E+02
 8.10000E+01    9.46938E+02
 8.20000E+01    9.42370E+02
 8.30000E+01    9.37874E+02
 8.40000E+01    9.33451E+02
 8.50000E+01    9.29100E+02
 8.60000E+01    9.24819E+02
 8.60506E+01    9.24605E+02
 8.70000E+01    9.20609E+02
 8.80000E+01    9.16467E+02
 8.90000E+01    9.12395E+02
 9.00000E+01    9.08390E+02
 9.10000E+01    9.04463E+02
 9.20000E+01    9.00622E+02
 9.30000E+01    8.96859E+02
 9.40000E+01    8.93172E+02
 9.50000E+01    8.89553E+02
 9.60000E+01    8.86000E+02
 9.70000E+01    8.82506E+02
 9.80000E+01    8.79070E+02
 9.90000E+01    8.75685E+02
 1.00000E+02    8.72350E+02
 1.02000E+02    8.65878E+02
 1.04000E+02    8.59693E+02
 1.06000E+02    8.53773E+02
 1.08000E+02    8.48097E+02
 1.10000E+02    8.42647E+02
 1.12000E+02    8.37406E+02
 1.14000E+02    8.32359E+02
 1.16000E+02    8.27490E+02
 1.18000E+02    8.22788E+02
 1.20000E+02    8.18240E+02
 1.22000E+02    8.13885E+02
 1.24000E+02    8.09755E+02
 1.26000E+02    8.05829E+02
 1.28000E+02    8.02089E+02
 1.30000E+02    7.98518E+02
 1.32000E+02    7.95101E+02
 1.34000E+02    7.91823E+02
 1.36000E+02    7.88671E+02
 1.38000E+02    7.85634E+02
 1.40000E+02    7.82700E+02
 1.42000E+02    7.79899E+02
 1.44000E+02    7.77266E+02
 1.46000E+02    7.74795E+02
 1.48000E+02    7.72485E+02
 1.50000E+02    7.70330E+02
