# n + Cu 65 : (n,xp)    
# endfb8.0   A.Koning,M.Chadwick,Hetrick       EVAL-FEB98
# 
# # energies =   127
#   E(MeV)        xs(mb) 
 7.82612E-01    0.00000E+00
 8.00000E-01    0.00000E+00
 9.00000E-01    0.00000E+00
 1.00000E+00    0.00000E+00
 1.10000E+00    0.00000E+00
 1.13289E+00    0.00000E+00
 1.20000E+00    0.00000E+00
 1.30000E+00    0.00000E+00
 1.40000E+00    1.28650E-14
 1.50000E+00    6.83800E-14
 1.50485E+00    7.10725E-14
 1.60000E+00    1.23895E-13
 1.64865E+00    1.50903E-13
 1.70000E+00    1.79410E-13
 1.75180E+00    5.17809E-11
 1.80000E+00    9.98000E-11
 1.90000E+00    6.56730E-09
 2.00000E+00    1.49060E-07
 2.10000E+00    1.70884E-06
 2.12688E+00    4.35154E-06
 2.14018E+00    5.65962E-06
 2.20000E+00    1.15418E-05
 2.24722E+00    3.30560E-05
 2.30000E+00    5.71063E-05
 2.31390E+00    7.90027E-05
 2.36523E+00    1.59888E-04
 2.40000E+00    2.14669E-04
 2.44399E+00    4.13287E-04
 2.50000E+00    6.66209E-04
 2.56498E+00    1.37754E-03
 2.57239E+00    1.45870E-03
 2.57327E+00    1.46827E-03
 2.60000E+00    1.76094E-03
 2.63369E+00    2.50981E-03
 2.66070E+00    3.11028E-03
 2.68457E+00    3.64077E-03
 2.69083E+00    3.78006E-03
 2.69614E+00    3.89812E-03
 2.70000E+00    3.98383E-03
 2.71046E+00    4.42149E-03
 2.79556E+00    7.98123E-03
 2.80000E+00    8.16674E-03
 2.88310E+00    1.44554E-02
 2.90000E+00    1.57340E-02
 2.90724E+00    1.65603E-02
 2.91143E+00    1.70375E-02
 2.91913E+00    1.79155E-02
 2.93946E+00    2.02346E-02
 2.94756E+00    2.11590E-02
 2.99339E+00    2.63868E-02
 3.00000E+00    2.71407E-02
 3.02325E+00    3.12759E-02
 3.03645E+00    3.36242E-02
 3.04346E+00    3.48706E-02
 3.08316E+00    4.19336E-02
 3.10000E+00    4.49281E-02
 3.12683E+00    5.15986E-02
 3.12753E+00    5.17729E-02
 3.13394E+00    5.33658E-02
 3.16441E+00    6.09395E-02
 3.16867E+00    6.19997E-02
 3.17558E+00    6.37165E-02
 3.17659E+00    6.39688E-02
 3.20000E+00    6.97874E-02
 3.30000E+00    1.03162E-01
 3.40000E+00    1.47907E-01
 3.50000E+00    2.04309E-01
 3.60000E+00    2.74525E-01
 3.80000E+00    4.65368E-01
 4.00000E+00    7.53309E-01
 4.50000E+00    1.82139E+00
 5.00000E+00    3.24761E+00
 5.50000E+00    4.70561E+00
 6.00000E+00    5.98025E+00
 6.50000E+00    7.00785E+00
 7.00000E+00    7.82038E+00
 7.50000E+00    8.56874E+00
 8.00000E+00    9.37562E+00
 8.50000E+00    1.03655E+01
 9.00000E+00    1.16836E+01
 9.50000E+00    1.46131E+01
 1.00000E+01    2.33686E+01
 1.05000E+01    3.62216E+01
 1.10000E+01    4.22969E+01
 1.15000E+01    4.45773E+01
 1.20000E+01    4.62300E+01
 1.25000E+01    4.89858E+01
 1.30000E+01    5.11111E+01
 1.35000E+01    5.34887E+01
 1.40000E+01    5.62472E+01
 1.45000E+01    5.92327E+01
 1.50000E+01    6.25608E+01
 1.55000E+01    6.61756E+01
 1.60000E+01    6.97356E+01
 1.65000E+01    7.32882E+01
 1.70000E+01    7.72326E+01
 1.75000E+01    8.02171E+01
 1.80000E+01    8.30599E+01
 1.85000E+01    8.55905E+01
 1.90000E+01    8.79559E+01
 1.95000E+01    8.98224E+01
 2.00000E+01    9.13496E+01
 2.00000E+01    1.56000E+02
 2.20000E+01    1.83752E+02
 2.40000E+01    2.14230E+02
 2.60000E+01    2.47153E+02
 2.80000E+01    2.83051E+02
 3.00000E+01    3.18461E+02
 3.50000E+01    4.22730E+02
 4.00000E+01    4.98468E+02
 4.50000E+01    5.41366E+02
 5.00000E+01    5.78542E+02
 5.50000E+01    6.07074E+02
 6.00000E+01    6.27516E+02
 6.50000E+01    6.43672E+02
 7.00000E+01    6.59916E+02
 7.50000E+01    6.73373E+02
 8.00000E+01    6.85527E+02
 8.50000E+01    7.00415E+02
 9.00000E+01    7.14580E+02
 9.50000E+01    7.28528E+02
 1.00000E+02    7.42957E+02
 1.10000E+02    7.68181E+02
 1.20000E+02    7.94108E+02
 1.30000E+02    8.21143E+02
 1.40000E+02    8.47588E+02
 1.50000E+02    8.69797E+02
