# n + Tb157 : (n,xn)    
# jendl.ad   N.Iwamoto                         EVAL-Apr14
# 
# # energies =   115
#   E(MeV)        xs(mb) 
 6.12693E-02    0.00000E+00
 7.00000E-02    1.82632E+02
 8.00000E-02    2.48595E+02
 9.00000E-02    2.97669E+02
 1.00000E-01    3.38583E+02
 1.05000E-01    3.55796E+02
 1.10000E-01    3.73018E+02
 1.20000E-01    4.03477E+02
 1.30000E-01    4.29479E+02
 1.40000E-01    4.51775E+02
 1.44854E-01    4.62016E+02
 1.50000E-01    4.81264E+02
 1.60000E-01    5.14367E+02
 1.70000E-01    5.43172E+02
 1.80000E-01    5.69956E+02
 1.90000E-01    5.94982E+02
 2.00000E-01    6.18253E+02
 2.25000E-01    6.67935E+02
 2.50000E-01    7.04856E+02
 2.54214E-01    7.10411E+02
 2.75000E-01    7.44233E+02
 3.00000E-01    7.78123E+02
 3.28447E-01    8.07114E+02
 3.29749E-01    8.25028E+02
 3.59962E-01    9.72972E+02
 3.80118E-01    1.04519E+03
 4.00000E-01    1.09790E+03
 4.10663E-01    1.12415E+03
 4.28537E-01    1.17343E+03
 5.00000E-01    1.30705E+03
 5.17264E-01    1.33040E+03
 5.20927E-01    1.33608E+03
 5.35450E-01    1.35525E+03
 5.75395E-01    1.40044E+03
 6.00000E-01    1.42847E+03
 6.01217E-01    1.42968E+03
 6.41454E-01    1.49910E+03
 6.47666E-01    1.52151E+03
 6.52135E-01    1.53199E+03
 6.62733E-01    1.55392E+03
 6.98088E-01    1.61948E+03
 7.00000E-01    1.62252E+03
 7.01805E-01    1.62534E+03
 7.13356E-01    1.65032E+03
 7.88244E-01    1.75517E+03
 7.98641E-01    1.76635E+03
 8.00000E-01    1.76846E+03
 8.43386E-01    1.81264E+03
 8.65327E-01    1.83865E+03
 8.66031E-01    1.83935E+03
 8.89002E-01    1.86133E+03
 8.96083E-01    1.87149E+03
 9.00000E-01    1.87576E+03
 9.00812E-01    1.87661E+03
 9.01759E-01    1.87878E+03
 9.28621E-01    1.91123E+03
 9.31252E-01    1.91536E+03
 9.32958E-01    1.92005E+03
 9.32959E-01    1.92005E+03
 9.53087E-01    1.94852E+03
 9.72209E-01    1.97050E+03
 9.76623E-01    1.97514E+03
 9.76869E-01    1.97594E+03
 9.80623E-01    1.98143E+03
 9.98073E-01    2.00141E+03
 1.00000E+00    2.00539E+03
 1.01146E+00    2.02052E+03
 1.10000E+00    2.10820E+03
 1.20000E+00    2.18308E+03
 1.30000E+00    2.25690E+03
 1.40000E+00    2.32145E+03
 1.50000E+00    2.37709E+03
 1.60000E+00    2.42434E+03
 1.70000E+00    2.46385E+03
 1.80000E+00    2.49739E+03
 1.90000E+00    2.52589E+03
 2.00000E+00    2.55006E+03
 2.25000E+00    2.60234E+03
 2.50000E+00    2.63073E+03
 2.75000E+00    2.65938E+03
 3.00000E+00    2.68220E+03
 3.50000E+00    2.72506E+03
 4.00000E+00    2.75918E+03
 4.50000E+00    2.77356E+03
 5.00000E+00    2.77192E+03
 5.50000E+00    2.75940E+03
 6.00000E+00    2.74236E+03
 6.50000E+00    2.72195E+03
 7.00000E+00    2.69978E+03
 7.50000E+00    2.67690E+03
 8.00000E+00    2.65411E+03
 8.50000E+00    2.63200E+03
 9.00000E+00    2.61760E+03
 9.50000E+00    2.77109E+03
 1.00000E+01    3.05371E+03
 1.05000E+01    3.35197E+03
 1.10000E+01    3.60592E+03
 1.15000E+01    3.80185E+03
 1.20000E+01    3.94685E+03
 1.25000E+01    4.05197E+03
 1.30000E+01    4.12722E+03
 1.35000E+01    4.17994E+03
 1.40000E+01    4.21567E+03
 1.45000E+01    4.23875E+03
 1.50000E+01    4.25242E+03
 1.55000E+01    4.25935E+03
 1.60000E+01    4.26161E+03
 1.65000E+01    4.26326E+03
 1.70000E+01    4.28905E+03
 1.75000E+01    4.35270E+03
 1.80000E+01    4.45339E+03
 1.85000E+01    4.57931E+03
 1.90000E+01    4.70445E+03
 1.95000E+01    4.82602E+03
 2.00000E+01    4.93737E+03
