# n + Tb157 : (n,t)     
# jendl.ad   N.Iwamoto                         EVAL-Apr14
# uncertainties: n
# # energies =    66
#   E(MeV)       xs(mb) 
 5.60781E+00    0.00000E+00
 5.66820E+00    4.11390E-23
 5.69491E+00    6.26910E-23
 5.71380E+00    7.89080E-23
 5.71608E+00    8.09140E-23
 5.72656E+00    9.03820E-23
 5.72964E+00    9.32200E-23
 5.75482E+00    1.16710E-22
 5.82354E+00    1.81280E-22
 5.83942E+00    1.96200E-22
 5.86113E+00    2.16610E-22
 5.87617E+00    2.30740E-22
 5.87816E+00    2.32610E-22
 5.89219E+00    2.45800E-22
 5.89666E+00    2.50010E-22
 5.93125E+00    2.82530E-22
 5.93599E+00    2.86980E-22
 5.96049E+00    3.10020E-22
 5.97780E+00    3.26290E-22
 6.00265E+00    3.49650E-22
 6.00387E+00    3.58110E-22
 6.03394E+00    7.98040E-22
 6.03434E+00    8.05240E-22
 6.03779E+00    8.69320E-22
 6.06127E+00    1.35870E-21
 6.06208E+00    1.37650E-21
 6.06439E+00    1.42880E-21
 6.06520E+00    1.44750E-21
 6.07462E+00    1.67730E-21
 6.09089E+00    2.07990E-21
 6.09691E+00    2.23250E-21
 6.09967E+00    2.30390E-21
 6.14554E+00    3.51080E-21
 6.16474E+00    4.01720E-21
 6.17077E+00    4.17670E-21
 6.19300E+00    4.76490E-21
 6.20376E+00    5.04990E-21
 6.22258E+00    5.54860E-21
 6.22661E+00    5.65540E-21
 7.00000E+00    2.61600E-20
 7.50000E+00    1.74420E-16
 8.00000E+00    2.95060E-13
 8.50000E+00    4.46380E-11
 9.00000E+00    1.54920E-09
 9.50000E+00    2.07300E-08
 1.00000E+01    1.50680E-07
 1.05000E+01    8.01040E-07
 1.10000E+01    3.48280E-06
 1.15000E+01    1.68087E-05
 1.20000E+01    7.62544E-05
 1.25000E+01    2.98970E-04
 1.30000E+01    1.07326E-03
 1.35000E+01    3.01185E-03
 1.40000E+01    6.98628E-03
 1.45000E+01    1.53207E-02
 1.50000E+01    2.99743E-02
 1.55000E+01    5.40137E-02
 1.60000E+01    8.59564E-02
 1.65000E+01    1.30437E-01
 1.70000E+01    1.84859E-01
 1.75000E+01    2.50203E-01
 1.80000E+01    3.25658E-01
 1.85000E+01    4.09967E-01
 1.90000E+01    4.98738E-01
 1.95000E+01    5.92023E-01
 2.00000E+01    6.86219E-01
