# n + Tb157 : (n,xp)    
# jendl.ad   N.Iwamoto                         EVAL-Apr14
# 
# # energies =   115
#   E(MeV)        xs(mb) 
 6.12693E-02    0.00000E+00
 7.00000E-02    0.00000E+00
 8.00000E-02    0.00000E+00
 9.00000E-02    0.00000E+00
 1.00000E-01    0.00000E+00
 1.05000E-01    0.00000E+00
 1.10000E-01    0.00000E+00
 1.20000E-01    0.00000E+00
 1.30000E-01    0.00000E+00
 1.40000E-01    0.00000E+00
 1.44854E-01    0.00000E+00
 1.50000E-01    0.00000E+00
 1.60000E-01    3.96170E-14
 1.70000E-01    5.11800E-14
 1.80000E-01    6.59860E-14
 1.90000E-01    8.48830E-14
 2.00000E-01    1.08940E-13
 2.25000E-01    2.63840E-13
 2.50000E-01    4.86710E-13
 2.54214E-01    5.39290E-13
 2.75000E-01    8.88130E-13
 3.00000E-01    1.62850E-12
 3.28447E-01    3.10870E-12
 3.29749E-01    3.18440E-12
 3.59962E-01    5.72280E-12
 3.80118E-01    8.48610E-12
 4.00000E-01    1.24760E-11
 4.10663E-01    1.53640E-11
 4.28537E-01    2.15540E-11
 5.00000E-01    8.00830E-11
 5.17264E-01    1.08600E-10
 5.20927E-01    1.15730E-10
 5.35450E-01    1.48710E-10
 5.75395E-01    2.90740E-10
 6.00000E-01    4.32250E-10
 6.01217E-01    4.40740E-10
 6.41454E-01    8.02400E-10
 6.47666E-01    8.67620E-10
 6.52135E-01    9.24280E-10
 6.62733E-01    1.07640E-09
 6.98088E-01    1.78120E-09
 7.00000E-01    1.83010E-09
 7.01805E-01    1.87750E-09
 7.13356E-01    2.18860E-09
 7.88244E-01    5.99700E-09
 7.98641E-01    6.87140E-09
 8.00000E-01    6.98900E-09
 8.43386E-01    1.21400E-08
 8.65327E-01    1.57830E-08
 8.66031E-01    1.59180E-08
 8.89002E-01    2.09640E-08
 8.96083E-01    2.27480E-08
 9.00000E-01    2.38090E-08
 9.00812E-01    2.40340E-08
 9.01759E-01    2.42550E-08
 9.28621E-01    3.27540E-08
 9.31252E-01    3.36820E-08
 9.32958E-01    3.41760E-08
 9.32959E-01    3.41764E-08
 9.53087E-01    4.21710E-08
 9.72209E-01    5.16440E-08
 9.76623E-01    5.41140E-08
 9.76869E-01    5.42260E-08
 9.80623E-01    5.63250E-08
 9.98073E-01    6.73980E-08
 1.00000E+00    6.85140E-08
 1.01146E+00    7.67070E-08
 1.10000E+00    1.82530E-07
 1.20000E+00    4.57420E-07
 1.30000E+00    1.04407E-06
 1.40000E+00    2.22055E-06
 1.50000E+00    4.44028E-06
 1.60000E+00    8.41620E-06
 1.70000E+00    1.52328E-05
 1.80000E+00    2.64202E-05
 1.90000E+00    4.41058E-05
 2.00000E+00    7.11690E-05
 2.25000E+00    2.00875E-04
 2.50000E+00    5.12033E-04
 2.75000E+00    1.09298E-03
 3.00000E+00    2.17951E-03
 3.50000E+00    6.57934E-03
 4.00000E+00    1.52952E-02
 4.50000E+00    2.90455E-02
 5.00000E+00    4.72405E-02
 5.50000E+00    6.85308E-02
 6.00000E+00    9.20780E-02
 6.50000E+00    1.15571E-01
 7.00000E+00    1.53759E-01
 7.50000E+00    2.14746E-01
 8.00000E+00    3.16566E-01
 8.50000E+00    4.83510E-01
 9.00000E+00    7.45360E-01
 9.50000E+00    1.13410E+00
 1.00000E+01    1.67985E+00
 1.05000E+01    2.40864E+00
 1.10000E+01    3.33999E+00
 1.15000E+01    4.48656E+00
 1.20000E+01    5.85499E+00
 1.25000E+01    7.44725E+00
 1.30000E+01    9.26193E+00
 1.35000E+01    1.12956E+01
 1.40000E+01    1.35439E+01
 1.45000E+01    1.60019E+01
 1.50000E+01    1.86645E+01
 1.55000E+01    2.15281E+01
 1.60000E+01    2.45810E+01
 1.65000E+01    2.78263E+01
 1.70000E+01    3.12521E+01
 1.75000E+01    3.48521E+01
 1.80000E+01    3.86218E+01
 1.85000E+01    4.25516E+01
 1.90000E+01    4.66270E+01
 1.95000E+01    5.08553E+01
 2.00000E+01    5.52077E+01
