# n + Tb157 : (n,xa)    
# jendl.ad   N.Iwamoto                         EVAL-Apr14
# 
# # energies =   115
#   E(MeV)        xs(mb) 
 6.12693E-02    1.88317E-06
 7.00000E-02    2.03924E-06
 8.00000E-02    1.93717E-06
 9.00000E-02    1.85747E-06
 1.00000E-01    1.79498E-06
 1.05000E-01    1.76768E-06
 1.10000E-01    1.74359E-06
 1.20000E-01    1.70317E-06
 1.30000E-01    1.67237E-06
 1.40000E-01    1.64827E-06
 1.44854E-01    1.63778E-06
 1.50000E-01    1.62372E-06
 1.60000E-01    1.60032E-06
 1.70000E-01    1.85566E-06
 1.80000E-01    1.83601E-06
 1.90000E-01    1.81947E-06
 2.00000E-01    1.80618E-06
 2.25000E-01    1.79599E-06
 2.50000E-01    1.81195E-06
 2.54214E-01    1.81637E-06
 2.75000E-01    2.15501E-06
 3.00000E-01    2.19005E-06
 3.28447E-01    2.24995E-06
 3.29749E-01    2.23434E-06
 3.59962E-01    2.15521E-06
 3.80118E-01    2.49734E-06
 4.00000E-01    2.48905E-06
 4.10663E-01    2.49829E-06
 4.28537E-01    2.50353E-06
 5.00000E-01    3.09077E-06
 5.17264E-01    3.14271E-06
 5.20927E-01    3.15373E-06
 5.35450E-01    3.19743E-06
 5.75395E-01    3.93690E-06
 6.00000E-01    4.02087E-06
 6.01217E-01    4.02503E-06
 6.41454E-01    4.13704E-06
 6.47666E-01    4.12563E-06
 6.52135E-01    4.13853E-06
 6.62733E-01    4.16912E-06
 6.98088E-01    5.01554E-06
 7.00000E-01    5.02385E-06
 7.01805E-01    5.03170E-06
 7.13356E-01    5.04838E-06
 7.88244E-01    6.37428E-06
 7.98641E-01    6.44688E-06
 8.00000E-01    6.45637E-06
 8.43386E-01    6.78528E-06
 8.65327E-01    6.94353E-06
 8.66031E-01    6.94849E-06
 8.89002E-01    8.37181E-06
 8.96083E-01    8.41519E-06
 9.00000E-01    8.43919E-06
 9.00812E-01    8.44416E-06
 9.01759E-01    8.44014E-06
 9.28621E-01    8.61476E-06
 9.31252E-01    8.62642E-06
 9.32958E-01    8.61350E-06
 9.32959E-01    8.61351E-06
 9.53087E-01    8.70777E-06
 9.72209E-01    1.03916E-05
 9.76623E-01    1.04262E-05
 9.76869E-01    1.04212E-05
 9.80623E-01    1.04292E-05
 9.98073E-01    1.05416E-05
 1.00000E+00    1.05330E-05
 1.01146E+00    1.05986E-05
 1.10000E+00    1.34717E-05
 1.20000E+00    1.74862E-05
 1.30000E+00    2.21978E-05
 1.40000E+00    2.79461E-05
 1.50000E+00    3.49408E-05
 1.60000E+00    4.34719E-05
 1.70000E+00    5.38830E-05
 1.80000E+00    6.64957E-05
 1.90000E+00    8.17033E-05
 2.00000E+00    9.99049E-05
 2.25000E+00    1.47948E-04
 2.50000E+00    2.57088E-04
 2.75000E+00    3.67266E-04
 3.00000E+00    6.05373E-04
 3.50000E+00    1.27372E-03
 4.00000E+00    2.44829E-03
 4.50000E+00    4.31335E-03
 5.00000E+00    7.02431E-03
 5.50000E+00    1.06833E-02
 6.00000E+00    1.53139E-02
 6.50000E+00    1.99391E-02
 7.00000E+00    2.66484E-02
 7.50000E+00    3.51802E-02
 8.00000E+00    4.64495E-02
 8.50000E+00    6.18236E-02
 9.00000E+00    8.33081E-02
 9.50000E+00    1.12876E-01
 1.00000E+01    1.53566E-01
 1.05000E+01    2.08180E-01
 1.10000E+01    2.80465E-01
 1.15000E+01    3.73232E-01
 1.20000E+01    4.88657E-01
 1.25000E+01    6.27134E-01
 1.30000E+01    7.90749E-01
 1.35000E+01    9.78238E-01
 1.40000E+01    1.18876E+00
 1.45000E+01    1.42123E+00
 1.50000E+01    1.67444E+00
 1.55000E+01    1.94777E+00
 1.60000E+01    2.23865E+00
 1.65000E+01    2.54795E+00
 1.70000E+01    2.87376E+00
 1.75000E+01    3.21651E+00
 1.80000E+01    3.57546E+00
 1.85000E+01    3.95059E+00
 1.90000E+01    4.34263E+00
 1.95000E+01    4.75165E+00
 2.00000E+01    5.17763E+00
