# n + Tb157 : (n,d)     
# jendl.ad   N.Iwamoto                         EVAL-Apr14
# uncertainties: n
# # energies =    73
#   E(MeV)       xs(mb) 
 3.31400E+00    0.00000E+00
 3.40354E+00    5.27980E-21
 3.60404E+00    1.91710E-20
 3.90247E+00    1.11970E-17
 4.28534E+00    2.55390E-17
 4.37023E+00    2.87200E-17
 4.45070E+00    3.17360E-17
 4.47557E+00    3.26680E-17
 4.48970E+00    3.31980E-17
 4.50000E+00    3.35840E-17
 4.56446E+00    1.79840E-15
 4.57003E+00    1.95110E-15
 4.58015E+00    2.22880E-15
 4.59834E+00    2.72820E-15
 4.62016E+00    3.32750E-15
 4.64214E+00    3.93140E-15
 4.67813E+00    4.92040E-15
 4.68924E+00    5.22570E-15
 4.73118E+00    6.37830E-15
 4.73918E+00    6.59810E-15
 4.78570E+00    7.87660E-15
 4.79195E+00    8.04840E-15
 4.83054E+00    9.10890E-15
 4.83430E+00    9.21230E-15
 4.86274E+00    9.99390E-15
 4.86409E+00    1.00310E-14
 4.90100E+00    1.10450E-14
 4.91925E+00    1.15470E-14
 4.94697E+00    1.23090E-14
 4.96253E+00    1.27360E-14
 4.96821E+00    1.28930E-14
 5.00000E+00    1.37660E-14
 5.03076E+00    1.09240E-12
 5.04021E+00    1.42380E-12
 5.07892E+00    2.78130E-12
 5.09096E+00    3.20350E-12
 5.09647E+00    3.39670E-12
 5.10593E+00    3.72850E-12
 5.12428E+00    4.37190E-12
 5.12959E+00    4.55810E-12
 5.15359E+00    5.39980E-12
 5.17421E+00    6.12280E-12
 5.17573E+00    6.17620E-12
 5.50000E+00    1.75470E-11
 6.00000E+00    1.80280E-09
 6.50000E+00    4.18880E-08
 7.00000E+00    3.81360E-07
 7.50000E+00    2.01400E-06
 8.00000E+00    8.04941E-06
 8.50000E+00    4.23761E-05
 9.00000E+00    2.44888E-04
 9.50000E+00    1.19946E-03
 1.00000E+01    4.70417E-03
 1.05000E+01    1.50670E-02
 1.10000E+01    4.05711E-02
 1.15000E+01    9.41194E-02
 1.20000E+01    1.91855E-01
 1.25000E+01    3.34407E-01
 1.30000E+01    5.55269E-01
 1.35000E+01    8.50901E-01
 1.40000E+01    1.22010E+00
 1.45000E+01    1.65700E+00
 1.50000E+01    2.15324E+00
 1.55000E+01    2.68434E+00
 1.60000E+01    3.28972E+00
 1.65000E+01    3.94992E+00
 1.70000E+01    4.57475E+00
 1.75000E+01    5.24041E+00
 1.80000E+01    5.94210E+00
 1.85000E+01    6.55654E+00
 1.90000E+01    7.30107E+00
 1.95000E+01    7.79639E+00
 2.00000E+01    8.53626E+00
