# n + Sn119 : (n,xp)    
# jendl4.0   N.Iwamoto,K.Shibata               EVAL-Dec09
# 
# # energies =   102
#   E(MeV)        xs(mb) 
 2.40735E-02    0.00000E+00
 3.00000E-02    0.00000E+00
 4.00000E-02    0.00000E+00
 5.00000E-02    0.00000E+00
 6.00000E-02    0.00000E+00
 7.00000E-02    0.00000E+00
 8.00000E-02    0.00000E+00
 9.00000E-02    0.00000E+00
 9.02905E-02    0.00000E+00
 1.00000E-01    0.00000E+00
 1.05000E-01    0.00000E+00
 1.10000E-01    0.00000E+00
 1.20000E-01    0.00000E+00
 1.30000E-01    0.00000E+00
 1.40000E-01    0.00000E+00
 1.50000E-01    0.00000E+00
 1.60000E-01    0.00000E+00
 1.70000E-01    0.00000E+00
 1.80000E-01    0.00000E+00
 1.90000E-01    0.00000E+00
 2.00000E-01    0.00000E+00
 2.25000E-01    0.00000E+00
 2.50000E-01    0.00000E+00
 2.75000E-01    0.00000E+00
 3.00000E-01    0.00000E+00
 4.00000E-01    0.00000E+00
 5.00000E-01    0.00000E+00
 6.00000E-01    0.00000E+00
 7.00000E-01    0.00000E+00
 7.93686E-01    0.00000E+00
 8.00000E-01    0.00000E+00
 9.00000E-01    0.00000E+00
 9.28319E-01    0.00000E+00
 9.29206E-01    0.00000E+00
 1.00000E+00    0.00000E+00
 1.06899E+00    0.00000E+00
 1.07141E+00    0.00000E+00
 1.09868E+00    0.00000E+00
 1.10000E+00    0.00000E+00
 1.19781E+00    0.00000E+00
 1.20000E+00    0.00000E+00
 1.22026E+00    0.00000E+00
 1.26031E+00    0.00000E+00
 1.30000E+00    0.00000E+00
 1.31546E+00    0.00000E+00
 1.31547E+00    0.00000E+00
 1.32041E+00    0.00000E+00
 1.36629E+00    0.00000E+00
 1.39050E+00    0.00000E+00
 1.40000E+00    0.00000E+00
 1.40179E+00    0.00000E+00
 1.50000E+00    0.00000E+00
 1.52281E+00    0.00000E+00
 1.56759E+00    0.00000E+00
 1.57525E+00    0.00000E+00
 1.58513E+00    0.00000E+00
 1.60000E+00    7.56296E-14
 1.60349E+00    1.27792E-13
 1.63082E+00    5.36276E-13
 1.64685E+00    7.75865E-13
 1.70000E+00    1.57026E-12
 1.80000E+00    3.06490E-12
 1.90000E+00    4.55953E-12
 2.00000E+00    6.05415E-12
 2.25000E+00    9.79066E-12
 2.50000E+00    1.35272E-11
 2.75000E+00    1.72640E-11
 3.00000E+00    2.10380E-11
 3.50000E+00    2.85950E-11
 4.00000E+00    2.48199E-05
 4.50000E+00    2.07790E-04
 5.00000E+00    9.00944E-04
 5.50000E+00    2.55009E-03
 6.00000E+00    5.41968E-03
 6.50000E+00    9.55366E-03
 7.00000E+00    1.52479E-02
 7.50000E+00    2.41047E-02
 8.00000E+00    4.05733E-02
 8.50000E+00    7.35285E-02
 9.00000E+00    1.37023E-01
 9.50000E+00    2.49310E-01
 1.00000E+01    4.30302E-01
 1.05000E+01    6.99168E-01
 1.10000E+01    1.07151E+00
 1.15000E+01    1.56228E+00
 1.20000E+01    2.17975E+00
 1.25000E+01    2.93454E+00
 1.30000E+01    3.82938E+00
 1.35000E+01    4.86618E+00
 1.40000E+01    6.04758E+00
 1.45000E+01    7.36124E+00
 1.50000E+01    8.81723E+00
 1.55000E+01    1.03858E+01
 1.60000E+01    1.20887E+01
 1.65000E+01    1.38813E+01
 1.70000E+01    1.57953E+01
 1.75000E+01    1.77833E+01
 1.80000E+01    1.98840E+01
 1.85000E+01    2.20483E+01
 1.90000E+01    2.43172E+01
 1.95000E+01    2.66486E+01
 2.00000E+01    2.90808E+01
