# n + Zr 94 : (n,xn)    
# jendl4.0   JNDC FP NUCLEAR DATA W.G.         EVAL-AUG89
# 
# # energies =    45
#   E(MeV)        xs(mb) 
 9.28568E-01    0.00000E+00
 9.28570E-01    1.06603E-02
 1.00000E+00    3.91993E+02
 1.25000E+00    8.23073E+02
 1.31417E+00    8.71292E+02
 1.48539E+00    1.04686E+03
 1.50000E+00    1.06495E+03
 1.68935E+00    1.23002E+03
 1.75000E+00    1.31196E+03
 2.00000E+00    1.48890E+03
 2.07970E+00    1.51507E+03
 2.17441E+00    1.56446E+03
 2.25000E+00    1.61405E+03
 2.35523E+00    1.66203E+03
 2.39151E+00    1.67599E+03
 2.50000E+00    1.72926E+03
 2.53460E+00    1.74084E+03
 2.53464E+00    1.74086E+03
 2.63248E+00    1.77320E+03
 2.72749E+00    1.78989E+03
 2.85635E+00    1.80813E+03
 2.87687E+00    1.81089E+03
 2.89130E+00    1.81401E+03
 2.89133E+00    1.81402E+03
 2.89173E+00    1.81413E+03
 3.00000E+00    1.84270E+03
 3.50000E+00    1.84997E+03
 4.00000E+00    1.83709E+03
 5.00000E+00    1.73967E+03
 6.00000E+00    1.73253E+03
 7.00000E+00    1.75095E+03
 8.00000E+00    1.74406E+03
 8.50000E+00    1.86211E+03
 9.00000E+00    2.10783E+03
 1.00000E+01    2.55246E+03
 1.10000E+01    2.77058E+03
 1.20000E+01    2.91831E+03
 1.30000E+01    3.01226E+03
 1.40000E+01    3.08831E+03
 1.50000E+01    3.14599E+03
 1.60000E+01    3.19724E+03
 1.70000E+01    3.27018E+03
 1.80000E+01    3.42399E+03
 1.90000E+01    3.62314E+03
 2.00000E+01    3.82328E+03
