# n + Zr 94 : (n,xa)    
# jendl4.0   JNDC FP NUCLEAR DATA W.G.         EVAL-AUG89
# 
# # energies =    45
#   E(MeV)        xs(mb) 
 9.28568E-01    1.01748E-10
 9.28570E-01    1.01748E-10
 1.00000E+00    1.17870E-10
 1.25000E+00    1.49324E-08
 1.31417E+00    1.87350E-08
 1.48539E+00    2.88812E-08
 1.50000E+00    2.97469E-08
 1.68935E+00    4.09675E-08
 1.75000E+00    4.45615E-08
 2.00000E+00    5.93760E-08
 2.07970E+00    9.15056E-08
 2.17441E+00    1.51993E-07
 2.25000E+00    2.28416E-07
 2.35523E+00    4.02756E-07
 2.39151E+00    4.89708E-07
 2.50000E+00    8.78724E-07
 2.53460E+00    1.05886E-06
 2.53464E+00    1.05909E-06
 2.63248E+00    1.79438E-06
 2.72749E+00    2.99425E-06
 2.85635E+00    5.99611E-06
 2.87687E+00    6.69733E-06
 2.89130E+00    7.23891E-06
 2.89133E+00    7.24008E-06
 2.89173E+00    7.25563E-06
 3.00000E+00    1.30036E-05
 3.50000E+00    8.59787E-05
 4.00000E+00    4.90192E-04
 5.00000E+00    5.92197E-03
 6.00000E+00    3.30736E-02
 7.00000E+00    1.01866E-01
 8.00000E+00    2.16055E-01
 8.50000E+00    2.84439E-01
 9.00000E+00    3.63386E-01
 1.00000E+01    5.80685E-01
 1.10000E+01    1.01045E+00
 1.20000E+01    1.75965E+00
 1.30000E+01    2.90626E+00
 1.40000E+01    4.41675E+00
 1.50000E+01    5.95195E+00
 1.60000E+01    7.38722E+00
 1.70000E+01    8.49760E+00
 1.80000E+01    9.37655E+00
 1.90000E+01    1.00689E+01
 2.00000E+01    1.07562E+01
