# n + Zr 94 : (n,el)    
# jendl4.0   JNDC FP NUCLEAR DATA W.G.         EVAL-AUG89
# uncertainties: n
# # energies =   171
#   E(MeV)       xs(mb) 
 1.00000E-11    1.09790E+04
 1.00000E-07    6.13841E+03
 4.13990E-07    6.13585E+03
 5.31580E-07    6.13522E+03
 6.82560E-07    6.13453E+03
 8.76420E-07    6.13434E+03
 1.12540E-06    6.13424E+03
 1.44500E-06    6.13412E+03
 1.85540E-06    6.13396E+03
 2.37240E-06    6.13375E+03
 3.05900E-06    6.13348E+03
 3.92790E-06    6.13314E+03
 5.04350E-06    6.13271E+03
 6.47600E-06    6.13214E+03
 8.31530E-06    6.13142E+03
 1.06770E-05    6.13049E+03
 1.37100E-05    6.12930E+03
 1.76030E-05    6.12777E+03
 2.26030E-05    6.12578E+03
 2.92030E-05    6.12326E+03
 3.72670E-05    6.12006E+03
 4.78510E-05    6.11590E+03
 6.14420E-05    6.11056E+03
 7.88930E-05    6.10371E+03
 1.01300E-04    6.09492E+03
 1.30070E-04    6.08362E+03
 1.67020E-04    6.06912E+03
 2.14450E-04    6.05050E+03
 2.75360E-04    6.02658E+03
 3.53580E-04    5.99634E+03
 4.54000E-04    5.96253E+03
 5.82950E-04    5.92052E+03
 7.48520E-04    5.86657E+03
 9.61120E-04    5.79730E+03
 1.23410E-03    5.69840E+03
 1.58460E-03    5.45231E+03
 2.03470E-03    1.66680E+04
 2.24870E-03    8.05850E+03
 2.48520E-03    6.15082E+03
 2.61260E-03    5.98367E+03
 2.74650E-03    5.83828E+03
 3.03540E-03    5.70242E+03
 3.35460E-03    5.57790E+03
 3.70740E-03    5.39359E+03
 4.30740E-03    4.88257E+03
 5.53080E-03    1.95680E+04
 7.10170E-03    9.78048E+03
 9.11880E-03    7.19694E+03
 1.17090E-02    8.90226E+03
 1.50340E-02    1.21114E+04
 1.93050E-02    1.92002E+04
 2.18750E-02    9.66509E+03
 2.35790E-02    2.32868E+04
 2.41760E-02    1.50072E+04
 2.47880E-02    7.60560E+03
 2.60580E-02    6.74128E+03
 2.70000E-02    6.51759E+03
 2.85000E-02    1.02715E+04
 3.18280E-02    1.31659E+04
 3.43070E-02    1.06248E+04
 4.08680E-02    1.54563E+04
 4.63090E-02    9.19742E+03
 5.24750E-02    8.27235E+03
 5.65620E-02    8.84085E+03
 6.73790E-02    8.91451E+03
 7.20000E-02    8.96587E+03
 7.95000E-02    9.00842E+03
 8.25000E-02    9.03483E+03
 8.65170E-02    9.08789E+03
 9.80370E-02    9.15082E+03
 1.11090E-01    9.17850E+03
 1.16790E-01    9.19516E+03
 1.22770E-01    9.21263E+03
 1.29070E-01    9.23099E+03
 1.35690E-01    9.25025E+03
 1.42640E-01    9.27047E+03
 1.49960E-01    9.30063E+03
 1.57640E-01    9.34158E+03
 1.65730E-01    9.38067E+03
 1.74220E-01    9.37949E+03
 1.83160E-01    9.36674E+03
 1.92550E-01    9.35297E+03
 2.02420E-01    9.33013E+03
 2.12800E-01    9.30264E+03
 2.23710E-01    9.27374E+03
 2.35180E-01    9.24335E+03
 2.47240E-01    9.19462E+03
 2.73240E-01    9.14253E+03
 2.87250E-01    9.11493E+03
 2.94520E-01    9.10204E+03
 2.97200E-01    9.09690E+03
 2.98500E-01    9.09075E+03
 3.01970E-01    9.04591E+03
 3.33730E-01    8.95962E+03
 3.68830E-01    8.88931E+03
 3.87740E-01    8.83921E+03
 4.07620E-01    8.75004E+03
 4.50490E-01    8.60730E+03
 4.97870E-01    8.48047E+03
 5.23400E-01    8.36319E+03
 5.50230E-01    8.23899E+03
 5.78440E-01    8.10841E+03
 6.08100E-01    7.97113E+03
 6.39280E-01    7.82681E+03
 6.72060E-01    7.67512E+03
 7.06510E-01    7.51563E+03
 7.42740E-01    7.34796E+03
 7.80820E-01    7.17364E+03
 8.20850E-01    7.01093E+03
 8.62940E-01    6.84546E+03
 9.07180E-01    6.60273E+03
 9.61640E-01    6.18220E+03
 1.00260E+00    5.75798E+03
 1.10800E+00    5.37280E+03
 1.16480E+00    5.09814E+03
 1.22460E+00    4.82909E+03
 1.28730E+00    4.63055E+03
 1.35340E+00    4.42057E+03
 1.42270E+00    4.19611E+03
 1.49570E+00    3.99039E+03
 1.57240E+00    3.81280E+03
 1.65300E+00    3.61978E+03
 1.73770E+00    3.42422E+03
 1.82680E+00    3.28026E+03
 1.92050E+00    3.13118E+03
 2.01900E+00    3.01837E+03
 2.12250E+00    2.90676E+03
 2.23130E+00    2.80652E+03
 2.30690E+00    2.75698E+03
 2.34570E+00    2.73214E+03
 2.36530E+00    2.71537E+03
 2.38520E+00    2.67277E+03
 2.46600E+00    2.59004E+03
 2.59240E+00    2.50657E+03
 2.72530E+00    2.43766E+03
 2.86500E+00    2.36175E+03
 3.01190E+00    2.29864E+03
 3.16640E+00    2.25089E+03
 3.32870E+00    2.18081E+03
 3.67880E+00    2.11850E+03
 4.06570E+00    2.10851E+03
 4.49330E+00    2.13229E+03
 4.72370E+00    2.16427E+03
 4.96590E+00    2.19679E+03
 5.22050E+00    2.22646E+03
 5.48810E+00    2.25754E+03
 5.76950E+00    2.29250E+03
 6.06530E+00    2.32638E+03
 6.37630E+00    2.35156E+03
 6.59240E+00    2.36689E+03
 6.70320E+00    2.38453E+03
 7.04690E+00    2.41164E+03
 7.40820E+00    2.43816E+03
 7.78800E+00    2.46682E+03
 8.18730E+00    2.49437E+03
 8.60710E+00    2.47605E+03
 9.04840E+00    2.47798E+03
 9.51230E+00    2.47053E+03
 1.00000E+01    2.45472E+03
 1.05130E+01    2.43306E+03
 1.10520E+01    2.39908E+03
 1.16180E+01    2.35441E+03
 1.22140E+01    2.29800E+03
 1.28400E+01    2.23316E+03
 1.34990E+01    2.17743E+03
 1.38400E+01    2.13869E+03
 1.41910E+01    2.09934E+03
 1.45500E+01    2.05905E+03
 1.49180E+01    1.99368E+03
 1.56830E+01    1.90108E+03
 1.64870E+01    1.82025E+03
