# n + Y  89 : (n,n')    
# jendl4.0   A.Ichihara, K.Shibata, S.Kunieda+ EVAL-OCT09
# uncertainties: n
# # energies =    85
#   E(MeV)       xs(mb) 
 9.19283E-01    0.00000E+00
 1.00000E+00    5.46500E+01
 1.10000E+00    8.32800E+01
 1.20000E+00    1.08300E+02
 1.30000E+00    1.33000E+02
 1.40000E+00    1.57900E+02
 1.50000E+00    1.83400E+02
 1.52436E+00    1.87493E+02
 1.60000E+00    3.84600E+02
 1.70000E+00    5.95300E+02
 1.76436E+00    6.69704E+02
 1.80000E+00    7.73360E+02
 1.90000E+00    9.78900E+02
 2.00000E+00    1.11540E+03
 2.10000E+00    1.20170E+03
 2.20000E+00    1.25760E+03
 2.24760E+00    1.26450E+03
 2.30000E+00    1.30987E+03
 2.40000E+00    1.35824E+03
 2.50000E+00    1.38960E+03
 2.55857E+00    1.39323E+03
 2.59536E+00    1.41418E+03
 2.60000E+00    1.41707E+03
 2.65179E+00    1.42458E+03
 2.70000E+00    1.44198E+03
 2.80000E+00    1.45915E+03
 2.90000E+00    1.47124E+03
 2.90438E+00    1.46956E+03
 2.91389E+00    1.46850E+03
 2.92754E+00    1.47387E+03
 3.00000E+00    1.50340E+03
 3.10000E+00    1.53453E+03
 3.10240E+00    1.53381E+03
 3.14231E+00    1.53813E+03
 3.17451E+00    1.55540E+03
 3.20000E+00    1.57778E+03
 3.28434E+00    1.62004E+03
 3.30000E+00    1.63102E+03
 3.38101E+00    1.66031E+03
 3.40000E+00    1.66808E+03
 3.44919E+00    1.67167E+03
 3.49036E+00    1.68273E+03
 3.50000E+00    1.68869E+03
 3.54335E+00    1.68666E+03
 3.55549E+00    1.68765E+03
 3.59746E+00    1.70092E+03
 3.60000E+00    1.70280E+03
 3.60039E+00    1.70279E+03
 3.66208E+00    1.70759E+03
 3.67149E+00    1.71019E+03
 3.70000E+00    1.71936E+03
 3.75745E+00    1.72140E+03
 3.79022E+00    1.72715E+03
 3.79528E+00    1.72853E+03
 3.80000E+00    1.73179E+03
 3.89176E+00    1.73513E+03
 3.90000E+00    1.73693E+03
 3.90612E+00    1.73584E+03
 3.96852E+00    1.73551E+03
 4.00000E+00    1.73929E+03
 4.02202E+00    1.73707E+03
 4.03689E+00    1.73658E+03
 4.06085E+00    1.73863E+03
 4.06500E+00    1.74024E+03
 4.06844E+00    1.73800E+03
 4.07855E+00    1.73239E+03
 4.50000E+00    1.78569E+03
 5.00000E+00    1.75472E+03
 5.50000E+00    1.73968E+03
 6.00000E+00    1.73823E+03
 7.00000E+00    1.75276E+03
 8.00000E+00    1.75863E+03
 9.00000E+00    1.75112E+03
 1.00000E+01    1.73393E+03
 1.10000E+01    1.68809E+03
 1.16000E+01    1.64778E+03
 1.20000E+01    1.57333E+03
 1.30000E+01    1.13332E+03
 1.40000E+01    7.60579E+02
 1.50000E+01    5.10215E+02
 1.60000E+01    3.67560E+02
 1.70000E+01    2.90069E+02
 1.80000E+01    2.46509E+02
 1.90000E+01    2.18865E+02
 2.00000E+01    1.99517E+02
