# n + Y  89 : (n,n'02)  
# jendl4.0   A.Ichihara, K.Shibata, S.Kunieda+ EVAL-OCT09
# uncertainties: n
# # energies =    46
#   E(MeV)       xs(mb) 
 1.52436E+00    0.00000E+00
 1.60000E+00    1.84400E+02
 1.70000E+00    3.79500E+02
 1.80000E+00    4.87900E+02
 1.90000E+00    5.12800E+02
 2.00000E+00    5.14600E+02
 2.10000E+00    5.10500E+02
 2.20000E+00    5.05700E+02
 2.30000E+00    4.94600E+02
 2.40000E+00    4.82100E+02
 2.50000E+00    4.73900E+02
 2.60000E+00    4.66400E+02
 2.70000E+00    4.59700E+02
 2.80000E+00    4.55100E+02
 2.90000E+00    4.51700E+02
 3.00000E+00    4.34300E+02
 3.10000E+00    4.14000E+02
 3.20000E+00    3.83000E+02
 3.30000E+00    3.42300E+02
 3.40000E+00    3.11000E+02
 3.50000E+00    2.88300E+02
 3.60000E+00    2.68900E+02
 3.70000E+00    2.45700E+02
 3.80000E+00    2.23800E+02
 3.90000E+00    2.06400E+02
 4.00000E+00    1.90400E+02
 4.06500E+00    1.80100E+02
 4.50000E+00    1.19200E+02
 5.00000E+00    7.12000E+01
 5.50000E+00    4.30600E+01
 6.00000E+00    2.74200E+01
 7.00000E+00    1.44100E+01
 8.00000E+00    1.02300E+01
 9.00000E+00    8.56600E+00
 1.00000E+01    7.61000E+00
 1.10000E+01    6.91000E+00
 1.16000E+01    6.55800E+00
 1.20000E+01    6.34500E+00
 1.30000E+01    5.88000E+00
 1.40000E+01    5.50000E+00
 1.50000E+01    5.19000E+00
 1.60000E+01    4.92900E+00
 1.70000E+01    4.70100E+00
 1.80000E+01    4.50000E+00
 1.90000E+01    4.32700E+00
 2.00000E+01    4.17500E+00
