# n + Y  89 : (n,xd)    
# jendl4.0   A.Ichihara, K.Shibata, S.Kunieda+ EVAL-OCT09
# 
# # energies =    85
#   E(MeV)        xs(mb) 
 9.19283E-01    0.00000E+00
 1.00000E+00    0.00000E+00
 1.10000E+00    0.00000E+00
 1.20000E+00    0.00000E+00
 1.30000E+00    0.00000E+00
 1.40000E+00    0.00000E+00
 1.50000E+00    0.00000E+00
 1.52436E+00    0.00000E+00
 1.60000E+00    0.00000E+00
 1.70000E+00    0.00000E+00
 1.76436E+00    0.00000E+00
 1.80000E+00    0.00000E+00
 1.90000E+00    0.00000E+00
 2.00000E+00    0.00000E+00
 2.10000E+00    0.00000E+00
 2.20000E+00    0.00000E+00
 2.24760E+00    0.00000E+00
 2.30000E+00    0.00000E+00
 2.40000E+00    0.00000E+00
 2.50000E+00    0.00000E+00
 2.55857E+00    0.00000E+00
 2.59536E+00    0.00000E+00
 2.60000E+00    0.00000E+00
 2.65179E+00    0.00000E+00
 2.70000E+00    0.00000E+00
 2.80000E+00    0.00000E+00
 2.90000E+00    0.00000E+00
 2.90438E+00    0.00000E+00
 2.91389E+00    0.00000E+00
 2.92754E+00    0.00000E+00
 3.00000E+00    0.00000E+00
 3.10000E+00    0.00000E+00
 3.10240E+00    0.00000E+00
 3.14231E+00    0.00000E+00
 3.17451E+00    0.00000E+00
 3.20000E+00    0.00000E+00
 3.28434E+00    0.00000E+00
 3.30000E+00    0.00000E+00
 3.38101E+00    0.00000E+00
 3.40000E+00    0.00000E+00
 3.44919E+00    0.00000E+00
 3.49036E+00    0.00000E+00
 3.50000E+00    0.00000E+00
 3.54335E+00    0.00000E+00
 3.55549E+00    0.00000E+00
 3.59746E+00    0.00000E+00
 3.60000E+00    0.00000E+00
 3.60039E+00    0.00000E+00
 3.66208E+00    0.00000E+00
 3.67149E+00    0.00000E+00
 3.70000E+00    0.00000E+00
 3.75745E+00    0.00000E+00
 3.79022E+00    0.00000E+00
 3.79528E+00    0.00000E+00
 3.80000E+00    0.00000E+00
 3.89176E+00    0.00000E+00
 3.90000E+00    0.00000E+00
 3.90612E+00    0.00000E+00
 3.96852E+00    0.00000E+00
 4.00000E+00    0.00000E+00
 4.02202E+00    0.00000E+00
 4.03689E+00    0.00000E+00
 4.06085E+00    0.00000E+00
 4.06500E+00    0.00000E+00
 4.06844E+00    0.00000E+00
 4.07855E+00    0.00000E+00
 4.50000E+00    0.00000E+00
 5.00000E+00    0.00000E+00
 5.50000E+00    0.00000E+00
 6.00000E+00    0.00000E+00
 7.00000E+00    4.92500E-06
 8.00000E+00    1.41900E-03
 9.00000E+00    9.37100E-03
 1.00000E+01    1.81900E-02
 1.10000E+01    2.42800E-02
 1.16000E+01    5.71060E-02
 1.20000E+01    7.89900E-02
 1.30000E+01    3.66900E-01
 1.40000E+01    9.32700E-01
 1.50000E+01    2.37100E+00
 1.60000E+01    4.71800E+00
 1.70000E+01    7.79500E+00
 1.80000E+01    1.09000E+01
 1.90000E+01    1.42007E+01
 2.00000E+01    1.71407E+01
