# n + Te130 : (n,n'06)  
# jeff3.3    A.J. Koning and D. Rochman        EVAL-DEC15
# uncertainties: n
# # energies =    85
#   E(MeV)       xs(mb) 
 1.98002E+00    0.00000E+00
 1.99693E+00    1.01127E+01
 2.00000E+00    1.19487E+01
 2.11757E+00    3.00391E+01
 2.15524E+00    3.58354E+01
 2.16308E+00    3.70417E+01
 2.20000E+00    4.27226E+01
 2.20762E+00    4.30203E+01
 2.30032E+00    4.66416E+01
 2.31808E+00    4.73354E+01
 2.34884E+00    4.85370E+01
 2.40000E+00    5.05356E+01
 2.42332E+00    5.03566E+01
 2.43677E+00    5.02533E+01
 2.45096E+00    5.01444E+01
 2.45450E+00    5.01172E+01
 2.46850E+00    5.00097E+01
 2.48604E+00    4.98751E+01
 2.54668E+00    4.94095E+01
 2.59520E+00    4.90371E+01
 2.60000E+00    4.90002E+01
 2.60119E+00    4.89687E+01
 2.62757E+00    4.82695E+01
 2.66914E+00    4.71677E+01
 2.71000E+00    4.60848E+01
 2.73605E+00    4.53943E+01
 2.74061E+00    4.52735E+01
 2.75069E+00    4.50063E+01
 2.75756E+00    4.48242E+01
 2.80000E+00    4.36994E+01
 3.00000E+00    3.93531E+01
 3.20000E+00    3.51583E+01
 3.40000E+00    3.08791E+01
 3.60000E+00    2.66914E+01
 3.80000E+00    2.27776E+01
 4.00000E+00    1.92417E+01
 4.20000E+00    1.61207E+01
 4.40000E+00    1.34083E+01
 4.60000E+00    1.10767E+01
 4.80000E+00    9.09029E+00
 5.00000E+00    7.40759E+00
 5.20000E+00    5.99216E+00
 5.40000E+00    4.81120E+00
 5.60000E+00    3.83537E+00
 5.80000E+00    3.03724E+00
 6.00000E+00    2.39139E+00
 6.20000E+00    1.87376E+00
 6.40000E+00    1.45784E+00
 6.60000E+00    1.13307E+00
 6.80000E+00    8.79476E-01
 7.00000E+00    6.81481E-01
 7.20000E+00    5.28578E-01
 7.40000E+00    4.09805E-01
 7.60000E+00    3.17797E-01
 7.80000E+00    2.47241E-01
 8.00000E+00    1.92380E-01
 8.50000E+00    1.04195E-01
 9.00000E+00    5.74458E-02
 9.50000E+00    3.21982E-02
 1.00000E+01    1.83046E-02
 1.05000E+01    1.05272E-02
 1.10000E+01    6.11229E-03
 1.15000E+01    3.57675E-03
 1.20000E+01    2.10773E-03
 1.25000E+01    1.25049E-03
 1.30000E+01    7.47011E-04
 1.35000E+01    4.49328E-04
 1.40000E+01    2.72272E-04
 1.45000E+01    1.66260E-04
 1.50000E+01    1.02330E-04
 1.60000E+01    3.96986E-05
 1.70000E+01    1.58669E-05
 1.80000E+01    6.51011E-06
 1.90000E+01    2.73241E-06
 2.00000E+01    1.16389E-06
 2.10000E+01    5.05730E-07
 2.20000E+01    2.22690E-07
 2.30000E+01    9.91660E-08
 2.40000E+01    4.47160E-08
 2.50000E+01    2.04430E-08
 2.60000E+01    9.47800E-09
 2.70000E+01    4.46470E-09
 2.80000E+01    2.13500E-09
 2.90000E+01    1.03580E-09
 3.00000E+01    5.08720E-10
