# n + Te130 : (n,n'09)  
# jeff3.3    A.J. Koning and D. Rochman        EVAL-DEC15
# uncertainties: n
# # energies =    81
#   E(MeV)       xs(mb) 
 2.15524E+00    0.00000E+00
 2.16308E+00    5.76593E+00
 2.20000E+00    3.29191E+01
 2.20762E+00    3.44573E+01
 2.30032E+00    5.31702E+01
 2.31808E+00    5.67553E+01
 2.34884E+00    6.29647E+01
 2.40000E+00    7.32921E+01
 2.42332E+00    7.44863E+01
 2.43677E+00    7.51750E+01
 2.45096E+00    7.59016E+01
 2.45450E+00    7.60829E+01
 2.46850E+00    7.67998E+01
 2.48604E+00    7.76980E+01
 2.54668E+00    8.08031E+01
 2.59520E+00    8.32877E+01
 2.60000E+00    8.35335E+01
 2.60119E+00    8.35438E+01
 2.62757E+00    8.37730E+01
 2.66914E+00    8.41342E+01
 2.71000E+00    8.44891E+01
 2.73605E+00    8.47154E+01
 2.74061E+00    8.47551E+01
 2.75069E+00    8.48426E+01
 2.75756E+00    8.49023E+01
 2.80000E+00    8.52710E+01
 3.00000E+00    8.65304E+01
 3.20000E+00    8.68495E+01
 3.40000E+00    8.47444E+01
 3.60000E+00    8.01761E+01
 3.80000E+00    7.36650E+01
 4.00000E+00    6.59160E+01
 4.20000E+00    5.76293E+01
 4.40000E+00    4.93926E+01
 4.60000E+00    4.16368E+01
 4.80000E+00    3.46343E+01
 5.00000E+00    2.84960E+01
 5.20000E+00    2.32355E+01
 5.40000E+00    1.88012E+01
 5.60000E+00    1.51112E+01
 5.80000E+00    1.20728E+01
 6.00000E+00    9.59551E+00
 6.20000E+00    7.59389E+00
 6.40000E+00    5.96822E+00
 6.60000E+00    4.68725E+00
 6.80000E+00    3.67761E+00
 7.00000E+00    2.88100E+00
 7.20000E+00    2.25832E+00
 7.40000E+00    1.77004E+00
 7.60000E+00    1.38708E+00
 7.80000E+00    1.08969E+00
 8.00000E+00    8.56256E-01
 8.50000E+00    4.73329E-01
 9.00000E+00    2.65084E-01
 9.50000E+00    1.50302E-01
 1.00000E+01    8.62123E-02
 1.05000E+01    4.99794E-02
 1.10000E+01    2.92601E-02
 1.15000E+01    1.72793E-02
 1.20000E+01    1.02857E-02
 1.25000E+01    6.16923E-03
 1.30000E+01    3.72765E-03
 1.35000E+01    2.26827E-03
 1.40000E+01    1.39007E-03
 1.45000E+01    8.57849E-04
 1.50000E+01    5.32996E-04
 1.60000E+01    2.09804E-04
 1.70000E+01    8.45984E-05
 1.80000E+01    3.48700E-05
 1.90000E+01    1.46632E-05
 2.00000E+01    6.24880E-06
 2.10000E+01    2.71732E-06
 2.20000E+01    1.20006E-06
 2.30000E+01    5.37450E-07
 2.40000E+01    2.44160E-07
 2.50000E+01    1.12470E-07
 2.60000E+01    5.24700E-08
 2.70000E+01    2.48190E-08
 2.80000E+01    1.18930E-08
 2.90000E+01    5.77390E-09
 3.00000E+01    2.83640E-09
