# n + Cr 52 : (n,a)     
# jendl4.0   N.Iwamoto,L.Leal+                 EVAL-Nov09
# uncertainties: n
# # energies =    96
#   E(MeV)       xs(mb) 
 1.23526E+00    0.00000E+00
 2.64387E+00    1.49590E-07
 2.80736E+00    1.67630E-07
 2.85203E+00    1.72610E-07
 2.87653E+00    1.75410E-07
 2.88971E+00    1.76930E-07
 2.99220E+00    1.89030E-07
 3.03149E+00    1.99490E-07
 3.48164E+00    3.90480E-07
 3.50000E+00    4.45220E-07
 3.53968E+00    6.02280E-07
 3.54048E+00    6.09490E-07
 3.68615E+00    1.94712E-06
 3.75466E+00    3.82679E-06
 3.78834E+00    4.75131E-06
 3.78942E+00    4.78096E-06
 3.79744E+00    5.00116E-06
 3.80430E+00    5.18955E-06
 3.81222E+00    5.40712E-06
 3.84496E+00    6.91123E-06
 3.95134E+00    1.72438E-05
 4.00000E+00    2.19702E-05
 4.00870E+00    2.34979E-05
 4.00941E+00    2.36226E-05
 4.02518E+00    2.63941E-05
 4.09349E+00    4.23631E-05
 4.11764E+00    4.99166E-05
 4.17962E+00    7.52979E-05
 4.27364E+00    1.94342E-04
 4.33295E+00    2.69438E-04
 4.33685E+00    2.74376E-04
 4.47222E+00    4.45777E-04
 4.50000E+00    4.80953E-04
 4.55681E+00    6.61310E-04
 4.55929E+00    6.71064E-04
 4.58946E+00    7.89726E-04
 4.65161E+00    1.03417E-03
 4.70054E+00    1.26554E-03
 4.71718E+00    1.37204E-03
 4.73013E+00    1.47662E-03
 4.75328E+00    1.66357E-03
 4.77162E+00    1.81167E-03
 4.79331E+00    1.98683E-03
 4.81445E+00    2.19293E-03
 4.82186E+00    2.26517E-03
 4.83439E+00    2.39743E-03
 4.84257E+00    2.48016E-03
 4.89332E+00    3.12844E-03
 4.89952E+00    3.21568E-03
 4.90922E+00    3.35975E-03
 4.91129E+00    3.39267E-03
 4.92397E+00    3.59434E-03
 4.93532E+00    3.77485E-03
 4.94493E+00    3.95975E-03
 5.00000E+00    5.01931E-03
 5.00956E+00    5.53150E-03
 5.05503E+00    7.96763E-03
 5.05809E+00    8.13158E-03
 5.09489E+00    1.01032E-02
 5.09651E+00    1.01900E-02
 5.12741E+00    1.18455E-02
 5.16513E+00    1.38664E-02
 5.22731E+00    1.71978E-02
 5.25453E+00    1.86562E-02
 5.27930E+00    1.99833E-02
 5.30275E+00    2.12397E-02
 5.50000E+00    3.18077E-02
 6.00000E+00    1.37206E-01
 6.50000E+00    4.42460E-01
 7.00000E+00    1.12875E+00
 7.50000E+00    2.34530E+00
 8.00000E+00    4.07123E+00
 8.50000E+00    6.28574E+00
 9.00000E+00    8.84014E+00
 9.50000E+00    1.18836E+01
 1.00000E+01    1.52306E+01
 1.05000E+01    1.84906E+01
 1.10000E+01    2.15445E+01
 1.15000E+01    2.44996E+01
 1.20000E+01    2.75242E+01
 1.25000E+01    3.08563E+01
 1.30000E+01    3.46080E+01
 1.35000E+01    3.88122E+01
 1.40000E+01    4.34937E+01
 1.45000E+01    4.85036E+01
 1.50000E+01    5.37365E+01
 1.55000E+01    5.88125E+01
 1.60000E+01    6.27443E+01
 1.65000E+01    6.56479E+01
 1.70000E+01    6.65022E+01
 1.75000E+01    6.51544E+01
 1.80000E+01    6.18565E+01
 1.85000E+01    5.71042E+01
 1.90000E+01    5.11734E+01
 1.95000E+01    4.47324E+01
 2.00000E+01    3.84528E+01
