# n + Cr 52 : (n,n'01)  
# jendl4.0   N.Iwamoto,L.Leal+                 EVAL-Nov09
# uncertainties: n
# # energies =    86
#   E(MeV)       xs(mb) 
 1.46194E+00    0.00000E+00
 1.48669E+00    1.93025E+02
 1.53817E+00    4.10245E+02
 1.58965E+00    4.25305E+02
 1.64113E+00    2.47990E+02
 1.69261E+00    4.96609E+02
 1.74409E+00    4.95507E+02
 1.79558E+00    4.18740E+02
 1.84706E+00    4.93480E+02
 1.89854E+00    5.97602E+02
 1.95002E+00    5.80190E+02
 2.00150E+00    7.27364E+02
 2.05298E+00    6.05484E+02
 2.10446E+00    6.49948E+02
 2.15594E+00    6.32879E+02
 2.20742E+00    8.32486E+02
 2.25890E+00    9.38582E+02
 2.31038E+00    5.79870E+02
 2.36187E+00    6.29095E+02
 2.41335E+00    7.38216E+02
 2.46483E+00    7.76357E+02
 2.51631E+00    8.10617E+02
 2.56779E+00    7.52158E+02
 2.61927E+00    8.03747E+02
 2.67075E+00    9.35567E+02
 2.72223E+00    8.70663E+02
 2.77371E+00    9.52401E+02
 2.82519E+00    9.76742E+02
 2.87667E+00    8.83481E+02
 2.92815E+00    7.42240E+02
 2.97964E+00    6.70014E+02
 3.03112E+00    8.59810E+02
 3.08260E+00    7.00146E+02
 3.13408E+00    7.97588E+02
 3.18556E+00    6.23069E+02
 3.23704E+00    7.22166E+02
 3.28852E+00    6.91997E+02
 3.34000E+00    6.93755E+02
 3.39148E+00    5.89481E+02
 3.44296E+00    5.67956E+02
 3.49444E+00    6.37055E+02
 3.54592E+00    6.63095E+02
 3.59740E+00    5.69202E+02
 3.64889E+00    5.51932E+02
 3.70037E+00    5.87321E+02
 3.75185E+00    4.81068E+02
 3.80333E+00    4.61840E+02
 3.85481E+00    5.14033E+02
 3.90629E+00    5.75949E+02
 3.95777E+00    5.27077E+02
 4.00925E+00    4.27241E+02
 4.06073E+00    4.95084E+02
 4.11221E+00    4.65148E+02
 4.16369E+00    3.98567E+02
 4.50000E+00    3.28954E+02
 5.00000E+00    2.49425E+02
 5.50000E+00    1.97961E+02
 6.00000E+00    1.62735E+02
 6.50000E+00    1.38385E+02
 7.00000E+00    1.20926E+02
 7.50000E+00    1.07865E+02
 8.00000E+00    9.76179E+01
 8.50000E+00    8.95590E+01
 9.00000E+00    8.25042E+01
 9.50000E+00    7.66187E+01
 1.00000E+01    7.16862E+01
 1.05000E+01    6.75684E+01
 1.10000E+01    6.41351E+01
 1.15000E+01    6.12573E+01
 1.20000E+01    5.87980E+01
 1.25000E+01    5.66590E+01
 1.30000E+01    5.47672E+01
 1.35000E+01    5.30281E+01
 1.40000E+01    5.14034E+01
 1.45000E+01    4.98914E+01
 1.50000E+01    4.84484E+01
 1.55000E+01    4.70734E+01
 1.60000E+01    4.57681E+01
 1.65000E+01    4.45341E+01
 1.70000E+01    4.33731E+01
 1.75000E+01    4.22862E+01
 1.80000E+01    4.12931E+01
 1.85000E+01    4.03814E+01
 1.90000E+01    3.95447E+01
 1.95000E+01    3.87893E+01
 2.00000E+01    3.81022E+01
