# n + Gd156 : (n,n'07)  
# jendl4.0   N.Iwamoto,A.Zukeran,K.Shibata     EVAL-Dec09
# uncertainties: n
# # energies =    81
#   E(MeV)       xs(mb) 
 1.16162E+00    0.00000E+00
 1.17575E+00    5.66845E+01
 1.20000E+00    9.31862E+01
 1.25052E+00    1.43176E+02
 1.25608E+00    1.46333E+02
 1.26621E+00    1.51158E+02
 1.28440E+00    1.56509E+02
 1.30000E+00    1.61470E+02
 1.30622E+00    1.63620E+02
 1.32820E+00    1.70358E+02
 1.36419E+00    1.75568E+02
 1.37530E+00    1.77399E+02
 1.40000E+00    1.78917E+02
 1.41724E+00    1.80503E+02
 1.42524E+00    1.80929E+02
 1.47176E+00    1.83755E+02
 1.47801E+00    1.84108E+02
 1.50000E+00    1.84927E+02
 1.51661E+00    1.85726E+02
 1.52036E+00    1.85910E+02
 1.54880E+00    1.87327E+02
 1.55015E+00    1.87186E+02
 1.58707E+00    1.86596E+02
 1.60000E+00    1.86099E+02
 1.60532E+00    1.85932E+02
 1.63304E+00    1.84734E+02
 1.64860E+00    1.84195E+02
 1.65428E+00    1.84017E+02
 1.70000E+00    1.83041E+02
 1.71684E+00    1.82758E+02
 1.72629E+00    1.82609E+02
 1.76499E+00    1.81681E+02
 1.77703E+00    1.81517E+02
 1.78255E+00    1.81459E+02
 1.79201E+00    1.80319E+02
 1.80000E+00    1.78966E+02
 1.81036E+00    1.77682E+02
 1.81567E+00    1.77078E+02
 1.83966E+00    1.74275E+02
 1.86029E+00    1.70889E+02
 1.86181E+00    1.70699E+02
 1.90000E+00    1.66554E+02
 2.00000E+00    1.55217E+02
 2.25000E+00    1.23537E+02
 2.50000E+00    8.42321E+01
 2.75000E+00    5.99809E+01
 3.00000E+00    3.89853E+01
 3.50000E+00    1.76245E+01
 4.00000E+00    7.98995E+00
 4.50000E+00    3.65462E+00
 5.00000E+00    1.70269E+00
 5.50000E+00    8.27871E-01
 6.00000E+00    4.38127E-01
 6.50000E+00    2.63112E-01
 7.00000E+00    1.82072E-01
 7.50000E+00    1.42016E-01
 8.00000E+00    1.20122E-01
 8.50000E+00    1.06441E-01
 9.00000E+00    9.66614E-02
 9.50000E+00    8.89253E-02
 1.00000E+01    8.24195E-02
 1.05000E+01    7.67827E-02
 1.10000E+01    7.18163E-02
 1.15000E+01    6.74014E-02
 1.20000E+01    6.34389E-02
 1.25000E+01    5.98602E-02
 1.30000E+01    5.66043E-02
 1.35000E+01    5.36217E-02
 1.40000E+01    5.08751E-02
 1.45000E+01    4.83345E-02
 1.50000E+01    4.59780E-02
 1.55000E+01    4.38269E-02
 1.60000E+01    4.17804E-02
 1.65000E+01    3.98551E-02
 1.70000E+01    3.81335E-02
 1.75000E+01    3.65327E-02
 1.80000E+01    3.49901E-02
 1.85000E+01    3.34553E-02
 1.90000E+01    3.21340E-02
 1.95000E+01    3.09050E-02
 2.00000E+01    2.97347E-02
