# n + Gd156 : (n,n'05)  
# jendl4.0   N.Iwamoto,A.Zukeran,K.Shibata     EVAL-Dec09
# uncertainties: n
# # energies =    84
#   E(MeV)       xs(mb) 
 1.05628E+00    0.00000E+00
 1.10000E+00    5.46037E+01
 1.13675E+00    7.45296E+01
 1.16162E+00    8.48767E+01
 1.17575E+00    8.93839E+01
 1.20000E+00    9.21407E+01
 1.25052E+00    9.93193E+01
 1.25608E+00    9.81556E+01
 1.26621E+00    9.80705E+01
 1.28440E+00    9.81208E+01
 1.30000E+00    9.83131E+01
 1.30622E+00    9.84100E+01
 1.32820E+00    9.81112E+01
 1.36419E+00    9.61199E+01
 1.37530E+00    9.57806E+01
 1.40000E+00    9.29594E+01
 1.41724E+00    9.19609E+01
 1.42524E+00    9.15740E+01
 1.47176E+00    8.94072E+01
 1.47801E+00    8.90565E+01
 1.50000E+00    8.79026E+01
 1.51661E+00    8.71404E+01
 1.52036E+00    8.69777E+01
 1.54880E+00    8.58493E+01
 1.55015E+00    8.57955E+01
 1.58707E+00    8.44608E+01
 1.60000E+00    8.32385E+01
 1.60532E+00    8.29387E+01
 1.63304E+00    8.06611E+01
 1.64860E+00    7.98509E+01
 1.65428E+00    7.95850E+01
 1.70000E+00    7.75375E+01
 1.71684E+00    7.66196E+01
 1.72629E+00    7.61209E+01
 1.76499E+00    7.34850E+01
 1.77703E+00    7.28627E+01
 1.78255E+00    7.25923E+01
 1.79201E+00    7.18899E+01
 1.80000E+00    7.12469E+01
 1.81036E+00    7.05923E+01
 1.81567E+00    7.02762E+01
 1.83966E+00    6.84962E+01
 1.86029E+00    6.69602E+01
 1.86181E+00    6.68640E+01
 1.90000E+00    6.46940E+01
 2.00000E+00    5.91896E+01
 2.25000E+00    4.44998E+01
 2.50000E+00    2.92285E+01
 2.75000E+00    2.00295E+01
 3.00000E+00    1.31316E+01
 3.50000E+00    5.91252E+00
 4.00000E+00    2.86959E+00
 4.50000E+00    1.55477E+00
 5.00000E+00    9.63245E-01
 5.50000E+00    6.82510E-01
 6.00000E+00    5.38531E-01
 6.50000E+00    4.55934E-01
 7.00000E+00    4.01948E-01
 7.50000E+00    3.62320E-01
 8.00000E+00    3.30611E-01
 8.50000E+00    3.03840E-01
 9.00000E+00    2.80608E-01
 9.50000E+00    2.60101E-01
 1.00000E+01    2.41854E-01
 1.05000E+01    2.25601E-01
 1.10000E+01    2.11087E-01
 1.15000E+01    1.98095E-01
 1.20000E+01    1.86405E-01
 1.25000E+01    1.75834E-01
 1.30000E+01    1.66211E-01
 1.35000E+01    1.57395E-01
 1.40000E+01    1.49277E-01
 1.45000E+01    1.41769E-01
 1.50000E+01    1.34810E-01
 1.55000E+01    1.28478E-01
 1.60000E+01    1.22438E-01
 1.65000E+01    1.16752E-01
 1.70000E+01    1.11679E-01
 1.75000E+01    1.07015E-01
 1.80000E+01    1.02449E-01
 1.85000E+01    9.79176E-02
 1.90000E+01    9.40206E-02
 1.95000E+01    9.04728E-02
 2.00000E+01    8.70230E-02
