# n + Gd156 : (n,n'03)  
# jendl4.0   N.Iwamoto,A.Zukeran,K.Shibata     EVAL-Dec09
# uncertainties: n
# # energies =    91
#   E(MeV)       xs(mb) 
 5.88498E-01    0.00000E+00
 6.00000E-01    2.72418E-03
 7.00000E-01    1.44779E-01
 8.00000E-01    5.99300E-01
 9.00000E-01    1.57073E+00
 9.71378E-01    2.70577E+00
 1.00000E+00    3.27359E+00
 1.05628E+00    4.64220E+00
 1.10000E+00    5.91712E+00
 1.13675E+00    7.18006E+00
 1.16162E+00    8.06854E+00
 1.17575E+00    8.57364E+00
 1.20000E+00    9.48173E+00
 1.25052E+00    1.14574E+01
 1.25608E+00    1.16781E+01
 1.26621E+00    1.19885E+01
 1.28440E+00    1.26088E+01
 1.30000E+00    1.28939E+01
 1.30622E+00    1.30821E+01
 1.32820E+00    1.33648E+01
 1.36419E+00    1.42730E+01
 1.37530E+00    1.43288E+01
 1.40000E+00    1.48931E+01
 1.41724E+00    1.53714E+01
 1.42524E+00    1.55481E+01
 1.47176E+00    1.68658E+01
 1.47801E+00    1.68842E+01
 1.50000E+00    1.72018E+01
 1.51661E+00    1.75859E+01
 1.52036E+00    1.75877E+01
 1.54880E+00    1.79065E+01
 1.55015E+00    1.78889E+01
 1.58707E+00    1.85401E+01
 1.60000E+00    1.87949E+01
 1.60532E+00    1.89040E+01
 1.63304E+00    1.95117E+01
 1.64860E+00    1.97528E+01
 1.65428E+00    1.98691E+01
 1.70000E+00    2.09116E+01
 1.71684E+00    2.13213E+01
 1.72629E+00    2.15346E+01
 1.76499E+00    2.25052E+01
 1.77703E+00    2.28186E+01
 1.78255E+00    2.29626E+01
 1.79201E+00    2.31891E+01
 1.80000E+00    2.33628E+01
 1.81036E+00    2.36093E+01
 1.81567E+00    2.37201E+01
 1.83966E+00    2.42746E+01
 1.86029E+00    2.47272E+01
 1.86181E+00    2.47615E+01
 1.90000E+00    2.56360E+01
 2.00000E+00    2.73995E+01
 2.25000E+00    2.94416E+01
 2.50000E+00    2.81096E+01
 2.75000E+00    2.79092E+01
 3.00000E+00    2.67050E+01
 3.50000E+00    2.62959E+01
 4.00000E+00    2.65625E+01
 4.50000E+00    2.69965E+01
 5.00000E+00    2.73102E+01
 5.50000E+00    2.72760E+01
 6.00000E+00    2.69789E+01
 6.50000E+00    2.65268E+01
 7.00000E+00    2.60743E+01
 7.50000E+00    2.56928E+01
 8.00000E+00    2.53763E+01
 8.50000E+00    2.50825E+01
 9.00000E+00    2.47696E+01
 9.50000E+00    2.44202E+01
 1.00000E+01    2.40465E+01
 1.05000E+01    2.36679E+01
 1.10000E+01    2.33023E+01
 1.15000E+01    2.29576E+01
 1.20000E+01    2.26314E+01
 1.25000E+01    2.23155E+01
 1.30000E+01    2.19993E+01
 1.35000E+01    2.16734E+01
 1.40000E+01    2.13297E+01
 1.45000E+01    2.09609E+01
 1.50000E+01    2.05607E+01
 1.55000E+01    2.01256E+01
 1.60000E+01    1.96577E+01
 1.65000E+01    1.91645E+01
 1.70000E+01    1.86579E+01
 1.75000E+01    1.81507E+01
 1.80000E+01    1.76528E+01
 1.85000E+01    1.71699E+01
 1.90000E+01    1.67042E+01
 1.95000E+01    1.62569E+01
 2.00000E+01    1.58297E+01
