# n + Gd156 : (n,n'04)  
# jendl4.0   N.Iwamoto,A.Zukeran,K.Shibata     EVAL-Dec09
# uncertainties: n
# # energies =    86
#   E(MeV)       xs(mb) 
 9.71377E-01    0.00000E+00
 1.00000E+00    5.86439E-06
 1.05628E+00    2.53883E-04
 1.10000E+00    6.64021E-04
 1.13675E+00    1.32783E-03
 1.16162E+00    1.98432E-03
 1.17575E+00    2.45507E-03
 1.20000E+00    3.46082E-03
 1.25052E+00    6.69709E-03
 1.25608E+00    7.14837E-03
 1.26621E+00    8.01447E-03
 1.28440E+00    9.77695E-03
 1.30000E+00    1.15069E-02
 1.30622E+00    1.22945E-02
 1.32820E+00    1.52070E-02
 1.36419E+00    2.10464E-02
 1.37530E+00    2.29474E-02
 1.40000E+00    2.77073E-02
 1.41724E+00    3.15908E-02
 1.42524E+00    3.26934E-02
 1.47176E+00    4.38826E-02
 1.47801E+00    4.54560E-02
 1.50000E+00    5.13642E-02
 1.51661E+00    5.66888E-02
 1.52036E+00    5.77258E-02
 1.54880E+00    6.67416E-02
 1.55015E+00    6.71946E-02
 1.58707E+00    7.90934E-02
 1.60000E+00    8.39666E-02
 1.60532E+00    8.61481E-02
 1.63304E+00    9.76522E-02
 1.64860E+00    1.04022E-01
 1.65428E+00    1.06361E-01
 1.70000E+00    1.25710E-01
 1.71684E+00    1.34573E-01
 1.72629E+00    1.38706E-01
 1.76499E+00    1.60119E-01
 1.77703E+00    1.66631E-01
 1.78255E+00    1.69378E-01
 1.79201E+00    1.74770E-01
 1.80000E+00    1.79533E-01
 1.81036E+00    1.86468E-01
 1.81567E+00    1.89187E-01
 1.83966E+00    2.05208E-01
 1.86029E+00    2.20136E-01
 1.86181E+00    2.21265E-01
 1.90000E+00    2.50498E-01
 2.00000E+00    3.40782E-01
 2.25000E+00    6.21583E-01
 2.50000E+00    9.06933E-01
 2.75000E+00    1.27668E+00
 3.00000E+00    2.79223E+00
 3.50000E+00    3.47748E+00
 4.00000E+00    4.03651E+00
 4.50000E+00    4.43995E+00
 5.00000E+00    4.72762E+00
 5.50000E+00    4.95970E+00
 6.00000E+00    5.20674E+00
 6.50000E+00    5.46816E+00
 7.00000E+00    5.69926E+00
 7.50000E+00    5.83869E+00
 8.00000E+00    5.87664E+00
 8.50000E+00    5.83000E+00
 9.00000E+00    5.74715E+00
 9.50000E+00    5.66079E+00
 1.00000E+01    5.58732E+00
 1.05000E+01    5.52846E+00
 1.10000E+01    5.47865E+00
 1.15000E+01    5.43266E+00
 1.20000E+01    5.38729E+00
 1.25000E+01    5.34031E+00
 1.30000E+01    5.28904E+00
 1.35000E+01    5.23102E+00
 1.40000E+01    5.16175E+00
 1.45000E+01    5.08047E+00
 1.50000E+01    4.98933E+00
 1.55000E+01    4.88871E+00
 1.60000E+01    4.79041E+00
 1.65000E+01    4.69791E+00
 1.70000E+01    4.59762E+00
 1.75000E+01    4.49800E+00
 1.80000E+01    4.39701E+00
 1.85000E+01    4.29671E+00
 1.90000E+01    4.18846E+00
 1.95000E+01    4.07433E+00
 2.00000E+01    3.96467E+00
