# n + Gd156 : (n,n'14)  
# jendl4.0   N.Iwamoto,A.Zukeran,K.Shibata     EVAL-Dec09
# uncertainties: n
# # energies =    72
#   E(MeV)       xs(mb) 
 1.32820E+00    0.00000E+00
 1.36419E+00    4.36428E+01
 1.37530E+00    5.08575E+01
 1.40000E+00    6.37908E+01
 1.41724E+00    7.19429E+01
 1.42524E+00    7.55706E+01
 1.47176E+00    9.26472E+01
 1.47801E+00    9.46842E+01
 1.50000E+00    1.00760E+02
 1.51661E+00    1.04676E+02
 1.52036E+00    1.05532E+02
 1.54880E+00    1.11651E+02
 1.55015E+00    1.11810E+02
 1.58707E+00    1.17989E+02
 1.60000E+00    1.19225E+02
 1.60532E+00    1.19769E+02
 1.63304E+00    1.22064E+02
 1.64860E+00    1.23385E+02
 1.65428E+00    1.23860E+02
 1.70000E+00    1.27637E+02
 1.71684E+00    1.28942E+02
 1.72629E+00    1.29653E+02
 1.76499E+00    1.30365E+02
 1.77703E+00    1.30648E+02
 1.78255E+00    1.30784E+02
 1.79201E+00    1.30341E+02
 1.80000E+00    1.29777E+02
 1.81036E+00    1.29513E+02
 1.81567E+00    1.29417E+02
 1.83966E+00    1.28866E+02
 1.86029E+00    1.27731E+02
 1.86181E+00    1.27683E+02
 1.90000E+00    1.26829E+02
 2.00000E+00    1.21729E+02
 2.25000E+00    9.99117E+01
 2.50000E+00    7.06473E+01
 2.75000E+00    5.12911E+01
 3.00000E+00    3.40220E+01
 3.50000E+00    1.57953E+01
 4.00000E+00    7.36204E+00
 4.50000E+00    3.51855E+00
 5.00000E+00    1.76961E+00
 5.50000E+00    9.69644E-01
 6.00000E+00    5.99397E-01
 6.50000E+00    4.22697E-01
 7.00000E+00    3.32849E-01
 7.50000E+00    2.82360E-01
 8.00000E+00    2.50221E-01
 8.50000E+00    2.27078E-01
 9.00000E+00    2.08724E-01
 9.50000E+00    1.93245E-01
 1.00000E+01    1.79747E-01
 1.05000E+01    1.67813E-01
 1.10000E+01    1.57179E-01
 1.15000E+01    1.47665E-01
 1.20000E+01    1.39094E-01
 1.25000E+01    1.31337E-01
 1.30000E+01    1.24257E-01
 1.35000E+01    1.17766E-01
 1.40000E+01    1.11787E-01
 1.45000E+01    1.06254E-01
 1.50000E+01    1.01119E-01
 1.55000E+01    9.63990E-02
 1.60000E+01    9.19409E-02
 1.65000E+01    8.77724E-02
 1.70000E+01    8.39620E-02
 1.75000E+01    8.04643E-02
 1.80000E+01    7.71273E-02
 1.85000E+01    7.37375E-02
 1.90000E+01    7.08166E-02
 1.95000E+01    6.81503E-02
 2.00000E+01    6.56014E-02
