# n + Gd156 : (n,n'10)  
# jendl4.0   N.Iwamoto,A.Zukeran,K.Shibata     EVAL-Dec09
# uncertainties: n
# # energies =    77
#   E(MeV)       xs(mb) 
 1.25608E+00    0.00000E+00
 1.26621E+00    2.35777E+01
 1.28440E+00    3.84317E+01
 1.30000E+00    4.77888E+01
 1.30622E+00    5.10912E+01
 1.32820E+00    6.13102E+01
 1.36419E+00    7.36274E+01
 1.37530E+00    7.66912E+01
 1.40000E+00    8.26201E+01
 1.41724E+00    8.64918E+01
 1.42524E+00    8.79796E+01
 1.47176E+00    9.61702E+01
 1.47801E+00    9.71351E+01
 1.50000E+00    9.98772E+01
 1.51661E+00    1.01793E+02
 1.52036E+00    1.02159E+02
 1.54880E+00    1.04752E+02
 1.55015E+00    1.04634E+02
 1.58707E+00    1.06998E+02
 1.60000E+00    1.07906E+02
 1.60532E+00    1.08281E+02
 1.63304E+00    1.10148E+02
 1.64860E+00    1.11221E+02
 1.65428E+00    1.11616E+02
 1.70000E+00    1.13407E+02
 1.71684E+00    1.14087E+02
 1.72629E+00    1.14474E+02
 1.76499E+00    1.15968E+02
 1.77703E+00    1.16486E+02
 1.78255E+00    1.16731E+02
 1.79201E+00    1.16543E+02
 1.80000E+00    1.16377E+02
 1.81036E+00    1.16451E+02
 1.81567E+00    1.16515E+02
 1.83966E+00    1.16799E+02
 1.86029E+00    1.16359E+02
 1.86181E+00    1.16359E+02
 1.90000E+00    1.16209E+02
 2.00000E+00    1.11932E+02
 2.25000E+00    9.62797E+01
 2.50000E+00    6.92937E+01
 2.75000E+00    5.16666E+01
 3.00000E+00    3.47981E+01
 3.50000E+00    1.66876E+01
 4.00000E+00    7.87417E+00
 4.50000E+00    3.67986E+00
 5.00000E+00    1.71181E+00
 5.50000E+00    8.03562E-01
 6.00000E+00    3.92382E-01
 6.50000E+00    2.07986E-01
 7.00000E+00    1.24753E-01
 7.50000E+00    8.61067E-02
 8.00000E+00    6.71409E-02
 8.50000E+00    5.68488E-02
 9.00000E+00    5.04501E-02
 9.50000E+00    4.59005E-02
 1.00000E+01    4.23217E-02
 1.05000E+01    3.93339E-02
 1.10000E+01    3.67521E-02
 1.15000E+01    3.44805E-02
 1.20000E+01    3.24518E-02
 1.25000E+01    3.06245E-02
 1.30000E+01    2.89641E-02
 1.35000E+01    2.74442E-02
 1.40000E+01    2.60451E-02
 1.45000E+01    2.47510E-02
 1.50000E+01    2.35504E-02
 1.55000E+01    2.24555E-02
 1.60000E+01    2.14081E-02
 1.65000E+01    2.04294E-02
 1.70000E+01    1.95516E-02
 1.75000E+01    1.87274E-02
 1.80000E+01    1.79440E-02
 1.85000E+01    1.71633E-02
 1.90000E+01    1.64798E-02
 1.95000E+01    1.58512E-02
 2.00000E+01    1.52579E-02
