# n + Gd156 : (n,n'15)  
# jendl4.0   N.Iwamoto,A.Zukeran,K.Shibata     EVAL-Dec09
# uncertainties: n
# # energies =    71
#   E(MeV)       xs(mb) 
 1.36419E+00    0.00000E+00
 1.37530E+00    2.96426E+00
 1.40000E+00    7.00548E+00
 1.41724E+00    9.73354E+00
 1.42524E+00    1.09934E+01
 1.47176E+00    1.78195E+01
 1.47801E+00    1.85359E+01
 1.50000E+00    2.09268E+01
 1.51661E+00    2.28746E+01
 1.52036E+00    2.32619E+01
 1.54880E+00    2.58642E+01
 1.55015E+00    2.58617E+01
 1.58707E+00    2.89058E+01
 1.60000E+00    3.00794E+01
 1.60532E+00    3.05598E+01
 1.63304E+00    3.28342E+01
 1.64860E+00    3.39564E+01
 1.65428E+00    3.43840E+01
 1.70000E+00    3.79690E+01
 1.71684E+00    3.93105E+01
 1.72629E+00    4.00629E+01
 1.76499E+00    4.31598E+01
 1.77703E+00    4.39498E+01
 1.78255E+00    4.43139E+01
 1.79201E+00    4.48007E+01
 1.80000E+00    4.52021E+01
 1.81036E+00    4.57762E+01
 1.81567E+00    4.60669E+01
 1.83966E+00    4.74037E+01
 1.86029E+00    4.83299E+01
 1.86181E+00    4.84050E+01
 1.90000E+00    5.03646E+01
 2.00000E+00    5.41322E+01
 2.25000E+00    5.27477E+01
 2.50000E+00    4.23614E+01
 2.75000E+00    3.40092E+01
 3.00000E+00    2.45602E+01
 3.50000E+00    1.30115E+01
 4.00000E+00    6.68715E+00
 4.50000E+00    3.41693E+00
 5.00000E+00    1.77811E+00
 5.50000E+00    9.74425E-01
 6.00000E+00    5.86889E-01
 6.50000E+00    3.98609E-01
 7.00000E+00    3.03575E-01
 7.50000E+00    2.51677E-01
 8.00000E+00    2.20098E-01
 8.50000E+00    1.98363E-01
 9.00000E+00    1.81704E-01
 9.50000E+00    1.67952E-01
 1.00000E+01    1.56099E-01
 1.05000E+01    1.45683E-01
 1.10000E+01    1.36431E-01
 1.15000E+01    1.28164E-01
 1.20000E+01    1.20724E-01
 1.25000E+01    1.13992E-01
 1.30000E+01    1.07861E-01
 1.35000E+01    1.02240E-01
 1.40000E+01    9.70623E-02
 1.45000E+01    9.22706E-02
 1.50000E+01    8.78226E-02
 1.55000E+01    8.37554E-02
 1.60000E+01    7.98771E-02
 1.65000E+01    7.62432E-02
 1.70000E+01    7.29716E-02
 1.75000E+01    6.99157E-02
 1.80000E+01    6.70080E-02
 1.85000E+01    6.40985E-02
 1.90000E+01    6.15478E-02
 1.95000E+01    5.92193E-02
 2.00000E+01    5.70202E-02
