# n + Gd156 : (n,n'06)  
# jendl4.0   N.Iwamoto,A.Zukeran,K.Shibata     EVAL-Dec09
# uncertainties: n
# # energies =    82
#   E(MeV)       xs(mb) 
 1.13675E+00    0.00000E+00
 1.16162E+00    8.19846E+01
 1.17575E+00    9.95855E+01
 1.20000E+00    1.26682E+02
 1.25052E+00    1.68296E+02
 1.25608E+00    1.70272E+02
 1.26621E+00    1.73674E+02
 1.28440E+00    1.77410E+02
 1.30000E+00    1.80851E+02
 1.30622E+00    1.82173E+02
 1.32820E+00    1.86798E+02
 1.36419E+00    1.90409E+02
 1.37530E+00    1.91898E+02
 1.40000E+00    1.91783E+02
 1.41724E+00    1.92142E+02
 1.42524E+00    1.92400E+02
 1.47176E+00    1.94459E+02
 1.47801E+00    1.94724E+02
 1.50000E+00    1.95247E+02
 1.51661E+00    1.95859E+02
 1.52036E+00    1.96003E+02
 1.54880E+00    1.96322E+02
 1.55015E+00    1.96081E+02
 1.58707E+00    1.94585E+02
 1.60000E+00    1.93951E+02
 1.60532E+00    1.93737E+02
 1.63304E+00    1.92277E+02
 1.64860E+00    1.91616E+02
 1.65428E+00    1.91396E+02
 1.70000E+00    1.90132E+02
 1.71684E+00    1.89756E+02
 1.72629E+00    1.89558E+02
 1.76499E+00    1.88413E+02
 1.77703E+00    1.87656E+02
 1.78255E+00    1.87257E+02
 1.79201E+00    1.85508E+02
 1.80000E+00    1.84062E+02
 1.81036E+00    1.82710E+02
 1.81567E+00    1.82075E+02
 1.83966E+00    1.79118E+02
 1.86029E+00    1.75585E+02
 1.86181E+00    1.75385E+02
 1.90000E+00    1.71037E+02
 2.00000E+00    1.59207E+02
 2.25000E+00    1.25793E+02
 2.50000E+00    8.54047E+01
 2.75000E+00    6.06387E+01
 3.00000E+00    3.96441E+01
 3.50000E+00    1.80543E+01
 4.00000E+00    8.33920E+00
 4.50000E+00    3.96392E+00
 5.00000E+00    1.98449E+00
 5.50000E+00    1.08603E+00
 6.00000E+00    6.74377E-01
 6.50000E+00    4.79322E-01
 7.00000E+00    3.80144E-01
 7.50000E+00    3.23918E-01
 8.00000E+00    2.87612E-01
 8.50000E+00    2.61101E-01
 9.00000E+00    2.39875E-01
 9.50000E+00    2.21891E-01
 1.00000E+01    2.06197E-01
 1.05000E+01    1.92339E-01
 1.10000E+01    1.80011E-01
 1.15000E+01    1.68971E-01
 1.20000E+01    1.59039E-01
 1.25000E+01    1.50059E-01
 1.30000E+01    1.41884E-01
 1.35000E+01    1.34394E-01
 1.40000E+01    1.27496E-01
 1.45000E+01    1.21115E-01
 1.50000E+01    1.15197E-01
 1.55000E+01    1.09794E-01
 1.60000E+01    1.04637E-01
 1.65000E+01    9.98410E-02
 1.70000E+01    9.55236E-02
 1.75000E+01    9.14734E-02
 1.80000E+01    8.76296E-02
 1.85000E+01    8.38047E-02
 1.90000E+01    8.04638E-02
 1.95000E+01    7.73702E-02
 2.00000E+01    7.44527E-02
