# n + Gd156 : (n,n'13)  
# jendl4.0   N.Iwamoto,A.Zukeran,K.Shibata     EVAL-Dec09
# uncertainties: n
# # energies =    73
#   E(MeV)       xs(mb) 
 1.30622E+00    0.00000E+00
 1.32820E+00    5.23789E+00
 1.36419E+00    1.15941E+01
 1.37530E+00    1.32888E+01
 1.40000E+00    1.71593E+01
 1.41724E+00    1.96992E+01
 1.42524E+00    2.08186E+01
 1.47176E+00    2.71908E+01
 1.47801E+00    2.78017E+01
 1.50000E+00    2.97200E+01
 1.51661E+00    3.14068E+01
 1.52036E+00    3.17298E+01
 1.54880E+00    3.42849E+01
 1.55015E+00    3.42478E+01
 1.58707E+00    3.67622E+01
 1.60000E+00    3.77463E+01
 1.60532E+00    3.81490E+01
 1.63304E+00    4.03051E+01
 1.64860E+00    4.14487E+01
 1.65428E+00    4.18873E+01
 1.70000E+00    4.55996E+01
 1.71684E+00    4.67640E+01
 1.72629E+00    4.73703E+01
 1.76499E+00    4.99015E+01
 1.77703E+00    5.07043E+01
 1.78255E+00    5.10747E+01
 1.79201E+00    5.15341E+01
 1.80000E+00    5.19238E+01
 1.81036E+00    5.24915E+01
 1.81567E+00    5.27794E+01
 1.83966E+00    5.41091E+01
 1.86029E+00    5.49819E+01
 1.86181E+00    5.50553E+01
 1.90000E+00    5.69889E+01
 2.00000E+00    5.92635E+01
 2.25000E+00    5.68872E+01
 2.50000E+00    4.45874E+01
 2.75000E+00    3.53422E+01
 3.00000E+00    2.52805E+01
 3.50000E+00    1.32487E+01
 4.00000E+00    6.75055E+00
 4.50000E+00    3.41004E+00
 5.00000E+00    1.74324E+00
 5.50000E+00    9.30891E-01
 6.00000E+00    5.42164E-01
 6.50000E+00    3.55897E-01
 7.00000E+00    2.63590E-01
 7.50000E+00    2.14587E-01
 8.00000E+00    1.85730E-01
 8.50000E+00    1.66484E-01
 9.00000E+00    1.52073E-01
 9.50000E+00    1.40350E-01
 1.00000E+01    1.30332E-01
 1.05000E+01    1.21572E-01
 1.10000E+01    1.13812E-01
 1.15000E+01    1.06892E-01
 1.20000E+01    1.00669E-01
 1.25000E+01    9.50410E-02
 1.30000E+01    8.99165E-02
 1.35000E+01    8.52199E-02
 1.40000E+01    8.08932E-02
 1.45000E+01    7.68894E-02
 1.50000E+01    7.31733E-02
 1.55000E+01    6.97410E-02
 1.60000E+01    6.65274E-02
 1.65000E+01    6.34859E-02
 1.70000E+01    6.07389E-02
 1.75000E+01    5.82178E-02
 1.80000E+01    5.57798E-02
 1.85000E+01    5.33350E-02
 1.90000E+01    5.12288E-02
 1.95000E+01    4.92975E-02
 2.00000E+01    4.74402E-02
