# n + Gd156 : (n,n'11)  
# jendl4.0   N.Iwamoto,A.Zukeran,K.Shibata     EVAL-Dec09
# uncertainties: n
# # energies =    76
#   E(MeV)       xs(mb) 
 1.26621E+00    0.00000E+00
 1.28440E+00    4.94917E+01
 1.30000E+00    6.66530E+01
 1.30622E+00    7.23994E+01
 1.32820E+00    8.93804E+01
 1.36419E+00    1.08602E+02
 1.37530E+00    1.13261E+02
 1.40000E+00    1.20879E+02
 1.41724E+00    1.25956E+02
 1.42524E+00    1.28181E+02
 1.47176E+00    1.37739E+02
 1.47801E+00    1.38878E+02
 1.50000E+00    1.42363E+02
 1.51661E+00    1.44950E+02
 1.52036E+00    1.45372E+02
 1.54880E+00    1.48131E+02
 1.55015E+00    1.48091E+02
 1.58707E+00    1.50565E+02
 1.60000E+00    1.51320E+02
 1.60532E+00    1.51633E+02
 1.63304E+00    1.52940E+02
 1.64860E+00    1.53682E+02
 1.65428E+00    1.53955E+02
 1.70000E+00    1.54697E+02
 1.71684E+00    1.54807E+02
 1.72629E+00    1.54868E+02
 1.76499E+00    1.54835E+02
 1.77703E+00    1.54900E+02
 1.78255E+00    1.54941E+02
 1.79201E+00    1.54111E+02
 1.80000E+00    1.53409E+02
 1.81036E+00    1.52938E+02
 1.81567E+00    1.52741E+02
 1.83966E+00    1.51780E+02
 1.86029E+00    1.50023E+02
 1.86181E+00    1.49943E+02
 1.90000E+00    1.48303E+02
 2.00000E+00    1.38996E+02
 2.25000E+00    1.13532E+02
 2.50000E+00    7.91346E+01
 2.75000E+00    5.71202E+01
 3.00000E+00    3.74582E+01
 3.50000E+00    1.71057E+01
 4.00000E+00    7.79001E+00
 4.50000E+00    3.57205E+00
 5.00000E+00    1.66562E+00
 5.50000E+00    8.08147E-01
 6.00000E+00    4.24965E-01
 6.50000E+00    2.52906E-01
 7.00000E+00    1.73395E-01
 7.50000E+00    1.34371E-01
 8.00000E+00    1.13257E-01
 8.50000E+00    1.00217E-01
 9.00000E+00    9.09838E-02
 9.50000E+00    8.37226E-02
 1.00000E+01    7.76304E-02
 1.05000E+01    7.23539E-02
 1.10000E+01    6.77028E-02
 1.15000E+01    6.35665E-02
 1.20000E+01    5.98515E-02
 1.25000E+01    5.64948E-02
 1.30000E+01    5.34397E-02
 1.35000E+01    5.06404E-02
 1.40000E+01    4.80621E-02
 1.45000E+01    4.56767E-02
 1.50000E+01    4.34631E-02
 1.55000E+01    4.14387E-02
 1.60000E+01    3.95143E-02
 1.65000E+01    3.77048E-02
 1.70000E+01    3.60845E-02
 1.75000E+01    3.45685E-02
 1.80000E+01    3.31201E-02
 1.85000E+01    3.16767E-02
 1.90000E+01    3.04223E-02
 1.95000E+01    2.92604E-02
 2.00000E+01    2.81635E-02
