# n + Gd156 : (n,n'01)  
# jendl4.0   N.Iwamoto,A.Zukeran,K.Shibata     EVAL-Dec09
# uncertainties: n
# # energies =   111
#   E(MeV)       xs(mb) 
 8.95455E-02    0.00000E+00
 9.00000E-02    2.20841E+01
 1.00000E-01    9.53288E+01
 1.10000E-01    1.64160E+02
 1.20000E-01    2.25277E+02
 1.30000E-01    2.79099E+02
 1.40000E-01    3.25629E+02
 1.50000E-01    3.67825E+02
 1.60000E-01    4.05187E+02
 1.70000E-01    4.40445E+02
 1.80000E-01    4.73652E+02
 1.90000E-01    5.04925E+02
 2.00000E-01    5.32210E+02
 2.25000E-01    5.95414E+02
 2.50000E-01    6.52404E+02
 2.75000E-01    7.03260E+02
 2.90051E-01    7.32302E+02
 3.00000E-01    7.50618E+02
 4.00000E-01    8.95939E+02
 5.00000E-01    1.01593E+03
 5.88498E-01    1.08483E+03
 6.00000E-01    1.09252E+03
 7.00000E-01    1.15685E+03
 8.00000E-01    1.19755E+03
 9.00000E-01    1.22418E+03
 9.71378E-01    1.24025E+03
 1.00000E+00    1.24617E+03
 1.05628E+00    1.25615E+03
 1.10000E+00    1.24348E+03
 1.13675E+00    1.23686E+03
 1.16162E+00    1.19775E+03
 1.17575E+00    1.16439E+03
 1.20000E+00    1.12631E+03
 1.25052E+00    1.07567E+03
 1.25608E+00    1.06287E+03
 1.26621E+00    1.04222E+03
 1.28440E+00    1.00204E+03
 1.30000E+00    9.73842E+02
 1.30622E+00    9.64745E+02
 1.32820E+00    9.35563E+02
 1.36419E+00    8.85210E+02
 1.37530E+00    8.72633E+02
 1.40000E+00    8.39861E+02
 1.41724E+00    8.21452E+02
 1.42524E+00    8.13614E+02
 1.47176E+00    7.74390E+02
 1.47801E+00    7.69446E+02
 1.50000E+00    7.51981E+02
 1.51661E+00    7.40004E+02
 1.52036E+00    7.37352E+02
 1.54880E+00    7.18504E+02
 1.55015E+00    7.17150E+02
 1.58707E+00    6.93419E+02
 1.60000E+00    6.84436E+02
 1.60532E+00    6.81094E+02
 1.63304E+00    6.63008E+02
 1.64860E+00    6.54156E+02
 1.65428E+00    6.51088E+02
 1.70000E+00    6.29018E+02
 1.71684E+00    6.21414E+02
 1.72629E+00    6.17296E+02
 1.76499E+00    6.00186E+02
 1.77703E+00    5.95545E+02
 1.78255E+00    5.93497E+02
 1.79201E+00    5.87905E+02
 1.80000E+00    5.83339E+02
 1.81036E+00    5.78390E+02
 1.81567E+00    5.75986E+02
 1.83966E+00    5.64963E+02
 1.86029E+00    5.54114E+02
 1.86181E+00    5.53444E+02
 1.90000E+00    5.38317E+02
 2.00000E+00    5.00507E+02
 2.25000E+00    4.19547E+02
 2.50000E+00    3.51023E+02
 2.75000E+00    3.14455E+02
 3.00000E+00    2.86268E+02
 3.50000E+00    2.62230E+02
 4.00000E+00    2.55380E+02
 4.50000E+00    2.56731E+02
 5.00000E+00    2.62377E+02
 5.50000E+00    2.70191E+02
 6.00000E+00    2.78617E+02
 6.50000E+00    2.86741E+02
 7.00000E+00    2.94225E+02
 7.50000E+00    3.00863E+02
 8.00000E+00    3.06627E+02
 8.50000E+00    3.11345E+02
 9.00000E+00    3.15057E+02
 9.50000E+00    3.17747E+02
 1.00000E+01    3.19643E+02
 1.05000E+01    3.20905E+02
 1.10000E+01    3.21755E+02
 1.15000E+01    3.22352E+02
 1.20000E+01    3.22790E+02
 1.25000E+01    3.23095E+02
 1.30000E+01    3.23241E+02
 1.35000E+01    3.23166E+02
 1.40000E+01    3.22805E+02
 1.45000E+01    3.22107E+02
 1.50000E+01    3.21057E+02
 1.55000E+01    3.19679E+02
 1.60000E+01    3.18037E+02
 1.65000E+01    3.16231E+02
 1.70000E+01    3.14379E+02
 1.75000E+01    3.12602E+02
 1.80000E+01    3.11003E+02
 1.85000E+01    3.09657E+02
 1.90000E+01    3.08599E+02
 1.95000E+01    3.07832E+02
 2.00000E+01    3.07331E+02
