# n + Gd156 : (n,n'16)  
# jendl4.0   N.Iwamoto,A.Zukeran,K.Shibata     EVAL-Dec09
# uncertainties: n
# # energies =    70
#   E(MeV)       xs(mb) 
 1.37530E+00    0.00000E+00
 1.40000E+00    3.60446E+01
 1.41724E+00    4.73809E+01
 1.42524E+00    5.19037E+01
 1.47176E+00    7.32472E+01
 1.47801E+00    7.55629E+01
 1.50000E+00    8.26061E+01
 1.51661E+00    8.74544E+01
 1.52036E+00    8.85036E+01
 1.54880E+00    9.52516E+01
 1.55015E+00    9.55119E+01
 1.58707E+00    1.02117E+02
 1.60000E+00    1.03653E+02
 1.60532E+00    1.04360E+02
 1.63304E+00    1.06829E+02
 1.64860E+00    1.07770E+02
 1.65428E+00    1.08104E+02
 1.70000E+00    1.10628E+02
 1.71684E+00    1.11461E+02
 1.72629E+00    1.11901E+02
 1.76499E+00    1.12853E+02
 1.77703E+00    1.13110E+02
 1.78255E+00    1.13093E+02
 1.79201E+00    1.12591E+02
 1.80000E+00    1.12036E+02
 1.81036E+00    1.11638E+02
 1.81567E+00    1.11461E+02
 1.83966E+00    1.10298E+02
 1.86029E+00    1.08963E+02
 1.86181E+00    1.08891E+02
 1.90000E+00    1.07346E+02
 2.00000E+00    1.02528E+02
 2.25000E+00    8.18213E+01
 2.50000E+00    5.72848E+01
 2.75000E+00    4.09505E+01
 3.00000E+00    2.68499E+01
 3.50000E+00    1.21750E+01
 4.00000E+00    5.59857E+00
 4.50000E+00    2.68076E+00
 5.00000E+00    1.37982E+00
 5.50000E+00    7.91517E-01
 6.00000E+00    5.19005E-01
 6.50000E+00    3.86406E-01
 7.00000E+00    3.16278E-01
 7.50000E+00    2.74522E-01
 8.00000E+00    2.46241E-01
 8.50000E+00    2.24824E-01
 9.00000E+00    2.07280E-01
 9.50000E+00    1.92210E-01
 1.00000E+01    1.78938E-01
 1.05000E+01    1.67140E-01
 1.10000E+01    1.56597E-01
 1.15000E+01    1.47145E-01
 1.20000E+01    1.38625E-01
 1.25000E+01    1.30909E-01
 1.30000E+01    1.23876E-01
 1.35000E+01    1.17428E-01
 1.40000E+01    1.11486E-01
 1.45000E+01    1.05987E-01
 1.50000E+01    1.00882E-01
 1.55000E+01    9.62015E-02
 1.60000E+01    9.17635E-02
 1.65000E+01    8.75822E-02
 1.70000E+01    8.38344E-02
 1.75000E+01    8.03228E-02
 1.80000E+01    7.69771E-02
 1.85000E+01    7.36396E-02
 1.90000E+01    7.07143E-02
 1.95000E+01    6.80353E-02
 2.00000E+01    6.55053E-02
