# n + Gd156 : (n,tot)   
# jendl4.0   N.Iwamoto,A.Zukeran,K.Shibata     EVAL-Dec09
# uncertainties: n
# # energies =   171
#   E(MeV)       xs(mb) 
 1.00000E-11    2.78676E+04
 1.00000E-07    5.89024E+03
 4.13990E-07    5.65393E+03
 5.31580E-07    5.60259E+03
 6.82560E-07    5.55661E+03
 8.76420E-07    5.51523E+03
 1.12540E-06    5.47812E+03
 1.44500E-06    5.44411E+03
 1.85540E-06    5.41233E+03
 2.37240E-06    5.38130E+03
 3.05900E-06    5.34609E+03
 3.92790E-06    5.31494E+03
 5.04350E-06    5.27569E+03
 6.47600E-06    5.22811E+03
 8.31530E-06    5.17184E+03
 1.06770E-05    5.09963E+03
 1.37100E-05    5.00360E+03
 1.76030E-05    4.85692E+03
 2.26030E-05    4.72183E+03
 2.92030E-05    2.19574E+05
 3.72670E-05    6.47702E+03
 4.78510E-05    5.01013E+03
 6.14420E-05    5.27214E+03
 7.88930E-05    2.11840E+05
 1.01300E-04    7.42982E+03
 1.30070E-04    2.18469E+04
 1.67020E-04    1.08895E+05
 2.14450E-04    8.85523E+03
 2.75360E-04    8.26806E+03
 3.53580E-04    4.04518E+04
 4.54000E-04    3.24209E+04
 5.82950E-04    7.61197E+04
 7.48520E-04    5.56157E+04
 9.61120E-04    3.15267E+04
 1.23410E-03    2.27056E+04
 1.58460E-03    3.27297E+04
 2.03470E-03    2.40832E+04
 2.24870E-03    2.30549E+04
 2.48520E-03    2.24083E+04
 2.61260E-03    2.19882E+04
 2.74650E-03    2.13740E+04
 3.03540E-03    2.05800E+04
 3.35460E-03    1.98156E+04
 3.70740E-03    1.89198E+04
 4.30740E-03    1.77123E+04
 5.53080E-03    1.63290E+04
 7.10170E-03    1.51007E+04
 9.11880E-03    1.40275E+04
 1.17090E-02    1.31243E+04
 1.50340E-02    1.22877E+04
 1.93050E-02    1.17058E+04
 2.18750E-02    1.14350E+04
 2.35790E-02    1.13029E+04
 2.41760E-02    1.12377E+04
 2.47880E-02    1.11407E+04
 2.60580E-02    1.10305E+04
 2.70000E-02    1.09166E+04
 2.85000E-02    1.07131E+04
 3.18280E-02    1.04986E+04
 3.43070E-02    1.02195E+04
 4.08680E-02    9.91295E+03
 4.63090E-02    9.67793E+03
 5.24750E-02    9.49376E+03
 5.65620E-02    9.27419E+03
 6.73790E-02    9.07654E+03
 7.20000E-02    8.94891E+03
 7.95000E-02    8.84575E+03
 8.25000E-02    8.78228E+03
 8.65170E-02    8.65434E+03
 9.80370E-02    8.48031E+03
 1.11090E-01    8.37085E+03
 1.16790E-01    8.30921E+03
 1.22770E-01    8.24800E+03
 1.29070E-01    8.18716E+03
 1.35690E-01    8.12691E+03
 1.42640E-01    8.06703E+03
 1.49960E-01    8.00891E+03
 1.57640E-01    7.95420E+03
 1.65730E-01    7.90749E+03
 1.74220E-01    7.86155E+03
 1.83160E-01    7.81586E+03
 1.92550E-01    7.77044E+03
 2.02420E-01    7.72542E+03
 2.12800E-01    7.68058E+03
 2.23710E-01    7.63588E+03
 2.35180E-01    7.59153E+03
 2.47240E-01    7.53894E+03
 2.73240E-01    7.49951E+03
 2.87250E-01    7.48254E+03
 2.94520E-01    7.47464E+03
 2.97200E-01    7.47149E+03
 2.98500E-01    7.46771E+03
 3.01970E-01    7.44024E+03
 3.33730E-01    7.38736E+03
 3.68830E-01    7.34594E+03
 3.87740E-01    7.32468E+03
 4.07620E-01    7.30834E+03
 4.50490E-01    7.29740E+03
 4.97870E-01    7.28850E+03
 5.23400E-01    7.28215E+03
 5.50230E-01    7.27548E+03
 5.78440E-01    7.26847E+03
 6.08100E-01    7.26110E+03
 6.39280E-01    7.25386E+03
 6.72060E-01    7.25011E+03
 7.06510E-01    7.24696E+03
 7.42740E-01    7.24366E+03
 7.80820E-01    7.24019E+03
 8.20850E-01    7.23653E+03
 8.62940E-01    7.23270E+03
 9.07180E-01    7.22831E+03
 9.61640E-01    7.22406E+03
 1.00260E+00    7.21264E+03
 1.10800E+00    7.18653E+03
 1.16480E+00    7.16646E+03
 1.22460E+00    7.14538E+03
 1.28730E+00    7.11889E+03
 1.35340E+00    7.08214E+03
 1.42270E+00    7.04326E+03
 1.49570E+00    7.00235E+03
 1.57240E+00    6.95824E+03
 1.65300E+00    6.90323E+03
 1.73770E+00    6.84358E+03
 1.82680E+00    6.78084E+03
 1.92050E+00    6.71487E+03
 2.01900E+00    6.64554E+03
 2.12250E+00    6.57263E+03
 2.23130E+00    6.50912E+03
 2.30690E+00    6.46971E+03
 2.34570E+00    6.44962E+03
 2.36530E+00    6.43606E+03
 2.38520E+00    6.40161E+03
 2.46600E+00    6.33064E+03
 2.59240E+00    6.24158E+03
 2.72530E+00    6.15380E+03
 2.86500E+00    6.06811E+03
 3.01190E+00    5.97799E+03
 3.16640E+00    5.88601E+03
 3.32870E+00    5.75736E+03
 3.67880E+00    5.58203E+03
 4.06570E+00    5.41402E+03
 4.49330E+00    5.29414E+03
 4.72370E+00    5.21848E+03
 4.96590E+00    5.14726E+03
 5.22050E+00    5.08420E+03
 5.48810E+00    5.02455E+03
 5.76950E+00    4.97512E+03
 6.06530E+00    4.93162E+03
 6.37630E+00    4.90326E+03
 6.59240E+00    4.88861E+03
 6.70320E+00    4.87608E+03
 7.04690E+00    4.86073E+03
 7.40820E+00    4.85813E+03
 7.78800E+00    4.86726E+03
 8.18730E+00    4.88328E+03
 8.60710E+00    4.90961E+03
 9.04840E+00    4.94009E+03
 9.51230E+00    4.98045E+03
 1.00000E+01    5.02611E+03
 1.05130E+01    5.07742E+03
 1.10520E+01    5.13141E+03
 1.16180E+01    5.18575E+03
 1.22140E+01    5.23758E+03
 1.28400E+01    5.28370E+03
 1.34990E+01    5.31261E+03
 1.38400E+01    5.32839E+03
 1.41910E+01    5.34062E+03
 1.45500E+01    5.34924E+03
 1.49180E+01    5.35493E+03
 1.56830E+01    5.34854E+03
 1.64870E+01    5.32527E+03
