# n + Gd156 : (n,el)    
# jendl4.0   N.Iwamoto,A.Zukeran,K.Shibata     EVAL-Dec09
# uncertainties: n
# # energies =   171
#   E(MeV)       xs(mb) 
 1.00000E-11    8.13059E+03
 1.00000E-07    5.22783E+03
 4.13990E-07    5.22192E+03
 5.31580E-07    5.21924E+03
 6.82560E-07    5.21579E+03
 8.76420E-07    5.21136E+03
 1.12540E-06    5.20568E+03
 1.44500E-06    5.19838E+03
 1.85540E-06    5.18910E+03
 2.37240E-06    5.17709E+03
 3.05900E-06    5.16153E+03
 3.92790E-06    5.14169E+03
 5.04350E-06    5.11601E+03
 6.47600E-06    5.07650E+03
 8.31530E-06    5.02251E+03
 1.06770E-05    4.94650E+03
 1.37100E-05    4.82293E+03
 1.76030E-05    4.59763E+03
 2.26030E-05    3.96295E+03
 2.92030E-05    3.16262E+04
 3.72670E-05    5.97871E+03
 4.78510E-05    4.76925E+03
 6.14420E-05    2.80061E+03
 7.88930E-05    1.10922E+05
 1.01300E-04    6.17953E+03
 1.30070E-04    8.76090E+03
 1.67020E-04    6.70152E+04
 2.14450E-04    7.85128E+03
 2.75360E-04    5.82698E+03
 3.53580E-04    2.73857E+04
 4.54000E-04    2.01047E+04
 5.82950E-04    6.55829E+04
 7.48520E-04    4.85974E+04
 9.61120E-04    2.60385E+04
 1.23410E-03    1.80173E+04
 1.58460E-03    2.82997E+04
 2.03470E-03    2.24358E+04
 2.24870E-03    2.07984E+04
 2.48520E-03    2.02676E+04
 2.61260E-03    1.99218E+04
 2.74650E-03    1.94153E+04
 3.03540E-03    1.87586E+04
 3.35460E-03    1.81241E+04
 3.70740E-03    1.73740E+04
 4.30740E-03    1.63323E+04
 5.53080E-03    1.51286E+04
 7.10170E-03    1.40469E+04
 9.11880E-03    1.30911E+04
 1.17090E-02    1.22837E+04
 1.50340E-02    1.15336E+04
 1.93050E-02    1.10114E+04
 2.18750E-02    1.07700E+04
 2.35790E-02    1.06522E+04
 2.41760E-02    1.05941E+04
 2.47880E-02    1.05075E+04
 2.60580E-02    1.04091E+04
 2.70000E-02    1.03074E+04
 2.85000E-02    1.01256E+04
 3.18280E-02    9.93480E+03
 3.43070E-02    9.68626E+03
 4.08680E-02    9.41285E+03
 4.63090E-02    9.20288E+03
 5.24750E-02    9.03791E+03
 5.65620E-02    8.84069E+03
 6.73790E-02    8.66255E+03
 7.20000E-02    8.54668E+03
 7.95000E-02    8.45271E+03
 8.25000E-02    8.39441E+03
 8.65170E-02    8.26126E+03
 9.80370E-02    8.04257E+03
 1.11090E-01    7.89133E+03
 1.16790E-01    7.80528E+03
 1.22770E-01    7.71933E+03
 1.29070E-01    7.63401E+03
 1.35690E-01    7.54965E+03
 1.42640E-01    7.46493E+03
 1.49960E-01    7.38200E+03
 1.57640E-01    7.30407E+03
 1.65730E-01    7.23537E+03
 1.74220E-01    7.16739E+03
 1.83160E-01    7.09925E+03
 1.92550E-01    7.03234E+03
 2.02420E-01    6.96557E+03
 2.12800E-01    6.89890E+03
 2.23710E-01    6.83189E+03
 2.35180E-01    6.76438E+03
 2.47240E-01    6.67626E+03
 2.73240E-01    6.60110E+03
 2.87250E-01    6.56545E+03
 2.94520E-01    6.54883E+03
 2.97200E-01    6.54220E+03
 2.98500E-01    6.53426E+03
 3.01970E-01    6.47645E+03
 3.33730E-01    6.37147E+03
 3.68830E-01    6.29843E+03
 3.87740E-01    6.24710E+03
 4.07620E-01    6.18570E+03
 4.50490E-01    6.10753E+03
 4.97870E-01    6.04503E+03
 5.23400E-01    6.00844E+03
 5.50230E-01    5.97129E+03
 5.78440E-01    5.93223E+03
 6.08100E-01    5.89117E+03
 6.39280E-01    5.84800E+03
 6.72060E-01    5.80280E+03
 7.06510E-01    5.76221E+03
 7.42740E-01    5.72313E+03
 7.80820E-01    5.68205E+03
 8.20850E-01    5.63885E+03
 8.62940E-01    5.59345E+03
 9.07180E-01    5.54322E+03
 9.61640E-01    5.49641E+03
 1.00260E+00    5.41605E+03
 1.10800E+00    5.29051E+03
 1.16480E+00    5.15452E+03
 1.22460E+00    5.01650E+03
 1.28730E+00    4.86532E+03
 1.35340E+00    4.73125E+03
 1.42270E+00    4.61433E+03
 1.49570E+00    4.50721E+03
 1.57240E+00    4.40690E+03
 1.65300E+00    4.30571E+03
 1.73770E+00    4.20939E+03
 1.82680E+00    4.10872E+03
 1.92050E+00    4.00699E+03
 2.01900E+00    3.90697E+03
 2.12250E+00    3.80208E+03
 2.23130E+00    3.71458E+03
 2.30690E+00    3.66196E+03
 2.34570E+00    3.63514E+03
 2.36530E+00    3.61702E+03
 2.38520E+00    3.57104E+03
 2.46600E+00    3.48353E+03
 2.59240E+00    3.37903E+03
 2.72530E+00    3.27601E+03
 2.86500E+00    3.17140E+03
 3.01190E+00    3.07001E+03
 3.16640E+00    2.96950E+03
 3.32870E+00    2.82719E+03
 3.67880E+00    2.64858E+03
 4.06570E+00    2.48990E+03
 4.49330E+00    2.38383E+03
 4.72370E+00    2.32160E+03
 4.96590E+00    2.26534E+03
 5.22050E+00    2.21810E+03
 5.48810E+00    2.17701E+03
 5.76950E+00    2.14402E+03
 6.06530E+00    2.12004E+03
 6.37630E+00    2.10543E+03
 6.59240E+00    2.10024E+03
 6.70320E+00    2.09706E+03
 7.04690E+00    2.10171E+03
 7.40820E+00    2.11546E+03
 7.78800E+00    2.13978E+03
 8.18730E+00    2.17615E+03
 8.60710E+00    2.22339E+03
 9.04840E+00    2.26836E+03
 9.51230E+00    2.32675E+03
 1.00000E+01    2.38995E+03
 1.05130E+01    2.45790E+03
 1.10520E+01    2.52742E+03
 1.16180E+01    2.59616E+03
 1.22140E+01    2.66154E+03
 1.28400E+01    2.72089E+03
 1.34990E+01    2.75991E+03
 1.38400E+01    2.78267E+03
 1.41910E+01    2.80216E+03
 1.45500E+01    2.81828E+03
 1.49180E+01    2.83574E+03
 1.56830E+01    2.84560E+03
 1.64870E+01    2.83890E+03
