# p + Zn  0 : Production of Cu 61
# IAEA-MED for     4.000 MeV <     29.900 MeV, extended with TENDL-2019   EVAL-2019
# uncertainties: y
# # energies =   285
#   E(MeV)          xs(mb) 
 1.00000E-03    6.78279E-18
 5.00000E-01    6.78279E-18
 1.00000E+00    3.80822E-17
 2.00000E+00    6.04717E-09
 3.00000E+00    2.45585E-05
 4.00000E+00    6.00000E-03
 4.10000E+00    8.00000E-03
 4.20000E+00    1.20000E-02
 4.30000E+00    2.00000E-02
 4.40000E+00    3.00000E-02
 4.50000E+00    5.00000E-02
 4.60000E+00    8.00000E-02
 4.70000E+00    1.20000E-01
 4.80000E+00    1.70000E-01
 4.90000E+00    2.40000E-01
 5.00000E+00    3.20000E-01
 5.10000E+00    4.20000E-01
 5.20000E+00    5.40000E-01
 5.30000E+00    6.90000E-01
 5.40000E+00    8.70000E-01
 5.50000E+00    1.10000E+00
 5.60000E+00    1.30000E+00
 5.70000E+00    1.60000E+00
 5.80000E+00    1.90000E+00
 5.90000E+00    2.30000E+00
 6.00000E+00    2.70000E+00
 6.10000E+00    3.20000E+00
 6.20000E+00    3.80000E+00
 6.30000E+00    4.40000E+00
 6.40000E+00    5.00000E+00
 6.50000E+00    5.70000E+00
 6.60000E+00    6.40000E+00
 6.70000E+00    7.20000E+00
 6.80000E+00    8.00000E+00
 6.90000E+00    8.90000E+00
 7.00000E+00    9.80000E+00
 7.10000E+00    1.08000E+01
 7.20000E+00    1.18000E+01
 7.30000E+00    1.28000E+01
 7.40000E+00    1.38000E+01
 7.50000E+00    1.49000E+01
 7.60000E+00    1.60000E+01
 7.70000E+00    1.71000E+01
 7.80000E+00    1.82000E+01
 7.90000E+00    1.94000E+01
 8.00000E+00    2.05000E+01
 8.10000E+00    2.16000E+01
 8.20000E+00    2.28000E+01
 8.30000E+00    2.39000E+01
 8.40000E+00    2.50000E+01
 8.50000E+00    2.62000E+01
 8.60000E+00    2.73000E+01
 8.70000E+00    2.84000E+01
 8.80000E+00    2.96000E+01
 8.90000E+00    3.07000E+01
 9.00000E+00    3.18000E+01
 9.10000E+00    3.29000E+01
 9.20000E+00    3.40000E+01
 9.30000E+00    3.51000E+01
 9.40000E+00    3.62000E+01
 9.50000E+00    3.73000E+01
 9.60000E+00    3.84000E+01
 9.70000E+00    3.94000E+01
 9.80000E+00    4.05000E+01
 9.90000E+00    4.15000E+01
 1.00000E+01    4.26000E+01
 1.01000E+01    4.36000E+01
 1.02000E+01    4.46000E+01
 1.03000E+01    4.56000E+01
 1.04000E+01    4.66000E+01
 1.05000E+01    4.76000E+01
 1.06000E+01    4.86000E+01
 1.07000E+01    4.95000E+01
 1.08000E+01    5.05000E+01
 1.09000E+01    5.14000E+01
 1.10000E+01    5.23000E+01
 1.11000E+01    5.32000E+01
 1.12000E+01    5.41000E+01
 1.13000E+01    5.50000E+01
 1.14000E+01    5.58000E+01
 1.15000E+01    5.66000E+01
 1.16000E+01    5.74000E+01
 1.17000E+01    5.82000E+01
 1.18000E+01    5.90000E+01
 1.19000E+01    5.97000E+01
 1.20000E+01    6.04000E+01
 1.21000E+01    6.11000E+01
 1.22000E+01    6.18000E+01
 1.23000E+01    6.25000E+01
 1.24000E+01    6.31000E+01
 1.25000E+01    6.37000E+01
 1.26000E+01    6.43000E+01
 1.27000E+01    6.49000E+01
 1.28000E+01    6.54000E+01
 1.29000E+01    6.59000E+01
 1.30000E+01    6.64000E+01
 1.31000E+01    6.69000E+01
 1.32000E+01    6.73000E+01
 1.33000E+01    6.78000E+01
 1.34000E+01    6.81000E+01
 1.35000E+01    6.85000E+01
 1.36000E+01    6.88000E+01
 1.37000E+01    6.92000E+01
 1.38000E+01    6.94000E+01
 1.39000E+01    6.97000E+01
 1.40000E+01    6.99000E+01
 1.41000E+01    7.01000E+01
 1.42000E+01    7.03000E+01
 1.43000E+01    7.04000E+01
 1.44000E+01    7.05000E+01
 1.45000E+01    7.06000E+01
 1.46000E+01    7.06000E+01
 1.47000E+01    7.06000E+01
 1.48000E+01    7.06000E+01
 1.49000E+01    7.05000E+01
 1.50000E+01    7.04000E+01
 1.51000E+01    7.03000E+01
 1.52000E+01    7.01000E+01
 1.53000E+01    6.99000E+01
 1.54000E+01    6.97000E+01
 1.55000E+01    6.94000E+01
 1.56000E+01    6.90000E+01
 1.57000E+01    6.87000E+01
 1.58000E+01    6.82000E+01
 1.59000E+01    6.78000E+01
 1.60000E+01    6.73000E+01
 1.61000E+01    6.67000E+01
 1.62000E+01    6.61000E+01
 1.63000E+01    6.55000E+01
 1.64000E+01    6.48000E+01
 1.65000E+01    6.41000E+01
 1.66000E+01    6.34000E+01
 1.67000E+01    6.26000E+01
 1.68000E+01    6.17000E+01
 1.69000E+01    6.08000E+01
 1.70000E+01    5.99000E+01
 1.71000E+01    5.90000E+01
 1.72000E+01    5.80000E+01
 1.73000E+01    5.70000E+01
 1.74000E+01    5.60000E+01
 1.75000E+01    5.49000E+01
 1.76000E+01    5.38000E+01
 1.77000E+01    5.27000E+01
 1.78000E+01    5.16000E+01
 1.79000E+01    5.04000E+01
 1.80000E+01    4.93000E+01
 1.81000E+01    4.81000E+01
 1.82000E+01    4.70000E+01
 1.83000E+01    4.58000E+01
 1.84000E+01    4.46000E+01
 1.85000E+01    4.34000E+01
 1.86000E+01    4.23000E+01
 1.87000E+01    4.11000E+01
 1.88000E+01    4.00000E+01
 1.89000E+01    3.88000E+01
 1.90000E+01    3.77000E+01
 1.91000E+01    3.66000E+01
 1.92000E+01    3.55000E+01
 1.93000E+01    3.44000E+01
 1.94000E+01    3.34000E+01
 1.95000E+01    3.23000E+01
 1.96000E+01    3.13000E+01
 1.97000E+01    3.04000E+01
 1.98000E+01    2.94000E+01
 1.99000E+01    2.85000E+01
 2.00000E+01    2.76000E+01
 2.01000E+01    2.67000E+01
 2.02000E+01    2.58000E+01
 2.03000E+01    2.50000E+01
 2.04000E+01    2.42000E+01
 2.05000E+01    2.34000E+01
 2.06000E+01    2.27000E+01
 2.07000E+01    2.20000E+01
 2.08000E+01    2.13000E+01
 2.09000E+01    2.06000E+01
 2.10000E+01    2.00000E+01
 2.11000E+01    1.93000E+01
 2.12000E+01    1.87000E+01
 2.13000E+01    1.82000E+01
 2.14000E+01    1.76000E+01
 2.15000E+01    1.71000E+01
 2.16000E+01    1.66000E+01
 2.17000E+01    1.61000E+01
 2.18000E+01    1.56000E+01
 2.19000E+01    1.51000E+01
 2.20000E+01    1.47000E+01
 2.21000E+01    1.43000E+01
 2.22000E+01    1.39000E+01
 2.23000E+01    1.35000E+01
 2.24000E+01    1.31000E+01
 2.25000E+01    1.27000E+01
 2.26000E+01    1.24000E+01
 2.27000E+01    1.21000E+01
 2.28000E+01    1.18000E+01
 2.29000E+01    1.15000E+01
 2.30000E+01    1.12000E+01
 2.31000E+01    1.09000E+01
 2.32000E+01    1.06000E+01
 2.33000E+01    1.03000E+01
 2.34000E+01    1.01000E+01
 2.35000E+01    9.90000E+00
 2.36000E+01    9.60000E+00
 2.37000E+01    9.40000E+00
 2.38000E+01    9.20000E+00
 2.39000E+01    9.00000E+00
 2.40000E+01    8.80000E+00
 2.41000E+01    8.60000E+00
 2.42000E+01    8.40000E+00
 2.43000E+01    8.20000E+00
 2.44000E+01    8.10000E+00
 2.45000E+01    7.90000E+00
 2.46000E+01    7.70000E+00
 2.47000E+01    7.60000E+00
 2.48000E+01    7.40000E+00
 2.49000E+01    7.30000E+00
 2.50000E+01    7.20000E+00
 2.51000E+01    7.00000E+00
 2.52000E+01    6.90000E+00
 2.53000E+01    6.80000E+00
 2.54000E+01    6.70000E+00
 2.55000E+01    6.50000E+00
 2.56000E+01    6.40000E+00
 2.57000E+01    6.30000E+00
 2.58000E+01    6.20000E+00
 2.59000E+01    6.10000E+00
 2.60000E+01    6.00000E+00
 2.61000E+01    5.90000E+00
 2.62000E+01    5.80000E+00
 2.63000E+01    5.70000E+00
 2.64000E+01    5.70000E+00
 2.65000E+01    5.60000E+00
 2.66000E+01    5.50000E+00
 2.67000E+01    5.40000E+00
 2.68000E+01    5.30000E+00
 2.69000E+01    5.30000E+00
 2.70000E+01    5.20000E+00
 2.71000E+01    5.10000E+00
 2.72000E+01    5.10000E+00
 2.73000E+01    5.00000E+00
 2.74000E+01    4.90000E+00
 2.75000E+01    4.90000E+00
 2.76000E+01    4.80000E+00
 2.77000E+01    4.80000E+00
 2.78000E+01    4.70000E+00
 2.79000E+01    4.60000E+00
 2.80000E+01    4.60000E+00
 2.81000E+01    4.50000E+00
 2.82000E+01    4.50000E+00
 2.83000E+01    4.40000E+00
 2.84000E+01    4.40000E+00
 2.85000E+01    4.30000E+00
 2.86000E+01    4.30000E+00
 2.87000E+01    4.20000E+00
 2.88000E+01    4.20000E+00
 2.89000E+01    4.20000E+00
 2.90000E+01    4.10000E+00
 2.91000E+01    4.10000E+00
 2.92000E+01    4.00000E+00
 2.93000E+01    4.00000E+00
 2.94000E+01    4.00000E+00
 2.95000E+01    3.90000E+00
 2.96000E+01    3.90000E+00
 2.97000E+01    3.90000E+00
 2.98000E+01    3.80000E+00
 2.99000E+01    3.80000E+00
 3.50000E+01    8.96437E+00
 4.00000E+01    5.49773E+01
 4.50000E+01    1.44225E+02
 5.00000E+01    1.82568E+02
 5.50000E+01    1.71285E+02
 6.00000E+01    1.52986E+02
 6.50000E+01    1.39902E+02
 7.00000E+01    1.31827E+02
 7.50000E+01    1.25631E+02
 8.00000E+01    1.17429E+02
 9.00000E+01    1.03849E+02
 1.00000E+02    9.47771E+01
 1.10000E+02    8.78478E+01
 1.20000E+02    8.10238E+01
 1.30000E+02    7.60555E+01
 1.40000E+02    7.06176E+01
 1.50000E+02    6.73790E+01
 1.60000E+02    6.34890E+01
 1.80000E+02    5.74179E+01
 2.00000E+02    5.17752E+01
