# n + Pt192 : (n,n'16)  
# tendl.2019 A.J. Koning and D. Rochman        EVAL-NOV19
# uncertainties: n
# # energies =    76
#   E(MeV)       xs(mb) 
 1.63786E+00    0.00000E+00
 1.67539E+00    3.60552E+00
 1.74857E+00    1.06359E+01
 1.75559E+00    1.13103E+01
 1.77537E+00    1.32106E+01
 1.80000E+00    1.55768E+01
 1.80293E+00    1.56215E+01
 1.80976E+00    1.57256E+01
 1.86716E+00    1.66006E+01
 1.87882E+00    1.67783E+01
 1.88990E+00    1.69472E+01
 1.89139E+00    1.69700E+01
 1.90443E+00    1.71687E+01
 1.90767E+00    1.72181E+01
 1.94487E+00    1.77852E+01
 1.97483E+00    1.82419E+01
 2.00000E+00    1.86256E+01
 2.20000E+00    1.52824E+01
 2.40000E+00    1.04809E+01
 2.60000E+00    6.83137E+00
 2.80000E+00    4.47831E+00
 3.00000E+00    3.00629E+00
 3.20000E+00    2.07024E+00
 3.40000E+00    1.45635E+00
 3.60000E+00    1.03969E+00
 3.80000E+00    7.48577E-01
 4.00000E+00    5.41203E-01
 4.20000E+00    3.91969E-01
 4.40000E+00    2.84110E-01
 4.60000E+00    2.06157E-01
 4.80000E+00    1.49846E-01
 5.00000E+00    1.09160E-01
 5.20000E+00    7.97340E-02
 5.40000E+00    5.83848E-02
 5.60000E+00    4.26822E-02
 5.80000E+00    3.13256E-02
 6.00000E+00    2.30537E-02
 6.20000E+00    1.70057E-02
 6.40000E+00    1.25827E-02
 6.60000E+00    9.32860E-03
 6.80000E+00    6.92125E-03
 7.00000E+00    5.14828E-03
 7.20000E+00    3.82943E-03
 7.40000E+00    2.85278E-03
 7.60000E+00    2.12696E-03
 7.80000E+00    1.58658E-03
 8.00000E+00    1.18686E-03
 8.50000E+00    5.78499E-04
 9.00000E+00    2.86597E-04
 9.50000E+00    1.44054E-04
 1.00000E+01    7.33245E-05
 1.05000E+01    3.77784E-05
 1.10000E+01    1.96732E-05
 1.15000E+01    1.03381E-05
 1.20000E+01    5.47650E-06
 1.25000E+01    2.92501E-06
 1.30000E+01    1.57565E-06
 1.35000E+01    8.56470E-07
 1.40000E+01    4.70090E-07
 1.45000E+01    2.60630E-07
 1.50000E+01    1.46000E-07
 1.60000E+01    4.71940E-08
 1.70000E+01    1.58020E-08
 1.80000E+01    5.42020E-09
 1.90000E+01    1.91130E-09
 2.00000E+01    6.87810E-10
 2.10000E+01    2.52490E-10
 2.20000E+01    9.46970E-11
 2.30000E+01    3.64150E-11
 2.40000E+01    1.43170E-11
 2.50000E+01    5.77210E-12
 2.60000E+01    2.36770E-12
 2.70000E+01    9.86510E-13
 2.80000E+01    4.16440E-13
 2.90000E+01    1.77830E-13
 3.00000E+01    7.68270E-14
