# n + Cs134 : (n,xp)    
# jendl4.0   N.Iwamoto,H.Matsunobu             EVAL-Apr09
# 
# # energies =   121
#   E(MeV)        xs(mb) 
 1.13287E-02    1.88046E-05
 2.00000E-02    1.80480E-05
 3.00000E-02    1.71510E-05
 4.00000E-02    1.65249E-05
 5.00000E-02    1.60803E-05
 6.00000E-02    1.60619E-05
 6.04822E-02    1.60647E-05
 7.00000E-02    1.50739E-05
 8.00000E-02    1.44332E-05
 9.00000E-02    1.41285E-05
 1.00000E-01    1.40669E-05
 1.05000E-01    1.41640E-05
 1.10000E-01    1.42612E-05
 1.20000E-01    1.46657E-05
 1.30000E-01    1.51796E-05
 1.39789E-01    1.59788E-05
 1.40000E-01    1.59961E-05
 1.50000E-01    1.69417E-05
 1.60000E-01    1.80113E-05
 1.70000E-01    1.92235E-05
 1.75103E-01    1.98695E-05
 1.77733E-01    1.97846E-05
 1.77971E-01    1.96244E-05
 1.80000E-01    1.86777E-05
 1.90000E-01    1.76233E-05
 1.91694E-01    1.75210E-05
 1.95074E-01    1.70821E-05
 1.99272E-01    1.63783E-05
 2.00000E-01    1.60092E-05
 2.11124E-01    1.47698E-05
 2.25000E-01    1.39318E-05
 2.36099E-01    1.36713E-05
 2.50000E-01    1.33450E-05
 2.59045E-01    1.33180E-05
 2.69678E-01    1.33952E-05
 2.73393E-01    1.33100E-05
 2.75000E-01    1.32731E-05
 2.93159E-01    1.34114E-05
 3.00000E-01    1.32323E-05
 3.46953E-01    1.46304E-05
 3.79943E-01    1.64330E-05
 3.85868E-01    1.68155E-05
 4.00000E-01    1.77569E-05
 4.37445E-01    2.12991E-05
 4.37446E-01    2.12992E-05
 4.53629E-01    2.30532E-05
 4.53630E-01    2.30533E-05
 4.54825E-01    2.31846E-05
 4.57508E-01    2.34836E-05
 4.87300E-01    2.68961E-05
 5.00000E-01    2.83747E-05
 5.06629E-01    2.93290E-05
 5.23234E-01    3.17194E-05
 5.43722E-01    3.49799E-05
 5.75127E-01    4.04294E-05
 5.83493E-01    4.19442E-05
 5.88580E-01    4.27334E-05
 6.00000E-01    4.46212E-05
 6.17639E-01    4.81720E-05
 6.26682E-01    5.00841E-05
 6.28707E-01    5.05191E-05
 6.45526E-01    5.42596E-05
 6.48815E-01    5.50157E-05
 6.58221E-01    5.71779E-05
 6.70009E-01    5.99909E-05
 6.81092E-01    6.27877E-05
 6.85827E-01    6.40538E-05
 6.89660E-01    6.50787E-05
 6.93813E-01    6.61892E-05
 7.00000E-01    6.78435E-05
 8.00000E-01    9.83667E-05
 9.00000E-01    1.34584E-04
 1.00000E+00    1.81324E-04
 1.10000E+00    2.41521E-04
 1.20000E+00    3.17909E-04
 1.30000E+00    4.12900E-04
 1.40000E+00    5.31742E-04
 1.50000E+00    6.79213E-04
 1.60000E+00    9.27336E-04
 1.70000E+00    1.14796E-03
 1.80000E+00    1.41546E-03
 1.90000E+00    1.73451E-03
 2.00000E+00    2.11707E-03
 2.25000E+00    3.23540E-03
 2.50000E+00    5.10471E-03
 2.75000E+00    7.48235E-03
 3.00000E+00    1.10258E-02
 3.50000E+00    2.20646E-02
 4.00000E+00    4.03210E-02
 4.50000E+00    6.73299E-02
 5.00000E+00    1.02611E-01
 5.50000E+00    1.45291E-01
 6.00000E+00    1.96310E-01
 6.50000E+00    2.60419E-01
 7.00000E+00    3.47725E-01
 7.50000E+00    4.74388E-01
 8.00000E+00    6.61105E-01
 8.50000E+00    9.27656E-01
 9.00000E+00    1.29493E+00
 9.50000E+00    1.77628E+00
 1.00000E+01    2.38463E+00
 1.05000E+01    3.12280E+00
 1.10000E+01    3.99890E+00
 1.15000E+01    5.00154E+00
 1.20000E+01    6.13709E+00
 1.25000E+01    7.39532E+00
 1.30000E+01    8.77192E+00
 1.35000E+01    1.02720E+01
 1.40000E+01    1.18760E+01
 1.45000E+01    1.36039E+01
 1.50000E+01    1.54370E+01
 1.55000E+01    1.73917E+01
 1.60000E+01    1.94465E+01
 1.65000E+01    2.15988E+01
 1.70000E+01    2.38638E+01
 1.75000E+01    2.62154E+01
 1.80000E+01    2.86831E+01
 1.85000E+01    3.11860E+01
 1.90000E+01    3.37989E+01
 1.95000E+01    3.63938E+01
 2.00000E+01    3.90841E+01
