# n + Cs134 : (n,tot)   
# jendl4.0   N.Iwamoto,H.Matsunobu             EVAL-Apr09
# uncertainties: n
# # energies =    69
#   E(MeV)       xs(mb) 
 1.00000E-10    1.01311E+06
 5.00000E-09    2.91166E+05
 1.00000E-08    2.25843E+05
 1.50000E-08    1.93244E+05
 2.00000E-08    1.72632E+05
 2.50000E-08    1.58053E+05
 3.00000E-08    1.47028E+05
 3.50000E-08    1.36905E+05
 4.20000E-08    1.27036E+05
 5.00000E-08    1.18816E+05
 5.80000E-08    1.11912E+05
 6.70000E-08    1.04883E+05
 8.00000E-08    9.68626E+04
 1.00000E-07    8.68960E+04
 1.40000E-07    7.76863E+04
 1.80000E-07    7.14221E+04
 2.20000E-07    6.72543E+04
 2.50000E-07    6.43908E+04
 2.80000E-07    6.23218E+04
 3.00000E-07    6.08578E+04
 3.20000E-07    5.92225E+04
 3.50000E-07    5.69474E+04
 4.00000E-07    5.35217E+04
 5.00000E-07    4.95442E+04
 6.25000E-07    4.58911E+04
 7.80000E-07    4.35128E+04
 8.50000E-07    4.23669E+04
 9.10000E-07    4.15566E+04
 9.50000E-07    4.10819E+04
 9.72000E-07    4.07461E+04
 9.96000E-07    4.04036E+04
 1.02000E-06    4.00676E+04
 1.04500E-06    3.97265E+04
 1.07100E-06    3.93931E+04
 1.09700E-06    3.90629E+04
 1.12300E-06    3.87444E+04
 1.15000E-06    3.77543E+04
 1.30000E-06    3.60070E+04
 1.50000E-06    3.29867E+04
 2.10000E-06    2.96689E+04
 2.60000E-06    2.70613E+04
 3.30000E-06    2.46611E+04
 4.00000E-06    1.91198E+04
 9.87700E-06    3.12932E+04
 1.59680E-05    9.64800E+03
 2.77000E-05    1.08947E+04
 4.80520E-05    6.25622E+03
 7.55014E-05    6.41577E+03
 1.48728E-04    1.36722E+04
 3.67262E-04    1.92645E+04
 9.06898E-04    1.43525E+04
 1.42510E-03    1.21485E+04
 2.23945E-03    1.02916E+04
 3.51910E-03    8.77143E+03
 5.53000E-03    7.57114E+03
 9.11800E-03    6.64636E+03
 1.50300E-02    5.96879E+03
 2.47800E-02    5.45212E+03
 4.08500E-02    5.09724E+03
 6.73400E-02    4.91097E+03
 1.11000E-01    4.90675E+03
 1.83000E-01    5.11563E+03
 3.02000E-01    5.56136E+03
 5.00000E-01    6.18779E+03
 8.21000E-01    6.72417E+03
 1.35300E+00    6.54607E+03
 2.23100E+00    5.50844E+03
 3.67900E+00    4.63163E+03
 6.06500E+00    4.41060E+03
