# n + Cs134 : (n,n'18)  
# jendl4.0   N.Iwamoto,H.Matsunobu             EVAL-Apr09
# uncertainties: n
# # energies =    78
#   E(MeV)       xs(mb) 
 3.85868E-01    0.00000E+00
 4.00000E-01    1.39020E+01
 4.37446E-01    2.68373E+01
 4.53630E-01    3.05376E+01
 4.54825E-01    3.05168E+01
 4.57508E-01    3.08757E+01
 4.87300E-01    3.48407E+01
 5.00000E-01    3.62081E+01
 5.06629E-01    3.69847E+01
 5.23234E-01    3.87354E+01
 5.43722E-01    4.02907E+01
 5.75127E-01    4.25297E+01
 5.83493E-01    4.30620E+01
 5.88580E-01    4.33371E+01
 6.00000E-01    4.38413E+01
 6.17639E-01    4.48088E+01
 6.26682E-01    4.48822E+01
 6.28707E-01    4.49410E+01
 6.45526E-01    4.49714E+01
 6.48815E-01    4.50194E+01
 6.58221E-01    4.51560E+01
 6.70009E-01    4.53399E+01
 6.81092E-01    4.54044E+01
 6.85827E-01    4.52557E+01
 6.89660E-01    4.50126E+01
 6.93813E-01    4.48712E+01
 7.00000E-01    4.46391E+01
 8.00000E-01    4.27638E+01
 9.00000E-01    4.04885E+01
 1.00000E+00    3.80390E+01
 1.10000E+00    3.54830E+01
 1.20000E+00    3.28528E+01
 1.30000E+00    3.01220E+01
 1.40000E+00    2.75347E+01
 1.50000E+00    2.50856E+01
 1.60000E+00    2.41856E+01
 1.70000E+00    2.15731E+01
 1.80000E+00    1.93735E+01
 1.90000E+00    1.74539E+01
 2.00000E+00    1.56180E+01
 2.25000E+00    1.14471E+01
 2.50000E+00    8.96691E+00
 2.75000E+00    6.78166E+00
 3.00000E+00    5.40715E+00
 3.50000E+00    3.32134E+00
 4.00000E+00    2.01165E+00
 4.50000E+00    1.19392E+00
 5.00000E+00    7.05983E-01
 5.50000E+00    4.26953E-01
 6.00000E+00    2.71603E-01
 6.50000E+00    1.85946E-01
 7.00000E+00    1.38827E-01
 7.50000E+00    1.12919E-01
 8.00000E+00    9.84909E-02
 8.50000E+00    9.00611E-02
 9.00000E+00    8.45897E-02
 9.50000E+00    8.04650E-02
 1.00000E+01    7.68657E-02
 1.05000E+01    7.33733E-02
 1.10000E+01    6.99989E-02
 1.15000E+01    6.67254E-02
 1.20000E+01    6.34757E-02
 1.25000E+01    6.04072E-02
 1.30000E+01    5.74870E-02
 1.35000E+01    5.48486E-02
 1.40000E+01    5.24280E-02
 1.45000E+01    5.02935E-02
 1.50000E+01    4.83924E-02
 1.55000E+01    4.67012E-02
 1.60000E+01    4.52070E-02
 1.65000E+01    4.38411E-02
 1.70000E+01    4.26259E-02
 1.75000E+01    4.14557E-02
 1.80000E+01    4.04033E-02
 1.85000E+01    3.93406E-02
 1.90000E+01    3.83546E-02
 1.95000E+01    3.72913E-02
 2.00000E+01    3.62652E-02
