# n + Cs134 : (n,n'29)  
# jendl4.0   N.Iwamoto,H.Matsunobu             EVAL-Apr09
# uncertainties: n
# # energies =    65
#   E(MeV)       xs(mb) 
 5.88580E-01    0.00000E+00
 6.00000E-01    3.95373E+00
 6.17639E-01    6.94161E+00
 6.26682E-01    8.21973E+00
 6.28707E-01    8.46719E+00
 6.45526E-01    1.04754E+01
 6.48815E-01    1.08308E+01
 6.58221E-01    1.17667E+01
 6.70009E-01    1.27967E+01
 6.81092E-01    1.36237E+01
 6.85827E-01    1.39540E+01
 6.89660E-01    1.42134E+01
 6.93813E-01    1.44439E+01
 7.00000E-01    1.47585E+01
 8.00000E-01    1.80878E+01
 9.00000E-01    1.89639E+01
 1.00000E+00    1.89938E+01
 1.10000E+00    1.87543E+01
 1.20000E+00    1.83665E+01
 1.30000E+00    1.78675E+01
 1.40000E+00    1.73164E+01
 1.50000E+00    1.67225E+01
 1.60000E+00    1.69237E+01
 1.70000E+00    1.58347E+01
 1.80000E+00    1.48604E+01
 1.90000E+00    1.37641E+01
 2.00000E+00    1.27828E+01
 2.25000E+00    9.83350E+00
 2.50000E+00    8.01435E+00
 2.75000E+00    6.22650E+00
 3.00000E+00    5.12032E+00
 3.50000E+00    3.40224E+00
 4.00000E+00    2.23472E+00
 4.50000E+00    1.38356E+00
 5.00000E+00    8.11845E-01
 5.50000E+00    4.69210E-01
 6.00000E+00    2.80327E-01
 6.50000E+00    1.80499E-01
 7.00000E+00    1.28504E-01
 7.50000E+00    1.01473E-01
 8.00000E+00    8.72230E-02
 8.50000E+00    7.93567E-02
 9.00000E+00    7.45322E-02
 9.50000E+00    7.10444E-02
 1.00000E+01    6.80502E-02
 1.05000E+01    6.51543E-02
 1.10000E+01    6.22896E-02
 1.15000E+01    5.94621E-02
 1.20000E+01    5.66406E-02
 1.25000E+01    5.39683E-02
 1.30000E+01    5.14161E-02
 1.35000E+01    4.90874E-02
 1.40000E+01    4.69374E-02
 1.45000E+01    4.50165E-02
 1.50000E+01    4.33049E-02
 1.55000E+01    4.17811E-02
 1.60000E+01    4.04363E-02
 1.65000E+01    3.92090E-02
 1.70000E+01    3.81197E-02
 1.75000E+01    3.70959E-02
 1.80000E+01    3.61769E-02
 1.85000E+01    3.52371E-02
 1.90000E+01    3.43653E-02
 1.95000E+01    3.34317E-02
 2.00000E+01    3.25330E-02
