# n + Cs134 :  n        
# jendl4.0   N.Iwamoto,H.Matsunobu             EVAL-Apr09
# uncertainties: n
# # energies =   108
#   E(MeV)       xs(mb) 
 1.05000E-01    0.00000E+00
 1.10000E-01    2.92085E-03
 1.20000E-01    4.74997E-03
 1.30000E-01    5.28917E-03
 1.39789E-01    5.53164E-03
 1.40000E-01    5.53460E-03
 1.50000E-01    5.61030E-03
 1.60000E-01    5.58841E-03
 1.70000E-01    5.91364E-03
 1.75103E-01    5.89545E-03
 1.77733E-01    5.78901E-03
 1.77971E-01    5.73025E-03
 1.80000E-01    5.58883E-03
 1.90000E-01    5.25759E-03
 1.91694E-01    5.21116E-03
 1.95074E-01    5.06196E-03
 1.99272E-01    4.81759E-03
 2.00000E-01    4.78151E-03
 2.11124E-01    1.51102E-02
 2.25000E-01    2.28702E-02
 2.36099E-01    2.41895E-02
 2.50000E-01    2.42645E-02
 2.59045E-01    2.39903E-02
 2.69678E-01    2.38373E-02
 2.73393E-01    2.33550E-02
 2.75000E-01    2.31463E-02
 2.93159E-01    2.14349E-02
 3.00000E-01    2.08103E-02
 3.46953E-01    5.10312E-02
 3.79943E-01    5.24028E-02
 3.85868E-01    5.17292E-02
 4.00000E-01    4.95063E-02
 4.37446E-01    8.70375E-02
 4.53630E-01    9.00817E-02
 4.54825E-01    8.96996E-02
 4.57508E-01    8.93832E-02
 4.87300E-01    8.88065E-02
 5.00000E-01    8.71898E-02
 5.06629E-01    1.00360E-01
 5.23234E-01    1.22405E-01
 5.43722E-01    1.31567E-01
 5.75127E-01    1.36924E-01
 5.83493E-01    1.36843E-01
 5.88580E-01    1.36628E-01
 6.00000E-01    1.35650E-01
 6.17639E-01    1.67217E-01
 6.26682E-01    1.77423E-01
 6.28707E-01    1.78937E-01
 6.45526E-01    1.86215E-01
 6.48815E-01    1.87166E-01
 6.58221E-01    1.88381E-01
 6.70009E-01    1.91386E-01
 6.81092E-01    1.91236E-01
 6.85827E-01    1.90851E-01
 6.89660E-01    1.89920E-01
 6.93813E-01    1.89052E-01
 7.00000E-01    1.87506E-01
 8.00000E-01    4.73724E+01
 9.00000E-01    1.46890E+02
 1.00000E+00    2.58969E+02
 1.10000E+00    3.71930E+02
 1.20000E+00    4.80621E+02
 1.30000E+00    5.82299E+02
 1.40000E+00    6.79215E+02
 1.50000E+00    7.72778E+02
 1.60000E+00    7.89065E+02
 1.70000E+00    8.72799E+02
 1.80000E+00    9.54962E+02
 1.90000E+00    1.03479E+03
 2.00000E+00    1.11273E+03
 2.25000E+00    1.27098E+03
 2.50000E+00    1.40924E+03
 2.75000E+00    1.53979E+03
 3.00000E+00    1.66832E+03
 3.50000E+00    1.88619E+03
 4.00000E+00    2.01742E+03
 4.50000E+00    2.05611E+03
 5.00000E+00    2.02686E+03
 5.50000E+00    1.96700E+03
 6.00000E+00    1.90680E+03
 6.50000E+00    1.86291E+03
 7.00000E+00    1.84109E+03
 7.50000E+00    1.71960E+03
 8.00000E+00    1.50839E+03
 8.50000E+00    1.23559E+03
 9.00000E+00    9.75997E+02
 9.50000E+00    7.45805E+02
 1.00000E+01    5.67800E+02
 1.05000E+01    4.36400E+02
 1.10000E+01    3.38126E+02
 1.15000E+01    2.71832E+02
 1.20000E+01    2.28841E+02
 1.25000E+01    1.92053E+02
 1.30000E+01    1.69059E+02
 1.35000E+01    1.49710E+02
 1.40000E+01    1.36949E+02
 1.45000E+01    1.27380E+02
 1.50000E+01    1.19767E+02
 1.55000E+01    1.14668E+02
 1.60000E+01    1.08757E+02
 1.65000E+01    1.05096E+02
 1.70000E+01    1.00736E+02
 1.75000E+01    9.76976E+01
 1.80000E+01    9.49418E+01
 1.85000E+01    9.21923E+01
 1.90000E+01    8.85532E+01
 1.95000E+01    8.58715E+01
 2.00000E+01    8.33217E+01
