# n + Cs134 : (n,g)     
# jendl4.0   N.Iwamoto,H.Matsunobu             EVAL-Apr09
# uncertainties: n
# # energies =    69
#   E(MeV)       xs(mb) 
 1.00000E-10    9.85061E+05
 5.00000E-09    2.67976E+05
 1.00000E-08    2.02805E+05
 1.50000E-08    1.70270E+05
 2.00000E-08    1.49698E+05
 2.50000E-08    1.35147E+05
 3.00000E-08    1.24145E+05
 3.50000E-08    1.14046E+05
 4.20000E-08    1.04202E+05
 5.00000E-08    9.60057E+04
 5.80000E-08    8.91248E+04
 6.70000E-08    8.21241E+04
 8.00000E-08    7.41438E+04
 1.00000E-07    6.42443E+04
 1.40000E-07    5.51231E+04
 1.80000E-07    4.89443E+04
 2.20000E-07    4.48509E+04
 2.50000E-07    4.20498E+04
 2.80000E-07    4.00322E+04
 3.00000E-07    3.86091E+04
 3.20000E-07    3.70239E+04
 3.50000E-07    3.48289E+04
 4.00000E-07    3.15493E+04
 5.00000E-07    2.77906E+04
 6.25000E-07    2.44025E+04
 7.80000E-07    2.22380E+04
 8.50000E-07    2.12112E+04
 9.10000E-07    2.04917E+04
 9.50000E-07    2.00732E+04
 9.72000E-07    1.97771E+04
 9.96000E-07    1.94784E+04
 1.02000E-06    1.91841E+04
 1.04500E-06    1.88896E+04
 1.07100E-06    1.85980E+04
 1.09700E-06    1.83168E+04
 1.12300E-06    1.80409E+04
 1.15000E-06    1.72010E+04
 1.30000E-06    1.57433E+04
 1.50000E-06    1.33319E+04
 2.10000E-06    1.08406E+04
 2.60000E-06    9.03188E+03
 3.30000E-06    7.48918E+03
 4.00000E-06    4.54283E+03
 9.87700E-06    2.00891E+04
 1.59680E-05    8.61781E+02
 2.77000E-05    4.08616E+03
 4.80520E-05    6.47736E+02
 7.55014E-05    1.65626E+03
 1.48728E-04    6.09137E+03
 3.67262E-04    7.64829E+03
 9.06898E-04    4.60998E+03
 1.42510E-03    3.38036E+03
 2.23945E-03    2.48064E+03
 3.51910E-03    1.83589E+03
 5.53000E-03    1.38005E+03
 9.11800E-03    1.04268E+03
 1.50300E-02    7.49081E+02
 2.47800E-02    5.43385E+02
 4.08500E-02    3.86975E+02
 6.73400E-02    2.49349E+02
 1.11000E-01    1.69215E+02
 1.83000E-01    9.08771E+01
 3.02000E-01    4.30295E+01
 5.00000E-01    2.33817E+01
 8.21000E-01    1.38733E+01
 1.35300E+00    9.32428E+00
 2.23100E+00    6.29607E+00
 3.67900E+00    3.25474E+00
 6.06500E+00    1.37567E+00
