# n + Cs134 : (n,xn)    
# jendl4.0   N.Iwamoto,H.Matsunobu             EVAL-Apr09
# 
# # energies =   121
#   E(MeV)        xs(mb) 
 1.13287E-02    0.00000E+00
 2.00000E-02    3.00907E+02
 3.00000E-02    3.25861E+02
 4.00000E-02    3.41982E+02
 5.00000E-02    3.50071E+02
 6.00000E-02    3.60905E+02
 6.04822E-02    3.61341E+02
 7.00000E-02    4.66416E+02
 8.00000E-02    5.01906E+02
 9.00000E-02    5.26703E+02
 1.00000E-01    5.42850E+02
 1.05000E-01    5.50422E+02
 1.10000E-01    5.57998E+02
 1.20000E-01    5.67591E+02
 1.30000E-01    5.74183E+02
 1.39789E-01    5.83630E+02
 1.40000E-01    5.83874E+02
 1.50000E-01    5.90655E+02
 1.60000E-01    5.95668E+02
 1.70000E-01    5.98692E+02
 1.75103E-01    5.99727E+02
 1.77733E-01    6.15328E+02
 1.77971E-01    6.23900E+02
 1.80000E-01    6.43314E+02
 1.90000E-01    6.82008E+02
 1.91694E-01    6.86482E+02
 1.95074E-01    7.06009E+02
 1.99272E-01    7.39444E+02
 2.00000E-01    7.43343E+02
 2.11124E-01    7.93946E+02
 2.25000E-01    8.74707E+02
 2.36099E-01    9.09781E+02
 2.50000E-01    9.50652E+02
 2.59045E-01    9.68182E+02
 2.69678E-01    9.96329E+02
 2.73393E-01    1.00875E+03
 2.75000E-01    1.01421E+03
 2.93159E-01    1.04479E+03
 3.00000E-01    1.05187E+03
 3.46953E-01    1.10885E+03
 3.79943E-01    1.12381E+03
 3.85868E-01    1.12933E+03
 4.00000E-01    1.13900E+03
 4.37445E-01    1.16799E+03
 4.37446E-01    1.16799E+03
 4.53629E-01    1.17579E+03
 4.53630E-01    1.17579E+03
 4.54825E-01    1.17787E+03
 4.57508E-01    1.18070E+03
 4.87300E-01    1.20006E+03
 5.00000E-01    1.20473E+03
 5.06629E-01    1.21008E+03
 5.23234E-01    1.22273E+03
 5.43722E-01    1.23781E+03
 5.75127E-01    1.25346E+03
 5.83493E-01    1.25736E+03
 5.88580E-01    1.25923E+03
 6.00000E-01    1.26312E+03
 6.17639E-01    1.27467E+03
 6.26682E-01    1.28139E+03
 6.28707E-01    1.28285E+03
 6.45526E-01    1.29457E+03
 6.48815E-01    1.29649E+03
 6.58221E-01    1.30225E+03
 6.70009E-01    1.30861E+03
 6.81092E-01    1.31471E+03
 6.85827E-01    1.31753E+03
 6.89660E-01    1.31997E+03
 6.93813E-01    1.32228E+03
 7.00000E-01    1.32591E+03
 8.00000E-01    1.38503E+03
 9.00000E-01    1.43789E+03
 1.00000E+00    1.48605E+03
 1.10000E+00    1.52989E+03
 1.20000E+00    1.56647E+03
 1.30000E+00    1.59239E+03
 1.40000E+00    1.61764E+03
 1.50000E+00    1.64241E+03
 1.60000E+00    1.63751E+03
 1.70000E+00    1.64369E+03
 1.80000E+00    1.65484E+03
 1.90000E+00    1.67056E+03
 2.00000E+00    1.69041E+03
 2.25000E+00    1.70261E+03
 2.50000E+00    1.75231E+03
 2.75000E+00    1.80331E+03
 3.00000E+00    1.88040E+03
 3.50000E+00    2.02149E+03
 4.00000E+00    2.10169E+03
 4.50000E+00    2.10595E+03
 5.00000E+00    2.05515E+03
 5.50000E+00    1.98291E+03
 6.00000E+00    1.91601E+03
 6.50000E+00    1.86859E+03
 7.00000E+00    1.86920E+03
 7.50000E+00    1.96133E+03
 8.00000E+00    2.19320E+03
 8.50000E+00    2.49629E+03
 9.00000E+00    2.78386E+03
 9.50000E+00    3.03351E+03
 1.00000E+01    3.21954E+03
 1.05000E+01    3.34524E+03
 1.10000E+01    3.43318E+03
 1.15000E+01    3.47934E+03
 1.20000E+01    3.49947E+03
 1.25000E+01    3.51166E+03
 1.30000E+01    3.50924E+03
 1.35000E+01    3.50788E+03
 1.40000E+01    3.50054E+03
 1.45000E+01    3.49808E+03
 1.50000E+01    3.49525E+03
 1.55000E+01    3.49621E+03
 1.60000E+01    3.50035E+03
 1.65000E+01    3.50557E+03
 1.70000E+01    3.52644E+03
 1.75000E+01    3.57825E+03
 1.80000E+01    3.67326E+03
 1.85000E+01    3.79623E+03
 1.90000E+01    3.94436E+03
 1.95000E+01    4.08345E+03
 2.00000E+01    4.22301E+03
