# n + Cs134 : (n,el)    
# jendl4.0   N.Iwamoto,H.Matsunobu             EVAL-Apr09
# uncertainties: n
# # energies =   171
#   E(MeV)       xs(mb) 
 1.00000E-11    3.70040E+04
 1.00000E-07    2.24354E+04
 4.13990E-07    2.19290E+04
 5.31580E-07    2.16697E+04
 6.82560E-07    2.13473E+04
 8.76420E-07    2.09488E+04
 1.12540E-06    2.04607E+04
 1.44500E-06    1.98743E+04
 1.85540E-06    1.91697E+04
 2.37240E-06    1.83359E+04
 3.05900E-06    1.73653E+04
 3.92790E-06    1.62805E+04
 5.04350E-06    1.50896E+04
 6.47600E-06    1.38178E+04
 8.31530E-06    1.24748E+04
 1.06770E-05    1.14205E+04
 1.37100E-05    1.01840E+04
 1.76030E-05    8.99351E+03
 2.26030E-05    7.94944E+03
 2.92030E-05    7.01830E+03
 3.72670E-05    6.45083E+03
 4.78510E-05    5.82869E+03
 6.14420E-05    5.30894E+03
 7.88930E-05    4.85195E+03
 1.01300E-04    4.81634E+03
 1.30070E-04    4.28473E+03
 1.67020E-04    4.79786E+03
 2.14450E-04    5.13523E+03
 2.75360E-04    1.35257E+04
 3.53580E-04    1.26961E+04
 4.54000E-04    1.19208E+04
 5.82950E-04    1.11915E+04
 7.48520E-04    1.04677E+04
 9.61120E-04    9.81267E+03
 1.23410E-03    9.26108E+03
 1.58460E-03    8.74153E+03
 2.03470E-03    8.37465E+03
 2.24870E-03    8.15437E+03
 2.48520E-03    7.99283E+03
 2.61260E-03    7.88713E+03
 2.74650E-03    7.73155E+03
 3.03540E-03    7.52808E+03
 3.35460E-03    7.33030E+03
 3.70740E-03    7.09381E+03
 4.30740E-03    6.75835E+03
 5.53080E-03    6.36458E+03
 7.10170E-03    6.01213E+03
 9.11880E-03    5.70672E+03
 1.17090E-02    5.42403E+03
 1.50340E-02    5.10245E+03
 1.93050E-02    4.86797E+03
 2.18750E-02    4.79333E+03
 2.35790E-02    4.75815E+03
 2.41760E-02    4.74027E+03
 2.47880E-02    4.71405E+03
 2.60580E-02    4.68422E+03
 2.70000E-02    4.65335E+03
 2.85000E-02    4.60002E+03
 3.18280E-02    4.55221E+03
 3.43070E-02    4.49193E+03
 4.08680E-02    4.42079E+03
 4.63090E-02    4.36498E+03
 5.24750E-02    4.33602E+03
 5.65620E-02    4.28956E+03
 6.73790E-02    4.20602E+03
 7.20000E-02    4.17358E+03
 7.95000E-02    4.15310E+03
 8.25000E-02    4.14490E+03
 8.65170E-02    4.12882E+03
 9.80370E-02    4.11548E+03
 1.11090E-01    4.11718E+03
 1.16790E-01    4.12049E+03
 1.22770E-01    4.12397E+03
 1.29070E-01    4.12858E+03
 1.35690E-01    4.14098E+03
 1.42640E-01    4.15567E+03
 1.49960E-01    4.17111E+03
 1.57640E-01    4.18734E+03
 1.65730E-01    4.20441E+03
 1.74220E-01    4.19905E+03
 1.83160E-01    4.17836E+03
 1.92550E-01    4.15517E+03
 2.02420E-01    4.13798E+03
 2.12800E-01    4.12588E+03
 2.23710E-01    4.11655E+03
 2.35180E-01    4.12316E+03
 2.47240E-01    4.13510E+03
 2.73240E-01    4.14950E+03
 2.87250E-01    4.16475E+03
 2.94520E-01    4.17196E+03
 2.97200E-01    4.17484E+03
 2.98500E-01    4.17828E+03
 3.01970E-01    4.21578E+03
 3.33730E-01    4.29113E+03
 3.68830E-01    4.35502E+03
 3.87740E-01    4.40105E+03
 4.07620E-01    4.47042E+03
 4.50490E-01    4.56931E+03
 4.97870E-01    4.64456E+03
 5.23400E-01    4.69577E+03
 5.50230E-01    4.74722E+03
 5.78440E-01    4.80119E+03
 6.08100E-01    4.85289E+03
 6.39280E-01    4.89823E+03
 6.72060E-01    4.94572E+03
 7.06510E-01    4.99327E+03
 7.42740E-01    5.03416E+03
 7.80820E-01    5.07626E+03
 8.20850E-01    5.11503E+03
 8.62940E-01    5.14914E+03
 9.07180E-01    5.18324E+03
 9.61640E-01    5.20734E+03
 1.00260E+00    5.22952E+03
 1.10800E+00    5.24288E+03
 1.16480E+00    5.24953E+03
 1.22460E+00    5.23160E+03
 1.28730E+00    5.20668E+03
 1.35340E+00    5.18049E+03
 1.42270E+00    5.15296E+03
 1.49570E+00    5.10495E+03
 1.57240E+00    5.03034E+03
 1.65300E+00    4.95185E+03
 1.73770E+00    4.86934E+03
 1.82680E+00    4.78255E+03
 1.92050E+00    4.69074E+03
 2.01900E+00    4.57382E+03
 2.12250E+00    4.44084E+03
 2.23130E+00    4.32875E+03
 2.30690E+00    4.26010E+03
 2.34570E+00    4.22511E+03
 2.36530E+00    4.20147E+03
 2.38520E+00    4.14146E+03
 2.46600E+00    4.01783E+03
 2.59240E+00    3.86705E+03
 2.72530E+00    3.71503E+03
 2.86500E+00    3.55543E+03
 3.01190E+00    3.40439E+03
 3.16640E+00    3.26323E+03
 3.32870E+00    3.06655E+03
 3.67880E+00    2.84499E+03
 4.06570E+00    2.67269E+03
 4.49330E+00    2.56785E+03
 4.72370E+00    2.51367E+03
 4.96590E+00    2.46625E+03
 5.22050E+00    2.42833E+03
 5.48810E+00    2.39956E+03
 5.76950E+00    2.38052E+03
 6.06530E+00    2.37223E+03
 6.37630E+00    2.37226E+03
 6.59240E+00    2.37914E+03
 6.70320E+00    2.38918E+03
 7.04690E+00    2.41703E+03
 7.40820E+00    2.46774E+03
 7.78800E+00    2.52630E+03
 8.18730E+00    2.59563E+03
 8.60710E+00    2.67169E+03
 9.04840E+00    2.75165E+03
 9.51230E+00    2.83477E+03
 1.00000E+01    2.91048E+03
 1.05130E+01    2.98086E+03
 1.10520E+01    3.03879E+03
 1.16180E+01    3.08663E+03
 1.22140E+01    3.11571E+03
 1.28400E+01    3.13249E+03
 1.34990E+01    3.13191E+03
 1.38400E+01    3.12927E+03
 1.41910E+01    3.11793E+03
 1.45500E+01    3.10511E+03
 1.49180E+01    3.07756E+03
 1.56830E+01    3.02721E+03
 1.64870E+01    2.96120E+03
