# n + Cs134 : (n,n'04)  
# jendl4.0   N.Iwamoto,H.Matsunobu             EVAL-Apr09
# uncertainties: n
# # energies =    99
#   E(MeV)       xs(mb) 
 1.75103E-01    0.00000E+00
 1.77733E-01    2.06130E+01
 1.77971E-01    2.14042E+01
 1.80000E-01    2.71770E+01
 1.90000E-01    4.56320E+01
 1.91694E-01    4.80789E+01
 1.95074E-01    5.05950E+01
 1.99272E-01    5.40898E+01
 2.00000E-01    5.46296E+01
 2.11124E-01    6.34245E+01
 2.25000E-01    6.96948E+01
 2.36099E-01    7.40713E+01
 2.50000E-01    7.63215E+01
 2.59045E-01    7.77713E+01
 2.69678E-01    7.92497E+01
 2.73393E-01    7.87496E+01
 2.75000E-01    7.82131E+01
 2.93159E-01    7.69707E+01
 3.00000E-01    7.65490E+01
 3.46953E-01    7.60970E+01
 3.79943E-01    7.54088E+01
 3.85868E-01    7.46281E+01
 4.00000E-01    7.34465E+01
 4.37446E-01    7.26157E+01
 4.53630E-01    7.22657E+01
 4.54825E-01    7.21201E+01
 4.57508E-01    7.17162E+01
 4.87300E-01    6.88428E+01
 5.00000E-01    6.73157E+01
 5.06629E-01    6.69209E+01
 5.23234E-01    6.55949E+01
 5.43722E-01    6.39173E+01
 5.75127E-01    6.15043E+01
 5.83493E-01    6.06319E+01
 5.88580E-01    6.01662E+01
 6.00000E-01    5.90331E+01
 6.17639E-01    5.80447E+01
 6.26682E-01    5.74679E+01
 6.28707E-01    5.72663E+01
 6.45526E-01    5.60657E+01
 6.48815E-01    5.58759E+01
 6.58221E-01    5.51517E+01
 6.70009E-01    5.42763E+01
 6.81092E-01    5.34081E+01
 6.85827E-01    5.30269E+01
 6.89660E-01    5.27042E+01
 6.93813E-01    5.23050E+01
 7.00000E-01    5.16988E+01
 8.00000E-01    4.62343E+01
 9.00000E-01    4.24227E+01
 1.00000E+00    3.94066E+01
 1.10000E+00    3.67572E+01
 1.20000E+00    3.41549E+01
 1.30000E+00    3.14774E+01
 1.40000E+00    2.90117E+01
 1.50000E+00    2.65187E+01
 1.60000E+00    2.56304E+01
 1.70000E+00    2.30896E+01
 1.80000E+00    2.06440E+01
 1.90000E+00    1.85626E+01
 2.00000E+00    1.67754E+01
 2.25000E+00    1.24440E+01
 2.50000E+00    9.85024E+00
 2.75000E+00    7.63146E+00
 3.00000E+00    6.19125E+00
 3.50000E+00    4.03998E+00
 4.00000E+00    2.50980E+00
 4.50000E+00    1.44401E+00
 5.00000E+00    7.82739E-01
 5.50000E+00    4.14287E-01
 6.00000E+00    2.22616E-01
 6.50000E+00    1.25719E-01
 7.00000E+00    7.69524E-02
 7.50000E+00    5.22376E-02
 8.00000E+00    3.94451E-02
 8.50000E+00    3.25585E-02
 9.00000E+00    2.86006E-02
 9.50000E+00    2.60940E-02
 1.00000E+01    2.42967E-02
 1.05000E+01    2.28190E-02
 1.10000E+01    2.15772E-02
 1.15000E+01    2.04238E-02
 1.20000E+01    1.93655E-02
 1.25000E+01    1.83866E-02
 1.30000E+01    1.74782E-02
 1.35000E+01    1.66701E-02
 1.40000E+01    1.59240E-02
 1.45000E+01    1.52757E-02
 1.50000E+01    1.46843E-02
 1.55000E+01    1.41711E-02
 1.60000E+01    1.37053E-02
 1.65000E+01    1.32873E-02
 1.70000E+01    1.29073E-02
 1.75000E+01    1.25534E-02
 1.80000E+01    1.22309E-02
 1.85000E+01    1.19043E-02
 1.90000E+01    1.16024E-02
 1.95000E+01    1.12703E-02
 2.00000E+01    1.09571E-02
