# n + Cs134 : (n,n'21)  
# jendl4.0   N.Iwamoto,H.Matsunobu             EVAL-Apr09
# uncertainties: n
# # energies =    74
#   E(MeV)       xs(mb) 
 4.54825E-01    0.00000E+00
 4.57508E-01    2.94551E+00
 4.87300E-01    1.18079E+01
 5.00000E-01    1.44187E+01
 5.06629E-01    1.57165E+01
 5.23234E-01    1.83604E+01
 5.43722E-01    2.10014E+01
 5.75127E-01    2.38971E+01
 5.83493E-01    2.44378E+01
 5.88580E-01    2.47175E+01
 6.00000E-01    2.51683E+01
 6.17639E-01    2.60560E+01
 6.26682E-01    2.64191E+01
 6.28707E-01    2.64503E+01
 6.45526E-01    2.69246E+01
 6.48815E-01    2.70253E+01
 6.58221E-01    2.71538E+01
 6.70009E-01    2.71964E+01
 6.81092E-01    2.72048E+01
 6.85827E-01    2.71948E+01
 6.89660E-01    2.71952E+01
 6.93813E-01    2.71439E+01
 7.00000E-01    2.70624E+01
 8.00000E-01    2.65684E+01
 9.00000E-01    2.56650E+01
 1.00000E+00    2.47563E+01
 1.10000E+00    2.39049E+01
 1.20000E+00    2.30097E+01
 1.30000E+00    2.20105E+01
 1.40000E+00    2.09722E+01
 1.50000E+00    1.98715E+01
 1.60000E+00    1.97664E+01
 1.70000E+00    1.82364E+01
 1.80000E+00    1.67554E+01
 1.90000E+00    1.54539E+01
 2.00000E+00    1.41689E+01
 2.25000E+00    1.06554E+01
 2.50000E+00    8.62085E+00
 2.75000E+00    6.64358E+00
 3.00000E+00    5.39015E+00
 3.50000E+00    3.54103E+00
 4.00000E+00    2.25561E+00
 4.50000E+00    1.32763E+00
 5.00000E+00    7.25712E-01
 5.50000E+00    3.78811E-01
 6.00000E+00    1.95115E-01
 6.50000E+00    1.01888E-01
 7.00000E+00    5.52119E-02
 7.50000E+00    3.18020E-02
 8.00000E+00    1.98698E-02
 8.50000E+00    1.36236E-02
 9.00000E+00    1.02391E-02
 9.50000E+00    8.32310E-03
 1.00000E+01    7.17126E-03
 1.05000E+01    6.42141E-03
 1.10000E+01    5.88505E-03
 1.15000E+01    5.47818E-03
 1.20000E+01    5.13619E-03
 1.25000E+01    4.84817E-03
 1.30000E+01    4.59139E-03
 1.35000E+01    4.36797E-03
 1.40000E+01    4.16809E-03
 1.45000E+01    3.99184E-03
 1.50000E+01    3.83747E-03
 1.55000E+01    3.70001E-03
 1.60000E+01    3.57999E-03
 1.65000E+01    3.47001E-03
 1.70000E+01    3.37273E-03
 1.75000E+01    3.28106E-03
 1.80000E+01    3.19892E-03
 1.85000E+01    3.11621E-03
 1.90000E+01    3.03950E-03
 1.95000E+01    2.95700E-03
 2.00000E+01    2.87697E-03
