# n + Cs134 : (n,n'11)  
# jendl4.0   N.Iwamoto,H.Matsunobu             EVAL-Apr09
# uncertainties: n
# # energies =    88
#   E(MeV)       xs(mb) 
 2.36099E-01    0.00000E+00
 2.50000E-01    2.17994E+01
 2.59045E-01    2.85467E+01
 2.69678E-01    3.49042E+01
 2.73393E-01    3.65304E+01
 2.75000E-01    3.68819E+01
 2.93159E-01    4.30036E+01
 3.00000E-01    4.47342E+01
 3.46953E-01    5.42013E+01
 3.79943E-01    5.73302E+01
 3.85868E-01    5.72801E+01
 4.00000E-01    5.75925E+01
 4.37446E-01    5.95595E+01
 4.53630E-01    5.98182E+01
 4.54825E-01    5.97360E+01
 4.57508E-01    5.94711E+01
 4.87300E-01    5.80102E+01
 5.00000E-01    5.71510E+01
 5.06629E-01    5.70271E+01
 5.23234E-01    5.63675E+01
 5.43722E-01    5.53560E+01
 5.75127E-01    5.35470E+01
 5.83493E-01    5.29059E+01
 5.88580E-01    5.25733E+01
 6.00000E-01    5.17306E+01
 6.17639E-01    5.10786E+01
 6.26682E-01    5.06740E+01
 6.28707E-01    5.05169E+01
 6.45526E-01    4.95690E+01
 6.48815E-01    4.94130E+01
 6.58221E-01    4.87985E+01
 6.70009E-01    4.80539E+01
 6.81092E-01    4.73498E+01
 6.85827E-01    4.70464E+01
 6.89660E-01    4.67961E+01
 6.93813E-01    4.64706E+01
 7.00000E-01    4.59809E+01
 8.00000E-01    4.15251E+01
 9.00000E-01    3.83930E+01
 1.00000E+00    3.59230E+01
 1.10000E+00    3.37583E+01
 1.20000E+00    3.16358E+01
 1.30000E+00    2.93598E+01
 1.40000E+00    2.72484E+01
 1.50000E+00    2.51218E+01
 1.60000E+00    2.43270E+01
 1.70000E+00    2.20615E+01
 1.80000E+00    1.98881E+01
 1.90000E+00    1.78945E+01
 2.00000E+00    1.61786E+01
 2.25000E+00    1.21022E+01
 2.50000E+00    9.55850E+00
 2.75000E+00    7.42660E+00
 3.00000E+00    6.02719E+00
 3.50000E+00    3.95633E+00
 4.00000E+00    2.48849E+00
 4.50000E+00    1.45467E+00
 5.00000E+00    8.04527E-01
 5.50000E+00    4.37669E-01
 6.00000E+00    2.44679E-01
 6.50000E+00    1.46134E-01
 7.00000E+00    9.60996E-02
 7.50000E+00    7.05559E-02
 8.00000E+00    5.72348E-02
 8.50000E+00    4.99508E-02
 9.00000E+00    4.55941E-02
 9.50000E+00    4.26240E-02
 1.00000E+01    4.02869E-02
 1.05000E+01    3.82018E-02
 1.10000E+01    3.63014E-02
 1.15000E+01    3.44726E-02
 1.20000E+01    3.27394E-02
 1.25000E+01    3.11181E-02
 1.30000E+01    2.95949E-02
 1.35000E+01    2.82293E-02
 1.40000E+01    2.69719E-02
 1.45000E+01    2.58805E-02
 1.50000E+01    2.48929E-02
 1.55000E+01    2.40289E-02
 1.60000E+01    2.32519E-02
 1.65000E+01    2.25509E-02
 1.70000E+01    2.19181E-02
 1.75000E+01    2.13272E-02
 1.80000E+01    2.07909E-02
 1.85000E+01    2.02472E-02
 1.90000E+01    1.97380E-02
 1.95000E+01    1.91737E-02
 2.00000E+01    1.86405E-02
