# n + Cs134 : (n,n'33)  
# jendl4.0   N.Iwamoto,H.Matsunobu             EVAL-Apr09
# uncertainties: n
# # energies =    60
#   E(MeV)       xs(mb) 
 6.45526E-01    0.00000E+00
 6.48815E-01    2.99817E-01
 6.58221E-01    6.26077E-01
 6.70009E-01    9.61950E-01
 6.81092E-01    1.25393E+00
 6.85827E-01    1.37647E+00
 6.89660E-01    1.47520E+00
 6.93813E-01    1.58180E+00
 7.00000E-01    1.73284E+00
 8.00000E-01    3.65530E+00
 9.00000E-01    4.80347E+00
 1.00000E+00    5.52290E+00
 1.10000E+00    5.96993E+00
 1.20000E+00    6.23918E+00
 1.30000E+00    6.35274E+00
 1.40000E+00    6.38779E+00
 1.50000E+00    6.35718E+00
 1.60000E+00    6.65084E+00
 1.70000E+00    6.40035E+00
 1.80000E+00    6.14696E+00
 1.90000E+00    5.86895E+00
 2.00000E+00    5.57965E+00
 2.25000E+00    4.65246E+00
 2.50000E+00    4.05005E+00
 2.75000E+00    3.36131E+00
 3.00000E+00    2.88677E+00
 3.50000E+00    1.95763E+00
 4.00000E+00    1.25395E+00
 4.50000E+00    7.67845E-01
 5.00000E+00    4.60537E-01
 5.50000E+00    2.79012E-01
 6.00000E+00    1.75950E-01
 6.50000E+00    1.18387E-01
 7.00000E+00    8.63754E-02
 7.50000E+00    6.85488E-02
 8.00000E+00    5.85057E-02
 8.50000E+00    5.26428E-02
 9.00000E+00    4.89454E-02
 9.50000E+00    4.63053E-02
 1.00000E+01    4.41311E-02
 1.05000E+01    4.21210E-02
 1.10000E+01    4.01853E-02
 1.15000E+01    3.83196E-02
 1.20000E+01    3.65025E-02
 1.25000E+01    3.47648E-02
 1.30000E+01    3.31094E-02
 1.35000E+01    3.15989E-02
 1.40000E+01    3.02127E-02
 1.45000E+01    2.89861E-02
 1.50000E+01    2.78894E-02
 1.55000E+01    2.69068E-02
 1.60000E+01    2.60318E-02
 1.65000E+01    2.52389E-02
 1.70000E+01    2.45304E-02
 1.75000E+01    2.38691E-02
 1.80000E+01    2.32734E-02
 1.85000E+01    2.26794E-02
 1.90000E+01    2.21292E-02
 1.95000E+01    2.15387E-02
 2.00000E+01    2.09652E-02
