# n + Cs134 : (n,n'24)  
# jendl4.0   N.Iwamoto,H.Matsunobu             EVAL-Apr09
# uncertainties: n
# # energies =    70
#   E(MeV)       xs(mb) 
 5.06629E-01    0.00000E+00
 5.23234E-01    6.53345E+00
 5.43722E-01    1.06221E+01
 5.75127E-01    1.52828E+01
 5.83493E-01    1.62564E+01
 5.88580E-01    1.67842E+01
 6.00000E-01    1.78102E+01
 6.17639E-01    1.93605E+01
 6.26682E-01    2.00250E+01
 6.28707E-01    2.01271E+01
 6.45526E-01    2.10419E+01
 6.48815E-01    2.12040E+01
 6.58221E-01    2.15614E+01
 6.70009E-01    2.19499E+01
 6.81092E-01    2.22566E+01
 6.85827E-01    2.23703E+01
 6.89660E-01    2.24681E+01
 6.93813E-01    2.25273E+01
 7.00000E-01    2.26029E+01
 8.00000E-01    2.33362E+01
 9.00000E-01    2.30241E+01
 1.00000E+00    2.24513E+01
 1.10000E+00    2.18395E+01
 1.20000E+00    2.11566E+01
 1.30000E+00    2.03704E+01
 1.40000E+00    1.95390E+01
 1.50000E+00    1.86703E+01
 1.60000E+00    1.86315E+01
 1.70000E+00    1.73692E+01
 1.80000E+00    1.60063E+01
 1.90000E+00    1.47858E+01
 2.00000E+00    1.36995E+01
 2.25000E+00    1.03310E+01
 2.50000E+00    8.41216E+00
 2.75000E+00    6.47666E+00
 3.00000E+00    5.33764E+00
 3.50000E+00    3.54690E+00
 4.00000E+00    2.31099E+00
 4.50000E+00    1.41033E+00
 5.00000E+00    8.15195E-01
 5.50000E+00    4.64217E-01
 6.00000E+00    2.73290E-01
 6.50000E+00    1.73394E-01
 7.00000E+00    1.21747E-01
 7.50000E+00    9.50468E-02
 8.00000E+00    8.10221E-02
 8.50000E+00    7.32953E-02
 9.00000E+00    6.85691E-02
 9.50000E+00    6.51777E-02
 1.00000E+01    6.23022E-02
 1.05000E+01    5.95377E-02
 1.10000E+01    5.68356E-02
 1.15000E+01    5.42434E-02
 1.20000E+01    5.16313E-02
 1.25000E+01    4.91666E-02
 1.30000E+01    4.68105E-02
 1.35000E+01    4.46721E-02
 1.40000E+01    4.27129E-02
 1.45000E+01    4.09730E-02
 1.50000E+01    3.94334E-02
 1.55000E+01    3.80502E-02
 1.60000E+01    3.68241E-02
 1.65000E+01    3.56930E-02
 1.70000E+01    3.46925E-02
 1.75000E+01    3.37474E-02
 1.80000E+01    3.29000E-02
 1.85000E+01    3.20482E-02
 1.90000E+01    3.12578E-02
 1.95000E+01    3.04092E-02
 2.00000E+01    2.95889E-02
