# n + Cs134 : (n,n'12)  
# jendl4.0   N.Iwamoto,H.Matsunobu             EVAL-Apr09
# uncertainties: n
# # energies =    86
#   E(MeV)       xs(mb) 
 2.59045E-01    0.00000E+00
 2.69678E-01    2.19961E+01
 2.73393E-01    2.50743E+01
 2.75000E-01    2.62804E+01
 2.93159E-01    3.68130E+01
 3.00000E-01    3.98309E+01
 3.46953E-01    5.56562E+01
 3.79943E-01    6.14622E+01
 3.85868E-01    6.19542E+01
 4.00000E-01    6.09189E+01
 4.37446E-01    6.30244E+01
 4.53630E-01    6.36172E+01
 4.54825E-01    6.32429E+01
 4.57508E-01    6.30282E+01
 4.87300E-01    6.15685E+01
 5.00000E-01    6.12583E+01
 5.06629E-01    6.13061E+01
 5.23234E-01    6.15127E+01
 5.43722E-01    6.14509E+01
 5.75127E-01    6.15126E+01
 5.83493E-01    6.14486E+01
 5.88580E-01    6.14278E+01
 6.00000E-01    6.13861E+01
 6.17639E-01    6.16732E+01
 6.26682E-01    6.12974E+01
 6.28707E-01    6.12711E+01
 6.45526E-01    6.04947E+01
 6.48815E-01    6.03983E+01
 6.58221E-01    6.01355E+01
 6.70009E-01    5.97753E+01
 6.81092E-01    5.93237E+01
 6.85827E-01    5.89119E+01
 6.89660E-01    5.84857E+01
 6.93813E-01    5.81792E+01
 7.00000E-01    5.77027E+01
 8.00000E-01    5.29968E+01
 9.00000E-01    4.88500E+01
 1.00000E+00    4.50036E+01
 1.10000E+00    4.13212E+01
 1.20000E+00    3.77275E+01
 1.30000E+00    3.41281E+01
 1.40000E+00    3.08366E+01
 1.50000E+00    2.78455E+01
 1.60000E+00    2.64798E+01
 1.70000E+00    2.35557E+01
 1.80000E+00    2.09854E+01
 1.90000E+00    1.86503E+01
 2.00000E+00    1.66647E+01
 2.25000E+00    1.21867E+01
 2.50000E+00    9.43215E+00
 2.75000E+00    7.14485E+00
 3.00000E+00    5.59760E+00
 3.50000E+00    3.38634E+00
 4.00000E+00    1.99761E+00
 4.50000E+00    1.14090E+00
 5.00000E+00    6.39858E-01
 5.50000E+00    3.60540E-01
 6.00000E+00    2.09309E-01
 6.50000E+00    1.28184E-01
 7.00000E+00    8.46301E-02
 7.50000E+00    6.11266E-02
 8.00000E+00    4.82433E-02
 8.50000E+00    4.09380E-02
 9.00000E+00    3.65317E-02
 9.50000E+00    3.36143E-02
 1.00000E+01    3.14425E-02
 1.05000E+01    2.96189E-02
 1.10000E+01    2.80475E-02
 1.15000E+01    2.65844E-02
 1.20000E+01    2.52065E-02
 1.25000E+01    2.39349E-02
 1.30000E+01    2.27488E-02
 1.35000E+01    2.16895E-02
 1.40000E+01    2.07177E-02
 1.45000E+01    1.98737E-02
 1.50000E+01    1.91127E-02
 1.55000E+01    1.84454E-02
 1.60000E+01    1.78474E-02
 1.65000E+01    1.73065E-02
 1.70000E+01    1.68196E-02
 1.75000E+01    1.63642E-02
 1.80000E+01    1.59516E-02
 1.85000E+01    1.55339E-02
 1.90000E+01    1.51473E-02
 1.95000E+01    1.47231E-02
 2.00000E+01    1.43205E-02
