# n + Eu151 : (n,n')    
# jendl.ad   N.Iwamoto                         EVAL-Apr14
# uncertainties: n
# # energies =   115
#   E(MeV)       xs(mb) 
 2.16850E-02    0.00000E+00
 3.00000E-02    6.35924E+02
 4.00000E-02    6.61271E+02
 5.00000E-02    6.40252E+02
 6.00000E-02    6.13248E+02
 7.00000E-02    5.88070E+02
 8.00000E-02    5.66911E+02
 9.00000E-02    5.48778E+02
 1.00000E-01    5.33571E+02
 1.05000E-01    5.28154E+02
 1.10000E-01    5.22748E+02
 1.20000E-01    5.13750E+02
 1.30000E-01    5.05900E+02
 1.40000E-01    4.99600E+02
 1.50000E-01    4.94859E+02
 1.60000E-01    4.91833E+02
 1.70000E-01    4.91722E+02
 1.80000E-01    4.92255E+02
 1.90000E-01    4.92206E+02
 1.97557E-01    4.92524E+02
 1.97854E-01    4.92598E+02
 2.00000E-01    5.60007E+02
 2.18168E-01    6.37311E+02
 2.25000E-01    7.28530E+02
 2.44916E-01    7.96997E+02
 2.50000E-01    8.52168E+02
 2.62211E-01    9.01969E+02
 2.75000E-01    1.05407E+03
 3.00000E-01    1.14389E+03
 3.08317E-01    1.16392E+03
 3.09324E-01    1.19319E+03
 3.09585E-01    1.21034E+03
 3.09918E-01    1.22968E+03
 3.34400E-01    1.45426E+03
 3.38467E-01    1.48914E+03
 3.52188E-01    1.58435E+03
 3.56014E-01    1.60579E+03
 4.00000E-01    1.74858E+03
 4.18569E-01    1.79468E+03
 5.00000E-01    1.96022E+03
 5.03040E-01    1.96431E+03
 5.05627E-01    1.97380E+03
 5.06785E-01    1.97640E+03
 5.14546E-01    1.99957E+03
 5.25680E-01    2.02497E+03
 5.26334E-01    2.02956E+03
 5.49981E-01    2.08868E+03
 5.83886E-01    2.15125E+03
 5.90984E-01    2.16552E+03
 6.00000E-01    2.18410E+03
 6.04493E-01    2.19082E+03
 6.04755E-01    2.19221E+03
 6.15506E-01    2.21658E+03
 6.36929E-01    2.24685E+03
 6.58774E-01    2.28553E+03
 7.00000E-01    2.34648E+03
 7.01970E-01    2.34883E+03
 7.02846E-01    2.35155E+03
 7.19658E-01    2.37508E+03
 7.19779E-01    2.37582E+03
 7.23987E-01    2.38465E+03
 7.39922E-01    2.40843E+03
 7.57408E-01    2.42976E+03
 7.62804E-01    2.43536E+03
 8.00000E-01    2.46976E+03
 9.00000E-01    2.55314E+03
 1.00000E+00    2.62888E+03
 1.10000E+00    2.68674E+03
 1.20000E+00    2.72957E+03
 1.30000E+00    2.75894E+03
 1.40000E+00    2.77753E+03
 1.50000E+00    2.78910E+03
 1.60000E+00    2.79559E+03
 1.70000E+00    2.79865E+03
 1.80000E+00    2.79961E+03
 1.90000E+00    2.79945E+03
 2.00000E+00    2.79868E+03
 2.25000E+00    2.79273E+03
 2.50000E+00    2.79132E+03
 2.75000E+00    2.78122E+03
 3.00000E+00    2.76989E+03
 3.50000E+00    2.72403E+03
 4.00000E+00    2.66981E+03
 4.50000E+00    2.61897E+03
 5.00000E+00    2.57823E+03
 5.50000E+00    2.54576E+03
 6.00000E+00    2.52066E+03
 6.50000E+00    2.49695E+03
 7.00000E+00    2.47137E+03
 7.50000E+00    2.44216E+03
 8.00000E+00    2.41128E+03
 8.50000E+00    2.31533E+03
 9.00000E+00    2.06551E+03
 9.50000E+00    1.74796E+03
 1.00000E+01    1.47533E+03
 1.05000E+01    1.22649E+03
 1.10000E+01    1.02349E+03
 1.15000E+01    8.60725E+02
 1.20000E+01    7.32086E+02
 1.25000E+01    6.32194E+02
 1.30000E+01    5.55755E+02
 1.35000E+01    4.97735E+02
 1.40000E+01    4.53563E+02
 1.45000E+01    4.19586E+02
 1.50000E+01    3.92961E+02
 1.55000E+01    3.71377E+02
 1.60000E+01    3.54842E+02
 1.65000E+01    3.39149E+02
 1.70000E+01    3.26683E+02
 1.75000E+01    3.15372E+02
 1.80000E+01    3.04967E+02
 1.85000E+01    2.95309E+02
 1.90000E+01    2.86327E+02
 1.95000E+01    2.77876E+02
 2.00000E+01    2.71173E+02
