# n + Mo 96 : (n,xa)    
# endfb8.0   JNDC FP Nuclear Data W.G.         EVAL-AUG89
# 
# # energies =   176
#   E(MeV)        xs(mb) 
 7.86380E-01    8.83081E-06
 7.86385E-01    8.83105E-06
 7.86570E-01    8.83980E-06
 7.86938E-01    8.85730E-06
 7.87675E-01    8.89224E-06
 7.88410E-01    8.92708E-06
 7.89143E-01    8.96181E-06
 7.90604E-01    9.03213E-06
 7.92056E-01    9.10224E-06
 7.93500E-01    9.17262E-06
 7.94936E-01    9.24311E-06
 7.96362E-01    9.31355E-06
 7.97780E-01    9.38439E-06
 8.00601E-01    9.52661E-06
 8.03388E-01    9.66918E-06
 8.06141E-01    9.81208E-06
 8.08860E-01    9.95526E-06
 8.11545E-01    1.00987E-05
 8.14197E-01    1.02425E-05
 8.16817E-01    1.03867E-05
 8.19403E-01    1.05310E-05
 8.21957E-01    1.06754E-05
 8.27009E-01    1.09668E-05
 8.31932E-01    1.12588E-05
 8.36730E-01    1.15502E-05
 8.41404E-01    1.18414E-05
 8.45957E-01    1.21327E-05
 8.50390E-01    1.24231E-05
 8.54708E-01    1.27125E-05
 8.58912E-01    1.30007E-05
 8.63004E-01    1.32875E-05
 8.66986E-01    1.35726E-05
 8.74755E-01    1.41465E-05
 8.82101E-01    1.47114E-05
 8.89045E-01    1.52660E-05
 8.95604E-01    1.58091E-05
 9.01797E-01    1.63397E-05
 9.07642E-01    1.68568E-05
 9.13155E-01    1.73597E-05
 9.18355E-01    1.78493E-05
 9.28185E-01    1.88093E-05
 9.36872E-01    1.97005E-05
 9.44539E-01    2.05224E-05
 9.51300E-01    2.12754E-05
 9.63248E-01    2.26748E-05
 9.72308E-01    2.37960E-05
 9.79158E-01    2.46818E-05
 9.89524E-01    2.60845E-05
 1.00000E+00    2.75820E-05
 1.01872E+00    2.95907E-05
 1.03539E+00    3.15016E-05
 1.05020E+00    3.33051E-05
 1.07663E+00    3.67771E-05
 1.09689E+00    3.96807E-05
 1.12799E+00    4.45984E-05
 1.15997E+00    5.02863E-05
 1.18185E+00    5.45919E-05
 1.19853E+00    5.81184E-05
 1.22400E+00    6.39487E-05
 1.25000E+00    7.05058E-05
 1.27881E+00    7.85598E-05
 1.30457E+00    8.65350E-05
 1.35090E+00    1.02970E-04
 1.38673E+00    1.17794E-04
 1.41422E+00    1.30597E-04
 1.45648E+00    1.53050E-04
 1.50000E+00    1.80215E-04
 1.51345E+00    1.89545E-04
 1.54485E+00    2.13262E-04
 1.56882E+00    2.33352E-04
 1.60548E+00    2.67775E-04
 1.64300E+00    3.08273E-04
 1.64522E+00    3.10837E-04
 1.67081E+00    3.42192E-04
 1.69027E+00    3.68119E-04
 1.71987E+00    4.11378E-04
 1.75000E+00    4.60641E-04
 1.78380E+00    5.22972E-04
 1.83572E+00    6.35508E-04
 1.88916E+00    7.76681E-04
 1.94341E+00    9.52133E-04
 1.99921E+00    1.17397E-03
 2.00000E+00    1.17742E-03
 2.05798E+00    1.39955E-03
 2.11764E+00    1.67190E-03
 2.17924E+00    2.00893E-03
 2.24264E+00    2.42664E-03
 2.25000E+00    2.48041E-03
 2.25800E+00    2.54032E-03
 2.35282E+00    3.36987E-03
 2.45162E+00    4.47251E-03
 2.46405E+00    4.61159E-03
 2.46627E+00    4.63700E-03
 2.50000E+00    5.03813E-03
 2.50709E+00    5.12692E-03
 2.52781E+00    5.39483E-03
 2.56712E+00    5.94288E-03
 2.62128E+00    6.79017E-03
 2.62159E+00    6.79528E-03
 2.71146E+00    8.47760E-03
 2.85209E+00    1.17839E-02
 3.00000E+00    1.62980E-02
 3.03160E+00    1.72755E-02
 3.15070E+00    2.15070E-02
 3.33817E+00    3.03672E-02
 3.53680E+00    4.37685E-02
 3.76128E+00    6.61537E-02
 4.00000E+00    1.02636E-01
 4.22949E+00    1.38316E-01
 4.59863E+00    2.23503E-01
 5.00000E+00    3.76590E-01
 5.47723E+00    5.82794E-01
 6.00000E+00    9.40279E-01
 7.00000E+00    1.66872E+00
 7.48331E+00    1.98248E+00
 8.00000E+00    2.36500E+00
 8.48528E+00    2.68673E+00
 9.00000E+00    3.03529E+00
 9.11932E+00    3.13169E+00
 9.22501E+00    3.21902E+00
 9.41294E+00    3.37148E+00
 9.55639E+00    3.51274E+00
 9.66541E+00    3.62369E+00
 9.83128E+00    3.79501E+00
 1.00000E+01    3.97325E+00
 1.01199E+01    4.11541E+00
 1.02259E+01    4.24546E+00
 1.03196E+01    4.36419E+00
 1.04023E+01    4.47133E+00
 1.05486E+01    4.66748E+00
 1.06597E+01    4.82250E+00
 1.07438E+01    4.94293E+00
 1.08711E+01    5.13153E+00
 1.10000E+01    5.32936E+00
 1.11203E+01    5.51148E+00
 1.12266E+01    5.67778E+00
 1.13205E+01    5.82783E+00
 1.14033E+01    5.96323E+00
 1.15496E+01    6.20984E+00
 1.16606E+01    6.40355E+00
 1.17445E+01    6.55344E+00
 1.18716E+01    6.78714E+00
 1.20000E+01    7.03065E+00
 1.21207E+01    7.24223E+00
 1.22272E+01    7.43315E+00
 1.24160E+01    7.78084E+00
 1.25595E+01    8.05447E+00
 1.26682E+01    8.26598E+00
 1.28330E+01    8.59591E+00
 1.30000E+01    8.94035E+00
 1.31210E+01    9.14859E+00
 1.33354E+01    9.52376E+00
 1.34986E+01    9.81311E+00
 1.36222E+01    1.00353E+01
 1.38098E+01    1.03775E+01
 1.40000E+01    1.07300E+01
 1.42436E+01    1.11222E+01
 1.44290E+01    1.14208E+01
 1.45697E+01    1.16116E+01
 1.47833E+01    1.18459E+01
 1.50000E+01    1.20837E+01
 1.52440E+01    1.24936E+01
 1.56174E+01    1.31211E+01
 1.60000E+01    1.36755E+01
 1.62443E+01    1.40428E+01
 1.66179E+01    1.46044E+01
 1.70000E+01    1.50598E+01
 1.72447E+01    1.53467E+01
 1.76183E+01    1.57887E+01
 1.80000E+01    1.62449E+01
 1.82450E+01    1.65535E+01
 1.86187E+01    1.70281E+01
 1.90000E+01    1.75172E+01
 1.92452E+01    1.77825E+01
 1.96190E+01    1.81919E+01
 2.00000E+01    1.86152E+01
