# n + Ni 64 : (n,any)   
# jeff3.3    S.Chiba,M.B.Chadwick,Hetrick      EVAL-SEP97
# uncertainties: n
# # energies =   151
#   E(MeV)       xs(mb) 
 2.00000E+01    0.00000E+00
 2.00000E+01    1.40800E+03
 2.08798E+01    1.40388E+03
 2.08960E+01    1.40374E+03
 2.10000E+01    1.40281E+03
 2.20000E+01    1.38970E+03
 2.30000E+01    1.37372E+03
 2.38849E+01    1.36000E+03
 2.40000E+01    1.35820E+03
 2.50000E+01    1.34297E+03
 2.53072E+01    1.33844E+03
 2.60000E+01    1.32840E+03
 2.70000E+01    1.31442E+03
 2.74116E+01    1.30884E+03
 2.75200E+01    1.30738E+03
 2.80000E+01    1.30100E+03
 2.89217E+01    1.28907E+03
 2.90000E+01    1.28808E+03
 2.93940E+01    1.28313E+03
 3.00000E+01    1.27570E+03
 3.10000E+01    1.26387E+03
 3.16521E+01    1.25643E+03
 3.20000E+01    1.25255E+03
 3.30000E+01    1.24169E+03
 3.32334E+01    1.23921E+03
 3.40000E+01    1.23125E+03
 3.40880E+01    1.23035E+03
 3.50000E+01    1.22120E+03
 3.54636E+01    1.21669E+03
 3.56048E+01    1.21535E+03
 3.60000E+01    1.21164E+03
 3.61990E+01    1.20980E+03
 3.65320E+01    1.20678E+03
 3.70000E+01    1.20262E+03
 3.72936E+01    1.20007E+03
 3.80000E+01    1.19408E+03
 3.90000E+01    1.18596E+03
 3.97063E+01    1.18044E+03
 4.00000E+01    1.17820E+03
 4.10000E+01    1.17088E+03
 4.15245E+01    1.16725E+03
 4.18548E+01    1.16503E+03
 4.20000E+01    1.16407E+03
 4.30000E+01    1.15769E+03
 4.34394E+01    1.15501E+03
 4.35843E+01    1.15414E+03
 4.40000E+01    1.15168E+03
 4.42171E+01    1.15042E+03
 4.50000E+01    1.14600E+03
 4.60000E+01    1.14059E+03
 4.70000E+01    1.13544E+03
 4.70318E+01    1.13528E+03
 4.71504E+01    1.13469E+03
 4.80000E+01    1.13057E+03
 4.90000E+01    1.12598E+03
 4.95892E+01    1.12342E+03
 5.00000E+01    1.12170E+03
 5.08182E+01    1.11836E+03
 5.10000E+01    1.11764E+03
 5.16437E+01    1.11509E+03
 5.20000E+01    1.11372E+03
 5.30000E+01    1.10995E+03
 5.32297E+01    1.10910E+03
 5.37367E+01    1.10727E+03
 5.39722E+01    1.10644E+03
 5.40000E+01    1.10634E+03
 5.50000E+01    1.10290E+03
 5.58584E+01    1.10005E+03
 5.60000E+01    1.09958E+03
 5.61738E+01    1.09902E+03
 5.70000E+01    1.09634E+03
 5.80000E+01    1.09318E+03
 5.90000E+01    1.09010E+03
 5.90889E+01    1.08983E+03
 6.00000E+01    1.08710E+03
 6.10000E+01    1.08418E+03
 6.18172E+01    1.08185E+03
 6.20000E+01    1.08134E+03
 6.20996E+01    1.08106E+03
 6.26744E+01    1.07945E+03
 6.28695E+01    1.07891E+03
 6.30000E+01    1.07855E+03
 6.30509E+01    1.07841E+03
 6.40000E+01    1.07581E+03
 6.50000E+01    1.07310E+03
 6.60000E+01    1.07039E+03
 6.70000E+01    1.06768E+03
 6.74142E+01    1.06656E+03
 6.80000E+01    1.06497E+03
 6.90000E+01    1.06228E+03
 7.00000E+01    1.05960E+03
 7.10000E+01    1.05691E+03
 7.12251E+01    1.05631E+03
 7.20000E+01    1.05420E+03
 7.23509E+01    1.05324E+03
 7.30000E+01    1.05147E+03
 7.40000E+01    1.04873E+03
 7.50000E+01    1.04600E+03
 7.52964E+01    1.04519E+03
 7.60000E+01    1.04327E+03
 7.62641E+01    1.04254E+03
 7.70000E+01    1.04051E+03
 7.80000E+01    1.03775E+03
 7.90000E+01    1.03498E+03
 8.00000E+01    1.03220E+03
 8.10000E+01    1.02941E+03
 8.20000E+01    1.02660E+03
 8.30000E+01    1.02378E+03
 8.40000E+01    1.02094E+03
 8.50000E+01    1.01810E+03
 8.59980E+01    1.01525E+03
 8.60000E+01    1.01524E+03
 8.70000E+01    1.01238E+03
 8.80000E+01    1.00949E+03
 8.90000E+01    1.00660E+03
 9.00000E+01    1.00370E+03
 9.10000E+01    1.00079E+03
 9.20000E+01    9.97866E+02
 9.30000E+01    9.94939E+02
 9.40000E+01    9.92013E+02
 9.50000E+01    9.89090E+02
 9.60000E+01    9.86164E+02
 9.70000E+01    9.83227E+02
 9.80000E+01    9.80282E+02
 9.90000E+01    9.77332E+02
 1.00000E+02    9.74380E+02
 1.02000E+02    9.68484E+02
 1.04000E+02    9.62604E+02
 1.06000E+02    9.56743E+02
 1.08000E+02    9.50904E+02
 1.10000E+02    9.45090E+02
 1.12000E+02    9.39302E+02
 1.14000E+02    9.33542E+02
 1.16000E+02    9.27813E+02
 1.18000E+02    9.22115E+02
 1.20000E+02    9.16450E+02
 1.22000E+02    9.10842E+02
 1.24000E+02    9.05306E+02
 1.26000E+02    8.99830E+02
 1.28000E+02    8.94404E+02
 1.30000E+02    8.89020E+02
 1.32000E+02    8.83691E+02
 1.34000E+02    8.78433E+02
 1.36000E+02    8.73242E+02
 1.38000E+02    8.68112E+02
 1.40000E+02    8.63040E+02
 1.42000E+02    8.58029E+02
 1.44000E+02    8.53085E+02
 1.46000E+02    8.48203E+02
 1.48000E+02    8.43379E+02
 1.50000E+02    8.38610E+02
