# n + Pt193 : (n,n'23)  
# jeff3.3    A.J. Koning and D. Rochman        EVAL-DEC15
# uncertainties: n
# # energies =    76
#   E(MeV)       xs(mb) 
 6.02131E-01    0.00000E+00
 6.06454E-01    4.32911E-01
 6.25251E-01    2.31526E+00
 6.33293E-01    3.12060E+00
 6.45356E-01    4.32860E+00
 6.68476E-01    6.64387E+00
 6.95617E-01    9.36180E+00
 7.00000E-01    9.80072E+00
 7.03659E-01    9.97786E+00
 8.00000E-01    1.46418E+01
 9.00000E-01    1.81546E+01
 1.00000E+00    2.02309E+01
 1.20000E+00    2.11342E+01
 1.40000E+00    1.96513E+01
 1.60000E+00    1.73139E+01
 1.80000E+00    1.48476E+01
 2.00000E+00    1.25559E+01
 2.20000E+00    1.05014E+01
 2.40000E+00    8.68555E+00
 2.60000E+00    7.09522E+00
 2.80000E+00    5.72106E+00
 3.00000E+00    4.55291E+00
 3.20000E+00    3.57838E+00
 3.40000E+00    2.78043E+00
 3.60000E+00    2.13815E+00
 3.80000E+00    1.62847E+00
 4.00000E+00    1.22898E+00
 4.20000E+00    9.19689E-01
 4.40000E+00    6.82813E-01
 4.60000E+00    5.03113E-01
 4.80000E+00    3.68167E-01
 5.00000E+00    2.67345E-01
 5.20000E+00    1.93089E-01
 5.40000E+00    1.38417E-01
 5.60000E+00    9.82537E-02
 5.80000E+00    6.94435E-02
 6.00000E+00    4.88140E-02
 6.20000E+00    3.42645E-02
 6.40000E+00    2.39624E-02
 6.60000E+00    1.67530E-02
 6.80000E+00    1.17153E-02
 7.00000E+00    8.19064E-03
 7.20000E+00    5.74568E-03
 7.40000E+00    4.03717E-03
 7.60000E+00    2.84605E-03
 7.80000E+00    2.01424E-03
 8.00000E+00    1.42934E-03
 8.50000E+00    6.18261E-04
 9.00000E+00    2.74263E-04
 9.50000E+00    1.24518E-04
 1.00000E+01    5.77013E-05
 1.05000E+01    2.72208E-05
 1.10000E+01    1.30456E-05
 1.15000E+01    6.34268E-06
 1.20000E+01    3.12558E-06
 1.25000E+01    1.56056E-06
 1.30000E+01    7.89340E-07
 1.35000E+01    4.04290E-07
 1.40000E+01    2.09570E-07
 1.45000E+01    1.09870E-07
 1.50000E+01    5.82150E-08
 1.60000E+01    1.68110E-08
 1.70000E+01    5.01920E-09
 1.80000E+01    1.53430E-09
 1.90000E+01    4.83940E-10
 2.00000E+01    1.56520E-10
 2.10000E+01    5.19780E-11
 2.20000E+01    1.76990E-11
 2.30000E+01    6.18400E-12
 2.40000E+01    2.21350E-12
 2.50000E+01    8.08880E-13
 2.60000E+01    3.01370E-13
 2.70000E+01    1.14220E-13
 2.80000E+01    4.39870E-14
 2.90000E+01    1.72050E-14
 3.00000E+01    6.83490E-15
