# n + Pt193 : (n,n'25)  
# jeff3.3    A.J. Koning and D. Rochman        EVAL-DEC15
# uncertainties: n
# # energies =    74
#   E(MeV)       xs(mb) 
 6.25251E-01    0.00000E+00
 6.33293E-01    1.81799E-01
 6.45356E-01    4.54498E-01
 6.68476E-01    9.77153E-01
 6.95617E-01    1.59071E+00
 7.00000E-01    1.68979E+00
 7.03659E-01    1.75867E+00
 8.00000E-01    3.57231E+00
 9.00000E-01    5.32153E+00
 1.00000E+00    6.74842E+00
 1.20000E+00    8.56837E+00
 1.40000E+00    9.29502E+00
 1.60000E+00    9.27409E+00
 1.80000E+00    8.75192E+00
 2.00000E+00    7.92461E+00
 2.20000E+00    6.92935E+00
 2.40000E+00    5.88186E+00
 2.60000E+00    4.86931E+00
 2.80000E+00    3.94944E+00
 3.00000E+00    3.15053E+00
 3.20000E+00    2.47930E+00
 3.40000E+00    1.92897E+00
 3.60000E+00    1.48602E+00
 3.80000E+00    1.13438E+00
 4.00000E+00    8.58428E-01
 4.20000E+00    6.44449E-01
 4.40000E+00    4.80260E-01
 4.60000E+00    3.55430E-01
 4.80000E+00    2.61449E-01
 5.00000E+00    1.90999E-01
 5.20000E+00    1.38925E-01
 5.40000E+00    1.00401E-01
 5.60000E+00    7.19340E-02
 5.80000E+00    5.13930E-02
 6.00000E+00    3.65668E-02
 6.20000E+00    2.60183E-02
 6.40000E+00    1.84717E-02
 6.60000E+00    1.31262E-02
 6.80000E+00    9.33975E-03
 7.00000E+00    6.65029E-03
 7.20000E+00    4.75372E-03
 7.40000E+00    3.40490E-03
 7.60000E+00    2.44715E-03
 7.80000E+00    1.76513E-03
 8.00000E+00    1.27613E-03
 8.50000E+00    5.76364E-04
 9.00000E+00    2.65187E-04
 9.50000E+00    1.23911E-04
 1.00000E+01    5.86634E-05
 1.05000E+01    2.81047E-05
 1.10000E+01    1.36187E-05
 1.15000E+01    6.67534E-06
 1.20000E+01    3.31030E-06
 1.25000E+01    1.66146E-06
 1.30000E+01    8.44270E-07
 1.35000E+01    4.34290E-07
 1.40000E+01    2.26070E-07
 1.45000E+01    1.19010E-07
 1.50000E+01    6.33230E-08
 1.60000E+01    1.84430E-08
 1.70000E+01    5.55170E-09
 1.80000E+01    1.70900E-09
 1.90000E+01    5.41970E-10
 2.00000E+01    1.76010E-10
 2.10000E+01    5.86500E-11
 2.20000E+01    2.00360E-11
 2.30000E+01    7.02480E-12
 2.40000E+01    2.52300E-12
 2.50000E+01    9.24800E-13
 2.60000E+01    3.45380E-13
 2.70000E+01    1.31130E-13
 2.80000E+01    5.05770E-14
 2.90000E+01    1.98110E-14
 3.00000E+01    7.88210E-15
