# n + Pt193 : (n,n'20)  
# jeff3.3    A.J. Koning and D. Rochman        EVAL-DEC15
# uncertainties: n
# # energies =    80
#   E(MeV)       xs(mb) 
 5.32770E-01    0.00000E+00
 5.46844E-01    7.09112E+00
 5.65943E-01    1.67141E+01
 6.00000E-01    3.38735E+01
 6.02131E-01    3.40783E+01
 6.06454E-01    3.44938E+01
 6.25251E-01    3.63006E+01
 6.33293E-01    3.70736E+01
 6.45356E-01    3.82331E+01
 6.68476E-01    4.04553E+01
 6.95617E-01    4.30641E+01
 7.00000E-01    4.34854E+01
 7.03659E-01    4.35609E+01
 8.00000E-01    4.55477E+01
 9.00000E-01    4.47527E+01
 1.00000E+00    4.20817E+01
 1.20000E+00    3.46030E+01
 1.40000E+00    2.69690E+01
 1.60000E+00    2.04513E+01
 1.80000E+00    1.53164E+01
 2.00000E+00    1.14557E+01
 2.20000E+00    8.59430E+00
 2.40000E+00    6.47206E+00
 2.60000E+00    4.88130E+00
 2.80000E+00    3.67552E+00
 3.00000E+00    2.75445E+00
 3.20000E+00    2.05049E+00
 3.40000E+00    1.51567E+00
 3.60000E+00    1.11315E+00
 3.80000E+00    8.13045E-01
 4.00000E+00    5.91115E-01
 4.20000E+00    4.28169E-01
 4.40000E+00    3.09130E-01
 4.60000E+00    2.22456E-01
 4.80000E+00    1.59614E-01
 5.00000E+00    1.14029E-01
 5.20000E+00    8.12581E-02
 5.40000E+00    5.76176E-02
 5.60000E+00    4.05332E-02
 5.80000E+00    2.84289E-02
 6.00000E+00    1.98531E-02
 6.20000E+00    1.38487E-02
 6.40000E+00    9.62739E-03
 6.60000E+00    6.69144E-03
 6.80000E+00    4.65088E-03
 7.00000E+00    3.23102E-03
 7.20000E+00    2.25229E-03
 7.40000E+00    1.57191E-03
 7.60000E+00    1.10060E-03
 7.80000E+00    7.73695E-04
 8.00000E+00    5.45259E-04
 8.50000E+00    2.32069E-04
 9.00000E+00    1.01499E-04
 9.50000E+00    4.55437E-05
 1.00000E+01    2.09005E-05
 1.05000E+01    9.77628E-06
 1.10000E+01    4.64763E-06
 1.15000E+01    2.24135E-06
 1.20000E+01    1.09521E-06
 1.25000E+01    5.42020E-07
 1.30000E+01    2.71680E-07
 1.35000E+01    1.37880E-07
 1.40000E+01    7.08350E-08
 1.45000E+01    3.68180E-08
 1.50000E+01    1.93520E-08
 1.60000E+01    5.50930E-09
 1.70000E+01    1.62530E-09
 1.80000E+01    4.91810E-10
 1.90000E+01    1.53790E-10
 2.00000E+01    4.93690E-11
 2.10000E+01    1.62860E-11
 2.20000E+01    5.51230E-12
 2.30000E+01    1.91580E-12
 2.40000E+01    6.82540E-13
 2.50000E+01    2.48470E-13
 2.60000E+01    9.22770E-14
 2.70000E+01    3.48680E-14
 2.80000E+01    1.33860E-14
 2.90000E+01    5.21670E-15
 3.00000E+01    2.06430E-15
