# n + Os  0 : (n,d)
# jendl.ad   N.Iwamoto                         EVAL-Apr14
# uncertainties: n
# # energies =    61
#   E(MeV)          xs(mb) 
 3.52877E+00    0.00000E+00
 3.64386E+00    1.25729E-23
 3.79006E+00    2.90989E-23
 3.96639E+00    4.90369E-23
 4.02772E+00    5.59709E-23
 4.13091E+00    7.29920E-23
 4.15128E+00    7.64125E-23
 4.17131E+00    7.97947E-23
 4.19649E+00    8.40578E-23
 4.23325E+00    9.02876E-23
 4.29344E+00    1.00552E-22
 4.36233E+00    1.12375E-22
 4.38491E+00    1.16251E-22
 4.39465E+00    1.17924E-22
 4.40396E+00    1.19521E-22
 4.41251E+00    1.20989E-22
 4.42577E+00    1.23265E-22
 4.48887E+00    1.34096E-22
 4.53380E+00    1.44637E-22
 4.53672E+00    1.46217E-22
 4.55859E+00    1.69539E-22
 4.56929E+00    1.90271E-22
 4.57523E+00    2.01813E-22
 4.60074E+00    2.51532E-22
 4.60966E+00    2.68931E-22
 4.61940E+00    2.87943E-22
 4.63675E+00    3.21994E-22
 4.64276E+00    3.34338E-22
 4.65994E+00    3.69637E-22
 4.66197E+00    3.73808E-22
 5.00000E+00    1.06929E-21
 5.50000E+00    4.42755E-18
 6.00000E+00    2.88791E-15
 6.50000E+00    2.70065E-13
 7.00000E+00    1.11001E-11
 7.50000E+00    3.18913E-10
 8.00000E+00    6.10594E-09
 8.50000E+00    9.38031E-08
 9.00000E+00    9.61387E-07
 9.50000E+00    6.96439E-06
 1.00000E+01    3.79229E-05
 1.05000E+01    1.64294E-04
 1.10000E+01    5.91457E-04
 1.15000E+01    1.82769E-03
 1.20000E+01    4.96468E-03
 1.25000E+01    1.20592E-02
 1.30000E+01    2.65693E-02
 1.35000E+01    5.36183E-02
 1.40000E+01    9.99660E-02
 1.45000E+01    1.73461E-01
 1.50000E+01    2.81971E-01
 1.55000E+01    4.25207E-01
 1.60000E+01    6.08199E-01
 1.65000E+01    8.44445E-01
 1.70000E+01    1.09898E+00
 1.75000E+01    1.40619E+00
 1.80000E+01    1.76096E+00
 1.85000E+01    2.14733E+00
 1.90000E+01    2.55982E+00
 1.95000E+01    2.99280E+00
 2.00000E+01    3.44026E+00
