# n + Os  0 : (n,d)m
# jendl.ad   N.Iwamoto                         EVAL-Apr14
# uncertainties: n
# # energies =    30
#   E(MeV)          xs(mb) 
 4.52568E+00    0.00000E+00
 6.00000E+00    2.68950E-20
 6.50000E+00    1.08770E-15
 7.00000E+00    1.19240E-12
 7.50000E+00    1.77040E-10
 8.00000E+00    6.40830E-09
 8.50000E+00    1.34830E-07
 9.00000E+00    1.61931E-06
 9.50000E+00    1.27371E-05
 1.00000E+01    7.18072E-05
 1.05000E+01    3.10025E-04
 1.10000E+01    1.07808E-03
 1.15000E+01    3.13833E-03
 1.20000E+01    7.87266E-03
 1.25000E+01    1.73909E-02
 1.30000E+01    3.44476E-02
 1.35000E+01    6.18223E-02
 1.40000E+01    1.01905E-01
 1.45000E+01    1.56171E-01
 1.50000E+01    2.25211E-01
 1.55000E+01    3.08700E-01
 1.60000E+01    4.05663E-01
 1.65000E+01    5.14033E-01
 1.70000E+01    6.33289E-01
 1.75000E+01    7.61023E-01
 1.80000E+01    8.95193E-01
 1.85000E+01    1.03359E+00
 1.90000E+01    1.17358E+00
 1.95000E+01    1.31240E+00
 2.00000E+01    1.44740E+00
