# n + Os  0 : (n,2na)
# jendl.ad   N.Iwamoto                         EVAL-Apr14
# uncertainties: n
# # energies =    29
#   E(MeV)          xs(mb) 
 6.00000E+00    7.87660E-40
 6.50000E+00    2.11061E-31
 7.00000E+00    6.01141E-27
 7.50000E+00    3.88361E-23
 8.00000E+00    5.71276E-20
 8.50000E+00    4.21377E-15
 9.00000E+00    5.25428E-13
 9.50000E+00    1.82065E-11
 1.00000E+01    3.87560E-10
 1.05000E+01    5.31089E-09
 1.10000E+01    4.94190E-08
 1.15000E+01    3.29480E-07
 1.20000E+01    1.65136E-06
 1.25000E+01    6.52257E-06
 1.30000E+01    2.11037E-05
 1.35000E+01    5.83964E-05
 1.40000E+01    1.41270E-04
 1.45000E+01    3.10358E-04
 1.50000E+01    6.23876E-04
 1.55000E+01    1.07597E-03
 1.60000E+01    1.57024E-03
 1.65000E+01    2.07690E-03
 1.70000E+01    2.66900E-03
 1.75000E+01    3.47552E-03
 1.80000E+01    4.66731E-03
 1.85000E+01    6.43988E-03
 1.90000E+01    9.05625E-03
 1.95000E+01    1.28569E-02
 2.00000E+01    1.82950E-02
