# n + Os  0 : (n,t)m
# jendl.ad   N.Iwamoto                         EVAL-Apr14
# uncertainties: n
# # energies =    28
#   E(MeV)          xs(mb) 
 5.87102E+00    0.00000E+00
 7.00000E+00    7.35436E-30
 7.50000E+00    2.46077E-24
 8.00000E+00    1.35150E-19
 8.50000E+00    2.27018E-16
 9.00000E+00    4.87408E-14
 9.50000E+00    2.88550E-12
 1.00000E+01    7.62039E-11
 1.05000E+01    1.21601E-09
 1.10000E+01    1.37140E-08
 1.15000E+01    1.15737E-07
 1.20000E+01    7.50292E-07
 1.25000E+01    3.84700E-06
 1.30000E+01    1.60983E-05
 1.35000E+01    5.64916E-05
 1.40000E+01    1.70757E-04
 1.45000E+01    4.59620E-04
 1.50000E+01    1.10380E-03
 1.55000E+01    2.39048E-03
 1.60000E+01    4.71507E-03
 1.65000E+01    8.53397E-03
 1.70000E+01    1.42908E-02
 1.75000E+01    2.22912E-02
 1.80000E+01    3.28243E-02
 1.85000E+01    4.59464E-02
 1.90000E+01    6.15589E-02
 1.95000E+01    7.94991E-02
 2.00000E+01    9.94592E-02
