# n + Os  0 : (n,xp)
# jendl.ad   N.Iwamoto                         EVAL-Apr14
#
# # energies =   117
#   E(MeV)          xs(mb) 
 9.79858E-03    0.00000E+00
 1.00000E-02    0.00000E+00
 2.00000E-02    0.00000E+00
 3.00000E-02    0.00000E+00
 4.00000E-02    1.09906E-22
 5.00000E-02    5.43019E-22
 6.00000E-02    1.13122E-21
 7.00000E-02    1.72934E-21
 7.47310E-02    2.01767E-21
 7.54449E-02    2.06119E-21
 8.00000E-02    2.33880E-21
 9.00000E-02    2.97655E-21
 1.00000E-01    3.64517E-21
 1.00546E-01    3.70778E-21
 1.01092E-01    3.77765E-21
 1.10000E-01    4.91767E-21
 1.17631E-01    5.89424E-21
 1.20000E-01    6.19742E-21
 1.30000E-01    7.47717E-21
 1.40000E-01    8.75694E-21
 1.50000E-01    1.00367E-20
 1.60000E-01    1.13505E-20
 1.70000E-01    1.26986E-20
 1.80000E-01    1.40989E-20
 1.88411E-01    1.53072E-20
 1.90000E-01    1.55365E-20
 1.91628E-01    1.57759E-20
 2.00000E-01    1.70163E-20
 2.25000E-01    6.83538E-20
 2.50000E-01    1.32675E-19
 2.58557E-01    1.66100E-19
 2.58558E-01    1.66104E-19
 2.64721E-01    1.96182E-19
 2.75000E-01    2.59515E-19
 3.00000E-01    5.18867E-19
 3.35058E-01    1.41592E-18
 3.43342E-01    1.76251E-18
 3.51888E-01    2.21721E-18
 4.00000E-01    7.85902E-18
 4.21261E-01    1.39372E-17
 4.44385E-01    2.47767E-17
 4.47441E-01    2.62925E-17
 4.61979E-01    3.64419E-17
 4.66503E-01    4.04067E-17
 5.00000E-01    8.26591E-17
 5.04155E-01    9.16768E-17
 5.10962E-01    1.06000E-16
 5.14360E-01    1.14493E-16
 5.39455E-01    1.99045E-16
 5.59905E-01    2.99053E-16
 5.89473E-01    5.41734E-16
 5.99668E-01    6.55292E-16
 6.00000E-01    6.57452E-16
 6.14296E-01    8.85583E-16
 6.21334E-01    1.01159E-15
 6.45333E-01    1.59905E-15
 6.67713E-01    2.37622E-15
 6.73615E-01    2.61773E-15
 6.87690E-01    3.33475E-15
 6.88193E-01    3.36383E-15
 7.00000E-01    4.11916E-15
 7.15067E-01    5.47734E-15
 7.29656E-01    7.05616E-15
 7.31023E-01    7.20174E-15
 7.49019E-01    9.71774E-15
 7.61084E-01    1.17658E-14
 8.00000E-01    2.21216E-14
 9.00000E-01    1.03962E-13
 1.00000E+00    4.15584E-13
 1.10000E+00    1.47040E-12
 1.20000E+00    4.70211E-12
 1.30000E+00    1.36786E-11
 1.40000E+00    3.67715E-11
 1.50000E+00    9.13565E-11
 1.60000E+00    2.12150E-10
 1.70000E+00    4.64770E-10
 1.80000E+00    9.63862E-10
 1.90000E+00    1.91059E-09
 2.00000E+00    3.61885E-09
 2.25000E+00    1.51788E-08
 2.50000E+00    5.12190E-08
 2.75000E+00    1.47598E-07
 3.00000E+00    3.66090E-07
 3.50000E+00    1.69256E-06
 4.00000E+00    5.76796E-06
 4.50000E+00    1.57579E-05
 5.00000E+00    3.66000E-05
 5.50000E+00    7.60409E-05
 6.00000E+00    1.48741E-04
 6.50000E+00    2.88433E-04
 7.00000E+00    5.82161E-04
 7.50000E+00    1.23553E-03
 8.00000E+00    2.68997E-03
 8.50000E+00    5.81735E-03
 9.00000E+00    1.22160E-02
 9.50000E+00    2.45904E-02
 1.00000E+01    4.71994E-02
 1.05000E+01    8.62515E-02
 1.10000E+01    1.50151E-01
 1.15000E+01    2.49441E-01
 1.20000E+01    3.96559E-01
 1.25000E+01    6.05113E-01
 1.30000E+01    8.89244E-01
 1.35000E+01    1.26293E+00
 1.40000E+01    1.73940E+00
 1.45000E+01    2.33015E+00
 1.50000E+01    3.05306E+00
 1.55000E+01    3.90411E+00
 1.60000E+01    4.89752E+00
 1.65000E+01    6.03564E+00
 1.70000E+01    7.32129E+00
 1.75000E+01    8.75379E+00
 1.80000E+01    1.03316E+01
 1.85000E+01    1.20519E+01
 1.90000E+01    1.39108E+01
 1.95000E+01    1.59044E+01
 2.00000E+01    1.80288E+01
