# n + Sb125 : (n,tot)   
# endfb8.0   JNDC FP Nuclear Data W.G.         EVAL-MAR90
# uncertainties: n
# # energies =   171
#   E(MeV)       xs(mb) 
 1.00000E-11    6.09057E+04
 1.00000E-07    5.81844E+03
 4.13990E-07    5.17805E+03
 5.31580E-07    5.03375E+03
 6.82560E-07    4.93402E+03
 8.76420E-07    4.84216E+03
 1.12540E-06    4.75260E+03
 1.44500E-06    4.66504E+03
 1.85540E-06    4.58024E+03
 2.37240E-06    4.49555E+03
 3.05900E-06    4.44162E+03
 3.92790E-06    4.39889E+03
 5.04350E-06    4.35968E+03
 6.47600E-06    4.31761E+03
 8.31530E-06    4.27906E+03
 1.06770E-05    4.23631E+03
 1.37100E-05    3.32613E+04
 1.76030E-05    3.23615E+04
 2.26030E-05    2.90445E+04
 2.92030E-05    2.61569E+04
 3.72670E-05    2.36354E+04
 4.78510E-05    2.13849E+04
 6.14420E-05    1.94010E+04
 7.88930E-05    1.76490E+04
 1.01300E-04    1.61061E+04
 1.30070E-04    1.47484E+04
 1.67020E-04    1.35504E+04
 2.14450E-04    1.24957E+04
 2.75360E-04    1.15704E+04
 3.53580E-04    1.07547E+04
 4.54000E-04    1.00396E+04
 5.82950E-04    9.41353E+03
 7.48520E-04    8.86477E+03
 9.61120E-04    8.38657E+03
 1.23410E-03    7.97122E+03
 1.58460E-03    7.61121E+03
 2.03470E-03    7.38758E+03
 2.24870E-03    7.27111E+03
 2.48520E-03    7.18905E+03
 2.61260E-03    7.13649E+03
 2.74650E-03    7.06015E+03
 3.03540E-03    6.96431E+03
 3.35460E-03    6.87476E+03
 3.70740E-03    6.77160E+03
 4.30740E-03    6.62660E+03
 5.53080E-03    6.47350E+03
 7.10170E-03    6.35188E+03
 9.11880E-03    6.25886E+03
 1.17090E-02    6.19175E+03
 1.50340E-02    6.14888E+03
 1.93050E-02    6.13106E+03
 2.18750E-02    6.12635E+03
 2.35790E-02    6.12540E+03
 2.41760E-02    6.12501E+03
 2.47880E-02    6.12493E+03
 2.60580E-02    6.12552E+03
 2.70000E-02    6.12648E+03
 2.85000E-02    6.13004E+03
 3.18280E-02    6.13593E+03
 3.43070E-02    6.14758E+03
 4.08680E-02    6.16565E+03
 4.63090E-02    6.18405E+03
 5.24750E-02    6.20046E+03
 5.65620E-02    6.22284E+03
 6.73790E-02    6.24556E+03
 7.20000E-02    6.26159E+03
 7.95000E-02    6.27489E+03
 8.25000E-02    6.28312E+03
 8.65170E-02    6.29967E+03
 9.80370E-02    6.32641E+03
 1.11090E-01    6.32521E+03
 1.16790E-01    6.32269E+03
 1.22770E-01    6.32003E+03
 1.29070E-01    6.31723E+03
 1.35690E-01    6.31430E+03
 1.42640E-01    6.31121E+03
 1.49960E-01    6.30796E+03
 1.57640E-01    6.30455E+03
 1.65730E-01    6.30223E+03
 1.74220E-01    6.30171E+03
 1.83160E-01    6.30119E+03
 1.92550E-01    6.30073E+03
 2.02420E-01    6.30228E+03
 2.12800E-01    6.30478E+03
 2.23710E-01    6.30740E+03
 2.35180E-01    6.31016E+03
 2.47240E-01    6.31459E+03
 2.73240E-01    6.31933E+03
 2.87250E-01    6.32184E+03
 2.94520E-01    6.32301E+03
 2.97200E-01    6.32348E+03
 2.98500E-01    6.32403E+03
 3.01970E-01    6.32811E+03
 3.33730E-01    6.33595E+03
 3.68830E-01    6.34234E+03
 3.87740E-01    6.34689E+03
 4.07620E-01    6.35420E+03
 4.50490E-01    6.36478E+03
 4.97870E-01    6.37341E+03
 5.23400E-01    6.37956E+03
 5.50230E-01    6.38579E+03
 5.78440E-01    6.38912E+03
 6.08100E-01    6.39156E+03
 6.39280E-01    6.39413E+03
 6.72060E-01    6.39669E+03
 7.06510E-01    6.39386E+03
 7.42740E-01    6.38801E+03
 7.80820E-01    6.38187E+03
 8.20850E-01    6.37541E+03
 8.62940E-01    6.36699E+03
 9.07180E-01    6.34852E+03
 9.61640E-01    6.32958E+03
 1.00260E+00    6.29970E+03
 1.10800E+00    6.25348E+03
 1.16480E+00    6.21590E+03
 1.22460E+00    6.17642E+03
 1.28730E+00    6.13020E+03
 1.35340E+00    6.07433E+03
 1.42270E+00    6.01555E+03
 1.49570E+00    5.95107E+03
 1.57240E+00    5.87451E+03
 1.65300E+00    5.79335E+03
 1.73770E+00    5.70801E+03
 1.82680E+00    5.61822E+03
 1.92050E+00    5.52185E+03
 2.01900E+00    5.41948E+03
 2.12250E+00    5.31190E+03
 2.23130E+00    5.21818E+03
 2.30690E+00    5.16004E+03
 2.34570E+00    5.13039E+03
 2.36530E+00    5.11037E+03
 2.38520E+00    5.06237E+03
 2.46600E+00    4.96960E+03
 2.59240E+00    4.85355E+03
 2.72530E+00    4.74154E+03
 2.86500E+00    4.63164E+03
 3.01190E+00    4.53148E+03
 3.16640E+00    4.43781E+03
 3.32870E+00    4.30287E+03
 3.67880E+00    4.14527E+03
 4.06570E+00    4.03129E+03
 4.49330E+00    3.96058E+03
 4.72370E+00    3.91514E+03
 4.96590E+00    3.88364E+03
 5.22050E+00    3.87757E+03
 5.48810E+00    3.87209E+03
 5.76950E+00    3.86729E+03
 6.06530E+00    3.89012E+03
 6.37630E+00    3.92077E+03
 6.59240E+00    3.93979E+03
 6.70320E+00    3.96601E+03
 7.04690E+00    4.02051E+03
 7.40820E+00    4.09206E+03
 7.78800E+00    4.16739E+03
 8.18730E+00    4.25128E+03
 8.60710E+00    4.34191E+03
 9.04840E+00    4.43427E+03
 9.51230E+00    4.52615E+03
 1.00000E+01    4.59675E+03
 1.05130E+01    4.64713E+03
 1.10520E+01    4.70012E+03
 1.16180E+01    4.74548E+03
 1.22140E+01    4.72505E+03
 1.28400E+01    4.68573E+03
 1.34990E+01    4.65645E+03
 1.38400E+01    4.63271E+03
 1.41910E+01    4.58624E+03
 1.45500E+01    4.53701E+03
 1.49180E+01    4.45266E+03
 1.56830E+01    4.32509E+03
 1.64870E+01    4.18212E+03
