# n + Ho163 : (n,n'05)  
# jeff3.3    A.J. Koning and D. Rochman        EVAL-DEC15
# uncertainties: n
# # energies =    97
#   E(MeV)       xs(mb) 
 3.62591E-01    0.00000E+00
 3.68920E-01    2.35905E+00
 3.94497E-01    1.18925E+01
 4.00000E-01    1.39437E+01
 4.21594E-01    1.61693E+01
 4.33849E-01    1.74324E+01
 4.42664E-01    1.83410E+01
 4.58702E-01    1.99940E+01
 4.74167E-01    2.15879E+01
 5.00000E-01    2.42505E+01
 5.03478E-01    2.43625E+01
 5.31510E-01    2.52653E+01
 5.35082E-01    2.53803E+01
 5.55468E-01    2.60368E+01
 5.63467E-01    2.62944E+01
 5.81810E-01    2.68852E+01
 5.91197E-01    2.71875E+01
 5.97677E-01    2.73962E+01
 6.00000E-01    2.74710E+01
 6.16594E-01    2.79683E+01
 6.18093E-01    2.80132E+01
 6.56097E-01    2.91521E+01
 6.68121E-01    2.95124E+01
 6.92340E-01    3.02382E+01
 6.99303E-01    3.04468E+01
 7.00000E-01    3.04677E+01
 7.14395E-01    3.04986E+01
 7.24015E-01    3.05193E+01
 7.50618E-01    3.05764E+01
 8.00000E-01    3.06824E+01
 8.00364E-01    3.06713E+01
 9.00000E-01    2.76395E+01
 1.00000E+00    2.38627E+01
 1.20000E+00    1.72233E+01
 1.40000E+00    1.22726E+01
 1.60000E+00    8.83368E+00
 1.80000E+00    6.49269E+00
 2.00000E+00    4.87364E+00
 2.20000E+00    3.71603E+00
 2.40000E+00    2.85766E+00
 2.60000E+00    2.20332E+00
 2.80000E+00    1.69812E+00
 3.00000E+00    1.30636E+00
 3.20000E+00    1.00266E+00
 3.40000E+00    7.69129E-01
 3.60000E+00    5.90931E-01
 3.80000E+00    4.56229E-01
 4.00000E+00    3.55129E-01
 4.20000E+00    2.79734E-01
 4.40000E+00    2.24060E-01
 4.60000E+00    1.83306E-01
 4.80000E+00    1.53589E-01
 5.00000E+00    1.32109E-01
 5.20000E+00    1.16760E-01
 5.40000E+00    1.05856E-01
 5.60000E+00    9.81592E-02
 5.80000E+00    9.28005E-02
 6.00000E+00    8.89512E-02
 6.20000E+00    8.62919E-02
 6.40000E+00    8.44039E-02
 6.60000E+00    8.30086E-02
 6.80000E+00    8.19462E-02
 7.00000E+00    8.10769E-02
 7.20000E+00    8.03309E-02
 7.40000E+00    7.96603E-02
 7.60000E+00    7.90404E-02
 7.80000E+00    7.84624E-02
 8.00000E+00    7.79196E-02
 8.50000E+00    7.67284E-02
 9.00000E+00    7.57900E-02
 9.50000E+00    7.50949E-02
 1.00000E+01    7.45907E-02
 1.05000E+01    7.42015E-02
 1.10000E+01    7.38479E-02
 1.15000E+01    7.34655E-02
 1.20000E+01    7.30103E-02
 1.25000E+01    7.24616E-02
 1.30000E+01    7.18174E-02
 1.35000E+01    7.10900E-02
 1.40000E+01    7.02992E-02
 1.45000E+01    6.94682E-02
 1.50000E+01    6.86191E-02
 1.60000E+01    6.69376E-02
 1.70000E+01    6.53542E-02
 1.80000E+01    6.39077E-02
 1.90000E+01    6.25988E-02
 2.00000E+01    6.14045E-02
 2.10000E+01    6.02778E-02
 2.20000E+01    5.91605E-02
 2.30000E+01    5.80103E-02
 2.40000E+01    5.68209E-02
 2.50000E+01    5.56179E-02
 2.60000E+01    5.44349E-02
 2.70000E+01    5.32978E-02
 2.80000E+01    5.22137E-02
 2.90000E+01    5.11747E-02
 3.00000E+01    5.01623E-02
