# n + Ho163 : (n,xa)    
# jeff3.3    A.J. Koning and D. Rochman        EVAL-DEC15
# 
# # energies =   133
#   E(MeV)        xs(mb) 
 1.00649E-01    1.81349E-05
 2.00000E-01    1.72595E-05
 2.23596E-01    1.81099E-05
 2.99724E-01    2.08536E-05
 3.00000E-01    2.08636E-05
 3.09545E-01    2.12076E-05
 3.62591E-01    2.31194E-05
 3.68920E-01    2.33475E-05
 3.94497E-01    2.42693E-05
 4.00000E-01    2.44676E-05
 4.21594E-01    2.50080E-05
 4.33849E-01    2.53146E-05
 4.42664E-01    2.55352E-05
 4.58702E-01    2.59366E-05
 4.74167E-01    2.63236E-05
 5.00000E-01    2.69700E-05
 5.03478E-01    2.70184E-05
 5.31510E-01    2.74086E-05
 5.35082E-01    2.74583E-05
 5.55468E-01    2.77421E-05
 5.63467E-01    2.78534E-05
 5.81810E-01    2.81087E-05
 5.91197E-01    2.82394E-05
 5.97677E-01    2.83296E-05
 6.00000E-01    2.83619E-05
 6.16594E-01    2.87837E-05
 6.18093E-01    2.88218E-05
 6.56097E-01    2.97877E-05
 6.68121E-01    3.00933E-05
 6.92340E-01    3.07088E-05
 6.99303E-01    3.08858E-05
 7.00000E-01    3.09037E-05
 7.14395E-01    3.13677E-05
 7.24015E-01    3.16777E-05
 7.50618E-01    3.25352E-05
 8.00000E-01    3.41268E-05
 8.00364E-01    3.41351E-05
 9.00000E-01    3.64142E-05
 1.00000E+00    3.87016E-05
 1.20000E+00    4.69695E-05
 1.40000E+00    5.70894E-05
 1.60000E+00    7.05724E-05
 1.80000E+00    9.10775E-05
 2.00000E+00    1.15871E-04
 2.20000E+00    1.50870E-04
 2.40000E+00    1.94603E-04
 2.60000E+00    2.46815E-04
 2.80000E+00    3.14841E-04
 3.00000E+00    3.91010E-04
 3.20000E+00    4.84914E-04
 3.40000E+00    5.94598E-04
 3.60000E+00    7.15446E-04
 3.80000E+00    8.60222E-04
 4.00000E+00    1.01960E-03
 4.20000E+00    1.20478E-03
 4.40000E+00    1.42141E-03
 4.60000E+00    1.64081E-03
 4.80000E+00    1.90415E-03
 5.00000E+00    2.19747E-03
 5.20000E+00    2.53053E-03
 5.40000E+00    2.94322E-03
 5.60000E+00    3.30057E-03
 5.80000E+00    3.77653E-03
 6.00000E+00    4.28512E-03
 6.20000E+00    4.90629E-03
 6.40000E+00    5.78189E-03
 6.60000E+00    6.34777E-03
 6.80000E+00    7.36759E-03
 7.00000E+00    8.45427E-03
 7.20000E+00    1.00433E-02
 7.40000E+00    1.24320E-02
 7.60000E+00    1.37391E-02
 7.80000E+00    1.64831E-02
 8.00000E+00    1.95596E-02
 8.50000E+00    3.11682E-02
 9.00000E+00    5.01812E-02
 9.50000E+00    8.03091E-02
 1.00000E+01    1.26875E-01
 1.05000E+01    1.96683E-01
 1.10000E+01    2.97281E-01
 1.15000E+01    4.36228E-01
 1.20000E+01    6.23912E-01
 1.25000E+01    8.61701E-01
 1.30000E+01    1.15065E+00
 1.35000E+01    1.51793E+00
 1.40000E+01    1.93269E+00
 1.45000E+01    2.45588E+00
 1.50000E+01    2.98952E+00
 1.60000E+01    4.36992E+00
 1.70000E+01    6.27068E+00
 1.80000E+01    8.78041E+00
 1.90000E+01    1.23787E+01
 2.00000E+01    1.72449E+01
 2.10000E+01    2.09317E+01
 2.20000E+01    2.39816E+01
 2.30000E+01    2.47048E+01
 2.40000E+01    2.37602E+01
 2.50000E+01    2.34750E+01
 2.60000E+01    2.34956E+01
 2.70000E+01    2.37396E+01
 2.80000E+01    2.41221E+01
 2.90000E+01    2.45812E+01
 3.00000E+01    2.50737E+01
 3.00000E+01    2.50741E+01
 3.20000E+01    2.60707E+01
 3.40000E+01    2.66313E+01
 3.60000E+01    2.75410E+01
 3.80000E+01    2.83447E+01
 4.00000E+01    2.90601E+01
 4.20000E+01    2.97057E+01
 4.40000E+01    3.02990E+01
 4.60000E+01    3.08404E+01
 4.80000E+01    3.13802E+01
 5.00000E+01    3.19330E+01
 5.20000E+01    3.25020E+01
 5.40000E+01    3.30718E+01
 5.60000E+01    3.36627E+01
 5.80000E+01    3.42641E+01
 6.00000E+01    3.48656E+01
 6.50000E+01    3.66700E+01
 7.00000E+01    3.89383E+01
 7.50000E+01    4.14157E+01
 8.00000E+01    4.36224E+01
 9.00000E+01    5.07905E+01
 1.00000E+02    5.86836E+01
 1.10000E+02    6.77573E+01
 1.20000E+02    7.38126E+01
 1.30000E+02    7.52025E+01
 1.40000E+02    8.09739E+01
 1.50000E+02    8.90571E+01
 1.60000E+02    1.00910E+02
 1.80000E+02    1.88466E+02
 2.00000E+02    3.94198E+02
