# n + Ho163 : (n,n'08)  
# jeff3.3    A.J. Koning and D. Rochman        EVAL-DEC15
# uncertainties: n
# # energies =    93
#   E(MeV)       xs(mb) 
 4.21594E-01    0.00000E+00
 4.33849E-01    5.73528E+00
 4.42664E-01    9.86065E+00
 4.58702E-01    1.73664E+01
 4.74167E-01    2.46039E+01
 5.00000E-01    3.66936E+01
 5.03478E-01    3.69961E+01
 5.31510E-01    3.94346E+01
 5.35082E-01    3.97453E+01
 5.55468E-01    4.15186E+01
 5.63467E-01    4.22144E+01
 5.81810E-01    4.38100E+01
 5.91197E-01    4.46266E+01
 5.97677E-01    4.51902E+01
 6.00000E-01    4.53923E+01
 6.16594E-01    4.60600E+01
 6.18093E-01    4.61203E+01
 6.56097E-01    4.76494E+01
 6.68121E-01    4.81332E+01
 6.92340E-01    4.91077E+01
 6.99303E-01    4.93879E+01
 7.00000E-01    4.94159E+01
 7.14395E-01    4.92724E+01
 7.24015E-01    4.91765E+01
 7.50618E-01    4.89112E+01
 8.00000E-01    4.84188E+01
 8.00364E-01    4.84031E+01
 9.00000E-01    4.40969E+01
 1.00000E+00    3.86257E+01
 1.20000E+00    2.82088E+01
 1.40000E+00    1.99623E+01
 1.60000E+00    1.41187E+01
 1.80000E+00    1.01426E+01
 2.00000E+00    7.42914E+00
 2.20000E+00    5.53275E+00
 2.40000E+00    4.16583E+00
 2.60000E+00    3.15330E+00
 2.80000E+00    2.39128E+00
 3.00000E+00    1.81256E+00
 3.20000E+00    1.37107E+00
 3.40000E+00    1.03571E+00
 3.60000E+00    7.82185E-01
 3.80000E+00    5.91929E-01
 4.00000E+00    4.49939E-01
 4.20000E+00    3.44508E-01
 4.40000E+00    2.66895E-01
 4.60000E+00    2.10179E-01
 4.80000E+00    1.68861E-01
 5.00000E+00    1.38953E-01
 5.20000E+00    1.17531E-01
 5.40000E+00    1.02246E-01
 5.60000E+00    9.13978E-02
 5.80000E+00    8.37922E-02
 6.00000E+00    7.83126E-02
 6.20000E+00    7.45143E-02
 6.40000E+00    7.18305E-02
 6.60000E+00    6.98826E-02
 6.80000E+00    6.84406E-02
 7.00000E+00    6.73101E-02
 7.20000E+00    6.63856E-02
 7.40000E+00    6.55940E-02
 7.60000E+00    6.48927E-02
 7.80000E+00    6.42624E-02
 8.00000E+00    6.36873E-02
 8.50000E+00    6.24745E-02
 9.00000E+00    6.15672E-02
 9.50000E+00    6.09373E-02
 1.00000E+01    6.05220E-02
 1.05000E+01    6.02350E-02
 1.10000E+01    5.99844E-02
 1.15000E+01    5.96920E-02
 1.20000E+01    5.93024E-02
 1.25000E+01    5.87872E-02
 1.30000E+01    5.81422E-02
 1.35000E+01    5.73818E-02
 1.40000E+01    5.65310E-02
 1.45000E+01    5.56195E-02
 1.50000E+01    5.46757E-02
 1.60000E+01    5.27836E-02
 1.70000E+01    5.09781E-02
 1.80000E+01    4.92988E-02
 1.90000E+01    4.77387E-02
 2.00000E+01    4.62757E-02
 2.10000E+01    4.48815E-02
 2.20000E+01    4.35272E-02
 2.30000E+01    4.21939E-02
 2.40000E+01    4.08825E-02
 2.50000E+01    3.96100E-02
 2.60000E+01    3.83962E-02
 2.70000E+01    3.72554E-02
 2.80000E+01    3.61904E-02
 2.90000E+01    3.51957E-02
 3.00000E+01    3.42592E-02
