# n + Ho163 : (n,n'07)  
# jeff3.3    A.J. Koning and D. Rochman        EVAL-DEC15
# uncertainties: n
# # energies =    95
#   E(MeV)       xs(mb) 
 3.94497E-01    0.00000E+00
 4.00000E-01    3.13216E+01
 4.21594E-01    3.41635E+01
 4.33849E-01    3.57763E+01
 4.42664E-01    3.69364E+01
 4.58702E-01    3.90471E+01
 4.74167E-01    4.10823E+01
 5.00000E-01    4.44821E+01
 5.03478E-01    4.47239E+01
 5.31510E-01    4.66723E+01
 5.35082E-01    4.69205E+01
 5.55468E-01    4.83375E+01
 5.63467E-01    4.88935E+01
 5.81810E-01    5.01685E+01
 5.91197E-01    5.08209E+01
 5.97677E-01    5.12713E+01
 6.00000E-01    5.14328E+01
 6.16594E-01    5.19014E+01
 6.18093E-01    5.19437E+01
 6.56097E-01    5.30168E+01
 6.68121E-01    5.33563E+01
 6.92340E-01    5.40402E+01
 6.99303E-01    5.42368E+01
 7.00000E-01    5.42565E+01
 7.14395E-01    5.39462E+01
 7.24015E-01    5.37389E+01
 7.50618E-01    5.31654E+01
 8.00000E-01    5.21010E+01
 8.00364E-01    5.20812E+01
 9.00000E-01    4.66507E+01
 1.00000E+00    4.03323E+01
 1.20000E+00    2.89612E+01
 1.40000E+00    2.03221E+01
 1.60000E+00    1.43195E+01
 1.80000E+00    1.02718E+01
 2.00000E+00    7.51992E+00
 2.20000E+00    5.59898E+00
 2.40000E+00    4.21429E+00
 2.60000E+00    3.18839E+00
 2.80000E+00    2.41623E+00
 3.00000E+00    1.83002E+00
 3.20000E+00    1.38319E+00
 3.40000E+00    1.04411E+00
 3.60000E+00    7.88042E-01
 3.80000E+00    5.96049E-01
 4.00000E+00    4.52879E-01
 4.20000E+00    3.46645E-01
 4.40000E+00    2.68484E-01
 4.60000E+00    2.11397E-01
 4.80000E+00    1.69814E-01
 5.00000E+00    1.39723E-01
 5.20000E+00    1.18169E-01
 5.40000E+00    1.02787E-01
 5.60000E+00    9.18648E-02
 5.80000E+00    8.42026E-02
 6.00000E+00    7.86733E-02
 6.20000E+00    7.48351E-02
 6.40000E+00    7.21168E-02
 6.60000E+00    7.01370E-02
 6.80000E+00    6.86681E-02
 7.00000E+00    6.75138E-02
 7.20000E+00    6.65692E-02
 7.40000E+00    6.57606E-02
 7.60000E+00    6.50452E-02
 7.80000E+00    6.44036E-02
 8.00000E+00    6.38197E-02
 8.50000E+00    6.25927E-02
 9.00000E+00    6.16791E-02
 9.50000E+00    6.10468E-02
 1.00000E+01    6.06302E-02
 1.05000E+01    6.03415E-02
 1.10000E+01    6.00877E-02
 1.15000E+01    5.97905E-02
 1.20000E+01    5.93948E-02
 1.25000E+01    5.88726E-02
 1.30000E+01    5.82203E-02
 1.35000E+01    5.74528E-02
 1.40000E+01    5.65956E-02
 1.45000E+01    5.56785E-02
 1.50000E+01    5.47300E-02
 1.60000E+01    5.28311E-02
 1.70000E+01    5.10212E-02
 1.80000E+01    4.93387E-02
 1.90000E+01    4.77759E-02
 2.00000E+01    4.63104E-02
 2.10000E+01    4.49136E-02
 2.20000E+01    4.35564E-02
 2.30000E+01    4.22202E-02
 2.40000E+01    4.09062E-02
 2.50000E+01    3.96315E-02
 2.60000E+01    3.84161E-02
 2.70000E+01    3.72742E-02
 2.80000E+01    3.62084E-02
 2.90000E+01    3.52129E-02
 3.00000E+01    3.42756E-02
