# n + Ho163 : (n,n'15)  
# jeff3.3    A.J. Koning and D. Rochman        EVAL-DEC15
# uncertainties: n
# # energies =    85
#   E(MeV)       xs(mb) 
 5.35082E-01    0.00000E+00
 5.55468E-01    6.06403E-01
 5.63467E-01    8.44341E-01
 5.81810E-01    1.38997E+00
 5.91197E-01    1.66920E+00
 5.97677E-01    1.86195E+00
 6.00000E-01    1.93105E+00
 6.16594E-01    3.20803E+00
 6.18093E-01    3.32338E+00
 6.56097E-01    6.24794E+00
 6.68121E-01    7.17324E+00
 6.92340E-01    9.03699E+00
 6.99303E-01    9.57282E+00
 7.00000E-01    9.62646E+00
 7.14395E-01    1.13127E+01
 7.24015E-01    1.24396E+01
 7.50618E-01    1.55560E+01
 8.00000E-01    2.13407E+01
 8.00364E-01    2.13723E+01
 9.00000E-01    3.00120E+01
 1.00000E+00    3.35410E+01
 1.20000E+00    3.00303E+01
 1.40000E+00    2.21918E+01
 1.60000E+00    1.55403E+01
 1.80000E+00    1.08905E+01
 2.00000E+00    7.75877E+00
 2.20000E+00    5.61880E+00
 2.40000E+00    4.11656E+00
 2.60000E+00    3.03728E+00
 2.80000E+00    2.25274E+00
 3.00000E+00    1.67951E+00
 3.20000E+00    1.25981E+00
 3.40000E+00    9.54101E-01
 3.60000E+00    7.32324E-01
 3.80000E+00    5.72258E-01
 4.00000E+00    4.56972E-01
 4.20000E+00    3.74033E-01
 4.40000E+00    3.14683E-01
 4.60000E+00    2.72455E-01
 4.80000E+00    2.42542E-01
 5.00000E+00    2.21614E-01
 5.20000E+00    2.07337E-01
 5.40000E+00    1.97907E-01
 5.60000E+00    1.92011E-01
 5.80000E+00    1.88683E-01
 6.00000E+00    1.86988E-01
 6.20000E+00    1.86490E-01
 6.40000E+00    1.86616E-01
 6.60000E+00    1.86962E-01
 6.80000E+00    1.87241E-01
 7.00000E+00    1.87236E-01
 7.20000E+00    1.86837E-01
 7.40000E+00    1.85974E-01
 7.60000E+00    1.84646E-01
 7.80000E+00    1.82882E-01
 8.00000E+00    1.80731E-01
 8.50000E+00    1.74085E-01
 9.00000E+00    1.66461E-01
 9.50000E+00    1.58731E-01
 1.00000E+01    1.51460E-01
 1.05000E+01    1.44913E-01
 1.10000E+01    1.39111E-01
 1.15000E+01    1.33947E-01
 1.20000E+01    1.29263E-01
 1.25000E+01    1.24924E-01
 1.30000E+01    1.20842E-01
 1.35000E+01    1.16978E-01
 1.40000E+01    1.13323E-01
 1.45000E+01    1.09894E-01
 1.50000E+01    1.06702E-01
 1.60000E+01    1.01092E-01
 1.70000E+01    9.65178E-02
 1.80000E+01    9.28515E-02
 1.90000E+01    8.98602E-02
 2.00000E+01    8.73049E-02
 2.10000E+01    8.49874E-02
 2.20000E+01    8.27478E-02
 2.30000E+01    8.04800E-02
 2.40000E+01    7.81748E-02
 2.50000E+01    7.59141E-02
 2.60000E+01    7.38060E-02
 2.70000E+01    7.19257E-02
 2.80000E+01    7.02856E-02
 2.90000E+01    6.88427E-02
 3.00000E+01    6.75145E-02
