# n + Ho163 : (n,el)    
# jeff3.3    A.J. Koning and D. Rochman        EVAL-DEC15
# uncertainties: y
# # energies =    69
#   E(MeV)       xs(mb)       xslow(mb)      xsupp(mb)
 1.00000E-10    8.40082E+03    8.40082E+03    8.40082E+03
 5.00000E-09    7.14980E+03    7.14980E+03    7.14980E+03
 1.00000E-08    7.11238E+03    7.11238E+03    7.11238E+03
 1.50000E-08    7.09580E+03    7.09580E+03    7.09580E+03
 2.00000E-08    7.08514E+03    7.08514E+03    7.08514E+03
 2.50000E-08    7.07776E+03    7.07776E+03    7.07776E+03
 3.00000E-08    7.07178E+03    7.07178E+03    7.07178E+03
 3.50000E-08    7.06515E+03    7.06515E+03    7.06515E+03
 4.20000E-08    7.05864E+03    7.05864E+03    7.05864E+03
 5.00000E-08    7.05185E+03    7.05185E+03    7.05185E+03
 5.80000E-08    7.04501E+03    7.04501E+03    7.04501E+03
 6.70000E-08    7.03754E+03    7.03754E+03    7.03754E+03
 8.00000E-08    7.02650E+03    7.02650E+03    7.02650E+03
 1.00000E-07    7.00734E+03    7.00734E+03    7.00734E+03
 1.40000E-07    6.98284E+03    6.98284E+03    6.98284E+03
 1.80000E-07    6.95858E+03    6.95858E+03    6.95858E+03
 2.20000E-07    6.93722E+03    6.93722E+03    6.93722E+03
 2.50000E-07    6.91906E+03    6.91906E+03    6.91906E+03
 2.80000E-07    6.90373E+03    6.90373E+03    6.90373E+03
 3.00000E-07    6.89153E+03    6.89153E+03    6.89153E+03
 3.20000E-07    6.87635E+03    6.87635E+03    6.87635E+03
 3.50000E-07    6.85216E+03    6.85216E+03    6.85216E+03
 4.00000E-07    6.80514E+03    6.80514E+03    6.80514E+03
 5.00000E-07    6.72599E+03    6.72599E+03    6.72599E+03
 6.25000E-07    6.60271E+03    6.60271E+03    6.60271E+03
 7.80000E-07    6.46435E+03    6.46435E+03    6.46435E+03
 8.50000E-07    6.35340E+03    6.35340E+03    6.35340E+03
 9.10000E-07    6.24214E+03    6.24214E+03    6.24214E+03
 9.50000E-07    6.15658E+03    6.15658E+03    6.15658E+03
 9.72000E-07    6.08180E+03    6.08180E+03    6.08180E+03
 9.96000E-07    5.99204E+03    5.99204E+03    5.99204E+03
 1.02000E-06    5.88643E+03    5.88643E+03    5.88643E+03
 1.04500E-06    5.76390E+03    5.76390E+03    5.76390E+03
 1.07100E-06    5.64067E+03    5.64067E+03    5.64067E+03
 1.09700E-06    5.58024E+03    5.58024E+03    5.58024E+03
 1.12300E-06    5.77114E+03    5.77114E+03    5.77114E+03
 1.15000E-06    8.29552E+03    8.29552E+03    8.29552E+03
 1.30000E-06    7.93800E+03    7.93800E+03    7.93800E+03
 1.50000E-06    7.19143E+03    7.19143E+03    7.19143E+03
 2.10000E-06    6.90473E+03    6.90473E+03    6.90473E+03
 2.60000E-06    6.73860E+03    6.73860E+03    6.73860E+03
 3.30000E-06    6.53599E+03    6.53599E+03    6.53599E+03
 4.00000E-06    6.93413E+03    6.93413E+03    6.93413E+03
 9.87700E-06    6.66707E+03    6.66707E+03    6.66707E+03
 1.59680E-05    6.91626E+03    6.91626E+03    6.91626E+03
 2.77000E-05    6.75419E+03    6.75419E+03    6.75419E+03
 4.80520E-05    6.86174E+03    6.86174E+03    6.86174E+03
 7.55014E-05    6.96324E+03    6.96324E+03    6.96324E+03
 1.48728E-04    6.94887E+03    6.94887E+03    6.94887E+03
 3.67262E-04    5.48784E+04    2.19774E+04    8.77795E+04
 9.06898E-04    8.80162E+04    3.52481E+04    1.40784E+05
 1.42510E-03    7.61829E+04    3.05092E+04    1.21857E+05
 2.23945E-03    6.47958E+04    3.01163E+04    9.94752E+04
 3.51910E-03    5.57214E+04    2.58987E+04    8.55442E+04
 5.53000E-03    4.56986E+04    2.12401E+04    7.01570E+04
 9.11800E-03    3.73716E+04    2.21533E+04    5.25899E+04
 1.50300E-02    2.97522E+04    1.76367E+04    4.18678E+04
 2.47800E-02    2.31863E+04    1.37445E+04    3.26282E+04
 4.08500E-02    1.77859E+04    1.13927E+04    2.41791E+04
 6.73400E-02    1.30361E+04    8.35018E+03    1.77219E+04
 1.11000E-01    9.44309E+03    6.04872E+03    1.28375E+04
 1.83000E-01    6.44485E+03    4.12822E+03    8.76149E+03
 3.02000E-01    4.98930E+03    4.32563E+03    5.65298E+03
 5.00000E-01    4.36541E+03    3.78473E+03    4.94609E+03
 8.21000E-01    4.46492E+03    3.89236E+03    5.03749E+03
 1.35300E+00    4.94443E+03    4.16946E+03    5.71940E+03
 2.23100E+00    4.66224E+03    4.09206E+03    5.23242E+03
 3.67900E+00    3.27063E+03    2.70210E+03    3.83915E+03
 6.06500E+00    2.25769E+03    1.84028E+03    2.67510E+03
