# n + Ho163 : (n,n'14)  
# jeff3.3    A.J. Koning and D. Rochman        EVAL-DEC15
# uncertainties: n
# # energies =    86
#   E(MeV)       xs(mb) 
 5.31510E-01    0.00000E+00
 5.35082E-01    2.03793E+00
 5.55468E-01    1.36688E+01
 5.63467E-01    1.82324E+01
 5.81810E-01    2.86977E+01
 5.91197E-01    3.40532E+01
 5.97677E-01    3.77502E+01
 6.00000E-01    3.90756E+01
 6.16594E-01    4.02454E+01
 6.18093E-01    4.03511E+01
 6.56097E-01    4.30302E+01
 6.68121E-01    4.38778E+01
 6.92340E-01    4.55852E+01
 6.99303E-01    4.60761E+01
 7.00000E-01    4.61252E+01
 7.14395E-01    4.63963E+01
 7.24015E-01    4.65775E+01
 7.50618E-01    4.70786E+01
 8.00000E-01    4.80088E+01
 8.00364E-01    4.80013E+01
 9.00000E-01    4.59357E+01
 1.00000E+00    4.21182E+01
 1.20000E+00    3.28947E+01
 1.40000E+00    2.41086E+01
 1.60000E+00    1.72645E+01
 1.80000E+00    1.23977E+01
 2.00000E+00    9.02274E+00
 2.20000E+00    6.66458E+00
 2.40000E+00    4.98088E+00
 2.60000E+00    3.75021E+00
 2.80000E+00    2.83578E+00
 3.00000E+00    2.14836E+00
 3.20000E+00    1.62763E+00
 3.40000E+00    1.23382E+00
 3.60000E+00    9.36813E-01
 3.80000E+00    7.14103E-01
 4.00000E+00    5.47789E-01
 4.20000E+00    4.24038E-01
 4.40000E+00    3.32609E-01
 4.60000E+00    2.65437E-01
 4.80000E+00    2.16219E-01
 5.00000E+00    1.80342E-01
 5.20000E+00    1.54477E-01
 5.40000E+00    1.35978E-01
 5.60000E+00    1.22905E-01
 5.80000E+00    1.13863E-01
 6.00000E+00    1.07546E-01
 6.20000E+00    1.03383E-01
 6.40000E+00    1.00631E-01
 6.60000E+00    9.87841E-02
 6.80000E+00    9.74893E-02
 7.00000E+00    9.64610E-02
 7.20000E+00    9.55300E-02
 7.40000E+00    9.45757E-02
 7.60000E+00    9.35351E-02
 7.80000E+00    9.23836E-02
 8.00000E+00    9.11109E-02
 8.50000E+00    8.74975E-02
 9.00000E+00    8.35473E-02
 9.50000E+00    7.96129E-02
 1.00000E+01    7.59406E-02
 1.05000E+01    7.26451E-02
 1.10000E+01    6.97306E-02
 1.15000E+01    6.71386E-02
 1.20000E+01    6.47891E-02
 1.25000E+01    6.26131E-02
 1.30000E+01    6.05661E-02
 1.35000E+01    5.86284E-02
 1.40000E+01    5.67967E-02
 1.45000E+01    5.50774E-02
 1.50000E+01    5.34775E-02
 1.60000E+01    5.06655E-02
 1.70000E+01    4.83732E-02
 1.80000E+01    4.65359E-02
 1.90000E+01    4.50368E-02
 2.00000E+01    4.37560E-02
 2.10000E+01    4.25943E-02
 2.20000E+01    4.14715E-02
 2.30000E+01    4.03346E-02
 2.40000E+01    3.91790E-02
 2.50000E+01    3.80459E-02
 2.60000E+01    3.69893E-02
 2.70000E+01    3.60470E-02
 2.80000E+01    3.52251E-02
 2.90000E+01    3.45020E-02
 3.00000E+01    3.38363E-02
