# n + Ho163 : (n,n'13)  
# jeff3.3    A.J. Koning and D. Rochman        EVAL-DEC15
# uncertainties: n
# # energies =    87
#   E(MeV)       xs(mb) 
 5.03478E-01    0.00000E+00
 5.31510E-01    5.35998E+01
 5.35082E-01    6.04297E+01
 5.55468E-01    9.94097E+01
 5.63467E-01    1.14705E+02
 5.81810E-01    1.49778E+02
 5.91197E-01    1.67727E+02
 5.97677E-01    1.80117E+02
 6.00000E-01    1.84559E+02
 6.16594E-01    1.82015E+02
 6.18093E-01    1.81785E+02
 6.56097E-01    1.75959E+02
 6.68121E-01    1.74116E+02
 6.92340E-01    1.70403E+02
 6.99303E-01    1.69336E+02
 7.00000E-01    1.69229E+02
 7.14395E-01    1.68483E+02
 7.24015E-01    1.67985E+02
 7.50618E-01    1.66607E+02
 8.00000E-01    1.64050E+02
 8.00364E-01    1.64019E+02
 9.00000E-01    1.55536E+02
 1.00000E+00    1.39432E+02
 1.20000E+00    9.86108E+01
 1.40000E+00    6.28054E+01
 1.60000E+00    3.88926E+01
 1.80000E+00    2.44409E+01
 2.00000E+00    1.58265E+01
 2.20000E+00    1.05699E+01
 2.40000E+00    7.24072E+00
 2.60000E+00    5.05128E+00
 2.80000E+00    3.56938E+00
 3.00000E+00    2.54442E+00
 3.20000E+00    1.82445E+00
 3.40000E+00    1.31569E+00
 3.60000E+00    9.54754E-01
 3.80000E+00    6.98495E-01
 4.00000E+00    5.16224E-01
 4.20000E+00    3.86354E-01
 4.40000E+00    2.93997E-01
 4.60000E+00    2.28379E-01
 4.80000E+00    1.81689E-01
 5.00000E+00    1.48496E-01
 5.20000E+00    1.25058E-01
 5.40000E+00    1.08548E-01
 5.60000E+00    9.69902E-02
 5.80000E+00    8.90169E-02
 6.00000E+00    8.34206E-02
 6.20000E+00    7.96708E-02
 6.40000E+00    7.71338E-02
 6.60000E+00    7.53807E-02
 6.80000E+00    7.41199E-02
 7.00000E+00    7.31181E-02
 7.20000E+00    7.22354E-02
 7.40000E+00    7.13726E-02
 7.60000E+00    7.04750E-02
 7.80000E+00    6.95186E-02
 8.00000E+00    6.84906E-02
 8.50000E+00    6.56592E-02
 9.00000E+00    6.26331E-02
 9.50000E+00    5.96514E-02
 1.00000E+01    5.68842E-02
 1.05000E+01    5.44083E-02
 1.10000E+01    5.22220E-02
 1.15000E+01    5.02783E-02
 1.20000E+01    4.85160E-02
 1.25000E+01    4.68832E-02
 1.30000E+01    4.53472E-02
 1.35000E+01    4.38935E-02
 1.40000E+01    4.25197E-02
 1.45000E+01    4.12307E-02
 1.50000E+01    4.00321E-02
 1.60000E+01    3.79265E-02
 1.70000E+01    3.62114E-02
 1.80000E+01    3.48370E-02
 1.90000E+01    3.37150E-02
 2.00000E+01    3.27557E-02
 2.10000E+01    3.18850E-02
 2.20000E+01    3.10428E-02
 2.30000E+01    3.01898E-02
 2.40000E+01    2.93231E-02
 2.50000E+01    2.84739E-02
 2.60000E+01    2.76830E-02
 2.70000E+01    2.69781E-02
 2.80000E+01    2.63635E-02
 2.90000E+01    2.58225E-02
 3.00000E+01    2.53241E-02
