# n + Xe131 : (n,np)m   
# jendl.ad   kunieda                           EVAL-Mar14
# uncertainties: n
# # energies =    22
#   E(MeV)       xs(mb) 
 8.87965E+00    0.00000E+00
 1.00000E+01    1.26820E-13
 1.05000E+01    1.00690E-09
 1.10000E+01    4.07770E-07
 1.15000E+01    7.94078E-06
 1.20000E+01    1.33337E-04
 1.25000E+01    1.19735E-03
 1.30000E+01    3.61334E-03
 1.35000E+01    1.47420E-02
 1.40000E+01    3.93291E-02
 1.45000E+01    8.10765E-02
 1.50000E+01    1.55560E-01
 1.55000E+01    2.78539E-01
 1.60000E+01    4.66763E-01
 1.65000E+01    7.35671E-01
 1.70000E+01    1.09940E+00
 1.75000E+01    1.57419E+00
 1.80000E+01    2.18598E+00
 1.85000E+01    2.75997E+00
 1.90000E+01    3.16341E+00
 1.95000E+01    4.10630E+00
 2.00000E+01    4.96986E+00
