# n + Xe131 : (n,na)g   
# jendl.ad   kunieda                           EVAL-Mar14
# uncertainties: n
# # energies =    24
#   E(MeV)       xs(mb) 
 2.57875E+00    0.00000E+00
 2.66769E+00    4.62280E-12
 9.50000E+00    3.59740E-10
 1.00000E+01    2.30490E-08
 1.05000E+01    3.01160E-07
 1.10000E+01    2.87038E-06
 1.15000E+01    2.23288E-05
 1.20000E+01    1.52535E-04
 1.25000E+01    6.54885E-04
 1.30000E+01    1.72387E-03
 1.35000E+01    3.26785E-03
 1.40000E+01    7.09085E-03
 1.45000E+01    1.20329E-02
 1.50000E+01    2.53515E-02
 1.55000E+01    4.13128E-02
 1.60000E+01    8.28556E-02
 1.65000E+01    1.26760E-01
 1.70000E+01    2.24102E-01
 1.75000E+01    3.15276E-01
 1.80000E+01    4.09143E-01
 1.85000E+01    6.16085E-01
 1.90000E+01    7.51399E-01
 1.95000E+01    8.83091E-01
 2.00000E+01    1.15671E+00
