# n + Xe131 : (n,np)    
# jendl.ad   kunieda                           EVAL-Mar14
# uncertainties: n
# # energies =    23
#   E(MeV)       xs(mb) 
 8.83939E+00    0.00000E+00
 8.87965E+00    1.33680E-14
 1.00000E+01    5.12180E-13
 1.05000E+01    1.49580E-08
 1.10000E+01    2.12090E-06
 1.15000E+01    5.41345E-05
 1.20000E+01    5.33567E-04
 1.25000E+01    4.59757E-03
 1.30000E+01    1.60393E-02
 1.35000E+01    5.86976E-02
 1.40000E+01    1.52619E-01
 1.45000E+01    3.17959E-01
 1.50000E+01    6.53140E-01
 1.55000E+01    1.18941E+00
 1.60000E+01    1.95625E+00
 1.65000E+01    2.89865E+00
 1.70000E+01    4.26594E+00
 1.75000E+01    6.05091E+00
 1.80000E+01    8.24744E+00
 1.85000E+01    1.03830E+01
 1.90000E+01    1.22888E+01
 1.95000E+01    1.56806E+01
 2.00000E+01    1.88287E+01
