# n + Xe131 : (n,n')n   
# jendl.ad   kunieda                           EVAL-Mar14
# uncertainties: n
# # energies =    62
#   E(MeV)       xs(mb) 
 1.65193E-01    0.00000E+00
 2.00000E-01    4.94623E+00
 3.00000E-01    1.75731E+01
 3.43774E-01    2.38638E+01
 3.67298E-01    3.70666E+01
 4.00000E-01    4.82109E+01
 4.07934E-01    5.09626E+01
 5.00000E-01    7.95588E+01
 5.69545E-01    9.98380E+01
 6.00000E-01    1.08451E+02
 6.41899E-01    1.20081E+02
 6.72073E-01    1.18215E+02
 7.00000E-01    1.44991E+02
 7.05293E-01    1.48114E+02
 7.28479E-01    1.60129E+02
 8.00000E-01    1.84488E+02
 8.12140E-01    1.88393E+02
 9.00000E-01    2.14093E+02
 1.00000E+00    2.41044E+02
 1.20000E+00    2.93382E+02
 1.40000E+00    3.42550E+02
 1.60000E+00    3.89589E+02
 1.80000E+00    4.35773E+02
 2.00000E+00    4.82560E+02
 2.20000E+00    5.31297E+02
 2.40000E+00    5.83187E+02
 2.70000E+00    6.68593E+02
 3.00000E+00    7.66309E+02
 3.50000E+00    9.22922E+02
 4.00000E+00    1.04339E+03
 4.50000E+00    1.11274E+03
 5.00000E+00    1.14338E+03
 5.50000E+00    1.15353E+03
 6.00000E+00    1.15298E+03
 6.50000E+00    1.15792E+03
 7.00000E+00    1.16266E+03
 7.50000E+00    1.15103E+03
 8.00000E+00    1.08416E+03
 8.50000E+00    9.58624E+02
 9.00000E+00    8.16484E+02
 9.50000E+00    6.63937E+02
 1.00000E+01    5.30639E+02
 1.05000E+01    4.18653E+02
 1.10000E+01    3.33207E+02
 1.15000E+01    2.68261E+02
 1.20000E+01    2.26506E+02
 1.25000E+01    1.87306E+02
 1.30000E+01    1.63537E+02
 1.35000E+01    1.41836E+02
 1.40000E+01    1.28354E+02
 1.45000E+01    1.18392E+02
 1.50000E+01    1.09874E+02
 1.55000E+01    1.03573E+02
 1.60000E+01    9.82741E+01
 1.65000E+01    9.43178E+01
 1.70000E+01    8.90840E+01
 1.75000E+01    8.64409E+01
 1.80000E+01    8.36948E+01
 1.85000E+01    7.90874E+01
 1.90000E+01    7.77812E+01
 1.95000E+01    7.40171E+01
 2.00000E+01    7.11189E+01
