# n + Br 79 : (n,p)m    
# jendl.ad   K.Shibata, A.Ichihara, S.Kunieda  EVAL-APR13
# uncertainties: n
# # energies =    75
#   E(MeV)       xs(mb) 
 1.00000E-11    0.00000E+00
 5.00000E-01    0.00000E+00
 5.00000E-01    1.42193E-01
 5.32848E-01    1.55246E-01
 5.64883E-01    1.67223E-01
 6.06686E-01    1.81869E-01
 6.45793E-01    1.94684E-01
 6.99697E-01    2.11130E-01
 7.65037E-01    2.29445E-01
 8.38816E-01    2.48333E-01
 9.27440E-01    2.68937E-01
 1.00000E+00    2.84390E-01
 1.05199E+00    2.98296E-01
 1.14956E+00    3.22627E-01
 1.22863E+00    3.40877E-01
 1.35755E+00    3.68251E-01
 1.50000E+00    3.95626E-01
 1.61186E+00    4.33752E-01
 1.70119E+00    4.62348E-01
 1.84455E+00    5.05241E-01
 2.00000E+00    5.48134E-01
 2.11474E+00    6.00238E-01
 2.27539E+00    6.68626E-01
 2.42277E+00    7.27243E-01
 2.50000E+00    7.56552E-01
 2.66170E+00    8.53934E-01
 2.85004E+00    9.60170E-01
 3.00000E+00    1.03985E+00
 3.11787E+00    1.13532E+00
 3.30341E+00    1.27853E+00
 3.50000E+00    1.42174E+00
 3.61881E+00    1.55307E+00
 3.80464E+00    1.75007E+00
 4.00000E+00    1.94707E+00
 4.21152E+00    2.24066E+00
 4.40171E+00    2.49230E+00
 4.50000E+00    2.61814E+00
 4.71228E+00    2.99573E+00
 4.90219E+00    3.31934E+00
 5.00000E+00    3.48118E+00
 5.24404E+00    4.02257E+00
 5.50000E+00    4.56396E+00
 5.74456E+00    5.22170E+00
 6.00000E+00    5.87942E+00
 6.37122E+00    6.78535E+00
 6.50000E+00    7.08734E+00
 6.74537E+00    8.01019E+00
 7.00000E+00    8.93304E+00
 7.37175E+00    1.03147E+01
 7.87196E+00    1.21283E+01
 8.00000E+00    1.25794E+01
 8.50000E+00    1.42195E+01
 9.00000E+00    1.55506E+01
 9.50000E+00    1.64395E+01
 1.00000E+01    1.67902E+01
 1.05000E+01    1.65946E+01
 1.10000E+01    1.59077E+01
 1.15000E+01    1.48493E+01
 1.20000E+01    1.35646E+01
 1.27476E+01    1.15171E+01
 1.30000E+01    1.08420E+01
 1.35000E+01    9.58920E+00
 1.40000E+01    8.47536E+00
 1.45000E+01    7.51680E+00
 1.50000E+01    6.71052E+00
 1.55000E+01    6.04313E+00
 1.60000E+01    5.49590E+00
 1.65000E+01    5.04809E+00
 1.70000E+01    4.67923E+00
 1.75000E+01    4.37158E+00
 1.80000E+01    4.11096E+00
 1.85000E+01    3.88495E+00
 1.90000E+01    3.68539E+00
 1.95000E+01    3.50592E+00
 2.00000E+01    3.34274E+00
