# n + Br 79 : (n,p)     
# jendl.ad   K.Shibata, A.Ichihara, S.Kunieda  EVAL-APR13
# uncertainties: n
# # energies =    74
#   E(MeV)       xs(mb) 
 5.00000E-01    0.00000E+00
 5.00000E-01    5.92470E-01
 5.32848E-01    6.46859E-01
 5.64883E-01    6.96763E-01
 6.06686E-01    7.57788E-01
 6.45793E-01    8.11184E-01
 6.99697E-01    8.79710E-01
 7.65037E-01    9.56022E-01
 8.38816E-01    1.03472E+00
 9.27440E-01    1.12057E+00
 1.00000E+00    1.18496E+00
 1.05199E+00    1.24290E+00
 1.14956E+00    1.34428E+00
 1.22863E+00    1.42032E+00
 1.35755E+00    1.53438E+00
 1.50000E+00    1.64844E+00
 1.61186E+00    1.80730E+00
 1.70119E+00    1.92645E+00
 1.84455E+00    2.10517E+00
 2.00000E+00    2.28389E+00
 2.11474E+00    2.50099E+00
 2.27539E+00    2.78594E+00
 2.42277E+00    3.03018E+00
 2.50000E+00    3.15230E+00
 2.66170E+00    3.55806E+00
 2.85004E+00    4.00071E+00
 3.00000E+00    4.33270E+00
 3.11787E+00    4.73050E+00
 3.30341E+00    5.32720E+00
 3.50000E+00    5.92390E+00
 3.61881E+00    6.47113E+00
 3.80464E+00    7.29196E+00
 4.00000E+00    8.11280E+00
 4.21152E+00    9.33609E+00
 4.40171E+00    1.03846E+01
 4.50000E+00    1.09089E+01
 4.71228E+00    1.24822E+01
 4.90219E+00    1.38306E+01
 5.00000E+00    1.45049E+01
 5.24404E+00    1.67607E+01
 5.50000E+00    1.90165E+01
 5.74456E+00    2.17571E+01
 6.00000E+00    2.44976E+01
 6.37122E+00    2.82723E+01
 6.50000E+00    2.95306E+01
 6.74537E+00    3.33758E+01
 7.00000E+00    3.72210E+01
 7.37175E+00    4.29780E+01
 7.87196E+00    5.05347E+01
 8.00000E+00    5.24140E+01
 8.50000E+00    5.92480E+01
 9.00000E+00    6.47940E+01
 9.50000E+00    6.84980E+01
 1.00000E+01    6.99590E+01
 1.05000E+01    6.91440E+01
 1.10000E+01    6.62820E+01
 1.15000E+01    6.18720E+01
 1.20000E+01    5.65190E+01
 1.27476E+01    4.79880E+01
 1.30000E+01    4.51750E+01
 1.35000E+01    3.99550E+01
 1.40000E+01    3.53140E+01
 1.45000E+01    3.13200E+01
 1.50000E+01    2.79605E+01
 1.55000E+01    2.51797E+01
 1.60000E+01    2.28996E+01
 1.65000E+01    2.10337E+01
 1.70000E+01    1.94968E+01
 1.75000E+01    1.82149E+01
 1.80000E+01    1.71290E+01
 1.85000E+01    1.61873E+01
 1.90000E+01    1.53558E+01
 1.95000E+01    1.46080E+01
 2.00000E+01    1.39281E+01
