# n + Ga 69 : (n,n'12)  
# jeff3.3    A.J. Koning and D. Rochman        EVAL-DEC15
# uncertainties: n
# # energies =    79
#   E(MeV)       xs(mb) 
 1.91931E+00    0.00000E+00
 1.95239E+00    7.20774E+00
 2.00000E+00    1.75814E+01
 2.00125E+00    1.76991E+01
 2.01950E+00    1.94170E+01
 2.03703E+00    2.10671E+01
 2.05346E+00    2.26137E+01
 2.07515E+00    2.46554E+01
 2.20000E+00    3.64077E+01
 2.23017E+00    3.79808E+01
 2.25175E+00    3.91060E+01
 2.28392E+00    4.07834E+01
 2.35348E+00    4.44103E+01
 2.38773E+00    4.61961E+01
 2.40000E+00    4.68359E+01
 2.45878E+00    4.79364E+01
 2.46422E+00    4.80383E+01
 2.49481E+00    4.86110E+01
 2.52208E+00    4.91216E+01
 2.56682E+00    4.99593E+01
 2.60000E+00    5.05805E+01
 2.60193E+00    5.05671E+01
 2.61019E+00    5.05097E+01
 2.80000E+00    4.91907E+01
 3.00000E+00    4.50002E+01
 3.20000E+00    3.96424E+01
 3.40000E+00    3.42181E+01
 3.60000E+00    2.91604E+01
 3.80000E+00    2.46828E+01
 4.00000E+00    2.08252E+01
 4.20000E+00    1.75441E+01
 4.40000E+00    1.47649E+01
 4.60000E+00    1.24102E+01
 4.80000E+00    1.04144E+01
 5.00000E+00    8.71607E+00
 5.20000E+00    7.27483E+00
 5.40000E+00    6.05617E+00
 5.60000E+00    5.03054E+00
 5.80000E+00    4.17251E+00
 6.00000E+00    3.45867E+00
 6.20000E+00    2.86757E+00
 6.40000E+00    2.38069E+00
 6.60000E+00    1.98094E+00
 6.80000E+00    1.65445E+00
 7.00000E+00    1.38557E+00
 7.20000E+00    1.16712E+00
 7.40000E+00    9.86695E-01
 7.60000E+00    8.40547E-01
 7.80000E+00    7.19078E-01
 8.00000E+00    6.19379E-01
 8.50000E+00    4.41780E-01
 9.00000E+00    3.31374E-01
 9.50000E+00    2.61291E-01
 1.00000E+01    2.15757E-01
 1.05000E+01    1.85430E-01
 1.10000E+01    1.64653E-01
 1.15000E+01    1.49951E-01
 1.20000E+01    1.39200E-01
 1.25000E+01    1.31071E-01
 1.30000E+01    1.24725E-01
 1.35000E+01    1.19623E-01
 1.40000E+01    1.15414E-01
 1.45000E+01    1.11869E-01
 1.50000E+01    1.08818E-01
 1.60000E+01    1.03724E-01
 1.70000E+01    9.94101E-02
 1.80000E+01    9.54711E-02
 1.90000E+01    9.17568E-02
 2.00000E+01    8.82743E-02
 2.10000E+01    8.50858E-02
 2.20000E+01    8.22448E-02
 2.30000E+01    7.97654E-02
 2.40000E+01    7.76151E-02
 2.50000E+01    7.57185E-02
 2.60000E+01    7.39859E-02
 2.70000E+01    7.23344E-02
 2.80000E+01    7.07075E-02
 2.90000E+01    6.90813E-02
 3.00000E+01    6.74605E-02
