# n + Ga 69 : (n,xa)    
# jeff3.3    A.J. Koning and D. Rochman        EVAL-DEC15
# 
# # energies =   131
#   E(MeV)        xs(mb) 
 3.23354E-01    6.82208E-07
 4.00000E-01    9.96380E-07
 5.00000E-01    2.17075E-06
 5.82613E-01    3.47299E-06
 6.00000E-01    3.74897E-06
 7.00000E-01    6.94570E-06
 8.00000E-01    1.22340E-05
 8.84893E-01    2.09280E-05
 9.00000E-01    2.24751E-05
 1.00000E+00    3.85053E-05
 1.04363E+00    5.25351E-05
 1.12323E+00    7.81316E-05
 1.15060E+00    8.69327E-05
 1.20000E+00    1.02818E-04
 1.35625E+00    2.19559E-04
 1.40000E+00    2.52247E-04
 1.50992E+00    4.94557E-04
 1.54809E+00    5.78700E-04
 1.60000E+00    6.93131E-04
 1.74892E+00    1.42354E-03
 1.79060E+00    1.62797E-03
 1.80000E+00    1.67407E-03
 1.91931E+00    2.80914E-03
 1.95239E+00    3.12385E-03
 2.00000E+00    3.57680E-03
 2.00125E+00    3.59893E-03
 2.01950E+00    3.92206E-03
 2.03703E+00    4.23243E-03
 2.05346E+00    4.52333E-03
 2.07515E+00    4.90736E-03
 2.20000E+00    7.11789E-03
 2.23017E+00    8.11053E-03
 2.25175E+00    8.82054E-03
 2.28392E+00    9.87899E-03
 2.35348E+00    1.21676E-02
 2.38773E+00    1.32945E-02
 2.40000E+00    1.36982E-02
 2.45878E+00    1.70148E-02
 2.46422E+00    1.73218E-02
 2.49481E+00    1.90478E-02
 2.52208E+00    2.05864E-02
 2.56682E+00    2.31108E-02
 2.60000E+00    2.49830E-02
 2.60193E+00    2.51611E-02
 2.61019E+00    2.59231E-02
 2.80000E+00    4.34344E-02
 3.00000E+00    7.07813E-02
 3.20000E+00    1.09928E-01
 3.40000E+00    1.69119E-01
 3.60000E+00    2.46624E-01
 3.80000E+00    3.49665E-01
 4.00000E+00    4.83763E-01
 4.20000E+00    6.45827E-01
 4.40000E+00    8.57072E-01
 4.60000E+00    1.10225E+00
 4.80000E+00    1.38718E+00
 5.00000E+00    1.73398E+00
 5.20000E+00    2.10487E+00
 5.40000E+00    2.54422E+00
 5.60000E+00    3.01532E+00
 5.80000E+00    3.49661E+00
 6.00000E+00    4.08380E+00
 6.20000E+00    4.61856E+00
 6.40000E+00    5.23115E+00
 6.60000E+00    5.84375E+00
 6.80000E+00    6.37450E+00
 7.00000E+00    7.04884E+00
 7.20000E+00    7.67003E+00
 7.40000E+00    8.22368E+00
 7.60000E+00    8.98393E+00
 7.80000E+00    9.44847E+00
 8.00000E+00    1.01612E+01
 8.50000E+00    1.17595E+01
 9.00000E+00    1.34172E+01
 9.50000E+00    1.51907E+01
 1.00000E+01    1.72015E+01
 1.05000E+01    1.97494E+01
 1.10000E+01    2.27245E+01
 1.15000E+01    2.52845E+01
 1.20000E+01    2.70743E+01
 1.25000E+01    2.87981E+01
 1.30000E+01    3.02842E+01
 1.35000E+01    3.19334E+01
 1.40000E+01    3.35002E+01
 1.45000E+01    3.52131E+01
 1.50000E+01    3.68203E+01
 1.60000E+01    4.01667E+01
 1.70000E+01    4.33106E+01
 1.80000E+01    4.61507E+01
 1.90000E+01    4.91910E+01
 2.00000E+01    5.19418E+01
 2.10000E+01    5.45606E+01
 2.20000E+01    5.70650E+01
 2.30000E+01    5.93621E+01
 2.40000E+01    6.11928E+01
 2.50000E+01    6.33719E+01
 2.60000E+01    6.54349E+01
 2.70000E+01    6.74585E+01
 2.80000E+01    6.96468E+01
 2.90000E+01    7.17325E+01
 3.00000E+01    7.37657E+01
 3.00000E+01    7.38019E+01
 3.20000E+01    7.81473E+01
 3.40000E+01    8.32294E+01
 3.60000E+01    8.88458E+01
 3.80000E+01    9.40346E+01
 4.00000E+01    9.85697E+01
 4.20000E+01    1.02448E+02
 4.40000E+01    1.05416E+02
 4.60000E+01    1.08042E+02
 4.80000E+01    1.10124E+02
 5.00000E+01    1.12622E+02
 5.20000E+01    1.15515E+02
 5.40000E+01    1.18274E+02
 5.60000E+01    1.20942E+02
 5.80000E+01    1.23489E+02
 6.00000E+01    1.25521E+02
 6.50000E+01    1.30870E+02
 7.00000E+01    1.33719E+02
 7.50000E+01    1.37688E+02
 8.00000E+01    1.40135E+02
 9.00000E+01    1.41937E+02
 1.00000E+02    1.34800E+02
 1.10000E+02    1.31976E+02
 1.20000E+02    1.35740E+02
 1.30000E+02    1.45503E+02
 1.40000E+02    1.54133E+02
 1.50000E+02    1.61552E+02
 1.60000E+02    1.69519E+02
 1.80000E+02    1.93905E+02
 2.00000E+02    2.28345E+02
