# n + Ga 69 : (n,n'11)  
# jeff3.3    A.J. Koning and D. Rochman        EVAL-DEC15
# uncertainties: n
# # energies =    81
#   E(MeV)       xs(mb) 
 1.79060E+00    0.00000E+00
 1.80000E+00    3.83596E+00
 1.91931E+00    1.70953E+01
 1.95239E+00    2.07716E+01
 2.00000E+00    2.60627E+01
 2.00125E+00    2.61471E+01
 2.01950E+00    2.73798E+01
 2.03703E+00    2.85638E+01
 2.05346E+00    2.96735E+01
 2.07515E+00    3.11385E+01
 2.20000E+00    3.95712E+01
 2.23017E+00    4.08392E+01
 2.25175E+00    4.17462E+01
 2.28392E+00    4.30983E+01
 2.35348E+00    4.60218E+01
 2.38773E+00    4.74613E+01
 2.40000E+00    4.79770E+01
 2.45878E+00    4.92984E+01
 2.46422E+00    4.94207E+01
 2.49481E+00    5.01084E+01
 2.52208E+00    5.07214E+01
 2.56682E+00    5.17272E+01
 2.60000E+00    5.24731E+01
 2.60193E+00    5.24664E+01
 2.61019E+00    5.24376E+01
 2.80000E+00    5.17755E+01
 3.00000E+00    4.86055E+01
 3.20000E+00    4.38596E+01
 3.40000E+00    3.86401E+01
 3.60000E+00    3.34893E+01
 3.80000E+00    2.87346E+01
 4.00000E+00    2.45028E+01
 4.20000E+00    2.08096E+01
 4.40000E+00    1.76168E+01
 4.60000E+00    1.48691E+01
 4.80000E+00    1.25144E+01
 5.00000E+00    1.04950E+01
 5.20000E+00    8.77327E+00
 5.40000E+00    7.31363E+00
 5.60000E+00    6.08327E+00
 5.80000E+00    5.05276E+00
 6.00000E+00    4.19460E+00
 6.20000E+00    3.48269E+00
 6.40000E+00    2.89499E+00
 6.60000E+00    2.41156E+00
 6.80000E+00    2.01472E+00
 7.00000E+00    1.68736E+00
 7.20000E+00    1.41969E+00
 7.40000E+00    1.19735E+00
 7.60000E+00    1.01679E+00
 7.80000E+00    8.65401E-01
 8.00000E+00    7.40579E-01
 8.50000E+00    5.15857E-01
 9.00000E+00    3.74112E-01
 9.50000E+00    2.83004E-01
 1.00000E+01    2.23288E-01
 1.05000E+01    1.83378E-01
 1.10000E+01    1.56155E-01
 1.15000E+01    1.37148E-01
 1.20000E+01    1.23572E-01
 1.25000E+01    1.13646E-01
 1.30000E+01    1.06217E-01
 1.35000E+01    1.00533E-01
 1.40000E+01    9.60849E-02
 1.45000E+01    9.25392E-02
 1.50000E+01    8.96552E-02
 1.60000E+01    8.52120E-02
 1.70000E+01    8.17987E-02
 1.80000E+01    7.88954E-02
 1.90000E+01    7.62777E-02
 2.00000E+01    7.38944E-02
 2.10000E+01    7.17647E-02
 2.20000E+01    6.99127E-02
 2.30000E+01    6.83372E-02
 2.40000E+01    6.70022E-02
 2.50000E+01    6.58400E-02
 2.60000E+01    6.47744E-02
 2.70000E+01    6.37382E-02
 2.80000E+01    6.26876E-02
 2.90000E+01    6.16062E-02
 3.00000E+01    6.04998E-02
