# n + Ba136 : (n,el)    
# jendl4.0   JNDC FP NUCLEAR DATA W.G.         EVAL-MAR90
# uncertainties: n
# # energies =   171
#   E(MeV)       xs(mb) 
 1.00000E-11    4.43693E+03
 1.00000E-07    2.75411E+03
 4.13990E-07    2.75286E+03
 5.31580E-07    2.75239E+03
 6.82560E-07    2.75182E+03
 8.76420E-07    2.75138E+03
 1.12540E-06    2.75088E+03
 1.44500E-06    2.75025E+03
 1.85540E-06    2.74944E+03
 2.37240E-06    2.74840E+03
 3.05900E-06    2.74705E+03
 3.92790E-06    2.74533E+03
 5.04350E-06    2.74311E+03
 6.47600E-06    2.74027E+03
 8.31530E-06    2.73662E+03
 1.06770E-05    2.73194E+03
 1.37100E-05    2.72592E+03
 1.76030E-05    2.71820E+03
 2.26030E-05    2.70814E+03
 2.92030E-05    2.69538E+03
 3.72670E-05    2.67958E+03
 4.78510E-05    2.66296E+03
 6.14420E-05    2.64263E+03
 7.88930E-05    2.61653E+03
 1.01300E-04    2.58758E+03
 1.30070E-04    2.55466E+03
 1.67020E-04    2.51345E+03
 2.14450E-04    2.46479E+03
 2.75360E-04    2.40121E+03
 3.53580E-04    2.27755E+03
 4.54000E-04    9.72868E+03
 5.82950E-04    2.50597E+03
 7.48520E-04    2.36653E+03
 9.61120E-04    2.26825E+03
 1.23410E-03    2.14888E+03
 1.58460E-03    2.04814E+03
 2.03470E-03    6.83956E+03
 2.24870E-03    1.23606E+04
 2.48520E-03    2.22902E+03
 2.61260E-03    2.03218E+03
 2.74650E-03    2.12703E+03
 3.03540E-03    1.11504E+03
 3.35460E-03    2.55519E+04
 3.70740E-03    2.25967E+03
 4.30740E-03    3.09529E+03
 5.53080E-03    6.92655E+03
 7.10170E-03    4.22541E+04
 9.11880E-03    7.16941E+03
 1.17090E-02    7.53849E+03
 1.50340E-02    5.82523E+03
 1.93050E-02    5.27171E+03
 2.18750E-02    4.18136E+03
 2.35790E-02    7.05028E+03
 2.41760E-02    7.32510E+03
 2.47880E-02    6.04302E+03
 2.60580E-02    3.95223E+03
 2.70000E-02    4.77032E+03
 2.85000E-02    5.06643E+03
 3.18280E-02    5.84905E+03
 3.43070E-02    4.84096E+03
 4.08680E-02    4.79960E+03
 4.63090E-02    4.75199E+03
 5.24750E-02    4.71472E+03
 5.65620E-02    4.67167E+03
 6.73790E-02    4.63136E+03
 7.20000E-02    4.60439E+03
 7.95000E-02    4.58322E+03
 8.25000E-02    4.56956E+03
 8.65170E-02    4.54376E+03
 9.80370E-02    4.54769E+03
 1.11090E-01    4.56991E+03
 1.16790E-01    4.58109E+03
 1.22770E-01    4.59208E+03
 1.29070E-01    4.60349E+03
 1.35690E-01    4.61460E+03
 1.42640E-01    4.62595E+03
 1.49960E-01    4.64404E+03
 1.57640E-01    4.66925E+03
 1.65730E-01    4.69448E+03
 1.74220E-01    4.71970E+03
 1.83160E-01    4.74532E+03
 1.92550E-01    4.77127E+03
 2.02420E-01    4.80403E+03
 2.12800E-01    4.84085E+03
 2.23710E-01    4.87956E+03
 2.35180E-01    4.92026E+03
 2.47240E-01    4.98552E+03
 2.73240E-01    5.05528E+03
 2.87250E-01    5.09224E+03
 2.94520E-01    5.10950E+03
 2.97200E-01    5.11639E+03
 2.98500E-01    5.12463E+03
 3.01970E-01    5.18827E+03
 3.33730E-01    5.31276E+03
 3.68830E-01    5.41125E+03
 3.87740E-01    5.47332E+03
 4.07620E-01    5.57242E+03
 4.50490E-01    5.71040E+03
 4.97870E-01    5.81541E+03
 5.23400E-01    5.89009E+03
 5.50230E-01    5.96860E+03
 5.78440E-01    6.05115E+03
 6.08100E-01    6.13180E+03
 6.39280E-01    6.21050E+03
 6.72060E-01    6.29323E+03
 7.06510E-01    6.37989E+03
 7.42740E-01    6.46319E+03
 7.80820E-01    6.54737E+03
 8.20850E-01    6.59092E+03
 8.62940E-01    6.57243E+03
 9.07180E-01    6.58904E+03
 9.61640E-01    6.62285E+03
 1.00260E+00    6.66697E+03
 1.10800E+00    6.70580E+03
 1.16480E+00    6.73292E+03
 1.22460E+00    6.75351E+03
 1.28730E+00    6.74073E+03
 1.35340E+00    6.72330E+03
 1.42270E+00    6.70499E+03
 1.49570E+00    6.67610E+03
 1.57240E+00    6.58555E+03
 1.65300E+00    6.47010E+03
 1.73770E+00    6.35460E+03
 1.82680E+00    6.23184E+03
 1.92050E+00    6.08020E+03
 2.01900E+00    5.90905E+03
 2.12250E+00    5.69433E+03
 2.23130E+00    5.49970E+03
 2.30690E+00    5.37698E+03
 2.34570E+00    5.31018E+03
 2.36530E+00    5.26488E+03
 2.38520E+00    5.14996E+03
 2.46600E+00    4.93094E+03
 2.59240E+00    4.67918E+03
 2.72530E+00    4.44050E+03
 2.86500E+00    4.21264E+03
 3.01190E+00    3.98732E+03
 3.16640E+00    3.76246E+03
 3.32870E+00    3.45108E+03
 3.67880E+00    3.07408E+03
 4.06570E+00    2.77607E+03
 4.49330E+00    2.58538E+03
 4.72370E+00    2.46538E+03
 4.96590E+00    2.37187E+03
 5.22050E+00    2.31461E+03
 5.48810E+00    2.25817E+03
 5.76950E+00    2.20478E+03
 6.06530E+00    2.19016E+03
 6.37630E+00    2.19343E+03
 6.59240E+00    2.19546E+03
 6.70320E+00    2.19853E+03
 7.04690E+00    2.22151E+03
 7.40820E+00    2.25704E+03
 7.78800E+00    2.29447E+03
 8.18730E+00    2.33709E+03
 8.60710E+00    2.38413E+03
 9.04840E+00    2.45986E+03
 9.51230E+00    2.49568E+03
 1.00000E+01    2.53089E+03
 1.05130E+01    2.56986E+03
 1.10520E+01    2.62798E+03
 1.16180E+01    2.69582E+03
 1.22140E+01    2.71607E+03
 1.28400E+01    2.74299E+03
 1.34990E+01    2.80061E+03
 1.38400E+01    2.83634E+03
 1.41910E+01    2.84700E+03
 1.45500E+01    2.85813E+03
 1.49180E+01    2.86842E+03
 1.56830E+01    2.87085E+03
 1.64870E+01    2.86140E+03
