# n + Ti 47 : (n,g)     
# jendl4.0   K.KOBAYASHI(KUR),H.HASHIKURA(TOK) EVAL-SEP88
# uncertainties: n
# # energies =    69
#   E(MeV)       xs(mb) 
 1.00000E-10    1.13527E+04
 5.00000E-09    3.09115E+03
 1.00000E-08    2.34106E+03
 1.50000E-08    1.96693E+03
 2.00000E-08    1.73055E+03
 2.50000E-08    1.56347E+03
 3.00000E-08    1.43720E+03
 3.50000E-08    1.32138E+03
 4.20000E-08    1.20863E+03
 5.00000E-08    1.11484E+03
 5.80000E-08    1.03617E+03
 6.70000E-08    9.56221E+02
 8.00000E-08    8.65300E+02
 1.00000E-07    7.52827E+02
 1.40000E-07    6.49607E+02
 1.80000E-07    5.80073E+02
 2.20000E-07    5.34203E+02
 2.50000E-07    5.02929E+02
 2.80000E-07    4.80476E+02
 3.00000E-07    4.64700E+02
 3.20000E-07    4.47159E+02
 3.50000E-07    4.22948E+02
 4.00000E-07    3.86996E+02
 5.00000E-07    3.46141E+02
 6.25000E-07    3.09732E+02
 7.80000E-07    2.86698E+02
 8.50000E-07    2.75851E+02
 9.10000E-07    2.68278E+02
 9.50000E-07    2.63894E+02
 9.72000E-07    2.60795E+02
 9.96000E-07    2.57668E+02
 1.02000E-06    2.54597E+02
 1.04500E-06    2.51524E+02
 1.07100E-06    2.48499E+02
 1.09700E-06    2.45571E+02
 1.12300E-06    2.42714E+02
 1.15000E-06    2.34028E+02
 1.30000E-06    2.19044E+02
 1.50000E-06    1.94565E+02
 2.10000E-06    1.69494E+02
 2.60000E-06    1.51403E+02
 3.30000E-06    1.35938E+02
 4.00000E-06    1.04236E+02
 9.87700E-06    7.33678E+01
 1.59680E-05    5.68152E+01
 2.77000E-05    4.32507E+01
 4.80520E-05    3.37641E+01
 7.55014E-05    2.57495E+01
 1.48728E-04    1.79190E+01
 3.67262E-04    1.28017E+01
 9.06898E-04    1.23011E+01
 1.42510E-03    1.99504E+01
 2.23945E-03    6.92520E+02
 3.51910E-03    1.37699E+02
 5.53000E-03    1.13614E+02
 9.11800E-03    1.47993E+02
 1.50300E-02    7.00899E+01
 2.47800E-02    3.05728E+01
 4.08500E-02    2.03464E+01
 6.73400E-02    8.88381E+00
 1.11000E-01    2.27980E+01
 1.83000E-01    1.23778E+01
 3.02000E-01    7.96815E+00
 5.00000E-01    5.99416E+00
 8.21000E-01    5.41318E+00
 1.35300E+00    5.61425E+00
 2.23100E+00    6.23504E+00
 3.67900E+00    3.29241E+00
 6.06500E+00    1.10352E+00
