# n + Ti 47 : (n,tot)   
# jendl4.0   K.KOBAYASHI(KUR),H.HASHIKURA(TOK) EVAL-SEP88
# uncertainties: n
# # energies =   171
#   E(MeV)       xs(mb) 
 1.00000E-11    2.48436E+04
 1.00000E-07    3.82040E+03
 4.13990E-07    3.60975E+03
 5.31580E-07    3.56485E+03
 6.82560E-07    3.52523E+03
 8.76420E-07    3.49029E+03
 1.12540E-06    3.45993E+03
 1.44500E-06    3.43331E+03
 1.85540E-06    3.40956E+03
 2.37240E-06    3.38881E+03
 3.05900E-06    3.36861E+03
 3.92790E-06    3.35235E+03
 5.04350E-06    3.33637E+03
 6.47600E-06    3.32226E+03
 8.31530E-06    3.31055E+03
 1.06770E-05    3.29662E+03
 1.37100E-05    3.28691E+03
 1.76030E-05    3.27609E+03
 2.26030E-05    3.26288E+03
 2.92030E-05    3.25281E+03
 3.72670E-05    3.24149E+03
 4.78510E-05    3.22681E+03
 6.14420E-05    3.21001E+03
 7.88930E-05    3.19348E+03
 1.01300E-04    3.17246E+03
 1.30070E-04    3.14547E+03
 1.67020E-04    3.11180E+03
 2.14450E-04    3.07397E+03
 2.75360E-04    3.02621E+03
 3.53580E-04    2.96531E+03
 4.54000E-04    2.89482E+03
 5.82950E-04    2.80860E+03
 7.48520E-04    2.71089E+03
 9.61120E-04    2.60780E+03
 1.23410E-03    2.52928E+03
 1.58460E-03    2.61973E+03
 2.03470E-03    3.10816E+03
 2.24870E-03    4.23091E+03
 2.48520E-03    6.54024E+03
 2.61260E-03    1.09349E+04
 2.74650E-03    7.75115E+04
 3.03540E-03    2.00188E+05
 3.35460E-03    1.48037E+04
 3.70740E-03    6.37079E+03
 4.30740E-03    2.36844E+03
 5.53080E-03    9.85865E+02
 7.10170E-03    2.06604E+04
 9.11880E-03    6.92462E+03
 1.17090E-02    1.64985E+04
 1.50340E-02    1.44078E+04
 1.93050E-02    3.61849E+03
 2.18750E-02    1.42554E+03
 2.35790E-02    2.78109E+03
 2.41760E-02    9.56632E+02
 2.47880E-02    1.62130E+03
 2.60580E-02    1.67069E+04
 2.70000E-02    3.68862E+04
 2.85000E-02    5.41430E+03
 3.18280E-02    1.42824E+04
 3.43070E-02    1.29503E+04
 4.08680E-02    1.02717E+04
 4.63090E-02    1.24306E+04
 5.24750E-02    6.72790E+03
 5.65620E-02    4.81831E+03
 6.73790E-02    3.45324E+03
 7.20000E-02    6.34706E+03
 7.95000E-02    3.40330E+03
 8.25000E-02    3.11608E+03
 8.65170E-02    2.78768E+03
 9.80370E-02    4.71061E+03
 1.11090E-01    4.95418E+03
 1.16790E-01    4.84744E+03
 1.22770E-01    4.73523E+03
 1.29070E-01    4.61717E+03
 1.35690E-01    4.49317E+03
 1.42640E-01    4.36278E+03
 1.49960E-01    4.26086E+03
 1.57640E-01    4.14962E+03
 1.65730E-01    4.05863E+03
 1.74220E-01    3.97282E+03
 1.83160E-01    3.88259E+03
 1.92550E-01    3.78895E+03
 2.02420E-01    3.71859E+03
 2.12800E-01    3.65669E+03
 2.23710E-01    3.59163E+03
 2.35180E-01    3.52321E+03
 2.47240E-01    3.41350E+03
 2.73240E-01    3.29623E+03
 2.87250E-01    3.23409E+03
 2.94520E-01    3.20508E+03
 2.97200E-01    3.19350E+03
 2.98500E-01    3.18122E+03
 3.01970E-01    3.12845E+03
 3.33730E-01    3.02864E+03
 3.68830E-01    2.94731E+03
 3.87740E-01    2.89134E+03
 4.07620E-01    2.83584E+03
 4.50490E-01    2.76301E+03
 4.97870E-01    2.71249E+03
 5.23400E-01    2.69191E+03
 5.50230E-01    2.67036E+03
 5.78440E-01    2.64783E+03
 6.08100E-01    2.63397E+03
 6.39280E-01    2.62553E+03
 6.72060E-01    2.61690E+03
 7.06510E-01    2.61700E+03
 7.42740E-01    2.62186E+03
 7.80820E-01    2.62780E+03
 8.20850E-01    2.64296E+03
 8.62940E-01    2.66131E+03
 9.07180E-01    2.68684E+03
 9.61640E-01    2.71718E+03
 1.00260E+00    2.77901E+03
 1.10800E+00    2.85811E+03
 1.16480E+00    2.91297E+03
 1.22460E+00    2.96664E+03
 1.28730E+00    3.02286E+03
 1.35340E+00    3.08193E+03
 1.42270E+00    3.14198E+03
 1.49570E+00    3.20432E+03
 1.57240E+00    3.27109E+03
 1.65300E+00    3.34094E+03
 1.73770E+00    3.40886E+03
 1.82680E+00    3.47595E+03
 1.92050E+00    3.53567E+03
 2.01900E+00    3.59106E+03
 2.12250E+00    3.64020E+03
 2.23130E+00    3.67559E+03
 2.30690E+00    3.69156E+03
 2.34570E+00    3.69970E+03
 2.36530E+00    3.70520E+03
 2.38520E+00    3.71916E+03
 2.46600E+00    3.74564E+03
 2.59240E+00    3.76185E+03
 2.72530E+00    3.77525E+03
 2.86500E+00    3.78214E+03
 3.01190E+00    3.77542E+03
 3.16640E+00    3.76307E+03
 3.32870E+00    3.73999E+03
 3.67880E+00    3.68780E+03
 4.06570E+00    3.62019E+03
 4.49330E+00    3.56059E+03
 4.72370E+00    3.51810E+03
 4.96590E+00    3.47344E+03
 5.22050E+00    3.42649E+03
 5.48810E+00    3.37714E+03
 5.76950E+00    3.32525E+03
 6.06530E+00    3.27153E+03
 6.37630E+00    3.22803E+03
 6.59240E+00    3.20136E+03
 6.70320E+00    3.16459E+03
 7.04690E+00    3.10724E+03
 7.40820E+00    3.04695E+03
 7.78800E+00    2.98587E+03
 8.18730E+00    2.92581E+03
 8.60710E+00    2.86275E+03
 9.04840E+00    2.79901E+03
 9.51230E+00    2.73766E+03
 1.00000E+01    2.67550E+03
 1.05130E+01    2.61635E+03
 1.10520E+01    2.55833E+03
 1.16180E+01    2.50217E+03
 1.22140E+01    2.44558E+03
 1.28400E+01    2.39096E+03
 1.34990E+01    2.35007E+03
 1.38400E+01    2.32365E+03
 1.41910E+01    2.29779E+03
 1.45500E+01    2.27236E+03
 1.49180E+01    2.23598E+03
 1.56830E+01    2.18996E+03
 1.64870E+01    2.14757E+03
