# n + Ti 47 : (n,el)    
# jendl4.0   K.KOBAYASHI(KUR),H.HASHIKURA(TOK) EVAL-SEP88
# uncertainties: n
# # energies =   171
#   E(MeV)       xs(mb) 
 1.00000E-11    7.26050E+03
 1.00000E-07    3.23487E+03
 4.13990E-07    3.23174E+03
 5.31580E-07    3.23132E+03
 6.82560E-07    3.23098E+03
 8.76420E-07    3.23054E+03
 1.12540E-06    3.22997E+03
 1.44500E-06    3.22949E+03
 1.85540E-06    3.22916E+03
 2.37240E-06    3.22873E+03
 3.05900E-06    3.22817E+03
 3.92790E-06    3.22746E+03
 5.04350E-06    3.22655E+03
 6.47600E-06    3.22537E+03
 8.31530E-06    3.22387E+03
 1.06770E-05    3.22194E+03
 1.37100E-05    3.21946E+03
 1.76030E-05    3.21627E+03
 2.26030E-05    3.21212E+03
 2.92030E-05    3.20686E+03
 3.72670E-05    3.20018E+03
 4.78510E-05    3.19152E+03
 6.14420E-05    3.18040E+03
 7.88930E-05    3.16613E+03
 1.01300E-04    3.14779E+03
 1.30070E-04    3.12425E+03
 1.67020E-04    3.09403E+03
 2.14450E-04    3.05524E+03
 2.75360E-04    3.00909E+03
 3.53580E-04    2.95270E+03
 4.54000E-04    2.88071E+03
 5.82950E-04    2.79720E+03
 7.48520E-04    2.69904E+03
 9.61120E-04    2.59537E+03
 1.23410E-03    2.51597E+03
 1.58460E-03    2.60091E+03
 2.03470E-03    3.07874E+03
 2.24870E-03    4.18367E+03
 2.48520E-03    6.46090E+03
 2.61260E-03    1.07997E+04
 2.74650E-03    7.66342E+04
 3.03540E-03    1.98163E+05
 3.35460E-03    1.46972E+04
 3.70740E-03    5.99248E+03
 4.30740E-03    2.36053E+03
 5.53080E-03    9.80753E+02
 7.10170E-03    2.04385E+04
 9.11880E-03    6.81238E+03
 1.17090E-02    1.63152E+04
 1.50340E-02    1.43055E+04
 1.93050E-02    3.57113E+03
 2.18750E-02    1.41287E+03
 2.35790E-02    2.68668E+03
 2.41760E-02    9.46305E+02
 2.47880E-02    1.61456E+03
 2.60580E-02    1.66648E+04
 2.70000E-02    3.68033E+04
 2.85000E-02    5.38922E+03
 3.18280E-02    1.42598E+04
 3.43070E-02    1.29244E+04
 4.08680E-02    1.02485E+04
 4.63090E-02    1.23992E+04
 5.24750E-02    6.71485E+03
 5.65620E-02    4.80497E+03
 6.73790E-02    3.44774E+03
 7.20000E-02    6.33542E+03
 7.95000E-02    3.40318E+03
 8.25000E-02    3.11601E+03
 8.65170E-02    2.78764E+03
 9.80370E-02    4.68695E+03
 1.11090E-01    4.92716E+03
 1.16790E-01    4.82119E+03
 1.22770E-01    4.70977E+03
 1.29070E-01    4.59255E+03
 1.35690E-01    4.46942E+03
 1.42640E-01    4.33995E+03
 1.49960E-01    4.23764E+03
 1.57640E-01    4.12075E+03
 1.65730E-01    3.96321E+03
 1.74220E-01    3.78613E+03
 1.83160E-01    3.59990E+03
 1.92550E-01    3.40834E+03
 2.02420E-01    3.30578E+03
 2.12800E-01    3.24038E+03
 2.23710E-01    3.17163E+03
 2.35180E-01    3.09935E+03
 2.47240E-01    2.98343E+03
 2.73240E-01    2.85953E+03
 2.87250E-01    2.79388E+03
 2.94520E-01    2.76322E+03
 2.97200E-01    2.75099E+03
 2.98500E-01    2.73806E+03
 3.01970E-01    2.68358E+03
 3.33730E-01    2.58064E+03
 3.68830E-01    2.49676E+03
 3.87740E-01    2.43887E+03
 4.07620E-01    2.37846E+03
 4.50490E-01    2.29810E+03
 4.97870E-01    2.24000E+03
 5.23400E-01    2.21147E+03
 5.50230E-01    2.18155E+03
 5.78440E-01    2.15073E+03
 6.08100E-01    2.13076E+03
 6.39280E-01    2.11457E+03
 6.72060E-01    2.09776E+03
 7.06510E-01    2.08862E+03
 7.42740E-01    2.08342E+03
 7.80820E-01    2.07896E+03
 8.20850E-01    2.08297E+03
 8.62940E-01    2.08876E+03
 9.07180E-01    2.10158E+03
 9.61640E-01    2.11873E+03
 1.00260E+00    2.16505E+03
 1.10800E+00    2.22498E+03
 1.16480E+00    2.26685E+03
 1.22460E+00    2.30657E+03
 1.28730E+00    2.31004E+03
 1.35340E+00    2.32180E+03
 1.42270E+00    2.33301E+03
 1.49570E+00    2.35057E+03
 1.57240E+00    2.38230E+03
 1.65300E+00    2.39374E+03
 1.73770E+00    2.42106E+03
 1.82680E+00    2.45407E+03
 1.92050E+00    2.47505E+03
 2.01900E+00    2.49847E+03
 2.12250E+00    2.52403E+03
 2.23130E+00    2.51070E+03
 2.30690E+00    2.50619E+03
 2.34570E+00    2.50010E+03
 2.36530E+00    2.49599E+03
 2.38520E+00    2.48829E+03
 2.46600E+00    2.46039E+03
 2.59240E+00    2.43190E+03
 2.72530E+00    2.39842E+03
 2.86500E+00    2.36031E+03
 3.01190E+00    2.33637E+03
 3.16640E+00    2.32883E+03
 3.32870E+00    2.31433E+03
 3.67880E+00    2.27378E+03
 4.06570E+00    2.22512E+03
 4.49330E+00    2.18681E+03
 4.72370E+00    2.15682E+03
 4.96590E+00    2.12198E+03
 5.22050E+00    2.07741E+03
 5.48810E+00    2.03010E+03
 5.76950E+00    1.98034E+03
 6.06530E+00    1.92572E+03
 6.37630E+00    1.87669E+03
 6.59240E+00    1.84627E+03
 6.70320E+00    1.80469E+03
 7.04690E+00    1.74132E+03
 7.40820E+00    1.67490E+03
 7.78800E+00    1.60664E+03
 8.18730E+00    1.54169E+03
 8.60710E+00    1.47615E+03
 9.04840E+00    1.42361E+03
 9.51230E+00    1.37737E+03
 1.00000E+01    1.34883E+03
 1.05130E+01    1.34001E+03
 1.10520E+01    1.34861E+03
 1.16180E+01    1.36929E+03
 1.22140E+01    1.39060E+03
 1.28400E+01    1.40615E+03
 1.34990E+01    1.40647E+03
 1.38400E+01    1.40249E+03
 1.41910E+01    1.39011E+03
 1.45500E+01    1.37625E+03
 1.49180E+01    1.35547E+03
 1.56830E+01    1.32565E+03
 1.64870E+01    1.28685E+03
