# n + Eu150 : (n,n'27)  
# tendl.2019 A.J. Koning and D. Rochman        EVAL-NOV19
# uncertainties: n
# # energies =    73
#   E(MeV)       xs(mb) 
 5.98198E-01    0.00000E+00
 6.00000E-01    1.57442E+01
 6.02627E-01    1.65146E+01
 6.05446E-01    1.73413E+01
 6.19087E-01    2.13417E+01
 7.00000E-01    4.50705E+01
 8.00000E-01    4.23334E+01
 9.00000E-01    4.02032E+01
 1.00000E+00    3.88953E+01
 1.20000E+00    3.55763E+01
 1.40000E+00    2.90621E+01
 1.60000E+00    2.14355E+01
 1.80000E+00    1.48605E+01
 2.00000E+00    9.98461E+00
 2.20000E+00    6.62324E+00
 2.40000E+00    4.38525E+00
 2.60000E+00    2.91445E+00
 2.80000E+00    1.94556E+00
 3.00000E+00    1.30202E+00
 3.20000E+00    8.73067E-01
 3.40000E+00    5.85842E-01
 3.60000E+00    3.93160E-01
 3.80000E+00    2.63884E-01
 4.00000E+00    1.77402E-01
 4.20000E+00    1.19620E-01
 4.40000E+00    8.09714E-02
 4.60000E+00    5.51106E-02
 4.80000E+00    3.77884E-02
 5.00000E+00    2.61023E-02
 5.20000E+00    1.81842E-02
 5.40000E+00    1.27737E-02
 5.60000E+00    9.06464E-03
 5.80000E+00    6.47961E-03
 6.00000E+00    4.65645E-03
 6.20000E+00    3.37813E-03
 6.40000E+00    2.46638E-03
 6.60000E+00    1.81528E-03
 6.80000E+00    1.34329E-03
 7.00000E+00    9.99494E-04
 7.20000E+00    7.47670E-04
 7.40000E+00    5.61073E-04
 7.60000E+00    4.23088E-04
 7.80000E+00    3.19796E-04
 8.00000E+00    2.42232E-04
 8.50000E+00    1.22220E-04
 9.00000E+00    6.24227E-05
 9.50000E+00    3.22560E-05
 1.00000E+01    1.68873E-05
 1.05000E+01    8.96665E-06
 1.10000E+01    4.83383E-06
 1.15000E+01    2.64390E-06
 1.20000E+01    1.46715E-06
 1.25000E+01    8.24510E-07
 1.30000E+01    4.68570E-07
 1.35000E+01    2.68970E-07
 1.40000E+01    1.55800E-07
 1.45000E+01    9.09610E-08
 1.50000E+01    5.34920E-08
 1.60000E+01    1.88560E-08
 1.70000E+01    6.81600E-09
 1.80000E+01    2.52710E-09
 1.90000E+01    9.53770E-10
 2.00000E+01    3.72490E-10
 2.10000E+01    1.48690E-10
 2.20000E+01    6.05550E-11
 2.30000E+01    2.51500E-11
 2.40000E+01    1.06310E-11
 2.50000E+01    4.57030E-12
 2.60000E+01    1.99150E-12
 2.70000E+01    8.79350E-13
 2.80000E+01    3.93650E-13
 2.90000E+01    1.78600E-13
 3.00000E+01    8.21920E-14
