# n + Eu150 : (n,n'23)  
# tendl.2019 A.J. Koning and D. Rochman        EVAL-NOV19
# uncertainties: n
# # energies =    77
#   E(MeV)       xs(mb) 
 5.14438E-01    0.00000E+00
 5.35881E-01    6.38739E-02
 5.65751E-01    1.52850E-01
 5.92772E-01    2.33339E-01
 5.98198E-01    2.49502E-01
 6.00000E-01    2.54870E-01
 6.02627E-01    2.62774E-01
 6.05446E-01    2.71256E-01
 6.19087E-01    3.12299E-01
 7.00000E-01    5.55753E-01
 8.00000E-01    7.84126E-01
 9.00000E-01    9.37688E-01
 1.00000E+00    1.01875E+00
 1.20000E+00    1.02515E+00
 1.40000E+00    9.18369E-01
 1.60000E+00    7.84168E-01
 1.80000E+00    6.56205E-01
 2.00000E+00    5.41625E-01
 2.20000E+00    4.40650E-01
 2.40000E+00    3.53048E-01
 2.60000E+00    2.78515E-01
 2.80000E+00    2.16124E-01
 3.00000E+00    1.64787E-01
 3.20000E+00    1.23692E-01
 3.40000E+00    9.15817E-02
 3.60000E+00    6.70659E-02
 3.80000E+00    4.87157E-02
 4.00000E+00    3.52279E-02
 4.20000E+00    2.54316E-02
 4.40000E+00    1.83611E-02
 4.60000E+00    1.32857E-02
 4.80000E+00    9.65306E-03
 5.00000E+00    7.03851E-03
 5.20000E+00    5.16173E-03
 5.40000E+00    3.79975E-03
 5.60000E+00    2.81418E-03
 5.80000E+00    2.09029E-03
 6.00000E+00    1.55336E-03
 6.20000E+00    1.15975E-03
 6.40000E+00    8.67328E-04
 6.60000E+00    6.50951E-04
 6.80000E+00    4.89073E-04
 7.00000E+00    3.68235E-04
 7.20000E+00    2.77745E-04
 7.40000E+00    2.09684E-04
 7.60000E+00    1.58740E-04
 7.80000E+00    1.20250E-04
 8.00000E+00    9.12016E-05
 8.50000E+00    4.60251E-05
 9.00000E+00    2.34827E-05
 9.50000E+00    1.21274E-05
 1.00000E+01    6.35140E-06
 1.05000E+01    3.37625E-06
 1.10000E+01    1.82304E-06
 1.15000E+01    9.98900E-07
 1.20000E+01    5.55280E-07
 1.25000E+01    3.12580E-07
 1.30000E+01    1.77930E-07
 1.35000E+01    1.02300E-07
 1.40000E+01    5.93440E-08
 1.45000E+01    3.46950E-08
 1.50000E+01    2.04250E-08
 1.60000E+01    7.20510E-09
 1.70000E+01    2.60070E-09
 1.80000E+01    9.61440E-10
 1.90000E+01    3.61580E-10
 2.00000E+01    1.40710E-10
 2.10000E+01    5.59870E-11
 2.20000E+01    2.27310E-11
 2.30000E+01    9.41090E-12
 2.40000E+01    3.96370E-12
 2.50000E+01    1.69760E-12
 2.60000E+01    7.36970E-13
 2.70000E+01    3.24350E-13
 2.80000E+01    1.44810E-13
 2.90000E+01    6.55570E-14
 3.00000E+01    3.01140E-14
