# n + Zn  0 : (n,n'01)
# jeff3.3    A.J. Koning and D. Rochman        EVAL-DEC15
# uncertainties: y
# # energies =   102
#   E(MeV)          xs(mb) 
 1.90000E-01    0.00000E+00
 2.00000E-01    2.06797E+00
 3.00000E-01    3.17026E+00
 3.99462E-01    4.11874E+00
 4.00000E-01    4.12386E+00
 5.00000E-01    4.43317E+00
 6.00000E-01    4.81992E+00
 6.13590E-01    4.85325E+00
 7.00000E-01    5.06518E+00
 8.00000E-01    5.21979E+00
 8.27049E-01    5.17469E+00
 8.84036E-01    5.07965E+00
 9.00000E-01    5.58162E+00
 9.01080E-01    5.59246E+00
 9.94607E-01    6.53082E+00
 1.00000E+00    6.58491E+00
 1.00492E+00    6.59639E+00
 1.07598E+00    1.10316E+02
 1.16003E+00    3.22328E+02
 1.20000E+00    4.27754E+02
 1.38414E+00    5.84141E+02
 1.40000E+00    5.97611E+02
 1.42820E+00    6.13948E+02
 1.46788E+00    6.36937E+02
 1.54000E+00    6.78720E+02
 1.56676E+00    6.94223E+02
 1.60000E+00    7.13480E+02
 1.62785E+00    7.24317E+02
 1.66483E+00    7.38706E+02
 1.66776E+00    7.39846E+02
 1.68168E+00    7.45262E+02
 1.70281E+00    7.53484E+02
 1.71223E+00    7.57149E+02
 1.75876E+00    7.75254E+02
 1.80000E+00    7.91301E+02
 1.80707E+00    7.90006E+02
 1.81003E+00    7.89463E+02
 1.82764E+00    7.86237E+02
 1.82916E+00    7.85958E+02
 1.83514E+00    7.84862E+02
 1.87058E+00    7.78369E+02
 1.90368E+00    7.72304E+02
 2.00000E+00    7.54655E+02
 2.20000E+00    7.37294E+02
 2.40000E+00    7.13506E+02
 2.60000E+00    6.65496E+02
 2.80000E+00    6.16138E+02
 3.00000E+00    5.29567E+02
 3.20000E+00    4.43836E+02
 3.40000E+00    3.59106E+02
 3.60000E+00    2.93601E+02
 3.80000E+00    2.47208E+02
 4.00000E+00    2.12662E+02
 4.20000E+00    1.87099E+02
 4.40000E+00    1.67628E+02
 4.60000E+00    1.52373E+02
 4.80000E+00    1.40131E+02
 5.00000E+00    1.30135E+02
 5.20000E+00    1.21838E+02
 5.40000E+00    1.14869E+02
 5.60000E+00    1.08971E+02
 5.80000E+00    1.03929E+02
 6.00000E+00    9.96028E+01
 6.20000E+00    9.58614E+01
 6.40000E+00    9.26067E+01
 6.60000E+00    8.97723E+01
 6.80000E+00    8.72801E+01
 7.00000E+00    8.50808E+01
 7.20000E+00    8.31309E+01
 7.40000E+00    8.13867E+01
 7.60000E+00    7.98261E+01
 7.80000E+00    7.84191E+01
 8.00000E+00    7.71450E+01
 8.50000E+00    7.44491E+01
 9.00000E+00    7.23071E+01
 9.50000E+00    7.05867E+01
 1.00000E+01    6.91810E+01
 1.05000E+01    6.79938E+01
 1.10000E+01    6.69409E+01
 1.15000E+01    6.59573E+01
 1.20000E+01    6.50055E+01
 1.25000E+01    6.40712E+01
 1.30000E+01    6.31614E+01
 1.35000E+01    6.22904E+01
 1.40000E+01    6.14718E+01
 1.45000E+01    6.07127E+01
 1.50000E+01    6.00103E+01
 1.60000E+01    5.87271E+01
 1.70000E+01    5.74960E+01
 1.80000E+01    5.62194E+01
 1.90000E+01    5.48734E+01
 2.00000E+01    5.34895E+01
 2.10000E+01    5.21196E+01
 2.20000E+01    5.08111E+01
 2.30000E+01    4.95969E+01
 2.40000E+01    4.84880E+01
 2.50000E+01    4.74767E+01
 2.60000E+01    4.65399E+01
 2.70000E+01    4.56490E+01
 2.80000E+01    4.47790E+01
 2.90000E+01    4.39128E+01
 3.00000E+01    4.30434E+01
