# n + La137 : (n,xt)    
# jendl.ad   N.Iwamoto                         EVAL-Apr14
# 
# # energies =    91
#   E(MeV)        xs(mb) 
 1.06680E-02    0.00000E+00
 2.00000E-02    0.00000E+00
 3.00000E-02    0.00000E+00
 4.00000E-02    0.00000E+00
 5.00000E-02    0.00000E+00
 6.00000E-02    0.00000E+00
 7.00000E-02    0.00000E+00
 8.00000E-02    0.00000E+00
 9.00000E-02    0.00000E+00
 1.00000E-01    0.00000E+00
 1.05000E-01    0.00000E+00
 1.10000E-01    0.00000E+00
 1.20000E-01    0.00000E+00
 1.30000E-01    0.00000E+00
 1.40000E-01    0.00000E+00
 1.50000E-01    0.00000E+00
 1.60000E-01    0.00000E+00
 1.70000E-01    0.00000E+00
 1.80000E-01    0.00000E+00
 1.90000E-01    0.00000E+00
 2.00000E-01    0.00000E+00
 2.25000E-01    0.00000E+00
 2.50000E-01    0.00000E+00
 2.75000E-01    0.00000E+00
 3.00000E-01    0.00000E+00
 4.00000E-01    0.00000E+00
 4.50464E-01    0.00000E+00
 4.50465E-01    0.00000E+00
 4.96723E-01    0.00000E+00
 5.00000E-01    0.00000E+00
 6.00000E-01    0.00000E+00
 6.46690E-01    0.00000E+00
 7.00000E-01    0.00000E+00
 7.14526E-01    0.00000E+00
 7.67886E-01    0.00000E+00
 7.87328E-01    0.00000E+00
 8.00000E-01    0.00000E+00
 8.41525E-01    0.00000E+00
 9.00000E-01    0.00000E+00
 9.24199E-01    0.00000E+00
 9.33155E-01    0.00000E+00
 1.00000E+00    0.00000E+00
 1.01202E+00    0.00000E+00
 1.10000E+00    0.00000E+00
 1.20000E+00    0.00000E+00
 1.30000E+00    0.00000E+00
 1.40000E+00    0.00000E+00
 1.50000E+00    0.00000E+00
 1.60000E+00    0.00000E+00
 1.70000E+00    0.00000E+00
 1.80000E+00    0.00000E+00
 1.90000E+00    0.00000E+00
 2.00000E+00    0.00000E+00
 2.25000E+00    0.00000E+00
 2.50000E+00    0.00000E+00
 2.75000E+00    0.00000E+00
 3.00000E+00    0.00000E+00
 3.50000E+00    0.00000E+00
 4.00000E+00    0.00000E+00
 4.50000E+00    0.00000E+00
 5.00000E+00    0.00000E+00
 5.50000E+00    0.00000E+00
 6.00000E+00    0.00000E+00
 6.50000E+00    2.37827E-19
 7.00000E+00    6.02394E-19
 7.50000E+00    9.66960E-19
 8.00000E+00    3.80900E-14
 8.50000E+00    2.42930E-11
 9.00000E+00    1.82250E-09
 9.50000E+00    3.84720E-08
 1.00000E+01    3.60070E-07
 1.05000E+01    1.98189E-06
 1.10000E+01    7.95939E-06
 1.15000E+01    2.85170E-05
 1.20000E+01    1.02181E-04
 1.25000E+01    3.60652E-04
 1.30000E+01    1.16844E-03
 1.35000E+01    3.28850E-03
 1.40000E+01    8.24019E-03
 1.45000E+01    1.80844E-02
 1.50000E+01    3.51635E-02
 1.55000E+01    6.08784E-02
 1.60000E+01    9.76798E-02
 1.65000E+01    1.46507E-01
 1.70000E+01    2.07363E-01
 1.75000E+01    2.77097E-01
 1.80000E+01    3.57062E-01
 1.85000E+01    4.43327E-01
 1.90000E+01    5.40126E-01
 1.95000E+01    6.41049E-01
 2.00000E+01    7.50332E-01
