# n + La137 : (n,t)     
# jendl.ad   N.Iwamoto                         EVAL-Apr14
# uncertainties: n
# # energies =    45
#   E(MeV)       xs(mb) 
 6.17378E+00    0.00000E+00
 6.39638E+00    1.62280E-19
 6.44398E+00    1.96980E-19
 6.65786E+00    3.52930E-19
 6.76594E+00    4.31730E-19
 6.89324E+00    5.24550E-19
 7.03509E+00    6.27980E-19
 7.05474E+00    6.42310E-19
 7.09078E+00    6.68590E-19
 7.13169E+00    6.98410E-19
 7.16097E+00    7.19760E-19
 7.18921E+00    7.40350E-19
 7.31211E+00    8.29970E-19
 7.34757E+00    8.55820E-19
 7.38311E+00    8.81730E-19
 7.39646E+00    8.91470E-19
 7.40867E+00    9.00370E-19
 7.42132E+00    9.09590E-19
 7.48189E+00    9.53760E-19
 7.50000E+00    9.66960E-19
 8.00000E+00    3.80900E-14
 8.50000E+00    2.42930E-11
 9.00000E+00    1.82250E-09
 9.50000E+00    3.84720E-08
 1.00000E+01    3.60070E-07
 1.05000E+01    1.98189E-06
 1.10000E+01    7.95939E-06
 1.15000E+01    2.85170E-05
 1.20000E+01    1.02181E-04
 1.25000E+01    3.60652E-04
 1.30000E+01    1.16844E-03
 1.35000E+01    3.28850E-03
 1.40000E+01    8.24019E-03
 1.45000E+01    1.80844E-02
 1.50000E+01    3.51635E-02
 1.55000E+01    6.08784E-02
 1.60000E+01    9.76798E-02
 1.65000E+01    1.46507E-01
 1.70000E+01    2.07362E-01
 1.75000E+01    2.77087E-01
 1.80000E+01    3.57001E-01
 1.85000E+01    4.43046E-01
 1.90000E+01    5.39073E-01
 1.95000E+01    6.37783E-01
 2.00000E+01    7.42223E-01
