# n + La137 : (n,xd)    
# jendl.ad   N.Iwamoto                         EVAL-Apr14
# 
# # energies =    91
#   E(MeV)        xs(mb) 
 1.06680E-02    0.00000E+00
 2.00000E-02    0.00000E+00
 3.00000E-02    0.00000E+00
 4.00000E-02    0.00000E+00
 5.00000E-02    0.00000E+00
 6.00000E-02    0.00000E+00
 7.00000E-02    0.00000E+00
 8.00000E-02    0.00000E+00
 9.00000E-02    0.00000E+00
 1.00000E-01    0.00000E+00
 1.05000E-01    0.00000E+00
 1.10000E-01    0.00000E+00
 1.20000E-01    0.00000E+00
 1.30000E-01    0.00000E+00
 1.40000E-01    0.00000E+00
 1.50000E-01    0.00000E+00
 1.60000E-01    0.00000E+00
 1.70000E-01    0.00000E+00
 1.80000E-01    0.00000E+00
 1.90000E-01    0.00000E+00
 2.00000E-01    0.00000E+00
 2.25000E-01    0.00000E+00
 2.50000E-01    0.00000E+00
 2.75000E-01    0.00000E+00
 3.00000E-01    0.00000E+00
 4.00000E-01    0.00000E+00
 4.50464E-01    0.00000E+00
 4.50465E-01    0.00000E+00
 4.96723E-01    0.00000E+00
 5.00000E-01    0.00000E+00
 6.00000E-01    0.00000E+00
 6.46690E-01    0.00000E+00
 7.00000E-01    0.00000E+00
 7.14526E-01    0.00000E+00
 7.67886E-01    0.00000E+00
 7.87328E-01    0.00000E+00
 8.00000E-01    0.00000E+00
 8.41525E-01    0.00000E+00
 9.00000E-01    0.00000E+00
 9.24199E-01    0.00000E+00
 9.33155E-01    0.00000E+00
 1.00000E+00    0.00000E+00
 1.01202E+00    0.00000E+00
 1.10000E+00    0.00000E+00
 1.20000E+00    0.00000E+00
 1.30000E+00    0.00000E+00
 1.40000E+00    0.00000E+00
 1.50000E+00    0.00000E+00
 1.60000E+00    0.00000E+00
 1.70000E+00    0.00000E+00
 1.80000E+00    0.00000E+00
 1.90000E+00    0.00000E+00
 2.00000E+00    0.00000E+00
 2.25000E+00    0.00000E+00
 2.50000E+00    0.00000E+00
 2.75000E+00    0.00000E+00
 3.00000E+00    0.00000E+00
 3.50000E+00    4.44631E-17
 4.00000E+00    1.56897E-16
 4.50000E+00    2.69330E-16
 5.00000E+00    6.30890E-12
 5.50000E+00    2.29560E-09
 6.00000E+00    1.01300E-07
 6.50000E+00    1.31582E-06
 7.00000E+00    8.02844E-06
 7.50000E+00    3.11924E-05
 8.00000E+00    1.03064E-04
 8.50000E+00    3.79050E-04
 9.00000E+00    1.53996E-03
 9.50000E+00    5.79337E-03
 1.00000E+01    1.85454E-02
 1.05000E+01    4.26503E-02
 1.10000E+01    1.01798E-01
 1.15000E+01    2.11256E-01
 1.20000E+01    3.71827E-01
 1.25000E+01    6.18377E-01
 1.30000E+01    9.45115E-01
 1.35000E+01    1.35072E+00
 1.40000E+01    1.82671E+00
 1.45000E+01    2.36491E+00
 1.50000E+01    2.95501E+00
 1.55000E+01    3.65351E+00
 1.60000E+01    4.33018E+00
 1.65000E+01    4.96707E+00
 1.70000E+01    5.64741E+00
 1.75000E+01    6.36144E+00
 1.80000E+01    7.11620E+00
 1.85000E+01    7.89642E+00
 1.90000E+01    8.58111E+00
 1.95000E+01    9.41476E+00
 2.00000E+01    9.99989E+00
