# n + In115 : (n,n'10)  
# tendl.2019 A.J. Koning and D. Rochman        EVAL-NOV19
# uncertainties: n
# # energies =    84
#   E(MeV)       xs(mb) 
 1.20296E+00    0.00000E+00
 1.29871E+00    4.12458E+00
 1.30192E+00    4.26286E+00
 1.35933E+00    6.73589E+00
 1.40000E+00    8.48781E+00
 1.43070E+00    8.95465E+00
 1.46150E+00    9.42301E+00
 1.47635E+00    9.64882E+00
 1.48290E+00    9.74843E+00
 1.49147E+00    9.87874E+00
 1.49916E+00    9.99568E+00
 1.51034E+00    1.01657E+01
 1.60000E+00    1.15291E+01
 1.61637E+00    1.17358E+01
 1.62222E+00    1.18097E+01
 1.66448E+00    1.23433E+01
 1.75215E+00    1.34504E+01
 1.80000E+00    1.40547E+01
 1.81681E+00    1.42419E+01
 1.84697E+00    1.45776E+01
 1.88036E+00    1.49494E+01
 1.88884E+00    1.50438E+01
 1.93443E+00    1.55514E+01
 1.98891E+00    1.61579E+01
 2.00000E+00    1.62814E+01
 2.20000E+00    1.66460E+01
 2.40000E+00    1.42609E+01
 2.60000E+00    1.10962E+01
 2.80000E+00    8.23893E+00
 3.00000E+00    5.96665E+00
 3.20000E+00    4.31528E+00
 3.40000E+00    3.11877E+00
 3.60000E+00    2.26337E+00
 3.80000E+00    1.65551E+00
 4.00000E+00    1.22255E+00
 4.20000E+00    9.14994E-01
 4.40000E+00    6.94392E-01
 4.60000E+00    5.34361E-01
 4.80000E+00    4.16497E-01
 5.00000E+00    3.27838E-01
 5.20000E+00    2.59475E-01
 5.40000E+00    2.05415E-01
 5.60000E+00    1.61755E-01
 5.80000E+00    1.27245E-01
 6.00000E+00    9.97893E-02
 6.20000E+00    7.81370E-02
 6.40000E+00    6.10090E-02
 6.60000E+00    4.72974E-02
 6.80000E+00    3.65884E-02
 7.00000E+00    2.83817E-02
 7.20000E+00    2.19664E-02
 7.40000E+00    1.70194E-02
 7.60000E+00    1.31963E-02
 7.80000E+00    1.02191E-02
 8.00000E+00    7.94900E-03
 8.50000E+00    4.25865E-03
 9.00000E+00    2.31125E-03
 9.50000E+00    1.31569E-03
 1.00000E+01    8.30731E-04
 1.05000E+01    5.47143E-04
 1.10000E+01    3.65726E-04
 1.15000E+01    2.34288E-04
 1.20000E+01    1.43376E-04
 1.25000E+01    8.34425E-05
 1.30000E+01    4.76270E-05
 1.35000E+01    2.78823E-05
 1.40000E+01    1.71662E-05
 1.45000E+01    1.11138E-05
 1.50000E+01    7.44017E-06
 1.60000E+01    3.41544E-06
 1.70000E+01    1.59051E-06
 1.80000E+01    7.42930E-07
 1.90000E+01    3.50090E-07
 2.00000E+01    1.67570E-07
 2.10000E+01    7.77690E-08
 2.20000E+01    3.69550E-08
 2.30000E+01    1.79190E-08
 2.40000E+01    8.80140E-09
 2.50000E+01    4.37420E-09
 2.60000E+01    2.19700E-09
 2.70000E+01    1.11620E-09
 2.80000E+01    5.72710E-10
 2.90000E+01    2.97340E-10
 3.00000E+01    1.56130E-10
