# n + In115 : (n,n'17)  
# tendl.2019 A.J. Koning and D. Rochman        EVAL-NOV19
# uncertainties: n
# # energies =    76
#   E(MeV)       xs(mb) 
 1.48290E+00    0.00000E+00
 1.49147E+00    5.16943E-02
 1.49916E+00    9.80812E-02
 1.51034E+00    1.65519E-01
 1.60000E+00    7.06352E-01
 1.61637E+00    7.93009E-01
 1.62222E+00    8.23977E-01
 1.66448E+00    1.04769E+00
 1.75215E+00    1.51178E+00
 1.80000E+00    1.76508E+00
 1.81681E+00    1.83917E+00
 1.84697E+00    1.97211E+00
 1.88036E+00    2.11928E+00
 1.88884E+00    2.15666E+00
 1.93443E+00    2.35760E+00
 1.98891E+00    2.59773E+00
 2.00000E+00    2.64661E+00
 2.20000E+00    3.19221E+00
 2.40000E+00    3.14917E+00
 2.60000E+00    2.76651E+00
 2.80000E+00    2.27773E+00
 3.00000E+00    1.79914E+00
 3.20000E+00    1.39837E+00
 3.40000E+00    1.07174E+00
 3.60000E+00    8.15017E-01
 3.80000E+00    6.17866E-01
 4.00000E+00    4.68244E-01
 4.20000E+00    3.56524E-01
 4.40000E+00    2.73254E-01
 4.60000E+00    2.11146E-01
 4.80000E+00    1.64575E-01
 5.00000E+00    1.29226E-01
 5.20000E+00    1.01924E-01
 5.40000E+00    8.04605E-02
 5.60000E+00    6.32081E-02
 5.80000E+00    4.96297E-02
 6.00000E+00    3.89847E-02
 6.20000E+00    3.05603E-02
 6.40000E+00    2.39433E-02
 6.60000E+00    1.86583E-02
 6.80000E+00    1.45129E-02
 7.00000E+00    1.13320E-02
 7.20000E+00    8.83572E-03
 7.40000E+00    6.89801E-03
 7.60000E+00    5.39078E-03
 7.80000E+00    4.21035E-03
 8.00000E+00    3.30115E-03
 8.50000E+00    1.80505E-03
 9.00000E+00    9.98550E-04
 9.50000E+00    5.78336E-04
 1.00000E+01    3.70815E-04
 1.05000E+01    2.47601E-04
 1.10000E+01    1.67581E-04
 1.15000E+01    1.08601E-04
 1.20000E+01    6.71775E-05
 1.25000E+01    3.94808E-05
 1.30000E+01    2.27292E-05
 1.35000E+01    1.34017E-05
 1.40000E+01    8.29706E-06
 1.45000E+01    5.39360E-06
 1.50000E+01    3.62089E-06
 1.60000E+01    1.66715E-06
 1.70000E+01    7.77450E-07
 1.80000E+01    3.63630E-07
 1.90000E+01    1.71680E-07
 2.00000E+01    8.23790E-08
 2.10000E+01    3.83220E-08
 2.20000E+01    1.82420E-08
 2.30000E+01    8.85290E-09
 2.40000E+01    4.34950E-09
 2.50000E+01    2.16190E-09
 2.60000E+01    1.08610E-09
 2.70000E+01    5.52070E-10
 2.80000E+01    2.83480E-10
 2.90000E+01    1.47290E-10
 3.00000E+01    7.73910E-11
