# n + Ar  0 : (n,2n)
# jeff3.3    T.WATANABE                        EVAL-MAR94
# uncertainties: n
# # energies =    52
#   E(MeV)          xs(mb) 
 1.21530E+01    4.88976E+02
 1.25000E+01    5.75533E+02
 1.30000E+01    7.00264E+02
 1.35000E+01    7.66347E+02
 1.40000E+01    8.32429E+02
 1.45000E+01    8.70193E+02
 1.50000E+01    8.96850E+02
 1.60000E+01    9.29611E+02
 1.70000E+01    9.44906E+02
 1.80000E+01    9.44775E+02
 1.90000E+01    9.17747E+02
 2.00000E+01    8.49369E+02
 2.10000E+01    1.86180E-01
 2.20000E+01    1.88569E-01
 2.30000E+01    1.88748E-01
 2.40000E+01    1.86643E-01
 2.50000E+01    1.81693E-01
 2.60000E+01    1.74828E-01
 2.70000E+01    1.66902E-01
 2.80000E+01    1.59274E-01
 2.90000E+01    1.51859E-01
 3.00000E+01    1.45326E-01
 3.00000E+01    1.45326E-01
 3.20000E+01    1.34554E-01
 3.40000E+01    1.25883E-01
 3.60000E+01    1.18984E-01
 3.80000E+01    1.13044E-01
 4.00000E+01    1.08151E-01
 4.20000E+01    1.03523E-01
 4.40000E+01    9.75408E-02
 4.60000E+01    9.22998E-02
 4.80000E+01    8.71067E-02
 5.00000E+01    8.23045E-02
 5.20000E+01    7.72422E-02
 5.40000E+01    7.28828E-02
 5.60000E+01    6.91882E-02
 5.80000E+01    6.63337E-02
 6.00000E+01    6.36673E-02
 6.50000E+01    5.79369E-02
 7.00000E+01    5.26060E-02
 7.50000E+01    4.71769E-02
 8.00000E+01    4.24395E-02
 9.00000E+01    3.51695E-02
 1.00000E+02    2.92961E-02
 1.10000E+02    2.52506E-02
 1.20000E+02    2.19694E-02
 1.30000E+02    1.91059E-02
 1.40000E+02    1.72067E-02
 1.50000E+02    1.57035E-02
 1.60000E+02    1.44716E-02
 1.80000E+02    1.26867E-02
 2.00000E+02    1.13383E-02
