# n + Ar  0 : (n,xp)
# jeff3.3    T.WATANABE                        EVAL-MAR94
#
# # energies =   164
#   E(MeV)          xs(mb) 
 1.49774E+00    0.00000E+00
 1.49780E+00    0.00000E+00
 1.49835E+00    0.00000E+00
 1.49917E+00    0.00000E+00
 1.50000E+00    0.00000E+00
 1.50724E+00    0.00000E+00
 1.51429E+00    0.00000E+00
 1.52115E+00    0.00000E+00
 1.53454E+00    0.00000E+00
 1.54719E+00    0.00000E+00
 1.55915E+00    0.00000E+00
 1.57044E+00    0.00000E+00
 1.58110E+00    0.00000E+00
 1.59116E+00    0.00000E+00
 1.60065E+00    0.00000E+00
 1.60960E+00    0.00000E+00
 1.62652E+00    0.00000E+00
 1.64146E+00    0.00000E+00
 1.65465E+00    0.00000E+00
 1.66628E+00    0.00000E+00
 1.68683E+00    0.00000E+00
 1.70240E+00    0.00000E+00
 1.71418E+00    0.00000E+00
 1.73200E+00    0.00000E+00
 1.75000E+00    0.00000E+00
 1.76467E+00    0.00000E+00
 1.77853E+00    0.00000E+00
 1.80481E+00    0.00000E+00
 1.82813E+00    0.00000E+00
 1.84878E+00    0.00000E+00
 1.86704E+00    0.00000E+00
 1.88316E+00    0.00000E+00
 1.91171E+00    0.00000E+00
 1.93341E+00    0.00000E+00
 1.94985E+00    0.00000E+00
 1.97477E+00    0.00000E+00
 2.00000E+00    0.00000E+00
 2.04221E+00    5.35812E-01
 2.07446E+00    5.38032E-01
 2.12378E+00    5.41427E-01
 2.17428E+00    5.44904E-01
 2.19807E+00    5.46542E-01
 2.22060E+00    5.54303E-01
 2.26348E+00    5.70182E-01
 2.30168E+00    5.84328E-01
 2.33564E+00    5.96904E-01
 2.36576E+00    6.08058E-01
 2.39243E+00    6.17935E-01
 2.43983E+00    6.40206E-01
 2.47600E+00    6.57886E-01
 2.53126E+00    6.84896E-01
 2.58775E+00    7.12507E-01
 2.58780E+00    7.12532E-01
 2.63230E+00    7.35918E-01
 2.67186E+00    7.57257E-01
 2.70696E+00    7.76190E-01
 2.73806E+00    7.92966E-01
 2.76556E+00    8.07799E-01
 2.81435E+00    8.34299E-01
 2.85151E+00    8.54816E-01
 2.90817E+00    8.86099E-01
 2.96595E+00    9.18000E-01
 3.00000E+00    9.36799E-01
 3.06982E+00    9.75566E-01
 3.12326E+00    1.00524E+00
 3.20515E+00    1.05071E+00
 3.28920E+00    1.09738E+00
 3.28930E+00    1.09743E+00
 3.35306E+00    1.13284E+00
 3.40169E+00    1.15983E+00
 3.47597E+00    1.20052E+00
 3.55186E+00    1.24210E+00
 3.59984E+00    1.26838E+00
 3.60364E+00    1.27044E+00
 3.68775E+00    1.31594E+00
 3.77382E+00    1.36250E+00
 3.77390E+00    1.36254E+00
 3.82920E+00    1.39243E+00
 3.91367E+00    1.43804E+00
 4.00000E+00    1.48466E+00
 4.01770E+00    1.49405E+00
 4.01772E+00    1.49406E+00
 4.04140E+00    1.50663E+00
 4.14393E+00    1.56104E+00
 4.18545E+00    1.58307E+00
 4.18600E+00    1.58336E+00
 4.28438E+00    1.61883E+00
 4.33257E+00    1.63484E+00
 4.33564E+00    1.63586E+00
 4.40966E+00    1.65718E+00
 4.43355E+00    1.65702E+00
 4.43370E+00    1.65701E+00
 4.46789E+00    1.65678E+00
 4.53043E+00    1.65635E+00
 4.53050E+00    1.65635E+00
 4.53863E+00    1.65630E+00
 4.59400E+00    1.65592E+00
 4.60732E+00    1.65590E+00
 4.67704E+00    1.65612E+00
 4.69344E+00    1.65617E+00
 4.69549E+00    1.65618E+00
 4.76983E+00    1.65642E+00
 4.88356E+00    1.67203E+00
 5.00000E+00    1.69366E+00
 5.11526E+00    1.70421E+00
 5.32339E+00    1.72281E+00
 5.48503E+00    1.73809E+00
 5.60948E+00    1.75203E+00
 5.80145E+00    1.78760E+00
 6.00000E+00    1.82700E+00
 6.23574E+00    1.83069E+00
 6.60683E+00    1.85678E+00
 7.00000E+00    1.88264E+00
 8.00000E+00    1.90825E+00
 8.48528E+00    2.67331E+00
 9.00000E+00    3.47745E+00
 9.48683E+00    5.53787E+00
 1.00000E+01    7.74479E+00
 1.02411E+01    8.53726E+00
 1.04258E+01    9.14414E+00
 1.05665E+01    9.60805E+00
 1.07811E+01    1.03184E+01
 1.10000E+01    1.10432E+01
 1.11203E+01    1.13011E+01
 1.12266E+01    1.15292E+01
 1.13205E+01    1.17305E+01
 1.14867E+01    1.20868E+01
 1.16129E+01    1.23607E+01
 1.17085E+01    1.25683E+01
 1.18534E+01    1.28829E+01
 1.20000E+01    1.32015E+01
 1.21207E+01    1.34441E+01
 1.22272E+01    1.36584E+01
 1.23213E+01    1.38476E+01
 1.24876E+01    1.41819E+01
 1.26137E+01    1.44326E+01
 1.27092E+01    1.46219E+01
 1.28538E+01    1.49087E+01
 1.30000E+01    1.51988E+01
 1.31210E+01    1.54713E+01
 1.33354E+01    1.59545E+01
 1.34986E+01    1.63220E+01
 1.36222E+01    1.65945E+01
 1.38098E+01    1.70078E+01
 1.40000E+01    1.74266E+01
 1.42478E+01    1.79726E+01
 1.45000E+01    1.85283E+01
 1.47479E+01    1.90081E+01
 1.50000E+01    1.94960E+01
 1.52440E+01    1.98590E+01
 1.54296E+01    2.01350E+01
 1.57122E+01    2.05554E+01
 1.60000E+01    2.09835E+01
 1.62443E+01    2.13303E+01
 1.66179E+01    2.18605E+01
 1.70000E+01    2.24029E+01
 1.72447E+01    2.28608E+01
 1.76183E+01    2.35603E+01
 1.80000E+01    2.42750E+01
 1.82450E+01    2.48054E+01
 1.86187E+01    2.56145E+01
 1.90000E+01    2.64403E+01
 1.94936E+01    2.73439E+01
 2.00000E+01    2.82709E+01
