# n + Ar  0 : (n,n'01)
# jeff3.3    T.WATANABE                        EVAL-MAR94
# uncertainties: n
# # energies =   168
#   E(MeV)          xs(mb) 
 1.49774E+00    0.00000E+00
 1.49780E+00    2.45216E+00
 1.49835E+00    2.55755E+01
 1.49917E+00    6.02599E+01
 1.50000E+00    9.49440E+01
 1.50724E+00    1.00677E+02
 1.51429E+00    1.06230E+02
 1.52115E+00    1.11610E+02
 1.53454E+00    1.22033E+02
 1.54719E+00    1.31806E+02
 1.55915E+00    1.40967E+02
 1.57044E+00    1.49556E+02
 1.58110E+00    1.57608E+02
 1.59116E+00    1.65156E+02
 1.60065E+00    1.72234E+02
 1.60960E+00    1.78868E+02
 1.62652E+00    1.91308E+02
 1.64146E+00    2.02194E+02
 1.65465E+00    2.11717E+02
 1.66628E+00    2.20051E+02
 1.68683E+00    2.34635E+02
 1.70240E+00    2.45574E+02
 1.71418E+00    2.53778E+02
 1.73200E+00    2.66082E+02
 1.75000E+00    2.78388E+02
 1.76467E+00    2.87814E+02
 1.77853E+00    2.96651E+02
 1.80481E+00    3.13219E+02
 1.82813E+00    3.27717E+02
 1.84878E+00    3.40403E+02
 1.86704E+00    3.51502E+02
 1.88316E+00    3.61215E+02
 1.91171E+00    3.78211E+02
 1.93341E+00    3.90959E+02
 1.94985E+00    4.00520E+02
 1.97477E+00    4.14861E+02
 2.00000E+00    4.29202E+02
 2.04221E+00    4.42635E+02
 2.07446E+00    4.52800E+02
 2.12378E+00    4.68052E+02
 2.17428E+00    4.83309E+02
 2.22211E+00    4.97809E+02
 2.26483E+00    5.10468E+02
 2.30288E+00    5.21550E+02
 2.33670E+00    5.31247E+02
 2.39708E+00    5.48219E+02
 2.44339E+00    5.60890E+02
 2.47871E+00    5.70389E+02
 2.53264E+00    5.84641E+02
 2.58775E+00    5.98893E+02
 2.77040E+00    6.05563E+02
 2.96595E+00    6.12198E+02
 3.00000E+00    6.09475E+02
 3.28920E+00    6.10544E+02
 3.35299E+00    5.99831E+02
 3.45099E+00    5.83757E+02
 3.50106E+00    5.75718E+02
 3.55186E+00    5.67678E+02
 3.59984E+00    5.63733E+02
 3.60364E+00    5.60140E+02
 3.68775E+00    5.46554E+02
 3.77382E+00    5.32967E+02
 3.82914E+00    5.24702E+02
 3.91364E+00    5.12297E+02
 4.00000E+00    4.99892E+02
 4.01772E+00    4.96392E+02
 4.04140E+00    4.86947E+02
 4.09234E+00    4.75270E+02
 4.14393E+00    4.63593E+02
 4.18545E+00    4.55721E+02
 4.23463E+00    4.45972E+02
 4.28438E+00    4.36223E+02
 4.33257E+00    4.26166E+02
 4.33564E+00    4.25033E+02
 4.40966E+00    4.11710E+02
 4.43355E+00    4.05203E+02
 4.46789E+00    3.95733E+02
 4.53043E+00    3.82272E+02
 4.53863E+00    3.79814E+02
 4.59400E+00    3.68070E+02
 4.60732E+00    3.64784E+02
 4.67704E+00    3.53853E+02
 4.69344E+00    3.50340E+02
 4.69549E+00    3.49314E+02
 4.76983E+00    3.37561E+02
 4.82636E+00    3.28751E+02
 4.91241E+00    3.15540E+02
 5.00000E+00    3.02328E+02
 5.05730E+00    2.95846E+02
 5.11162E+00    2.89769E+02
 5.16307E+00    2.84072E+02
 5.26094E+00    2.73389E+02
 5.34810E+00    2.64042E+02
 5.42554E+00    2.55864E+02
 5.49423E+00    2.48713E+02
 5.55504E+00    2.42454E+02
 5.60881E+00    2.36977E+02
 5.70415E+00    2.27397E+02
 5.77671E+00    2.20211E+02
 5.83174E+00    2.14823E+02
 5.91527E+00    2.06742E+02
 6.00000E+00    1.98661E+02
 6.11673E+00    1.92109E+02
 6.22074E+00    1.86377E+02
 6.31319E+00    1.81365E+02
 6.39521E+00    1.76980E+02
 6.46786E+00    1.73143E+02
 6.59697E+00    1.66430E+02
 6.69550E+00    1.61397E+02
 6.77036E+00    1.57623E+02
 6.88422E+00    1.51962E+02
 7.00000E+00    1.46301E+02
 7.11782E+00    1.42634E+02
 7.22254E+00    1.39425E+02
 7.31543E+00    1.36616E+02
 7.39769E+00    1.34158E+02
 7.54388E+00    1.29863E+02
 7.65541E+00    1.26643E+02
 7.74014E+00    1.24228E+02
 7.86900E+00    1.20606E+02
 8.00000E+00    1.16984E+02
 8.11865E+00    1.14697E+02
 8.22392E+00    1.12696E+02
 8.41143E+00    1.09194E+02
 8.55486E+00    1.06568E+02
 8.66404E+00    1.04601E+02
 8.83042E+00    1.01647E+02
 9.00000E+00    9.86956E+01
 9.24021E+00    9.58937E+01
 9.42457E+00    9.37922E+01
 9.56524E+00    9.22166E+01
 9.78021E+00    8.98541E+01
 1.00000E+01    8.74915E+01
 1.02411E+01    8.54180E+01
 1.04258E+01    8.38628E+01
 1.07091E+01    8.15310E+01
 1.10000E+01    7.91995E+01
 1.12419E+01    7.74567E+01
 1.14268E+01    7.61496E+01
 1.17099E+01    7.41895E+01
 1.20000E+01    7.22295E+01
 1.22425E+01    7.07137E+01
 1.24277E+01    6.95770E+01
 1.27106E+01    6.78721E+01
 1.30000E+01    6.61672E+01
 1.32431E+01    6.48618E+01
 1.34284E+01    6.38828E+01
 1.37112E+01    6.24144E+01
 1.40000E+01    6.09461E+01
 1.42478E+01    5.97934E+01
 1.45000E+01    5.86408E+01
 1.47479E+01    5.75799E+01
 1.50000E+01    5.65190E+01
 1.52440E+01    5.55683E+01
 1.56174E+01    5.41424E+01
 1.60000E+01    5.27163E+01
 1.62443E+01    5.18707E+01
 1.66179E+01    5.06021E+01
 1.70000E+01    4.93336E+01
 1.72447E+01    4.85593E+01
 1.76183E+01    4.73977E+01
 1.80000E+01    4.62361E+01
 1.82450E+01    4.55203E+01
 1.86187E+01    4.44467E+01
 1.90000E+01    4.33731E+01
 1.94936E+01    4.20595E+01
 1.97452E+01    4.14027E+01
 2.00000E+01    4.07459E+01
