# n + F  19 : (n,p)     
# endfb8.0   Z.X.Zhao,C.Y.Fu,D.C.Larson, Leal+ EVAL-OCT03
# uncertainties: y
# # energies =    37
#   E(MeV)       xs(mb)       xslow(mb)      xsupp(mb)
 4.25030E+00    0.00000E+00    0.00000E+00    0.00000E+00
 4.97000E+00    1.00000E+00    7.00000E-01    1.30000E+00
 5.03000E+00    8.00000E+00    7.20000E+00    8.80000E+00
 5.10000E+00    3.00000E+00    2.70000E+00    3.30000E+00
 5.17000E+00    1.05000E+01    9.45000E+00    1.15500E+01
 5.25000E+00    2.00000E+00    1.80000E+00    2.20000E+00
 5.42000E+00    2.00000E+00    1.80000E+00    2.20000E+00
 5.70000E+00    1.00000E+01    9.00000E+00    1.10000E+01
 5.87000E+00    2.30000E+01    2.07000E+01    2.53000E+01
 5.98000E+00    1.60000E+01    1.44000E+01    1.76000E+01
 6.16000E+00    3.45000E+01    3.10500E+01    3.79500E+01
 6.30000E+00    2.30000E+01    2.07000E+01    2.53000E+01
 6.50000E+00    2.90000E+01    2.61000E+01    3.19000E+01
 6.59000E+00    3.80000E+01    3.42000E+01    4.18000E+01
 6.70000E+00    3.10000E+01    2.79000E+01    3.41000E+01
 6.80000E+00    1.80000E+01    1.62000E+01    1.98000E+01
 6.97000E+00    3.70000E+01    3.33000E+01    4.07000E+01
 7.10000E+00    3.50000E+01    3.15000E+01    3.85000E+01
 7.18000E+00    4.40000E+01    3.96000E+01    4.84000E+01
 7.28000E+00    3.40000E+01    3.06000E+01    3.74000E+01
 7.52000E+00    3.50000E+01    3.15000E+01    3.85000E+01
 7.67000E+00    4.70000E+01    4.23000E+01    5.17000E+01
 7.83000E+00    4.40000E+01    3.96000E+01    4.84000E+01
 7.90000E+00    3.20000E+01    2.88000E+01    3.52000E+01
 8.13000E+00    3.20000E+01    2.24000E+01    4.16000E+01
 8.33000E+00    4.30000E+01    3.01000E+01    5.59000E+01
 8.50000E+00    3.50000E+01    2.45000E+01    4.55000E+01
 8.66000E+00    4.30000E+01    3.01000E+01    5.59000E+01
 8.72000E+00    3.90000E+01    2.73000E+01    5.07000E+01
 8.86000E+00    4.60000E+01    3.22000E+01    5.98000E+01
 9.00000E+00    4.20000E+01    2.94000E+01    5.46000E+01
 1.00000E+01    3.59400E+01    2.51580E+01    4.67220E+01
 1.20000E+01    2.96400E+01    2.07480E+01    3.85320E+01
 1.40000E+01    1.86000E+01    1.30200E+01    2.41800E+01
 1.60000E+01    1.53500E+01    1.07450E+01    1.99550E+01
 1.80000E+01    1.31600E+01    9.21200E+00    1.71080E+01
 2.00000E+01    1.02100E+01    7.14700E+00    1.32730E+01
