# n + Fe 58 : (n,g)     
# jendl.ad   S.IIJIMA,H.YAMAKOSHI              EVAL-MAR87
# uncertainties: n
# # energies =    69
#   E(MeV)       xs(mb) 
 1.00000E-10    9.07802E+03
 5.00000E-09    2.47179E+03
 1.00000E-08    1.87207E+03
 1.50000E-08    1.57312E+03
 2.00000E-08    1.38416E+03
 2.50000E-08    1.25050E+03
 3.00000E-08    1.14953E+03
 3.50000E-08    1.05697E+03
 4.20000E-08    9.66766E+02
 5.00000E-08    8.91682E+02
 5.80000E-08    8.28784E+02
 6.70000E-08    7.64939E+02
 8.00000E-08    6.92162E+02
 1.00000E-07    6.02122E+02
 1.40000E-07    5.19655E+02
 1.80000E-07    4.63960E+02
 2.20000E-07    4.27235E+02
 2.50000E-07    4.02236E+02
 2.80000E-07    3.84356E+02
 3.00000E-07    3.71753E+02
 3.20000E-07    3.57693E+02
 3.50000E-07    3.38289E+02
 4.00000E-07    3.09501E+02
 5.00000E-07    2.76884E+02
 6.25000E-07    2.47738E+02
 7.80000E-07    2.29283E+02
 8.50000E-07    2.20598E+02
 9.10000E-07    2.14535E+02
 9.50000E-07    2.11026E+02
 9.72000E-07    2.08546E+02
 9.96000E-07    2.06050E+02
 1.02000E-06    2.03607E+02
 1.04500E-06    2.01180E+02
 1.07100E-06    1.98791E+02
 1.09700E-06    1.96469E+02
 1.12300E-06    1.94132E+02
 1.15000E-06    1.87189E+02
 1.30000E-06    1.75165E+02
 1.50000E-06    1.55529E+02
 2.10000E-06    1.35479E+02
 2.60000E-06    1.21025E+02
 3.30000E-06    1.08630E+02
 4.00000E-06    8.32696E+01
 9.87700E-06    5.85531E+01
 1.59680E-05    4.52871E+01
 2.77000E-05    3.43948E+01
 4.80520E-05    2.67653E+01
 7.55014E-05    2.03442E+01
 1.48728E-04    7.68546E+02
 3.67262E-04    1.31316E+01
 9.06898E-04    6.00277E+00
 1.42510E-03    4.71860E+00
 2.23945E-03    3.75490E+00
 3.51910E-03    3.20173E+00
 5.53000E-03    3.55044E+01
 9.11800E-03    9.04656E+01
 1.50300E-02    6.45340E+00
 2.47800E-02    9.37273E+00
 4.08500E-02    1.08469E+01
 6.73400E-02    7.99309E+00
 1.11000E-01    6.49423E+00
 1.83000E-01    4.12728E+00
 3.02000E-01    3.17269E+00
 5.00000E-01    3.22394E+00
 8.21000E-01    1.62124E+00
 1.35300E+00    1.27624E+00
 2.23100E+00    9.31103E-01
 3.67900E+00    7.38458E-01
 6.06500E+00    4.01162E-01
