# n + Os192 : (n,n'01)  
# endfb8.0   N.Iwamoto                         EVAL-Jan10
# uncertainties: n
# # energies =    99
#   E(MeV)       xs(mb) 
 2.06875E-01    0.00000E+00
 2.25000E-01    3.98077E+02
 2.50000E-01    5.30431E+02
 2.75000E-01    6.33507E+02
 3.00000E-01    7.26596E+02
 4.00000E-01    1.05071E+03
 4.91630E-01    1.25231E+03
 5.00000E-01    1.14778E+03
 5.83329E-01    1.18183E+03
 6.00000E-01    1.19605E+03
 6.93999E-01    1.22839E+03
 7.00000E-01    1.19979E+03
 8.00000E-01    1.17412E+03
 9.00000E-01    1.15201E+03
 9.14372E-01    1.14873E+03
 9.61566E-01    1.13642E+03
 1.00000E+00    1.10557E+03
 1.07516E+00    1.07764E+03
 1.09495E+00    1.07015E+03
 1.10000E+00    1.06849E+03
 1.13344E+00    1.05867E+03
 1.14953E+00    1.02888E+03
 1.20000E+00    1.00165E+03
 1.21263E+00    9.96152E+02
 1.30000E+00    9.47901E+02
 1.34820E+00    9.29133E+02
 1.36918E+00    9.11698E+02
 1.40000E+00    8.98035E+02
 1.41727E+00    8.91268E+02
 1.45793E+00    8.59839E+02
 1.46425E+00    8.50145E+02
 1.47304E+00    8.43307E+02
 1.50000E+00    8.28062E+02
 1.56880E+00    7.98073E+02
 1.60000E+00    7.83473E+02
 1.60010E+00    7.83434E+02
 1.62134E+00    7.72020E+02
 1.65374E+00    7.52304E+02
 1.67384E+00    7.43767E+02
 1.70000E+00    7.28397E+02
 1.71737E+00    7.21140E+02
 1.72191E+00    7.19333E+02
 1.74290E+00    7.11323E+02
 1.78970E+00    6.90418E+02
 1.80000E+00    6.85570E+02
 1.81721E+00    6.79140E+02
 1.83611E+00    6.69840E+02
 1.84706E+00    6.61272E+02
 1.86773E+00    6.50026E+02
 1.87768E+00    6.45138E+02
 1.87852E+00    6.44234E+02
 1.88866E+00    6.35821E+02
 1.90000E+00    6.28671E+02
 1.90489E+00    6.26332E+02
 1.91268E+00    6.22192E+02
 1.93178E+00    6.12468E+02
 1.93411E+00    6.10855E+02
 1.94708E+00    6.03989E+02
 1.95019E+00    6.01964E+02
 1.95100E+00    6.01508E+02
 2.00000E+00    5.81668E+02
 2.25000E+00    5.12720E+02
 2.50000E+00    4.57089E+02
 2.75000E+00    4.22996E+02
 3.00000E+00    3.93448E+02
 3.50000E+00    3.61144E+02
 4.00000E+00    3.43384E+02
 4.50000E+00    3.30305E+02
 5.00000E+00    3.17732E+02
 5.50000E+00    3.04040E+02
 6.00000E+00    2.89292E+02
 6.50000E+00    2.73954E+02
 7.00000E+00    2.58961E+02
 7.50000E+00    2.45336E+02
 8.00000E+00    2.33582E+02
 8.50000E+00    2.23923E+02
 9.00000E+00    2.15812E+02
 9.50000E+00    2.08734E+02
 1.00000E+01    2.02066E+02
 1.05000E+01    1.95465E+02
 1.10000E+01    1.88783E+02
 1.15000E+01    1.82040E+02
 1.20000E+01    1.75346E+02
 1.25000E+01    1.68836E+02
 1.30000E+01    1.62632E+02
 1.35000E+01    1.56816E+02
 1.40000E+01    1.51432E+02
 1.45000E+01    1.46483E+02
 1.50000E+01    1.41944E+02
 1.55000E+01    1.37764E+02
 1.60000E+01    1.33883E+02
 1.65000E+01    1.30235E+02
 1.70000E+01    1.26761E+02
 1.75000E+01    1.23415E+02
 1.80000E+01    1.20167E+02
 1.85000E+01    1.17006E+02
 1.90000E+01    1.13932E+02
 1.95000E+01    1.10959E+02
 2.00000E+01    1.08105E+02
