# n + Os192 : (n,n'18)  
# endfb8.0   N.Iwamoto                         EVAL-Jan10
# uncertainties: n
# # energies =    66
#   E(MeV)       xs(mb) 
 1.56880E+00    0.00000E+00
 1.60000E+00    2.51688E+01
 1.60010E+00    2.51955E+01
 1.62134E+00    2.95393E+01
 1.65374E+00    3.40312E+01
 1.67384E+00    3.63407E+01
 1.70000E+00    3.89020E+01
 1.71737E+00    4.06426E+01
 1.72191E+00    4.11071E+01
 1.74290E+00    4.30242E+01
 1.78970E+00    4.72482E+01
 1.80000E+00    4.81466E+01
 1.81721E+00    4.97587E+01
 1.83611E+00    5.10686E+01
 1.84706E+00    5.17018E+01
 1.86773E+00    5.29944E+01
 1.87768E+00    5.35668E+01
 1.87852E+00    5.35978E+01
 1.88866E+00    5.39280E+01
 1.90000E+00    5.44714E+01
 1.90489E+00    5.47338E+01
 1.91268E+00    5.50843E+01
 1.93178E+00    5.61000E+01
 1.93411E+00    5.62259E+01
 1.94708E+00    5.69315E+01
 1.95019E+00    5.70674E+01
 1.95100E+00    5.70831E+01
 2.00000E+00    5.83685E+01
 2.25000E+00    5.69874E+01
 2.50000E+00    4.51397E+01
 2.75000E+00    3.68299E+01
 3.00000E+00    2.82811E+01
 3.50000E+00    1.60316E+01
 4.00000E+00    8.69366E+00
 4.50000E+00    4.79617E+00
 5.00000E+00    2.85511E+00
 5.50000E+00    1.90212E+00
 6.00000E+00    1.42689E+00
 6.50000E+00    1.17464E+00
 7.00000E+00    1.02698E+00
 7.50000E+00    9.29374E-01
 8.00000E+00    8.58217E-01
 8.50000E+00    8.02596E-01
 9.00000E+00    7.57011E-01
 9.50000E+00    7.17871E-01
 1.00000E+01    6.82670E-01
 1.05000E+01    6.49519E-01
 1.10000E+01    6.17442E-01
 1.15000E+01    5.86176E-01
 1.20000E+01    5.55862E-01
 1.25000E+01    5.26947E-01
 1.30000E+01    4.99710E-01
 1.35000E+01    4.74391E-01
 1.40000E+01    4.51015E-01
 1.45000E+01    4.29523E-01
 1.50000E+01    4.09776E-01
 1.55000E+01    3.91580E-01
 1.60000E+01    3.74726E-01
 1.65000E+01    3.59008E-01
 1.70000E+01    3.44251E-01
 1.75000E+01    3.30299E-01
 1.80000E+01    3.17048E-01
 1.85000E+01    3.04450E-01
 1.90000E+01    2.92471E-01
 1.95000E+01    2.81105E-01
 2.00000E+01    2.70359E-01
