# n + Os192 : (n,n'09)  
# endfb8.0   N.Iwamoto                         EVAL-Jan10
# uncertainties: n
# # energies =    79
#   E(MeV)       xs(mb) 
 1.13343E+00    0.00000E+00
 1.14953E+00    8.85926E+01
 1.20000E+00    1.39279E+02
 1.21263E+00    1.46719E+02
 1.30000E+00    1.85175E+02
 1.34820E+00    2.01187E+02
 1.36918E+00    2.06011E+02
 1.40000E+00    2.13376E+02
 1.41727E+00    2.16829E+02
 1.45793E+00    2.15153E+02
 1.46425E+00    2.11787E+02
 1.47304E+00    2.11240E+02
 1.50000E+00    2.12592E+02
 1.56880E+00    2.16209E+02
 1.60000E+00    2.15734E+02
 1.60010E+00    2.15736E+02
 1.62134E+00    2.13703E+02
 1.65374E+00    2.08489E+02
 1.67384E+00    2.07600E+02
 1.70000E+00    2.03017E+02
 1.71737E+00    2.02100E+02
 1.72191E+00    2.01918E+02
 1.74290E+00    2.01192E+02
 1.78970E+00    1.94301E+02
 1.80000E+00    1.92111E+02
 1.81721E+00    1.89806E+02
 1.83611E+00    1.85477E+02
 1.84706E+00    1.81839E+02
 1.86773E+00    1.76542E+02
 1.87768E+00    1.74254E+02
 1.87852E+00    1.73665E+02
 1.88866E+00    1.69565E+02
 1.90000E+00    1.65821E+02
 1.90489E+00    1.64749E+02
 1.91268E+00    1.62729E+02
 1.93178E+00    1.58220E+02
 1.93411E+00    1.57400E+02
 1.94708E+00    1.54124E+02
 1.95019E+00    1.52967E+02
 1.95100E+00    1.52733E+02
 2.00000E+00    1.43615E+02
 2.25000E+00    1.12637E+02
 2.50000E+00    8.15833E+01
 2.75000E+00    6.13986E+01
 3.00000E+00    4.23224E+01
 3.50000E+00    2.04609E+01
 4.00000E+00    9.50516E+00
 4.50000E+00    4.38398E+00
 5.00000E+00    2.07004E+00
 5.50000E+00    1.03798E+00
 6.00000E+00    5.78524E-01
 6.50000E+00    3.70279E-01
 7.00000E+00    2.72199E-01
 7.50000E+00    2.23013E-01
 8.00000E+00    1.95857E-01
 8.50000E+00    1.78922E-01
 9.00000E+00    1.66952E-01
 9.50000E+00    1.57410E-01
 1.00000E+01    1.49036E-01
 1.05000E+01    1.41190E-01
 1.10000E+01    1.33641E-01
 1.15000E+01    1.26348E-01
 1.20000E+01    1.19411E-01
 1.25000E+01    1.12881E-01
 1.30000E+01    1.06811E-01
 1.35000E+01    1.01228E-01
 1.40000E+01    9.61138E-02
 1.45000E+01    9.14346E-02
 1.50000E+01    8.71516E-02
 1.55000E+01    8.32124E-02
 1.60000E+01    7.95650E-02
 1.65000E+01    7.61606E-02
 1.70000E+01    7.29605E-02
 1.75000E+01    6.99320E-02
 1.80000E+01    6.70563E-02
 1.85000E+01    6.43249E-02
 1.90000E+01    6.17331E-02
 1.95000E+01    5.92818E-02
 2.00000E+01    5.69725E-02
