# n + Os192 : (n,n'15)  
# endfb8.0   N.Iwamoto                         EVAL-Jan10
# uncertainties: n
# # energies =    70
#   E(MeV)       xs(mb) 
 1.45793E+00    0.00000E+00
 1.46425E+00    3.43569E+01
 1.47304E+00    4.78589E+01
 1.50000E+00    6.77042E+01
 1.56880E+00    9.18228E+01
 1.60000E+00    9.93214E+01
 1.60010E+00    9.93466E+01
 1.62134E+00    1.02716E+02
 1.65374E+00    1.05176E+02
 1.67384E+00    1.08256E+02
 1.70000E+00    1.09794E+02
 1.71737E+00    1.11816E+02
 1.72191E+00    1.12251E+02
 1.74290E+00    1.14325E+02
 1.78970E+00    1.16432E+02
 1.80000E+00    1.16637E+02
 1.81721E+00    1.17923E+02
 1.83611E+00    1.17849E+02
 1.84706E+00    1.17327E+02
 1.86773E+00    1.15993E+02
 1.87768E+00    1.15217E+02
 1.87852E+00    1.14828E+02
 1.88866E+00    1.12897E+02
 1.90000E+00    1.11084E+02
 1.90489E+00    1.10714E+02
 1.91268E+00    1.09860E+02
 1.93178E+00    1.08303E+02
 1.93411E+00    1.07967E+02
 1.94708E+00    1.06789E+02
 1.95019E+00    1.06138E+02
 1.95100E+00    1.06030E+02
 2.00000E+00    1.02896E+02
 2.25000E+00    8.76925E+01
 2.50000E+00    6.75386E+01
 2.75000E+00    5.25221E+01
 3.00000E+00    3.73709E+01
 3.50000E+00    1.88340E+01
 4.00000E+00    9.00324E+00
 4.50000E+00    4.27624E+00
 5.00000E+00    2.10576E+00
 5.50000E+00    1.12372E+00
 6.00000E+00    6.79338E-01
 6.50000E+00    4.73121E-01
 7.00000E+00    3.72142E-01
 7.50000E+00    3.18188E-01
 8.00000E+00    2.85847E-01
 8.50000E+00    2.63965E-01
 9.00000E+00    2.47579E-01
 9.50000E+00    2.34151E-01
 1.00000E+01    2.22309E-01
 1.05000E+01    2.11234E-01
 1.10000E+01    2.00558E-01
 1.15000E+01    1.90181E-01
 1.20000E+01    1.80186E-01
 1.25000E+01    1.70678E-01
 1.30000E+01    1.61756E-01
 1.35000E+01    1.53487E-01
 1.40000E+01    1.45871E-01
 1.45000E+01    1.38882E-01
 1.50000E+01    1.32468E-01
 1.55000E+01    1.26561E-01
 1.60000E+01    1.21091E-01
 1.65000E+01    1.15989E-01
 1.70000E+01    1.11198E-01
 1.75000E+01    1.06666E-01
 1.80000E+01    1.02362E-01
 1.85000E+01    9.82696E-02
 1.90000E+01    9.43801E-02
 1.95000E+01    9.06920E-02
 2.00000E+01    8.72079E-02
