# n + Os192 : (n,tot)   
# endfb8.0   N.Iwamoto                         EVAL-Jan10
# uncertainties: n
# # energies =   171
#   E(MeV)       xs(mb) 
 1.00000E-11    5.57417E+04
 1.00000E-07    1.60152E+04
 4.13990E-07    1.55969E+04
 5.31580E-07    1.55024E+04
 6.82560E-07    1.54160E+04
 8.76420E-07    1.53353E+04
 1.12540E-06    1.52617E+04
 1.44500E-06    1.51908E+04
 1.85540E-06    1.51248E+04
 2.37240E-06    1.50410E+04
 3.05900E-06    1.49649E+04
 3.92790E-06    1.48817E+04
 5.04350E-06    1.47762E+04
 6.47600E-06    1.46708E+04
 8.31530E-06    1.45478E+04
 1.06770E-05    1.43922E+04
 1.37100E-05    1.42267E+04
 1.76030E-05    1.50504E+04
 2.26030E-05    1.38156E+04
 2.92030E-05    1.35605E+04
 3.72670E-05    1.32801E+04
 4.78510E-05    1.29785E+04
 6.14420E-05    1.26597E+04
 7.88930E-05    1.23142E+04
 1.01300E-04    1.64121E+04
 1.30070E-04    1.19542E+04
 1.67020E-04    1.15270E+04
 2.14450E-04    9.49765E+04
 2.75360E-04    1.48918E+05
 3.53580E-04    1.31984E+05
 4.54000E-04    1.17167E+05
 5.82950E-04    1.04047E+05
 7.48520E-04    9.24632E+04
 9.61120E-04    8.22845E+04
 1.23410E-03    7.33808E+04
 1.58460E-03    6.54431E+04
 2.03470E-03    6.03742E+04
 2.24870E-03    5.76730E+04
 2.48520E-03    5.57224E+04
 2.61260E-03    5.44609E+04
 2.74650E-03    5.26250E+04
 3.03540E-03    5.02704E+04
 3.35460E-03    4.80203E+04
 3.70740E-03    4.53674E+04
 4.30740E-03    4.15334E+04
 5.53080E-03    3.71942E+04
 7.10170E-03    3.33371E+04
 9.11880E-03    2.99147E+04
 1.17090E-02    2.68890E+04
 1.50340E-02    2.41732E+04
 1.93050E-02    2.23132E+04
 2.18750E-02    2.13919E+04
 2.35790E-02    2.09461E+04
 2.41760E-02    2.07266E+04
 2.47880E-02    2.04024E+04
 2.60580E-02    2.00394E+04
 2.70000E-02    1.96649E+04
 2.85000E-02    1.89984E+04
 3.18280E-02    1.82730E+04
 3.43070E-02    1.73444E+04
 4.08680E-02    1.62870E+04
 4.63090E-02    1.54573E+04
 5.24750E-02    1.48231E+04
 5.65620E-02    1.40702E+04
 6.73790E-02    1.33742E+04
 7.20000E-02    1.29188E+04
 7.95000E-02    1.25548E+04
 8.25000E-02    1.23344E+04
 8.65170E-02    1.18974E+04
 9.80370E-02    1.12921E+04
 1.11090E-01    1.08883E+04
 1.16790E-01    1.06647E+04
 1.22770E-01    1.04458E+04
 1.29070E-01    1.02310E+04
 1.35690E-01    1.00211E+04
 1.42640E-01    9.81542E+03
 1.49960E-01    9.61465E+03
 1.57640E-01    9.42128E+03
 1.65730E-01    9.23877E+03
 1.74220E-01    9.06014E+03
 1.83160E-01    8.88494E+03
 1.92550E-01    8.71351E+03
 2.02420E-01    8.55088E+03
 2.12800E-01    8.38511E+03
 2.23710E-01    8.22084E+03
 2.35180E-01    8.06373E+03
 2.47240E-01    7.84881E+03
 2.73240E-01    7.65304E+03
 2.87250E-01    7.56029E+03
 2.94520E-01    7.51950E+03
 2.97200E-01    7.50321E+03
 2.98500E-01    7.48373E+03
 3.01970E-01    7.34515E+03
 3.33730E-01    7.10913E+03
 3.68830E-01    6.93322E+03
 3.87740E-01    6.82288E+03
 4.07620E-01    6.69648E+03
 4.50490E-01    6.53568E+03
 4.97870E-01    6.42205E+03
 5.23400E-01    6.34323E+03
 5.50230E-01    6.26574E+03
 5.78440E-01    6.19358E+03
 6.08100E-01    6.14140E+03
 6.39280E-01    6.10144E+03
 6.72060E-01    6.05945E+03
 7.06510E-01    6.02744E+03
 7.42740E-01    6.00416E+03
 7.80820E-01    5.97968E+03
 8.20850E-01    5.95395E+03
 8.62940E-01    5.92689E+03
 9.07180E-01    5.89643E+03
 9.61640E-01    5.87042E+03
 1.00260E+00    5.88097E+03
 1.10800E+00    5.91506E+03
 1.16480E+00    5.95149E+03
 1.22460E+00    5.99203E+03
 1.28730E+00    6.04511E+03
 1.35340E+00    6.10271E+03
 1.42270E+00    6.16324E+03
 1.49570E+00    6.22689E+03
 1.57240E+00    6.29352E+03
 1.65300E+00    6.36351E+03
 1.73770E+00    6.43709E+03
 1.82680E+00    6.51085E+03
 1.92050E+00    6.57640E+03
 2.01900E+00    6.64124E+03
 2.12250E+00    6.69760E+03
 2.23130E+00    6.74566E+03
 2.30690E+00    6.77070E+03
 2.34570E+00    6.78085E+03
 2.36530E+00    6.78771E+03
 2.38520E+00    6.80512E+03
 2.46600E+00    6.83867E+03
 2.59240E+00    6.86358E+03
 2.72530E+00    6.88478E+03
 2.86500E+00    6.89486E+03
 3.01190E+00    6.88568E+03
 3.16640E+00    6.86344E+03
 3.32870E+00    6.82206E+03
 3.67880E+00    6.71593E+03
 4.06570E+00    6.55860E+03
 4.49330E+00    6.41139E+03
 4.72370E+00    6.29523E+03
 4.96590E+00    6.17186E+03
 5.22050E+00    6.03840E+03
 5.48810E+00    5.89741E+03
 5.76950E+00    5.74918E+03
 6.06530E+00    5.59719E+03
 6.37630E+00    5.47487E+03
 6.59240E+00    5.39957E+03
 6.70320E+00    5.30675E+03
 7.04690E+00    5.17741E+03
 7.40820E+00    5.06266E+03
 7.78800E+00    4.96796E+03
 8.18730E+00    4.89627E+03
 8.60710E+00    4.84623E+03
 9.04840E+00    4.81809E+03
 9.51230E+00    4.80744E+03
 1.00000E+01    4.81503E+03
 1.05130E+01    4.83879E+03
 1.10520E+01    4.87656E+03
 1.16180E+01    4.92716E+03
 1.22140E+01    4.98924E+03
 1.28400E+01    5.06113E+03
 1.34990E+01    5.11979E+03
 1.38400E+01    5.16071E+03
 1.41910E+01    5.20243E+03
 1.45500E+01    5.24420E+03
 1.49180E+01    5.30593E+03
 1.56830E+01    5.38269E+03
 1.64870E+01    5.44800E+03
