# n + Sn120 : (n,n'15)  
# tendl.2019 A.J. Koning and D. Rochman        EVAL-NOV19
# uncertainties: n
# # energies =    72
#   E(MeV)       xs(mb) 
 2.60901E+00    0.00000E+00
 2.66559E+00    5.74866E+00
 2.70775E+00    1.00322E+01
 2.71364E+00    1.06306E+01
 2.71862E+00    1.11366E+01
 2.75107E+00    1.44336E+01
 2.77284E+00    1.66455E+01
 2.77414E+00    1.67776E+01
 2.80000E+00    1.94050E+01
 2.82361E+00    1.98574E+01
 2.82557E+00    1.98950E+01
 2.85924E+00    2.05403E+01
 2.86038E+00    2.05621E+01
 2.86827E+00    2.07133E+01
 2.88165E+00    2.09697E+01
 2.92663E+00    2.18317E+01
 2.95518E+00    2.23788E+01
 3.00000E+00    2.32377E+01
 3.20000E+00    2.16396E+01
 3.40000E+00    1.84573E+01
 3.60000E+00    1.50890E+01
 3.80000E+00    1.20206E+01
 4.00000E+00    9.41430E+00
 4.20000E+00    7.29162E+00
 4.40000E+00    5.61107E+00
 4.60000E+00    4.30614E+00
 4.80000E+00    3.30581E+00
 5.00000E+00    2.54545E+00
 5.20000E+00    1.96794E+00
 5.40000E+00    1.52898E+00
 5.60000E+00    1.19439E+00
 5.80000E+00    9.37609E-01
 6.00000E+00    7.38988E-01
 6.20000E+00    5.84008E-01
 6.40000E+00    4.62121E-01
 6.60000E+00    3.64414E-01
 6.80000E+00    2.87616E-01
 7.00000E+00    2.27041E-01
 7.20000E+00    1.78770E-01
 7.40000E+00    1.40958E-01
 7.60000E+00    1.10881E-01
 7.80000E+00    8.70037E-02
 8.00000E+00    6.85511E-02
 8.50000E+00    3.76512E-02
 9.00000E+00    2.08469E-02
 9.50000E+00    1.16833E-02
 1.00000E+01    6.62153E-03
 1.05000E+01    3.79430E-03
 1.10000E+01    2.19855E-03
 1.15000E+01    1.28778E-03
 1.20000E+01    7.61446E-04
 1.25000E+01    4.54038E-04
 1.30000E+01    2.72824E-04
 1.35000E+01    1.65106E-04
 1.40000E+01    1.00593E-04
 1.45000E+01    6.17173E-05
 1.50000E+01    3.81138E-05
 1.60000E+01    1.48301E-05
 1.70000E+01    5.92339E-06
 1.80000E+01    2.42668E-06
 1.90000E+01    1.01857E-06
 2.00000E+01    4.32740E-07
 2.10000E+01    1.89520E-07
 2.20000E+01    8.43300E-08
 2.30000E+01    3.82230E-08
 2.40000E+01    1.75970E-08
 2.50000E+01    8.19130E-09
 2.60000E+01    3.85310E-09
 2.70000E+01    1.83240E-09
 2.80000E+01    8.81920E-10
 2.90000E+01    4.29650E-10
 3.00000E+01    2.11660E-10
