# n + Eu153 : (n,n'31)  
# jendl4.0   N.Iwamoto                         EVAL-Nov09
# uncertainties: n
# # energies =    61
#   E(MeV)       xs(mb) 
 7.06016E-01    0.00000E+00
 7.11290E-01    1.18355E+01
 7.15790E-01    1.55578E+01
 7.17814E-01    1.68438E+01
 7.20897E-01    1.86225E+01
 7.23430E-01    1.99190E+01
 7.37352E-01    2.55549E+01
 7.40855E-01    2.65147E+01
 7.65406E-01    3.26025E+01
 7.68838E-01    3.33248E+01
 8.00000E-01    3.80240E+01
 9.00000E-01    4.62766E+01
 1.00000E+00    4.81349E+01
 1.10000E+00    4.78037E+01
 1.20000E+00    4.56111E+01
 1.30000E+00    4.32340E+01
 1.40000E+00    4.01138E+01
 1.50000E+00    3.67561E+01
 1.60000E+00    3.36119E+01
 1.70000E+00    3.07097E+01
 1.80000E+00    2.76221E+01
 1.90000E+00    2.46876E+01
 2.00000E+00    2.19607E+01
 2.25000E+00    1.64855E+01
 2.50000E+00    1.17624E+01
 2.75000E+00    8.57047E+00
 3.00000E+00    6.04978E+00
 3.50000E+00    3.08862E+00
 4.00000E+00    1.54639E+00
 4.50000E+00    7.67300E-01
 5.00000E+00    3.84972E-01
 5.50000E+00    2.00904E-01
 6.00000E+00    1.12605E-01
 6.50000E+00    6.97974E-02
 7.00000E+00    4.85018E-02
 7.50000E+00    3.75205E-02
 8.00000E+00    3.13980E-02
 8.50000E+00    2.75978E-02
 9.00000E+00    2.49546E-02
 9.50000E+00    2.29522E-02
 1.00000E+01    2.13424E-02
 1.05000E+01    2.00053E-02
 1.10000E+01    1.88701E-02
 1.15000E+01    1.78796E-02
 1.20000E+01    1.69968E-02
 1.25000E+01    1.61906E-02
 1.30000E+01    1.54384E-02
 1.35000E+01    1.47275E-02
 1.40000E+01    1.40517E-02
 1.45000E+01    1.34099E-02
 1.50000E+01    1.28031E-02
 1.55000E+01    1.22306E-02
 1.60000E+01    1.16954E-02
 1.65000E+01    1.13252E-02
 1.70000E+01    1.08811E-02
 1.75000E+01    1.03212E-02
 1.80000E+01    9.91976E-03
 1.85000E+01    9.54031E-03
 1.90000E+01    9.24010E-03
 1.95000E+01    9.00014E-03
 2.00000E+01    8.67860E-03
