# n + Eu153 : (n,n'35)  
# jendl4.0   N.Iwamoto                         EVAL-Nov09
# uncertainties: n
# # energies =    57
#   E(MeV)       xs(mb) 
 7.20897E-01    0.00000E+00
 7.23430E-01    6.91765E-02
 7.37352E-01    2.01560E-01
 7.40855E-01    2.31322E-01
 7.65406E-01    4.55855E-01
 7.68838E-01    4.89806E-01
 8.00000E-01    8.31355E-01
 9.00000E-01    2.22420E+00
 1.00000E+00    3.77078E+00
 1.10000E+00    5.23757E+00
 1.20000E+00    6.37485E+00
 1.30000E+00    7.27423E+00
 1.40000E+00    7.82980E+00
 1.50000E+00    8.05672E+00
 1.60000E+00    8.15200E+00
 1.70000E+00    8.14611E+00
 1.80000E+00    7.93706E+00
 1.90000E+00    7.60977E+00
 2.00000E+00    7.21691E+00
 2.25000E+00    6.22434E+00
 2.50000E+00    4.99278E+00
 2.75000E+00    3.99559E+00
 3.00000E+00    3.04632E+00
 3.50000E+00    1.73388E+00
 4.00000E+00    9.28464E-01
 4.50000E+00    4.80772E-01
 5.00000E+00    2.47492E-01
 5.50000E+00    1.30026E-01
 6.00000E+00    7.15426E-02
 6.50000E+00    4.22857E-02
 7.00000E+00    2.74547E-02
 7.50000E+00    1.98171E-02
 8.00000E+00    1.56968E-02
 8.50000E+00    1.32981E-02
 9.00000E+00    1.17587E-02
 9.50000E+00    1.06764E-02
 1.00000E+01    9.85533E-03
 1.05000E+01    9.19994E-03
 1.10000E+01    8.65781E-03
 1.15000E+01    8.19263E-03
 1.20000E+01    7.78240E-03
 1.25000E+01    7.41030E-03
 1.30000E+01    7.07467E-03
 1.35000E+01    6.76970E-03
 1.40000E+01    6.47677E-03
 1.45000E+01    6.19563E-03
 1.50000E+01    5.92707E-03
 1.55000E+01    5.59568E-03
 1.60000E+01    5.35064E-03
 1.65000E+01    5.20024E-03
 1.70000E+01    5.02227E-03
 1.75000E+01    4.78640E-03
 1.80000E+01    4.53883E-03
 1.85000E+01    4.36512E-03
 1.90000E+01    4.23298E-03
 1.95000E+01    4.13834E-03
 2.00000E+01    4.00517E-03
