# n + Eu153 : (n,n'20)  
# jendl4.0   N.Iwamoto                         EVAL-Nov09
# uncertainties: n
# # energies =    74
#   E(MeV)       xs(mb) 
 5.73065E-01    0.00000E+00
 5.88879E-01    2.85817E+01
 5.93227E-01    3.17313E+01
 6.00000E-01    3.59503E+01
 6.21251E-01    4.58694E+01
 6.38806E-01    5.14320E+01
 6.40714E-01    5.19871E+01
 6.45819E-01    5.33621E+01
 6.59018E-01    5.62179E+01
 6.62018E-01    5.69101E+01
 6.86398E-01    6.11070E+01
 6.98764E-01    6.27780E+01
 7.00000E-01    6.27805E+01
 7.06016E-01    6.34317E+01
 7.11290E-01    6.35596E+01
 7.15790E-01    6.36712E+01
 7.17814E-01    6.36841E+01
 7.20897E-01    6.38433E+01
 7.23430E-01    6.40171E+01
 7.37352E-01    6.49814E+01
 7.40855E-01    6.48206E+01
 7.65406E-01    6.54048E+01
 7.68838E-01    6.54991E+01
 8.00000E-01    6.60238E+01
 9.00000E-01    6.67362E+01
 1.00000E+00    6.44043E+01
 1.10000E+00    6.05070E+01
 1.20000E+00    5.67441E+01
 1.30000E+00    5.16088E+01
 1.40000E+00    4.68904E+01
 1.50000E+00    4.26163E+01
 1.60000E+00    3.85254E+01
 1.70000E+00    3.43560E+01
 1.80000E+00    3.05081E+01
 1.90000E+00    2.69836E+01
 2.00000E+00    2.37899E+01
 2.25000E+00    1.75683E+01
 2.50000E+00    1.23919E+01
 2.75000E+00    8.96726E+00
 3.00000E+00    6.33369E+00
 3.50000E+00    3.22843E+00
 4.00000E+00    1.62140E+00
 4.50000E+00    8.14223E-01
 5.00000E+00    4.19987E-01
 5.50000E+00    2.30126E-01
 6.00000E+00    1.38598E-01
 6.50000E+00    9.35208E-02
 7.00000E+00    7.03996E-02
 7.50000E+00    5.77672E-02
 8.00000E+00    5.01521E-02
 8.50000E+00    4.49902E-02
 9.00000E+00    4.11189E-02
 9.50000E+00    3.80277E-02
 1.00000E+01    3.54615E-02
 1.05000E+01    3.32890E-02
 1.10000E+01    3.14205E-02
 1.15000E+01    2.97805E-02
 1.20000E+01    2.83107E-02
 1.25000E+01    2.69630E-02
 1.30000E+01    2.57016E-02
 1.35000E+01    2.45078E-02
 1.40000E+01    2.33728E-02
 1.45000E+01    2.22958E-02
 1.50000E+01    2.12788E-02
 1.55000E+01    2.03233E-02
 1.60000E+01    1.94312E-02
 1.65000E+01    1.86134E-02
 1.70000E+01    1.78516E-02
 1.75000E+01    1.71377E-02
 1.80000E+01    1.64694E-02
 1.85000E+01    1.58370E-02
 1.90000E+01    1.52397E-02
 1.95000E+01    1.46635E-02
 2.00000E+01    1.41036E-02
