# n + Eu153 : (n,n'30)  
# jendl4.0   N.Iwamoto                         EVAL-Nov09
# uncertainties: n
# # energies =    63
#   E(MeV)       xs(mb) 
 6.98764E-01    0.00000E+00
 7.00000E-01    7.78644E+00
 7.06016E-01    1.76459E+01
 7.11290E-01    2.23177E+01
 7.15790E-01    2.51402E+01
 7.17814E-01    2.62926E+01
 7.20897E-01    2.77813E+01
 7.23430E-01    2.89847E+01
 7.37352E-01    3.41241E+01
 7.40855E-01    3.51027E+01
 7.65406E-01    4.10771E+01
 7.68838E-01    4.16878E+01
 8.00000E-01    4.63843E+01
 9.00000E-01    5.30136E+01
 1.00000E+00    5.30290E+01
 1.10000E+00    5.13408E+01
 1.20000E+00    4.80734E+01
 1.30000E+00    4.49389E+01
 1.40000E+00    4.11656E+01
 1.50000E+00    3.73932E+01
 1.60000E+00    3.39361E+01
 1.70000E+00    3.07917E+01
 1.80000E+00    2.75027E+01
 1.90000E+00    2.44377E+01
 2.00000E+00    2.16198E+01
 2.25000E+00    1.60285E+01
 2.50000E+00    1.13004E+01
 2.75000E+00    8.15141E+00
 3.00000E+00    5.73370E+00
 3.50000E+00    2.90514E+00
 4.00000E+00    1.45740E+00
 4.50000E+00    7.32469E-01
 5.00000E+00    3.78002E-01
 5.50000E+00    2.07409E-01
 6.00000E+00    1.25242E-01
 6.50000E+00    8.49099E-02
 7.00000E+00    6.42765E-02
 7.50000E+00    5.30626E-02
 8.00000E+00    4.62788E-02
 8.50000E+00    4.16485E-02
 9.00000E+00    3.81437E-02
 9.50000E+00    3.53214E-02
 1.00000E+01    3.29622E-02
 1.05000E+01    3.09563E-02
 1.10000E+01    2.92296E-02
 1.15000E+01    2.77107E-02
 1.20000E+01    2.63503E-02
 1.25000E+01    2.51044E-02
 1.30000E+01    2.39398E-02
 1.35000E+01    2.28381E-02
 1.40000E+01    2.17903E-02
 1.45000E+01    2.07950E-02
 1.50000E+01    1.98536E-02
 1.55000E+01    1.89662E-02
 1.60000E+01    1.81366E-02
 1.65000E+01    1.75302E-02
 1.70000E+01    1.67985E-02
 1.75000E+01    1.60043E-02
 1.80000E+01    1.53821E-02
 1.85000E+01    1.47938E-02
 1.90000E+01    1.43194E-02
 1.95000E+01    1.39215E-02
 2.00000E+01    1.33992E-02
