# n + Eu153 : (n,n'24)  
# jendl4.0   N.Iwamoto                         EVAL-Nov09
# uncertainties: n
# # energies =    69
#   E(MeV)       xs(mb) 
 6.38806E-01    0.00000E+00
 6.40714E-01    4.30511E+00
 6.45819E-01    7.42776E+00
 6.59018E-01    1.13920E+01
 6.62018E-01    1.20518E+01
 6.86398E-01    1.61338E+01
 6.98764E-01    1.76902E+01
 7.00000E-01    1.78368E+01
 7.06016E-01    1.85017E+01
 7.11290E-01    1.90469E+01
 7.15790E-01    1.94910E+01
 7.17814E-01    1.96869E+01
 7.20897E-01    1.97139E+01
 7.23430E-01    1.98691E+01
 7.37352E-01    2.04024E+01
 7.40855E-01    2.05948E+01
 7.65406E-01    2.17708E+01
 7.68838E-01    2.18116E+01
 8.00000E-01    2.29086E+01
 9.00000E-01    2.43423E+01
 1.00000E+00    2.37454E+01
 1.10000E+00    2.25404E+01
 1.20000E+00    2.11691E+01
 1.30000E+00    1.96656E+01
 1.40000E+00    1.79031E+01
 1.50000E+00    1.63056E+01
 1.60000E+00    1.48315E+01
 1.70000E+00    1.33419E+01
 1.80000E+00    1.18919E+01
 1.90000E+00    1.05469E+01
 2.00000E+00    9.31491E+00
 2.25000E+00    6.88857E+00
 2.50000E+00    4.83280E+00
 2.75000E+00    3.47693E+00
 3.00000E+00    2.47442E+00
 3.50000E+00    1.26273E+00
 4.00000E+00    6.46275E-01
 4.50000E+00    3.38864E-01
 5.00000E+00    1.88497E-01
 5.50000E+00    1.15511E-01
 6.00000E+00    7.96776E-02
 6.50000E+00    6.13390E-02
 7.00000E+00    5.12081E-02
 7.50000E+00    4.49743E-02
 8.00000E+00    4.06198E-02
 8.50000E+00    3.72345E-02
 9.00000E+00    3.44243E-02
 9.50000E+00    3.20315E-02
 1.00000E+01    2.99668E-02
 1.05000E+01    2.81785E-02
 1.10000E+01    2.66225E-02
 1.15000E+01    2.52461E-02
 1.20000E+01    2.40083E-02
 1.25000E+01    2.28716E-02
 1.30000E+01    2.18070E-02
 1.35000E+01    2.07992E-02
 1.40000E+01    1.98404E-02
 1.45000E+01    1.89301E-02
 1.50000E+01    1.80697E-02
 1.55000E+01    1.72636E-02
 1.60000E+01    1.65081E-02
 1.65000E+01    1.58113E-02
 1.70000E+01    1.51621E-02
 1.75000E+01    1.45586E-02
 1.80000E+01    1.39941E-02
 1.85000E+01    1.34601E-02
 1.90000E+01    1.29558E-02
 1.95000E+01    1.24654E-02
 2.00000E+01    1.19893E-02
