# n + Eu153 : (n,n'19)  
# jendl4.0   N.Iwamoto                         EVAL-Nov09
# uncertainties: n
# # energies =    75
#   E(MeV)       xs(mb) 
 5.63431E-01    0.00000E+00
 5.73065E-01    1.31382E+00
 5.88879E-01    2.59132E+00
 5.93227E-01    2.91617E+00
 6.00000E-01    3.44876E+00
 6.21251E-01    5.12604E+00
 6.38806E-01    6.49086E+00
 6.40714E-01    6.63827E+00
 6.45819E-01    7.03257E+00
 6.59018E-01    8.06348E+00
 6.62018E-01    8.29867E+00
 6.86398E-01    1.00514E+01
 6.98764E-01    1.09189E+01
 7.00000E-01    1.10055E+01
 7.06016E-01    1.14316E+01
 7.11290E-01    1.17625E+01
 7.15790E-01    1.20661E+01
 7.17814E-01    1.21291E+01
 7.20897E-01    1.22982E+01
 7.23430E-01    1.24326E+01
 7.37352E-01    1.31764E+01
 7.40855E-01    1.33318E+01
 7.65406E-01    1.45922E+01
 7.68838E-01    1.47710E+01
 8.00000E-01    1.62826E+01
 9.00000E-01    1.97677E+01
 1.00000E+00    2.14247E+01
 1.10000E+00    2.18334E+01
 1.20000E+00    2.17722E+01
 1.30000E+00    2.08461E+01
 1.40000E+00    1.98412E+01
 1.50000E+00    1.88121E+01
 1.60000E+00    1.76701E+01
 1.70000E+00    1.63642E+01
 1.80000E+00    1.50586E+01
 1.90000E+00    1.37779E+01
 2.00000E+00    1.25451E+01
 2.25000E+00    9.96822E+00
 2.50000E+00    7.49373E+00
 2.75000E+00    5.71015E+00
 3.00000E+00    4.20941E+00
 3.50000E+00    2.27920E+00
 4.00000E+00    1.19363E+00
 4.50000E+00    6.20018E-01
 5.00000E+00    3.27829E-01
 5.50000E+00    1.81077E-01
 6.00000E+00    1.07475E-01
 6.50000E+00    7.00802E-02
 7.00000E+00    5.06324E-02
 7.50000E+00    4.01136E-02
 8.00000E+00    3.39934E-02
 8.50000E+00    3.00490E-02
 9.00000E+00    2.72333E-02
 9.50000E+00    2.50683E-02
 1.00000E+01    2.33162E-02
 1.05000E+01    2.18563E-02
 1.10000E+01    2.06126E-02
 1.15000E+01    1.95276E-02
 1.20000E+01    1.85587E-02
 1.25000E+01    1.76721E-02
 1.30000E+01    1.68433E-02
 1.35000E+01    1.60595E-02
 1.40000E+01    1.53147E-02
 1.45000E+01    1.46082E-02
 1.50000E+01    1.39412E-02
 1.55000E+01    1.33154E-02
 1.60000E+01    1.27310E-02
 1.65000E+01    1.21955E-02
 1.70000E+01    1.16944E-02
 1.75000E+01    1.12267E-02
 1.80000E+01    1.07890E-02
 1.85000E+01    1.03749E-02
 1.90000E+01    9.98372E-03
 1.95000E+01    9.60626E-03
 2.00000E+01    9.23949E-03
