# n + Eu153 : (n,np)    
# jendl4.0   N.Iwamoto                         EVAL-Nov09
# uncertainties: n
# # energies =    28
#   E(MeV)       xs(mb) 
 5.93255E+00    0.00000E+00
 7.00000E+00    6.56390E-17
 7.50000E+00    2.13130E-10
 8.00000E+00    1.22430E-07
 8.50000E+00    7.85496E-06
 9.00000E+00    7.38036E-05
 9.50000E+00    1.95131E-04
 1.00000E+01    6.13169E-04
 1.05000E+01    1.97152E-03
 1.10000E+01    5.55775E-03
 1.15000E+01    1.35880E-02
 1.20000E+01    2.95796E-02
 1.25000E+01    5.88724E-02
 1.30000E+01    1.08561E-01
 1.35000E+01    1.91694E-01
 1.40000E+01    3.23785E-01
 1.45000E+01    5.25994E-01
 1.50000E+01    8.23914E-01
 1.55000E+01    1.25289E+00
 1.60000E+01    1.82760E+00
 1.65000E+01    2.58293E+00
 1.70000E+01    3.52745E+00
 1.75000E+01    4.65822E+00
 1.80000E+01    6.03122E+00
 1.85000E+01    7.58219E+00
 1.90000E+01    9.29112E+00
 1.95000E+01    1.11757E+01
 2.00000E+01    1.32237E+01
