# n + Eu153 : (n,n'01)  
# jendl4.0   N.Iwamoto                         EVAL-Nov09
# uncertainties: n
# # energies =   111
#   E(MeV)       xs(mb) 
 8.39169E-02    0.00000E+00
 9.00000E-02    2.25085E+02
 9.80736E-02    2.90893E+02
 1.00000E-01    2.99187E+02
 1.03861E-01    3.15368E+02
 1.10000E-01    3.35620E+02
 1.20000E-01    3.58528E+02
 1.30000E-01    3.74309E+02
 1.40000E-01    3.86014E+02
 1.50000E-01    3.94875E+02
 1.52624E-01    3.96679E+02
 1.60000E-01    3.89732E+02
 1.70000E-01    3.91471E+02
 1.73993E-01    3.92299E+02
 1.80000E-01    3.76928E+02
 1.90000E-01    3.71468E+02
 1.94338E-01    3.69989E+02
 2.00000E-01    3.65193E+02
 2.25000E-01    3.58580E+02
 2.36833E-01    3.56827E+02
 2.50000E-01    3.49192E+02
 2.71515E-01    3.46147E+02
 2.75000E-01    3.38527E+02
 3.00000E-01    3.28342E+02
 3.23982E-01    3.25486E+02
 3.27210E-01    3.25202E+02
 3.99018E-01    3.17219E+02
 4.00000E-01    3.16528E+02
 4.05949E-01    3.15752E+02
 4.45542E-01    3.12344E+02
 4.51094E-01    3.08926E+02
 4.81079E-01    2.98378E+02
 4.84224E-01    2.97766E+02
 5.00000E-01    2.94929E+02
 5.41489E-01    2.90328E+02
 5.56117E-01    2.88809E+02
 5.63431E-01    2.88070E+02
 5.73065E-01    2.87326E+02
 5.88879E-01    2.83078E+02
 5.93227E-01    2.82027E+02
 6.00000E-01    2.80983E+02
 6.21251E-01    2.78650E+02
 6.38806E-01    2.74711E+02
 6.40714E-01    2.74354E+02
 6.45819E-01    2.73219E+02
 6.59018E-01    2.69519E+02
 6.62018E-01    2.69039E+02
 6.86398E-01    2.63761E+02
 6.98764E-01    2.61053E+02
 7.00000E-01    2.60326E+02
 7.06016E-01    2.58895E+02
 7.11290E-01    2.56891E+02
 7.15790E-01    2.54955E+02
 7.17814E-01    2.53934E+02
 7.20897E-01    2.52460E+02
 7.23430E-01    2.51560E+02
 7.37352E-01    2.47177E+02
 7.40855E-01    2.45589E+02
 7.65406E-01    2.38715E+02
 7.68838E-01    2.37877E+02
 8.00000E-01    2.31037E+02
 9.00000E-01    2.17779E+02
 1.00000E+00    2.06650E+02
 1.10000E+00    1.96450E+02
 1.20000E+00    1.86670E+02
 1.30000E+00    1.78225E+02
 1.40000E+00    1.71200E+02
 1.50000E+00    1.65525E+02
 1.60000E+00    1.61062E+02
 1.70000E+00    1.57767E+02
 1.80000E+00    1.55543E+02
 1.90000E+00    1.54209E+02
 2.00000E+00    1.53605E+02
 2.25000E+00    1.54713E+02
 2.50000E+00    1.56649E+02
 2.75000E+00    1.59371E+02
 3.00000E+00    1.61686E+02
 3.50000E+00    1.65286E+02
 4.00000E+00    1.66466E+02
 4.50000E+00    1.65397E+02
 5.00000E+00    1.63515E+02
 5.50000E+00    1.61936E+02
 6.00000E+00    1.61061E+02
 6.50000E+00    1.60780E+02
 7.00000E+00    1.60688E+02
 7.50000E+00    1.60438E+02
 8.00000E+00    1.59841E+02
 8.50000E+00    1.58795E+02
 9.00000E+00    1.57366E+02
 9.50000E+00    1.55627E+02
 1.00000E+01    1.53733E+02
 1.05000E+01    1.51824E+02
 1.10000E+01    1.50033E+02
 1.15000E+01    1.48462E+02
 1.20000E+01    1.47159E+02
 1.25000E+01    1.46116E+02
 1.30000E+01    1.45274E+02
 1.35000E+01    1.44551E+02
 1.40000E+01    1.43872E+02
 1.45000E+01    1.43189E+02
 1.50000E+01    1.42488E+02
 1.55000E+01    1.41779E+02
 1.60000E+01    1.41087E+02
 1.65000E+01    1.40446E+02
 1.70000E+01    1.39888E+02
 1.75000E+01    1.39441E+02
 1.80000E+01    1.39111E+02
 1.85000E+01    1.38885E+02
 1.90000E+01    1.38725E+02
 1.95000E+01    1.38584E+02
 2.00000E+01    1.38417E+02
