# n + Eu153 : (n,n'05)  
# jendl4.0   N.Iwamoto                         EVAL-Nov09
# uncertainties: n
# # energies =    98
#   E(MeV)       xs(mb) 
 1.73993E-01    0.00000E+00
 1.80000E-01    1.50639E+02
 1.90000E-01    2.09468E+02
 1.94338E-01    2.24603E+02
 2.00000E-01    2.40298E+02
 2.25000E-01    2.79143E+02
 2.36833E-01    2.89217E+02
 2.50000E-01    2.94443E+02
 2.71515E-01    3.03776E+02
 2.75000E-01    3.00338E+02
 3.00000E-01    2.98601E+02
 3.23982E-01    2.98926E+02
 3.27210E-01    2.98932E+02
 3.99018E-01    2.91249E+02
 4.00000E-01    2.91178E+02
 4.05949E-01    2.91123E+02
 4.45542E-01    2.87408E+02
 4.51094E-01    2.81733E+02
 4.81079E-01    2.68146E+02
 4.84224E-01    2.67288E+02
 5.00000E-01    2.63533E+02
 5.41489E-01    2.56171E+02
 5.56117E-01    2.53818E+02
 5.63431E-01    2.52727E+02
 5.73065E-01    2.51329E+02
 5.88879E-01    2.45938E+02
 5.93227E-01    2.44643E+02
 6.00000E-01    2.42908E+02
 6.21251E-01    2.38080E+02
 6.38806E-01    2.30997E+02
 6.40714E-01    2.30186E+02
 6.45819E-01    2.27584E+02
 6.59018E-01    2.20780E+02
 6.62018E-01    2.19780E+02
 6.86398E-01    2.09849E+02
 6.98764E-01    2.05081E+02
 7.00000E-01    2.03955E+02
 7.06016E-01    2.01396E+02
 7.11290E-01    1.98941E+02
 7.15790E-01    1.96151E+02
 7.17814E-01    1.95184E+02
 7.20897E-01    1.93159E+02
 7.23430E-01    1.91991E+02
 7.37352E-01    1.85689E+02
 7.40855E-01    1.84034E+02
 7.65406E-01    1.75215E+02
 7.68838E-01    1.73870E+02
 8.00000E-01    1.65027E+02
 9.00000E-01    1.41418E+02
 1.00000E+00    1.21147E+02
 1.10000E+00    1.05070E+02
 1.20000E+00    9.15217E+01
 1.30000E+00    7.90285E+01
 1.40000E+00    6.82593E+01
 1.50000E+00    5.89353E+01
 1.60000E+00    5.07981E+01
 1.70000E+00    4.37544E+01
 1.80000E+00    3.77053E+01
 1.90000E+00    3.24926E+01
 2.00000E+00    2.80058E+01
 2.25000E+00    1.97799E+01
 2.50000E+00    1.35030E+01
 2.75000E+00    9.54420E+00
 3.00000E+00    6.57273E+00
 3.50000E+00    3.22889E+00
 4.00000E+00    1.56248E+00
 4.50000E+00    7.53305E-01
 5.00000E+00    3.69781E-01
 5.50000E+00    1.89338E-01
 6.00000E+00    1.04237E-01
 6.50000E+00    6.34568E-02
 7.00000E+00    4.33725E-02
 7.50000E+00    3.30733E-02
 8.00000E+00    2.73895E-02
 8.50000E+00    2.39033E-02
 9.00000E+00    2.15157E-02
 9.50000E+00    1.97350E-02
 1.00000E+01    1.83226E-02
 1.05000E+01    1.71610E-02
 1.10000E+01    1.61721E-02
 1.15000E+01    1.53094E-02
 1.20000E+01    1.45362E-02
 1.25000E+01    1.38258E-02
 1.30000E+01    1.31600E-02
 1.35000E+01    1.25308E-02
 1.40000E+01    1.19345E-02
 1.45000E+01    1.13713E-02
 1.50000E+01    1.08421E-02
 1.55000E+01    1.03463E-02
 1.60000E+01    9.88481E-03
 1.65000E+01    9.46261E-03
 1.70000E+01    9.06955E-03
 1.75000E+01    8.70384E-03
 1.80000E+01    8.36077E-03
 1.85000E+01    8.03517E-03
 1.90000E+01    7.72668E-03
 1.95000E+01    7.42844E-03
 2.00000E+01    7.13865E-03
