# n + Eu153 : (n,n'33)  
# jendl4.0   N.Iwamoto                         EVAL-Nov09
# uncertainties: n
# # energies =    59
#   E(MeV)       xs(mb) 
 7.15790E-01    0.00000E+00
 7.17814E-01    4.67656E+00
 7.20897E-01    7.19559E+00
 7.23430E-01    8.64759E+00
 7.37352E-01    1.37496E+01
 7.40855E-01    1.46286E+01
 7.65406E-01    1.95216E+01
 7.68838E-01    2.00828E+01
 8.00000E-01    2.40711E+01
 9.00000E-01    3.14947E+01
 1.00000E+00    3.41894E+01
 1.10000E+00    3.49297E+01
 1.20000E+00    3.42138E+01
 1.30000E+00    3.31003E+01
 1.40000E+00    3.13435E+01
 1.50000E+00    2.91647E+01
 1.60000E+00    2.70530E+01
 1.70000E+00    2.50476E+01
 1.80000E+00    2.28405E+01
 1.90000E+00    2.06569E+01
 2.00000E+00    1.85809E+01
 2.25000E+00    1.43057E+01
 2.50000E+00    1.04403E+01
 2.75000E+00    7.74995E+00
 3.00000E+00    5.53671E+00
 3.50000E+00    2.87896E+00
 4.00000E+00    1.45124E+00
 4.50000E+00    7.17889E-01
 5.00000E+00    3.54695E-01
 5.50000E+00    1.78843E-01
 6.00000E+00    9.43119E-02
 6.50000E+00    5.34805E-02
 7.00000E+00    3.34798E-02
 7.50000E+00    2.35289E-02
 8.00000E+00    1.83423E-02
 8.50000E+00    1.54169E-02
 9.00000E+00    1.35855E-02
 9.50000E+00    1.23190E-02
 1.00000E+01    1.13670E-02
 1.05000E+01    1.06103E-02
 1.10000E+01    9.98550E-03
 1.15000E+01    9.44958E-03
 1.20000E+01    8.97687E-03
 1.25000E+01    8.54795E-03
 1.30000E+01    8.14922E-03
 1.35000E+01    7.77325E-03
 1.40000E+01    7.43612E-03
 1.45000E+01    7.11566E-03
 1.50000E+01    6.80938E-03
 1.55000E+01    6.45484E-03
 1.60000E+01    6.17224E-03
 1.65000E+01    5.99133E-03
 1.70000E+01    5.77618E-03
 1.75000E+01    5.49509E-03
 1.80000E+01    5.23555E-03
 1.85000E+01    5.03522E-03
 1.90000E+01    4.88075E-03
 1.95000E+01    4.76566E-03
 2.00000E+01    4.60660E-03
