# n + Cd106 : (n,tot)   
# endfb8.0   I.Sirakov,S.Kopecky+,JNDC FPND WG EVAL-OCT10
# uncertainties: n
# # energies =   171
#   E(MeV)       xs(mb) 
 1.00000E-11    1.85099E+04
 1.00000E-07    4.89735E+03
 4.13990E-07    4.76768E+03
 5.31580E-07    4.73953E+03
 6.82560E-07    4.71443E+03
 8.76420E-07    4.69180E+03
 1.12540E-06    4.67241E+03
 1.44500E-06    4.65361E+03
 1.85540E-06    4.63931E+03
 2.37240E-06    4.62228E+03
 3.05900E-06    4.60480E+03
 3.92790E-06    4.59203E+03
 5.04350E-06    4.57589E+03
 6.47600E-06    4.55762E+03
 8.31530E-06    4.54316E+03
 1.06770E-05    4.52539E+03
 1.37100E-05    4.50276E+03
 1.76030E-05    4.48132E+03
 2.26030E-05    4.45771E+03
 2.92030E-05    4.42781E+03
 3.72670E-05    4.39778E+03
 4.78510E-05    4.36519E+03
 6.14420E-05    4.32571E+03
 7.88930E-05    4.28767E+03
 1.01300E-04    4.24127E+03
 1.30070E-04    4.19142E+03
 1.67020E-04    4.13096E+03
 2.14450E-04    4.05333E+03
 2.75360E-04    3.93408E+03
 3.53580E-04    3.49829E+03
 4.54000E-04    1.20072E+04
 5.82950E-04    3.73399E+04
 7.48520E-04    4.86671E+03
 9.61120E-04    4.49326E+03
 1.23410E-03    4.32777E+03
 1.58460E-03    4.17688E+03
 2.03470E-03    4.03804E+03
 2.24870E-03    3.90682E+03
 2.48520E-03    3.75818E+03
 2.61260E-03    1.07562E+04
 2.74650E-03    1.01389E+04
 3.03540E-03    1.58816E+04
 3.35460E-03    1.19501E+04
 3.70740E-03    8.87881E+03
 4.30740E-03    1.28718E+04
 5.53080E-03    8.81160E+03
 7.10170E-03    8.48722E+03
 9.11880E-03    8.07451E+03
 1.17090E-02    7.74173E+03
 1.50340E-02    7.48048E+03
 1.93050E-02    7.32684E+03
 2.18750E-02    7.26067E+03
 2.35790E-02    7.23202E+03
 2.41760E-02    7.21743E+03
 2.47880E-02    7.19735E+03
 2.60580E-02    7.17694E+03
 2.70000E-02    7.15608E+03
 2.85000E-02    7.12379E+03
 3.18280E-02    7.09378E+03
 3.43070E-02    7.06534E+03
 4.08680E-02    7.04528E+03
 4.63090E-02    7.04077E+03
 5.24750E-02    7.04409E+03
 5.65620E-02    7.05701E+03
 6.73790E-02    7.07587E+03
 7.20000E-02    7.09287E+03
 7.95000E-02    7.10850E+03
 8.25000E-02    7.11908E+03
 8.65170E-02    7.14227E+03
 9.80370E-02    7.16963E+03
 1.11090E-01    7.21669E+03
 1.16790E-01    7.24824E+03
 1.22770E-01    7.28141E+03
 1.29070E-01    7.31631E+03
 1.35690E-01    7.34937E+03
 1.42640E-01    7.37786E+03
 1.49960E-01    7.40770E+03
 1.57640E-01    7.43752E+03
 1.65730E-01    7.46126E+03
 1.74220E-01    7.48520E+03
 1.83160E-01    7.51037E+03
 1.92550E-01    7.53682E+03
 2.02420E-01    7.55394E+03
 2.12800E-01    7.55926E+03
 2.23710E-01    7.56483E+03
 2.35180E-01    7.57069E+03
 2.47240E-01    7.58008E+03
 2.73240E-01    7.59013E+03
 2.87250E-01    7.59545E+03
 2.94520E-01    7.59793E+03
 2.97200E-01    7.59892E+03
 2.98500E-01    7.59940E+03
 3.01970E-01    7.58637E+03
 3.33730E-01    7.56050E+03
 3.68830E-01    7.53942E+03
 3.87740E-01    7.52440E+03
 4.07620E-01    7.48728E+03
 4.50490E-01    7.42329E+03
 4.97870E-01    7.37113E+03
 5.23400E-01    7.33398E+03
 5.50230E-01    7.29488E+03
 5.78440E-01    7.25283E+03
 6.08100E-01    7.20757E+03
 6.39280E-01    7.15717E+03
 6.72060E-01    7.10389E+03
 7.06510E-01    7.04787E+03
 7.42740E-01    6.98898E+03
 7.80820E-01    6.92857E+03
 8.20850E-01    6.86801E+03
 8.62940E-01    6.80442E+03
 9.07180E-01    6.73183E+03
 9.61640E-01    6.66135E+03
 1.00260E+00    6.54979E+03
 1.10800E+00    6.41924E+03
 1.16480E+00    6.33317E+03
 1.22460E+00    6.26341E+03
 1.28730E+00    6.19181E+03
 1.35340E+00    6.12359E+03
 1.42270E+00    6.05431E+03
 1.49570E+00    5.97609E+03
 1.57240E+00    5.88018E+03
 1.65300E+00    5.77871E+03
 1.73770E+00    5.67203E+03
 1.82680E+00    5.56605E+03
 1.92050E+00    5.46062E+03
 2.01900E+00    5.33978E+03
 2.12250E+00    5.20531E+03
 2.23130E+00    5.09614E+03
 2.30690E+00    5.03350E+03
 2.34570E+00    5.00157E+03
 2.36530E+00    4.98000E+03
 2.38520E+00    4.92593E+03
 2.46600E+00    4.83214E+03
 2.59240E+00    4.72361E+03
 2.72530E+00    4.62221E+03
 2.86500E+00    4.51894E+03
 3.01190E+00    4.42857E+03
 3.16640E+00    4.34836E+03
 3.32870E+00    4.22840E+03
 3.67880E+00    4.07596E+03
 4.06570E+00    3.99059E+03
 4.49330E+00    3.95392E+03
 4.72370E+00    3.92779E+03
 4.96590E+00    3.91770E+03
 5.22050E+00    3.93643E+03
 5.48810E+00    3.95656E+03
 5.76950E+00    3.97780E+03
 6.06530E+00    4.01282E+03
 6.37630E+00    4.05135E+03
 6.59240E+00    4.07524E+03
 6.70320E+00    4.10819E+03
 7.04690E+00    4.15974E+03
 7.40820E+00    4.21511E+03
 7.78800E+00    4.27355E+03
 8.18730E+00    4.33499E+03
 8.60710E+00    4.39528E+03
 9.04840E+00    4.45110E+03
 9.51230E+00    4.50171E+03
 1.00000E+01    4.54012E+03
 1.05130E+01    4.56138E+03
 1.10520E+01    4.58259E+03
 1.16180E+01    4.59999E+03
 1.22140E+01    4.57160E+03
 1.28400E+01    4.53035E+03
 1.34990E+01    4.49964E+03
 1.38400E+01    4.47528E+03
 1.41910E+01    4.43049E+03
 1.45500E+01    4.38331E+03
 1.49180E+01    4.30042E+03
 1.56830E+01    4.17076E+03
 1.64870E+01    4.01950E+03
