# n + Gd154 : (n,p)     
# jendl.ad   N.Iwamoto                         EVAL-Apr14
# uncertainties: n
# # energies =    79
#   E(MeV)       xs(mb) 
 1.19427E+00    0.00000E+00
 1.26289E+00    2.92320E-16
 1.26665E+00    3.08340E-16
 1.27546E+00    3.45870E-16
 1.27649E+00    3.50250E-16
 1.27763E+00    3.55110E-16
 1.29487E+00    4.28550E-16
 1.29532E+00    4.30470E-16
 1.29579E+00    4.32470E-16
 1.31763E+00    5.25510E-16
 1.32254E+00    5.46420E-16
 1.32480E+00    5.56050E-16
 1.32994E+00    5.77950E-16
 1.33186E+00    5.86130E-16
 1.34052E+00    6.23020E-16
 1.34888E+00    6.59840E-16
 1.35777E+00    6.99000E-16
 1.36901E+00    7.48510E-16
 1.37090E+00    7.56830E-16
 1.37620E+00    7.80180E-16
 1.37627E+00    7.80480E-16
 1.38053E+00    7.99250E-16
 1.38783E+00    8.31400E-16
 1.39168E+00    8.48360E-16
 1.39942E+00    8.82450E-16
 1.40975E+00    9.27950E-16
 1.41519E+00    9.51910E-16
 1.42557E+00    9.97630E-16
 1.42667E+00    1.00250E-15
 1.43109E+00    1.02200E-15
 1.43513E+00    1.03970E-15
 1.44532E+00    1.08460E-15
 1.44775E+00    1.09530E-15
 1.45115E+00    1.11030E-15
 1.45415E+00    1.12350E-15
 1.46891E+00    1.18850E-15
 1.47278E+00    1.20560E-15
 1.47464E+00    1.21380E-15
 1.47514E+00    1.21600E-15
 1.47548E+00    1.21750E-15
 1.47780E+00    1.22770E-15
 2.25000E+00    4.62900E-15
 2.50000E+00    3.13970E-12
 2.75000E+00    2.69780E-10
 3.00000E+00    7.90830E-09
 3.50000E+00    1.01702E-06
 4.00000E+00    2.65307E-05
 4.50000E+00    2.62559E-04
 5.00000E+00    1.16695E-03
 5.50000E+00    4.01470E-03
 6.00000E+00    1.02211E-02
 6.50000E+00    2.10158E-02
 7.00000E+00    3.73956E-02
 7.50000E+00    6.10268E-02
 8.00000E+00    9.60419E-02
 8.50000E+00    1.51489E-01
 9.00000E+00    2.42354E-01
 9.50000E+00    3.89722E-01
 1.00000E+01    6.19637E-01
 1.05000E+01    9.60948E-01
 1.10000E+01    1.44177E+00
 1.15000E+01    2.08584E+00
 1.20000E+01    2.90966E+00
 1.25000E+01    3.92122E+00
 1.30000E+01    5.12006E+00
 1.35000E+01    6.49810E+00
 1.40000E+01    8.03846E+00
 1.45000E+01    9.71610E+00
 1.50000E+01    1.14959E+01
 1.55000E+01    1.33302E+01
 1.60000E+01    1.51762E+01
 1.65000E+01    1.69818E+01
 1.70000E+01    1.86768E+01
 1.75000E+01    2.02363E+01
 1.80000E+01    2.16427E+01
 1.85000E+01    2.28957E+01
 1.90000E+01    2.39990E+01
 1.95000E+01    2.49326E+01
 2.00000E+01    2.56964E+01
