# n + Sm149 : (n,xp)    
# jendl.ad   N.Iwamoto                         EVAL-Apr14
# 
# # energies =   118
#   E(MeV)        xs(mb) 
 2.26594E-02    0.00000E+00
 3.00000E-02    0.00000E+00
 4.00000E-02    0.00000E+00
 5.00000E-02    0.00000E+00
 6.00000E-02    0.00000E+00
 7.00000E-02    0.00000E+00
 8.00000E-02    0.00000E+00
 9.00000E-02    0.00000E+00
 1.00000E-01    0.00000E+00
 1.05000E-01    0.00000E+00
 1.10000E-01    0.00000E+00
 1.20000E-01    0.00000E+00
 1.30000E-01    0.00000E+00
 1.40000E-01    0.00000E+00
 1.50000E-01    0.00000E+00
 1.60000E-01    0.00000E+00
 1.70000E-01    0.00000E+00
 1.80000E-01    0.00000E+00
 1.90000E-01    0.00000E+00
 2.00000E-01    0.00000E+00
 2.25000E-01    0.00000E+00
 2.50000E-01    0.00000E+00
 2.75000E-01    0.00000E+00
 2.78952E-01    0.00000E+00
 2.87876E-01    0.00000E+00
 3.00000E-01    1.41879E-16
 3.52412E-01    9.07153E-16
 4.00000E-01    1.60199E-15
 4.01793E-01    1.62817E-15
 5.00000E-01    9.17665E-15
 5.32176E-01    1.34405E-14
 5.62157E-01    1.83645E-14
 5.94888E-01    2.43324E-14
 6.00000E-01    2.52997E-14
 6.40771E-01    3.30142E-14
 6.63061E-01    3.74157E-14
 6.68548E-01    3.85520E-14
 7.00000E-01    4.51316E-14
 7.01721E-01    4.54974E-14
 7.14668E-01    4.83527E-14
 7.52613E-01    5.82734E-14
 7.90549E-01    6.84396E-14
 7.94817E-01    6.96024E-14
 8.00000E-01    7.10187E-14
 8.36035E-01    8.19211E-14
 8.38874E-01    8.28275E-14
 8.41250E-01    8.35882E-14
 8.84591E-01    9.88837E-14
 8.87914E-01    1.00071E-13
 9.00000E-01    1.04389E-13
 9.31749E-01    1.15736E-13
 9.59233E-01    1.25807E-13
 9.59234E-01    1.25807E-13
 9.73550E-01    1.31236E-13
 1.00000E+00    1.41284E-13
 1.00134E+00    1.41793E-13
 1.01885E+00    1.50627E-13
 1.01886E+00    1.50636E-13
 1.04604E+00    1.78377E-13
 1.05510E+00    1.92477E-13
 1.09034E+00    2.62484E-13
 1.10000E+00    2.83594E-13
 1.12054E+00    3.29482E-13
 1.13061E+00    3.52113E-13
 1.14012E+00    3.73485E-13
 1.16182E+00    4.22252E-13
 1.18115E+00    4.65693E-13
 1.18900E+00    4.83335E-13
 1.19504E+00    4.96909E-13
 1.20000E+00    5.08056E-13
 1.20080E+00    5.09854E-13
 1.20309E+00    5.15000E-13
 1.30000E+00    7.32790E-13
 1.40000E+00    1.13500E-12
 1.50000E+00    2.90290E-12
 1.60000E+00    1.37250E-11
 1.70000E+00    6.99690E-11
 1.80000E+00    3.12200E-10
 1.90000E+00    1.20340E-09
 2.00000E+00    4.06750E-09
 2.25000E+00    5.21490E-08
 2.50000E+00    4.23980E-07
 2.75000E+00    2.26678E-06
 3.00000E+00    9.13757E-06
 3.50000E+00    7.75731E-05
 4.00000E+00    3.49527E-04
 4.50000E+00    1.01288E-03
 5.00000E+00    2.15635E-03
 5.50000E+00    3.73308E-03
 6.00000E+00    5.86275E-03
 6.50000E+00    9.43954E-03
 7.00000E+00    1.68930E-02
 7.50000E+00    3.31824E-02
 8.00000E+00    6.69348E-02
 8.50000E+00    1.31501E-01
 9.00000E+00    2.45594E-01
 9.50000E+00    4.33180E-01
 1.00000E+01    7.22073E-01
 1.05000E+01    1.14158E+00
 1.10000E+01    1.71911E+00
 1.15000E+01    2.47718E+00
 1.20000E+01    3.43168E+00
 1.25000E+01    4.59143E+00
 1.30000E+01    5.95917E+00
 1.35000E+01    7.53271E+00
 1.40000E+01    9.30639E+00
 1.45000E+01    1.12721E+01
 1.50000E+01    1.34197E+01
 1.55000E+01    1.57375E+01
 1.60000E+01    1.82161E+01
 1.65000E+01    2.08416E+01
 1.70000E+01    2.36031E+01
 1.75000E+01    2.64966E+01
 1.80000E+01    2.95046E+01
 1.85000E+01    3.26263E+01
 1.90000E+01    3.58488E+01
 1.95000E+01    3.91721E+01
 2.00000E+01    4.25864E+01
