# n + Sm149 : (n,xa)    
# jendl.ad   N.Iwamoto                         EVAL-Apr14
# 
# # energies =   118
#   E(MeV)        xs(mb) 
 2.26594E-02    3.28617E-03
 3.00000E-02    2.36295E-03
 4.00000E-02    1.98873E-03
 5.00000E-02    1.76804E-03
 6.00000E-02    1.61858E-03
 7.00000E-02    1.51196E-03
 8.00000E-02    1.43476E-03
 9.00000E-02    1.37516E-03
 1.00000E-01    1.33094E-03
 1.05000E-01    1.31317E-03
 1.10000E-01    1.29676E-03
 1.20000E-01    1.26947E-03
 1.30000E-01    1.24904E-03
 1.40000E-01    1.23347E-03
 1.50000E-01    1.22025E-03
 1.60000E-01    1.21248E-03
 1.70000E-01    1.20939E-03
 1.80000E-01    1.20767E-03
 1.90000E-01    1.21038E-03
 2.00000E-01    1.21309E-03
 2.25000E-01    1.22400E-03
 2.50000E-01    1.23867E-03
 2.75000E-01    1.27545E-03
 2.78952E-01    1.28127E-03
 2.87876E-01    1.24367E-03
 3.00000E-01    1.18204E-03
 3.52412E-01    1.16918E-03
 4.00000E-01    1.11486E-03
 4.01793E-01    1.11669E-03
 5.00000E-01    1.21598E-03
 5.32176E-01    1.26849E-03
 5.62157E-01    1.30541E-03
 5.94888E-01    1.32005E-03
 6.00000E-01    1.30525E-03
 6.40771E-01    1.34075E-03
 6.63061E-01    1.34141E-03
 6.68548E-01    1.32735E-03
 7.00000E-01    1.33087E-03
 7.01721E-01    1.33142E-03
 7.14668E-01    1.33818E-03
 7.52613E-01    1.37809E-03
 7.90549E-01    1.43436E-03
 7.94817E-01    1.43235E-03
 8.00000E-01    1.42992E-03
 8.36035E-01    1.47789E-03
 8.38874E-01    1.47280E-03
 8.41250E-01    1.45817E-03
 8.84591E-01    1.46141E-03
 8.87914E-01    1.46189E-03
 9.00000E-01    1.46451E-03
 9.31749E-01    1.50218E-03
 9.59233E-01    1.53204E-03
 9.59234E-01    1.53204E-03
 9.73550E-01    1.54628E-03
 1.00000E+00    1.58743E-03
 1.00134E+00    1.58952E-03
 1.01885E+00    1.61939E-03
 1.01886E+00    1.61940E-03
 1.04604E+00    1.67281E-03
 1.05510E+00    1.68423E-03
 1.09034E+00    1.75219E-03
 1.10000E+00    1.77679E-03
 1.12054E+00    1.82908E-03
 1.13061E+00    1.85472E-03
 1.14012E+00    1.87893E-03
 1.16182E+00    1.93765E-03
 1.18115E+00    1.99177E-03
 1.18900E+00    2.01375E-03
 1.19504E+00    2.03066E-03
 1.20000E+00    2.04455E-03
 1.20080E+00    2.04679E-03
 1.20309E+00    2.05320E-03
 1.30000E+00    2.37963E-03
 1.40000E+00    2.73406E-03
 1.50000E+00    3.04861E-03
 1.60000E+00    3.37033E-03
 1.70000E+00    3.73094E-03
 1.80000E+00    4.12307E-03
 1.90000E+00    4.55125E-03
 2.00000E+00    5.01257E-03
 2.25000E+00    6.20079E-03
 2.50000E+00    7.96455E-03
 2.75000E+00    9.80167E-03
 3.00000E+00    1.21355E-02
 3.50000E+00    1.75436E-02
 4.00000E+00    2.40066E-02
 4.50000E+00    3.10937E-02
 5.00000E+00    3.86416E-02
 5.50000E+00    4.77102E-02
 6.00000E+00    6.07397E-02
 6.50000E+00    8.10490E-02
 7.00000E+00    1.11885E-01
 7.50000E+00    1.56858E-01
 8.00000E+00    2.19623E-01
 8.50000E+00    3.04857E-01
 9.00000E+00    4.16802E-01
 9.50000E+00    5.58962E-01
 1.00000E+01    7.31480E-01
 1.05000E+01    9.38982E-01
 1.10000E+01    1.17537E+00
 1.15000E+01    1.43657E+00
 1.20000E+01    1.71727E+00
 1.25000E+01    2.01187E+00
 1.30000E+01    2.31525E+00
 1.35000E+01    2.62131E+00
 1.40000E+01    2.92817E+00
 1.45000E+01    3.23245E+00
 1.50000E+01    3.53165E+00
 1.55000E+01    3.82338E+00
 1.60000E+01    4.10773E+00
 1.65000E+01    4.38139E+00
 1.70000E+01    4.64630E+00
 1.75000E+01    4.90293E+00
 1.80000E+01    5.15027E+00
 1.85000E+01    5.38943E+00
 1.90000E+01    5.62355E+00
 1.95000E+01    5.85160E+00
 2.00000E+01    6.07500E+00
