# n + Sm149 : (n,g)     
# jendl.ad   N.Iwamoto                         EVAL-Apr14
# uncertainties: n
# # energies =   171
#   E(MeV)       xs(mb) 
 1.00000E-11    2.68869E+08
 1.00000E-07    2.47779E+07
 4.13990E-07    6.01090E+05
 5.31580E-07    5.67091E+05
 6.82560E-07    4.84699E+06
 8.76420E-07    3.59539E+06
 1.12540E-06    1.50152E+05
 1.44500E-06    4.45918E+04
 1.85540E-06    2.06727E+04
 2.37240E-06    1.28306E+04
 3.05900E-06    1.25658E+04
 3.92790E-06    7.07419E+05
 5.04350E-06    2.33016E+05
 6.47600E-06    8.02979E+04
 8.31530E-06    1.14841E+06
 1.06770E-05    9.46388E+04
 1.37100E-05    2.87086E+05
 1.76030E-05    3.45521E+03
 2.26030E-05    2.06593E+05
 2.92030E-05    1.49008E+05
 3.72670E-05    3.67927E+05
 4.78510E-05    2.71417E+05
 6.14420E-05    3.20647E+05
 7.88930E-05    2.52383E+05
 1.01300E-04    8.97952E+04
 1.30070E-04    7.98647E+04
 1.67020E-04    6.32378E+04
 2.14450E-04    6.04361E+04
 2.75360E-04    4.52048E+04
 3.53580E-04    2.63064E+04
 4.54000E-04    2.81785E+04
 5.82950E-04    2.96659E+04
 7.48520E-04    2.44762E+04
 9.61120E-04    2.01589E+04
 1.23410E-03    1.65812E+04
 1.58460E-03    1.36362E+04
 2.03470E-03    1.18745E+04
 2.24870E-03    1.09848E+04
 2.48520E-03    1.03563E+04
 2.61260E-03    9.95853E+03
 2.74650E-03    9.39232E+03
 3.03540E-03    8.68852E+03
 3.35460E-03    8.03318E+03
 3.70740E-03    7.29151E+03
 4.30740E-03    6.26870E+03
 5.53080E-03    5.18691E+03
 7.10170E-03    4.31187E+03
 9.11880E-03    3.60942E+03
 1.17090E-02    3.05849E+03
 1.50340E-02    2.59494E+03
 1.93050E-02    2.29567E+03
 2.18750E-02    2.15344E+03
 2.35790E-02    2.06539E+03
 2.41760E-02    2.02027E+03
 2.47880E-02    1.95375E+03
 2.60580E-02    1.88166E+03
 2.70000E-02    1.80860E+03
 2.85000E-02    1.68925E+03
 3.18280E-02    1.59047E+03
 3.43070E-02    1.47514E+03
 4.08680E-02    1.35019E+03
 4.63090E-02    1.25763E+03
 5.24750E-02    1.19010E+03
 5.65620E-02    1.11294E+03
 6.73790E-02    1.04394E+03
 7.20000E-02    1.00070E+03
 7.95000E-02    9.66657E+02
 8.25000E-02    9.46922E+02
 8.65170E-02    9.09052E+02
 9.80370E-02    8.58883E+02
 1.11090E-01    8.27116E+02
 1.16790E-01    8.09789E+02
 1.22770E-01    7.94061E+02
 1.29070E-01    7.78256E+02
 1.35690E-01    7.63542E+02
 1.42640E-01    7.49191E+02
 1.49960E-01    7.35938E+02
 1.57640E-01    7.24018E+02
 1.65730E-01    7.13495E+02
 1.74220E-01    7.03094E+02
 1.83160E-01    6.92818E+02
 1.92550E-01    6.83469E+02
 2.02420E-01    6.73870E+02
 2.12800E-01    6.64724E+02
 2.23710E-01    6.55304E+02
 2.35180E-01    6.46187E+02
 2.47240E-01    6.36484E+02
 2.73240E-01    6.27147E+02
 2.87250E-01    6.00394E+02
 2.94520E-01    5.74361E+02
 2.97200E-01    5.64394E+02
 2.98500E-01    5.54614E+02
 3.01970E-01    5.33298E+02
 3.33730E-01    4.98546E+02
 3.68830E-01    4.76009E+02
 3.87740E-01    4.62433E+02
 4.07620E-01    4.53356E+02
 4.50490E-01    4.43590E+02
 4.97870E-01    4.36550E+02
 5.23400E-01    4.32261E+02
 5.50230E-01    4.27652E+02
 5.78440E-01    4.16914E+02
 6.08100E-01    3.98734E+02
 6.39280E-01    3.83476E+02
 6.72060E-01    3.53720E+02
 7.06510E-01    3.33010E+02
 7.42740E-01    3.21016E+02
 7.80820E-01    3.01655E+02
 8.20850E-01    2.81876E+02
 8.62940E-01    2.60537E+02
 9.07180E-01    2.44080E+02
 9.61640E-01    2.34612E+02
 1.00260E+00    2.22875E+02
 1.10800E+00    2.16136E+02
 1.16480E+00    2.13900E+02
 1.22460E+00    2.11776E+02
 1.28730E+00    2.09208E+02
 1.35340E+00    2.04913E+02
 1.42270E+00    1.96635E+02
 1.49570E+00    1.86759E+02
 1.57240E+00    1.76404E+02
 1.65300E+00    1.65926E+02
 1.73770E+00    1.55377E+02
 1.82680E+00    1.44976E+02
 1.92050E+00    1.34779E+02
 2.01900E+00    1.23639E+02
 2.12250E+00    1.12669E+02
 2.23130E+00    1.04628E+02
 2.30690E+00    1.00947E+02
 2.34570E+00    9.92105E+01
 2.36530E+00    9.80538E+01
 2.38520E+00    9.51747E+01
 2.46600E+00    8.89340E+01
 2.59240E+00    8.01926E+01
 2.72530E+00    7.22281E+01
 2.86500E+00    6.50937E+01
 3.01190E+00    5.80326E+01
 3.16640E+00    5.12782E+01
 3.32870E+00    4.24067E+01
 3.67880E+00    3.15229E+01
 4.06570E+00    2.24620E+01
 4.49330E+00    1.68645E+01
 4.72370E+00    1.37186E+01
 4.96590E+00    1.10587E+01
 5.22050E+00    8.78082E+00
 5.48810E+00    6.92672E+00
 5.76950E+00    5.42501E+00
 6.06530E+00    4.25705E+00
 6.37630E+00    3.47746E+00
 6.59240E+00    3.10259E+00
 6.70320E+00    2.68048E+00
 7.04690E+00    2.18889E+00
 7.40820E+00    1.83152E+00
 7.78800E+00    1.58286E+00
 8.18730E+00    1.41122E+00
 8.60710E+00    1.29486E+00
 9.04840E+00    1.21767E+00
 9.51230E+00    1.16688E+00
 1.00000E+01    1.13368E+00
 1.05130E+01    1.11035E+00
 1.10520E+01    1.09013E+00
 1.16180E+01    1.06611E+00
 1.22140E+01    1.03066E+00
 1.28400E+01    9.77022E-01
 1.34990E+01    9.22684E-01
 1.38400E+01    8.79215E-01
 1.41910E+01    8.30906E-01
 1.45500E+01    7.80946E-01
 1.49180E+01    7.06029E-01
 1.56830E+01    6.07597E-01
 1.64870E+01    5.24923E-01
