# n + Yb173 : (n,n'13)  
# jendl4.0   S.Kunieda, A.Ichihara, K.Shibata+ EVAL-FEB10
# uncertainties: n
# # energies =    47
#   E(MeV)       xs(mb) 
 6.14161E-01    0.00000E+00
 6.50000E-01    4.04200E-01
 7.00000E-01    1.10000E+00
 7.50000E-01    2.05800E+00
 8.00000E-01    3.22000E+00
 8.50000E-01    3.99900E+00
 9.00000E-01    5.27900E+00
 9.50000E-01    6.62500E+00
 1.00000E+00    8.00300E+00
 1.20000E+00    1.14600E+01
 1.40000E+00    1.32600E+01
 1.60000E+00    1.39200E+01
 1.80000E+00    1.30600E+01
 2.00000E+00    1.12800E+01
 2.20000E+00    9.35600E+00
 2.40000E+00    7.62100E+00
 2.60000E+00    6.13600E+00
 2.80000E+00    4.89900E+00
 3.00000E+00    3.88700E+00
 3.25000E+00    2.87100E+00
 3.50000E+00    2.14700E+00
 3.75000E+00    1.56700E+00
 4.00000E+00    1.18900E+00
 4.25000E+00    9.12600E-01
 4.50000E+00    7.17600E-01
 4.75000E+00    5.81900E-01
 5.00000E+00    4.40000E-01
 5.50000E+00    3.49300E-01
 6.00000E+00    2.56500E-01
 6.50000E+00    2.58900E-01
 7.00000E+00    2.07800E-01
 7.50000E+00    2.29600E-01
 8.00000E+00    1.87300E-01
 8.50000E+00    2.12300E-01
 9.00000E+00    1.72700E-01
 9.50000E+00    1.97800E-01
 1.00000E+01    1.59400E-01
 1.10000E+01    1.46500E-01
 1.20000E+01    1.33800E-01
 1.30000E+01    1.64500E-01
 1.40000E+01    1.52700E-01
 1.50000E+01    1.43600E-01
 1.60000E+01    1.35200E-01
 1.70000E+01    1.27200E-01
 1.80000E+01    1.19700E-01
 1.90000E+01    1.12500E-01
 2.00000E+01    1.05600E-01
