# n + Yb173 : (n,n'05)  
# jendl4.0   S.Kunieda, A.Ichihara, K.Shibata+ EVAL-FEB10
# uncertainties: n
# # energies =    51
#   E(MeV)       xs(mb) 
 4.01227E-01    0.00000E+00
 4.50000E-01    4.72200E+01
 5.00000E-01    6.92000E+01
 5.50000E-01    8.26100E+01
 6.00000E-01    8.79600E+01
 6.50000E-01    1.13400E+02
 7.00000E-01    1.14700E+02
 7.50000E-01    1.15600E+02
 8.00000E-01    1.16200E+02
 8.50000E-01    1.05500E+02
 9.00000E-01    1.05700E+02
 9.50000E-01    1.05700E+02
 1.00000E+00    1.05400E+02
 1.20000E+00    8.95900E+01
 1.40000E+00    7.31100E+01
 1.60000E+00    5.78900E+01
 1.80000E+00    4.47800E+01
 2.00000E+00    3.39900E+01
 2.20000E+00    2.54000E+01
 2.40000E+00    1.87500E+01
 2.60000E+00    1.37200E+01
 2.80000E+00    9.98300E+00
 3.00000E+00    7.23600E+00
 3.25000E+00    4.80600E+00
 3.50000E+00    3.24800E+00
 3.75000E+00    2.14000E+00
 4.00000E+00    1.47300E+00
 4.25000E+00    1.03600E+00
 4.50000E+00    7.48600E-01
 4.75000E+00    5.60200E-01
 5.00000E+00    3.93100E-01
 5.50000E+00    2.72900E-01
 6.00000E+00    1.78500E-01
 6.50000E+00    1.63100E-01
 7.00000E+00    1.20000E-01
 7.50000E+00    1.23000E-01
 8.00000E+00    9.39100E-02
 8.50000E+00    1.00200E-01
 9.00000E+00    7.71400E-02
 9.50000E+00    8.39700E-02
 1.00000E+01    6.46100E-02
 1.10000E+01    5.46400E-02
 1.20000E+01    4.64800E-02
 1.30000E+01    5.37100E-02
 1.40000E+01    4.72100E-02
 1.50000E+01    4.22600E-02
 1.60000E+01    3.80400E-02
 1.70000E+01    3.43800E-02
 1.80000E+01    3.11900E-02
 1.90000E+01    2.83700E-02
 2.00000E+01    2.58600E-02
