# n + Yb173 : (n,n'07)  
# jendl4.0   S.Kunieda, A.Ichihara, K.Shibata+ EVAL-FEB10
# uncertainties: n
# # energies =    51
#   E(MeV)       xs(mb) 
 4.48300E-01    0.00000E+00
 4.50000E-01    1.20000E-01
 5.00000E-01    1.97100E+00
 5.50000E-01    4.97700E+00
 6.00000E-01    8.97500E+00
 6.50000E-01    1.29900E+01
 7.00000E-01    1.78600E+01
 7.50000E-01    2.30400E+01
 8.00000E-01    2.83500E+01
 8.50000E-01    2.97100E+01
 9.00000E-01    3.43600E+01
 9.50000E-01    3.87600E+01
 1.00000E+00    4.29500E+01
 1.20000E+00    4.95700E+01
 1.40000E+00    5.09300E+01
 1.60000E+00    4.95300E+01
 1.80000E+00    4.57600E+01
 2.00000E+00    4.12100E+01
 2.20000E+00    3.70200E+01
 2.40000E+00    3.35400E+01
 2.60000E+00    3.07100E+01
 2.80000E+00    2.84000E+01
 3.00000E+00    2.65000E+01
 3.25000E+00    2.45300E+01
 3.50000E+00    2.30600E+01
 3.75000E+00    2.19500E+01
 4.00000E+00    2.11300E+01
 4.25000E+00    2.05400E+01
 4.50000E+00    2.01300E+01
 4.75000E+00    1.98300E+01
 5.00000E+00    1.95900E+01
 5.50000E+00    1.91000E+01
 6.00000E+00    1.84700E+01
 6.50000E+00    1.76400E+01
 7.00000E+00    1.66600E+01
 7.50000E+00    1.56100E+01
 8.00000E+00    1.45800E+01
 8.50000E+00    1.36300E+01
 9.00000E+00    1.27700E+01
 9.50000E+00    1.20100E+01
 1.00000E+01    1.13500E+01
 1.10000E+01    1.02100E+01
 1.20000E+01    9.24300E+00
 1.30000E+01    8.39500E+00
 1.40000E+01    7.66100E+00
 1.50000E+01    7.03800E+00
 1.60000E+01    6.51700E+00
 1.70000E+01    6.07800E+00
 1.80000E+01    5.70000E+00
 1.90000E+01    5.36400E+00
 2.00000E+01    5.06200E+00
