# n + Yb173 : (n,n'09)  
# jendl4.0   S.Kunieda, A.Ichihara, K.Shibata+ EVAL-FEB10
# uncertainties: n
# # energies =    50
#   E(MeV)       xs(mb) 
 4.84811E-01    0.00000E+00
 5.00000E-01    6.88500E+01
 5.50000E-01    1.34300E+02
 6.00000E-01    1.71400E+02
 6.50000E-01    2.21000E+02
 7.00000E-01    2.35800E+02
 7.50000E-01    2.45800E+02
 8.00000E-01    2.52400E+02
 8.50000E-01    2.30200E+02
 9.00000E-01    2.33000E+02
 9.50000E-01    2.34800E+02
 1.00000E+00    2.35500E+02
 1.20000E+00    1.99900E+02
 1.40000E+00    1.62100E+02
 1.60000E+00    1.27600E+02
 1.80000E+00    9.83300E+01
 2.00000E+00    7.44800E+01
 2.20000E+00    5.56700E+01
 2.40000E+00    4.11800E+01
 2.60000E+00    3.02400E+01
 2.80000E+00    2.20900E+01
 3.00000E+00    1.61000E+01
 3.25000E+00    1.07800E+01
 3.50000E+00    7.33900E+00
 3.75000E+00    4.87800E+00
 4.00000E+00    3.39000E+00
 4.25000E+00    2.40500E+00
 4.50000E+00    1.75200E+00
 4.75000E+00    1.32300E+00
 5.00000E+00    9.35800E-01
 5.50000E+00    6.60000E-01
 6.00000E+00    4.37900E-01
 6.50000E+00    4.04900E-01
 7.00000E+00    3.01200E-01
 7.50000E+00    3.11500E-01
 8.00000E+00    2.39600E-01
 8.50000E+00    2.57600E-01
 9.00000E+00    1.99500E-01
 9.50000E+00    2.18500E-01
 1.00000E+01    1.69000E-01
 1.10000E+01    1.44300E-01
 1.20000E+01    1.23700E-01
 1.30000E+01    1.43900E-01
 1.40000E+01    1.27200E-01
 1.50000E+01    1.14400E-01
 1.60000E+01    1.03400E-01
 1.70000E+01    9.38900E-02
 1.80000E+01    8.54900E-02
 1.90000E+01    7.80200E-02
 2.00000E+01    7.13400E-02
