# n + Ar 38 : (n,g)     
# jendl.ad    T.WATANABE                       EVAL-FEB95
# uncertainties: n
# # energies =   171
#   E(MeV)       xs(mb) 
 1.00000E-11    8.65106E+03
 1.00000E-07    2.88203E+02
 4.13990E-07    1.85984E+02
 5.31580E-07    1.64141E+02
 6.82560E-07    1.44857E+02
 8.76420E-07    1.27826E+02
 1.12540E-06    1.12825E+02
 1.44500E-06    9.95922E+01
 1.85540E-06    8.79945E+01
 2.37240E-06    7.76583E+01
 3.05900E-06    6.84598E+01
 3.92790E-06    6.04172E+01
 5.04350E-06    5.33163E+01
 6.47600E-06    4.70467E+01
 8.31530E-06    4.15209E+01
 1.06770E-05    3.66443E+01
 1.37100E-05    3.23327E+01
 1.76030E-05    2.85404E+01
 2.26030E-05    2.51457E+01
 2.92030E-05    2.21897E+01
 3.72670E-05    1.96118E+01
 4.78510E-05    1.73074E+01
 6.14420E-05    1.52736E+01
 7.88930E-05    1.34796E+01
 1.01300E-04    1.18952E+01
 1.30070E-04    1.04975E+01
 1.67020E-04    9.26559E+00
 2.14450E-04    8.17488E+00
 2.75360E-04    7.21563E+00
 3.53580E-04    6.36763E+00
 4.54000E-04    5.61998E+00
 5.82950E-04    4.95854E+00
 7.48520E-04    4.37596E+00
 9.61120E-04    3.86216E+00
 1.23410E-03    3.40808E+00
 1.58460E-03    3.00756E+00
 2.03470E-03    2.75397E+00
 2.24870E-03    2.62010E+00
 2.48520E-03    2.52311E+00
 2.61260E-03    2.46071E+00
 2.74650E-03    2.37053E+00
 3.03540E-03    2.25496E+00
 3.35460E-03    2.14495E+00
 3.70740E-03    2.01495E+00
 4.30740E-03    1.82449E+00
 5.53080E-03    1.60987E+00
 7.10170E-03    1.42063E+00
 9.11880E-03    1.25388E+00
 1.17090E-02    1.10661E+00
 1.50340E-02    9.76393E-01
 1.93050E-02    8.88629E-01
 2.18750E-02    8.45227E-01
 2.35790E-02    8.24452E-01
 2.41760E-02    8.13783E-01
 2.47880E-02    4.44309E+00
 2.60580E-02    5.07922E+00
 2.70000E-02    4.94530E+00
 2.85000E-02    4.71963E+00
 3.18280E-02    4.49863E+00
 3.43070E-02    4.22641E+00
 4.08680E-02    3.91828E+00
 4.63090E-02    3.68257E+00
 5.24750E-02    3.51827E+00
 5.65620E-02    3.33159E+00
 6.73790E-02    3.15922E+00
 7.20000E-02    3.04477E+00
 7.95000E-02    2.95357E+00
 8.25000E-02    2.89824E+00
 8.65170E-02    2.78896E+00
 9.80370E-02    2.62998E+00
 1.11090E-01    2.51431E+00
 1.16790E-01    2.45022E+00
 1.22770E-01    2.38866E+00
 1.29070E-01    2.32787E+00
 1.35690E-01    2.26923E+00
 1.42640E-01    2.21220E+00
 1.49960E-01    2.15583E+00
 1.57640E-01    2.10121E+00
 1.65730E-01    2.04842E+00
 1.74220E-01    1.99674E+00
 1.83160E-01    1.94559E+00
 1.92550E-01    1.89643E+00
 2.02420E-01    1.86717E+00
 2.12800E-01    1.84603E+00
 2.23710E-01    1.82424E+00
 2.35180E-01    1.80381E+00
 2.47240E-01    1.77201E+00
 2.73240E-01    1.74161E+00
 2.87250E-01    1.72644E+00
 2.94520E-01    1.71935E+00
 2.97200E-01    1.71652E+00
 2.98500E-01    1.71314E+00
 3.01970E-01    1.69173E+00
 3.33730E-01    1.65397E+00
 3.68830E-01    1.62652E+00
 3.87740E-01    1.60818E+00
 4.07620E-01    1.59004E+00
 4.50490E-01    1.56763E+00
 4.97870E-01    1.56264E+00
 5.23400E-01    1.58225E+00
 5.50230E-01    1.60298E+00
 5.78440E-01    1.62430E+00
 6.08100E-01    1.63744E+00
 6.39280E-01    1.64766E+00
 6.72060E-01    1.65841E+00
 7.06510E-01    1.67089E+00
 7.42740E-01    1.68672E+00
 7.80820E-01    1.70348E+00
 8.20850E-01    1.72219E+00
 8.62940E-01    1.74406E+00
 9.07180E-01    1.76914E+00
 9.61640E-01    1.79517E+00
 1.00260E+00    1.84369E+00
 1.10800E+00    1.90281E+00
 1.16480E+00    1.94341E+00
 1.22460E+00    1.98470E+00
 1.28730E+00    2.02801E+00
 1.35340E+00    2.07150E+00
 1.42270E+00    2.11646E+00
 1.49570E+00    2.17236E+00
 1.57240E+00    2.24202E+00
 1.65300E+00    2.31526E+00
 1.73770E+00    2.39210E+00
 1.82680E+00    2.47115E+00
 1.92050E+00    2.55378E+00
 2.01900E+00    2.64781E+00
 2.12250E+00    2.75186E+00
 2.23130E+00    2.62867E+00
 2.30690E+00    2.41726E+00
 2.34570E+00    2.31907E+00
 2.36530E+00    2.25571E+00
 2.38520E+00    2.10507E+00
 2.46600E+00    1.90909E+00
 2.59240E+00    1.88410E+00
 2.72530E+00    1.87039E+00
 2.86500E+00    1.85609E+00
 3.01190E+00    1.86371E+00
 3.16640E+00    1.88877E+00
 3.32870E+00    1.93631E+00
 3.67880E+00    1.99259E+00
 4.06570E+00    1.80991E+00
 4.49330E+00    1.73605E+00
 4.72370E+00    1.50902E+00
 4.96590E+00    1.35945E+00
 5.22050E+00    1.22253E+00
 5.48810E+00    1.10062E+00
 5.76950E+00    9.71752E-01
 6.06530E+00    8.71347E-01
 6.37630E+00    7.88492E-01
 6.59240E+00    7.37361E-01
 6.70320E+00    6.78089E-01
 7.04690E+00    5.96474E-01
 7.40820E+00    5.24090E-01
 7.78800E+00    4.59868E-01
 8.18730E+00    4.00927E-01
 8.60710E+00    3.48972E-01
 9.04840E+00    3.01772E-01
 9.51230E+00    2.60080E-01
 1.00000E+01    2.21396E-01
 1.05130E+01    1.86186E-01
 1.10520E+01    1.54554E-01
 1.16180E+01    1.26957E-01
 1.22140E+01    1.04259E-01
 1.28400E+01    9.16104E-02
 1.34990E+01    9.11430E-02
 1.38400E+01    9.46540E-02
 1.41910E+01    1.06224E-01
 1.45500E+01    1.25749E-01
 1.49180E+01    1.79887E-01
 1.56830E+01    2.80120E-01
 1.64870E+01    4.05058E-01
