# n + Ar 38 : (n,tot)   
# jendl.ad    T.WATANABE                       EVAL-FEB95
# uncertainties: n
# # energies =    69
#   E(MeV)       xs(mb) 
 1.00000E-10    5.58806E+03
 5.00000E-09    1.52155E+03
 1.00000E-08    1.15232E+03
 1.50000E-08    9.68127E+02
 2.00000E-08    8.51775E+02
 2.50000E-08    7.69563E+02
 3.00000E-08    7.07399E+02
 3.50000E-08    6.50384E+02
 4.20000E-08    5.94909E+02
 5.00000E-08    5.48730E+02
 5.80000E-08    5.09997E+02
 6.70000E-08    4.70648E+02
 8.00000E-08    4.25911E+02
 1.00000E-07    3.70542E+02
 1.40000E-07    3.19737E+02
 1.80000E-07    2.85522E+02
 2.20000E-07    2.62919E+02
 2.50000E-07    2.47537E+02
 2.80000E-07    2.36500E+02
 3.00000E-07    2.28712E+02
 3.20000E-07    2.20078E+02
 3.50000E-07    2.08179E+02
 4.00000E-07    1.90465E+02
 5.00000E-07    1.70402E+02
 6.25000E-07    1.52476E+02
 7.80000E-07    1.41131E+02
 8.50000E-07    1.35772E+02
 9.10000E-07    1.32038E+02
 9.50000E-07    1.29867E+02
 9.72000E-07    1.28343E+02
 9.96000E-07    1.26806E+02
 1.02000E-06    1.25336E+02
 1.04500E-06    1.23808E+02
 1.07100E-06    1.22304E+02
 1.09700E-06    1.20896E+02
 1.12300E-06    1.19463E+02
 1.15000E-06    1.15169E+02
 1.30000E-06    1.07774E+02
 1.50000E-06    9.56943E+01
 2.10000E-06    8.33422E+01
 2.60000E-06    7.44489E+01
 3.30000E-06    6.68261E+01
 4.00000E-06    5.12200E+01
 9.87700E-06    3.60165E+01
 1.59680E-05    2.78522E+01
 2.77000E-05    2.11472E+01
 4.80520E-05    1.64413E+01
 7.55014E-05    1.24277E+01
 1.48728E-04    8.39934E+00
 3.67262E-04    5.34632E+00
 9.06898E-04    3.78474E+00
 1.42510E-03    3.01929E+00
 2.23945E-03    2.40872E+00
 3.51910E-03    1.92114E+00
 5.53000E-03    1.51528E+00
 9.11800E-03    1.17995E+00
 1.50300E-02    9.18814E-01
 2.47800E-02    4.53260E+00
 4.08500E-02    3.59422E+00
 6.73400E-02    2.87181E+00
 1.11000E-01    2.24701E+00
 1.83000E-01    1.81905E+00
 3.02000E-01    1.62328E+00
 5.00000E-01    1.63796E+00
 8.21000E-01    1.85743E+00
 1.35300E+00    2.37620E+00
 2.23100E+00    2.64600E+00
 3.67900E+00    3.44261E+01
 6.06500E+00    1.27810E+02
