# n + Ar 38 : (n,tot)   
# jendl.ad    T.WATANABE                       EVAL-FEB95
# uncertainties: n
# # energies =   171
#   E(MeV)       xs(mb) 
 1.00000E-11    8.65459E+03
 1.00000E-07    2.88208E+02
 4.13990E-07    1.86000E+02
 5.31580E-07    1.64170E+02
 6.82560E-07    1.44899E+02
 8.76420E-07    1.27848E+02
 1.12540E-06    1.12826E+02
 1.44500E-06    9.95868E+01
 1.85540E-06    8.79631E+01
 2.37240E-06    7.76315E+01
 3.05900E-06    6.84387E+01
 3.92790E-06    6.03902E+01
 5.04350E-06    5.32968E+01
 6.47600E-06    4.70332E+01
 8.31530E-06    4.15071E+01
 1.06770E-05    3.66308E+01
 1.37100E-05    3.23252E+01
 1.76030E-05    2.85278E+01
 2.26030E-05    2.51379E+01
 2.92030E-05    2.21843E+01
 3.72670E-05    1.96055E+01
 4.78510E-05    1.73011E+01
 6.14420E-05    1.52717E+01
 7.88930E-05    1.34728E+01
 1.01300E-04    1.18903E+01
 1.30070E-04    1.04967E+01
 1.67020E-04    9.26062E+00
 2.14450E-04    8.17193E+00
 2.75360E-04    7.21419E+00
 3.53580E-04    6.36643E+00
 4.54000E-04    5.61707E+00
 5.82950E-04    4.95860E+00
 7.48520E-04    4.37595E+00
 9.61120E-04    3.86089E+00
 1.23410E-03    3.40806E+00
 1.58460E-03    3.00716E+00
 2.03470E-03    2.75344E+00
 2.24870E-03    2.61966E+00
 2.48520E-03    2.52242E+00
 2.61260E-03    2.46136E+00
 2.74650E-03    2.37069E+00
 3.03540E-03    2.25426E+00
 3.35460E-03    2.14450E+00
 3.70740E-03    2.01460E+00
 4.30740E-03    1.82372E+00
 5.53080E-03    1.60981E+00
 7.10170E-03    1.42057E+00
 9.11880E-03    1.25336E+00
 1.17090E-02    1.10631E+00
 1.50340E-02    9.76002E-01
 1.93050E-02    8.88133E-01
 2.18750E-02    8.45018E-01
 2.35790E-02    8.24068E-01
 2.41760E-02    8.13688E-01
 2.47880E-02    4.44252E+00
 2.60580E-02    5.07798E+00
 2.70000E-02    4.94434E+00
 2.85000E-02    4.71771E+00
 3.18280E-02    4.49645E+00
 3.43070E-02    4.22474E+00
 4.08680E-02    3.91713E+00
 4.63090E-02    3.68174E+00
 5.24750E-02    3.51742E+00
 5.65620E-02    3.33158E+00
 6.73790E-02    3.15783E+00
 7.20000E-02    3.04438E+00
 7.95000E-02    2.95187E+00
 8.25000E-02    2.89799E+00
 8.65170E-02    2.78906E+00
 9.80370E-02    2.62863E+00
 1.11090E-01    2.51358E+00
 1.16790E-01    2.44959E+00
 1.22770E-01    2.38773E+00
 1.29070E-01    2.32752E+00
 1.35690E-01    2.26954E+00
 1.42640E-01    2.21343E+00
 1.49960E-01    2.15520E+00
 1.57640E-01    2.10011E+00
 1.65730E-01    2.04806E+00
 1.74220E-01    1.99575E+00
 1.83160E-01    1.94568E+00
 1.92550E-01    1.89642E+00
 2.02420E-01    1.86689E+00
 2.12800E-01    1.84536E+00
 2.23710E-01    1.82387E+00
 2.35180E-01    1.80307E+00
 2.47240E-01    1.77235E+00
 2.73240E-01    1.74185E+00
 2.87250E-01    1.72572E+00
 2.94520E-01    1.71818E+00
 2.97200E-01    1.71517E+00
 2.98500E-01    1.71177E+00
 3.01970E-01    1.69146E+00
 3.33730E-01    1.65347E+00
 3.68830E-01    1.62592E+00
 3.87740E-01    1.60749E+00
 4.07620E-01    1.59012E+00
 4.50490E-01    1.56765E+00
 4.97870E-01    1.56264E+00
 5.23400E-01    1.58224E+00
 5.50230E-01    1.60298E+00
 5.78440E-01    1.62430E+00
 6.08100E-01    1.63716E+00
 6.39280E-01    1.64694E+00
 6.72060E-01    1.65729E+00
 7.06510E-01    1.67060E+00
 7.42740E-01    1.68586E+00
 7.80820E-01    1.70230E+00
 8.20850E-01    1.72181E+00
 8.62940E-01    1.74272E+00
 9.07180E-01    1.76849E+00
 9.61640E-01    1.79441E+00
 1.00260E+00    1.84456E+00
 1.10800E+00    1.90370E+00
 1.16480E+00    1.94390E+00
 1.22460E+00    1.98615E+00
 1.28730E+00    2.02873E+00
 1.35340E+00    2.07150E+00
 1.42270E+00    2.11645E+00
 1.49570E+00    2.17268E+00
 1.57240E+00    2.24311E+00
 1.65300E+00    2.31714E+00
 1.73770E+00    2.39276E+00
 1.82680E+00    2.47055E+00
 1.92050E+00    2.55279E+00
 2.01900E+00    2.65592E+00
 2.12250E+00    2.77200E+00
 2.23130E+00    2.65805E+00
 2.30690E+00    2.45419E+00
 2.34570E+00    2.35840E+00
 2.36530E+00    2.29645E+00
 2.38520E+00    2.15216E+00
 2.46600E+00    1.96878E+00
 2.59240E+00    1.95854E+00
 2.72530E+00    1.96022E+00
 2.86500E+00    1.96408E+00
 3.01190E+00    2.35588E+00
 3.16640E+00    3.05931E+00
 3.32870E+00    4.19468E+00
 3.67880E+00    5.98344E+00
 4.06570E+00    1.54189E+01
 4.49330E+00    2.64195E+01
 4.72370E+00    3.40829E+01
 4.96590E+00    4.31223E+01
 5.22050E+00    5.41534E+01
 5.48810E+00    6.57955E+01
 5.76950E+00    7.79034E+01
 6.06530E+00    8.68504E+01
 6.37630E+00    9.31744E+01
 6.59240E+00    9.70967E+01
 6.70320E+00    1.02531E+02
 7.04690E+00    1.12013E+02
 7.40820E+00    1.22617E+02
 7.78800E+00    1.33506E+02
 8.18730E+00    1.43044E+02
 8.60710E+00    1.52689E+02
 9.04840E+00    1.61246E+02
 9.51230E+00    1.69168E+02
 1.00000E+01    1.83061E+02
 1.05130E+01    2.03473E+02
 1.10520E+01    2.44387E+02
 1.16180E+01    3.02932E+02
 1.22140E+01    3.94891E+02
 1.28400E+01    5.07035E+02
 1.34990E+01    5.97597E+02
 1.38400E+01    6.59088E+02
 1.41910E+01    7.16748E+02
 1.45500E+01    7.69351E+02
 1.49180E+01    8.35905E+02
 1.56830E+01    9.11191E+02
 1.64870E+01    9.65669E+02
