# n + Tc 98 : (n,n'25)  
# jeff3.3    A.J. Koning and D. Rochman        EVAL-DEC15
# uncertainties: n
# # energies =    75
#   E(MeV)       xs(mb) 
 5.07263E-01    0.00000E+00
 5.43037E-01    4.78864E+00
 5.48816E-01    5.56221E+00
 5.73852E-01    8.91348E+00
 6.00000E-01    1.24136E+01
 6.15779E-01    1.33474E+01
 6.28590E-01    1.41056E+01
 7.00000E-01    1.83316E+01
 8.00000E-01    1.96546E+01
 9.00000E-01    1.91324E+01
 1.00000E+00    1.80724E+01
 1.20000E+00    1.59493E+01
 1.40000E+00    1.41381E+01
 1.60000E+00    1.25260E+01
 1.80000E+00    1.10013E+01
 2.00000E+00    9.52801E+00
 2.20000E+00    8.11807E+00
 2.40000E+00    6.80377E+00
 2.60000E+00    5.61565E+00
 2.80000E+00    4.58046E+00
 3.00000E+00    3.70032E+00
 3.20000E+00    2.97050E+00
 3.40000E+00    2.37648E+00
 3.60000E+00    1.89688E+00
 3.80000E+00    1.51444E+00
 4.00000E+00    1.20962E+00
 4.20000E+00    9.66736E-01
 4.40000E+00    7.73763E-01
 4.60000E+00    6.19705E-01
 4.80000E+00    4.96940E-01
 5.00000E+00    3.98169E-01
 5.20000E+00    3.19020E-01
 5.40000E+00    2.55060E-01
 5.60000E+00    2.03937E-01
 5.80000E+00    1.62666E-01
 6.00000E+00    1.29493E-01
 6.20000E+00    1.03050E-01
 6.40000E+00    8.17808E-02
 6.60000E+00    6.49733E-02
 6.80000E+00    5.15514E-02
 7.00000E+00    4.06983E-02
 7.20000E+00    3.22075E-02
 7.40000E+00    2.54943E-02
 7.60000E+00    2.02412E-02
 7.80000E+00    1.60842E-02
 8.00000E+00    1.27927E-02
 8.50000E+00    7.27079E-03
 9.00000E+00    4.17691E-03
 9.50000E+00    2.42883E-03
 1.00000E+01    1.43083E-03
 1.05000E+01    8.53348E-04
 1.10000E+01    5.15087E-04
 1.15000E+01    3.14615E-04
 1.20000E+01    1.94201E-04
 1.25000E+01    1.21066E-04
 1.30000E+01    7.61192E-05
 1.35000E+01    4.82519E-05
 1.40000E+01    3.08290E-05
 1.45000E+01    1.98250E-05
 1.50000E+01    1.28362E-05
 1.60000E+01    5.47804E-06
 1.70000E+01    2.38571E-06
 1.80000E+01    1.05958E-06
 1.90000E+01    4.76530E-07
 2.00000E+01    2.17410E-07
 2.10000E+01    1.00810E-07
 2.20000E+01    4.68770E-08
 2.30000E+01    2.23890E-08
 2.40000E+01    1.08670E-08
 2.50000E+01    5.35300E-09
 2.60000E+01    2.66790E-09
 2.70000E+01    1.34670E-09
 2.80000E+01    6.86790E-10
 2.90000E+01    3.53740E-10
 3.00000E+01    1.83860E-10
