# n + Tc 98 : (n,el)    
# jeff3.3    A.J. Koning and D. Rochman        EVAL-DEC15
# uncertainties: y
# # energies =    69
#   E(MeV)       xs(mb)       xslow(mb)      xsupp(mb)
 1.00000E-10    5.81983E+03    5.81983E+03    5.81983E+03
 5.00000E-09    4.57175E+03    4.57175E+03    4.57175E+03
 1.00000E-08    4.53548E+03    4.53548E+03    4.53548E+03
 1.50000E-08    4.52125E+03    4.52125E+03    4.52125E+03
 2.00000E-08    4.51354E+03    4.51354E+03    4.51354E+03
 2.50000E-08    4.50873E+03    4.50873E+03    4.50873E+03
 3.00000E-08    4.50533E+03    4.50533E+03    4.50533E+03
 3.50000E-08    4.50262E+03    4.50262E+03    4.50262E+03
 4.20000E-08    4.49996E+03    4.49996E+03    4.49996E+03
 5.00000E-08    4.49808E+03    4.49808E+03    4.49808E+03
 5.80000E-08    4.49667E+03    4.49667E+03    4.49667E+03
 6.70000E-08    4.49495E+03    4.49495E+03    4.49495E+03
 8.00000E-08    4.49362E+03    4.49362E+03    4.49362E+03
 1.00000E-07    4.49173E+03    4.49173E+03    4.49173E+03
 1.40000E-07    4.49031E+03    4.49031E+03    4.49031E+03
 1.80000E-07    4.48941E+03    4.48941E+03    4.48941E+03
 2.20000E-07    4.48861E+03    4.48861E+03    4.48861E+03
 2.50000E-07    4.48795E+03    4.48795E+03    4.48795E+03
 2.80000E-07    4.48759E+03    4.48759E+03    4.48759E+03
 3.00000E-07    4.48742E+03    4.48742E+03    4.48742E+03
 3.20000E-07    4.48722E+03    4.48722E+03    4.48722E+03
 3.50000E-07    4.48689E+03    4.48689E+03    4.48689E+03
 4.00000E-07    4.48628E+03    4.48628E+03    4.48628E+03
 5.00000E-07    4.48536E+03    4.48536E+03    4.48536E+03
 6.25000E-07    4.48421E+03    4.48421E+03    4.48421E+03
 7.80000E-07    4.48326E+03    4.48326E+03    4.48326E+03
 8.50000E-07    4.48272E+03    4.48272E+03    4.48272E+03
 9.10000E-07    4.48235E+03    4.48235E+03    4.48235E+03
 9.50000E-07    4.48219E+03    4.48219E+03    4.48219E+03
 9.72000E-07    4.48209E+03    4.48209E+03    4.48209E+03
 9.96000E-07    4.48197E+03    4.48197E+03    4.48197E+03
 1.02000E-06    4.48186E+03    4.48186E+03    4.48186E+03
 1.04500E-06    4.48174E+03    4.48174E+03    4.48174E+03
 1.07100E-06    4.48161E+03    4.48161E+03    4.48161E+03
 1.09700E-06    4.48149E+03    4.48149E+03    4.48149E+03
 1.12300E-06    4.48137E+03    4.48137E+03    4.48137E+03
 1.15000E-06    4.48096E+03    4.48096E+03    4.48096E+03
 1.30000E-06    4.48013E+03    4.48013E+03    4.48013E+03
 1.50000E-06    4.47832E+03    4.47832E+03    4.47832E+03
 2.10000E-06    4.47569E+03    4.47569E+03    4.47569E+03
 2.60000E-06    4.47288E+03    4.47288E+03    4.47288E+03
 3.30000E-06    4.46957E+03    4.46957E+03    4.46957E+03
 4.00000E-06    4.45607E+03    4.45607E+03    4.45607E+03
 9.87700E-06    4.42695E+03    4.42695E+03    4.42695E+03
 1.59680E-05    4.38747E+03    4.38747E+03    4.38747E+03
 2.77000E-05    4.31928E+03    4.31928E+03    4.31928E+03
 4.80520E-05    4.33293E+03    4.33293E+03    4.33293E+03
 7.55014E-05    4.02986E+03    4.02986E+03    4.02986E+03
 1.48728E-04    2.03747E+04    2.03747E+04    2.03747E+04
 3.67262E-04    6.84021E+03    6.84021E+03    6.84021E+03
 9.06898E-04    8.10805E+03    8.10805E+03    8.10805E+03
 1.42510E-03    7.94351E+03    7.94351E+03    7.94351E+03
 2.23945E-03    7.79189E+03    7.79189E+03    7.79189E+03
 3.51910E-03    6.89609E+03    6.89609E+03    6.89609E+03
 5.53000E-03    6.81538E+03    5.69062E+03    7.94015E+03
 9.11800E-03    7.01060E+03    5.85362E+03    8.16759E+03
 1.50300E-02    7.41729E+03    6.19319E+03    8.64140E+03
 2.47800E-02    7.87368E+03    6.57426E+03    9.17310E+03
 4.08500E-02    8.32318E+03    6.51999E+03    1.01264E+04
 6.73400E-02    8.57571E+03    6.71781E+03    1.04336E+04
 1.11000E-01    8.32200E+03    6.51906E+03    1.01249E+04
 1.83000E-01    7.75232E+03    6.07280E+03    9.43183E+03
 3.02000E-01    7.01842E+03    5.75324E+03    8.28360E+03
 5.00000E-01    6.00493E+03    4.92245E+03    7.08741E+03
 8.21000E-01    4.81100E+03    3.79671E+03    5.82528E+03
 1.35300E+00    3.37751E+03    2.55644E+03    4.19858E+03
 2.23100E+00    2.17655E+03    1.69850E+03    2.65459E+03
 3.67900E+00    1.76121E+03    1.64243E+03    1.88000E+03
 6.06500E+00    2.16630E+03    1.96652E+03    2.36608E+03
