# n + Tc 98 : (n,n'29)  
# jeff3.3    A.J. Koning and D. Rochman        EVAL-DEC15
# uncertainties: n
# # energies =    70
#   E(MeV)       xs(mb) 
 6.15779E-01    0.00000E+00
 6.28590E-01    8.55182E+00
 7.00000E-01    5.62206E+01
 8.00000E-01    9.71984E+01
 9.00000E-01    1.05905E+02
 1.00000E+00    9.97620E+01
 1.20000E+00    7.81044E+01
 1.40000E+00    5.94193E+01
 1.60000E+00    4.60169E+01
 1.80000E+00    3.64345E+01
 2.00000E+00    2.92159E+01
 2.20000E+00    2.34521E+01
 2.40000E+00    1.86804E+01
 2.60000E+00    1.46973E+01
 2.80000E+00    1.14184E+01
 3.00000E+00    8.77049E+00
 3.20000E+00    6.68139E+00
 3.40000E+00    5.06693E+00
 3.60000E+00    3.83299E+00
 3.80000E+00    2.90331E+00
 4.00000E+00    2.20447E+00
 4.20000E+00    1.67984E+00
 4.40000E+00    1.28679E+00
 4.60000E+00    9.90616E-01
 4.80000E+00    7.67172E-01
 5.00000E+00    5.96500E-01
 5.20000E+00    4.66036E-01
 5.40000E+00    3.64892E-01
 5.60000E+00    2.86850E-01
 5.80000E+00    2.25831E-01
 6.00000E+00    1.77909E-01
 6.20000E+00    1.40541E-01
 6.40000E+00    1.10891E-01
 6.60000E+00    8.77273E-02
 6.80000E+00    6.94092E-02
 7.00000E+00    5.46713E-02
 7.20000E+00    4.31954E-02
 7.40000E+00    3.41454E-02
 7.60000E+00    2.70770E-02
 7.80000E+00    2.14915E-02
 8.00000E+00    1.70747E-02
 8.50000E+00    9.67394E-03
 9.00000E+00    5.53653E-03
 9.50000E+00    3.20554E-03
 1.00000E+01    1.87954E-03
 1.05000E+01    1.11546E-03
 1.10000E+01    6.69898E-04
 1.15000E+01    4.07042E-04
 1.20000E+01    2.49875E-04
 1.25000E+01    1.54856E-04
 1.30000E+01    9.67407E-05
 1.35000E+01    6.08986E-05
 1.40000E+01    3.86240E-05
 1.45000E+01    2.46523E-05
 1.50000E+01    1.58464E-05
 1.60000E+01    6.68028E-06
 1.70000E+01    2.88701E-06
 1.80000E+01    1.27792E-06
 1.90000E+01    5.74150E-07
 2.00000E+01    2.61780E-07
 2.10000E+01    1.21220E-07
 2.20000E+01    5.62370E-08
 2.30000E+01    2.67860E-08
 2.40000E+01    1.29680E-08
 2.50000E+01    6.37590E-09
 2.60000E+01    3.17430E-09
 2.70000E+01    1.60170E-09
 2.80000E+01    8.16860E-10
 2.90000E+01    4.20770E-10
 3.00000E+01    2.18690E-10
