# n + Tc 98 : (n,xa)    
# jeff3.3    A.J. Koning and D. Rochman        EVAL-DEC15
# 
# # energies =   136
#   E(MeV)        xs(mb) 
 2.20246E-02    2.58190E-02
 3.00000E-02    2.18603E-02
 6.00000E-02    1.47031E-02
 6.61041E-02    1.40200E-02
 7.40349E-02    1.31326E-02
 8.25215E-02    1.21829E-02
 9.16950E-02    1.11563E-02
 1.00000E-01    1.02270E-02
 1.07526E-01    9.87074E-03
 1.39977E-01    8.33458E-03
 1.43463E-01    8.16957E-03
 1.53657E-01    7.68701E-03
 1.92170E-01    5.86389E-03
 2.00000E-01    5.49324E-03
 2.05768E-01    5.43319E-03
 2.70902E-01    4.75504E-03
 3.00000E-01    4.45208E-03
 3.09355E-01    4.41667E-03
 3.25135E-01    4.35694E-03
 3.31834E-01    4.33159E-03
 3.50504E-01    4.26092E-03
 3.54889E-01    4.24433E-03
 3.78954E-01    4.15324E-03
 3.94058E-01    4.09607E-03
 4.00000E-01    4.07358E-03
 4.28409E-01    3.99507E-03
 4.45564E-01    3.94960E-03
 4.51605E-01    3.93359E-03
 4.62547E-01    3.90458E-03
 4.89219E-01    3.83388E-03
 5.00000E-01    3.80530E-03
 5.07263E-01    3.85082E-03
 5.43037E-01    4.07503E-03
 5.48816E-01    4.11125E-03
 5.73852E-01    4.26816E-03
 6.00000E-01    4.43204E-03
 6.15779E-01    4.53376E-03
 6.28590E-01    4.61894E-03
 7.00000E-01    5.09367E-03
 8.00000E-01    5.62620E-03
 9.00000E-01    6.19833E-03
 1.00000E+00    6.77550E-03
 1.20000E+00    9.20663E-03
 1.40000E+00    1.15883E-02
 1.60000E+00    1.51695E-02
 1.80000E+00    1.94513E-02
 2.00000E+00    2.43976E-02
 2.20000E+00    3.12716E-02
 2.40000E+00    3.81457E-02
 2.60000E+00    4.70813E-02
 2.80000E+00    5.67142E-02
 3.00000E+00    6.76684E-02
 3.20000E+00    8.10639E-02
 3.40000E+00    9.44594E-02
 3.60000E+00    1.11203E-01
 3.80000E+00    1.28432E-01
 4.00000E+00    1.47899E-01
 4.20000E+00    1.71632E-01
 4.40000E+00    1.92880E-01
 4.60000E+00    2.22871E-01
 4.80000E+00    2.50041E-01
 5.00000E+00    2.79677E-01
 5.20000E+00    3.21487E-01
 5.40000E+00    3.47691E-01
 5.60000E+00    4.04116E-01
 5.80000E+00    4.40599E-01
 6.00000E+00    4.82301E-01
 6.20000E+00    5.63429E-01
 6.40000E+00    5.89869E-01
 6.60000E+00    7.09490E-01
 6.80000E+00    7.68963E-01
 7.00000E+00    8.43051E-01
 7.20000E+00    1.01376E+00
 7.40000E+00    1.05296E+00
 7.60000E+00    1.30499E+00
 7.80000E+00    1.42714E+00
 8.00000E+00    1.56183E+00
 8.50000E+00    2.14563E+00
 9.00000E+00    2.90528E+00
 9.50000E+00    3.85596E+00
 1.00000E+01    5.00057E+00
 1.05000E+01    6.34011E+00
 1.10000E+01    7.86723E+00
 1.15000E+01    9.57681E+00
 1.20000E+01    1.14672E+01
 1.25000E+01    1.35450E+01
 1.30000E+01    1.58436E+01
 1.35000E+01    1.84158E+01
 1.40000E+01    2.12212E+01
 1.45000E+01    2.45766E+01
 1.50000E+01    2.76462E+01
 1.60000E+01    3.35304E+01
 1.70000E+01    3.83519E+01
 1.80000E+01    4.06525E+01
 1.90000E+01    4.37993E+01
 2.00000E+01    4.69428E+01
 2.10000E+01    4.99775E+01
 2.20000E+01    5.27479E+01
 2.30000E+01    5.53295E+01
 2.40000E+01    5.76733E+01
 2.50000E+01    5.96899E+01
 2.60000E+01    6.14509E+01
 2.70000E+01    6.29925E+01
 2.80000E+01    6.42995E+01
 2.90000E+01    6.54932E+01
 3.00000E+01            NaN
 3.00000E+01    6.61537E+01
 3.20000E+01    6.80137E+01
 3.40000E+01    6.96494E+01
 3.60000E+01    7.13153E+01
 3.80000E+01    7.30575E+01
 4.00000E+01    7.49891E+01
 4.20000E+01    7.65992E+01
 4.40000E+01    7.81254E+01
 4.60000E+01    7.92098E+01
 4.80000E+01    7.99508E+01
 5.00000E+01    8.02659E+01
 5.20000E+01    8.05848E+01
 5.40000E+01    8.07293E+01
 5.60000E+01    8.08748E+01
 5.80000E+01    8.09274E+01
 6.00000E+01    8.09094E+01
 6.50000E+01    8.04838E+01
 7.00000E+01    8.04899E+01
 7.50000E+01    7.96089E+01
 8.00000E+01    7.85668E+01
 9.00000E+01    8.48680E+01
 1.00000E+02    9.27460E+01
 1.10000E+02    9.86613E+01
 1.20000E+02    1.04609E+02
 1.30000E+02    1.10888E+02
 1.40000E+02    1.17799E+02
 1.50000E+02    1.25503E+02
 1.60000E+02    1.34538E+02
 1.80000E+02    1.60520E+02
 2.00000E+02    2.14536E+02
