# n + Li  6 : (n,n'08)  
# jendl4.0   S.CHIBA AND K.SHIBATA             EVAL-MAR85
# uncertainties: n
# # energies =    59
#   E(MeV)       xs(mb) 
 4.67080E+00    0.00000E+00
 4.83540E+00    4.09108E+01
 5.00000E+00    8.32402E+01
 5.25460E+00    1.24917E+02
 5.50000E+00    1.05086E+02
 5.83840E+00    1.07542E+02
 6.00000E+00    1.07476E+02
 6.42230E+00    1.02513E+02
 6.50000E+00    1.01486E+02
 7.00000E+00    9.25516E+01
 7.00610E+00    9.24163E+01
 7.50000E+00    8.21890E+01
 7.59000E+00    8.05286E+01
 8.00000E+00    7.34467E+01
 8.17380E+00    7.11045E+01
 8.50000E+00    6.69979E+01
 8.75770E+00    6.40030E+01
 9.00000E+00    6.13700E+01
 9.34150E+00    5.83409E+01
 9.50000E+00    5.70239E+01
 9.92530E+00    5.37423E+01
 1.00000E+01    5.32021E+01
 1.05000E+01    4.80935E+01
 1.05090E+01    4.80050E+01
 1.10000E+01    4.35569E+01
 1.10930E+01    4.26759E+01
 1.15000E+01    3.90329E+01
 1.16770E+01    3.75466E+01
 1.20000E+01    3.49678E+01
 1.22610E+01    3.35606E+01
 1.25000E+01    3.23316E+01
 1.28450E+01    3.06589E+01
 1.30000E+01    2.99405E+01
 1.34280E+01    2.80858E+01
 1.35000E+01    2.77908E+01
 1.40000E+01    2.58260E+01
 1.40120E+01    2.57740E+01
 1.45000E+01    2.38060E+01
 1.45960E+01    2.34440E+01
 1.50000E+01    2.19940E+01
 1.51800E+01    2.13880E+01
 1.55000E+01    2.03640E+01
 1.57640E+01    1.95678E+01
 1.60000E+01    1.88896E+01
 1.63480E+01    1.80632E+01
 1.65000E+01    1.77176E+01
 1.69310E+01    1.67898E+01
 1.70000E+01    1.66490E+01
 1.75000E+01    1.56650E+01
 1.75150E+01    1.56362E+01
 1.80000E+01    1.47630E+01
 1.80990E+01    1.45928E+01
 1.85000E+01    1.39328E+01
 1.86830E+01    1.36456E+01
 1.90000E+01    1.31680E+01
 1.92670E+01    1.27808E+01
 1.95000E+01    1.24556E+01
 1.98510E+01    1.19880E+01
 2.00000E+01    1.17964E+01
