# n + Li  6 : (n,p)     
# jendl4.0   S.CHIBA AND K.SHIBATA             EVAL-MAR85
# uncertainties: n
# # energies =    38
#   E(MeV)       xs(mb) 
 3.18464E+00    0.00000E+00
 3.59500E+00    1.90490E+01
 3.66700E+00    2.09950E+01
 3.73850E+00    2.34010E+01
 3.88200E+00    2.86660E+01
 4.02600E+00    3.29900E+01
 4.09700E+00    3.42190E+01
 4.16900E+00    3.45160E+01
 4.25400E+00    3.46110E+01
 4.33810E+00    3.46520E+01
 4.42300E+00    3.34080E+01
 4.46500E+00    3.19190E+01
 4.50700E+00    2.96470E+01
 4.55800E+00    2.71630E+01
 4.60800E+00    2.60170E+01
 4.65900E+00    2.58910E+01
 4.71000E+00    2.64710E+01
 4.81100E+00    2.84840E+01
 4.91230E+00    2.95310E+01
 5.10700E+00    2.83370E+01
 5.30100E+00    2.63210E+01
 5.49500E+00    2.42190E+01
 5.68900E+00    2.27700E+01
 5.97600E+00    2.13880E+01
 6.26400E+00    1.99340E+01
 6.55100E+00    1.85500E+01
 6.83800E+00    1.73920E+01
 7.34450E+00    1.58400E+01
 7.85100E+00    1.46160E+01
 8.35800E+00    1.35600E+01
 8.86500E+00    1.25130E+01
 1.09000E+01    9.66598E+00
 1.28000E+01    7.63917E+00
 1.41000E+01    6.69332E+00
 1.52000E+01    6.28795E+00
 1.70000E+01    5.54479E+00
 1.90000E+01    5.07187E+00
 2.00000E+01    5.00431E+00
