# n + Li  6 : (n,n'10)  
# jendl4.0   S.CHIBA AND K.SHIBATA             EVAL-MAR85
# uncertainties: n
# # energies =    56
#   E(MeV)       xs(mb) 
 5.25460E+00    0.00000E+00
 5.50000E+00    5.61061E+01
 5.83840E+00    1.01163E+02
 6.00000E+00    8.41128E+01
 6.42230E+00    8.52904E+01
 6.50000E+00    8.49063E+01
 7.00000E+00    7.86977E+01
 7.00610E+00    7.85876E+01
 7.50000E+00    6.97487E+01
 7.59000E+00    6.82440E+01
 8.00000E+00    6.16989E+01
 8.17380E+00    5.94559E+01
 8.50000E+00    5.54856E+01
 8.75770E+00    5.25691E+01
 9.00000E+00    4.99976E+01
 9.34150E+00    4.69697E+01
 9.50000E+00    4.56532E+01
 9.92530E+00    4.23766E+01
 1.00000E+01    4.18379E+01
 1.05000E+01    3.71445E+01
 1.05090E+01    3.70640E+01
 1.10000E+01    3.30434E+01
 1.10930E+01    3.22690E+01
 1.15000E+01    2.90929E+01
 1.16770E+01    2.78129E+01
 1.20000E+01    2.56154E+01
 1.22610E+01    2.43660E+01
 1.25000E+01    2.32848E+01
 1.28450E+01    2.18299E+01
 1.30000E+01    2.12095E+01
 1.34280E+01    1.96233E+01
 1.35000E+01    1.93724E+01
 1.40000E+01    1.77228E+01
 1.40120E+01    1.76880E+01
 1.45000E+01    1.63644E+01
 1.45960E+01    1.61196E+01
 1.50000E+01    1.51416E+01
 1.51800E+01    1.47312E+01
 1.55000E+01    1.40376E+01
 1.57640E+01    1.34988E+01
 1.60000E+01    1.30380E+01
 1.63480E+01    1.24776E+01
 1.65000E+01    1.22436E+01
 1.69310E+01    1.16129E+01
 1.70000E+01    1.15170E+01
 1.75000E+01    1.08468E+01
 1.75150E+01    1.08272E+01
 1.80000E+01    1.02313E+01
 1.80990E+01    1.01150E+01
 1.85000E+01    9.66396E+00
 1.86830E+01    9.46752E+00
 1.90000E+01    9.14052E+00
 1.92670E+01    8.87520E+00
 1.95000E+01    8.65212E+00
 1.98510E+01    8.33124E+00
 2.00000E+01    8.19972E+00
