# n + Li  6 : (n,n'11)  
# jendl4.0   S.CHIBA AND K.SHIBATA             EVAL-MAR85
# uncertainties: n
# # energies =    54
#   E(MeV)       xs(mb) 
 5.83840E+00    0.00000E+00
 6.00000E+00    3.79954E+01
 6.42230E+00    8.55976E+01
 6.50000E+00    6.99866E+01
 7.00000E+00    7.35258E+01
 7.00610E+00    7.34957E+01
 7.50000E+00    6.92511E+01
 7.59000E+00    6.83005E+01
 8.00000E+00    6.36177E+01
 8.17380E+00    6.19365E+01
 8.50000E+00    5.87626E+01
 8.75770E+00    5.62988E+01
 9.00000E+00    5.40492E+01
 9.34150E+00    5.13746E+01
 9.50000E+00    5.01830E+01
 9.92530E+00    4.71465E+01
 1.00000E+01    4.66399E+01
 1.05000E+01    4.19167E+01
 1.05090E+01    4.18348E+01
 1.10000E+01    3.76953E+01
 1.10930E+01    3.68813E+01
 1.15000E+01    3.35141E+01
 1.16770E+01    3.21435E+01
 1.20000E+01    2.97742E+01
 1.22610E+01    2.84471E+01
 1.25000E+01    2.72899E+01
 1.28450E+01    2.57231E+01
 1.30000E+01    2.50501E+01
 1.34280E+01    2.33221E+01
 1.35000E+01    2.30474E+01
 1.40000E+01    2.12290E+01
 1.40120E+01    2.11874E+01
 1.45000E+01    1.96391E+01
 1.45960E+01    1.93518E+01
 1.50000E+01    1.82026E+01
 1.51800E+01    1.77203E+01
 1.55000E+01    1.69026E+01
 1.57640E+01    1.62656E+01
 1.60000E+01    1.57209E+01
 1.63480E+01    1.50592E+01
 1.65000E+01    1.47823E+01
 1.69310E+01    1.40348E+01
 1.70000E+01    1.39204E+01
 1.75000E+01    1.31248E+01
 1.75150E+01    1.31014E+01
 1.80000E+01    1.23921E+01
 1.80990E+01    1.22537E+01
 1.85000E+01    1.17156E+01
 1.86830E+01    1.14811E+01
 1.90000E+01    1.10903E+01
 1.92670E+01    1.07728E+01
 1.95000E+01    1.05058E+01
 1.98510E+01    1.01214E+01
 2.00000E+01    9.96372E+00
