# n + Li  6 : (n,el)    
# jendl4.0   S.CHIBA AND K.SHIBATA             EVAL-MAR85
# uncertainties: n
# # energies =    69
#   E(MeV)       xs(mb) 
 1.00000E-10    2.50125E+03
 5.00000E-09    9.55780E+02
 1.00000E-08    8.63120E+02
 1.50000E-08    8.25407E+02
 2.00000E-08    8.04895E+02
 2.50000E-08    7.92024E+02
 3.00000E-08    7.83204E+02
 3.50000E-08    7.75796E+02
 4.20000E-08    7.69162E+02
 5.00000E-08    7.64082E+02
 5.80000E-08    7.60109E+02
 6.70000E-08    7.56372E+02
 8.00000E-08    7.52474E+02
 1.00000E-07    7.48158E+02
 1.40000E-07    7.44571E+02
 1.80000E-07    7.42482E+02
 2.20000E-07    7.41380E+02
 2.50000E-07    7.40717E+02
 2.80000E-07    7.40339E+02
 3.00000E-07    7.40053E+02
 3.20000E-07    7.39696E+02
 3.50000E-07    7.39128E+02
 4.00000E-07    7.38324E+02
 5.00000E-07    7.37687E+02
 6.25000E-07    7.37135E+02
 7.80000E-07    7.36746E+02
 8.50000E-07    7.36552E+02
 9.10000E-07    7.36461E+02
 9.50000E-07    7.36417E+02
 9.72000E-07    7.36384E+02
 9.96000E-07    7.36350E+02
 1.02000E-06    7.36315E+02
 1.04500E-06    7.36279E+02
 1.07100E-06    7.36242E+02
 1.09700E-06    7.36206E+02
 1.12300E-06    7.36168E+02
 1.15000E-06    7.36045E+02
 1.30000E-06    7.35797E+02
 1.50000E-06    7.35596E+02
 2.10000E-06    7.35698E+02
 2.60000E-06    7.35619E+02
 3.30000E-06    7.35525E+02
 4.00000E-06    7.35221E+02
 9.87700E-06    7.35010E+02
 1.59680E-05    7.34935E+02
 2.77000E-05    7.34856E+02
 4.80520E-05    7.34827E+02
 7.55014E-05    7.34789E+02
 1.48728E-04    7.34758E+02
 3.67262E-04    7.34646E+02
 9.06898E-04    7.34473E+02
 1.42510E-03    7.34266E+02
 2.23945E-03    7.33942E+02
 3.51910E-03    7.33432E+02
 5.53000E-03    7.32573E+02
 9.11800E-03    7.31106E+02
 1.50300E-02    7.29620E+02
 2.47800E-02    7.29418E+02
 4.08500E-02    7.36401E+02
 6.73400E-02    7.85469E+02
 1.11000E-01    1.28836E+03
 1.83000E-01    5.61970E+03
 3.02000E-01    2.36780E+03
 5.00000E-01    1.26839E+03
 8.21000E-01    1.04420E+03
 1.35300E+00    1.10135E+03
 2.23100E+00    1.40177E+03
 3.67900E+00    1.30249E+03
 6.06500E+00    1.08392E+03
