# n + Li  6 : (n,n'05)  
# jendl4.0   S.CHIBA AND K.SHIBATA             EVAL-MAR85
# uncertainties: n
# # energies =    64
#   E(MeV)       xs(mb) 
 3.50310E+00    0.00000E+00
 3.62732E+00    3.61767E+01
 3.75155E+00    7.32026E+01
 4.00000E+00    1.49790E+02
 4.08690E+00    1.66650E+02
 4.50000E+00    1.26841E+02
 4.67080E+00    1.25293E+02
 5.00000E+00    1.21150E+02
 5.25460E+00    1.13352E+02
 5.50000E+00    1.07292E+02
 5.83840E+00    9.91207E+01
 6.00000E+00    9.56638E+01
 6.42230E+00    8.52711E+01
 6.50000E+00    8.35847E+01
 7.00000E+00    7.23973E+01
 7.00610E+00    7.22541E+01
 7.50000E+00    6.19275E+01
 7.59000E+00    6.03295E+01
 8.00000E+00    5.37636E+01
 8.17380E+00    5.16039E+01
 8.50000E+00    4.79180E+01
 8.75770E+00    4.53057E+01
 9.00000E+00    4.30574E+01
 9.34150E+00    4.04675E+01
 9.50000E+00    3.93611E+01
 9.92530E+00    3.66511E+01
 1.00000E+01    3.62123E+01
 1.05000E+01    3.23348E+01
 1.05090E+01    3.22680E+01
 1.10000E+01    2.89666E+01
 1.10930E+01    2.83271E+01
 1.15000E+01    2.57069E+01
 1.16770E+01    2.46474E+01
 1.20000E+01    2.28282E+01
 1.22610E+01    2.18157E+01
 1.25000E+01    2.09388E+01
 1.28450E+01    1.97558E+01
 1.30000E+01    1.92492E+01
 1.34280E+01    1.79539E+01
 1.35000E+01    1.77488E+01
 1.40000E+01    1.63922E+01
 1.40120E+01    1.63578E+01
 1.45000E+01    1.50676E+01
 1.45960E+01    1.48300E+01
 1.50000E+01    1.38848E+01
 1.51800E+01    1.34902E+01
 1.55000E+01    1.28252E+01
 1.57640E+01    1.23098E+01
 1.60000E+01    1.18714E+01
 1.63480E+01    1.13364E+01
 1.65000E+01    1.11130E+01
 1.69310E+01    1.05144E+01
 1.70000E+01    1.04238E+01
 1.75000E+01    9.79120E+00
 1.75150E+01    9.77280E+00
 1.80000E+01    9.21300E+00
 1.80990E+01    9.10420E+00
 1.85000E+01    8.68240E+00
 1.86830E+01    8.49920E+00
 1.90000E+01    8.19460E+00
 1.92670E+01    7.94820E+00
 1.95000E+01    7.74160E+00
 1.98510E+01    7.44460E+00
 2.00000E+01    7.32320E+00
