# n + Li  6 : (n,n'07)  
# jendl4.0   S.CHIBA AND K.SHIBATA             EVAL-MAR85
# uncertainties: n
# # energies =    37
#   E(MeV)       xs(mb) 
 4.15931E+00    0.00000E+00
 4.24700E+00    4.05200E-01
 4.25300E+00    4.81600E-01
 4.25900E+00    5.70350E-01
 4.27200E+00    7.81640E-01
 4.28400E+00    1.03250E+00
 4.29700E+00    1.31660E+00
 4.32200E+00    1.95770E+00
 4.34700E+00    2.65300E+00
 4.39750E+00    3.99680E+00
 4.42300E+00    4.54100E+00
 4.44770E+00    4.93040E+00
 4.48000E+00    5.40470E+00
 4.51200E+00    6.02500E+00
 4.57700E+00    7.43340E+00
 4.64200E+00    8.61470E+00
 4.67400E+00    8.95110E+00
 4.70600E+00    9.02800E+00
 4.74200E+00    8.84100E+00
 4.77800E+00    8.52450E+00
 4.81400E+00    8.19370E+00
 4.85000E+00    7.96400E+00
 5.01500E+00    7.46770E+00
 5.18000E+00    7.21950E+00
 5.34500E+00    7.13740E+00
 5.51000E+00    7.13940E+00
 5.84000E+00    6.90570E+00
 6.17100E+00    6.41080E+00
 6.50000E+00    6.06410E+00
 6.95000E+00    5.53466E+00
 8.47000E+00    4.31857E+00
 1.00000E+01    3.18355E+00
 1.20000E+01    2.12960E+00
 1.40000E+01    1.62290E+00
 1.60000E+01    1.33915E+00
 1.80000E+01    1.09593E+00
 2.00000E+01    9.74320E-01
