# n + Li  6 : (n,n'14)  
# jendl4.0   S.CHIBA AND K.SHIBATA             EVAL-MAR85
# uncertainties: n
# # energies =    49
#   E(MeV)       xs(mb) 
 7.00610E+00    0.00000E+00
 7.50000E+00    4.99930E+01
 7.59000E+00    5.66230E+01
 8.00000E+00    4.91120E+01
 8.17380E+00    4.96240E+01
 8.50000E+00    4.93950E+01
 8.75770E+00    4.85340E+01
 9.00000E+00    4.74020E+01
 9.34150E+00    4.58210E+01
 9.50000E+00    4.50100E+01
 9.92530E+00    4.27240E+01
 1.00000E+01    4.23150E+01
 1.05000E+01    3.82120E+01
 1.05090E+01    3.81390E+01
 1.10000E+01    3.43780E+01
 1.10930E+01    3.36260E+01
 1.15000E+01    3.04870E+01
 1.16770E+01    2.91980E+01
 1.20000E+01    2.69590E+01
 1.22610E+01    2.56790E+01
 1.25000E+01    2.45590E+01
 1.28450E+01    2.30340E+01
 1.30000E+01    2.23790E+01
 1.34280E+01    2.06920E+01
 1.35000E+01    2.04230E+01
 1.40000E+01    1.86480E+01
 1.40120E+01    1.86252E+01
 1.45000E+01    1.77684E+01
 1.45960E+01    1.76055E+01
 1.50000E+01    1.69418E+01
 1.51800E+01    1.66581E+01
 1.55000E+01    1.61669E+01
 1.57640E+01    1.57778E+01
 1.60000E+01    1.54385E+01
 1.63480E+01    1.50547E+01
 1.65000E+01    1.48905E+01
 1.69310E+01    1.44431E+01
 1.70000E+01    1.43750E+01
 1.75000E+01    1.38826E+01
 1.75150E+01    1.38668E+01
 1.80000E+01    1.34172E+01
 1.80990E+01    1.32720E+01
 1.85000E+01    1.27104E+01
 1.86830E+01    1.24656E+01
 1.90000E+01    1.20552E+01
 1.92670E+01    1.17217E+01
 1.95000E+01    1.14404E+01
 1.98510E+01    1.10347E+01
 2.00000E+01    1.08680E+01
