# n + Li  6 : (n,g)     
# jendl4.0   S.CHIBA AND K.SHIBATA             EVAL-MAR85
# uncertainties: n
# # energies =   171
#   E(MeV)       xs(mb) 
 1.00000E-11    4.16095E+02
 1.00000E-07    1.38559E+01
 4.13990E-07    8.94208E+00
 5.31580E-07    7.89134E+00
 6.82560E-07    6.96413E+00
 8.76420E-07    6.14578E+00
 1.12540E-06    5.42438E+00
 1.44500E-06    4.78806E+00
 1.85540E-06    4.23034E+00
 2.37240E-06    3.73378E+00
 3.05900E-06    3.29124E+00
 3.92790E-06    2.90472E+00
 5.04350E-06    2.56323E+00
 6.47600E-06    2.26217E+00
 8.31530E-06    1.99630E+00
 1.06770E-05    1.76171E+00
 1.37100E-05    1.55476E+00
 1.76030E-05    1.37201E+00
 2.26030E-05    1.20906E+00
 2.92030E-05    1.06682E+00
 3.72670E-05    9.43033E-01
 4.78510E-05    8.32160E-01
 6.14420E-05    7.34436E-01
 7.88930E-05    6.48098E-01
 1.01300E-04    5.71958E-01
 1.30070E-04    5.04754E-01
 1.67020E-04    4.45429E-01
 2.14450E-04    3.93112E-01
 2.75360E-04    3.46900E-01
 3.53580E-04    3.06161E-01
 4.54000E-04    2.70161E-01
 5.82950E-04    2.38438E-01
 7.48520E-04    2.10405E-01
 9.61120E-04    1.85688E-01
 1.23410E-03    1.63866E-01
 1.58460E-03    1.44611E-01
 2.03470E-03    1.32422E-01
 2.24870E-03    1.25964E-01
 2.48520E-03    1.21332E-01
 2.61260E-03    1.18307E-01
 2.74650E-03    1.13977E-01
 3.03540E-03    1.08431E-01
 3.35460E-03    1.03132E-01
 3.70740E-03    9.69042E-02
 4.30740E-03    8.77112E-02
 5.53080E-03    7.74104E-02
 7.10170E-03    6.83070E-02
 9.11880E-03    6.02867E-02
 1.17090E-02    5.31996E-02
 1.50340E-02    4.69520E-02
 1.93050E-02    4.27241E-02
 2.18750E-02    4.06448E-02
 2.35790E-02    3.96213E-02
 2.41760E-02    3.91393E-02
 2.47880E-02    3.84240E-02
 2.60580E-02    3.75909E-02
 2.70000E-02    3.67785E-02
 2.85000E-02    3.52923E-02
 3.18280E-02    3.36901E-02
 3.43070E-02    3.16573E-02
 4.08680E-02    2.93668E-02
 4.63090E-02    2.75886E-02
 5.24750E-02    2.62376E-02
 5.65620E-02    2.46545E-02
 6.73790E-02    2.32063E-02
 7.20000E-02    2.22672E-02
 7.95000E-02    2.15211E-02
 8.25000E-02    2.10748E-02
 8.65170E-02    2.01801E-02
 9.80370E-02    1.93225E-02
 1.11090E-01    1.92113E-02
 1.16790E-01    1.91514E-02
 1.22770E-01    1.90884E-02
 1.29070E-01    1.90222E-02
 1.35690E-01    1.89555E-02
 1.42640E-01    1.89016E-02
 1.49960E-01    1.88474E-02
 1.57640E-01    1.87905E-02
 1.65730E-01    1.87306E-02
 1.74220E-01    1.86676E-02
 1.83160E-01    1.86014E-02
 1.92550E-01    1.85392E-02
 2.02420E-01    1.84876E-02
 2.12800E-01    1.84336E-02
 2.23710E-01    1.83768E-02
 2.35180E-01    1.83171E-02
 2.47240E-01    1.82217E-02
 2.73240E-01    1.81343E-02
 2.87250E-01    1.80963E-02
 2.94520E-01    1.80786E-02
 2.97200E-01    1.80715E-02
 2.98500E-01    1.80630E-02
 3.01970E-01    1.80013E-02
 3.33730E-01    1.78825E-02
 3.68830E-01    1.77886E-02
 3.87740E-01    1.77382E-02
 4.07620E-01    1.76609E-02
 4.50490E-01    1.75489E-02
 4.97870E-01    1.74576E-02
 5.23400E-01    1.73967E-02
 5.50230E-01    1.73479E-02
 5.78440E-01    1.72980E-02
 6.08100E-01    1.72455E-02
 6.39280E-01    1.71904E-02
 6.72060E-01    1.71324E-02
 7.06510E-01    1.70714E-02
 7.42740E-01    1.70156E-02
 7.80820E-01    1.69672E-02
 8.20850E-01    1.69164E-02
 8.62940E-01    1.68630E-02
 9.07180E-01    1.68019E-02
 9.61640E-01    1.67436E-02
 1.00260E+00    1.72757E-02
 1.10800E+00    1.81097E-02
 1.16480E+00    1.87021E-02
 1.22460E+00    1.92947E-02
 1.28730E+00    1.99086E-02
 1.35340E+00    2.05540E-02
 1.42270E+00    2.12224E-02
 1.49570E+00    2.18929E-02
 1.57240E+00    2.25949E-02
 1.65300E+00    2.33320E-02
 1.73770E+00    2.40755E-02
 1.82680E+00    2.48399E-02
 1.92050E+00    2.56436E-02
 2.01900E+00    2.64821E-02
 2.12250E+00    2.73303E-02
 2.23130E+00    2.80777E-02
 2.30690E+00    2.86456E-02
 2.34570E+00    2.89569E-02
 2.36530E+00    2.91672E-02
 2.38520E+00    2.97009E-02
 2.46600E+00    3.08006E-02
 2.59240E+00    3.21805E-02
 2.72530E+00    3.36313E-02
 2.86500E+00    3.51560E-02
 3.01190E+00    3.67267E-02
 3.16640E+00    3.83571E-02
 3.32870E+00    4.09716E-02
 3.67880E+00    4.47567E-02
 4.06570E+00    4.88405E-02
 4.49330E+00    5.21409E-02
 4.72370E+00    5.44922E-02
 4.96590E+00    5.69632E-02
 5.22050E+00    5.95200E-02
 5.48810E+00    6.21840E-02
 5.76950E+00    6.49491E-02
 6.06530E+00    6.64435E-02
 6.37630E+00    6.71343E-02
 6.59240E+00    6.75627E-02
 6.70320E+00    6.81534E-02
 7.04690E+00    6.90739E-02
 7.40820E+00    6.99613E-02
 7.78800E+00    7.08407E-02
 8.18730E+00    7.17652E-02
 8.60710E+00    7.27340E-02
 9.04840E+00    7.36755E-02
 9.51230E+00    7.46317E-02
 1.00000E+01    7.56198E-02
 1.05130E+01    7.66168E-02
 1.10520E+01    7.76381E-02
 1.16180E+01    7.86730E-02
 1.22140E+01    7.97195E-02
 1.28400E+01    8.07835E-02
 1.34990E+01    8.15907E-02
 1.38400E+01    8.21325E-02
 1.41910E+01    8.26756E-02
 1.45500E+01    8.32264E-02
 1.49180E+01    8.40644E-02
 1.56830E+01    8.53955E-02
 1.64870E+01    8.68373E-02
