# n + Li  6 : (n,n'12)  
# jendl4.0   S.CHIBA AND K.SHIBATA             EVAL-MAR85
# uncertainties: n
# # energies =    52
#   E(MeV)       xs(mb) 
 6.42230E+00    0.00000E+00
 6.50000E+00    2.38699E+01
 7.00000E+00    6.99018E+01
 7.00610E+00    7.04500E+01
 7.50000E+00    6.03810E+01
 7.59000E+00    6.03524E+01
 8.00000E+00    5.86694E+01
 8.17380E+00    5.78250E+01
 8.50000E+00    5.58304E+01
 8.75770E+00    5.40385E+01
 9.00000E+00    5.22738E+01
 9.34150E+00    5.00967E+01
 9.50000E+00    4.90835E+01
 9.92530E+00    4.64141E+01
 1.00000E+01    4.59561E+01
 1.05000E+01    4.15049E+01
 1.05090E+01    4.14263E+01
 1.10000E+01    3.74432E+01
 1.10930E+01    3.66513E+01
 1.15000E+01    3.33571E+01
 1.16770E+01    3.20085E+01
 1.20000E+01    2.96681E+01
 1.22610E+01    2.83540E+01
 1.25000E+01    2.72058E+01
 1.28450E+01    2.56440E+01
 1.30000E+01    2.49732E+01
 1.34280E+01    2.32431E+01
 1.35000E+01    2.29670E+01
 1.40000E+01    2.11416E+01
 1.40120E+01    2.11020E+01
 1.45000E+01    1.96020E+01
 1.45960E+01    1.93236E+01
 1.50000E+01    1.82040E+01
 1.51800E+01    1.77336E+01
 1.55000E+01    1.69344E+01
 1.57640E+01    1.63092E+01
 1.60000E+01    1.57752E+01
 1.63480E+01    1.51260E+01
 1.65000E+01    1.48536E+01
 1.69310E+01    1.41180E+01
 1.70000E+01    1.40064E+01
 1.75000E+01    1.32216E+01
 1.75150E+01    1.31976E+01
 1.80000E+01    1.24968E+01
 1.80990E+01    1.23588E+01
 1.85000E+01    1.18260E+01
 1.86830E+01    1.15933E+01
 1.90000E+01    1.12051E+01
 1.92670E+01    1.08894E+01
 1.95000E+01    1.06236E+01
 1.98510E+01    1.02407E+01
 2.00000E+01    1.00834E+01
