# n + Li  6 : (n,el)    
# jendl4.0   S.CHIBA AND K.SHIBATA             EVAL-MAR85
# uncertainties: n
# # energies =   171
#   E(MeV)       xs(mb) 
 1.00000E-11    3.87989E+03
 1.00000E-07    7.43158E+02
 4.13990E-07    7.38165E+02
 5.31580E-07    7.37512E+02
 6.82560E-07    7.36872E+02
 8.76420E-07    7.36368E+02
 1.12540E-06    7.35966E+02
 1.44500E-06    7.35580E+02
 1.85540E-06    7.35684E+02
 2.37240E-06    7.35651E+02
 3.05900E-06    7.35547E+02
 3.92790E-06    7.35414E+02
 5.04350E-06    7.35243E+02
 6.47600E-06    7.35115E+02
 8.31530E-06    7.35082E+02
 1.06770E-05    7.35022E+02
 1.37100E-05    7.34953E+02
 1.76030E-05    7.34944E+02
 2.26030E-05    7.34920E+02
 2.92030E-05    7.34876E+02
 3.72670E-05    7.34828E+02
 4.78510E-05    7.34847E+02
 6.14420E-05    7.34797E+02
 7.88930E-05    7.34784E+02
 1.01300E-04    7.34798E+02
 1.30070E-04    7.34787E+02
 1.67020E-04    7.34774E+02
 2.14450E-04    7.34757E+02
 2.75360E-04    7.34735E+02
 3.53580E-04    7.34707E+02
 4.54000E-04    7.34671E+02
 5.82950E-04    7.34625E+02
 7.48520E-04    7.34566E+02
 9.61120E-04    7.34490E+02
 1.23410E-03    7.34392E+02
 1.58460E-03    7.34267E+02
 2.03470E-03    7.34160E+02
 2.24870E-03    7.34089E+02
 2.48520E-03    7.34031E+02
 2.61260E-03    7.33990E+02
 2.74650E-03    7.33924E+02
 3.03540E-03    7.33828E+02
 3.35460E-03    7.33722E+02
 3.70740E-03    7.33573E+02
 4.30740E-03    7.33292E+02
 5.53080E-03    7.32854E+02
 7.10170E-03    7.32291E+02
 9.11880E-03    7.31569E+02
 1.17090E-02    7.30641E+02
 1.50340E-02    7.29839E+02
 1.93050E-02    7.29523E+02
 2.18750E-02    7.29330E+02
 2.35790E-02    7.29226E+02
 2.41760E-02    7.29172E+02
 2.47880E-02    7.29087E+02
 2.60580E-02    7.28988E+02
 2.70000E-02    7.28879E+02
 2.85000E-02    7.28807E+02
 3.18280E-02    7.29300E+02
 3.43070E-02    7.30207E+02
 4.08680E-02    7.31466E+02
 4.63090E-02    7.33793E+02
 5.24750E-02    7.36355E+02
 5.65620E-02    7.41858E+02
 6.73790E-02    7.49646E+02
 7.20000E-02    7.57846E+02
 7.95000E-02    7.66114E+02
 8.25000E-02    7.73273E+02
 8.65170E-02    7.91448E+02
 9.80370E-02    8.31429E+02
 1.11090E-01    8.75505E+02
 1.16790E-01    9.09585E+02
 1.22770E-01    9.54163E+02
 1.29070E-01    1.00925E+03
 1.35690E-01    1.08178E+03
 1.42640E-01    1.19657E+03
 1.49960E-01    1.34567E+03
 1.57640E-01    1.53936E+03
 1.65730E-01    1.80904E+03
 1.74220E-01    2.18914E+03
 1.83160E-01    2.72706E+03
 1.92550E-01    3.48321E+03
 2.02420E-01    4.50591E+03
 2.12800E-01    5.75718E+03
 2.23710E-01    6.99846E+03
 2.35180E-01    7.77236E+03
 2.47240E-01    7.27494E+03
 2.73240E-01    5.73682E+03
 2.87250E-01    4.95021E+03
 2.94520E-01    4.63864E+03
 2.97200E-01    4.51690E+03
 2.98500E-01    4.37780E+03
 3.01970E-01    3.62319E+03
 3.33730E-01    2.69452E+03
 3.68830E-01    2.25370E+03
 3.87740E-01    2.04564E+03
 4.07620E-01    1.81482E+03
 4.50490E-01    1.59540E+03
 4.97870E-01    1.47517E+03
 5.23400E-01    1.41194E+03
 5.50230E-01    1.35677E+03
 5.78440E-01    1.30896E+03
 6.08100E-01    1.26772E+03
 6.39280E-01    1.23176E+03
 6.72060E-01    1.20081E+03
 7.06510E-01    1.17342E+03
 7.42740E-01    1.14946E+03
 7.80820E-01    1.12882E+03
 8.20850E-01    1.11043E+03
 8.62940E-01    1.09501E+03
 9.07180E-01    1.08149E+03
 9.61640E-01    1.06697E+03
 1.00260E+00    1.03044E+03
 1.10800E+00    1.00885E+03
 1.16480E+00    1.00365E+03
 1.22460E+00    1.00330E+03
 1.28730E+00    1.00911E+03
 1.35340E+00    1.01594E+03
 1.42270E+00    1.02448E+03
 1.49570E+00    1.03786E+03
 1.57240E+00    1.05328E+03
 1.65300E+00    1.07546E+03
 1.73770E+00    1.10240E+03
 1.82680E+00    1.12754E+03
 1.92050E+00    1.15810E+03
 2.01900E+00    1.19113E+03
 2.12250E+00    1.22819E+03
 2.23130E+00    1.26548E+03
 2.30690E+00    1.29319E+03
 2.34570E+00    1.30731E+03
 2.36530E+00    1.31685E+03
 2.38520E+00    1.34107E+03
 2.46600E+00    1.38193E+03
 2.59240E+00    1.40648E+03
 2.72530E+00    1.43052E+03
 2.86500E+00    1.45130E+03
 3.01190E+00    1.45796E+03
 3.16640E+00    1.44803E+03
 3.32870E+00    1.41790E+03
 3.67880E+00    1.38634E+03
 4.06570E+00    1.34406E+03
 4.49330E+00    1.31557E+03
 4.72370E+00    1.29167E+03
 4.96590E+00    1.26816E+03
 5.22050E+00    1.24938E+03
 5.48810E+00    1.23111E+03
 5.76950E+00    1.20823E+03
 6.06530E+00    1.18329E+03
 6.37630E+00    1.16252E+03
 6.59240E+00    1.14965E+03
 6.70320E+00    1.13141E+03
 7.04690E+00    1.10944E+03
 7.40820E+00    1.09299E+03
 7.78800E+00    1.07607E+03
 8.18730E+00    1.05685E+03
 8.60710E+00    1.03543E+03
 9.04840E+00    1.01082E+03
 9.51230E+00    9.84558E+02
 1.00000E+01    9.65108E+02
 1.05130E+01    9.55524E+02
 1.10520E+01    9.50327E+02
 1.16180E+01    9.47343E+02
 1.22140E+01    9.34253E+02
 1.28400E+01    9.19123E+02
 1.34990E+01    9.10794E+02
 1.38400E+01    9.03439E+02
 1.41910E+01    8.82311E+02
 1.45500E+01    8.61578E+02
 1.49180E+01    8.30284E+02
 1.56830E+01    7.87809E+02
 1.64870E+01    7.38855E+02
