# n + Li  6 : (n,n'02)  
# jendl4.0   S.CHIBA AND K.SHIBATA             EVAL-MAR85
# uncertainties: n
# # energies =    67
#   E(MeV)       xs(mb) 
 2.33540E+00    0.00000E+00
 2.50000E+00    4.42660E+01
 2.91920E+00    6.12250E+01
 3.00000E+00    3.49990E+01
 3.50000E+00    5.49690E+01
 3.50310E+00    5.49560E+01
 4.00000E+00    5.40500E+01
 4.08690E+00    5.13250E+01
 4.50000E+00    4.13040E+01
 4.67080E+00    3.85470E+01
 5.00000E+00    3.41810E+01
 5.25460E+00    3.03010E+01
 5.50000E+00    2.74230E+01
 5.83840E+00    2.40050E+01
 6.00000E+00    2.26360E+01
 6.42230E+00    1.90940E+01
 6.50000E+00    1.85410E+01
 7.00000E+00    1.51790E+01
 7.00610E+00    1.51390E+01
 7.50000E+00    1.23430E+01
 7.59000E+00    1.19220E+01
 8.00000E+00    1.02320E+01
 8.17380E+00    9.67180E+00
 8.50000E+00    8.73630E+00
 8.75770E+00    8.08820E+00
 9.00000E+00    7.54090E+00
 9.34150E+00    6.90480E+00
 9.50000E+00    6.63730E+00
 9.92530E+00    5.99350E+00
 1.00000E+01    5.89050E+00
 1.05000E+01    5.08250E+00
 1.05090E+01    5.06900E+00
 1.10000E+01    4.40630E+00
 1.10930E+01    4.28350E+00
 1.15000E+01    3.78910E+00
 1.16770E+01    3.59390E+00
 1.20000E+01    3.26440E+00
 1.22610E+01    3.07210E+00
 1.25000E+01    2.90800E+00
 1.28450E+01    2.69050E+00
 1.30000E+01    2.59900E+00
 1.34280E+01    2.36790E+00
 1.35000E+01    2.33170E+00
 1.40000E+01    2.09720E+00
 1.40120E+01    2.09270E+00
 1.45000E+01    1.92350E+00
 1.45960E+01    1.89240E+00
 1.50000E+01    1.76890E+00
 1.51800E+01    1.71750E+00
 1.55000E+01    1.63100E+00
 1.57640E+01    1.56400E+00
 1.60000E+01    1.50710E+00
 1.63480E+01    1.43760E+00
 1.65000E+01    1.40860E+00
 1.69310E+01    1.33100E+00
 1.70000E+01    1.31930E+00
 1.75000E+01    1.23750E+00
 1.75150E+01    1.23520E+00
 1.80000E+01    1.16300E+00
 1.80990E+01    1.14900E+00
 1.85000E+01    1.09470E+00
 1.86830E+01    1.07110E+00
 1.90000E+01    1.03200E+00
 1.92670E+01    1.00040E+00
 1.95000E+01    9.73940E-01
 1.98510E+01    9.35940E-01
 2.00000E+01    9.20400E-01
