# n + Li  6 : (n,tot)   
# jendl4.0   S.CHIBA AND K.SHIBATA             EVAL-MAR85
# uncertainties: n
# # energies =    69
#   E(MeV)       xs(mb) 
 1.00000E-10    6.59402E+06
 5.00000E-09    1.79590E+06
 1.00000E-08    1.36026E+06
 1.50000E-08    1.14293E+06
 2.00000E-08    1.00557E+06
 2.50000E-08    9.08441E+05
 3.00000E-08    8.35016E+05
 3.50000E-08    7.67663E+05
 4.20000E-08    7.02102E+05
 5.00000E-08    6.47608E+05
 5.80000E-08    6.01944E+05
 6.70000E-08    5.55571E+05
 8.00000E-08    5.02839E+05
 1.00000E-07    4.37683E+05
 1.40000E-07    3.78054E+05
 1.80000E-07    3.37694E+05
 2.20000E-07    3.10848E+05
 2.50000E-07    2.92575E+05
 2.80000E-07    2.79557E+05
 3.00000E-07    2.70480E+05
 3.20000E-07    2.60425E+05
 3.50000E-07    2.46477E+05
 4.00000E-07    2.25430E+05
 5.00000E-07    2.01422E+05
 6.25000E-07    1.80221E+05
 7.80000E-07    1.67064E+05
 8.50000E-07    1.60865E+05
 9.10000E-07    1.56466E+05
 9.50000E-07    1.53901E+05
 9.72000E-07    1.52089E+05
 9.96000E-07    1.50273E+05
 1.02000E-06    1.48494E+05
 1.04500E-06    1.46720E+05
 1.07100E-06    1.44971E+05
 1.09700E-06    1.43276E+05
 1.12300E-06    1.41610E+05
 1.15000E-06    1.36500E+05
 1.30000E-06    1.27704E+05
 1.50000E-06    1.13786E+05
 2.10000E-06    9.90330E+04
 2.60000E-06    8.84341E+04
 3.30000E-06    7.97358E+04
 4.00000E-06    6.11125E+04
 9.87700E-06    4.31838E+04
 1.59680E-05    3.36097E+04
 2.77000E-05    2.56748E+04
 4.80520E-05    2.00896E+04
 7.55014E-05    1.53801E+04
 1.48728E-04    1.06348E+04
 3.67262E-04    7.02810E+03
 9.06898E-04    5.18897E+03
 1.42510E-03    4.28666E+03
 2.23945E-03    3.56795E+03
 3.51910E-03    2.99630E+03
 5.53000E-03    2.52209E+03
 9.11800E-03    2.13921E+03
 1.50300E-02    1.84239E+03
 2.47800E-02    1.62068E+03
 4.08500E-02    1.47292E+03
 6.73400E-02    1.45145E+03
 1.11000E-01    2.19153E+03
 1.83000E-01    8.07438E+03
 3.02000E-01    3.06518E+03
 5.00000E-01    1.60411E+03
 8.21000E-01    1.31190E+03
 1.35300E+00    1.32962E+03
 2.23100E+00    1.79649E+03
 3.67900E+00    2.09811E+03
 6.06500E+00    1.86699E+03
