# n + Li  6 : (n,tot)   
# jendl4.0   S.CHIBA AND K.SHIBATA             EVAL-MAR85
# uncertainties: n
# # energies =   171
#   E(MeV)       xs(mb) 
 1.00000E-11    1.02123E+07
 1.00000E-07    3.40722E+05
 4.13990E-07    2.20081E+05
 5.31580E-07    1.94029E+05
 6.82560E-07    1.71404E+05
 8.76420E-07    1.51504E+05
 1.12540E-06    1.33712E+05
 1.44500E-06    1.18296E+05
 1.85540E-06    1.04606E+05
 2.37240E-06    9.22261E+04
 3.05900E-06    8.15447E+04
 3.92790E-06    7.20023E+04
 5.04350E-06    6.35211E+04
 6.47600E-06    5.61108E+04
 8.31530E-06    4.97020E+04
 1.06770E-05    4.39279E+04
 1.37100E-05    3.88504E+04
 1.76030E-05    3.44299E+04
 2.26030E-05    3.03630E+04
 2.92030E-05    2.68879E+04
 3.72670E-05    2.38723E+04
 4.78510E-05    2.11153E+04
 6.14420E-05    1.86946E+04
 7.88930E-05    1.66270E+04
 1.01300E-04    1.47495E+04
 1.30070E-04    1.30880E+04
 1.67020E-04    1.16775E+04
 2.14450E-04    1.03601E+04
 2.75360E-04    9.22199E+03
 3.53580E-04    8.24460E+03
 4.54000E-04    7.34601E+03
 5.82950E-04    6.56244E+03
 7.48520E-04    5.88675E+03
 9.61120E-04    5.27985E+03
 1.23410E-03    4.74082E+03
 1.58460E-03    4.27502E+03
 2.03470E-03    3.96922E+03
 2.24870E-03    3.82216E+03
 2.48520E-03    3.70610E+03
 2.61260E-03    3.62463E+03
 2.74650E-03    3.51952E+03
 3.03540E-03    3.38294E+03
 3.35460E-03    3.26135E+03
 3.70740E-03    3.10545E+03
 4.30740E-03    2.88139E+03
 5.53080E-03    2.63131E+03
 7.10170E-03    2.41266E+03
 9.11880E-03    2.22267E+03
 1.17090E-02    2.05551E+03
 1.50340E-02    1.90744E+03
 1.93050E-02    1.80482E+03
 2.18750E-02    1.75996E+03
 2.35790E-02    1.73871E+03
 2.41760E-02    1.72764E+03
 2.47880E-02    1.71047E+03
 2.60580E-02    1.69016E+03
 2.70000E-02    1.67009E+03
 2.85000E-02    1.63726E+03
 3.18280E-02    1.60380E+03
 3.43070E-02    1.56205E+03
 4.08680E-02    1.51554E+03
 4.63090E-02    1.48248E+03
 5.24750E-02    1.46137E+03
 5.65620E-02    1.44033E+03
 6.73790E-02    1.42731E+03
 7.20000E-02    1.42560E+03
 7.95000E-02    1.42753E+03
 8.25000E-02    1.43340E+03
 8.65170E-02    1.45050E+03
 9.80370E-02    1.50032E+03
 1.11090E-01    1.56314E+03
 1.16790E-01    1.61385E+03
 1.22770E-01    1.68108E+03
 1.29070E-01    1.76457E+03
 1.35690E-01    1.87540E+03
 1.42640E-01    2.05576E+03
 1.49960E-01    2.28697E+03
 1.57640E-01    2.58033E+03
 1.65730E-01    2.98527E+03
 1.74220E-01    3.54870E+03
 1.83160E-01    4.33363E+03
 1.92550E-01    5.42010E+03
 2.02420E-01    6.86078E+03
 2.12800E-01    8.57497E+03
 2.23710E-01    1.02103E+04
 2.35180E-01    1.11131E+04
 2.47240E-01    1.01095E+04
 2.73240E-01    7.77279E+03
 2.87250E-01    6.63753E+03
 2.94520E-01    6.19192E+03
 2.97200E-01    6.01967E+03
 2.98500E-01    5.82590E+03
 3.01970E-01    4.77286E+03
 3.33730E-01    3.49629E+03
 3.68830E-01    2.90119E+03
 3.87740E-01    2.62329E+03
 4.07620E-01    2.31738E+03
 4.50490E-01    2.02887E+03
 4.97870E-01    1.87181E+03
 5.23400E-01    1.78956E+03
 5.50230E-01    1.71812E+03
 5.78440E-01    1.65640E+03
 6.08100E-01    1.60323E+03
 6.39280E-01    1.55687E+03
 6.72060E-01    1.51691E+03
 7.06510E-01    1.48148E+03
 7.42740E-01    1.45039E+03
 7.80820E-01    1.42341E+03
 8.20850E-01    1.39913E+03
 8.62940E-01    1.37842E+03
 9.07180E-01    1.35981E+03
 9.61640E-01    1.34048E+03
 1.00260E+00    1.29776E+03
 1.10800E+00    1.26979E+03
 1.16480E+00    1.26032E+03
 1.22460E+00    1.25557E+03
 1.28730E+00    1.25687E+03
 1.35340E+00    1.25897E+03
 1.42270E+00    1.26181E+03
 1.49570E+00    1.26970E+03
 1.57240E+00    1.27902E+03
 1.65300E+00    1.29424E+03
 1.73770E+00    1.31767E+03
 1.82680E+00    1.34619E+03
 1.92050E+00    1.38267E+03
 2.01900E+00    1.42171E+03
 2.12250E+00    1.46504E+03
 2.23130E+00    1.50421E+03
 2.30690E+00    1.53064E+03
 2.34570E+00    1.54430E+03
 2.36530E+00    1.55352E+03
 2.38520E+00    1.57694E+03
 2.46600E+00    1.61822E+03
 2.59240E+00    1.68170E+03
 2.72530E+00    1.75994E+03
 2.86500E+00    1.83545E+03
 3.01190E+00    1.91231E+03
 3.16640E+00    1.98584E+03
 3.32870E+00    2.04563E+03
 3.67880E+00    2.12066E+03
 4.06570E+00    2.12762E+03
 4.49330E+00    2.11348E+03
 4.72370E+00    2.10443E+03
 4.96590E+00    2.09306E+03
 5.22050E+00    2.07734E+03
 5.48810E+00    2.06021E+03
 5.76950E+00    2.03596E+03
 6.06530E+00    2.00865E+03
 6.37630E+00    1.98469E+03
 6.59240E+00    1.96817E+03
 6.70320E+00    1.94695E+03
 7.04690E+00    1.91613E+03
 7.40820E+00    1.88514E+03
 7.78800E+00    1.85287E+03
 8.18730E+00    1.82120E+03
 8.60710E+00    1.78835E+03
 9.04840E+00    1.75381E+03
 9.51230E+00    1.71751E+03
 1.00000E+01    1.67969E+03
 1.05130E+01    1.64273E+03
 1.10520E+01    1.60512E+03
 1.16180E+01    1.56653E+03
 1.22140E+01    1.52570E+03
 1.28400E+01    1.48289E+03
 1.34990E+01    1.45148E+03
 1.38400E+01    1.43053E+03
 1.41910E+01    1.41016E+03
 1.45500E+01    1.39231E+03
 1.49180E+01    1.36530E+03
 1.56830E+01    1.32904E+03
 1.64870E+01    1.29004E+03
