# n + Dy  0 : (n,xp)
# endfb8.0   Kim,Herman,Oh,Oblozinsky          EVAL-FEB06
#
# # energies =    80
#   E(MeV)          xs(mb) 
 7.38416E-02    0.00000E+00
 8.00000E-02    0.00000E+00
 9.00000E-02    0.00000E+00
 1.00000E-01    0.00000E+00
 1.20000E-01    0.00000E+00
 1.50000E-01    0.00000E+00
 2.00000E-01    0.00000E+00
 2.43720E-01    0.00000E+00
 3.00000E-01    0.00000E+00
 4.00000E-01    0.00000E+00
 4.95000E-01    0.00000E+00
 5.00000E-01    0.00000E+00
 5.04405E-01    0.00000E+00
 6.00000E-01    0.00000E+00
 7.00000E-01    0.00000E+00
 7.66548E-01    0.00000E+00
 8.00000E-01    0.00000E+00
 8.33286E-01    0.00000E+00
 8.48861E-01    0.00000E+00
 9.00000E-01    0.00000E+00
 9.21656E-01    0.00000E+00
 9.82891E-01    0.00000E+00
 1.00000E+00    0.00000E+00
 1.03101E+00    0.00000E+00
 1.04571E+00    0.00000E+00
 1.10000E+00    0.00000E+00
 1.12971E+00    0.00000E+00
 1.16261E+00    0.00000E+00
 1.17317E+00    0.00000E+00
 1.20000E+00    0.00000E+00
 1.23274E+00    0.00000E+00
 1.26906E+00    0.00000E+00
 1.30000E+00    0.00000E+00
 1.40000E+00    0.00000E+00
 1.40328E+00    4.68921E-14
 1.50000E+00    1.42962E-12
 1.59757E+00    8.99986E-12
 1.60000E+00    9.18840E-12
 1.61759E+00    3.84802E-11
 1.66559E+00    1.18413E-10
 1.68531E+00    1.51252E-10
 1.69678E+00    1.70352E-10
 1.70000E+00    1.75714E-10
 1.72676E+00    3.32761E-10
 1.74708E+00    4.52013E-10
 1.75654E+00    5.07531E-10
 1.76862E+00    5.78425E-10
 1.78059E+00    6.48674E-10
 1.78793E+00    6.91750E-10
 1.80000E+00    7.62585E-10
 1.80806E+00    8.72776E-10
 1.81953E+00    1.02958E-09
 1.85172E+00    1.46966E-09
 1.85776E+00    1.55223E-09
 1.86511E+00    1.65272E-09
 1.90000E+00    2.12971E-09
 2.00000E+00    5.01403E-09
 2.50000E+00    1.22161E-07
 3.00000E+00    1.13828E-06
 3.50000E+00    6.35517E-06
 4.00000E+00    3.45112E-05
 5.00000E+00    2.40282E-04
 6.00000E+00    8.72105E-04
 7.00000E+00    3.62164E-03
 7.60000E+00    1.04716E-02
 7.80000E+00    1.27597E-02
 8.00000E+00    1.50535E-02
 9.00000E+00    5.62345E-02
 1.00000E+01    1.72662E-01
 1.10000E+01    4.56092E-01
 1.20000E+01    1.00847E+00
 1.30000E+01    1.90054E+00
 1.40000E+01    3.20521E+00
 1.45000E+01    4.02934E+00
 1.50000E+01    5.00138E+00
 1.60000E+01    7.35768E+00
 1.70000E+01    9.67173E+00
 1.80000E+01    1.25973E+01
 1.90000E+01    1.57851E+01
 2.00000E+01    1.93311E+01
