# n + Sn122 : (n,n'13)  
# jeff3.3    A.J. Koning and D. Rochman        EVAL-DEC15
# uncertainties: n
# # energies =    74
#   E(MeV)       xs(mb) 
 2.67495E+00    0.00000E+00
 2.67898E+00    2.04109E-01
 2.69771E+00    1.15268E+00
 2.71230E+00    1.89158E+00
 2.75713E+00    4.16196E+00
 2.77377E+00    5.00469E+00
 2.78848E+00    5.74967E+00
 2.79852E+00    6.25814E+00
 2.80000E+00    6.33309E+00
 2.86136E+00    7.91287E+00
 2.87910E+00    8.36961E+00
 2.89146E+00    8.68782E+00
 2.90362E+00    9.00090E+00
 2.96933E+00    1.06927E+01
 2.98360E+00    1.10601E+01
 2.99568E+00    1.13711E+01
 2.99799E+00    1.14306E+01
 3.00000E+00    1.14823E+01
 3.06103E+00    1.20802E+01
 3.10765E+00    1.25369E+01
 3.20000E+00    1.34416E+01
 3.40000E+00    1.37302E+01
 3.60000E+00    1.29398E+01
 3.80000E+00    1.16283E+01
 4.00000E+00    1.00838E+01
 4.20000E+00    8.50211E+00
 4.40000E+00    7.01489E+00
 4.60000E+00    5.69783E+00
 4.80000E+00    4.58110E+00
 5.00000E+00    3.66222E+00
 5.20000E+00    2.92182E+00
 5.40000E+00    2.33290E+00
 5.60000E+00    1.86752E+00
 5.80000E+00    1.50014E+00
 6.00000E+00    1.20925E+00
 6.20000E+00    9.77647E-01
 6.40000E+00    7.91940E-01
 6.60000E+00    6.39630E-01
 6.80000E+00    5.18013E-01
 7.00000E+00    4.19512E-01
 7.20000E+00    3.40095E-01
 7.40000E+00    2.74941E-01
 7.60000E+00    2.22937E-01
 7.80000E+00    1.80359E-01
 8.00000E+00    1.46019E-01
 8.50000E+00    8.63369E-02
 9.00000E+00    5.13275E-02
 9.50000E+00    3.07202E-02
 1.00000E+01    1.85152E-02
 1.05000E+01    1.12380E-02
 1.10000E+01    6.86694E-03
 1.15000E+01    4.22179E-03
 1.20000E+01    2.60886E-03
 1.25000E+01    1.61894E-03
 1.30000E+01    1.00853E-03
 1.35000E+01    6.30630E-04
 1.40000E+01    3.95967E-04
 1.45000E+01    2.49729E-04
 1.50000E+01    1.58287E-04
 1.60000E+01    6.46204E-05
 1.70000E+01    2.69715E-05
 1.80000E+01    1.15108E-05
 1.90000E+01    5.01798E-06
 2.00000E+01    2.21508E-06
 2.10000E+01    9.99520E-07
 2.20000E+01    4.57090E-07
 2.30000E+01    2.11760E-07
 2.40000E+01    9.94430E-08
 2.50000E+01    4.72160E-08
 2.60000E+01    2.27350E-08
 2.70000E+01    1.10780E-08
 2.80000E+01    5.46650E-09
 2.90000E+01    2.72900E-09
 3.00000E+01    1.37780E-09
