# n + Sn122 : (n,n'14)  
# jeff3.3    A.J. Koning and D. Rochman        EVAL-DEC15
# uncertainties: n
# # energies =    73
#   E(MeV)       xs(mb) 
 2.67898E+00    0.00000E+00
 2.69771E+00    7.31443E+00
 2.71230E+00    1.30121E+01
 2.75713E+00    3.05191E+01
 2.77377E+00    3.70175E+01
 2.78848E+00    4.27620E+01
 2.79852E+00    4.66829E+01
 2.80000E+00    4.72608E+01
 2.86136E+00    5.44780E+01
 2.87910E+00    5.65646E+01
 2.89146E+00    5.80184E+01
 2.90362E+00    5.94486E+01
 2.96933E+00    6.71775E+01
 2.98360E+00    6.88559E+01
 2.99568E+00    7.02768E+01
 2.99799E+00    7.05485E+01
 3.00000E+00    7.07849E+01
 3.06103E+00    7.12375E+01
 3.10765E+00    7.15832E+01
 3.20000E+00    7.22680E+01
 3.40000E+00    6.31863E+01
 3.60000E+00    5.16071E+01
 3.80000E+00    4.08541E+01
 4.00000E+00    3.17583E+01
 4.20000E+00    2.43984E+01
 4.40000E+00    1.86025E+01
 4.60000E+00    1.41247E+01
 4.80000E+00    1.07134E+01
 5.00000E+00    8.13980E+00
 5.20000E+00    6.21106E+00
 5.40000E+00    4.77129E+00
 5.60000E+00    3.69879E+00
 5.80000E+00    2.90028E+00
 6.00000E+00    2.30536E+00
 6.20000E+00    1.86152E+00
 6.40000E+00    1.52967E+00
 6.60000E+00    1.27776E+00
 6.80000E+00    1.09096E+00
 7.00000E+00    9.50728E-01
 7.20000E+00    8.45487E-01
 7.40000E+00    7.65178E-01
 7.60000E+00    7.05028E-01
 7.80000E+00    6.58565E-01
 8.00000E+00    6.22881E-01
 8.50000E+00    5.64047E-01
 9.00000E+00    5.29693E-01
 9.50000E+00    5.07268E-01
 1.00000E+01    4.91197E-01
 1.05000E+01    4.79119E-01
 1.10000E+01    4.69988E-01
 1.15000E+01    4.63206E-01
 1.20000E+01    4.58243E-01
 1.25000E+01    4.54551E-01
 1.30000E+01    4.51601E-01
 1.35000E+01    4.48960E-01
 1.40000E+01    4.46331E-01
 1.45000E+01    4.43557E-01
 1.50000E+01    4.40595E-01
 1.60000E+01    4.34286E-01
 1.70000E+01    4.28170E-01
 1.80000E+01    4.23362E-01
 1.90000E+01    4.20838E-01
 2.00000E+01    4.21071E-01
 2.10000E+01    4.24012E-01
 2.20000E+01    4.29290E-01
 2.30000E+01    4.36334E-01
 2.40000E+01    4.44413E-01
 2.50000E+01    4.52734E-01
 2.60000E+01    4.60620E-01
 2.70000E+01    4.67669E-01
 2.80000E+01    4.73778E-01
 2.90000E+01    4.79060E-01
 3.00000E+01    4.83725E-01
