# n + Sn122 : (n,n'15)  
# jeff3.3    A.J. Koning and D. Rochman        EVAL-DEC15
# uncertainties: n
# # energies =    72
#   E(MeV)       xs(mb) 
 2.69771E+00    0.00000E+00
 2.71230E+00    2.04921E+00
 2.75713E+00    8.34569E+00
 2.77377E+00    1.06828E+01
 2.78848E+00    1.27489E+01
 2.79852E+00    1.41590E+01
 2.80000E+00    1.43669E+01
 2.86136E+00    1.71059E+01
 2.87910E+00    1.78978E+01
 2.89146E+00    1.84495E+01
 2.90362E+00    1.89923E+01
 2.96933E+00    2.19255E+01
 2.98360E+00    2.25625E+01
 2.99568E+00    2.31018E+01
 2.99799E+00    2.32049E+01
 3.00000E+00    2.32946E+01
 3.06103E+00    2.38545E+01
 3.10765E+00    2.42823E+01
 3.20000E+00    2.51296E+01
 3.40000E+00    2.31295E+01
 3.60000E+00    1.95334E+01
 3.80000E+00    1.57410E+01
 4.00000E+00    1.23214E+01
 4.20000E+00    9.46659E+00
 4.40000E+00    7.18873E+00
 4.60000E+00    5.42346E+00
 4.80000E+00    4.08184E+00
 5.00000E+00    3.07425E+00
 5.20000E+00    2.32263E+00
 5.40000E+00    1.76311E+00
 5.60000E+00    1.34585E+00
 5.80000E+00    1.03308E+00
 6.00000E+00    7.96867E-01
 6.20000E+00    6.16944E-01
 6.40000E+00    4.78713E-01
 6.60000E+00    3.70347E-01
 6.80000E+00    2.87221E-01
 7.00000E+00    2.22646E-01
 7.20000E+00    1.72730E-01
 7.40000E+00    1.33592E-01
 7.60000E+00    1.03622E-01
 7.80000E+00    8.01947E-02
 8.00000E+00    6.21175E-02
 8.50000E+00    3.29564E-02
 9.00000E+00    1.76771E-02
 9.50000E+00    9.62120E-03
 1.00000E+01    5.32299E-03
 1.05000E+01    2.99492E-03
 1.10000E+01    1.71225E-03
 1.15000E+01    9.93149E-04
 1.20000E+01    5.83174E-04
 1.25000E+01    3.45986E-04
 1.30000E+01    2.07125E-04
 1.35000E+01    1.24996E-04
 1.40000E+01    7.60145E-05
 1.45000E+01    4.65664E-05
 1.50000E+01    2.87369E-05
 1.60000E+01    1.11843E-05
 1.70000E+01    4.47771E-06
 1.80000E+01    1.84242E-06
 1.90000E+01    7.77880E-07
 2.00000E+01    3.34100E-07
 2.10000E+01    1.47420E-07
 2.20000E+01    6.62240E-08
 2.30000E+01    3.02250E-08
 2.40000E+01    1.39950E-08
 2.50000E+01    6.54890E-09
 2.60000E+01    3.10600E-09
 2.70000E+01    1.49080E-09
 2.80000E+01    7.25440E-10
 2.90000E+01    3.57750E-10
 3.00000E+01    1.78780E-10
