# n + Zn  0 : (n,t)
# endfb8.0   N.Iwamoto                         EVAL-Dec09
# uncertainties: n
# # energies =    64
#   E(MeV)          xs(mb) 
 7.60823E+00    0.00000E+00
 8.39049E+00    8.82689E-10
 8.74060E+00    1.27936E-09
 9.00000E+00    1.59572E-09
 9.11239E+00    3.73703E-08
 9.25613E+00    8.31726E-08
 9.35923E+00    1.16029E-07
 9.50000E+00    1.60891E-07
 9.73413E+00    1.24676E-06
 9.74743E+00    1.30845E-06
 9.85442E+00    1.80469E-06
 9.92107E+00    2.11383E-06
 9.97238E+00    2.35182E-06
 1.00000E+01    2.47993E-06
 1.00511E+01    3.64904E-06
 1.01720E+01    6.41523E-06
 1.01794E+01    6.58456E-06
 1.01803E+01    6.60514E-06
 1.02407E+01    7.98713E-06
 1.02677E+01    8.60496E-06
 1.02916E+01    9.15183E-06
 1.02978E+01    9.29371E-06
 1.03031E+01    9.41501E-06
 1.03175E+01    9.74453E-06
 1.04025E+01    1.16896E-05
 1.04900E+01    1.36920E-05
 1.05000E+01    1.39213E-05
 1.05141E+01    1.47133E-05
 1.05183E+01    1.49493E-05
 1.05260E+01    1.53819E-05
 1.05463E+01    1.65227E-05
 1.05544E+01    1.69781E-05
 1.06003E+01    1.95582E-05
 1.06301E+01    2.12333E-05
 1.06433E+01    2.19753E-05
 1.06503E+01    2.23689E-05
 1.06900E+01    2.46009E-05
 1.07336E+01    2.70525E-05
 1.07343E+01    2.70919E-05
 1.07407E+01    2.74517E-05
 1.07712E+01    2.91667E-05
 1.07755E+01    2.94085E-05
 1.07824E+01    2.97965E-05
 1.07874E+01    3.00776E-05
 1.07986E+01    3.07074E-05
 1.10000E+01    4.20323E-05
 1.15000E+01    8.35615E-05
 1.20000E+01    1.31819E-04
 1.25000E+01    2.37792E-04
 1.30000E+01    7.99083E-04
 1.35000E+01    3.16420E-03
 1.40000E+01    9.71403E-03
 1.45000E+01    2.28246E-02
 1.50000E+01    4.41359E-02
 1.55000E+01    7.49682E-02
 1.60000E+01    1.16590E-01
 1.65000E+01    1.70268E-01
 1.70000E+01    2.37279E-01
 1.75000E+01    3.18177E-01
 1.80000E+01    4.12692E-01
 1.85000E+01    5.20874E-01
 1.90000E+01    6.40953E-01
 1.95000E+01    7.72287E-01
 2.00000E+01    9.12493E-01
