# n + Zn  0 : (n,xn)
# endfb8.0   N.Iwamoto                         EVAL-Dec09
#
# # energies =   112
#   E(MeV)          xs(mb) 
 1.05000E-01    4.27290E-01
 1.10000E-01    5.33387E-01
 1.20000E-01    7.53561E-01
 1.30000E-01    9.73506E-01
 1.40000E-01    1.18373E+00
 1.50000E-01    1.39159E+00
 1.60000E-01    1.59865E+00
 1.70000E-01    1.80753E+00
 1.80000E-01    2.01709E+00
 1.90000E-01    6.17292E+00
 2.00000E-01    8.78167E+00
 2.25000E-01    1.10117E+01
 2.50000E-01    1.22615E+01
 2.75000E-01    1.32807E+01
 3.00000E-01    1.42458E+01
 4.00000E-01    1.76099E+01
 5.00000E-01    2.28692E+01
 6.00000E-01    2.58778E+01
 7.00000E-01    3.27807E+01
 8.00000E-01    3.65622E+01
 9.00000E-01    4.56500E+01
 1.00000E+00    5.40272E+01
 1.00719E+00    5.45101E+01
 1.00720E+00    5.45321E+01
 1.10000E+00    3.48866E+02
 1.20000E+00    4.99842E+02
 1.30000E+00    6.01841E+02
 1.40000E+00    6.84435E+02
 1.50000E+00    7.52669E+02
 1.60000E+00    8.07208E+02
 1.70000E+00    8.54550E+02
 1.80000E+00    8.93747E+02
 1.82774E+00    9.02308E+02
 1.90000E+00    9.60749E+02
 1.94045E+00    9.88069E+02
 2.00000E+00    1.04439E+03
 2.25000E+00    1.15164E+03
 2.34310E+00    1.17306E+03
 2.50000E+00    1.21670E+03
 2.65060E+00    1.25803E+03
 2.75000E+00    1.28792E+03
 2.77971E+00    1.29478E+03
 2.83788E+00    1.31301E+03
 3.00000E+00    1.37571E+03
 3.02680E+00    1.38409E+03
 3.04569E+00    1.39208E+03
 3.05311E+00    1.39793E+03
 3.11966E+00    1.42752E+03
 3.12633E+00    1.43069E+03
 3.14341E+00    1.43714E+03
 3.23706E+00    1.46843E+03
 3.24724E+00    1.47296E+03
 3.25649E+00    1.47668E+03
 3.29112E+00    1.49090E+03
 3.31346E+00    1.49862E+03
 3.33683E+00    1.50741E+03
 3.34920E+00    1.51164E+03
 3.35902E+00    1.51609E+03
 3.35903E+00    1.51609E+03
 3.37421E+00    1.52148E+03
 3.41906E+00    1.53699E+03
 3.42299E+00    1.53870E+03
 3.46888E+00    1.55400E+03
 3.47919E+00    1.55724E+03
 3.50000E+00    1.56419E+03
 3.50677E+00    1.56592E+03
 3.51309E+00    1.56764E+03
 3.51967E+00    1.56944E+03
 3.55522E+00    1.57772E+03
 3.59453E+00    1.58690E+03
 3.60296E+00    1.58870E+03
 3.60835E+00    1.58989E+03
 3.64360E+00    1.59672E+03
 3.65396E+00    1.59869E+03
 3.65883E+00    1.59965E+03
 3.66340E+00    1.60055E+03
 3.67783E+00    1.60329E+03
 3.68423E+00    1.60449E+03
 3.68565E+00    1.60478E+03
 4.00000E+00    1.65851E+03
 4.50000E+00    1.68614E+03
 5.00000E+00    1.66807E+03
 5.50000E+00    1.64154E+03
 6.00000E+00    1.61122E+03
 6.50000E+00    1.58246E+03
 7.00000E+00    1.55756E+03
 7.50000E+00    1.53663E+03
 8.00000E+00    1.52281E+03
 8.50000E+00    1.51135E+03
 9.00000E+00    1.50178E+03
 9.50000E+00    1.49281E+03
 1.00000E+01    1.48339E+03
 1.05000E+01    1.47290E+03
 1.10000E+01    1.48682E+03
 1.15000E+01    1.51824E+03
 1.20000E+01    1.58210E+03
 1.25000E+01    1.65273E+03
 1.30000E+01    1.73176E+03
 1.35000E+01    1.80562E+03
 1.40000E+01    1.87472E+03
 1.45000E+01    1.93324E+03
 1.50000E+01    1.98273E+03
 1.55000E+01    2.01786E+03
 1.60000E+01    2.04501E+03
 1.65000E+01    2.06212E+03
 1.70000E+01    2.07487E+03
 1.75000E+01    2.07899E+03
 1.80000E+01    2.08098E+03
 1.85000E+01    2.07763E+03
 1.90000E+01    2.07468E+03
 1.95000E+01    2.06951E+03
 2.00000E+01    2.06679E+03
