# n + Pu237 : (n,n'22)  
# tendl.2019 A.J. Koning and D. Rochman        EVAL-NOV19
# uncertainties: n
# # energies =    78
#   E(MeV)       xs(mb) 
 5.84476E-01    0.00000E+00
 5.93515E-01    6.72927E-01
 6.00000E-01    1.15572E+00
 6.57787E-01    8.08015E+00
 6.76060E-01    1.02697E+01
 6.93940E-01    1.24123E+01
 6.99102E-01    1.30308E+01
 7.00000E-01    1.31384E+01
 7.19047E-01    1.47453E+01
 7.44153E-01    1.68633E+01
 7.60221E-01    1.82188E+01
 8.00000E-01    2.15747E+01
 9.00000E-01    2.46140E+01
 1.00000E+00    2.44834E+01
 1.20000E+00    2.10981E+01
 1.40000E+00    1.74571E+01
 1.60000E+00    1.43702E+01
 1.80000E+00    1.14180E+01
 2.00000E+00    8.49470E+00
 2.20000E+00    5.92761E+00
 2.40000E+00    3.95289E+00
 2.60000E+00    2.56635E+00
 2.80000E+00    1.64446E+00
 3.00000E+00    1.04869E+00
 3.20000E+00    6.68685E-01
 3.40000E+00    4.27186E-01
 3.60000E+00    2.73548E-01
 3.80000E+00    1.75464E-01
 4.00000E+00    1.12610E-01
 4.20000E+00    7.23378E-02
 4.40000E+00    4.65632E-02
 4.60000E+00    3.00901E-02
 4.80000E+00    1.95664E-02
 5.00000E+00    1.28041E-02
 5.20000E+00    8.43653E-03
 5.40000E+00    5.60335E-03
 5.60000E+00    3.75699E-03
 5.80000E+00    2.54517E-03
 6.00000E+00    1.73890E-03
 6.20000E+00    1.20041E-03
 6.40000E+00    8.35116E-04
 6.60000E+00    5.85850E-04
 6.80000E+00    4.14063E-04
 7.00000E+00    2.94383E-04
 7.20000E+00    2.10708E-04
 7.40000E+00    1.51420E-04
 7.60000E+00    1.09307E-04
 7.80000E+00    7.91861E-05
 8.00000E+00    5.75083E-05
 8.50000E+00    2.62160E-05
 9.00000E+00    1.21570E-05
 9.50000E+00    5.74316E-06
 1.00000E+01    2.76987E-06
 1.05000E+01    1.36531E-06
 1.10000E+01    6.87980E-07
 1.15000E+01    3.54130E-07
 1.20000E+01    1.86090E-07
 1.25000E+01    9.96800E-08
 1.30000E+01    5.43600E-08
 1.35000E+01    3.01510E-08
 1.40000E+01    1.69890E-08
 1.45000E+01    9.71830E-09
 1.50000E+01    5.64070E-09
 1.60000E+01    1.97170E-09
 1.70000E+01    7.29680E-10
 1.80000E+01    2.83520E-10
 1.90000E+01    1.15140E-10
 2.00000E+01    4.86370E-11
 2.10000E+01    2.13050E-11
 2.20000E+01    9.65710E-12
 2.30000E+01    4.52500E-12
 2.40000E+01    2.19000E-12
 2.50000E+01    1.09460E-12
 2.60000E+01    5.61400E-13
 2.70000E+01    2.95540E-13
 2.80000E+01    1.59390E-13
 2.90000E+01    8.78200E-14
 3.00000E+01    4.94580E-14
