# n + Cs133 : (n,h)     
# jendl4.0   N.Iwamoto,H.Matsunobu             EVAL-Apr09
# uncertainties: n
# # energies =    62
#   E(MeV)       xs(mb) 
 7.54331E+00    0.00000E+00
 7.69416E+00    6.42150E-26
 8.03971E+00    2.15420E-25
 8.14992E+00    2.86060E-25
 8.32285E+00    3.99970E-25
 8.40198E+00    4.52120E-25
 8.42669E+00    4.68400E-25
 8.55671E+00    5.54090E-25
 8.61106E+00    5.94390E-25
 8.64991E+00    6.24440E-25
 8.69897E+00    6.62920E-25
 8.70101E+00    6.64530E-25
 8.83695E+00    7.72190E-25
 8.85138E+00    7.83620E-25
 8.86846E+00    7.97160E-25
 8.90001E+00    8.22160E-25
 8.93056E+00    8.46360E-25
 8.95782E+00    8.67970E-25
 8.98129E+00    8.86560E-25
 8.99832E+00    9.00060E-25
 9.05532E+00    9.72560E-25
 9.10286E+00    1.04160E-24
 9.11127E+00    1.05430E-24
 9.15187E+00    1.11730E-24
 9.17823E+00    1.15860E-24
 9.20179E+00    1.19570E-24
 9.23349E+00    1.24590E-24
 9.25329E+00    1.27730E-24
 9.27435E+00    1.31080E-24
 9.31452E+00    1.37460E-24
 9.31817E+00    1.38040E-24
 9.35402E+00    1.43740E-24
 9.35759E+00    1.44300E-24
 9.38821E+00    1.49170E-24
 9.43783E+00    1.57060E-24
 9.44532E+00    1.58250E-24
 9.45685E+00    1.60080E-24
 9.47284E+00    1.62620E-24
 9.48248E+00    1.64160E-24
 9.48989E+00    1.65340E-24
 9.49414E+00    1.66110E-24
 1.00000E+01    2.65010E-24
 1.05000E+01    6.86530E-21
 1.10000E+01    4.44000E-18
 1.15000E+01    6.16160E-16
 1.20000E+01    2.86050E-14
 1.25000E+01    5.94220E-13
 1.30000E+01    6.72780E-12
 1.35000E+01    4.86420E-11
 1.40000E+01    2.62720E-10
 1.45000E+01    1.29820E-09
 1.50000E+01    6.59800E-09
 1.55000E+01    3.44160E-08
 1.60000E+01    1.62240E-07
 1.65000E+01    6.51820E-07
 1.70000E+01    2.22931E-06
 1.75000E+01    6.65855E-06
 1.80000E+01    1.77576E-05
 1.85000E+01    4.27207E-05
 1.90000E+01    9.30997E-05
 1.95000E+01    1.91532E-04
 2.00000E+01    3.64565E-04
