# n + Cs133 : (n,n'02)  
# jendl4.0   N.Iwamoto,H.Matsunobu             EVAL-Apr09
# uncertainties: n
# # energies =    76
#   E(MeV)       xs(mb) 
 1.61832E-01    0.00000E+00
 1.70000E-01    4.25230E+01
 1.80000E-01    6.60532E+01
 1.90000E-01    8.51609E+01
 2.00000E-01    1.00595E+02
 2.25000E-01    1.32775E+02
 2.50000E-01    1.54487E+02
 2.75000E-01    1.68794E+02
 3.00000E-01    1.77966E+02
 3.86764E-01    2.02082E+02
 4.00000E-01    2.02113E+02
 4.40329E-01    2.07865E+02
 5.00000E-01    2.11494E+02
 6.00000E-01    2.21628E+02
 6.37361E-01    2.26607E+02
 6.45250E-01    2.26209E+02
 7.00000E-01    2.25593E+02
 7.10895E-01    2.26121E+02
 7.33827E-01    2.22807E+02
 7.73536E-01    2.13816E+02
 7.94766E-01    2.08052E+02
 8.00000E-01    2.05166E+02
 8.25276E-01    1.99168E+02
 8.78436E-01    1.86353E+02
 9.00000E-01    1.80663E+02
 9.23042E-01    1.77147E+02
 9.48746E-01    1.72895E+02
 1.00000E+00    1.64160E+02
 1.10000E+00    1.52837E+02
 1.20000E+00    1.40359E+02
 1.30000E+00    1.27638E+02
 1.40000E+00    1.15757E+02
 1.50000E+00    1.04256E+02
 1.60000E+00    9.28291E+01
 1.70000E+00    8.27686E+01
 1.80000E+00    7.34579E+01
 1.90000E+00    6.55983E+01
 2.00000E+00    5.89618E+01
 2.25000E+00    4.54333E+01
 2.50000E+00    3.40777E+01
 2.75000E+00    2.70090E+01
 3.00000E+00    2.11563E+01
 3.50000E+00    1.36345E+01
 4.00000E+00    8.44873E+00
 4.50000E+00    4.89123E+00
 5.00000E+00    2.68000E+00
 5.50000E+00    1.43776E+00
 6.00000E+00    7.85843E-01
 6.50000E+00    4.54201E-01
 7.00000E+00    2.86270E-01
 7.50000E+00    2.00118E-01
 8.00000E+00    1.54831E-01
 8.50000E+00    1.30111E-01
 9.00000E+00    1.15682E-01
 9.50000E+00    1.06323E-01
 1.00000E+01    9.93944E-02
 1.05000E+01    9.35036E-02
 1.10000E+01    8.84296E-02
 1.15000E+01    8.35919E-02
 1.20000E+01    7.91678E-02
 1.25000E+01    7.50267E-02
 1.30000E+01    7.11629E-02
 1.35000E+01    6.75975E-02
 1.40000E+01    6.43790E-02
 1.45000E+01    6.15150E-02
 1.50000E+01    5.89202E-02
 1.55000E+01    5.66215E-02
 1.60000E+01    5.45034E-02
 1.65000E+01    5.26517E-02
 1.70000E+01    5.09487E-02
 1.75000E+01    4.93705E-02
 1.80000E+01    4.79407E-02
 1.85000E+01    4.65227E-02
 1.90000E+01    4.52043E-02
 1.95000E+01    4.37903E-02
 2.00000E+01    4.24705E-02
