# n + Cs133 : (n,n'09)  
# jendl4.0   N.Iwamoto,H.Matsunobu             EVAL-Apr09
# uncertainties: n
# # energies =    57
#   E(MeV)       xs(mb) 
 7.73536E-01    0.00000E+00
 7.94766E-01    3.40042E+01
 8.00000E-01    3.79754E+01
 8.25276E-01    5.47235E+01
 8.78436E-01    7.59547E+01
 9.00000E-01    8.09271E+01
 9.23042E-01    8.54238E+01
 9.48746E-01    8.79113E+01
 1.00000E+00    9.14046E+01
 1.10000E+00    9.47599E+01
 1.20000E+00    9.33520E+01
 1.30000E+00    8.99944E+01
 1.40000E+00    8.60843E+01
 1.50000E+00    8.19380E+01
 1.60000E+00    7.65593E+01
 1.70000E+00    7.15126E+01
 1.80000E+00    6.66167E+01
 1.90000E+00    6.18528E+01
 2.00000E+00    5.74605E+01
 2.25000E+00    4.68428E+01
 2.50000E+00    3.59469E+01
 2.75000E+00    2.89149E+01
 3.00000E+00    2.24315E+01
 3.50000E+00    1.42964E+01
 4.00000E+00    9.06782E+00
 4.50000E+00    5.48491E+00
 5.00000E+00    3.11545E+00
 5.50000E+00    1.69723E+00
 6.00000E+00    9.19810E-01
 6.50000E+00    5.16135E-01
 7.00000E+00    3.10961E-01
 7.50000E+00    2.06329E-01
 8.00000E+00    1.52065E-01
 8.50000E+00    1.23161E-01
 9.00000E+00    1.06988E-01
 9.50000E+00    9.71197E-02
 1.00000E+01    9.02957E-02
 1.05000E+01    8.51501E-02
 1.10000E+01    8.02769E-02
 1.15000E+01    7.67191E-02
 1.20000E+01    7.30264E-02
 1.25000E+01    6.86030E-02
 1.30000E+01    6.51808E-02
 1.35000E+01    6.29189E-02
 1.40000E+01    6.02206E-02
 1.45000E+01    5.68640E-02
 1.50000E+01    5.41750E-02
 1.55000E+01    5.20646E-02
 1.60000E+01    5.09109E-02
 1.65000E+01    4.97255E-02
 1.70000E+01    4.81869E-02
 1.75000E+01    4.63698E-02
 1.80000E+01    4.43545E-02
 1.85000E+01    4.29493E-02
 1.90000E+01    4.17702E-02
 1.95000E+01    4.08743E-02
 2.00000E+01    4.03541E-02
