# n + Cs133 : (n,n'08)  
# jendl4.0   N.Iwamoto,H.Matsunobu             EVAL-Apr09
# uncertainties: n
# # energies =    58
#   E(MeV)       xs(mb) 
 7.33827E-01    0.00000E+00
 7.73536E-01    4.51506E+01
 7.94766E-01    5.75554E+01
 8.00000E-01    5.97217E+01
 8.25276E-01    7.02285E+01
 8.78436E-01    8.31314E+01
 9.00000E-01    8.56095E+01
 9.23042E-01    8.88030E+01
 9.48746E-01    9.05630E+01
 1.00000E+00    9.16885E+01
 1.10000E+00    9.25372E+01
 1.20000E+00    8.93487E+01
 1.30000E+00    8.44580E+01
 1.40000E+00    7.91663E+01
 1.50000E+00    7.37648E+01
 1.60000E+00    6.75951E+01
 1.70000E+00    6.19297E+01
 1.80000E+00    5.65285E+01
 1.90000E+00    5.16219E+01
 2.00000E+00    4.69053E+01
 2.25000E+00    3.69357E+01
 2.50000E+00    2.73869E+01
 2.75000E+00    2.13694E+01
 3.00000E+00    1.60618E+01
 3.50000E+00    9.62384E+00
 4.00000E+00    5.79053E+00
 4.50000E+00    3.42891E+00
 5.00000E+00    1.98997E+00
 5.50000E+00    1.14650E+00
 6.00000E+00    6.69750E-01
 6.50000E+00    4.06621E-01
 7.00000E+00    2.62894E-01
 7.50000E+00    1.84326E-01
 8.00000E+00    1.41079E-01
 8.50000E+00    1.16926E-01
 9.00000E+00    1.02903E-01
 9.50000E+00    9.41010E-02
 1.00000E+01    8.79066E-02
 1.05000E+01    8.28461E-02
 1.10000E+01    7.84743E-02
 1.15000E+01    7.45465E-02
 1.20000E+01    7.06436E-02
 1.25000E+01    6.70633E-02
 1.30000E+01    6.37237E-02
 1.35000E+01    6.09390E-02
 1.40000E+01    5.78196E-02
 1.45000E+01    5.52534E-02
 1.50000E+01    5.29485E-02
 1.55000E+01    5.08901E-02
 1.60000E+01    4.94550E-02
 1.65000E+01    4.79100E-02
 1.70000E+01    4.60545E-02
 1.75000E+01    4.44726E-02
 1.80000E+01    4.32043E-02
 1.85000E+01    4.19669E-02
 1.90000E+01    4.08168E-02
 1.95000E+01    3.98580E-02
 2.00000E+01    3.91480E-02
