# n + Cs133 : (n,n'01)  
# jendl4.0   N.Iwamoto,H.Matsunobu             EVAL-Apr09
# uncertainties: n
# # energies =    85
#   E(MeV)       xs(mb) 
 8.16117E-02    0.00000E+00
 9.00000E-02    8.99930E+01
 1.00000E-01    1.30846E+02
 1.10000E-01    1.61957E+02
 1.20000E-01    1.85360E+02
 1.30000E-01    2.04172E+02
 1.40000E-01    2.20256E+02
 1.50000E-01    2.33487E+02
 1.60000E-01    2.44257E+02
 1.61832E-01    2.45901E+02
 1.70000E-01    2.42684E+02
 1.80000E-01    2.44107E+02
 1.90000E-01    2.44509E+02
 2.00000E-01    2.44345E+02
 2.25000E-01    2.48629E+02
 2.50000E-01    2.50414E+02
 2.75000E-01    2.51070E+02
 3.00000E-01    2.49113E+02
 3.86764E-01    2.55343E+02
 4.00000E-01    2.52975E+02
 4.40329E-01    2.54172E+02
 5.00000E-01    2.53407E+02
 6.00000E-01    2.59715E+02
 6.37361E-01    2.63735E+02
 6.45250E-01    2.62717E+02
 7.00000E-01    2.59952E+02
 7.10895E-01    2.60128E+02
 7.33827E-01    2.54993E+02
 7.73536E-01    2.43717E+02
 7.94766E-01    2.36323E+02
 8.00000E-01    2.32790E+02
 8.25276E-01    2.25167E+02
 8.78436E-01    2.09556E+02
 9.00000E-01    2.02684E+02
 9.23042E-01    1.98252E+02
 9.48746E-01    1.92961E+02
 1.00000E+00    1.82435E+02
 1.10000E+00    1.68148E+02
 1.20000E+00    1.52874E+02
 1.30000E+00    1.38187E+02
 1.40000E+00    1.23720E+02
 1.50000E+00    1.11196E+02
 1.60000E+00    9.84841E+01
 1.70000E+00    8.67026E+01
 1.80000E+00    7.68885E+01
 1.90000E+00    6.86250E+01
 2.00000E+00    6.16631E+01
 2.25000E+00    4.70747E+01
 2.50000E+00    3.54103E+01
 2.75000E+00    2.79690E+01
 3.00000E+00    2.18762E+01
 3.50000E+00    1.39849E+01
 4.00000E+00    8.52656E+00
 4.50000E+00    4.83264E+00
 5.00000E+00    2.57530E+00
 5.50000E+00    1.32808E+00
 6.00000E+00    6.83458E-01
 6.50000E+00    3.60207E-01
 7.00000E+00    1.98789E-01
 7.50000E+00    1.17114E-01
 8.00000E+00    7.49273E-02
 8.50000E+00    5.26729E-02
 9.00000E+00    4.05905E-02
 9.50000E+00    3.37218E-02
 1.00000E+01    2.95269E-02
 1.05000E+01    2.66636E-02
 1.10000E+01    2.46086E-02
 1.15000E+01    2.29145E-02
 1.20000E+01    2.15092E-02
 1.25000E+01    2.02692E-02
 1.30000E+01    1.91605E-02
 1.35000E+01    1.81704E-02
 1.40000E+01    1.72882E-02
 1.45000E+01    1.65119E-02
 1.50000E+01    1.58105E-02
 1.55000E+01    1.51939E-02
 1.60000E+01    1.46246E-02
 1.65000E+01    1.41300E-02
 1.70000E+01    1.36735E-02
 1.75000E+01    1.32523E-02
 1.80000E+01    1.28695E-02
 1.85000E+01    1.24899E-02
 1.90000E+01    1.21371E-02
 1.95000E+01    1.17561E-02
 2.00000E+01    1.14028E-02
