# n + Dy160 : (n,np)    
# jendl4.0   N.Iwamoto,S.Chiba                 EVAL-Nov09
# uncertainties: n
# # energies =    25
#   E(MeV)       xs(mb) 
 7.47484E+00    0.00000E+00
 8.50000E+00    2.05240E-17
 9.00000E+00    7.75000E-12
 9.50000E+00    4.07910E-09
 1.00000E+01    2.76620E-07
 1.05000E+01    5.69745E-06
 1.10000E+01    5.44187E-05
 1.15000E+01    3.08045E-04
 1.20000E+01    1.24321E-03
 1.25000E+01    3.92863E-03
 1.30000E+01    1.04729E-02
 1.35000E+01    2.48912E-02
 1.40000E+01    5.43627E-02
 1.45000E+01    1.11190E-01
 1.50000E+01    2.14319E-01
 1.55000E+01    3.89375E-01
 1.60000E+01    6.72069E-01
 1.65000E+01    1.09326E+00
 1.70000E+01    1.69818E+00
 1.75000E+01    2.48372E+00
 1.80000E+01    3.49160E+00
 1.85000E+01    4.72122E+00
 1.90000E+01    6.18008E+00
 1.95000E+01    7.84389E+00
 2.00000E+01    9.69429E+00
