# n + Dy160 : (n,n'38)  
# jendl4.0   N.Iwamoto,S.Chiba                 EVAL-Nov09
# uncertainties: n
# # energies =    45
#   E(MeV)       xs(mb) 
 1.68667E+00    0.00000E+00
 1.70000E+00    4.66968E+00
 1.70505E+00    5.52876E+00
 1.71891E+00    7.51781E+00
 1.80000E+00    1.56267E+01
 1.90000E+00    2.14105E+01
 2.00000E+00    2.43106E+01
 2.25000E+00    2.44829E+01
 2.50000E+00    2.34976E+01
 2.75000E+00    1.91613E+01
 3.00000E+00    1.57781E+01
 3.50000E+00    8.84185E+00
 4.00000E+00    4.57719E+00
 4.50000E+00    2.29720E+00
 5.00000E+00    1.17593E+00
 5.50000E+00    6.46175E-01
 6.00000E+00    3.99133E-01
 6.50000E+00    2.82713E-01
 7.00000E+00    2.25236E-01
 7.50000E+00    1.94184E-01
 8.00000E+00    1.74965E-01
 8.50000E+00    1.61222E-01
 9.00000E+00    1.50259E-01
 9.50000E+00    1.40913E-01
 1.00000E+01    1.32639E-01
 1.05000E+01    1.25280E-01
 1.10000E+01    1.18445E-01
 1.15000E+01    1.12254E-01
 1.20000E+01    1.06464E-01
 1.25000E+01    1.01161E-01
 1.30000E+01    9.61890E-02
 1.35000E+01    9.16057E-02
 1.40000E+01    8.73010E-02
 1.45000E+01    8.33110E-02
 1.50000E+01    7.95645E-02
 1.55000E+01    7.60787E-02
 1.60000E+01    7.28532E-02
 1.65000E+01    6.97593E-02
 1.70000E+01    6.69765E-02
 1.75000E+01    6.43162E-02
 1.80000E+01    6.17507E-02
 1.85000E+01    5.92431E-02
 1.90000E+01    5.70885E-02
 1.95000E+01    5.50667E-02
 2.00000E+01    5.31287E-02
