# n + Dy160 : (n,n'25)  
# jendl4.0   N.Iwamoto,S.Chiba                 EVAL-Nov09
# uncertainties: n
# # energies =    59
#   E(MeV)       xs(mb) 
 1.56641E+00    0.00000E+00
 1.59675E+00    2.85737E+01
 1.60000E+00    3.00576E+01
 1.60443E+00    3.19923E+01
 1.61390E+00    3.58707E+01
 1.61698E+00    3.70541E+01
 1.61800E+00    3.74203E+01
 1.62416E+00    3.95542E+01
 1.62747E+00    4.06603E+01
 1.65362E+00    4.83780E+01
 1.66128E+00    5.03005E+01
 1.66237E+00    5.05685E+01
 1.66409E+00    5.09894E+01
 1.66543E+00    5.13139E+01
 1.68667E+00    5.57876E+01
 1.70000E+00    5.82354E+01
 1.70505E+00    5.90302E+01
 1.71891E+00    6.10959E+01
 1.80000E+00    6.89349E+01
 1.90000E+00    7.23773E+01
 2.00000E+00    7.05234E+01
 2.25000E+00    5.62180E+01
 2.50000E+00    4.44230E+01
 2.75000E+00    3.11586E+01
 3.00000E+00    2.23458E+01
 3.50000E+00    1.01480E+01
 4.00000E+00    4.52133E+00
 4.50000E+00    2.07315E+00
 5.00000E+00    1.02528E+00
 5.50000E+00    5.75340E-01
 6.00000E+00    3.78487E-01
 6.50000E+00    2.88193E-01
 7.00000E+00    2.42553E-01
 7.50000E+00    2.15916E-01
 8.00000E+00    1.97680E-01
 8.50000E+00    1.83492E-01
 9.00000E+00    1.71548E-01
 9.50000E+00    1.61060E-01
 1.00000E+01    1.51634E-01
 1.05000E+01    1.43190E-01
 1.10000E+01    1.35326E-01
 1.15000E+01    1.28196E-01
 1.20000E+01    1.21532E-01
 1.25000E+01    1.15426E-01
 1.30000E+01    1.09710E-01
 1.35000E+01    1.04440E-01
 1.40000E+01    9.94961E-02
 1.45000E+01    9.49159E-02
 1.50000E+01    9.06180E-02
 1.55000E+01    8.66365E-02
 1.60000E+01    8.29291E-02
 1.65000E+01    7.93943E-02
 1.70000E+01    7.62035E-02
 1.75000E+01    7.31625E-02
 1.80000E+01    7.02315E-02
 1.85000E+01    6.73646E-02
 1.90000E+01    6.49019E-02
 1.95000E+01    6.25990E-02
 2.00000E+01    6.03808E-02
