# n + Dy160 : (n,n'34)  
# jendl4.0   N.Iwamoto,S.Chiba                 EVAL-Nov09
# uncertainties: n
# # energies =    49
#   E(MeV)       xs(mb) 
 1.66128E+00    0.00000E+00
 1.66237E+00    1.45803E+00
 1.66409E+00    2.32006E+00
 1.66543E+00    2.80918E+00
 1.68667E+00    7.10378E+00
 1.70000E+00    8.85840E+00
 1.70505E+00    9.49619E+00
 1.71891E+00    1.10956E+01
 1.80000E+00    1.81634E+01
 1.90000E+00    2.32738E+01
 2.00000E+00    2.58472E+01
 2.25000E+00    2.55613E+01
 2.50000E+00    2.42625E+01
 2.75000E+00    1.96410E+01
 3.00000E+00    1.59225E+01
 3.50000E+00    8.77550E+00
 4.00000E+00    4.42868E+00
 4.50000E+00    2.12252E+00
 5.00000E+00    9.95608E-01
 5.50000E+00    4.68676E-01
 6.00000E+00    2.28765E-01
 6.50000E+00    1.21522E-01
 7.00000E+00    7.38010E-02
 7.50000E+00    5.22867E-02
 8.00000E+00    4.20312E-02
 8.50000E+00    3.65427E-02
 9.00000E+00    3.31208E-02
 9.50000E+00    3.06532E-02
 1.00000E+01    2.86715E-02
 1.05000E+01    2.69969E-02
 1.10000E+01    2.54836E-02
 1.15000E+01    2.41313E-02
 1.20000E+01    2.28757E-02
 1.25000E+01    2.17298E-02
 1.30000E+01    2.06578E-02
 1.35000E+01    1.96705E-02
 1.40000E+01    1.87440E-02
 1.45000E+01    1.78856E-02
 1.50000E+01    1.70798E-02
 1.55000E+01    1.63317E-02
 1.60000E+01    1.56374E-02
 1.65000E+01    1.49739E-02
 1.70000E+01    1.43741E-02
 1.75000E+01    1.38047E-02
 1.80000E+01    1.32505E-02
 1.85000E+01    1.27136E-02
 1.90000E+01    1.22519E-02
 1.95000E+01    1.18152E-02
 2.00000E+01    1.14003E-02
