# n + Dy160 : (n,n'16)  
# jendl4.0   N.Iwamoto,S.Chiba                 EVAL-Nov09
# uncertainties: n
# # energies =    69
#   E(MeV)       xs(mb) 
 1.40778E+00    0.00000E+00
 1.41735E+00    1.15676E+01
 1.43704E+00    2.20398E+01
 1.44761E+00    2.68176E+01
 1.46594E+00    3.44755E+01
 1.49889E+00    4.64431E+01
 1.50000E+00    4.68099E+01
 1.52800E+00    5.50472E+01
 1.53193E+00    5.58166E+01
 1.54483E+00    5.85686E+01
 1.56641E+00    6.22977E+01
 1.59675E+00    6.72482E+01
 1.60000E+00    6.77801E+01
 1.60443E+00    6.84980E+01
 1.61390E+00    6.97982E+01
 1.61698E+00    7.01425E+01
 1.61800E+00    7.02614E+01
 1.62416E+00    7.09215E+01
 1.62747E+00    7.12803E+01
 1.65362E+00    7.40084E+01
 1.66128E+00    7.43932E+01
 1.66237E+00    7.43955E+01
 1.66409E+00    7.44609E+01
 1.66543E+00    7.45141E+01
 1.68667E+00    7.57542E+01
 1.70000E+00    7.63650E+01
 1.70505E+00    7.66529E+01
 1.71891E+00    7.71378E+01
 1.80000E+00    8.00407E+01
 1.90000E+00    8.08956E+01
 2.00000E+00    7.81020E+01
 2.25000E+00    6.18550E+01
 2.50000E+00    4.97279E+01
 2.75000E+00    3.55605E+01
 3.00000E+00    2.61484E+01
 3.50000E+00    1.26292E+01
 4.00000E+00    5.83117E+00
 4.50000E+00    2.64144E+00
 5.00000E+00    1.20102E+00
 5.50000E+00    5.63681E-01
 6.00000E+00    2.85078E-01
 6.50000E+00    1.63721E-01
 7.00000E+00    1.09983E-01
 7.50000E+00    8.51009E-02
 8.00000E+00    7.24035E-02
 8.50000E+00    6.48754E-02
 9.00000E+00    5.96473E-02
 9.50000E+00    5.55467E-02
 1.00000E+01    5.20753E-02
 1.05000E+01    4.90576E-02
 1.10000E+01    4.62933E-02
 1.15000E+01    4.38087E-02
 1.20000E+01    4.14973E-02
 1.25000E+01    3.93861E-02
 1.30000E+01    3.74142E-02
 1.35000E+01    3.55984E-02
 1.40000E+01    3.38970E-02
 1.45000E+01    3.23223E-02
 1.50000E+01    3.08462E-02
 1.55000E+01    2.94671E-02
 1.60000E+01    2.82085E-02
 1.65000E+01    2.69876E-02
 1.70000E+01    2.58989E-02
 1.75000E+01    2.48622E-02
 1.80000E+01    2.38514E-02
 1.85000E+01    2.28770E-02
 1.90000E+01    2.20394E-02
 1.95000E+01    2.12441E-02
 2.00000E+01    2.04891E-02
