# n + Dy160 : (n,n'37)  
# jendl4.0   N.Iwamoto,S.Chiba                 EVAL-Nov09
# uncertainties: n
# # energies =    46
#   E(MeV)       xs(mb) 
 1.66543E+00    0.00000E+00
 1.68667E+00    2.90493E+00
 1.70000E+00    4.16405E+00
 1.70505E+00    4.63296E+00
 1.71891E+00    5.86777E+00
 1.80000E+00    1.21732E+01
 1.90000E+00    1.77297E+01
 2.00000E+00    2.14539E+01
 2.25000E+00    2.42298E+01
 2.50000E+00    2.46444E+01
 2.75000E+00    2.06360E+01
 3.00000E+00    1.70679E+01
 3.50000E+00    9.50105E+00
 4.00000E+00    4.81548E+00
 4.50000E+00    2.33917E+00
 5.00000E+00    1.13242E+00
 5.50000E+00    5.68290E-01
 6.00000E+00    3.10832E-01
 6.50000E+00    1.94372E-01
 7.00000E+00    1.40673E-01
 7.50000E+00    1.14458E-01
 8.00000E+00    1.00122E-01
 8.50000E+00    9.09769E-02
 9.00000E+00    8.42427E-02
 9.50000E+00    7.87619E-02
 1.00000E+01    7.40267E-02
 1.05000E+01    6.98653E-02
 1.10000E+01    6.60249E-02
 1.15000E+01    6.25574E-02
 1.20000E+01    5.93202E-02
 1.25000E+01    5.63579E-02
 1.30000E+01    5.35824E-02
 1.35000E+01    5.10245E-02
 1.40000E+01    4.86229E-02
 1.45000E+01    4.63972E-02
 1.50000E+01    4.43078E-02
 1.55000E+01    4.23688E-02
 1.60000E+01    4.05669E-02
 1.65000E+01    3.88473E-02
 1.70000E+01    3.72905E-02
 1.75000E+01    3.58126E-02
 1.80000E+01    3.43765E-02
 1.85000E+01    3.29832E-02
 1.90000E+01    3.17863E-02
 1.95000E+01    3.06532E-02
 2.00000E+01    2.95764E-02
