# n + Dy160 : (n,g)     
# jendl4.0   N.Iwamoto,S.Chiba                 EVAL-Nov09
# uncertainties: n
# # energies =   171
#   E(MeV)       xs(mb) 
 1.00000E-11    6.06308E+05
 1.00000E-07    2.22206E+04
 4.13990E-07    1.67512E+04
 5.31580E-07    1.63692E+04
 6.82560E-07    1.70024E+04
 8.76420E-07    2.00188E+04
 1.12540E-06    3.26676E+04
 1.44500E-06    3.53683E+05
 1.85540E-06    5.39252E+05
 2.37240E-06    1.65992E+04
 3.05900E-06    7.79932E+03
 3.92790E-06    6.83999E+03
 5.04350E-06    8.25931E+03
 6.47600E-06    1.57868E+04
 8.31530E-06    1.96293E+06
 1.06770E-05    1.60496E+05
 1.37100E-05    1.02030E+04
 1.76030E-05    9.37220E+05
 2.26030E-05    6.14948E+03
 2.92030E-05    1.69918E+04
 3.72670E-05    4.38976E+02
 4.78510E-05    2.73329E+02
 6.14420E-05    1.94871E+04
 7.88930E-05    1.12819E+05
 1.01300E-04    2.69890E+03
 1.30070E-04    5.02014E+04
 1.67020E-04    2.25630E+04
 2.14450E-04    3.18568E+03
 2.75360E-04    1.36910E+04
 3.53580E-04    2.53886E+04
 4.54000E-04    4.93784E+03
 5.82950E-04    1.20973E+04
 7.48520E-04    3.62976E+03
 9.61120E-04    4.09192E+03
 1.23410E-03    3.76593E+03
 1.58460E-03    5.05786E+03
 2.03470E-03    3.62360E+03
 2.24870E-03    3.37139E+03
 2.48520E-03    3.19331E+03
 2.61260E-03    3.08029E+03
 2.74650E-03    2.91858E+03
 3.03540E-03    2.71543E+03
 3.35460E-03    2.52650E+03
 3.70740E-03    2.31480E+03
 4.30740E-03    2.05461E+03
 5.53080E-03    1.77485E+03
 7.10170E-03    1.55183E+03
 9.11880E-03    1.37562E+03
 1.17090E-02    1.23638E+03
 1.50340E-02    1.11271E+03
 1.93050E-02    1.02752E+03
 2.18750E-02    9.84326E+02
 2.35790E-02    9.63403E+02
 2.41760E-02    9.53107E+02
 2.47880E-02    9.37901E+02
 2.60580E-02    9.20884E+02
 2.70000E-02    9.03334E+02
 2.85000E-02    8.72088E+02
 3.18280E-02    8.38005E+02
 3.43070E-02    7.94373E+02
 4.08680E-02    7.43789E+02
 4.63090E-02    7.03650E+02
 5.24750E-02    6.73901E+02
 5.65620E-02    6.39258E+02
 6.73790E-02    6.07895E+02
 7.20000E-02    5.88620E+02
 7.95000E-02    5.73376E+02
 8.25000E-02    5.64334E+02
 8.65170E-02    5.18764E+02
 9.80370E-02    4.58632E+02
 1.11090E-01    4.23243E+02
 1.16790E-01    4.05161E+02
 1.22770E-01    3.88602E+02
 1.29070E-01    3.73139E+02
 1.35690E-01    3.58884E+02
 1.42640E-01    3.45948E+02
 1.49960E-01    3.33978E+02
 1.57640E-01    3.22927E+02
 1.65730E-01    3.12965E+02
 1.74220E-01    3.04100E+02
 1.83160E-01    2.95740E+02
 1.92550E-01    2.88166E+02
 2.02420E-01    2.81822E+02
 2.12800E-01    2.75660E+02
 2.23710E-01    2.70124E+02
 2.35180E-01    2.65164E+02
 2.47240E-01    2.58454E+02
 2.73240E-01    2.52454E+02
 2.87250E-01    2.49882E+02
 2.94520E-01    2.48697E+02
 2.97200E-01    2.48224E+02
 2.98500E-01    2.47658E+02
 3.01970E-01    2.45003E+02
 3.33730E-01    2.40242E+02
 3.68830E-01    2.36654E+02
 3.87740E-01    2.34462E+02
 4.07620E-01    2.33534E+02
 4.50490E-01    2.32764E+02
 4.97870E-01    2.32819E+02
 5.23400E-01    2.34047E+02
 5.50230E-01    2.35345E+02
 5.78440E-01    2.36760E+02
 6.08100E-01    2.39255E+02
 6.39280E-01    2.42272E+02
 6.72060E-01    2.45444E+02
 7.06510E-01    2.49476E+02
 7.42740E-01    2.54311E+02
 7.80820E-01    2.59479E+02
 8.20850E-01    2.65830E+02
 8.62940E-01    2.72756E+02
 9.07180E-01    2.81313E+02
 9.61640E-01    2.84401E+02
 1.00260E+00    2.79023E+02
 1.10800E+00    2.75512E+02
 1.16480E+00    2.76732E+02
 1.22460E+00    2.79293E+02
 1.28730E+00    2.66244E+02
 1.35340E+00    2.46533E+02
 1.42270E+00    2.28785E+02
 1.49570E+00    2.15545E+02
 1.57240E+00    2.01723E+02
 1.65300E+00    1.90223E+02
 1.73770E+00    1.81342E+02
 1.82680E+00    1.74197E+02
 1.92050E+00    1.64850E+02
 2.01900E+00    1.50815E+02
 2.12250E+00    1.36039E+02
 2.23130E+00    1.25573E+02
 2.30690E+00    1.21109E+02
 2.34570E+00    1.18892E+02
 2.36530E+00    1.17512E+02
 2.38520E+00    1.14107E+02
 2.46600E+00    1.05891E+02
 2.59240E+00    9.32364E+01
 2.72530E+00    8.28669E+01
 2.86500E+00    7.54431E+01
 3.01190E+00    6.74287E+01
 3.16640E+00    5.93658E+01
 3.32870E+00    4.88881E+01
 3.67880E+00    3.63590E+01
 4.06570E+00    2.54370E+01
 4.49330E+00    1.85588E+01
 4.72370E+00    1.47049E+01
 4.96590E+00    1.15862E+01
 5.22050E+00    9.04212E+00
 5.48810E+00    7.00016E+00
 5.76950E+00    5.36422E+00
 6.06530E+00    4.07058E+00
 6.37630E+00    3.21487E+00
 6.59240E+00    2.78785E+00
 6.70320E+00    2.31487E+00
 7.04690E+00    1.76734E+00
 7.40820E+00    1.38138E+00
 7.78800E+00    1.13091E+00
 8.18730E+00    9.84940E-01
 8.60710E+00    9.14745E-01
 9.04840E+00    8.96207E-01
 9.51230E+00    9.10956E-01
 1.00000E+01    9.41880E-01
 1.05130E+01    9.75221E-01
 1.10520E+01    1.00153E+00
 1.16180E+01    1.01367E+00
 1.22140E+01    1.00775E+00
 1.28400E+01    9.82722E-01
 1.34990E+01    9.62017E-01
 1.38400E+01    9.43973E-01
 1.41910E+01    9.21125E-01
 1.45500E+01    8.93065E-01
 1.49180E+01    8.39145E-01
 1.56830E+01    7.49158E-01
 1.64870E+01    6.51647E-01
