# n + Dy160 : (n,tot)   
# jendl4.0   N.Iwamoto,S.Chiba                 EVAL-Nov09
# uncertainties: n
# # energies =    69
#   E(MeV)       xs(mb) 
 1.00000E-10    3.97977E+05
 5.00000E-09    1.12410E+05
 1.00000E-08    8.66236E+04
 1.50000E-08    7.37925E+04
 2.00000E-08    6.57036E+04
 2.50000E-08    6.00000E+04
 3.00000E-08    5.56986E+04
 3.50000E-08    5.17632E+04
 4.20000E-08    4.79439E+04
 5.00000E-08    4.47793E+04
 5.80000E-08    4.21348E+04
 6.70000E-08    3.94609E+04
 8.00000E-08    3.64412E+04
 1.00000E-07    3.27549E+04
 1.40000E-07    2.94406E+04
 1.80000E-07    2.72764E+04
 2.20000E-07    2.58968E+04
 2.50000E-07    2.49900E+04
 2.80000E-07    2.43610E+04
 3.00000E-07    2.39335E+04
 3.20000E-07    2.34758E+04
 3.50000E-07    2.28834E+04
 4.00000E-07    2.21259E+04
 5.00000E-07    2.15542E+04
 6.25000E-07    2.16149E+04
 7.80000E-07    2.22191E+04
 8.50000E-07    2.28491E+04
 9.10000E-07    2.34919E+04
 9.50000E-07    2.39704E+04
 9.72000E-07    2.43723E+04
 9.96000E-07    2.48358E+04
 1.02000E-06    2.53614E+04
 1.04500E-06    2.59704E+04
 1.07100E-06    2.66637E+04
 1.09700E-06    2.74386E+04
 1.12300E-06    2.83249E+04
 1.15000E-06    3.23345E+04
 1.30000E-06    4.85003E+04
 1.50000E-06    6.30959E+05
 2.10000E-06    5.58333E+04
 2.60000E-06    1.64445E+04
 3.30000E-06    1.17931E+04
 4.00000E-06    2.81314E+04
 9.87700E-06    1.26384E+06
 1.59680E-05    5.62081E+05
 2.77000E-05    1.75408E+04
 4.80520E-05    1.71415E+04
 7.55014E-05    9.17486E+04
 1.48728E-04    4.63983E+04
 3.67262E-04    5.90653E+04
 9.06898E-04    1.99417E+04
 1.42510E-03    2.68529E+04
 2.23945E-03    2.29773E+04
 3.51910E-03    1.95077E+04
 5.53000E-03    1.67125E+04
 9.11800E-03    1.44733E+04
 1.50300E-02    1.27416E+04
 2.47800E-02    1.13325E+04
 4.08500E-02    1.02112E+04
 6.73400E-02    9.30779E+03
 1.11000E-01    8.56149E+03
 1.83000E-01    7.96586E+03
 3.02000E-01    7.55785E+03
 5.00000E-01    7.37793E+03
 8.21000E-01    7.30105E+03
 1.35300E+00    6.98217E+03
 2.23100E+00    6.21696E+03
 3.67900E+00    5.35338E+03
 6.06500E+00    4.96451E+03
