# n + Se 76 : (n,tot)   
# endfb8.0   JNDC FP Nuclear Data W.G.         EVAL-MAR90
# uncertainties: n
# # energies =   171
#   E(MeV)       xs(mb) 
 1.00000E-11    9.54492E+05
 1.00000E-07    4.89781E+04
 4.13990E-07    3.80756E+04
 5.31580E-07    3.57357E+04
 6.82560E-07    3.36660E+04
 8.76420E-07    3.18336E+04
 1.12540E-06    3.02135E+04
 1.44500E-06    2.87769E+04
 1.85540E-06    2.75020E+04
 2.37240E-06    2.63546E+04
 3.05900E-06    2.53088E+04
 3.92790E-06    2.43732E+04
 5.04350E-06    2.35199E+04
 6.47600E-06    2.27315E+04
 8.31530E-06    2.19928E+04
 1.06770E-05    2.12880E+04
 1.37100E-05    2.06025E+04
 1.76030E-05    1.99214E+04
 2.26030E-05    1.92204E+04
 2.92030E-05    1.85003E+04
 3.72670E-05    1.77494E+04
 4.78510E-05    1.69370E+04
 6.14420E-05    1.60649E+04
 7.88930E-05    1.51269E+04
 1.01300E-04    1.41228E+04
 1.30070E-04    1.30523E+04
 1.67020E-04    1.19186E+04
 2.14450E-04    1.06638E+04
 2.75360E-04    8.87372E+03
 3.53580E-04    4.47716E+04
 4.54000E-04    8.37861E+03
 5.82950E-04    6.10846E+03
 7.48520E-04    8.63042E+04
 9.61120E-04    1.04413E+04
 1.23410E-03    7.70293E+03
 1.58460E-03    5.80681E+03
 2.03470E-03    5.17822E+03
 2.24870E-03    1.88323E+03
 2.48520E-03    1.60794E+05
 2.61260E-03    2.57475E+04
 2.74650E-03    8.77429E+03
 3.03540E-03    8.38872E+03
 3.35460E-03    5.68118E+04
 3.70740E-03    7.45747E+03
 4.30740E-03    2.53061E+04
 5.53080E-03    1.55840E+04
 7.10170E-03    1.88864E+04
 9.11880E-03    1.33824E+04
 1.17090E-02    1.25498E+04
 1.50340E-02    1.18040E+04
 1.93050E-02    1.12913E+04
 2.18750E-02    1.10343E+04
 2.35790E-02    1.09092E+04
 2.41760E-02    1.08484E+04
 2.47880E-02    1.07573E+04
 2.60580E-02    1.06552E+04
 2.70000E-02    1.05501E+04
 2.85000E-02    1.03624E+04
 3.18280E-02    1.01563E+04
 3.43070E-02    9.88892E+03
 4.08680E-02    9.58099E+03
 4.63090E-02    9.33513E+03
 5.24750E-02    9.14447E+03
 5.65620E-02    8.91439E+03
 6.73790E-02    8.69753E+03
 7.20000E-02    8.55267E+03
 7.95000E-02    8.43493E+03
 8.25000E-02    8.36282E+03
 8.65170E-02    8.21770E+03
 9.80370E-02    8.07297E+03
 1.11090E-01    8.05138E+03
 1.16790E-01    8.03964E+03
 1.22770E-01    8.02730E+03
 1.29070E-01    8.01431E+03
 1.35690E-01    8.00068E+03
 1.42640E-01    7.98633E+03
 1.49960E-01    7.97126E+03
 1.57640E-01    7.95541E+03
 1.65730E-01    7.93862E+03
 1.74220E-01    7.91878E+03
 1.83160E-01    7.89714E+03
 1.92550E-01    7.87440E+03
 2.02420E-01    7.85049E+03
 2.12800E-01    7.82422E+03
 2.23710E-01    7.79329E+03
 2.35180E-01    7.76056E+03
 2.47240E-01    7.70798E+03
 2.73240E-01    7.64827E+03
 2.87250E-01    7.61497E+03
 2.94520E-01    7.59942E+03
 2.97200E-01    7.59321E+03
 2.98500E-01    7.58579E+03
 3.01970E-01    7.51817E+03
 3.33730E-01    7.38053E+03
 3.68830E-01    7.27673E+03
 3.87740E-01    7.21264E+03
 4.07620E-01    7.11013E+03
 4.50490E-01    6.97449E+03
 4.97870E-01    6.86611E+03
 5.23400E-01    6.77574E+03
 5.50230E-01    6.67962E+03
 5.78440E-01    6.57856E+03
 6.08100E-01    6.47232E+03
 6.39280E-01    6.36273E+03
 6.72060E-01    6.25804E+03
 7.06510E-01    6.14941E+03
 7.42740E-01    6.03521E+03
 7.80820E-01    5.91707E+03
 8.20850E-01    5.80054E+03
 8.62940E-01    5.67913E+03
 9.07180E-01    5.55048E+03
 9.61640E-01    5.42947E+03
 1.00260E+00    5.26007E+03
 1.10800E+00    5.08379E+03
 1.16480E+00    4.97087E+03
 1.22460E+00    4.85740E+03
 1.28730E+00    4.75135E+03
 1.35340E+00    4.64630E+03
 1.42270E+00    4.54835E+03
 1.49570E+00    4.45251E+03
 1.57240E+00    4.36594E+03
 1.65300E+00    4.27758E+03
 1.73770E+00    4.19877E+03
 1.82680E+00    4.12478E+03
 1.92050E+00    4.05679E+03
 2.01900E+00    3.99068E+03
 2.12250E+00    3.93270E+03
 2.23130E+00    3.88745E+03
 2.30690E+00    3.86373E+03
 2.34570E+00    3.85165E+03
 2.36530E+00    3.84348E+03
 2.38520E+00    3.82277E+03
 2.46600E+00    3.78822E+03
 2.59240E+00    3.75053E+03
 2.72530E+00    3.71997E+03
 2.86500E+00    3.69396E+03
 3.01190E+00    3.68340E+03
 3.16640E+00    3.68135E+03
 3.32870E+00    3.68080E+03
 3.67880E+00    3.68094E+03
 4.06570E+00    3.72715E+03
 4.49330E+00    3.78414E+03
 4.72370E+00    3.82474E+03
 4.96590E+00    3.87306E+03
 5.22050E+00    3.93925E+03
 5.48810E+00    4.00970E+03
 5.76950E+00    4.08376E+03
 6.06530E+00    4.16163E+03
 6.37630E+00    4.22715E+03
 6.59240E+00    4.26594E+03
 6.70320E+00    4.31942E+03
 7.04690E+00    4.38664E+03
 7.40820E+00    4.44038E+03
 7.78800E+00    4.49165E+03
 8.18730E+00    4.50851E+03
 8.60710E+00    4.51870E+03
 9.04840E+00    4.50090E+03
 9.51230E+00    4.46279E+03
 1.00000E+01    4.40489E+03
 1.05130E+01    4.32180E+03
 1.10520E+01    4.24016E+03
 1.16180E+01    4.15811E+03
 1.22140E+01    4.05760E+03
 1.28400E+01    3.96060E+03
 1.34990E+01    3.88726E+03
 1.38400E+01    3.83932E+03
 1.41910E+01    3.79371E+03
 1.45500E+01    3.74903E+03
 1.49180E+01    3.68482E+03
 1.56830E+01    3.60014E+03
 1.64870E+01    3.50690E+03
