# n + Se 76 : (n,el)    
# endfb8.0   JNDC FP Nuclear Data W.G.         EVAL-MAR90
# uncertainties: n
# # energies =   171
#   E(MeV)       xs(mb) 
 1.00000E-11    3.51743E+04
 1.00000E-07    1.84052E+04
 4.13990E-07    1.83797E+04
 5.31580E-07    1.83704E+04
 6.82560E-07    1.83586E+04
 8.76420E-07    1.83433E+04
 1.12540E-06    1.83245E+04
 1.44500E-06    1.83032E+04
 1.85540E-06    1.82763E+04
 2.37240E-06    1.82415E+04
 3.05900E-06    1.81965E+04
 3.92790E-06    1.81390E+04
 5.04350E-06    1.80653E+04
 6.47600E-06    1.79706E+04
 8.31530E-06    1.78490E+04
 1.06770E-05    1.76929E+04
 1.37100E-05    1.74924E+04
 1.76030E-05    1.72474E+04
 2.26030E-05    1.69545E+04
 2.92030E-05    1.65838E+04
 3.72670E-05    1.61441E+04
 4.78510E-05    1.56137E+04
 6.14420E-05    1.49938E+04
 7.88930E-05    1.42713E+04
 1.01300E-04    1.34547E+04
 1.30070E-04    1.25446E+04
 1.67020E-04    1.15394E+04
 2.14450E-04    1.03909E+04
 2.75360E-04    8.63328E+03
 3.53580E-04    2.90429E+04
 4.54000E-04    8.28283E+03
 5.82950E-04    6.03470E+03
 7.48520E-04    8.09591E+04
 9.61120E-04    1.01274E+04
 1.23410E-03    7.38180E+03
 1.58460E-03    5.74831E+03
 2.03470E-03    4.48345E+03
 2.24870E-03    1.84868E+03
 2.48520E-03    1.58143E+05
 2.61260E-03    2.56122E+04
 2.74650E-03    8.75753E+03
 3.03540E-03    8.01128E+03
 3.35460E-03    5.61133E+04
 3.70740E-03    7.21228E+03
 4.30740E-03    2.49131E+04
 5.53080E-03    1.54816E+04
 7.10170E-03    1.87556E+04
 9.11880E-03    1.31855E+04
 1.17090E-02    1.23812E+04
 1.50340E-02    1.16606E+04
 1.93050E-02    1.11649E+04
 2.18750E-02    1.09164E+04
 2.35790E-02    1.07955E+04
 2.41760E-02    1.07366E+04
 2.47880E-02    1.06485E+04
 2.60580E-02    1.05495E+04
 2.70000E-02    1.04477E+04
 2.85000E-02    1.02657E+04
 3.18280E-02    1.00656E+04
 3.43070E-02    9.80564E+03
 4.08680E-02    9.50583E+03
 4.63090E-02    9.26601E+03
 5.24750E-02    9.07977E+03
 5.65620E-02    8.85450E+03
 6.73790E-02    8.64162E+03
 7.20000E-02    8.49920E+03
 7.95000E-02    8.38334E+03
 8.25000E-02    8.31228E+03
 8.65170E-02    8.16917E+03
 9.80370E-02    8.02670E+03
 1.11090E-01    8.00630E+03
 1.16790E-01    7.99530E+03
 1.22770E-01    7.98373E+03
 1.29070E-01    7.97156E+03
 1.35690E-01    7.95878E+03
 1.42640E-01    7.94534E+03
 1.49960E-01    7.93121E+03
 1.57640E-01    7.91635E+03
 1.65730E-01    7.89902E+03
 1.74220E-01    7.87902E+03
 1.83160E-01    7.85798E+03
 1.92550E-01    7.83588E+03
 2.02420E-01    7.81264E+03
 2.12800E-01    7.78576E+03
 2.23710E-01    7.75486E+03
 2.35180E-01    7.72237E+03
 2.47240E-01    7.67003E+03
 2.73240E-01    7.60994E+03
 2.87250E-01    7.57661E+03
 2.94520E-01    7.56105E+03
 2.97200E-01    7.55484E+03
 2.98500E-01    7.54741E+03
 3.01970E-01    7.47955E+03
 3.33730E-01    7.34135E+03
 3.68830E-01    7.23713E+03
 3.87740E-01    7.17280E+03
 4.07620E-01    7.06990E+03
 4.50490E-01    6.93377E+03
 4.97870E-01    6.82506E+03
 5.23400E-01    6.73468E+03
 5.50230E-01    6.63041E+03
 5.78440E-01    6.44944E+03
 6.08100E-01    6.24875E+03
 6.39280E-01    6.05836E+03
 6.72060E-01    5.87153E+03
 7.06510E-01    5.69289E+03
 7.42740E-01    5.52409E+03
 7.80820E-01    5.35693E+03
 8.20850E-01    5.19719E+03
 8.62940E-01    5.04162E+03
 9.07180E-01    4.87723E+03
 9.61640E-01    4.73215E+03
 1.00260E+00    4.52996E+03
 1.10800E+00    4.31779E+03
 1.16480E+00    4.16372E+03
 1.22460E+00    3.98972E+03
 1.28730E+00    3.80187E+03
 1.35340E+00    3.62409E+03
 1.42270E+00    3.45360E+03
 1.49570E+00    3.30326E+03
 1.57240E+00    3.16946E+03
 1.65300E+00    3.04187E+03
 1.73770E+00    2.91496E+03
 1.82680E+00    2.78993E+03
 1.92050E+00    2.66478E+03
 2.01900E+00    2.55600E+03
 2.12250E+00    2.45599E+03
 2.23130E+00    2.37275E+03
 2.30690E+00    2.32784E+03
 2.34570E+00    2.30762E+03
 2.36530E+00    2.29397E+03
 2.38520E+00    2.25961E+03
 2.46600E+00    2.19692E+03
 2.59240E+00    2.12831E+03
 2.72530E+00    2.06354E+03
 2.86500E+00    2.01197E+03
 3.01190E+00    1.99302E+03
 3.16640E+00    1.99656E+03
 3.32870E+00    2.00223E+03
 3.67880E+00    2.01163E+03
 4.06570E+00    2.08118E+03
 4.49330E+00    2.16207E+03
 4.72370E+00    2.21631E+03
 4.96590E+00    2.27572E+03
 5.22050E+00    2.34595E+03
 5.48810E+00    2.41949E+03
 5.76950E+00    2.49093E+03
 6.06530E+00    2.56463E+03
 6.37630E+00    2.62499E+03
 6.59240E+00    2.66072E+03
 6.70320E+00    2.70977E+03
 7.04690E+00    2.77205E+03
 7.40820E+00    2.82863E+03
 7.78800E+00    2.88458E+03
 8.18730E+00    2.91835E+03
 8.60710E+00    2.94874E+03
 9.04840E+00    2.95971E+03
 9.51230E+00    2.95699E+03
 1.00000E+01    2.95504E+03
 1.05130E+01    2.95476E+03
 1.10520E+01    2.94473E+03
 1.16180E+01    2.81406E+03
 1.22140E+01    2.68242E+03
 1.28400E+01    2.58798E+03
 1.34990E+01    2.56388E+03
 1.38400E+01    2.54377E+03
 1.41910E+01    2.49368E+03
 1.45500E+01    2.44759E+03
 1.49180E+01    2.37903E+03
 1.56830E+01    2.27971E+03
 1.64870E+01    2.17605E+03
