# n + Sm151 : (n,n'08)  
# jeff3.3    A.J. Koning and D. Rochman        EVAL-DEC15
# uncertainties: n
# # energies =    96
#   E(MeV)       xs(mb) 
 1.73040E-01    0.00000E+00
 1.76552E-01    4.46005E+01
 2.00000E-01    3.42378E+02
 2.10388E-01    3.38265E+02
 2.21470E-01    3.33877E+02
 2.62875E-01    3.17482E+02
 2.86854E-01    3.07987E+02
 2.96790E-01    3.04053E+02
 3.00000E-01    3.02782E+02
 3.04643E-01    2.99036E+02
 3.08840E-01    2.95650E+02
 3.15948E-01    2.89916E+02
 3.17387E-01    2.88755E+02
 3.26109E-01    2.81718E+02
 3.47214E-01    2.64692E+02
 3.58027E-01    2.55968E+02
 3.60393E-01    2.54059E+02
 3.85761E-01    2.33593E+02
 3.98225E-01    2.23538E+02
 4.00000E-01    2.22106E+02
 4.08210E-01    2.17904E+02
 4.18418E-01    2.12680E+02
 4.21901E-01    2.10897E+02
 4.26008E-01    2.08795E+02
 4.40424E-01    2.01417E+02
 4.48175E-01    1.97450E+02
 5.00000E-01    1.70926E+02
 6.00000E-01    1.42920E+02
 7.00000E-01    1.23578E+02
 8.00000E-01    1.06489E+02
 9.00000E-01    8.95930E+01
 1.00000E+00    7.27830E+01
 1.20000E+00    4.54438E+01
 1.40000E+00    2.73440E+01
 1.60000E+00    1.65760E+01
 1.80000E+00    1.02732E+01
 2.00000E+00    6.53728E+00
 2.20000E+00    4.27616E+00
 2.40000E+00    2.86866E+00
 2.60000E+00    1.96716E+00
 2.80000E+00    1.37366E+00
 3.00000E+00    9.72829E-01
 3.20000E+00    6.96911E-01
 3.40000E+00    5.04569E-01
 3.60000E+00    3.69978E-01
 3.80000E+00    2.75794E-01
 4.00000E+00    2.09924E-01
 4.20000E+00    1.64159E-01
 4.40000E+00    1.32589E-01
 4.60000E+00    1.10986E-01
 4.80000E+00    9.63962E-02
 5.00000E+00    8.68294E-02
 5.20000E+00    8.07126E-02
 5.40000E+00    7.71106E-02
 5.60000E+00    7.52270E-02
 5.80000E+00    7.45153E-02
 6.00000E+00    7.45610E-02
 6.20000E+00    7.50914E-02
 6.40000E+00    7.58803E-02
 6.60000E+00    7.67572E-02
 6.80000E+00    7.76071E-02
 7.00000E+00    7.83546E-02
 7.20000E+00    7.89493E-02
 7.40000E+00    7.93701E-02
 7.60000E+00    7.96128E-02
 7.80000E+00    7.96865E-02
 8.00000E+00    7.96099E-02
 8.50000E+00    7.89123E-02
 9.00000E+00    7.77883E-02
 9.50000E+00    7.65317E-02
 1.00000E+01    7.53223E-02
 1.05000E+01    7.42434E-02
 1.10000E+01    7.33116E-02
 1.15000E+01    7.25043E-02
 1.20000E+01    7.17814E-02
 1.25000E+01    7.10991E-02
 1.30000E+01    7.04187E-02
 1.35000E+01    6.97121E-02
 1.40000E+01    6.89606E-02
 1.45000E+01    6.81563E-02
 1.50000E+01    6.72970E-02
 1.60000E+01    6.54383E-02
 1.70000E+01    6.34664E-02
 1.80000E+01    6.14927E-02
 1.90000E+01    5.96021E-02
 2.00000E+01    5.78341E-02
 2.10000E+01    5.61947E-02
 2.20000E+01    5.46686E-02
 2.30000E+01    5.32254E-02
 2.40000E+01    5.18279E-02
 2.50000E+01    5.04456E-02
 2.60000E+01    4.90693E-02
 2.70000E+01    4.77103E-02
 2.80000E+01    4.63901E-02
 2.90000E+01    4.51282E-02
 3.00000E+01    4.39349E-02
