# n + Sm151 : (n,xa)    
# jeff3.3    A.J. Koning and D. Rochman        EVAL-DEC15
# 
# # energies =   139
#   E(MeV)        xs(mb) 
 4.85322E-03    1.60681E-02
 6.00000E-03    1.23689E-02
 1.00000E-02    8.17593E-03
 2.00000E-02    4.79390E-03
 3.00000E-02    3.59950E-03
 6.00000E-02    2.36414E-03
 6.62659E-02    2.19307E-03
 7.01689E-02    2.08651E-03
 9.21437E-02    1.48657E-03
 1.00000E-01    1.27208E-03
 1.05532E-01    1.24419E-03
 1.48899E-01    1.02554E-03
 1.68871E-01    9.24845E-04
 1.73040E-01    9.03826E-04
 1.76552E-01    8.86119E-04
 2.00000E-01    7.67899E-04
 2.10388E-01    7.51452E-04
 2.21470E-01    7.33906E-04
 2.62875E-01    6.68350E-04
 2.86854E-01    6.30385E-04
 2.96790E-01    6.14653E-04
 3.00000E-01    6.09571E-04
 3.04643E-01    6.05973E-04
 3.08840E-01    6.02720E-04
 3.15948E-01    5.97211E-04
 3.17387E-01    5.96096E-04
 3.26109E-01    5.89336E-04
 3.47214E-01    5.72979E-04
 3.58027E-01    5.64598E-04
 3.60393E-01    5.62765E-04
 3.85761E-01    5.43104E-04
 3.98225E-01    5.33444E-04
 4.00000E-01    5.32068E-04
 4.08210E-01    5.27435E-04
 4.18418E-01    5.21675E-04
 4.21901E-01    5.19709E-04
 4.26008E-01    5.17391E-04
 4.40424E-01    5.09256E-04
 4.48175E-01    5.04882E-04
 5.00000E-01    4.75637E-04
 6.00000E-01    4.55092E-04
 7.00000E-01    4.33804E-04
 8.00000E-01    4.09864E-04
 9.00000E-01    4.02960E-04
 1.00000E+00    3.91236E-04
 1.20000E+00    3.73693E-04
 1.40000E+00    3.68827E-04
 1.60000E+00    3.86751E-04
 1.80000E+00    4.15419E-04
 2.00000E+00    4.65955E-04
 2.20000E+00    5.34639E-04
 2.40000E+00    6.11079E-04
 2.60000E+00    7.15430E-04
 2.80000E+00    8.51629E-04
 3.00000E+00    9.93268E-04
 3.20000E+00    1.19698E-03
 3.40000E+00    1.37969E-03
 3.60000E+00    1.63823E-03
 3.80000E+00    2.02724E-03
 4.00000E+00    2.37167E-03
 4.20000E+00    2.76850E-03
 4.40000E+00    3.33930E-03
 4.60000E+00    4.03956E-03
 4.80000E+00    5.25095E-03
 5.00000E+00    6.16324E-03
 5.20000E+00    7.26286E-03
 5.40000E+00    8.91026E-03
 5.60000E+00    1.09796E-02
 5.80000E+00    1.47844E-02
 6.00000E+00    1.72453E-02
 6.20000E+00    2.03934E-02
 6.40000E+00    2.51084E-02
 6.60000E+00    3.09018E-02
 6.80000E+00    4.19537E-02
 7.00000E+00    4.82598E-02
 7.20000E+00    5.58860E-02
 7.40000E+00    7.32242E-02
 7.60000E+00    8.47687E-02
 7.80000E+00    1.07533E-01
 8.00000E+00    1.29063E-01
 8.50000E+00    2.04978E-01
 9.00000E+00    3.17242E-01
 9.50000E+00    4.76419E-01
 1.00000E+01    6.93277E-01
 1.05000E+01    9.78070E-01
 1.10000E+01    1.33926E+00
 1.15000E+01    1.78426E+00
 1.20000E+01    2.28293E+00
 1.25000E+01    2.92018E+00
 1.30000E+01    3.69311E+00
 1.35000E+01    4.60323E+00
 1.40000E+01    5.52255E+00
 1.45000E+01    6.67970E+00
 1.50000E+01    7.92807E+00
 1.60000E+01    1.13453E+01
 1.70000E+01    1.64694E+01
 1.80000E+01    2.13877E+01
 1.90000E+01    2.50793E+01
 2.00000E+01    2.66879E+01
 2.10000E+01    2.48473E+01
 2.20000E+01    2.56159E+01
 2.30000E+01    2.66949E+01
 2.40000E+01    2.79384E+01
 2.50000E+01    2.92437E+01
 2.60000E+01    3.05653E+01
 2.70000E+01    3.18752E+01
 2.80000E+01    3.31710E+01
 2.90000E+01    3.44446E+01
 3.00000E+01    3.57108E+01
 3.00000E+01    3.57252E+01
 3.20000E+01    3.80048E+01
 3.40000E+01    4.05707E+01
 3.60000E+01    4.30253E+01
 3.80000E+01    4.55281E+01
 4.00000E+01    4.80788E+01
 4.20000E+01    5.06601E+01
 4.40000E+01    5.32695E+01
 4.60000E+01    5.58887E+01
 4.80000E+01    5.85645E+01
 5.00000E+01    6.12278E+01
 5.20000E+01    6.37820E+01
 5.40000E+01    6.63528E+01
 5.60000E+01    6.91260E+01
 5.80000E+01    7.19153E+01
 6.00000E+01    7.43777E+01
 6.50000E+01    7.96535E+01
 7.00000E+01    8.65921E+01
 7.50000E+01    9.20045E+01
 8.00000E+01    9.35925E+01
 9.00000E+01    1.00917E+02
 1.00000E+02    1.06216E+02
 1.10000E+02    9.56914E+01
 1.20000E+02    8.07302E+01
 1.30000E+02    7.96656E+01
 1.40000E+02    9.18655E+01
 1.50000E+02    1.00976E+02
 1.60000E+02    1.08433E+02
 1.80000E+02    1.44021E+02
 2.00000E+02    2.39289E+02
