# n + Sm151 : (n,n'06)  
# jeff3.3    A.J. Koning and D. Rochman        EVAL-DEC15
# uncertainties: n
# # energies =    98
#   E(MeV)       xs(mb) 
 1.48899E-01    0.00000E+00
 1.68871E-01    3.67682E-01
 1.73040E-01    4.44433E-01
 1.76552E-01    5.09088E-01
 2.00000E-01    9.40763E-01
 2.10388E-01    1.22539E+00
 2.21470E-01    1.52904E+00
 2.62875E-01    2.66354E+00
 2.86854E-01    3.32057E+00
 2.96790E-01    3.59281E+00
 3.00000E-01    3.68077E+00
 3.04643E-01    3.80673E+00
 3.08840E-01    3.92059E+00
 3.15948E-01    4.11342E+00
 3.17387E-01    4.15246E+00
 3.26109E-01    4.38908E+00
 3.47214E-01    4.96163E+00
 3.58027E-01    5.25497E+00
 3.60393E-01    5.31916E+00
 3.85761E-01    6.00736E+00
 3.98225E-01    6.34550E+00
 4.00000E-01    6.39365E+00
 4.08210E-01    6.49201E+00
 4.18418E-01    6.61431E+00
 4.21901E-01    6.65604E+00
 4.26008E-01    6.70525E+00
 4.40424E-01    6.87796E+00
 4.48175E-01    6.97083E+00
 5.00000E-01    7.59173E+00
 6.00000E-01    7.92255E+00
 7.00000E-01    7.55046E+00
 8.00000E-01    6.78194E+00
 9.00000E-01    5.86376E+00
 1.00000E+00    4.92666E+00
 1.20000E+00    3.43524E+00
 1.40000E+00    2.42693E+00
 1.60000E+00    1.77149E+00
 1.80000E+00    1.32698E+00
 2.00000E+00    1.01091E+00
 2.20000E+00    7.78835E-01
 2.40000E+00    6.03818E-01
 2.60000E+00    4.69634E-01
 2.80000E+00    3.65900E-01
 3.00000E+00    2.85495E-01
 3.20000E+00    2.23507E-01
 3.40000E+00    1.76184E-01
 3.60000E+00    1.40664E-01
 3.80000E+00    1.14513E-01
 4.00000E+00    9.56161E-02
 4.20000E+00    8.24011E-02
 4.40000E+00    7.35406E-02
 4.60000E+00    6.79688E-02
 4.80000E+00    6.48902E-02
 5.00000E+00    6.37107E-02
 5.20000E+00    6.38852E-02
 5.40000E+00    6.50896E-02
 5.60000E+00    6.69834E-02
 5.80000E+00    6.93087E-02
 6.00000E+00    7.18458E-02
 6.20000E+00    7.44419E-02
 6.40000E+00    7.69553E-02
 6.60000E+00    7.92790E-02
 6.80000E+00    8.13410E-02
 7.00000E+00    8.31015E-02
 7.20000E+00    8.45417E-02
 7.40000E+00    8.56678E-02
 7.60000E+00    8.65019E-02
 7.80000E+00    8.70768E-02
 8.00000E+00    8.74326E-02
 8.50000E+00    8.76289E-02
 9.00000E+00    8.72918E-02
 9.50000E+00    8.68293E-02
 1.00000E+01    8.64604E-02
 1.05000E+01    8.62619E-02
 1.10000E+01    8.62212E-02
 1.15000E+01    8.62793E-02
 1.20000E+01    8.63605E-02
 1.25000E+01    8.63923E-02
 1.30000E+01    8.63161E-02
 1.35000E+01    8.60940E-02
 1.40000E+01    8.57071E-02
 1.45000E+01    8.51541E-02
 1.50000E+01    8.44445E-02
 1.60000E+01    8.26394E-02
 1.70000E+01    8.04961E-02
 1.80000E+01    7.82380E-02
 1.90000E+01    7.60280E-02
 2.00000E+01    7.39470E-02
 2.10000E+01    7.20169E-02
 2.20000E+01    7.02229E-02
 2.30000E+01    6.85265E-02
 2.40000E+01    6.68789E-02
 2.50000E+01    6.52409E-02
 2.60000E+01    6.36031E-02
 2.70000E+01    6.19842E-02
 2.80000E+01    6.04157E-02
 2.90000E+01    5.89248E-02
 3.00000E+01    5.75231E-02
