# n + Sm151 : (n,n'17)  
# jeff3.3    A.J. Koning and D. Rochman        EVAL-DEC15
# uncertainties: n
# # energies =    85
#   E(MeV)       xs(mb) 
 3.15948E-01    0.00000E+00
 3.17387E-01    1.40143E+00
 3.26109E-01    9.89566E+00
 3.47214E-01    3.04496E+01
 3.58027E-01    4.09802E+01
 3.60393E-01    4.32844E+01
 3.85761E-01    6.79900E+01
 3.98225E-01    8.01285E+01
 4.00000E-01    8.18572E+01
 4.08210E-01    8.11134E+01
 4.18418E-01    8.01885E+01
 4.21901E-01    7.98730E+01
 4.26008E-01    7.95009E+01
 4.40424E-01    7.81948E+01
 4.48175E-01    7.74926E+01
 5.00000E-01    7.27972E+01
 6.00000E-01    6.38133E+01
 7.00000E-01    5.82299E+01
 8.00000E-01    5.37032E+01
 9.00000E-01    4.86665E+01
 1.00000E+00    4.24752E+01
 1.20000E+00    2.97950E+01
 1.40000E+00    1.93749E+01
 1.60000E+00    1.23529E+01
 1.80000E+00    7.92881E+00
 2.00000E+00    5.18750E+00
 2.20000E+00    3.48314E+00
 2.40000E+00    2.40543E+00
 2.60000E+00    1.70903E+00
 2.80000E+00    1.24841E+00
 3.00000E+00    9.35973E-01
 3.20000E+00    7.19026E-01
 3.40000E+00    5.65161E-01
 3.60000E+00    4.54329E-01
 3.80000E+00    3.73416E-01
 4.00000E+00    3.13556E-01
 4.20000E+00    2.68863E-01
 4.40000E+00    2.35145E-01
 4.60000E+00    2.09452E-01
 4.80000E+00    1.89630E-01
 5.00000E+00    1.74272E-01
 5.20000E+00    1.62230E-01
 5.40000E+00    1.52791E-01
 5.60000E+00    1.45374E-01
 5.80000E+00    1.39541E-01
 6.00000E+00    1.34953E-01
 6.20000E+00    1.31365E-01
 6.40000E+00    1.28549E-01
 6.60000E+00    1.26308E-01
 6.80000E+00    1.24478E-01
 7.00000E+00    1.22923E-01
 7.20000E+00    1.21520E-01
 7.40000E+00    1.20183E-01
 7.60000E+00    1.18840E-01
 7.80000E+00    1.17448E-01
 8.00000E+00    1.15980E-01
 8.50000E+00    1.11920E-01
 9.00000E+00    1.07417E-01
 9.50000E+00    1.02726E-01
 1.00000E+01    9.81044E-02
 1.05000E+01    9.37465E-02
 1.10000E+01    8.97601E-02
 1.15000E+01    8.61744E-02
 1.20000E+01    8.29578E-02
 1.25000E+01    8.00421E-02
 1.30000E+01    7.73465E-02
 1.35000E+01    7.48017E-02
 1.40000E+01    7.23613E-02
 1.45000E+01    7.00046E-02
 1.50000E+01    6.77289E-02
 1.60000E+01    6.34581E-02
 1.70000E+01    5.96382E-02
 1.80000E+01    5.63537E-02
 1.90000E+01    5.36313E-02
 2.00000E+01    5.14215E-02
 2.10000E+01    4.96287E-02
 2.20000E+01    4.81487E-02
 2.30000E+01    4.68795E-02
 2.40000E+01    4.57177E-02
 2.50000E+01    4.45746E-02
 2.60000E+01    4.34107E-02
 2.70000E+01    4.22450E-02
 2.80000E+01    4.11304E-02
 2.90000E+01    4.01182E-02
 3.00000E+01    3.92332E-02
