# n + Se 76 : (n,xa)    
# jendl4.0   S.Kamada, K.Shibata, A.Ichihara+  EVAL-MAY09
# 
# # energies =    72
#   E(MeV)        xs(mb) 
 5.66530E-01    0.00000E+00
 6.00000E-01    0.00000E+00
 7.00000E-01    0.00000E+00
 8.00000E-01    0.00000E+00
 9.00000E-01    0.00000E+00
 1.00000E+00    0.00000E+00
 1.13719E+00    0.00000E+00
 1.23231E+00    0.00000E+00
 1.34854E+00    0.00000E+00
 1.50000E+00    0.00000E+00
 1.71140E+00    0.00000E+00
 1.81140E+00    0.00000E+00
 1.81500E+00    0.00000E+00
 1.90619E+00    0.00000E+00
 2.00000E+00    0.00000E+00
 2.05291E+00    0.00000E+00
 2.15548E+00    0.00000E+00
 2.19939E+00    0.00000E+00
 2.29246E+00    0.00000E+00
 2.37808E+00    0.00000E+00
 2.39435E+00    0.00000E+00
 2.46136E+00    0.00000E+00
 2.50000E+00    0.00000E+00
 2.52237E+00    0.00000E+00
 2.54807E+00    0.00000E+00
 2.60415E+00    0.00000E+00
 2.64032E+00    0.00000E+00
 2.65400E+00    0.00000E+00
 2.66575E+00    0.00000E+00
 2.69060E+00    0.00000E+00
 2.70535E+00    0.00000E+00
 2.72675E+00    0.00000E+00
 2.84176E+00    0.00000E+00
 2.84977E+00    0.00000E+00
 2.85422E+00    0.00000E+00
 2.86229E+00    0.00000E+00
 2.89090E+00    0.00000E+00
 2.89774E+00    0.00000E+00
 2.90783E+00    0.00000E+00
 2.94966E+00    0.00000E+00
 2.95869E+00    0.00000E+00
 2.98973E+00    0.00000E+00
 3.00000E+00    0.00000E+00
 3.00784E+00    0.00000E+00
 3.01574E+00    0.00000E+00
 3.04938E+00    0.00000E+00
 3.05952E+00    0.00000E+00
 3.50000E+00    0.00000E+00
 4.00000E+00    0.00000E+00
 4.50000E+00    2.90700E-02
 5.00000E+00    1.28500E-01
 5.50000E+00    3.32700E-01
 6.00000E+00    6.92400E-01
 6.50000E+00    1.19800E+00
 7.00000E+00    1.94300E+00
 7.50000E+00    2.61500E+00
 8.00000E+00    3.15400E+00
 8.50000E+00    3.67800E+00
 9.00000E+00    3.78000E+00
 9.50000E+00    3.94400E+00
 1.00000E+01    3.93400E+00
 1.10000E+01    4.22200E+00
 1.20000E+01    4.98680E+00
 1.30000E+01    5.98890E+00
 1.40000E+01    7.37690E+00
 1.45000E+01    8.33200E+00
 1.50000E+01    9.42000E+00
 1.60000E+01    1.21100E+01
 1.70000E+01    1.51990E+01
 1.80000E+01    1.83080E+01
 1.90000E+01    2.12360E+01
 2.00000E+01    2.40210E+01
