# n + Se 76 : (n,el)    
# jendl4.0   S.Kamada, K.Shibata, A.Ichihara+  EVAL-MAY09
# uncertainties: n
# # energies =   171
#   E(MeV)       xs(mb) 
 1.00000E-11    3.51743E+04
 1.00000E-07    1.84052E+04
 4.13990E-07    1.83797E+04
 5.31580E-07    1.83704E+04
 6.82560E-07    1.83586E+04
 8.76420E-07    1.83433E+04
 1.12540E-06    1.83245E+04
 1.44500E-06    1.83032E+04
 1.85540E-06    1.82763E+04
 2.37240E-06    1.82415E+04
 3.05900E-06    1.81965E+04
 3.92790E-06    1.81390E+04
 5.04350E-06    1.80653E+04
 6.47600E-06    1.79706E+04
 8.31530E-06    1.78490E+04
 1.06770E-05    1.76929E+04
 1.37100E-05    1.74924E+04
 1.76030E-05    1.72474E+04
 2.26030E-05    1.69545E+04
 2.92030E-05    1.65838E+04
 3.72670E-05    1.61441E+04
 4.78510E-05    1.56137E+04
 6.14420E-05    1.49938E+04
 7.88930E-05    1.42713E+04
 1.01300E-04    1.34547E+04
 1.30070E-04    1.25446E+04
 1.67020E-04    1.15394E+04
 2.14450E-04    1.03909E+04
 2.75360E-04    8.63328E+03
 3.53580E-04    2.90429E+04
 4.54000E-04    8.28283E+03
 5.82950E-04    6.03470E+03
 7.48520E-04    8.09591E+04
 9.61120E-04    1.01274E+04
 1.23410E-03    7.38180E+03
 1.58460E-03    5.74831E+03
 2.03470E-03    4.48345E+03
 2.24870E-03    1.84868E+03
 2.48520E-03    1.58143E+05
 2.61260E-03    2.56122E+04
 2.74650E-03    8.75753E+03
 3.03540E-03    8.01128E+03
 3.35460E-03    5.61133E+04
 3.70740E-03    7.21228E+03
 4.30740E-03    2.49131E+04
 5.53080E-03    1.54816E+04
 7.10170E-03    1.88781E+04
 9.11880E-03    1.54797E+04
 1.17090E-02    1.46860E+04
 1.50340E-02    1.37117E+04
 1.93050E-02    1.29074E+04
 2.18750E-02    1.26433E+04
 2.35790E-02    1.25086E+04
 2.41760E-02    1.24384E+04
 2.47880E-02    1.23296E+04
 2.60580E-02    1.22008E+04
 2.70000E-02    1.20595E+04
 2.85000E-02    1.18037E+04
 3.18280E-02    1.15800E+04
 3.43070E-02    1.12648E+04
 4.08680E-02    1.09109E+04
 4.63090E-02    1.06301E+04
 5.24750E-02    1.04173E+04
 5.65620E-02    1.01535E+04
 6.73790E-02    9.91328E+03
 7.20000E-02    9.75657E+03
 7.95000E-02    9.62549E+03
 8.25000E-02    9.54877E+03
 8.65170E-02    9.38818E+03
 9.80370E-02    9.18207E+03
 1.11090E-01    9.06417E+03
 1.16790E-01    8.99229E+03
 1.22770E-01    8.91671E+03
 1.29070E-01    8.83720E+03
 1.35690E-01    8.75369E+03
 1.42640E-01    8.66587E+03
 1.49960E-01    8.57355E+03
 1.57640E-01    8.47650E+03
 1.65730E-01    8.37446E+03
 1.74220E-01    8.26720E+03
 1.83160E-01    8.15439E+03
 1.92550E-01    8.03727E+03
 2.02420E-01    7.94800E+03
 2.12800E-01    7.86870E+03
 2.23710E-01    7.78533E+03
 2.35180E-01    7.69768E+03
 2.47240E-01    7.55711E+03
 2.73240E-01    7.40686E+03
 2.87250E-01    7.32726E+03
 2.94520E-01    7.29009E+03
 2.97200E-01    7.27524E+03
 2.98500E-01    7.25855E+03
 3.01970E-01    7.16159E+03
 3.33730E-01    6.97615E+03
 3.68830E-01    6.82503E+03
 3.87740E-01    6.71891E+03
 4.07620E-01    6.57543E+03
 4.50490E-01    6.37338E+03
 4.97870E-01    6.21736E+03
 5.23400E-01    6.12129E+03
 5.50230E-01    6.00028E+03
 5.78440E-01    5.70373E+03
 6.08100E-01    5.47193E+03
 6.39280E-01    5.27551E+03
 6.72060E-01    5.07007E+03
 7.06510E-01    4.89352E+03
 7.42740E-01    4.72836E+03
 7.80820E-01    4.56000E+03
 8.20850E-01    4.41327E+03
 8.62940E-01    4.26421E+03
 9.07180E-01    4.11516E+03
 9.61640E-01    3.98036E+03
 1.00260E+00    3.86266E+03
 1.10800E+00    3.76096E+03
 1.16480E+00    3.66861E+03
 1.22460E+00    3.53692E+03
 1.28730E+00    3.35171E+03
 1.35340E+00    3.14919E+03
 1.42270E+00    2.92682E+03
 1.49570E+00    2.78720E+03
 1.57240E+00    2.76016E+03
 1.65300E+00    2.73043E+03
 1.73770E+00    2.67218E+03
 1.82680E+00    2.52916E+03
 1.92050E+00    2.29524E+03
 2.01900E+00    2.20124E+03
 2.12250E+00    2.17716E+03
 2.23130E+00    2.12706E+03
 2.30690E+00    2.09245E+03
 2.34570E+00    2.07480E+03
 2.36530E+00    2.06244E+03
 2.38520E+00    2.00747E+03
 2.46600E+00    1.92857E+03
 2.59240E+00    1.97685E+03
 2.72530E+00    1.95225E+03
 2.86500E+00    1.84306E+03
 3.01190E+00    1.76079E+03
 3.16640E+00    1.73162E+03
 3.32870E+00    1.69311E+03
 3.67880E+00    1.71698E+03
 4.06570E+00    1.76244E+03
 4.49330E+00    1.80257E+03
 4.72370E+00    1.83116E+03
 4.96590E+00    1.86072E+03
 5.22050E+00    1.88786E+03
 5.48810E+00    1.91476E+03
 5.76950E+00    1.93873E+03
 6.06530E+00    1.96028E+03
 6.37630E+00    1.97582E+03
 6.59240E+00    1.98417E+03
 6.70320E+00    1.99225E+03
 7.04690E+00    2.00184E+03
 7.40820E+00    2.00639E+03
 7.78800E+00    2.00684E+03
 8.18730E+00    1.99981E+03
 8.60710E+00    1.98878E+03
 9.04840E+00    1.97100E+03
 9.51230E+00    1.94685E+03
 1.00000E+01    1.91595E+03
 1.05130E+01    1.87996E+03
 1.10520E+01    1.87219E+03
 1.16180E+01    1.79780E+03
 1.22140E+01    1.73605E+03
 1.28400E+01    1.68016E+03
 1.34990E+01    1.63653E+03
 1.38400E+01    1.60663E+03
 1.41910E+01    1.57682E+03
 1.45500E+01    1.54697E+03
 1.49180E+01    1.50230E+03
 1.56830E+01    1.44243E+03
 1.64870E+01    1.38369E+03
