# n + Se 76 : (n,tot)   
# jendl4.0   S.Kamada, K.Shibata, A.Ichihara+  EVAL-MAY09
# uncertainties: n
# # energies =   171
#   E(MeV)       xs(mb) 
 1.00000E-11    9.54492E+05
 1.00000E-07    4.89781E+04
 4.13990E-07    3.80756E+04
 5.31580E-07    3.57357E+04
 6.82560E-07    3.36660E+04
 8.76420E-07    3.18336E+04
 1.12540E-06    3.02135E+04
 1.44500E-06    2.87769E+04
 1.85540E-06    2.75020E+04
 2.37240E-06    2.63546E+04
 3.05900E-06    2.53088E+04
 3.92790E-06    2.43732E+04
 5.04350E-06    2.35199E+04
 6.47600E-06    2.27315E+04
 8.31530E-06    2.19928E+04
 1.06770E-05    2.12880E+04
 1.37100E-05    2.06025E+04
 1.76030E-05    1.99214E+04
 2.26030E-05    1.92204E+04
 2.92030E-05    1.85003E+04
 3.72670E-05    1.77494E+04
 4.78510E-05    1.69370E+04
 6.14420E-05    1.60649E+04
 7.88930E-05    1.51269E+04
 1.01300E-04    1.41228E+04
 1.30070E-04    1.30523E+04
 1.67020E-04    1.19186E+04
 2.14450E-04    1.06638E+04
 2.75360E-04    8.87372E+03
 3.53580E-04    4.47716E+04
 4.54000E-04    8.37861E+03
 5.82950E-04    6.10846E+03
 7.48520E-04    8.63042E+04
 9.61120E-04    1.04413E+04
 1.23410E-03    7.70293E+03
 1.58460E-03    5.80681E+03
 2.03470E-03    5.17822E+03
 2.24870E-03    1.88323E+03
 2.48520E-03    1.60794E+05
 2.61260E-03    2.57475E+04
 2.74650E-03    8.77429E+03
 3.03540E-03    8.38872E+03
 3.35460E-03    5.68118E+04
 3.70740E-03    7.45747E+03
 4.30740E-03    2.53061E+04
 5.53080E-03    1.55840E+04
 7.10170E-03    1.90162E+04
 9.11880E-03    1.58096E+04
 1.17090E-02    1.49817E+04
 1.50340E-02    1.39653E+04
 1.93050E-02    1.31265E+04
 2.18750E-02    1.28513E+04
 2.35790E-02    1.27110E+04
 2.41760E-02    1.26378E+04
 2.47880E-02    1.25245E+04
 2.60580E-02    1.23903E+04
 2.70000E-02    1.22431E+04
 2.85000E-02    1.19766E+04
 3.18280E-02    1.17442E+04
 3.43070E-02    1.14168E+04
 4.08680E-02    1.10499E+04
 4.63090E-02    1.07595E+04
 5.24750E-02    1.05403E+04
 5.65620E-02    1.02691E+04
 6.73790E-02    1.00225E+04
 7.20000E-02    9.86211E+03
 7.95000E-02    9.72806E+03
 8.25000E-02    9.64982E+03
 8.65170E-02    9.48622E+03
 9.80370E-02    9.27686E+03
 1.11090E-01    9.15733E+03
 1.16790E-01    9.08446E+03
 1.22770E-01    9.00785E+03
 1.29070E-01    8.92724E+03
 1.35690E-01    8.84258E+03
 1.42640E-01    8.75356E+03
 1.49960E-01    8.65997E+03
 1.57640E-01    8.56159E+03
 1.65730E-01    8.45815E+03
 1.74220E-01    8.34941E+03
 1.83160E-01    8.23506E+03
 1.92550E-01    8.11634E+03
 2.02420E-01    8.02617E+03
 2.12800E-01    7.94625E+03
 2.23710E-01    7.86223E+03
 2.35180E-01    7.77389E+03
 2.47240E-01    7.63222E+03
 2.73240E-01    7.48080E+03
 2.87250E-01    7.40057E+03
 2.94520E-01    7.36311E+03
 2.97200E-01    7.34815E+03
 2.98500E-01    7.33134E+03
 3.01970E-01    7.23405E+03
 3.33730E-01    7.04800E+03
 3.68830E-01    6.89639E+03
 3.87740E-01    6.78995E+03
 4.07620E-01    6.64643E+03
 4.50490E-01    6.44444E+03
 4.97870E-01    6.28578E+03
 5.23400E-01    6.18312E+03
 5.50230E-01    6.07527E+03
 5.78440E-01    5.96244E+03
 6.08100E-01    5.85513E+03
 6.39280E-01    5.74674E+03
 6.72060E-01    5.63315E+03
 7.06510E-01    5.52674E+03
 7.42740E-01    5.42161E+03
 7.80820E-01    5.31346E+03
 8.20850E-01    5.21329E+03
 8.62940E-01    5.11034E+03
 9.07180E-01    5.00366E+03
 9.61640E-01    4.90518E+03
 1.00260E+00    4.79297E+03
 1.10800E+00    4.68034E+03
 1.16480E+00    4.60003E+03
 1.22460E+00    4.51565E+03
 1.28730E+00    4.42693E+03
 1.35340E+00    4.33366E+03
 1.42270E+00    4.23565E+03
 1.49570E+00    4.15805E+03
 1.57240E+00    4.10889E+03
 1.65300E+00    4.05733E+03
 1.73770E+00    4.00312E+03
 1.82680E+00    3.94609E+03
 1.92050E+00    3.88689E+03
 2.01900E+00    3.85256E+03
 2.12250E+00    3.83075E+03
 2.23130E+00    3.81176E+03
 2.30690E+00    3.79998E+03
 2.34570E+00    3.79397E+03
 2.36530E+00    3.78991E+03
 2.38520E+00    3.77961E+03
 2.46600E+00    3.76362E+03
 2.59240E+00    3.76168E+03
 2.72530E+00    3.76141E+03
 2.86500E+00    3.76116E+03
 3.01190E+00    3.76766E+03
 3.16640E+00    3.77956E+03
 3.32870E+00    3.79866E+03
 3.67880E+00    3.82634E+03
 4.06570E+00    3.85694E+03
 4.49330E+00    3.88073E+03
 4.72370E+00    3.89160E+03
 4.96590E+00    3.90224E+03
 5.22050E+00    3.91236E+03
 5.48810E+00    3.91741E+03
 5.76950E+00    3.92190E+03
 6.06530E+00    3.92663E+03
 6.37630E+00    3.93023E+03
 6.59240E+00    3.92938E+03
 6.70320E+00    3.92689E+03
 7.04690E+00    3.92301E+03
 7.40820E+00    3.91613E+03
 7.78800E+00    3.90202E+03
 8.18730E+00    3.88652E+03
 8.60710E+00    3.86247E+03
 9.04840E+00    3.83396E+03
 9.51230E+00    3.79967E+03
 1.00000E+01    3.75685E+03
 1.05130E+01    3.70897E+03
 1.10520E+01    3.65507E+03
 1.16180E+01    3.59575E+03
 1.22140E+01    3.53246E+03
 1.28400E+01    3.46584E+03
 1.34990E+01    3.41411E+03
 1.38400E+01    3.37863E+03
 1.41910E+01    3.34303E+03
 1.45500E+01    3.30714E+03
 1.49180E+01    3.25277E+03
 1.56830E+01    3.17911E+03
 1.64870E+01    3.10584E+03
