# n + K  40 : (n,g)     
# jendl.ad   T.WATANABE                        EVAL-FEB95
# uncertainties: n
# # energies =    69
#   E(MeV)       xs(mb) 
 1.00000E-10    2.09470E+05
 5.00000E-09    5.70347E+04
 1.00000E-08    4.31948E+04
 1.50000E-08    3.62927E+04
 2.00000E-08    3.19338E+04
 2.50000E-08    2.88542E+04
 3.00000E-08    2.65262E+04
 3.50000E-08    2.43896E+04
 4.20000E-08    2.23085E+04
 5.00000E-08    2.05770E+04
 5.80000E-08    1.91250E+04
 6.70000E-08    1.76497E+04
 8.00000E-08    1.59714E+04
 1.00000E-07    1.38951E+04
 1.40000E-07    1.19901E+04
 1.80000E-07    1.07067E+04
 2.20000E-07    9.85927E+03
 2.50000E-07    9.28256E+03
 2.80000E-07    8.86889E+03
 3.00000E-07    8.57698E+03
 3.20000E-07    8.25272E+03
 3.50000E-07    7.80633E+03
 4.00000E-07    7.14239E+03
 5.00000E-07    6.38868E+03
 6.25000E-07    5.71615E+03
 7.80000E-07    5.29133E+03
 8.50000E-07    5.09088E+03
 9.10000E-07    4.95081E+03
 9.50000E-07    4.86960E+03
 9.72000E-07    4.81234E+03
 9.96000E-07    4.75453E+03
 1.02000E-06    4.69784E+03
 1.04500E-06    4.64119E+03
 1.07100E-06    4.58607E+03
 1.09700E-06    4.53237E+03
 1.12300E-06    4.48004E+03
 1.15000E-06    4.31868E+03
 1.30000E-06    4.04152E+03
 1.50000E-06    3.58924E+03
 2.10000E-06    3.12654E+03
 2.60000E-06    2.79249E+03
 3.30000E-06    2.50701E+03
 4.00000E-06    1.92145E+03
 9.87700E-06    1.35107E+03
 1.59680E-05    1.04479E+03
 2.77000E-05    7.93227E+02
 4.80520E-05    6.16761E+02
 7.55014E-05    4.66207E+02
 1.48728E-04    3.15083E+02
 3.67262E-04    1.99242E+02
 9.06898E-04    1.37719E+02
 1.42510E-03    1.08034E+02
 2.23945E-03    8.47340E+01
 3.51910E-03    6.64698E+01
 5.53000E-03    5.14980E+01
 9.11800E-03    3.93675E+01
 1.50300E-02    3.00952E+01
 2.47800E-02    2.17976E+01
 4.08500E-02    1.24424E+01
 6.73400E-02    7.89926E+00
 1.11000E-01    5.41511E+00
 1.83000E-01    3.80384E+00
 3.02000E-01    2.77425E+00
 5.00000E-01    2.13155E+00
 8.21000E-01    1.43764E+00
 1.35300E+00    1.00172E+00
 2.23100E+00    7.88382E-01
 3.67900E+00    4.61026E-01
 6.06500E+00    1.51736E-01
