# n + Lu174 : (n,xa)    
# jendl.ad   N.Iwamoto                         EVAL-Apr14
# 
# # energies =   118
#   E(MeV)        xs(mb) 
 4.49562E-02    4.71226E-03
 5.00000E-02    4.27619E-03
 6.00000E-02    3.82248E-03
 7.00000E-02    3.47500E-03
 8.00000E-02    3.21779E-03
 9.00000E-02    3.01481E-03
 1.00000E-01    2.85877E-03
 1.05000E-01    2.78938E-03
 1.10000E-01    2.72562E-03
 1.12401E-01    2.69695E-03
 1.20000E-01    2.56632E-03
 1.30000E-01    2.49844E-03
 1.40000E-01    2.39230E-03
 1.50000E-01    2.30935E-03
 1.60000E-01    2.23179E-03
 1.70000E-01    2.16790E-03
 1.71821E-01    2.15696E-03
 1.80000E-01    2.11445E-03
 1.90000E-01    2.06959E-03
 2.00000E-01    2.03088E-03
 2.01458E-01    2.02524E-03
 2.01459E-01    2.02523E-03
 2.25000E-01    1.93521E-03
 2.42214E-01    1.94550E-03
 2.50000E-01    1.90304E-03
 2.61039E-01    1.86884E-03
 2.75000E-01    1.82558E-03
 2.82798E-01    1.80597E-03
 3.00000E-01    1.73767E-03
 3.04204E-01    1.72765E-03
 3.13010E-01    1.70666E-03
 3.21967E-01    1.68367E-03
 3.22147E-01    1.67855E-03
 3.67301E-01    1.55969E-03
 3.69681E-01    1.55380E-03
 3.85095E-01    1.52195E-03
 4.00000E-01    1.46098E-03
 4.16773E-01    1.42662E-03
 4.23103E-01    1.40763E-03
 4.33912E-01    1.42365E-03
 4.35390E-01    1.41985E-03
 4.44578E-01    1.39619E-03
 4.48014E-01    1.38754E-03
 4.56452E-01    1.36678E-03
 4.59147E-01    1.36015E-03
 4.83792E-01    1.31892E-03
 4.94199E-01    1.30848E-03
 5.00000E-01    1.30266E-03
 5.08934E-01    1.29331E-03
 5.10694E-01    1.29132E-03
 5.18992E-01    1.28152E-03
 5.25449E-01    1.27476E-03
 5.25450E-01    1.27476E-03
 5.26033E-01    1.27081E-03
 5.30056E-01    1.29706E-03
 5.34200E-01    1.29029E-03
 5.34381E-01    1.28999E-03
 5.40526E-01    1.27995E-03
 5.56207E-01    1.26313E-03
 5.64464E-01    1.25510E-03
 5.71294E-01    1.24908E-03
 5.79000E-01    1.24256E-03
 5.94729E-01    1.23206E-03
 5.97690E-01    1.23054E-03
 5.99021E-01    1.22985E-03
 6.00000E-01    1.22935E-03
 7.00000E-01    1.17919E-03
 8.00000E-01    1.32972E-03
 9.00000E-01    1.27132E-03
 1.00000E+00    1.21586E-03
 1.10000E+00    1.18710E-03
 1.20000E+00    1.18004E-03
 1.30000E+00    1.19104E-03
 1.40000E+00    1.21373E-03
 1.50000E+00    1.24788E-03
 1.60000E+00    1.29166E-03
 1.70000E+00    1.34343E-03
 1.80000E+00    1.40274E-03
 1.90000E+00    1.46976E-03
 2.00000E+00    1.54357E-03
 2.25000E+00    1.77173E-03
 2.50000E+00    2.03643E-03
 2.75000E+00    2.38618E-03
 3.00000E+00    2.98120E-03
 3.50000E+00    3.93830E-03
 4.00000E+00    5.08557E-03
 4.50000E+00    6.42936E-03
 5.00000E+00    8.07176E-03
 5.50000E+00    1.02945E-02
 6.00000E+00    1.35522E-02
 6.50000E+00    1.85199E-02
 7.00000E+00    2.62170E-02
 7.50000E+00    3.79065E-02
 8.00000E+00    5.55853E-02
 8.50000E+00    8.17471E-02
 9.00000E+00    1.19758E-01
 9.50000E+00    1.72910E-01
 1.00000E+01    2.44317E-01
 1.05000E+01    3.36852E-01
 1.10000E+01    4.51831E-01
 1.15000E+01    5.89289E-01
 1.20000E+01    7.48018E-01
 1.25000E+01    9.25822E-01
 1.30000E+01    1.11986E+00
 1.35000E+01    1.32690E+00
 1.40000E+01    1.54398E+00
 1.45000E+01    1.76813E+00
 1.50000E+01    1.99693E+00
 1.55000E+01    2.22831E+00
 1.60000E+01    2.46044E+00
 1.65000E+01    2.69128E+00
 1.70000E+01    2.91938E+00
 1.75000E+01    3.14384E+00
 1.80000E+01    3.36425E+00
 1.85000E+01    3.58041E+00
 1.90000E+01    3.79258E+00
 1.95000E+01    4.00006E+00
 2.00000E+01    4.20331E+00
