# n + Lu174 : (n,xp)    
# jendl.ad   N.Iwamoto                         EVAL-Apr14
# 
# # energies =   118
#   E(MeV)        xs(mb) 
 4.49562E-02    6.66769E-06
 5.00000E-02    6.13005E-06
 6.00000E-02    5.78473E-06
 7.00000E-02    5.58777E-06
 8.00000E-02    5.50619E-06
 9.00000E-02    5.49002E-06
 1.00000E-01    5.54156E-06
 1.05000E-01    5.58168E-06
 1.10000E-01    5.62745E-06
 1.12401E-01    5.64809E-06
 1.20000E-01    5.69380E-06
 1.30000E-01    5.80028E-06
 1.40000E-01    5.93742E-06
 1.50000E-01    6.11469E-06
 1.60000E-01    6.29570E-06
 1.70000E-01    6.52578E-06
 1.71821E-01    6.56767E-06
 1.80000E-01    6.77929E-06
 1.90000E-01    7.05901E-06
 2.00000E-01    7.36491E-06
 2.01458E-01    7.41112E-06
 2.01459E-01    7.41115E-06
 2.25000E-01    8.20735E-06
 2.42214E-01    8.91449E-06
 2.50000E-01    9.17284E-06
 2.61039E-01    9.63028E-06
 2.75000E-01    1.02400E-05
 2.82798E-01    1.05960E-05
 3.00000E-01    1.11581E-05
 3.04204E-01    1.13516E-05
 3.13010E-01    1.17569E-05
 3.21967E-01    1.21802E-05
 3.22147E-01    1.21579E-05
 3.67301E-01    1.40502E-05
 3.69681E-01    1.41663E-05
 3.85095E-01    1.50244E-05
 4.00000E-01    1.55084E-05
 4.16773E-01    1.64101E-05
 4.23103E-01    1.67520E-05
 4.33912E-01    1.73768E-05
 4.35390E-01    1.74643E-05
 4.44578E-01    1.80079E-05
 4.48014E-01    1.82112E-05
 4.56452E-01    1.87267E-05
 4.59147E-01    1.88914E-05
 4.83792E-01    2.06706E-05
 4.94199E-01    2.15652E-05
 5.00000E-01    2.20638E-05
 5.08934E-01    2.28930E-05
 5.10694E-01    2.29726E-05
 5.18992E-01    2.36960E-05
 5.25449E-01    2.42775E-05
 5.25450E-01    2.42776E-05
 5.26033E-01    2.42356E-05
 5.30056E-01    2.44560E-05
 5.34200E-01    2.47810E-05
 5.34381E-01    2.47952E-05
 5.40526E-01    2.52771E-05
 5.56207E-01    2.67403E-05
 5.64464E-01    2.76013E-05
 5.71294E-01    2.83135E-05
 5.79000E-01    2.91171E-05
 5.94729E-01    3.09791E-05
 5.97690E-01    3.13296E-05
 5.99021E-01    3.14872E-05
 6.00000E-01    3.16055E-05
 7.00000E-01    4.48115E-05
 8.00000E-01    7.19732E-05
 9.00000E-01    9.49032E-05
 1.00000E+00    1.21296E-04
 1.10000E+00    1.54519E-04
 1.20000E+00    1.95651E-04
 1.30000E+00    2.45999E-04
 1.40000E+00    3.06709E-04
 1.50000E+00    3.79222E-04
 1.60000E+00    4.64409E-04
 1.70000E+00    5.62966E-04
 1.80000E+00    6.75621E-04
 1.90000E+00    8.02874E-04
 2.00000E+00    9.45461E-04
 2.25000E+00    1.35090E-03
 2.50000E+00    1.89443E-03
 2.75000E+00    2.47970E-03
 3.00000E+00    3.10019E-03
 3.50000E+00    4.44307E-03
 4.00000E+00    5.71315E-03
 4.50000E+00    6.84902E-03
 5.00000E+00    8.21199E-03
 5.50000E+00    1.09062E-02
 6.00000E+00    1.74283E-02
 6.50000E+00    3.27086E-02
 7.00000E+00    6.55421E-02
 7.50000E+00    1.29999E-01
 8.00000E+00    2.45574E-01
 8.50000E+00    4.36924E-01
 9.00000E+00    7.31187E-01
 9.50000E+00    1.15508E+00
 1.00000E+01    1.73091E+00
 1.05000E+01    2.47998E+00
 1.10000E+01    3.41219E+00
 1.15000E+01    4.53767E+00
 1.20000E+01    5.86182E+00
 1.25000E+01    7.38733E+00
 1.30000E+01    9.11482E+00
 1.35000E+01    1.10427E+01
 1.40000E+01    1.31679E+01
 1.45000E+01    1.54855E+01
 1.50000E+01    1.79898E+01
 1.55000E+01    2.06735E+01
 1.60000E+01    2.35285E+01
 1.65000E+01    2.65459E+01
 1.70000E+01    2.97160E+01
 1.75000E+01    3.30275E+01
 1.80000E+01    3.64697E+01
 1.85000E+01    4.00300E+01
 1.90000E+01    4.36966E+01
 1.95000E+01    4.74567E+01
 2.00000E+01    5.13024E+01
