# n + Lu174 : (n,xn)    
# jendl.ad   N.Iwamoto                         EVAL-Apr14
# 
# # energies =   118
#   E(MeV)        xs(mb) 
 4.49562E-02    0.00000E+00
 5.00000E-02    2.78755E+02
 6.00000E-02    4.44097E+02
 7.00000E-02    5.72242E+02
 8.00000E-02    6.71892E+02
 9.00000E-02    7.54816E+02
 1.00000E-01    8.25400E+02
 1.05000E-01    8.55165E+02
 1.10000E-01    8.84939E+02
 1.12401E-01    8.96793E+02
 1.20000E-01    9.65002E+02
 1.30000E-01    1.04137E+03
 1.40000E-01    1.11363E+03
 1.50000E-01    1.17643E+03
 1.60000E-01    1.24371E+03
 1.70000E-01    1.28981E+03
 1.71821E-01    1.29782E+03
 1.80000E-01    1.33154E+03
 1.90000E-01    1.36927E+03
 2.00000E-01    1.40477E+03
 2.01458E-01    1.40979E+03
 2.01459E-01    1.40980E+03
 2.25000E-01    1.48878E+03
 2.42214E-01    1.53555E+03
 2.50000E-01    1.58203E+03
 2.61039E-01    1.61955E+03
 2.75000E-01    1.66201E+03
 2.82798E-01    1.68320E+03
 3.00000E-01    1.77324E+03
 3.04204E-01    1.78789E+03
 3.13010E-01    1.81644E+03
 3.21967E-01    1.84328E+03
 3.22147E-01    1.85079E+03
 3.67301E-01    2.05889E+03
 3.69681E-01    2.06756E+03
 3.85095E-01    2.11479E+03
 4.00000E-01    2.20148E+03
 4.16773E-01    2.26028E+03
 4.23103E-01    2.28555E+03
 4.33912E-01    2.31994E+03
 4.35390E-01    2.32435E+03
 4.44578E-01    2.35548E+03
 4.48014E-01    2.36560E+03
 4.56452E-01    2.39406E+03
 4.59147E-01    2.40198E+03
 4.83792E-01    2.46678E+03
 4.94199E-01    2.48921E+03
 5.00000E-01    2.50085E+03
 5.08934E-01    2.51810E+03
 5.10694E-01    2.52489E+03
 5.18992E-01    2.54424E+03
 5.25449E-01    2.55725E+03
 5.25450E-01    2.55727E+03
 5.26033E-01    2.56200E+03
 5.30056E-01    2.57602E+03
 5.34200E-01    2.58758E+03
 5.34381E-01    2.58816E+03
 5.40526E-01    2.60395E+03
 5.56207E-01    2.63859E+03
 5.64464E-01    2.65508E+03
 5.71294E-01    2.66799E+03
 5.79000E-01    2.68369E+03
 5.94729E-01    2.71106E+03
 5.97690E-01    2.71580E+03
 5.99021E-01    2.71791E+03
 6.00000E-01    2.71944E+03
 7.00000E-01    2.90930E+03
 8.00000E-01    2.98035E+03
 9.00000E-01    3.13520E+03
 1.00000E+00    3.26153E+03
 1.10000E+00    3.35769E+03
 1.20000E+00    3.42635E+03
 1.30000E+00    3.47260E+03
 1.40000E+00    3.50042E+03
 1.50000E+00    3.51295E+03
 1.60000E+00    3.51330E+03
 1.70000E+00    3.50438E+03
 1.80000E+00    3.48881E+03
 1.90000E+00    3.46895E+03
 2.00000E+00    3.44677E+03
 2.25000E+00    3.39107E+03
 2.50000E+00    3.34115E+03
 2.75000E+00    3.30042E+03
 3.00000E+00    3.26497E+03
 3.50000E+00    3.19954E+03
 4.00000E+00    3.14542E+03
 4.50000E+00    3.10711E+03
 5.00000E+00    3.07887E+03
 5.50000E+00    3.04921E+03
 6.00000E+00    3.01626E+03
 6.50000E+00    2.98004E+03
 7.00000E+00    2.96780E+03
 7.50000E+00    3.34977E+03
 8.00000E+00    3.81441E+03
 8.50000E+00    4.17704E+03
 9.00000E+00    4.41581E+03
 9.50000E+00    4.56041E+03
 1.00000E+01    4.64508E+03
 1.05000E+01    4.69372E+03
 1.10000E+01    4.72040E+03
 1.15000E+01    4.73358E+03
 1.20000E+01    4.73850E+03
 1.25000E+01    4.73837E+03
 1.30000E+01    4.73510E+03
 1.35000E+01    4.72972E+03
 1.40000E+01    4.72283E+03
 1.45000E+01    4.71494E+03
 1.50000E+01    4.70621E+03
 1.55000E+01    4.69798E+03
 1.60000E+01    4.71440E+03
 1.65000E+01    4.78937E+03
 1.70000E+01    4.92560E+03
 1.75000E+01    5.10152E+03
 1.80000E+01    5.28954E+03
 1.85000E+01    5.46735E+03
 1.90000E+01    5.60972E+03
 1.95000E+01    5.74118E+03
 2.00000E+01    5.84665E+03
