# n + Lu174 : (n,t)     
# jendl.ad   N.Iwamoto                         EVAL-Apr14
# uncertainties: n
# # energies =    73
#   E(MeV)       xs(mb) 
 3.21201E+00    0.00000E+00
 3.29121E+00    2.64840E-26
 3.47378E+00    9.68190E-26
 3.75512E+00    2.05210E-25
 4.12942E+00    3.64990E-25
 4.26096E+00    4.93760E-25
 4.33636E+00    5.68080E-25
 4.37364E+00    6.04870E-25
 4.39120E+00    6.22200E-25
 4.41743E+00    6.48090E-25
 4.44081E+00    6.71170E-25
 4.48236E+00    7.12190E-25
 4.50000E+00    7.29600E-25
 4.50601E+00    9.66570E-21
 4.55041E+00    8.10710E-20
 4.57280E+00    1.17080E-19
 4.59002E+00    1.44770E-19
 4.59579E+00    1.54050E-19
 4.62516E+00    2.01290E-19
 4.68639E+00    2.99760E-19
 4.69735E+00    3.17390E-19
 4.71678E+00    3.48640E-19
 4.73094E+00    3.71410E-19
 4.75842E+00    4.15610E-19
 4.76155E+00    4.20640E-19
 4.77014E+00    4.34450E-19
 4.77143E+00    4.36530E-19
 4.77180E+00    4.37120E-19
 4.77862E+00    4.48090E-19
 4.82115E+00    5.16490E-19
 4.82982E+00    5.30440E-19
 4.85462E+00    5.70320E-19
 4.86208E+00    5.82320E-19
 4.87941E+00    6.10190E-19
 4.88446E+00    6.18310E-19
 4.88779E+00    6.23670E-19
 4.89224E+00    6.30820E-19
 4.92251E+00    6.79500E-19
 4.92835E+00    6.88900E-19
 4.92971E+00    6.91080E-19
 4.93241E+00    6.95430E-19
 4.94198E+00    7.10820E-19
 5.00000E+00    8.04130E-19
 5.50000E+00    5.07380E-15
 6.00000E+00    1.66970E-12
 6.50000E+00    9.37020E-11
 7.00000E+00    1.67170E-09
 7.50000E+00    1.36680E-08
 8.00000E+00    6.48260E-08
 8.50000E+00    2.11200E-07
 9.00000E+00    5.52760E-07
 9.50000E+00    1.50572E-06
 1.00000E+01    5.79892E-06
 1.05000E+01    2.75551E-05
 1.10000E+01    1.20387E-04
 1.15000E+01    4.43908E-04
 1.20000E+01    1.38709E-03
 1.25000E+01    3.74795E-03
 1.30000E+01    8.91312E-03
 1.35000E+01    1.88997E-02
 1.40000E+01    3.61145E-02
 1.45000E+01    6.28646E-02
 1.50000E+01    1.00873E-01
 1.55000E+01    1.51029E-01
 1.60000E+01    2.13398E-01
 1.65000E+01    2.87372E-01
 1.70000E+01    3.71839E-01
 1.75000E+01    4.65302E-01
 1.80000E+01    5.65790E-01
 1.85000E+01    6.70710E-01
 1.90000E+01    7.76613E-01
 1.95000E+01    8.79141E-01
 2.00000E+01    9.73697E-01
