# n + Lu174 : (n,n')o   
# jendl.ad   N.Iwamoto                         EVAL-Apr14
# uncertainties: n
# # energies =   100
#   E(MeV)       xs(mb) 
 1.71821E-01    0.00000E+00
 1.80000E-01    3.51174E-02
 1.90000E-01    1.13389E-01
 2.00000E-01    2.23226E-01
 2.01458E-01    2.41649E-01
 2.25000E-01    5.61134E-01
 2.42214E-01    8.60564E-01
 2.50000E-01    1.00921E+00
 2.61039E-01    1.23220E+00
 2.75000E-01    1.42727E+00
 2.82798E-01    1.56706E+00
 3.00000E-01    1.90349E+00
 3.04204E-01    1.99215E+00
 3.13010E-01    2.11129E+00
 3.21967E-01    2.27268E+00
 3.22147E-01    2.27556E+00
 3.67301E-01    3.10131E+00
 3.69681E-01    3.10037E+00
 3.85095E-01    3.33991E+00
 4.00000E-01    3.61220E+00
 4.16773E-01    3.95324E+00
 4.23103E-01    4.07908E+00
 4.33912E-01    4.20739E+00
 4.35390E-01    4.22919E+00
 4.44578E-01    4.28228E+00
 4.48014E-01    4.31850E+00
 4.56452E-01    4.40630E+00
 4.59147E-01    4.43654E+00
 4.83792E-01    5.16705E+00
 4.94199E-01    5.55409E+00
 5.00000E-01    5.78951E+00
 5.08934E-01    6.16464E+00
 5.10694E-01    6.24148E+00
 5.18992E-01    7.23681E+00
 5.25450E-01    7.91927E+00
 5.26033E-01    7.98236E+00
 5.30056E-01    8.42317E+00
 5.34200E-01    8.89025E+00
 5.34381E-01    8.89752E+00
 5.40526E-01    9.53716E+00
 5.56207E-01    1.13243E+01
 5.64464E-01    1.22769E+01
 5.71294E-01    1.30711E+01
 5.79000E-01    1.39027E+01
 5.94729E-01    1.55394E+01
 5.97690E-01    1.58726E+01
 5.99021E-01    1.60217E+01
 6.00000E-01    1.61319E+01
 7.00000E-01    2.66922E+01
 8.00000E-01    3.75006E+01
 9.00000E-01    4.75669E+01
 1.00000E+00    5.75216E+01
 1.10000E+00    6.78542E+01
 1.20000E+00    7.80194E+01
 1.30000E+00    8.81699E+01
 1.40000E+00    9.83068E+01
 1.50000E+00    1.08240E+02
 1.60000E+00    1.17707E+02
 1.70000E+00    1.26797E+02
 1.80000E+00    1.35554E+02
 1.90000E+00    1.44037E+02
 2.00000E+00    1.52317E+02
 2.25000E+00    1.72826E+02
 2.50000E+00    1.92529E+02
 2.75000E+00    2.12572E+02
 3.00000E+00    2.42843E+02
 3.50000E+00    2.81022E+02
 4.00000E+00    3.16919E+02
 4.50000E+00    3.51265E+02
 5.00000E+00    3.83752E+02
 5.50000E+00    4.13029E+02
 6.00000E+00    4.39495E+02
 6.50000E+00    4.63406E+02
 7.00000E+00    4.83347E+02
 7.50000E+00    4.41310E+02
 8.00000E+00    3.63061E+02
 8.50000E+00    2.89743E+02
 9.00000E+00    2.33445E+02
 9.50000E+00    1.93720E+02
 1.00000E+01    1.65881E+02
 1.05000E+01    1.45708E+02
 1.10000E+01    1.30394E+02
 1.15000E+01    1.18208E+02
 1.20000E+01    1.08097E+02
 1.25000E+01    9.94622E+01
 1.30000E+01    9.98394E+01
 1.35000E+01    9.29832E+01
 1.40000E+01    8.69859E+01
 1.45000E+01    8.16734E+01
 1.50000E+01    7.70093E+01
 1.55000E+01    7.29216E+01
 1.60000E+01    6.92597E+01
 1.65000E+01    6.59626E+01
 1.70000E+01    6.30114E+01
 1.75000E+01    6.02920E+01
 1.80000E+01    5.77921E+01
 1.85000E+01    4.89537E+01
 1.90000E+01    4.70520E+01
 1.95000E+01    4.52756E+01
 2.00000E+01    4.36955E+01
