# n + Yb  0 : (n,n'01)
# jendl4.0   S.Kunieda, A.Ichihara, K.Shibata+ EVAL-FEB10
# uncertainties: n
# # energies =    64
#   E(MeV)          xs(mb) 
 6.71147E-02    0.00000E+00
 7.00000E-02    2.98024E+01
 8.00000E-02    1.03181E+02
 9.00000E-02    2.00037E+02
 1.00000E-01    2.71799E+02
 1.20000E-01    3.92407E+02
 1.40000E-01    4.93380E+02
 1.60000E-01    5.82689E+02
 1.80000E-01    6.63959E+02
 2.00000E-01    7.35428E+02
 2.50000E-01    8.93797E+02
 3.00000E-01    1.02345E+03
 3.50000E-01    1.12664E+03
 4.00000E-01    1.20238E+03
 4.50000E-01    1.26246E+03
 5.00000E-01    1.30627E+03
 5.50000E-01    1.33859E+03
 6.00000E-01    1.36422E+03
 6.50000E-01    1.39644E+03
 7.00000E-01    1.41020E+03
 7.50000E-01    1.42188E+03
 8.00000E-01    1.43070E+03
 8.50000E-01    1.43015E+03
 9.00000E-01    1.43601E+03
 9.50000E-01    1.43825E+03
 1.00000E+00    1.43886E+03
 1.20000E+00    1.38709E+03
 1.40000E+00    1.24045E+03
 1.60000E+00    1.08842E+03
 1.80000E+00    9.20003E+02
 2.00000E+00    8.06687E+02
 2.20000E+00    7.12134E+02
 2.40000E+00    6.43184E+02
 2.60000E+00    5.90161E+02
 2.80000E+00    5.47590E+02
 3.00000E+00    5.12990E+02
 3.25000E+00    4.79081E+02
 3.50000E+00    4.52528E+02
 3.75000E+00    4.31765E+02
 4.00000E+00    4.16445E+02
 4.25000E+00    4.04630E+02
 4.50000E+00    3.95417E+02
 4.75000E+00    3.87980E+02
 5.00000E+00    3.81558E+02
 5.50000E+00    3.69900E+02
 6.00000E+00    3.58074E+02
 6.50000E+00    3.45585E+02
 7.00000E+00    3.32913E+02
 7.50000E+00    3.20623E+02
 8.00000E+00    3.09094E+02
 8.50000E+00    2.98459E+02
 9.00000E+00    2.88680E+02
 9.50000E+00    2.79648E+02
 1.00000E+01    2.71227E+02
 1.10000E+01    2.55822E+02
 1.20000E+01    2.41902E+02
 1.30000E+01    2.29192E+02
 1.40000E+01    2.17669E+02
 1.50000E+01    2.07281E+02
 1.60000E+01    1.97880E+02
 1.70000E+01    1.89259E+02
 1.80000E+01    1.81382E+02
 1.90000E+01    1.74104E+02
 2.00000E+01    1.67570E+02
