# n + Pd102 : (n,xa)    
# jendl.ad   N.Iwamoto                         EVAL-Apr14
# 
# # energies =   107
#   E(MeV)        xs(mb) 
 1.05000E-01    8.59781E-04
 1.10000E-01    8.59383E-04
 1.20000E-01    8.64594E-04
 1.30000E-01    8.73684E-04
 1.40000E-01    8.87221E-04
 1.50000E-01    9.04078E-04
 1.60000E-01    9.23833E-04
 1.70000E-01    9.46280E-04
 1.80000E-01    9.70791E-04
 1.90000E-01    9.95301E-04
 2.00000E-01    1.02558E-03
 2.25000E-01    1.10727E-03
 2.50000E-01    1.20117E-03
 2.75000E-01    1.30748E-03
 3.00000E-01    1.42118E-03
 4.00000E-01    2.10399E-03
 5.00000E-01    3.08771E-03
 5.61938E-01    3.83548E-03
 6.00000E-01    3.04518E-03
 7.00000E-01    3.37856E-03
 8.00000E-01    4.24400E-03
 9.00000E-01    5.58616E-03
 1.00000E+00    7.49705E-03
 1.10000E+00    1.01881E-02
 1.20000E+00    1.39478E-02
 1.28850E+00    1.83711E-02
 1.30000E+00    1.87665E-02
 1.40000E+00    2.40731E-02
 1.50000E+00    3.16919E-02
 1.54966E+00    3.62784E-02
 1.60000E+00    3.90923E-02
 1.60890E+00    3.97558E-02
 1.67451E+00    4.46473E-02
 1.70000E+00    4.66064E-02
 1.73198E+00    4.95391E-02
 1.80000E+00    5.53736E-02
 1.90000E+00    6.75551E-02
 1.93799E+00    7.33535E-02
 1.96370E+00    7.65604E-02
 2.00000E+00    8.03799E-02
 2.13225E+00    1.01387E-01
 2.13255E+00    1.01438E-01
 2.15918E+00    1.05959E-01
 2.25000E+00    1.23691E-01
 2.27096E+00    1.28840E-01
 2.31724E+00    1.38381E-01
 2.32405E+00    1.39785E-01
 2.36613E+00    1.48748E-01
 2.41477E+00    1.59218E-01
 2.45557E+00    1.66590E-01
 2.49882E+00    1.75899E-01
 2.50000E+00    1.76153E-01
 2.50475E+00    1.77175E-01
 2.51454E+00    1.78654E-01
 2.51455E+00    1.78656E-01
 2.55807E+00    1.87399E-01
 2.57140E+00    1.91071E-01
 2.57877E+00    1.92442E-01
 2.57878E+00    1.92444E-01
 2.59978E+00    1.96351E-01
 2.60847E+00    1.97283E-01
 2.63230E+00    1.99837E-01
 2.63657E+00    2.00329E-01
 2.67754E+00    2.05366E-01
 2.68704E+00    2.06534E-01
 2.70148E+00    2.08506E-01
 2.72258E+00    2.11387E-01
 2.74319E+00    2.14201E-01
 2.75000E+00    2.15084E-01
 2.76409E+00    2.16812E-01
 2.79641E+00    2.22948E-01
 2.82660E+00    2.28680E-01
 3.00000E+00    2.81263E-01
 3.50000E+00    5.46184E-01
 4.00000E+00    1.01456E+00
 4.50000E+00    1.75471E+00
 5.00000E+00    2.81939E+00
 5.50000E+00    4.21200E+00
 6.00000E+00    5.73517E+00
 6.50000E+00    7.45689E+00
 7.00000E+00    9.14321E+00
 7.50000E+00    1.06921E+01
 8.00000E+00    1.20826E+01
 8.50000E+00    1.33541E+01
 9.00000E+00    1.45987E+01
 9.50000E+00    1.59226E+01
 1.00000E+01    1.74954E+01
 1.05000E+01    1.96611E+01
 1.10000E+01    2.23244E+01
 1.15000E+01    2.39875E+01
 1.20000E+01    2.52747E+01
 1.25000E+01    2.65590E+01
 1.30000E+01    2.80908E+01
 1.35000E+01    2.99092E+01
 1.40000E+01    3.19960E+01
 1.45000E+01    3.43104E+01
 1.50000E+01    3.68388E+01
 1.55000E+01    3.94078E+01
 1.60000E+01    4.21091E+01
 1.65000E+01    4.47180E+01
 1.70000E+01    4.72632E+01
 1.75000E+01    4.95014E+01
 1.80000E+01    5.14926E+01
 1.85000E+01    5.33253E+01
 1.90000E+01    5.47709E+01
 1.95000E+01    5.60338E+01
 2.00000E+01    5.72043E+01
