# n + Pd102 : (n,p)m    
# jendl.ad   N.Iwamoto                         EVAL-Apr14
# uncertainties: n
# # energies =    77
#   E(MeV)       xs(mb) 
 5.13507E-01    0.00000E+00
 1.54966E+00    4.11050E-10
 1.60000E+00    1.08670E-09
 1.60890E+00    1.28310E-09
 1.67451E+00    4.17190E-09
 1.70000E+00    6.43430E-09
 1.73198E+00    1.08420E-08
 1.80000E+00    2.90910E-08
 1.90000E+00    1.10730E-07
 1.93799E+00    1.81170E-07
 1.96370E+00    2.51190E-07
 2.00000E+00    3.89180E-07
 2.13225E+00    1.72807E-06
 2.13255E+00    1.73241E-06
 2.15918E+00    2.27025E-06
 2.25000E+00    5.25189E-06
 2.27096E+00    6.33399E-06
 2.31724E+00    9.43518E-06
 2.32405E+00    9.96585E-06
 2.36613E+00    1.39087E-05
 2.41477E+00    1.97481E-05
 2.45557E+00    2.67458E-05
 2.49882E+00    3.58314E-05
 2.50000E+00    3.60678E-05
 2.50475E+00    3.71982E-05
 2.51454E+00    3.95964E-05
 2.55807E+00    5.35452E-05
 2.57140E+00    5.79933E-05
 2.57878E+00    6.06246E-05
 2.59978E+00    6.84777E-05
 2.60847E+00    7.19766E-05
 2.63230E+00    8.23248E-05
 2.63657E+00    8.42817E-05
 2.67754E+00    1.08691E-04
 2.68704E+00    1.14192E-04
 2.70148E+00    1.23257E-04
 2.72258E+00    1.37594E-04
 2.74319E+00    1.59691E-04
 2.75000E+00    1.65074E-04
 2.76409E+00    1.76993E-04
 2.79641E+00    2.07377E-04
 2.82660E+00    2.41002E-04
 3.00000E+00    6.00531E-04
 3.50000E+00    5.12904E-03
 4.00000E+00    2.64188E-02
 4.50000E+00    9.68742E-02
 5.00000E+00    2.74198E-01
 5.50000E+00    6.32298E-01
 6.00000E+00    1.23581E+00
 6.50000E+00    2.11405E+00
 7.00000E+00    3.25395E+00
 7.50000E+00    4.61631E+00
 8.00000E+00    6.16554E+00
 8.50000E+00    7.89111E+00
 9.00000E+00    9.75798E+00
 9.50000E+00    1.19165E+01
 1.00000E+01    1.43130E+01
 1.05000E+01    1.69742E+01
 1.10000E+01    1.99375E+01
 1.15000E+01    2.30827E+01
 1.20000E+01    2.62753E+01
 1.25000E+01    2.90044E+01
 1.30000E+01    3.09723E+01
 1.35000E+01    3.17415E+01
 1.40000E+01    3.14013E+01
 1.45000E+01    2.95994E+01
 1.50000E+01    2.70205E+01
 1.55000E+01    2.37824E+01
 1.60000E+01    2.07084E+01
 1.65000E+01    1.83583E+01
 1.70000E+01    1.59071E+01
 1.75000E+01    1.42813E+01
 1.80000E+01    1.26299E+01
 1.85000E+01    1.16184E+01
 1.90000E+01    1.06487E+01
 1.95000E+01    9.91743E+00
 2.00000E+01    9.45303E+00
