# n + Pd102 : (n,n')    
# jendl.ad   N.Iwamoto                         EVAL-Apr14
# uncertainties: n
# # energies =   107
#   E(MeV)       xs(mb) 
 1.05000E-01    0.00000E+00
 1.10000E-01    5.78577E-04
 1.20000E-01    6.88782E-04
 1.30000E-01    7.22286E-04
 1.40000E-01    7.33738E-04
 1.50000E-01    7.38255E-04
 1.60000E-01    7.40658E-04
 1.70000E-01    7.43514E-04
 1.80000E-01    7.47499E-04
 1.90000E-01    7.50360E-04
 2.00000E-01    7.57146E-04
 2.25000E-01    4.82708E-03
 2.50000E-01    5.28126E-03
 2.75000E-01    5.50021E-03
 3.00000E-01    5.70542E-03
 4.00000E-01    2.07684E-02
 5.00000E-01    5.43360E-02
 5.61938E-01    1.06870E-01
 6.00000E-01    2.68157E+02
 7.00000E-01    6.79189E+02
 8.00000E-01    8.81155E+02
 9.00000E-01    9.96160E+02
 1.00000E+00    1.06755E+03
 1.10000E+00    1.11480E+03
 1.20000E+00    1.15086E+03
 1.28850E+00    1.17362E+03
 1.30000E+00    1.17972E+03
 1.40000E+00    1.23072E+03
 1.50000E+00    1.27439E+03
 1.54966E+00    1.28808E+03
 1.60000E+00    1.34781E+03
 1.60890E+00    1.35652E+03
 1.67451E+00    1.44293E+03
 1.70000E+00    1.47932E+03
 1.73198E+00    1.51706E+03
 1.80000E+00    1.59199E+03
 1.90000E+00    1.66990E+03
 1.93799E+00    1.69336E+03
 1.96370E+00    1.71760E+03
 2.00000E+00    1.75750E+03
 2.13225E+00    1.83278E+03
 2.13255E+00    1.83291E+03
 2.15918E+00    1.84705E+03
 2.25000E+00    1.88883E+03
 2.27096E+00    1.89687E+03
 2.31724E+00    1.91946E+03
 2.32405E+00    1.92285E+03
 2.36613E+00    1.94268E+03
 2.41477E+00    1.96710E+03
 2.45557E+00    1.99015E+03
 2.49882E+00    2.01262E+03
 2.50000E+00    2.01361E+03
 2.50475E+00    2.01498E+03
 2.51454E+00    2.01900E+03
 2.51455E+00    2.01900E+03
 2.55807E+00    2.03428E+03
 2.57140E+00    2.03815E+03
 2.57877E+00    2.04056E+03
 2.57878E+00    2.04057E+03
 2.59978E+00    2.04809E+03
 2.60847E+00    2.05210E+03
 2.63230E+00    2.06248E+03
 2.63657E+00    2.06462E+03
 2.67754E+00    2.08202E+03
 2.68704E+00    2.08552E+03
 2.70148E+00    2.09091E+03
 2.72258E+00    2.09832E+03
 2.74319E+00    2.10560E+03
 2.75000E+00    2.10821E+03
 2.76409E+00    2.11302E+03
 2.79641E+00    2.12280E+03
 2.82660E+00    2.13102E+03
 3.00000E+00    2.16488E+03
 3.50000E+00    2.17443E+03
 4.00000E+00    2.16899E+03
 4.50000E+00    2.16692E+03
 5.00000E+00    2.16701E+03
 5.50000E+00    2.16198E+03
 6.00000E+00    2.14699E+03
 6.50000E+00    2.12122E+03
 7.00000E+00    2.08770E+03
 7.50000E+00    2.05040E+03
 8.00000E+00    2.01275E+03
 8.50000E+00    1.97712E+03
 9.00000E+00    1.94467E+03
 9.50000E+00    1.91390E+03
 1.00000E+01    1.88511E+03
 1.05000E+01    1.85765E+03
 1.10000E+01    1.78345E+03
 1.15000E+01    1.56711E+03
 1.20000E+01    1.31212E+03
 1.25000E+01    1.07389E+03
 1.30000E+01    8.84440E+02
 1.35000E+01    7.40261E+02
 1.40000E+01    6.32010E+02
 1.45000E+01    5.52591E+02
 1.50000E+01    4.94746E+02
 1.55000E+01    4.49484E+02
 1.60000E+01    4.18414E+02
 1.65000E+01    3.92402E+02
 1.70000E+01    3.70796E+02
 1.75000E+01    3.52844E+02
 1.80000E+01    3.36153E+02
 1.85000E+01    3.23685E+02
 1.90000E+01    3.10396E+02
 1.95000E+01    2.99330E+02
 2.00000E+01    2.89528E+02
