# n + Ba132 : (n,pa)    
# jendl.ad   N.Iwamoto                         EVAL-Apr14
# uncertainties: n
# # energies =    30
#   E(MeV)       xs(mb) 
 5.50000E+00    0.00000E+00
 6.00000E+00    2.36600E-33
 6.50000E+00    7.27420E-29
 7.00000E+00    2.79300E-25
 7.50000E+00    2.45540E-22
 8.00000E+00    7.15420E-20
 8.50000E+00    8.86500E-18
 9.00000E+00    5.50360E-16
 9.50000E+00    1.92310E-14
 1.00000E+01    3.94740E-13
 1.05000E+01    4.99540E-12
 1.10000E+01    4.58190E-11
 1.15000E+01    3.26910E-10
 1.20000E+01    1.89450E-09
 1.25000E+01    9.12800E-09
 1.30000E+01    3.72480E-08
 1.35000E+01    1.31130E-07
 1.40000E+01    4.05510E-07
 1.45000E+01    1.12045E-06
 1.50000E+01    2.80898E-06
 1.55000E+01    6.51073E-06
 1.60000E+01    1.43025E-05
 1.65000E+01    2.71922E-05
 1.70000E+01    5.23261E-05
 1.75000E+01    9.90104E-05
 1.80000E+01    1.71642E-04
 1.85000E+01    2.95545E-04
 1.90000E+01    4.68933E-04
 1.95000E+01    7.37316E-04
 2.00000E+01    1.06365E-03
