# n + Ba132 : (n,np)    
# jendl.ad   N.Iwamoto                         EVAL-Apr14
# uncertainties: n
# # energies =    24
#   E(MeV)       xs(mb) 
 7.72263E+00    0.00000E+00
 9.00000E+00    1.13670E-09
 9.50000E+00    2.47466E-06
 1.00000E+01    2.83987E-04
 1.05000E+01    1.94300E-03
 1.10000E+01    7.35429E-03
 1.15000E+01    2.80594E-02
 1.20000E+01    8.79077E-02
 1.25000E+01    2.20165E-01
 1.30000E+01    4.56327E-01
 1.35000E+01    8.16088E-01
 1.40000E+01    1.31860E+00
 1.45000E+01    1.94555E+00
 1.50000E+01    2.71902E+00
 1.55000E+01    3.62527E+00
 1.60000E+01    4.75264E+00
 1.65000E+01    6.14521E+00
 1.70000E+01    7.76858E+00
 1.75000E+01    9.58624E+00
 1.80000E+01    1.17071E+01
 1.85000E+01    1.42242E+01
 1.90000E+01    1.69831E+01
 1.95000E+01    2.00338E+01
 2.00000E+01    2.32027E+01
