# n + Ba132 : (n,na)    
# jendl.ad   N.Iwamoto                         EVAL-Apr14
# uncertainties: n
# # energies =    35
#   E(MeV)       xs(mb) 
 1.00736E+00    0.00000E+00
 3.50000E+00    8.98210E-20
 4.00000E+00    2.83520E-15
 4.50000E+00    6.02010E-12
 5.00000E+00    1.93960E-09
 5.50000E+00    1.73140E-07
 6.00000E+00    6.05625E-06
 6.50000E+00    1.04632E-04
 7.00000E+00    1.04183E-03
 7.50000E+00    6.63841E-03
 8.00000E+00    2.97490E-02
 8.50000E+00    1.00705E-01
 9.00000E+00    2.72927E-01
 9.50000E+00    6.21902E-01
 1.00000E+01    1.23295E+00
 1.05000E+01    1.55697E+00
 1.10000E+01    1.42280E+00
 1.15000E+01    1.28425E+00
 1.20000E+01    1.25869E+00
 1.25000E+01    1.36704E+00
 1.30000E+01    1.63751E+00
 1.35000E+01    2.08522E+00
 1.40000E+01    2.75624E+00
 1.45000E+01    3.59526E+00
 1.50000E+01    4.62830E+00
 1.55000E+01    5.83353E+00
 1.60000E+01    7.10908E+00
 1.65000E+01    8.58093E+00
 1.70000E+01    1.00683E+01
 1.75000E+01    1.14627E+01
 1.80000E+01    1.29225E+01
 1.85000E+01    1.43842E+01
 1.90000E+01    1.57347E+01
 1.95000E+01    1.71015E+01
 2.00000E+01    1.83564E+01
