# n + Ba132 : (n,p)     
# jendl.ad   N.Iwamoto                         EVAL-Apr14
# uncertainties: n
# # energies =    89
#   E(MeV)       xs(mb) 
 5.00366E-01    0.00000E+00
 5.87225E-01    3.80290E-13
 6.09494E-01    5.34360E-13
 6.37406E-01    8.48580E-13
 6.54536E-01    1.11160E-12
 6.85370E-01    1.60580E-12
 6.87687E-01    1.64580E-12
 7.14994E-01    2.13200E-12
 7.42302E-01    2.61870E-12
 7.72430E-01    3.20140E-12
 7.93591E-01    3.61070E-12
 8.14449E-01    4.01410E-12
 8.29866E-01    4.31450E-12
 8.55057E-01    5.00360E-12
 8.82566E-01    5.78510E-12
 9.03424E-01    6.37780E-12
 9.29623E-01    7.12230E-12
 1.51513E+00    2.40630E-11
 1.52264E+00    2.51710E-11
 1.60000E+00    5.38500E-11
 1.67300E+00    1.84840E-10
 1.69864E+00    3.02610E-10
 1.70000E+00    3.09110E-10
 1.74256E+00    6.71420E-10
 1.80000E+00    1.82890E-09
 1.90000E+00    9.40080E-09
 1.94668E+00    1.92500E-08
 1.95916E+00    2.32070E-08
 2.00000E+00    4.18150E-08
 2.01346E+00    5.05410E-08
 2.04244E+00    7.42300E-08
 2.06188E+00    9.47970E-08
 2.06213E+00    9.49980E-08
 2.08437E+00    1.24270E-07
 2.13580E+00    2.25370E-07
 2.23705E+00    7.15570E-07
 2.24284E+00    7.58550E-07
 2.25000E+00    8.17070E-07
 2.25782E+00    8.87350E-07
 2.28837E+00    1.22370E-06
 2.30548E+00    1.45969E-06
 2.33017E+00    1.86650E-06
 2.37565E+00    2.92346E-06
 2.39258E+00    3.43958E-06
 2.42440E+00    4.59592E-06
 2.44126E+00    5.38332E-06
 2.45758E+00    6.23577E-06
 2.47163E+00    7.04771E-06
 2.50000E+00    8.90311E-06
 2.50205E+00    9.06021E-06
 2.51141E+00    9.81347E-06
 2.52450E+00    1.09466E-05
 2.58696E+00    1.82888E-05
 2.75000E+00    6.34365E-05
 3.00000E+00    3.04230E-04
 3.50000E+00    3.57639E-03
 4.00000E+00    2.08155E-02
 4.50000E+00    7.54058E-02
 5.00000E+00    1.86252E-01
 5.50000E+00    3.54882E-01
 6.00000E+00    5.57398E-01
 6.50000E+00    7.60257E-01
 7.00000E+00    9.42707E-01
 7.50000E+00    1.11411E+00
 8.00000E+00    1.30595E+00
 8.50000E+00    1.55687E+00
 9.00000E+00    1.90412E+00
 9.50000E+00    2.38189E+00
 1.00000E+01    3.01907E+00
 1.05000E+01    3.83502E+00
 1.10000E+01    4.85712E+00
 1.15000E+01    6.08583E+00
 1.20000E+01    7.51620E+00
 1.25000E+01    9.13041E+00
 1.30000E+01    1.09019E+01
 1.35000E+01    1.27995E+01
 1.40000E+01    1.47887E+01
 1.45000E+01    1.68336E+01
 1.50000E+01    1.88939E+01
 1.55000E+01    2.09422E+01
 1.60000E+01    2.29015E+01
 1.65000E+01    2.47043E+01
 1.70000E+01    2.63736E+01
 1.75000E+01    2.78827E+01
 1.80000E+01    2.91847E+01
 1.85000E+01    3.02042E+01
 1.90000E+01    3.10254E+01
 1.95000E+01    3.16331E+01
 2.00000E+01    3.21970E+01
