# p + F  19 : (p,el)    
# ibandl     A.Gurbich                                   
# uncertainties: n
# # energies =   166
#   E(MeV)       xs(mb) 
 5.52000E-01    3.11829E+03
 5.59000E-01    3.04112E+03
 5.71000E-01    2.91444E+03
 5.82000E-01    3.25884E+03
 5.93000E-01    3.12014E+03
 6.01000E-01    3.01425E+03
 6.08000E-01    2.93150E+03
 6.23000E-01    2.78402E+03
 6.34000E-01    2.68302E+03
 6.46000E-01    2.57116E+03
 6.49000E-01    2.54207E+03
 6.53000E-01    2.50209E+03
 6.60000E-01    2.83787E+03
 6.60000E-01    2.83787E+03
 6.64000E-01    2.79779E+03
 6.71000E-01    3.08987E+03
 6.75000E-01    3.03484E+03
 6.82000E-01    2.88855E+03
 6.89000E-01    2.79246E+03
 7.00000E-01    2.67882E+03
 7.04000E-01    2.64273E+03
 7.11000E-01    2.58348E+03
 7.30000E-01    2.43881E+03
 7.41000E-01    2.36252E+03
 7.52000E-01    2.29042E+03
 7.60000E-01    2.24032E+03
 7.67000E-01    2.61027E+03
 7.75000E-01    2.55429E+03
 7.80000E-01    2.52024E+03
 7.85000E-01    2.48689E+03
 7.85000E-01    2.48689E+03
 7.90000E-01    2.45424E+03
 7.95000E-01    2.42229E+03
 8.00000E-01    2.39111E+03
 8.05000E-01    2.36077E+03
 8.10000E-01    2.33149E+03
 8.15000E-01    2.30370E+03
 8.20000E-01    2.27834E+03
 8.25000E-01    2.25749E+03
 8.28000E-01    2.24892E+03
 8.31000E-01    2.24527E+03
 8.32000E-01    2.24552E+03
 8.35000E-01    2.25178E+03
 8.39000E-01    2.27147E+03
 8.42000E-01    2.28453E+03
 8.43000E-01    2.28590E+03
 8.44000E-01    2.28514E+03
 8.45000E-01    2.28216E+03
 8.48000E-01    2.26201E+03
 8.52000E-01    2.22232E+03
 8.56000E-01    2.18332E+03
 8.59000E-01    2.15800E+03
 8.61000E-01    2.14317E+03
 8.63000E-01    2.12989E+03
 8.65000E-01    2.11790E+03
 8.69000E-01    2.08976E+03
 8.72000E-01    1.98980E+03
 8.73000E-01    1.92252E+03
 8.75000E-01    1.89152E+03
 8.78000E-01    1.93259E+03
 8.82000E-01    1.94378E+03
 8.89000E-01    1.92654E+03
 8.96000E-01    2.29212E+03
 9.11000E-01    2.21463E+03
 9.19000E-01    2.17347E+03
 9.22000E-01    2.15801E+03
 9.26000E-01    2.13720E+03
 9.30000E-01    2.11673E+03
 9.34000E-01    2.10692E+03
 9.38000E-01    2.10170E+03
 9.42000E-01    2.07830E+03
 9.46000E-01    2.05688E+03
 9.57000E-01    2.00465E+03
 9.64000E-01    1.97364E+03
 9.68000E-01    1.95636E+03
 9.76000E-01    1.92267E+03
 9.83000E-01    1.89401E+03
 9.94000E-01    1.85034E+03
 1.00600E+00    1.80449E+03
 1.01300E+00    1.77854E+03
 1.02100E+00    1.74957E+03
 1.02800E+00    1.72481E+03
 1.05500E+00    1.63408E+03
 1.05800E+00    1.62445E+03
 1.07000E+00    1.94218E+03
 1.08900E+00    1.87248E+03
 1.09200E+00    1.86181E+03
 1.09600E+00    1.84774E+03
 1.10400E+00    1.82006E+03
 1.10800E+00    1.80644E+03
 1.10800E+00    1.80644E+03
 1.11500E+00    1.78301E+03
 1.12700E+00    1.74387E+03
 1.13100E+00    1.73112E+03
 1.13400E+00    1.72164E+03
 1.13400E+00    1.72164E+03
 1.14500E+00    1.68756E+03
 1.15700E+00    1.65157E+03
 1.17200E+00    1.60820E+03
 1.17900E+00    1.58858E+03
 1.19500E+00    1.54513E+03
 1.21300E+00    1.49850E+03
 1.24700E+00    1.41665E+03
 1.25500E+00    1.39856E+03
 1.27000E+00    1.36581E+03
 1.27400E+00    1.35733E+03
 1.29600E+00    1.63213E+03
 1.31500E+00    1.58727E+03
 1.31900E+00    1.57832E+03
 1.33800E+00    1.53848E+03
 1.33800E+00    1.53848E+03
 1.34100E+00    1.53260E+03
 1.34100E+00    1.53260E+03
 1.34500E+00    1.52484E+03
 1.34500E+00    1.52484E+03
 1.34900E+00    1.51698E+03
 1.35200E+00    1.51075E+03
 1.35600E+00    1.50102E+03
 1.36600E+00    1.43461E+03
 1.36600E+00    1.43461E+03
 1.37400E+00    1.28996E+03
 1.37800E+00    1.30984E+03
 1.38200E+00    1.34230E+03
 1.38200E+00    1.34230E+03
 1.38600E+00    1.36315E+03
 1.38900E+00    1.37294E+03
 1.39300E+00    1.38178E+03
 1.39600E+00    1.38693E+03
 1.40000E+00    1.39367E+03
 1.40800E+00    1.41412E+03
 1.41200E+00    1.43114E+03
 1.41500E+00    1.44546E+03
 1.41800E+00    1.45401E+03
 1.42100E+00    1.44457E+03
 1.42300E+00    1.42511E+03
 1.42600E+00    1.38496E+03
 1.42900E+00    1.34727E+03
 1.43300E+00    1.31242E+03
 1.44200E+00    1.27496E+03
 1.44900E+00    1.25956E+03
 1.46000E+00    1.24071E+03
 1.47100E+00    1.22347E+03
 1.48200E+00    1.20660E+03
 1.49400E+00    1.18843E+03
 1.50100E+00    1.17795E+03
 1.51300E+00    1.16018E+03
 1.52400E+00    1.14418E+03
 1.53500E+00    1.12846E+03
 1.55400E+00    1.10207E+03
 1.57600E+00    1.07279E+03
 1.59500E+00    1.20042E+03
 1.60300E+00    1.18888E+03
 1.61000E+00    1.17894E+03
 1.61800E+00    1.16777E+03
 1.64000E+00    1.13770E+03
 1.65100E+00    1.12268E+03
 1.65900E+00    1.11148E+03
 1.66200E+00    1.10716E+03
 1.67000E+00    1.09513E+03
 1.68900E+00    1.06167E+03
 1.69600E+00    1.04717E+03
 1.70000E+00    1.03848E+03
 1.70400E+00    1.02967E+03
 1.71200E+00    1.01238E+03
 1.72800E+00    9.83218E+02
 1.73500E+00    9.73355E+02
