# n + Am241 : (n,n'14)  
# jendl4.0   O.Iwamoto,T.Nakagawa,T.Ohsawa,+   EVAL-JAN10
# uncertainties: y
# # energies =    54
#   E(MeV)       xs(mb)       xslow(mb)      xsupp(mb)
 4.54996E-01    0.00000E+00    0.00000E+00    0.00000E+00
 4.60921E-01    1.54864E-03    1.00507E-03    2.09221E-03
 4.73786E-01    9.34758E-03    6.06658E-03    1.26286E-02
 4.97071E-01    3.35765E-02    2.17911E-02    4.53619E-02
 5.00000E-01    3.75039E-02    2.43400E-02    5.06678E-02
 5.06562E-01    4.98699E-02    3.23656E-02    6.73742E-02
 5.27870E-01    8.79920E-02    5.71068E-02    1.18877E-01
 5.33122E-01    9.85954E-02    6.39884E-02    1.33202E-01
 6.00000E-01    2.85302E-01    1.85161E-01    3.85443E-01
 7.00000E-01    7.32542E-01    4.75420E-01    9.89664E-01
 8.00000E-01    1.18140E+00    7.63184E-01    1.59962E+00
 9.00000E-01    1.52901E+00    9.87741E-01    2.07028E+00
 1.00000E+00    1.77545E+00    1.24992E+00    2.30098E+00
 1.30000E+00    1.96783E+00    1.51916E+00    2.41650E+00
 1.60000E+00    1.75294E+00    1.43040E+00    2.07548E+00
 1.80000E+00    1.47668E+00    1.20497E+00    1.74839E+00
 2.00000E+00    1.18839E+00    9.82799E-01    1.39398E+00
 2.30000E+00    7.98892E-01    6.60684E-01    9.37100E-01
 2.50000E+00    5.88125E-01    4.96378E-01    6.79873E-01
 2.70000E+00    4.22283E-01    3.56407E-01    4.88159E-01
 3.00000E+00    3.97078E-01    3.41090E-01    4.53066E-01
 3.50000E+00    2.40331E-01    2.04281E-01    2.76381E-01
 4.00000E+00    1.71869E-01    1.42136E-01    2.01602E-01
 4.50000E+00    1.39690E-01    1.15524E-01    1.63856E-01
 5.00000E+00    1.21555E-01    9.71224E-02    1.45988E-01
 5.50000E+00    1.09633E-01    8.75968E-02    1.31669E-01
 6.00000E+00    1.01883E-01    8.06913E-02    1.23075E-01
 6.50000E+00    9.52713E-02    7.54549E-02    1.15088E-01
 7.00000E+00    9.07836E-02    7.17190E-02    1.09848E-01
 7.50000E+00    8.64386E-02    6.82865E-02    1.04591E-01
 8.00000E+00    8.34196E-02    6.61517E-02    1.00687E-01
 8.50000E+00    7.91521E-02    6.27676E-02    9.55366E-02
 9.00000E+00    7.55606E-02    6.02974E-02    9.08238E-02
 9.50000E+00    7.18181E-02    5.73108E-02    8.63254E-02
 1.00000E+01    6.83903E-02    5.47806E-02    8.20000E-02
 1.05000E+01    6.59415E-02    5.28191E-02    7.90639E-02
 1.10000E+01    6.41250E-02    5.13641E-02    7.68859E-02
 1.15000E+01    6.14323E-02    4.92073E-02    7.36573E-02
 1.20000E+01    5.82062E-02    4.68560E-02    6.95564E-02
 1.25000E+01    5.45823E-02    4.39387E-02    6.52258E-02
 1.30000E+01    5.18945E-02    4.17751E-02    6.20139E-02
 1.35000E+01    4.97348E-02    4.00365E-02    5.94331E-02
 1.40000E+01    4.77528E-02    3.86320E-02    5.68736E-02
 1.45000E+01    4.58755E-02    3.71133E-02    5.46377E-02
 1.50000E+01    4.41318E-02    3.57909E-02    5.24727E-02
 1.55000E+01    4.24839E-02    3.44544E-02    5.05134E-02
 1.60000E+01    4.09225E-02    3.32700E-02    4.85750E-02
 1.65000E+01    4.06842E-02    3.30763E-02    4.82921E-02
 1.70000E+01    4.03251E-02    3.27843E-02    4.78659E-02
 1.75000E+01    3.98173E-02    3.23715E-02    4.72631E-02
 1.80000E+01    3.91586E-02    3.19926E-02    4.63246E-02
 1.85000E+01    3.84137E-02    3.13840E-02    4.54434E-02
 1.95000E+01    3.67013E-02    2.99850E-02    4.34176E-02
 2.00000E+01    3.57693E-02    2.92235E-02    4.23151E-02
