# n + Am241 : (n,n'19)  
# jendl4.0   O.Iwamoto,T.Nakagawa,T.Ohsawa,+   EVAL-JAN10
# uncertainties: y
# # energies =    48
#   E(MeV)       xs(mb)       xslow(mb)      xsupp(mb)
 5.27870E-01    0.00000E+00    0.00000E+00    0.00000E+00
 5.33122E-01    2.12745E-05    1.57644E-05    2.67846E-05
 6.00000E-01    1.45097E-03    1.07517E-03    1.82677E-03
 7.00000E-01    8.14204E-03    6.03325E-03    1.02508E-02
 8.00000E-01    2.08849E-02    1.32619E-02    2.85079E-02
 9.00000E-01    3.84906E-02    2.44415E-02    5.25397E-02
 1.00000E+00    6.00490E-02    3.95122E-02    8.05858E-02
 1.30000E+00    1.29005E-01    8.90134E-02    1.68997E-01
 1.60000E+00    1.82858E-01    1.27635E-01    2.38081E-01
 1.80000E+00    1.94559E-01    1.35802E-01    2.53316E-01
 2.00000E+00    1.88233E-01    1.36281E-01    2.40185E-01
 2.30000E+00    1.55606E-01    1.12659E-01    1.98553E-01
 2.50000E+00    1.26804E-01    1.02458E-01    1.51150E-01
 2.70000E+00    9.86310E-02    7.96938E-02    1.17568E-01
 3.00000E+00    1.77323E-01    1.47355E-01    2.07291E-01
 3.50000E+00    1.36888E-01    1.12522E-01    1.61254E-01
 4.00000E+00    1.13237E-01    9.16087E-02    1.34865E-01
 4.50000E+00    9.86859E-02    7.98369E-02    1.17535E-01
 5.00000E+00    8.85824E-02    7.04230E-02    1.06742E-01
 5.50000E+00    8.05704E-02    6.40535E-02    9.70873E-02
 6.00000E+00    7.53219E-02    5.95796E-02    9.10642E-02
 6.50000E+00    7.31793E-02    5.78848E-02    8.84738E-02
 7.00000E+00    6.74932E-02    5.33196E-02    8.16668E-02
 7.50000E+00    6.42446E-02    5.07532E-02    7.77360E-02
 8.00000E+00    6.45631E-02    5.11985E-02    7.79277E-02
 8.50000E+00    6.24789E-02    4.95458E-02    7.54120E-02
 9.00000E+00    5.86048E-02    4.67666E-02    7.04430E-02
 9.50000E+00    5.36724E-02    4.28306E-02    6.45142E-02
 1.00000E+01    5.10996E-02    4.09308E-02    6.12684E-02
 1.05000E+01    4.97390E-02    3.98409E-02    5.96371E-02
 1.10000E+01    4.94034E-02    3.95721E-02    5.92347E-02
 1.15000E+01    4.82982E-02    3.86869E-02    5.79095E-02
 1.20000E+01    4.66997E-02    3.76400E-02    5.57594E-02
 1.25000E+01    4.47207E-02    3.60449E-02    5.33965E-02
 1.30000E+01    4.24931E-02    3.42494E-02    5.07368E-02
 1.35000E+01    4.00370E-02    3.22698E-02    4.78042E-02
 1.40000E+01    3.74869E-02    3.03269E-02    4.46469E-02
 1.45000E+01    3.48475E-02    2.81916E-02    4.15034E-02
 1.50000E+01    3.30905E-02    2.68364E-02    3.93446E-02
 1.55000E+01    3.18520E-02    2.58320E-02    3.78720E-02
 1.60000E+01    3.06786E-02    2.49110E-02    3.64462E-02
 1.65000E+01    3.06731E-02    2.49066E-02    3.64396E-02
 1.70000E+01    3.05730E-02    2.48253E-02    3.63207E-02
 1.75000E+01    3.03481E-02    2.46427E-02    3.60535E-02
 1.80000E+01    2.99976E-02    2.45380E-02    3.54572E-02
 1.85000E+01    2.95717E-02    2.41897E-02    3.49538E-02
 1.95000E+01    2.85236E-02    2.33323E-02    3.37149E-02
 2.00000E+01    2.79297E-02    2.28465E-02    3.30129E-02
