# n + Am241 : (n,n'08)  
# jendl4.0   O.Iwamoto,T.Nakagawa,T.Ohsawa,+   EVAL-JAN10
# uncertainties: y
# # energies =    62
#   E(MeV)       xs(mb)       xslow(mb)      xsupp(mb)
 2.74142E-01    0.00000E+00    0.00000E+00    0.00000E+00
 2.74343E-01    1.90240E-04    1.45534E-04    2.34946E-04
 3.00000E-01    2.77228E-01    2.12079E-01    3.42377E-01
 3.21138E-01    6.95793E-01    5.32282E-01    8.59304E-01
 3.21158E-01    6.95234E-01    5.31854E-01    8.58614E-01
 3.82695E-01    2.16872E+00    1.65907E+00    2.67837E+00
 4.00000E-01    2.62947E+00    2.02995E+00    3.22899E+00
 4.19930E-01    3.23855E+00    2.50016E+00    3.97694E+00
 4.54996E-01    4.48057E+00    3.45900E+00    5.50214E+00
 4.60921E-01    4.71245E+00    3.63801E+00    5.78689E+00
 4.73786E-01    5.20763E+00    4.02029E+00    6.39497E+00
 4.97071E-01    6.07959E+00    4.69344E+00    7.46574E+00
 5.00000E-01    6.19259E+00    4.78068E+00    7.60450E+00
 5.06562E-01    6.42434E+00    4.95959E+00    7.88909E+00
 5.27870E-01    7.14517E+00    5.51607E+00    8.77427E+00
 5.33122E-01    7.32592E+00    5.65561E+00    8.99623E+00
 6.00000E-01    9.61401E+00    7.30665E+00    1.19214E+01
 7.00000E-01    1.21640E+01    9.24464E+00    1.50834E+01
 8.00000E-01    1.25666E+01    9.50035E+00    1.56328E+01
 9.00000E-01    1.17045E+01    8.84860E+00    1.45604E+01
 1.00000E+00    1.06859E+01    8.29226E+00    1.30795E+01
 1.30000E+00    8.04179E+00    6.20826E+00    9.87532E+00
 1.60000E+00    5.97825E+00    4.40597E+00    7.55053E+00
 1.80000E+00    4.70835E+00    3.47005E+00    5.94665E+00
 2.00000E+00    3.55310E+00    2.64706E+00    4.45914E+00
 2.30000E+00    2.15771E+00    1.60749E+00    2.70793E+00
 2.50000E+00    1.47720E+00    1.21721E+00    1.73719E+00
 2.70000E+00    9.89822E-01    8.15613E-01    1.16403E+00
 3.00000E+00    6.00288E-01    5.28253E-01    6.72323E-01
 3.50000E+00    2.52221E-01    2.24477E-01    2.79965E-01
 4.00000E+00    1.32930E-01    1.15516E-01    1.50344E-01
 4.50000E+00    8.81700E-02    7.66197E-02    9.97203E-02
 5.00000E+00    6.90560E-02    5.61425E-02    8.19695E-02
 5.50000E+00    5.93505E-02    4.82520E-02    7.04490E-02
 6.00000E+00    5.38076E-02    4.27770E-02    6.48382E-02
 6.50000E+00    4.99526E-02    3.97123E-02    6.01929E-02
 7.00000E+00    4.73449E-02    3.74498E-02    5.72400E-02
 7.50000E+00    4.49542E-02    3.55588E-02    5.43496E-02
 8.00000E+00    4.30110E-02    3.41507E-02    5.18713E-02
 8.50000E+00    4.08290E-02    3.24182E-02    4.92398E-02
 9.00000E+00    3.89187E-02    3.10571E-02    4.67803E-02
 9.50000E+00    3.69054E-02    2.94505E-02    4.43603E-02
 1.00000E+01    3.50954E-02    2.81114E-02    4.20794E-02
 1.05000E+01    3.33116E-02    2.66826E-02    3.99406E-02
 1.10000E+01    3.17126E-02    2.54018E-02    3.80234E-02
 1.15000E+01    3.02204E-02    2.42065E-02    3.62343E-02
 1.20000E+01    2.88660E-02    2.32371E-02    3.44949E-02
 1.25000E+01    2.76165E-02    2.22313E-02    3.30017E-02
 1.30000E+01    2.64711E-02    2.13092E-02    3.16330E-02
 1.35000E+01    2.53802E-02    2.04311E-02    3.03293E-02
 1.40000E+01    2.43782E-02    1.97220E-02    2.90344E-02
 1.45000E+01    2.34297E-02    1.89546E-02    2.79048E-02
 1.50000E+01    2.25480E-02    1.82864E-02    2.68096E-02
 1.55000E+01    2.17156E-02    1.76114E-02    2.58198E-02
 1.60000E+01    2.09259E-02    1.70128E-02    2.48390E-02
 1.65000E+01    2.02486E-02    1.64621E-02    2.40351E-02
 1.70000E+01    1.95223E-02    1.58716E-02    2.31730E-02
 1.75000E+01    1.88709E-02    1.53420E-02    2.23998E-02
 1.80000E+01    1.83229E-02    1.49515E-02    2.16943E-02
 1.85000E+01    1.78079E-02    1.45312E-02    2.10846E-02
 1.95000E+01    1.68490E-02    1.37488E-02    1.99492E-02
 2.00000E+01    1.64032E-02    1.33850E-02    1.94214E-02
