# n + Am241 : (n,n'18)  
# jendl4.0   O.Iwamoto,T.Nakagawa,T.Ohsawa,+   EVAL-JAN10
# uncertainties: y
# # energies =    49
#   E(MeV)       xs(mb)       xslow(mb)      xsupp(mb)
 5.06562E-01    0.00000E+00    0.00000E+00    0.00000E+00
 5.27870E-01    2.63346E+01    2.33851E+01    2.92841E+01
 5.33122E-01    3.10644E+01    2.75852E+01    3.45436E+01
 6.00000E-01    7.68225E+01    6.82184E+01    8.54266E+01
 7.00000E-01    9.99678E+01    8.87714E+01    1.11164E+02
 8.00000E-01    9.02437E+01    7.46315E+01    1.05856E+02
 9.00000E-01    7.16086E+01    5.92203E+01    8.39969E+01
 1.00000E+00    5.66417E+01    4.70693E+01    6.62141E+01
 1.30000E+00    2.89584E+01    2.44409E+01    3.34759E+01
 1.60000E+00    1.63662E+01    1.35185E+01    1.92139E+01
 1.80000E+00    1.13134E+01    9.34487E+00    1.32819E+01
 2.00000E+00    7.81451E+00    6.16565E+00    9.46337E+00
 2.30000E+00    4.37138E+00    3.44902E+00    5.29374E+00
 2.50000E+00    2.88881E+00    2.36594E+00    3.41168E+00
 2.70000E+00    1.86612E+00    1.52835E+00    2.20389E+00
 3.00000E+00    1.05564E+00    9.18407E-01    1.19287E+00
 3.50000E+00    4.13083E-01    3.66405E-01    4.59761E-01
 4.00000E+00    2.05159E-01    1.77873E-01    2.32445E-01
 4.50000E+00    1.35903E-01    1.17828E-01    1.53978E-01
 5.00000E+00    1.07491E-01    8.70677E-02    1.27914E-01
 5.50000E+00    9.30997E-02    7.54108E-02    1.10789E-01
 6.00000E+00    8.52495E-02    6.76881E-02    1.02811E-01
 6.50000E+00    8.03992E-02    6.38370E-02    9.69614E-02
 7.00000E+00    7.54813E-02    5.97057E-02    9.12569E-02
 7.50000E+00    7.17672E-02    5.67679E-02    8.67665E-02
 8.00000E+00    7.13279E-02    5.66344E-02    8.60214E-02
 8.50000E+00    6.81934E-02    5.41456E-02    8.22412E-02
 9.00000E+00    6.31473E-02    5.03915E-02    7.59031E-02
 9.50000E+00    5.98195E-02    4.77360E-02    7.19030E-02
 1.00000E+01    5.69543E-02    4.56204E-02    6.82882E-02
 1.05000E+01    5.52995E-02    4.42949E-02    6.63041E-02
 1.10000E+01    5.46248E-02    4.37545E-02    6.54951E-02
 1.15000E+01    5.31264E-02    4.25542E-02    6.36986E-02
 1.20000E+01    5.11059E-02    4.11914E-02    6.10204E-02
 1.25000E+01    4.86860E-02    3.92409E-02    5.81311E-02
 1.30000E+01    4.60103E-02    3.70843E-02    5.49363E-02
 1.35000E+01    4.30998E-02    3.47384E-02    5.14612E-02
 1.40000E+01    4.01011E-02    3.24418E-02    4.77604E-02
 1.45000E+01    3.83053E-02    3.09890E-02    4.56216E-02
 1.50000E+01    3.68471E-02    2.98830E-02    4.38112E-02
 1.55000E+01    3.54688E-02    2.87652E-02    4.21724E-02
 1.60000E+01    3.41631E-02    2.77746E-02    4.05516E-02
 1.65000E+01    3.41062E-02    2.77283E-02    4.04841E-02
 1.70000E+01    3.39452E-02    2.75975E-02    4.02930E-02
 1.75000E+01    3.36490E-02    2.73566E-02    3.99414E-02
 1.80000E+01    3.32168E-02    2.71713E-02    3.92623E-02
 1.85000E+01    3.27036E-02    2.67515E-02    3.86557E-02
 1.95000E+01    3.14675E-02    2.57404E-02    3.71946E-02
 2.00000E+01    3.07753E-02    2.51742E-02    3.63764E-02
