# n + Am241 : (n,n'05)  
# jendl4.0   O.Iwamoto,T.Nakagawa,T.Ohsawa,+   EVAL-JAN10
# uncertainties: y
# # energies =    65
#   E(MeV)       xs(mb)       xslow(mb)      xsupp(mb)
 2.34658E-01    0.00000E+00    0.00000E+00    0.00000E+00
 2.36184E-01    3.47503E-03    2.69315E-03    4.25691E-03
 2.40000E-01    2.27527E-02    1.76333E-02    2.78721E-02
 2.74142E-01    4.90964E-01    3.80497E-01    6.01431E-01
 2.74343E-01    4.94837E-01    3.83499E-01    6.06175E-01
 3.00000E-01    1.07366E+00    8.32087E-01    1.31523E+00
 3.21138E-01    1.71873E+00    1.33202E+00    2.10544E+00
 3.21158E-01    1.71738E+00    1.33097E+00    2.10379E+00
 3.82695E-01    3.61511E+00    2.80171E+00    4.42851E+00
 4.00000E-01    4.22202E+00    3.09896E+00    5.34508E+00
 4.19930E-01    5.01010E+00    3.67741E+00    6.34279E+00
 4.54996E-01    6.49315E+00    4.76597E+00    8.22033E+00
 4.60921E-01    6.75352E+00    4.95708E+00    8.54996E+00
 4.73786E-01    7.29673E+00    5.35580E+00    9.23766E+00
 4.97071E-01    8.35408E+00    6.13189E+00    1.05763E+01
 5.00000E-01    8.49056E+00    6.23207E+00    1.07490E+01
 5.06562E-01    8.80402E+00    6.46215E+00    1.11459E+01
 5.27870E-01    9.78222E+00    7.18015E+00    1.23843E+01
 5.33122E-01    1.00260E+01    7.35908E+00    1.26929E+01
 6.00000E-01    1.28648E+01    9.51995E+00    1.62096E+01
 7.00000E-01    1.63877E+01    1.21269E+01    2.06485E+01
 8.00000E-01    1.78793E+01    1.34631E+01    2.22955E+01
 9.00000E-01    1.83258E+01    1.37993E+01    2.28523E+01
 1.00000E+00    1.85155E+01    1.42384E+01    2.27926E+01
 1.30000E+00    2.11312E+01    1.65246E+01    2.57378E+01
 1.60000E+00    2.39948E+01    1.93158E+01    2.86738E+01
 1.80000E+00    2.51501E+01    2.02458E+01    3.00544E+01
 2.00000E+00    2.57074E+01    2.09515E+01    3.04633E+01
 2.30000E+00    2.58777E+01    2.10903E+01    3.06651E+01
 2.50000E+00    2.57628E+01    2.05587E+01    3.09669E+01
 2.70000E+00    2.56561E+01    2.04736E+01    3.08386E+01
 3.00000E+00    2.55509E+01    2.01086E+01    3.09932E+01
 3.50000E+00    2.44493E+01    1.91927E+01    2.97059E+01
 4.00000E+00    2.35807E+01    1.85108E+01    2.86506E+01
 4.50000E+00    2.25010E+01    1.76633E+01    2.73387E+01
 5.00000E+00    2.14472E+01    1.69004E+01    2.59940E+01
 5.50000E+00    2.08985E+01    1.64680E+01    2.53290E+01
 6.00000E+00    2.03538E+01    1.57335E+01    2.49741E+01
 6.50000E+00    1.98102E+01    1.53133E+01    2.43071E+01
 7.00000E+00    1.92675E+01    1.46818E+01    2.38532E+01
 7.50000E+00    1.84963E+01    1.40942E+01    2.28984E+01
 8.00000E+00    1.77255E+01    1.35068E+01    2.19442E+01
 8.50000E+00    1.68739E+01    1.28579E+01    2.08899E+01
 9.00000E+00    1.60225E+01    1.22572E+01    1.97878E+01
 9.50000E+00    1.52262E+01    1.16480E+01    1.88044E+01
 1.00000E+01    1.44300E+01    1.10967E+01    1.77633E+01
 1.05000E+01    1.37027E+01    1.05374E+01    1.68680E+01
 1.10000E+01    1.29754E+01    9.97808E+00    1.59727E+01
 1.15000E+01    1.23112E+01    9.46731E+00    1.51551E+01
 1.20000E+01    1.16471E+01    9.02650E+00    1.42677E+01
 1.25000E+01    1.10572E+01    8.56933E+00    1.35451E+01
 1.30000E+01    1.04675E+01    8.11231E+00    1.28227E+01
 1.35000E+01    9.96279E+00    7.72116E+00    1.22044E+01
 1.40000E+01    9.45813E+00    7.38680E+00    1.15295E+01
 1.45000E+01    9.03285E+00    7.05466E+00    1.10110E+01
 1.50000E+01    8.60767E+00    6.74841E+00    1.04669E+01
 1.55000E+01    8.24586E+00    6.46475E+00    1.00270E+01
 1.60000E+01    7.88407E+00    6.20476E+00    9.56338E+00
 1.65000E+01    7.57135E+00    5.95865E+00    9.18405E+00
 1.70000E+01    7.25866E+00    5.71257E+00    8.80476E+00
 1.75000E+01    6.98723E+00    5.49895E+00    8.47551E+00
 1.80000E+01    6.71581E+00    5.31892E+00    8.11270E+00
 1.85000E+01    6.48185E+00    5.13363E+00    7.83007E+00
 1.95000E+01    6.04749E+00    4.78961E+00    7.30537E+00
 2.00000E+01    5.84708E+00    4.63089E+00    7.06327E+00
