# n + W 182 :  n        
# jendl4.0   N.Iwamoto                         EVAL-Feb10
# uncertainties: n
# # energies =   110
#   E(MeV)       xs(mb) 
 1.00330E-01    0.00000E+00
 1.00661E-01    1.36689E-03
 1.10000E-01    2.12010E-03
 1.20000E-01    2.57833E-03
 1.30000E-01    2.84027E-03
 1.40000E-01    3.00519E-03
 1.50000E-01    3.12504E-03
 1.60000E-01    3.22394E-03
 1.70000E-01    3.29953E-03
 1.80000E-01    3.36495E-03
 1.90000E-01    3.41026E-03
 2.00000E-01    3.45674E-03
 2.25000E-01    1.67484E-02
 2.50000E-01    2.01659E-02
 2.75000E-01    2.22215E-02
 3.00000E-01    2.37768E-02
 3.31253E-01    6.56781E-02
 4.00000E-01    8.55840E-02
 5.00000E-01    2.19630E-01
 6.00000E-01    4.70174E-01
 6.84272E-01    8.54961E-01
 7.00000E-01    8.83614E-01
 8.00000E-01    1.53236E+00
 9.00000E-01    2.49185E+00
 1.00000E+00    3.84358E+00
 1.10000E+00    5.70511E+00
 1.14211E+00    7.20780E+00
 1.15074E+00    7.32205E+00
 1.20000E+00    8.07312E+00
 1.22818E+00    9.45396E+00
 1.26439E+00    1.00218E+01
 1.29631E+00    1.01733E+01
 1.30000E+00    1.00380E+01
 1.33851E+00    1.13073E+01
 1.38146E+00    1.17317E+01
 1.40000E+00    1.16219E+01
 1.45082E+00    1.32373E+01
 1.49576E+00    1.37564E+01
 1.50000E+00    1.37182E+01
 1.51856E+00    1.46093E+01
 1.56185E+00    1.55867E+01
 1.60000E+00    1.59305E+01
 1.63028E+00    1.73070E+01
 1.63255E+00    1.73666E+01
 1.66960E+00    1.82158E+01
 1.70000E+00    1.86912E+01
 1.72139E+00    1.99040E+01
 1.76654E+00    2.13249E+01
 1.77522E+00    2.15202E+01
 1.77878E+00    2.15419E+01
 1.77931E+00    2.15482E+01
 1.80000E+00    2.18873E+01
 1.81972E+00    2.30867E+01
 1.82095E+00    2.31411E+01
 1.82345E+00    2.32492E+01
 1.83969E+00    2.37087E+01
 1.84326E+00    2.38542E+01
 1.86632E+00    2.43054E+01
 1.86719E+00    2.42789E+01
 1.88154E+00    2.42677E+01
 1.89832E+00    2.42087E+01
 1.90000E+00    2.41905E+01
 1.92762E+00    2.53650E+01
 1.92924E+00    2.54134E+01
 1.97014E+00    2.63262E+01
 1.97122E+00    2.63048E+01
 1.97166E+00    2.63054E+01
 1.98205E+00    2.64023E+01
 1.98936E+00    2.64917E+01
 1.99282E+00    2.65261E+01
 2.00000E+00    2.65750E+01
 2.00484E+00    2.66264E+01
 2.25000E+00    2.13624E+02
 2.50000E+00    5.84977E+02
 2.75000E+00    1.15304E+03
 3.00000E+00    1.53254E+03
 3.50000E+00    2.11100E+03
 4.00000E+00    2.38585E+03
 4.50000E+00    2.50423E+03
 5.00000E+00    2.54749E+03
 5.50000E+00    2.55010E+03
 6.00000E+00    2.53328E+03
 6.50000E+00    2.50603E+03
 7.00000E+00    2.47689E+03
 7.50000E+00    2.44877E+03
 8.00000E+00    2.42390E+03
 8.50000E+00    2.29417E+03
 9.00000E+00    1.80705E+03
 9.50000E+00    1.27343E+03
 1.00000E+01    8.78401E+02
 1.05000E+01    6.20486E+02
 1.10000E+01    4.56896E+02
 1.15000E+01    3.52194E+02
 1.20000E+01    2.83208E+02
 1.25000E+01    2.35894E+02
 1.30000E+01    2.01987E+02
 1.35000E+01    1.76776E+02
 1.40000E+01    1.57520E+02
 1.45000E+01    1.42543E+02
 1.50000E+01    1.30740E+02
 1.55000E+01    1.21289E+02
 1.60000E+01    1.13862E+02
 1.65000E+01    1.07356E+02
 1.70000E+01    1.01778E+02
 1.75000E+01    9.68693E+01
 1.80000E+01    9.24540E+01
 1.85000E+01    8.84095E+01
 1.90000E+01    8.46684E+01
 1.95000E+01    8.11750E+01
 2.00000E+01    7.79123E+01
