# n + W 182 : (n,n'31)  
# jendl4.0   N.Iwamoto                         EVAL-Feb10
# uncertainties: n
# # energies =    50
#   E(MeV)       xs(mb) 
 1.89832E+00    0.00000E+00
 1.90000E+00    3.66016E+00
 1.92762E+00    1.30367E+01
 1.92924E+00    1.33317E+01
 1.97014E+00    1.80717E+01
 1.97122E+00    1.81725E+01
 1.97166E+00    1.82140E+01
 1.98205E+00    1.91518E+01
 1.98936E+00    1.97754E+01
 1.99282E+00    2.00604E+01
 2.00000E+00    2.03030E+01
 2.00484E+00    2.05726E+01
 2.25000E+00    2.81299E+01
 2.50000E+00    2.71522E+01
 2.75000E+00    2.05918E+01
 3.00000E+00    1.56461E+01
 3.50000E+00    7.20530E+00
 4.00000E+00    3.23317E+00
 4.50000E+00    1.53780E+00
 5.00000E+00    8.35190E-01
 5.50000E+00    5.42772E-01
 6.00000E+00    4.15340E-01
 6.50000E+00    3.53121E-01
 7.00000E+00    3.16993E-01
 7.50000E+00    2.91306E-01
 8.00000E+00    2.70284E-01
 8.50000E+00    2.51895E-01
 9.00000E+00    2.35447E-01
 9.50000E+00    2.20636E-01
 1.00000E+01    2.07208E-01
 1.05000E+01    1.94981E-01
 1.10000E+01    1.83735E-01
 1.15000E+01    1.73315E-01
 1.20000E+01    1.63619E-01
 1.25000E+01    1.54596E-01
 1.30000E+01    1.46211E-01
 1.35000E+01    1.38441E-01
 1.40000E+01    1.31264E-01
 1.45000E+01    1.24654E-01
 1.50000E+01    1.18573E-01
 1.55000E+01    1.12972E-01
 1.60000E+01    1.07797E-01
 1.65000E+01    1.02988E-01
 1.70000E+01    9.84880E-02
 1.75000E+01    9.42446E-02
 1.80000E+01    9.02159E-02
 1.85000E+01    8.63707E-02
 1.90000E+01    8.26923E-02
 1.95000E+01    7.91674E-02
 2.00000E+01    7.57966E-02
