# n + W 182 : (n,n'29)  
# jendl4.0   N.Iwamoto                         EVAL-Feb10
# uncertainties: n
# # energies =    52
#   E(MeV)       xs(mb) 
 1.86719E+00    0.00000E+00
 1.88154E+00    2.14796E+01
 1.89832E+00    3.01811E+01
 1.90000E+00    3.08856E+01
 1.92762E+00    4.03845E+01
 1.92924E+00    4.08664E+01
 1.97014E+00    5.11217E+01
 1.97122E+00    5.11735E+01
 1.97166E+00    5.12357E+01
 1.98205E+00    5.30602E+01
 1.98936E+00    5.44026E+01
 1.99282E+00    5.50330E+01
 2.00000E+00    5.63144E+01
 2.00484E+00    5.71779E+01
 2.25000E+00    8.12024E+01
 2.50000E+00    8.11362E+01
 2.75000E+00    6.27821E+01
 3.00000E+00    4.78913E+01
 3.50000E+00    2.24181E+01
 4.00000E+00    9.78992E+00
 4.50000E+00    4.17178E+00
 5.00000E+00    1.78114E+00
 5.50000E+00    7.88214E-01
 6.00000E+00    3.80391E-01
 6.50000E+00    2.12167E-01
 7.00000E+00    1.41518E-01
 7.50000E+00    1.09884E-01
 8.00000E+00    9.37615E-02
 8.50000E+00    8.40188E-02
 9.00000E+00    7.71207E-02
 9.50000E+00    7.16608E-02
 1.00000E+01    6.70290E-02
 1.05000E+01    6.29483E-02
 1.10000E+01    5.92555E-02
 1.15000E+01    5.58615E-02
 1.20000E+01    5.27156E-02
 1.25000E+01    4.97950E-02
 1.30000E+01    4.70847E-02
 1.35000E+01    4.45754E-02
 1.40000E+01    4.22598E-02
 1.45000E+01    4.01282E-02
 1.50000E+01    3.81683E-02
 1.55000E+01    3.63634E-02
 1.60000E+01    3.46958E-02
 1.65000E+01    3.31466E-02
 1.70000E+01    3.16966E-02
 1.75000E+01    3.03292E-02
 1.80000E+01    2.90309E-02
 1.85000E+01    2.77917E-02
 1.90000E+01    2.66061E-02
 1.95000E+01    2.54700E-02
 2.00000E+01    2.43837E-02
