# n + W 182 : (n,n'24)  
# jendl4.0   N.Iwamoto                         EVAL-Feb10
# uncertainties: n
# # energies =    57
#   E(MeV)       xs(mb) 
 1.82095E+00    0.00000E+00
 1.82345E+00    1.42837E-01
 1.83969E+00    3.79678E-01
 1.84326E+00    4.11747E-01
 1.86632E+00    6.33561E-01
 1.86719E+00    6.42088E-01
 1.88154E+00    7.86978E-01
 1.89832E+00    9.66248E-01
 1.90000E+00    9.85077E-01
 1.92762E+00    1.31454E+00
 1.92924E+00    1.33451E+00
 1.97014E+00    1.88763E+00
 1.97122E+00    1.90343E+00
 1.97166E+00    1.90994E+00
 1.98205E+00    2.05092E+00
 1.98936E+00    2.15311E+00
 1.99282E+00    2.20243E+00
 2.00000E+00    2.30694E+00
 2.00484E+00    2.37874E+00
 2.25000E+00    6.15788E+00
 2.50000E+00    8.63393E+00
 2.75000E+00    8.60190E+00
 3.00000E+00    8.13996E+00
 3.50000E+00    5.53946E+00
 4.00000E+00    3.25973E+00
 4.50000E+00    1.73273E+00
 5.00000E+00    8.62972E-01
 5.50000E+00    4.15190E-01
 6.00000E+00    2.00012E-01
 6.50000E+00    1.00612E-01
 7.00000E+00    5.61037E-02
 7.50000E+00    3.61125E-02
 8.00000E+00    2.67396E-02
 8.50000E+00    2.19450E-02
 9.00000E+00    1.91841E-02
 9.50000E+00    1.73716E-02
 1.00000E+01    1.60318E-02
 1.05000E+01    1.49503E-02
 1.10000E+01    1.40206E-02
 1.15000E+01    1.31904E-02
 1.20000E+01    1.24327E-02
 1.25000E+01    1.17354E-02
 1.30000E+01    1.10915E-02
 1.35000E+01    1.04971E-02
 1.40000E+01    9.94979E-03
 1.45000E+01    9.44665E-03
 1.50000E+01    8.98445E-03
 1.55000E+01    8.55907E-03
 1.60000E+01    8.16613E-03
 1.65000E+01    7.80094E-03
 1.70000E+01    7.45908E-03
 1.75000E+01    7.13664E-03
 1.80000E+01    6.83046E-03
 1.85000E+01    6.53815E-03
 1.90000E+01    6.25850E-03
 1.95000E+01    5.99052E-03
 2.00000E+01    5.73432E-03
