# n + W 182 : (n,n'11)  
# jendl4.0   N.Iwamoto                         EVAL-Feb10
# uncertainties: n
# # energies =    74
#   E(MeV)       xs(mb) 
 1.45082E+00    0.00000E+00
 1.49576E+00    1.06901E+01
 1.50000E+00    1.13274E+01
 1.51856E+00    1.43981E+01
 1.56185E+00    2.11289E+01
 1.60000E+00    2.69478E+01
 1.63028E+00    3.17856E+01
 1.63255E+00    3.21350E+01
 1.66960E+00    3.77798E+01
 1.70000E+00    4.27082E+01
 1.72139E+00    4.58668E+01
 1.76654E+00    5.25181E+01
 1.77522E+00    5.38034E+01
 1.77878E+00    5.41444E+01
 1.77931E+00    5.42071E+01
 1.80000E+00    5.69821E+01
 1.81972E+00    5.97085E+01
 1.82095E+00    5.98712E+01
 1.82345E+00    6.02070E+01
 1.83969E+00    6.18358E+01
 1.84326E+00    6.22614E+01
 1.86632E+00    6.40757E+01
 1.86719E+00    6.40378E+01
 1.88154E+00    6.45158E+01
 1.89832E+00    6.55520E+01
 1.90000E+00    6.56650E+01
 1.92762E+00    6.75576E+01
 1.92924E+00    6.76724E+01
 1.97014E+00    7.05606E+01
 1.97122E+00    7.05251E+01
 1.97166E+00    7.05364E+01
 1.98205E+00    7.10458E+01
 1.98936E+00    7.14700E+01
 1.99282E+00    7.16726E+01
 2.00000E+00    7.21003E+01
 2.00484E+00    7.23893E+01
 2.25000E+00    7.54680E+01
 2.50000E+00    6.87496E+01
 2.75000E+00    5.20521E+01
 3.00000E+00    4.01095E+01
 3.50000E+00    2.02051E+01
 4.00000E+00    9.72288E+00
 4.50000E+00    4.68103E+00
 5.00000E+00    2.37141E+00
 5.50000E+00    1.33534E+00
 6.00000E+00    8.70406E-01
 6.50000E+00    6.53096E-01
 7.00000E+00    5.42866E-01
 7.50000E+00    4.78257E-01
 8.00000E+00    4.33897E-01
 8.50000E+00    3.99535E-01
 9.00000E+00    3.70957E-01
 9.50000E+00    3.46220E-01
 1.00000E+01    3.24232E-01
 1.05000E+01    3.04381E-01
 1.10000E+01    2.86170E-01
 1.15000E+01    2.69324E-01
 1.20000E+01    2.53693E-01
 1.25000E+01    2.39193E-01
 1.30000E+01    2.25786E-01
 1.35000E+01    2.13440E-01
 1.40000E+01    2.02115E-01
 1.45000E+01    1.91749E-01
 1.50000E+01    1.82257E-01
 1.55000E+01    1.73541E-01
 1.60000E+01    1.65495E-01
 1.65000E+01    1.58018E-01
 1.70000E+01    1.51013E-01
 1.75000E+01    1.44398E-01
 1.80000E+01    1.38109E-01
 1.85000E+01    1.32099E-01
 1.90000E+01    1.26344E-01
 1.95000E+01    1.20829E-01
 2.00000E+01    1.15564E-01
