# n + W 182 : (n,n'05)  
# jendl4.0   N.Iwamoto                         EVAL-Feb10
# uncertainties: n
# # energies =    83
#   E(MeV)       xs(mb) 
 1.15074E+00    0.00000E+00
 1.20000E+00    2.13106E-04
 1.22818E+00    5.08183E-04
 1.26439E+00    1.17019E-03
 1.29631E+00    2.12146E-03
 1.30000E+00    2.26034E-03
 1.33851E+00    4.13236E-03
 1.38146E+00    7.41533E-03
 1.40000E+00    9.39786E-03
 1.45082E+00    1.64540E-02
 1.49576E+00    2.51716E-02
 1.50000E+00    2.59949E-02
 1.51856E+00    3.04450E-02
 1.56185E+00    4.25323E-02
 1.60000E+00    5.49343E-02
 1.63028E+00    6.68806E-02
 1.63255E+00    6.67193E-02
 1.66960E+00    7.95158E-02
 1.70000E+00    8.98595E-02
 1.72139E+00    9.97032E-02
 1.76654E+00    1.23942E-01
 1.77522E+00    1.27472E-01
 1.77878E+00    1.29292E-01
 1.77931E+00    1.29081E-01
 1.80000E+00    1.35779E-01
 1.81972E+00    1.45547E-01
 1.82095E+00    1.45433E-01
 1.82345E+00    1.45349E-01
 1.83969E+00    1.51585E-01
 1.84326E+00    1.52321E-01
 1.86632E+00    1.62703E-01
 1.86719E+00    1.63150E-01
 1.88154E+00    1.70792E-01
 1.89832E+00    1.80545E-01
 1.90000E+00    1.81565E-01
 1.92762E+00    1.99326E-01
 1.92924E+00    2.00241E-01
 1.97014E+00    2.29434E-01
 1.97122E+00    2.30261E-01
 1.97166E+00    2.30519E-01
 1.98205E+00    2.36915E-01
 1.98936E+00    2.41408E-01
 1.99282E+00    2.43657E-01
 2.00000E+00    2.48828E-01
 2.00484E+00    2.52460E-01
 2.25000E+00    4.81914E-01
 2.50000E+00    7.66707E-01
 2.75000E+00    9.65948E-01
 3.00000E+00    1.48520E+00
 3.50000E+00    1.48577E+00
 4.00000E+00    1.23405E+00
 4.50000E+00    9.43318E-01
 5.00000E+00    7.22236E-01
 5.50000E+00    5.84213E-01
 6.00000E+00    5.06582E-01
 6.50000E+00    4.58489E-01
 7.00000E+00    4.22174E-01
 7.50000E+00    3.90176E-01
 8.00000E+00    3.62891E-01
 8.50000E+00    3.40931E-01
 9.00000E+00    3.23652E-01
 9.50000E+00    3.09834E-01
 1.00000E+01    2.98006E-01
 1.05000E+01    2.87322E-01
 1.10000E+01    2.77303E-01
 1.15000E+01    2.67763E-01
 1.20000E+01    2.58668E-01
 1.25000E+01    2.50109E-01
 1.30000E+01    2.42322E-01
 1.35000E+01    2.35616E-01
 1.40000E+01    2.30258E-01
 1.45000E+01    2.26399E-01
 1.50000E+01    2.24063E-01
 1.55000E+01    2.23191E-01
 1.60000E+01    2.23703E-01
 1.65000E+01    2.25522E-01
 1.70000E+01    2.28569E-01
 1.75000E+01    2.32747E-01
 1.80000E+01    2.37897E-01
 1.85000E+01    2.43752E-01
 1.90000E+01    2.49916E-01
 1.95000E+01    2.55903E-01
 2.00000E+01    2.61235E-01
