# n + W 182 : (n,n'22)  
# jendl4.0   N.Iwamoto                         EVAL-Feb10
# uncertainties: n
# # energies =    60
#   E(MeV)       xs(mb) 
 1.77931E+00    0.00000E+00
 1.80000E+00    4.68110E-02
 1.81972E+00    1.02744E-01
 1.82095E+00    1.06046E-01
 1.82345E+00    1.13043E-01
 1.83969E+00    1.70841E-01
 1.84326E+00    1.83950E-01
 1.86632E+00    2.87504E-01
 1.86719E+00    2.91985E-01
 1.88154E+00    3.70549E-01
 1.89832E+00    4.71712E-01
 1.90000E+00    4.82630E-01
 1.92762E+00    6.81582E-01
 1.92924E+00    6.94417E-01
 1.97014E+00    1.04469E+00
 1.97122E+00    1.05481E+00
 1.97166E+00    1.05897E+00
 1.98205E+00    1.15431E+00
 1.98936E+00    1.22567E+00
 1.99282E+00    1.26043E+00
 2.00000E+00    1.33454E+00
 2.00484E+00    1.38583E+00
 2.25000E+00    4.29691E+00
 2.50000E+00    6.72178E+00
 2.75000E+00    7.32030E+00
 3.00000E+00    7.53312E+00
 3.50000E+00    5.54314E+00
 4.00000E+00    3.47841E+00
 4.50000E+00    2.01256E+00
 5.00000E+00    1.15015E+00
 5.50000E+00    6.91387E-01
 6.00000E+00    4.59897E-01
 6.50000E+00    3.43268E-01
 7.00000E+00    2.82325E-01
 7.50000E+00    2.46908E-01
 8.00000E+00    2.23256E-01
 8.50000E+00    2.05350E-01
 9.00000E+00    1.90660E-01
 9.50000E+00    1.78039E-01
 1.00000E+01    1.66876E-01
 1.05000E+01    1.56836E-01
 1.10000E+01    1.47659E-01
 1.15000E+01    1.39181E-01
 1.20000E+01    1.31304E-01
 1.25000E+01    1.23987E-01
 1.30000E+01    1.17199E-01
 1.35000E+01    1.10921E-01
 1.40000E+01    1.05133E-01
 1.45000E+01    9.98120E-02
 1.50000E+01    9.49238E-02
 1.55000E+01    9.04251E-02
 1.60000E+01    8.62693E-02
 1.65000E+01    8.24082E-02
 1.70000E+01    7.87939E-02
 1.75000E+01    7.53842E-02
 1.80000E+01    7.21458E-02
 1.85000E+01    6.90538E-02
 1.90000E+01    6.60950E-02
 1.95000E+01    6.32595E-02
 2.00000E+01    6.05490E-02
