# n + W 182 : (n,xp)    
# jendl4.0   N.Iwamoto                         EVAL-Feb10
# 
# # energies =   110
#   E(MeV)        xs(mb) 
 1.00330E-01    0.00000E+00
 1.00661E-01    0.00000E+00
 1.10000E-01    0.00000E+00
 1.20000E-01    0.00000E+00
 1.30000E-01    0.00000E+00
 1.40000E-01    0.00000E+00
 1.50000E-01    0.00000E+00
 1.60000E-01    0.00000E+00
 1.70000E-01    0.00000E+00
 1.80000E-01    0.00000E+00
 1.90000E-01    0.00000E+00
 2.00000E-01    0.00000E+00
 2.25000E-01    0.00000E+00
 2.50000E-01    0.00000E+00
 2.75000E-01    0.00000E+00
 3.00000E-01    0.00000E+00
 3.31253E-01    0.00000E+00
 4.00000E-01    0.00000E+00
 5.00000E-01    0.00000E+00
 6.00000E-01    0.00000E+00
 6.84272E-01    0.00000E+00
 7.00000E-01    0.00000E+00
 8.00000E-01    0.00000E+00
 9.00000E-01    0.00000E+00
 1.00000E+00    0.00000E+00
 1.10000E+00    3.48168E-17
 1.14211E+00    5.94266E-17
 1.15074E+00    6.46099E-17
 1.20000E+00    9.47895E-17
 1.22818E+00    1.12173E-16
 1.26439E+00    1.34518E-16
 1.29631E+00    1.58706E-16
 1.30000E+00    1.62541E-16
 1.33851E+00    2.10684E-16
 1.38146E+00    2.68227E-16
 1.40000E+00    2.93115E-16
 1.45082E+00    3.62545E-16
 1.49576E+00    4.24262E-16
 1.50000E+00    4.30088E-16
 1.51856E+00    4.56518E-16
 1.56185E+00    5.48178E-16
 1.60000E+00    6.34415E-16
 1.63028E+00    7.06090E-16
 1.63255E+00    7.11507E-16
 1.66960E+00    8.00410E-16
 1.70000E+00    8.73481E-16
 1.72139E+00    9.25022E-16
 1.76654E+00    1.03382E-15
 1.77522E+00    1.05473E-15
 1.77878E+00    1.06331E-15
 1.77931E+00    1.06459E-15
 1.80000E+00    1.11445E-15
 1.81972E+00    1.16197E-15
 1.82095E+00    1.16493E-15
 1.82345E+00    1.17095E-15
 1.83969E+00    1.21009E-15
 1.84326E+00    1.21869E-15
 1.86632E+00    1.27426E-15
 1.86719E+00    1.27635E-15
 1.88154E+00    1.31093E-15
 1.89832E+00    1.35137E-15
 1.90000E+00    1.35541E-15
 1.92762E+00    1.42197E-15
 1.92924E+00    1.42587E-15
 1.97014E+00    1.52443E-15
 1.97122E+00    1.52703E-15
 1.97166E+00    1.52809E-15
 1.98205E+00    1.55313E-15
 1.98936E+00    1.57074E-15
 1.99282E+00    1.57908E-15
 2.00000E+00    1.59638E-15
 2.00484E+00    1.60804E-15
 2.25000E+00    2.19880E-15
 2.50000E+00    1.77560E-13
 2.75000E+00    1.03620E-11
 3.00000E+00    2.65480E-10
 3.50000E+00    2.96180E-08
 4.00000E+00    7.79960E-07
 4.50000E+00    8.25495E-06
 5.00000E+00    4.71038E-05
 5.50000E+00    1.74414E-04
 6.00000E+00    4.80613E-04
 6.50000E+00    1.10451E-03
 7.00000E+00    2.36990E-03
 7.50000E+00    5.13152E-03
 8.00000E+00    1.13703E-02
 8.50000E+00    2.50426E-02
 9.00000E+00    5.30612E-02
 9.50000E+00    1.06044E-01
 1.00000E+01    1.98271E-01
 1.05000E+01    3.46553E-01
 1.10000E+01    5.68225E-01
 1.15000E+01    8.79224E-01
 1.20000E+01    1.29297E+00
 1.25000E+01    1.82023E+00
 1.30000E+01    2.46954E+00
 1.35000E+01    3.24767E+00
 1.40000E+01    4.15976E+00
 1.45000E+01    5.20927E+00
 1.50000E+01    6.39790E+00
 1.55000E+01    7.72527E+00
 1.60000E+01    9.18906E+00
 1.65000E+01    1.07846E+01
 1.70000E+01    1.25056E+01
 1.75000E+01    1.43430E+01
 1.80000E+01    1.62873E+01
 1.85000E+01    1.83277E+01
 1.90000E+01    2.04560E+01
 1.95000E+01    2.26630E+01
 2.00000E+01    2.49442E+01
