# n + W 182 : (n,n'28)  
# jendl4.0   N.Iwamoto                         EVAL-Feb10
# uncertainties: n
# # energies =    53
#   E(MeV)       xs(mb) 
 1.86632E+00    0.00000E+00
 1.86719E+00    5.90570E+00
 1.88154E+00    2.21091E+01
 1.89832E+00    3.06095E+01
 1.90000E+00    3.13051E+01
 1.92762E+00    4.07145E+01
 1.92924E+00    4.11939E+01
 1.97014E+00    5.13887E+01
 1.97122E+00    5.14393E+01
 1.97166E+00    5.15012E+01
 1.98205E+00    5.33196E+01
 1.98936E+00    5.46588E+01
 1.99282E+00    5.52879E+01
 2.00000E+00    5.65666E+01
 2.00484E+00    5.74286E+01
 2.25000E+00    8.13772E+01
 2.50000E+00    8.12204E+01
 2.75000E+00    6.28366E+01
 3.00000E+00    4.79834E+01
 3.50000E+00    2.24979E+01
 4.00000E+00    9.86628E+00
 4.50000E+00    4.24563E+00
 5.00000E+00    1.85199E+00
 5.50000E+00    8.55574E-01
 6.00000E+00    4.44136E-01
 6.50000E+00    2.72242E-01
 7.00000E+00    1.97966E-01
 7.50000E+00    1.62764E-01
 8.00000E+00    1.43219E-01
 8.50000E+00    1.30261E-01
 9.00000E+00    1.20400E-01
 9.50000E+00    1.12238E-01
 1.00000E+01    1.05143E-01
 1.05000E+01    9.88136E-02
 1.10000E+01    9.30492E-02
 1.15000E+01    8.77345E-02
 1.20000E+01    8.28006E-02
 1.25000E+01    7.82163E-02
 1.30000E+01    7.39605E-02
 1.35000E+01    7.00196E-02
 1.40000E+01    6.63824E-02
 1.45000E+01    6.30342E-02
 1.50000E+01    5.99555E-02
 1.55000E+01    5.71204E-02
 1.60000E+01    5.45009E-02
 1.65000E+01    5.20672E-02
 1.70000E+01    4.97896E-02
 1.75000E+01    4.76416E-02
 1.80000E+01    4.56021E-02
 1.85000E+01    4.36553E-02
 1.90000E+01    4.17929E-02
 1.95000E+01    4.00082E-02
 2.00000E+01    3.83018E-02
