# n + W 182 : (n,p)     
# jendl4.0   N.Iwamoto                         EVAL-Feb10
# uncertainties: n
# # energies =    79
#   E(MeV)       xs(mb) 
 1.03764E+00    0.00000E+00
 1.05399E+00    8.05390E-18
 1.13601E+00    5.57630E-17
 1.15259E+00    6.57210E-17
 1.18861E+00    8.77720E-17
 1.20158E+00    9.57630E-17
 1.21184E+00    1.02090E-16
 1.27624E+00    1.41830E-16
 1.28899E+00    1.51100E-16
 1.30816E+00    1.71020E-16
 1.30954E+00    1.72530E-16
 1.33220E+00    2.02250E-16
 1.35579E+00    2.33780E-16
 1.37411E+00    2.58360E-16
 1.40016E+00    2.93330E-16
 1.40400E+00    2.98540E-16
 1.42994E+00    3.33940E-16
 1.43617E+00    3.42460E-16
 1.44249E+00    3.51110E-16
 1.45121E+00    3.63080E-16
 1.48370E+00    4.07690E-16
 1.51583E+00    4.51840E-16
 1.52033E+00    4.59550E-16
 1.52861E+00    4.75310E-16
 1.53179E+00    4.81450E-16
 1.54603E+00    5.12680E-16
 1.56009E+00    5.44230E-16
 1.58777E+00    6.06320E-16
 1.59902E+00    6.32130E-16
 1.60646E+00    6.49480E-16
 1.61244E+00    6.63600E-16
 1.62028E+00    6.82250E-16
 1.62206E+00    6.86490E-16
 1.62414E+00    6.91440E-16
 1.63388E+00    7.14680E-16
 1.66955E+00    8.00290E-16
 1.68865E+00    8.46150E-16
 1.68888E+00    8.46700E-16
 1.69246E+00    8.55320E-16
 1.69362E+00    8.58120E-16
 1.70115E+00    8.76250E-16
 2.25000E+00    2.19880E-15
 2.50000E+00    1.77560E-13
 2.75000E+00    1.03620E-11
 3.00000E+00    2.65480E-10
 3.50000E+00    2.96180E-08
 4.00000E+00    7.79960E-07
 4.50000E+00    8.25495E-06
 5.00000E+00    4.71038E-05
 5.50000E+00    1.74414E-04
 6.00000E+00    4.80613E-04
 6.50000E+00    1.10451E-03
 7.00000E+00    2.36990E-03
 7.50000E+00    5.13152E-03
 8.00000E+00    1.13703E-02
 8.50000E+00    2.50426E-02
 9.00000E+00    5.30612E-02
 9.50000E+00    1.06044E-01
 1.00000E+01    1.98271E-01
 1.05000E+01    3.46548E-01
 1.10000E+01    5.68181E-01
 1.15000E+01    8.78986E-01
 1.20000E+01    1.29200E+00
 1.25000E+01    1.81703E+00
 1.30000E+01    2.46035E+00
 1.35000E+01    3.22396E+00
 1.40000E+01    4.10380E+00
 1.45000E+01    5.08758E+00
 1.50000E+01    6.15310E+00
 1.55000E+01    7.26875E+00
 1.60000E+01    8.39787E+00
 1.65000E+01    9.50800E+00
 1.70000E+01    1.05665E+01
 1.75000E+01    1.15569E+01
 1.80000E+01    1.24717E+01
 1.85000E+01    1.32875E+01
 1.90000E+01    1.40195E+01
 1.95000E+01    1.46351E+01
 2.00000E+01    1.51467E+01
