# n + W 182 : (n,n'06)  
# jendl4.0   N.Iwamoto                         EVAL-Feb10
# uncertainties: n
# # energies =    81
#   E(MeV)       xs(mb) 
 1.22818E+00    0.00000E+00
 1.26439E+00    1.13425E+02
 1.29631E+00    1.43130E+02
 1.30000E+00    1.45456E+02
 1.33851E+00    1.73421E+02
 1.38146E+00    1.95021E+02
 1.40000E+00    2.02194E+02
 1.45082E+00    2.22505E+02
 1.49576E+00    2.37565E+02
 1.50000E+00    2.38346E+02
 1.51856E+00    2.42936E+02
 1.56185E+00    2.53145E+02
 1.60000E+00    2.60535E+02
 1.63028E+00    2.66003E+02
 1.63255E+00    2.66214E+02
 1.66960E+00    2.69329E+02
 1.70000E+00    2.71586E+02
 1.72139E+00    2.73174E+02
 1.76654E+00    2.76067E+02
 1.77522E+00    2.76559E+02
 1.77878E+00    2.75893E+02
 1.77931E+00    2.75865E+02
 1.80000E+00    2.75870E+02
 1.81972E+00    2.76344E+02
 1.82095E+00    2.76375E+02
 1.82345E+00    2.76437E+02
 1.83969E+00    2.75932E+02
 1.84326E+00    2.75918E+02
 1.86632E+00    2.73471E+02
 1.86719E+00    2.72618E+02
 1.88154E+00    2.66213E+02
 1.89832E+00    2.60412E+02
 1.90000E+00    2.59610E+02
 1.92762E+00    2.52848E+02
 1.92924E+00    2.52524E+02
 1.97014E+00    2.43827E+02
 1.97122E+00    2.43068E+02
 1.97166E+00    2.42889E+02
 1.98205E+00    2.40057E+02
 1.98936E+00    2.38457E+02
 1.99282E+00    2.37732E+02
 2.00000E+00    2.35773E+02
 2.00484E+00    2.34726E+02
 2.25000E+00    1.88410E+02
 2.50000E+00    1.40988E+02
 2.75000E+00    9.45260E+01
 3.00000E+00    6.53608E+01
 3.50000E+00    2.79683E+01
 4.00000E+00    1.17544E+01
 4.50000E+00    5.02338E+00
 5.00000E+00    2.27352E+00
 5.50000E+00    1.14956E+00
 6.00000E+00    6.83173E-01
 6.50000E+00    4.80518E-01
 7.00000E+00    3.85040E-01
 7.50000E+00    3.33051E-01
 8.00000E+00    2.99490E-01
 8.50000E+00    2.74546E-01
 9.00000E+00    2.54286E-01
 9.50000E+00    2.36954E-01
 1.00000E+01    2.21629E-01
 1.05000E+01    2.07825E-01
 1.10000E+01    1.95182E-01
 1.15000E+01    1.83489E-01
 1.20000E+01    1.72659E-01
 1.25000E+01    1.62635E-01
 1.30000E+01    1.53395E-01
 1.35000E+01    1.44914E-01
 1.40000E+01    1.37158E-01
 1.45000E+01    1.30072E-01
 1.50000E+01    1.23590E-01
 1.55000E+01    1.17641E-01
 1.60000E+01    1.12150E-01
 1.65000E+01    1.07045E-01
 1.70000E+01    1.02260E-01
 1.75000E+01    9.77385E-02
 1.80000E+01    9.34373E-02
 1.85000E+01    8.93248E-02
 1.90000E+01    8.53868E-02
 1.95000E+01    8.16162E-02
 2.00000E+01    7.80213E-02
