# n + W 182 : (n,n'16)  
# jendl4.0   N.Iwamoto                         EVAL-Feb10
# uncertainties: n
# # energies =    67
#   E(MeV)       xs(mb) 
 1.63255E+00    0.00000E+00
 1.66960E+00    4.03807E+00
 1.70000E+00    5.82122E+00
 1.72139E+00    7.03452E+00
 1.76654E+00    9.61279E+00
 1.77522E+00    1.01223E+01
 1.77878E+00    1.03208E+01
 1.77931E+00    1.03487E+01
 1.80000E+00    1.15182E+01
 1.81972E+00    1.26145E+01
 1.82095E+00    1.26775E+01
 1.82345E+00    1.28084E+01
 1.83969E+00    1.35959E+01
 1.84326E+00    1.37780E+01
 1.86632E+00    1.49480E+01
 1.86719E+00    1.49837E+01
 1.88154E+00    1.56724E+01
 1.89832E+00    1.64347E+01
 1.90000E+00    1.65111E+01
 1.92762E+00    1.77702E+01
 1.92924E+00    1.78452E+01
 1.97014E+00    1.97568E+01
 1.97122E+00    1.97922E+01
 1.97166E+00    1.98103E+01
 1.98205E+00    2.02620E+01
 1.98936E+00    2.05933E+01
 1.99282E+00    2.07502E+01
 2.00000E+00    2.10783E+01
 2.00484E+00    2.12994E+01
 2.25000E+00    2.82840E+01
 2.50000E+00    2.88767E+01
 2.75000E+00    2.45979E+01
 3.00000E+00    2.05275E+01
 3.50000E+00    1.17531E+01
 4.00000E+00    6.18274E+00
 4.50000E+00    3.11451E+00
 5.00000E+00    1.56902E+00
 5.50000E+00    8.30592E-01
 6.00000E+00    4.88133E-01
 6.50000E+00    3.29029E-01
 7.00000E+00    2.53007E-01
 7.50000E+00    2.13222E-01
 8.00000E+00    1.89241E-01
 8.50000E+00    1.72492E-01
 9.00000E+00    1.59436E-01
 9.50000E+00    1.48534E-01
 1.00000E+01    1.39029E-01
 1.05000E+01    1.30539E-01
 1.10000E+01    1.22801E-01
 1.15000E+01    1.15664E-01
 1.20000E+01    1.09040E-01
 1.25000E+01    1.02894E-01
 1.30000E+01    9.72003E-02
 1.35000E+01    9.19452E-02
 1.40000E+01    8.71111E-02
 1.45000E+01    8.26735E-02
 1.50000E+01    7.86037E-02
 1.55000E+01    7.48623E-02
 1.60000E+01    7.14074E-02
 1.65000E+01    6.81974E-02
 1.70000E+01    6.51916E-02
 1.75000E+01    6.23548E-02
 1.80000E+01    5.96592E-02
 1.85000E+01    5.70843E-02
 1.90000E+01    5.46197E-02
 1.95000E+01    5.22576E-02
 2.00000E+01    5.00007E-02
