# n + W 182 : (n,t)     
# jendl4.0   N.Iwamoto                         EVAL-Feb10
# uncertainties: n
# # energies =    44
#   E(MeV)       xs(mb) 
 6.22413E+00    0.00000E+00
 6.26636E+00    8.25770E-29
 6.29984E+00    1.64560E-28
 6.33574E+00    2.54310E-28
 6.40110E+00    4.21720E-28
 6.41216E+00    4.50060E-28
 6.45641E+00    5.63460E-28
 6.48356E+00    6.33050E-28
 6.51071E+00    7.02630E-28
 6.53484E+00    6.38430E-26
 6.54590E+00    1.17720E-25
 6.58713E+00    4.15000E-25
 6.59417E+00    4.68400E-25
 6.64042E+00    8.27470E-25
 6.65249E+00    9.22620E-25
 6.66858E+00    1.05040E-24
 6.69170E+00    1.23490E-24
 6.70277E+00    1.32330E-24
 7.50000E+00    7.69370E-24
 8.00000E+00    1.59970E-20
 8.50000E+00    2.68710E-16
 9.00000E+00    2.41970E-13
 9.50000E+00    3.78760E-11
 1.00000E+01    1.87140E-09
 1.05000E+01    4.12360E-08
 1.10000E+01    5.04820E-07
 1.15000E+01    3.98424E-06
 1.20000E+01    2.25076E-05
 1.25000E+01    9.81691E-05
 1.30000E+01    3.49097E-04
 1.35000E+01    1.03716E-03
 1.40000E+01    2.73109E-03
 1.45000E+01    6.37213E-03
 1.50000E+01    1.33387E-02
 1.55000E+01    2.53011E-02
 1.60000E+01    4.39237E-02
 1.65000E+01    7.05482E-02
 1.70000E+01    1.04883E-01
 1.75000E+01    1.49326E-01
 1.80000E+01    2.02703E-01
 1.85000E+01    2.64447E-01
 1.90000E+01    3.33718E-01
 1.95000E+01    4.09452E-01
 2.00000E+01    4.90318E-01
