# n + W 182 : (n,d)     
# jendl4.0   N.Iwamoto                         EVAL-Feb10
# uncertainties: n
# # energies =    39
#   E(MeV)       xs(mb) 
 4.89729E+00    0.00000E+00
 4.90356E+00    1.27130E-26
 5.03431E+00    4.18510E-25
 5.05672E+00    2.32230E-21
 5.20058E+00    2.46880E-20
 5.23670E+00    3.03590E-20
 5.38214E+00    5.33000E-20
 5.39522E+00    5.53640E-20
 5.44280E+00    6.28690E-20
 5.51591E+00    7.44020E-20
 6.00000E+00    2.06850E-19
 6.50000E+00    9.86380E-18
 7.00000E+00    5.95750E-14
 7.50000E+00    2.03650E-11
 8.00000E+00    1.71870E-09
 8.50000E+00    7.28180E-08
 9.00000E+00    1.34440E-06
 9.50000E+00    1.44210E-05
 1.00000E+01    1.01843E-04
 1.05000E+01    5.20647E-04
 1.10000E+01    2.06718E-03
 1.15000E+01    6.70021E-03
 1.20000E+01    1.83803E-02
 1.25000E+01    4.37993E-02
 1.30000E+01    9.23964E-02
 1.35000E+01    1.75136E-01
 1.40000E+01    3.02215E-01
 1.45000E+01    4.80719E-01
 1.50000E+01    7.13430E-01
 1.55000E+01    9.99061E-01
 1.60000E+01    1.29007E+00
 1.65000E+01    1.66019E+00
 1.70000E+01    2.06717E+00
 1.75000E+01    2.50445E+00
 1.80000E+01    2.96578E+00
 1.85000E+01    3.44522E+00
 1.90000E+01    3.87830E+00
 1.95000E+01    4.37549E+00
 2.00000E+01    4.87260E+00
