# n + W 182 : (n,n'23)  
# jendl4.0   N.Iwamoto                         EVAL-Feb10
# uncertainties: n
# # energies =    58
#   E(MeV)       xs(mb) 
 1.81972E+00    0.00000E+00
 1.82095E+00    1.64536E-01
 1.82345E+00    2.80688E-01
 1.83969E+00    6.93530E-01
 1.84326E+00    7.65754E-01
 1.86632E+00    1.26958E+00
 1.86719E+00    1.28978E+00
 1.88154E+00    1.63850E+00
 1.89832E+00    2.07833E+00
 1.90000E+00    2.12505E+00
 1.92762E+00    2.94810E+00
 1.92924E+00    2.99847E+00
 1.97014E+00    4.39960E+00
 1.97122E+00    4.43978E+00
 1.97166E+00    4.45636E+00
 1.98205E+00    4.83113E+00
 1.98936E+00    5.09649E+00
 1.99282E+00    5.22411E+00
 2.00000E+00    5.49380E+00
 2.00484E+00    5.67863E+00
 2.25000E+00    1.51746E+01
 2.50000E+00    2.07583E+01
 2.75000E+00    1.97753E+01
 3.00000E+00    1.79278E+01
 3.50000E+00    1.09430E+01
 4.00000E+00    5.94804E+00
 4.50000E+00    3.06550E+00
 5.00000E+00    1.58194E+00
 5.50000E+00    8.66632E-01
 6.00000E+00    5.33812E-01
 6.50000E+00    3.78408E-01
 7.00000E+00    3.02905E-01
 7.50000E+00    2.61841E-01
 8.00000E+00    2.35707E-01
 8.50000E+00    2.16468E-01
 9.00000E+00    2.00887E-01
 9.50000E+00    1.87573E-01
 1.00000E+01    1.75823E-01
 1.05000E+01    1.65267E-01
 1.10000E+01    1.55623E-01
 1.15000E+01    1.46716E-01
 1.20000E+01    1.38442E-01
 1.25000E+01    1.30753E-01
 1.30000E+01    1.23617E-01
 1.35000E+01    1.17013E-01
 1.40000E+01    1.10922E-01
 1.45000E+01    1.05318E-01
 1.50000E+01    1.00168E-01
 1.55000E+01    9.54265E-02
 1.60000E+01    9.10463E-02
 1.65000E+01    8.69761E-02
 1.70000E+01    8.31646E-02
 1.75000E+01    7.95695E-02
 1.80000E+01    7.61556E-02
 1.85000E+01    7.28965E-02
 1.90000E+01    6.97783E-02
 1.95000E+01    6.67902E-02
 2.00000E+01    6.39336E-02
