# n + W 182 : (n,n'30)  
# jendl4.0   N.Iwamoto                         EVAL-Feb10
# uncertainties: n
# # energies =    51
#   E(MeV)       xs(mb) 
 1.88154E+00    0.00000E+00
 1.89832E+00    2.09899E+01
 1.90000E+00    2.18679E+01
 1.92762E+00    3.23576E+01
 1.92924E+00    3.28377E+01
 1.97014E+00    4.26226E+01
 1.97122E+00    4.28182E+01
 1.97166E+00    4.29038E+01
 1.98205E+00    4.48947E+01
 1.98936E+00    4.61536E+01
 1.99282E+00    4.67318E+01
 2.00000E+00    4.78103E+01
 2.00484E+00    4.85551E+01
 2.25000E+00    6.74200E+01
 2.50000E+00    6.59053E+01
 2.75000E+00    5.01791E+01
 3.00000E+00    3.79111E+01
 3.50000E+00    1.73980E+01
 4.00000E+00    7.51849E+00
 4.50000E+00    3.23088E+00
 5.00000E+00    1.44599E+00
 5.50000E+00    7.15691E-01
 6.00000E+00    4.16396E-01
 6.50000E+00    2.90055E-01
 7.00000E+00    2.32858E-01
 7.50000E+00    2.02864E-01
 8.00000E+00    1.83761E-01
 8.50000E+00    1.69438E-01
 9.00000E+00    1.57609E-01
 9.50000E+00    1.47361E-01
 1.00000E+01    1.38242E-01
 1.05000E+01    1.30012E-01
 1.10000E+01    1.22474E-01
 1.15000E+01    1.15506E-01
 1.20000E+01    1.09027E-01
 1.25000E+01    1.03003E-01
 1.30000E+01    9.74076E-02
 1.35000E+01    9.22240E-02
 1.40000E+01    8.74382E-02
 1.45000E+01    8.30314E-02
 1.50000E+01    7.89785E-02
 1.55000E+01    7.52457E-02
 1.60000E+01    7.17967E-02
 1.65000E+01    6.85923E-02
 1.70000E+01    6.55934E-02
 1.75000E+01    6.27654E-02
 1.80000E+01    6.00804E-02
 1.85000E+01    5.75175E-02
 1.90000E+01    5.50657E-02
 1.95000E+01    5.27163E-02
 2.00000E+01    5.04697E-02
