# n + W 182 : (n,n'27)  
# jendl4.0   N.Iwamoto                         EVAL-Feb10
# uncertainties: n
# # energies =    54
#   E(MeV)       xs(mb) 
 1.84326E+00    0.00000E+00
 1.86632E+00    1.70797E+01
 1.86719E+00    1.73190E+01
 1.88154E+00    2.11465E+01
 1.89832E+00    2.49622E+01
 1.90000E+00    2.53218E+01
 1.92762E+00    3.06831E+01
 1.92924E+00    3.09792E+01
 1.97014E+00    3.78280E+01
 1.97122E+00    3.79063E+01
 1.97166E+00    3.79596E+01
 1.98205E+00    3.94106E+01
 1.98936E+00    4.04751E+01
 1.99282E+00    4.09793E+01
 2.00000E+00    4.20151E+01
 2.00484E+00    4.26750E+01
 2.25000E+00    6.52295E+01
 2.50000E+00    6.85242E+01
 2.75000E+00    5.53135E+01
 3.00000E+00    4.35543E+01
 3.50000E+00    2.15445E+01
 4.00000E+00    9.89763E+00
 4.50000E+00    4.42583E+00
 5.00000E+00    1.99017E+00
 5.50000E+00    9.39278E-01
 6.00000E+00    4.93001E-01
 6.50000E+00    3.02450E-01
 7.00000E+00    2.18925E-01
 7.50000E+00    1.79077E-01
 8.00000E+00    1.57017E-01
 8.50000E+00    1.42521E-01
 9.00000E+00    1.31588E-01
 9.50000E+00    1.22596E-01
 1.00000E+01    1.14808E-01
 1.05000E+01    1.07876E-01
 1.10000E+01    1.01569E-01
 1.15000E+01    9.57568E-02
 1.20000E+01    9.03620E-02
 1.25000E+01    8.53486E-02
 1.30000E+01    8.06952E-02
 1.35000E+01    7.63880E-02
 1.40000E+01    7.24143E-02
 1.45000E+01    6.87577E-02
 1.50000E+01    6.53964E-02
 1.55000E+01    6.23016E-02
 1.60000E+01    5.94423E-02
 1.65000E+01    5.67859E-02
 1.70000E+01    5.42997E-02
 1.75000E+01    5.19548E-02
 1.80000E+01    4.97283E-02
 1.85000E+01    4.76028E-02
 1.90000E+01    4.55694E-02
 1.95000E+01    4.36208E-02
 2.00000E+01    4.17578E-02
