# n + W 182 : (n,n'32)  
# jendl4.0   N.Iwamoto                         EVAL-Feb10
# uncertainties: n
# # energies =    48
#   E(MeV)       xs(mb) 
 1.92762E+00    0.00000E+00
 1.92924E+00    9.12618E-04
 1.97014E+00    8.21781E-03
 1.97122E+00    8.48783E-03
 1.97166E+00    8.56454E-03
 1.98205E+00    1.13008E-02
 1.98936E+00    1.36021E-02
 1.99282E+00    1.47181E-02
 2.00000E+00    1.73816E-02
 2.00484E+00    1.93769E-02
 2.25000E+00    3.07563E-01
 2.50000E+00    8.61647E-01
 2.75000E+00    1.31567E+00
 3.00000E+00    1.96054E+00
 3.50000E+00    2.05139E+00
 4.00000E+00    1.61396E+00
 4.50000E+00    1.09438E+00
 5.00000E+00    7.08710E-01
 5.50000E+00    4.73187E-01
 6.00000E+00    3.42607E-01
 6.50000E+00    2.71640E-01
 7.00000E+00    2.31683E-01
 7.50000E+00    2.06622E-01
 8.00000E+00    1.88692E-01
 8.50000E+00    1.74432E-01
 9.00000E+00    1.62376E-01
 9.50000E+00    1.51848E-01
 1.00000E+01    1.42461E-01
 1.05000E+01    1.33991E-01
 1.10000E+01    1.26238E-01
 1.15000E+01    1.19075E-01
 1.20000E+01    1.12420E-01
 1.25000E+01    1.06230E-01
 1.30000E+01    1.00479E-01
 1.35000E+01    9.51479E-02
 1.40000E+01    9.02228E-02
 1.45000E+01    8.56848E-02
 1.50000E+01    8.15092E-02
 1.55000E+01    7.76604E-02
 1.60000E+01    7.41037E-02
 1.65000E+01    7.07994E-02
 1.70000E+01    6.77074E-02
 1.75000E+01    6.47920E-02
 1.80000E+01    6.20246E-02
 1.85000E+01    5.93836E-02
 1.90000E+01    5.68575E-02
 1.95000E+01    5.44371E-02
 2.00000E+01    5.21223E-02
