# n + W 182 : (n,2na)   
# jendl4.0   N.Iwamoto                         EVAL-Feb10
# uncertainties: n
# # energies =    25
#   E(MeV)       xs(mb) 
 8.00000E+00    0.00000E+00
 8.50000E+00    5.51280E-34
 9.00000E+00    2.77660E-28
 9.50000E+00    5.82760E-21
 1.00000E+01    6.84470E-18
 1.05000E+01    2.59310E-15
 1.10000E+01    3.71290E-13
 1.15000E+01    2.39210E-11
 1.20000E+01    8.04490E-10
 1.25000E+01    1.58600E-08
 1.30000E+01    2.00620E-07
 1.35000E+01    1.75194E-06
 1.40000E+01    1.12449E-05
 1.45000E+01    5.52599E-05
 1.50000E+01    2.13604E-04
 1.55000E+01    6.60063E-04
 1.60000E+01    1.50788E-03
 1.65000E+01    2.75762E-03
 1.70000E+01    4.53163E-03
 1.75000E+01    7.08691E-03
 1.80000E+01    1.09374E-02
 1.85000E+01    1.66464E-02
 1.90000E+01    2.49754E-02
 1.95000E+01    3.68397E-02
 2.00000E+01    5.33528E-02
