# n + W 182 : (n,n'19)  
# jendl4.0   N.Iwamoto                         EVAL-Feb10
# uncertainties: n
# # energies =    63
#   E(MeV)       xs(mb) 
 1.76654E+00    0.00000E+00
 1.77522E+00    2.20604E-02
 1.77878E+00    2.94105E-02
 1.77931E+00    3.04512E-02
 1.80000E+00    8.17002E-02
 1.81972E+00    1.49462E-01
 1.82095E+00    1.53254E-01
 1.82345E+00    1.61336E-01
 1.83969E+00    2.28019E-01
 1.84326E+00    2.42739E-01
 1.86632E+00    3.61109E-01
 1.86719E+00    3.66011E-01
 1.88154E+00    4.50640E-01
 1.89832E+00    5.62572E-01
 1.90000E+00    5.74595E-01
 1.92762E+00    7.90872E-01
 1.92924E+00    8.04024E-01
 1.97014E+00    1.17541E+00
 1.97122E+00    1.18620E+00
 1.97166E+00    1.19063E+00
 1.98205E+00    1.29205E+00
 1.98936E+00    1.36784E+00
 1.99282E+00    1.40471E+00
 2.00000E+00    1.48324E+00
 2.00484E+00    1.53750E+00
 2.25000E+00    4.49464E+00
 2.50000E+00    6.89544E+00
 2.75000E+00    7.47636E+00
 3.00000E+00    7.72978E+00
 3.50000E+00    5.69393E+00
 4.00000E+00    3.60093E+00
 4.50000E+00    2.11960E+00
 5.00000E+00    1.24795E+00
 5.50000E+00    7.82324E-01
 6.00000E+00    5.45033E-01
 6.50000E+00    4.23042E-01
 7.00000E+00    3.56975E-01
 7.50000E+00    3.16629E-01
 8.00000E+00    2.88315E-01
 8.50000E+00    2.66074E-01
 9.00000E+00    2.47428E-01
 9.50000E+00    2.31218E-01
 1.00000E+01    2.16792E-01
 1.05000E+01    2.03777E-01
 1.10000E+01    1.91859E-01
 1.15000E+01    1.80841E-01
 1.20000E+01    1.70599E-01
 1.25000E+01    1.61084E-01
 1.30000E+01    1.52257E-01
 1.35000E+01    1.44093E-01
 1.40000E+01    1.36569E-01
 1.45000E+01    1.29653E-01
 1.50000E+01    1.23300E-01
 1.55000E+01    1.17454E-01
 1.60000E+01    1.12054E-01
 1.65000E+01    1.07037E-01
 1.70000E+01    1.02340E-01
 1.75000E+01    9.79093E-02
 1.80000E+01    9.37009E-02
 1.85000E+01    8.96824E-02
 1.90000E+01    8.58371E-02
 1.95000E+01    8.21520E-02
 2.00000E+01    7.86294E-02
