# n + W 182 : (n,n'18)  
# jendl4.0   N.Iwamoto                         EVAL-Feb10
# uncertainties: n
# # energies =    64
#   E(MeV)       xs(mb) 
 1.72139E+00    0.00000E+00
 1.76654E+00    4.74770E-07
 1.77522E+00    7.55010E-07
 1.77878E+00    8.95110E-07
 1.77931E+00    9.17040E-07
 1.80000E+00    2.09883E-06
 1.81972E+00    3.89135E-06
 1.82095E+00    4.02814E-06
 1.82345E+00    4.30663E-06
 1.83969E+00    6.44214E-06
 1.84326E+00    6.98494E-06
 1.86632E+00    1.12936E-05
 1.86719E+00    1.14856E-05
 1.88154E+00    1.49474E-05
 1.89832E+00    1.96945E-05
 1.90000E+00    2.02219E-05
 1.92762E+00    3.03342E-05
 1.92924E+00    3.08390E-05
 1.97014E+00    5.07094E-05
 1.97122E+00    5.13346E-05
 1.97166E+00    5.14584E-05
 1.98205E+00    5.72959E-05
 1.98936E+00    6.11440E-05
 1.99282E+00    6.27941E-05
 2.00000E+00    7.63324E-05
 2.00484E+00    7.95417E-05
 2.25000E+00    3.75860E-04
 2.50000E+00    1.15146E-03
 2.75000E+00    2.59732E-03
 3.00000E+00    7.04470E-01
 3.50000E+00    7.60251E-01
 4.00000E+00    7.75908E-01
 4.50000E+00    7.63493E-01
 5.00000E+00    7.33562E-01
 5.50000E+00    6.94510E-01
 6.00000E+00    6.53184E-01
 6.50000E+00    6.11923E-01
 7.00000E+00    5.72277E-01
 7.50000E+00    5.34489E-01
 8.00000E+00    4.99176E-01
 8.50000E+00    4.66594E-01
 9.00000E+00    4.36841E-01
 9.50000E+00    4.09754E-01
 1.00000E+01    3.85031E-01
 1.05000E+01    3.62406E-01
 1.10000E+01    3.41519E-01
 1.15000E+01    3.22108E-01
 1.20000E+01    3.04001E-01
 1.25000E+01    2.87158E-01
 1.30000E+01    2.71572E-01
 1.35000E+01    2.57269E-01
 1.40000E+01    2.44255E-01
 1.45000E+01    2.32505E-01
 1.50000E+01    2.21959E-01
 1.55000E+01    2.12535E-01
 1.60000E+01    2.04139E-01
 1.65000E+01    1.96650E-01
 1.70000E+01    1.89926E-01
 1.75000E+01    1.83799E-01
 1.80000E+01    1.78110E-01
 1.85000E+01    1.72746E-01
 1.90000E+01    1.67676E-01
 1.95000E+01    1.62922E-01
 2.00000E+01    1.58522E-01
