# n + W 182 : (n,n'17)  
# jendl4.0   N.Iwamoto                         EVAL-Feb10
# uncertainties: n
# # energies =    66
#   E(MeV)       xs(mb) 
 1.66960E+00    0.00000E+00
 1.70000E+00    1.07104E+00
 1.72139E+00    1.63777E+00
 1.76654E+00    3.10303E+00
 1.77522E+00    3.42463E+00
 1.77878E+00    3.55426E+00
 1.77931E+00    3.56666E+00
 1.80000E+00    4.35423E+00
 1.81972E+00    5.20132E+00
 1.82095E+00    5.24231E+00
 1.82345E+00    5.33278E+00
 1.83969E+00    5.96248E+00
 1.84326E+00    6.09813E+00
 1.86632E+00    7.08253E+00
 1.86719E+00    7.12186E+00
 1.88154E+00    7.78158E+00
 1.89832E+00    8.58895E+00
 1.90000E+00    8.67220E+00
 1.92762E+00    1.00407E+01
 1.92924E+00    1.01167E+01
 1.97014E+00    1.20942E+01
 1.97122E+00    1.21471E+01
 1.97166E+00    1.21690E+01
 1.98205E+00    1.26684E+01
 1.98936E+00    1.30307E+01
 1.99282E+00    1.32027E+01
 2.00000E+00    1.35626E+01
 2.00484E+00    1.38058E+01
 2.25000E+00    2.32892E+01
 2.50000E+00    2.63916E+01
 2.75000E+00    2.36512E+01
 3.00000E+00    2.05933E+01
 3.50000E+00    1.21911E+01
 4.00000E+00    6.61323E+00
 4.50000E+00    3.49915E+00
 5.00000E+00    1.92143E+00
 5.50000E+00    1.16091E+00
 6.00000E+00    8.00770E-01
 6.50000E+00    6.24703E-01
 7.00000E+00    5.31279E-01
 7.50000E+00    4.73849E-01
 8.00000E+00    4.32704E-01
 8.50000E+00    3.99852E-01
 9.00000E+00    3.72011E-01
 9.50000E+00    3.47669E-01
 1.00000E+01    3.25934E-01
 1.05000E+01    3.06286E-01
 1.10000E+01    2.88271E-01
 1.15000E+01    2.71603E-01
 1.20000E+01    2.56110E-01
 1.25000E+01    2.41720E-01
 1.30000E+01    2.28382E-01
 1.35000E+01    2.16062E-01
 1.40000E+01    2.04724E-01
 1.45000E+01    1.94316E-01
 1.50000E+01    1.84765E-01
 1.55000E+01    1.75982E-01
 1.60000E+01    1.67871E-01
 1.65000E+01    1.60335E-01
 1.70000E+01    1.53279E-01
 1.75000E+01    1.46619E-01
 1.80000E+01    1.40293E-01
 1.85000E+01    1.34250E-01
 1.90000E+01    1.28465E-01
 1.95000E+01    1.22922E-01
 2.00000E+01    1.17625E-01
