# n + W 182 : (n,el)    
# jendl4.0   N.Iwamoto                         EVAL-Feb10
# uncertainties: n
# # energies =    69
#   E(MeV)       xs(mb) 
 1.00000E-10    1.03577E+04
 5.00000E-09    8.94405E+03
 1.00000E-08    8.90277E+03
 1.50000E-08    8.88484E+03
 2.00000E-08    8.87346E+03
 2.50000E-08    8.86583E+03
 3.00000E-08    8.85982E+03
 3.50000E-08    8.85299E+03
 4.20000E-08    8.84657E+03
 5.00000E-08    8.84008E+03
 5.80000E-08    8.83323E+03
 6.70000E-08    8.82569E+03
 8.00000E-08    8.81532E+03
 1.00000E-07    8.79673E+03
 1.40000E-07    8.77180E+03
 1.80000E-07    8.74774E+03
 2.20000E-07    8.72656E+03
 2.50000E-07    8.70856E+03
 2.80000E-07    8.69348E+03
 3.00000E-07    8.68149E+03
 3.20000E-07    8.66658E+03
 3.50000E-07    8.64282E+03
 4.00000E-07    8.59865E+03
 5.00000E-07    8.52956E+03
 6.25000E-07    8.44170E+03
 7.80000E-07    8.36692E+03
 8.50000E-07    8.32399E+03
 9.10000E-07    8.29041E+03
 9.50000E-07    8.26886E+03
 9.72000E-07    8.25292E+03
 9.96000E-07    8.23628E+03
 1.02000E-06    8.21929E+03
 1.04500E-06    8.20162E+03
 1.07100E-06    8.18359E+03
 1.09700E-06    8.16479E+03
 1.12300E-06    8.14506E+03
 1.15000E-06    8.08026E+03
 1.30000E-06    7.94700E+03
 1.50000E-06    7.60913E+03
 2.10000E-06    6.99272E+03
 2.60000E-06    5.91020E+03
 3.30000E-06    2.76354E+03
 4.00000E-06    2.20848E+04
 9.87700E-06    5.04535E+03
 1.59680E-05    2.35905E+05
 2.77000E-05    8.81535E+03
 4.80520E-05    4.80784E+03
 7.55014E-05    1.07835E+05
 1.48728E-04    1.23208E+05
 3.67262E-04    2.64303E+04
 9.06898E-04    4.68852E+04
 1.42510E-03    2.58794E+04
 2.23945E-03    1.96804E+04
 3.51910E-03    2.12482E+04
 5.53000E-03    1.93165E+04
 9.11800E-03    1.64602E+04
 1.50300E-02    1.41771E+04
 2.47800E-02    1.23124E+04
 4.08500E-02    1.07776E+04
 6.73400E-02    9.47482E+03
 1.11000E-01    8.15601E+03
 1.83000E-01    6.92910E+03
 3.02000E-01    5.88272E+03
 5.00000E-01    5.10270E+03
 8.21000E-01    4.63252E+03
 1.35300E+00    4.14032E+03
 2.23100E+00    3.78907E+03
 3.67900E+00    3.07028E+03
 6.06500E+00    2.30014E+03
