# n + W 180 : (n,n')    
# jendl.ad   N.Iwamoto                         EVAL-Apr14
# uncertainties: n
# # energies =   107
#   E(MeV)       xs(mb) 
 1.02056E-01    0.00000E+00
 1.04111E-01    3.65873E-03
 1.10000E-01    9.68844E+01
 1.20000E-01    1.56570E+02
 1.30000E-01    2.11917E+02
 1.40000E-01    2.63477E+02
 1.50000E-01    3.11812E+02
 1.60000E-01    3.66681E+02
 1.70000E-01    4.10371E+02
 1.80000E-01    4.51598E+02
 1.90000E-01    4.91488E+02
 2.00000E-01    5.30311E+02
 2.25000E-01    6.20643E+02
 2.50000E-01    7.06914E+02
 2.75000E-01    7.81804E+02
 3.00000E-01    8.51117E+02
 3.39408E-01    9.55716E+02
 4.00000E-01    1.10250E+03
 5.00000E-01    1.30144E+03
 6.00000E-01    1.46578E+03
 6.92273E-01    1.59465E+03
 7.00000E-01    1.60440E+03
 8.00000E-01    1.70889E+03
 9.00000E-01    1.79706E+03
 1.00000E+00    1.87808E+03
 1.01197E+00    1.88652E+03
 1.08841E+00    2.00079E+03
 1.10000E+00    2.02009E+03
 1.12354E+00    2.04921E+03
 1.14481E+00    2.10330E+03
 1.19149E+00    2.17193E+03
 1.20000E+00    2.18573E+03
 1.23957E+00    2.23835E+03
 1.30000E+00    2.32160E+03
 1.31487E+00    2.33910E+03
 1.32948E+00    2.35504E+03
 1.36811E+00    2.41273E+03
 1.38975E+00    2.43708E+03
 1.40000E+00    2.44787E+03
 1.46998E+00    2.51430E+03
 1.47824E+00    2.52104E+03
 1.50000E+00    2.53835E+03
 1.52450E+00    2.55807E+03
 1.53758E+00    2.57480E+03
 1.54419E+00    2.58065E+03
 1.57692E+00    2.60622E+03
 1.59614E+00    2.61936E+03
 1.60000E+00    2.62643E+03
 1.63328E+00    2.65670E+03
 1.64202E+00    2.66302E+03
 1.64380E+00    2.66557E+03
 1.64896E+00    2.67056E+03
 1.67347E+00    2.68912E+03
 1.70000E+00    2.70621E+03
 1.70305E+00    2.70808E+03
 1.70450E+00    2.70931E+03
 1.71249E+00    2.71779E+03
 1.73521E+00    2.73505E+03
 1.73951E+00    2.73773E+03
 1.77429E+00    2.75681E+03
 1.79481E+00    2.76606E+03
 1.80000E+00    2.76994E+03
 1.82498E+00    2.78374E+03
 1.84107E+00    2.79312E+03
 1.84196E+00    2.79354E+03
 1.86150E+00    2.80480E+03
 1.86556E+00    2.80767E+03
 1.90000E+00    2.82505E+03
 2.00000E+00    2.86701E+03
 2.25000E+00    2.94006E+03
 2.50000E+00    3.00081E+03
 2.75000E+00    3.01916E+03
 3.00000E+00    3.03398E+03
 3.50000E+00    3.01971E+03
 4.00000E+00    2.99723E+03
 4.50000E+00    2.97652E+03
 5.00000E+00    2.95700E+03
 5.50000E+00    2.93229E+03
 6.00000E+00    2.90339E+03
 6.50000E+00    2.87022E+03
 7.00000E+00    2.83688E+03
 7.50000E+00    2.80462E+03
 8.00000E+00    2.77514E+03
 8.50000E+00    2.74844E+03
 9.00000E+00    2.57564E+03
 9.50000E+00    2.15226E+03
 1.00000E+01    1.73324E+03
 1.05000E+01    1.41882E+03
 1.10000E+01    1.19843E+03
 1.15000E+01    1.04297E+03
 1.20000E+01    9.29641E+02
 1.25000E+01    8.43507E+02
 1.30000E+01    7.75578E+02
 1.35000E+01    7.20417E+02
 1.40000E+01    6.74723E+02
 1.45000E+01    6.36401E+02
 1.50000E+01    6.04026E+02
 1.55000E+01    5.76455E+02
 1.60000E+01    5.52676E+02
 1.65000E+01    5.31845E+02
 1.70000E+01    5.13304E+02
 1.75000E+01    4.96512E+02
 1.80000E+01    4.81094E+02
 1.85000E+01    4.66817E+02
 1.90000E+01    4.53557E+02
 1.95000E+01    4.41258E+02
 2.00000E+01    4.29893E+02
