# n + W 180 : (n,tot)   
# jendl.ad   N.Iwamoto                         EVAL-Apr14
# uncertainties: n
# # energies =   171
#   E(MeV)       xs(mb) 
 1.00000E-11    4.09423E+05
 1.00000E-07    1.29582E+04
 4.13990E-07    7.84298E+03
 5.31580E-07    6.71426E+03
 6.82560E-07    5.70728E+03
 8.76420E-07    4.80790E+03
 1.12540E-06    4.01183E+03
 1.44500E-06    3.31355E+03
 1.85540E-06    2.71485E+03
 2.37240E-06    2.20497E+03
 3.05900E-06    1.78627E+03
 3.92790E-06    1.47048E+03
 5.04350E-06    1.26565E+03
 6.47600E-06    1.21276E+03
 8.31530E-06    1.48775E+03
 1.06770E-05    3.67155E+03
 1.37100E-05    6.85388E+05
 1.76030E-05    3.18456E+03
 2.26030E-05    4.12293E+02
 2.92030E-05    1.68360E+02
 3.72670E-05    4.04781E+02
 4.78510E-05    3.85244E+04
 6.14420E-05    7.36748E+04
 7.88930E-05    1.45231E+04
 1.01300E-04    1.65186E+04
 1.30070E-04    2.07933E+04
 1.67020E-04    1.69702E+04
 2.14450E-04    1.38473E+04
 2.75360E-04    1.13008E+04
 3.53580E-04    9.21561E+03
 4.54000E-04    7.49179E+03
 5.82950E-04    6.08808E+03
 7.48520E-04    4.94599E+03
 9.61120E-04    4.03705E+03
 1.23410E-03    3.32384E+03
 1.58460E-03    2.73821E+03
 2.03470E-03    2.38784E+03
 2.24870E-03    2.20967E+03
 2.48520E-03    2.08418E+03
 2.61260E-03    2.00485E+03
 2.74650E-03    1.89210E+03
 3.03540E-03    1.75033E+03
 3.35460E-03    1.61972E+03
 3.70740E-03    1.47451E+03
 4.30740E-03    1.29692E+03
 5.53080E-03    1.10804E+03
 7.10170E-03    9.58277E+02
 9.11880E-03    8.40603E+02
 1.17090E-02    7.50406E+02
 1.50340E-02    6.70948E+02
 1.93050E-02    6.17775E+02
 2.18750E-02    5.93655E+02
 2.35790E-02    5.81999E+02
 2.41760E-02    5.76555E+02
 2.47880E-02    5.68382E+02
 2.60580E-02    5.59008E+02
 2.70000E-02    5.49027E+02
 2.85000E-02    5.31702E+02
 3.18280E-02    5.14118E+02
 3.43070E-02    4.91875E+02
 4.08680E-02    4.67479E+02
 4.63090E-02    4.49465E+02
 5.24750E-02    4.36834E+02
 5.65620E-02    4.23164E+02
 6.73790E-02    4.11825E+02
 7.20000E-02    4.05122E+02
 7.95000E-02    3.99815E+02
 8.25000E-02    3.97279E+02
 8.65170E-02    3.92452E+02
 9.80370E-02    3.67264E+02
 1.11090E-01    3.10523E+02
 1.16790E-01    2.95912E+02
 1.22770E-01    2.83419E+02
 1.29070E-01    2.72266E+02
 1.35690E-01    2.62236E+02
 1.42640E-01    2.53320E+02
 1.49960E-01    2.44899E+02
 1.57640E-01    2.37015E+02
 1.65730E-01    2.30062E+02
 1.74220E-01    2.23437E+02
 1.83160E-01    2.17304E+02
 1.92550E-01    2.11699E+02
 2.02420E-01    2.06888E+02
 2.12800E-01    2.02411E+02
 2.23710E-01    1.98380E+02
 2.35180E-01    1.94926E+02
 2.47240E-01    1.90113E+02
 2.73240E-01    1.85891E+02
 2.87250E-01    1.84077E+02
 2.94520E-01    1.83233E+02
 2.97200E-01    1.82896E+02
 2.98500E-01    1.82526E+02
 3.01970E-01    1.80592E+02
 3.33730E-01    1.77433E+02
 3.68830E-01    1.75595E+02
 3.87740E-01    1.74348E+02
 4.07620E-01    1.73170E+02
 4.50490E-01    1.71646E+02
 4.97870E-01    1.71189E+02
 5.23400E-01    1.72232E+02
 5.50230E-01    1.73336E+02
 5.78440E-01    1.74525E+02
 6.08100E-01    1.76358E+02
 6.39280E-01    1.78515E+02
 6.72060E-01    1.80856E+02
 7.06510E-01    1.84309E+02
 7.42740E-01    1.88417E+02
 7.80820E-01    1.92906E+02
 8.20850E-01    1.98614E+02
 8.62940E-01    2.04783E+02
 9.07180E-01    2.12477E+02
 9.61640E-01    2.20243E+02
 1.00260E+00    2.24364E+02
 1.10800E+00    2.18202E+02
 1.16480E+00    2.13296E+02
 1.22460E+00    2.08873E+02
 1.28730E+00    2.04645E+02
 1.35340E+00    1.99449E+02
 1.42270E+00    1.97071E+02
 1.49570E+00    1.95513E+02
 1.57240E+00    1.93355E+02
 1.65300E+00    1.89105E+02
 1.73770E+00    1.86354E+02
 1.82680E+00    1.84471E+02
 1.92050E+00    1.82304E+02
 2.01900E+00    1.78391E+02
 2.12250E+00    1.73933E+02
 2.23130E+00    1.68861E+02
 2.30690E+00    1.63174E+02
 2.34570E+00    1.60363E+02
 2.36530E+00    1.58466E+02
 2.38520E+00    1.53860E+02
 2.46600E+00    1.45567E+02
 2.59240E+00    1.37295E+02
 2.72530E+00    1.27353E+02
 2.86500E+00    1.14220E+02
 3.01190E+00    1.02750E+02
 3.16640E+00    9.27246E+01
 3.32870E+00    7.92033E+01
 3.67880E+00    6.19110E+01
 4.06570E+00    4.63182E+01
 4.49330E+00    3.58721E+01
 4.72370E+00    2.95358E+01
 4.96590E+00    2.39937E+01
 5.22050E+00    1.90424E+01
 5.48810E+00    1.49292E+01
 5.76950E+00    1.15338E+01
 6.06530E+00    8.81231E+00
 6.37630E+00    1.01459E+03
 6.59240E+00    2.86648E+03
 6.70320E+00    2.85041E+03
 7.04690E+00    2.82622E+03
 7.40820E+00    2.80209E+03
 7.78800E+00    2.77877E+03
 8.18730E+00    2.75804E+03
 8.60710E+00    2.72920E+03
 9.04840E+00    2.70758E+03
 9.51230E+00    2.69120E+03
 1.00000E+01    2.67629E+03
 1.05130E+01    2.65868E+03
 1.10520E+01    2.63677E+03
 1.16180E+01    2.61178E+03
 1.22140E+01    2.58543E+03
 1.28400E+01    2.55919E+03
 1.34990E+01    2.54027E+03
 1.38400E+01    2.52820E+03
 1.41910E+01    2.51661E+03
 1.45500E+01    2.50542E+03
 1.49180E+01    2.48920E+03
 1.56830E+01    2.46737E+03
 1.64870E+01    2.44267E+03
