# n + Ba132 : (n,n'06)  
# tendl.2019 A.J. Koning and D. Rochman        EVAL-NOV19
# uncertainties: n
# # energies =    86
#   E(MeV)       xs(mb) 
 1.67300E+00    0.00000E+00
 1.69864E+00    5.70258E+00
 1.74257E+00    1.54730E+01
 1.80000E+00    2.82460E+01
 1.94668E+00    3.71017E+01
 1.95916E+00    3.78552E+01
 2.00000E+00    4.03209E+01
 2.01346E+00    4.05839E+01
 2.04244E+00    4.11500E+01
 2.06188E+00    4.15299E+01
 2.07325E+00    4.17520E+01
 2.08437E+00    4.19692E+01
 2.13580E+00    4.29740E+01
 2.20000E+00    4.42283E+01
 2.23705E+00    4.43225E+01
 2.24284E+00    4.43372E+01
 2.25782E+00    4.43753E+01
 2.28837E+00    4.44529E+01
 2.30548E+00    4.44964E+01
 2.33017E+00    4.45592E+01
 2.37565E+00    4.46748E+01
 2.39258E+00    4.47178E+01
 2.40000E+00    4.47367E+01
 2.42440E+00    4.42799E+01
 2.44126E+00    4.39642E+01
 2.45758E+00    4.36586E+01
 2.47163E+00    4.33955E+01
 2.50205E+00    4.28260E+01
 2.51141E+00    4.26507E+01
 2.60000E+00    4.09920E+01
 2.80000E+00    3.39566E+01
 3.00000E+00    2.63648E+01
 3.20000E+00    1.96141E+01
 3.40000E+00    1.41949E+01
 3.60000E+00    1.01196E+01
 3.80000E+00    7.17907E+00
 4.00000E+00    5.10408E+00
 4.20000E+00    3.65089E+00
 4.40000E+00    2.63101E+00
 4.60000E+00    1.90950E+00
 4.80000E+00    1.39437E+00
 5.00000E+00    1.02343E+00
 5.20000E+00    7.54218E-01
 5.40000E+00    5.57698E-01
 5.60000E+00    4.13510E-01
 5.80000E+00    3.07341E-01
 6.00000E+00    2.28910E-01
 6.20000E+00    1.70873E-01
 6.40000E+00    1.27473E-01
 6.60000E+00    9.54828E-02
 6.80000E+00    7.16919E-02
 7.00000E+00    5.40617E-02
 7.20000E+00    4.08625E-02
 7.40000E+00    3.10211E-02
 7.60000E+00    2.36488E-02
 7.80000E+00    1.80902E-02
 8.00000E+00    1.39149E-02
 8.50000E+00    7.34747E-03
 9.00000E+00    3.97831E-03
 9.50000E+00    2.20065E-03
 1.00000E+01    1.23799E-03
 1.05000E+01    7.04849E-04
 1.10000E+01    4.04327E-04
 1.15000E+01    2.33300E-04
 1.20000E+01    1.35427E-04
 1.25000E+01    7.91670E-05
 1.30000E+01    4.66518E-05
 1.35000E+01    2.77287E-05
 1.40000E+01    1.66363E-05
 1.45000E+01    1.00760E-05
 1.50000E+01    6.16139E-06
 1.60000E+01    2.36745E-06
 1.70000E+01    9.39560E-07
 1.80000E+01    3.83230E-07
 1.90000E+01    1.60180E-07
 2.00000E+01    6.82410E-08
 2.10000E+01    2.96960E-08
 2.20000E+01    1.31490E-08
 2.30000E+01    5.90600E-09
 2.40000E+01    2.69400E-09
 2.50000E+01    1.24990E-09
 2.60000E+01    5.90200E-10
 2.70000E+01    2.83400E-10
 2.80000E+01    1.38150E-10
 2.90000E+01    6.82460E-11
 3.00000E+01    3.40870E-11
