# n + Pt194 : (n,n'16)  
# endfb8.0   A.J. Koning and D. Rochman        EVAL-DEC15
# uncertainties: n
# # energies =    77
#   E(MeV)       xs(mb) 
 1.55529E+00    0.00000E+00
 1.59224E+00    9.78831E+00
 1.60000E+00    1.18440E+01
 1.60108E+00    1.19179E+01
 1.63062E+00    1.39396E+01
 1.67931E+00    1.72719E+01
 1.74636E+00    2.18607E+01
 1.78781E+00    2.46975E+01
 1.79277E+00    2.50370E+01
 1.80000E+00    2.55318E+01
 1.80670E+00    2.55325E+01
 1.81200E+00    2.55330E+01
 1.82608E+00    2.55344E+01
 1.87972E+00    2.55397E+01
 1.89814E+00    2.55415E+01
 1.90354E+00    2.55421E+01
 1.92094E+00    2.55438E+01
 2.00000E+00    2.55516E+01
 2.20000E+00    2.06590E+01
 2.40000E+00    1.52071E+01
 2.60000E+00    1.08277E+01
 2.80000E+00    7.68152E+00
 3.00000E+00    5.49078E+00
 3.20000E+00    3.95824E+00
 3.40000E+00    2.86845E+00
 3.60000E+00    2.08015E+00
 3.80000E+00    1.50489E+00
 4.00000E+00    1.08479E+00
 4.20000E+00    7.79415E-01
 4.40000E+00    5.58940E-01
 4.60000E+00    4.00692E-01
 4.80000E+00    2.87537E-01
 5.00000E+00    2.06777E-01
 5.20000E+00    1.49115E-01
 5.40000E+00    1.07890E-01
 5.60000E+00    7.81007E-02
 5.80000E+00    5.68201E-02
 6.00000E+00    4.15075E-02
 6.20000E+00    3.03903E-02
 6.40000E+00    2.23587E-02
 6.60000E+00    1.64751E-02
 6.80000E+00    1.21611E-02
 7.00000E+00    8.99838E-03
 7.20000E+00    6.65970E-03
 7.40000E+00    4.94662E-03
 7.60000E+00    3.67659E-03
 7.80000E+00    2.73961E-03
 8.00000E+00    2.04740E-03
 8.50000E+00    1.00038E-03
 9.00000E+00    4.97475E-04
 9.50000E+00    2.50896E-04
 1.00000E+01    1.28126E-04
 1.05000E+01    6.61410E-05
 1.10000E+01    3.44488E-05
 1.15000E+01    1.80847E-05
 1.20000E+01    9.56758E-06
 1.25000E+01    5.10371E-06
 1.30000E+01    2.74674E-06
 1.35000E+01    1.49229E-06
 1.40000E+01    8.18920E-07
 1.45000E+01    4.53990E-07
 1.50000E+01    2.54230E-07
 1.60000E+01    8.20230E-08
 1.70000E+01    2.73440E-08
 1.80000E+01    9.31850E-09
 1.90000E+01    3.26310E-09
 2.00000E+01    1.16710E-09
 2.10000E+01    4.26580E-10
 2.20000E+01    1.59410E-10
 2.30000E+01    6.09360E-11
 2.40000E+01    2.38410E-11
 2.50000E+01    9.51420E-12
 2.60000E+01    3.87660E-12
 2.70000E+01    1.59970E-12
 2.80000E+01    6.68320E-13
 2.90000E+01    2.82650E-13
 3.00000E+01    1.21100E-13
