# n + Tb158 : (n,xg)    
# endfb8.0      G. Nobre, D. Brown, M. Herman  EVAL-Jul17
# 
# # energies =    82
#   E(MeV)        xs(mb) 
 5.53915E-02    4.38804E-05
 7.00000E-02    4.37258E-05
 8.04103E-02    4.36156E-05
 1.00000E-01    4.34082E-05
 1.11005E-01    4.32917E-05
 1.16238E-01    4.32362E-05
 1.29120E-01    4.30999E-05
 1.68469E-01    4.26833E-05
 1.80043E-01    4.25607E-05
 2.00000E-01    4.23494E-05
 2.09127E-01    4.22528E-05
 2.18688E-01    4.21516E-05
 2.43546E-01    4.18884E-05
 2.82392E-01    4.14771E-05
 3.00000E-01    4.12907E-05
 3.00406E-01    4.12864E-05
 3.24660E-01    4.10296E-05
 3.26069E-01    4.10147E-05
 3.40259E-01    4.08645E-05
 3.62098E-01    4.06332E-05
 3.73571E-01    4.05118E-05
 3.83534E-01    4.04063E-05
 3.90881E-01    4.03285E-05
 4.00000E-01    4.02320E-05
 4.08593E-01    4.01410E-05
 4.10706E-01    4.01186E-05
 4.21978E-01    3.99993E-05
 4.41804E-01    3.97894E-05
 4.47238E-01    3.97318E-05
 4.63844E-01    3.95560E-05
 4.72700E-01    3.94623E-05
 4.87091E-01    3.93099E-05
 4.90412E-01    3.92747E-05
 4.98564E-01    3.91884E-05
 5.00000E-01    3.91732E-05
 5.09131E-01    3.90765E-05
 5.34392E-01    3.88091E-05
 5.39423E-01    3.87558E-05
 5.43449E-01    3.87132E-05
 5.59551E-01    3.85427E-05
 5.74647E-01    3.83829E-05
 5.90749E-01    3.82124E-05
 5.93768E-01    3.81805E-05
 6.05342E-01    3.80579E-05
 6.13997E-01    3.79663E-05
 7.00000E-01    3.70558E-05
 8.50000E-01    3.54677E-05
 1.00000E+00    3.38796E-05
 1.30000E+00    3.07033E-05
 1.50000E+00    2.85859E-05
 1.80000E+00    2.54097E-05
 2.00000E+00    2.32922E-05
 2.25000E+00    2.06454E-05
 2.50000E+00    1.79985E-05
 2.75000E+00    1.53517E-05
 3.00000E+00    1.27049E-05
 3.20000E+00    1.05874E-05
 3.40000E+00    8.46993E-06
 3.60000E+00    6.35246E-06
 3.80000E+00    4.23500E-06
 4.00000E+00    2.11753E-06
 4.20000E+00    5.77394E-11
 4.40000E+00    3.72877E-09
 4.60000E+00    2.30606E-08
 4.80000E+00    5.68430E-08
 5.00000E+00    1.88661E-07
 5.50000E+00    8.41329E-07
 6.00000E+00    3.64920E-06
 7.00000E+00    1.84332E-05
 8.00000E+00    6.05096E-05
 9.00000E+00    2.25761E-04
 1.00000E+01    1.77267E-03
 1.10000E+01    1.69921E-02
 1.20000E+01    1.08907E-01
 1.30000E+01    5.76459E-01
 1.40000E+01    2.01643E+00
 1.50000E+01    5.76640E+00
 1.60000E+01    1.30400E+01
 1.70000E+01    5.97457E+01
 1.80000E+01    3.27386E+02
 1.90000E+01    8.83070E+02
 2.00000E+01    1.66372E+03
