# n + Tb158 : (n,xp)    
# endfb8.0      G. Nobre, D. Brown, M. Herman  EVAL-Jul17
# 
# # energies =    82
#   E(MeV)        xs(mb) 
 5.53915E-02    4.38682E-06
 7.00000E-02    4.34469E-06
 8.04103E-02    4.49010E-06
 1.00000E-01    4.76373E-06
 1.11005E-01    4.94295E-06
 1.16238E-01    5.02818E-06
 1.29120E-01    5.23797E-06
 1.68469E-01    5.87881E-06
 1.80043E-01    6.06730E-06
 2.00000E-01    6.39232E-06
 2.09127E-01    6.53143E-06
 2.18688E-01    6.67714E-06
 2.43546E-01    7.05599E-06
 2.82392E-01    7.64803E-06
 3.00000E-01    7.91638E-06
 3.00406E-01    7.92907E-06
 3.24660E-01    8.68594E-06
 3.26069E-01    8.72991E-06
 3.40259E-01    9.17272E-06
 3.62098E-01    9.85423E-06
 3.73571E-01    1.02122E-05
 3.83534E-01    1.05232E-05
 3.90881E-01    1.07524E-05
 4.00000E-01    1.10370E-05
 4.08593E-01    1.15216E-05
 4.10706E-01    1.16408E-05
 4.21978E-01    1.22765E-05
 4.41804E-01    1.33947E-05
 4.47238E-01    1.37012E-05
 4.63844E-01    1.46377E-05
 4.72700E-01    1.51371E-05
 4.87091E-01    1.59488E-05
 4.90412E-01    1.61361E-05
 4.98564E-01    1.65958E-05
 5.00000E-01    1.66768E-05
 5.09131E-01    1.77375E-05
 5.34392E-01    2.06719E-05
 5.39423E-01    2.12564E-05
 5.43449E-01    2.17241E-05
 5.59551E-01    2.35946E-05
 5.74647E-01    2.53482E-05
 5.90749E-01    2.72188E-05
 5.93768E-01    2.75695E-05
 6.05342E-01    2.89139E-05
 6.13997E-01    2.99193E-05
 7.00000E-01    3.99100E-05
 8.50000E-01    6.63439E-05
 1.00000E+00    1.09538E-04
 1.30000E+00    2.50722E-04
 1.50000E+00    4.13033E-04
 1.80000E+00    7.19174E-04
 2.00000E+00    1.00525E-03
 2.25000E+00    1.41234E-03
 2.50000E+00    1.90989E-03
 2.75000E+00    2.45940E-03
 3.00000E+00    3.07591E-03
 3.20000E+00    3.61386E-03
 3.40000E+00    4.19094E-03
 3.60000E+00    4.81283E-03
 3.80000E+00    5.46800E-03
 4.00000E+00    6.15847E-03
 4.20000E+00    6.87263E-03
 4.40000E+00    7.63027E-03
 4.60000E+00    8.46187E-03
 4.80000E+00    9.41550E-03
 5.00000E+00    1.04817E-02
 5.50000E+00    1.38416E-02
 6.00000E+00    1.88655E-02
 7.00000E+00    3.84416E-02
 8.00000E+00    8.73193E-02
 9.00000E+00    2.34419E-01
 1.00000E+01    5.71508E-01
 1.10000E+01    1.40063E+00
 1.20000E+01    2.45502E+00
 1.30000E+01    4.29181E+00
 1.40000E+01    6.09009E+00
 1.50000E+01    9.00823E+00
 1.60000E+01    1.25181E+01
 1.70000E+01    1.65863E+01
 1.80000E+01    2.09830E+01
 1.90000E+01    2.60042E+01
 2.00000E+01    3.34525E+01
