# n + Tb158 : (n,xh)    
# endfb8.0      G. Nobre, D. Brown, M. Herman  EVAL-Jul17
# 
# # energies =    82
#   E(MeV)        xs(mb) 
 5.53915E-02    1.45787E-11
 7.00000E-02    1.84235E-11
 8.04103E-02    2.11634E-11
 1.00000E-01    2.63193E-11
 1.11005E-01    2.92156E-11
 1.16238E-01    3.05930E-11
 1.29120E-01    3.39834E-11
 1.68469E-01    4.43399E-11
 1.80043E-01    4.73860E-11
 2.00000E-01    5.26386E-11
 2.09127E-01    5.50408E-11
 2.18688E-01    5.75572E-11
 2.43546E-01    6.40995E-11
 2.82392E-01    7.43237E-11
 3.00000E-01    7.89579E-11
 3.00406E-01    7.90649E-11
 3.24660E-01    8.54484E-11
 3.26069E-01    8.58192E-11
 3.40259E-01    8.95539E-11
 3.62098E-01    9.53017E-11
 3.73571E-01    9.83213E-11
 3.83534E-01    1.00944E-10
 3.90881E-01    1.02877E-10
 4.00000E-01    1.05277E-10
 4.08593E-01    1.07539E-10
 4.10706E-01    1.08095E-10
 4.21978E-01    1.11062E-10
 4.41804E-01    1.16280E-10
 4.47238E-01    1.17710E-10
 4.63844E-01    1.22080E-10
 4.72700E-01    1.24411E-10
 4.87091E-01    1.28199E-10
 4.90412E-01    1.29073E-10
 4.98564E-01    1.31219E-10
 5.00000E-01    1.31597E-10
 5.09131E-01    1.34000E-10
 5.34392E-01    1.40648E-10
 5.39423E-01    1.41972E-10
 5.43449E-01    1.43032E-10
 5.59551E-01    1.47270E-10
 5.74647E-01    1.51243E-10
 5.90749E-01    1.55481E-10
 5.93768E-01    1.56276E-10
 6.05342E-01    1.59322E-10
 6.13997E-01    1.61600E-10
 7.00000E-01    1.84235E-10
 8.50000E-01    2.23714E-10
 1.00000E+00    2.63193E-10
 1.30000E+00    3.42151E-10
 1.50000E+00    3.94790E-10
 1.80000E+00    4.73748E-10
 2.00000E+00    5.26386E-10
 2.25000E+00    5.92185E-10
 2.50000E+00    6.57983E-10
 2.75000E+00    7.23781E-10
 3.00000E+00    7.89579E-10
 3.20000E+00    8.42218E-10
 3.40000E+00    8.94857E-10
 3.60000E+00    9.47495E-10
 3.80000E+00    1.00013E-09
 4.00000E+00    1.05277E-09
 4.20000E+00    1.10541E-09
 4.40000E+00    1.15805E-09
 4.60000E+00    1.21069E-09
 4.80000E+00    1.26333E-09
 5.00000E+00    1.31597E-09
 5.50000E+00    1.44756E-09
 6.00000E+00    1.57916E-09
 7.00000E+00    1.84235E-09
 8.00000E+00    2.10555E-09
 9.00000E+00    2.36874E-09
 1.00000E+01    2.63193E-09
 1.10000E+01    2.89512E-09
 1.20000E+01    3.15832E-09
 1.30000E+01    3.42151E-09
 1.40000E+01    3.68470E-09
 1.50000E+01    1.28161E-07
 1.60000E+01    2.55531E-06
 1.70000E+01    2.69265E-05
 1.80000E+01    3.24826E-04
 1.90000E+01    1.07154E-03
 2.00000E+01    3.73086E-03
