# n + Pb204 : (n,n'06)  
# jendl4.0   O.Iwamoto, N.Iwamoto              EVAL-MAR10
# uncertainties: n
# # energies =    49
#   E(MeV)       xs(mb) 
 1.59059E+00    0.00000E+00
 1.60000E+00    2.03457E+01
 1.61270E+00    3.16972E+01
 1.67352E+00    6.91602E+01
 1.68951E+00    7.61124E+01
 1.72067E+00    8.91781E+01
 1.73852E+00    9.54323E+01
 1.76979E+00    1.05932E+02
 1.80000E+00    1.13134E+02
 1.82644E+00    1.19382E+02
 1.88137E+00    1.30022E+02
 1.94285E+00    1.37866E+02
 2.00000E+00    1.42595E+02
 2.50000E+00    1.44515E+02
 3.00000E+00    1.19895E+02
 3.50000E+00    9.09237E+01
 4.00000E+00    6.18176E+01
 4.50000E+00    3.77571E+01
 5.00000E+00    2.12666E+01
 5.50000E+00    1.13469E+01
 6.00000E+00    5.88007E+00
 6.50000E+00    3.01308E+00
 7.00000E+00    1.55002E+00
 7.50000E+00    8.18228E-01
 8.00000E+00    4.56848E-01
 8.50000E+00    2.78674E-01
 9.00000E+00    1.89851E-01
 9.50000E+00    1.44388E-01
 1.00000E+01    1.19950E-01
 1.05000E+01    1.05720E-01
 1.10000E+01    9.65340E-02
 1.15000E+01    8.97504E-02
 1.20000E+01    8.44203E-02
 1.25000E+01    8.00262E-02
 1.30000E+01    7.62198E-02
 1.35000E+01    7.28335E-02
 1.40000E+01    6.97369E-02
 1.45000E+01    6.71530E-02
 1.50000E+01    6.48989E-02
 1.55000E+01    6.27179E-02
 1.60000E+01    6.05923E-02
 1.65000E+01    5.84497E-02
 1.70000E+01    5.62784E-02
 1.75000E+01    5.42326E-02
 1.80000E+01    5.22506E-02
 1.85000E+01    5.03824E-02
 1.90000E+01    4.85529E-02
 1.95000E+01    4.67763E-02
 2.00000E+01    4.50715E-02
