# n + Pb204 : (n,n'03)  
# jendl4.0   O.Iwamoto, N.Iwamoto              EVAL-MAR10
# uncertainties: n
# # energies =    54
#   E(MeV)       xs(mb) 
 1.35785E+00    0.00000E+00
 1.40000E+00    7.08574E+01
 1.50000E+00    1.53946E+02
 1.57100E+00    2.01423E+02
 1.59033E+00    2.12544E+02
 1.59059E+00    2.12596E+02
 1.60000E+00    2.13936E+02
 1.61270E+00    2.18549E+02
 1.67352E+00    2.34145E+02
 1.68951E+00    2.34749E+02
 1.72067E+00    2.36174E+02
 1.73852E+00    2.35840E+02
 1.76979E+00    2.35848E+02
 1.80000E+00    2.33027E+02
 1.82644E+00    2.31903E+02
 1.88137E+00    2.29097E+02
 1.94285E+00    2.24118E+02
 2.00000E+00    2.19061E+02
 2.50000E+00    1.84557E+02
 3.00000E+00    1.48009E+02
 3.50000E+00    1.07485E+02
 4.00000E+00    6.98992E+01
 4.50000E+00    4.18781E+01
 5.00000E+00    2.37913E+01
 5.50000E+00    1.32129E+01
 6.00000E+00    7.42590E+00
 6.50000E+00    4.36856E+00
 7.00000E+00    2.77812E+00
 7.50000E+00    1.95413E+00
 8.00000E+00    1.52287E+00
 8.50000E+00    1.29004E+00
 9.00000E+00    1.15614E+00
 9.50000E+00    1.07025E+00
 1.00000E+01    1.00656E+00
 1.05000E+01    9.52334E-01
 1.10000E+01    9.03465E-01
 1.15000E+01    8.56730E-01
 1.20000E+01    8.13843E-01
 1.25000E+01    7.75172E-01
 1.30000E+01    7.40416E-01
 1.35000E+01    7.08233E-01
 1.40000E+01    6.78827E-01
 1.45000E+01    6.53983E-01
 1.50000E+01    6.31731E-01
 1.55000E+01    6.10697E-01
 1.60000E+01    5.89935E-01
 1.65000E+01    5.68265E-01
 1.70000E+01    5.46756E-01
 1.75000E+01    5.26634E-01
 1.80000E+01    5.07140E-01
 1.85000E+01    4.88229E-01
 1.90000E+01    4.70178E-01
 1.95000E+01    4.52808E-01
 2.00000E+01    4.36207E-01
