# n + Pb204 : (n,el)    
# jendl4.0   O.Iwamoto, N.Iwamoto              EVAL-MAR10
# uncertainties: n
# # energies =    69
#   E(MeV)       xs(mb) 
 1.00000E-10    1.40599E+04
 5.00000E-09    1.23138E+04
 1.00000E-08    1.22666E+04
 1.50000E-08    1.22480E+04
 2.00000E-08    1.22380E+04
 2.50000E-08    1.22316E+04
 3.00000E-08    1.22278E+04
 3.50000E-08    1.22234E+04
 4.20000E-08    1.22206E+04
 5.00000E-08    1.22184E+04
 5.80000E-08    1.22161E+04
 6.70000E-08    1.22137E+04
 8.00000E-08    1.22125E+04
 1.00000E-07    1.22105E+04
 1.40000E-07    1.22080E+04
 1.80000E-07    1.22073E+04
 2.20000E-07    1.22070E+04
 2.50000E-07    1.22068E+04
 2.80000E-07    1.22065E+04
 3.00000E-07    1.22064E+04
 3.20000E-07    1.22062E+04
 3.50000E-07    1.22058E+04
 4.00000E-07    1.22052E+04
 5.00000E-07    1.22043E+04
 6.25000E-07    1.22034E+04
 7.80000E-07    1.22032E+04
 8.50000E-07    1.22031E+04
 9.10000E-07    1.22031E+04
 9.50000E-07    1.22030E+04
 9.72000E-07    1.22030E+04
 9.96000E-07    1.22030E+04
 1.02000E-06    1.22029E+04
 1.04500E-06    1.22029E+04
 1.07100E-06    1.22029E+04
 1.09700E-06    1.22028E+04
 1.12300E-06    1.22028E+04
 1.15000E-06    1.22027E+04
 1.30000E-06    1.22025E+04
 1.50000E-06    1.22020E+04
 2.10000E-06    1.22013E+04
 2.60000E-06    1.22005E+04
 3.30000E-06    1.21996E+04
 4.00000E-06    1.21960E+04
 9.87700E-06    1.21882E+04
 1.59680E-05    1.21773E+04
 2.77000E-05    1.21575E+04
 4.80520E-05    1.21273E+04
 7.55014E-05    1.20675E+04
 1.48728E-04    1.18981E+04
 3.67262E-04    1.14708E+04
 9.06898E-04    1.04966E+04
 1.42510E-03    1.84907E+04
 2.23945E-03    1.89279E+04
 3.51910E-03    1.05074E+04
 5.53000E-03    1.44744E+04
 9.11800E-03    1.36835E+04
 1.50300E-02    1.12008E+04
 2.47800E-02    1.12400E+04
 4.08500E-02    1.07116E+04
 6.73400E-02    9.66503E+03
 1.11000E-01    8.39162E+03
 1.83000E-01    7.74077E+03
 3.02000E-01    6.49689E+03
 5.00000E-01    5.54492E+03
 8.21000E-01    4.71787E+03
 1.35300E+00    4.32545E+03
 2.23100E+00    4.75746E+03
 3.67900E+00    4.44213E+03
 6.06500E+00    2.93920E+03
