# n + Pb204 : (n,n'01)  
# jendl4.0   O.Iwamoto, N.Iwamoto              EVAL-MAR10
# uncertainties: n
# # energies =    58
#   E(MeV)       xs(mb) 
 9.03617E-01    0.00000E+00
 1.00000E+00    2.36461E+02
 1.20000E+00    4.50624E+02
 1.28030E+00    5.13852E+02
 1.35785E+00    5.51731E+02
 1.40000E+00    5.43383E+02
 1.50000E+00    5.53007E+02
 1.57100E+00    5.60669E+02
 1.59033E+00    5.60629E+02
 1.59059E+00    5.60246E+02
 1.60000E+00    5.51954E+02
 1.61270E+00    5.47696E+02
 1.67352E+00    5.22939E+02
 1.68951E+00    5.12201E+02
 1.72067E+00    4.93319E+02
 1.73852E+00    4.81936E+02
 1.76979E+00    4.64751E+02
 1.80000E+00    4.46069E+02
 1.82644E+00    4.33548E+02
 1.88137E+00    4.10403E+02
 1.94285E+00    3.86663E+02
 2.00000E+00    3.67770E+02
 2.50000E+00    2.79872E+02
 3.00000E+00    2.07652E+02
 3.50000E+00    1.35887E+02
 4.00000E+00    8.19878E+01
 4.50000E+00    4.72634E+01
 5.00000E+00    2.65104E+01
 5.50000E+00    1.47972E+01
 6.00000E+00    8.45651E+00
 6.50000E+00    5.12001E+00
 7.00000E+00    3.39268E+00
 7.50000E+00    2.49917E+00
 8.00000E+00    2.02833E+00
 8.50000E+00    1.76844E+00
 9.00000E+00    1.61123E+00
 9.50000E+00    1.50179E+00
 1.00000E+01    1.41329E+00
 1.05000E+01    1.33562E+00
 1.10000E+01    1.26106E+00
 1.15000E+01    1.19179E+00
 1.20000E+01    1.13098E+00
 1.25000E+01    1.07355E+00
 1.30000E+01    1.02392E+00
 1.35000E+01    9.79845E-01
 1.40000E+01    9.43186E-01
 1.45000E+01    9.03200E-01
 1.50000E+01    8.71674E-01
 1.55000E+01    8.41803E-01
 1.60000E+01    8.12519E-01
 1.65000E+01    7.87101E-01
 1.70000E+01    7.60789E-01
 1.75000E+01    7.25061E-01
 1.80000E+01    6.92390E-01
 1.85000E+01    6.65984E-01
 1.90000E+01    6.41009E-01
 1.95000E+01    6.17212E-01
 2.00000E+01    5.96009E-01
