# n + Pb204 : (n,n'09)  
# jendl4.0   O.Iwamoto, N.Iwamoto              EVAL-MAR10
# uncertainties: n
# # energies =    45
#   E(MeV)       xs(mb) 
 1.68951E+00    0.00000E+00
 1.72067E+00    2.39235E+01
 1.73852E+00    3.09796E+01
 1.76979E+00    4.09123E+01
 1.80000E+00    4.89634E+01
 1.82644E+00    5.53857E+01
 1.88137E+00    6.65706E+01
 1.94285E+00    7.46131E+01
 2.00000E+00    7.94238E+01
 2.50000E+00    8.88556E+01
 3.00000E+00    7.69814E+01
 3.50000E+00    6.03553E+01
 4.00000E+00    4.18885E+01
 4.50000E+00    2.58050E+01
 5.00000E+00    1.46341E+01
 5.50000E+00    7.91758E+00
 6.00000E+00    4.21674E+00
 6.50000E+00    2.27075E+00
 7.00000E+00    1.26959E+00
 7.50000E+00    7.61348E-01
 8.00000E+00    5.04894E-01
 8.50000E+00    3.74451E-01
 9.00000E+00    3.06171E-01
 9.50000E+00    2.68281E-01
 1.00000E+01    2.45052E-01
 1.05000E+01    2.28782E-01
 1.10000E+01    2.15883E-01
 1.15000E+01    2.04448E-01
 1.20000E+01    1.94204E-01
 1.25000E+01    1.85111E-01
 1.30000E+01    1.76796E-01
 1.35000E+01    1.69220E-01
 1.40000E+01    1.62105E-01
 1.45000E+01    1.56215E-01
 1.50000E+01    1.50926E-01
 1.55000E+01    1.45925E-01
 1.60000E+01    1.41074E-01
 1.65000E+01    1.36031E-01
 1.70000E+01    1.31041E-01
 1.75000E+01    1.26383E-01
 1.80000E+01    1.21785E-01
 1.85000E+01    1.17413E-01
 1.90000E+01    1.13212E-01
 1.95000E+01    1.09141E-01
 2.00000E+01    1.05185E-01
