# n + Pb204 : (n,n'11)  
# jendl4.0   O.Iwamoto, N.Iwamoto              EVAL-MAR10
# uncertainties: n
# # energies =    43
#   E(MeV)       xs(mb) 
 1.73852E+00    0.00000E+00
 1.76979E+00    1.00479E+01
 1.80000E+00    1.43635E+01
 1.82644E+00    1.74592E+01
 1.88137E+00    2.26547E+01
 1.94285E+00    2.62632E+01
 2.00000E+00    2.83779E+01
 2.50000E+00    3.27217E+01
 3.00000E+00    2.86556E+01
 3.50000E+00    2.28111E+01
 4.00000E+00    1.59874E+01
 4.50000E+00    9.90649E+00
 5.00000E+00    5.69400E+00
 5.50000E+00    3.18280E+00
 6.00000E+00    1.80274E+00
 6.50000E+00    1.07335E+00
 7.00000E+00    6.91844E-01
 7.50000E+00    4.91759E-01
 8.00000E+00    3.85504E-01
 8.50000E+00    3.27374E-01
 9.00000E+00    2.93715E-01
 9.50000E+00    2.72333E-01
 1.00000E+01    2.56880E-01
 1.05000E+01    2.44161E-01
 1.10000E+01    2.32579E-01
 1.15000E+01    2.21389E-01
 1.20000E+01    2.10987E-01
 1.25000E+01    2.01352E-01
 1.30000E+01    1.92527E-01
 1.35000E+01    1.84305E-01
 1.40000E+01    1.76655E-01
 1.45000E+01    1.70189E-01
 1.50000E+01    1.64519E-01
 1.55000E+01    1.59034E-01
 1.60000E+01    1.53708E-01
 1.65000E+01    1.48337E-01
 1.70000E+01    1.42875E-01
 1.75000E+01    1.37781E-01
 1.80000E+01    1.32837E-01
 1.85000E+01    1.28107E-01
 1.90000E+01    1.23515E-01
 1.95000E+01    1.19064E-01
 2.00000E+01    1.14778E-01
