# n + Pb204 : (n,n'05)  
# jendl4.0   O.Iwamoto, N.Iwamoto              EVAL-MAR10
# uncertainties: n
# # energies =    50
#   E(MeV)       xs(mb) 
 1.59033E+00    0.00000E+00
 1.59059E+00    1.66645E+00
 1.60000E+00    8.81903E+00
 1.61270E+00    1.30352E+01
 1.67352E+00    2.60211E+01
 1.68951E+00    2.87003E+01
 1.72067E+00    3.20083E+01
 1.73852E+00    3.39826E+01
 1.76979E+00    3.60496E+01
 1.80000E+00    3.80650E+01
 1.82644E+00    3.95884E+01
 1.88137E+00    4.20598E+01
 1.94285E+00    4.28884E+01
 2.00000E+00    4.27867E+01
 2.50000E+00    3.89538E+01
 3.00000E+00    3.29599E+01
 3.50000E+00    2.53771E+01
 4.00000E+00    1.70025E+01
 4.50000E+00    1.01407E+01
 5.00000E+00    5.63028E+00
 5.50000E+00    3.01228E+00
 6.00000E+00    1.59554E+00
 6.50000E+00    8.55747E-01
 7.00000E+00    4.76632E-01
 7.50000E+00    2.85159E-01
 8.00000E+00    1.89137E-01
 8.50000E+00    1.40585E-01
 9.00000E+00    1.15267E-01
 9.50000E+00    1.01201E-01
 1.00000E+01    9.25090E-02
 1.05000E+01    8.63498E-02
 1.10000E+01    8.14308E-02
 1.15000E+01    7.70378E-02
 1.20000E+01    7.31359E-02
 1.25000E+01    6.96684E-02
 1.30000E+01    6.65247E-02
 1.35000E+01    6.36551E-02
 1.40000E+01    6.09919E-02
 1.45000E+01    5.87545E-02
 1.50000E+01    5.67939E-02
 1.55000E+01    5.48910E-02
 1.60000E+01    5.30339E-02
 1.65000E+01    5.11602E-02
 1.70000E+01    4.92603E-02
 1.75000E+01    4.74701E-02
 1.80000E+01    4.57355E-02
 1.85000E+01    4.41004E-02
 1.90000E+01    4.24989E-02
 1.95000E+01    4.09439E-02
 2.00000E+01    3.94516E-02
