# n + Pb204 : (n,n'04)  
# jendl4.0   O.Iwamoto, N.Iwamoto              EVAL-MAR10
# uncertainties: n
# # energies =    51
#   E(MeV)       xs(mb) 
 1.57100E+00    0.00000E+00
 1.59033E+00    8.61831E+00
 1.59059E+00    8.70380E+00
 1.60000E+00    1.17809E+01
 1.61270E+00    1.60524E+01
 1.67352E+00    3.61413E+01
 1.68951E+00    4.11728E+01
 1.72067E+00    5.05170E+01
 1.73852E+00    5.51945E+01
 1.76979E+00    6.30908E+01
 1.80000E+00    6.98375E+01
 1.82644E+00    7.53726E+01
 1.88137E+00    8.41649E+01
 1.94285E+00    9.30763E+01
 2.00000E+00    1.00378E+02
 2.50000E+00    1.21703E+02
 3.00000E+00    1.09490E+02
 3.50000E+00    8.83967E+01
 4.00000E+00    6.33431E+01
 4.50000E+00    4.08033E+01
 5.00000E+00    2.44067E+01
 5.50000E+00    1.40295E+01
 6.00000E+00    8.06228E+00
 6.50000E+00    4.80192E+00
 7.00000E+00    3.05687E+00
 7.50000E+00    2.13030E+00
 8.00000E+00    1.63616E+00
 8.50000E+00    1.36647E+00
 9.00000E+00    1.21171E+00
 9.50000E+00    1.11471E+00
 1.00000E+01    1.04570E+00
 1.05000E+01    9.89494E-01
 1.10000E+01    9.39673E-01
 1.15000E+01    8.92470E-01
 1.20000E+01    8.48648E-01
 1.25000E+01    8.09328E-01
 1.30000E+01    7.73004E-01
 1.35000E+01    7.39974E-01
 1.40000E+01    7.08935E-01
 1.45000E+01    6.83088E-01
 1.50000E+01    6.60225E-01
 1.55000E+01    6.38102E-01
 1.60000E+01    6.16587E-01
 1.65000E+01    5.94780E-01
 1.70000E+01    5.72535E-01
 1.75000E+01    5.51758E-01
 1.80000E+01    5.31620E-01
 1.85000E+01    5.12506E-01
 1.90000E+01    4.93819E-01
 1.95000E+01    4.75770E-01
 2.00000E+01    4.58451E-01
