# n + Pb204 : (n,n')    
# jendl4.0   O.Iwamoto, N.Iwamoto              EVAL-MAR10
# uncertainties: n
# # energies =    66
#   E(MeV)       xs(mb) 
 1.50000E-01    0.00000E+00
 2.00000E-01    4.66303E-04
 4.00000E-01    1.25116E-02
 5.00000E-01    3.29471E-02
 6.00000E-01    7.17876E-02
 8.00000E-01    2.43192E-01
 9.03617E-01    4.04071E-01
 9.03618E-01    4.06526E-01
 1.00000E+00    2.36900E+02
 1.20000E+00    4.51374E+02
 1.28030E+00    5.14822E+02
 1.35785E+00    5.98136E+02
 1.40000E+00    6.81442E+02
 1.50000E+00    8.19161E+02
 1.57100E+00    9.03673E+02
 1.59033E+00    9.27750E+02
 1.59059E+00    9.29246E+02
 1.60000E+00    9.54652E+02
 1.61270E+00    9.77961E+02
 1.67351E+00    1.08978E+03
 1.67352E+00    1.08981E+03
 1.68951E+00    1.12351E+03
 1.72067E+00    1.19003E+03
 1.73852E+00    1.22667E+03
 1.76979E+00    1.28905E+03
 1.80000E+00    1.34841E+03
 1.82644E+00    1.39442E+03
 1.88137E+00    1.48230E+03
 1.94285E+00    1.57480E+03
 2.00000E+00    1.65223E+03
 2.50000E+00    2.09787E+03
 3.00000E+00    2.35387E+03
 3.50000E+00    2.49872E+03
 4.00000E+00    2.57765E+03
 4.50000E+00    2.62378E+03
 5.00000E+00    2.63883E+03
 5.50000E+00    2.61953E+03
 6.00000E+00    2.58018E+03
 6.50000E+00    2.54142E+03
 7.00000E+00    2.51643E+03
 7.50000E+00    2.50844E+03
 8.00000E+00    2.51327E+03
 8.50000E+00    2.52357E+03
 9.00000E+00    2.36639E+03
 9.50000E+00    2.06844E+03
 1.00000E+01    1.68158E+03
 1.05000E+01    1.31318E+03
 1.10000E+01    1.01031E+03
 1.15000E+01    7.81730E+02
 1.20000E+01    6.16499E+02
 1.25000E+01    5.00344E+02
 1.30000E+01    4.18411E+02
 1.35000E+01    3.55477E+02
 1.40000E+01    3.10420E+02
 1.45000E+01    2.76826E+02
 1.50000E+01    2.52480E+02
 1.55000E+01    2.33357E+02
 1.60000E+01    2.18449E+02
 1.65000E+01    2.05380E+02
 1.70000E+01    1.93865E+02
 1.75000E+01    1.84958E+02
 1.80000E+01    1.76903E+02
 1.85000E+01    1.69097E+02
 1.90000E+01    1.62320E+02
 1.95000E+01    1.56342E+02
 2.00000E+01    1.51217E+02
