# n + Cr 50 : (n,n'05)  
# jendl4.0   N.Iwamoto                         EVAL-Dec09
# uncertainties: n
# # energies =    70
#   E(MeV)       xs(mb) 
 3.22758E+00    0.00000E+00
 3.39171E+00    3.79547E-01
 3.50000E+00    1.45724E+00
 3.66714E+00    2.59530E+00
 3.67474E+00    2.52176E+00
 3.68423E+00    2.57031E+00
 3.70280E+00    2.59430E+00
 3.76656E+00    2.99752E+00
 3.76860E+00    2.96559E+00
 3.77238E+00    2.97176E+00
 3.86889E+00    3.64291E+00
 3.90265E+00    3.80435E+00
 3.90429E+00    3.78550E+00
 3.92194E+00    3.87053E+00
 3.92775E+00    3.84591E+00
 3.95315E+00    3.96959E+00
 3.97397E+00    4.08739E+00
 3.97672E+00    4.10450E+00
 4.00000E+00    4.16531E+00
 4.01722E+00    4.26934E+00
 4.12159E+00    5.00715E+00
 4.13352E+00    5.08107E+00
 4.15260E+00    5.19990E+00
 4.21310E+00    5.63686E+00
 4.27758E+00    6.10369E+00
 4.29196E+00    6.19901E+00
 4.36848E+00    6.68759E+00
 4.43785E+00    7.12376E+00
 4.45111E+00    7.19766E+00
 4.50000E+00    7.40214E+00
 4.61526E+00    8.01143E+00
 4.63801E+00    8.08373E+00
 4.74748E+00    8.51440E+00
 4.77043E+00    8.57887E+00
 4.82348E+00    8.75717E+00
 4.83572E+00    8.78850E+00
 4.84083E+00    8.80437E+00
 4.86837E+00    8.89039E+00
 4.89796E+00    8.97526E+00
 5.00000E+00    9.18426E+00
 5.50000E+00    9.48953E+00
 6.00000E+00    9.04809E+00
 6.50000E+00    8.25123E+00
 7.00000E+00    7.34122E+00
 7.50000E+00    6.45457E+00
 8.00000E+00    5.64821E+00
 8.50000E+00    4.96672E+00
 9.00000E+00    4.32735E+00
 9.50000E+00    3.76765E+00
 1.00000E+01    3.28000E+00
 1.05000E+01    2.86356E+00
 1.10000E+01    2.49626E+00
 1.15000E+01    2.18276E+00
 1.20000E+01    1.91717E+00
 1.25000E+01    1.69444E+00
 1.30000E+01    1.50702E+00
 1.35000E+01    1.35086E+00
 1.40000E+01    1.21970E+00
 1.45000E+01    1.10985E+00
 1.50000E+01    1.01669E+00
 1.55000E+01    9.37245E-01
 1.60000E+01    8.68738E-01
 1.65000E+01    8.09144E-01
 1.70000E+01    7.56768E-01
 1.75000E+01    7.10341E-01
 1.80000E+01    6.68985E-01
 1.85000E+01    6.31825E-01
 1.90000E+01    5.98310E-01
 1.95000E+01    5.68069E-01
 2.00000E+01    5.40390E-01
