# n + Cr 50 : (n,n'02)  
# jendl4.0   N.Iwamoto                         EVAL-Dec09
# uncertainties: n
# # energies =    78
#   E(MeV)       xs(mb) 
 1.91928E+00    0.00000E+00
 2.00000E+00    1.31293E+01
 2.25000E+00    4.44966E+01
 2.50000E+00    9.10011E+01
 2.75000E+00    1.43947E+02
 2.98356E+00    1.88161E+02
 3.00000E+00    1.87456E+02
 3.22494E+00    2.06096E+02
 3.22758E+00    2.01355E+02
 3.39171E+00    2.02524E+02
 3.50000E+00    1.99496E+02
 3.66714E+00    1.99808E+02
 3.67474E+00    1.97363E+02
 3.68423E+00    1.96616E+02
 3.70280E+00    1.93677E+02
 3.76656E+00    1.87774E+02
 3.76860E+00    1.86950E+02
 3.77238E+00    1.86385E+02
 3.86889E+00    1.72114E+02
 3.90265E+00    1.68783E+02
 3.90429E+00    1.68413E+02
 3.92194E+00    1.66733E+02
 3.92775E+00    1.65626E+02
 3.95315E+00    1.63156E+02
 3.97397E+00    1.61386E+02
 3.97672E+00    1.59394E+02
 4.00000E+00    1.54479E+02
 4.01722E+00    1.52430E+02
 4.12159E+00    1.38785E+02
 4.13352E+00    1.37689E+02
 4.15260E+00    1.33050E+02
 4.21310E+00    1.24457E+02
 4.27758E+00    1.18615E+02
 4.29196E+00    1.16074E+02
 4.36848E+00    1.08178E+02
 4.43785E+00    1.02944E+02
 4.45111E+00    1.02052E+02
 4.50000E+00    9.89147E+01
 4.61526E+00    9.23726E+01
 4.63801E+00    9.09965E+01
 4.74748E+00    8.38704E+01
 4.77043E+00    8.26843E+01
 4.82348E+00    7.94350E+01
 4.83572E+00    7.86538E+01
 4.84083E+00    7.83924E+01
 4.86837E+00    7.70998E+01
 4.89796E+00    7.52836E+01
 5.00000E+00    7.03625E+01
 5.50000E+00    5.23981E+01
 6.00000E+00    4.02219E+01
 6.50000E+00    3.15761E+01
 7.00000E+00    2.51812E+01
 7.50000E+00    2.03449E+01
 8.00000E+00    1.66115E+01
 8.50000E+00    1.37779E+01
 9.00000E+00    1.14229E+01
 9.50000E+00    9.55419E+00
 1.00000E+01    8.07211E+00
 1.05000E+01    6.90988E+00
 1.10000E+01    5.97039E+00
 1.15000E+01    5.21921E+00
 1.20000E+01    4.61518E+00
 1.25000E+01    4.12572E+00
 1.30000E+01    3.72167E+00
 1.35000E+01    3.38572E+00
 1.40000E+01    3.10109E+00
 1.45000E+01    2.85810E+00
 1.50000E+01    2.64696E+00
 1.55000E+01    2.46226E+00
 1.60000E+01    2.29899E+00
 1.65000E+01    2.15310E+00
 1.70000E+01    2.02245E+00
 1.75000E+01    1.90499E+00
 1.80000E+01    1.79906E+00
 1.85000E+01    1.70292E+00
 1.90000E+01    1.61548E+00
 1.95000E+01    1.53612E+00
 2.00000E+01    1.46296E+00
