# n + Cr 50 : (n,n'04)  
# jendl4.0   N.Iwamoto                         EVAL-Dec09
# uncertainties: n
# # energies =    71
#   E(MeV)       xs(mb) 
 3.22494E+00    0.00000E+00
 3.22758E+00    3.50069E+01
 3.39171E+00    1.19419E+02
 3.50000E+00    1.30461E+02
 3.66714E+00    1.42888E+02
 3.67474E+00    1.43252E+02
 3.68423E+00    1.43349E+02
 3.70280E+00    1.44200E+02
 3.76656E+00    1.42985E+02
 3.76860E+00    1.43006E+02
 3.77238E+00    1.42861E+02
 3.86889E+00    1.37579E+02
 3.90265E+00    1.38010E+02
 3.90429E+00    1.38019E+02
 3.92194E+00    1.37846E+02
 3.92775E+00    1.37829E+02
 3.95315E+00    1.37582E+02
 3.97397E+00    1.37660E+02
 3.97672E+00    1.35797E+02
 4.00000E+00    1.33423E+02
 4.01722E+00    1.32832E+02
 4.12159E+00    1.26449E+02
 4.13352E+00    1.25906E+02
 4.15260E+00    1.24063E+02
 4.21310E+00    1.18865E+02
 4.27758E+00    1.15099E+02
 4.29196E+00    1.12849E+02
 4.36848E+00    1.08876E+02
 4.43785E+00    1.04497E+02
 4.45111E+00    1.03710E+02
 4.50000E+00    1.01727E+02
 4.61526E+00    9.72894E+01
 4.63801E+00    9.63249E+01
 4.74748E+00    9.10138E+01
 4.77043E+00    9.00308E+01
 4.82348E+00    8.66802E+01
 4.83572E+00    8.55795E+01
 4.84083E+00    8.51607E+01
 4.86837E+00    8.36770E+01
 4.89796E+00    8.15156E+01
 5.00000E+00    7.61479E+01
 5.50000E+00    5.57527E+01
 6.00000E+00    4.06446E+01
 6.50000E+00    2.99087E+01
 7.00000E+00    2.22933E+01
 7.50000E+00    1.68766E+01
 8.00000E+00    1.29815E+01
 8.50000E+00    1.02309E+01
 9.00000E+00    8.09329E+00
 9.50000E+00    6.49576E+00
 1.00000E+01    5.28910E+00
 1.05000E+01    4.37900E+00
 1.10000E+01    3.66516E+00
 1.15000E+01    3.11147E+00
 1.20000E+01    2.67876E+00
 1.25000E+01    2.33909E+00
 1.30000E+01    2.06864E+00
 1.35000E+01    1.85272E+00
 1.40000E+01    1.67733E+00
 1.45000E+01    1.53369E+00
 1.50000E+01    1.41345E+00
 1.55000E+01    1.31140E+00
 1.60000E+01    1.22325E+00
 1.65000E+01    1.14605E+00
 1.70000E+01    1.07750E+00
 1.75000E+01    1.01603E+00
 1.80000E+01    9.60590E-01
 1.85000E+01    9.10187E-01
 1.90000E+01    8.64234E-01
 1.95000E+01    8.22369E-01
 2.00000E+01    7.83712E-01
