# n + Cr 50 : (n,n')    
# jendl4.0   N.Iwamoto                         EVAL-Dec09
# uncertainties: n
# # energies =   110
#   E(MeV)       xs(mb) 
 1.05000E-01    0.00000E+00
 1.10000E-01    1.56402E-05
 1.20000E-01    1.76133E-05
 1.30000E-01    1.82970E-05
 1.40000E-01    1.84776E-05
 1.50000E-01    1.84141E-05
 1.60000E-01    1.82218E-05
 1.70000E-01    1.79606E-05
 1.80000E-01    1.76646E-05
 1.90000E-01    1.73542E-05
 2.00000E-01    1.70415E-05
 2.25000E-01    1.10549E-04
 2.50000E-01    1.17648E-04
 2.75000E-01    1.18347E-04
 3.00000E-01    1.17190E-04
 4.00000E-01    3.98667E-04
 5.00000E-01    9.91863E-04
 6.00000E-01    2.05649E-03
 7.00000E-01    3.77946E-03
 7.99119E-01    6.37079E-03
 8.00000E-01    1.76672E+02
 9.00000E-01    4.94369E+02
 1.00000E+00    5.81406E+02
 1.10000E+00    6.48035E+02
 1.20000E+00    7.05730E+02
 1.30000E+00    7.57700E+02
 1.40000E+00    8.04667E+02
 1.50000E+00    8.46480E+02
 1.60000E+00    8.82765E+02
 1.70000E+00    9.13221E+02
 1.80000E+00    9.37822E+02
 1.90000E+00    9.56734E+02
 1.91928E+00    9.59758E+02
 2.00000E+00    9.74146E+02
 2.25000E+00    1.00158E+03
 2.50000E+00    1.01468E+03
 2.75000E+00    1.01678E+03
 2.98356E+00    1.00826E+03
 3.00000E+00    1.04558E+03
 3.22494E+00    1.05822E+03
 3.22758E+00    1.06932E+03
 3.39171E+00    1.08773E+03
 3.50000E+00    1.08667E+03
 3.66714E+00    1.07893E+03
 3.67474E+00    1.07930E+03
 3.68423E+00    1.08576E+03
 3.70280E+00    1.08834E+03
 3.76656E+00    1.10437E+03
 3.76860E+00    1.10474E+03
 3.77238E+00    1.10745E+03
 3.86889E+00    1.12966E+03
 3.90265E+00    1.13092E+03
 3.90429E+00    1.13109E+03
 3.92194E+00    1.13420E+03
 3.92775E+00    1.13489E+03
 3.95315E+00    1.13849E+03
 3.97397E+00    1.13935E+03
 3.97672E+00    1.14344E+03
 4.00000E+00    1.14961E+03
 4.01722E+00    1.15137E+03
 4.12159E+00    1.16521E+03
 4.13352E+00    1.16665E+03
 4.15260E+00    1.17402E+03
 4.21310E+00    1.18407E+03
 4.27758E+00    1.18881E+03
 4.29196E+00    1.19260E+03
 4.36848E+00    1.19737E+03
 4.43785E+00    1.20396E+03
 4.45111E+00    1.20436E+03
 4.50000E+00    1.20310E+03
 4.61526E+00    1.19637E+03
 4.63801E+00    1.19446E+03
 4.74748E+00    1.19090E+03
 4.77043E+00    1.18926E+03
 4.82348E+00    1.18820E+03
 4.83572E+00    1.18780E+03
 4.84083E+00    1.18792E+03
 4.86837E+00    1.18667E+03
 4.89796E+00    1.18693E+03
 5.00000E+00    1.18309E+03
 5.50000E+00    1.14783E+03
 6.00000E+00    1.10956E+03
 6.50000E+00    1.07115E+03
 7.00000E+00    1.03396E+03
 7.50000E+00    9.97864E+02
 8.00000E+00    9.62663E+02
 8.50000E+00    9.36932E+02
 9.00000E+00    9.01760E+02
 9.50000E+00    8.68448E+02
 1.00000E+01    8.37507E+02
 1.05000E+01    8.06555E+02
 1.10000E+01    7.79966E+02
 1.15000E+01    7.43440E+02
 1.20000E+01    6.90682E+02
 1.25000E+01    6.27102E+02
 1.30000E+01    5.58470E+02
 1.35000E+01    4.92825E+02
 1.40000E+01    4.34197E+02
 1.45000E+01    3.84605E+02
 1.50000E+01    3.43366E+02
 1.55000E+01    3.08965E+02
 1.60000E+01    2.81259E+02
 1.65000E+01    2.58298E+02
 1.70000E+01    2.39120E+02
 1.75000E+01    2.22985E+02
 1.80000E+01    2.09303E+02
 1.85000E+01    1.97406E+02
 1.90000E+01    1.87021E+02
 1.95000E+01    1.77922E+02
 2.00000E+01    1.69757E+02
