# n + Mg 25 : (n,el)    
# jendl4.0   M.HATCHYA(DEC),T.ASAMI(NEDAC)     EVAL-MAR87
# uncertainties: n
# # energies =   171
#   E(MeV)       xs(mb) 
 1.00000E-11    7.39844E+03
 1.00000E-07    2.60196E+03
 4.13990E-07    2.59765E+03
 5.31580E-07    2.59709E+03
 6.82560E-07    2.59666E+03
 8.76420E-07    2.59612E+03
 1.12540E-06    2.59593E+03
 1.44500E-06    2.59592E+03
 1.85540E-06    2.59590E+03
 2.37240E-06    2.59589E+03
 3.05900E-06    2.59586E+03
 3.92790E-06    2.59583E+03
 5.04350E-06    2.59580E+03
 6.47600E-06    2.59575E+03
 8.31530E-06    2.59569E+03
 1.06770E-05    2.59561E+03
 1.37100E-05    2.59551E+03
 1.76030E-05    2.59539E+03
 2.26030E-05    2.59522E+03
 2.92030E-05    2.59501E+03
 3.72670E-05    2.59474E+03
 4.78510E-05    2.59439E+03
 6.14420E-05    2.59395E+03
 7.88930E-05    2.59337E+03
 1.01300E-04    2.59264E+03
 1.30070E-04    2.59169E+03
 1.67020E-04    2.59048E+03
 2.14450E-04    2.58893E+03
 2.75360E-04    2.58693E+03
 3.53580E-04    2.58436E+03
 4.54000E-04    2.58106E+03
 5.82950E-04    2.57683E+03
 7.48520E-04    2.57140E+03
 9.61120E-04    2.56442E+03
 1.23410E-03    2.55546E+03
 1.58460E-03    2.54396E+03
 2.03470E-03    2.53414E+03
 2.24870E-03    2.52764E+03
 2.48520E-03    2.52234E+03
 2.61260E-03    2.51870E+03
 2.74650E-03    2.51403E+03
 3.03540E-03    2.50742E+03
 3.35460E-03    2.50012E+03
 3.70740E-03    2.48986E+03
 4.30740E-03    2.47095E+03
 5.53080E-03    2.45068E+03
 7.10170E-03    2.44225E+03
 9.11880E-03    2.49416E+03
 1.17090E-02    2.88387E+03
 1.50340E-02    1.12466E+04
 1.93050E-02    3.99168E+04
 2.18750E-02    1.00191E+04
 2.35790E-02    6.47076E+03
 2.41760E-02    5.58670E+03
 2.47880E-02    4.70272E+03
 2.60580E-02    4.02432E+03
 2.70000E-02    3.56134E+03
 2.85000E-02    3.02863E+03
 3.18280E-02    2.64684E+03
 3.43070E-02    2.31809E+03
 4.08680E-02    2.00630E+03
 4.63090E-02    1.76026E+03
 5.24750E-02    1.55487E+03
 5.65620E-02    1.69933E+03
 6.73790E-02    6.60787E+03
 7.20000E-02    1.52228E+04
 7.95000E-02    1.11052E+04
 8.25000E-02    6.54026E+03
 8.65170E-02    4.63224E+03
 9.80370E-02    5.10123E+03
 1.11090E-01    3.53707E+03
 1.16790E-01    3.25185E+03
 1.22770E-01    3.08186E+03
 1.29070E-01    2.95502E+03
 1.35690E-01    2.85156E+03
 1.42640E-01    2.76373E+03
 1.49960E-01    2.68679E+03
 1.57640E-01    2.61763E+03
 1.65730E-01    2.55337E+03
 1.74220E-01    2.49471E+03
 1.83160E-01    2.43737E+03
 1.92550E-01    2.38394E+03
 2.02420E-01    2.33312E+03
 2.12800E-01    2.98128E+03
 2.23710E-01    4.32386E+03
 2.35180E-01    4.30291E+03
 2.47240E-01    4.26930E+03
 2.73240E-01    4.23346E+03
 2.87250E-01    4.21681E+03
 2.94520E-01    4.21001E+03
 2.97200E-01    4.20729E+03
 2.98500E-01    4.20404E+03
 3.01970E-01    4.18036E+03
 3.33730E-01    4.13478E+03
 3.68830E-01    4.09951E+03
 3.87740E-01    4.07826E+03
 4.07620E-01    4.04425E+03
 4.50490E-01    3.99496E+03
 4.97870E-01    3.95589E+03
 5.23400E-01    3.92936E+03
 5.50230E-01    3.90148E+03
 5.78440E-01    3.87216E+03
 6.08100E-01    3.84058E+03
 6.39280E-01    3.80369E+03
 6.72060E-01    3.76443E+03
 7.06510E-01    3.72316E+03
 7.42740E-01    3.67977E+03
 7.80820E-01    3.63696E+03
 8.20850E-01    3.59534E+03
 8.62940E-01    3.55160E+03
 9.07180E-01    3.50166E+03
 9.61640E-01    3.45413E+03
 1.00260E+00    3.37275E+03
 1.10800E+00    3.26893E+03
 1.16480E+00    3.20289E+03
 1.22460E+00    3.13539E+03
 1.28730E+00    3.07181E+03
 1.35340E+00    3.00788E+03
 1.42270E+00    2.94592E+03
 1.49570E+00    2.88550E+03
 1.57240E+00    2.82443E+03
 1.65300E+00    2.75621E+03
 1.73770E+00    2.66028E+03
 1.82680E+00    2.56588E+03
 1.92050E+00    2.47392E+03
 2.01900E+00    2.38775E+03
 2.12250E+00    2.29894E+03
 2.23130E+00    2.22650E+03
 2.30690E+00    2.18422E+03
 2.34570E+00    2.16266E+03
 2.36530E+00    2.14811E+03
 2.38520E+00    2.11491E+03
 2.46600E+00    2.05127E+03
 2.59240E+00    1.98472E+03
 2.72530E+00    1.91930E+03
 2.86500E+00    1.84376E+03
 3.01190E+00    1.76868E+03
 3.16640E+00    1.70035E+03
 3.32870E+00    1.59949E+03
 3.67880E+00    1.46347E+03
 4.06570E+00    1.33228E+03
 4.49330E+00    1.23712E+03
 4.72370E+00    1.18236E+03
 4.96590E+00    1.12734E+03
 5.22050E+00    1.07308E+03
 5.48810E+00    1.02465E+03
 5.76950E+00    9.81154E+02
 6.06530E+00    9.50164E+02
 6.37630E+00    9.28473E+02
 6.59240E+00    9.17369E+02
 6.70320E+00    9.03057E+02
 7.04690E+00    8.83997E+02
 7.40820E+00    8.67184E+02
 7.78800E+00    8.48263E+02
 8.18730E+00    8.26173E+02
 8.60710E+00    7.96572E+02
 9.04840E+00    7.65284E+02
 9.51230E+00    7.34542E+02
 1.00000E+01    7.11378E+02
 1.05130E+01    6.96712E+02
 1.10520E+01    6.87628E+02
 1.16180E+01    6.82591E+02
 1.22140E+01    6.80902E+02
 1.28400E+01    6.81094E+02
 1.34990E+01    6.82232E+02
 1.38400E+01    6.83214E+02
 1.41910E+01    6.85048E+02
 1.45500E+01    6.87042E+02
 1.49180E+01    6.90231E+02
 1.56830E+01    6.94770E+02
 1.64870E+01    6.99521E+02
