# n + Mg 25 : (n,el)    
# jendl4.0   M.HATCHYA(DEC),T.ASAMI(NEDAC)     EVAL-MAR87
# uncertainties: n
# # energies =    69
#   E(MeV)       xs(mb) 
 1.00000E-10    4.92411E+03
 5.00000E-09    2.78578E+03
 1.00000E-08    2.70367E+03
 1.50000E-08    2.67154E+03
 2.00000E-08    2.65419E+03
 2.50000E-08    2.64325E+03
 3.00000E-08    2.63577E+03
 3.50000E-08    2.62945E+03
 4.20000E-08    2.62381E+03
 5.00000E-08    2.61953E+03
 5.80000E-08    2.61611E+03
 6.70000E-08    2.61297E+03
 8.00000E-08    2.60973E+03
 1.00000E-07    2.60612E+03
 1.40000E-07    2.60329E+03
 1.80000E-07    2.60150E+03
 2.20000E-07    2.60061E+03
 2.50000E-07    2.59989E+03
 2.80000E-07    2.59932E+03
 3.00000E-07    2.59909E+03
 3.20000E-07    2.59886E+03
 3.50000E-07    2.59850E+03
 4.00000E-07    2.59783E+03
 5.00000E-07    2.59720E+03
 6.25000E-07    2.59685E+03
 7.80000E-07    2.59656E+03
 8.50000E-07    2.59640E+03
 9.10000E-07    2.59627E+03
 9.50000E-07    2.59619E+03
 9.72000E-07    2.59614E+03
 9.96000E-07    2.59608E+03
 1.02000E-06    2.59601E+03
 1.04500E-06    2.59595E+03
 1.07100E-06    2.59593E+03
 1.09700E-06    2.59593E+03
 1.12300E-06    2.59593E+03
 1.15000E-06    2.59593E+03
 1.30000E-06    2.59592E+03
 1.50000E-06    2.59591E+03
 2.10000E-06    2.59590E+03
 2.60000E-06    2.59588E+03
 3.30000E-06    2.59586E+03
 4.00000E-06    2.59578E+03
 9.87700E-06    2.59560E+03
 1.59680E-05    2.59535E+03
 2.77000E-05    2.59490E+03
 4.80520E-05    2.59421E+03
 7.55014E-05    2.59284E+03
 1.48728E-04    2.58898E+03
 3.67262E-04    2.57872E+03
 9.06898E-04    2.56284E+03
 1.42510E-03    2.54392E+03
 2.23945E-03    2.51591E+03
 3.51910E-03    2.48038E+03
 5.53000E-03    2.44646E+03
 9.11800E-03    2.68851E+03
 1.50300E-02    1.77070E+04
 2.47800E-02    3.02050E+03
 4.08500E-02    1.76867E+03
 6.73400E-02    7.77212E+03
 1.11000E-01    2.88158E+03
 1.83000E-01    3.57282E+03
 3.02000E-01    4.08760E+03
 5.00000E-01    3.80933E+03
 8.21000E-01    3.35357E+03
 1.35300E+00    2.68097E+03
 2.23100E+00    1.88085E+03
 3.67900E+00    1.22172E+03
 6.06500E+00    8.50013E+02
