# n + Zr 92 : (n,a)     
# jendl.ad   A.Ichihara, S.Kunieda, K.Shibata  EVAL-AUG13
# uncertainties: n
# # energies =    23
#   E(MeV)       xs(mb) 
 2.50000E+00    0.00000E+00
 2.75000E+00    2.06599E-03
 3.00000E+00    4.30472E-03
 3.50000E+00    1.29840E-02
 4.00000E+00    3.91374E-02
 4.50000E+00    8.62417E-02
 5.00000E+00    1.89951E-01
 5.50000E+00    3.30316E-01
 6.00000E+00    5.73906E-01
 7.00000E+00    1.17639E+00
 8.00000E+00    1.84715E+00
 9.00000E+00    2.54882E+00
 1.00000E+01    3.42479E+00
 1.10000E+01    4.73606E+00
 1.20000E+01    6.30771E+00
 1.30000E+01    7.98116E+00
 1.40000E+01    9.21679E+00
 1.50000E+01    9.51528E+00
 1.60000E+01    9.44117E+00
 1.70000E+01    9.04740E+00
 1.80000E+01    8.43878E+00
 1.90000E+01    7.88727E+00
 2.00000E+01    7.30400E+00
