# n + Zr 92 : (n,g)     
# jendl.ad   A.Ichihara, S.Kunieda, K.Shibata  EVAL-AUG13
# uncertainties: n
# # energies =    69
#   E(MeV)       xs(mb) 
 1.00000E-10    1.60013E+03
 5.00000E-09    4.35697E+02
 1.00000E-08    3.30028E+02
 1.50000E-08    2.77328E+02
 2.00000E-08    2.43985E+02
 2.50000E-08    2.20419E+02
 3.00000E-08    2.02635E+02
 3.50000E-08    1.86310E+02
 4.20000E-08    1.70394E+02
 5.00000E-08    1.57159E+02
 5.80000E-08    1.46082E+02
 6.70000E-08    1.34824E+02
 8.00000E-08    1.21988E+02
 1.00000E-07    1.06126E+02
 1.40000E-07    9.15829E+01
 1.80000E-07    8.17633E+01
 2.20000E-07    7.52922E+01
 2.50000E-07    7.08994E+01
 2.80000E-07    6.77364E+01
 3.00000E-07    6.55073E+01
 3.20000E-07    6.30286E+01
 3.50000E-07    5.96085E+01
 4.00000E-07    5.45367E+01
 5.00000E-07    4.87887E+01
 6.25000E-07    4.36423E+01
 7.80000E-07    4.03886E+01
 8.50000E-07    3.88571E+01
 9.10000E-07    3.77903E+01
 9.50000E-07    3.71787E+01
 9.72000E-07    3.67512E+01
 9.96000E-07    3.63119E+01
 1.02000E-06    3.58731E+01
 1.04500E-06    3.54337E+01
 1.07100E-06    3.50090E+01
 1.09700E-06    3.45993E+01
 1.12300E-06    3.41864E+01
 1.15000E-06    3.29621E+01
 1.30000E-06    3.08415E+01
 1.50000E-06    2.73789E+01
 2.10000E-06    2.38417E+01
 2.60000E-06    2.12864E+01
 3.30000E-06    1.90974E+01
 4.00000E-06    1.46118E+01
 9.87700E-06    1.02283E+01
 1.59680E-05    7.86428E+00
 2.77000E-05    5.90926E+00
 4.80520E-05    4.52544E+00
 7.55014E-05    3.33281E+00
 1.48728E-04    2.13450E+00
 3.67262E-04    1.32094E+00
 9.06898E-04    1.19343E+00
 1.42510E-03    1.03892E+02
 2.23945E-03    2.16682E+02
 3.51910E-03    4.14954E+02
 5.53000E-03    1.74981E+02
 9.11800E-03    7.26782E+01
 1.50300E-02    3.37779E+01
 2.47800E-02    4.38651E+01
 4.08500E-02    2.63415E+01
 6.73400E-02    1.66682E+01
 1.11000E-01    1.40263E+01
 1.83000E-01    1.23552E+01
 3.02000E-01    1.17160E+01
 5.00000E-01    1.20263E+01
 8.21000E-01    8.63456E+00
 1.35300E+00    5.01865E+00
 2.23100E+00    3.30534E+00
 3.67900E+00    2.29917E+00
 6.06500E+00    9.01733E-01
