# n + Mo  0 : (n,xa)
# jeff3.3    K.Shibata, A.Ichihara, S.Kunieda+ EVAL-MAR09
#
# # energies =    70
#   E(MeV)          xs(mb) 
 2.06289E-01    1.12788E-03
 2.20000E-01    1.07011E-03
 2.40000E-01    1.03575E-03
 2.60000E-01    1.00139E-03
 3.00000E-01    9.32665E-04
 4.00000E-01    7.67936E-04
 5.00000E-01    6.76735E-04
 6.00000E-01    2.64853E-03
 7.00000E-01    4.62032E-03
 7.73939E-01    6.07826E-03
 7.94556E-01    6.48477E-03
 8.00000E-01    6.59212E-03
 8.29352E-01    7.17088E-03
 9.00000E-01    8.56391E-03
 9.57752E-01    9.70267E-03
 1.00000E+00    1.05357E-02
 1.05032E+00    1.15279E-02
 1.06799E+00    1.18763E-02
 1.08513E+00    1.22143E-02
 1.08900E+00    1.22906E-02
 1.10000E+00    1.25075E-02
 1.10361E+00    1.25787E-02
 1.20000E+00    1.44793E-02
 1.30000E+00    1.64511E-02
 1.31643E+00    1.68176E-02
 1.33807E+00    1.73001E-02
 1.38429E+00    1.83308E-02
 1.39063E+00    1.84721E-02
 1.40000E+00    1.86812E-02
 1.44129E+00    1.92500E-02
 1.45581E+00    1.94499E-02
 1.50000E+00    2.00587E-02
 1.55717E+00    2.20325E-02
 1.56821E+00    2.24136E-02
 1.60000E+00    2.35112E-02
 1.63744E+00    2.50100E-02
 1.66258E+00    2.60165E-02
 1.67794E+00    2.66314E-02
 1.68371E+00    2.68624E-02
 1.70000E+00    2.75145E-02
 1.70089E+00    2.75501E-02
 1.71605E+00    2.81571E-02
 1.76179E+00    2.99881E-02
 1.80000E+00    3.15179E-02
 1.81576E+00    3.23447E-02
 1.82746E+00    3.29584E-02
 1.89897E+00    3.67097E-02
 1.90000E+00    3.67638E-02
 1.95849E+00    4.04600E-02
 2.00000E+00    4.30833E-02
 2.50000E+00    6.35444E-02
 3.00000E+00    9.21649E-02
 4.00000E+00    1.96198E-01
 5.00000E+00    4.02575E-01
 6.00000E+00    7.31580E-01
 7.00000E+00    1.19997E+00
 8.00000E+00    1.79454E+00
 9.00000E+00    2.56561E+00
 1.00000E+01    3.74926E+00
 1.10000E+01    5.12595E+00
 1.20000E+01    6.93856E+00
 1.30000E+01    9.18193E+00
 1.40000E+01    1.15093E+01
 1.45000E+01    1.27890E+01
 1.50000E+01    1.39726E+01
 1.60000E+01    1.65171E+01
 1.70000E+01    1.90202E+01
 1.80000E+01    2.14757E+01
 1.90000E+01    2.39270E+01
 2.00000E+01    2.64192E+01
