# n + Mo  0 : (n,non)
# jeff3.3    K.Shibata, A.Ichihara, S.Kunieda+ EVAL-MAR09
# uncertainties: n
# # energies =    90
#   E(MeV)          xs(mb) 
 1.90000E-02    6.26918E+01
 1.90000E-02    6.26918E+01
 2.00000E-02    8.75714E+01
 3.00000E-02    8.69867E+01
 4.00000E-02    8.98484E+01
 5.00000E-02    7.70647E+01
 6.00000E-02    7.54908E+01
 7.00000E-02    6.88880E+01
 8.00000E-02    6.40484E+01
 9.00000E-02    6.01073E+01
 1.00000E-01    5.71306E+01
 2.00000E-01    4.47304E+01
 3.00000E-01    4.25066E+01
 4.00000E-01    4.26521E+01
 5.00000E-01    4.80303E+01
 6.00000E-01    1.28541E+02
 7.00000E-01    1.98480E+02
 7.86430E-01    3.20697E+02
 8.00000E-01    3.91784E+02
 9.00000E-01    7.37700E+02
 1.00000E+00    9.17313E+02
 1.16001E+00    9.68704E+02
 1.34399E+00    1.10559E+03
 1.50000E+00    1.29202E+03
 1.51355E+00    1.28742E+03
 1.64303E+00    1.32295E+03
 1.64534E+00    1.32427E+03
 1.88925E+00    1.53667E+03
 1.99926E+00    1.75109E+03
 2.00000E+00    1.75398E+03
 2.11763E+00    1.71873E+03
 2.24282E+00    1.73670E+03
 2.25810E+00    1.74328E+03
 2.42403E+00    1.89401E+03
 2.42974E+00    1.90195E+03
 2.45176E+00    1.93289E+03
 2.46416E+00    1.95218E+03
 2.46647E+00    1.95585E+03
 2.50000E+00    2.00968E+03
 2.50204E+00    2.00906E+03
 2.50714E+00    2.00758E+03
 2.52761E+00    2.00226E+03
 2.56712E+00    1.99460E+03
 2.62157E+00    1.98976E+03
 2.63886E+00    1.98924E+03
 2.65214E+00    1.98919E+03
 2.72840E+00    1.99039E+03
 2.76275E+00    1.99346E+03
 2.76317E+00    1.99350E+03
 2.76437E+00    1.99365E+03
 2.77084E+00    1.99473E+03
 2.78415E+00    1.99755E+03
 2.79057E+00    1.99892E+03
 2.81616E+00    2.00472E+03
 2.81964E+00    2.00570E+03
 2.84807E+00    2.01487E+03
 2.85818E+00    2.01859E+03
 3.00000E+00    2.09567E+03
 3.50000E+00    2.08350E+03
 4.00000E+00    2.06279E+03
 4.50000E+00    2.06218E+03
 5.00000E+00    2.04857E+03
 5.50000E+00    2.04583E+03
 6.00000E+00    2.04570E+03
 6.50000E+00    2.04349E+03
 7.00000E+00    2.03770E+03
 7.14739E+00    2.03507E+03
 7.50000E+00    2.02877E+03
 8.00000E+00    2.01796E+03
 8.47173E+00    2.00664E+03
 8.50000E+00    2.00596E+03
 9.00000E+00    1.99423E+03
 9.25060E+00    1.98218E+03
 9.39535E+00    1.98265E+03
 9.40234E+00    1.98268E+03
 9.50000E+00    1.98300E+03
 1.00000E+01    1.97269E+03
 1.10000E+01    1.95457E+03
 1.20000E+01    1.93829E+03
 1.30000E+01    1.92396E+03
 1.40000E+01    1.91095E+03
 1.46000E+01    1.90433E+03
 1.50000E+01    1.89998E+03
 1.57254E+01    1.89273E+03
 1.60000E+01    1.88998E+03
 1.66972E+01    1.88379E+03
 1.70000E+01    1.88119E+03
 1.80000E+01    1.87197E+03
 1.90000E+01    1.86069E+03
 2.00000E+01    1.84746E+03
