# n + Mo  0 : (n,n')
# jeff3.3    K.Shibata, A.Ichihara, S.Kunieda+ EVAL-MAR09
# uncertainties: n
# # energies =    70
#   E(MeV)          xs(mb) 
 2.06289E-01    0.00000E+00
 2.20000E-01    2.08351E+01
 2.40000E-01    3.93410E+01
 2.60000E-01    5.22923E+01
 3.00000E-01    7.15946E+01
 4.00000E-01    9.64407E+01
 5.00000E-01    1.05640E+02
 6.00000E-01    1.73111E+02
 7.00000E-01    2.28994E+02
 7.73939E-01    3.07104E+02
 7.94556E-01    3.71401E+02
 8.00000E-01    4.06532E+02
 8.29352E-01    4.97764E+02
 9.00000E-01    7.45287E+02
 9.57752E-01    8.47470E+02
 1.00000E+00    9.36046E+02
 1.05032E+00    9.49831E+02
 1.06799E+00    9.56011E+02
 1.08513E+00    9.67036E+02
 1.08900E+00    9.70708E+02
 1.10000E+00    9.81158E+02
 1.10361E+00    9.82821E+02
 1.20000E+00    1.05547E+03
 1.30000E+00    1.12957E+03
 1.31643E+00    1.13970E+03
 1.33807E+00    1.15357E+03
 1.38429E+00    1.19117E+03
 1.39063E+00    1.19684E+03
 1.40000E+00    1.20657E+03
 1.44129E+00    1.23835E+03
 1.45581E+00    1.25664E+03
 1.50000E+00    1.33427E+03
 1.55717E+00    1.33923E+03
 1.56821E+00    1.34328E+03
 1.60000E+00    1.35828E+03
 1.63744E+00    1.37073E+03
 1.66258E+00    1.38478E+03
 1.67794E+00    1.39533E+03
 1.68371E+00    1.39951E+03
 1.70000E+00    1.41252E+03
 1.70089E+00    1.41302E+03
 1.71605E+00    1.42230E+03
 1.76179E+00    1.45093E+03
 1.80000E+00    1.48570E+03
 1.81576E+00    1.50042E+03
 1.82746E+00    1.51176E+03
 1.89897E+00    1.59002E+03
 1.90000E+00    1.59164E+03
 1.95849E+00    1.69050E+03
 2.00000E+00    1.76688E+03
 2.50000E+00    2.00989E+03
 3.00000E+00    2.09107E+03
 4.00000E+00    2.05165E+03
 5.00000E+00    2.02937E+03
 6.00000E+00    2.01728E+03
 7.00000E+00    2.00028E+03
 8.00000E+00    1.94551E+03
 9.00000E+00    1.80545E+03
 1.00000E+01    1.43070E+03
 1.10000E+01    1.04860E+03
 1.20000E+01    7.78180E+02
 1.30000E+01    6.01254E+02
 1.40000E+01    4.96041E+02
 1.45000E+01    4.57026E+02
 1.50000E+01    4.25795E+02
 1.60000E+01    3.83246E+02
 1.70000E+01    3.54661E+02
 1.80000E+01    3.32342E+02
 1.90000E+01    3.15304E+02
 2.00000E+01    3.00426E+02
