# n + Yb168 : (n,n'18)  
# tendl.2019 A.J. Koning and D. Rochman        EVAL-NOV19
# uncertainties: n
# # energies =    75
#   E(MeV)       xs(mb) 
 1.41632E+00    0.00000E+00
 1.43401E+00    5.47087E+00
 1.44161E+00    7.82125E+00
 1.45381E+00    1.15942E+01
 1.46048E+00    1.36570E+01
 1.48144E+00    2.01392E+01
 1.48888E+00    2.24401E+01
 1.52058E+00    3.22437E+01
 1.55227E+00    4.20442E+01
 1.56065E+00    4.46358E+01
 1.60000E+00    5.68053E+01
 1.60458E+00    5.68411E+01
 1.60749E+00    5.68639E+01
 1.61414E+00    5.69158E+01
 1.80000E+00    5.83686E+01
 2.00000E+00    4.57285E+01
 2.20000E+00    3.22098E+01
 2.40000E+00    2.18586E+01
 2.60000E+00    1.47254E+01
 2.80000E+00    9.92976E+00
 3.00000E+00    6.72230E+00
 3.20000E+00    4.66984E+00
 3.40000E+00    3.19390E+00
 3.60000E+00    2.19967E+00
 3.80000E+00    1.52627E+00
 4.00000E+00    1.06626E+00
 4.20000E+00    7.49498E-01
 4.40000E+00    5.38390E-01
 4.60000E+00    3.84201E-01
 4.80000E+00    2.72945E-01
 5.00000E+00    1.94963E-01
 5.20000E+00    1.39825E-01
 5.40000E+00    1.00654E-01
 5.60000E+00    7.27233E-02
 5.80000E+00    5.25010E-02
 6.00000E+00    3.81196E-02
 6.20000E+00    2.77637E-02
 6.40000E+00    2.02834E-02
 6.60000E+00    1.49076E-02
 6.80000E+00    1.09969E-02
 7.00000E+00    8.14786E-03
 7.20000E+00    6.06372E-03
 7.40000E+00    4.52600E-03
 7.60000E+00    3.39508E-03
 7.80000E+00    2.55360E-03
 8.00000E+00    1.92714E-03
 8.50000E+00    9.67159E-04
 9.00000E+00    4.94387E-04
 9.50000E+00    2.56613E-04
 1.00000E+01    1.34365E-04
 1.05000E+01    7.08087E-05
 1.10000E+01    3.76103E-05
 1.15000E+01    2.01734E-05
 1.20000E+01    1.09350E-05
 1.25000E+01    5.99007E-06
 1.30000E+01    3.31539E-06
 1.35000E+01    1.85498E-06
 1.40000E+01    1.04814E-06
 1.45000E+01    5.97610E-07
 1.50000E+01    3.44220E-07
 1.60000E+01    1.16930E-07
 1.70000E+01    4.10790E-08
 1.80000E+01    1.47400E-08
 1.90000E+01    5.46940E-09
 2.00000E+01    2.08400E-09
 2.10000E+01    8.13990E-10
 2.20000E+01    3.24920E-10
 2.30000E+01    1.33230E-10
 2.40000E+01    5.55820E-11
 2.50000E+01    2.35920E-11
 2.60000E+01    1.01740E-11
 2.70000E+01    4.44210E-12
 2.80000E+01    1.97320E-12
 2.90000E+01    8.91410E-13
 3.00000E+01    4.08110E-13
