# n + Yb168 : (n,n'16)  
# tendl.2019 A.J. Koning and D. Rochman        EVAL-NOV19
# uncertainties: n
# # energies =    78
#   E(MeV)       xs(mb) 
 1.34805E+00    0.00000E+00
 1.39847E+00    2.19559E+01
 1.40000E+00    2.26221E+01
 1.41632E+00    2.35970E+01
 1.43401E+00    2.46538E+01
 1.44161E+00    2.51078E+01
 1.45381E+00    2.58366E+01
 1.46048E+00    2.62351E+01
 1.48144E+00    2.74872E+01
 1.48888E+00    2.79317E+01
 1.52058E+00    2.98254E+01
 1.55227E+00    3.17185E+01
 1.56065E+00    3.22191E+01
 1.60000E+00    3.45698E+01
 1.60458E+00    3.45091E+01
 1.60749E+00    3.44706E+01
 1.61414E+00    3.43825E+01
 1.80000E+00    3.19212E+01
 2.00000E+00    2.37612E+01
 2.20000E+00    1.59292E+01
 2.40000E+00    1.02568E+01
 2.60000E+00    6.53653E+00
 2.80000E+00    4.16772E+00
 3.00000E+00    2.67445E+00
 3.20000E+00    1.75871E+00
 3.40000E+00    1.15288E+00
 3.60000E+00    7.65471E-01
 3.80000E+00    5.14774E-01
 4.00000E+00    3.50062E-01
 4.20000E+00    2.40814E-01
 4.40000E+00    1.69639E-01
 4.60000E+00    1.17690E-01
 4.80000E+00    8.21876E-02
 5.00000E+00    5.76799E-02
 5.20000E+00    4.06812E-02
 5.40000E+00    2.88256E-02
 5.60000E+00    2.05206E-02
 5.80000E+00    1.46125E-02
 6.00000E+00    1.04793E-02
 6.20000E+00    7.54753E-03
 6.40000E+00    5.46055E-03
 6.60000E+00    3.97963E-03
 6.80000E+00    2.91423E-03
 7.00000E+00    2.14602E-03
 7.20000E+00    1.58843E-03
 7.40000E+00    1.18012E-03
 7.60000E+00    8.81557E-04
 7.80000E+00    6.60536E-04
 8.00000E+00    4.96735E-04
 8.50000E+00    2.47199E-04
 9.00000E+00    1.25311E-04
 9.50000E+00    6.44909E-05
 1.00000E+01    3.34763E-05
 1.05000E+01    1.74909E-05
 1.10000E+01    9.21464E-06
 1.15000E+01    4.90553E-06
 1.20000E+01    2.64122E-06
 1.25000E+01    1.43820E-06
 1.30000E+01    7.91740E-07
 1.35000E+01    4.40800E-07
 1.40000E+01    2.47910E-07
 1.45000E+01    1.40730E-07
 1.50000E+01    8.07280E-08
 1.60000E+01    2.72250E-08
 1.70000E+01    9.50800E-09
 1.80000E+01    3.39530E-09
 1.90000E+01    1.25460E-09
 2.00000E+01    4.76230E-10
 2.10000E+01    1.85370E-10
 2.20000E+01    7.37850E-11
 2.30000E+01    3.01910E-11
 2.40000E+01    1.25770E-11
 2.50000E+01    5.33190E-12
 2.60000E+01    2.29670E-12
 2.70000E+01    1.00140E-12
 2.80000E+01    4.44080E-13
 2.90000E+01    2.00260E-13
 3.00000E+01    9.15240E-14
