# n + Yb168 : (n,n'11)  
# tendl.2019 A.J. Koning and D. Rochman        EVAL-NOV19
# uncertainties: n
# # energies =    83
#   E(MeV)       xs(mb) 
 1.20419E+00    0.00000E+00
 1.23890E+00    8.09737E+00
 1.24051E+00    8.47297E+00
 1.28668E+00    1.92438E+01
 1.31012E+00    2.47121E+01
 1.34805E+00    3.35606E+01
 1.39847E+00    4.53230E+01
 1.40000E+00    4.56799E+01
 1.41632E+00    4.60040E+01
 1.43401E+00    4.63553E+01
 1.44161E+00    4.65062E+01
 1.45381E+00    4.67484E+01
 1.46048E+00    4.68809E+01
 1.48144E+00    4.72971E+01
 1.48888E+00    4.74448E+01
 1.52058E+00    4.80743E+01
 1.55227E+00    4.87036E+01
 1.56065E+00    4.88700E+01
 1.60000E+00    4.96514E+01
 1.60458E+00    4.94465E+01
 1.60749E+00    4.93163E+01
 1.61414E+00    4.90187E+01
 1.80000E+00    4.07025E+01
 2.00000E+00    2.78876E+01
 2.20000E+00    1.78151E+01
 2.40000E+00    1.11467E+01
 2.60000E+00    6.96722E+00
 2.80000E+00    4.38396E+00
 3.00000E+00    2.78990E+00
 3.20000E+00    1.82685E+00
 3.40000E+00    1.19476E+00
 3.60000E+00    7.92340E-01
 3.80000E+00    5.32345E-01
 4.00000E+00    3.61580E-01
 4.20000E+00    2.51881E-01
 4.40000E+00    1.74277E-01
 4.60000E+00    1.20692E-01
 4.80000E+00    8.41143E-02
 5.00000E+00    5.89226E-02
 5.20000E+00    4.14871E-02
 5.40000E+00    2.93519E-02
 5.60000E+00    2.08670E-02
 5.80000E+00    1.48425E-02
 6.00000E+00    1.06348E-02
 6.20000E+00    7.65304E-03
 6.40000E+00    5.53463E-03
 6.60000E+00    4.03157E-03
 6.80000E+00    2.95116E-03
 7.00000E+00    2.17269E-03
 7.20000E+00    1.60769E-03
 7.40000E+00    1.19412E-03
 7.60000E+00    8.91771E-04
 7.80000E+00    6.67995E-04
 8.00000E+00    5.02178E-04
 8.50000E+00    2.49700E-04
 9.00000E+00    1.26473E-04
 9.50000E+00    6.50376E-05
 1.00000E+01    3.37369E-05
 1.05000E+01    1.76171E-05
 1.10000E+01    9.27715E-06
 1.15000E+01    4.93723E-06
 1.20000E+01    2.65761E-06
 1.25000E+01    1.44678E-06
 1.30000E+01    7.96270E-07
 1.35000E+01    4.43190E-07
 1.40000E+01    2.49190E-07
 1.45000E+01    1.41420E-07
 1.50000E+01    8.11030E-08
 1.60000E+01    2.73410E-08
 1.70000E+01    9.54590E-09
 1.80000E+01    3.40820E-09
 1.90000E+01    1.25910E-09
 2.00000E+01    4.77890E-10
 2.10000E+01    1.86000E-10
 2.20000E+01    7.40260E-11
 2.30000E+01    3.02860E-11
 2.40000E+01    1.26150E-11
 2.50000E+01    5.34710E-12
 2.60000E+01    2.30280E-12
 2.70000E+01    1.00390E-12
 2.80000E+01    4.45130E-13
 2.90000E+01    2.00710E-13
 3.00000E+01    9.17260E-14
