# n + Am241 : (n,tot)   
# jendl.ad   O.Iwamoto,T.Nakagawa,T.Ohsawa,+   EVAL-JAN10
# uncertainties: n
# # energies =    69
#   E(MeV)       xs(mb) 
 1.00000E-10    5.47340E+06
 5.00000E-09    1.42525E+06
 1.00000E-08    1.04747E+06
 1.50000E-08    8.58405E+05
 2.00000E-08    7.39632E+05
 2.50000E-08    6.56452E+05
 3.00000E-08    5.94552E+05
 3.50000E-08    5.38786E+05
 4.20000E-08    4.85985E+05
 5.00000E-08    4.43867E+05
 5.80000E-08    4.10330E+05
 6.70000E-08    3.78725E+05
 8.00000E-08    3.47916E+05
 1.00000E-07    3.26346E+05
 1.40000E-07    3.50274E+05
 1.80000E-07    4.74370E+05
 2.20000E-07    8.19496E+05
 2.50000E-07    1.92339E+06
 2.80000E-07    4.53580E+06
 3.00000E-07    5.40282E+06
 3.20000E-07    2.60762E+06
 3.50000E-07    7.64760E+05
 4.00000E-07    4.21731E+05
 5.00000E-07    2.53618E+06
 6.25000E-07    2.91020E+05
 7.80000E-07    8.78020E+04
 8.50000E-07    7.64044E+04
 9.10000E-07    7.75381E+04
 9.50000E-07    8.22134E+04
 9.72000E-07    8.81378E+04
 9.96000E-07    9.70247E+04
 1.02000E-06    1.09945E+05
 1.04500E-06    1.29249E+05
 1.07100E-06    1.58566E+05
 1.09700E-06    2.04095E+05
 1.12300E-06    2.81616E+05
 1.15000E-06    2.77335E+06
 1.30000E-06    6.85214E+05
 1.50000E-06    2.21637E+05
 2.10000E-06    2.52980E+05
 2.60000E-06    9.71956E+04
 3.30000E-06    1.05677E+05
 4.00000E-06    1.16045E+05
 9.87700E-06    8.82035E+04
 1.59680E-05    5.94309E+04
 2.77000E-05    4.96542E+04
 4.80520E-05    4.70002E+04
 7.55014E-05    3.63853E+04
 1.48728E-04    2.47657E+04
 3.67262E-04    1.50648E+04
 9.06898E-04    1.02614E+04
 1.42510E-03    7.98581E+03
 2.23945E-03    6.29274E+03
 3.51910E-03    4.99116E+03
 5.53000E-03    3.97305E+03
 9.11800E-03    3.24567E+03
 1.50300E-02    2.73433E+03
 2.47800E-02    2.35949E+03
 4.08500E-02    1.99212E+03
 6.73400E-02    1.62123E+03
 1.11000E-01    1.26377E+03
 1.83000E-01    1.00214E+03
 3.02000E-01    7.30875E+02
 5.00000E-01    7.68558E+02
 8.21000E-01    1.57887E+03
 1.35300E+00    1.97078E+03
 2.23100E+00    1.91490E+03
 3.67900E+00    1.83403E+03
 6.06500E+00    2.40850E+03
