# n + Se 74 : (n,el)    
# endfb8.0   JNDC FP Nuclear Data W.G.         EVAL-MAR90
# uncertainties: n
# # energies =   171
#   E(MeV)       xs(mb) 
 1.00000E-11    1.40325E+04
 1.00000E-07    7.23355E+03
 4.13990E-07    7.16800E+03
 5.31580E-07    7.13413E+03
 6.82560E-07    7.09064E+03
 8.76420E-07    7.03480E+03
 1.12540E-06    6.96290E+03
 1.44500E-06    6.86637E+03
 1.85540E-06    6.74192E+03
 2.37240E-06    6.58075E+03
 3.05900E-06    6.36789E+03
 3.92790E-06    6.07775E+03
 5.04350E-06    5.68710E+03
 6.47600E-06    5.14357E+03
 8.31530E-06    4.36632E+03
 1.06770E-05    3.22104E+03
 1.37100E-05    1.53172E+03
 1.76030E-05    9.49412E+02
 2.26030E-05    1.61596E+06
 2.92030E-05    8.38300E+04
 3.72670E-05    2.67311E+04
 4.78510E-05    1.78579E+04
 6.14420E-05    1.38128E+04
 7.88930E-05    1.10118E+04
 1.01300E-04    8.43950E+03
 1.30070E-04    5.48506E+03
 1.67020E-04    1.67674E+03
 2.14450E-04    7.23023E+05
 2.75360E-04    2.27982E+05
 3.53580E-04    2.75461E+04
 4.54000E-04    1.75310E+04
 5.82950E-04    1.30840E+04
 7.48520E-04    9.18460E+03
 9.61120E-04    4.33452E+04
 1.23410E-03    1.62582E+04
 1.58460E-03    6.31832E+04
 2.03470E-03    1.19873E+04
 2.24870E-03    2.31499E+04
 2.48520E-03    1.22008E+04
 2.61260E-03    1.68239E+04
 2.74650E-03    1.64596E+04
 3.03540E-03    1.59953E+04
 3.35460E-03    1.55504E+04
 3.70740E-03    1.50236E+04
 4.30740E-03    1.42478E+04
 5.53080E-03    1.33716E+04
 7.10170E-03    1.25945E+04
 9.11880E-03    1.19068E+04
 1.17090E-02    1.12975E+04
 1.50340E-02    1.07516E+04
 1.93050E-02    1.03779E+04
 2.18750E-02    1.01900E+04
 2.35790E-02    1.00985E+04
 2.41760E-02    1.00540E+04
 2.47880E-02    9.98830E+03
 2.60580E-02    9.91471E+03
 2.70000E-02    9.83658E+03
 2.85000E-02    9.69889E+03
 3.18280E-02    9.54705E+03
 3.43070E-02    9.35021E+03
 4.08680E-02    9.12220E+03
 4.63090E-02    8.93890E+03
 5.24750E-02    8.79613E+03
 5.65620E-02    8.62245E+03
 6.73790E-02    8.45705E+03
 7.20000E-02    8.34588E+03
 7.95000E-02    8.25511E+03
 8.25000E-02    8.19922E+03
 8.65170E-02    8.08623E+03
 9.80370E-02    7.97011E+03
 1.11090E-01    7.95148E+03
 1.16790E-01    7.94149E+03
 1.22770E-01    7.93098E+03
 1.29070E-01    7.91992E+03
 1.35690E-01    7.90830E+03
 1.42640E-01    7.89609E+03
 1.49960E-01    7.88325E+03
 1.57640E-01    7.86940E+03
 1.65730E-01    7.85170E+03
 1.74220E-01    7.83237E+03
 1.83160E-01    7.81205E+03
 1.92550E-01    7.79069E+03
 2.02420E-01    7.76819E+03
 2.12800E-01    7.74120E+03
 2.23710E-01    7.71071E+03
 2.35180E-01    7.67865E+03
 2.47240E-01    7.62679E+03
 2.73240E-01    7.56658E+03
 2.87250E-01    7.53336E+03
 2.94520E-01    7.51784E+03
 2.97200E-01    7.51165E+03
 2.98500E-01    7.50424E+03
 3.01970E-01    7.43594E+03
 3.33730E-01    7.29670E+03
 3.68830E-01    7.19385E+03
 3.87740E-01    7.12863E+03
 4.07620E-01    7.02474E+03
 4.50490E-01    6.88998E+03
 4.97870E-01    6.77847E+03
 5.23400E-01    6.68152E+03
 5.50230E-01    6.57903E+03
 5.78440E-01    6.47936E+03
 6.08100E-01    6.38267E+03
 6.39280E-01    6.24306E+03
 6.72060E-01    6.03422E+03
 7.06510E-01    5.83412E+03
 7.42740E-01    5.63783E+03
 7.80820E-01    5.45134E+03
 8.20850E-01    5.27037E+03
 8.62940E-01    5.08272E+03
 9.07180E-01    4.87157E+03
 9.61640E-01    4.68641E+03
 1.00260E+00    4.45258E+03
 1.10800E+00    4.22114E+03
 1.16480E+00    4.07266E+03
 1.22460E+00    3.93123E+03
 1.28730E+00    3.78017E+03
 1.35340E+00    3.61361E+03
 1.42270E+00    3.45013E+03
 1.49570E+00    3.29879E+03
 1.57240E+00    3.15968E+03
 1.65300E+00    3.01611E+03
 1.73770E+00    2.87840E+03
 1.82680E+00    2.74843E+03
 1.92050E+00    2.62355E+03
 2.01900E+00    2.53200E+03
 2.12250E+00    2.45376E+03
 2.23130E+00    2.39199E+03
 2.30690E+00    2.35442E+03
 2.34570E+00    2.33530E+03
 2.36530E+00    2.32324E+03
 2.38520E+00    2.29359E+03
 2.46600E+00    2.23251E+03
 2.59240E+00    2.15737E+03
 2.72530E+00    2.08453E+03
 2.86500E+00    2.00886E+03
 3.01190E+00    1.97772E+03
 3.16640E+00    1.98141E+03
 3.32870E+00    1.98602E+03
 3.67880E+00    1.98064E+03
 4.06570E+00    2.03143E+03
 4.49330E+00    2.09178E+03
 4.72370E+00    2.12240E+03
 4.96590E+00    2.16178E+03
 5.22050E+00    2.21657E+03
 5.48810E+00    2.26893E+03
 5.76950E+00    2.31590E+03
 6.06530E+00    2.36521E+03
 6.37630E+00    2.40921E+03
 6.59240E+00    2.43834E+03
 6.70320E+00    2.47862E+03
 7.04690E+00    2.53481E+03
 7.40820E+00    2.58693E+03
 7.78800E+00    2.63933E+03
 8.18730E+00    2.67922E+03
 8.60710E+00    2.71705E+03
 9.04840E+00    2.73780E+03
 9.51230E+00    2.74669E+03
 1.00000E+01    2.74662E+03
 1.05130E+01    2.73795E+03
 1.10520E+01    2.71670E+03
 1.16180E+01    2.63815E+03
 1.22140E+01    2.57404E+03
 1.28400E+01    2.48612E+03
 1.34990E+01    2.42729E+03
 1.38400E+01    2.38749E+03
 1.41910E+01    2.33912E+03
 1.45500E+01    2.29775E+03
 1.49180E+01    2.23503E+03
 1.56830E+01    2.14110E+03
 1.64870E+01    2.03947E+03
