# n + Se 74 : (n,tot)   
# endfb8.0   JNDC FP Nuclear Data W.G.         EVAL-MAR90
# uncertainties: n
# # energies =   171
#   E(MeV)       xs(mb) 
 1.00000E-11    5.73443E+05
 1.00000E-07    2.60762E+04
 4.13990E-07    1.95139E+04
 5.31580E-07    1.81135E+04
 6.82560E-07    1.68773E+04
 8.76420E-07    1.57842E+04
 1.12540E-06    1.48177E+04
 1.44500E-06    1.39588E+04
 1.85540E-06    1.31977E+04
 2.37240E-06    1.24986E+04
 3.05900E-06    1.18596E+04
 3.92790E-06    1.12747E+04
 5.04350E-06    1.07298E+04
 6.47600E-06    1.02339E+04
 8.31530E-06    9.82808E+03
 1.06770E-05    9.72431E+03
 1.37100E-05    1.10101E+04
 1.76030E-05    2.44041E+04
 2.26030E-05    3.63384E+06
 2.92030E-05    1.25147E+05
 3.72670E-05    3.05498E+04
 4.78510E-05    1.90491E+04
 6.14420E-05    1.43994E+04
 7.88930E-05    1.14038E+04
 1.01300E-04    8.77704E+03
 1.30070E-04    5.86616E+03
 1.67020E-04    2.37127E+03
 2.14450E-04    7.75779E+05
 2.75360E-04    2.38040E+05
 3.53580E-04    2.77563E+04
 4.54000E-04    1.75898E+04
 5.82950E-04    1.31132E+04
 7.48520E-04    9.22250E+03
 9.61120E-04    4.75469E+04
 1.23410E-03    1.84912E+04
 1.58460E-03    6.51807E+04
 2.03470E-03    1.20044E+04
 2.24870E-03    2.50284E+04
 2.48520E-03    1.22730E+04
 2.61260E-03    1.75169E+04
 2.74650E-03    1.71277E+04
 3.03540E-03    1.66327E+04
 3.35460E-03    1.61597E+04
 3.70740E-03    1.56005E+04
 4.30740E-03    1.47792E+04
 5.53080E-03    1.38495E+04
 7.10170E-03    1.30242E+04
 9.11880E-03    1.22902E+04
 1.17090E-02    1.16362E+04
 1.50340E-02    1.10485E+04
 1.93050E-02    1.06445E+04
 2.18750E-02    1.04418E+04
 2.35790E-02    1.03430E+04
 2.41760E-02    1.02950E+04
 2.47880E-02    1.02240E+04
 2.60580E-02    1.01445E+04
 2.70000E-02    1.00600E+04
 2.85000E-02    9.91127E+03
 3.18280E-02    9.74729E+03
 3.43070E-02    9.53497E+03
 4.08680E-02    9.28987E+03
 4.63090E-02    9.09360E+03
 5.24750E-02    8.94117E+03
 5.65620E-02    8.75651E+03
 6.73790E-02    8.58145E+03
 7.20000E-02    8.46425E+03
 7.95000E-02    8.36879E+03
 8.25000E-02    8.31021E+03
 8.65170E-02    8.19205E+03
 9.80370E-02    8.06987E+03
 1.11090E-01    8.04800E+03
 1.16790E-01    8.03603E+03
 1.22770E-01    8.02344E+03
 1.29070E-01    8.01020E+03
 1.35690E-01    7.99629E+03
 1.42640E-01    7.98166E+03
 1.49960E-01    7.96629E+03
 1.57640E-01    7.95012E+03
 1.65730E-01    7.93309E+03
 1.74220E-01    7.91333E+03
 1.83160E-01    7.89148E+03
 1.92550E-01    7.86853E+03
 2.02420E-01    7.84439E+03
 2.12800E-01    7.81790E+03
 2.23710E-01    7.78684E+03
 2.35180E-01    7.75398E+03
 2.47240E-01    7.70118E+03
 2.73240E-01    7.64130E+03
 2.87250E-01    7.60793E+03
 2.94520E-01    7.59235E+03
 2.97200E-01    7.58613E+03
 2.98500E-01    7.57869E+03
 3.01970E-01    7.51105E+03
 3.33730E-01    7.37341E+03
 3.68830E-01    7.26961E+03
 3.87740E-01    7.20552E+03
 4.07620E-01    7.10304E+03
 4.50490E-01    6.96848E+03
 4.97870E-01    6.85825E+03
 5.23400E-01    6.76284E+03
 5.50230E-01    6.66199E+03
 5.78440E-01    6.56137E+03
 6.08100E-01    6.46472E+03
 6.39280E-01    6.36325E+03
 6.72060E-01    6.25660E+03
 7.06510E-01    6.14447E+03
 7.42740E-01    6.02670E+03
 7.80820E-01    5.91147E+03
 8.20850E-01    5.79581E+03
 8.62940E-01    5.67422E+03
 9.07180E-01    5.54423E+03
 9.61640E-01    5.42466E+03
 1.00260E+00    5.25424E+03
 1.10800E+00    5.07708E+03
 1.16480E+00    4.96570E+03
 1.22460E+00    4.85236E+03
 1.28730E+00    4.74699E+03
 1.35340E+00    4.64092E+03
 1.42270E+00    4.54374E+03
 1.49570E+00    4.44724E+03
 1.57240E+00    4.35935E+03
 1.65300E+00    4.27299E+03
 1.73770E+00    4.19574E+03
 1.82680E+00    4.12376E+03
 1.92050E+00    4.05289E+03
 2.01900E+00    4.00118E+03
 2.12250E+00    3.95850E+03
 2.23130E+00    3.92132E+03
 2.30690E+00    3.89825E+03
 2.34570E+00    3.88650E+03
 2.36530E+00    3.87941E+03
 2.38520E+00    3.86296E+03
 2.46600E+00    3.82906E+03
 2.59240E+00    3.78651E+03
 2.72530E+00    3.74268E+03
 2.86500E+00    3.70126E+03
 3.01190E+00    3.68317E+03
 3.16640E+00    3.68284E+03
 3.32870E+00    3.68232E+03
 3.67880E+00    3.68248E+03
 4.06570E+00    3.72866E+03
 4.49330E+00    3.78558E+03
 4.72370E+00    3.82614E+03
 4.96590E+00    3.87438E+03
 5.22050E+00    3.94038E+03
 5.48810E+00    4.01063E+03
 5.76950E+00    4.08448E+03
 6.06530E+00    4.16211E+03
 6.37630E+00    4.22838E+03
 6.59240E+00    4.26708E+03
 6.70320E+00    4.32029E+03
 7.04690E+00    4.38738E+03
 7.40820E+00    4.44127E+03
 7.78800E+00    4.49271E+03
 8.18730E+00    4.50975E+03
 8.60710E+00    4.52015E+03
 9.04840E+00    4.50360E+03
 9.51230E+00    4.46752E+03
 1.00000E+01    4.40388E+03
 1.05130E+01    4.32087E+03
 1.10520E+01    4.24128E+03
 1.16180E+01    4.15942E+03
 1.22140E+01    4.06161E+03
 1.28400E+01    3.96094E+03
 1.34990E+01    3.88708E+03
 1.38400E+01    3.83894E+03
 1.41910E+01    3.79312E+03
 1.45500E+01    3.74822E+03
 1.49180E+01    3.68378E+03
 1.56830E+01    3.59895E+03
 1.64870E+01    3.50592E+03
