# n + Mo 93 : (n,xa)    
# jendl.ad   K.Shibata                         EVAL-MAY13
# 
# # energies =    28
#   E(MeV)        xs(mb) 
 2.45122E+00    4.53997E+00
 2.50000E+00    4.64010E+00
 3.00000E+00    3.56820E+00
 3.50000E+00    4.04600E+00
 4.00000E+00    8.21020E+00
 4.50000E+00    8.10580E+00
 5.00000E+00    8.19770E+00
 5.50000E+00    8.19430E+00
 6.00000E+00    9.19100E+00
 6.50000E+00    9.32920E+00
 7.00000E+00    1.02019E+01
 7.50000E+00    1.02886E+01
 8.00000E+00    1.14337E+01
 8.50000E+00    1.15565E+01
 9.00000E+00    1.22963E+01
 9.50000E+00    1.38915E+01
 1.00000E+01    1.48673E+01
 1.10000E+01    1.76457E+01
 1.20000E+01    2.02232E+01
 1.30000E+01    2.24354E+01
 1.40000E+01    2.43983E+01
 1.45000E+01    2.53959E+01
 1.50000E+01    2.59599E+01
 1.60000E+01    2.73669E+01
 1.70000E+01    2.85841E+01
 1.80000E+01    2.96354E+01
 1.90000E+01    3.05942E+01
 2.00000E+01    3.14601E+01
