# n + Mo 93 : (n,xp)    
# jendl.ad   K.Shibata                         EVAL-MAY13
# 
# # energies =    28
#   E(MeV)        xs(mb) 
 2.45122E+00    3.68929E+00
 2.50000E+00    3.90220E+00
 3.00000E+00    5.10000E+00
 3.50000E+00    8.71800E+00
 4.00000E+00    1.24710E+01
 4.50000E+00    1.77510E+01
 5.00000E+00    2.23600E+01
 5.50000E+00    2.61640E+01
 6.00000E+00    2.87790E+01
 6.50000E+00    3.10340E+01
 7.00000E+00    3.18760E+01
 7.50000E+00    3.35430E+01
 8.00000E+00    3.44680E+01
 8.50000E+00    3.60210E+01
 9.00000E+00    3.78610E+01
 9.50000E+00    3.97790E+01
 1.00000E+01    4.25407E+01
 1.10000E+01    5.15294E+01
 1.20000E+01    6.19820E+01
 1.30000E+01    7.61870E+01
 1.40000E+01    9.89970E+01
 1.45000E+01    1.11998E+02
 1.50000E+01    1.26362E+02
 1.60000E+01    1.56939E+02
 1.70000E+01    1.84410E+02
 1.80000E+01    2.08631E+02
 1.90000E+01    2.30612E+02
 2.00000E+01    2.50501E+02
