# n + Mo 93 : (n,a)m    
# jendl.ad   K.Shibata                         EVAL-MAY13
# uncertainties: n
# # energies =    31
#   E(MeV)       xs(mb) 
 1.00000E-11    0.00000E+00
 1.00000E+00    0.00000E+00
 1.50000E+00    2.69300E-02
 2.00000E+00    5.08900E-02
 2.50000E+00    1.05000E-01
 3.00000E+00    1.12100E-01
 3.50000E+00    1.62800E-01
 4.00000E+00    4.36200E-01
 4.50000E+00    5.22800E-01
 5.00000E+00    5.71700E-01
 5.50000E+00    5.55300E-01
 6.00000E+00    5.45000E-01
 6.50000E+00    4.43200E-01
 7.00000E+00    3.75900E-01
 7.50000E+00    2.80600E-01
 8.00000E+00    2.36700E-01
 8.50000E+00    1.80500E-01
 9.00000E+00    1.52300E-01
 9.50000E+00    1.43500E-01
 1.00000E+01    1.34300E-01
 1.10000E+01    1.34700E-01
 1.20000E+01    1.40400E-01
 1.30000E+01    1.45600E-01
 1.40000E+01    1.48100E-01
 1.45000E+01    1.49000E-01
 1.50000E+01    1.44300E-01
 1.60000E+01    1.33400E-01
 1.70000E+01    1.16000E-01
 1.80000E+01    9.63700E-02
 1.90000E+01    7.91600E-02
 2.00000E+01    6.51400E-02
