# n + Mo 93 : (n,n')    
# jendl.ad   K.Shibata                         EVAL-MAY13
# uncertainties: n
# # energies =    28
#   E(MeV)       xs(mb) 
 2.45122E+00    0.00000E+00
 2.50000E+00    1.19800E-04
 3.00000E+00    1.24500E-02
 3.50000E+00    7.87700E-02
 4.00000E+00    1.58200E-01
 4.50000E+00    1.89200E-01
 5.00000E+00    3.07200E-01
 5.50000E+00    6.19500E-01
 6.00000E+00    1.13800E+00
 6.50000E+00    1.84200E+00
 7.00000E+00    3.08600E+00
 7.50000E+00    4.09200E+00
 8.00000E+00    5.57400E+00
 8.50000E+00    6.74200E+00
 9.00000E+00    8.43300E+00
 9.50000E+00    1.05400E+01
 1.00000E+01    1.16900E+01
 1.10000E+01    1.52900E+01
 1.20000E+01    1.56900E+01
 1.30000E+01    1.48100E+01
 1.40000E+01    1.41200E+01
 1.45000E+01    1.46200E+01
 1.50000E+01    1.38300E+01
 1.60000E+01    1.36700E+01
 1.70000E+01    1.33300E+01
 1.80000E+01    1.29800E+01
 1.90000E+01    1.31900E+01
 2.00000E+01    1.30600E+01
