# n + Mo 93 : (n,xh)    
# jendl.ad   K.Shibata                         EVAL-MAY13
# 
# # energies =    28
#   E(MeV)        xs(mb) 
 2.45122E+00    0.00000E+00
 2.50000E+00    0.00000E+00
 3.00000E+00    0.00000E+00
 3.50000E+00    0.00000E+00
 4.00000E+00    0.00000E+00
 4.50000E+00    0.00000E+00
 5.00000E+00    0.00000E+00
 5.50000E+00    0.00000E+00
 6.00000E+00    0.00000E+00
 6.50000E+00    0.00000E+00
 7.00000E+00    0.00000E+00
 7.50000E+00    0.00000E+00
 8.00000E+00    0.00000E+00
 8.50000E+00    0.00000E+00
 9.00000E+00    0.00000E+00
 9.50000E+00    0.00000E+00
 1.00000E+01    0.00000E+00
 1.10000E+01    2.68100E-08
 1.20000E+01    1.80800E-06
 1.30000E+01    6.25400E-06
 1.40000E+01    1.72200E-05
 1.45000E+01    1.60890E-04
 1.50000E+01    3.04560E-04
 1.60000E+01    5.91900E-04
 1.70000E+01    1.78300E-03
 1.80000E+01    5.11000E-03
 1.90000E+01    1.27000E-02
 2.00000E+01    2.72700E-02
