# n + Mo 93 : (n,g)     
# jendl.ad   K.Shibata                         EVAL-MAY13
# uncertainties: n
# # energies =    69
#   E(MeV)       xs(mb) 
 1.00000E-10    1.87341E+04
 5.00000E-09    5.10115E+03
 1.00000E-08    3.86424E+03
 1.50000E-08    3.24707E+03
 2.00000E-08    2.85686E+03
 2.50000E-08    2.58095E+03
 3.00000E-08    2.37249E+03
 3.50000E-08    2.18132E+03
 4.20000E-08    1.99519E+03
 5.00000E-08    1.84033E+03
 5.80000E-08    1.71044E+03
 6.70000E-08    1.57856E+03
 8.00000E-08    1.42842E+03
 1.00000E-07    1.24272E+03
 1.40000E-07    1.07235E+03
 1.80000E-07    9.57582E+02
 2.20000E-07    8.81759E+02
 2.50000E-07    8.30211E+02
 2.80000E-07    7.93245E+02
 3.00000E-07    7.67063E+02
 3.20000E-07    7.38083E+02
 3.50000E-07    6.98167E+02
 4.00000E-07    6.38796E+02
 5.00000E-07    5.71348E+02
 6.25000E-07    5.11267E+02
 7.80000E-07    4.73150E+02
 8.50000E-07    4.55331E+02
 9.10000E-07    4.42821E+02
 9.50000E-07    4.35623E+02
 9.72000E-07    4.30462E+02
 9.96000E-07    4.25296E+02
 1.02000E-06    4.20256E+02
 1.04500E-06    4.15180E+02
 1.07100E-06    4.10112E+02
 1.09700E-06    4.05277E+02
 1.12300E-06    4.00556E+02
 1.15000E-06    3.86196E+02
 1.30000E-06    3.61503E+02
 1.50000E-06    3.20997E+02
 2.10000E-06    2.79586E+02
 2.60000E-06    2.49755E+02
 3.30000E-06    2.24218E+02
 4.00000E-06    1.71845E+02
 9.87700E-06    1.20827E+02
 1.59680E-05    9.34411E+01
 2.77000E-05    7.09461E+01
 4.80520E-05    5.51571E+01
 7.55014E-05    4.86610E+03
 1.48728E-04    5.13738E+03
 3.67262E-04    2.63027E+03
 9.06898E-04    1.73744E+03
 1.42510E-03    1.36969E+03
 2.23945E-03    1.06970E+03
 3.51910E-03    8.52507E+02
 5.53000E-03    6.61911E+02
 9.11800E-03    5.02946E+02
 1.50300E-02    3.58333E+02
 2.47800E-02    2.42674E+02
 4.08500E-02    1.65043E+02
 6.73400E-02    1.14441E+02
 1.11000E-01    8.78248E+01
 1.83000E-01    6.55376E+01
 3.02000E-01    5.54036E+01
 5.00000E-01    5.19486E+01
 8.21000E-01    5.23163E+01
 1.35300E+00    4.04584E+01
 2.23100E+00    1.46108E+01
 3.67900E+00    4.46466E+00
 6.06500E+00    1.66873E+00
