# n + Am242m: (n,n'23)  
# tendl.2019 A.J. Koning and D. Rochman        EVAL-NOV19
# uncertainties: n
# # energies =    80
#   E(MeV)       xs(mb) 
 2.83286E-01    0.00000E+00
 2.94201E-01    4.97383E-01
 3.00000E-01    7.61638E-01
 3.01496E-01    7.90009E-01
 3.08370E-01    9.32433E-01
 3.17417E-01    1.15332E+00
 3.23141E-01    1.31529E+00
 3.25220E-01    1.37879E+00
 3.26495E-01    1.41903E+00
 4.00000E-01    6.31487E+00
 5.00000E-01    9.38255E+00
 6.00000E-01    1.03744E+01
 7.00000E-01    1.02964E+01
 8.00000E-01    9.72163E+00
 9.00000E-01    8.95747E+00
 1.00000E+00    8.11743E+00
 1.20000E+00    6.53554E+00
 1.40000E+00    5.14198E+00
 1.60000E+00    3.94087E+00
 1.80000E+00    2.92164E+00
 2.00000E+00    2.09161E+00
 2.20000E+00    1.45095E+00
 2.40000E+00    9.82234E-01
 2.60000E+00    6.53143E-01
 2.80000E+00    4.32180E-01
 3.00000E+00    2.83416E-01
 3.20000E+00    1.72404E-01
 3.40000E+00    9.69959E-02
 3.60000E+00    5.67483E-02
 3.80000E+00    3.48541E-02
 4.00000E+00    2.20732E-02
 4.20000E+00    1.42223E-02
 4.40000E+00    9.28992E-03
 4.60000E+00    6.13278E-03
 4.80000E+00    4.08569E-03
 5.00000E+00    2.74015E-03
 5.20000E+00    1.85075E-03
 5.40000E+00    1.25878E-03
 5.60000E+00    8.61265E-04
 5.80000E+00    5.93539E-04
 6.00000E+00    4.11585E-04
 6.20000E+00    2.87264E-04
 6.40000E+00    2.01899E-04
 6.60000E+00    1.42714E-04
 6.80000E+00    1.01642E-04
 7.00000E+00    7.28573E-05
 7.20000E+00    5.25479E-05
 7.40000E+00    3.82689E-05
 7.60000E+00    2.80300E-05
 7.80000E+00    2.07321E-05
 8.00000E+00    1.54770E-05
 8.50000E+00    7.78592E-06
 9.00000E+00    4.14472E-06
 9.50000E+00    2.20505E-06
 1.00000E+01    1.15514E-06
 1.05000E+01    5.87480E-07
 1.10000E+01    2.94790E-07
 1.15000E+01    1.47360E-07
 1.20000E+01    7.41370E-08
 1.25000E+01    3.76410E-08
 1.30000E+01    1.93340E-08
 1.35000E+01    1.00540E-08
 1.40000E+01    5.29150E-09
 1.45000E+01    2.81920E-09
 1.50000E+01    1.51990E-09
 1.60000E+01    4.55210E-10
 1.70000E+01    1.43620E-10
 1.80000E+01    4.74410E-11
 1.90000E+01    1.64070E-11
 2.00000E+01    5.93700E-12
 2.10000E+01    2.25150E-12
 2.20000E+01    8.93440E-13
 2.30000E+01    3.72100E-13
 2.40000E+01    1.62630E-13
 2.50000E+01    7.46890E-14
 2.60000E+01    3.60550E-14
 2.70000E+01    1.82300E-14
 2.80000E+01    9.64230E-15
 2.90000E+01    5.31590E-15
 3.00000E+01    3.04200E-15
