# n + Am242m: (n,n'28)  
# tendl.2019 A.J. Koning and D. Rochman        EVAL-NOV19
# uncertainties: n
# # energies =    74
#   E(MeV)       xs(mb) 
 3.23141E-01    0.00000E+00
 3.25220E-01    2.07905E-01
 3.26495E-01    3.35409E-01
 4.00000E-01    7.68615E+00
 5.00000E-01    1.22985E+01
 6.00000E-01    1.43437E+01
 7.00000E-01    1.47020E+01
 8.00000E-01    1.40557E+01
 9.00000E-01    1.29072E+01
 1.00000E+00    1.15177E+01
 1.20000E+00    8.79793E+00
 1.40000E+00    6.49622E+00
 1.60000E+00    4.69628E+00
 1.80000E+00    3.33084E+00
 2.00000E+00    2.31886E+00
 2.20000E+00    1.58618E+00
 2.40000E+00    1.06909E+00
 2.60000E+00    7.11786E-01
 2.80000E+00    4.72774E-01
 3.00000E+00    3.11355E-01
 3.20000E+00    1.88393E-01
 3.40000E+00    1.05950E-01
 3.60000E+00    6.23394E-02
 3.80000E+00    3.84784E-02
 4.00000E+00    2.44876E-02
 4.20000E+00    1.58554E-02
 4.40000E+00    1.04084E-02
 4.60000E+00    6.90627E-03
 4.80000E+00    4.62477E-03
 5.00000E+00    3.11792E-03
 5.20000E+00    2.11680E-03
 5.40000E+00    1.44673E-03
 5.60000E+00    9.94388E-04
 5.80000E+00    6.88113E-04
 6.00000E+00    4.78807E-04
 6.20000E+00    3.35156E-04
 6.40000E+00    2.36096E-04
 6.60000E+00    1.67168E-04
 6.80000E+00    1.19195E-04
 7.00000E+00    8.55020E-05
 7.20000E+00    6.16875E-05
 7.40000E+00    4.49305E-05
 7.60000E+00    3.29064E-05
 7.80000E+00    2.43347E-05
 8.00000E+00    1.81648E-05
 8.50000E+00    9.13873E-06
 9.00000E+00    4.86913E-06
 9.50000E+00    2.59389E-06
 1.00000E+01    1.36109E-06
 1.05000E+01    6.93500E-07
 1.10000E+01    3.48670E-07
 1.15000E+01    1.74640E-07
 1.20000E+01    8.80290E-08
 1.25000E+01    4.47770E-08
 1.30000E+01    2.30410E-08
 1.35000E+01    1.20020E-08
 1.40000E+01    6.32740E-09
 1.45000E+01    3.37630E-09
 1.50000E+01    1.82300E-09
 1.60000E+01    5.47480E-10
 1.70000E+01    1.73170E-10
 1.80000E+01    5.73410E-11
 1.90000E+01    1.98800E-11
 2.00000E+01    7.21090E-12
 2.10000E+01    2.74070E-12
 2.20000E+01    1.08980E-12
 2.30000E+01    4.54720E-13
 2.40000E+01    1.99070E-13
 2.50000E+01    9.15710E-14
 2.60000E+01    4.42690E-14
 2.70000E+01    2.24140E-14
 2.80000E+01    1.18700E-14
 2.90000E+01    6.55190E-15
 3.00000E+01    3.75340E-15
