# n + Am242m: (n,n'24)  
# tendl.2019 A.J. Koning and D. Rochman        EVAL-NOV19
# uncertainties: n
# # energies =    79
#   E(MeV)       xs(mb) 
 2.94201E-01    0.00000E+00
 3.00000E-01    6.82626E-06
 3.01496E-01    7.51944E-06
 3.08370E-01    1.16559E-05
 3.17417E-01    2.04509E-05
 3.23141E-01    2.89486E-05
 3.25220E-01    3.27929E-05
 3.26495E-01    3.53850E-05
 4.00000E-01    1.83392E-03
 5.00000E-01    1.02447E-02
 6.00000E-01    2.87395E-02
 7.00000E-01    5.77135E-02
 8.00000E-01    9.45290E-02
 9.00000E-01    1.34960E-01
 1.00000E+00    1.73781E-01
 1.20000E+00    2.33164E-01
 1.40000E+00    2.55672E-01
 1.60000E+00    2.44071E-01
 1.80000E+00    2.10994E-01
 2.00000E+00    1.69790E-01
 2.20000E+00    1.29631E-01
 2.40000E+00    9.52250E-02
 2.60000E+00    6.79591E-02
 2.80000E+00    4.78032E-02
 3.00000E+00    3.30484E-02
 3.20000E+00    2.08817E-02
 3.40000E+00    1.21799E-02
 3.60000E+00    7.38118E-03
 3.80000E+00    4.66791E-03
 4.00000E+00    3.03190E-03
 4.20000E+00    1.99715E-03
 4.40000E+00    1.33027E-03
 4.60000E+00    8.93692E-04
 4.80000E+00    6.04833E-04
 5.00000E+00    4.11472E-04
 5.20000E+00    2.81521E-04
 5.40000E+00    1.93700E-04
 5.60000E+00    1.33900E-04
 5.80000E+00    9.31143E-05
 6.00000E+00    6.50698E-05
 6.20000E+00    4.57129E-05
 6.40000E+00    3.23008E-05
 6.60000E+00    2.29292E-05
 6.80000E+00    1.63833E-05
 7.00000E+00    1.17709E-05
 7.20000E+00    8.50288E-06
 7.40000E+00    6.19769E-06
 7.60000E+00    4.54090E-06
 7.80000E+00    3.35812E-06
 8.00000E+00    2.50566E-06
 8.50000E+00    1.25763E-06
 9.00000E+00    6.67640E-07
 9.50000E+00    3.54440E-07
 1.00000E+01    1.85380E-07
 1.05000E+01    9.41440E-08
 1.10000E+01    4.71610E-08
 1.15000E+01    2.35280E-08
 1.20000E+01    1.18110E-08
 1.25000E+01    5.98250E-09
 1.30000E+01    3.06550E-09
 1.35000E+01    1.59010E-09
 1.40000E+01    8.34930E-10
 1.45000E+01    4.43790E-10
 1.50000E+01    2.38710E-10
 1.60000E+01    7.11830E-11
 1.70000E+01    2.23670E-11
 1.80000E+01    7.36090E-12
 1.90000E+01    2.53720E-12
 2.00000E+01    9.15330E-13
 2.10000E+01    3.46150E-13
 2.20000E+01    1.37000E-13
 2.30000E+01    5.69220E-14
 2.40000E+01    2.48230E-14
 2.50000E+01    1.13780E-14
 2.60000E+01    5.48250E-15
 2.70000E+01    2.76740E-15
 2.80000E+01    1.46130E-15
 2.90000E+01    8.04420E-16
 3.00000E+01    4.59670E-16
