# n + Am242m: (n,n'21)  
# tendl.2019 A.J. Koning and D. Rochman        EVAL-NOV19
# uncertainties: n
# # energies =    82
#   E(MeV)       xs(mb) 
 2.59477E-01    0.00000E+00
 2.80404E-01    2.66192E-01
 2.83286E-01    3.02851E-01
 2.94201E-01    4.41690E-01
 3.00000E-01    5.15454E-01
 3.01496E-01    5.30111E-01
 3.08370E-01    6.01941E-01
 3.17417E-01    7.08500E-01
 3.23141E-01    7.83594E-01
 3.25220E-01    8.12439E-01
 3.26495E-01    8.30556E-01
 4.00000E-01    2.60876E+00
 5.00000E-01    4.61439E+00
 6.00000E-01    5.98715E+00
 7.00000E-01    6.71978E+00
 8.00000E-01    6.95354E+00
 9.00000E-01    6.85970E+00
 1.00000E+00    6.53471E+00
 1.20000E+00    5.59034E+00
 1.40000E+00    4.50326E+00
 1.60000E+00    3.46040E+00
 1.80000E+00    2.55606E+00
 2.00000E+00    1.82825E+00
 2.20000E+00    1.27442E+00
 2.40000E+00    8.71271E-01
 2.60000E+00    5.86723E-01
 2.80000E+00    3.93441E-01
 3.00000E+00    2.61123E-01
 3.20000E+00    1.59001E-01
 3.40000E+00    9.00138E-02
 3.60000E+00    5.33885E-02
 3.80000E+00    3.32389E-02
 4.00000E+00    2.13306E-02
 4.20000E+00    1.39248E-02
 4.40000E+00    9.21411E-03
 4.60000E+00    6.16089E-03
 4.80000E+00    4.15685E-03
 5.00000E+00    2.82371E-03
 5.20000E+00    1.93145E-03
 5.40000E+00    1.33013E-03
 5.60000E+00    9.21195E-04
 5.80000E+00    6.42310E-04
 6.00000E+00    4.50372E-04
 6.20000E+00    3.17623E-04
 6.40000E+00    2.25414E-04
 6.60000E+00    1.60769E-04
 6.80000E+00    1.15452E-04
 7.00000E+00    8.33925E-05
 7.20000E+00    6.05761E-05
 7.40000E+00    4.44194E-05
 7.60000E+00    3.27499E-05
 7.80000E+00    2.43819E-05
 8.00000E+00    1.83227E-05
 8.50000E+00    9.37762E-06
 9.00000E+00    5.08033E-06
 9.50000E+00    2.74402E-06
 1.00000E+01    1.45665E-06
 1.05000E+01    7.49990E-07
 1.10000E+01    3.80940E-07
 1.15000E+01    1.92760E-07
 1.20000E+01    9.81580E-08
 1.25000E+01    5.04310E-08
 1.30000E+01    2.62050E-08
 1.35000E+01    1.37790E-08
 1.40000E+01    7.33140E-09
 1.45000E+01    3.94680E-09
 1.50000E+01    2.14930E-09
 1.60000E+01    6.56080E-10
 1.70000E+01    2.10730E-10
 1.80000E+01    7.08150E-11
 1.90000E+01    2.49000E-11
 2.00000E+01    9.15520E-12
 2.10000E+01    3.52490E-12
 2.20000E+01    1.41880E-12
 2.30000E+01    5.98790E-13
 2.40000E+01    2.64950E-13
 2.50000E+01    1.23100E-13
 2.60000E+01    6.00790E-14
 2.70000E+01    3.06960E-14
 2.80000E+01    1.63980E-14
 2.90000E+01    9.12640E-15
 3.00000E+01    5.26970E-15
