# n + Am242m: (n,n'22)  
# tendl.2019 A.J. Koning and D. Rochman        EVAL-NOV19
# uncertainties: n
# # energies =    81
#   E(MeV)       xs(mb) 
 2.80404E-01    0.00000E+00
 2.83286E-01    1.35745E-01
 2.94201E-01    6.49851E-01
 3.00000E-01    9.22991E-01
 3.01496E-01    9.54662E-01
 3.08370E-01    1.11238E+00
 3.17417E-01    1.35341E+00
 3.23141E-01    1.52783E+00
 3.25220E-01    1.59575E+00
 3.26495E-01    1.63867E+00
 4.00000E-01    6.49530E+00
 5.00000E-01    9.51326E+00
 6.00000E-01    1.04665E+01
 7.00000E-01    1.03632E+01
 8.00000E-01    9.77192E+00
 9.00000E-01    8.99669E+00
 1.00000E+00    8.14876E+00
 1.20000E+00    6.55677E+00
 1.40000E+00    5.15671E+00
 1.60000E+00    3.95069E+00
 1.80000E+00    2.92777E+00
 2.00000E+00    2.09521E+00
 2.20000E+00    1.45299E+00
 2.40000E+00    9.83376E-01
 2.60000E+00    6.53787E-01
 2.80000E+00    4.32554E-01
 3.00000E+00    2.83637E-01
 3.20000E+00    1.72547E-01
 3.40000E+00    9.70630E-02
 3.60000E+00    5.67851E-02
 3.80000E+00    3.48754E-02
 4.00000E+00    2.20859E-02
 4.20000E+00    1.42300E-02
 4.40000E+00    9.29467E-03
 4.60000E+00    6.13575E-03
 4.80000E+00    4.08756E-03
 5.00000E+00    2.74134E-03
 5.20000E+00    1.85153E-03
 5.40000E+00    1.25929E-03
 5.60000E+00    8.61603E-04
 5.80000E+00    5.93764E-04
 6.00000E+00    4.11740E-04
 6.20000E+00    2.87371E-04
 6.40000E+00    2.01973E-04
 6.60000E+00    1.42766E-04
 6.80000E+00    1.01679E-04
 7.00000E+00    7.28829E-05
 7.20000E+00    5.25660E-05
 7.40000E+00    3.82818E-05
 7.60000E+00    2.80392E-05
 7.80000E+00    2.07387E-05
 8.00000E+00    1.54818E-05
 8.50000E+00    7.78809E-06
 9.00000E+00    4.14576E-06
 9.50000E+00    2.20556E-06
 1.00000E+01    1.15539E-06
 1.05000E+01    5.87600E-07
 1.10000E+01    2.94850E-07
 1.15000E+01    1.47390E-07
 1.20000E+01    7.41490E-08
 1.25000E+01    3.76470E-08
 1.30000E+01    1.93370E-08
 1.35000E+01    1.00550E-08
 1.40000E+01    5.29230E-09
 1.45000E+01    2.81950E-09
 1.50000E+01    1.52010E-09
 1.60000E+01    4.55260E-10
 1.70000E+01    1.43630E-10
 1.80000E+01    4.74460E-11
 1.90000E+01    1.64090E-11
 2.00000E+01    5.93750E-12
 2.10000E+01    2.25160E-12
 2.20000E+01    8.93510E-13
 2.30000E+01    3.72130E-13
 2.40000E+01    1.62640E-13
 2.50000E+01    7.46940E-14
 2.60000E+01    3.60570E-14
 2.70000E+01    1.82310E-14
 2.80000E+01    9.64280E-15
 2.90000E+01    5.31620E-15
 3.00000E+01    3.04210E-15
