# n + Am242m: (n,n'26)  
# tendl.2019 A.J. Koning and D. Rochman        EVAL-NOV19
# uncertainties: n
# # energies =    76
#   E(MeV)       xs(mb) 
 3.08370E-01    0.00000E+00
 3.17417E-01    5.61333E-02
 3.23141E-01    9.16486E-02
 3.25220E-01    1.04548E-01
 3.26495E-01    1.12459E-01
 4.00000E-01    5.68530E-01
 5.00000E-01    1.41485E+00
 6.00000E-01    2.12376E+00
 7.00000E-01    2.60460E+00
 8.00000E-01    2.87414E+00
 9.00000E-01    2.98336E+00
 1.00000E+00    2.96812E+00
 1.20000E+00    2.73130E+00
 1.40000E+00    2.34124E+00
 1.60000E+00    1.89956E+00
 1.80000E+00    1.47016E+00
 2.00000E+00    1.09379E+00
 2.20000E+00    7.87906E-01
 2.40000E+00    5.53467E-01
 2.60000E+00    3.81207E-01
 2.80000E+00    2.60497E-01
 3.00000E+00    1.75788E-01
 3.20000E+00    1.08754E-01
 3.40000E+00    6.23199E-02
 3.60000E+00    3.72192E-02
 3.80000E+00    2.32552E-02
 4.00000E+00    1.49521E-02
 4.20000E+00    9.76528E-03
 4.40000E+00    6.45770E-03
 4.60000E+00    4.31192E-03
 4.80000E+00    2.90310E-03
 5.00000E+00    1.96636E-03
 5.20000E+00    1.34037E-03
 5.40000E+00    9.19312E-04
 5.60000E+00    6.33807E-04
 5.80000E+00    4.39755E-04
 6.00000E+00    3.06707E-04
 6.20000E+00    2.15117E-04
 6.40000E+00    1.51793E-04
 6.60000E+00    1.07629E-04
 6.80000E+00    7.68304E-05
 7.00000E+00    5.51598E-05
 7.20000E+00    3.98218E-05
 7.40000E+00    2.90143E-05
 7.60000E+00    2.12523E-05
 7.80000E+00    1.57146E-05
 8.00000E+00    1.17258E-05
 8.50000E+00    5.88875E-06
 9.00000E+00    3.12961E-06
 9.50000E+00    1.66343E-06
 1.00000E+01    8.71080E-07
 1.05000E+01    4.42950E-07
 1.10000E+01    2.22220E-07
 1.15000E+01    1.11040E-07
 1.20000E+01    5.58330E-08
 1.25000E+01    2.83260E-08
 1.30000E+01    1.45380E-08
 1.35000E+01    7.55260E-09
 1.40000E+01    3.97140E-09
 1.45000E+01    2.11380E-09
 1.50000E+01    1.13850E-09
 1.60000E+01    3.40280E-10
 1.70000E+01    1.07140E-10
 1.80000E+01    3.53280E-11
 1.90000E+01    1.21980E-11
 2.00000E+01    4.40760E-12
 2.10000E+01    1.66920E-12
 2.20000E+01    6.61540E-13
 2.30000E+01    2.75180E-13
 2.40000E+01    1.20130E-13
 2.50000E+01    5.51190E-14
 2.60000E+01    2.65830E-14
 2.70000E+01    1.34290E-14
 2.80000E+01    7.09710E-15
 2.90000E+01    3.90970E-15
 3.00000E+01    2.23560E-15
