# n + Am242m: (n,n'25)  
# tendl.2019 A.J. Koning and D. Rochman        EVAL-NOV19
# uncertainties: n
# # energies =    77
#   E(MeV)       xs(mb) 
 3.01496E-01    0.00000E+00
 3.08370E-01    1.22604E+00
 3.17417E-01    2.83966E+00
 3.23141E-01    3.86059E+00
 3.25220E-01    4.23139E+00
 3.26495E-01    4.45880E+00
 4.00000E-01    1.75691E+01
 5.00000E-01    2.65212E+01
 6.00000E-01    2.85773E+01
 7.00000E-01    2.71724E+01
 8.00000E-01    2.43510E+01
 9.00000E-01    2.11990E+01
 1.00000E+00    1.81238E+01
 1.20000E+00    1.30554E+01
 1.40000E+00    9.35081E+00
 1.60000E+00    6.67127E+00
 1.80000E+00    4.69747E+00
 2.00000E+00    3.24012E+00
 2.20000E+00    2.18538E+00
 2.40000E+00    1.44646E+00
 2.60000E+00    9.43683E-01
 2.80000E+00    6.14052E-01
 3.00000E+00    3.96563E-01
 3.20000E+00    2.37449E-01
 3.40000E+00    1.31894E-01
 3.60000E+00    7.63912E-02
 3.80000E+00    4.65324E-02
 4.00000E+00    2.92650E-02
 4.20000E+00    1.87473E-02
 4.40000E+00    1.21866E-02
 4.60000E+00    8.01237E-03
 4.80000E+00    5.31973E-03
 5.00000E+00    3.55773E-03
 5.20000E+00    2.39739E-03
 5.40000E+00    1.62741E-03
 5.60000E+00    1.11178E-03
 5.80000E+00    7.65273E-04
 6.00000E+00    5.30180E-04
 6.20000E+00    3.69814E-04
 6.40000E+00    2.59830E-04
 6.60000E+00    1.83649E-04
 6.80000E+00    1.30815E-04
 7.00000E+00    9.38052E-05
 7.20000E+00    6.76935E-05
 7.40000E+00    4.93387E-05
 7.60000E+00    3.61715E-05
 7.80000E+00    2.67831E-05
 8.00000E+00    2.00200E-05
 8.50000E+00    1.01084E-05
 9.00000E+00    5.40188E-06
 9.50000E+00    2.88244E-06
 1.00000E+01    1.51346E-06
 1.05000E+01    7.71280E-07
 1.10000E+01    3.87850E-07
 1.15000E+01    1.94340E-07
 1.20000E+01    9.80260E-08
 1.25000E+01    4.99050E-08
 1.30000E+01    2.57070E-08
 1.35000E+01    1.34050E-08
 1.40000E+01    7.07610E-09
 1.45000E+01    3.78070E-09
 1.50000E+01    2.04410E-09
 1.60000E+01    6.15630E-10
 1.70000E+01    1.95280E-10
 1.80000E+01    6.48480E-11
 1.90000E+01    2.25420E-11
 2.00000E+01    8.19700E-12
 2.10000E+01    3.12310E-12
 2.20000E+01    1.24480E-12
 2.30000E+01    5.20570E-13
 2.40000E+01    2.28380E-13
 2.50000E+01    1.05260E-13
 2.60000E+01    5.09760E-14
 2.70000E+01    2.58540E-14
 2.80000E+01    1.37140E-14
 2.90000E+01    7.58140E-15
 3.00000E+01    4.34950E-15
