# n + Am242m: (n,n'27)  
# tendl.2019 A.J. Koning and D. Rochman        EVAL-NOV19
# uncertainties: n
# # energies =    75
#   E(MeV)       xs(mb) 
 3.17417E-01    0.00000E+00
 3.23141E-01    3.40708E-02
 3.25220E-01    4.64454E-02
 3.26495E-01    5.40345E-02
 4.00000E-01    4.91555E-01
 5.00000E-01    1.32424E+00
 6.00000E-01    2.03779E+00
 7.00000E-01    2.52786E+00
 8.00000E-01    2.80736E+00
 9.00000E-01    2.92595E+00
 1.00000E+00    2.91914E+00
 1.20000E+00    2.69593E+00
 1.40000E+00    2.31620E+00
 1.60000E+00    1.88255E+00
 1.80000E+00    1.45917E+00
 2.00000E+00    1.08700E+00
 2.20000E+00    7.83793E-01
 2.40000E+00    5.51003E-01
 2.60000E+00    3.79735E-01
 2.80000E+00    2.59608E-01
 3.00000E+00    1.75249E-01
 3.20000E+00    1.08446E-01
 3.40000E+00    6.21542E-02
 3.60000E+00    3.71276E-02
 3.80000E+00    2.32021E-02
 4.00000E+00    1.49202E-02
 4.20000E+00    9.74577E-03
 4.40000E+00    6.44558E-03
 4.60000E+00    4.30429E-03
 4.80000E+00    2.89826E-03
 5.00000E+00    1.96324E-03
 5.20000E+00    1.33835E-03
 5.40000E+00    9.17976E-04
 5.60000E+00    6.32923E-04
 5.80000E+00    4.39166E-04
 6.00000E+00    3.06305E-04
 6.20000E+00    2.14844E-04
 6.40000E+00    1.51605E-04
 6.60000E+00    1.07499E-04
 6.80000E+00    7.67400E-05
 7.00000E+00    5.50971E-05
 7.20000E+00    3.97777E-05
 7.40000E+00    2.89834E-05
 7.60000E+00    2.12304E-05
 7.80000E+00    1.56989E-05
 8.00000E+00    1.17146E-05
 8.50000E+00    5.88364E-06
 9.00000E+00    3.12714E-06
 9.50000E+00    1.66222E-06
 1.00000E+01    8.70500E-07
 1.05000E+01    4.42680E-07
 1.10000E+01    2.22090E-07
 1.15000E+01    1.10980E-07
 1.20000E+01    5.58040E-08
 1.25000E+01    2.83130E-08
 1.30000E+01    1.45310E-08
 1.35000E+01    7.54920E-09
 1.40000E+01    3.96980E-09
 1.45000E+01    2.11300E-09
 1.50000E+01    1.13800E-09
 1.60000E+01    3.40160E-10
 1.70000E+01    1.07110E-10
 1.80000E+01    3.53170E-11
 1.90000E+01    1.21950E-11
 2.00000E+01    4.40640E-12
 2.10000E+01    1.66880E-12
 2.20000E+01    6.61380E-13
 2.30000E+01    2.75120E-13
 2.40000E+01    1.20110E-13
 2.50000E+01    5.51080E-14
 2.60000E+01    2.65780E-14
 2.70000E+01    1.34270E-14
 2.80000E+01    7.09590E-15
 2.90000E+01    3.90900E-15
 3.00000E+01    2.23530E-15
