# n + Am242m: (n,n'29)  
# tendl.2019 A.J. Koning and D. Rochman        EVAL-NOV19
# uncertainties: n
# # energies =    73
#   E(MeV)       xs(mb) 
 3.25220E-01    0.00000E+00
 3.26495E-01    1.45191E-01
 4.00000E-01    8.51555E+00
 5.00000E-01    1.59790E+01
 6.00000E-01    1.86333E+01
 7.00000E-01    1.85107E+01
 8.00000E-01    1.71177E+01
 9.00000E-01    1.52935E+01
 1.00000E+00    1.33776E+01
 1.20000E+00    1.00242E+01
 1.40000E+00    7.41316E+00
 1.60000E+00    5.42563E+00
 1.80000E+00    3.89855E+00
 2.00000E+00    2.73307E+00
 2.20000E+00    1.86769E+00
 2.40000E+00    1.24952E+00
 2.60000E+00    8.22560E-01
 2.80000E+00    5.39379E-01
 3.00000E+00    3.50728E-01
 3.20000E+00    2.11222E-01
 3.40000E+00    1.18050E-01
 3.60000E+00    6.86687E-02
 3.80000E+00    4.19710E-02
 4.00000E+00    2.64714E-02
 4.20000E+00    1.69977E-02
 4.40000E+00    1.10710E-02
 4.60000E+00    7.29087E-03
 4.80000E+00    4.84727E-03
 5.00000E+00    3.24528E-03
 5.20000E+00    2.18873E-03
 5.40000E+00    1.48668E-03
 5.60000E+00    1.01609E-03
 5.80000E+00    6.99605E-04
 6.00000E+00    4.84712E-04
 6.20000E+00    3.38087E-04
 6.40000E+00    2.37496E-04
 6.60000E+00    1.67816E-04
 6.80000E+00    1.19493E-04
 7.00000E+00    8.56497E-05
 7.20000E+00    6.17770E-05
 7.40000E+00    4.50013E-05
 7.60000E+00    3.29712E-05
 7.80000E+00    2.43968E-05
 8.00000E+00    1.82233E-05
 8.50000E+00    9.18283E-06
 9.00000E+00    4.89726E-06
 9.50000E+00    2.60915E-06
 1.00000E+01    1.36835E-06
 1.05000E+01    6.96590E-07
 1.10000E+01    3.49900E-07
 1.15000E+01    1.75100E-07
 1.20000E+01    8.82020E-08
 1.25000E+01    4.48400E-08
 1.30000E+01    2.30640E-08
 1.35000E+01    1.20090E-08
 1.40000E+01    6.32980E-09
 1.45000E+01    3.37710E-09
 1.50000E+01    1.82320E-09
 1.60000E+01    5.47530E-10
 1.70000E+01    1.73200E-10
 1.80000E+01    5.73540E-11
 1.90000E+01    1.98830E-11
 2.00000E+01    7.21110E-12
 2.10000E+01    2.74050E-12
 2.20000E+01    1.08970E-12
 2.30000E+01    4.54680E-13
 2.40000E+01    1.99060E-13
 2.50000E+01    9.15640E-14
 2.60000E+01    4.42640E-14
 2.70000E+01    2.24110E-14
 2.80000E+01    1.18690E-14
 2.90000E+01    6.55090E-15
 3.00000E+01    3.75280E-15
