# n + Am242m: (n,n'30)  
# tendl.2019 A.J. Koning and D. Rochman        EVAL-NOV19
# uncertainties: n
# # energies =    72
#   E(MeV)       xs(mb) 
 3.26495E-01    0.00000E+00
 4.00000E-01    8.34837E+00
 5.00000E-01    1.58532E+01
 6.00000E-01    1.85506E+01
 7.00000E-01    1.84555E+01
 8.00000E-01    1.70795E+01
 9.00000E-01    1.52661E+01
 1.00000E+00    1.33573E+01
 1.20000E+00    1.00119E+01
 1.40000E+00    7.40505E+00
 1.60000E+00    5.42028E+00
 1.80000E+00    3.89520E+00
 2.00000E+00    2.73111E+00
 2.20000E+00    1.86658E+00
 2.40000E+00    1.24890E+00
 2.60000E+00    8.22218E-01
 2.80000E+00    5.39183E-01
 3.00000E+00    3.50614E-01
 3.20000E+00    2.11151E-01
 3.40000E+00    1.18015E-01
 3.60000E+00    6.86500E-02
 3.80000E+00    4.19602E-02
 4.00000E+00    2.64650E-02
 4.20000E+00    1.69938E-02
 4.40000E+00    1.10686E-02
 4.60000E+00    7.28935E-03
 4.80000E+00    4.84631E-03
 5.00000E+00    3.24466E-03
 5.20000E+00    2.18833E-03
 5.40000E+00    1.48642E-03
 5.60000E+00    1.01592E-03
 5.80000E+00    6.99490E-04
 6.00000E+00    4.84632E-04
 6.20000E+00    3.38032E-04
 6.40000E+00    2.37458E-04
 6.60000E+00    1.67789E-04
 6.80000E+00    1.19474E-04
 7.00000E+00    8.56365E-05
 7.20000E+00    6.17676E-05
 7.40000E+00    4.49946E-05
 7.60000E+00    3.29665E-05
 7.80000E+00    2.43934E-05
 8.00000E+00    1.82209E-05
 8.50000E+00    9.18169E-06
 9.00000E+00    4.89671E-06
 9.50000E+00    2.60888E-06
 1.00000E+01    1.36822E-06
 1.05000E+01    6.96530E-07
 1.10000E+01    3.49870E-07
 1.15000E+01    1.75090E-07
 1.20000E+01    8.81950E-08
 1.25000E+01    4.48370E-08
 1.30000E+01    2.30620E-08
 1.35000E+01    1.20080E-08
 1.40000E+01    6.32940E-09
 1.45000E+01    3.37690E-09
 1.50000E+01    1.82310E-09
 1.60000E+01    5.47500E-10
 1.70000E+01    1.73190E-10
 1.80000E+01    5.73520E-11
 1.90000E+01    1.98820E-11
 2.00000E+01    7.21090E-12
 2.10000E+01    2.74040E-12
 2.20000E+01    1.08970E-12
 2.30000E+01    4.54670E-13
 2.40000E+01    1.99050E-13
 2.50000E+01    9.15620E-14
 2.60000E+01    4.42630E-14
 2.70000E+01    2.24110E-14
 2.80000E+01    1.18680E-14
 2.90000E+01    6.55080E-15
 3.00000E+01    3.75270E-15
