# n + Pu241 : (n,xn)    
# jendl4.0   O.Iwamoto,N.Otuka,S.Chiba,+       EVAL-JAN10
# 
# # energies =    97
#   E(MeV)        xs(mb) 
 4.21476E-02    0.00000E+00
 5.00000E-02    6.55746E+01
 7.00000E-02    1.28719E+02
 9.61808E-02    1.95849E+02
 1.00000E-01    2.08115E+02
 1.15000E-01    2.48990E+02
 1.30000E-01    2.89869E+02
 1.61989E-01    3.66527E+02
 1.62362E-01    3.67677E+02
 1.70000E-01    3.90323E+02
 1.71655E-01    3.95056E+02
 1.75784E-01    4.21899E+02
 2.00000E-01    5.71222E+02
 2.23921E-01    6.68932E+02
 2.32905E-01    7.28518E+02
 2.32906E-01    7.28525E+02
 2.35983E-01    7.46422E+02
 2.45915E-01    7.96799E+02
 3.00000E-01    1.05832E+03
 3.02432E-01    1.06481E+03
 3.38410E-01    1.15107E+03
 3.38547E-01    1.15157E+03
 3.74561E-01    1.23120E+03
 3.77573E-01    1.23747E+03
 3.86611E-01    1.25714E+03
 4.00000E-01    1.28332E+03
 4.06145E-01    1.29481E+03
 4.10610E-01    1.30501E+03
 4.47866E-01    1.39243E+03
 4.74979E-01    1.44612E+03
 4.97071E-01    1.48840E+03
 5.00000E-01    1.49641E+03
 5.05105E-01    1.50228E+03
 5.20983E-01    1.51791E+03
 5.36437E-01    1.53906E+03
 5.63770E-01    1.57207E+03
 5.72385E-01    1.58444E+03
 6.00000E-01    1.61449E+03
 6.17409E-01    1.63030E+03
 6.47699E-01    1.65696E+03
 6.83850E-01    1.68259E+03
 7.00000E-01    1.69312E+03
 7.58334E-01    1.68700E+03
 7.72488E-01    1.68427E+03
 7.82410E-01    1.68265E+03
 7.87433E-01    1.68294E+03
 8.00000E-01    1.68339E+03
 8.03792E-01    1.68315E+03
 8.03828E-01    1.68322E+03
 8.14339E-01    1.68605E+03
 8.35067E-01    1.69096E+03
 8.36787E-01    1.69192E+03
 8.38332E-01    1.69304E+03
 8.45480E-01    1.69658E+03
 9.00000E-01    1.70825E+03
 1.00000E+00    1.72135E+03
 1.30000E+00    1.78477E+03
 1.60000E+00    1.87683E+03
 1.80000E+00    1.93236E+03
 2.00000E+00    1.97534E+03
 2.30000E+00    2.01580E+03
 2.50000E+00    2.02992E+03
 2.70000E+00    2.04007E+03
 3.00000E+00    2.09522E+03
 3.50000E+00    2.10744E+03
 4.00000E+00    2.10723E+03
 4.50000E+00    2.10723E+03
 5.00000E+00    2.12455E+03
 5.50000E+00    2.12991E+03
 6.00000E+00    2.19797E+03
 6.50000E+00    2.09445E+03
 7.00000E+00    1.98480E+03
 7.50000E+00    1.92714E+03
 8.00000E+00    1.95678E+03
 8.50000E+00    1.95099E+03
 9.00000E+00    1.96793E+03
 9.50000E+00    1.99278E+03
 1.00000E+01    2.03121E+03
 1.05000E+01    2.05398E+03
 1.10000E+01    2.11297E+03
 1.15000E+01    2.14448E+03
 1.20000E+01    2.13719E+03
 1.25000E+01    2.06923E+03
 1.30000E+01    1.96986E+03
 1.35000E+01    1.88242E+03
 1.40000E+01    1.82508E+03
 1.45000E+01    1.76592E+03
 1.50000E+01    1.76491E+03
 1.55000E+01    1.72230E+03
 1.60000E+01    1.69856E+03
 1.65000E+01    1.69165E+03
 1.70000E+01    1.68488E+03
 1.75000E+01    1.70035E+03
 1.80000E+01    1.71297E+03
 1.85000E+01    1.74066E+03
 1.95000E+01    1.76719E+03
 2.00000E+01    1.75591E+03
