# n + Pu241 : (n,n'40)  
# jendl4.0   O.Iwamoto,N.Otuka,S.Chiba,+       EVAL-JAN10
# uncertainties: y
# # energies =    44
#   E(MeV)       xs(mb)       xslow(mb)      xsupp(mb)
 8.45480E-01    0.00000E+00    0.00000E+00    0.00000E+00
 9.00000E-01    3.16769E+00    1.89111E+00    4.44427E+00
 1.00000E+00    6.47758E+00    3.86712E+00    9.08805E+00
 1.30000E+00    8.37938E+00    5.00249E+00    1.17563E+01
 1.60000E+00    6.00129E+00    4.15289E+00    7.84969E+00
 1.80000E+00    4.26696E+00    2.95274E+00    5.58118E+00
 2.00000E+00    2.90483E+00    2.43425E+00    3.37541E+00
 2.30000E+00    1.54219E+00    1.29236E+00    1.79202E+00
 2.50000E+00    9.90819E-01    8.26343E-01    1.15529E+00
 2.70000E+00    6.27876E-01    5.23649E-01    7.32103E-01
 3.00000E+00    4.04135E-01    3.36644E-01    4.71626E-01
 3.50000E+00    1.92175E-01    1.57391E-01    2.26959E-01
 4.00000E+00    1.22756E-01    9.71000E-02    1.48412E-01
 4.50000E+00    9.68548E-02    7.66121E-02    1.17097E-01
 5.00000E+00    8.46239E-02    6.45680E-02    1.04680E-01
 5.50000E+00    7.61210E-02    5.80803E-02    9.41617E-02
 6.00000E+00    7.00619E-02    5.29668E-02    8.71570E-02
 6.50000E+00    6.46834E-02    4.89006E-02    8.04661E-02
 7.00000E+00    6.05405E-02    4.55870E-02    7.54940E-02
 7.50000E+00    5.68085E-02    4.27768E-02    7.08402E-02
 8.00000E+00    5.35429E-02    4.03178E-02    6.67680E-02
 8.50000E+00    5.05303E-02    3.80493E-02    6.30113E-02
 9.00000E+00    4.81018E-02    3.65574E-02    5.96462E-02
 9.50000E+00    4.53682E-02    3.44798E-02    5.62566E-02
 1.00000E+01    4.28363E-02    3.28983E-02    5.27743E-02
 1.05000E+01    4.05408E-02    3.11353E-02    4.99463E-02
 1.10000E+01    3.84583E-02    2.95360E-02    4.73806E-02
 1.15000E+01    3.67683E-02    2.82381E-02    4.52985E-02
 1.20000E+01    3.50346E-02    2.73620E-02    4.27072E-02
 1.25000E+01    3.32087E-02    2.59360E-02    4.04814E-02
 1.30000E+01    3.13344E-02    2.44722E-02    3.81966E-02
 1.35000E+01    2.97584E-02    2.32413E-02    3.62755E-02
 1.40000E+01    2.83950E-02    2.24320E-02    3.43580E-02
 1.45000E+01    2.71407E-02    2.14412E-02    3.28402E-02
 1.50000E+01    2.59602E-02    2.06384E-02    3.12820E-02
 1.55000E+01    2.50938E-02    1.99496E-02    3.02380E-02
 1.60000E+01    2.42386E-02    1.93666E-02    2.91106E-02
 1.65000E+01    2.33726E-02    1.86747E-02    2.80705E-02
 1.70000E+01    2.24988E-02    1.79765E-02    2.70211E-02
 1.75000E+01    2.16288E-02    1.72814E-02    2.59762E-02
 1.80000E+01    2.07623E-02    1.67344E-02    2.47902E-02
 1.85000E+01    1.99027E-02    1.60416E-02    2.37638E-02
 1.95000E+01    1.82190E-02    1.46845E-02    2.17535E-02
 2.00000E+01    1.74013E-02    1.40254E-02    2.07772E-02
