# n + Sr 84 : (n,a)g    
# jendl.ad   K.Shibata, A.Ichihara, S.Kunieda  EVAL-APR13
# uncertainties: n
# # energies =    27
#   E(MeV)       xs(mb) 
 1.00000E-11    0.00000E+00
 3.00000E+00    0.00000E+00
 3.50000E+00    1.05800E-03
 4.00000E+00    7.74300E-03
 4.50000E+00    5.95700E-02
 5.00000E+00    1.61900E-01
 5.50000E+00    3.88100E-01
 6.00000E+00    6.28200E-01
 6.50000E+00    9.25500E-01
 7.00000E+00    1.24600E+00
 7.50000E+00    1.55900E+00
 8.00000E+00    1.75800E+00
 8.50000E+00    1.94700E+00
 9.00000E+00    2.03500E+00
 9.50000E+00    2.22200E+00
 1.00000E+01    2.35800E+00
 1.10000E+01    3.00100E+00
 1.20000E+01    4.04800E+00
 1.30000E+01    5.48900E+00
 1.40000E+01    7.24900E+00
 1.45000E+01    8.19000E+00
 1.50000E+01    9.06300E+00
 1.60000E+01    1.04400E+01
 1.70000E+01    1.09100E+01
 1.80000E+01    1.04300E+01
 1.90000E+01    9.37300E+00
 2.00000E+01    8.11800E+00
