# n + Sr 84 : (n,p)     
# jendl.ad   K.Shibata, A.Ichihara, S.Kunieda  EVAL-APR13
# uncertainties: n
# # energies =    28
#   E(MeV)       xs(mb) 
 2.00000E+00    0.00000E+00
 2.50000E+00    1.85100E-01
 3.00000E+00    1.26514E+00
 3.50000E+00    4.91260E+00
 4.00000E+00    1.27500E+01
 4.50000E+00    2.36080E+01
 5.00000E+00    3.73760E+01
 5.50000E+00    4.86500E+01
 6.00000E+00    5.99700E+01
 6.50000E+00    6.59900E+01
 7.00000E+00    7.10600E+01
 7.50000E+00    7.22400E+01
 8.00000E+00    7.23600E+01
 8.50000E+00    7.38600E+01
 9.00000E+00    7.65300E+01
 9.50000E+00    7.92300E+01
 1.00000E+01    8.37800E+01
 1.10000E+01    9.30100E+01
 1.20000E+01    1.02050E+02
 1.30000E+01    1.05970E+02
 1.40000E+01    1.01270E+02
 1.45000E+01    9.52500E+01
 1.50000E+01    9.02900E+01
 1.60000E+01    7.83200E+01
 1.70000E+01    6.79000E+01
 1.80000E+01    6.10800E+01
 1.90000E+01    5.61600E+01
 2.00000E+01    5.23300E+01
