# n + Sr 84 : (n,a)m    
# jendl.ad   K.Shibata, A.Ichihara, S.Kunieda  EVAL-APR13
# uncertainties: n
# # energies =    26
#   E(MeV)       xs(mb) 
 1.00000E-11    0.00000E+00
 3.50000E+00    0.00000E+00
 4.00000E+00    2.05200E-03
 4.50000E+00    1.18500E-02
 5.00000E+00    4.62100E-02
 5.50000E+00    1.34300E-01
 6.00000E+00    2.35500E-01
 6.50000E+00    3.54000E-01
 7.00000E+00    4.89000E-01
 7.50000E+00    6.30200E-01
 8.00000E+00    7.26900E-01
 8.50000E+00    8.06800E-01
 9.00000E+00    8.41500E-01
 9.50000E+00    8.77600E-01
 1.00000E+01    8.95900E-01
 1.10000E+01    1.00500E+00
 1.20000E+01    1.20900E+00
 1.30000E+01    1.50100E+00
 1.40000E+01    1.83300E+00
 1.45000E+01    1.99900E+00
 1.50000E+01    2.09300E+00
 1.60000E+01    2.15300E+00
 1.70000E+01    1.98000E+00
 1.80000E+01    1.68300E+00
 1.90000E+01    1.36000E+00
 2.00000E+01    1.10400E+00
