# n + Sr 84 : (n,g)     
# jendl.ad   K.Shibata, A.Ichihara, S.Kunieda  EVAL-APR13
# uncertainties: n
# # energies =   171
#   E(MeV)       xs(mb) 
 1.00000E-11    8.94750E+03
 1.00000E-07    2.98182E+02
 4.13990E-07    1.92555E+02
 5.31580E-07    1.69950E+02
 6.82560E-07    1.50022E+02
 8.76420E-07    1.32479E+02
 1.12540E-06    1.16969E+02
 1.44500E-06    1.03311E+02
 1.85540E-06    9.13840E+01
 2.37240E-06    8.07359E+01
 3.05900E-06    7.12817E+01
 3.92790E-06    6.30388E+01
 5.04350E-06    5.57771E+01
 6.47600E-06    4.93923E+01
 8.31530E-06    4.37948E+01
 1.06770E-05    3.88896E+01
 1.37100E-05    3.46036E+01
 1.76030E-05    3.08896E+01
 2.26030E-05    2.76568E+01
 2.92030E-05    2.49470E+01
 3.72670E-05    2.27370E+01
 4.78510E-05    2.09784E+01
 6.14420E-05    1.97604E+01
 7.88930E-05    1.92138E+01
 1.01300E-04    1.96597E+01
 1.30070E-04    2.18998E+01
 1.67020E-04    2.84690E+01
 2.14450E-04    5.20606E+01
 2.75360E-04    5.51441E+02
 3.53580E-04    2.44263E+04
 4.54000E-04    8.36651E+02
 5.82950E-04    7.78731E+03
 7.48520E-04    6.34097E+00
 9.61120E-04    1.69159E+00
 1.23410E-03    7.03064E+00
 1.58460E-03    1.44903E+03
 2.03470E-03    2.77956E+02
 2.24870E-03    1.03591E+03
 2.48520E-03    2.12492E+00
 2.61260E-03    3.07493E+00
 2.74650E-03    8.93001E+02
 3.03540E-03    6.31715E+02
 3.35460E-03    9.40182E+02
 3.70740E-03    9.04050E+02
 4.30740E-03    8.20145E+02
 5.53080E-03    7.26937E+02
 7.10170E-03    6.44698E+02
 9.11880E-03    5.74413E+02
 1.17090E-02    5.19556E+02
 1.50340E-02    4.51887E+02
 1.93050E-02    3.95677E+02
 2.18750E-02    3.76239E+02
 2.35790E-02    3.66264E+02
 2.41760E-02    3.61066E+02
 2.47880E-02    3.53008E+02
 2.60580E-02    3.43475E+02
 2.70000E-02    3.33008E+02
 2.85000E-02    3.14140E+02
 3.18280E-02    2.97974E+02
 3.43070E-02    2.75335E+02
 4.08680E-02    2.50533E+02
 4.63090E-02    2.31538E+02
 5.24750E-02    2.18242E+02
 5.65620E-02    2.02575E+02
 6.73790E-02    1.88948E+02
 7.20000E-02    1.80806E+02
 7.95000E-02    1.74212E+02
 8.25000E-02    1.70662E+02
 8.65170E-02    1.63680E+02
 9.80370E-02    1.56456E+02
 1.11090E-01    1.53375E+02
 1.16790E-01    1.51518E+02
 1.22770E-01    1.49566E+02
 1.29070E-01    1.47512E+02
 1.35690E-01    1.45355E+02
 1.42640E-01    1.43086E+02
 1.49960E-01    1.40702E+02
 1.57640E-01    1.38195E+02
 1.65730E-01    1.35559E+02
 1.74220E-01    1.32788E+02
 1.83160E-01    1.29875E+02
 1.92550E-01    1.26885E+02
 2.02420E-01    1.25463E+02
 2.12800E-01    1.24707E+02
 2.23710E-01    1.23913E+02
 2.35180E-01    1.23078E+02
 2.47240E-01    1.21738E+02
 2.73240E-01    1.20307E+02
 2.87250E-01    1.19548E+02
 2.94520E-01    1.19194E+02
 2.97200E-01    1.19053E+02
 2.98500E-01    1.18924E+02
 3.01970E-01    1.18918E+02
 3.33730E-01    1.18951E+02
 3.68830E-01    1.18978E+02
 3.87740E-01    1.19043E+02
 4.07620E-01    1.19947E+02
 4.50490E-01    1.21435E+02
 4.97870E-01    1.22902E+02
 5.23400E-01    1.24392E+02
 5.50230E-01    1.25960E+02
 5.78440E-01    1.27617E+02
 6.08100E-01    1.29508E+02
 6.39280E-01    1.31554E+02
 6.72060E-01    1.33710E+02
 7.06510E-01    1.36187E+02
 7.42740E-01    1.38898E+02
 7.80820E-01    1.38539E+02
 8.20850E-01    1.19676E+02
 8.62940E-01    9.71358E+01
 9.07180E-01    8.53657E+01
 9.61640E-01    8.04083E+01
 1.00260E+00    7.80136E+01
 1.10800E+00    7.72388E+01
 1.16480E+00    7.66863E+01
 1.22460E+00    7.61058E+01
 1.28730E+00    7.54954E+01
 1.35340E+00    7.48538E+01
 1.42270E+00    7.41795E+01
 1.49570E+00    7.30490E+01
 1.57240E+00    7.13269E+01
 1.65300E+00    6.95156E+01
 1.73770E+00    6.76112E+01
 1.82680E+00    6.56082E+01
 1.92050E+00    6.35129E+01
 2.01900E+00    6.17092E+01
 2.12250E+00    6.00175E+01
 2.23130E+00    5.85440E+01
 2.30690E+00    5.76297E+01
 2.34570E+00    5.71636E+01
 2.36530E+00    5.68488E+01
 2.38520E+00    5.60496E+01
 2.46600E+00    5.45584E+01
 2.59240E+00    5.30745E+01
 2.72530E+00    5.15374E+01
 2.86500E+00    4.99278E+01
 3.01190E+00    4.94326E+01
 3.16640E+00    4.98126E+01
 3.32870E+00    4.98155E+01
 3.67880E+00    4.62419E+01
 4.06570E+00    4.16360E+01
 4.49330E+00    3.72152E+01
 4.72370E+00    3.30768E+01
 4.96590E+00    2.91169E+01
 5.22050E+00    2.56144E+01
 5.48810E+00    2.20779E+01
 5.76950E+00    1.85466E+01
 6.06530E+00    1.55233E+01
 6.37630E+00    1.31938E+01
 6.59240E+00    1.19756E+01
 6.70320E+00    1.03990E+01
 7.04690E+00    8.39717E+00
 7.40820E+00    6.71445E+00
 7.78800E+00    5.34118E+00
 8.18730E+00    4.35339E+00
 8.60710E+00    3.55853E+00
 9.04840E+00    3.01568E+00
 9.51230E+00    2.61414E+00
 1.00000E+01    2.32448E+00
 1.05130E+01    2.14195E+00
 1.10520E+01    2.01411E+00
 1.16180E+01    1.92719E+00
 1.22140E+01    1.85904E+00
 1.28400E+01    1.79714E+00
 1.34990E+01    1.75415E+00
 1.38400E+01    1.72222E+00
 1.41910E+01    1.67674E+00
 1.45500E+01    1.64734E+00
 1.49180E+01    1.60042E+00
 1.56830E+01    1.50879E+00
 1.64870E+01    1.39323E+00
