# n + Yb170 : (n,xd)    
# endfb8.0   S.Kunieda, A.Ichihara, K.Shibata+ EVAL-FEB10
# 
# # energies =    72
#   E(MeV)        xs(mb) 
 8.47551E-02    0.00000E+00
 9.00000E-02    0.00000E+00
 1.00000E-01    0.00000E+00
 1.20000E-01    0.00000E+00
 1.40000E-01    0.00000E+00
 1.60000E-01    0.00000E+00
 1.80000E-01    0.00000E+00
 2.00000E-01    0.00000E+00
 2.50000E-01    0.00000E+00
 2.79087E-01    0.00000E+00
 3.00000E-01    0.00000E+00
 3.50000E-01    0.00000E+00
 4.00000E-01    0.00000E+00
 4.50000E-01    0.00000E+00
 5.00000E-01    0.00000E+00
 5.50000E-01    0.00000E+00
 5.76814E-01    0.00000E+00
 6.00000E-01    0.00000E+00
 6.50000E-01    0.00000E+00
 7.00000E-01    0.00000E+00
 7.50000E-01    0.00000E+00
 8.00000E-01    0.00000E+00
 8.50000E-01    0.00000E+00
 9.00000E-01    0.00000E+00
 9.50000E-01    0.00000E+00
 9.69249E-01    0.00000E+00
 1.00000E+00    0.00000E+00
 1.07570E+00    0.00000E+00
 1.14533E+00    0.00000E+00
 1.15252E+00    0.00000E+00
 1.20000E+00    0.00000E+00
 1.23263E+00    0.00000E+00
 1.23617E+00    0.00000E+00
 1.26596E+00    0.00000E+00
 1.27602E+00    0.00000E+00
 1.40000E+00    0.00000E+00
 1.60000E+00    0.00000E+00
 1.80000E+00    0.00000E+00
 2.00000E+00    0.00000E+00
 2.20000E+00    0.00000E+00
 2.40000E+00    0.00000E+00
 2.60000E+00    0.00000E+00
 2.80000E+00    0.00000E+00
 3.00000E+00    0.00000E+00
 3.25000E+00    0.00000E+00
 3.50000E+00    0.00000E+00
 3.75000E+00    0.00000E+00
 4.00000E+00    0.00000E+00
 4.25000E+00    0.00000E+00
 4.50000E+00    0.00000E+00
 4.75000E+00    0.00000E+00
 5.00000E+00    0.00000E+00
 5.50000E+00    0.00000E+00
 6.00000E+00    0.00000E+00
 6.50000E+00    0.00000E+00
 7.00000E+00    0.00000E+00
 7.50000E+00    0.00000E+00
 8.00000E+00    0.00000E+00
 8.50000E+00    0.00000E+00
 9.00000E+00    9.69000E-07
 9.50000E+00    4.35100E-04
 1.00000E+01    2.01300E-03
 1.10000E+01    2.51300E-02
 1.20000E+01    1.63100E-01
 1.30000E+01    6.44200E-01
 1.40000E+01    1.72200E+00
 1.50000E+01    3.46900E+00
 1.60000E+01    5.77500E+00
 1.70000E+01    7.29801E+00
 1.80000E+01    1.00506E+01
 1.90000E+01    1.29475E+01
 2.00000E+01    1.59101E+01
