# n + Fe 54 : (n,xa)    
# jeff3.3    A.J. Koning                       EVAL-OCT04
# 
# # energies =   100
#   E(MeV)        xs(mb) 
 1.43452E+00    1.58917E-07
 1.60000E+00    5.26990E-07
 1.80000E+00    2.64243E-06
 2.00000E+00    1.21848E-05
 2.20000E+00    4.94172E-05
 2.40000E+00    1.78352E-04
 2.58556E+00    5.07789E-04
 2.60000E+00    5.48792E-04
 2.60920E+00    5.74917E-04
 2.80000E+00    1.41908E-03
 3.00000E+00    3.56541E-03
 3.00435E+00    3.63195E-03
 3.01433E+00    3.78362E-03
 3.20000E+00    7.79673E-03
 3.22520E+00    8.76673E-03
 3.35641E+00    1.58424E-02
 3.40000E+00    1.91711E-02
 3.40735E+00    1.95799E-02
 3.50168E+00    2.53322E-02
 3.60000E+00    3.29043E-02
 3.80000E+00    5.96699E-02
 3.86474E+00    7.18477E-02
 3.90488E+00    8.04419E-02
 3.91283E+00    8.22968E-02
 4.00000E+00    1.04807E-01
 4.10628E+00    1.31495E-01
 4.12349E+00    1.36257E-01
 4.14774E+00    1.43389E-01
 4.17636E+00    1.52045E-01
 4.18013E+00    1.53248E-01
 4.20000E+00    1.59589E-01
 4.34761E+00    2.37612E-01
 4.37104E+00    2.52687E-01
 4.40000E+00    2.72457E-01
 4.60000E+00    4.21825E-01
 4.66412E+00    4.76275E-01
 4.80000E+00    6.10569E-01
 5.00000E+00    8.80970E-01
 5.20000E+00    1.22239E+00
 5.40000E+00    1.67211E+00
 5.60000E+00    2.22638E+00
 5.80000E+00    2.87344E+00
 6.00000E+00    3.65646E+00
 6.20000E+00    4.59218E+00
 6.40000E+00    5.59370E+00
 6.60000E+00    6.72682E+00
 6.80000E+00    8.03629E+00
 7.00000E+00    1.06455E+01
 7.20000E+00    1.36887E+01
 7.40000E+00    1.61546E+01
 7.60000E+00    1.81944E+01
 7.80000E+00    2.09206E+01
 8.00000E+00    2.34044E+01
 8.50000E+00    3.01838E+01
 9.00000E+00    3.66689E+01
 9.50000E+00    4.22340E+01
 1.00000E+01    4.82524E+01
 1.05000E+01    5.39823E+01
 1.10000E+01    5.92963E+01
 1.15000E+01    6.42148E+01
 1.20000E+01    6.87159E+01
 1.25000E+01    7.27697E+01
 1.30000E+01    7.64408E+01
 1.35000E+01    7.98153E+01
 1.40000E+01    8.29078E+01
 1.45000E+01    8.58044E+01
 1.50000E+01    8.85613E+01
 1.60000E+01    9.39313E+01
 1.70000E+01    9.95648E+01
 1.80000E+01    1.05697E+02
 1.90000E+01    1.11635E+02
 2.00000E+01    1.16489E+02
 2.00000E+01    1.16489E+02
 2.20000E+01    1.23675E+02
 2.40000E+01    1.26674E+02
 2.60000E+01    1.23794E+02
 2.80000E+01    1.19362E+02
 3.00000E+01    1.14325E+02
 3.50000E+01    1.04524E+02
 4.00000E+01    9.87499E+01
 4.50000E+01    9.41361E+01
 5.00000E+01    9.13753E+01
 5.50000E+01    8.95386E+01
 6.00000E+01    8.85707E+01
 6.50000E+01    8.92933E+01
 7.00000E+01    9.05831E+01
 7.50000E+01    9.77813E+01
 8.00000E+01    1.01621E+02
 8.50000E+01    1.04723E+02
 9.00000E+01    1.09909E+02
 9.50000E+01    1.13006E+02
 1.00000E+02    1.12458E+02
 1.10000E+02    1.18406E+02
 1.20000E+02    1.20065E+02
 1.30000E+02    1.17242E+02
 1.40000E+02    1.21712E+02
 1.50000E+02    1.18535E+02
 1.60000E+02    1.19444E+02
 1.80000E+02    1.22462E+02
 2.00000E+02    1.26386E+02
