# n + Fe 54 : (n,xp)    
# jeff3.3    A.J. Koning                       EVAL-OCT04
# 
# # energies =   100
#   E(MeV)        xs(mb) 
 1.43452E+00    2.79105E+00
 1.60000E+00    3.96304E+00
 1.80000E+00    8.10941E+00
 2.00000E+00    1.57624E+01
 2.20000E+00    2.81661E+01
 2.40000E+00    4.66107E+01
 2.58556E+00    6.74072E+01
 2.60000E+00    6.92147E+01
 2.60920E+00    7.03446E+01
 2.80000E+00    9.49939E+01
 3.00000E+00    1.27938E+02
 3.00435E+00    1.28389E+02
 3.01433E+00    1.29423E+02
 3.20000E+00    1.48908E+02
 3.22520E+00    1.51375E+02
 3.35641E+00    1.64215E+02
 3.40000E+00    1.68481E+02
 3.40735E+00    1.69145E+02
 3.50168E+00    1.77666E+02
 3.60000E+00    1.86549E+02
 3.80000E+00    2.14697E+02
 3.86474E+00    2.22318E+02
 3.90488E+00    2.27043E+02
 3.91283E+00    2.27978E+02
 4.00000E+00    2.38239E+02
 4.10628E+00    2.52134E+02
 4.12349E+00    2.54384E+02
 4.14774E+00    2.57555E+02
 4.17636E+00    2.61296E+02
 4.18013E+00    2.61789E+02
 4.20000E+00    2.64387E+02
 4.34761E+00    2.83933E+02
 4.37104E+00    2.87146E+02
 4.40000E+00    2.91119E+02
 4.60000E+00    3.20577E+02
 4.66412E+00    3.27366E+02
 4.80000E+00    3.41752E+02
 5.00000E+00    3.60395E+02
 5.20000E+00    3.79038E+02
 5.40000E+00    3.97042E+02
 5.60000E+00    4.13385E+02
 5.80000E+00    4.27686E+02
 6.00000E+00    4.40661E+02
 6.20000E+00    4.52040E+02
 6.40000E+00    4.62734E+02
 6.60000E+00    4.71071E+02
 6.80000E+00    4.77789E+02
 7.00000E+00    4.84016E+02
 7.20000E+00    4.89440E+02
 7.40000E+00    4.94082E+02
 7.60000E+00    4.98372E+02
 7.80000E+00    5.01540E+02
 8.00000E+00    5.04708E+02
 8.50000E+00    5.09858E+02
 9.00000E+00    5.14138E+02
 9.50000E+00    5.17608E+02
 1.00000E+01    5.20866E+02
 1.05000E+01    5.26176E+02
 1.10000E+01    5.51910E+02
 1.15000E+01    6.04972E+02
 1.20000E+01    6.75535E+02
 1.25000E+01    7.50142E+02
 1.30000E+01    8.17799E+02
 1.35000E+01    8.74047E+02
 1.40000E+01    9.15247E+02
 1.45000E+01    9.39983E+02
 1.50000E+01    9.50908E+02
 1.60000E+01    9.48008E+02
 1.70000E+01    9.31848E+02
 1.80000E+01    9.13942E+02
 1.90000E+01    8.98393E+02
 2.00000E+01    8.85463E+02
 2.00000E+01    8.85500E+02
 2.20000E+01    8.63967E+02
 2.40000E+01    8.59592E+02
 2.60000E+01    9.01534E+02
 2.80000E+01    9.50110E+02
 3.00000E+01    9.67393E+02
 3.50000E+01    9.56352E+02
 4.00000E+01    9.56926E+02
 4.50000E+01    9.70940E+02
 5.00000E+01    9.73499E+02
 5.50000E+01    9.80530E+02
 6.00000E+01    9.69097E+02
 6.50000E+01    9.84769E+02
 7.00000E+01    9.71064E+02
 7.50000E+01    1.00305E+03
 8.00000E+01    1.00092E+03
 8.50000E+01    1.02309E+03
 9.00000E+01    1.02661E+03
 9.50000E+01    1.03790E+03
 1.00000E+02    1.04846E+03
 1.10000E+02    1.06450E+03
 1.20000E+02    1.07740E+03
 1.30000E+02    1.08544E+03
 1.40000E+02    1.08835E+03
 1.50000E+02    1.09499E+03
 1.60000E+02    1.09734E+03
 1.80000E+02    1.11025E+03
 2.00000E+02    1.12609E+03
