# n + Ni 62 : (n,any)   
# endfb8.0   T.Kawano, A.Kahler, A.Trkov       EVAL-Oct12
# uncertainties: n
# # energies =   151
#   E(MeV)       xs(mb) 
 2.00000E+01    0.00000E+00
 2.00000E+01    1.37470E+03
 2.10000E+01    1.36485E+03
 2.12648E+01    1.36111E+03
 2.20000E+01    1.34850E+03
 2.29622E+01    1.33082E+03
 2.30000E+01    1.33014E+03
 2.40000E+01    1.31220E+03
 2.47814E+01    1.29822E+03
 2.50000E+01    1.29441E+03
 2.51120E+01    1.29247E+03
 2.52180E+01    1.29065E+03
 2.60000E+01    1.27740E+03
 2.66612E+01    1.26653E+03
 2.68422E+01    1.26361E+03
 2.70000E+01    1.26109E+03
 2.74754E+01    1.25360E+03
 2.80000E+01    1.24550E+03
 2.90000E+01    1.23052E+03
 2.91684E+01    1.22806E+03
 3.00000E+01    1.21620E+03
 3.02915E+01    1.21216E+03
 3.04101E+01    1.21053E+03
 3.10000E+01    1.20257E+03
 3.14155E+01    1.19710E+03
 3.20000E+01    1.18957E+03
 3.28502E+01    1.17898E+03
 3.30000E+01    1.17715E+03
 3.30565E+01    1.17646E+03
 3.40000E+01    1.16524E+03
 3.40797E+01    1.16431E+03
 3.49056E+01    1.15486E+03
 3.50000E+01    1.15380E+03
 3.50465E+01    1.15328E+03
 3.60000E+01    1.14295E+03
 3.64924E+01    1.13787E+03
 3.69998E+01    1.13278E+03
 3.70000E+01    1.13278E+03
 3.72354E+01    1.13047E+03
 3.80000E+01    1.12318E+03
 3.90000E+01    1.11408E+03
 3.91226E+01    1.11299E+03
 3.94381E+01    1.11023E+03
 4.00000E+01    1.10540E+03
 4.03089E+01    1.10281E+03
 4.10000E+01    1.09727E+03
 4.20000E+01    1.08978E+03
 4.23547E+01    1.08726E+03
 4.30000E+01    1.08284E+03
 4.40000E+01    1.07637E+03
 4.50000E+01    1.07030E+03
 4.50844E+01    1.06980E+03
 4.53668E+01    1.06816E+03
 4.59419E+01    1.06491E+03
 4.60000E+01    1.06459E+03
 4.61370E+01    1.06383E+03
 4.63186E+01    1.06284E+03
 4.70000E+01    1.05924E+03
 4.80000E+01    1.05426E+03
 4.90000E+01    1.04964E+03
 5.00000E+01    1.04540E+03
 5.06842E+01    1.04267E+03
 5.10000E+01    1.04143E+03
 5.18561E+01    1.03818E+03
 5.20000E+01    1.03765E+03
 5.30000E+01    1.03408E+03
 5.40000E+01    1.03072E+03
 5.41708E+01    1.03017E+03
 5.44969E+01    1.02914E+03
 5.50000E+01    1.02760E+03
 5.56232E+01    1.02574E+03
 5.60000E+01    1.02464E+03
 5.61831E+01    1.02410E+03
 5.70000E+01    1.02175E+03
 5.80000E+01    1.01896E+03
 5.85703E+01    1.01742E+03
 5.90000E+01    1.01628E+03
 5.95384E+01    1.01487E+03
 6.00000E+01    1.01370E+03
 6.09318E+01    1.01139E+03
 6.10000E+01    1.01122E+03
 6.20000E+01    1.00881E+03
 6.30000E+01    1.00644E+03
 6.31931E+01    1.00599E+03
 6.40000E+01    1.00411E+03
 6.50000E+01    1.00180E+03
 6.50865E+01    1.00160E+03
 6.60000E+01    9.99513E+02
 6.70000E+01    9.97250E+02
 6.73643E+01    9.96430E+02
 6.77090E+01    9.95658E+02
 6.80000E+01    9.95008E+02
 6.90000E+01    9.92789E+02
 6.92772E+01    9.92177E+02
 7.00000E+01    9.90590E+02
 7.10000E+01    9.88373E+02
 7.20000E+01    9.86112E+02
 7.30000E+01    9.83825E+02
 7.40000E+01    9.81529E+02
 7.50000E+01    9.79240E+02
 7.60000E+01    9.76943E+02
 7.70000E+01    9.74620E+02
 7.80000E+01    9.72275E+02
 7.80781E+01    9.72091E+02
 7.90000E+01    9.69914E+02
 8.00000E+01    9.67540E+02
 8.10000E+01    9.65147E+02
 8.20000E+01    9.62729E+02
 8.30000E+01    9.60289E+02
 8.40000E+01    9.57832E+02
 8.50000E+01    9.55360E+02
 8.60000E+01    9.52875E+02
 8.70000E+01    9.50377E+02
 8.80000E+01    9.47863E+02
 8.90000E+01    9.45334E+02
 9.00000E+01    9.42790E+02
 9.10000E+01    9.40231E+02
 9.20000E+01    9.37662E+02
 9.30000E+01    9.35086E+02
 9.40000E+01    9.32507E+02
 9.50000E+01    9.29930E+02
 9.60000E+01    9.27350E+02
 9.70000E+01    9.24762E+02
 9.80000E+01    9.22167E+02
 9.90000E+01    9.19566E+02
 1.00000E+02    9.16960E+02
 1.02000E+02    9.11754E+02
 1.04000E+02    9.06567E+02
 1.06000E+02    9.01397E+02
 1.08000E+02    8.96245E+02
 1.10000E+02    8.91110E+02
 1.12000E+02    8.86003E+02
 1.14000E+02    8.80934E+02
 1.16000E+02    8.75902E+02
 1.18000E+02    8.70904E+02
 1.20000E+02    8.65940E+02
 1.22000E+02    8.61033E+02
 1.24000E+02    8.56199E+02
 1.26000E+02    8.51427E+02
 1.28000E+02    8.46707E+02
 1.30000E+02    8.42030E+02
 1.32000E+02    8.37408E+02
 1.34000E+02    8.32856E+02
 1.36000E+02    8.28369E+02
 1.38000E+02    8.23942E+02
 1.40000E+02    8.19570E+02
 1.42000E+02    8.15258E+02
 1.44000E+02    8.11008E+02
 1.46000E+02    8.06818E+02
 1.48000E+02    8.02683E+02
 1.50000E+02    7.98600E+02
