# n + Ni 62 : (n,el)    
# endfb8.0   T.Kawano, A.Kahler, A.Trkov       EVAL-Oct12
# uncertainties: n
# # energies =   171
#   E(MeV)       xs(mb) 
 1.00000E-11    1.97026E+04
 1.00000E-07    9.65708E+03
 4.13990E-07    9.65204E+03
 5.31580E-07    9.65196E+03
 6.82560E-07    9.65286E+03
 8.76420E-07    9.65401E+03
 1.12540E-06    9.65548E+03
 1.44500E-06    9.65737E+03
 1.85540E-06    9.65978E+03
 2.37240E-06    9.66359E+03
 3.05900E-06    9.66910E+03
 3.92790E-06    9.67611E+03
 5.04350E-06    9.68512E+03
 6.47600E-06    9.69669E+03
 8.31530E-06    9.71154E+03
 1.06770E-05    9.73062E+03
 1.37100E-05    9.75511E+03
 1.76030E-05    9.78655E+03
 2.26030E-05    9.82752E+03
 2.92030E-05    9.87947E+03
 3.72670E-05    9.94535E+03
 4.78510E-05    1.00308E+04
 6.14420E-05    1.01406E+04
 7.88930E-05    1.02815E+04
 1.01300E-04    1.04637E+04
 1.30070E-04    1.07144E+04
 1.67020E-04    1.10420E+04
 2.14450E-04    1.14715E+04
 2.75360E-04    1.20609E+04
 3.53580E-04    1.28641E+04
 4.54000E-04    1.39849E+04
 5.82950E-04    1.55966E+04
 7.48520E-04    1.79880E+04
 9.61120E-04    2.17214E+04
 1.23410E-03    2.79638E+04
 1.58460E-03    3.95029E+04
 2.03470E-03    5.36809E+04
 2.24870E-03    6.69651E+04
 2.48520E-03    8.06906E+04
 2.61260E-03    9.27463E+04
 2.74650E-03    1.17524E+05
 3.03540E-03    1.68291E+05
 3.35460E-03    2.55181E+05
 3.70740E-03    4.37418E+05
 4.30740E-03    4.81532E+05
 5.53080E-03    1.71618E+05
 7.10170E-03    6.42160E+04
 9.11880E-03    3.22645E+04
 1.17090E-02    1.93687E+04
 1.50340E-02    1.31201E+04
 1.93050E-02    1.02270E+04
 2.18750E-02    9.10315E+03
 2.35790E-02    8.61308E+03
 2.41760E-02    8.42169E+03
 2.47880E-02    8.05159E+03
 2.60580E-02    7.69543E+03
 2.70000E-02    7.35036E+03
 2.85000E-02    6.76445E+03
 3.18280E-02    6.06599E+03
 3.43070E-02    4.81128E+03
 4.08680E-02    1.08011E+04
 4.63090E-02    5.87638E+03
 5.24750E-02    4.93888E+03
 5.65620E-02    4.59312E+03
 6.73790E-02    3.43309E+03
 7.20000E-02    2.95148E+03
 7.95000E-02    2.20178E+03
 8.25000E-02    1.55111E+03
 8.65170E-02    5.86156E+03
 9.80370E-02    1.23862E+04
 1.11090E-01    1.31145E+04
 1.16790E-01    9.38487E+03
 1.22770E-01    7.68325E+03
 1.29070E-01    6.69570E+03
 1.35690E-01    6.55670E+03
 1.42640E-01    5.57440E+03
 1.49960E-01    5.68275E+03
 1.57640E-01    5.04592E+03
 1.65730E-01    4.67810E+03
 1.74220E-01    4.33516E+03
 1.83160E-01    4.20229E+03
 1.92550E-01    3.57944E+03
 2.02420E-01    2.94921E+03
 2.12800E-01    2.11285E+03
 2.23710E-01    4.71034E+03
 2.35180E-01    6.03640E+03
 2.47240E-01    3.99214E+03
 2.73240E-01    3.52631E+03
 2.87250E-01    7.32220E+03
 2.94520E-01    5.59205E+03
 2.97200E-01    4.45408E+03
 2.98500E-01    5.71029E+03
 3.01970E-01    3.72349E+03
 3.33730E-01    5.48128E+03
 3.68830E-01    3.35031E+03
 3.87740E-01    6.69440E+03
 4.07620E-01    5.41301E+03
 4.50490E-01    5.07758E+03
 4.97870E-01    6.62020E+03
 5.23400E-01    5.64376E+03
 5.50230E-01    3.78882E+03
 5.78440E-01    6.27377E+03
 6.08100E-01    3.87624E+03
 6.39280E-01    3.83222E+03
 6.72060E-01    3.79327E+03
 7.06510E-01    3.75870E+03
 7.42740E-01    3.72749E+03
 7.80820E-01    3.70192E+03
 8.20850E-01    3.68077E+03
 8.62940E-01    3.66414E+03
 9.07180E-01    3.65144E+03
 9.61640E-01    3.62060E+03
 1.00260E+00    2.90524E+03
 1.10800E+00    3.19247E+03
 1.16480E+00    3.07495E+03
 1.22460E+00    3.15402E+03
 1.28730E+00    3.45263E+03
 1.35340E+00    2.71279E+03
 1.42270E+00    3.00429E+03
 1.49570E+00    2.71964E+03
 1.57240E+00    2.54743E+03
 1.65300E+00    2.71600E+03
 1.73770E+00    2.58757E+03
 1.82680E+00    2.24333E+03
 1.92050E+00    2.19147E+03
 2.01900E+00    2.38848E+03
 2.12250E+00    2.38999E+03
 2.23130E+00    2.39678E+03
 2.30690E+00    2.54855E+03
 2.34570E+00    2.73027E+03
 2.36530E+00    2.14906E+03
 2.38520E+00    2.41753E+03
 2.46600E+00    2.30944E+03
 2.59240E+00    2.19197E+03
 2.72530E+00    2.34320E+03
 2.86500E+00    2.36827E+03
 3.01190E+00    2.16315E+03
 3.16640E+00    2.22581E+03
 3.32870E+00    2.30486E+03
 3.67880E+00    2.14060E+03
 4.06570E+00    2.19942E+03
 4.49330E+00    2.17238E+03
 4.72370E+00    2.15556E+03
 4.96590E+00    2.22322E+03
 5.22050E+00    2.23398E+03
 5.48810E+00    2.23061E+03
 5.76950E+00    2.23868E+03
 6.06530E+00    2.21781E+03
 6.37630E+00    2.18910E+03
 6.59240E+00    2.17707E+03
 6.70320E+00    2.16602E+03
 7.04690E+00    2.14571E+03
 7.40820E+00    2.10893E+03
 7.78800E+00    2.05670E+03
 8.18730E+00    2.00179E+03
 8.60710E+00    1.94713E+03
 9.04840E+00    1.90069E+03
 9.51230E+00    1.85024E+03
 1.00000E+01    1.79794E+03
 1.05130E+01    1.74860E+03
 1.10520E+01    1.65980E+03
 1.16180E+01    1.58180E+03
 1.22140E+01    1.50735E+03
 1.28400E+01    1.43873E+03
 1.34990E+01    1.38487E+03
 1.38400E+01    1.34738E+03
 1.41910E+01    1.31364E+03
 1.45500E+01    1.28757E+03
 1.49180E+01    1.24646E+03
 1.56830E+01    1.18930E+03
 1.64870E+01    1.14094E+03
