# n + Ru 96 : (n,el)    
# endfb8.0   JNDC FP Nuclear Data W.G.         EVAL-MAR90
# uncertainties: n
# # energies =   171
#   E(MeV)       xs(mb) 
 1.00000E-11    9.07135E+03
 1.00000E-07    5.10391E+03
 4.13990E-07    5.10182E+03
 5.31580E-07    5.10122E+03
 6.82560E-07    5.10111E+03
 8.76420E-07    5.10111E+03
 1.12540E-06    5.10110E+03
 1.44500E-06    5.10110E+03
 1.85540E-06    5.10110E+03
 2.37240E-06    5.10109E+03
 3.05900E-06    5.10109E+03
 3.92790E-06    5.10108E+03
 5.04350E-06    5.10107E+03
 6.47600E-06    5.10106E+03
 8.31530E-06    5.10104E+03
 1.06770E-05    5.10102E+03
 1.37100E-05    5.10100E+03
 1.76030E-05    5.10097E+03
 2.26030E-05    5.10092E+03
 2.92030E-05    5.10087E+03
 3.72670E-05    5.10080E+03
 4.78510E-05    5.10071E+03
 6.14420E-05    5.10060E+03
 7.88930E-05    5.10045E+03
 1.01300E-04    5.10026E+03
 1.30070E-04    5.10005E+03
 1.67020E-04    7.46967E+03
 2.14450E-04    1.30878E+04
 2.75360E-04    1.23420E+04
 3.53580E-04    1.16494E+04
 4.54000E-04    1.10084E+04
 5.82950E-04    1.04195E+04
 7.48520E-04    9.87928E+03
 9.61120E-04    9.38840E+03
 1.23410E-03    8.94635E+03
 1.58460E-03    8.55191E+03
 2.03470E-03    8.30249E+03
 2.24870E-03    8.17143E+03
 2.48520E-03    8.07879E+03
 2.61260E-03    8.01938E+03
 2.74650E-03    7.93309E+03
 3.03540E-03    7.82495E+03
 3.35460E-03    7.72439E+03
 3.70740E-03    7.61039E+03
 4.30740E-03    7.45212E+03
 5.53080E-03    7.29206E+03
 7.10170E-03    7.17732E+03
 9.11880E-03    7.10359E+03
 1.17090E-02    7.06673E+03
 1.50340E-02    7.06369E+03
 1.93050E-02    7.08037E+03
 2.18750E-02    7.09610E+03
 2.35790E-02    7.10553E+03
 2.41760E-02    7.11072E+03
 2.47880E-02    7.11898E+03
 2.60580E-02    7.12911E+03
 2.70000E-02    7.14053E+03
 2.85000E-02    7.16330E+03
 3.18280E-02    7.19091E+03
 3.43070E-02    7.23279E+03
 4.08680E-02    7.28817E+03
 4.63090E-02    7.33851E+03
 5.24750E-02    7.38071E+03
 5.65620E-02    7.43568E+03
 6.73790E-02    7.49012E+03
 7.20000E-02    7.52789E+03
 7.95000E-02    7.55906E+03
 8.25000E-02    7.57827E+03
 8.65170E-02    7.61716E+03
 9.80370E-02    7.64721E+03
 1.11090E-01    7.65479E+03
 1.16790E-01    7.66032E+03
 1.22770E-01    7.66612E+03
 1.29070E-01    7.67223E+03
 1.35690E-01    7.67865E+03
 1.42640E-01    7.68540E+03
 1.49960E-01    7.68648E+03
 1.57640E-01    7.68138E+03
 1.65730E-01    7.67601E+03
 1.74220E-01    7.67037E+03
 1.83160E-01    7.66443E+03
 1.92550E-01    7.65819E+03
 2.02420E-01    7.65158E+03
 2.12800E-01    7.63976E+03
 2.23710E-01    7.62416E+03
 2.35180E-01    7.60776E+03
 2.47240E-01    7.58146E+03
 2.73240E-01    7.55239E+03
 2.87250E-01    7.53314E+03
 2.94520E-01    7.52382E+03
 2.97200E-01    7.52010E+03
 2.98500E-01    7.51565E+03
 3.01970E-01    7.48190E+03
 3.33730E-01    7.41326E+03
 3.68830E-01    7.35701E+03
 3.87740E-01    7.31700E+03
 4.07620E-01    7.26228E+03
 4.50490E-01    7.18743E+03
 4.97870E-01    7.12551E+03
 5.23400E-01    7.07535E+03
 5.50230E-01    7.02163E+03
 5.78440E-01    6.96515E+03
 6.08100E-01    6.90629E+03
 6.39280E-01    6.85030E+03
 6.72060E-01    6.79313E+03
 7.06510E-01    6.73304E+03
 7.42740E-01    6.66985E+03
 7.80820E-01    6.60344E+03
 8.20850E-01    6.51465E+03
 8.62940E-01    6.30955E+03
 9.07180E-01    6.10811E+03
 9.61640E-01    5.93936E+03
 1.00260E+00    5.74261E+03
 1.10800E+00    5.54910E+03
 1.16480E+00    5.42753E+03
 1.22460E+00    5.30280E+03
 1.28730E+00    5.18452E+03
 1.35340E+00    5.06348E+03
 1.42270E+00    4.94579E+03
 1.49570E+00    4.82499E+03
 1.57240E+00    4.69396E+03
 1.65300E+00    4.55569E+03
 1.73770E+00    4.42117E+03
 1.82680E+00    4.28345E+03
 1.92050E+00    4.13615E+03
 2.01900E+00    3.95862E+03
 2.12250E+00    3.78649E+03
 2.23130E+00    3.64584E+03
 2.30690E+00    3.55946E+03
 2.34570E+00    3.51589E+03
 2.36530E+00    3.48647E+03
 2.38520E+00    3.41190E+03
 2.46600E+00    3.26277E+03
 2.59240E+00    3.06624E+03
 2.72530E+00    2.87996E+03
 2.86500E+00    2.71576E+03
 3.01190E+00    2.58242E+03
 3.16640E+00    2.46747E+03
 3.32870E+00    2.30183E+03
 3.67880E+00    2.07874E+03
 4.06570E+00    1.94062E+03
 4.49330E+00    1.86838E+03
 4.72370E+00    1.81806E+03
 4.96590E+00    1.79008E+03
 5.22050E+00    1.79778E+03
 5.48810E+00    1.80645E+03
 5.76950E+00    1.81504E+03
 6.06530E+00    1.84571E+03
 6.37630E+00    1.88154E+03
 6.59240E+00    1.90369E+03
 6.70320E+00    1.93202E+03
 7.04690E+00    1.98508E+03
 7.40820E+00    2.04654E+03
 7.78800E+00    2.10886E+03
 8.18730E+00    2.17353E+03
 8.60710E+00    2.24102E+03
 9.04840E+00    2.30637E+03
 9.51230E+00    2.37329E+03
 1.00000E+01    2.46805E+03
 1.05130E+01    2.58693E+03
 1.10520E+01    2.63370E+03
 1.16180E+01    2.59447E+03
 1.22140E+01    2.55075E+03
 1.28400E+01    2.52276E+03
 1.34990E+01    2.51479E+03
 1.38400E+01    2.50042E+03
 1.41910E+01    2.45913E+03
 1.45500E+01    2.42385E+03
 1.49180E+01    2.37314E+03
 1.56830E+01    2.30063E+03
 1.64870E+01    2.23609E+03
