# n + Ru 96 :  n        
# endfb8.0   JNDC FP Nuclear Data W.G.         EVAL-MAR90
# uncertainties: n
# # energies =   148
#   E(MeV)       xs(mb) 
 2.78913E+00    0.00000E+00
 2.78992E+00    3.01310E-01
 2.79151E+00    9.01573E-01
 2.79308E+00    1.49715E+00
 2.79620E+00    2.67898E+00
 2.79927E+00    3.84236E+00
 2.80230E+00    4.98755E+00
 2.80828E+00    7.24215E+00
 2.81408E+00    9.42628E+00
 2.81971E+00    1.15422E+01
 2.82518E+00    1.35919E+01
 2.83049E+00    1.55776E+01
 2.84079E+00    1.94250E+01
 2.85049E+00    2.30318E+01
 2.85961E+00    2.64132E+01
 2.86819E+00    2.95833E+01
 2.87626E+00    3.25553E+01
 2.88384E+00    3.53415E+01
 2.89811E+00    4.05656E+01
 2.91066E+00    4.51367E+01
 2.92168E+00    4.91364E+01
 2.93135E+00    5.26362E+01
 2.94837E+00    5.87608E+01
 2.96119E+00    6.33542E+01
 2.98053E+00    7.02444E+01
 3.00000E+00    7.71345E+01
 3.01352E+00    9.02553E+01
 3.02688E+00    1.03171E+02
 3.04009E+00    1.15885E+02
 3.05315E+00    1.28400E+02
 3.06607E+00    1.40720E+02
 3.07883E+00    1.52847E+02
 3.09145E+00    1.64785E+02
 3.10392E+00    1.76536E+02
 3.11625E+00    1.88104E+02
 3.12843E+00    1.99491E+02
 3.14046E+00    2.10700E+02
 3.16430E+00    2.32767E+02
 3.18756E+00    2.54145E+02
 3.21025E+00    2.74855E+02
 3.23239E+00    2.94918E+02
 3.25399E+00    3.14354E+02
 3.27504E+00    3.33182E+02
 3.29557E+00    3.51423E+02
 3.31558E+00    3.69093E+02
 3.33509E+00    3.86210E+02
 3.35409E+00    4.02793E+02
 3.37260E+00    4.18858E+02
 3.40875E+00    4.49983E+02
 3.44300E+00    4.79164E+02
 3.47542E+00    5.06520E+02
 3.50609E+00    5.32166E+02
 3.53509E+00    5.56210E+02
 3.56249E+00    5.78751E+02
 3.58838E+00    5.99883E+02
 3.61281E+00    6.19694E+02
 3.65909E+00    6.56840E+02
 3.70006E+00    6.89343E+02
 3.73628E+00    7.17784E+02
 3.76827E+00    7.42669E+02
 3.79649E+00    7.64443E+02
 3.84637E+00    8.02548E+02
 3.88422E+00    8.31127E+02
 3.94168E+00    8.73996E+02
 4.00000E+00    9.16864E+02
 4.05618E+00    9.55304E+02
 4.10956E+00    9.91341E+02
 4.16024E+00    1.02513E+03
 4.20833E+00    1.05680E+03
 4.25391E+00    1.08649E+03
 4.29709E+00    1.11433E+03
 4.33797E+00    1.14043E+03
 4.41568E+00    1.18936E+03
 4.48481E+00    1.23218E+03
 4.54618E+00    1.26965E+03
 4.60058E+00    1.30243E+03
 4.64871E+00    1.33111E+03
 4.73415E+00    1.38131E+03
 4.79925E+00    1.41896E+03
 4.89860E+00    1.47543E+03
 5.00000E+00    1.53190E+03
 5.11526E+00    1.55549E+03
 5.21829E+00    1.57613E+03
 5.40361E+00    1.61224E+03
 5.54691E+00    1.63933E+03
 5.65687E+00    1.65965E+03
 5.82591E+00    1.69013E+03
 6.00000E+00    1.72060E+03
 7.00000E+00    1.71636E+03
 7.23762E+00    1.70481E+03
 7.60927E+00    1.68748E+03
 8.00000E+00    1.67015E+03
 8.48528E+00    1.65311E+03
 9.00000E+00    1.63607E+03
 9.48683E+00    1.62981E+03
 1.00000E+01    1.62355E+03
 1.02305E+01    1.58817E+03
 1.04366E+01    1.55720E+03
 1.06203E+01    1.53011E+03
 1.07837E+01    1.50641E+03
 1.10757E+01    1.46492E+03
 1.12999E+01    1.43381E+03
 1.14710E+01    1.41047E+03
 1.17325E+01    1.37547E+03
 1.20000E+01    1.34047E+03
 1.21162E+01    1.30359E+03
 1.22261E+01    1.26901E+03
 1.23301E+01    1.23659E+03
 1.24283E+01    1.20620E+03
 1.26147E+01    1.14921E+03
 1.27801E+01    1.09935E+03
 1.29266E+01    1.05572E+03
 1.30561E+01    1.01755E+03
 1.31705E+01    9.84144E+02
 1.32715E+01    9.54917E+02
 1.34500E+01    9.03768E+02
 1.35854E+01    8.65406E+02
 1.36879E+01    8.36635E+02
 1.38431E+01    7.93479E+02
 1.40000E+01    7.50322E+02
 1.41213E+01    7.29548E+02
 1.43360E+01    6.93194E+02
 1.44992E+01    6.65928E+02
 1.46228E+01    6.45479E+02
 1.48102E+01    6.14805E+02
 1.50000E+01    5.84131E+02
 1.52440E+01    5.58744E+02
 1.54296E+01    5.39703E+02
 1.55702E+01    5.25423E+02
 1.57837E+01    5.04002E+02
 1.60000E+01    4.82582E+02
 1.62373E+01    4.66872E+02
 1.64478E+01    4.53126E+02
 1.66343E+01    4.41099E+02
 1.67992E+01    4.30575E+02
 1.70917E+01    4.12157E+02
 1.73143E+01    3.98344E+02
 1.74833E+01    3.87984E+02
 1.77398E+01    3.72445E+02
 1.80000E+01    3.56905E+02
 1.82386E+01    3.47935E+02
 1.84500E+01    3.40086E+02
 1.86370E+01    3.33218E+02
 1.89688E+01    3.21200E+02
 1.92215E+01    3.12186E+02
 1.94132E+01    3.05425E+02
 1.97044E+01    2.95285E+02
 2.00000E+01    2.85144E+02
