# n + Lu173 : (n,n'12)  
# jeff3.3    A.J. Koning and D. Rochman        EVAL-DEC15
# uncertainties: n
# # energies =    89
#   E(MeV)       xs(mb) 
 4.37449E-01    0.00000E+00
 4.51599E-01    1.30555E+01
 4.53731E-01    1.50226E+01
 5.00000E-01    5.77129E+01
 5.55313E-01    6.57408E+01
 5.74129E-01    6.84717E+01
 5.79681E-01    6.92775E+01
 5.83463E-01    6.98264E+01
 6.00000E-01    7.22265E+01
 6.10229E-01    7.35557E+01
 6.14966E-01    7.41712E+01
 6.58177E-01    7.97861E+01
 7.00000E-01    8.52206E+01
 7.19472E-01    8.62832E+01
 7.25748E-01    8.66256E+01
 7.38925E-01    8.73447E+01
 7.60716E-01    8.85338E+01
 7.82437E-01    8.97191E+01
 8.00000E-01    9.06775E+01
 8.24913E-01    9.04618E+01
 8.57216E-01    9.01821E+01
 8.88673E-01    8.99098E+01
 8.94411E-01    8.98601E+01
 9.00000E-01    8.98117E+01
 1.00000E+00    8.04601E+01
 1.20000E+00    5.72930E+01
 1.40000E+00    3.78479E+01
 1.60000E+00    2.46926E+01
 1.80000E+00    1.63940E+01
 2.00000E+00    1.11462E+01
 2.20000E+00    7.74422E+00
 2.40000E+00    5.47390E+00
 2.60000E+00    3.92004E+00
 2.80000E+00    2.83581E+00
 3.00000E+00    2.06822E+00
 3.20000E+00    1.51922E+00
 3.40000E+00    1.12333E+00
 3.60000E+00    8.37028E-01
 3.80000E+00    6.29519E-01
 4.00000E+00    4.79311E-01
 4.20000E+00    3.70452E-01
 4.40000E+00    2.91612E-01
 4.60000E+00    2.34640E-01
 4.80000E+00    1.93535E-01
 5.00000E+00    1.63783E-01
 5.20000E+00    1.42111E-01
 5.40000E+00    1.26410E-01
 5.60000E+00    1.14880E-01
 5.80000E+00    1.06313E-01
 6.00000E+00    1.00092E-01
 6.20000E+00    9.54681E-02
 6.40000E+00    9.20321E-02
 6.60000E+00    8.94225E-02
 6.80000E+00    8.74199E-02
 7.00000E+00    8.58555E-02
 7.20000E+00    8.46191E-02
 7.40000E+00    8.36403E-02
 7.60000E+00    8.28615E-02
 7.80000E+00    8.22511E-02
 8.00000E+00    8.17806E-02
 8.50000E+00    8.10882E-02
 9.00000E+00    8.08902E-02
 9.50000E+00    8.09631E-02
 1.00000E+01    8.11046E-02
 1.05000E+01    8.11519E-02
 1.10000E+01    8.09995E-02
 1.15000E+01    8.06025E-02
 1.20000E+01    7.99686E-02
 1.25000E+01    7.91383E-02
 1.30000E+01    7.81681E-02
 1.35000E+01    7.71151E-02
 1.40000E+01    7.60268E-02
 1.45000E+01    7.49396E-02
 1.50000E+01    7.38773E-02
 1.60000E+01    7.18769E-02
 1.70000E+01    7.00638E-02
 1.80000E+01    6.84190E-02
 1.90000E+01    6.68984E-02
 2.00000E+01    6.54425E-02
 2.10000E+01    6.40007E-02
 2.20000E+01    6.25557E-02
 2.30000E+01    6.11268E-02
 2.40000E+01    5.97448E-02
 2.50000E+01    5.84330E-02
 2.60000E+01    5.71957E-02
 2.70000E+01    5.60195E-02
 2.80000E+01    5.48786E-02
 2.90000E+01    5.37458E-02
 3.00000E+01    5.26028E-02
