# n + U 236 : (n,f)     
# jendl4.0   O.Iwamoto, T.Nakagawa, et al.     EVAL-JAN10
# uncertainties: y
# # energies =    69
#   E(MeV)       xs(mb)       xslow(mb)      xsupp(mb)
 1.00000E-10    1.79471E+00    1.79471E+00    1.79471E+00
 5.00000E-09    4.89778E-01    4.89778E-01    4.89778E-01
 1.00000E-08    3.71605E-01    3.71605E-01    3.71605E-01
 1.50000E-08    3.12773E-01    3.12773E-01    3.12773E-01
 2.00000E-08    2.75667E-01    2.75667E-01    2.75667E-01
 2.50000E-08    2.49492E-01    2.49492E-01    2.49492E-01
 3.00000E-08    2.29750E-01    2.29750E-01    2.29750E-01
 3.50000E-08    2.11681E-01    2.11681E-01    2.11681E-01
 4.20000E-08    1.94128E-01    1.94128E-01    1.94128E-01
 5.00000E-08    1.79570E-01    1.79570E-01    1.79570E-01
 5.80000E-08    1.67402E-01    1.67402E-01    1.67402E-01
 6.70000E-08    1.55089E-01    1.55089E-01    1.55089E-01
 8.00000E-08    1.41154E-01    1.41154E-01    1.41154E-01
 1.00000E-07    1.24083E-01    1.24083E-01    1.24083E-01
 1.40000E-07    1.08644E-01    1.08644E-01    1.08644E-01
 1.80000E-07    9.84415E-02    9.84415E-02    9.84415E-02
 2.20000E-07    9.18452E-02    9.18452E-02    9.18452E-02
 2.50000E-07    8.74326E-02    8.74326E-02    8.74326E-02
 2.80000E-07    8.43150E-02    8.43150E-02    8.43150E-02
 3.00000E-07    8.21564E-02    8.21564E-02    8.21564E-02
 3.20000E-07    7.97923E-02    7.97923E-02    7.97923E-02
 3.50000E-07    7.66066E-02    7.66066E-02    7.66066E-02
 4.00000E-07    7.20813E-02    7.20813E-02    7.20813E-02
 5.00000E-07    6.73429E-02    6.73429E-02    6.73429E-02
 6.25000E-07    6.37155E-02    6.37155E-02    6.37155E-02
 7.80000E-07    6.18489E-02    6.18489E-02    6.18489E-02
 8.50000E-07    6.11628E-02    6.11628E-02    6.11628E-02
 9.10000E-07    6.07708E-02    6.07708E-02    6.07708E-02
 9.50000E-07    6.05818E-02    6.05818E-02    6.05818E-02
 9.72000E-07    6.04698E-02    6.04698E-02    6.04698E-02
 9.96000E-07    6.03713E-02    6.03713E-02    6.03713E-02
 1.02000E-06    6.02948E-02    6.02948E-02    6.02948E-02
 1.04500E-06    6.02401E-02    6.02401E-02    6.02401E-02
 1.07100E-06    6.02017E-02    6.02017E-02    6.02017E-02
 1.09700E-06    6.01857E-02    6.01857E-02    6.01857E-02
 1.12300E-06    6.02000E-02    6.02000E-02    6.02000E-02
 1.15000E-06    6.03881E-02    6.03881E-02    6.03881E-02
 1.30000E-06    6.13445E-02    6.13445E-02    6.13445E-02
 1.50000E-06    6.63774E-02    6.63774E-02    6.63774E-02
 2.10000E-06    8.00411E-02    8.00411E-02    8.00411E-02
 2.60000E-06    1.09849E-01    1.09849E-01    1.09849E-01
 3.30000E-06    1.92227E-01    1.92227E-01    1.92227E-01
 4.00000E-06    2.35911E+01    2.35911E+01    2.35911E+01
 9.87700E-06    8.35828E-03    8.35828E-03    8.35828E-03
 1.59680E-05    1.60846E-03    1.60846E-03    1.60846E-03
 2.77000E-05    5.37141E-04    5.37141E-04    5.37141E-04
 4.80520E-05    3.07692E-04    3.07692E-04    3.07692E-04
 7.55014E-05    2.21175E-04    2.21175E-04    2.21175E-04
 1.48728E-04    1.82460E-04    1.82460E-04    1.82460E-04
 3.67262E-04    3.06585E-04    3.06585E-04    3.06585E-04
 9.06898E-04    8.97720E+00    8.97720E+00    8.97720E+00
 1.42510E-03    7.72698E-04    7.72698E-04    7.72698E-04
 2.23945E-03    5.85404E-01    5.85404E-01    5.85404E-01
 3.51910E-03    2.14989E-01    2.14989E-01    2.14989E-01
 5.53000E-03    3.00000E-01    3.00000E-01    3.00000E-01
 9.11800E-03    3.10629E-01    3.10629E-01    3.10629E-01
 1.50300E-02    3.43994E-01    3.43994E-01    3.43994E-01
 2.47800E-02    3.81642E-01    3.81642E-01    3.81642E-01
 4.08500E-02    4.51854E-01    4.51854E-01    4.51854E-01
 6.73400E-02    5.66591E-01    5.66591E-01    5.66591E-01
 1.11000E-01    8.23981E-01    8.23981E-01    8.23981E-01
 1.83000E-01    1.45230E+00    1.45230E+00    1.45230E+00
 3.02000E-01    3.76403E+00    3.76403E+00    3.76403E+00
 5.00000E-01    3.38680E+01    3.22261E+01    3.55099E+01
 8.21000E-01    4.22222E+02    4.14955E+02    4.29488E+02
 1.35300E+00    7.57708E+02    7.49374E+02    7.66043E+02
 2.23100E+00    8.78299E+02    8.69692E+02    8.86905E+02
 3.67900E+00    8.71134E+02    8.62522E+02    8.79746E+02
 6.06500E+00    1.42671E+03    1.41155E+03    1.44188E+03
