# n + U 236 : (n,n'26)  
# jendl4.0   O.Iwamoto, T.Nakagawa, et al.     EVAL-JAN10
# uncertainties: y
# # energies =    51
#   E(MeV)       xs(mb)       xslow(mb)      xsupp(mb)
 1.13172E+00    0.00000E+00    0.00000E+00    0.00000E+00
 1.15190E+00    1.16420E+00    3.27140E-01    2.00126E+00
 1.15431E+00    1.30919E+00    3.67882E-01    2.25050E+00
 1.16897E+00    2.19295E+00    6.16219E-01    3.76968E+00
 1.20000E+00    4.12507E+00    1.15914E+00    7.09099E+00
 1.30000E+00    9.25865E+00    2.60168E+00    1.59156E+01
 1.40000E+00    1.28177E+01    3.60177E+00    2.20336E+01
 1.50000E+00    1.48302E+01    5.97657E+00    2.36838E+01
 1.60000E+00    1.61215E+01    6.49696E+00    2.57460E+01
 1.70000E+00    1.65036E+01    6.65095E+00    2.63563E+01
 1.80000E+00    1.64806E+01    6.64168E+00    2.63195E+01
 1.90000E+00    1.58857E+01    6.40194E+00    2.53695E+01
 2.00000E+00    1.50771E+01    1.04937E+01    1.96605E+01
 2.30000E+00    1.19985E+01    8.35096E+00    1.56460E+01
 2.50000E+00    9.64863E+00    7.27507E+00    1.20222E+01
 2.70000E+00    7.47262E+00    5.63436E+00    9.31088E+00
 3.00000E+00    4.82275E+00    4.06558E+00    5.57992E+00
 3.50000E+00    2.25027E+00    1.98699E+00    2.51355E+00
 4.00000E+00    1.25116E+00    1.12354E+00    1.37878E+00
 4.50000E+00    9.21898E-01    8.27864E-01    1.01593E+00
 5.00000E+00    8.34353E-01    7.78785E-01    8.89921E-01
 5.50000E+00    8.13692E-01    7.59500E-01    8.67884E-01
 6.00000E+00    8.17029E-01    7.73236E-01    8.60822E-01
 6.50000E+00    8.22076E-01    7.78013E-01    8.66139E-01
 7.00000E+00    8.22933E-01    7.84255E-01    8.61611E-01
 7.50000E+00    8.14443E-01    7.76164E-01    8.52722E-01
 8.00000E+00    8.00161E-01    7.65034E-01    8.35288E-01
 8.50000E+00    7.80230E-01    7.45978E-01    8.14482E-01
 9.00000E+00    7.58046E-01    7.27269E-01    7.88823E-01
 9.50000E+00    7.32263E-01    7.02533E-01    7.61993E-01
 1.00000E+01    7.04052E-01    6.77650E-01    7.30454E-01
 1.05000E+01    6.72255E-01    6.47045E-01    6.97465E-01
 1.10000E+01    6.39439E-01    6.15460E-01    6.63418E-01
 1.15000E+01    6.06228E-01    5.83494E-01    6.28962E-01
 1.20000E+01    5.71627E-01    5.51792E-01    5.91462E-01
 1.25000E+01    5.37272E-01    5.18629E-01    5.55915E-01
 1.30000E+01    5.03882E-01    4.86397E-01    5.21367E-01
 1.35000E+01    4.72170E-01    4.55786E-01    4.88554E-01
 1.40000E+01    4.41994E-01    4.26657E-01    4.57331E-01
 1.45000E+01    4.13816E-01    3.99457E-01    4.28175E-01
 1.50000E+01    3.87025E-01    3.73324E-01    4.00726E-01
 1.55000E+01    3.61311E-01    3.48521E-01    3.74101E-01
 1.60000E+01    3.37688E-01    3.25565E-01    3.49811E-01
 1.65000E+01    3.16189E-01    3.04838E-01    3.27540E-01
 1.70000E+01    2.96729E-01    2.86076E-01    3.07382E-01
 1.75000E+01    2.79212E-01    2.69188E-01    2.89236E-01
 1.80000E+01    2.63649E-01    2.53894E-01    2.73404E-01
 1.85000E+01    2.49972E-01    2.40723E-01    2.59221E-01
 1.90000E+01    2.37879E-01    2.29077E-01    2.46680E-01
 1.95000E+01    2.27098E-01    2.18695E-01    2.35501E-01
 2.00000E+01    2.17507E-01    2.09459E-01    2.25555E-01
