# n + U 236 :  n        
# jendl4.0   O.Iwamoto, T.Nakagawa, et al.     EVAL-JAN10
# uncertainties: n
# # energies =    47
#   E(MeV)       xs(mb) 
 2.50000E+00    0.00000E+00
 2.70000E+00    1.14325E-06
 3.00000E+00    2.49790E-05
 3.50000E+00    1.15555E-03
 4.00000E+00    4.74283E-02
 4.25000E+00    5.42244E-01
 4.50000E+00    1.03158E+00
 4.75000E+00    4.71439E+00
 5.00000E+00    8.26912E+00
 5.25000E+00    2.42495E+01
 5.50000E+00    4.07234E+01
 5.62500E+00    6.79592E+01
 5.75000E+00    9.41842E+01
 6.00000E+00    1.43859E+02
 6.12500E+00    2.08513E+02
 6.25000E+00    2.73405E+02
 6.50000E+00    4.02498E+02
 6.75000E+00    5.47651E+02
 7.00000E+00    6.91576E+02
 7.50000E+00    7.93812E+02
 8.00000E+00    8.08223E+02
 8.50000E+00    8.07121E+02
 9.00000E+00    8.04341E+02
 9.50000E+00    7.99260E+02
 1.00000E+01    7.92710E+02
 1.05000E+01    7.79143E+02
 1.10000E+01    7.59450E+02
 1.15000E+01    7.43951E+02
 1.20000E+01    7.24769E+02
 1.22500E+01    7.33092E+02
 1.25000E+01    7.41237E+02
 1.27500E+01    7.44106E+02
 1.30000E+01    7.46732E+02
 1.35000E+01    7.35495E+02
 1.40000E+01    7.10870E+02
 1.45000E+01    6.78407E+02
 1.50000E+01    6.49776E+02
 1.55000E+01    6.28498E+02
 1.60000E+01    6.16706E+02
 1.65000E+01    6.04559E+02
 1.70000E+01    5.96161E+02
 1.75000E+01    5.97456E+02
 1.80000E+01    5.97562E+02
 1.85000E+01    5.85478E+02
 1.90000E+01    5.71667E+02
 1.95000E+01    5.59364E+02
 2.00000E+01    5.44291E+02
