 Z=  13 A=  23 Al
  U[MeV]  fE1[mb/MeV]
    0.100   8.579E-06
    0.200   3.433E-05
    0.300   7.727E-05
    0.400   1.375E-04
    0.500   2.150E-04
    0.600   3.099E-04
    0.700   4.223E-04
    0.800   5.524E-04
    0.900   7.003E-04
    1.000   8.662E-04
    1.100   1.050E-03
    1.200   1.253E-03
    1.300   1.474E-03
    1.400   1.714E-03
    1.500   1.973E-03
    1.600   2.252E-03
    1.700   2.551E-03
    1.800   2.870E-03
    1.900   3.209E-03
    2.000   3.570E-03
    2.100   3.952E-03
    2.200   4.356E-03
    2.300   4.783E-03
    2.400   5.233E-03
    2.500   5.707E-03
    2.600   6.205E-03
    2.700   6.728E-03
    2.800   7.277E-03
    2.900   7.853E-03
    3.000   8.456E-03
    3.100   9.087E-03
    3.200   9.747E-03
    3.300   1.044E-02
    3.400   1.116E-02
    3.500   1.191E-02
    3.600   1.270E-02
    3.700   1.352E-02
    3.800   1.438E-02
    3.900   1.528E-02
    4.000   1.621E-02
    4.100   1.719E-02
    4.200   1.821E-02
    4.300   1.927E-02
    4.400   2.038E-02
    4.500   2.154E-02
    4.600   2.275E-02
    4.700   2.401E-02
    4.800   2.532E-02
    4.900   2.670E-02
    5.000   2.813E-02
    5.100   2.963E-02
    5.200   3.120E-02
    5.300   3.284E-02
    5.400   3.455E-02
    5.500   3.634E-02
    5.600   3.822E-02
    5.700   4.018E-02
    5.800   4.224E-02
    5.900   4.439E-02
    6.000   4.665E-02
    6.100   4.902E-02
    6.200   5.151E-02
    6.300   5.412E-02
    6.400   5.687E-02
    6.500   5.975E-02
    6.600   6.278E-02
    6.700   6.597E-02
    6.800   6.933E-02
    6.900   7.287E-02
    7.000   7.660E-02
    7.100   8.054E-02
    7.200   8.468E-02
    7.300   8.906E-02
    7.400   9.368E-02
    7.500   9.855E-02
    7.600   1.037E-01
    7.700   1.091E-01
    7.800   1.148E-01
    7.900   1.208E-01
    8.000   1.272E-01
    8.100   1.338E-01
    8.200   1.408E-01
    8.300   1.481E-01
    8.400   1.557E-01
    8.500   1.637E-01
    8.600   1.720E-01
    8.700   1.805E-01
    8.800   1.893E-01
    8.900   1.983E-01
    9.000   2.076E-01
    9.100   2.169E-01
    9.200   2.265E-01
    9.300   2.360E-01
    9.400   2.456E-01
    9.500   2.553E-01
    9.600   2.648E-01
    9.700   2.744E-01
    9.800   2.839E-01
    9.900   2.932E-01
   10.000   3.025E-01
   10.100   3.117E-01
   10.200   3.208E-01
   10.300   3.298E-01
   10.400   3.388E-01
   10.500   3.478E-01
   10.600   3.567E-01
   10.700   3.658E-01
   10.800   3.749E-01
   10.900   3.843E-01
   11.000   3.938E-01
   11.100   4.037E-01
   11.200   4.140E-01
   11.300   4.246E-01
   11.400   4.357E-01
   11.500   4.472E-01
   11.600   4.591E-01
   11.700   4.714E-01
   11.800   4.840E-01
   11.900   4.968E-01
   12.000   5.097E-01
   12.100   5.226E-01
   12.200   5.354E-01
   12.300   5.479E-01
   12.400   5.601E-01
   12.500   5.718E-01
   12.600   5.830E-01
   12.700   5.937E-01
   12.800   6.039E-01
   12.900   6.137E-01
   13.000   6.230E-01
   13.100   6.320E-01
   13.200   6.409E-01
   13.300   6.497E-01
   13.400   6.586E-01
   13.500   6.676E-01
   13.600   6.769E-01
   13.700   6.865E-01
   13.800   6.964E-01
   13.900   7.067E-01
   14.000   7.174E-01
   14.100   7.284E-01
   14.200   7.397E-01
   14.300   7.512E-01
   14.400   7.630E-01
   14.500   7.750E-01
   14.600   7.871E-01
   14.700   7.995E-01
   14.800   8.120E-01
   14.900   8.247E-01
   15.000   8.375E-01
   15.100   8.507E-01
   15.200   8.641E-01
   15.300   8.778E-01
   15.400   8.920E-01
   15.500   9.067E-01
   15.600   9.219E-01
   15.700   9.378E-01
   15.800   9.544E-01
   15.900   9.719E-01
   16.000   9.903E-01
   16.100   1.010E+00
   16.200   1.030E+00
   16.300   1.051E+00
   16.400   1.074E+00
   16.500   1.097E+00
   16.600   1.121E+00
   16.700   1.145E+00
   16.800   1.170E+00
   16.900   1.194E+00
   17.000   1.218E+00
   17.100   1.240E+00
   17.200   1.261E+00
   17.300   1.280E+00
   17.400   1.296E+00
   17.500   1.309E+00
   17.600   1.319E+00
   17.700   1.325E+00
   17.800   1.327E+00
   17.900   1.325E+00
   18.000   1.320E+00
   18.100   1.311E+00
   18.200   1.300E+00
   18.300   1.286E+00
   18.400   1.269E+00
   18.500   1.251E+00
   18.600   1.232E+00
   18.700   1.211E+00
   18.800   1.191E+00
   18.900   1.170E+00
   19.000   1.149E+00
   19.100   1.128E+00
   19.200   1.109E+00
   19.300   1.089E+00
   19.400   1.071E+00
   19.500   1.053E+00
   19.600   1.037E+00
   19.700   1.021E+00
   19.800   1.006E+00
   19.900   9.924E-01
   20.000   9.796E-01
   20.100   9.678E-01
   20.200   9.568E-01
   20.300   9.467E-01
   20.400   9.374E-01
   20.500   9.288E-01
   20.600   9.208E-01
   20.700   9.134E-01
   20.800   9.065E-01
   20.900   9.000E-01
   21.000   8.938E-01
   21.100   8.879E-01
   21.200   8.822E-01
   21.300   8.766E-01
   21.400   8.712E-01
   21.500   8.659E-01
   21.600   8.606E-01
   21.700   8.555E-01
   21.800   8.504E-01
   21.900   8.454E-01
   22.000   8.405E-01
   22.100   8.357E-01
   22.200   8.310E-01
   22.300   8.264E-01
   22.400   8.219E-01
   22.500   8.173E-01
   22.600   8.129E-01
   22.700   8.084E-01
   22.800   8.038E-01
   22.900   7.993E-01
   23.000   7.946E-01
   23.100   7.898E-01
   23.200   7.849E-01
   23.300   7.798E-01
   23.400   7.745E-01
   23.500   7.691E-01
   23.600   7.635E-01
   23.700   7.576E-01
   23.800   7.516E-01
   23.900   7.453E-01
   24.000   7.388E-01
   24.100   7.322E-01
   24.200   7.253E-01
   24.300   7.183E-01
   24.400   7.111E-01
   24.500   7.037E-01
   24.600   6.962E-01
   24.700   6.885E-01
   24.800   6.806E-01
   24.900   6.727E-01
   25.000   6.645E-01
   25.100   6.563E-01
   25.200   6.479E-01
   25.300   6.395E-01
   25.400   6.310E-01
   25.500   6.225E-01
   25.600   6.139E-01
   25.700   6.054E-01
   25.800   5.969E-01
   25.900   5.884E-01
   26.000   5.800E-01
   26.100   5.718E-01
   26.200   5.636E-01
   26.300   5.556E-01
   26.400   5.477E-01
   26.500   5.399E-01
   26.600   5.323E-01
   26.700   5.248E-01
   26.800   5.174E-01
   26.900   5.101E-01
   27.000   5.030E-01
   27.100   4.960E-01
   27.200   4.891E-01
   27.300   4.823E-01
   27.400   4.756E-01
   27.500   4.690E-01
   27.600   4.626E-01
   27.700   4.562E-01
   27.800   4.500E-01
   27.900   4.439E-01
   28.000   4.379E-01
   28.100   4.321E-01
   28.200   4.264E-01
   28.300   4.208E-01
   28.400   4.154E-01
   28.500   4.102E-01
   28.600   4.051E-01
   28.700   4.001E-01
   28.800   3.953E-01
   28.900   3.906E-01
   29.000   3.860E-01
   29.100   3.815E-01
   29.200   3.771E-01
   29.300   3.728E-01
   29.400   3.685E-01
   29.500   3.643E-01
   29.600   3.601E-01
   29.700   3.559E-01
   29.800   3.518E-01
   29.900   3.477E-01
   30.000   3.435E-01
 
 Z=  13 A=  24 Al
  U[MeV]  fE1[mb/MeV]
    0.100   7.124E-06
    0.200   2.850E-05
    0.300   6.416E-05
    0.400   1.141E-04
    0.500   1.785E-04
    0.600   2.572E-04
    0.700   3.505E-04
    0.800   4.584E-04
    0.900   5.810E-04
    1.000   7.185E-04
    1.100   8.709E-04
    1.200   1.039E-03
    1.300   1.221E-03
    1.400   1.420E-03
    1.500   1.634E-03
    1.600   1.864E-03
    1.700   2.111E-03
    1.800   2.373E-03
    1.900   2.653E-03
    2.000   2.950E-03
    2.100   3.264E-03
    2.200   3.596E-03
    2.300   3.946E-03
    2.400   4.314E-03
    2.500   4.702E-03
    2.600   5.109E-03
    2.700   5.535E-03
    2.800   5.983E-03
    2.900   6.451E-03
    3.000   6.940E-03
    3.100   7.452E-03
    3.200   7.987E-03
    3.300   8.545E-03
    3.400   9.127E-03
    3.500   9.734E-03
    3.600   1.037E-02
    3.700   1.103E-02
    3.800   1.171E-02
    3.900   1.243E-02
    4.000   1.317E-02
    4.100   1.395E-02
    4.200   1.476E-02
    4.300   1.560E-02
    4.400   1.647E-02
    4.500   1.738E-02
    4.600   1.833E-02
    4.700   1.931E-02
    4.800   2.034E-02
    4.900   2.141E-02
    5.000   2.252E-02
    5.100   2.368E-02
    5.200   2.489E-02
    5.300   2.614E-02
    5.400   2.745E-02
    5.500   2.882E-02
    5.600   3.024E-02
    5.700   3.172E-02
    5.800   3.327E-02
    5.900   3.489E-02
    6.000   3.658E-02
    6.100   3.834E-02
    6.200   4.018E-02
    6.300   4.211E-02
    6.400   4.412E-02
    6.500   4.623E-02
    6.600   4.844E-02
    6.700   5.076E-02
    6.800   5.319E-02
    6.900   5.574E-02
    7.000   5.841E-02
    7.100   6.122E-02
    7.200   6.418E-02
    7.300   6.729E-02
    7.400   7.056E-02
    7.500   7.401E-02
    7.600   7.764E-02
    7.700   8.147E-02
    7.800   8.551E-02
    7.900   8.978E-02
    8.000   9.428E-02
    8.100   9.903E-02
    8.200   1.040E-01
    8.300   1.093E-01
    8.400   1.149E-01
    8.500   1.208E-01
    8.600   1.270E-01
    8.700   1.336E-01
    8.800   1.404E-01
    8.900   1.476E-01
    9.000   1.551E-01
    9.100   1.630E-01
    9.200   1.711E-01
    9.300   1.796E-01
    9.400   1.883E-01
    9.500   1.973E-01
    9.600   2.064E-01
    9.700   2.158E-01
    9.800   2.253E-01
    9.900   2.350E-01
   10.000   2.447E-01
   10.100   2.545E-01
   10.200   2.645E-01
   10.300   2.744E-01
   10.400   2.845E-01
   10.500   2.946E-01
   10.600   3.048E-01
   10.700   3.151E-01
   10.800   3.256E-01
   10.900   3.362E-01
   11.000   3.470E-01
   11.100   3.581E-01
   11.200   3.696E-01
   11.300   3.814E-01
   11.400   3.937E-01
   11.500   4.065E-01
   11.600   4.198E-01
   11.700   4.338E-01
   11.800   4.483E-01
   11.900   4.634E-01
   12.000   4.791E-01
   12.100   4.952E-01
   12.200   5.117E-01
   12.300   5.285E-01
   12.400   5.454E-01
   12.500   5.624E-01
   12.600   5.793E-01
   12.700   5.961E-01
   12.800   6.127E-01
   12.900   6.289E-01
   13.000   6.449E-01
   13.100   6.606E-01
   13.200   6.760E-01
   13.300   6.913E-01
   13.400   7.066E-01
   13.500   7.219E-01
   13.600   7.373E-01
   13.700   7.529E-01
   13.800   7.687E-01
   13.900   7.848E-01
   14.000   8.013E-01
   14.100   8.181E-01
   14.200   8.351E-01
   14.300   8.525E-01
   14.400   8.702E-01
   14.500   8.881E-01
   14.600   9.063E-01
   14.700   9.246E-01
   14.800   9.431E-01
   14.900   9.617E-01
   15.000   9.803E-01
   15.100   9.988E-01
   15.200   1.017E+00
   15.300   1.036E+00
   15.400   1.054E+00
   15.500   1.071E+00
   15.600   1.089E+00
   15.700   1.107E+00
   15.800   1.124E+00
   15.900   1.142E+00
   16.000   1.160E+00
   16.100   1.179E+00
   16.200   1.198E+00
   16.300   1.217E+00
   16.400   1.237E+00
   16.500   1.258E+00
   16.600   1.278E+00
   16.700   1.298E+00
   16.800   1.318E+00
   16.900   1.336E+00
   17.000   1.352E+00
   17.100   1.365E+00
   17.200   1.376E+00
   17.300   1.383E+00
   17.400   1.385E+00
   17.500   1.384E+00
   17.600   1.379E+00
   17.700   1.369E+00
   17.800   1.356E+00
   17.900   1.340E+00
   18.000   1.320E+00
   18.100   1.299E+00
   18.200   1.275E+00
   18.300   1.251E+00
   18.400   1.227E+00
   18.500   1.202E+00
   18.600   1.177E+00
   18.700   1.153E+00
   18.800   1.130E+00
   18.900   1.108E+00
   19.000   1.088E+00
   19.100   1.068E+00
   19.200   1.050E+00
   19.300   1.034E+00
   19.400   1.018E+00
   19.500   1.004E+00
   19.600   9.916E-01
   19.700   9.800E-01
   19.800   9.697E-01
   19.900   9.604E-01
   20.000   9.522E-01
   20.100   9.450E-01
   20.200   9.386E-01
   20.300   9.331E-01
   20.400   9.282E-01
   20.500   9.239E-01
   20.600   9.202E-01
   20.700   9.168E-01
   20.800   9.137E-01
   20.900   9.107E-01
   21.000   9.078E-01
   21.100   9.049E-01
   21.200   9.018E-01
   21.300   8.985E-01
   21.400   8.950E-01
   21.500   8.911E-01
   21.600   8.870E-01
   21.700   8.826E-01
   21.800   8.778E-01
   21.900   8.729E-01
   22.000   8.677E-01
   22.100   8.624E-01
   22.200   8.570E-01
   22.300   8.516E-01
   22.400   8.462E-01
   22.500   8.408E-01
   22.600   8.355E-01
   22.700   8.302E-01
   22.800   8.250E-01
   22.900   8.198E-01
   23.000   8.147E-01
   23.100   8.096E-01
   23.200   8.045E-01
   23.300   7.993E-01
   23.400   7.940E-01
   23.500   7.887E-01
   23.600   7.832E-01
   23.700   7.775E-01
   23.800   7.716E-01
   23.900   7.655E-01
   24.000   7.592E-01
   24.100   7.526E-01
   24.200   7.458E-01
   24.300   7.387E-01
   24.400   7.314E-01
   24.500   7.238E-01
   24.600   7.160E-01
   24.700   7.079E-01
   24.800   6.997E-01
   24.900   6.912E-01
   25.000   6.827E-01
   25.100   6.740E-01
   25.200   6.652E-01
   25.300   6.563E-01
   25.400   6.474E-01
   25.500   6.385E-01
   25.600   6.296E-01
   25.700   6.207E-01
   25.800   6.119E-01
   25.900   6.031E-01
   26.000   5.945E-01
   26.100   5.860E-01
   26.200   5.777E-01
   26.300   5.694E-01
   26.400   5.614E-01
   26.500   5.535E-01
   26.600   5.457E-01
   26.700   5.382E-01
   26.800   5.307E-01
   26.900   5.235E-01
   27.000   5.164E-01
   27.100   5.094E-01
   27.200   5.026E-01
   27.300   4.959E-01
   27.400   4.893E-01
   27.500   4.829E-01
   27.600   4.767E-01
   27.700   4.706E-01
   27.800   4.646E-01
   27.900   4.588E-01
   28.000   4.532E-01
   28.100   4.477E-01
   28.200   4.423E-01
   28.300   4.371E-01
   28.400   4.320E-01
   28.500   4.270E-01
   28.600   4.222E-01
   28.700   4.174E-01
   28.800   4.127E-01
   28.900   4.080E-01
   29.000   4.034E-01
   29.100   3.988E-01
   29.200   3.943E-01
   29.300   3.897E-01
   29.400   3.852E-01
   29.500   3.807E-01
   29.600   3.762E-01
   29.700   3.717E-01
   29.800   3.672E-01
   29.900   3.627E-01
   30.000   3.583E-01
 
 Z=  13 A=  25 Al
  U[MeV]  fE1[mb/MeV]
    0.100   6.321E-06
    0.200   2.529E-05
    0.300   5.692E-05
    0.400   1.012E-04
    0.500   1.583E-04
    0.600   2.281E-04
    0.700   3.108E-04
    0.800   4.064E-04
    0.900   5.150E-04
    1.000   6.367E-04
    1.100   7.717E-04
    1.200   9.199E-04
    1.300   1.082E-03
    1.400   1.257E-03
    1.500   1.446E-03
    1.600   1.649E-03
    1.700   1.867E-03
    1.800   2.098E-03
    1.900   2.344E-03
    2.000   2.605E-03
    2.100   2.881E-03
    2.200   3.173E-03
    2.300   3.479E-03
    2.400   3.802E-03
    2.500   4.141E-03
    2.600   4.497E-03
    2.700   4.869E-03
    2.800   5.259E-03
    2.900   5.667E-03
    3.000   6.092E-03
    3.100   6.536E-03
    3.200   7.000E-03
    3.300   7.482E-03
    3.400   7.985E-03
    3.500   8.508E-03
    3.600   9.053E-03
    3.700   9.619E-03
    3.800   1.021E-02
    3.900   1.082E-02
    4.000   1.145E-02
    4.100   1.211E-02
    4.200   1.280E-02
    4.300   1.351E-02
    4.400   1.425E-02
    4.500   1.502E-02
    4.600   1.581E-02
    4.700   1.664E-02
    4.800   1.749E-02
    4.900   1.838E-02
    5.000   1.931E-02
    5.100   2.026E-02
    5.200   2.126E-02
    5.300   2.229E-02
    5.400   2.336E-02
    5.500   2.447E-02
    5.600   2.562E-02
    5.700   2.682E-02
    5.800   2.807E-02
    5.900   2.936E-02
    6.000   3.070E-02
    6.100   3.210E-02
    6.200   3.355E-02
    6.300   3.506E-02
    6.400   3.663E-02
    6.500   3.826E-02
    6.600   3.996E-02
    6.700   4.174E-02
    6.800   4.358E-02
    6.900   4.551E-02
    7.000   4.752E-02
    7.100   4.961E-02
    7.200   5.180E-02
    7.300   5.408E-02
    7.400   5.647E-02
    7.500   5.896E-02
    7.600   6.158E-02
    7.700   6.431E-02
    7.800   6.717E-02
    7.900   7.018E-02
    8.000   7.332E-02
    8.100   7.663E-02
    8.200   8.010E-02
    8.300   8.375E-02
    8.400   8.759E-02
    8.500   9.162E-02
    8.600   9.587E-02
    8.700   1.003E-01
    8.800   1.051E-01
    8.900   1.100E-01
    9.000   1.153E-01
    9.100   1.208E-01
    9.200   1.267E-01
    9.300   1.328E-01
    9.400   1.393E-01
    9.500   1.461E-01
    9.600   1.533E-01
    9.700   1.608E-01
    9.800   1.688E-01
    9.900   1.770E-01
   10.000   1.857E-01
   10.100   1.947E-01
   10.200   2.041E-01
   10.300   2.138E-01
   10.400   2.239E-01
   10.500   2.342E-01
   10.600   2.449E-01
   10.700   2.559E-01
   10.800   2.671E-01
   10.900   2.787E-01
   11.000   2.907E-01
   11.100   3.029E-01
   11.200   3.156E-01
   11.300   3.287E-01
   11.400   3.423E-01
   11.500   3.563E-01
   11.600   3.709E-01
   11.700   3.861E-01
   11.800   4.019E-01
   11.900   4.183E-01
   12.000   4.354E-01
   12.100   4.530E-01
   12.200   4.713E-01
   12.300   4.902E-01
   12.400   5.096E-01
   12.500   5.294E-01
   12.600   5.495E-01
   12.700   5.699E-01
   12.800   5.904E-01
   12.900   6.110E-01
   13.000   6.315E-01
   13.100   6.519E-01
   13.200   6.723E-01
   13.300   6.926E-01
   13.400   7.130E-01
   13.500   7.336E-01
   13.600   7.545E-01
   13.700   7.759E-01
   13.800   7.979E-01
   13.900   8.207E-01
   14.000   8.445E-01
   14.100   8.693E-01
   14.200   8.952E-01
   14.300   9.223E-01
   14.400   9.507E-01
   14.500   9.802E-01
   14.600   1.011E+00
   14.700   1.042E+00
   14.800   1.075E+00
   14.900   1.108E+00
   15.000   1.141E+00
   15.100   1.174E+00
   15.200   1.207E+00
   15.300   1.238E+00
   15.400   1.268E+00
   15.500   1.296E+00
   15.600   1.322E+00
   15.700   1.344E+00
   15.800   1.363E+00
   15.900   1.378E+00
   16.000   1.391E+00
   16.100   1.399E+00
   16.200   1.405E+00
   16.300   1.408E+00
   16.400   1.409E+00
   16.500   1.409E+00
   16.600   1.407E+00
   16.700   1.404E+00
   16.800   1.401E+00
   16.900   1.397E+00
   17.000   1.393E+00
   17.100   1.389E+00
   17.200   1.384E+00
   17.300   1.379E+00
   17.400   1.372E+00
   17.500   1.364E+00
   17.600   1.355E+00
   17.700   1.344E+00
   17.800   1.332E+00
   17.900   1.317E+00
   18.000   1.301E+00
   18.100   1.284E+00
   18.200   1.266E+00
   18.300   1.247E+00
   18.400   1.227E+00
   18.500   1.208E+00
   18.600   1.188E+00
   18.700   1.170E+00
   18.800   1.152E+00
   18.900   1.135E+00
   19.000   1.119E+00
   19.100   1.104E+00
   19.200   1.091E+00
   19.300   1.078E+00
   19.400   1.068E+00
   19.500   1.058E+00
   19.600   1.050E+00
   19.700   1.042E+00
   19.800   1.036E+00
   19.900   1.031E+00
   20.000   1.026E+00
   20.100   1.022E+00
   20.200   1.019E+00
   20.300   1.016E+00
   20.400   1.014E+00
   20.500   1.012E+00
   20.600   1.010E+00
   20.700   1.008E+00
   20.800   1.007E+00
   20.900   1.005E+00
   21.000   1.003E+00
   21.100   1.001E+00
   21.200   9.980E-01
   21.300   9.951E-01
   21.400   9.919E-01
   21.500   9.882E-01
   21.600   9.840E-01
   21.700   9.795E-01
   21.800   9.744E-01
   21.900   9.690E-01
   22.000   9.632E-01
   22.100   9.571E-01
   22.200   9.506E-01
   22.300   9.438E-01
   22.400   9.368E-01
   22.500   9.295E-01
   22.600   9.220E-01
   22.700   9.142E-01
   22.800   9.063E-01
   22.900   8.981E-01
   23.000   8.897E-01
   23.100   8.811E-01
   23.200   8.723E-01
   23.300   8.633E-01
   23.400   8.540E-01
   23.500   8.446E-01
   23.600   8.351E-01
   23.700   8.254E-01
   23.800   8.155E-01
   23.900   8.056E-01
   24.000   7.956E-01
   24.100   7.856E-01
   24.200   7.755E-01
   24.300   7.654E-01
   24.400   7.552E-01
   24.500   7.451E-01
   24.600   7.349E-01
   24.700   7.247E-01
   24.800   7.146E-01
   24.900   7.045E-01
   25.000   6.944E-01
   25.100   6.843E-01
   25.200   6.743E-01
   25.300   6.643E-01
   25.400   6.545E-01
   25.500   6.447E-01
   25.600   6.350E-01
   25.700   6.255E-01
   25.800   6.161E-01
   25.900   6.068E-01
   26.000   5.977E-01
   26.100   5.887E-01
   26.200   5.800E-01
   26.300   5.713E-01
   26.400   5.629E-01
   26.500   5.547E-01
   26.600   5.466E-01
   26.700   5.387E-01
   26.800   5.311E-01
   26.900   5.236E-01
   27.000   5.163E-01
   27.100   5.092E-01
   27.200   5.023E-01
   27.300   4.955E-01
   27.400   4.889E-01
   27.500   4.825E-01
   27.600   4.763E-01
   27.700   4.701E-01
   27.800   4.642E-01
   27.900   4.583E-01
   28.000   4.526E-01
   28.100   4.470E-01
   28.200   4.416E-01
   28.300   4.362E-01
   28.400   4.310E-01
   28.500   4.259E-01
   28.600   4.209E-01
   28.700   4.160E-01
   28.800   4.112E-01
   28.900   4.066E-01
   29.000   4.020E-01
   29.100   3.975E-01
   29.200   3.931E-01
   29.300   3.888E-01
   29.400   3.845E-01
   29.500   3.803E-01
   29.600   3.762E-01
   29.700   3.721E-01
   29.800   3.681E-01
   29.900   3.641E-01
   30.000   3.601E-01
 
 Z=  13 A=  26 Al
  U[MeV]  fE1[mb/MeV]
    0.100   6.027E-06
    0.200   2.411E-05
    0.300   5.427E-05
    0.400   9.654E-05
    0.500   1.509E-04
    0.600   2.175E-04
    0.700   2.963E-04
    0.800   3.874E-04
    0.900   4.909E-04
    1.000   6.069E-04
    1.100   7.354E-04
    1.200   8.766E-04
    1.300   1.031E-03
    1.400   1.198E-03
    1.500   1.378E-03
    1.600   1.571E-03
    1.700   1.777E-03
    1.800   1.997E-03
    1.900   2.231E-03
    2.000   2.479E-03
    2.100   2.741E-03
    2.200   3.018E-03
    2.300   3.309E-03
    2.400   3.615E-03
    2.500   3.937E-03
    2.600   4.273E-03
    2.700   4.626E-03
    2.800   4.995E-03
    2.900   5.380E-03
    3.000   5.782E-03
    3.100   6.201E-03
    3.200   6.638E-03
    3.300   7.094E-03
    3.400   7.567E-03
    3.500   8.060E-03
    3.600   8.572E-03
    3.700   9.104E-03
    3.800   9.656E-03
    3.900   1.023E-02
    4.000   1.083E-02
    4.100   1.144E-02
    4.200   1.208E-02
    4.300   1.275E-02
    4.400   1.344E-02
    4.500   1.415E-02
    4.600   1.489E-02
    4.700   1.566E-02
    4.800   1.645E-02
    4.900   1.728E-02
    5.000   1.813E-02
    5.100   1.901E-02
    5.200   1.993E-02
    5.300   2.088E-02
    5.400   2.186E-02
    5.500   2.288E-02
    5.600   2.394E-02
    5.700   2.503E-02
    5.800   2.616E-02
    5.900   2.734E-02
    6.000   2.856E-02
    6.100   2.982E-02
    6.200   3.113E-02
    6.300   3.249E-02
    6.400   3.390E-02
    6.500   3.536E-02
    6.600   3.688E-02
    6.700   3.845E-02
    6.800   4.009E-02
    6.900   4.179E-02
    7.000   4.356E-02
    7.100   4.540E-02
    7.200   4.731E-02
    7.300   4.929E-02
    7.400   5.136E-02
    7.500   5.352E-02
    7.600   5.576E-02
    7.700   5.810E-02
    7.800   6.053E-02
    7.900   6.308E-02
    8.000   6.573E-02
    8.100   6.850E-02
    8.200   7.139E-02
    8.300   7.441E-02
    8.400   7.758E-02
    8.500   8.089E-02
    8.600   8.435E-02
    8.700   8.799E-02
    8.800   9.179E-02
    8.900   9.579E-02
    9.000   9.998E-02
    9.100   1.044E-01
    9.200   1.090E-01
    9.300   1.139E-01
    9.400   1.190E-01
    9.500   1.244E-01
    9.600   1.301E-01
    9.700   1.361E-01
    9.800   1.424E-01
    9.900   1.491E-01
   10.000   1.562E-01
   10.100   1.636E-01
   10.200   1.714E-01
   10.300   1.797E-01
   10.400   1.885E-01
   10.500   1.977E-01
   10.600   2.074E-01
   10.700   2.177E-01
   10.800   2.285E-01
   10.900   2.398E-01
   11.000   2.517E-01
   11.100   2.642E-01
   11.200   2.774E-01
   11.300   2.911E-01
   11.400   3.055E-01
   11.500   3.205E-01
   11.600   3.363E-01
   11.700   3.528E-01
   11.800   3.700E-01
   11.900   3.880E-01
   12.000   4.069E-01
   12.100   4.265E-01
   12.200   4.471E-01
   12.300   4.684E-01
   12.400   4.907E-01
   12.500   5.138E-01
   12.600   5.376E-01
   12.700   5.622E-01
   12.800   5.873E-01
   12.900   6.130E-01
   13.000   6.389E-01
   13.100   6.650E-01
   13.200   6.910E-01
   13.300   7.166E-01
   13.400   7.418E-01
   13.500   7.662E-01
   13.600   7.897E-01
   13.700   8.121E-01
   13.800   8.335E-01
   13.900   8.538E-01
   14.000   8.730E-01
   14.100   8.913E-01
   14.200   9.090E-01
   14.300   9.263E-01
   14.400   9.434E-01
   14.500   9.608E-01
   14.600   9.787E-01
   14.700   9.974E-01
   14.800   1.017E+00
   14.900   1.038E+00
   15.000   1.061E+00
   15.100   1.085E+00
   15.200   1.111E+00
   15.300   1.139E+00
   15.400   1.168E+00
   15.500   1.199E+00
   15.600   1.230E+00
   15.700   1.263E+00
   15.800   1.295E+00
   15.900   1.328E+00
   16.000   1.359E+00
   16.100   1.389E+00
   16.200   1.417E+00
   16.300   1.442E+00
   16.400   1.464E+00
   16.500   1.483E+00
   16.600   1.497E+00
   16.700   1.507E+00
   16.800   1.512E+00
   16.900   1.514E+00
   17.000   1.512E+00
   17.100   1.506E+00
   17.200   1.498E+00
   17.300   1.487E+00
   17.400   1.475E+00
   17.500   1.461E+00
   17.600   1.447E+00
   17.700   1.432E+00
   17.800   1.418E+00
   17.900   1.403E+00
   18.000   1.389E+00
   18.100   1.375E+00
   18.200   1.362E+00
   18.300   1.350E+00
   18.400   1.337E+00
   18.500   1.326E+00
   18.600   1.314E+00
   18.700   1.303E+00
   18.800   1.293E+00
   18.900   1.282E+00
   19.000   1.272E+00
   19.100   1.262E+00
   19.200   1.253E+00
   19.300   1.244E+00
   19.400   1.236E+00
   19.500   1.228E+00
   19.600   1.221E+00
   19.700   1.214E+00
   19.800   1.207E+00
   19.900   1.201E+00
   20.000   1.195E+00
   20.100   1.189E+00
   20.200   1.184E+00
   20.300   1.178E+00
   20.400   1.173E+00
   20.500   1.167E+00
   20.600   1.161E+00
   20.700   1.154E+00
   20.800   1.148E+00
   20.900   1.141E+00
   21.000   1.133E+00
   21.100   1.126E+00
   21.200   1.118E+00
   21.300   1.110E+00
   21.400   1.102E+00
   21.500   1.094E+00
   21.600   1.085E+00
   21.700   1.076E+00
   21.800   1.068E+00
   21.900   1.059E+00
   22.000   1.050E+00
   22.100   1.041E+00
   22.200   1.032E+00
   22.300   1.023E+00
   22.400   1.015E+00
   22.500   1.006E+00
   22.600   9.966E-01
   22.700   9.876E-01
   22.800   9.785E-01
   22.900   9.692E-01
   23.000   9.598E-01
   23.100   9.502E-01
   23.200   9.403E-01
   23.300   9.302E-01
   23.400   9.197E-01
   23.500   9.090E-01
   23.600   8.979E-01
   23.700   8.865E-01
   23.800   8.748E-01
   23.900   8.629E-01
   24.000   8.508E-01
   24.100   8.386E-01
   24.200   8.264E-01
   24.300   8.141E-01
   24.400   8.018E-01
   24.500   7.896E-01
   24.600   7.774E-01
   24.700   7.654E-01
   24.800   7.535E-01
   24.900   7.417E-01
   25.000   7.301E-01
   25.100   7.186E-01
   25.200   7.073E-01
   25.300   6.962E-01
   25.400   6.852E-01
   25.500   6.745E-01
   25.600   6.639E-01
   25.700   6.536E-01
   25.800   6.434E-01
   25.900   6.334E-01
   26.000   6.237E-01
   26.100   6.141E-01
   26.200   6.048E-01
   26.300   5.956E-01
   26.400   5.866E-01
   26.500   5.778E-01
   26.600   5.692E-01
   26.700   5.607E-01
   26.800   5.524E-01
   26.900   5.442E-01
   27.000   5.362E-01
   27.100   5.283E-01
   27.200   5.206E-01
   27.300   5.131E-01
   27.400   5.056E-01
   27.500   4.983E-01
   27.600   4.912E-01
   27.700   4.842E-01
   27.800   4.773E-01
   27.900   4.705E-01
   28.000   4.639E-01
   28.100   4.573E-01
   28.200   4.510E-01
   28.300   4.447E-01
   28.400   4.386E-01
   28.500   4.326E-01
   28.600   4.268E-01
   28.700   4.210E-01
   28.800   4.154E-01
   28.900   4.100E-01
   29.000   4.046E-01
   29.100   3.994E-01
   29.200   3.944E-01
   29.300   3.894E-01
   29.400   3.846E-01
   29.500   3.799E-01
   29.600   3.753E-01
   29.700   3.709E-01
   29.800   3.665E-01
   29.900   3.623E-01
   30.000   3.582E-01
 
 Z=  13 A=  27 Al
  U[MeV]  fE1[mb/MeV]
    0.100   6.121E-06
    0.200   2.449E-05
    0.300   5.512E-05
    0.400   9.805E-05
    0.500   1.533E-04
    0.600   2.209E-04
    0.700   3.010E-04
    0.800   3.936E-04
    0.900   4.988E-04
    1.000   6.166E-04
    1.100   7.473E-04
    1.200   8.908E-04
    1.300   1.047E-03
    1.400   1.217E-03
    1.500   1.400E-03
    1.600   1.597E-03
    1.700   1.807E-03
    1.800   2.032E-03
    1.900   2.270E-03
    2.000   2.522E-03
    2.100   2.790E-03
    2.200   3.072E-03
    2.300   3.369E-03
    2.400   3.681E-03
    2.500   4.009E-03
    2.600   4.353E-03
    2.700   4.714E-03
    2.800   5.091E-03
    2.900   5.485E-03
    3.000   5.896E-03
    3.100   6.326E-03
    3.200   6.774E-03
    3.300   7.240E-03
    3.400   7.726E-03
    3.500   8.232E-03
    3.600   8.758E-03
    3.700   9.305E-03
    3.800   9.874E-03
    3.900   1.046E-02
    4.000   1.108E-02
    4.100   1.172E-02
    4.200   1.238E-02
    4.300   1.306E-02
    4.400   1.378E-02
    4.500   1.452E-02
    4.600   1.528E-02
    4.700   1.608E-02
    4.800   1.690E-02
    4.900   1.776E-02
    5.000   1.865E-02
    5.100   1.957E-02
    5.200   2.052E-02
    5.300   2.151E-02
    5.400   2.254E-02
    5.500   2.361E-02
    5.600   2.472E-02
    5.700   2.586E-02
    5.800   2.706E-02
    5.900   2.829E-02
    6.000   2.958E-02
    6.100   3.091E-02
    6.200   3.230E-02
    6.300   3.374E-02
    6.400   3.524E-02
    6.500   3.679E-02
    6.600   3.841E-02
    6.700   4.010E-02
    6.800   4.185E-02
    6.900   4.367E-02
    7.000   4.557E-02
    7.100   4.755E-02
    7.200   4.961E-02
    7.300   5.177E-02
    7.400   5.401E-02
    7.500   5.635E-02
    7.600   5.880E-02
    7.700   6.136E-02
    7.800   6.403E-02
    7.900   6.683E-02
    8.000   6.976E-02
    8.100   7.282E-02
    8.200   7.604E-02
    8.300   7.941E-02
    8.400   8.295E-02
    8.500   8.667E-02
    8.600   9.058E-02
    8.700   9.469E-02
    8.800   9.902E-02
    8.900   1.036E-01
    9.000   1.084E-01
    9.100   1.135E-01
    9.200   1.188E-01
    9.300   1.245E-01
    9.400   1.305E-01
    9.500   1.369E-01
    9.600   1.436E-01
    9.700   1.507E-01
    9.800   1.583E-01
    9.900   1.663E-01
   10.000   1.749E-01
   10.100   1.839E-01
   10.200   1.935E-01
   10.300   2.037E-01
   10.400   2.145E-01
   10.500   2.260E-01
   10.600   2.381E-01
   10.700   2.509E-01
   10.800   2.644E-01
   10.900   2.786E-01
   11.000   2.936E-01
   11.100   3.094E-01
   11.200   3.260E-01
   11.300   3.435E-01
   11.400   3.619E-01
   11.500   3.812E-01
   11.600   4.017E-01
   11.700   4.232E-01
   11.800   4.460E-01
   11.900   4.701E-01
   12.000   4.955E-01
   12.100   5.223E-01
   12.200   5.505E-01
   12.300   5.800E-01
   12.400   6.108E-01
   12.500   6.426E-01
   12.600   6.754E-01
   12.700   7.088E-01
   12.800   7.425E-01
   12.900   7.763E-01
   13.000   8.100E-01
   13.100   8.431E-01
   13.200   8.756E-01
   13.300   9.071E-01
   13.400   9.375E-01
   13.500   9.668E-01
   13.600   9.949E-01
   13.700   1.022E+00
   13.800   1.048E+00
   13.900   1.073E+00
   14.000   1.098E+00
   14.100   1.123E+00
   14.200   1.148E+00
   14.300   1.174E+00
   14.400   1.201E+00
   14.500   1.230E+00
   14.600   1.261E+00
   14.700   1.293E+00
   14.800   1.327E+00
   14.900   1.363E+00
   15.000   1.399E+00
   15.100   1.436E+00
   15.200   1.472E+00
   15.300   1.507E+00
   15.400   1.539E+00
   15.500   1.567E+00
   15.600   1.591E+00
   15.700   1.610E+00
   15.800   1.621E+00
   15.900   1.626E+00
   16.000   1.624E+00
   16.100   1.615E+00
   16.200   1.600E+00
   16.300   1.580E+00
   16.400   1.555E+00
   16.500   1.527E+00
   16.600   1.497E+00
   16.700   1.465E+00
   16.800   1.433E+00
   16.900   1.402E+00
   17.000   1.372E+00
   17.100   1.343E+00
   17.200   1.317E+00
   17.300   1.293E+00
   17.400   1.271E+00
   17.500   1.251E+00
   17.600   1.234E+00
   17.700   1.219E+00
   17.800   1.206E+00
   17.900   1.195E+00
   18.000   1.185E+00
   18.100   1.178E+00
   18.200   1.171E+00
   18.300   1.166E+00
   18.400   1.162E+00
   18.500   1.159E+00
   18.600   1.157E+00
   18.700   1.156E+00
   18.800   1.155E+00
   18.900   1.155E+00
   19.000   1.155E+00
   19.100   1.155E+00
   19.200   1.155E+00
   19.300   1.155E+00
   19.400   1.154E+00
   19.500   1.153E+00
   19.600   1.150E+00
   19.700   1.147E+00
   19.800   1.143E+00
   19.900   1.139E+00
   20.000   1.134E+00
   20.100   1.128E+00
   20.200   1.122E+00
   20.300   1.116E+00
   20.400   1.109E+00
   20.500   1.103E+00
   20.600   1.098E+00
   20.700   1.093E+00
   20.800   1.088E+00
   20.900   1.083E+00
   21.000   1.079E+00
   21.100   1.076E+00
   21.200   1.073E+00
   21.300   1.070E+00
   21.400   1.067E+00
   21.500   1.065E+00
   21.600   1.063E+00
   21.700   1.060E+00
   21.800   1.058E+00
   21.900   1.055E+00
   22.000   1.052E+00
   22.100   1.049E+00
   22.200   1.045E+00
   22.300   1.040E+00
   22.400   1.035E+00
   22.500   1.029E+00
   22.600   1.021E+00
   22.700   1.013E+00
   22.800   1.004E+00
   22.900   9.945E-01
   23.000   9.838E-01
   23.100   9.724E-01
   23.200   9.603E-01
   23.300   9.475E-01
   23.400   9.342E-01
   23.500   9.205E-01
   23.600   9.064E-01
   23.700   8.921E-01
   23.800   8.776E-01
   23.900   8.629E-01
   24.000   8.483E-01
   24.100   8.337E-01
   24.200   8.192E-01
   24.300   8.049E-01
   24.400   7.908E-01
   24.500   7.770E-01
   24.600   7.635E-01
   24.700   7.503E-01
   24.800   7.375E-01
   24.900   7.251E-01
   25.000   7.130E-01
   25.100   7.014E-01
   25.200   6.901E-01
   25.300   6.792E-01
   25.400   6.687E-01
   25.500   6.585E-01
   25.600   6.487E-01
   25.700   6.392E-01
   25.800   6.300E-01
   25.900   6.211E-01
   26.000   6.125E-01
   26.100   6.042E-01
   26.200   5.961E-01
   26.300   5.882E-01
   26.400   5.805E-01
   26.500   5.731E-01
   26.600   5.658E-01
   26.700   5.586E-01
   26.800   5.517E-01
   26.900   5.448E-01
   27.000   5.381E-01
   27.100   5.315E-01
   27.200   5.250E-01
   27.300   5.186E-01
   27.400   5.123E-01
   27.500   5.060E-01
   27.600   4.998E-01
   27.700   4.937E-01
   27.800   4.877E-01
   27.900   4.818E-01
   28.000   4.759E-01
   28.100   4.701E-01
   28.200   4.644E-01
   28.300   4.589E-01
   28.400   4.534E-01
   28.500   4.480E-01
   28.600   4.427E-01
   28.700   4.375E-01
   28.800   4.324E-01
   28.900   4.275E-01
   29.000   4.226E-01
   29.100   4.179E-01
   29.200   4.133E-01
   29.300   4.088E-01
   29.400   4.045E-01
   29.500   4.002E-01
   29.600   3.960E-01
   29.700   3.920E-01
   29.800   3.880E-01
   29.900   3.841E-01
   30.000   3.803E-01
 
 Z=  13 A=  28 Al
  U[MeV]  fE1[mb/MeV]
    0.100   6.090E-06
    0.200   2.436E-05
    0.300   5.484E-05
    0.400   9.754E-05
    0.500   1.525E-04
    0.600   2.198E-04
    0.700   2.994E-04
    0.800   3.915E-04
    0.900   4.960E-04
    1.000   6.132E-04
    1.100   7.430E-04
    1.200   8.857E-04
    1.300   1.041E-03
    1.400   1.210E-03
    1.500   1.392E-03
    1.600   1.587E-03
    1.700   1.795E-03
    1.800   2.018E-03
    1.900   2.254E-03
    2.000   2.505E-03
    2.100   2.769E-03
    2.200   3.048E-03
    2.300   3.342E-03
    2.400   3.652E-03
    2.500   3.976E-03
    2.600   4.316E-03
    2.700   4.672E-03
    2.800   5.044E-03
    2.900   5.433E-03
    3.000   5.839E-03
    3.100   6.262E-03
    3.200   6.703E-03
    3.300   7.162E-03
    3.400   7.640E-03
    3.500   8.137E-03
    3.600   8.653E-03
    3.700   9.190E-03
    3.800   9.747E-03
    3.900   1.033E-02
    4.000   1.093E-02
    4.100   1.155E-02
    4.200   1.220E-02
    4.300   1.286E-02
    4.400   1.356E-02
    4.500   1.428E-02
    4.600   1.502E-02
    4.700   1.580E-02
    4.800   1.660E-02
    4.900   1.743E-02
    5.000   1.829E-02
    5.100   1.918E-02
    5.200   2.010E-02
    5.300   2.106E-02
    5.400   2.205E-02
    5.500   2.307E-02
    5.600   2.413E-02
    5.700   2.524E-02
    5.800   2.638E-02
    5.900   2.756E-02
    6.000   2.879E-02
    6.100   3.006E-02
    6.200   3.137E-02
    6.300   3.274E-02
    6.400   3.416E-02
    6.500   3.563E-02
    6.600   3.716E-02
    6.700   3.875E-02
    6.800   4.039E-02
    6.900   4.210E-02
    7.000   4.388E-02
    7.100   4.573E-02
    7.200   4.765E-02
    7.300   4.965E-02
    7.400   5.174E-02
    7.500   5.390E-02
    7.600   5.616E-02
    7.700   5.852E-02
    7.800   6.097E-02
    7.900   6.353E-02
    8.000   6.621E-02
    8.100   6.900E-02
    8.200   7.191E-02
    8.300   7.496E-02
    8.400   7.816E-02
    8.500   8.150E-02
    8.600   8.499E-02
    8.700   8.866E-02
    8.800   9.251E-02
    8.900   9.654E-02
    9.000   1.008E-01
    9.100   1.052E-01
    9.200   1.099E-01
    9.300   1.148E-01
    9.400   1.200E-01
    9.500   1.254E-01
    9.600   1.311E-01
    9.700   1.371E-01
    9.800   1.434E-01
    9.900   1.500E-01
   10.000   1.569E-01
   10.100   1.642E-01
   10.200   1.718E-01
   10.300   1.797E-01
   10.400   1.880E-01
   10.500   1.966E-01
   10.600   2.056E-01
   10.700   2.149E-01
   10.800   2.245E-01
   10.900   2.344E-01
   11.000   2.446E-01
   11.100   2.552E-01
   11.200   2.661E-01
   11.300   2.775E-01
   11.400   2.892E-01
   11.500   3.013E-01
   11.600   3.140E-01
   11.700   3.272E-01
   11.800   3.411E-01
   11.900   3.556E-01
   12.000   3.708E-01
   12.100   3.869E-01
   12.200   4.038E-01
   12.300   4.217E-01
   12.400   4.406E-01
   12.500   4.606E-01
   12.600   4.816E-01
   12.700   5.039E-01
   12.800   5.273E-01
   12.900   5.520E-01
   13.000   5.780E-01
   13.100   6.052E-01
   13.200   6.338E-01
   13.300   6.636E-01
   13.400   6.946E-01
   13.500   7.268E-01
   13.600   7.599E-01
   13.700   7.940E-01
   13.800   8.289E-01
   13.900   8.644E-01
   14.000   9.003E-01
   14.100   9.364E-01
   14.200   9.726E-01
   14.300   1.009E+00
   14.400   1.045E+00
   14.500   1.080E+00
   14.600   1.115E+00
   14.700   1.149E+00
   14.800   1.182E+00
   14.900   1.215E+00
   15.000   1.247E+00
   15.100   1.278E+00
   15.200   1.308E+00
   15.300   1.338E+00
   15.400   1.367E+00
   15.500   1.396E+00
   15.600   1.425E+00
   15.700   1.453E+00
   15.800   1.481E+00
   15.900   1.508E+00
   16.000   1.533E+00
   16.100   1.558E+00
   16.200   1.580E+00
   16.300   1.600E+00
   16.400   1.616E+00
   16.500   1.630E+00
   16.600   1.641E+00
   16.700   1.648E+00
   16.800   1.652E+00
   16.900   1.654E+00
   17.000   1.652E+00
   17.100   1.648E+00
   17.200   1.642E+00
   17.300   1.635E+00
   17.400   1.626E+00
   17.500   1.615E+00
   17.600   1.604E+00
   17.700   1.592E+00
   17.800   1.579E+00
   17.900   1.565E+00
   18.000   1.551E+00
   18.100   1.537E+00
   18.200   1.522E+00
   18.300   1.508E+00
   18.400   1.494E+00
   18.500   1.480E+00
   18.600   1.466E+00
   18.700   1.454E+00
   18.800   1.442E+00
   18.900   1.431E+00
   19.000   1.420E+00
   19.100   1.411E+00
   19.200   1.403E+00
   19.300   1.395E+00
   19.400   1.389E+00
   19.500   1.383E+00
   19.600   1.378E+00
   19.700   1.374E+00
   19.800   1.370E+00
   19.900   1.367E+00
   20.000   1.364E+00
   20.100   1.361E+00
   20.200   1.359E+00
   20.300   1.357E+00
   20.400   1.355E+00
   20.500   1.352E+00
   20.600   1.349E+00
   20.700   1.345E+00
   20.800   1.340E+00
   20.900   1.335E+00
   21.000   1.328E+00
   21.100   1.320E+00
   21.200   1.310E+00
   21.300   1.300E+00
   21.400   1.288E+00
   21.500   1.276E+00
   21.600   1.262E+00
   21.700   1.248E+00
   21.800   1.233E+00
   21.900   1.218E+00
   22.000   1.202E+00
   22.100   1.186E+00
   22.200   1.171E+00
   22.300   1.156E+00
   22.400   1.140E+00
   22.500   1.125E+00
   22.600   1.111E+00
   22.700   1.097E+00
   22.800   1.083E+00
   22.900   1.070E+00
   23.000   1.057E+00
   23.100   1.045E+00
   23.200   1.032E+00
   23.300   1.020E+00
   23.400   1.009E+00
   23.500   9.968E-01
   23.600   9.850E-01
   23.700   9.731E-01
   23.800   9.610E-01
   23.900   9.487E-01
   24.000   9.361E-01
   24.100   9.231E-01
   24.200   9.099E-01
   24.300   8.964E-01
   24.400   8.827E-01
   24.500   8.688E-01
   24.600   8.548E-01
   24.700   8.407E-01
   24.800   8.267E-01
   24.900   8.127E-01
   25.000   7.988E-01
   25.100   7.851E-01
   25.200   7.716E-01
   25.300   7.583E-01
   25.400   7.452E-01
   25.500   7.324E-01
   25.600   7.197E-01
   25.700   7.074E-01
   25.800   6.953E-01
   25.900   6.834E-01
   26.000   6.718E-01
   26.100   6.605E-01
   26.200   6.495E-01
   26.300   6.387E-01
   26.400   6.283E-01
   26.500   6.181E-01
   26.600   6.082E-01
   26.700   5.986E-01
   26.800   5.892E-01
   26.900   5.801E-01
   27.000   5.712E-01
   27.100   5.625E-01
   27.200   5.541E-01
   27.300   5.459E-01
   27.400   5.379E-01
   27.500   5.301E-01
   27.600   5.226E-01
   27.700   5.151E-01
   27.800   5.079E-01
   27.900   5.008E-01
   28.000   4.939E-01
   28.100   4.871E-01
   28.200   4.805E-01
   28.300   4.740E-01
   28.400   4.677E-01
   28.500   4.615E-01
   28.600   4.554E-01
   28.700   4.495E-01
   28.800   4.437E-01
   28.900   4.381E-01
   29.000   4.327E-01
   29.100   4.273E-01
   29.200   4.222E-01
   29.300   4.172E-01
   29.400   4.123E-01
   29.500   4.076E-01
   29.600   4.030E-01
   29.700   3.986E-01
   29.800   3.943E-01
   29.900   3.902E-01
   30.000   3.861E-01
 
 Z=  13 A=  29 Al
  U[MeV]  fE1[mb/MeV]
    0.100   6.287E-06
    0.200   2.515E-05
    0.300   5.662E-05
    0.400   1.007E-04
    0.500   1.574E-04
    0.600   2.269E-04
    0.700   3.091E-04
    0.800   4.041E-04
    0.900   5.121E-04
    1.000   6.330E-04
    1.100   7.671E-04
    1.200   9.144E-04
    1.300   1.075E-03
    1.400   1.249E-03
    1.500   1.437E-03
    1.600   1.638E-03
    1.700   1.854E-03
    1.800   2.083E-03
    1.900   2.327E-03
    2.000   2.586E-03
    2.100   2.859E-03
    2.200   3.147E-03
    2.300   3.451E-03
    2.400   3.770E-03
    2.500   4.105E-03
    2.600   4.456E-03
    2.700   4.824E-03
    2.800   5.209E-03
    2.900   5.610E-03
    3.000   6.029E-03
    3.100   6.466E-03
    3.200   6.922E-03
    3.300   7.396E-03
    3.400   7.890E-03
    3.500   8.403E-03
    3.600   8.937E-03
    3.700   9.491E-03
    3.800   1.007E-02
    3.900   1.066E-02
    4.000   1.128E-02
    4.100   1.193E-02
    4.200   1.260E-02
    4.300   1.329E-02
    4.400   1.401E-02
    4.500   1.475E-02
    4.600   1.552E-02
    4.700   1.632E-02
    4.800   1.715E-02
    4.900   1.800E-02
    5.000   1.889E-02
    5.100   1.981E-02
    5.200   2.077E-02
    5.300   2.175E-02
    5.400   2.278E-02
    5.500   2.384E-02
    5.600   2.494E-02
    5.700   2.608E-02
    5.800   2.726E-02
    5.900   2.848E-02
    6.000   2.975E-02
    6.100   3.106E-02
    6.200   3.243E-02
    6.300   3.384E-02
    6.400   3.531E-02
    6.500   3.683E-02
    6.600   3.842E-02
    6.700   4.006E-02
    6.800   4.176E-02
    6.900   4.354E-02
    7.000   4.538E-02
    7.100   4.729E-02
    7.200   4.928E-02
    7.300   5.136E-02
    7.400   5.352E-02
    7.500   5.576E-02
    7.600   5.810E-02
    7.700   6.055E-02
    7.800   6.309E-02
    7.900   6.575E-02
    8.000   6.852E-02
    8.100   7.142E-02
    8.200   7.445E-02
    8.300   7.761E-02
    8.400   8.093E-02
    8.500   8.440E-02
    8.600   8.804E-02
    8.700   9.185E-02
    8.800   9.585E-02
    8.900   1.000E-01
    9.000   1.044E-01
    9.100   1.091E-01
    9.200   1.139E-01
    9.300   1.191E-01
    9.400   1.244E-01
    9.500   1.301E-01
    9.600   1.360E-01
    9.700   1.423E-01
    9.800   1.488E-01
    9.900   1.557E-01
   10.000   1.629E-01
   10.100   1.705E-01
   10.200   1.784E-01
   10.300   1.866E-01
   10.400   1.952E-01
   10.500   2.041E-01
   10.600   2.132E-01
   10.700   2.227E-01
   10.800   2.324E-01
   10.900   2.423E-01
   11.000   2.525E-01
   11.100   2.629E-01
   11.200   2.734E-01
   11.300   2.842E-01
   11.400   2.952E-01
   11.500   3.065E-01
   11.600   3.181E-01
   11.700   3.301E-01
   11.800   3.425E-01
   11.900   3.554E-01
   12.000   3.689E-01
   12.100   3.830E-01
   12.200   3.978E-01
   12.300   4.134E-01
   12.400   4.298E-01
   12.500   4.472E-01
   12.600   4.654E-01
   12.700   4.847E-01
   12.800   5.051E-01
   12.900   5.267E-01
   13.000   5.495E-01
   13.100   5.735E-01
   13.200   5.990E-01
   13.300   6.259E-01
   13.400   6.542E-01
   13.500   6.839E-01
   13.600   7.151E-01
   13.700   7.477E-01
   13.800   7.816E-01
   13.900   8.166E-01
   14.000   8.527E-01
   14.100   8.895E-01
   14.200   9.269E-01
   14.300   9.647E-01
   14.400   1.003E+00
   14.500   1.040E+00
   14.600   1.078E+00
   14.700   1.115E+00
   14.800   1.152E+00
   14.900   1.189E+00
   15.000   1.224E+00
   15.100   1.260E+00
   15.200   1.295E+00
   15.300   1.329E+00
   15.400   1.363E+00
   15.500   1.397E+00
   15.600   1.430E+00
   15.700   1.463E+00
   15.800   1.495E+00
   15.900   1.527E+00
   16.000   1.559E+00
   16.100   1.590E+00
   16.200   1.621E+00
   16.300   1.650E+00
   16.400   1.678E+00
   16.500   1.705E+00
   16.600   1.730E+00
   16.700   1.752E+00
   16.800   1.771E+00
   16.900   1.787E+00
   17.000   1.799E+00
   17.100   1.808E+00
   17.200   1.813E+00
   17.300   1.814E+00
   17.400   1.813E+00
   17.500   1.809E+00
   17.600   1.803E+00
   17.700   1.795E+00
   17.800   1.786E+00
   17.900   1.775E+00
   18.000   1.764E+00
   18.100   1.753E+00
   18.200   1.741E+00
   18.300   1.728E+00
   18.400   1.716E+00
   18.500   1.703E+00
   18.600   1.689E+00
   18.700   1.676E+00
   18.800   1.662E+00
   18.900   1.647E+00
   19.000   1.633E+00
   19.100   1.619E+00
   19.200   1.604E+00
   19.300   1.590E+00
   19.400   1.577E+00
   19.500   1.563E+00
   19.600   1.550E+00
   19.700   1.538E+00
   19.800   1.526E+00
   19.900   1.514E+00
   20.000   1.503E+00
   20.100   1.493E+00
   20.200   1.483E+00
   20.300   1.473E+00
   20.400   1.463E+00
   20.500   1.454E+00
   20.600   1.445E+00
   20.700   1.436E+00
   20.800   1.427E+00
   20.900   1.418E+00
   21.000   1.409E+00
   21.100   1.400E+00
   21.200   1.391E+00
   21.300   1.381E+00
   21.400   1.371E+00
   21.500   1.361E+00
   21.600   1.350E+00
   21.700   1.339E+00
   21.800   1.327E+00
   21.900   1.314E+00
   22.000   1.301E+00
   22.100   1.287E+00
   22.200   1.272E+00
   22.300   1.256E+00
   22.400   1.240E+00
   22.500   1.222E+00
   22.600   1.204E+00
   22.700   1.185E+00
   22.800   1.166E+00
   22.900   1.146E+00
   23.000   1.126E+00
   23.100   1.106E+00
   23.200   1.086E+00
   23.300   1.067E+00
   23.400   1.048E+00
   23.500   1.029E+00
   23.600   1.011E+00
   23.700   9.941E-01
   23.800   9.775E-01
   23.900   9.616E-01
   24.000   9.464E-01
   24.100   9.319E-01
   24.200   9.180E-01
   24.300   9.047E-01
   24.400   8.918E-01
   24.500   8.793E-01
   24.600   8.671E-01
   24.700   8.552E-01
   24.800   8.434E-01
   24.900   8.318E-01
   25.000   8.202E-01
   25.100   8.086E-01
   25.200   7.971E-01
   25.300   7.857E-01
   25.400   7.743E-01
   25.500   7.630E-01
   25.600   7.518E-01
   25.700   7.408E-01
   25.800   7.299E-01
   25.900   7.192E-01
   26.000   7.087E-01
   26.100   6.983E-01
   26.200   6.880E-01
   26.300   6.779E-01
   26.400   6.680E-01
   26.500   6.581E-01
   26.600   6.482E-01
   26.700   6.385E-01
   26.800   6.288E-01
   26.900   6.191E-01
   27.000   6.094E-01
   27.100   5.998E-01
   27.200   5.903E-01
   27.300   5.808E-01
   27.400   5.713E-01
   27.500   5.620E-01
   27.600   5.527E-01
   27.700   5.436E-01
   27.800   5.346E-01
   27.900   5.257E-01
   28.000   5.171E-01
   28.100   5.086E-01
   28.200   5.003E-01
   28.300   4.922E-01
   28.400   4.843E-01
   28.500   4.766E-01
   28.600   4.692E-01
   28.700   4.620E-01
   28.800   4.550E-01
   28.900   4.482E-01
   29.000   4.417E-01
   29.100   4.354E-01
   29.200   4.293E-01
   29.300   4.234E-01
   29.400   4.177E-01
   29.500   4.122E-01
   29.600   4.068E-01
   29.700   4.016E-01
   29.800   3.966E-01
   29.900   3.917E-01
   30.000   3.870E-01
 
 Z=  13 A=  30 Al
  U[MeV]  fE1[mb/MeV]
    0.100   6.843E-06
    0.200   2.738E-05
    0.300   6.162E-05
    0.400   1.096E-04
    0.500   1.714E-04
    0.600   2.470E-04
    0.700   3.365E-04
    0.800   4.399E-04
    0.900   5.575E-04
    1.000   6.891E-04
    1.100   8.351E-04
    1.200   9.955E-04
    1.300   1.170E-03
    1.400   1.360E-03
    1.500   1.565E-03
    1.600   1.784E-03
    1.700   2.019E-03
    1.800   2.269E-03
    1.900   2.535E-03
    2.000   2.817E-03
    2.100   3.115E-03
    2.200   3.429E-03
    2.300   3.761E-03
    2.400   4.109E-03
    2.500   4.474E-03
    2.600   4.858E-03
    2.700   5.259E-03
    2.800   5.679E-03
    2.900   6.118E-03
    3.000   6.576E-03
    3.100   7.054E-03
    3.200   7.551E-03
    3.300   8.070E-03
    3.400   8.610E-03
    3.500   9.172E-03
    3.600   9.756E-03
    3.700   1.036E-02
    3.800   1.099E-02
    3.900   1.165E-02
    4.000   1.233E-02
    4.100   1.303E-02
    4.200   1.377E-02
    4.300   1.453E-02
    4.400   1.532E-02
    4.500   1.613E-02
    4.600   1.698E-02
    4.700   1.786E-02
    4.800   1.877E-02
    4.900   1.971E-02
    5.000   2.069E-02
    5.100   2.171E-02
    5.200   2.276E-02
    5.300   2.385E-02
    5.400   2.498E-02
    5.500   2.615E-02
    5.600   2.737E-02
    5.700   2.863E-02
    5.800   2.993E-02
    5.900   3.129E-02
    6.000   3.270E-02
    6.100   3.416E-02
    6.200   3.567E-02
    6.300   3.724E-02
    6.400   3.888E-02
    6.500   4.057E-02
    6.600   4.234E-02
    6.700   4.417E-02
    6.800   4.608E-02
    6.900   4.806E-02
    7.000   5.012E-02
    7.100   5.227E-02
    7.200   5.450E-02
    7.300   5.683E-02
    7.400   5.926E-02
    7.500   6.179E-02
    7.600   6.443E-02
    7.700   6.719E-02
    7.800   7.007E-02
    7.900   7.308E-02
    8.000   7.623E-02
    8.100   7.953E-02
    8.200   8.298E-02
    8.300   8.659E-02
    8.400   9.038E-02
    8.500   9.436E-02
    8.600   9.853E-02
    8.700   1.029E-01
    8.800   1.075E-01
    8.900   1.124E-01
    9.000   1.175E-01
    9.100   1.228E-01
    9.200   1.285E-01
    9.300   1.345E-01
    9.400   1.407E-01
    9.500   1.473E-01
    9.600   1.543E-01
    9.700   1.616E-01
    9.800   1.693E-01
    9.900   1.774E-01
   10.000   1.859E-01
   10.100   1.948E-01
   10.200   2.041E-01
   10.300   2.138E-01
   10.400   2.238E-01
   10.500   2.342E-01
   10.600   2.449E-01
   10.700   2.559E-01
   10.800   2.671E-01
   10.900   2.785E-01
   11.000   2.902E-01
   11.100   3.020E-01
   11.200   3.139E-01
   11.300   3.261E-01
   11.400   3.385E-01
   11.500   3.511E-01
   11.600   3.639E-01
   11.700   3.772E-01
   11.800   3.909E-01
   11.900   4.050E-01
   12.000   4.198E-01
   12.100   4.352E-01
   12.200   4.514E-01
   12.300   4.684E-01
   12.400   4.864E-01
   12.500   5.054E-01
   12.600   5.256E-01
   12.700   5.470E-01
   12.800   5.698E-01
   12.900   5.941E-01
   13.000   6.199E-01
   13.100   6.474E-01
   13.200   6.765E-01
   13.300   7.074E-01
   13.400   7.401E-01
   13.500   7.746E-01
   13.600   8.108E-01
   13.700   8.486E-01
   13.800   8.879E-01
   13.900   9.285E-01
   14.000   9.702E-01
   14.100   1.013E+00
   14.200   1.056E+00
   14.300   1.099E+00
   14.400   1.142E+00
   14.500   1.185E+00
   14.600   1.228E+00
   14.700   1.270E+00
   14.800   1.312E+00
   14.900   1.354E+00
   15.000   1.395E+00
   15.100   1.436E+00
   15.200   1.477E+00
   15.300   1.519E+00
   15.400   1.560E+00
   15.500   1.602E+00
   15.600   1.643E+00
   15.700   1.684E+00
   15.800   1.724E+00
   15.900   1.763E+00
   16.000   1.800E+00
   16.100   1.834E+00
   16.200   1.865E+00
   16.300   1.892E+00
   16.400   1.914E+00
   16.500   1.932E+00
   16.600   1.945E+00
   16.700   1.953E+00
   16.800   1.956E+00
   16.900   1.955E+00
   17.000   1.950E+00
   17.100   1.942E+00
   17.200   1.931E+00
   17.300   1.919E+00
   17.400   1.906E+00
   17.500   1.893E+00
   17.600   1.879E+00
   17.700   1.866E+00
   17.800   1.853E+00
   17.900   1.842E+00
   18.000   1.831E+00
   18.100   1.820E+00
   18.200   1.811E+00
   18.300   1.801E+00
   18.400   1.792E+00
   18.500   1.783E+00
   18.600   1.774E+00
   18.700   1.764E+00
   18.800   1.755E+00
   18.900   1.746E+00
   19.000   1.736E+00
   19.100   1.727E+00
   19.200   1.717E+00
   19.300   1.708E+00
   19.400   1.698E+00
   19.500   1.688E+00
   19.600   1.679E+00
   19.700   1.668E+00
   19.800   1.658E+00
   19.900   1.647E+00
   20.000   1.636E+00
   20.100   1.624E+00
   20.200   1.612E+00
   20.300   1.600E+00
   20.400   1.587E+00
   20.500   1.574E+00
   20.600   1.561E+00
   20.700   1.547E+00
   20.800   1.533E+00
   20.900   1.519E+00
   21.000   1.505E+00
   21.100   1.490E+00
   21.200   1.476E+00
   21.300   1.460E+00
   21.400   1.445E+00
   21.500   1.428E+00
   21.600   1.412E+00
   21.700   1.395E+00
   21.800   1.377E+00
   21.900   1.359E+00
   22.000   1.340E+00
   22.100   1.321E+00
   22.200   1.302E+00
   22.300   1.282E+00
   22.400   1.263E+00
   22.500   1.243E+00
   22.600   1.223E+00
   22.700   1.204E+00
   22.800   1.184E+00
   22.900   1.165E+00
   23.000   1.146E+00
   23.100   1.127E+00
   23.200   1.109E+00
   23.300   1.090E+00
   23.400   1.072E+00
   23.500   1.055E+00
   23.600   1.038E+00
   23.700   1.021E+00
   23.800   1.004E+00
   23.900   9.886E-01
   24.000   9.732E-01
   24.100   9.582E-01
   24.200   9.437E-01
   24.300   9.296E-01
   24.400   9.159E-01
   24.500   9.025E-01
   24.600   8.895E-01
   24.700   8.766E-01
   24.800   8.639E-01
   24.900   8.514E-01
   25.000   8.390E-01
   25.100   8.267E-01
   25.200   8.145E-01
   25.300   8.023E-01
   25.400   7.902E-01
   25.500   7.781E-01
   25.600   7.662E-01
   25.700   7.543E-01
   25.800   7.424E-01
   25.900   7.307E-01
   26.000   7.190E-01
   26.100   7.074E-01
   26.200   6.959E-01
   26.300   6.845E-01
   26.400   6.732E-01
   26.500   6.619E-01
   26.600   6.509E-01
   26.700   6.399E-01
   26.800   6.291E-01
   26.900   6.185E-01
   27.000   6.081E-01
   27.100   5.978E-01
   27.200   5.878E-01
   27.300   5.780E-01
   27.400   5.684E-01
   27.500   5.590E-01
   27.600   5.498E-01
   27.700   5.409E-01
   27.800   5.321E-01
   27.900   5.236E-01
   28.000   5.154E-01
   28.100   5.073E-01
   28.200   4.995E-01
   28.300   4.919E-01
   28.400   4.845E-01
   28.500   4.773E-01
   28.600   4.704E-01
   28.700   4.636E-01
   28.800   4.571E-01
   28.900   4.508E-01
   29.000   4.447E-01
   29.100   4.388E-01
   29.200   4.331E-01
   29.300   4.276E-01
   29.400   4.223E-01
   29.500   4.171E-01
   29.600   4.120E-01
   29.700   4.071E-01
   29.800   4.024E-01
   29.900   3.977E-01
   30.000   3.931E-01
 
 Z=  13 A=  31 Al
  U[MeV]  fE1[mb/MeV]
    0.100   8.855E-06
    0.200   3.543E-05
    0.300   7.974E-05
    0.400   1.419E-04
    0.500   2.218E-04
    0.600   3.197E-04
    0.700   4.356E-04
    0.800   5.697E-04
    0.900   7.221E-04
    1.000   8.929E-04
    1.100   1.082E-03
    1.200   1.291E-03
    1.300   1.518E-03
    1.400   1.765E-03
    1.500   2.031E-03
    1.600   2.317E-03
    1.700   2.623E-03
    1.800   2.949E-03
    1.900   3.297E-03
    2.000   3.665E-03
    2.100   4.056E-03
    2.200   4.468E-03
    2.300   4.903E-03
    2.400   5.360E-03
    2.500   5.842E-03
    2.600   6.347E-03
    2.700   6.877E-03
    2.800   7.433E-03
    2.900   8.014E-03
    3.000   8.622E-03
    3.100   9.257E-03
    3.200   9.921E-03
    3.300   1.061E-02
    3.400   1.134E-02
    3.500   1.209E-02
    3.600   1.288E-02
    3.700   1.369E-02
    3.800   1.455E-02
    3.900   1.544E-02
    4.000   1.636E-02
    4.100   1.732E-02
    4.200   1.832E-02
    4.300   1.937E-02
    4.400   2.045E-02
    4.500   2.158E-02
    4.600   2.276E-02
    4.700   2.398E-02
    4.800   2.525E-02
    4.900   2.658E-02
    5.000   2.796E-02
    5.100   2.939E-02
    5.200   3.089E-02
    5.300   3.245E-02
    5.400   3.407E-02
    5.500   3.577E-02
    5.600   3.753E-02
    5.700   3.937E-02
    5.800   4.129E-02
    5.900   4.330E-02
    6.000   4.539E-02
    6.100   4.757E-02
    6.200   4.986E-02
    6.300   5.224E-02
    6.400   5.474E-02
    6.500   5.735E-02
    6.600   6.009E-02
    6.700   6.295E-02
    6.800   6.595E-02
    6.900   6.909E-02
    7.000   7.239E-02
    7.100   7.584E-02
    7.200   7.946E-02
    7.300   8.326E-02
    7.400   8.724E-02
    7.500   9.141E-02
    7.600   9.579E-02
    7.700   1.004E-01
    7.800   1.052E-01
    7.900   1.102E-01
    8.000   1.154E-01
    8.100   1.209E-01
    8.200   1.266E-01
    8.300   1.326E-01
    8.400   1.388E-01
    8.500   1.453E-01
    8.600   1.519E-01
    8.700   1.589E-01
    8.800   1.660E-01
    8.900   1.733E-01
    9.000   1.809E-01
    9.100   1.886E-01
    9.200   1.965E-01
    9.300   2.045E-01
    9.400   2.126E-01
    9.500   2.209E-01
    9.600   2.293E-01
    9.700   2.378E-01
    9.800   2.464E-01
    9.900   2.553E-01
   10.000   2.643E-01
   10.100   2.735E-01
   10.200   2.830E-01
   10.300   2.928E-01
   10.400   3.028E-01
   10.500   3.132E-01
   10.600   3.239E-01
   10.700   3.350E-01
   10.800   3.464E-01
   10.900   3.582E-01
   11.000   3.705E-01
   11.100   3.831E-01
   11.200   3.962E-01
   11.300   4.097E-01
   11.400   4.239E-01
   11.500   4.386E-01
   11.600   4.540E-01
   11.700   4.701E-01
   11.800   4.870E-01
   11.900   5.047E-01
   12.000   5.232E-01
   12.100   5.427E-01
   12.200   5.631E-01
   12.300   5.845E-01
   12.400   6.069E-01
   12.500   6.304E-01
   12.600   6.550E-01
   12.700   6.807E-01
   12.800   7.077E-01
   12.900   7.360E-01
   13.000   7.658E-01
   13.100   7.970E-01
   13.200   8.298E-01
   13.300   8.642E-01
   13.400   9.003E-01
   13.500   9.380E-01
   13.600   9.774E-01
   13.700   1.018E+00
   13.800   1.060E+00
   13.900   1.104E+00
   14.000   1.148E+00
   14.100   1.193E+00
   14.200   1.237E+00
   14.300   1.282E+00
   14.400   1.326E+00
   14.500   1.370E+00
   14.600   1.411E+00
   14.700   1.451E+00
   14.800   1.489E+00
   14.900   1.525E+00
   15.000   1.558E+00
   15.100   1.588E+00
   15.200   1.615E+00
   15.300   1.639E+00
   15.400   1.661E+00
   15.500   1.680E+00
   15.600   1.697E+00
   15.700   1.712E+00
   15.800   1.727E+00
   15.900   1.740E+00
   16.000   1.752E+00
   16.100   1.764E+00
   16.200   1.776E+00
   16.300   1.788E+00
   16.400   1.800E+00
   16.500   1.812E+00
   16.600   1.824E+00
   16.700   1.835E+00
   16.800   1.847E+00
   16.900   1.859E+00
   17.000   1.870E+00
   17.100   1.881E+00
   17.200   1.891E+00
   17.300   1.901E+00
   17.400   1.909E+00
   17.500   1.917E+00
   17.600   1.924E+00
   17.700   1.929E+00
   17.800   1.933E+00
   17.900   1.936E+00
   18.000   1.936E+00
   18.100   1.935E+00
   18.200   1.932E+00
   18.300   1.926E+00
   18.400   1.918E+00
   18.500   1.908E+00
   18.600   1.895E+00
   18.700   1.881E+00
   18.800   1.865E+00
   18.900   1.847E+00
   19.000   1.828E+00
   19.100   1.807E+00
   19.200   1.786E+00
   19.300   1.764E+00
   19.400   1.742E+00
   19.500   1.720E+00
   19.600   1.698E+00
   19.700   1.676E+00
   19.800   1.655E+00
   19.900   1.634E+00
   20.000   1.614E+00
   20.100   1.595E+00
   20.200   1.577E+00
   20.300   1.559E+00
   20.400   1.542E+00
   20.500   1.526E+00
   20.600   1.511E+00
   20.700   1.496E+00
   20.800   1.482E+00
   20.900   1.468E+00
   21.000   1.455E+00
   21.100   1.442E+00
   21.200   1.429E+00
   21.300   1.417E+00
   21.400   1.404E+00
   21.500   1.391E+00
   21.600   1.379E+00
   21.700   1.366E+00
   21.800   1.353E+00
   21.900   1.339E+00
   22.000   1.326E+00
   22.100   1.312E+00
   22.200   1.298E+00
   22.300   1.283E+00
   22.400   1.269E+00
   22.500   1.254E+00
   22.600   1.238E+00
   22.700   1.223E+00
   22.800   1.207E+00
   22.900   1.191E+00
   23.000   1.174E+00
   23.100   1.158E+00
   23.200   1.141E+00
   23.300   1.124E+00
   23.400   1.107E+00
   23.500   1.090E+00
   23.600   1.073E+00
   23.700   1.055E+00
   23.800   1.037E+00
   23.900   1.020E+00
   24.000   1.002E+00
   24.100   9.841E-01
   24.200   9.664E-01
   24.300   9.488E-01
   24.400   9.314E-01
   24.500   9.143E-01
   24.600   8.975E-01
   24.700   8.810E-01
   24.800   8.649E-01
   24.900   8.492E-01
   25.000   8.339E-01
   25.100   8.191E-01
   25.200   8.046E-01
   25.300   7.905E-01
   25.400   7.769E-01
   25.500   7.636E-01
   25.600   7.507E-01
   25.700   7.381E-01
   25.800   7.259E-01
   25.900   7.141E-01
   26.000   7.026E-01
   26.100   6.914E-01
   26.200   6.806E-01
   26.300   6.701E-01
   26.400   6.599E-01
   26.500   6.500E-01
   26.600   6.404E-01
   26.700   6.312E-01
   26.800   6.222E-01
   26.900   6.134E-01
   27.000   6.050E-01
   27.100   5.967E-01
   27.200   5.888E-01
   27.300   5.810E-01
   27.400   5.734E-01
   27.500   5.660E-01
   27.600   5.587E-01
   27.700   5.516E-01
   27.800   5.445E-01
   27.900   5.375E-01
   28.000   5.306E-01
   28.100   5.237E-01
   28.200   5.168E-01
   28.300   5.099E-01
   28.400   5.030E-01
   28.500   4.961E-01
   28.600   4.893E-01
   28.700   4.824E-01
   28.800   4.756E-01
   28.900   4.689E-01
   29.000   4.622E-01
   29.100   4.555E-01
   29.200   4.489E-01
   29.300   4.424E-01
   29.400   4.360E-01
   29.500   4.296E-01
   29.600   4.234E-01
   29.700   4.173E-01
   29.800   4.112E-01
   29.900   4.053E-01
   30.000   3.995E-01
 
 Z=  13 A=  32 Al
  U[MeV]  fE1[mb/MeV]
    0.100   1.024E-05
    0.200   4.098E-05
    0.300   9.225E-05
    0.400   1.641E-04
    0.500   2.566E-04
    0.600   3.699E-04
    0.700   5.041E-04
    0.800   6.593E-04
    0.900   8.357E-04
    1.000   1.034E-03
    1.100   1.253E-03
    1.200   1.494E-03
    1.300   1.758E-03
    1.400   2.044E-03
    1.500   2.352E-03
    1.600   2.684E-03
    1.700   3.040E-03
    1.800   3.419E-03
    1.900   3.823E-03
    2.000   4.251E-03
    2.100   4.705E-03
    2.200   5.184E-03
    2.300   5.691E-03
    2.400   6.224E-03
    2.500   6.785E-03
    2.600   7.374E-03
    2.700   7.993E-03
    2.800   8.642E-03
    2.900   9.321E-03
    3.000   1.003E-02
    3.100   1.078E-02
    3.200   1.155E-02
    3.300   1.237E-02
    3.400   1.321E-02
    3.500   1.410E-02
    3.600   1.502E-02
    3.700   1.599E-02
    3.800   1.699E-02
    3.900   1.804E-02
    4.000   1.913E-02
    4.100   2.026E-02
    4.200   2.145E-02
    4.300   2.268E-02
    4.400   2.396E-02
    4.500   2.530E-02
    4.600   2.670E-02
    4.700   2.815E-02
    4.800   2.966E-02
    4.900   3.123E-02
    5.000   3.287E-02
    5.100   3.458E-02
    5.200   3.636E-02
    5.300   3.822E-02
    5.400   4.015E-02
    5.500   4.217E-02
    5.600   4.427E-02
    5.700   4.647E-02
    5.800   4.875E-02
    5.900   5.114E-02
    6.000   5.362E-02
    6.100   5.622E-02
    6.200   5.892E-02
    6.300   6.175E-02
    6.400   6.469E-02
    6.500   6.777E-02
    6.600   7.097E-02
    6.700   7.432E-02
    6.800   7.781E-02
    6.900   8.145E-02
    7.000   8.525E-02
    7.100   8.921E-02
    7.200   9.333E-02
    7.300   9.762E-02
    7.400   1.021E-01
    7.500   1.067E-01
    7.600   1.116E-01
    7.700   1.166E-01
    7.800   1.218E-01
    7.900   1.272E-01
    8.000   1.328E-01
    8.100   1.385E-01
    8.200   1.445E-01
    8.300   1.507E-01
    8.400   1.570E-01
    8.500   1.635E-01
    8.600   1.702E-01
    8.700   1.770E-01
    8.800   1.841E-01
    8.900   1.912E-01
    9.000   1.985E-01
    9.100   2.060E-01
    9.200   2.136E-01
    9.300   2.214E-01
    9.400   2.293E-01
    9.500   2.373E-01
    9.600   2.456E-01
    9.700   2.539E-01
    9.800   2.624E-01
    9.900   2.712E-01
   10.000   2.801E-01
   10.100   2.892E-01
   10.200   2.985E-01
   10.300   3.081E-01
   10.400   3.179E-01
   10.500   3.281E-01
   10.600   3.385E-01
   10.700   3.493E-01
   10.800   3.604E-01
   10.900   3.719E-01
   11.000   3.838E-01
   11.100   3.961E-01
   11.200   4.089E-01
   11.300   4.222E-01
   11.400   4.359E-01
   11.500   4.501E-01
   11.600   4.648E-01
   11.700   4.801E-01
   11.800   4.959E-01
   11.900   5.122E-01
   12.000   5.290E-01
   12.100   5.464E-01
   12.200   5.644E-01
   12.300   5.828E-01
   12.400   6.019E-01
   12.500   6.215E-01
   12.600   6.417E-01
   12.700   6.624E-01
   12.800   6.838E-01
   12.900   7.057E-01
   13.000   7.283E-01
   13.100   7.515E-01
   13.200   7.753E-01
   13.300   7.998E-01
   13.400   8.251E-01
   13.500   8.510E-01
   13.600   8.776E-01
   13.700   9.049E-01
   13.800   9.330E-01
   13.900   9.618E-01
   14.000   9.914E-01
   14.100   1.022E+00
   14.200   1.053E+00
   14.300   1.084E+00
   14.400   1.116E+00
   14.500   1.149E+00
   14.600   1.183E+00
   14.700   1.216E+00
   14.800   1.251E+00
   14.900   1.285E+00
   15.000   1.320E+00
   15.100   1.355E+00
   15.200   1.390E+00
   15.300   1.425E+00
   15.400   1.460E+00
   15.500   1.494E+00
   15.600   1.529E+00
   15.700   1.563E+00
   15.800   1.597E+00
   15.900   1.630E+00
   16.000   1.662E+00
   16.100   1.694E+00
   16.200   1.725E+00
   16.300   1.755E+00
   16.400   1.784E+00
   16.500   1.812E+00
   16.600   1.839E+00
   16.700   1.865E+00
   16.800   1.889E+00
   16.900   1.912E+00
   17.000   1.934E+00
   17.100   1.954E+00
   17.200   1.972E+00
   17.300   1.988E+00
   17.400   2.003E+00
   17.500   2.016E+00
   17.600   2.028E+00
   17.700   2.037E+00
   17.800   2.045E+00
   17.900   2.051E+00
   18.000   2.056E+00
   18.100   2.059E+00
   18.200   2.061E+00
   18.300   2.062E+00
   18.400   2.062E+00
   18.500   2.060E+00
   18.600   2.057E+00
   18.700   2.054E+00
   18.800   2.049E+00
   18.900   2.043E+00
   19.000   2.036E+00
   19.100   2.027E+00
   19.200   2.018E+00
   19.300   2.008E+00
   19.400   1.996E+00
   19.500   1.983E+00
   19.600   1.970E+00
   19.700   1.955E+00
   19.800   1.939E+00
   19.900   1.922E+00
   20.000   1.905E+00
   20.100   1.887E+00
   20.200   1.869E+00
   20.300   1.850E+00
   20.400   1.831E+00
   20.500   1.812E+00
   20.600   1.793E+00
   20.700   1.774E+00
   20.800   1.754E+00
   20.900   1.735E+00
   21.000   1.716E+00
   21.100   1.697E+00
   21.200   1.678E+00
   21.300   1.659E+00
   21.400   1.639E+00
   21.500   1.620E+00
   21.600   1.600E+00
   21.700   1.581E+00
   21.800   1.561E+00
   21.900   1.541E+00
   22.000   1.521E+00
   22.100   1.500E+00
   22.200   1.480E+00
   22.300   1.459E+00
   22.400   1.438E+00
   22.500   1.416E+00
   22.600   1.395E+00
   22.700   1.374E+00
   22.800   1.352E+00
   22.900   1.331E+00
   23.000   1.309E+00
   23.100   1.288E+00
   23.200   1.266E+00
   23.300   1.245E+00
   23.400   1.224E+00
   23.500   1.203E+00
   23.600   1.182E+00
   23.700   1.162E+00
   23.800   1.142E+00
   23.900   1.122E+00
   24.000   1.103E+00
   24.100   1.084E+00
   24.200   1.066E+00
   24.300   1.048E+00
   24.400   1.030E+00
   24.500   1.012E+00
   24.600   9.954E-01
   24.700   9.787E-01
   24.800   9.623E-01
   24.900   9.462E-01
   25.000   9.303E-01
   25.100   9.146E-01
   25.200   8.991E-01
   25.300   8.837E-01
   25.400   8.685E-01
   25.500   8.533E-01
   25.600   8.383E-01
   25.700   8.233E-01
   25.800   8.085E-01
   25.900   7.937E-01
   26.000   7.790E-01
   26.100   7.645E-01
   26.200   7.502E-01
   26.300   7.360E-01
   26.400   7.221E-01
   26.500   7.084E-01
   26.600   6.950E-01
   26.700   6.818E-01
   26.800   6.691E-01
   26.900   6.566E-01
   27.000   6.446E-01
   27.100   6.329E-01
   27.200   6.216E-01
   27.300   6.106E-01
   27.400   6.001E-01
   27.500   5.899E-01
   27.600   5.801E-01
   27.700   5.706E-01
   27.800   5.614E-01
   27.900   5.526E-01
   28.000   5.440E-01
   28.100   5.357E-01
   28.200   5.276E-01
   28.300   5.197E-01
   28.400   5.120E-01
   28.500   5.044E-01
   28.600   4.969E-01
   28.700   4.896E-01
   28.800   4.823E-01
   28.900   4.752E-01
   29.000   4.681E-01
   29.100   4.610E-01
   29.200   4.541E-01
   29.300   4.472E-01
   29.400   4.404E-01
   29.500   4.337E-01
   29.600   4.270E-01
   29.700   4.205E-01
   29.800   4.142E-01
   29.900   4.079E-01
   30.000   4.018E-01
 
 Z=  13 A=  33 Al
  U[MeV]  fE1[mb/MeV]
    0.100   1.064E-05
    0.200   4.258E-05
    0.300   9.585E-05
    0.400   1.705E-04
    0.500   2.667E-04
    0.600   3.844E-04
    0.700   5.239E-04
    0.800   6.854E-04
    0.900   8.689E-04
    1.000   1.075E-03
    1.100   1.303E-03
    1.200   1.554E-03
    1.300   1.829E-03
    1.400   2.127E-03
    1.500   2.449E-03
    1.600   2.795E-03
    1.700   3.166E-03
    1.800   3.562E-03
    1.900   3.984E-03
    2.000   4.432E-03
    2.100   4.907E-03
    2.200   5.410E-03
    2.300   5.940E-03
    2.400   6.500E-03
    2.500   7.089E-03
    2.600   7.709E-03
    2.700   8.361E-03
    2.800   9.044E-03
    2.900   9.761E-03
    3.000   1.051E-02
    3.100   1.130E-02
    3.200   1.212E-02
    3.300   1.299E-02
    3.400   1.389E-02
    3.500   1.483E-02
    3.600   1.581E-02
    3.700   1.684E-02
    3.800   1.792E-02
    3.900   1.904E-02
    4.000   2.022E-02
    4.100   2.144E-02
    4.200   2.272E-02
    4.300   2.406E-02
    4.400   2.546E-02
    4.500   2.692E-02
    4.600   2.844E-02
    4.700   3.004E-02
    4.800   3.171E-02
    4.900   3.345E-02
    5.000   3.528E-02
    5.100   3.719E-02
    5.200   3.919E-02
    5.300   4.129E-02
    5.400   4.348E-02
    5.500   4.579E-02
    5.600   4.821E-02
    5.700   5.074E-02
    5.800   5.341E-02
    5.900   5.622E-02
    6.000   5.916E-02
    6.100   6.227E-02
    6.200   6.553E-02
    6.300   6.897E-02
    6.400   7.260E-02
    6.500   7.642E-02
    6.600   8.045E-02
    6.700   8.470E-02
    6.800   8.919E-02
    6.900   9.392E-02
    7.000   9.891E-02
    7.100   1.042E-01
    7.200   1.097E-01
    7.300   1.155E-01
    7.400   1.216E-01
    7.500   1.281E-01
    7.600   1.348E-01
    7.700   1.418E-01
    7.800   1.491E-01
    7.900   1.567E-01
    8.000   1.645E-01
    8.100   1.726E-01
    8.200   1.809E-01
    8.300   1.893E-01
    8.400   1.978E-01
    8.500   2.063E-01
    8.600   2.148E-01
    8.700   2.233E-01
    8.800   2.317E-01
    8.900   2.400E-01
    9.000   2.482E-01
    9.100   2.564E-01
    9.200   2.647E-01
    9.300   2.730E-01
    9.400   2.815E-01
    9.500   2.903E-01
    9.600   2.995E-01
    9.700   3.092E-01
    9.800   3.194E-01
    9.900   3.302E-01
   10.000   3.417E-01
   10.100   3.540E-01
   10.200   3.670E-01
   10.300   3.809E-01
   10.400   3.955E-01
   10.500   4.111E-01
   10.600   4.275E-01
   10.700   4.447E-01
   10.800   4.628E-01
   10.900   4.816E-01
   11.000   5.013E-01
   11.100   5.216E-01
   11.200   5.427E-01
   11.300   5.644E-01
   11.400   5.867E-01
   11.500   6.095E-01
   11.600   6.327E-01
   11.700   6.563E-01
   11.800   6.802E-01
   11.900   7.044E-01
   12.000   7.289E-01
   12.100   7.538E-01
   12.200   7.790E-01
   12.300   8.048E-01
   12.400   8.312E-01
   12.500   8.585E-01
   12.600   8.869E-01
   12.700   9.165E-01
   12.800   9.475E-01
   12.900   9.802E-01
   13.000   1.015E+00
   13.100   1.051E+00
   13.200   1.089E+00
   13.300   1.129E+00
   13.400   1.171E+00
   13.500   1.214E+00
   13.600   1.259E+00
   13.700   1.304E+00
   13.800   1.350E+00
   13.900   1.397E+00
   14.000   1.443E+00
   14.100   1.489E+00
   14.200   1.535E+00
   14.300   1.579E+00
   14.400   1.621E+00
   14.500   1.663E+00
   14.600   1.702E+00
   14.700   1.740E+00
   14.800   1.776E+00
   14.900   1.811E+00
   15.000   1.843E+00
   15.100   1.875E+00
   15.200   1.904E+00
   15.300   1.932E+00
   15.400   1.958E+00
   15.500   1.983E+00
   15.600   2.006E+00
   15.700   2.028E+00
   15.800   2.047E+00
   15.900   2.065E+00
   16.000   2.080E+00
   16.100   2.094E+00
   16.200   2.105E+00
   16.300   2.114E+00
   16.400   2.119E+00
   16.500   2.123E+00
   16.600   2.123E+00
   16.700   2.121E+00
   16.800   2.117E+00
   16.900   2.112E+00
   17.000   2.105E+00
   17.100   2.097E+00
   17.200   2.089E+00
   17.300   2.081E+00
   17.400   2.074E+00
   17.500   2.068E+00
   17.600   2.062E+00
   17.700   2.058E+00
   17.800   2.054E+00
   17.900   2.051E+00
   18.000   2.048E+00
   18.100   2.046E+00
   18.200   2.044E+00
   18.300   2.042E+00
   18.400   2.039E+00
   18.500   2.036E+00
   18.600   2.033E+00
   18.700   2.028E+00
   18.800   2.022E+00
   18.900   2.014E+00
   19.000   2.005E+00
   19.100   1.994E+00
   19.200   1.981E+00
   19.300   1.967E+00
   19.400   1.950E+00
   19.500   1.933E+00
   19.600   1.913E+00
   19.700   1.893E+00
   19.800   1.872E+00
   19.900   1.851E+00
   20.000   1.829E+00
   20.100   1.807E+00
   20.200   1.786E+00
   20.300   1.764E+00
   20.400   1.743E+00
   20.500   1.721E+00
   20.600   1.700E+00
   20.700   1.679E+00
   20.800   1.658E+00
   20.900   1.637E+00
   21.000   1.616E+00
   21.100   1.595E+00
   21.200   1.573E+00
   21.300   1.551E+00
   21.400   1.529E+00
   21.500   1.506E+00
   21.600   1.483E+00
   21.700   1.459E+00
   21.800   1.436E+00
   21.900   1.412E+00
   22.000   1.389E+00
   22.100   1.365E+00
   22.200   1.342E+00
   22.300   1.319E+00
   22.400   1.297E+00
   22.500   1.275E+00
   22.600   1.254E+00
   22.700   1.233E+00
   22.800   1.213E+00
   22.900   1.193E+00
   23.000   1.174E+00
   23.100   1.155E+00
   23.200   1.137E+00
   23.300   1.119E+00
   23.400   1.101E+00
   23.500   1.084E+00
   23.600   1.067E+00
   23.700   1.050E+00
   23.800   1.033E+00
   23.900   1.017E+00
   24.000   1.001E+00
   24.100   9.854E-01
   24.200   9.698E-01
   24.300   9.543E-01
   24.400   9.390E-01
   24.500   9.238E-01
   24.600   9.089E-01
   24.700   8.942E-01
   24.800   8.797E-01
   24.900   8.655E-01
   25.000   8.517E-01
   25.100   8.381E-01
   25.200   8.250E-01
   25.300   8.122E-01
   25.400   7.998E-01
   25.500   7.877E-01
   25.600   7.761E-01
   25.700   7.648E-01
   25.800   7.538E-01
   25.900   7.432E-01
   26.000   7.328E-01
   26.100   7.226E-01
   26.200   7.125E-01
   26.300   7.026E-01
   26.400   6.927E-01
   26.500   6.828E-01
   26.600   6.729E-01
   26.700   6.628E-01
   26.800   6.526E-01
   26.900   6.423E-01
   27.000   6.318E-01
   27.100   6.211E-01
   27.200   6.103E-01
   27.300   5.994E-01
   27.400   5.884E-01
   27.500   5.775E-01
   27.600   5.666E-01
   27.700   5.559E-01
   27.800   5.453E-01
   27.900   5.350E-01
   28.000   5.249E-01
   28.100   5.150E-01
   28.200   5.056E-01
   28.300   4.964E-01
   28.400   4.876E-01
   28.500   4.792E-01
   28.600   4.711E-01
   28.700   4.633E-01
   28.800   4.560E-01
   28.900   4.489E-01
   29.000   4.422E-01
   29.100   4.358E-01
   29.200   4.297E-01
   29.300   4.239E-01
   29.400   4.183E-01
   29.500   4.130E-01
   29.600   4.079E-01
   29.700   4.031E-01
   29.800   3.984E-01
   29.900   3.939E-01
   30.000   3.895E-01
 
 Z=  13 A=  34 Al
  U[MeV]  fE1[mb/MeV]
    0.100   1.122E-05
    0.200   4.489E-05
    0.300   1.011E-04
    0.400   1.798E-04
    0.500   2.812E-04
    0.600   4.055E-04
    0.700   5.526E-04
    0.800   7.230E-04
    0.900   9.168E-04
    1.000   1.134E-03
    1.100   1.375E-03
    1.200   1.641E-03
    1.300   1.931E-03
    1.400   2.247E-03
    1.500   2.587E-03
    1.600   2.954E-03
    1.700   3.347E-03
    1.800   3.767E-03
    1.900   4.215E-03
    2.000   4.691E-03
    2.100   5.196E-03
    2.200   5.730E-03
    2.300   6.295E-03
    2.400   6.892E-03
    2.500   7.520E-03
    2.600   8.182E-03
    2.700   8.879E-03
    2.800   9.611E-03
    2.900   1.038E-02
    3.000   1.119E-02
    3.100   1.203E-02
    3.200   1.292E-02
    3.300   1.385E-02
    3.400   1.482E-02
    3.500   1.584E-02
    3.600   1.691E-02
    3.700   1.803E-02
    3.800   1.920E-02
    3.900   2.042E-02
    4.000   2.170E-02
    4.100   2.305E-02
    4.200   2.445E-02
    4.300   2.593E-02
    4.400   2.747E-02
    4.500   2.909E-02
    4.600   3.078E-02
    4.700   3.256E-02
    4.800   3.443E-02
    4.900   3.639E-02
    5.000   3.844E-02
    5.100   4.061E-02
    5.200   4.288E-02
    5.300   4.528E-02
    5.400   4.780E-02
    5.500   5.046E-02
    5.600   5.327E-02
    5.700   5.623E-02
    5.800   5.936E-02
    5.900   6.268E-02
    6.000   6.618E-02
    6.100   6.990E-02
    6.200   7.384E-02
    6.300   7.801E-02
    6.400   8.245E-02
    6.500   8.716E-02
    6.600   9.216E-02
    6.700   9.747E-02
    6.800   1.031E-01
    6.900   1.091E-01
    7.000   1.154E-01
    7.100   1.221E-01
    7.200   1.292E-01
    7.300   1.367E-01
    7.400   1.446E-01
    7.500   1.528E-01
    7.600   1.614E-01
    7.700   1.704E-01
    7.800   1.797E-01
    7.900   1.893E-01
    8.000   1.990E-01
    8.100   2.088E-01
    8.200   2.187E-01
    8.300   2.284E-01
    8.400   2.379E-01
    8.500   2.473E-01
    8.600   2.564E-01
    8.700   2.653E-01
    8.800   2.742E-01
    8.900   2.830E-01
    9.000   2.920E-01
    9.100   3.014E-01
    9.200   3.112E-01
    9.300   3.217E-01
    9.400   3.330E-01
    9.500   3.452E-01
    9.600   3.585E-01
    9.700   3.729E-01
    9.800   3.885E-01
    9.900   4.053E-01
   10.000   4.234E-01
   10.100   4.428E-01
   10.200   4.635E-01
   10.300   4.855E-01
   10.400   5.087E-01
   10.500   5.332E-01
   10.600   5.589E-01
   10.700   5.858E-01
   10.800   6.137E-01
   10.900   6.427E-01
   11.000   6.725E-01
   11.100   7.031E-01
   11.200   7.343E-01
   11.300   7.659E-01
   11.400   7.977E-01
   11.500   8.297E-01
   11.600   8.618E-01
   11.700   8.940E-01
   11.800   9.264E-01
   11.900   9.592E-01
   12.000   9.926E-01
   12.100   1.027E+00
   12.200   1.063E+00
   12.300   1.100E+00
   12.400   1.138E+00
   12.500   1.179E+00
   12.600   1.222E+00
   12.700   1.266E+00
   12.800   1.311E+00
   12.900   1.358E+00
   13.000   1.405E+00
   13.100   1.452E+00
   13.200   1.499E+00
   13.300   1.544E+00
   13.400   1.588E+00
   13.500   1.630E+00
   13.600   1.670E+00
   13.700   1.708E+00
   13.800   1.744E+00
   13.900   1.778E+00
   14.000   1.811E+00
   14.100   1.843E+00
   14.200   1.875E+00
   14.300   1.906E+00
   14.400   1.937E+00
   14.500   1.967E+00
   14.600   1.996E+00
   14.700   2.025E+00
   14.800   2.051E+00
   14.900   2.076E+00
   15.000   2.099E+00
   15.100   2.118E+00
   15.200   2.135E+00
   15.300   2.148E+00
   15.400   2.158E+00
   15.500   2.164E+00
   15.600   2.167E+00
   15.700   2.166E+00
   15.800   2.161E+00
   15.900   2.153E+00
   16.000   2.141E+00
   16.100   2.128E+00
   16.200   2.112E+00
   16.300   2.096E+00
   16.400   2.080E+00
   16.500   2.066E+00
   16.600   2.052E+00
   16.700   2.041E+00
   16.800   2.033E+00
   16.900   2.027E+00
   17.000   2.024E+00
   17.100   2.024E+00
   17.200   2.026E+00
   17.300   2.031E+00
   17.400   2.038E+00
   17.500   2.047E+00
   17.600   2.058E+00
   17.700   2.069E+00
   17.800   2.082E+00
   17.900   2.094E+00
   18.000   2.105E+00
   18.100   2.114E+00
   18.200   2.121E+00
   18.300   2.124E+00
   18.400   2.124E+00
   18.500   2.120E+00
   18.600   2.112E+00
   18.700   2.101E+00
   18.800   2.086E+00
   18.900   2.069E+00
   19.000   2.050E+00
   19.100   2.030E+00
   19.200   2.010E+00
   19.300   1.989E+00
   19.400   1.969E+00
   19.500   1.949E+00
   19.600   1.930E+00
   19.700   1.911E+00
   19.800   1.893E+00
   19.900   1.874E+00
   20.000   1.856E+00
   20.100   1.837E+00
   20.200   1.818E+00
   20.300   1.797E+00
   20.400   1.776E+00
   20.500   1.752E+00
   20.600   1.728E+00
   20.700   1.702E+00
   20.800   1.675E+00
   20.900   1.646E+00
   21.000   1.617E+00
   21.100   1.588E+00
   21.200   1.558E+00
   21.300   1.528E+00
   21.400   1.499E+00
   21.500   1.471E+00
   21.600   1.443E+00
   21.700   1.417E+00
   21.800   1.391E+00
   21.900   1.367E+00
   22.000   1.344E+00
   22.100   1.322E+00
   22.200   1.301E+00
   22.300   1.281E+00
   22.400   1.262E+00
   22.500   1.245E+00
   22.600   1.228E+00
   22.700   1.212E+00
   22.800   1.198E+00
   22.900   1.184E+00
   23.000   1.170E+00
   23.100   1.157E+00
   23.200   1.145E+00
   23.300   1.132E+00
   23.400   1.120E+00
   23.500   1.108E+00
   23.600   1.096E+00
   23.700   1.085E+00
   23.800   1.073E+00
   23.900   1.061E+00
   24.000   1.049E+00
   24.100   1.037E+00
   24.200   1.025E+00
   24.300   1.013E+00
   24.400   1.001E+00
   24.500   9.892E-01
   24.600   9.775E-01
   24.700   9.660E-01
   24.800   9.546E-01
   24.900   9.434E-01
   25.000   9.324E-01
   25.100   9.215E-01
   25.200   9.107E-01
   25.300   8.999E-01
   25.400   8.890E-01
   25.500   8.780E-01
   25.600   8.668E-01
   25.700   8.553E-01
   25.800   8.434E-01
   25.900   8.312E-01
   26.000   8.186E-01
   26.100   8.057E-01
   26.200   7.925E-01
   26.300   7.792E-01
   26.400   7.657E-01
   26.500   7.523E-01
   26.600   7.388E-01
   26.700   7.255E-01
   26.800   7.124E-01
   26.900   6.994E-01
   27.000   6.868E-01
   27.100   6.744E-01
   27.200   6.623E-01
   27.300   6.506E-01
   27.400   6.392E-01
   27.500   6.282E-01
   27.600   6.176E-01
   27.700   6.073E-01
   27.800   5.973E-01
   27.900   5.877E-01
   28.000   5.783E-01
   28.100   5.693E-01
   28.200   5.605E-01
   28.300   5.519E-01
   28.400   5.435E-01
   28.500   5.352E-01
   28.600   5.272E-01
   28.700   5.192E-01
   28.800   5.114E-01
   28.900   5.036E-01
   29.000   4.960E-01
   29.100   4.884E-01
   29.200   4.809E-01
   29.300   4.735E-01
   29.400   4.660E-01
   29.500   4.585E-01
   29.600   4.511E-01
   29.700   4.436E-01
   29.800   4.360E-01
   29.900   4.286E-01
   30.000   4.211E-01
 
 Z=  13 A=  35 Al
  U[MeV]  fE1[mb/MeV]
    0.100   1.448E-05
    0.200   5.792E-05
    0.300   1.304E-04
    0.400   2.320E-04
    0.500   3.630E-04
    0.600   5.234E-04
    0.700   7.136E-04
    0.800   9.339E-04
    0.900   1.184E-03
    1.000   1.466E-03
    1.100   1.778E-03
    1.200   2.123E-03
    1.300   2.499E-03
    1.400   2.909E-03
    1.500   3.352E-03
    1.600   3.829E-03
    1.700   4.341E-03
    1.800   4.889E-03
    1.900   5.474E-03
    2.000   6.097E-03
    2.100   6.758E-03
    2.200   7.460E-03
    2.300   8.203E-03
    2.400   8.989E-03
    2.500   9.818E-03
    2.600   1.069E-02
    2.700   1.162E-02
    2.800   1.259E-02
    2.900   1.361E-02
    3.000   1.469E-02
    3.100   1.582E-02
    3.200   1.701E-02
    3.300   1.826E-02
    3.400   1.957E-02
    3.500   2.095E-02
    3.600   2.239E-02
    3.700   2.391E-02
    3.800   2.551E-02
    3.900   2.719E-02
    4.000   2.895E-02
    4.100   3.080E-02
    4.200   3.275E-02
    4.300   3.480E-02
    4.400   3.695E-02
    4.500   3.921E-02
    4.600   4.160E-02
    4.700   4.411E-02
    4.800   4.676E-02
    4.900   4.956E-02
    5.000   5.251E-02
    5.100   5.563E-02
    5.200   5.892E-02
    5.300   6.241E-02
    5.400   6.611E-02
    5.500   7.003E-02
    5.600   7.419E-02
    5.700   7.861E-02
    5.800   8.331E-02
    5.900   8.832E-02
    6.000   9.365E-02
    6.100   9.935E-02
    6.200   1.054E-01
    6.300   1.119E-01
    6.400   1.189E-01
    6.500   1.263E-01
    6.600   1.343E-01
    6.700   1.428E-01
    6.800   1.519E-01
    6.900   1.617E-01
    7.000   1.721E-01
    7.100   1.833E-01
    7.200   1.952E-01
    7.300   2.079E-01
    7.400   2.214E-01
    7.500   2.357E-01
    7.600   2.507E-01
    7.700   2.666E-01
    7.800   2.831E-01
    7.900   3.003E-01
    8.000   3.180E-01
    8.100   3.361E-01
    8.200   3.546E-01
    8.300   3.733E-01
    8.400   3.922E-01
    8.500   4.113E-01
    8.600   4.305E-01
    8.700   4.499E-01
    8.800   4.693E-01
    8.900   4.888E-01
    9.000   5.082E-01
    9.100   5.275E-01
    9.200   5.466E-01
    9.300   5.655E-01
    9.400   5.841E-01
    9.500   6.025E-01
    9.600   6.209E-01
    9.700   6.393E-01
    9.800   6.578E-01
    9.900   6.767E-01
   10.000   6.961E-01
   10.100   7.161E-01
   10.200   7.369E-01
   10.300   7.585E-01
   10.400   7.811E-01
   10.500   8.045E-01
   10.600   8.288E-01
   10.700   8.539E-01
   10.800   8.795E-01
   10.900   9.056E-01
   11.000   9.320E-01
   11.100   9.583E-01
   11.200   9.847E-01
   11.300   1.011E+00
   11.400   1.037E+00
   11.500   1.063E+00
   11.600   1.089E+00
   11.700   1.116E+00
   11.800   1.144E+00
   11.900   1.173E+00
   12.000   1.203E+00
   12.100   1.236E+00
   12.200   1.272E+00
   12.300   1.310E+00
   12.400   1.350E+00
   12.500   1.394E+00
   12.600   1.440E+00
   12.700   1.489E+00
   12.800   1.539E+00
   12.900   1.591E+00
   13.000   1.642E+00
   13.100   1.692E+00
   13.200   1.741E+00
   13.300   1.786E+00
   13.400   1.827E+00
   13.500   1.863E+00
   13.600   1.893E+00
   13.700   1.917E+00
   13.800   1.935E+00
   13.900   1.948E+00
   14.000   1.956E+00
   14.100   1.961E+00
   14.200   1.965E+00
   14.300   1.967E+00
   14.400   1.970E+00
   14.500   1.975E+00
   14.600   1.983E+00
   14.700   1.994E+00
   14.800   2.010E+00
   14.900   2.030E+00
   15.000   2.054E+00
   15.100   2.084E+00
   15.200   2.117E+00
   15.300   2.153E+00
   15.400   2.191E+00
   15.500   2.230E+00
   15.600   2.268E+00
   15.700   2.304E+00
   15.800   2.336E+00
   15.900   2.363E+00
   16.000   2.384E+00
   16.100   2.400E+00
   16.200   2.410E+00
   16.300   2.414E+00
   16.400   2.414E+00
   16.500   2.410E+00
   16.600   2.403E+00
   16.700   2.393E+00
   16.800   2.380E+00
   16.900   2.365E+00
   17.000   2.347E+00
   17.100   2.327E+00
   17.200   2.305E+00
   17.300   2.281E+00
   17.400   2.254E+00
   17.500   2.227E+00
   17.600   2.197E+00
   17.700   2.166E+00
   17.800   2.134E+00
   17.900   2.102E+00
   18.000   2.068E+00
   18.100   2.035E+00
   18.200   2.002E+00
   18.300   1.970E+00
   18.400   1.939E+00
   18.500   1.910E+00
   18.600   1.883E+00
   18.700   1.858E+00
   18.800   1.835E+00
   18.900   1.815E+00
   19.000   1.797E+00
   19.100   1.782E+00
   19.200   1.768E+00
   19.300   1.756E+00
   19.400   1.746E+00
   19.500   1.737E+00
   19.600   1.729E+00
   19.700   1.722E+00
   19.800   1.715E+00
   19.900   1.707E+00
   20.000   1.700E+00
   20.100   1.691E+00
   20.200   1.682E+00
   20.300   1.671E+00
   20.400   1.660E+00
   20.500   1.649E+00
   20.600   1.636E+00
   20.700   1.623E+00
   20.800   1.610E+00
   20.900   1.597E+00
   21.000   1.584E+00
   21.100   1.570E+00
   21.200   1.557E+00
   21.300   1.543E+00
   21.400   1.528E+00
   21.500   1.513E+00
   21.600   1.497E+00
   21.700   1.480E+00
   21.800   1.463E+00
   21.900   1.445E+00
   22.000   1.426E+00
   22.100   1.407E+00
   22.200   1.388E+00
   22.300   1.368E+00
   22.400   1.348E+00
   22.500   1.328E+00
   22.600   1.308E+00
   22.700   1.288E+00
   22.800   1.269E+00
   22.900   1.249E+00
   23.000   1.229E+00
   23.100   1.210E+00
   23.200   1.191E+00
   23.300   1.172E+00
   23.400   1.153E+00
   23.500   1.135E+00
   23.600   1.116E+00
   23.700   1.099E+00
   23.800   1.082E+00
   23.900   1.065E+00
   24.000   1.049E+00
   24.100   1.033E+00
   24.200   1.018E+00
   24.300   1.003E+00
   24.400   9.886E-01
   24.500   9.748E-01
   24.600   9.615E-01
   24.700   9.486E-01
   24.800   9.360E-01
   24.900   9.237E-01
   25.000   9.116E-01
   25.100   8.997E-01
   25.200   8.878E-01
   25.300   8.759E-01
   25.400   8.638E-01
   25.500   8.516E-01
   25.600   8.391E-01
   25.700   8.263E-01
   25.800   8.133E-01
   25.900   8.000E-01
   26.000   7.864E-01
   26.100   7.728E-01
   26.200   7.592E-01
   26.300   7.456E-01
   26.400   7.322E-01
   26.500   7.191E-01
   26.600   7.063E-01
   26.700   6.938E-01
   26.800   6.818E-01
   26.900   6.701E-01
   27.000   6.588E-01
   27.100   6.478E-01
   27.200   6.372E-01
   27.300   6.269E-01
   27.400   6.168E-01
   27.500   6.070E-01
   27.600   5.974E-01
   27.700   5.879E-01
   27.800   5.786E-01
   27.900   5.695E-01
   28.000   5.604E-01
   28.100   5.515E-01
   28.200   5.427E-01
   28.300   5.341E-01
   28.400   5.256E-01
   28.500   5.173E-01
   28.600   5.091E-01
   28.700   5.011E-01
   28.800   4.932E-01
   28.900   4.854E-01
   29.000   4.777E-01
   29.100   4.701E-01
   29.200   4.626E-01
   29.300   4.552E-01
   29.400   4.479E-01
   29.500   4.407E-01
   29.600   4.336E-01
   29.700   4.265E-01
   29.800   4.196E-01
   29.900   4.128E-01
   30.000   4.060E-01
 
 Z=  13 A=  36 Al
  U[MeV]  fE1[mb/MeV]
    0.100   1.590E-05
    0.200   6.361E-05
    0.300   1.432E-04
    0.400   2.549E-04
    0.500   3.987E-04
    0.600   5.750E-04
    0.700   7.840E-04
    0.800   1.026E-03
    0.900   1.302E-03
    1.000   1.611E-03
    1.100   1.955E-03
    1.200   2.334E-03
    1.300   2.748E-03
    1.400   3.199E-03
    1.500   3.687E-03
    1.600   4.212E-03
    1.700   4.777E-03
    1.800   5.382E-03
    1.900   6.027E-03
    2.000   6.714E-03
    2.100   7.445E-03
    2.200   8.221E-03
    2.300   9.043E-03
    2.400   9.912E-03
    2.500   1.083E-02
    2.600   1.180E-02
    2.700   1.282E-02
    2.800   1.390E-02
    2.900   1.504E-02
    3.000   1.624E-02
    3.100   1.749E-02
    3.200   1.882E-02
    3.300   2.021E-02
    3.400   2.168E-02
    3.500   2.322E-02
    3.600   2.483E-02
    3.700   2.654E-02
    3.800   2.833E-02
    3.900   3.021E-02
    4.000   3.219E-02
    4.100   3.427E-02
    4.200   3.646E-02
    4.300   3.877E-02
    4.400   4.120E-02
    4.500   4.377E-02
    4.600   4.647E-02
    4.700   4.932E-02
    4.800   5.233E-02
    4.900   5.551E-02
    5.000   5.887E-02
    5.100   6.243E-02
    5.200   6.620E-02
    5.300   7.020E-02
    5.400   7.444E-02
    5.500   7.895E-02
    5.600   8.375E-02
    5.700   8.885E-02
    5.800   9.430E-02
    5.900   1.001E-01
    6.000   1.063E-01
    6.100   1.130E-01
    6.200   1.201E-01
    6.300   1.277E-01
    6.400   1.359E-01
    6.500   1.447E-01
    6.600   1.542E-01
    6.700   1.643E-01
    6.800   1.753E-01
    6.900   1.871E-01
    7.000   1.999E-01
    7.100   2.136E-01
    7.200   2.283E-01
    7.300   2.442E-01
    7.400   2.612E-01
    7.500   2.794E-01
    7.600   2.988E-01
    7.700   3.195E-01
    7.800   3.414E-01
    7.900   3.643E-01
    8.000   3.882E-01
    8.100   4.128E-01
    8.200   4.379E-01
    8.300   4.632E-01
    8.400   4.883E-01
    8.500   5.129E-01
    8.600   5.366E-01
    8.700   5.592E-01
    8.800   5.805E-01
    8.900   6.002E-01
    9.000   6.185E-01
    9.100   6.352E-01
    9.200   6.508E-01
    9.300   6.653E-01
    9.400   6.791E-01
    9.500   6.927E-01
    9.600   7.063E-01
    9.700   7.203E-01
    9.800   7.350E-01
    9.900   7.508E-01
   10.000   7.680E-01
   10.100   7.866E-01
   10.200   8.070E-01
   10.300   8.291E-01
   10.400   8.531E-01
   10.500   8.789E-01
   10.600   9.064E-01
   10.700   9.357E-01
   10.800   9.664E-01
   10.900   9.982E-01
   11.000   1.031E+00
   11.100   1.064E+00
   11.200   1.096E+00
   11.300   1.128E+00
   11.400   1.160E+00
   11.500   1.190E+00
   11.600   1.219E+00
   11.700   1.248E+00
   11.800   1.276E+00
   11.900   1.304E+00
   12.000   1.333E+00
   12.100   1.363E+00
   12.200   1.395E+00
   12.300   1.429E+00
   12.400   1.464E+00
   12.500   1.502E+00
   12.600   1.542E+00
   12.700   1.583E+00
   12.800   1.626E+00
   12.900   1.668E+00
   13.000   1.710E+00
   13.100   1.750E+00
   13.200   1.786E+00
   13.300   1.819E+00
   13.400   1.846E+00
   13.500   1.868E+00
   13.600   1.884E+00
   13.700   1.894E+00
   13.800   1.901E+00
   13.900   1.904E+00
   14.000   1.905E+00
   14.100   1.906E+00
   14.200   1.909E+00
   14.300   1.915E+00
   14.400   1.924E+00
   14.500   1.939E+00
   14.600   1.960E+00
   14.700   1.987E+00
   14.800   2.020E+00
   14.900   2.060E+00
   15.000   2.105E+00
   15.100   2.156E+00
   15.200   2.211E+00
   15.300   2.269E+00
   15.400   2.327E+00
   15.500   2.385E+00
   15.600   2.438E+00
   15.700   2.486E+00
   15.800   2.527E+00
   15.900   2.559E+00
   16.000   2.582E+00
   16.100   2.596E+00
   16.200   2.601E+00
   16.300   2.600E+00
   16.400   2.593E+00
   16.500   2.581E+00
   16.600   2.567E+00
   16.700   2.551E+00
   16.800   2.533E+00
   16.900   2.513E+00
   17.000   2.492E+00
   17.100   2.468E+00
   17.200   2.442E+00
   17.300   2.413E+00
   17.400   2.382E+00
   17.500   2.348E+00
   17.600   2.310E+00
   17.700   2.270E+00
   17.800   2.229E+00
   17.900   2.185E+00
   18.000   2.141E+00
   18.100   2.097E+00
   18.200   2.054E+00
   18.300   2.012E+00
   18.400   1.972E+00
   18.500   1.935E+00
   18.600   1.901E+00
   18.700   1.870E+00
   18.800   1.842E+00
   18.900   1.818E+00
   19.000   1.798E+00
   19.100   1.780E+00
   19.200   1.766E+00
   19.300   1.755E+00
   19.400   1.746E+00
   19.500   1.740E+00
   19.600   1.736E+00
   19.700   1.733E+00
   19.800   1.731E+00
   19.900   1.730E+00
   20.000   1.729E+00
   20.100   1.727E+00
   20.200   1.725E+00
   20.300   1.722E+00
   20.400   1.718E+00
   20.500   1.713E+00
   20.600   1.706E+00
   20.700   1.699E+00
   20.800   1.691E+00
   20.900   1.681E+00
   21.000   1.671E+00
   21.100   1.660E+00
   21.200   1.648E+00
   21.300   1.635E+00
   21.400   1.621E+00
   21.500   1.606E+00
   21.600   1.590E+00
   21.700   1.573E+00
   21.800   1.554E+00
   21.900   1.535E+00
   22.000   1.514E+00
   22.100   1.493E+00
   22.200   1.471E+00
   22.300   1.449E+00
   22.400   1.426E+00
   22.500   1.403E+00
   22.600   1.380E+00
   22.700   1.358E+00
   22.800   1.335E+00
   22.900   1.312E+00
   23.000   1.289E+00
   23.100   1.267E+00
   23.200   1.245E+00
   23.300   1.223E+00
   23.400   1.201E+00
   23.500   1.180E+00
   23.600   1.159E+00
   23.700   1.139E+00
   23.800   1.120E+00
   23.900   1.101E+00
   24.000   1.082E+00
   24.100   1.065E+00
   24.200   1.048E+00
   24.300   1.032E+00
   24.400   1.016E+00
   24.500   1.002E+00
   24.600   9.872E-01
   24.700   9.733E-01
   24.800   9.596E-01
   24.900   9.461E-01
   25.000   9.326E-01
   25.100   9.191E-01
   25.200   9.054E-01
   25.300   8.914E-01
   25.400   8.773E-01
   25.500   8.630E-01
   25.600   8.486E-01
   25.700   8.340E-01
   25.800   8.194E-01
   25.900   8.049E-01
   26.000   7.905E-01
   26.100   7.762E-01
   26.200   7.623E-01
   26.300   7.486E-01
   26.400   7.353E-01
   26.500   7.224E-01
   26.600   7.100E-01
   26.700   6.980E-01
   26.800   6.865E-01
   26.900   6.754E-01
   27.000   6.648E-01
   27.100   6.545E-01
   27.200   6.445E-01
   27.300   6.348E-01
   27.400   6.253E-01
   27.500   6.160E-01
   27.600   6.067E-01
   27.700   5.976E-01
   27.800   5.885E-01
   27.900   5.795E-01
   28.000   5.706E-01
   28.100   5.617E-01
   28.200   5.530E-01
   28.300   5.443E-01
   28.400   5.357E-01
   28.500   5.273E-01
   28.600   5.189E-01
   28.700   5.106E-01
   28.800   5.023E-01
   28.900   4.941E-01
   29.000   4.859E-01
   29.100   4.777E-01
   29.200   4.696E-01
   29.300   4.615E-01
   29.400   4.535E-01
   29.500   4.456E-01
   29.600   4.378E-01
   29.700   4.302E-01
   29.800   4.229E-01
   29.900   4.158E-01
   30.000   4.091E-01
 
 Z=  13 A=  37 Al
  U[MeV]  fE1[mb/MeV]
    0.100   1.895E-05
    0.200   7.583E-05
    0.300   1.708E-04
    0.400   3.039E-04
    0.500   4.755E-04
    0.600   6.859E-04
    0.700   9.354E-04
    0.800   1.225E-03
    0.900   1.554E-03
    1.000   1.924E-03
    1.100   2.336E-03
    1.200   2.790E-03
    1.300   3.287E-03
    1.400   3.829E-03
    1.500   4.415E-03
    1.600   5.048E-03
    1.700   5.729E-03
    1.800   6.459E-03
    1.900   7.240E-03
    2.000   8.073E-03
    2.100   8.960E-03
    2.200   9.903E-03
    2.300   1.090E-02
    2.400   1.197E-02
    2.500   1.309E-02
    2.600   1.428E-02
    2.700   1.554E-02
    2.800   1.687E-02
    2.900   1.827E-02
    3.000   1.975E-02
    3.100   2.132E-02
    3.200   2.297E-02
    3.300   2.471E-02
    3.400   2.655E-02
    3.500   2.849E-02
    3.600   3.054E-02
    3.700   3.270E-02
    3.800   3.498E-02
    3.900   3.739E-02
    4.000   3.994E-02
    4.100   4.263E-02
    4.200   4.547E-02
    4.300   4.848E-02
    4.400   5.167E-02
    4.500   5.505E-02
    4.600   5.864E-02
    4.700   6.244E-02
    4.800   6.648E-02
    4.900   7.078E-02
    5.000   7.535E-02
    5.100   8.023E-02
    5.200   8.543E-02
    5.300   9.099E-02
    5.400   9.694E-02
    5.500   1.033E-01
    5.600   1.101E-01
    5.700   1.175E-01
    5.800   1.254E-01
    5.900   1.339E-01
    6.000   1.431E-01
    6.100   1.530E-01
    6.200   1.638E-01
    6.300   1.754E-01
    6.400   1.881E-01
    6.500   2.018E-01
    6.600   2.167E-01
    6.700   2.330E-01
    6.800   2.507E-01
    6.900   2.699E-01
    7.000   2.908E-01
    7.100   3.135E-01
    7.200   3.379E-01
    7.300   3.643E-01
    7.400   3.925E-01
    7.500   4.225E-01
    7.600   4.541E-01
    7.700   4.869E-01
    7.800   5.204E-01
    7.900   5.541E-01
    8.000   5.871E-01
    8.100   6.187E-01
    8.200   6.480E-01
    8.300   6.743E-01
    8.400   6.971E-01
    8.500   7.162E-01
    8.600   7.316E-01
    8.700   7.438E-01
    8.800   7.534E-01
    8.900   7.610E-01
    9.000   7.676E-01
    9.100   7.737E-01
    9.200   7.801E-01
    9.300   7.874E-01
    9.400   7.960E-01
    9.500   8.064E-01
    9.600   8.189E-01
    9.700   8.339E-01
    9.800   8.515E-01
    9.900   8.720E-01
   10.000   8.956E-01
   10.100   9.222E-01
   10.200   9.517E-01
   10.300   9.840E-01
   10.400   1.019E+00
   10.500   1.056E+00
   10.600   1.094E+00
   10.700   1.133E+00
   10.800   1.172E+00
   10.900   1.210E+00
   11.000   1.247E+00
   11.100   1.282E+00
   11.200   1.315E+00
   11.300   1.345E+00
   11.400   1.372E+00
   11.500   1.397E+00
   11.600   1.419E+00
   11.700   1.439E+00
   11.800   1.456E+00
   11.900   1.473E+00
   12.000   1.489E+00
   12.100   1.504E+00
   12.200   1.520E+00
   12.300   1.537E+00
   12.400   1.556E+00
   12.500   1.575E+00
   12.600   1.597E+00
   12.700   1.619E+00
   12.800   1.643E+00
   12.900   1.667E+00
   13.000   1.690E+00
   13.100   1.712E+00
   13.200   1.733E+00
   13.300   1.751E+00
   13.400   1.768E+00
   13.500   1.784E+00
   13.600   1.799E+00
   13.700   1.815E+00
   13.800   1.832E+00
   13.900   1.853E+00
   14.000   1.877E+00
   14.100   1.906E+00
   14.200   1.940E+00
   14.300   1.980E+00
   14.400   2.026E+00
   14.500   2.077E+00
   14.600   2.134E+00
   14.700   2.195E+00
   14.800   2.259E+00
   14.900   2.325E+00
   15.000   2.392E+00
   15.100   2.459E+00
   15.200   2.523E+00
   15.300   2.583E+00
   15.400   2.637E+00
   15.500   2.683E+00
   15.600   2.720E+00
   15.700   2.747E+00
   15.800   2.763E+00
   15.900   2.770E+00
   16.000   2.767E+00
   16.100   2.757E+00
   16.200   2.742E+00
   16.300   2.722E+00
   16.400   2.699E+00
   16.500   2.674E+00
   16.600   2.647E+00
   16.700   2.618E+00
   16.800   2.586E+00
   16.900   2.553E+00
   17.000   2.516E+00
   17.100   2.476E+00
   17.200   2.433E+00
   17.300   2.387E+00
   17.400   2.340E+00
   17.500   2.290E+00
   17.600   2.240E+00
   17.700   2.189E+00
   17.800   2.139E+00
   17.900   2.090E+00
   18.000   2.043E+00
   18.100   1.998E+00
   18.200   1.956E+00
   18.300   1.917E+00
   18.400   1.883E+00
   18.500   1.852E+00
   18.600   1.825E+00
   18.700   1.803E+00
   18.800   1.785E+00
   18.900   1.771E+00
   19.000   1.760E+00
   19.100   1.753E+00
   19.200   1.750E+00
   19.300   1.749E+00
   19.400   1.751E+00
   19.500   1.755E+00
   19.600   1.760E+00
   19.700   1.766E+00
   19.800   1.772E+00
   19.900   1.778E+00
   20.000   1.782E+00
   20.100   1.785E+00
   20.200   1.786E+00
   20.300   1.786E+00
   20.400   1.783E+00
   20.500   1.779E+00
   20.600   1.773E+00
   20.700   1.766E+00
   20.800   1.757E+00
   20.900   1.748E+00
   21.000   1.737E+00
   21.100   1.726E+00
   21.200   1.714E+00
   21.300   1.701E+00
   21.400   1.687E+00
   21.500   1.671E+00
   21.600   1.655E+00
   21.700   1.637E+00
   21.800   1.618E+00
   21.900   1.598E+00
   22.000   1.577E+00
   22.100   1.555E+00
   22.200   1.532E+00
   22.300   1.508E+00
   22.400   1.484E+00
   22.500   1.460E+00
   22.600   1.436E+00
   22.700   1.411E+00
   22.800   1.386E+00
   22.900   1.362E+00
   23.000   1.338E+00
   23.100   1.314E+00
   23.200   1.290E+00
   23.300   1.267E+00
   23.400   1.244E+00
   23.500   1.222E+00
   23.600   1.200E+00
   23.700   1.179E+00
   23.800   1.158E+00
   23.900   1.137E+00
   24.000   1.117E+00
   24.100   1.097E+00
   24.200   1.077E+00
   24.300   1.058E+00
   24.400   1.038E+00
   24.500   1.019E+00
   24.600   1.000E+00
   24.700   9.816E-01
   24.800   9.632E-01
   24.900   9.452E-01
   25.000   9.275E-01
   25.100   9.102E-01
   25.200   8.932E-01
   25.300   8.766E-01
   25.400   8.604E-01
   25.500   8.445E-01
   25.600   8.291E-01
   25.700   8.140E-01
   25.800   7.994E-01
   25.900   7.853E-01
   26.000   7.717E-01
   26.100   7.587E-01
   26.200   7.461E-01
   26.300   7.341E-01
   26.400   7.225E-01
   26.500   7.113E-01
   26.600   7.004E-01
   26.700   6.898E-01
   26.800   6.794E-01
   26.900   6.692E-01
   27.000   6.591E-01
   27.100   6.492E-01
   27.200   6.394E-01
   27.300   6.297E-01
   27.400   6.200E-01
   27.500   6.105E-01
   27.600   6.010E-01
   27.700   5.917E-01
   27.800   5.823E-01
   27.900   5.731E-01
   28.000   5.640E-01
   28.100   5.551E-01
   28.200   5.462E-01
   28.300   5.374E-01
   28.400   5.287E-01
   28.500   5.201E-01
   28.600   5.114E-01
   28.700   5.028E-01
   28.800   4.941E-01
   28.900   4.855E-01
   29.000   4.770E-01
   29.100   4.685E-01
   29.200   4.602E-01
   29.300   4.521E-01
   29.400   4.443E-01
   29.500   4.367E-01
   29.600   4.294E-01
   29.700   4.224E-01
   29.800   4.157E-01
   29.900   4.094E-01
   30.000   4.034E-01
 
 Z=  13 A=  38 Al
  U[MeV]  fE1[mb/MeV]
    0.100   2.235E-05
    0.200   8.943E-05
    0.300   2.014E-04
    0.400   3.585E-04
    0.500   5.610E-04
    0.600   8.093E-04
    0.700   1.104E-03
    0.800   1.446E-03
    0.900   1.835E-03
    1.000   2.273E-03
    1.100   2.760E-03
    1.200   3.298E-03
    1.300   3.888E-03
    1.400   4.530E-03
    1.500   5.227E-03
    1.600   5.980E-03
    1.700   6.791E-03
    1.800   7.661E-03
    1.900   8.593E-03
    2.000   9.588E-03
    2.100   1.065E-02
    2.200   1.178E-02
    2.300   1.298E-02
    2.400   1.426E-02
    2.500   1.562E-02
    2.600   1.705E-02
    2.700   1.857E-02
    2.800   2.019E-02
    2.900   2.189E-02
    3.000   2.370E-02
    3.100   2.561E-02
    3.200   2.763E-02
    3.300   2.977E-02
    3.400   3.204E-02
    3.500   3.443E-02
    3.600   3.697E-02
    3.700   3.965E-02
    3.800   4.250E-02
    3.900   4.551E-02
    4.000   4.871E-02
    4.100   5.210E-02
    4.200   5.570E-02
    4.300   5.953E-02
    4.400   6.360E-02
    4.500   6.793E-02
    4.600   7.255E-02
    4.700   7.747E-02
    4.800   8.273E-02
    4.900   8.835E-02
    5.000   9.437E-02
    5.100   1.008E-01
    5.200   1.077E-01
    5.300   1.152E-01
    5.400   1.232E-01
    5.500   1.318E-01
    5.600   1.411E-01
    5.700   1.512E-01
    5.800   1.622E-01
    5.900   1.740E-01
    6.000   1.869E-01
    6.100   2.009E-01
    6.200   2.162E-01
    6.300   2.329E-01
    6.400   2.510E-01
    6.500   2.709E-01
    6.600   2.926E-01
    6.700   3.162E-01
    6.800   3.420E-01
    6.900   3.699E-01
    7.000   4.002E-01
    7.100   4.326E-01
    7.200   4.673E-01
    7.300   5.038E-01
    7.400   5.417E-01
    7.500   5.806E-01
    7.600   6.196E-01
    7.700   6.577E-01
    7.800   6.941E-01
    7.900   7.276E-01
    8.000   7.575E-01
    8.100   7.832E-01
    8.200   8.045E-01
    8.300   8.213E-01
    8.400   8.342E-01
    8.500   8.437E-01
    8.600   8.506E-01
    8.700   8.557E-01
    8.800   8.597E-01
    8.900   8.634E-01
    9.000   8.676E-01
    9.100   8.728E-01
    9.200   8.797E-01
    9.300   8.888E-01
    9.400   9.004E-01
    9.500   9.150E-01
    9.600   9.327E-01
    9.700   9.536E-01
    9.800   9.777E-01
    9.900   1.005E+00
   10.000   1.035E+00
   10.100   1.068E+00
   10.200   1.103E+00
   10.300   1.140E+00
   10.400   1.178E+00
   10.500   1.217E+00
   10.600   1.256E+00
   10.700   1.294E+00
   10.800   1.331E+00
   10.900   1.367E+00
   11.000   1.400E+00
   11.100   1.432E+00
   11.200   1.462E+00
   11.300   1.489E+00
   11.400   1.513E+00
   11.500   1.535E+00
   11.600   1.555E+00
   11.700   1.571E+00
   11.800   1.584E+00
   11.900   1.595E+00
   12.000   1.602E+00
   12.100   1.607E+00
   12.200   1.610E+00
   12.300   1.612E+00
   12.400   1.613E+00
   12.500   1.614E+00
   12.600   1.616E+00
   12.700   1.620E+00
   12.800   1.626E+00
   12.900   1.634E+00
   13.000   1.645E+00
   13.100   1.658E+00
   13.200   1.674E+00
   13.300   1.693E+00
   13.400   1.714E+00
   13.500   1.737E+00
   13.600   1.764E+00
   13.700   1.794E+00
   13.800   1.828E+00
   13.900   1.865E+00
   14.000   1.907E+00
   14.100   1.952E+00
   14.200   2.001E+00
   14.300   2.055E+00
   14.400   2.112E+00
   14.500   2.172E+00
   14.600   2.235E+00
   14.700   2.300E+00
   14.800   2.366E+00
   14.900   2.432E+00
   15.000   2.497E+00
   15.100   2.560E+00
   15.200   2.621E+00
   15.300   2.678E+00
   15.400   2.732E+00
   15.500   2.780E+00
   15.600   2.822E+00
   15.700   2.857E+00
   15.800   2.883E+00
   15.900   2.899E+00
   16.000   2.905E+00
   16.100   2.900E+00
   16.200   2.885E+00
   16.300   2.861E+00
   16.400   2.830E+00
   16.500   2.794E+00
   16.600   2.754E+00
   16.700   2.711E+00
   16.800   2.666E+00
   16.900   2.620E+00
   17.000   2.573E+00
   17.100   2.525E+00
   17.200   2.476E+00
   17.300   2.425E+00
   17.400   2.374E+00
   17.500   2.322E+00
   17.600   2.270E+00
   17.700   2.219E+00
   17.800   2.169E+00
   17.900   2.120E+00
   18.000   2.073E+00
   18.100   2.030E+00
   18.200   1.989E+00
   18.300   1.952E+00
   18.400   1.919E+00
   18.500   1.891E+00
   18.600   1.866E+00
   18.700   1.845E+00
   18.800   1.829E+00
   18.900   1.816E+00
   19.000   1.807E+00
   19.100   1.802E+00
   19.200   1.800E+00
   19.300   1.802E+00
   19.400   1.806E+00
   19.500   1.812E+00
   19.600   1.819E+00
   19.700   1.828E+00
   19.800   1.837E+00
   19.900   1.847E+00
   20.000   1.855E+00
   20.100   1.861E+00
   20.200   1.866E+00
   20.300   1.868E+00
   20.400   1.868E+00
   20.500   1.865E+00
   20.600   1.859E+00
   20.700   1.851E+00
   20.800   1.841E+00
   20.900   1.830E+00
   21.000   1.817E+00
   21.100   1.802E+00
   21.200   1.787E+00
   21.300   1.770E+00
   21.400   1.752E+00
   21.500   1.733E+00
   21.600   1.713E+00
   21.700   1.691E+00
   21.800   1.669E+00
   21.900   1.645E+00
   22.000   1.620E+00
   22.100   1.595E+00
   22.200   1.569E+00
   22.300   1.542E+00
   22.400   1.515E+00
   22.500   1.488E+00
   22.600   1.461E+00
   22.700   1.435E+00
   22.800   1.408E+00
   22.900   1.382E+00
   23.000   1.356E+00
   23.100   1.331E+00
   23.200   1.306E+00
   23.300   1.281E+00
   23.400   1.256E+00
   23.500   1.232E+00
   23.600   1.208E+00
   23.700   1.184E+00
   23.800   1.160E+00
   23.900   1.137E+00
   24.000   1.113E+00
   24.100   1.090E+00
   24.200   1.067E+00
   24.300   1.045E+00
   24.400   1.024E+00
   24.500   1.003E+00
   24.600   9.829E-01
   24.700   9.636E-01
   24.800   9.451E-01
   24.900   9.272E-01
   25.000   9.101E-01
   25.100   8.936E-01
   25.200   8.777E-01
   25.300   8.624E-01
   25.400   8.477E-01
   25.500   8.336E-01
   25.600   8.200E-01
   25.700   8.068E-01
   25.800   7.941E-01
   25.900   7.818E-01
   26.000   7.698E-01
   26.100   7.581E-01
   26.200   7.467E-01
   26.300   7.354E-01
   26.400   7.242E-01
   26.500   7.130E-01
   26.600   7.020E-01
   26.700   6.909E-01
   26.800   6.800E-01
   26.900   6.690E-01
   27.000   6.582E-01
   27.100   6.474E-01
   27.200   6.366E-01
   27.300   6.260E-01
   27.400   6.155E-01
   27.500   6.050E-01
   27.600   5.948E-01
   27.700   5.846E-01
   27.800   5.747E-01
   27.900   5.651E-01
   28.000   5.556E-01
   28.100   5.465E-01
   28.200   5.377E-01
   28.300   5.291E-01
   28.400   5.208E-01
   28.500   5.127E-01
   28.600   5.047E-01
   28.700   4.968E-01
   28.800   4.890E-01
   28.900   4.811E-01
   29.000   4.733E-01
   29.100   4.655E-01
   29.200   4.577E-01
   29.300   4.501E-01
   29.400   4.426E-01
   29.500   4.354E-01
   29.600   4.285E-01
   29.700   4.220E-01
   29.800   4.159E-01
   29.900   4.102E-01
   30.000   4.049E-01
 
 Z=  13 A=  39 Al
  U[MeV]  fE1[mb/MeV]
    0.100   2.505E-05
    0.200   1.002E-04
    0.300   2.258E-04
    0.400   4.019E-04
    0.500   6.290E-04
    0.600   9.076E-04
    0.700   1.238E-03
    0.800   1.622E-03
    0.900   2.059E-03
    1.000   2.552E-03
    1.100   3.100E-03
    1.200   3.705E-03
    1.300   4.369E-03
    1.400   5.093E-03
    1.500   5.879E-03
    1.600   6.729E-03
    1.700   7.645E-03
    1.800   8.630E-03
    1.900   9.685E-03
    2.000   1.081E-02
    2.100   1.202E-02
    2.200   1.331E-02
    2.300   1.467E-02
    2.400   1.613E-02
    2.500   1.768E-02
    2.600   1.932E-02
    2.700   2.107E-02
    2.800   2.292E-02
    2.900   2.489E-02
    3.000   2.697E-02
    3.100   2.918E-02
    3.200   3.152E-02
    3.300   3.401E-02
    3.400   3.664E-02
    3.500   3.944E-02
    3.600   4.241E-02
    3.700   4.556E-02
    3.800   4.892E-02
    3.900   5.248E-02
    4.000   5.627E-02
    4.100   6.031E-02
    4.200   6.461E-02
    4.300   6.920E-02
    4.400   7.411E-02
    4.500   7.935E-02
    4.600   8.496E-02
    4.700   9.097E-02
    4.800   9.742E-02
    4.900   1.044E-01
    5.000   1.118E-01
    5.100   1.199E-01
    5.200   1.286E-01
    5.300   1.379E-01
    5.400   1.481E-01
    5.500   1.592E-01
    5.600   1.712E-01
    5.700   1.842E-01
    5.800   1.985E-01
    5.900   2.141E-01
    6.000   2.311E-01
    6.100   2.498E-01
    6.200   2.702E-01
    6.300   2.926E-01
    6.400   3.172E-01
    6.500   3.441E-01
    6.600   3.735E-01
    6.700   4.054E-01
    6.800   4.400E-01
    6.900   4.772E-01
    7.000   5.168E-01
    7.100   5.585E-01
    7.200   6.016E-01
    7.300   6.454E-01
    7.400   6.890E-01
    7.500   7.311E-01
    7.600   7.707E-01
    7.700   8.067E-01
    7.800   8.381E-01
    7.900   8.645E-01
    8.000   8.855E-01
    8.100   9.015E-01
    8.200   9.128E-01
    8.300   9.203E-01
    8.400   9.248E-01
    8.500   9.273E-01
    8.600   9.288E-01
    8.700   9.303E-01
    8.800   9.325E-01
    8.900   9.362E-01
    9.000   9.421E-01
    9.100   9.507E-01
    9.200   9.624E-01
    9.300   9.775E-01
    9.400   9.964E-01
    9.500   1.019E+00
    9.600   1.045E+00
    9.700   1.075E+00
    9.800   1.108E+00
    9.900   1.145E+00
   10.000   1.183E+00
   10.100   1.224E+00
   10.200   1.265E+00
   10.300   1.307E+00
   10.400   1.349E+00
   10.500   1.389E+00
   10.600   1.429E+00
   10.700   1.466E+00
   10.800   1.501E+00
   10.900   1.534E+00
   11.000   1.565E+00
   11.100   1.593E+00
   11.200   1.620E+00
   11.300   1.645E+00
   11.400   1.667E+00
   11.500   1.688E+00
   11.600   1.706E+00
   11.700   1.721E+00
   11.800   1.734E+00
   11.900   1.742E+00
   12.000   1.747E+00
   12.100   1.748E+00
   12.200   1.746E+00
   12.300   1.740E+00
   12.400   1.732E+00
   12.500   1.723E+00
   12.600   1.714E+00
   12.700   1.707E+00
   12.800   1.702E+00
   12.900   1.701E+00
   13.000   1.704E+00
   13.100   1.713E+00
   13.200   1.726E+00
   13.300   1.745E+00
   13.400   1.769E+00
   13.500   1.799E+00
   13.600   1.834E+00
   13.700   1.874E+00
   13.800   1.919E+00
   13.900   1.968E+00
   14.000   2.021E+00
   14.100   2.078E+00
   14.200   2.137E+00
   14.300   2.200E+00
   14.400   2.264E+00
   14.500   2.330E+00
   14.600   2.397E+00
   14.700   2.465E+00
   14.800   2.532E+00
   14.900   2.598E+00
   15.000   2.663E+00
   15.100   2.726E+00
   15.200   2.787E+00
   15.300   2.844E+00
   15.400   2.898E+00
   15.500   2.946E+00
   15.600   2.987E+00
   15.700   3.018E+00
   15.800   3.038E+00
   15.900   3.046E+00
   16.000   3.039E+00
   16.100   3.020E+00
   16.200   2.988E+00
   16.300   2.947E+00
   16.400   2.899E+00
   16.500   2.845E+00
   16.600   2.789E+00
   16.700   2.732E+00
   16.800   2.675E+00
   16.900   2.618E+00
   17.000   2.561E+00
   17.100   2.505E+00
   17.200   2.448E+00
   17.300   2.392E+00
   17.400   2.336E+00
   17.500   2.281E+00
   17.600   2.227E+00
   17.700   2.175E+00
   17.800   2.124E+00
   17.900   2.077E+00
   18.000   2.032E+00
   18.100   1.991E+00
   18.200   1.955E+00
   18.300   1.922E+00
   18.400   1.893E+00
   18.500   1.869E+00
   18.600   1.848E+00
   18.700   1.832E+00
   18.800   1.819E+00
   18.900   1.811E+00
   19.000   1.806E+00
   19.100   1.804E+00
   19.200   1.806E+00
   19.300   1.811E+00
   19.400   1.818E+00
   19.500   1.828E+00
   19.600   1.838E+00
   19.700   1.850E+00
   19.800   1.863E+00
   19.900   1.874E+00
   20.000   1.885E+00
   20.100   1.894E+00
   20.200   1.900E+00
   20.300   1.903E+00
   20.400   1.903E+00
   20.500   1.901E+00
   20.600   1.896E+00
   20.700   1.888E+00
   20.800   1.878E+00
   20.900   1.866E+00
   21.000   1.852E+00
   21.100   1.837E+00
   21.200   1.821E+00
   21.300   1.803E+00
   21.400   1.784E+00
   21.500   1.763E+00
   21.600   1.741E+00
   21.700   1.717E+00
   21.800   1.692E+00
   21.900   1.666E+00
   22.000   1.639E+00
   22.100   1.611E+00
   22.200   1.583E+00
   22.300   1.554E+00
   22.400   1.526E+00
   22.500   1.497E+00
   22.600   1.469E+00
   22.700   1.441E+00
   22.800   1.414E+00
   22.900   1.387E+00
   23.000   1.361E+00
   23.100   1.334E+00
   23.200   1.308E+00
   23.300   1.282E+00
   23.400   1.257E+00
   23.500   1.230E+00
   23.600   1.204E+00
   23.700   1.178E+00
   23.800   1.152E+00
   23.900   1.126E+00
   24.000   1.101E+00
   24.100   1.077E+00
   24.200   1.053E+00
   24.300   1.031E+00
   24.400   1.010E+00
   24.500   9.892E-01
   24.600   9.699E-01
   24.700   9.515E-01
   24.800   9.340E-01
   24.900   9.172E-01
   25.000   9.011E-01
   25.100   8.857E-01
   25.200   8.708E-01
   25.300   8.565E-01
   25.400   8.426E-01
   25.500   8.291E-01
   25.600   8.159E-01
   25.700   8.030E-01
   25.800   7.904E-01
   25.900   7.780E-01
   26.000   7.659E-01
   26.100   7.539E-01
   26.200   7.422E-01
   26.300   7.306E-01
   26.400   7.192E-01
   26.500   7.079E-01
   26.600   6.966E-01
   26.700   6.854E-01
   26.800   6.742E-01
   26.900   6.629E-01
   27.000   6.516E-01
   27.100   6.403E-01
   27.200   6.290E-01
   27.300   6.177E-01
   27.400   6.066E-01
   27.500   5.956E-01
   27.600   5.850E-01
   27.700   5.746E-01
   27.800   5.646E-01
   27.900   5.549E-01
   28.000   5.457E-01
   28.100   5.370E-01
   28.200   5.286E-01
   28.300   5.205E-01
   28.400   5.127E-01
   28.500   5.051E-01
   28.600   4.975E-01
   28.700   4.900E-01
   28.800   4.825E-01
   28.900   4.749E-01
   29.000   4.673E-01
   29.100   4.597E-01
   29.200   4.522E-01
   29.300   4.449E-01
   29.400   4.378E-01
   29.500   4.309E-01
   29.600   4.245E-01
   29.700   4.184E-01
   29.800   4.128E-01
   29.900   4.076E-01
   30.000   4.028E-01
 
 Z=  13 A=  40 Al
  U[MeV]  fE1[mb/MeV]
    0.100   4.015E-05
    0.200   1.607E-04
    0.300   3.621E-04
    0.400   6.449E-04
    0.500   1.010E-03
    0.600   1.458E-03
    0.700   1.992E-03
    0.800   2.611E-03
    0.900   3.320E-03
    1.000   4.119E-03
    1.100   5.011E-03
    1.200   6.000E-03
    1.300   7.088E-03
    1.400   8.279E-03
    1.500   9.578E-03
    1.600   1.099E-02
    1.700   1.252E-02
    1.800   1.417E-02
    1.900   1.594E-02
    2.000   1.786E-02
    2.100   1.991E-02
    2.200   2.212E-02
    2.300   2.449E-02
    2.400   2.703E-02
    2.500   2.974E-02
    2.600   3.265E-02
    2.700   3.577E-02
    2.800   3.911E-02
    2.900   4.269E-02
    3.000   4.652E-02
    3.100   5.063E-02
    3.200   5.503E-02
    3.300   5.976E-02
    3.400   6.484E-02
    3.500   7.030E-02
    3.600   7.618E-02
    3.700   8.251E-02
    3.800   8.934E-02
    3.900   9.672E-02
    4.000   1.047E-01
    4.100   1.134E-01
    4.200   1.227E-01
    4.300   1.330E-01
    4.400   1.441E-01
    4.500   1.562E-01
    4.600   1.694E-01
    4.700   1.839E-01
    4.800   1.998E-01
    4.900   2.172E-01
    5.000   2.364E-01
    5.100   2.575E-01
    5.200   2.807E-01
    5.300   3.063E-01
    5.400   3.344E-01
    5.500   3.653E-01
    5.600   3.991E-01
    5.700   4.360E-01
    5.800   4.758E-01
    5.900   5.186E-01
    6.000   5.639E-01
    6.100   6.115E-01
    6.200   6.604E-01
    6.300   7.100E-01
    6.400   7.594E-01
    6.500   8.077E-01
    6.600   8.542E-01
    6.700   8.982E-01
    6.800   9.394E-01
    6.900   9.773E-01
    7.000   1.011E+00
    7.100   1.041E+00
    7.200   1.067E+00
    7.300   1.087E+00
    7.400   1.102E+00
    7.500   1.112E+00
    7.600   1.117E+00
    7.700   1.118E+00
    7.800   1.116E+00
    7.900   1.111E+00
    8.000   1.106E+00
    8.100   1.101E+00
    8.200   1.097E+00
    8.300   1.095E+00
    8.400   1.095E+00
    8.500   1.098E+00
    8.600   1.105E+00
    8.700   1.114E+00
    8.800   1.127E+00
    8.900   1.144E+00
    9.000   1.164E+00
    9.100   1.188E+00
    9.200   1.215E+00
    9.300   1.246E+00
    9.400   1.279E+00
    9.500   1.316E+00
    9.600   1.355E+00
    9.700   1.394E+00
    9.800   1.434E+00
    9.900   1.473E+00
   10.000   1.510E+00
   10.100   1.543E+00
   10.200   1.573E+00
   10.300   1.598E+00
   10.400   1.620E+00
   10.500   1.638E+00
   10.600   1.655E+00
   10.700   1.670E+00
   10.800   1.685E+00
   10.900   1.700E+00
   11.000   1.717E+00
   11.100   1.735E+00
   11.200   1.754E+00
   11.300   1.774E+00
   11.400   1.794E+00
   11.500   1.813E+00
   11.600   1.830E+00
   11.700   1.845E+00
   11.800   1.856E+00
   11.900   1.863E+00
   12.000   1.866E+00
   12.100   1.865E+00
   12.200   1.861E+00
   12.300   1.854E+00
   12.400   1.846E+00
   12.500   1.838E+00
   12.600   1.831E+00
   12.700   1.826E+00
   12.800   1.825E+00
   12.900   1.829E+00
   13.000   1.837E+00
   13.100   1.850E+00
   13.200   1.869E+00
   13.300   1.892E+00
   13.400   1.920E+00
   13.500   1.950E+00
   13.600   1.984E+00
   13.700   2.018E+00
   13.800   2.054E+00
   13.900   2.090E+00
   14.000   2.127E+00
   14.100   2.164E+00
   14.200   2.203E+00
   14.300   2.245E+00
   14.400   2.290E+00
   14.500   2.341E+00
   14.600   2.397E+00
   14.700   2.458E+00
   14.800   2.526E+00
   14.900   2.599E+00
   15.000   2.675E+00
   15.100   2.754E+00
   15.200   2.833E+00
   15.300   2.910E+00
   15.400   2.981E+00
   15.500   3.043E+00
   15.600   3.091E+00
   15.700   3.123E+00
   15.800   3.137E+00
   15.900   3.132E+00
   16.000   3.109E+00
   16.100   3.071E+00
   16.200   3.020E+00
   16.300   2.962E+00
   16.400   2.899E+00
   16.500   2.833E+00
   16.600   2.767E+00
   16.700   2.701E+00
   16.800   2.636E+00
   16.900   2.571E+00
   17.000   2.507E+00
   17.100   2.443E+00
   17.200   2.379E+00
   17.300   2.316E+00
   17.400   2.254E+00
   17.500   2.194E+00
   17.600   2.136E+00
   17.700   2.081E+00
   17.800   2.030E+00
   17.900   1.982E+00
   18.000   1.937E+00
   18.100   1.897E+00
   18.200   1.861E+00
   18.300   1.828E+00
   18.400   1.800E+00
   18.500   1.776E+00
   18.600   1.755E+00
   18.700   1.739E+00
   18.800   1.726E+00
   18.900   1.718E+00
   19.000   1.713E+00
   19.100   1.712E+00
   19.200   1.714E+00
   19.300   1.720E+00
   19.400   1.728E+00
   19.500   1.738E+00
   19.600   1.749E+00
   19.700   1.761E+00
   19.800   1.773E+00
   19.900   1.784E+00
   20.000   1.794E+00
   20.100   1.802E+00
   20.200   1.808E+00
   20.300   1.813E+00
   20.400   1.817E+00
   20.500   1.819E+00
   20.600   1.820E+00
   20.700   1.821E+00
   20.800   1.820E+00
   20.900   1.818E+00
   21.000   1.814E+00
   21.100   1.809E+00
   21.200   1.802E+00
   21.300   1.792E+00
   21.400   1.781E+00
   21.500   1.766E+00
   21.600   1.750E+00
   21.700   1.731E+00
   21.800   1.710E+00
   21.900   1.687E+00
   22.000   1.663E+00
   22.100   1.638E+00
   22.200   1.612E+00
   22.300   1.586E+00
   22.400   1.559E+00
   22.500   1.532E+00
   22.600   1.505E+00
   22.700   1.476E+00
   22.800   1.448E+00
   22.900   1.418E+00
   23.000   1.388E+00
   23.100   1.357E+00
   23.200   1.327E+00
   23.300   1.297E+00
   23.400   1.267E+00
   23.500   1.238E+00
   23.600   1.210E+00
   23.700   1.183E+00
   23.800   1.157E+00
   23.900   1.133E+00
   24.000   1.111E+00
   24.100   1.090E+00
   24.200   1.070E+00
   24.300   1.051E+00
   24.400   1.034E+00
   24.500   1.017E+00
   24.600   1.001E+00
   24.700   9.852E-01
   24.800   9.692E-01
   24.900   9.528E-01
   25.000   9.358E-01
   25.100   9.182E-01
   25.200   8.999E-01
   25.300   8.810E-01
   25.400   8.619E-01
   25.500   8.429E-01
   25.600   8.241E-01
   25.700   8.060E-01
   25.800   7.887E-01
   25.900   7.723E-01
   26.000   7.568E-01
   26.100   7.423E-01
   26.200   7.287E-01
   26.300   7.158E-01
   26.400   7.036E-01
   26.500   6.919E-01
   26.600   6.806E-01
   26.700   6.695E-01
   26.800   6.587E-01
   26.900   6.479E-01
   27.000   6.372E-01
   27.100   6.266E-01
   27.200   6.160E-01
   27.300   6.056E-01
   27.400   5.953E-01
   27.500   5.853E-01
   27.600   5.756E-01
   27.700   5.662E-01
   27.800   5.572E-01
   27.900   5.487E-01
   28.000   5.404E-01
   28.100   5.325E-01
   28.200   5.247E-01
   28.300   5.171E-01
   28.400   5.095E-01
   28.500   5.019E-01
   28.600   4.943E-01
   28.700   4.866E-01
   28.800   4.789E-01
   28.900   4.713E-01
   29.000   4.638E-01
   29.100   4.564E-01
   29.200   4.493E-01
   29.300   4.425E-01
   29.400   4.360E-01
   29.500   4.298E-01
   29.600   4.240E-01
   29.700   4.186E-01
   29.800   4.135E-01
   29.900   4.087E-01
   30.000   4.042E-01
 
