 Z=  14 A=  24 Si
  U[MeV]  fE1[mb/MeV]
    0.100   9.453E-06
    0.200   3.782E-05
    0.300   8.515E-05
    0.400   1.515E-04
    0.500   2.369E-04
    0.600   3.416E-04
    0.700   4.656E-04
    0.800   6.091E-04
    0.900   7.723E-04
    1.000   9.554E-04
    1.100   1.159E-03
    1.200   1.382E-03
    1.300   1.627E-03
    1.400   1.892E-03
    1.500   2.179E-03
    1.600   2.488E-03
    1.700   2.819E-03
    1.800   3.172E-03
    1.900   3.549E-03
    2.000   3.949E-03
    2.100   4.374E-03
    2.200   4.824E-03
    2.300   5.299E-03
    2.400   5.800E-03
    2.500   6.329E-03
    2.600   6.885E-03
    2.700   7.470E-03
    2.800   8.085E-03
    2.900   8.730E-03
    3.000   9.406E-03
    3.100   1.012E-02
    3.200   1.086E-02
    3.300   1.164E-02
    3.400   1.245E-02
    3.500   1.331E-02
    3.600   1.420E-02
    3.700   1.513E-02
    3.800   1.611E-02
    3.900   1.713E-02
    4.000   1.820E-02
    4.100   1.931E-02
    4.200   2.048E-02
    4.300   2.170E-02
    4.400   2.298E-02
    4.500   2.432E-02
    4.600   2.572E-02
    4.700   2.718E-02
    4.800   2.872E-02
    4.900   3.032E-02
    5.000   3.200E-02
    5.100   3.377E-02
    5.200   3.561E-02
    5.300   3.755E-02
    5.400   3.959E-02
    5.500   4.172E-02
    5.600   4.397E-02
    5.700   4.633E-02
    5.800   4.881E-02
    5.900   5.142E-02
    6.000   5.417E-02
    6.100   5.707E-02
    6.200   6.012E-02
    6.300   6.335E-02
    6.400   6.675E-02
    6.500   7.034E-02
    6.600   7.414E-02
    6.700   7.815E-02
    6.800   8.240E-02
    6.900   8.690E-02
    7.000   9.166E-02
    7.100   9.669E-02
    7.200   1.020E-01
    7.300   1.077E-01
    7.400   1.136E-01
    7.500   1.200E-01
    7.600   1.266E-01
    7.700   1.336E-01
    7.800   1.410E-01
    7.900   1.488E-01
    8.000   1.569E-01
    8.100   1.654E-01
    8.200   1.743E-01
    8.300   1.834E-01
    8.400   1.928E-01
    8.500   2.025E-01
    8.600   2.123E-01
    8.700   2.223E-01
    8.800   2.324E-01
    8.900   2.426E-01
    9.000   2.528E-01
    9.100   2.630E-01
    9.200   2.731E-01
    9.300   2.833E-01
    9.400   2.933E-01
    9.500   3.033E-01
    9.600   3.133E-01
    9.700   3.232E-01
    9.800   3.331E-01
    9.900   3.429E-01
   10.000   3.527E-01
   10.100   3.624E-01
   10.200   3.721E-01
   10.300   3.819E-01
   10.400   3.917E-01
   10.500   4.016E-01
   10.600   4.117E-01
   10.700   4.221E-01
   10.800   4.328E-01
   10.900   4.440E-01
   11.000   4.557E-01
   11.100   4.680E-01
   11.200   4.810E-01
   11.300   4.946E-01
   11.400   5.090E-01
   11.500   5.241E-01
   11.600   5.397E-01
   11.700   5.560E-01
   11.800   5.726E-01
   11.900   5.894E-01
   12.000   6.063E-01
   12.100   6.231E-01
   12.200   6.394E-01
   12.300   6.551E-01
   12.400   6.701E-01
   12.500   6.842E-01
   12.600   6.972E-01
   12.700   7.092E-01
   12.800   7.203E-01
   12.900   7.304E-01
   13.000   7.398E-01
   13.100   7.486E-01
   13.200   7.570E-01
   13.300   7.652E-01
   13.400   7.733E-01
   13.500   7.815E-01
   13.600   7.900E-01
   13.700   7.987E-01
   13.800   8.077E-01
   13.900   8.170E-01
   14.000   8.266E-01
   14.100   8.365E-01
   14.200   8.465E-01
   14.300   8.567E-01
   14.400   8.670E-01
   14.500   8.775E-01
   14.600   8.882E-01
   14.700   8.992E-01
   14.800   9.106E-01
   14.900   9.224E-01
   15.000   9.350E-01
   15.100   9.483E-01
   15.200   9.626E-01
   15.300   9.779E-01
   15.400   9.945E-01
   15.500   1.012E+00
   15.600   1.032E+00
   15.700   1.052E+00
   15.800   1.074E+00
   15.900   1.097E+00
   16.000   1.122E+00
   16.100   1.148E+00
   16.200   1.175E+00
   16.300   1.202E+00
   16.400   1.230E+00
   16.500   1.258E+00
   16.600   1.285E+00
   16.700   1.311E+00
   16.800   1.336E+00
   16.900   1.358E+00
   17.000   1.378E+00
   17.100   1.394E+00
   17.200   1.406E+00
   17.300   1.414E+00
   17.400   1.417E+00
   17.500   1.416E+00
   17.600   1.410E+00
   17.700   1.400E+00
   17.800   1.387E+00
   17.900   1.370E+00
   18.000   1.350E+00
   18.100   1.329E+00
   18.200   1.306E+00
   18.300   1.282E+00
   18.400   1.257E+00
   18.500   1.233E+00
   18.600   1.208E+00
   18.700   1.184E+00
   18.800   1.161E+00
   18.900   1.138E+00
   19.000   1.117E+00
   19.100   1.097E+00
   19.200   1.077E+00
   19.300   1.059E+00
   19.400   1.043E+00
   19.500   1.027E+00
   19.600   1.013E+00
   19.700   9.994E-01
   19.800   9.871E-01
   19.900   9.758E-01
   20.000   9.655E-01
   20.100   9.561E-01
   20.200   9.476E-01
   20.300   9.398E-01
   20.400   9.327E-01
   20.500   9.262E-01
   20.600   9.203E-01
   20.700   9.148E-01
   20.800   9.096E-01
   20.900   9.047E-01
   21.000   9.000E-01
   21.100   8.953E-01
   21.200   8.907E-01
   21.300   8.861E-01
   21.400   8.815E-01
   21.500   8.769E-01
   21.600   8.723E-01
   21.700   8.677E-01
   21.800   8.632E-01
   21.900   8.587E-01
   22.000   8.543E-01
   22.100   8.500E-01
   22.200   8.458E-01
   22.300   8.417E-01
   22.400   8.377E-01
   22.500   8.337E-01
   22.600   8.298E-01
   22.700   8.259E-01
   22.800   8.219E-01
   22.900   8.178E-01
   23.000   8.135E-01
   23.100   8.091E-01
   23.200   8.044E-01
   23.300   7.995E-01
   23.400   7.943E-01
   23.500   7.889E-01
   23.600   7.831E-01
   23.700   7.770E-01
   23.800   7.706E-01
   23.900   7.639E-01
   24.000   7.569E-01
   24.100   7.496E-01
   24.200   7.421E-01
   24.300   7.343E-01
   24.400   7.263E-01
   24.500   7.182E-01
   24.600   7.098E-01
   24.700   7.013E-01
   24.800   6.927E-01
   24.900   6.840E-01
   25.000   6.752E-01
   25.100   6.663E-01
   25.200   6.575E-01
   25.300   6.486E-01
   25.400   6.397E-01
   25.500   6.308E-01
   25.600   6.220E-01
   25.700   6.133E-01
   25.800   6.046E-01
   25.900   5.961E-01
   26.000   5.876E-01
   26.100   5.793E-01
   26.200   5.710E-01
   26.300   5.629E-01
   26.400   5.549E-01
   26.500   5.469E-01
   26.600   5.391E-01
   26.700   5.314E-01
   26.800   5.237E-01
   26.900   5.163E-01
   27.000   5.089E-01
   27.100   5.016E-01
   27.200   4.946E-01
   27.300   4.876E-01
   27.400   4.808E-01
   27.500   4.742E-01
   27.600   4.678E-01
   27.700   4.615E-01
   27.800   4.554E-01
   27.900   4.495E-01
   28.000   4.437E-01
   28.100   4.380E-01
   28.200   4.325E-01
   28.300   4.272E-01
   28.400   4.219E-01
   28.500   4.168E-01
   28.600   4.117E-01
   28.700   4.068E-01
   28.800   4.019E-01
   28.900   3.971E-01
   29.000   3.924E-01
   29.100   3.877E-01
   29.200   3.831E-01
   29.300   3.786E-01
   29.400   3.740E-01
   29.500   3.695E-01
   29.600   3.650E-01
   29.700   3.605E-01
   29.800   3.560E-01
   29.900   3.515E-01
   30.000   3.469E-01
 
 Z=  14 A=  25 Si
  U[MeV]  fE1[mb/MeV]
    0.100   7.330E-06
    0.200   2.933E-05
    0.300   6.601E-05
    0.400   1.174E-04
    0.500   1.836E-04
    0.600   2.647E-04
    0.700   3.606E-04
    0.800   4.716E-04
    0.900   5.978E-04
    1.000   7.392E-04
    1.100   8.961E-04
    1.200   1.069E-03
    1.300   1.257E-03
    1.400   1.461E-03
    1.500   1.681E-03
    1.600   1.918E-03
    1.700   2.172E-03
    1.800   2.442E-03
    1.900   2.730E-03
    2.000   3.035E-03
    2.100   3.359E-03
    2.200   3.700E-03
    2.300   4.060E-03
    2.400   4.440E-03
    2.500   4.839E-03
    2.600   5.257E-03
    2.700   5.697E-03
    2.800   6.157E-03
    2.900   6.639E-03
    3.000   7.143E-03
    3.100   7.670E-03
    3.200   8.220E-03
    3.300   8.795E-03
    3.400   9.394E-03
    3.500   1.002E-02
    3.600   1.067E-02
    3.700   1.135E-02
    3.800   1.206E-02
    3.900   1.279E-02
    4.000   1.356E-02
    4.100   1.436E-02
    4.200   1.519E-02
    4.300   1.606E-02
    4.400   1.696E-02
    4.500   1.790E-02
    4.600   1.887E-02
    4.700   1.989E-02
    4.800   2.094E-02
    4.900   2.204E-02
    5.000   2.319E-02
    5.100   2.438E-02
    5.200   2.563E-02
    5.300   2.692E-02
    5.400   2.827E-02
    5.500   2.967E-02
    5.600   3.114E-02
    5.700   3.267E-02
    5.800   3.426E-02
    5.900   3.593E-02
    6.000   3.766E-02
    6.100   3.948E-02
    6.200   4.138E-02
    6.300   4.336E-02
    6.400   4.543E-02
    6.500   4.760E-02
    6.600   4.988E-02
    6.700   5.226E-02
    6.800   5.475E-02
    6.900   5.737E-02
    7.000   6.012E-02
    7.100   6.301E-02
    7.200   6.604E-02
    7.300   6.923E-02
    7.400   7.258E-02
    7.500   7.611E-02
    7.600   7.983E-02
    7.700   8.375E-02
    7.800   8.787E-02
    7.900   9.222E-02
    8.000   9.681E-02
    8.100   1.016E-01
    8.200   1.067E-01
    8.300   1.121E-01
    8.400   1.177E-01
    8.500   1.237E-01
    8.600   1.299E-01
    8.700   1.365E-01
    8.800   1.433E-01
    8.900   1.505E-01
    9.000   1.579E-01
    9.100   1.656E-01
    9.200   1.736E-01
    9.300   1.819E-01
    9.400   1.904E-01
    9.500   1.991E-01
    9.600   2.079E-01
    9.700   2.170E-01
    9.800   2.261E-01
    9.900   2.354E-01
   10.000   2.449E-01
   10.100   2.544E-01
   10.200   2.640E-01
   10.300   2.738E-01
   10.400   2.837E-01
   10.500   2.937E-01
   10.600   3.038E-01
   10.700   3.140E-01
   10.800   3.244E-01
   10.900   3.349E-01
   11.000   3.455E-01
   11.100   3.563E-01
   11.200   3.672E-01
   11.300   3.785E-01
   11.400   3.900E-01
   11.500   4.019E-01
   11.600   4.143E-01
   11.700   4.271E-01
   11.800   4.406E-01
   11.900   4.548E-01
   12.000   4.697E-01
   12.100   4.853E-01
   12.200   5.018E-01
   12.300   5.191E-01
   12.400   5.371E-01
   12.500   5.559E-01
   12.600   5.753E-01
   12.700   5.952E-01
   12.800   6.155E-01
   12.900   6.361E-01
   13.000   6.568E-01
   13.100   6.774E-01
   13.200   6.979E-01
   13.300   7.180E-01
   13.400   7.377E-01
   13.500   7.568E-01
   13.600   7.754E-01
   13.700   7.935E-01
   13.800   8.110E-01
   13.900   8.281E-01
   14.000   8.449E-01
   14.100   8.613E-01
   14.200   8.775E-01
   14.300   8.936E-01
   14.400   9.095E-01
   14.500   9.253E-01
   14.600   9.409E-01
   14.700   9.564E-01
   14.800   9.716E-01
   14.900   9.866E-01
   15.000   1.001E+00
   15.100   1.016E+00
   15.200   1.030E+00
   15.300   1.044E+00
   15.400   1.058E+00
   15.500   1.072E+00
   15.600   1.086E+00
   15.700   1.100E+00
   15.800   1.115E+00
   15.900   1.129E+00
   16.000   1.145E+00
   16.100   1.160E+00
   16.200   1.177E+00
   16.300   1.195E+00
   16.400   1.213E+00
   16.500   1.233E+00
   16.600   1.253E+00
   16.700   1.274E+00
   16.800   1.297E+00
   16.900   1.319E+00
   17.000   1.342E+00
   17.100   1.365E+00
   17.200   1.387E+00
   17.300   1.407E+00
   17.400   1.426E+00
   17.500   1.443E+00
   17.600   1.456E+00
   17.700   1.466E+00
   17.800   1.472E+00
   17.900   1.474E+00
   18.000   1.472E+00
   18.100   1.465E+00
   18.200   1.455E+00
   18.300   1.441E+00
   18.400   1.424E+00
   18.500   1.404E+00
   18.600   1.382E+00
   18.700   1.359E+00
   18.800   1.334E+00
   18.900   1.310E+00
   19.000   1.285E+00
   19.100   1.260E+00
   19.200   1.237E+00
   19.300   1.214E+00
   19.400   1.192E+00
   19.500   1.171E+00
   19.600   1.151E+00
   19.700   1.132E+00
   19.800   1.115E+00
   19.900   1.099E+00
   20.000   1.084E+00
   20.100   1.071E+00
   20.200   1.059E+00
   20.300   1.047E+00
   20.400   1.037E+00
   20.500   1.028E+00
   20.600   1.020E+00
   20.700   1.013E+00
   20.800   1.007E+00
   20.900   1.002E+00
   21.000   9.969E-01
   21.100   9.927E-01
   21.200   9.890E-01
   21.300   9.856E-01
   21.400   9.825E-01
   21.500   9.795E-01
   21.600   9.766E-01
   21.700   9.736E-01
   21.800   9.705E-01
   21.900   9.672E-01
   22.000   9.636E-01
   22.100   9.598E-01
   22.200   9.556E-01
   22.300   9.511E-01
   22.400   9.462E-01
   22.500   9.409E-01
   22.600   9.353E-01
   22.700   9.294E-01
   22.800   9.230E-01
   22.900   9.163E-01
   23.000   9.092E-01
   23.100   9.017E-01
   23.200   8.939E-01
   23.300   8.858E-01
   23.400   8.774E-01
   23.500   8.688E-01
   23.600   8.598E-01
   23.700   8.507E-01
   23.800   8.413E-01
   23.900   8.318E-01
   24.000   8.220E-01
   24.100   8.122E-01
   24.200   8.021E-01
   24.300   7.919E-01
   24.400   7.816E-01
   24.500   7.712E-01
   24.600   7.607E-01
   24.700   7.501E-01
   24.800   7.394E-01
   24.900   7.286E-01
   25.000   7.178E-01
   25.100   7.070E-01
   25.200   6.962E-01
   25.300   6.854E-01
   25.400   6.746E-01
   25.500   6.639E-01
   25.600   6.533E-01
   25.700   6.427E-01
   25.800   6.323E-01
   25.900   6.221E-01
   26.000   6.119E-01
   26.100   6.020E-01
   26.200   5.922E-01
   26.300   5.826E-01
   26.400   5.733E-01
   26.500   5.641E-01
   26.600   5.552E-01
   26.700   5.464E-01
   26.800   5.380E-01
   26.900   5.297E-01
   27.000   5.217E-01
   27.100   5.139E-01
   27.200   5.064E-01
   27.300   4.990E-01
   27.400   4.918E-01
   27.500   4.849E-01
   27.600   4.781E-01
   27.700   4.714E-01
   27.800   4.650E-01
   27.900   4.587E-01
   28.000   4.525E-01
   28.100   4.465E-01
   28.200   4.406E-01
   28.300   4.349E-01
   28.400   4.293E-01
   28.500   4.239E-01
   28.600   4.186E-01
   28.700   4.135E-01
   28.800   4.085E-01
   28.900   4.036E-01
   29.000   3.988E-01
   29.100   3.942E-01
   29.200   3.896E-01
   29.300   3.851E-01
   29.400   3.807E-01
   29.500   3.764E-01
   29.600   3.722E-01
   29.700   3.680E-01
   29.800   3.639E-01
   29.900   3.598E-01
   30.000   3.557E-01
 
 Z=  14 A=  26 Si
  U[MeV]  fE1[mb/MeV]
    0.100   6.625E-06
    0.200   2.651E-05
    0.300   5.966E-05
    0.400   1.061E-04
    0.500   1.659E-04
    0.600   2.392E-04
    0.700   3.259E-04
    0.800   4.261E-04
    0.900   5.401E-04
    1.000   6.678E-04
    1.100   8.094E-04
    1.200   9.651E-04
    1.300   1.135E-03
    1.400   1.319E-03
    1.500   1.518E-03
    1.600   1.731E-03
    1.700   1.960E-03
    1.800   2.204E-03
    1.900   2.463E-03
    2.000   2.738E-03
    2.100   3.029E-03
    2.200   3.336E-03
    2.300   3.660E-03
    2.400   4.001E-03
    2.500   4.359E-03
    2.600   4.735E-03
    2.700   5.129E-03
    2.800   5.542E-03
    2.900   5.973E-03
    3.000   6.425E-03
    3.100   6.896E-03
    3.200   7.388E-03
    3.300   7.902E-03
    3.400   8.437E-03
    3.500   8.995E-03
    3.600   9.575E-03
    3.700   1.018E-02
    3.800   1.081E-02
    3.900   1.146E-02
    4.000   1.215E-02
    4.100   1.285E-02
    4.200   1.359E-02
    4.300   1.436E-02
    4.400   1.515E-02
    4.500   1.598E-02
    4.600   1.684E-02
    4.700   1.774E-02
    4.800   1.867E-02
    4.900   1.964E-02
    5.000   2.064E-02
    5.100   2.169E-02
    5.200   2.277E-02
    5.300   2.390E-02
    5.400   2.508E-02
    5.500   2.630E-02
    5.600   2.758E-02
    5.700   2.891E-02
    5.800   3.029E-02
    5.900   3.173E-02
    6.000   3.323E-02
    6.100   3.479E-02
    6.200   3.642E-02
    6.300   3.813E-02
    6.400   3.990E-02
    6.500   4.176E-02
    6.600   4.370E-02
    6.700   4.573E-02
    6.800   4.785E-02
    6.900   5.007E-02
    7.000   5.240E-02
    7.100   5.484E-02
    7.200   5.740E-02
    7.300   6.009E-02
    7.400   6.291E-02
    7.500   6.588E-02
    7.600   6.900E-02
    7.700   7.228E-02
    7.800   7.574E-02
    7.900   7.939E-02
    8.000   8.323E-02
    8.100   8.729E-02
    8.200   9.157E-02
    8.300   9.610E-02
    8.400   1.009E-01
    8.500   1.059E-01
    8.600   1.112E-01
    8.700   1.169E-01
    8.800   1.228E-01
    8.900   1.291E-01
    9.000   1.356E-01
    9.100   1.425E-01
    9.200   1.497E-01
    9.300   1.573E-01
    9.400   1.652E-01
    9.500   1.733E-01
    9.600   1.818E-01
    9.700   1.905E-01
    9.800   1.995E-01
    9.900   2.087E-01
   10.000   2.181E-01
   10.100   2.278E-01
   10.200   2.377E-01
   10.300   2.478E-01
   10.400   2.581E-01
   10.500   2.688E-01
   10.600   2.797E-01
   10.700   2.910E-01
   10.800   3.026E-01
   10.900   3.147E-01
   11.000   3.272E-01
   11.100   3.402E-01
   11.200   3.538E-01
   11.300   3.680E-01
   11.400   3.829E-01
   11.500   3.986E-01
   11.600   4.151E-01
   11.700   4.325E-01
   11.800   4.510E-01
   11.900   4.706E-01
   12.000   4.914E-01
   12.100   5.133E-01
   12.200   5.365E-01
   12.300   5.610E-01
   12.400   5.865E-01
   12.500   6.131E-01
   12.600   6.405E-01
   12.700   6.685E-01
   12.800   6.970E-01
   12.900   7.256E-01
   13.000   7.541E-01
   13.100   7.822E-01
   13.200   8.097E-01
   13.300   8.365E-01
   13.400   8.624E-01
   13.500   8.876E-01
   13.600   9.121E-01
   13.700   9.359E-01
   13.800   9.592E-01
   13.900   9.822E-01
   14.000   1.005E+00
   14.100   1.027E+00
   14.200   1.050E+00
   14.300   1.072E+00
   14.400   1.095E+00
   14.500   1.117E+00
   14.600   1.139E+00
   14.700   1.160E+00
   14.800   1.182E+00
   14.900   1.203E+00
   15.000   1.223E+00
   15.100   1.243E+00
   15.200   1.261E+00
   15.300   1.279E+00
   15.400   1.295E+00
   15.500   1.310E+00
   15.600   1.323E+00
   15.700   1.335E+00
   15.800   1.347E+00
   15.900   1.357E+00
   16.000   1.366E+00
   16.100   1.375E+00
   16.200   1.384E+00
   16.300   1.393E+00
   16.400   1.402E+00
   16.500   1.412E+00
   16.600   1.421E+00
   16.700   1.430E+00
   16.800   1.438E+00
   16.900   1.445E+00
   17.000   1.450E+00
   17.100   1.453E+00
   17.200   1.453E+00
   17.300   1.450E+00
   17.400   1.443E+00
   17.500   1.433E+00
   17.600   1.420E+00
   17.700   1.403E+00
   17.800   1.384E+00
   17.900   1.362E+00
   18.000   1.339E+00
   18.100   1.314E+00
   18.200   1.289E+00
   18.300   1.264E+00
   18.400   1.238E+00
   18.500   1.214E+00
   18.600   1.191E+00
   18.700   1.169E+00
   18.800   1.148E+00
   18.900   1.129E+00
   19.000   1.111E+00
   19.100   1.095E+00
   19.200   1.080E+00
   19.300   1.067E+00
   19.400   1.055E+00
   19.500   1.045E+00
   19.600   1.036E+00
   19.700   1.029E+00
   19.800   1.022E+00
   19.900   1.017E+00
   20.000   1.012E+00
   20.100   1.008E+00
   20.200   1.005E+00
   20.300   1.003E+00
   20.400   1.002E+00
   20.500   1.001E+00
   20.600   1.001E+00
   20.700   1.000E+00
   20.800   1.001E+00
   20.900   1.001E+00
   21.000   1.001E+00
   21.100   1.001E+00
   21.200   1.000E+00
   21.300   9.993E-01
   21.400   9.976E-01
   21.500   9.952E-01
   21.600   9.921E-01
   21.700   9.882E-01
   21.800   9.836E-01
   21.900   9.783E-01
   22.000   9.725E-01
   22.100   9.663E-01
   22.200   9.597E-01
   22.300   9.529E-01
   22.400   9.460E-01
   22.500   9.389E-01
   22.600   9.319E-01
   22.700   9.248E-01
   22.800   9.177E-01
   22.900   9.106E-01
   23.000   9.035E-01
   23.100   8.963E-01
   23.200   8.890E-01
   23.300   8.816E-01
   23.400   8.740E-01
   23.500   8.663E-01
   23.600   8.584E-01
   23.700   8.503E-01
   23.800   8.420E-01
   23.900   8.335E-01
   24.000   8.248E-01
   24.100   8.160E-01
   24.200   8.069E-01
   24.300   7.977E-01
   24.400   7.884E-01
   24.500   7.788E-01
   24.600   7.692E-01
   24.700   7.594E-01
   24.800   7.494E-01
   24.900   7.394E-01
   25.000   7.292E-01
   25.100   7.190E-01
   25.200   7.087E-01
   25.300   6.983E-01
   25.400   6.879E-01
   25.500   6.776E-01
   25.600   6.672E-01
   25.700   6.569E-01
   25.800   6.466E-01
   25.900   6.365E-01
   26.000   6.264E-01
   26.100   6.165E-01
   26.200   6.068E-01
   26.300   5.972E-01
   26.400   5.878E-01
   26.500   5.786E-01
   26.600   5.696E-01
   26.700   5.608E-01
   26.800   5.522E-01
   26.900   5.438E-01
   27.000   5.356E-01
   27.100   5.277E-01
   27.200   5.200E-01
   27.300   5.125E-01
   27.400   5.052E-01
   27.500   4.981E-01
   27.600   4.913E-01
   27.700   4.847E-01
   27.800   4.783E-01
   27.900   4.722E-01
   28.000   4.663E-01
   28.100   4.606E-01
   28.200   4.551E-01
   28.300   4.497E-01
   28.400   4.446E-01
   28.500   4.396E-01
   28.600   4.348E-01
   28.700   4.301E-01
   28.800   4.255E-01
   28.900   4.210E-01
   29.000   4.166E-01
   29.100   4.123E-01
   29.200   4.081E-01
   29.300   4.039E-01
   29.400   3.997E-01
   29.500   3.956E-01
   29.600   3.914E-01
   29.700   3.873E-01
   29.800   3.832E-01
   29.900   3.791E-01
   30.000   3.750E-01
 
 Z=  14 A=  27 Si
  U[MeV]  fE1[mb/MeV]
    0.100   6.483E-06
    0.200   2.594E-05
    0.300   5.838E-05
    0.400   1.038E-04
    0.500   1.624E-04
    0.600   2.340E-04
    0.700   3.188E-04
    0.800   4.169E-04
    0.900   5.283E-04
    1.000   6.532E-04
    1.100   7.917E-04
    1.200   9.439E-04
    1.300   1.110E-03
    1.400   1.290E-03
    1.500   1.484E-03
    1.600   1.693E-03
    1.700   1.916E-03
    1.800   2.154E-03
    1.900   2.407E-03
    2.000   2.675E-03
    2.100   2.959E-03
    2.200   3.258E-03
    2.300   3.574E-03
    2.400   3.906E-03
    2.500   4.255E-03
    2.600   4.621E-03
    2.700   5.004E-03
    2.800   5.405E-03
    2.900   5.825E-03
    3.000   6.264E-03
    3.100   6.721E-03
    3.200   7.199E-03
    3.300   7.697E-03
    3.400   8.215E-03
    3.500   8.755E-03
    3.600   9.317E-03
    3.700   9.902E-03
    3.800   1.051E-02
    3.900   1.114E-02
    4.000   1.180E-02
    4.100   1.248E-02
    4.200   1.319E-02
    4.300   1.393E-02
    4.400   1.469E-02
    4.500   1.549E-02
    4.600   1.631E-02
    4.700   1.717E-02
    4.800   1.806E-02
    4.900   1.898E-02
    5.000   1.994E-02
    5.100   2.094E-02
    5.200   2.197E-02
    5.300   2.304E-02
    5.400   2.416E-02
    5.500   2.532E-02
    5.600   2.652E-02
    5.700   2.777E-02
    5.800   2.907E-02
    5.900   3.042E-02
    6.000   3.182E-02
    6.100   3.329E-02
    6.200   3.480E-02
    6.300   3.639E-02
    6.400   3.803E-02
    6.500   3.975E-02
    6.600   4.154E-02
    6.700   4.340E-02
    6.800   4.534E-02
    6.900   4.737E-02
    7.000   4.949E-02
    7.100   5.170E-02
    7.200   5.400E-02
    7.300   5.642E-02
    7.400   5.894E-02
    7.500   6.159E-02
    7.600   6.436E-02
    7.700   6.726E-02
    7.800   7.031E-02
    7.900   7.350E-02
    8.000   7.686E-02
    8.100   8.039E-02
    8.200   8.410E-02
    8.300   8.801E-02
    8.400   9.212E-02
    8.500   9.646E-02
    8.600   1.010E-01
    8.700   1.059E-01
    8.800   1.110E-01
    8.900   1.164E-01
    9.000   1.221E-01
    9.100   1.281E-01
    9.200   1.344E-01
    9.300   1.412E-01
    9.400   1.483E-01
    9.500   1.558E-01
    9.600   1.637E-01
    9.700   1.720E-01
    9.800   1.808E-01
    9.900   1.900E-01
   10.000   1.996E-01
   10.100   2.097E-01
   10.200   2.203E-01
   10.300   2.313E-01
   10.400   2.429E-01
   10.500   2.549E-01
   10.600   2.674E-01
   10.700   2.806E-01
   10.800   2.943E-01
   10.900   3.088E-01
   11.000   3.240E-01
   11.100   3.401E-01
   11.200   3.571E-01
   11.300   3.751E-01
   11.400   3.941E-01
   11.500   4.143E-01
   11.600   4.358E-01
   11.700   4.584E-01
   11.800   4.825E-01
   11.900   5.079E-01
   12.000   5.347E-01
   12.100   5.629E-01
   12.200   5.925E-01
   12.300   6.234E-01
   12.400   6.555E-01
   12.500   6.887E-01
   12.600   7.227E-01
   12.700   7.573E-01
   12.800   7.919E-01
   12.900   8.263E-01
   13.000   8.599E-01
   13.100   8.924E-01
   13.200   9.233E-01
   13.300   9.524E-01
   13.400   9.796E-01
   13.500   1.005E+00
   13.600   1.028E+00
   13.700   1.051E+00
   13.800   1.072E+00
   13.900   1.092E+00
   14.000   1.113E+00
   14.100   1.134E+00
   14.200   1.156E+00
   14.300   1.179E+00
   14.400   1.203E+00
   14.500   1.229E+00
   14.600   1.257E+00
   14.700   1.286E+00
   14.800   1.316E+00
   14.900   1.346E+00
   15.000   1.376E+00
   15.100   1.405E+00
   15.200   1.433E+00
   15.300   1.458E+00
   15.400   1.481E+00
   15.500   1.499E+00
   15.600   1.514E+00
   15.700   1.524E+00
   15.800   1.529E+00
   15.900   1.531E+00
   16.000   1.529E+00
   16.100   1.523E+00
   16.200   1.515E+00
   16.300   1.505E+00
   16.400   1.493E+00
   16.500   1.481E+00
   16.600   1.469E+00
   16.700   1.456E+00
   16.800   1.444E+00
   16.900   1.432E+00
   17.000   1.420E+00
   17.100   1.409E+00
   17.200   1.398E+00
   17.300   1.387E+00
   17.400   1.376E+00
   17.500   1.364E+00
   17.600   1.351E+00
   17.700   1.338E+00
   17.800   1.324E+00
   17.900   1.309E+00
   18.000   1.293E+00
   18.100   1.277E+00
   18.200   1.260E+00
   18.300   1.244E+00
   18.400   1.228E+00
   18.500   1.213E+00
   18.600   1.198E+00
   18.700   1.184E+00
   18.800   1.171E+00
   18.900   1.159E+00
   19.000   1.149E+00
   19.100   1.139E+00
   19.200   1.130E+00
   19.300   1.123E+00
   19.400   1.116E+00
   19.500   1.110E+00
   19.600   1.105E+00
   19.700   1.100E+00
   19.800   1.096E+00
   19.900   1.093E+00
   20.000   1.090E+00
   20.100   1.088E+00
   20.200   1.085E+00
   20.300   1.084E+00
   20.400   1.082E+00
   20.500   1.080E+00
   20.600   1.078E+00
   20.700   1.076E+00
   20.800   1.075E+00
   20.900   1.073E+00
   21.000   1.070E+00
   21.100   1.068E+00
   21.200   1.065E+00
   21.300   1.062E+00
   21.400   1.059E+00
   21.500   1.056E+00
   21.600   1.052E+00
   21.700   1.048E+00
   21.800   1.044E+00
   21.900   1.039E+00
   22.000   1.034E+00
   22.100   1.028E+00
   22.200   1.022E+00
   22.300   1.016E+00
   22.400   1.009E+00
   22.500   1.001E+00
   22.600   9.929E-01
   22.700   9.841E-01
   22.800   9.746E-01
   22.900   9.646E-01
   23.000   9.542E-01
   23.100   9.433E-01
   23.200   9.320E-01
   23.300   9.205E-01
   23.400   9.089E-01
   23.500   8.971E-01
   23.600   8.853E-01
   23.700   8.735E-01
   23.800   8.617E-01
   23.900   8.501E-01
   24.000   8.385E-01
   24.100   8.271E-01
   24.200   8.157E-01
   24.300   8.045E-01
   24.400   7.934E-01
   24.500   7.824E-01
   24.600   7.715E-01
   24.700   7.606E-01
   24.800   7.498E-01
   24.900   7.391E-01
   25.000   7.284E-01
   25.100   7.178E-01
   25.200   7.073E-01
   25.300   6.968E-01
   25.400   6.864E-01
   25.500   6.761E-01
   25.600   6.659E-01
   25.700   6.559E-01
   25.800   6.459E-01
   25.900   6.361E-01
   26.000   6.265E-01
   26.100   6.170E-01
   26.200   6.076E-01
   26.300   5.985E-01
   26.400   5.895E-01
   26.500   5.807E-01
   26.600   5.721E-01
   26.700   5.637E-01
   26.800   5.554E-01
   26.900   5.474E-01
   27.000   5.396E-01
   27.100   5.320E-01
   27.200   5.245E-01
   27.300   5.173E-01
   27.400   5.102E-01
   27.500   5.033E-01
   27.600   4.967E-01
   27.700   4.902E-01
   27.800   4.839E-01
   27.900   4.778E-01
   28.000   4.719E-01
   28.100   4.661E-01
   28.200   4.605E-01
   28.300   4.551E-01
   28.400   4.499E-01
   28.500   4.448E-01
   28.600   4.399E-01
   28.700   4.351E-01
   28.800   4.305E-01
   28.900   4.259E-01
   29.000   4.215E-01
   29.100   4.172E-01
   29.200   4.130E-01
   29.300   4.089E-01
   29.400   4.049E-01
   29.500   4.009E-01
   29.600   3.970E-01
   29.700   3.932E-01
   29.800   3.893E-01
   29.900   3.856E-01
   30.000   3.818E-01
 
 Z=  14 A=  28 Si
  U[MeV]  fE1[mb/MeV]
    0.100   6.097E-06
    0.200   2.439E-05
    0.300   5.491E-05
    0.400   9.766E-05
    0.500   1.527E-04
    0.600   2.201E-04
    0.700   2.998E-04
    0.800   3.920E-04
    0.900   4.968E-04
    1.000   6.142E-04
    1.100   7.444E-04
    1.200   8.874E-04
    1.300   1.043E-03
    1.400   1.212E-03
    1.500   1.395E-03
    1.600   1.591E-03
    1.700   1.800E-03
    1.800   2.024E-03
    1.900   2.261E-03
    2.000   2.513E-03
    2.100   2.779E-03
    2.200   3.060E-03
    2.300   3.356E-03
    2.400   3.667E-03
    2.500   3.994E-03
    2.600   4.336E-03
    2.700   4.695E-03
    2.800   5.071E-03
    2.900   5.464E-03
    3.000   5.874E-03
    3.100   6.302E-03
    3.200   6.748E-03
    3.300   7.213E-03
    3.400   7.697E-03
    3.500   8.201E-03
    3.600   8.725E-03
    3.700   9.270E-03
    3.800   9.836E-03
    3.900   1.042E-02
    4.000   1.104E-02
    4.100   1.167E-02
    4.200   1.233E-02
    4.300   1.301E-02
    4.400   1.372E-02
    4.500   1.446E-02
    4.600   1.523E-02
    4.700   1.602E-02
    4.800   1.684E-02
    4.900   1.769E-02
    5.000   1.858E-02
    5.100   1.950E-02
    5.200   2.045E-02
    5.300   2.144E-02
    5.400   2.246E-02
    5.500   2.352E-02
    5.600   2.463E-02
    5.700   2.577E-02
    5.800   2.696E-02
    5.900   2.819E-02
    6.000   2.947E-02
    6.100   3.080E-02
    6.200   3.219E-02
    6.300   3.362E-02
    6.400   3.511E-02
    6.500   3.667E-02
    6.600   3.828E-02
    6.700   3.996E-02
    6.800   4.171E-02
    6.900   4.353E-02
    7.000   4.542E-02
    7.100   4.740E-02
    7.200   4.946E-02
    7.300   5.160E-02
    7.400   5.384E-02
    7.500   5.618E-02
    7.600   5.863E-02
    7.700   6.118E-02
    7.800   6.385E-02
    7.900   6.665E-02
    8.000   6.957E-02
    8.100   7.264E-02
    8.200   7.586E-02
    8.300   7.923E-02
    8.400   8.277E-02
    8.500   8.650E-02
    8.600   9.041E-02
    8.700   9.453E-02
    8.800   9.887E-02
    8.900   1.034E-01
    9.000   1.083E-01
    9.100   1.134E-01
    9.200   1.187E-01
    9.300   1.244E-01
    9.400   1.304E-01
    9.500   1.368E-01
    9.600   1.436E-01
    9.700   1.507E-01
    9.800   1.582E-01
    9.900   1.662E-01
   10.000   1.747E-01
   10.100   1.836E-01
   10.200   1.931E-01
   10.300   2.031E-01
   10.400   2.136E-01
   10.500   2.247E-01
   10.600   2.363E-01
   10.700   2.486E-01
   10.800   2.615E-01
   10.900   2.750E-01
   11.000   2.893E-01
   11.100   3.043E-01
   11.200   3.201E-01
   11.300   3.368E-01
   11.400   3.545E-01
   11.500   3.733E-01
   11.600   3.932E-01
   11.700   4.145E-01
   11.800   4.373E-01
   11.900   4.615E-01
   12.000   4.875E-01
   12.100   5.152E-01
   12.200   5.448E-01
   12.300   5.762E-01
   12.400   6.097E-01
   12.500   6.451E-01
   12.600   6.823E-01
   12.700   7.213E-01
   12.800   7.618E-01
   12.900   8.036E-01
   13.000   8.462E-01
   13.100   8.892E-01
   13.200   9.323E-01
   13.300   9.748E-01
   13.400   1.016E+00
   13.500   1.057E+00
   13.600   1.095E+00
   13.700   1.132E+00
   13.800   1.167E+00
   13.900   1.200E+00
   14.000   1.231E+00
   14.100   1.262E+00
   14.200   1.292E+00
   14.300   1.321E+00
   14.400   1.351E+00
   14.500   1.382E+00
   14.600   1.414E+00
   14.700   1.447E+00
   14.800   1.481E+00
   14.900   1.515E+00
   15.000   1.549E+00
   15.100   1.582E+00
   15.200   1.613E+00
   15.300   1.641E+00
   15.400   1.665E+00
   15.500   1.683E+00
   15.600   1.695E+00
   15.700   1.700E+00
   15.800   1.698E+00
   15.900   1.689E+00
   16.000   1.674E+00
   16.100   1.653E+00
   16.200   1.627E+00
   16.300   1.599E+00
   16.400   1.567E+00
   16.500   1.535E+00
   16.600   1.503E+00
   16.700   1.471E+00
   16.800   1.440E+00
   16.900   1.410E+00
   17.000   1.383E+00
   17.100   1.357E+00
   17.200   1.334E+00
   17.300   1.312E+00
   17.400   1.293E+00
   17.500   1.276E+00
   17.600   1.261E+00
   17.700   1.248E+00
   17.800   1.237E+00
   17.900   1.227E+00
   18.000   1.218E+00
   18.100   1.210E+00
   18.200   1.203E+00
   18.300   1.197E+00
   18.400   1.192E+00
   18.500   1.187E+00
   18.600   1.182E+00
   18.700   1.178E+00
   18.800   1.175E+00
   18.900   1.172E+00
   19.000   1.169E+00
   19.100   1.167E+00
   19.200   1.166E+00
   19.300   1.165E+00
   19.400   1.164E+00
   19.500   1.164E+00
   19.600   1.164E+00
   19.700   1.164E+00
   19.800   1.164E+00
   19.900   1.165E+00
   20.000   1.165E+00
   20.100   1.165E+00
   20.200   1.164E+00
   20.300   1.164E+00
   20.400   1.163E+00
   20.500   1.162E+00
   20.600   1.160E+00
   20.700   1.159E+00
   20.800   1.157E+00
   20.900   1.155E+00
   21.000   1.154E+00
   21.100   1.151E+00
   21.200   1.149E+00
   21.300   1.147E+00
   21.400   1.144E+00
   21.500   1.141E+00
   21.600   1.138E+00
   21.700   1.135E+00
   21.800   1.131E+00
   21.900   1.127E+00
   22.000   1.123E+00
   22.100   1.119E+00
   22.200   1.114E+00
   22.300   1.108E+00
   22.400   1.102E+00
   22.500   1.094E+00
   22.600   1.086E+00
   22.700   1.077E+00
   22.800   1.066E+00
   22.900   1.055E+00
   23.000   1.042E+00
   23.100   1.029E+00
   23.200   1.014E+00
   23.300   9.992E-01
   23.400   9.836E-01
   23.500   9.676E-01
   23.600   9.513E-01
   23.700   9.349E-01
   23.800   9.184E-01
   23.900   9.020E-01
   24.000   8.858E-01
   24.100   8.698E-01
   24.200   8.540E-01
   24.300   8.385E-01
   24.400   8.233E-01
   24.500   8.085E-01
   24.600   7.940E-01
   24.700   7.799E-01
   24.800   7.661E-01
   24.900   7.527E-01
   25.000   7.396E-01
   25.100   7.269E-01
   25.200   7.146E-01
   25.300   7.026E-01
   25.400   6.909E-01
   25.500   6.796E-01
   25.600   6.686E-01
   25.700   6.579E-01
   25.800   6.475E-01
   25.900   6.374E-01
   26.000   6.276E-01
   26.100   6.180E-01
   26.200   6.087E-01
   26.300   5.996E-01
   26.400   5.908E-01
   26.500   5.823E-01
   26.600   5.739E-01
   26.700   5.658E-01
   26.800   5.579E-01
   26.900   5.503E-01
   27.000   5.428E-01
   27.100   5.355E-01
   27.200   5.284E-01
   27.300   5.215E-01
   27.400   5.147E-01
   27.500   5.081E-01
   27.600   5.017E-01
   27.700   4.955E-01
   27.800   4.894E-01
   27.900   4.834E-01
   28.000   4.776E-01
   28.100   4.720E-01
   28.200   4.665E-01
   28.300   4.611E-01
   28.400   4.559E-01
   28.500   4.509E-01
   28.600   4.460E-01
   28.700   4.412E-01
   28.800   4.365E-01
   28.900   4.320E-01
   29.000   4.277E-01
   29.100   4.234E-01
   29.200   4.192E-01
   29.300   4.152E-01
   29.400   4.112E-01
   29.500   4.074E-01
   29.600   4.036E-01
   29.700   3.999E-01
   29.800   3.962E-01
   29.900   3.927E-01
   30.000   3.891E-01
 
 Z=  14 A=  29 Si
  U[MeV]  fE1[mb/MeV]
    0.100   6.114E-06
    0.200   2.446E-05
    0.300   5.506E-05
    0.400   9.792E-05
    0.500   1.531E-04
    0.600   2.206E-04
    0.700   3.006E-04
    0.800   3.930E-04
    0.900   4.980E-04
    1.000   6.157E-04
    1.100   7.460E-04
    1.200   8.893E-04
    1.300   1.046E-03
    1.400   1.215E-03
    1.500   1.398E-03
    1.600   1.594E-03
    1.700   1.803E-03
    1.800   2.027E-03
    1.900   2.264E-03
    2.000   2.516E-03
    2.100   2.782E-03
    2.200   3.062E-03
    2.300   3.358E-03
    2.400   3.669E-03
    2.500   3.995E-03
    2.600   4.337E-03
    2.700   4.695E-03
    2.800   5.069E-03
    2.900   5.460E-03
    3.000   5.869E-03
    3.100   6.295E-03
    3.200   6.739E-03
    3.300   7.201E-03
    3.400   7.682E-03
    3.500   8.182E-03
    3.600   8.703E-03
    3.700   9.243E-03
    3.800   9.805E-03
    3.900   1.039E-02
    4.000   1.099E-02
    4.100   1.162E-02
    4.200   1.227E-02
    4.300   1.295E-02
    4.400   1.365E-02
    4.500   1.438E-02
    4.600   1.513E-02
    4.700   1.591E-02
    4.800   1.672E-02
    4.900   1.756E-02
    5.000   1.843E-02
    5.100   1.933E-02
    5.200   2.026E-02
    5.300   2.123E-02
    5.400   2.223E-02
    5.500   2.327E-02
    5.600   2.434E-02
    5.700   2.546E-02
    5.800   2.662E-02
    5.900   2.782E-02
    6.000   2.906E-02
    6.100   3.035E-02
    6.200   3.169E-02
    6.300   3.308E-02
    6.400   3.452E-02
    6.500   3.602E-02
    6.600   3.757E-02
    6.700   3.919E-02
    6.800   4.086E-02
    6.900   4.261E-02
    7.000   4.442E-02
    7.100   4.631E-02
    7.200   4.827E-02
    7.300   5.032E-02
    7.400   5.244E-02
    7.500   5.466E-02
    7.600   5.697E-02
    7.700   5.939E-02
    7.800   6.190E-02
    7.900   6.453E-02
    8.000   6.728E-02
    8.100   7.015E-02
    8.200   7.315E-02
    8.300   7.630E-02
    8.400   7.959E-02
    8.500   8.304E-02
    8.600   8.666E-02
    8.700   9.046E-02
    8.800   9.445E-02
    8.900   9.865E-02
    9.000   1.031E-01
    9.100   1.077E-01
    9.200   1.126E-01
    9.300   1.177E-01
    9.400   1.232E-01
    9.500   1.289E-01
    9.600   1.349E-01
    9.700   1.413E-01
    9.800   1.480E-01
    9.900   1.551E-01
   10.000   1.625E-01
   10.100   1.703E-01
   10.200   1.786E-01
   10.300   1.872E-01
   10.400   1.963E-01
   10.500   2.057E-01
   10.600   2.156E-01
   10.700   2.258E-01
   10.800   2.365E-01
   10.900   2.475E-01
   11.000   2.589E-01
   11.100   2.707E-01
   11.200   2.829E-01
   11.300   2.955E-01
   11.400   3.085E-01
   11.500   3.221E-01
   11.600   3.362E-01
   11.700   3.509E-01
   11.800   3.663E-01
   11.900   3.827E-01
   12.000   3.999E-01
   12.100   4.183E-01
   12.200   4.379E-01
   12.300   4.589E-01
   12.400   4.813E-01
   12.500   5.053E-01
   12.600   5.310E-01
   12.700   5.585E-01
   12.800   5.880E-01
   12.900   6.194E-01
   13.000   6.529E-01
   13.100   6.884E-01
   13.200   7.260E-01
   13.300   7.656E-01
   13.400   8.072E-01
   13.500   8.505E-01
   13.600   8.953E-01
   13.700   9.415E-01
   13.800   9.887E-01
   13.900   1.036E+00
   14.000   1.084E+00
   14.100   1.132E+00
   14.200   1.180E+00
   14.300   1.226E+00
   14.400   1.271E+00
   14.500   1.315E+00
   14.600   1.356E+00
   14.700   1.397E+00
   14.800   1.435E+00
   14.900   1.471E+00
   15.000   1.507E+00
   15.100   1.540E+00
   15.200   1.572E+00
   15.300   1.603E+00
   15.400   1.632E+00
   15.500   1.659E+00
   15.600   1.684E+00
   15.700   1.706E+00
   15.800   1.724E+00
   15.900   1.739E+00
   16.000   1.748E+00
   16.100   1.753E+00
   16.200   1.752E+00
   16.300   1.747E+00
   16.400   1.737E+00
   16.500   1.723E+00
   16.600   1.706E+00
   16.700   1.686E+00
   16.800   1.665E+00
   16.900   1.643E+00
   17.000   1.620E+00
   17.100   1.597E+00
   17.200   1.575E+00
   17.300   1.553E+00
   17.400   1.532E+00
   17.500   1.513E+00
   17.600   1.495E+00
   17.700   1.478E+00
   17.800   1.463E+00
   17.900   1.449E+00
   18.000   1.437E+00
   18.100   1.426E+00
   18.200   1.416E+00
   18.300   1.407E+00
   18.400   1.399E+00
   18.500   1.392E+00
   18.600   1.386E+00
   18.700   1.381E+00
   18.800   1.377E+00
   18.900   1.373E+00
   19.000   1.370E+00
   19.100   1.368E+00
   19.200   1.366E+00
   19.300   1.365E+00
   19.400   1.364E+00
   19.500   1.363E+00
   19.600   1.363E+00
   19.700   1.363E+00
   19.800   1.363E+00
   19.900   1.363E+00
   20.000   1.363E+00
   20.100   1.363E+00
   20.200   1.362E+00
   20.300   1.361E+00
   20.400   1.360E+00
   20.500   1.358E+00
   20.600   1.356E+00
   20.700   1.352E+00
   20.800   1.348E+00
   20.900   1.342E+00
   21.000   1.335E+00
   21.100   1.327E+00
   21.200   1.318E+00
   21.300   1.308E+00
   21.400   1.297E+00
   21.500   1.286E+00
   21.600   1.274E+00
   21.700   1.261E+00
   21.800   1.248E+00
   21.900   1.235E+00
   22.000   1.221E+00
   22.100   1.208E+00
   22.200   1.195E+00
   22.300   1.182E+00
   22.400   1.169E+00
   22.500   1.156E+00
   22.600   1.143E+00
   22.700   1.131E+00
   22.800   1.119E+00
   22.900   1.106E+00
   23.000   1.095E+00
   23.100   1.083E+00
   23.200   1.071E+00
   23.300   1.059E+00
   23.400   1.047E+00
   23.500   1.034E+00
   23.600   1.021E+00
   23.700   1.008E+00
   23.800   9.935E-01
   23.900   9.788E-01
   24.000   9.636E-01
   24.100   9.478E-01
   24.200   9.316E-01
   24.300   9.151E-01
   24.400   8.983E-01
   24.500   8.814E-01
   24.600   8.645E-01
   24.700   8.477E-01
   24.800   8.310E-01
   24.900   8.147E-01
   25.000   7.986E-01
   25.100   7.830E-01
   25.200   7.678E-01
   25.300   7.530E-01
   25.400   7.386E-01
   25.500   7.248E-01
   25.600   7.114E-01
   25.700   6.984E-01
   25.800   6.859E-01
   25.900   6.738E-01
   26.000   6.621E-01
   26.100   6.508E-01
   26.200   6.400E-01
   26.300   6.295E-01
   26.400   6.195E-01
   26.500   6.098E-01
   26.600   6.005E-01
   26.700   5.915E-01
   26.800   5.828E-01
   26.900   5.745E-01
   27.000   5.664E-01
   27.100   5.586E-01
   27.200   5.511E-01
   27.300   5.437E-01
   27.400   5.366E-01
   27.500   5.296E-01
   27.600   5.227E-01
   27.700   5.160E-01
   27.800   5.094E-01
   27.900   5.029E-01
   28.000   4.965E-01
   28.100   4.902E-01
   28.200   4.839E-01
   28.300   4.778E-01
   28.400   4.717E-01
   28.500   4.658E-01
   28.600   4.599E-01
   28.700   4.542E-01
   28.800   4.487E-01
   28.900   4.433E-01
   29.000   4.380E-01
   29.100   4.330E-01
   29.200   4.281E-01
   29.300   4.233E-01
   29.400   4.188E-01
   29.500   4.144E-01
   29.600   4.102E-01
   29.700   4.062E-01
   29.800   4.023E-01
   29.900   3.986E-01
   30.000   3.951E-01
 
 Z=  14 A=  30 Si
  U[MeV]  fE1[mb/MeV]
    0.100   6.444E-06
    0.200   2.578E-05
    0.300   5.803E-05
    0.400   1.032E-04
    0.500   1.614E-04
    0.600   2.325E-04
    0.700   3.168E-04
    0.800   4.142E-04
    0.900   5.249E-04
    1.000   6.488E-04
    1.100   7.862E-04
    1.200   9.372E-04
    1.300   1.102E-03
    1.400   1.280E-03
    1.500   1.473E-03
    1.600   1.679E-03
    1.700   1.900E-03
    1.800   2.136E-03
    1.900   2.386E-03
    2.000   2.651E-03
    2.100   2.931E-03
    2.200   3.227E-03
    2.300   3.538E-03
    2.400   3.865E-03
    2.500   4.209E-03
    2.600   4.569E-03
    2.700   4.946E-03
    2.800   5.340E-03
    2.900   5.752E-03
    3.000   6.182E-03
    3.100   6.630E-03
    3.200   7.097E-03
    3.300   7.584E-03
    3.400   8.090E-03
    3.500   8.617E-03
    3.600   9.164E-03
    3.700   9.733E-03
    3.800   1.032E-02
    3.900   1.094E-02
    4.000   1.157E-02
    4.100   1.223E-02
    4.200   1.292E-02
    4.300   1.363E-02
    4.400   1.437E-02
    4.500   1.513E-02
    4.600   1.592E-02
    4.700   1.674E-02
    4.800   1.759E-02
    4.900   1.847E-02
    5.000   1.939E-02
    5.100   2.033E-02
    5.200   2.131E-02
    5.300   2.233E-02
    5.400   2.338E-02
    5.500   2.447E-02
    5.600   2.560E-02
    5.700   2.677E-02
    5.800   2.798E-02
    5.900   2.924E-02
    6.000   3.055E-02
    6.100   3.190E-02
    6.200   3.330E-02
    6.300   3.476E-02
    6.400   3.627E-02
    6.500   3.784E-02
    6.600   3.947E-02
    6.700   4.116E-02
    6.800   4.291E-02
    6.900   4.474E-02
    7.000   4.664E-02
    7.100   4.861E-02
    7.200   5.067E-02
    7.300   5.280E-02
    7.400   5.503E-02
    7.500   5.735E-02
    7.600   5.977E-02
    7.700   6.229E-02
    7.800   6.492E-02
    7.900   6.766E-02
    8.000   7.053E-02
    8.100   7.353E-02
    8.200   7.666E-02
    8.300   7.994E-02
    8.400   8.338E-02
    8.500   8.697E-02
    8.600   9.074E-02
    8.700   9.470E-02
    8.800   9.885E-02
    8.900   1.032E-01
    9.000   1.078E-01
    9.100   1.126E-01
    9.200   1.177E-01
    9.300   1.230E-01
    9.400   1.286E-01
    9.500   1.345E-01
    9.600   1.407E-01
    9.700   1.473E-01
    9.800   1.541E-01
    9.900   1.613E-01
   10.000   1.689E-01
   10.100   1.768E-01
   10.200   1.851E-01
   10.300   1.937E-01
   10.400   2.027E-01
   10.500   2.120E-01
   10.600   2.217E-01
   10.700   2.316E-01
   10.800   2.419E-01
   10.900   2.524E-01
   11.000   2.632E-01
   11.100   2.743E-01
   11.200   2.857E-01
   11.300   2.974E-01
   11.400   3.095E-01
   11.500   3.220E-01
   11.600   3.350E-01
   11.700   3.485E-01
   11.800   3.626E-01
   11.900   3.774E-01
   12.000   3.930E-01
   12.100   4.095E-01
   12.200   4.269E-01
   12.300   4.454E-01
   12.400   4.651E-01
   12.500   4.860E-01
   12.600   5.083E-01
   12.700   5.320E-01
   12.800   5.573E-01
   12.900   5.843E-01
   13.000   6.131E-01
   13.100   6.437E-01
   13.200   6.762E-01
   13.300   7.107E-01
   13.400   7.471E-01
   13.500   7.854E-01
   13.600   8.255E-01
   13.700   8.673E-01
   13.800   9.107E-01
   13.900   9.555E-01
   14.000   1.001E+00
   14.100   1.048E+00
   14.200   1.095E+00
   14.300   1.143E+00
   14.400   1.190E+00
   14.500   1.237E+00
   14.600   1.284E+00
   14.700   1.330E+00
   14.800   1.375E+00
   14.900   1.418E+00
   15.000   1.461E+00
   15.100   1.502E+00
   15.200   1.542E+00
   15.300   1.580E+00
   15.400   1.617E+00
   15.500   1.652E+00
   15.600   1.685E+00
   15.700   1.717E+00
   15.800   1.748E+00
   15.900   1.775E+00
   16.000   1.800E+00
   16.100   1.822E+00
   16.200   1.841E+00
   16.300   1.855E+00
   16.400   1.864E+00
   16.500   1.868E+00
   16.600   1.868E+00
   16.700   1.862E+00
   16.800   1.852E+00
   16.900   1.837E+00
   17.000   1.820E+00
   17.100   1.800E+00
   17.200   1.778E+00
   17.300   1.755E+00
   17.400   1.732E+00
   17.500   1.710E+00
   17.600   1.688E+00
   17.700   1.668E+00
   17.800   1.649E+00
   17.900   1.632E+00
   18.000   1.616E+00
   18.100   1.601E+00
   18.200   1.588E+00
   18.300   1.575E+00
   18.400   1.564E+00
   18.500   1.554E+00
   18.600   1.544E+00
   18.700   1.535E+00
   18.800   1.526E+00
   18.900   1.518E+00
   19.000   1.511E+00
   19.100   1.504E+00
   19.200   1.497E+00
   19.300   1.491E+00
   19.400   1.485E+00
   19.500   1.480E+00
   19.600   1.475E+00
   19.700   1.470E+00
   19.800   1.466E+00
   19.900   1.462E+00
   20.000   1.459E+00
   20.100   1.456E+00
   20.200   1.453E+00
   20.300   1.451E+00
   20.400   1.449E+00
   20.500   1.446E+00
   20.600   1.444E+00
   20.700   1.442E+00
   20.800   1.440E+00
   20.900   1.437E+00
   21.000   1.434E+00
   21.100   1.429E+00
   21.200   1.424E+00
   21.300   1.417E+00
   21.400   1.409E+00
   21.500   1.400E+00
   21.600   1.389E+00
   21.700   1.376E+00
   21.800   1.362E+00
   21.900   1.346E+00
   22.000   1.329E+00
   22.100   1.311E+00
   22.200   1.292E+00
   22.300   1.273E+00
   22.400   1.253E+00
   22.500   1.232E+00
   22.600   1.212E+00
   22.700   1.191E+00
   22.800   1.171E+00
   22.900   1.152E+00
   23.000   1.132E+00
   23.100   1.113E+00
   23.200   1.095E+00
   23.300   1.078E+00
   23.400   1.061E+00
   23.500   1.045E+00
   23.600   1.029E+00
   23.700   1.013E+00
   23.800   9.985E-01
   23.900   9.838E-01
   24.000   9.693E-01
   24.100   9.549E-01
   24.200   9.404E-01
   24.300   9.259E-01
   24.400   9.112E-01
   24.500   8.964E-01
   24.600   8.814E-01
   24.700   8.663E-01
   24.800   8.513E-01
   24.900   8.363E-01
   25.000   8.214E-01
   25.100   8.067E-01
   25.200   7.924E-01
   25.300   7.784E-01
   25.400   7.647E-01
   25.500   7.515E-01
   25.600   7.387E-01
   25.700   7.264E-01
   25.800   7.144E-01
   25.900   7.029E-01
   26.000   6.917E-01
   26.100   6.808E-01
   26.200   6.702E-01
   26.300   6.599E-01
   26.400   6.499E-01
   26.500   6.401E-01
   26.600   6.305E-01
   26.700   6.212E-01
   26.800   6.121E-01
   26.900   6.033E-01
   27.000   5.946E-01
   27.100   5.862E-01
   27.200   5.780E-01
   27.300   5.700E-01
   27.400   5.621E-01
   27.500   5.544E-01
   27.600   5.469E-01
   27.700   5.396E-01
   27.800   5.324E-01
   27.900   5.253E-01
   28.000   5.183E-01
   28.100   5.115E-01
   28.200   5.048E-01
   28.300   4.983E-01
   28.400   4.918E-01
   28.500   4.855E-01
   28.600   4.793E-01
   28.700   4.733E-01
   28.800   4.674E-01
   28.900   4.616E-01
   29.000   4.560E-01
   29.100   4.505E-01
   29.200   4.451E-01
   29.300   4.399E-01
   29.400   4.349E-01
   29.500   4.300E-01
   29.600   4.252E-01
   29.700   4.205E-01
   29.800   4.160E-01
   29.900   4.116E-01
   30.000   4.073E-01
 
 Z=  14 A=  31 Si
  U[MeV]  fE1[mb/MeV]
    0.100   6.519E-06
    0.200   2.608E-05
    0.300   5.870E-05
    0.400   1.044E-04
    0.500   1.632E-04
    0.600   2.353E-04
    0.700   3.205E-04
    0.800   4.191E-04
    0.900   5.310E-04
    1.000   6.564E-04
    1.100   7.954E-04
    1.200   9.482E-04
    1.300   1.115E-03
    1.400   1.295E-03
    1.500   1.490E-03
    1.600   1.699E-03
    1.700   1.922E-03
    1.800   2.161E-03
    1.900   2.414E-03
    2.000   2.682E-03
    2.100   2.965E-03
    2.200   3.265E-03
    2.300   3.580E-03
    2.400   3.911E-03
    2.500   4.258E-03
    2.600   4.623E-03
    2.700   5.004E-03
    2.800   5.403E-03
    2.900   5.820E-03
    3.000   6.255E-03
    3.100   6.709E-03
    3.200   7.182E-03
    3.300   7.674E-03
    3.400   8.187E-03
    3.500   8.720E-03
    3.600   9.274E-03
    3.700   9.850E-03
    3.800   1.045E-02
    3.900   1.107E-02
    4.000   1.171E-02
    4.100   1.238E-02
    4.200   1.308E-02
    4.300   1.380E-02
    4.400   1.454E-02
    4.500   1.531E-02
    4.600   1.612E-02
    4.700   1.695E-02
    4.800   1.781E-02
    4.900   1.870E-02
    5.000   1.962E-02
    5.100   2.058E-02
    5.200   2.157E-02
    5.300   2.260E-02
    5.400   2.367E-02
    5.500   2.477E-02
    5.600   2.592E-02
    5.700   2.710E-02
    5.800   2.833E-02
    5.900   2.961E-02
    6.000   3.093E-02
    6.100   3.230E-02
    6.200   3.372E-02
    6.300   3.520E-02
    6.400   3.673E-02
    6.500   3.832E-02
    6.600   3.997E-02
    6.700   4.169E-02
    6.800   4.347E-02
    6.900   4.532E-02
    7.000   4.724E-02
    7.100   4.925E-02
    7.200   5.133E-02
    7.300   5.350E-02
    7.400   5.576E-02
    7.500   5.812E-02
    7.600   6.057E-02
    7.700   6.313E-02
    7.800   6.581E-02
    7.900   6.860E-02
    8.000   7.151E-02
    8.100   7.456E-02
    8.200   7.775E-02
    8.300   8.109E-02
    8.400   8.459E-02
    8.500   8.826E-02
    8.600   9.210E-02
    8.700   9.614E-02
    8.800   1.004E-01
    8.900   1.048E-01
    9.000   1.095E-01
    9.100   1.145E-01
    9.200   1.197E-01
    9.300   1.252E-01
    9.400   1.309E-01
    9.500   1.370E-01
    9.600   1.435E-01
    9.700   1.502E-01
    9.800   1.574E-01
    9.900   1.649E-01
   10.000   1.728E-01
   10.100   1.811E-01
   10.200   1.898E-01
   10.300   1.989E-01
   10.400   2.083E-01
   10.500   2.182E-01
   10.600   2.284E-01
   10.700   2.389E-01
   10.800   2.497E-01
   10.900   2.608E-01
   11.000   2.722E-01
   11.100   2.838E-01
   11.200   2.956E-01
   11.300   3.078E-01
   11.400   3.203E-01
   11.500   3.331E-01
   11.600   3.464E-01
   11.700   3.602E-01
   11.800   3.746E-01
   11.900   3.897E-01
   12.000   4.055E-01
   12.100   4.221E-01
   12.200   4.397E-01
   12.300   4.583E-01
   12.400   4.780E-01
   12.500   4.990E-01
   12.600   5.213E-01
   12.700   5.452E-01
   12.800   5.707E-01
   12.900   5.979E-01
   13.000   6.271E-01
   13.100   6.584E-01
   13.200   6.918E-01
   13.300   7.275E-01
   13.400   7.655E-01
   13.500   8.059E-01
   13.600   8.486E-01
   13.700   8.936E-01
   13.800   9.406E-01
   13.900   9.895E-01
   14.000   1.040E+00
   14.100   1.092E+00
   14.200   1.144E+00
   14.300   1.197E+00
   14.400   1.250E+00
   14.500   1.303E+00
   14.600   1.355E+00
   14.700   1.407E+00
   14.800   1.459E+00
   14.900   1.510E+00
   15.000   1.560E+00
   15.100   1.611E+00
   15.200   1.662E+00
   15.300   1.712E+00
   15.400   1.762E+00
   15.500   1.812E+00
   15.600   1.860E+00
   15.700   1.906E+00
   15.800   1.950E+00
   15.900   1.990E+00
   16.000   2.025E+00
   16.100   2.054E+00
   16.200   2.077E+00
   16.300   2.093E+00
   16.400   2.102E+00
   16.500   2.103E+00
   16.600   2.096E+00
   16.700   2.083E+00
   16.800   2.065E+00
   16.900   2.042E+00
   17.000   2.015E+00
   17.100   1.987E+00
   17.200   1.957E+00
   17.300   1.928E+00
   17.400   1.900E+00
   17.500   1.873E+00
   17.600   1.848E+00
   17.700   1.826E+00
   17.800   1.806E+00
   17.900   1.788E+00
   18.000   1.773E+00
   18.100   1.760E+00
   18.200   1.749E+00
   18.300   1.739E+00
   18.400   1.730E+00
   18.500   1.723E+00
   18.600   1.716E+00
   18.700   1.709E+00
   18.800   1.703E+00
   18.900   1.698E+00
   19.000   1.692E+00
   19.100   1.687E+00
   19.200   1.683E+00
   19.300   1.678E+00
   19.400   1.674E+00
   19.500   1.670E+00
   19.600   1.666E+00
   19.700   1.662E+00
   19.800   1.658E+00
   19.900   1.653E+00
   20.000   1.648E+00
   20.100   1.643E+00
   20.200   1.637E+00
   20.300   1.630E+00
   20.400   1.623E+00
   20.500   1.615E+00
   20.600   1.607E+00
   20.700   1.599E+00
   20.800   1.590E+00
   20.900   1.580E+00
   21.000   1.570E+00
   21.100   1.559E+00
   21.200   1.547E+00
   21.300   1.535E+00
   21.400   1.522E+00
   21.500   1.508E+00
   21.600   1.492E+00
   21.700   1.476E+00
   21.800   1.458E+00
   21.900   1.439E+00
   22.000   1.419E+00
   22.100   1.397E+00
   22.200   1.374E+00
   22.300   1.351E+00
   22.400   1.327E+00
   22.500   1.302E+00
   22.600   1.277E+00
   22.700   1.252E+00
   22.800   1.228E+00
   22.900   1.204E+00
   23.000   1.180E+00
   23.100   1.158E+00
   23.200   1.136E+00
   23.300   1.115E+00
   23.400   1.095E+00
   23.500   1.076E+00
   23.600   1.058E+00
   23.700   1.041E+00
   23.800   1.025E+00
   23.900   1.009E+00
   24.000   9.935E-01
   24.100   9.787E-01
   24.200   9.640E-01
   24.300   9.495E-01
   24.400   9.350E-01
   24.500   9.205E-01
   24.600   9.058E-01
   24.700   8.911E-01
   24.800   8.763E-01
   24.900   8.614E-01
   25.000   8.465E-01
   25.100   8.317E-01
   25.200   8.171E-01
   25.300   8.027E-01
   25.400   7.886E-01
   25.500   7.748E-01
   25.600   7.613E-01
   25.700   7.482E-01
   25.800   7.355E-01
   25.900   7.232E-01
   26.000   7.113E-01
   26.100   6.998E-01
   26.200   6.887E-01
   26.300   6.779E-01
   26.400   6.676E-01
   26.500   6.575E-01
   26.600   6.478E-01
   26.700   6.384E-01
   26.800   6.292E-01
   26.900   6.202E-01
   27.000   6.115E-01
   27.100   6.029E-01
   27.200   5.945E-01
   27.300   5.862E-01
   27.400   5.780E-01
   27.500   5.700E-01
   27.600   5.620E-01
   27.700   5.542E-01
   27.800   5.465E-01
   27.900   5.388E-01
   28.000   5.313E-01
   28.100   5.239E-01
   28.200   5.165E-01
   28.300   5.093E-01
   28.400   5.023E-01
   28.500   4.953E-01
   28.600   4.886E-01
   28.700   4.819E-01
   28.800   4.755E-01
   28.900   4.692E-01
   29.000   4.631E-01
   29.100   4.572E-01
   29.200   4.515E-01
   29.300   4.460E-01
   29.400   4.406E-01
   29.500   4.354E-01
   29.600   4.304E-01
   29.700   4.255E-01
   29.800   4.207E-01
   29.900   4.160E-01
   30.000   4.114E-01
 
 Z=  14 A=  32 Si
  U[MeV]  fE1[mb/MeV]
    0.100   7.889E-06
    0.200   3.156E-05
    0.300   7.105E-05
    0.400   1.264E-04
    0.500   1.976E-04
    0.600   2.848E-04
    0.700   3.880E-04
    0.800   5.074E-04
    0.900   6.430E-04
    1.000   7.950E-04
    1.100   9.635E-04
    1.200   1.149E-03
    1.300   1.351E-03
    1.400   1.570E-03
    1.500   1.806E-03
    1.600   2.060E-03
    1.700   2.332E-03
    1.800   2.621E-03
    1.900   2.929E-03
    2.000   3.256E-03
    2.100   3.601E-03
    2.200   3.966E-03
    2.300   4.350E-03
    2.400   4.755E-03
    2.500   5.179E-03
    2.600   5.625E-03
    2.700   6.092E-03
    2.800   6.581E-03
    2.900   7.092E-03
    3.000   7.627E-03
    3.100   8.184E-03
    3.200   8.766E-03
    3.300   9.373E-03
    3.400   1.001E-02
    3.500   1.066E-02
    3.600   1.135E-02
    3.700   1.206E-02
    3.800   1.280E-02
    3.900   1.358E-02
    4.000   1.438E-02
    4.100   1.521E-02
    4.200   1.608E-02
    4.300   1.698E-02
    4.400   1.791E-02
    4.500   1.889E-02
    4.600   1.990E-02
    4.700   2.094E-02
    4.800   2.203E-02
    4.900   2.316E-02
    5.000   2.434E-02
    5.100   2.556E-02
    5.200   2.683E-02
    5.300   2.815E-02
    5.400   2.952E-02
    5.500   3.094E-02
    5.600   3.242E-02
    5.700   3.396E-02
    5.800   3.556E-02
    5.900   3.723E-02
    6.000   3.897E-02
    6.100   4.077E-02
    6.200   4.266E-02
    6.300   4.462E-02
    6.400   4.666E-02
    6.500   4.880E-02
    6.600   5.102E-02
    6.700   5.335E-02
    6.800   5.577E-02
    6.900   5.831E-02
    7.000   6.096E-02
    7.100   6.373E-02
    7.200   6.663E-02
    7.300   6.966E-02
    7.400   7.283E-02
    7.500   7.616E-02
    7.600   7.964E-02
    7.700   8.329E-02
    7.800   8.710E-02
    7.900   9.110E-02
    8.000   9.529E-02
    8.100   9.968E-02
    8.200   1.043E-01
    8.300   1.091E-01
    8.400   1.141E-01
    8.500   1.193E-01
    8.600   1.248E-01
    8.700   1.306E-01
    8.800   1.365E-01
    8.900   1.427E-01
    9.000   1.492E-01
    9.100   1.559E-01
    9.200   1.629E-01
    9.300   1.701E-01
    9.400   1.776E-01
    9.500   1.852E-01
    9.600   1.931E-01
    9.700   2.012E-01
    9.800   2.094E-01
    9.900   2.178E-01
   10.000   2.264E-01
   10.100   2.350E-01
   10.200   2.439E-01
   10.300   2.529E-01
   10.400   2.620E-01
   10.500   2.714E-01
   10.600   2.810E-01
   10.700   2.908E-01
   10.800   3.009E-01
   10.900   3.113E-01
   11.000   3.221E-01
   11.100   3.332E-01
   11.200   3.446E-01
   11.300   3.565E-01
   11.400   3.688E-01
   11.500   3.817E-01
   11.600   3.951E-01
   11.700   4.091E-01
   11.800   4.238E-01
   11.900   4.392E-01
   12.000   4.556E-01
   12.100   4.728E-01
   12.200   4.910E-01
   12.300   5.102E-01
   12.400   5.306E-01
   12.500   5.522E-01
   12.600   5.750E-01
   12.700   5.992E-01
   12.800   6.247E-01
   12.900   6.517E-01
   13.000   6.802E-01
   13.100   7.103E-01
   13.200   7.421E-01
   13.300   7.757E-01
   13.400   8.112E-01
   13.500   8.487E-01
   13.600   8.883E-01
   13.700   9.301E-01
   13.800   9.741E-01
   13.900   1.020E+00
   14.000   1.068E+00
   14.100   1.118E+00
   14.200   1.170E+00
   14.300   1.223E+00
   14.400   1.277E+00
   14.500   1.331E+00
   14.600   1.386E+00
   14.700   1.439E+00
   14.800   1.492E+00
   14.900   1.543E+00
   15.000   1.592E+00
   15.100   1.638E+00
   15.200   1.681E+00
   15.300   1.720E+00
   15.400   1.756E+00
   15.500   1.789E+00
   15.600   1.819E+00
   15.700   1.845E+00
   15.800   1.868E+00
   15.900   1.889E+00
   16.000   1.908E+00
   16.100   1.924E+00
   16.200   1.939E+00
   16.300   1.953E+00
   16.400   1.965E+00
   16.500   1.976E+00
   16.600   1.986E+00
   16.700   1.994E+00
   16.800   2.001E+00
   16.900   2.007E+00
   17.000   2.012E+00
   17.100   2.015E+00
   17.200   2.018E+00
   17.300   2.020E+00
   17.400   2.020E+00
   17.500   2.021E+00
   17.600   2.021E+00
   17.700   2.020E+00
   17.800   2.019E+00
   17.900   2.017E+00
   18.000   2.015E+00
   18.100   2.012E+00
   18.200   2.009E+00
   18.300   2.005E+00
   18.400   2.000E+00
   18.500   1.994E+00
   18.600   1.986E+00
   18.700   1.978E+00
   18.800   1.967E+00
   18.900   1.956E+00
   19.000   1.942E+00
   19.100   1.927E+00
   19.200   1.911E+00
   19.300   1.893E+00
   19.400   1.873E+00
   19.500   1.853E+00
   19.600   1.832E+00
   19.700   1.810E+00
   19.800   1.787E+00
   19.900   1.765E+00
   20.000   1.742E+00
   20.100   1.719E+00
   20.200   1.696E+00
   20.300   1.674E+00
   20.400   1.652E+00
   20.500   1.631E+00
   20.600   1.610E+00
   20.700   1.590E+00
   20.800   1.571E+00
   20.900   1.552E+00
   21.000   1.534E+00
   21.100   1.517E+00
   21.200   1.500E+00
   21.300   1.484E+00
   21.400   1.469E+00
   21.500   1.454E+00
   21.600   1.440E+00
   21.700   1.425E+00
   21.800   1.411E+00
   21.900   1.398E+00
   22.000   1.384E+00
   22.100   1.370E+00
   22.200   1.356E+00
   22.300   1.341E+00
   22.400   1.327E+00
   22.500   1.312E+00
   22.600   1.297E+00
   22.700   1.282E+00
   22.800   1.266E+00
   22.900   1.250E+00
   23.000   1.233E+00
   23.100   1.216E+00
   23.200   1.199E+00
   23.300   1.181E+00
   23.400   1.163E+00
   23.500   1.145E+00
   23.600   1.127E+00
   23.700   1.108E+00
   23.800   1.090E+00
   23.900   1.071E+00
   24.000   1.053E+00
   24.100   1.034E+00
   24.200   1.016E+00
   24.300   9.983E-01
   24.400   9.806E-01
   24.500   9.630E-01
   24.600   9.457E-01
   24.700   9.287E-01
   24.800   9.120E-01
   24.900   8.955E-01
   25.000   8.793E-01
   25.100   8.633E-01
   25.200   8.475E-01
   25.300   8.321E-01
   25.400   8.169E-01
   25.500   8.020E-01
   25.600   7.874E-01
   25.700   7.731E-01
   25.800   7.593E-01
   25.900   7.458E-01
   26.000   7.327E-01
   26.100   7.201E-01
   26.200   7.079E-01
   26.300   6.962E-01
   26.400   6.849E-01
   26.500   6.741E-01
   26.600   6.636E-01
   26.700   6.536E-01
   26.800   6.439E-01
   26.900   6.347E-01
   27.000   6.257E-01
   27.100   6.171E-01
   27.200   6.087E-01
   27.300   6.007E-01
   27.400   5.928E-01
   27.500   5.852E-01
   27.600   5.778E-01
   27.700   5.706E-01
   27.800   5.635E-01
   27.900   5.566E-01
   28.000   5.498E-01
   28.100   5.430E-01
   28.200   5.363E-01
   28.300   5.297E-01
   28.400   5.230E-01
   28.500   5.164E-01
   28.600   5.097E-01
   28.700   5.030E-01
   28.800   4.962E-01
   28.900   4.895E-01
   29.000   4.826E-01
   29.100   4.758E-01
   29.200   4.690E-01
   29.300   4.622E-01
   29.400   4.554E-01
   29.500   4.487E-01
   29.600   4.421E-01
   29.700   4.355E-01
   29.800   4.290E-01
   29.900   4.226E-01
   30.000   4.163E-01
 
 Z=  14 A=  33 Si
  U[MeV]  fE1[mb/MeV]
    0.100   9.276E-06
    0.200   3.711E-05
    0.300   8.354E-05
    0.400   1.486E-04
    0.500   2.324E-04
    0.600   3.349E-04
    0.700   4.564E-04
    0.800   5.969E-04
    0.900   7.565E-04
    1.000   9.355E-04
    1.100   1.134E-03
    1.200   1.352E-03
    1.300   1.590E-03
    1.400   1.849E-03
    1.500   2.127E-03
    1.600   2.427E-03
    1.700   2.748E-03
    1.800   3.090E-03
    1.900   3.454E-03
    2.000   3.840E-03
    2.100   4.248E-03
    2.200   4.680E-03
    2.300   5.136E-03
    2.400   5.615E-03
    2.500   6.119E-03
    2.600   6.648E-03
    2.700   7.203E-03
    2.800   7.785E-03
    2.900   8.393E-03
    3.000   9.030E-03
    3.100   9.695E-03
    3.200   1.039E-02
    3.300   1.111E-02
    3.400   1.187E-02
    3.500   1.266E-02
    3.600   1.348E-02
    3.700   1.434E-02
    3.800   1.523E-02
    3.900   1.616E-02
    4.000   1.712E-02
    4.100   1.813E-02
    4.200   1.918E-02
    4.300   2.027E-02
    4.400   2.140E-02
    4.500   2.258E-02
    4.600   2.380E-02
    4.700   2.508E-02
    4.800   2.640E-02
    4.900   2.778E-02
    5.000   2.922E-02
    5.100   3.071E-02
    5.200   3.226E-02
    5.300   3.388E-02
    5.400   3.556E-02
    5.500   3.732E-02
    5.600   3.914E-02
    5.700   4.104E-02
    5.800   4.302E-02
    5.900   4.508E-02
    6.000   4.722E-02
    6.100   4.946E-02
    6.200   5.179E-02
    6.300   5.422E-02
    6.400   5.675E-02
    6.500   5.939E-02
    6.600   6.214E-02
    6.700   6.502E-02
    6.800   6.801E-02
    6.900   7.113E-02
    7.000   7.439E-02
    7.100   7.778E-02
    7.200   8.133E-02
    7.300   8.502E-02
    7.400   8.886E-02
    7.500   9.287E-02
    7.600   9.704E-02
    7.700   1.014E-01
    7.800   1.059E-01
    7.900   1.106E-01
    8.000   1.155E-01
    8.100   1.206E-01
    8.200   1.258E-01
    8.300   1.313E-01
    8.400   1.369E-01
    8.500   1.427E-01
    8.600   1.488E-01
    8.700   1.550E-01
    8.800   1.614E-01
    8.900   1.680E-01
    9.000   1.747E-01
    9.100   1.817E-01
    9.200   1.888E-01
    9.300   1.961E-01
    9.400   2.036E-01
    9.500   2.113E-01
    9.600   2.191E-01
    9.700   2.271E-01
    9.800   2.354E-01
    9.900   2.438E-01
   10.000   2.524E-01
   10.100   2.613E-01
   10.200   2.705E-01
   10.300   2.799E-01
   10.400   2.895E-01
   10.500   2.995E-01
   10.600   3.098E-01
   10.700   3.204E-01
   10.800   3.313E-01
   10.900   3.426E-01
   11.000   3.542E-01
   11.100   3.662E-01
   11.200   3.786E-01
   11.300   3.914E-01
   11.400   4.047E-01
   11.500   4.184E-01
   11.600   4.326E-01
   11.700   4.472E-01
   11.800   4.624E-01
   11.900   4.782E-01
   12.000   4.946E-01
   12.100   5.115E-01
   12.200   5.291E-01
   12.300   5.474E-01
   12.400   5.664E-01
   12.500   5.862E-01
   12.600   6.067E-01
   12.700   6.280E-01
   12.800   6.502E-01
   12.900   6.732E-01
   13.000   6.971E-01
   13.100   7.220E-01
   13.200   7.479E-01
   13.300   7.748E-01
   13.400   8.027E-01
   13.500   8.317E-01
   13.600   8.617E-01
   13.700   8.929E-01
   13.800   9.251E-01
   13.900   9.584E-01
   14.000   9.927E-01
   14.100   1.028E+00
   14.200   1.064E+00
   14.300   1.101E+00
   14.400   1.139E+00
   14.500   1.177E+00
   14.600   1.216E+00
   14.700   1.255E+00
   14.800   1.295E+00
   14.900   1.334E+00
   15.000   1.374E+00
   15.100   1.413E+00
   15.200   1.451E+00
   15.300   1.489E+00
   15.400   1.527E+00
   15.500   1.564E+00
   15.600   1.600E+00
   15.700   1.635E+00
   15.800   1.670E+00
   15.900   1.703E+00
   16.000   1.736E+00
   16.100   1.768E+00
   16.200   1.799E+00
   16.300   1.829E+00
   16.400   1.859E+00
   16.500   1.887E+00
   16.600   1.915E+00
   16.700   1.942E+00
   16.800   1.969E+00
   16.900   1.994E+00
   17.000   2.018E+00
   17.100   2.041E+00
   17.200   2.063E+00
   17.300   2.084E+00
   17.400   2.103E+00
   17.500   2.120E+00
   17.600   2.136E+00
   17.700   2.150E+00
   17.800   2.162E+00
   17.900   2.172E+00
   18.000   2.181E+00
   18.100   2.187E+00
   18.200   2.192E+00
   18.300   2.194E+00
   18.400   2.195E+00
   18.500   2.193E+00
   18.600   2.190E+00
   18.700   2.185E+00
   18.800   2.179E+00
   18.900   2.171E+00
   19.000   2.161E+00
   19.100   2.150E+00
   19.200   2.138E+00
   19.300   2.125E+00
   19.400   2.110E+00
   19.500   2.095E+00
   19.600   2.078E+00
   19.700   2.061E+00
   19.800   2.043E+00
   19.900   2.024E+00
   20.000   2.005E+00
   20.100   1.984E+00
   20.200   1.964E+00
   20.300   1.943E+00
   20.400   1.921E+00
   20.500   1.900E+00
   20.600   1.878E+00
   20.700   1.855E+00
   20.800   1.833E+00
   20.900   1.811E+00
   21.000   1.788E+00
   21.100   1.766E+00
   21.200   1.744E+00
   21.300   1.721E+00
   21.400   1.699E+00
   21.500   1.677E+00
   21.600   1.655E+00
   21.700   1.633E+00
   21.800   1.611E+00
   21.900   1.589E+00
   22.000   1.566E+00
   22.100   1.544E+00
   22.200   1.522E+00
   22.300   1.499E+00
   22.400   1.476E+00
   22.500   1.453E+00
   22.600   1.430E+00
   22.700   1.407E+00
   22.800   1.384E+00
   22.900   1.361E+00
   23.000   1.338E+00
   23.100   1.314E+00
   23.200   1.291E+00
   23.300   1.269E+00
   23.400   1.246E+00
   23.500   1.224E+00
   23.600   1.202E+00
   23.700   1.181E+00
   23.800   1.160E+00
   23.900   1.139E+00
   24.000   1.119E+00
   24.100   1.099E+00
   24.200   1.080E+00
   24.300   1.062E+00
   24.400   1.044E+00
   24.500   1.026E+00
   24.600   1.009E+00
   24.700   9.926E-01
   24.800   9.765E-01
   24.900   9.609E-01
   25.000   9.457E-01
   25.100   9.309E-01
   25.200   9.164E-01
   25.300   9.023E-01
   25.400   8.885E-01
   25.500   8.749E-01
   25.600   8.616E-01
   25.700   8.484E-01
   25.800   8.354E-01
   25.900   8.224E-01
   26.000   8.095E-01
   26.100   7.967E-01
   26.200   7.838E-01
   26.300   7.710E-01
   26.400   7.582E-01
   26.500   7.454E-01
   26.600   7.326E-01
   26.700   7.199E-01
   26.800   7.072E-01
   26.900   6.947E-01
   27.000   6.823E-01
   27.100   6.701E-01
   27.200   6.581E-01
   27.300   6.464E-01
   27.400   6.349E-01
   27.500   6.237E-01
   27.600   6.128E-01
   27.700   6.023E-01
   27.800   5.920E-01
   27.900   5.821E-01
   28.000   5.724E-01
   28.100   5.631E-01
   28.200   5.540E-01
   28.300   5.451E-01
   28.400   5.365E-01
   28.500   5.281E-01
   28.600   5.199E-01
   28.700   5.118E-01
   28.800   5.039E-01
   28.900   4.961E-01
   29.000   4.885E-01
   29.100   4.810E-01
   29.200   4.735E-01
   29.300   4.662E-01
   29.400   4.590E-01
   29.500   4.519E-01
   29.600   4.449E-01
   29.700   4.380E-01
   29.800   4.312E-01
   29.900   4.245E-01
   30.000   4.180E-01
 
 Z=  14 A=  34 Si
  U[MeV]  fE1[mb/MeV]
    0.100   7.476E-06
    0.200   2.991E-05
    0.300   6.733E-05
    0.400   1.198E-04
    0.500   1.873E-04
    0.600   2.699E-04
    0.700   3.678E-04
    0.800   4.810E-04
    0.900   6.096E-04
    1.000   7.538E-04
    1.100   9.137E-04
    1.200   1.090E-03
    1.300   1.281E-03
    1.400   1.490E-03
    1.500   1.714E-03
    1.600   1.955E-03
    1.700   2.214E-03
    1.800   2.489E-03
    1.900   2.782E-03
    2.000   3.093E-03
    2.100   3.422E-03
    2.200   3.770E-03
    2.300   4.136E-03
    2.400   4.522E-03
    2.500   4.928E-03
    2.600   5.354E-03
    2.700   5.801E-03
    2.800   6.269E-03
    2.900   6.758E-03
    3.000   7.271E-03
    3.100   7.806E-03
    3.200   8.365E-03
    3.300   8.948E-03
    3.400   9.556E-03
    3.500   1.019E-02
    3.600   1.085E-02
    3.700   1.154E-02
    3.800   1.226E-02
    3.900   1.300E-02
    4.000   1.378E-02
    4.100   1.459E-02
    4.200   1.543E-02
    4.300   1.631E-02
    4.400   1.722E-02
    4.500   1.817E-02
    4.600   1.915E-02
    4.700   2.018E-02
    4.800   2.124E-02
    4.900   2.236E-02
    5.000   2.351E-02
    5.100   2.472E-02
    5.200   2.597E-02
    5.300   2.727E-02
    5.400   2.863E-02
    5.500   3.005E-02
    5.600   3.152E-02
    5.700   3.306E-02
    5.800   3.466E-02
    5.900   3.633E-02
    6.000   3.808E-02
    6.100   3.990E-02
    6.200   4.181E-02
    6.300   4.380E-02
    6.400   4.588E-02
    6.500   4.805E-02
    6.600   5.033E-02
    6.700   5.271E-02
    6.800   5.521E-02
    6.900   5.782E-02
    7.000   6.056E-02
    7.100   6.344E-02
    7.200   6.646E-02
    7.300   6.963E-02
    7.400   7.296E-02
    7.500   7.646E-02
    7.600   8.013E-02
    7.700   8.400E-02
    7.800   8.805E-02
    7.900   9.232E-02
    8.000   9.680E-02
    8.100   1.015E-01
    8.200   1.065E-01
    8.300   1.116E-01
    8.400   1.171E-01
    8.500   1.228E-01
    8.600   1.288E-01
    8.700   1.350E-01
    8.800   1.416E-01
    8.900   1.484E-01
    9.000   1.554E-01
    9.100   1.628E-01
    9.200   1.704E-01
    9.300   1.783E-01
    9.400   1.863E-01
    9.500   1.946E-01
    9.600   2.031E-01
    9.700   2.117E-01
    9.800   2.205E-01
    9.900   2.293E-01
   10.000   2.382E-01
   10.100   2.472E-01
   10.200   2.562E-01
   10.300   2.653E-01
   10.400   2.745E-01
   10.500   2.837E-01
   10.600   2.930E-01
   10.700   3.024E-01
   10.800   3.119E-01
   10.900   3.216E-01
   11.000   3.315E-01
   11.100   3.416E-01
   11.200   3.520E-01
   11.300   3.628E-01
   11.400   3.739E-01
   11.500   3.856E-01
   11.600   3.977E-01
   11.700   4.105E-01
   11.800   4.239E-01
   11.900   4.381E-01
   12.000   4.530E-01
   12.100   4.688E-01
   12.200   4.854E-01
   12.300   5.030E-01
   12.400   5.215E-01
   12.500   5.409E-01
   12.600   5.614E-01
   12.700   5.829E-01
   12.800   6.055E-01
   12.900   6.291E-01
   13.000   6.537E-01
   13.100   6.795E-01
   13.200   7.062E-01
   13.300   7.341E-01
   13.400   7.631E-01
   13.500   7.933E-01
   13.600   8.247E-01
   13.700   8.574E-01
   13.800   8.914E-01
   13.900   9.269E-01
   14.000   9.639E-01
   14.100   1.002E+00
   14.200   1.043E+00
   14.300   1.085E+00
   14.400   1.128E+00
   14.500   1.174E+00
   14.600   1.221E+00
   14.700   1.269E+00
   14.800   1.319E+00
   14.900   1.371E+00
   15.000   1.424E+00
   15.100   1.478E+00
   15.200   1.533E+00
   15.300   1.588E+00
   15.400   1.644E+00
   15.500   1.700E+00
   15.600   1.756E+00
   15.700   1.811E+00
   15.800   1.866E+00
   15.900   1.920E+00
   16.000   1.974E+00
   16.100   2.027E+00
   16.200   2.079E+00
   16.300   2.130E+00
   16.400   2.180E+00
   16.500   2.229E+00
   16.600   2.276E+00
   16.700   2.322E+00
   16.800   2.367E+00
   16.900   2.409E+00
   17.000   2.449E+00
   17.100   2.486E+00
   17.200   2.520E+00
   17.300   2.551E+00
   17.400   2.578E+00
   17.500   2.602E+00
   17.600   2.622E+00
   17.700   2.638E+00
   17.800   2.651E+00
   17.900   2.660E+00
   18.000   2.666E+00
   18.100   2.668E+00
   18.200   2.668E+00
   18.300   2.664E+00
   18.400   2.658E+00
   18.500   2.649E+00
   18.600   2.638E+00
   18.700   2.626E+00
   18.800   2.611E+00
   18.900   2.595E+00
   19.000   2.577E+00
   19.100   2.558E+00
   19.200   2.538E+00
   19.300   2.517E+00
   19.400   2.495E+00
   19.500   2.472E+00
   19.600   2.448E+00
   19.700   2.423E+00
   19.800   2.396E+00
   19.900   2.369E+00
   20.000   2.340E+00
   20.100   2.310E+00
   20.200   2.279E+00
   20.300   2.247E+00
   20.400   2.214E+00
   20.500   2.180E+00
   20.600   2.146E+00
   20.700   2.111E+00
   20.800   2.076E+00
   20.900   2.041E+00
   21.000   2.007E+00
   21.100   1.973E+00
   21.200   1.939E+00
   21.300   1.906E+00
   21.400   1.873E+00
   21.500   1.841E+00
   21.600   1.810E+00
   21.700   1.778E+00
   21.800   1.748E+00
   21.900   1.718E+00
   22.000   1.689E+00
   22.100   1.661E+00
   22.200   1.634E+00
   22.300   1.607E+00
   22.400   1.581E+00
   22.500   1.556E+00
   22.600   1.531E+00
   22.700   1.507E+00
   22.800   1.484E+00
   22.900   1.460E+00
   23.000   1.437E+00
   23.100   1.413E+00
   23.200   1.389E+00
   23.300   1.364E+00
   23.400   1.339E+00
   23.500   1.313E+00
   23.600   1.286E+00
   23.700   1.259E+00
   23.800   1.232E+00
   23.900   1.204E+00
   24.000   1.177E+00
   24.100   1.150E+00
   24.200   1.124E+00
   24.300   1.098E+00
   24.400   1.073E+00
   24.500   1.049E+00
   24.600   1.027E+00
   24.700   1.005E+00
   24.800   9.850E-01
   24.900   9.657E-01
   25.000   9.475E-01
   25.100   9.301E-01
   25.200   9.136E-01
   25.300   8.976E-01
   25.400   8.820E-01
   25.500   8.668E-01
   25.600   8.516E-01
   25.700   8.364E-01
   25.800   8.210E-01
   25.900   8.055E-01
   26.000   7.897E-01
   26.100   7.736E-01
   26.200   7.574E-01
   26.300   7.410E-01
   26.400   7.246E-01
   26.500   7.082E-01
   26.600   6.919E-01
   26.700   6.758E-01
   26.800   6.601E-01
   26.900   6.448E-01
   27.000   6.299E-01
   27.100   6.156E-01
   27.200   6.019E-01
   27.300   5.888E-01
   27.400   5.764E-01
   27.500   5.645E-01
   27.600   5.533E-01
   27.700   5.427E-01
   27.800   5.327E-01
   27.900   5.232E-01
   28.000   5.142E-01
   28.100   5.057E-01
   28.200   4.976E-01
   28.300   4.898E-01
   28.400   4.824E-01
   28.500   4.752E-01
   28.600   4.681E-01
   28.700   4.613E-01
   28.800   4.545E-01
   28.900   4.479E-01
   29.000   4.413E-01
   29.100   4.347E-01
   29.200   4.281E-01
   29.300   4.215E-01
   29.400   4.150E-01
   29.500   4.084E-01
   29.600   4.019E-01
   29.700   3.953E-01
   29.800   3.888E-01
   29.900   3.824E-01
   30.000   3.760E-01
 
 Z=  14 A=  35 Si
  U[MeV]  fE1[mb/MeV]
    0.100   8.427E-06
    0.200   3.372E-05
    0.300   7.590E-05
    0.400   1.350E-04
    0.500   2.111E-04
    0.600   3.043E-04
    0.700   4.146E-04
    0.800   5.422E-04
    0.900   6.872E-04
    1.000   8.497E-04
    1.100   1.030E-03
    1.200   1.228E-03
    1.300   1.444E-03
    1.400   1.679E-03
    1.500   1.932E-03
    1.600   2.204E-03
    1.700   2.495E-03
    1.800   2.806E-03
    1.900   3.136E-03
    2.000   3.486E-03
    2.100   3.857E-03
    2.200   4.249E-03
    2.300   4.662E-03
    2.400   5.096E-03
    2.500   5.553E-03
    2.600   6.033E-03
    2.700   6.536E-03
    2.800   7.063E-03
    2.900   7.615E-03
    3.000   8.192E-03
    3.100   8.794E-03
    3.200   9.423E-03
    3.300   1.008E-02
    3.400   1.076E-02
    3.500   1.148E-02
    3.600   1.222E-02
    3.700   1.300E-02
    3.800   1.380E-02
    3.900   1.464E-02
    4.000   1.552E-02
    4.100   1.643E-02
    4.200   1.737E-02
    4.300   1.836E-02
    4.400   1.938E-02
    4.500   2.045E-02
    4.600   2.155E-02
    4.700   2.270E-02
    4.800   2.390E-02
    4.900   2.515E-02
    5.000   2.645E-02
    5.100   2.779E-02
    5.200   2.920E-02
    5.300   3.066E-02
    5.400   3.218E-02
    5.500   3.376E-02
    5.600   3.541E-02
    5.700   3.713E-02
    5.800   3.892E-02
    5.900   4.079E-02
    6.000   4.274E-02
    6.100   4.477E-02
    6.200   4.689E-02
    6.300   4.910E-02
    6.400   5.141E-02
    6.500   5.382E-02
    6.600   5.635E-02
    6.700   5.898E-02
    6.800   6.174E-02
    6.900   6.463E-02
    7.000   6.766E-02
    7.100   7.082E-02
    7.200   7.414E-02
    7.300   7.762E-02
    7.400   8.126E-02
    7.500   8.509E-02
    7.600   8.910E-02
    7.700   9.330E-02
    7.800   9.771E-02
    7.900   1.023E-01
    8.000   1.072E-01
    8.100   1.123E-01
    8.200   1.176E-01
    8.300   1.232E-01
    8.400   1.290E-01
    8.500   1.351E-01
    8.600   1.415E-01
    8.700   1.481E-01
    8.800   1.551E-01
    8.900   1.623E-01
    9.000   1.698E-01
    9.100   1.777E-01
    9.200   1.857E-01
    9.300   1.941E-01
    9.400   2.027E-01
    9.500   2.115E-01
    9.600   2.206E-01
    9.700   2.298E-01
    9.800   2.393E-01
    9.900   2.489E-01
   10.000   2.586E-01
   10.100   2.684E-01
   10.200   2.784E-01
   10.300   2.884E-01
   10.400   2.985E-01
   10.500   3.087E-01
   10.600   3.190E-01
   10.700   3.295E-01
   10.800   3.400E-01
   10.900   3.508E-01
   11.000   3.618E-01
   11.100   3.731E-01
   11.200   3.848E-01
   11.300   3.968E-01
   11.400   4.093E-01
   11.500   4.223E-01
   11.600   4.359E-01
   11.700   4.501E-01
   11.800   4.651E-01
   11.900   4.809E-01
   12.000   4.975E-01
   12.100   5.151E-01
   12.200   5.336E-01
   12.300   5.531E-01
   12.400   5.736E-01
   12.500   5.953E-01
   12.600   6.180E-01
   12.700   6.420E-01
   12.800   6.671E-01
   12.900   6.934E-01
   13.000   7.210E-01
   13.100   7.498E-01
   13.200   7.798E-01
   13.300   8.111E-01
   13.400   8.438E-01
   13.500   8.777E-01
   13.600   9.130E-01
   13.700   9.497E-01
   13.800   9.877E-01
   13.900   1.027E+00
   14.000   1.068E+00
   14.100   1.110E+00
   14.200   1.154E+00
   14.300   1.199E+00
   14.400   1.245E+00
   14.500   1.293E+00
   14.600   1.341E+00
   14.700   1.391E+00
   14.800   1.442E+00
   14.900   1.493E+00
   15.000   1.545E+00
   15.100   1.597E+00
   15.200   1.649E+00
   15.300   1.700E+00
   15.400   1.752E+00
   15.500   1.802E+00
   15.600   1.852E+00
   15.700   1.901E+00
   15.800   1.949E+00
   15.900   1.996E+00
   16.000   2.042E+00
   16.100   2.086E+00
   16.200   2.129E+00
   16.300   2.171E+00
   16.400   2.211E+00
   16.500   2.250E+00
   16.600   2.288E+00
   16.700   2.324E+00
   16.800   2.358E+00
   16.900   2.389E+00
   17.000   2.419E+00
   17.100   2.447E+00
   17.200   2.472E+00
   17.300   2.495E+00
   17.400   2.516E+00
   17.500   2.534E+00
   17.600   2.550E+00
   17.700   2.563E+00
   17.800   2.575E+00
   17.900   2.584E+00
   18.000   2.590E+00
   18.100   2.595E+00
   18.200   2.598E+00
   18.300   2.599E+00
   18.400   2.597E+00
   18.500   2.594E+00
   18.600   2.588E+00
   18.700   2.580E+00
   18.800   2.571E+00
   18.900   2.559E+00
   19.000   2.545E+00
   19.100   2.530E+00
   19.200   2.512E+00
   19.300   2.494E+00
   19.400   2.474E+00
   19.500   2.453E+00
   19.600   2.431E+00
   19.700   2.408E+00
   19.800   2.384E+00
   19.900   2.359E+00
   20.000   2.334E+00
   20.100   2.309E+00
   20.200   2.283E+00
   20.300   2.257E+00
   20.400   2.230E+00
   20.500   2.204E+00
   20.600   2.178E+00
   20.700   2.152E+00
   20.800   2.126E+00
   20.900   2.100E+00
   21.000   2.074E+00
   21.100   2.049E+00
   21.200   2.024E+00
   21.300   1.999E+00
   21.400   1.974E+00
   21.500   1.949E+00
   21.600   1.924E+00
   21.700   1.900E+00
   21.800   1.875E+00
   21.900   1.851E+00
   22.000   1.827E+00
   22.100   1.804E+00
   22.200   1.781E+00
   22.300   1.758E+00
   22.400   1.736E+00
   22.500   1.714E+00
   22.600   1.692E+00
   22.700   1.670E+00
   22.800   1.648E+00
   22.900   1.626E+00
   23.000   1.603E+00
   23.100   1.580E+00
   23.200   1.556E+00
   23.300   1.531E+00
   23.400   1.506E+00
   23.500   1.479E+00
   23.600   1.452E+00
   23.700   1.425E+00
   23.800   1.397E+00
   23.900   1.368E+00
   24.000   1.340E+00
   24.100   1.311E+00
   24.200   1.283E+00
   24.300   1.255E+00
   24.400   1.228E+00
   24.500   1.201E+00
   24.600   1.175E+00
   24.700   1.150E+00
   24.800   1.126E+00
   24.900   1.103E+00
   25.000   1.080E+00
   25.100   1.058E+00
   25.200   1.037E+00
   25.300   1.017E+00
   25.400   9.966E-01
   25.500   9.768E-01
   25.600   9.573E-01
   25.700   9.379E-01
   25.800   9.187E-01
   25.900   8.995E-01
   26.000   8.804E-01
   26.100   8.614E-01
   26.200   8.424E-01
   26.300   8.235E-01
   26.400   8.049E-01
   26.500   7.864E-01
   26.600   7.682E-01
   26.700   7.503E-01
   26.800   7.328E-01
   26.900   7.157E-01
   27.000   6.990E-01
   27.100   6.829E-01
   27.200   6.672E-01
   27.300   6.520E-01
   27.400   6.374E-01
   27.500   6.233E-01
   27.600   6.098E-01
   27.700   5.970E-01
   27.800   5.847E-01
   27.900   5.729E-01
   28.000   5.618E-01
   28.100   5.512E-01
   28.200   5.411E-01
   28.300   5.316E-01
   28.400   5.225E-01
   28.500   5.138E-01
   28.600   5.055E-01
   28.700   4.976E-01
   28.800   4.900E-01
   28.900   4.827E-01
   29.000   4.755E-01
   29.100   4.686E-01
   29.200   4.618E-01
   29.300   4.551E-01
   29.400   4.485E-01
   29.500   4.420E-01
   29.600   4.356E-01
   29.700   4.292E-01
   29.800   4.230E-01
   29.900   4.168E-01
   30.000   4.106E-01
 
 Z=  14 A=  36 Si
  U[MeV]  fE1[mb/MeV]
    0.100   1.071E-05
    0.200   4.284E-05
    0.300   9.644E-05
    0.400   1.716E-04
    0.500   2.683E-04
    0.600   3.868E-04
    0.700   5.272E-04
    0.800   6.896E-04
    0.900   8.743E-04
    1.000   1.082E-03
    1.100   1.311E-03
    1.200   1.564E-03
    1.300   1.841E-03
    1.400   2.141E-03
    1.500   2.465E-03
    1.600   2.814E-03
    1.700   3.187E-03
    1.800   3.587E-03
    1.900   4.012E-03
    2.000   4.463E-03
    2.100   4.942E-03
    2.200   5.449E-03
    2.300   5.984E-03
    2.400   6.549E-03
    2.500   7.143E-03
    2.600   7.769E-03
    2.700   8.427E-03
    2.800   9.117E-03
    2.900   9.841E-03
    3.000   1.060E-02
    3.100   1.140E-02
    3.200   1.223E-02
    3.300   1.310E-02
    3.400   1.401E-02
    3.500   1.497E-02
    3.600   1.596E-02
    3.700   1.700E-02
    3.800   1.809E-02
    3.900   1.923E-02
    4.000   2.042E-02
    4.100   2.166E-02
    4.200   2.296E-02
    4.300   2.432E-02
    4.400   2.574E-02
    4.500   2.722E-02
    4.600   2.877E-02
    4.700   3.039E-02
    4.800   3.208E-02
    4.900   3.386E-02
    5.000   3.571E-02
    5.100   3.766E-02
    5.200   3.970E-02
    5.300   4.183E-02
    5.400   4.407E-02
    5.500   4.642E-02
    5.600   4.889E-02
    5.700   5.149E-02
    5.800   5.422E-02
    5.900   5.709E-02
    6.000   6.012E-02
    6.100   6.331E-02
    6.200   6.667E-02
    6.300   7.022E-02
    6.400   7.398E-02
    6.500   7.795E-02
    6.600   8.216E-02
    6.700   8.662E-02
    6.800   9.134E-02
    6.900   9.636E-02
    7.000   1.017E-01
    7.100   1.074E-01
    7.200   1.134E-01
    7.300   1.198E-01
    7.400   1.266E-01
    7.500   1.338E-01
    7.600   1.415E-01
    7.700   1.497E-01
    7.800   1.583E-01
    7.900   1.676E-01
    8.000   1.773E-01
    8.100   1.877E-01
    8.200   1.986E-01
    8.300   2.102E-01
    8.400   2.223E-01
    8.500   2.350E-01
    8.600   2.482E-01
    8.700   2.618E-01
    8.800   2.758E-01
    8.900   2.902E-01
    9.000   3.048E-01
    9.100   3.195E-01
    9.200   3.345E-01
    9.300   3.497E-01
    9.400   3.650E-01
    9.500   3.807E-01
    9.600   3.968E-01
    9.700   4.132E-01
    9.800   4.301E-01
    9.900   4.474E-01
   10.000   4.651E-01
   10.100   4.832E-01
   10.200   5.014E-01
   10.300   5.199E-01
   10.400   5.385E-01
   10.500   5.572E-01
   10.600   5.761E-01
   10.700   5.952E-01
   10.800   6.146E-01
   10.900   6.345E-01
   11.000   6.548E-01
   11.100   6.756E-01
   11.200   6.971E-01
   11.300   7.193E-01
   11.400   7.422E-01
   11.500   7.658E-01
   11.600   7.902E-01
   11.700   8.153E-01
   11.800   8.411E-01
   11.900   8.676E-01
   12.000   8.946E-01
   12.100   9.222E-01
   12.200   9.504E-01
   12.300   9.792E-01
   12.400   1.009E+00
   12.500   1.040E+00
   12.600   1.071E+00
   12.700   1.105E+00
   12.800   1.141E+00
   12.900   1.179E+00
   13.000   1.220E+00
   13.100   1.263E+00
   13.200   1.310E+00
   13.300   1.361E+00
   13.400   1.415E+00
   13.500   1.472E+00
   13.600   1.531E+00
   13.700   1.593E+00
   13.800   1.656E+00
   13.900   1.719E+00
   14.000   1.781E+00
   14.100   1.841E+00
   14.200   1.897E+00
   14.300   1.949E+00
   14.400   1.994E+00
   14.500   2.034E+00
   14.600   2.066E+00
   14.700   2.092E+00
   14.800   2.111E+00
   14.900   2.124E+00
   15.000   2.132E+00
   15.100   2.137E+00
   15.200   2.139E+00
   15.300   2.140E+00
   15.400   2.142E+00
   15.500   2.145E+00
   15.600   2.150E+00
   15.700   2.159E+00
   15.800   2.172E+00
   15.900   2.190E+00
   16.000   2.214E+00
   16.100   2.243E+00
   16.200   2.277E+00
   16.300   2.316E+00
   16.400   2.359E+00
   16.500   2.404E+00
   16.600   2.450E+00
   16.700   2.494E+00
   16.800   2.537E+00
   16.900   2.574E+00
   17.000   2.606E+00
   17.100   2.630E+00
   17.200   2.647E+00
   17.300   2.656E+00
   17.400   2.658E+00
   17.500   2.654E+00
   17.600   2.645E+00
   17.700   2.632E+00
   17.800   2.615E+00
   17.900   2.595E+00
   18.000   2.573E+00
   18.100   2.548E+00
   18.200   2.521E+00
   18.300   2.492E+00
   18.400   2.461E+00
   18.500   2.428E+00
   18.600   2.394E+00
   18.700   2.359E+00
   18.800   2.323E+00
   18.900   2.287E+00
   19.000   2.251E+00
   19.100   2.214E+00
   19.200   2.179E+00
   19.300   2.144E+00
   19.400   2.110E+00
   19.500   2.077E+00
   19.600   2.046E+00
   19.700   2.017E+00
   19.800   1.990E+00
   19.900   1.965E+00
   20.000   1.944E+00
   20.100   1.925E+00
   20.200   1.908E+00
   20.300   1.895E+00
   20.400   1.884E+00
   20.500   1.875E+00
   20.600   1.868E+00
   20.700   1.863E+00
   20.800   1.858E+00
   20.900   1.854E+00
   21.000   1.849E+00
   21.100   1.844E+00
   21.200   1.836E+00
   21.300   1.827E+00
   21.400   1.816E+00
   21.500   1.801E+00
   21.600   1.784E+00
   21.700   1.764E+00
   21.800   1.741E+00
   21.900   1.717E+00
   22.000   1.690E+00
   22.100   1.662E+00
   22.200   1.633E+00
   22.300   1.603E+00
   22.400   1.573E+00
   22.500   1.543E+00
   22.600   1.513E+00
   22.700   1.482E+00
   22.800   1.452E+00
   22.900   1.423E+00
   23.000   1.393E+00
   23.100   1.363E+00
   23.200   1.334E+00
   23.300   1.304E+00
   23.400   1.275E+00
   23.500   1.246E+00
   23.600   1.218E+00
   23.700   1.190E+00
   23.800   1.162E+00
   23.900   1.136E+00
   24.000   1.110E+00
   24.100   1.084E+00
   24.200   1.060E+00
   24.300   1.037E+00
   24.400   1.014E+00
   24.500   9.922E-01
   24.600   9.714E-01
   24.700   9.515E-01
   24.800   9.326E-01
   24.900   9.146E-01
   25.000   8.976E-01
   25.100   8.816E-01
   25.200   8.666E-01
   25.300   8.526E-01
   25.400   8.395E-01
   25.500   8.274E-01
   25.600   8.163E-01
   25.700   8.060E-01
   25.800   7.966E-01
   25.900   7.879E-01
   26.000   7.799E-01
   26.100   7.724E-01
   26.200   7.653E-01
   26.300   7.584E-01
   26.400   7.517E-01
   26.500   7.450E-01
   26.600   7.380E-01
   26.700   7.308E-01
   26.800   7.231E-01
   26.900   7.148E-01
   27.000   7.059E-01
   27.100   6.962E-01
   27.200   6.858E-01
   27.300   6.748E-01
   27.400   6.630E-01
   27.500   6.508E-01
   27.600   6.381E-01
   27.700   6.251E-01
   27.800   6.119E-01
   27.900   5.988E-01
   28.000   5.859E-01
   28.100   5.731E-01
   28.200   5.607E-01
   28.300   5.488E-01
   28.400   5.372E-01
   28.500   5.262E-01
   28.600   5.156E-01
   28.700   5.055E-01
   28.800   4.959E-01
   28.900   4.867E-01
   29.000   4.779E-01
   29.100   4.694E-01
   29.200   4.613E-01
   29.300   4.535E-01
   29.400   4.459E-01
   29.500   4.386E-01
   29.600   4.315E-01
   29.700   4.247E-01
   29.800   4.181E-01
   29.900   4.117E-01
   30.000   4.056E-01
 
 Z=  14 A=  37 Si
  U[MeV]  fE1[mb/MeV]
    0.100   1.187E-05
    0.200   4.749E-05
    0.300   1.069E-04
    0.400   1.902E-04
    0.500   2.975E-04
    0.600   4.289E-04
    0.700   5.847E-04
    0.800   7.649E-04
    0.900   9.699E-04
    1.000   1.200E-03
    1.100   1.455E-03
    1.200   1.736E-03
    1.300   2.044E-03
    1.400   2.377E-03
    1.500   2.738E-03
    1.600   3.126E-03
    1.700   3.542E-03
    1.800   3.987E-03
    1.900   4.461E-03
    2.000   4.965E-03
    2.100   5.500E-03
    2.200   6.066E-03
    2.300   6.664E-03
    2.400   7.296E-03
    2.500   7.962E-03
    2.600   8.664E-03
    2.700   9.402E-03
    2.800   1.018E-02
    2.900   1.099E-02
    3.000   1.185E-02
    3.100   1.274E-02
    3.200   1.368E-02
    3.300   1.467E-02
    3.400   1.570E-02
    3.500   1.678E-02
    3.600   1.791E-02
    3.700   1.909E-02
    3.800   2.033E-02
    3.900   2.163E-02
    4.000   2.299E-02
    4.100   2.441E-02
    4.200   2.590E-02
    4.300   2.746E-02
    4.400   2.909E-02
    4.500   3.080E-02
    4.600   3.259E-02
    4.700   3.446E-02
    4.800   3.643E-02
    4.900   3.849E-02
    5.000   4.066E-02
    5.100   4.293E-02
    5.200   4.532E-02
    5.300   4.783E-02
    5.400   5.048E-02
    5.500   5.326E-02
    5.600   5.619E-02
    5.700   5.928E-02
    5.800   6.254E-02
    5.900   6.598E-02
    6.000   6.963E-02
    6.100   7.348E-02
    6.200   7.757E-02
    6.300   8.190E-02
    6.400   8.650E-02
    6.500   9.138E-02
    6.600   9.658E-02
    6.700   1.021E-01
    6.800   1.080E-01
    6.900   1.143E-01
    7.000   1.211E-01
    7.100   1.283E-01
    7.200   1.360E-01
    7.300   1.442E-01
    7.400   1.530E-01
    7.500   1.625E-01
    7.600   1.726E-01
    7.700   1.834E-01
    7.800   1.950E-01
    7.900   2.074E-01
    8.000   2.207E-01
    8.100   2.348E-01
    8.200   2.499E-01
    8.300   2.659E-01
    8.400   2.829E-01
    8.500   3.007E-01
    8.600   3.193E-01
    8.700   3.386E-01
    8.800   3.585E-01
    8.900   3.788E-01
    9.000   3.993E-01
    9.100   4.199E-01
    9.200   4.404E-01
    9.300   4.607E-01
    9.400   4.806E-01
    9.500   5.000E-01
    9.600   5.187E-01
    9.700   5.367E-01
    9.800   5.540E-01
    9.900   5.707E-01
   10.000   5.869E-01
   10.100   6.028E-01
   10.200   6.187E-01
   10.300   6.347E-01
   10.400   6.511E-01
   10.500   6.680E-01
   10.600   6.858E-01
   10.700   7.044E-01
   10.800   7.242E-01
   10.900   7.451E-01
   11.000   7.672E-01
   11.100   7.908E-01
   11.200   8.157E-01
   11.300   8.421E-01
   11.400   8.698E-01
   11.500   8.989E-01
   11.600   9.290E-01
   11.700   9.601E-01
   11.800   9.919E-01
   11.900   1.024E+00
   12.000   1.057E+00
   12.100   1.091E+00
   12.200   1.125E+00
   12.300   1.159E+00
   12.400   1.195E+00
   12.500   1.233E+00
   12.600   1.272E+00
   12.700   1.314E+00
   12.800   1.359E+00
   12.900   1.407E+00
   13.000   1.458E+00
   13.100   1.512E+00
   13.200   1.568E+00
   13.300   1.627E+00
   13.400   1.686E+00
   13.500   1.745E+00
   13.600   1.803E+00
   13.700   1.857E+00
   13.800   1.906E+00
   13.900   1.949E+00
   14.000   1.984E+00
   14.100   2.012E+00
   14.200   2.031E+00
   14.300   2.044E+00
   14.400   2.050E+00
   14.500   2.051E+00
   14.600   2.049E+00
   14.700   2.045E+00
   14.800   2.043E+00
   14.900   2.043E+00
   15.000   2.046E+00
   15.100   2.055E+00
   15.200   2.069E+00
   15.300   2.090E+00
   15.400   2.118E+00
   15.500   2.153E+00
   15.600   2.195E+00
   15.700   2.243E+00
   15.800   2.298E+00
   15.900   2.357E+00
   16.000   2.419E+00
   16.100   2.482E+00
   16.200   2.544E+00
   16.300   2.603E+00
   16.400   2.656E+00
   16.500   2.702E+00
   16.600   2.737E+00
   16.700   2.761E+00
   16.800   2.775E+00
   16.900   2.778E+00
   17.000   2.772E+00
   17.100   2.758E+00
   17.200   2.739E+00
   17.300   2.716E+00
   17.400   2.691E+00
   17.500   2.664E+00
   17.600   2.636E+00
   17.700   2.607E+00
   17.800   2.577E+00
   17.900   2.546E+00
   18.000   2.514E+00
   18.100   2.481E+00
   18.200   2.446E+00
   18.300   2.409E+00
   18.400   2.370E+00
   18.500   2.331E+00
   18.600   2.289E+00
   18.700   2.248E+00
   18.800   2.205E+00
   18.900   2.163E+00
   19.000   2.122E+00
   19.100   2.083E+00
   19.200   2.045E+00
   19.300   2.011E+00
   19.400   1.979E+00
   19.500   1.951E+00
   19.600   1.926E+00
   19.700   1.905E+00
   19.800   1.889E+00
   19.900   1.876E+00
   20.000   1.866E+00
   20.100   1.860E+00
   20.200   1.858E+00
   20.300   1.857E+00
   20.400   1.860E+00
   20.500   1.863E+00
   20.600   1.867E+00
   20.700   1.872E+00
   20.800   1.876E+00
   20.900   1.878E+00
   21.000   1.878E+00
   21.100   1.875E+00
   21.200   1.869E+00
   21.300   1.859E+00
   21.400   1.847E+00
   21.500   1.831E+00
   21.600   1.812E+00
   21.700   1.791E+00
   21.800   1.768E+00
   21.900   1.743E+00
   22.000   1.717E+00
   22.100   1.691E+00
   22.200   1.663E+00
   22.300   1.635E+00
   22.400   1.606E+00
   22.500   1.577E+00
   22.600   1.548E+00
   22.700   1.518E+00
   22.800   1.489E+00
   22.900   1.458E+00
   23.000   1.428E+00
   23.100   1.398E+00
   23.200   1.368E+00
   23.300   1.338E+00
   23.400   1.308E+00
   23.500   1.279E+00
   23.600   1.250E+00
   23.700   1.222E+00
   23.800   1.195E+00
   23.900   1.168E+00
   24.000   1.142E+00
   24.100   1.116E+00
   24.200   1.092E+00
   24.300   1.068E+00
   24.400   1.046E+00
   24.500   1.024E+00
   24.600   1.003E+00
   24.700   9.838E-01
   24.800   9.653E-01
   24.900   9.480E-01
   25.000   9.318E-01
   25.100   9.168E-01
   25.200   9.028E-01
   25.300   8.899E-01
   25.400   8.778E-01
   25.500   8.666E-01
   25.600   8.560E-01
   25.700   8.459E-01
   25.800   8.361E-01
   25.900   8.266E-01
   26.000   8.171E-01
   26.100   8.077E-01
   26.200   7.981E-01
   26.300   7.884E-01
   26.400   7.784E-01
   26.500   7.681E-01
   26.600   7.575E-01
   26.700   7.466E-01
   26.800   7.353E-01
   26.900   7.236E-01
   27.000   7.117E-01
   27.100   6.996E-01
   27.200   6.873E-01
   27.300   6.751E-01
   27.400   6.629E-01
   27.500   6.508E-01
   27.600   6.390E-01
   27.700   6.275E-01
   27.800   6.162E-01
   27.900   6.052E-01
   28.000   5.946E-01
   28.100   5.842E-01
   28.200   5.741E-01
   28.300   5.642E-01
   28.400   5.545E-01
   28.500   5.449E-01
   28.600   5.356E-01
   28.700   5.263E-01
   28.800   5.172E-01
   28.900   5.082E-01
   29.000   4.993E-01
   29.100   4.907E-01
   29.200   4.822E-01
   29.300   4.739E-01
   29.400   4.658E-01
   29.500   4.579E-01
   29.600   4.502E-01
   29.700   4.427E-01
   29.800   4.354E-01
   29.900   4.283E-01
   30.000   4.213E-01
 
 Z=  14 A=  38 Si
  U[MeV]  fE1[mb/MeV]
    0.100   1.359E-05
    0.200   5.437E-05
    0.300   1.224E-04
    0.400   2.178E-04
    0.500   3.407E-04
    0.600   4.912E-04
    0.700   6.697E-04
    0.800   8.763E-04
    0.900   1.111E-03
    1.000   1.375E-03
    1.100   1.669E-03
    1.200   1.991E-03
    1.300   2.344E-03
    1.400   2.728E-03
    1.500   3.143E-03
    1.600   3.590E-03
    1.700   4.070E-03
    1.800   4.583E-03
    1.900   5.131E-03
    2.000   5.714E-03
    2.100   6.333E-03
    2.200   6.989E-03
    2.300   7.683E-03
    2.400   8.418E-03
    2.500   9.193E-03
    2.600   1.001E-02
    2.700   1.087E-02
    2.800   1.178E-02
    2.900   1.273E-02
    3.000   1.373E-02
    3.100   1.479E-02
    3.200   1.589E-02
    3.300   1.705E-02
    3.400   1.827E-02
    3.500   1.955E-02
    3.600   2.089E-02
    3.700   2.230E-02
    3.800   2.378E-02
    3.900   2.533E-02
    4.000   2.696E-02
    4.100   2.867E-02
    4.200   3.046E-02
    4.300   3.234E-02
    4.400   3.432E-02
    4.500   3.640E-02
    4.600   3.859E-02
    4.700   4.089E-02
    4.800   4.330E-02
    4.900   4.585E-02
    5.000   4.854E-02
    5.100   5.137E-02
    5.200   5.435E-02
    5.300   5.750E-02
    5.400   6.084E-02
    5.500   6.436E-02
    5.600   6.809E-02
    5.700   7.205E-02
    5.800   7.625E-02
    5.900   8.071E-02
    6.000   8.545E-02
    6.100   9.050E-02
    6.200   9.588E-02
    6.300   1.016E-01
    6.400   1.078E-01
    6.500   1.144E-01
    6.600   1.214E-01
    6.700   1.290E-01
    6.800   1.372E-01
    6.900   1.459E-01
    7.000   1.554E-01
    7.100   1.656E-01
    7.200   1.766E-01
    7.300   1.885E-01
    7.400   2.014E-01
    7.500   2.154E-01
    7.600   2.305E-01
    7.700   2.468E-01
    7.800   2.644E-01
    7.900   2.835E-01
    8.000   3.040E-01
    8.100   3.259E-01
    8.200   3.493E-01
    8.300   3.741E-01
    8.400   4.002E-01
    8.500   4.272E-01
    8.600   4.549E-01
    8.700   4.827E-01
    8.800   5.100E-01
    8.900   5.364E-01
    9.000   5.611E-01
    9.100   5.838E-01
    9.200   6.041E-01
    9.300   6.219E-01
    9.400   6.374E-01
    9.500   6.509E-01
    9.600   6.627E-01
    9.700   6.735E-01
    9.800   6.838E-01
    9.900   6.942E-01
   10.000   7.052E-01
   10.100   7.172E-01
   10.200   7.308E-01
   10.300   7.460E-01
   10.400   7.634E-01
   10.500   7.829E-01
   10.600   8.047E-01
   10.700   8.290E-01
   10.800   8.556E-01
   10.900   8.844E-01
   11.000   9.154E-01
   11.100   9.482E-01
   11.200   9.825E-01
   11.300   1.018E+00
   11.400   1.054E+00
   11.500   1.090E+00
   11.600   1.126E+00
   11.700   1.161E+00
   11.800   1.196E+00
   11.900   1.230E+00
   12.000   1.262E+00
   12.100   1.294E+00
   12.200   1.326E+00
   12.300   1.356E+00
   12.400   1.387E+00
   12.500   1.418E+00
   12.600   1.450E+00
   12.700   1.483E+00
   12.800   1.518E+00
   12.900   1.554E+00
   13.000   1.592E+00
   13.100   1.632E+00
   13.200   1.672E+00
   13.300   1.713E+00
   13.400   1.752E+00
   13.500   1.790E+00
   13.600   1.825E+00
   13.700   1.855E+00
   13.800   1.880E+00
   13.900   1.901E+00
   14.000   1.917E+00
   14.100   1.930E+00
   14.200   1.941E+00
   14.300   1.951E+00
   14.400   1.962E+00
   14.500   1.976E+00
   14.600   1.994E+00
   14.700   2.017E+00
   14.800   2.046E+00
   14.900   2.081E+00
   15.000   2.123E+00
   15.100   2.172E+00
   15.200   2.226E+00
   15.300   2.286E+00
   15.400   2.349E+00
   15.500   2.416E+00
   15.600   2.485E+00
   15.700   2.553E+00
   15.800   2.620E+00
   15.900   2.683E+00
   16.000   2.742E+00
   16.100   2.793E+00
   16.200   2.837E+00
   16.300   2.871E+00
   16.400   2.893E+00
   16.500   2.905E+00
   16.600   2.905E+00
   16.700   2.895E+00
   16.800   2.876E+00
   16.900   2.851E+00
   17.000   2.821E+00
   17.100   2.789E+00
   17.200   2.755E+00
   17.300   2.721E+00
   17.400   2.687E+00
   17.500   2.652E+00
   17.600   2.616E+00
   17.700   2.580E+00
   17.800   2.541E+00
   17.900   2.501E+00
   18.000   2.459E+00
   18.100   2.416E+00
   18.200   2.371E+00
   18.300   2.325E+00
   18.400   2.279E+00
   18.500   2.234E+00
   18.600   2.189E+00
   18.700   2.147E+00
   18.800   2.106E+00
   18.900   2.068E+00
   19.000   2.033E+00
   19.100   2.001E+00
   19.200   1.973E+00
   19.300   1.950E+00
   19.400   1.930E+00
   19.500   1.914E+00
   19.600   1.903E+00
   19.700   1.895E+00
   19.800   1.891E+00
   19.900   1.890E+00
   20.000   1.892E+00
   20.100   1.897E+00
   20.200   1.904E+00
   20.300   1.912E+00
   20.400   1.921E+00
   20.500   1.930E+00
   20.600   1.938E+00
   20.700   1.944E+00
   20.800   1.948E+00
   20.900   1.949E+00
   21.000   1.947E+00
   21.100   1.940E+00
   21.200   1.930E+00
   21.300   1.916E+00
   21.400   1.899E+00
   21.500   1.879E+00
   21.600   1.857E+00
   21.700   1.833E+00
   21.800   1.807E+00
   21.900   1.781E+00
   22.000   1.754E+00
   22.100   1.726E+00
   22.200   1.698E+00
   22.300   1.670E+00
   22.400   1.641E+00
   22.500   1.612E+00
   22.600   1.582E+00
   22.700   1.552E+00
   22.800   1.522E+00
   22.900   1.491E+00
   23.000   1.459E+00
   23.100   1.428E+00
   23.200   1.396E+00
   23.300   1.365E+00
   23.400   1.334E+00
   23.500   1.303E+00
   23.600   1.274E+00
   23.700   1.244E+00
   23.800   1.216E+00
   23.900   1.188E+00
   24.000   1.162E+00
   24.100   1.136E+00
   24.200   1.111E+00
   24.300   1.088E+00
   24.400   1.065E+00
   24.500   1.044E+00
   24.600   1.024E+00
   24.700   1.004E+00
   24.800   9.860E-01
   24.900   9.684E-01
   25.000   9.515E-01
   25.100   9.353E-01
   25.200   9.197E-01
   25.300   9.046E-01
   25.400   8.901E-01
   25.500   8.760E-01
   25.600   8.623E-01
   25.700   8.489E-01
   25.800   8.359E-01
   25.900   8.231E-01
   26.000   8.106E-01
   26.100   7.984E-01
   26.200   7.864E-01
   26.300   7.747E-01
   26.400   7.632E-01
   26.500   7.519E-01
   26.600   7.409E-01
   26.700   7.301E-01
   26.800   7.194E-01
   26.900   7.089E-01
   27.000   6.984E-01
   27.100   6.881E-01
   27.200   6.777E-01
   27.300   6.674E-01
   27.400   6.570E-01
   27.500   6.466E-01
   27.600   6.362E-01
   27.700   6.259E-01
   27.800   6.155E-01
   27.900   6.052E-01
   28.000   5.951E-01
   28.100   5.851E-01
   28.200   5.753E-01
   28.300   5.657E-01
   28.400   5.562E-01
   28.500   5.469E-01
   28.600   5.378E-01
   28.700   5.288E-01
   28.800   5.200E-01
   28.900   5.113E-01
   29.000   5.028E-01
   29.100   4.943E-01
   29.200   4.860E-01
   29.300   4.778E-01
   29.400   4.696E-01
   29.500   4.616E-01
   29.600   4.535E-01
   29.700   4.456E-01
   29.800   4.378E-01
   29.900   4.301E-01
   30.000   4.225E-01
 
 Z=  14 A=  39 Si
  U[MeV]  fE1[mb/MeV]
    0.100   1.586E-05
    0.200   6.348E-05
    0.300   1.429E-04
    0.400   2.543E-04
    0.500   3.979E-04
    0.600   5.738E-04
    0.700   7.824E-04
    0.800   1.024E-03
    0.900   1.299E-03
    1.000   1.608E-03
    1.100   1.951E-03
    1.200   2.330E-03
    1.300   2.744E-03
    1.400   3.194E-03
    1.500   3.682E-03
    1.600   4.208E-03
    1.700   4.772E-03
    1.800   5.377E-03
    1.900   6.023E-03
    2.000   6.711E-03
    2.100   7.442E-03
    2.200   8.219E-03
    2.300   9.042E-03
    2.400   9.914E-03
    2.500   1.084E-02
    2.600   1.181E-02
    2.700   1.284E-02
    2.800   1.392E-02
    2.900   1.506E-02
    3.000   1.626E-02
    3.100   1.753E-02
    3.200   1.886E-02
    3.300   2.026E-02
    3.400   2.174E-02
    3.500   2.329E-02
    3.600   2.492E-02
    3.700   2.664E-02
    3.800   2.845E-02
    3.900   3.035E-02
    4.000   3.235E-02
    4.100   3.446E-02
    4.200   3.668E-02
    4.300   3.902E-02
    4.400   4.149E-02
    4.500   4.409E-02
    4.600   4.684E-02
    4.700   4.974E-02
    4.800   5.280E-02
    4.900   5.604E-02
    5.000   5.948E-02
    5.100   6.311E-02
    5.200   6.697E-02
    5.300   7.106E-02
    5.400   7.541E-02
    5.500   8.004E-02
    5.600   8.497E-02
    5.700   9.023E-02
    5.800   9.585E-02
    5.900   1.019E-01
    6.000   1.083E-01
    6.100   1.152E-01
    6.200   1.226E-01
    6.300   1.306E-01
    6.400   1.392E-01
    6.500   1.485E-01
    6.600   1.585E-01
    6.700   1.694E-01
    6.800   1.812E-01
    6.900   1.940E-01
    7.000   2.080E-01
    7.100   2.231E-01
    7.200   2.396E-01
    7.300   2.576E-01
    7.400   2.772E-01
    7.500   2.985E-01
    7.600   3.215E-01
    7.700   3.464E-01
    7.800   3.732E-01
    7.900   4.018E-01
    8.000   4.322E-01
    8.100   4.639E-01
    8.200   4.966E-01
    8.300   5.298E-01
    8.400   5.627E-01
    8.500   5.945E-01
    8.600   6.244E-01
    8.700   6.515E-01
    8.800   6.753E-01
    8.900   6.954E-01
    9.000   7.118E-01
    9.100   7.248E-01
    9.200   7.350E-01
    9.300   7.432E-01
    9.400   7.502E-01
    9.500   7.569E-01
    9.600   7.640E-01
    9.700   7.721E-01
    9.800   7.819E-01
    9.900   7.937E-01
   10.000   8.079E-01
   10.100   8.250E-01
   10.200   8.450E-01
   10.300   8.681E-01
   10.400   8.943E-01
   10.500   9.237E-01
   10.600   9.561E-01
   10.700   9.911E-01
   10.800   1.028E+00
   10.900   1.067E+00
   11.000   1.108E+00
   11.100   1.148E+00
   11.200   1.189E+00
   11.300   1.229E+00
   11.400   1.267E+00
   11.500   1.305E+00
   11.600   1.340E+00
   11.700   1.374E+00
   11.800   1.407E+00
   11.900   1.437E+00
   12.000   1.466E+00
   12.100   1.493E+00
   12.200   1.519E+00
   12.300   1.543E+00
   12.400   1.565E+00
   12.500   1.585E+00
   12.600   1.604E+00
   12.700   1.622E+00
   12.800   1.639E+00
   12.900   1.655E+00
   13.000   1.672E+00
   13.100   1.689E+00
   13.200   1.707E+00
   13.300   1.725E+00
   13.400   1.744E+00
   13.500   1.763E+00
   13.600   1.783E+00
   13.700   1.803E+00
   13.800   1.824E+00
   13.900   1.846E+00
   14.000   1.869E+00
   14.100   1.896E+00
   14.200   1.925E+00
   14.300   1.959E+00
   14.400   1.997E+00
   14.500   2.039E+00
   14.600   2.086E+00
   14.700   2.138E+00
   14.800   2.195E+00
   14.900   2.256E+00
   15.000   2.321E+00
   15.100   2.388E+00
   15.200   2.458E+00
   15.300   2.527E+00
   15.400   2.596E+00
   15.500   2.663E+00
   15.600   2.726E+00
   15.700   2.784E+00
   15.800   2.837E+00
   15.900   2.885E+00
   16.000   2.926E+00
   16.100   2.959E+00
   16.200   2.985E+00
   16.300   3.001E+00
   16.400   3.007E+00
   16.500   3.003E+00
   16.600   2.988E+00
   16.700   2.964E+00
   16.800   2.931E+00
   16.900   2.891E+00
   17.000   2.845E+00
   17.100   2.797E+00
   17.200   2.747E+00
   17.300   2.696E+00
   17.400   2.645E+00
   17.500   2.595E+00
   17.600   2.546E+00
   17.700   2.496E+00
   17.800   2.447E+00
   17.900   2.398E+00
   18.000   2.350E+00
   18.100   2.302E+00
   18.200   2.256E+00
   18.300   2.210E+00
   18.400   2.167E+00
   18.500   2.126E+00
   18.600   2.087E+00
   18.700   2.052E+00
   18.800   2.019E+00
   18.900   1.991E+00
   19.000   1.966E+00
   19.100   1.944E+00
   19.200   1.927E+00
   19.300   1.913E+00
   19.400   1.903E+00
   19.500   1.897E+00
   19.600   1.894E+00
   19.700   1.894E+00
   19.800   1.897E+00
   19.900   1.903E+00
   20.000   1.911E+00
   20.100   1.920E+00
   20.200   1.931E+00
   20.300   1.942E+00
   20.400   1.953E+00
   20.500   1.963E+00
   20.600   1.971E+00
   20.700   1.977E+00
   20.800   1.980E+00
   20.900   1.979E+00
   21.000   1.975E+00
   21.100   1.966E+00
   21.200   1.954E+00
   21.300   1.939E+00
   21.400   1.921E+00
   21.500   1.901E+00
   21.600   1.878E+00
   21.700   1.854E+00
   21.800   1.829E+00
   21.900   1.802E+00
   22.000   1.775E+00
   22.100   1.747E+00
   22.200   1.718E+00
   22.300   1.688E+00
   22.400   1.658E+00
   22.500   1.628E+00
   22.600   1.597E+00
   22.700   1.565E+00
   22.800   1.534E+00
   22.900   1.503E+00
   23.000   1.471E+00
   23.100   1.440E+00
   23.200   1.410E+00
   23.300   1.379E+00
   23.400   1.350E+00
   23.500   1.321E+00
   23.600   1.293E+00
   23.700   1.265E+00
   23.800   1.238E+00
   23.900   1.212E+00
   24.000   1.186E+00
   24.100   1.161E+00
   24.200   1.136E+00
   24.300   1.112E+00
   24.400   1.088E+00
   24.500   1.065E+00
   24.600   1.042E+00
   24.700   1.020E+00
   24.800   9.979E-01
   24.900   9.770E-01
   25.000   9.571E-01
   25.100   9.381E-01
   25.200   9.200E-01
   25.300   9.029E-01
   25.400   8.867E-01
   25.500   8.714E-01
   25.600   8.569E-01
   25.700   8.431E-01
   25.800   8.300E-01
   25.900   8.174E-01
   26.000   8.055E-01
   26.100   7.940E-01
   26.200   7.829E-01
   26.300   7.722E-01
   26.400   7.617E-01
   26.500   7.514E-01
   26.600   7.413E-01
   26.700   7.312E-01
   26.800   7.211E-01
   26.900   7.110E-01
   27.000   7.009E-01
   27.100   6.906E-01
   27.200   6.804E-01
   27.300   6.701E-01
   27.400   6.598E-01
   27.500   6.495E-01
   27.600   6.392E-01
   27.700   6.289E-01
   27.800   6.185E-01
   27.900   6.082E-01
   28.000   5.977E-01
   28.100   5.873E-01
   28.200   5.770E-01
   28.300   5.667E-01
   28.400   5.565E-01
   28.500   5.466E-01
   28.600   5.368E-01
   28.700   5.273E-01
   28.800   5.181E-01
   28.900   5.092E-01
   29.000   5.005E-01
   29.100   4.920E-01
   29.200   4.837E-01
   29.300   4.756E-01
   29.400   4.676E-01
   29.500   4.597E-01
   29.600   4.519E-01
   29.700   4.443E-01
   29.800   4.368E-01
   29.900   4.295E-01
   30.000   4.225E-01
 
 Z=  14 A=  40 Si
  U[MeV]  fE1[mb/MeV]
    0.100   1.791E-05
    0.200   7.167E-05
    0.300   1.614E-04
    0.400   2.872E-04
    0.500   4.494E-04
    0.600   6.483E-04
    0.700   8.841E-04
    0.800   1.157E-03
    0.900   1.469E-03
    1.000   1.819E-03
    1.100   2.208E-03
    1.200   2.637E-03
    1.300   3.107E-03
    1.400   3.619E-03
    1.500   4.174E-03
    1.600   4.772E-03
    1.700   5.416E-03
    1.800   6.106E-03
    1.900   6.844E-03
    2.000   7.632E-03
    2.100   8.471E-03
    2.200   9.363E-03
    2.300   1.031E-02
    2.400   1.131E-02
    2.500   1.238E-02
    2.600   1.350E-02
    2.700   1.469E-02
    2.800   1.595E-02
    2.900   1.728E-02
    3.000   1.869E-02
    3.100   2.017E-02
    3.200   2.173E-02
    3.300   2.338E-02
    3.400   2.512E-02
    3.500   2.696E-02
    3.600   2.890E-02
    3.700   3.095E-02
    3.800   3.312E-02
    3.900   3.541E-02
    4.000   3.782E-02
    4.100   4.038E-02
    4.200   4.308E-02
    4.300   4.595E-02
    4.400   4.898E-02
    4.500   5.220E-02
    4.600   5.561E-02
    4.700   5.924E-02
    4.800   6.310E-02
    4.900   6.720E-02
    5.000   7.158E-02
    5.100   7.625E-02
    5.200   8.124E-02
    5.300   8.658E-02
    5.400   9.230E-02
    5.500   9.845E-02
    5.600   1.050E-01
    5.700   1.122E-01
    5.800   1.198E-01
    5.900   1.281E-01
    6.000   1.371E-01
    6.100   1.468E-01
    6.200   1.574E-01
    6.300   1.689E-01
    6.400   1.815E-01
    6.500   1.953E-01
    6.600   2.103E-01
    6.700   2.268E-01
    6.800   2.449E-01
    6.900   2.648E-01
    7.000   2.866E-01
    7.100   3.106E-01
    7.200   3.368E-01
    7.300   3.653E-01
    7.400   3.962E-01
    7.500   4.295E-01
    7.600   4.649E-01
    7.700   5.021E-01
    7.800   5.405E-01
    7.900   5.792E-01
    8.000   6.172E-01
    8.100   6.534E-01
    8.200   6.866E-01
    8.300   7.158E-01
    8.400   7.402E-01
    8.500   7.596E-01
    8.600   7.741E-01
    8.700   7.842E-01
    8.800   7.908E-01
    8.900   7.950E-01
    9.000   7.977E-01
    9.100   8.002E-01
    9.200   8.033E-01
    9.300   8.080E-01
    9.400   8.150E-01
    9.500   8.249E-01
    9.600   8.384E-01
    9.700   8.557E-01
    9.800   8.772E-01
    9.900   9.030E-01
   10.000   9.333E-01
   10.100   9.678E-01
   10.200   1.006E+00
   10.300   1.049E+00
   10.400   1.094E+00
   10.500   1.142E+00
   10.600   1.192E+00
   10.700   1.243E+00
   10.800   1.294E+00
   10.900   1.344E+00
   11.000   1.392E+00
   11.100   1.438E+00
   11.200   1.482E+00
   11.300   1.523E+00
   11.400   1.561E+00
   11.500   1.597E+00
   11.600   1.631E+00
   11.700   1.663E+00
   11.800   1.692E+00
   11.900   1.718E+00
   12.000   1.740E+00
   12.100   1.760E+00
   12.200   1.774E+00
   12.300   1.785E+00
   12.400   1.791E+00
   12.500   1.794E+00
   12.600   1.793E+00
   12.700   1.791E+00
   12.800   1.788E+00
   12.900   1.787E+00
   13.000   1.787E+00
   13.100   1.791E+00
   13.200   1.799E+00
   13.300   1.811E+00
   13.400   1.827E+00
   13.500   1.850E+00
   13.600   1.877E+00
   13.700   1.911E+00
   13.800   1.950E+00
   13.900   1.995E+00
   14.000   2.045E+00
   14.100   2.100E+00
   14.200   2.161E+00
   14.300   2.225E+00
   14.400   2.293E+00
   14.500   2.365E+00
   14.600   2.439E+00
   14.700   2.515E+00
   14.800   2.592E+00
   14.900   2.667E+00
   15.000   2.741E+00
   15.100   2.811E+00
   15.200   2.877E+00
   15.300   2.937E+00
   15.400   2.993E+00
   15.500   3.042E+00
   15.600   3.084E+00
   15.700   3.117E+00
   15.800   3.141E+00
   15.900   3.152E+00
   16.000   3.149E+00
   16.100   3.132E+00
   16.200   3.101E+00
   16.300   3.057E+00
   16.400   3.004E+00
   16.500   2.943E+00
   16.600   2.878E+00
   16.700   2.812E+00
   16.800   2.745E+00
   16.900   2.680E+00
   17.000   2.616E+00
   17.100   2.554E+00
   17.200   2.493E+00
   17.300   2.433E+00
   17.400   2.373E+00
   17.500   2.315E+00
   17.600   2.258E+00
   17.700   2.202E+00
   17.800   2.148E+00
   17.900   2.097E+00
   18.000   2.048E+00
   18.100   2.003E+00
   18.200   1.961E+00
   18.300   1.923E+00
   18.400   1.890E+00
   18.500   1.860E+00
   18.600   1.835E+00
   18.700   1.814E+00
   18.800   1.797E+00
   18.900   1.784E+00
   19.000   1.776E+00
   19.100   1.772E+00
   19.200   1.771E+00
   19.300   1.774E+00
   19.400   1.781E+00
   19.500   1.791E+00
   19.600   1.804E+00
   19.700   1.819E+00
   19.800   1.835E+00
   19.900   1.852E+00
   20.000   1.869E+00
   20.100   1.884E+00
   20.200   1.898E+00
   20.300   1.909E+00
   20.400   1.918E+00
   20.500   1.923E+00
   20.600   1.925E+00
   20.700   1.925E+00
   20.800   1.923E+00
   20.900   1.919E+00
   21.000   1.913E+00
   21.100   1.906E+00
   21.200   1.898E+00
   21.300   1.889E+00
   21.400   1.879E+00
   21.500   1.867E+00
   21.600   1.854E+00
   21.700   1.839E+00
   21.800   1.821E+00
   21.900   1.802E+00
   22.000   1.781E+00
   22.100   1.757E+00
   22.200   1.732E+00
   22.300   1.706E+00
   22.400   1.678E+00
   22.500   1.650E+00
   22.600   1.622E+00
   22.700   1.593E+00
   22.800   1.564E+00
   22.900   1.536E+00
   23.000   1.508E+00
   23.100   1.480E+00
   23.200   1.452E+00
   23.300   1.424E+00
   23.400   1.395E+00
   23.500   1.366E+00
   23.600   1.337E+00
   23.700   1.308E+00
   23.800   1.278E+00
   23.900   1.249E+00
   24.000   1.220E+00
   24.100   1.192E+00
   24.200   1.165E+00
   24.300   1.139E+00
   24.400   1.113E+00
   24.500   1.089E+00
   24.600   1.065E+00
   24.700   1.043E+00
   24.800   1.021E+00
   24.900   1.000E+00
   25.000   9.796E-01
   25.100   9.598E-01
   25.200   9.405E-01
   25.300   9.218E-01
   25.400   9.036E-01
   25.500   8.860E-01
   25.600   8.689E-01
   25.700   8.523E-01
   25.800   8.362E-01
   25.900   8.207E-01
   26.000   8.057E-01
   26.100   7.913E-01
   26.200   7.775E-01
   26.300   7.642E-01
   26.400   7.515E-01
   26.500   7.393E-01
   26.600   7.276E-01
   26.700   7.163E-01
   26.800   7.054E-01
   26.900   6.948E-01
   27.000   6.844E-01
   27.100   6.743E-01
   27.200   6.643E-01
   27.300   6.545E-01
   27.400   6.448E-01
   27.500   6.351E-01
   27.600   6.255E-01
   27.700   6.159E-01
   27.800   6.064E-01
   27.900   5.968E-01
   28.000   5.873E-01
   28.100   5.778E-01
   28.200   5.682E-01
   28.300   5.586E-01
   28.400   5.489E-01
   28.500   5.391E-01
   28.600   5.292E-01
   28.700   5.192E-01
   28.800   5.093E-01
   28.900   4.995E-01
   29.000   4.899E-01
   29.100   4.805E-01
   29.200   4.714E-01
   29.300   4.628E-01
   29.400   4.545E-01
   29.500   4.466E-01
   29.600   4.392E-01
   29.700   4.322E-01
   29.800   4.256E-01
   29.900   4.194E-01
   30.000   4.135E-01
 
 Z=  14 A=  41 Si
  U[MeV]  fE1[mb/MeV]
    0.100   2.664E-05
    0.200   1.066E-04
    0.300   2.402E-04
    0.400   4.276E-04
    0.500   6.695E-04
    0.600   9.663E-04
    0.700   1.319E-03
    0.800   1.728E-03
    0.900   2.195E-03
    1.000   2.721E-03
    1.100   3.307E-03
    1.200   3.956E-03
    1.300   4.668E-03
    1.400   5.446E-03
    1.500   6.291E-03
    1.600   7.207E-03
    1.700   8.196E-03
    1.800   9.261E-03
    1.900   1.040E-02
    2.000   1.163E-02
    2.100   1.294E-02
    2.200   1.435E-02
    2.300   1.585E-02
    2.400   1.744E-02
    2.500   1.915E-02
    2.600   2.097E-02
    2.700   2.290E-02
    2.800   2.496E-02
    2.900   2.715E-02
    3.000   2.949E-02
    3.100   3.198E-02
    3.200   3.463E-02
    3.300   3.745E-02
    3.400   4.047E-02
    3.500   4.368E-02
    3.600   4.711E-02
    3.700   5.078E-02
    3.800   5.470E-02
    3.900   5.889E-02
    4.000   6.339E-02
    4.100   6.821E-02
    4.200   7.340E-02
    4.300   7.897E-02
    4.400   8.498E-02
    4.500   9.146E-02
    4.600   9.846E-02
    4.700   1.060E-01
    4.800   1.143E-01
    4.900   1.232E-01
    5.000   1.329E-01
    5.100   1.436E-01
    5.200   1.552E-01
    5.300   1.679E-01
    5.400   1.818E-01
    5.500   1.971E-01
    5.600   2.140E-01
    5.700   2.325E-01
    5.800   2.530E-01
    5.900   2.755E-01
    6.000   3.002E-01
    6.100   3.274E-01
    6.200   3.571E-01
    6.300   3.893E-01
    6.400   4.240E-01
    6.500   4.609E-01
    6.600   4.997E-01
    6.700   5.399E-01
    6.800   5.808E-01
    6.900   6.215E-01
    7.000   6.614E-01
    7.100   6.999E-01
    7.200   7.366E-01
    7.300   7.711E-01
    7.400   8.034E-01
    7.500   8.331E-01
    7.600   8.601E-01
    7.700   8.840E-01
    7.800   9.045E-01
    7.900   9.212E-01
    8.000   9.340E-01
    8.100   9.431E-01
    8.200   9.488E-01
    8.300   9.517E-01
    8.400   9.523E-01
    8.500   9.517E-01
    8.600   9.507E-01
    8.700   9.503E-01
    8.800   9.511E-01
    8.900   9.541E-01
    9.000   9.596E-01
    9.100   9.682E-01
    9.200   9.801E-01
    9.300   9.955E-01
    9.400   1.015E+00
    9.500   1.038E+00
    9.600   1.065E+00
    9.700   1.096E+00
    9.800   1.130E+00
    9.900   1.168E+00
   10.000   1.209E+00
   10.100   1.253E+00
   10.200   1.298E+00
   10.300   1.344E+00
   10.400   1.389E+00
   10.500   1.433E+00
   10.600   1.475E+00
   10.700   1.514E+00
   10.800   1.549E+00
   10.900   1.582E+00
   11.000   1.612E+00
   11.100   1.640E+00
   11.200   1.667E+00
   11.300   1.693E+00
   11.400   1.719E+00
   11.500   1.746E+00
   11.600   1.773E+00
   11.700   1.800E+00
   11.800   1.826E+00
   11.900   1.852E+00
   12.000   1.876E+00
   12.100   1.898E+00
   12.200   1.916E+00
   12.300   1.929E+00
   12.400   1.938E+00
   12.500   1.941E+00
   12.600   1.940E+00
   12.700   1.934E+00
   12.800   1.924E+00
   12.900   1.913E+00
   13.000   1.903E+00
   13.100   1.895E+00
   13.200   1.890E+00
   13.300   1.890E+00
   13.400   1.896E+00
   13.500   1.907E+00
   13.600   1.923E+00
   13.700   1.943E+00
   13.800   1.967E+00
   13.900   1.994E+00
   14.000   2.023E+00
   14.100   2.054E+00
   14.200   2.086E+00
   14.300   2.122E+00
   14.400   2.161E+00
   14.500   2.205E+00
   14.600   2.255E+00
   14.700   2.312E+00
   14.800   2.375E+00
   14.900   2.446E+00
   15.000   2.524E+00
   15.100   2.607E+00
   15.200   2.695E+00
   15.300   2.785E+00
   15.400   2.876E+00
   15.500   2.966E+00
   15.600   3.053E+00
   15.700   3.132E+00
   15.800   3.202E+00
   15.900   3.258E+00
   16.000   3.298E+00
   16.100   3.318E+00
   16.200   3.317E+00
   16.300   3.295E+00
   16.400   3.254E+00
   16.500   3.196E+00
   16.600   3.127E+00
   16.700   3.050E+00
   16.800   2.969E+00
   16.900   2.888E+00
   17.000   2.808E+00
   17.100   2.731E+00
   17.200   2.657E+00
   17.300   2.585E+00
   17.400   2.515E+00
   17.500   2.447E+00
   17.600   2.381E+00
   17.700   2.317E+00
   17.800   2.254E+00
   17.900   2.194E+00
   18.000   2.136E+00
   18.100   2.082E+00
   18.200   2.030E+00
   18.300   1.983E+00
   18.400   1.940E+00
   18.500   1.900E+00
   18.600   1.865E+00
   18.700   1.834E+00
   18.800   1.807E+00
   18.900   1.784E+00
   19.000   1.765E+00
   19.100   1.750E+00
   19.200   1.740E+00
   19.300   1.733E+00
   19.400   1.731E+00
   19.500   1.733E+00
   19.600   1.740E+00
   19.700   1.749E+00
   19.800   1.762E+00
   19.900   1.778E+00
   20.000   1.796E+00
   20.100   1.814E+00
   20.200   1.834E+00
   20.300   1.852E+00
   20.400   1.869E+00
   20.500   1.885E+00
   20.600   1.898E+00
   20.700   1.909E+00
   20.800   1.918E+00
   20.900   1.924E+00
   21.000   1.929E+00
   21.100   1.931E+00
   21.200   1.932E+00
   21.300   1.930E+00
   21.400   1.927E+00
   21.500   1.921E+00
   21.600   1.913E+00
   21.700   1.901E+00
   21.800   1.887E+00
   21.900   1.869E+00
   22.000   1.849E+00
   22.100   1.825E+00
   22.200   1.799E+00
   22.300   1.770E+00
   22.400   1.739E+00
   22.500   1.708E+00
   22.600   1.675E+00
   22.700   1.641E+00
   22.800   1.608E+00
   22.900   1.574E+00
   23.000   1.540E+00
   23.100   1.506E+00
   23.200   1.472E+00
   23.300   1.437E+00
   23.400   1.403E+00
   23.500   1.368E+00
   23.600   1.335E+00
   23.700   1.301E+00
   23.800   1.269E+00
   23.900   1.238E+00
   24.000   1.208E+00
   24.100   1.180E+00
   24.200   1.153E+00
   24.300   1.128E+00
   24.400   1.105E+00
   24.500   1.083E+00
   24.600   1.063E+00
   24.700   1.043E+00
   24.800   1.025E+00
   24.900   1.007E+00
   25.000   9.900E-01
   25.100   9.726E-01
   25.200   9.549E-01
   25.300   9.367E-01
   25.400   9.179E-01
   25.500   8.987E-01
   25.600   8.792E-01
   25.700   8.596E-01
   25.800   8.403E-01
   25.900   8.215E-01
   26.000   8.036E-01
   26.100   7.867E-01
   26.200   7.709E-01
   26.300   7.562E-01
   26.400   7.426E-01
   26.500   7.299E-01
   26.600   7.180E-01
   26.700   7.067E-01
   26.800   6.959E-01
   26.900   6.854E-01
   27.000   6.751E-01
   27.100   6.650E-01
   27.200   6.548E-01
   27.300   6.447E-01
   27.400   6.346E-01
   27.500   6.244E-01
   27.600   6.143E-01
   27.700   6.043E-01
   27.800   5.943E-01
   27.900   5.844E-01
   28.000   5.747E-01
   28.100   5.651E-01
   28.200   5.558E-01
   28.300   5.466E-01
   28.400   5.375E-01
   28.500   5.285E-01
   28.600   5.196E-01
   28.700   5.106E-01
   28.800   5.016E-01
   28.900   4.927E-01
   29.000   4.838E-01
   29.100   4.750E-01
   29.200   4.663E-01
   29.300   4.579E-01
   29.400   4.498E-01
   29.500   4.421E-01
   29.600   4.347E-01
   29.700   4.277E-01
   29.800   4.211E-01
   29.900   4.150E-01
   30.000   4.092E-01
 
 Z=  14 A=  42 Si
  U[MeV]  fE1[mb/MeV]
    0.100   2.791E-05
    0.200   1.117E-04
    0.300   2.517E-04
    0.400   4.481E-04
    0.500   7.015E-04
    0.600   1.013E-03
    0.700   1.382E-03
    0.800   1.811E-03
    0.900   2.301E-03
    1.000   2.853E-03
    1.100   3.468E-03
    1.200   4.148E-03
    1.300   4.896E-03
    1.400   5.712E-03
    1.500   6.601E-03
    1.600   7.563E-03
    1.700   8.603E-03
    1.800   9.723E-03
    1.900   1.093E-02
    2.000   1.222E-02
    2.100   1.360E-02
    2.200   1.508E-02
    2.300   1.666E-02
    2.400   1.835E-02
    2.500   2.015E-02
    2.600   2.207E-02
    2.700   2.412E-02
    2.800   2.630E-02
    2.900   2.862E-02
    3.000   3.110E-02
    3.100   3.375E-02
    3.200   3.657E-02
    3.300   3.957E-02
    3.400   4.279E-02
    3.500   4.622E-02
    3.600   4.989E-02
    3.700   5.381E-02
    3.800   5.802E-02
    3.900   6.253E-02
    4.000   6.738E-02
    4.100   7.259E-02
    4.200   7.820E-02
    4.300   8.425E-02
    4.400   9.079E-02
    4.500   9.786E-02
    4.600   1.055E-01
    4.700   1.139E-01
    4.800   1.229E-01
    4.900   1.328E-01
    5.000   1.437E-01
    5.100   1.555E-01
    5.200   1.686E-01
    5.300   1.829E-01
    5.400   1.988E-01
    5.500   2.163E-01
    5.600   2.357E-01
    5.700   2.572E-01
    5.800   2.811E-01
    5.900   3.076E-01
    6.000   3.370E-01
    6.100   3.695E-01
    6.200   4.053E-01
    6.300   4.443E-01
    6.400   4.866E-01
    6.500   5.317E-01
    6.600   5.790E-01
    6.700   6.276E-01
    6.800   6.766E-01
    6.900   7.247E-01
    7.000   7.711E-01
    7.100   8.150E-01
    7.200   8.562E-01
    7.300   8.945E-01
    7.400   9.299E-01
    7.500   9.621E-01
    7.600   9.909E-01
    7.700   1.016E+00
    7.800   1.036E+00
    7.900   1.051E+00
    8.000   1.061E+00
    8.100   1.066E+00
    8.200   1.068E+00
    8.300   1.067E+00
    8.400   1.064E+00
    8.500   1.061E+00
    8.600   1.060E+00
    8.700   1.061E+00
    8.800   1.065E+00
    8.900   1.073E+00
    9.000   1.085E+00
    9.100   1.101E+00
    9.200   1.121E+00
    9.300   1.146E+00
    9.400   1.175E+00
    9.500   1.209E+00
    9.600   1.247E+00
    9.700   1.289E+00
    9.800   1.336E+00
    9.900   1.387E+00
   10.000   1.442E+00
   10.100   1.499E+00
   10.200   1.557E+00
   10.300   1.616E+00
   10.400   1.673E+00
   10.500   1.727E+00
   10.600   1.779E+00
   10.700   1.827E+00
   10.800   1.871E+00
   10.900   1.911E+00
   11.000   1.949E+00
   11.100   1.984E+00
   11.200   2.018E+00
   11.300   2.050E+00
   11.400   2.082E+00
   11.500   2.113E+00
   11.600   2.143E+00
   11.700   2.172E+00
   11.800   2.199E+00
   11.900   2.223E+00
   12.000   2.241E+00
   12.100   2.254E+00
   12.200   2.260E+00
   12.300   2.259E+00
   12.400   2.250E+00
   12.500   2.235E+00
   12.600   2.216E+00
   12.700   2.195E+00
   12.800   2.176E+00
   12.900   2.162E+00
   13.000   2.153E+00
   13.100   2.151E+00
   13.200   2.158E+00
   13.300   2.172E+00
   13.400   2.192E+00
   13.500   2.219E+00
   13.600   2.250E+00
   13.700   2.285E+00
   13.800   2.322E+00
   13.900   2.361E+00
   14.000   2.404E+00
   14.100   2.450E+00
   14.200   2.502E+00
   14.300   2.560E+00
   14.400   2.625E+00
   14.500   2.697E+00
   14.600   2.775E+00
   14.700   2.858E+00
   14.800   2.944E+00
   14.900   3.028E+00
   15.000   3.109E+00
   15.100   3.184E+00
   15.200   3.249E+00
   15.300   3.304E+00
   15.400   3.348E+00
   15.500   3.380E+00
   15.600   3.398E+00
   15.700   3.401E+00
   15.800   3.388E+00
   15.900   3.358E+00
   16.000   3.312E+00
   16.100   3.252E+00
   16.200   3.183E+00
   16.300   3.107E+00
   16.400   3.029E+00
   16.500   2.952E+00
   16.600   2.877E+00
   16.700   2.805E+00
   16.800   2.736E+00
   16.900   2.670E+00
   17.000   2.605E+00
   17.100   2.540E+00
   17.200   2.476E+00
   17.300   2.412E+00
   17.400   2.349E+00
   17.500   2.287E+00
   17.600   2.227E+00
   17.700   2.169E+00
   17.800   2.114E+00
   17.900   2.062E+00
   18.000   2.015E+00
   18.100   1.972E+00
   18.200   1.934E+00
   18.300   1.900E+00
   18.400   1.870E+00
   18.500   1.845E+00
   18.600   1.825E+00
   18.700   1.808E+00
   18.800   1.796E+00
   18.900   1.788E+00
   19.000   1.783E+00
   19.100   1.783E+00
   19.200   1.785E+00
   19.300   1.791E+00
   19.400   1.800E+00
   19.500   1.812E+00
   19.600   1.825E+00
   19.700   1.840E+00
   19.800   1.855E+00
   19.900   1.870E+00
   20.000   1.884E+00
   20.100   1.897E+00
   20.200   1.908E+00
   20.300   1.917E+00
   20.400   1.924E+00
   20.500   1.930E+00
   20.600   1.934E+00
   20.700   1.936E+00
   20.800   1.938E+00
   20.900   1.940E+00
   21.000   1.940E+00
   21.100   1.939E+00
   21.200   1.937E+00
   21.300   1.934E+00
   21.400   1.928E+00
   21.500   1.920E+00
   21.600   1.910E+00
   21.700   1.896E+00
   21.800   1.879E+00
   21.900   1.858E+00
   22.000   1.835E+00
   22.100   1.808E+00
   22.200   1.780E+00
   22.300   1.749E+00
   22.400   1.716E+00
   22.500   1.682E+00
   22.600   1.646E+00
   22.700   1.609E+00
   22.800   1.571E+00
   22.900   1.533E+00
   23.000   1.495E+00
   23.100   1.458E+00
   23.200   1.421E+00
   23.300   1.386E+00
   23.400   1.352E+00
   23.500   1.320E+00
   23.600   1.289E+00
   23.700   1.260E+00
   23.800   1.234E+00
   23.900   1.208E+00
   24.000   1.185E+00
   24.100   1.163E+00
   24.200   1.142E+00
   24.300   1.121E+00
   24.400   1.101E+00
   24.500   1.081E+00
   24.600   1.060E+00
   24.700   1.038E+00
   24.800   1.015E+00
   24.900   9.912E-01
   25.000   9.662E-01
   25.100   9.408E-01
   25.200   9.151E-01
   25.300   8.898E-01
   25.400   8.653E-01
   25.500   8.419E-01
   25.600   8.198E-01
   25.700   7.994E-01
   25.800   7.805E-01
   25.900   7.633E-01
   26.000   7.476E-01
   26.100   7.333E-01
   26.200   7.202E-01
   26.300   7.081E-01
   26.400   6.969E-01
   26.500   6.865E-01
   26.600   6.767E-01
   26.700   6.674E-01
   26.800   6.586E-01
   26.900   6.504E-01
   27.000   6.425E-01
   27.100   6.349E-01
   27.200   6.277E-01
   27.300   6.206E-01
   27.400   6.138E-01
   27.500   6.069E-01
   27.600   6.001E-01
   27.700   5.930E-01
   27.800   5.857E-01
   27.900   5.780E-01
   28.000   5.697E-01
   28.100   5.610E-01
   28.200   5.519E-01
   28.300   5.424E-01
   28.400   5.327E-01
   28.500   5.230E-01
   28.600   5.133E-01
   28.700   5.038E-01
   28.800   4.945E-01
   28.900   4.855E-01
   29.000   4.768E-01
   29.100   4.684E-01
   29.200   4.603E-01
   29.300   4.525E-01
   29.400   4.451E-01
   29.500   4.381E-01
   29.600   4.315E-01
   29.700   4.253E-01
   29.800   4.195E-01
   29.900   4.139E-01
   30.000   4.086E-01
 
 Z=  14 A=  43 Si
  U[MeV]  fE1[mb/MeV]
    0.100   3.862E-05
    0.200   1.546E-04
    0.300   3.483E-04
    0.400   6.202E-04
    0.500   9.711E-04
    0.600   1.402E-03
    0.700   1.915E-03
    0.800   2.510E-03
    0.900   3.190E-03
    1.000   3.956E-03
    1.100   4.812E-03
    1.200   5.760E-03
    1.300   6.802E-03
    1.400   7.942E-03
    1.500   9.184E-03
    1.600   1.053E-02
    1.700   1.199E-02
    1.800   1.356E-02
    1.900   1.526E-02
    2.000   1.708E-02
    2.100   1.903E-02
    2.200   2.112E-02
    2.300   2.337E-02
    2.400   2.577E-02
    2.500   2.833E-02
    2.600   3.108E-02
    2.700   3.401E-02
    2.800   3.715E-02
    2.900   4.050E-02
    3.000   4.409E-02
    3.100   4.792E-02
    3.200   5.202E-02
    3.300   5.642E-02
    3.400   6.112E-02
    3.500   6.617E-02
    3.600   7.159E-02
    3.700   7.741E-02
    3.800   8.367E-02
    3.900   9.041E-02
    4.000   9.768E-02
    4.100   1.055E-01
    4.200   1.140E-01
    4.300   1.232E-01
    4.400   1.332E-01
    4.500   1.440E-01
    4.600   1.559E-01
    4.700   1.688E-01
    4.800   1.829E-01
    4.900   1.983E-01
    5.000   2.153E-01
    5.100   2.339E-01
    5.200   2.545E-01
    5.300   2.772E-01
    5.400   3.022E-01
    5.500   3.300E-01
    5.600   3.607E-01
    5.700   3.946E-01
    5.800   4.320E-01
    5.900   4.732E-01
    6.000   5.183E-01
    6.100   5.673E-01
    6.200   6.200E-01
    6.300   6.760E-01
    6.400   7.346E-01
    6.500   7.946E-01
    6.600   8.551E-01
    6.700   9.145E-01
    6.800   9.718E-01
    6.900   1.026E+00
    7.000   1.077E+00
    7.100   1.124E+00
    7.200   1.167E+00
    7.300   1.207E+00
    7.400   1.242E+00
    7.500   1.273E+00
    7.600   1.300E+00
    7.700   1.322E+00
    7.800   1.340E+00
    7.900   1.355E+00
    8.000   1.366E+00
    8.100   1.376E+00
    8.200   1.383E+00
    8.300   1.389E+00
    8.400   1.394E+00
    8.500   1.398E+00
    8.600   1.401E+00
    8.700   1.403E+00
    8.800   1.406E+00
    8.900   1.409E+00
    9.000   1.413E+00
    9.100   1.418E+00
    9.200   1.425E+00
    9.300   1.435E+00
    9.400   1.447E+00
    9.500   1.463E+00
    9.600   1.482E+00
    9.700   1.504E+00
    9.800   1.532E+00
    9.900   1.563E+00
   10.000   1.599E+00
   10.100   1.639E+00
   10.200   1.682E+00
   10.300   1.728E+00
   10.400   1.777E+00
   10.500   1.825E+00
   10.600   1.873E+00
   10.700   1.918E+00
   10.800   1.959E+00
   10.900   1.996E+00
   11.000   2.029E+00
   11.100   2.056E+00
   11.200   2.081E+00
   11.300   2.102E+00
   11.400   2.122E+00
   11.500   2.142E+00
   11.600   2.161E+00
   11.700   2.182E+00
   11.800   2.203E+00
   11.900   2.224E+00
   12.000   2.246E+00
   12.100   2.268E+00
   12.200   2.288E+00
   12.300   2.306E+00
   12.400   2.322E+00
   12.500   2.335E+00
   12.600   2.343E+00
   12.700   2.349E+00
   12.800   2.351E+00
   12.900   2.351E+00
   13.000   2.350E+00
   13.100   2.351E+00
   13.200   2.355E+00
   13.300   2.364E+00
   13.400   2.378E+00
   13.500   2.399E+00
   13.600   2.425E+00
   13.700   2.457E+00
   13.800   2.492E+00
   13.900   2.529E+00
   14.000   2.566E+00
   14.100   2.601E+00
   14.200   2.634E+00
   14.300   2.664E+00
   14.400   2.691E+00
   14.500   2.716E+00
   14.600   2.742E+00
   14.700   2.768E+00
   14.800   2.797E+00
   14.900   2.829E+00
   15.000   2.866E+00
   15.100   2.907E+00
   15.200   2.952E+00
   15.300   3.000E+00
   15.400   3.051E+00
   15.500   3.102E+00
   15.600   3.153E+00
   15.700   3.203E+00
   15.800   3.249E+00
   15.900   3.290E+00
   16.000   3.324E+00
   16.100   3.346E+00
   16.200   3.356E+00
   16.300   3.349E+00
   16.400   3.325E+00
   16.500   3.284E+00
   16.600   3.228E+00
   16.700   3.160E+00
   16.800   3.084E+00
   16.900   3.004E+00
   17.000   2.923E+00
   17.100   2.845E+00
   17.200   2.770E+00
   17.300   2.700E+00
   17.400   2.635E+00
   17.500   2.574E+00
   17.600   2.517E+00
   17.700   2.463E+00
   17.800   2.412E+00
   17.900   2.363E+00
   18.000   2.317E+00
   18.100   2.273E+00
   18.200   2.232E+00
   18.300   2.193E+00
   18.400   2.156E+00
   18.500   2.123E+00
   18.600   2.091E+00
   18.700   2.063E+00
   18.800   2.037E+00
   18.900   2.013E+00
   19.000   1.993E+00
   19.100   1.975E+00
   19.200   1.960E+00
   19.300   1.949E+00
   19.400   1.940E+00
   19.500   1.934E+00
   19.600   1.932E+00
   19.700   1.933E+00
   19.800   1.936E+00
   19.900   1.942E+00
   20.000   1.949E+00
   20.100   1.958E+00
   20.200   1.968E+00
   20.300   1.977E+00
   20.400   1.986E+00
   20.500   1.993E+00
   20.600   1.998E+00
   20.700   2.000E+00
   20.800   1.998E+00
   20.900   1.993E+00
   21.000   1.984E+00
   21.100   1.973E+00
   21.200   1.958E+00
   21.300   1.940E+00
   21.400   1.920E+00
   21.500   1.896E+00
   21.600   1.871E+00
   21.700   1.843E+00
   21.800   1.814E+00
   21.900   1.782E+00
   22.000   1.749E+00
   22.100   1.715E+00
   22.200   1.680E+00
   22.300   1.643E+00
   22.400   1.607E+00
   22.500   1.570E+00
   22.600   1.533E+00
   22.700   1.497E+00
   22.800   1.461E+00
   22.900   1.426E+00
   23.000   1.391E+00
   23.100   1.357E+00
   23.200   1.324E+00
   23.300   1.291E+00
   23.400   1.258E+00
   23.500   1.226E+00
   23.600   1.195E+00
   23.700   1.165E+00
   23.800   1.136E+00
   23.900   1.108E+00
   24.000   1.082E+00
   24.100   1.058E+00
   24.200   1.036E+00
   24.300   1.015E+00
   24.400   9.969E-01
   24.500   9.802E-01
   24.600   9.650E-01
   24.700   9.510E-01
   24.800   9.381E-01
   24.900   9.257E-01
   25.000   9.135E-01
   25.100   9.012E-01
   25.200   8.884E-01
   25.300   8.751E-01
   25.400   8.610E-01
   25.500   8.462E-01
   25.600   8.310E-01
   25.700   8.154E-01
   25.800   7.998E-01
   25.900   7.844E-01
   26.000   7.696E-01
   26.100   7.556E-01
   26.200   7.424E-01
   26.300   7.302E-01
   26.400   7.190E-01
   26.500   7.085E-01
   26.600   6.988E-01
   26.700   6.897E-01
   26.800   6.809E-01
   26.900   6.724E-01
   27.000   6.639E-01
   27.100   6.553E-01
   27.200   6.466E-01
   27.300   6.376E-01
   27.400   6.284E-01
   27.500   6.188E-01
   27.600   6.089E-01
   27.700   5.987E-01
   27.800   5.883E-01
   27.900   5.777E-01
   28.000   5.672E-01
   28.100   5.569E-01
   28.200   5.468E-01
   28.300   5.372E-01
   28.400   5.281E-01
   28.500   5.194E-01
   28.600   5.113E-01
   28.700   5.037E-01
   28.800   4.965E-01
   28.900   4.895E-01
   29.000   4.827E-01
   29.100   4.760E-01
   29.200   4.694E-01
   29.300   4.627E-01
   29.400   4.559E-01
   29.500   4.491E-01
   29.600   4.422E-01
   29.700   4.354E-01
   29.800   4.288E-01
   29.900   4.223E-01
   30.000   4.160E-01
 
 Z=  14 A=  44 Si
  U[MeV]  fE1[mb/MeV]
    0.100   5.709E-05
    0.200   2.286E-04
    0.300   5.150E-04
    0.400   9.176E-04
    0.500   1.438E-03
    0.600   2.077E-03
    0.700   2.838E-03
    0.800   3.724E-03
    0.900   4.737E-03
    1.000   5.882E-03
    1.100   7.163E-03
    1.200   8.584E-03
    1.300   1.015E-02
    1.400   1.187E-02
    1.500   1.375E-02
    1.600   1.580E-02
    1.700   1.803E-02
    1.800   2.044E-02
    1.900   2.304E-02
    2.000   2.586E-02
    2.100   2.889E-02
    2.200   3.216E-02
    2.300   3.568E-02
    2.400   3.947E-02
    2.500   4.355E-02
    2.600   4.794E-02
    2.700   5.267E-02
    2.800   5.775E-02
    2.900   6.323E-02
    3.000   6.914E-02
    3.100   7.551E-02
    3.200   8.238E-02
    3.300   8.981E-02
    3.400   9.784E-02
    3.500   1.065E-01
    3.600   1.160E-01
    3.700   1.262E-01
    3.800   1.374E-01
    3.900   1.495E-01
    4.000   1.627E-01
    4.100   1.772E-01
    4.200   1.931E-01
    4.300   2.105E-01
    4.400   2.296E-01
    4.500   2.506E-01
    4.600   2.738E-01
    4.700   2.994E-01
    4.800   3.276E-01
    4.900   3.589E-01
    5.000   3.934E-01
    5.100   4.315E-01
    5.200   4.735E-01
    5.300   5.196E-01
    5.400   5.698E-01
    5.500   6.243E-01
    5.600   6.826E-01
    5.700   7.444E-01
    5.800   8.089E-01
    5.900   8.749E-01
    6.000   9.414E-01
    6.100   1.007E+00
    6.200   1.071E+00
    6.300   1.132E+00
    6.400   1.189E+00
    6.500   1.243E+00
    6.600   1.293E+00
    6.700   1.338E+00
    6.800   1.377E+00
    6.900   1.411E+00
    7.000   1.438E+00
    7.100   1.460E+00
    7.200   1.477E+00
    7.300   1.490E+00
    7.400   1.500E+00
    7.500   1.509E+00
    7.600   1.519E+00
    7.700   1.529E+00
    7.800   1.540E+00
    7.900   1.553E+00
    8.000   1.565E+00
    8.100   1.578E+00
    8.200   1.589E+00
    8.300   1.597E+00
    8.400   1.602E+00
    8.500   1.604E+00
    8.600   1.601E+00
    8.700   1.595E+00
    8.800   1.586E+00
    8.900   1.575E+00
    9.000   1.563E+00
    9.100   1.551E+00
    9.200   1.540E+00
    9.300   1.532E+00
    9.400   1.527E+00
    9.500   1.525E+00
    9.600   1.528E+00
    9.700   1.536E+00
    9.800   1.550E+00
    9.900   1.569E+00
   10.000   1.594E+00
   10.100   1.625E+00
   10.200   1.662E+00
   10.300   1.703E+00
   10.400   1.750E+00
   10.500   1.799E+00
   10.600   1.849E+00
   10.700   1.900E+00
   10.800   1.947E+00
   10.900   1.990E+00
   11.000   2.026E+00
   11.100   2.054E+00
   11.200   2.074E+00
   11.300   2.085E+00
   11.400   2.091E+00
   11.500   2.092E+00
   11.600   2.092E+00
   11.700   2.093E+00
   11.800   2.099E+00
   11.900   2.109E+00
   12.000   2.125E+00
   12.100   2.148E+00
   12.200   2.177E+00
   12.300   2.210E+00
   12.400   2.247E+00
   12.500   2.287E+00
   12.600   2.328E+00
   12.700   2.368E+00
   12.800   2.408E+00
   12.900   2.446E+00
   13.000   2.484E+00
   13.100   2.520E+00
   13.200   2.555E+00
   13.300   2.591E+00
   13.400   2.626E+00
   13.500   2.663E+00
   13.600   2.702E+00
   13.700   2.741E+00
   13.800   2.782E+00
   13.900   2.823E+00
   14.000   2.862E+00
   14.100   2.897E+00
   14.200   2.926E+00
   14.300   2.949E+00
   14.400   2.963E+00
   14.500   2.970E+00
   14.600   2.971E+00
   14.700   2.968E+00
   14.800   2.963E+00
   14.900   2.958E+00
   15.000   2.955E+00
   15.100   2.955E+00
   15.200   2.960E+00
   15.300   2.968E+00
   15.400   2.979E+00
   15.500   2.992E+00
   15.600   3.004E+00
   15.700   3.016E+00
   15.800   3.026E+00
   15.900   3.032E+00
   16.000   3.037E+00
   16.100   3.039E+00
   16.200   3.039E+00
   16.300   3.037E+00
   16.400   3.033E+00
   16.500   3.027E+00
   16.600   3.018E+00
   16.700   3.006E+00
   16.800   2.991E+00
   16.900   2.974E+00
   17.000   2.954E+00
   17.100   2.931E+00
   17.200   2.907E+00
   17.300   2.879E+00
   17.400   2.850E+00
   17.500   2.819E+00
   17.600   2.786E+00
   17.700   2.751E+00
   17.800   2.715E+00
   17.900   2.679E+00
   18.000   2.640E+00
   18.100   2.601E+00
   18.200   2.561E+00
   18.300   2.519E+00
   18.400   2.477E+00
   18.500   2.434E+00
   18.600   2.391E+00
   18.700   2.349E+00
   18.800   2.309E+00
   18.900   2.269E+00
   19.000   2.232E+00
   19.100   2.197E+00
   19.200   2.165E+00
   19.300   2.136E+00
   19.400   2.109E+00
   19.500   2.085E+00
   19.600   2.063E+00
   19.700   2.044E+00
   19.800   2.026E+00
   19.900   2.010E+00
   20.000   1.995E+00
   20.100   1.981E+00
   20.200   1.968E+00
   20.300   1.956E+00
   20.400   1.943E+00
   20.500   1.930E+00
   20.600   1.916E+00
   20.700   1.902E+00
   20.800   1.886E+00
   20.900   1.869E+00
   21.000   1.850E+00
   21.100   1.829E+00
   21.200   1.806E+00
   21.300   1.781E+00
   21.400   1.754E+00
   21.500   1.726E+00
   21.600   1.697E+00
   21.700   1.667E+00
   21.800   1.637E+00
   21.900   1.607E+00
   22.000   1.578E+00
   22.100   1.549E+00
   22.200   1.520E+00
   22.300   1.492E+00
   22.400   1.464E+00
   22.500   1.438E+00
   22.600   1.411E+00
   22.700   1.385E+00
   22.800   1.359E+00
   22.900   1.333E+00
   23.000   1.307E+00
   23.100   1.281E+00
   23.200   1.255E+00
   23.300   1.229E+00
   23.400   1.203E+00
   23.500   1.178E+00
   23.600   1.152E+00
   23.700   1.127E+00
   23.800   1.103E+00
   23.900   1.080E+00
   24.000   1.057E+00
   24.100   1.035E+00
   24.200   1.015E+00
   24.300   9.954E-01
   24.400   9.768E-01
   24.500   9.591E-01
   24.600   9.422E-01
   24.700   9.262E-01
   24.800   9.110E-01
   24.900   8.969E-01
   25.000   8.837E-01
   25.100   8.716E-01
   25.200   8.605E-01
   25.300   8.503E-01
   25.400   8.409E-01
   25.500   8.318E-01
   25.600   8.230E-01
   25.700   8.139E-01
   25.800   8.044E-01
   25.900   7.943E-01
   26.000   7.836E-01
   26.100   7.722E-01
   26.200   7.602E-01
   26.300   7.480E-01
   26.400   7.355E-01
   26.500   7.231E-01
   26.600   7.109E-01
   26.700   6.990E-01
   26.800   6.875E-01
   26.900   6.763E-01
   27.000   6.654E-01
   27.100   6.548E-01
   27.200   6.444E-01
   27.300   6.343E-01
   27.400   6.242E-01
   27.500   6.144E-01
   27.600   6.047E-01
   27.700   5.953E-01
   27.800   5.860E-01
   27.900   5.771E-01
   28.000   5.685E-01
   28.100   5.601E-01
   28.200   5.520E-01
   28.300   5.441E-01
   28.400   5.363E-01
   28.500   5.286E-01
   28.600   5.209E-01
   28.700   5.132E-01
   28.800   5.056E-01
   28.900   4.981E-01
   29.000   4.908E-01
   29.100   4.836E-01
   29.200   4.766E-01
   29.300   4.698E-01
   29.400   4.631E-01
   29.500   4.566E-01
   29.600   4.501E-01
   29.700   4.437E-01
   29.800   4.373E-01
   29.900   4.311E-01
   30.000   4.249E-01
 
 Z=  14 A=  45 Si
  U[MeV]  fE1[mb/MeV]
    0.100   7.946E-05
    0.200   3.182E-04
    0.300   7.172E-04
    0.400   1.278E-03
    0.500   2.003E-03
    0.600   2.896E-03
    0.700   3.960E-03
    0.800   5.199E-03
    0.900   6.620E-03
    1.000   8.228E-03
    1.100   1.003E-02
    1.200   1.204E-02
    1.300   1.426E-02
    1.400   1.670E-02
    1.500   1.937E-02
    1.600   2.229E-02
    1.700   2.548E-02
    1.800   2.894E-02
    1.900   3.270E-02
    2.000   3.678E-02
    2.100   4.119E-02
    2.200   4.597E-02
    2.300   5.114E-02
    2.400   5.674E-02
    2.500   6.280E-02
    2.600   6.935E-02
    2.700   7.645E-02
    2.800   8.414E-02
    2.900   9.248E-02
    3.000   1.015E-01
    3.100   1.114E-01
    3.200   1.220E-01
    3.300   1.337E-01
    3.400   1.464E-01
    3.500   1.602E-01
    3.600   1.754E-01
    3.700   1.920E-01
    3.800   2.102E-01
    3.900   2.302E-01
    4.000   2.523E-01
    4.100   2.766E-01
    4.200   3.034E-01
    4.300   3.330E-01
    4.400   3.658E-01
    4.500   4.020E-01
    4.600   4.420E-01
    4.700   4.862E-01
    4.800   5.349E-01
    4.900   5.882E-01
    5.000   6.462E-01
    5.100   7.090E-01
    5.200   7.760E-01
    5.300   8.468E-01
    5.400   9.204E-01
    5.500   9.956E-01
    5.600   1.071E+00
    5.700   1.147E+00
    5.800   1.220E+00
    5.900   1.292E+00
    6.000   1.361E+00
    6.100   1.428E+00
    6.200   1.491E+00
    6.300   1.551E+00
    6.400   1.606E+00
    6.500   1.656E+00
    6.600   1.698E+00
    6.700   1.731E+00
    6.800   1.756E+00
    6.900   1.773E+00
    7.000   1.782E+00
    7.100   1.785E+00
    7.200   1.782E+00
    7.300   1.776E+00
    7.400   1.768E+00
    7.500   1.760E+00
    7.600   1.752E+00
    7.700   1.746E+00
    7.800   1.742E+00
    7.900   1.740E+00
    8.000   1.740E+00
    8.100   1.742E+00
    8.200   1.744E+00
    8.300   1.746E+00
    8.400   1.746E+00
    8.500   1.743E+00
    8.600   1.737E+00
    8.700   1.728E+00
    8.800   1.715E+00
    8.900   1.699E+00
    9.000   1.680E+00
    9.100   1.661E+00
    9.200   1.642E+00
    9.300   1.625E+00
    9.400   1.609E+00
    9.500   1.597E+00
    9.600   1.589E+00
    9.700   1.585E+00
    9.800   1.588E+00
    9.900   1.596E+00
   10.000   1.610E+00
   10.100   1.631E+00
   10.200   1.659E+00
   10.300   1.694E+00
   10.400   1.735E+00
   10.500   1.783E+00
   10.600   1.835E+00
   10.700   1.891E+00
   10.800   1.949E+00
   10.900   2.006E+00
   11.000   2.060E+00
   11.100   2.108E+00
   11.200   2.147E+00
   11.300   2.176E+00
   11.400   2.195E+00
   11.500   2.205E+00
   11.600   2.208E+00
   11.700   2.207E+00
   11.800   2.204E+00
   11.900   2.203E+00
   12.000   2.205E+00
   12.100   2.213E+00
   12.200   2.226E+00
   12.300   2.245E+00
   12.400   2.271E+00
   12.500   2.302E+00
   12.600   2.338E+00
   12.700   2.378E+00
   12.800   2.421E+00
   12.900   2.465E+00
   13.000   2.511E+00
   13.100   2.556E+00
   13.200   2.601E+00
   13.300   2.645E+00
   13.400   2.690E+00
   13.500   2.734E+00
   13.600   2.781E+00
   13.700   2.829E+00
   13.800   2.880E+00
   13.900   2.933E+00
   14.000   2.987E+00
   14.100   3.039E+00
   14.200   3.087E+00
   14.300   3.129E+00
   14.400   3.162E+00
   14.500   3.185E+00
   14.600   3.199E+00
   14.700   3.203E+00
   14.800   3.199E+00
   14.900   3.190E+00
   15.000   3.177E+00
   15.100   3.164E+00
   15.200   3.150E+00
   15.300   3.136E+00
   15.400   3.124E+00
   15.500   3.113E+00
   15.600   3.102E+00
   15.700   3.090E+00
   15.800   3.079E+00
   15.900   3.069E+00
   16.000   3.058E+00
   16.100   3.049E+00
   16.200   3.041E+00
   16.300   3.033E+00
   16.400   3.025E+00
   16.500   3.015E+00
   16.600   3.002E+00
   16.700   2.984E+00
   16.800   2.961E+00
   16.900   2.932E+00
   17.000   2.897E+00
   17.100   2.859E+00
   17.200   2.819E+00
   17.300   2.779E+00
   17.400   2.741E+00
   17.500   2.706E+00
   17.600   2.675E+00
   17.700   2.649E+00
   17.800   2.627E+00
   17.900   2.608E+00
   18.000   2.593E+00
   18.100   2.580E+00
   18.200   2.569E+00
   18.300   2.557E+00
   18.400   2.546E+00
   18.500   2.533E+00
   18.600   2.518E+00
   18.700   2.500E+00
   18.800   2.479E+00
   18.900   2.453E+00
   19.000   2.424E+00
   19.100   2.391E+00
   19.200   2.354E+00
   19.300   2.316E+00
   19.400   2.275E+00
   19.500   2.235E+00
   19.600   2.195E+00
   19.700   2.156E+00
   19.800   2.119E+00
   19.900   2.084E+00
   20.000   2.052E+00
   20.100   2.021E+00
   20.200   1.993E+00
   20.300   1.966E+00
   20.400   1.940E+00
   20.500   1.915E+00
   20.600   1.890E+00
   20.700   1.866E+00
   20.800   1.840E+00
   20.900   1.813E+00
   21.000   1.786E+00
   21.100   1.756E+00
   21.200   1.725E+00
   21.300   1.693E+00
   21.400   1.658E+00
   21.500   1.622E+00
   21.600   1.585E+00
   21.700   1.547E+00
   21.800   1.509E+00
   21.900   1.471E+00
   22.000   1.435E+00
   22.100   1.400E+00
   22.200   1.368E+00
   22.300   1.338E+00
   22.400   1.310E+00
   22.500   1.285E+00
   22.600   1.262E+00
   22.700   1.242E+00
   22.800   1.223E+00
   22.900   1.207E+00
   23.000   1.192E+00
   23.100   1.178E+00
   23.200   1.164E+00
   23.300   1.152E+00
   23.400   1.139E+00
   23.500   1.126E+00
   23.600   1.113E+00
   23.700   1.100E+00
   23.800   1.086E+00
   23.900   1.072E+00
   24.000   1.056E+00
   24.100   1.040E+00
   24.200   1.022E+00
   24.300   1.004E+00
   24.400   9.847E-01
   24.500   9.653E-01
   24.600   9.461E-01
   24.700   9.273E-01
   24.800   9.094E-01
   24.900   8.928E-01
   25.000   8.776E-01
   25.100   8.639E-01
   25.200   8.519E-01
   25.300   8.414E-01
   25.400   8.323E-01
   25.500   8.242E-01
   25.600   8.168E-01
   25.700   8.097E-01
   25.800   8.025E-01
   25.900   7.948E-01
   26.000   7.864E-01
   26.100   7.770E-01
   26.200   7.667E-01
   26.300   7.556E-01
   26.400   7.438E-01
   26.500   7.317E-01
   26.600   7.196E-01
   26.700   7.077E-01
   26.800   6.961E-01
   26.900   6.850E-01
   27.000   6.744E-01
   27.100   6.643E-01
   27.200   6.546E-01
   27.300   6.452E-01
   27.400   6.360E-01
   27.500   6.267E-01
   27.600   6.171E-01
   27.700   6.072E-01
   27.800   5.970E-01
   27.900   5.863E-01
   28.000   5.753E-01
   28.100   5.641E-01
   28.200   5.528E-01
   28.300   5.418E-01
   28.400   5.311E-01
   28.500   5.208E-01
   28.600   5.113E-01
   28.700   5.024E-01
   28.800   4.943E-01
   28.900   4.870E-01
   29.000   4.804E-01
   29.100   4.745E-01
   29.200   4.692E-01
   29.300   4.645E-01
   29.400   4.601E-01
   29.500   4.560E-01
   29.600   4.520E-01
   29.700   4.481E-01
   29.800   4.441E-01
   29.900   4.400E-01
   30.000   4.357E-01
 
 Z=  14 A=  46 Si
  U[MeV]  fE1[mb/MeV]
    0.100   9.499E-05
    0.200   3.804E-04
    0.300   8.574E-04
    0.400   1.528E-03
    0.500   2.395E-03
    0.600   3.463E-03
    0.700   4.736E-03
    0.800   6.220E-03
    0.900   7.921E-03
    1.000   9.847E-03
    1.100   1.201E-02
    1.200   1.441E-02
    1.300   1.707E-02
    1.400   2.000E-02
    1.500   2.321E-02
    1.600   2.673E-02
    1.700   3.056E-02
    1.800   3.472E-02
    1.900   3.925E-02
    2.000   4.416E-02
    2.100   4.949E-02
    2.200   5.526E-02
    2.300   6.151E-02
    2.400   6.828E-02
    2.500   7.562E-02
    2.600   8.356E-02
    2.700   9.218E-02
    2.800   1.015E-01
    2.900   1.117E-01
    3.000   1.227E-01
    3.100   1.347E-01
    3.200   1.477E-01
    3.300   1.619E-01
    3.400   1.775E-01
    3.500   1.944E-01
    3.600   2.130E-01
    3.700   2.334E-01
    3.800   2.558E-01
    3.900   2.804E-01
    4.000   3.076E-01
    4.100   3.375E-01
    4.200   3.705E-01
    4.300   4.070E-01
    4.400   4.473E-01
    4.500   4.918E-01
    4.600   5.408E-01
    4.700   5.947E-01
    4.800   6.536E-01
    4.900   7.178E-01
    5.000   7.871E-01
    5.100   8.613E-01
    5.200   9.399E-01
    5.300   1.022E+00
    5.400   1.108E+00
    5.500   1.195E+00
    5.600   1.283E+00
    5.700   1.373E+00
    5.800   1.462E+00
    5.900   1.552E+00
    6.000   1.642E+00
    6.100   1.731E+00
    6.200   1.818E+00
    6.300   1.902E+00
    6.400   1.980E+00
    6.500   2.049E+00
    6.600   2.107E+00
    6.700   2.152E+00
    6.800   2.182E+00
    6.900   2.198E+00
    7.000   2.203E+00
    7.100   2.197E+00
    7.200   2.185E+00
    7.300   2.168E+00
    7.400   2.150E+00
    7.500   2.132E+00
    7.600   2.116E+00
    7.700   2.102E+00
    7.800   2.092E+00
    7.900   2.084E+00
    8.000   2.079E+00
    8.100   2.075E+00
    8.200   2.072E+00
    8.300   2.067E+00
    8.400   2.061E+00
    8.500   2.051E+00
    8.600   2.036E+00
    8.700   2.017E+00
    8.800   1.992E+00
    8.900   1.963E+00
    9.000   1.932E+00
    9.100   1.898E+00
    9.200   1.865E+00
    9.300   1.833E+00
    9.400   1.805E+00
    9.500   1.781E+00
    9.600   1.762E+00
    9.700   1.750E+00
    9.800   1.745E+00
    9.900   1.746E+00
   10.000   1.755E+00
   10.100   1.772E+00
   10.200   1.796E+00
   10.300   1.828E+00
   10.400   1.866E+00
   10.500   1.911E+00
   10.600   1.962E+00
   10.700   2.018E+00
   10.800   2.077E+00
   10.900   2.137E+00
   11.000   2.196E+00
   11.100   2.250E+00
   11.200   2.298E+00
   11.300   2.337E+00
   11.400   2.366E+00
   11.500   2.383E+00
   11.600   2.391E+00
   11.700   2.392E+00
   11.800   2.388E+00
   11.900   2.382E+00
   12.000   2.377E+00
   12.100   2.377E+00
   12.200   2.382E+00
   12.300   2.394E+00
   12.400   2.413E+00
   12.500   2.438E+00
   12.600   2.469E+00
   12.700   2.505E+00
   12.800   2.543E+00
   12.900   2.584E+00
   13.000   2.626E+00
   13.100   2.668E+00
   13.200   2.711E+00
   13.300   2.754E+00
   13.400   2.797E+00
   13.500   2.842E+00
   13.600   2.887E+00
   13.700   2.935E+00
   13.800   2.985E+00
   13.900   3.036E+00
   14.000   3.088E+00
   14.100   3.140E+00
   14.200   3.189E+00
   14.300   3.234E+00
   14.400   3.272E+00
   14.500   3.302E+00
   14.600   3.323E+00
   14.700   3.335E+00
   14.800   3.338E+00
   14.900   3.335E+00
   15.000   3.328E+00
   15.100   3.319E+00
   15.200   3.309E+00
   15.300   3.299E+00
   15.400   3.290E+00
   15.500   3.280E+00
   15.600   3.269E+00
   15.700   3.255E+00
   15.800   3.237E+00
   15.900   3.216E+00
   16.000   3.191E+00
   16.100   3.164E+00
   16.200   3.136E+00
   16.300   3.108E+00
   16.400   3.081E+00
   16.500   3.057E+00
   16.600   3.033E+00
   16.700   3.010E+00
   16.800   2.987E+00
   16.900   2.962E+00
   17.000   2.935E+00
   17.100   2.905E+00
   17.200   2.873E+00
   17.300   2.840E+00
   17.400   2.805E+00
   17.500   2.770E+00
   17.600   2.736E+00
   17.700   2.703E+00
   17.800   2.670E+00
   17.900   2.639E+00
   18.000   2.609E+00
   18.100   2.580E+00
   18.200   2.552E+00
   18.300   2.525E+00
   18.400   2.499E+00
   18.500   2.474E+00
   18.600   2.450E+00
   18.700   2.427E+00
   18.800   2.405E+00
   18.900   2.384E+00
   19.000   2.364E+00
   19.100   2.344E+00
   19.200   2.325E+00
   19.300   2.304E+00
   19.400   2.282E+00
   19.500   2.257E+00
   19.600   2.230E+00
   19.700   2.200E+00
   19.800   2.167E+00
   19.900   2.133E+00
   20.000   2.097E+00
   20.100   2.061E+00
   20.200   2.025E+00
   20.300   1.989E+00
   20.400   1.954E+00
   20.500   1.919E+00
   20.600   1.885E+00
   20.700   1.850E+00
   20.800   1.816E+00
   20.900   1.781E+00
   21.000   1.746E+00
   21.100   1.711E+00
   21.200   1.675E+00
   21.300   1.639E+00
   21.400   1.602E+00
   21.500   1.564E+00
   21.600   1.527E+00
   21.700   1.489E+00
   21.800   1.451E+00
   21.900   1.413E+00
   22.000   1.376E+00
   22.100   1.340E+00
   22.200   1.305E+00
   22.300   1.272E+00
   22.400   1.242E+00
   22.500   1.213E+00
   22.600   1.187E+00
   22.700   1.163E+00
   22.800   1.141E+00
   22.900   1.121E+00
   23.000   1.104E+00
   23.100   1.088E+00
   23.200   1.074E+00
   23.300   1.061E+00
   23.400   1.050E+00
   23.500   1.040E+00
   23.600   1.030E+00
   23.700   1.021E+00
   23.800   1.012E+00
   23.900   1.003E+00
   24.000   9.940E-01
   24.100   9.842E-01
   24.200   9.735E-01
   24.300   9.619E-01
   24.400   9.492E-01
   24.500   9.357E-01
   24.600   9.216E-01
   24.700   9.072E-01
   24.800   8.930E-01
   24.900   8.793E-01
   25.000   8.663E-01
   25.100   8.543E-01
   25.200   8.433E-01
   25.300   8.334E-01
   25.400   8.244E-01
   25.500   8.162E-01
   25.600   8.086E-01
   25.700   8.015E-01
   25.800   7.944E-01
   25.900   7.873E-01
   26.000   7.798E-01
   26.100   7.717E-01
   26.200   7.630E-01
   26.300   7.536E-01
   26.400   7.435E-01
   26.500   7.330E-01
   26.600   7.221E-01
   26.700   7.109E-01
   26.800   6.997E-01
   26.900   6.885E-01
   27.000   6.774E-01
   27.100   6.666E-01
   27.200   6.560E-01
   27.300   6.457E-01
   27.400   6.355E-01
   27.500   6.255E-01
   27.600   6.156E-01
   27.700   6.055E-01
   27.800   5.953E-01
   27.900   5.849E-01
   28.000   5.744E-01
   28.100   5.636E-01
   28.200   5.528E-01
   28.300   5.420E-01
   28.400   5.315E-01
   28.500   5.213E-01
   28.600   5.116E-01
   28.700   5.025E-01
   28.800   4.942E-01
   28.900   4.865E-01
   29.000   4.796E-01
   29.100   4.734E-01
   29.200   4.679E-01
   29.300   4.631E-01
   29.400   4.588E-01
   29.500   4.549E-01
   29.600   4.513E-01
   29.700   4.479E-01
   29.800   4.446E-01
   29.900   4.411E-01
   30.000   4.375E-01
 
 Z=  14 A=  47 Si
  U[MeV]  fE1[mb/MeV]
    0.100   9.450E-05
    0.200   3.783E-04
    0.300   8.526E-04
    0.400   1.519E-03
    0.500   2.381E-03
    0.600   3.440E-03
    0.700   4.702E-03
    0.800   6.172E-03
    0.900   7.854E-03
    1.000   9.756E-03
    1.100   1.189E-02
    1.200   1.425E-02
    1.300   1.687E-02
    1.400   1.974E-02
    1.500   2.287E-02
    1.600   2.630E-02
    1.700   3.002E-02
    1.800   3.406E-02
    1.900   3.843E-02
    2.000   4.315E-02
    2.100   4.825E-02
    2.200   5.376E-02
    2.300   5.969E-02
    2.400   6.609E-02
    2.500   7.298E-02
    2.600   8.040E-02
    2.700   8.839E-02
    2.800   9.701E-02
    2.900   1.063E-01
    3.000   1.163E-01
    3.100   1.271E-01
    3.200   1.387E-01
    3.300   1.513E-01
    3.400   1.649E-01
    3.500   1.796E-01
    3.600   1.956E-01
    3.700   2.128E-01
    3.800   2.315E-01
    3.900   2.518E-01
    4.000   2.739E-01
    4.100   2.979E-01
    4.200   3.239E-01
    4.300   3.523E-01
    4.400   3.832E-01
    4.500   4.169E-01
    4.600   4.535E-01
    4.700   4.933E-01
    4.800   5.367E-01
    4.900   5.837E-01
    5.000   6.346E-01
    5.100   6.897E-01
    5.200   7.490E-01
    5.300   8.126E-01
    5.400   8.805E-01
    5.500   9.527E-01
    5.600   1.029E+00
    5.700   1.109E+00
    5.800   1.192E+00
    5.900   1.278E+00
    6.000   1.366E+00
    6.100   1.457E+00
    6.200   1.548E+00
    6.300   1.640E+00
    6.400   1.733E+00
    6.500   1.824E+00
    6.600   1.914E+00
    6.700   2.002E+00
    6.800   2.087E+00
    6.900   2.167E+00
    7.000   2.242E+00
    7.100   2.310E+00
    7.200   2.370E+00
    7.300   2.421E+00
    7.400   2.462E+00
    7.500   2.493E+00
    7.600   2.513E+00
    7.700   2.522E+00
    7.800   2.521E+00
    7.900   2.510E+00
    8.000   2.490E+00
    8.100   2.464E+00
    8.200   2.433E+00
    8.300   2.398E+00
    8.400   2.361E+00
    8.500   2.324E+00
    8.600   2.288E+00
    8.700   2.255E+00
    8.800   2.224E+00
    8.900   2.198E+00
    9.000   2.175E+00
    9.100   2.155E+00
    9.200   2.138E+00
    9.300   2.124E+00
    9.400   2.111E+00
    9.500   2.099E+00
    9.600   2.088E+00
    9.700   2.077E+00
    9.800   2.065E+00
    9.900   2.054E+00
   10.000   2.041E+00
   10.100   2.028E+00
   10.200   2.014E+00
   10.300   2.000E+00
   10.400   1.987E+00
   10.500   1.975E+00
   10.600   1.964E+00
   10.700   1.957E+00
   10.800   1.953E+00
   10.900   1.954E+00
   11.000   1.960E+00
   11.100   1.973E+00
   11.200   1.992E+00
   11.300   2.018E+00
   11.400   2.052E+00
   11.500   2.093E+00
   11.600   2.141E+00
   11.700   2.195E+00
   11.800   2.256E+00
   11.900   2.322E+00
   12.000   2.392E+00
   12.100   2.465E+00
   12.200   2.540E+00
   12.300   2.614E+00
   12.400   2.687E+00
   12.500   2.758E+00
   12.600   2.825E+00
   12.700   2.888E+00
   12.800   2.946E+00
   12.900   3.000E+00
   13.000   3.050E+00
   13.100   3.094E+00
   13.200   3.134E+00
   13.300   3.169E+00
   13.400   3.199E+00
   13.500   3.223E+00
   13.600   3.241E+00
   13.700   3.253E+00
   13.800   3.260E+00
   13.900   3.262E+00
   14.000   3.260E+00
   14.100   3.255E+00
   14.200   3.248E+00
   14.300   3.241E+00
   14.400   3.234E+00
   14.500   3.228E+00
   14.600   3.225E+00
   14.700   3.225E+00
   14.800   3.227E+00
   14.900   3.233E+00
   15.000   3.242E+00
   15.100   3.254E+00
   15.200   3.267E+00
   15.300   3.283E+00
   15.400   3.300E+00
   15.500   3.317E+00
   15.600   3.334E+00
   15.700   3.350E+00
   15.800   3.364E+00
   15.900   3.377E+00
   16.000   3.388E+00
   16.100   3.397E+00
   16.200   3.404E+00
   16.300   3.411E+00
   16.400   3.416E+00
   16.500   3.422E+00
   16.600   3.427E+00
   16.700   3.431E+00
   16.800   3.434E+00
   16.900   3.435E+00
   17.000   3.433E+00
   17.100   3.427E+00
   17.200   3.416E+00
   17.300   3.400E+00
   17.400   3.379E+00
   17.500   3.352E+00
   17.600   3.321E+00
   17.700   3.287E+00
   17.800   3.250E+00
   17.900   3.212E+00
   18.000   3.173E+00
   18.100   3.134E+00
   18.200   3.096E+00
   18.300   3.057E+00
   18.400   3.019E+00
   18.500   2.981E+00
   18.600   2.941E+00
   18.700   2.901E+00
   18.800   2.859E+00
   18.900   2.814E+00
   19.000   2.768E+00
   19.100   2.721E+00
   19.200   2.671E+00
   19.300   2.622E+00
   19.400   2.571E+00
   19.500   2.521E+00
   19.600   2.471E+00
   19.700   2.423E+00
   19.800   2.376E+00
   19.900   2.330E+00
   20.000   2.286E+00
   20.100   2.243E+00
   20.200   2.202E+00
   20.300   2.162E+00
   20.400   2.123E+00
   20.500   2.084E+00
   20.600   2.047E+00
   20.700   2.009E+00
   20.800   1.971E+00
   20.900   1.933E+00
   21.000   1.895E+00
   21.100   1.857E+00
   21.200   1.818E+00
   21.300   1.779E+00
   21.400   1.741E+00
   21.500   1.702E+00
   21.600   1.665E+00
   21.700   1.627E+00
   21.800   1.591E+00
   21.900   1.556E+00
   22.000   1.522E+00
   22.100   1.489E+00
   22.200   1.458E+00
   22.300   1.428E+00
   22.400   1.400E+00
   22.500   1.373E+00
   22.600   1.347E+00
   22.700   1.323E+00
   22.800   1.299E+00
   22.900   1.276E+00
   23.000   1.253E+00
   23.100   1.230E+00
   23.200   1.208E+00
   23.300   1.185E+00
   23.400   1.162E+00
   23.500   1.139E+00
   23.600   1.116E+00
   23.700   1.093E+00
   23.800   1.070E+00
   23.900   1.047E+00
   24.000   1.024E+00
   24.100   1.002E+00
   24.200   9.809E-01
   24.300   9.600E-01
   24.400   9.398E-01
   24.500   9.204E-01
   24.600   9.019E-01
   24.700   8.843E-01
   24.800   8.676E-01
   24.900   8.519E-01
   25.000   8.372E-01
   25.100   8.233E-01
   25.200   8.103E-01
   25.300   7.981E-01
   25.400   7.864E-01
   25.500   7.753E-01
   25.600   7.644E-01
   25.700   7.539E-01
   25.800   7.436E-01
   25.900   7.334E-01
   26.000   7.234E-01
   26.100   7.135E-01
   26.200   7.038E-01
   26.300   6.942E-01
   26.400   6.848E-01
   26.500   6.755E-01
   26.600   6.666E-01
   26.700   6.580E-01
   26.800   6.497E-01
   26.900   6.421E-01
   27.000   6.350E-01
   27.100   6.286E-01
   27.200   6.230E-01
   27.300   6.182E-01
   27.400   6.142E-01
   27.500   6.111E-01
   27.600   6.086E-01
   27.700   6.069E-01
   27.800   6.057E-01
   27.900   6.050E-01
   28.000   6.048E-01
   28.100   6.047E-01
   28.200   6.048E-01
   28.300   6.048E-01
   28.400   6.047E-01
   28.500   6.043E-01
   28.600   6.035E-01
   28.700   6.023E-01
   28.800   6.005E-01
   28.900   5.982E-01
   29.000   5.955E-01
   29.100   5.924E-01
   29.200   5.889E-01
   29.300   5.853E-01
   29.400   5.815E-01
   29.500   5.777E-01
   29.600   5.740E-01
   29.700   5.704E-01
   29.800   5.668E-01
   29.900   5.634E-01
   30.000   5.600E-01
 
