 Z=  15 A=  26 P 
  U[MeV]  fE1[mb/MeV]
    0.100   9.084E-06
    0.200   3.635E-05
    0.300   8.182E-05
    0.400   1.456E-04
    0.500   2.277E-04
    0.600   3.282E-04
    0.700   4.473E-04
    0.800   5.851E-04
    0.900   7.418E-04
    1.000   9.176E-04
    1.100   1.113E-03
    1.200   1.327E-03
    1.300   1.562E-03
    1.400   1.816E-03
    1.500   2.091E-03
    1.600   2.387E-03
    1.700   2.704E-03
    1.800   3.042E-03
    1.900   3.403E-03
    2.000   3.785E-03
    2.100   4.191E-03
    2.200   4.621E-03
    2.300   5.075E-03
    2.400   5.553E-03
    2.500   6.057E-03
    2.600   6.587E-03
    2.700   7.144E-03
    2.800   7.729E-03
    2.900   8.342E-03
    3.000   8.985E-03
    3.100   9.658E-03
    3.200   1.036E-02
    3.300   1.110E-02
    3.400   1.187E-02
    3.500   1.268E-02
    3.600   1.352E-02
    3.700   1.440E-02
    3.800   1.532E-02
    3.900   1.629E-02
    4.000   1.729E-02
    4.100   1.834E-02
    4.200   1.944E-02
    4.300   2.058E-02
    4.400   2.178E-02
    4.500   2.302E-02
    4.600   2.433E-02
    4.700   2.569E-02
    4.800   2.712E-02
    4.900   2.861E-02
    5.000   3.017E-02
    5.100   3.180E-02
    5.200   3.351E-02
    5.300   3.530E-02
    5.400   3.717E-02
    5.500   3.913E-02
    5.600   4.119E-02
    5.700   4.335E-02
    5.800   4.561E-02
    5.900   4.799E-02
    6.000   5.048E-02
    6.100   5.310E-02
    6.200   5.586E-02
    6.300   5.876E-02
    6.400   6.180E-02
    6.500   6.501E-02
    6.600   6.839E-02
    6.700   7.194E-02
    6.800   7.568E-02
    6.900   7.962E-02
    7.000   8.377E-02
    7.100   8.813E-02
    7.200   9.271E-02
    7.300   9.752E-02
    7.400   1.026E-01
    7.500   1.079E-01
    7.600   1.134E-01
    7.700   1.191E-01
    7.800   1.251E-01
    7.900   1.313E-01
    8.000   1.377E-01
    8.100   1.443E-01
    8.200   1.510E-01
    8.300   1.579E-01
    8.400   1.648E-01
    8.500   1.718E-01
    8.600   1.789E-01
    8.700   1.859E-01
    8.800   1.929E-01
    8.900   1.999E-01
    9.000   2.069E-01
    9.100   2.138E-01
    9.200   2.208E-01
    9.300   2.277E-01
    9.400   2.348E-01
    9.500   2.419E-01
    9.600   2.491E-01
    9.700   2.566E-01
    9.800   2.642E-01
    9.900   2.722E-01
   10.000   2.804E-01
   10.100   2.890E-01
   10.200   2.979E-01
   10.300   3.072E-01
   10.400   3.168E-01
   10.500   3.268E-01
   10.600   3.372E-01
   10.700   3.479E-01
   10.800   3.590E-01
   10.900   3.703E-01
   11.000   3.820E-01
   11.100   3.940E-01
   11.200   4.063E-01
   11.300   4.190E-01
   11.400   4.321E-01
   11.500   4.456E-01
   11.600   4.596E-01
   11.700   4.742E-01
   11.800   4.893E-01
   11.900   5.051E-01
   12.000   5.216E-01
   12.100   5.388E-01
   12.200   5.566E-01
   12.300   5.751E-01
   12.400   5.941E-01
   12.500   6.136E-01
   12.600   6.334E-01
   12.700   6.534E-01
   12.800   6.733E-01
   12.900   6.930E-01
   13.000   7.123E-01
   13.100   7.309E-01
   13.200   7.487E-01
   13.300   7.654E-01
   13.400   7.811E-01
   13.500   7.955E-01
   13.600   8.087E-01
   13.700   8.208E-01
   13.800   8.318E-01
   13.900   8.420E-01
   14.000   8.514E-01
   14.100   8.603E-01
   14.200   8.691E-01
   14.300   8.778E-01
   14.400   8.868E-01
   14.500   8.963E-01
   14.600   9.063E-01
   14.700   9.172E-01
   14.800   9.289E-01
   14.900   9.415E-01
   15.000   9.552E-01
   15.100   9.699E-01
   15.200   9.855E-01
   15.300   1.002E+00
   15.400   1.020E+00
   15.500   1.038E+00
   15.600   1.057E+00
   15.700   1.078E+00
   15.800   1.098E+00
   15.900   1.120E+00
   16.000   1.142E+00
   16.100   1.165E+00
   16.200   1.188E+00
   16.300   1.212E+00
   16.400   1.237E+00
   16.500   1.262E+00
   16.600   1.287E+00
   16.700   1.312E+00
   16.800   1.337E+00
   16.900   1.362E+00
   17.000   1.386E+00
   17.100   1.409E+00
   17.200   1.430E+00
   17.300   1.450E+00
   17.400   1.466E+00
   17.500   1.480E+00
   17.600   1.490E+00
   17.700   1.497E+00
   17.800   1.500E+00
   17.900   1.499E+00
   18.000   1.494E+00
   18.100   1.485E+00
   18.200   1.473E+00
   18.300   1.458E+00
   18.400   1.439E+00
   18.500   1.419E+00
   18.600   1.397E+00
   18.700   1.374E+00
   18.800   1.351E+00
   18.900   1.327E+00
   19.000   1.304E+00
   19.100   1.280E+00
   19.200   1.258E+00
   19.300   1.237E+00
   19.400   1.217E+00
   19.500   1.198E+00
   19.600   1.180E+00
   19.700   1.163E+00
   19.800   1.148E+00
   19.900   1.134E+00
   20.000   1.121E+00
   20.100   1.109E+00
   20.200   1.098E+00
   20.300   1.088E+00
   20.400   1.079E+00
   20.500   1.070E+00
   20.600   1.063E+00
   20.700   1.056E+00
   20.800   1.050E+00
   20.900   1.045E+00
   21.000   1.040E+00
   21.100   1.036E+00
   21.200   1.032E+00
   21.300   1.029E+00
   21.400   1.026E+00
   21.500   1.024E+00
   21.600   1.021E+00
   21.700   1.019E+00
   21.800   1.017E+00
   21.900   1.015E+00
   22.000   1.012E+00
   22.100   1.009E+00
   22.200   1.006E+00
   22.300   1.002E+00
   22.400   9.980E-01
   22.500   9.928E-01
   22.600   9.869E-01
   22.700   9.801E-01
   22.800   9.726E-01
   22.900   9.642E-01
   23.000   9.551E-01
   23.100   9.453E-01
   23.200   9.349E-01
   23.300   9.239E-01
   23.400   9.125E-01
   23.500   9.006E-01
   23.600   8.884E-01
   23.700   8.759E-01
   23.800   8.632E-01
   23.900   8.503E-01
   24.000   8.374E-01
   24.100   8.244E-01
   24.200   8.115E-01
   24.300   7.985E-01
   24.400   7.857E-01
   24.500   7.730E-01
   24.600   7.604E-01
   24.700   7.480E-01
   24.800   7.358E-01
   24.900   7.238E-01
   25.000   7.121E-01
   25.100   7.006E-01
   25.200   6.893E-01
   25.300   6.783E-01
   25.400   6.676E-01
   25.500   6.571E-01
   25.600   6.468E-01
   25.700   6.368E-01
   25.800   6.271E-01
   25.900   6.176E-01
   26.000   6.083E-01
   26.100   5.993E-01
   26.200   5.904E-01
   26.300   5.818E-01
   26.400   5.735E-01
   26.500   5.653E-01
   26.600   5.573E-01
   26.700   5.496E-01
   26.800   5.420E-01
   26.900   5.347E-01
   27.000   5.275E-01
   27.100   5.206E-01
   27.200   5.138E-01
   27.300   5.073E-01
   27.400   5.009E-01
   27.500   4.946E-01
   27.600   4.886E-01
   27.700   4.826E-01
   27.800   4.768E-01
   27.900   4.711E-01
   28.000   4.655E-01
   28.100   4.600E-01
   28.200   4.546E-01
   28.300   4.492E-01
   28.400   4.440E-01
   28.500   4.388E-01
   28.600   4.337E-01
   28.700   4.287E-01
   28.800   4.238E-01
   28.900   4.189E-01
   29.000   4.142E-01
   29.100   4.095E-01
   29.200   4.049E-01
   29.300   4.003E-01
   29.400   3.959E-01
   29.500   3.915E-01
   29.600   3.871E-01
   29.700   3.829E-01
   29.800   3.787E-01
   29.900   3.745E-01
   30.000   3.704E-01
 
 Z=  15 A=  27 P 
  U[MeV]  fE1[mb/MeV]
    0.100   7.613E-06
    0.200   3.046E-05
    0.300   6.857E-05
    0.400   1.220E-04
    0.500   1.907E-04
    0.600   2.749E-04
    0.700   3.746E-04
    0.800   4.900E-04
    0.900   6.211E-04
    1.000   7.681E-04
    1.100   9.311E-04
    1.200   1.110E-03
    1.300   1.306E-03
    1.400   1.518E-03
    1.500   1.748E-03
    1.600   1.994E-03
    1.700   2.258E-03
    1.800   2.540E-03
    1.900   2.839E-03
    2.000   3.157E-03
    2.100   3.494E-03
    2.200   3.850E-03
    2.300   4.225E-03
    2.400   4.621E-03
    2.500   5.037E-03
    2.600   5.474E-03
    2.700   5.933E-03
    2.800   6.414E-03
    2.900   6.918E-03
    3.000   7.445E-03
    3.100   7.996E-03
    3.200   8.572E-03
    3.300   9.174E-03
    3.400   9.802E-03
    3.500   1.046E-02
    3.600   1.114E-02
    3.700   1.186E-02
    3.800   1.260E-02
    3.900   1.337E-02
    4.000   1.418E-02
    4.100   1.502E-02
    4.200   1.590E-02
    4.300   1.682E-02
    4.400   1.777E-02
    4.500   1.876E-02
    4.600   1.980E-02
    4.700   2.087E-02
    4.800   2.200E-02
    4.900   2.317E-02
    5.000   2.439E-02
    5.100   2.566E-02
    5.200   2.699E-02
    5.300   2.838E-02
    5.400   2.983E-02
    5.500   3.134E-02
    5.600   3.292E-02
    5.700   3.457E-02
    5.800   3.629E-02
    5.900   3.810E-02
    6.000   3.999E-02
    6.100   4.196E-02
    6.200   4.403E-02
    6.300   4.621E-02
    6.400   4.848E-02
    6.500   5.087E-02
    6.600   5.338E-02
    6.700   5.602E-02
    6.800   5.878E-02
    6.900   6.170E-02
    7.000   6.476E-02
    7.100   6.798E-02
    7.200   7.137E-02
    7.300   7.494E-02
    7.400   7.869E-02
    7.500   8.264E-02
    7.600   8.679E-02
    7.700   9.116E-02
    7.800   9.574E-02
    7.900   1.005E-01
    8.000   1.056E-01
    8.100   1.108E-01
    8.200   1.163E-01
    8.300   1.219E-01
    8.400   1.278E-01
    8.500   1.338E-01
    8.600   1.400E-01
    8.700   1.463E-01
    8.800   1.527E-01
    8.900   1.592E-01
    9.000   1.657E-01
    9.100   1.722E-01
    9.200   1.787E-01
    9.300   1.852E-01
    9.400   1.917E-01
    9.500   1.982E-01
    9.600   2.047E-01
    9.700   2.112E-01
    9.800   2.178E-01
    9.900   2.246E-01
   10.000   2.315E-01
   10.100   2.387E-01
   10.200   2.461E-01
   10.300   2.538E-01
   10.400   2.618E-01
   10.500   2.703E-01
   10.600   2.791E-01
   10.700   2.884E-01
   10.800   2.982E-01
   10.900   3.085E-01
   11.000   3.193E-01
   11.100   3.305E-01
   11.200   3.424E-01
   11.300   3.547E-01
   11.400   3.677E-01
   11.500   3.812E-01
   11.600   3.954E-01
   11.700   4.102E-01
   11.800   4.258E-01
   11.900   4.422E-01
   12.000   4.595E-01
   12.100   4.777E-01
   12.200   4.969E-01
   12.300   5.171E-01
   12.400   5.384E-01
   12.500   5.609E-01
   12.600   5.845E-01
   12.700   6.092E-01
   12.800   6.350E-01
   12.900   6.616E-01
   13.000   6.889E-01
   13.100   7.168E-01
   13.200   7.448E-01
   13.300   7.727E-01
   13.400   8.002E-01
   13.500   8.268E-01
   13.600   8.522E-01
   13.700   8.760E-01
   13.800   8.981E-01
   13.900   9.180E-01
   14.000   9.359E-01
   14.100   9.516E-01
   14.200   9.654E-01
   14.300   9.773E-01
   14.400   9.877E-01
   14.500   9.970E-01
   14.600   1.005E+00
   14.700   1.013E+00
   14.800   1.021E+00
   14.900   1.029E+00
   15.000   1.038E+00
   15.100   1.047E+00
   15.200   1.057E+00
   15.300   1.068E+00
   15.400   1.080E+00
   15.500   1.093E+00
   15.600   1.108E+00
   15.700   1.123E+00
   15.800   1.140E+00
   15.900   1.157E+00
   16.000   1.176E+00
   16.100   1.195E+00
   16.200   1.215E+00
   16.300   1.235E+00
   16.400   1.256E+00
   16.500   1.278E+00
   16.600   1.299E+00
   16.700   1.321E+00
   16.800   1.342E+00
   16.900   1.363E+00
   17.000   1.384E+00
   17.100   1.405E+00
   17.200   1.425E+00
   17.300   1.445E+00
   17.400   1.463E+00
   17.500   1.481E+00
   17.600   1.497E+00
   17.700   1.511E+00
   17.800   1.523E+00
   17.900   1.532E+00
   18.000   1.538E+00
   18.100   1.540E+00
   18.200   1.539E+00
   18.300   1.535E+00
   18.400   1.526E+00
   18.500   1.514E+00
   18.600   1.498E+00
   18.700   1.480E+00
   18.800   1.458E+00
   18.900   1.435E+00
   19.000   1.410E+00
   19.100   1.384E+00
   19.200   1.358E+00
   19.300   1.331E+00
   19.400   1.305E+00
   19.500   1.279E+00
   19.600   1.255E+00
   19.700   1.231E+00
   19.800   1.209E+00
   19.900   1.187E+00
   20.000   1.168E+00
   20.100   1.149E+00
   20.200   1.132E+00
   20.300   1.117E+00
   20.400   1.102E+00
   20.500   1.089E+00
   20.600   1.077E+00
   20.700   1.067E+00
   20.800   1.057E+00
   20.900   1.049E+00
   21.000   1.041E+00
   21.100   1.034E+00
   21.200   1.028E+00
   21.300   1.023E+00
   21.400   1.019E+00
   21.500   1.015E+00
   21.600   1.012E+00
   21.700   1.010E+00
   21.800   1.008E+00
   21.900   1.007E+00
   22.000   1.006E+00
   22.100   1.005E+00
   22.200   1.005E+00
   22.300   1.005E+00
   22.400   1.005E+00
   22.500   1.005E+00
   22.600   1.004E+00
   22.700   1.004E+00
   22.800   1.003E+00
   22.900   1.001E+00
   23.000   9.986E-01
   23.100   9.954E-01
   23.200   9.913E-01
   23.300   9.863E-01
   23.400   9.803E-01
   23.500   9.732E-01
   23.600   9.652E-01
   23.700   9.563E-01
   23.800   9.465E-01
   23.900   9.360E-01
   24.000   9.247E-01
   24.100   9.129E-01
   24.200   9.005E-01
   24.300   8.878E-01
   24.400   8.747E-01
   24.500   8.613E-01
   24.600   8.478E-01
   24.700   8.341E-01
   24.800   8.204E-01
   24.900   8.066E-01
   25.000   7.928E-01
   25.100   7.790E-01
   25.200   7.653E-01
   25.300   7.517E-01
   25.400   7.382E-01
   25.500   7.248E-01
   25.600   7.116E-01
   25.700   6.986E-01
   25.800   6.859E-01
   25.900   6.734E-01
   26.000   6.611E-01
   26.100   6.492E-01
   26.200   6.375E-01
   26.300   6.262E-01
   26.400   6.152E-01
   26.500   6.046E-01
   26.600   5.943E-01
   26.700   5.843E-01
   26.800   5.747E-01
   26.900   5.655E-01
   27.000   5.566E-01
   27.100   5.480E-01
   27.200   5.397E-01
   27.300   5.317E-01
   27.400   5.240E-01
   27.500   5.166E-01
   27.600   5.094E-01
   27.700   5.025E-01
   27.800   4.957E-01
   27.900   4.892E-01
   28.000   4.829E-01
   28.100   4.768E-01
   28.200   4.709E-01
   28.300   4.651E-01
   28.400   4.595E-01
   28.500   4.541E-01
   28.600   4.489E-01
   28.700   4.438E-01
   28.800   4.389E-01
   28.900   4.342E-01
   29.000   4.296E-01
   29.100   4.252E-01
   29.200   4.209E-01
   29.300   4.167E-01
   29.400   4.127E-01
   29.500   4.087E-01
   29.600   4.049E-01
   29.700   4.012E-01
   29.800   3.976E-01
   29.900   3.940E-01
   30.000   3.904E-01
 
 Z=  15 A=  28 P 
  U[MeV]  fE1[mb/MeV]
    0.100   7.069E-06
    0.200   2.828E-05
    0.300   6.366E-05
    0.400   1.132E-04
    0.500   1.771E-04
    0.600   2.552E-04
    0.700   3.477E-04
    0.800   4.546E-04
    0.900   5.762E-04
    1.000   7.124E-04
    1.100   8.634E-04
    1.200   1.029E-03
    1.300   1.210E-03
    1.400   1.407E-03
    1.500   1.619E-03
    1.600   1.846E-03
    1.700   2.090E-03
    1.800   2.349E-03
    1.900   2.625E-03
    2.000   2.918E-03
    2.100   3.227E-03
    2.200   3.554E-03
    2.300   3.898E-03
    2.400   4.261E-03
    2.500   4.642E-03
    2.600   5.041E-03
    2.700   5.460E-03
    2.800   5.898E-03
    2.900   6.356E-03
    3.000   6.835E-03
    3.100   7.335E-03
    3.200   7.857E-03
    3.300   8.401E-03
    3.400   8.967E-03
    3.500   9.557E-03
    3.600   1.017E-02
    3.700   1.081E-02
    3.800   1.148E-02
    3.900   1.217E-02
    4.000   1.289E-02
    4.100   1.363E-02
    4.200   1.441E-02
    4.300   1.522E-02
    4.400   1.606E-02
    4.500   1.693E-02
    4.600   1.783E-02
    4.700   1.877E-02
    4.800   1.975E-02
    4.900   2.076E-02
    5.000   2.181E-02
    5.100   2.291E-02
    5.200   2.404E-02
    5.300   2.522E-02
    5.400   2.645E-02
    5.500   2.772E-02
    5.600   2.905E-02
    5.700   3.043E-02
    5.800   3.186E-02
    5.900   3.335E-02
    6.000   3.490E-02
    6.100   3.652E-02
    6.200   3.820E-02
    6.300   3.995E-02
    6.400   4.178E-02
    6.500   4.369E-02
    6.600   4.567E-02
    6.700   4.775E-02
    6.800   4.991E-02
    6.900   5.217E-02
    7.000   5.454E-02
    7.100   5.701E-02
    7.200   5.960E-02
    7.300   6.230E-02
    7.400   6.514E-02
    7.500   6.811E-02
    7.600   7.123E-02
    7.700   7.450E-02
    7.800   7.793E-02
    7.900   8.153E-02
    8.000   8.532E-02
    8.100   8.930E-02
    8.200   9.348E-02
    8.300   9.788E-02
    8.400   1.025E-01
    8.500   1.074E-01
    8.600   1.125E-01
    8.700   1.178E-01
    8.800   1.234E-01
    8.900   1.293E-01
    9.000   1.354E-01
    9.100   1.419E-01
    9.200   1.485E-01
    9.300   1.554E-01
    9.400   1.626E-01
    9.500   1.699E-01
    9.600   1.775E-01
    9.700   1.852E-01
    9.800   1.930E-01
    9.900   2.010E-01
   10.000   2.090E-01
   10.100   2.171E-01
   10.200   2.254E-01
   10.300   2.337E-01
   10.400   2.421E-01
   10.500   2.507E-01
   10.600   2.595E-01
   10.700   2.685E-01
   10.800   2.778E-01
   10.900   2.874E-01
   11.000   2.974E-01
   11.100   3.079E-01
   11.200   3.189E-01
   11.300   3.305E-01
   11.400   3.427E-01
   11.500   3.556E-01
   11.600   3.691E-01
   11.700   3.835E-01
   11.800   3.986E-01
   11.900   4.145E-01
   12.000   4.313E-01
   12.100   4.490E-01
   12.200   4.676E-01
   12.300   4.870E-01
   12.400   5.074E-01
   12.500   5.287E-01
   12.600   5.509E-01
   12.700   5.739E-01
   12.800   5.979E-01
   12.900   6.226E-01
   13.000   6.482E-01
   13.100   6.746E-01
   13.200   7.018E-01
   13.300   7.298E-01
   13.400   7.586E-01
   13.500   7.882E-01
   13.600   8.186E-01
   13.700   8.496E-01
   13.800   8.812E-01
   13.900   9.132E-01
   14.000   9.455E-01
   14.100   9.777E-01
   14.200   1.010E+00
   14.300   1.041E+00
   14.400   1.072E+00
   14.500   1.102E+00
   14.600   1.130E+00
   14.700   1.157E+00
   14.800   1.183E+00
   14.900   1.208E+00
   15.000   1.231E+00
   15.100   1.254E+00
   15.200   1.276E+00
   15.300   1.297E+00
   15.400   1.318E+00
   15.500   1.338E+00
   15.600   1.358E+00
   15.700   1.377E+00
   15.800   1.396E+00
   15.900   1.415E+00
   16.000   1.433E+00
   16.100   1.451E+00
   16.200   1.467E+00
   16.300   1.483E+00
   16.400   1.498E+00
   16.500   1.511E+00
   16.600   1.523E+00
   16.700   1.534E+00
   16.800   1.543E+00
   16.900   1.550E+00
   17.000   1.557E+00
   17.100   1.561E+00
   17.200   1.565E+00
   17.300   1.568E+00
   17.400   1.570E+00
   17.500   1.571E+00
   17.600   1.573E+00
   17.700   1.574E+00
   17.800   1.575E+00
   17.900   1.576E+00
   18.000   1.577E+00
   18.100   1.578E+00
   18.200   1.579E+00
   18.300   1.579E+00
   18.400   1.579E+00
   18.500   1.578E+00
   18.600   1.576E+00
   18.700   1.573E+00
   18.800   1.568E+00
   18.900   1.562E+00
   19.000   1.554E+00
   19.100   1.544E+00
   19.200   1.533E+00
   19.300   1.520E+00
   19.400   1.506E+00
   19.500   1.491E+00
   19.600   1.475E+00
   19.700   1.458E+00
   19.800   1.441E+00
   19.900   1.424E+00
   20.000   1.406E+00
   20.100   1.388E+00
   20.200   1.370E+00
   20.300   1.353E+00
   20.400   1.337E+00
   20.500   1.320E+00
   20.600   1.305E+00
   20.700   1.289E+00
   20.800   1.275E+00
   20.900   1.261E+00
   21.000   1.248E+00
   21.100   1.235E+00
   21.200   1.223E+00
   21.300   1.212E+00
   21.400   1.201E+00
   21.500   1.190E+00
   21.600   1.180E+00
   21.700   1.170E+00
   21.800   1.161E+00
   21.900   1.152E+00
   22.000   1.143E+00
   22.100   1.134E+00
   22.200   1.125E+00
   22.300   1.117E+00
   22.400   1.108E+00
   22.500   1.100E+00
   22.600   1.091E+00
   22.700   1.082E+00
   22.800   1.073E+00
   22.900   1.063E+00
   23.000   1.053E+00
   23.100   1.043E+00
   23.200   1.032E+00
   23.300   1.021E+00
   23.400   1.009E+00
   23.500   9.965E-01
   23.600   9.838E-01
   23.700   9.708E-01
   23.800   9.574E-01
   23.900   9.439E-01
   24.000   9.301E-01
   24.100   9.161E-01
   24.200   9.021E-01
   24.300   8.880E-01
   24.400   8.738E-01
   24.500   8.596E-01
   24.600   8.453E-01
   24.700   8.311E-01
   24.800   8.168E-01
   24.900   8.025E-01
   25.000   7.883E-01
   25.100   7.741E-01
   25.200   7.601E-01
   25.300   7.461E-01
   25.400   7.323E-01
   25.500   7.186E-01
   25.600   7.052E-01
   25.700   6.921E-01
   25.800   6.792E-01
   25.900   6.667E-01
   26.000   6.545E-01
   26.100   6.426E-01
   26.200   6.311E-01
   26.300   6.200E-01
   26.400   6.093E-01
   26.500   5.989E-01
   26.600   5.889E-01
   26.700   5.792E-01
   26.800   5.699E-01
   26.900   5.609E-01
   27.000   5.522E-01
   27.100   5.438E-01
   27.200   5.357E-01
   27.300   5.279E-01
   27.400   5.203E-01
   27.500   5.130E-01
   27.600   5.060E-01
   27.700   4.991E-01
   27.800   4.925E-01
   27.900   4.861E-01
   28.000   4.798E-01
   28.100   4.737E-01
   28.200   4.678E-01
   28.300   4.620E-01
   28.400   4.564E-01
   28.500   4.509E-01
   28.600   4.454E-01
   28.700   4.401E-01
   28.800   4.348E-01
   28.900   4.296E-01
   29.000   4.244E-01
   29.100   4.193E-01
   29.200   4.142E-01
   29.300   4.092E-01
   29.400   4.041E-01
   29.500   3.991E-01
   29.600   3.941E-01
   29.700   3.892E-01
   29.800   3.843E-01
   29.900   3.794E-01
   30.000   3.746E-01
 
 Z=  15 A=  29 P 
  U[MeV]  fE1[mb/MeV]
    0.100   6.749E-06
    0.200   2.700E-05
    0.300   6.078E-05
    0.400   1.081E-04
    0.500   1.690E-04
    0.600   2.436E-04
    0.700   3.319E-04
    0.800   4.341E-04
    0.900   5.501E-04
    1.000   6.801E-04
    1.100   8.243E-04
    1.200   9.827E-04
    1.300   1.156E-03
    1.400   1.343E-03
    1.500   1.545E-03
    1.600   1.762E-03
    1.700   1.995E-03
    1.800   2.243E-03
    1.900   2.506E-03
    2.000   2.785E-03
    2.100   3.081E-03
    2.200   3.393E-03
    2.300   3.722E-03
    2.400   4.067E-03
    2.500   4.431E-03
    2.600   4.812E-03
    2.700   5.212E-03
    2.800   5.630E-03
    2.900   6.067E-03
    3.000   6.524E-03
    3.100   7.001E-03
    3.200   7.499E-03
    3.300   8.018E-03
    3.400   8.559E-03
    3.500   9.122E-03
    3.600   9.708E-03
    3.700   1.032E-02
    3.800   1.095E-02
    3.900   1.161E-02
    4.000   1.230E-02
    4.100   1.301E-02
    4.200   1.375E-02
    4.300   1.452E-02
    4.400   1.532E-02
    4.500   1.615E-02
    4.600   1.701E-02
    4.700   1.791E-02
    4.800   1.884E-02
    4.900   1.981E-02
    5.000   2.081E-02
    5.100   2.185E-02
    5.200   2.294E-02
    5.300   2.406E-02
    5.400   2.523E-02
    5.500   2.645E-02
    5.600   2.771E-02
    5.700   2.903E-02
    5.800   3.040E-02
    5.900   3.182E-02
    6.000   3.330E-02
    6.100   3.484E-02
    6.200   3.645E-02
    6.300   3.812E-02
    6.400   3.987E-02
    6.500   4.169E-02
    6.600   4.358E-02
    6.700   4.557E-02
    6.800   4.764E-02
    6.900   4.980E-02
    7.000   5.206E-02
    7.100   5.443E-02
    7.200   5.691E-02
    7.300   5.951E-02
    7.400   6.223E-02
    7.500   6.509E-02
    7.600   6.809E-02
    7.700   7.124E-02
    7.800   7.456E-02
    7.900   7.804E-02
    8.000   8.171E-02
    8.100   8.558E-02
    8.200   8.966E-02
    8.300   9.395E-02
    8.400   9.848E-02
    8.500   1.033E-01
    8.600   1.083E-01
    8.700   1.136E-01
    8.800   1.192E-01
    8.900   1.251E-01
    9.000   1.312E-01
    9.100   1.377E-01
    9.200   1.445E-01
    9.300   1.515E-01
    9.400   1.588E-01
    9.500   1.663E-01
    9.600   1.741E-01
    9.700   1.820E-01
    9.800   1.901E-01
    9.900   1.984E-01
   10.000   2.068E-01
   10.100   2.152E-01
   10.200   2.239E-01
   10.300   2.327E-01
   10.400   2.417E-01
   10.500   2.509E-01
   10.600   2.605E-01
   10.700   2.705E-01
   10.800   2.810E-01
   10.900   2.920E-01
   11.000   3.037E-01
   11.100   3.160E-01
   11.200   3.291E-01
   11.300   3.430E-01
   11.400   3.578E-01
   11.500   3.734E-01
   11.600   3.901E-01
   11.700   4.078E-01
   11.800   4.265E-01
   11.900   4.464E-01
   12.000   4.674E-01
   12.100   4.897E-01
   12.200   5.132E-01
   12.300   5.380E-01
   12.400   5.641E-01
   12.500   5.916E-01
   12.600   6.205E-01
   12.700   6.510E-01
   12.800   6.830E-01
   12.900   7.166E-01
   13.000   7.519E-01
   13.100   7.890E-01
   13.200   8.278E-01
   13.300   8.683E-01
   13.400   9.105E-01
   13.500   9.540E-01
   13.600   9.987E-01
   13.700   1.044E+00
   13.800   1.090E+00
   13.900   1.135E+00
   14.000   1.180E+00
   14.100   1.223E+00
   14.200   1.265E+00
   14.300   1.304E+00
   14.400   1.341E+00
   14.500   1.375E+00
   14.600   1.407E+00
   14.700   1.437E+00
   14.800   1.464E+00
   14.900   1.489E+00
   15.000   1.512E+00
   15.100   1.533E+00
   15.200   1.552E+00
   15.300   1.570E+00
   15.400   1.586E+00
   15.500   1.600E+00
   15.600   1.612E+00
   15.700   1.622E+00
   15.800   1.630E+00
   15.900   1.636E+00
   16.000   1.641E+00
   16.100   1.643E+00
   16.200   1.643E+00
   16.300   1.641E+00
   16.400   1.638E+00
   16.500   1.632E+00
   16.600   1.625E+00
   16.700   1.616E+00
   16.800   1.605E+00
   16.900   1.593E+00
   17.000   1.580E+00
   17.100   1.567E+00
   17.200   1.553E+00
   17.300   1.539E+00
   17.400   1.526E+00
   17.500   1.513E+00
   17.600   1.501E+00
   17.700   1.490E+00
   17.800   1.480E+00
   17.900   1.471E+00
   18.000   1.462E+00
   18.100   1.454E+00
   18.200   1.447E+00
   18.300   1.440E+00
   18.400   1.433E+00
   18.500   1.427E+00
   18.600   1.420E+00
   18.700   1.412E+00
   18.800   1.405E+00
   18.900   1.397E+00
   19.000   1.389E+00
   19.100   1.380E+00
   19.200   1.371E+00
   19.300   1.363E+00
   19.400   1.354E+00
   19.500   1.345E+00
   19.600   1.337E+00
   19.700   1.328E+00
   19.800   1.320E+00
   19.900   1.313E+00
   20.000   1.305E+00
   20.100   1.298E+00
   20.200   1.291E+00
   20.300   1.284E+00
   20.400   1.278E+00
   20.500   1.272E+00
   20.600   1.266E+00
   20.700   1.261E+00
   20.800   1.255E+00
   20.900   1.250E+00
   21.000   1.245E+00
   21.100   1.240E+00
   21.200   1.235E+00
   21.300   1.230E+00
   21.400   1.224E+00
   21.500   1.219E+00
   21.600   1.212E+00
   21.700   1.206E+00
   21.800   1.198E+00
   21.900   1.190E+00
   22.000   1.181E+00
   22.100   1.172E+00
   22.200   1.161E+00
   22.300   1.151E+00
   22.400   1.139E+00
   22.500   1.127E+00
   22.600   1.115E+00
   22.700   1.102E+00
   22.800   1.090E+00
   22.900   1.077E+00
   23.000   1.064E+00
   23.100   1.051E+00
   23.200   1.038E+00
   23.300   1.025E+00
   23.400   1.012E+00
   23.500   9.983E-01
   23.600   9.848E-01
   23.700   9.710E-01
   23.800   9.570E-01
   23.900   9.426E-01
   24.000   9.281E-01
   24.100   9.133E-01
   24.200   8.983E-01
   24.300   8.832E-01
   24.400   8.680E-01
   24.500   8.529E-01
   24.600   8.378E-01
   24.700   8.229E-01
   24.800   8.082E-01
   24.900   7.936E-01
   25.000   7.794E-01
   25.100   7.654E-01
   25.200   7.517E-01
   25.300   7.383E-01
   25.400   7.252E-01
   25.500   7.125E-01
   25.600   7.001E-01
   25.700   6.881E-01
   25.800   6.763E-01
   25.900   6.649E-01
   26.000   6.538E-01
   26.100   6.430E-01
   26.200   6.325E-01
   26.300   6.224E-01
   26.400   6.124E-01
   26.500   6.028E-01
   26.600   5.934E-01
   26.700   5.843E-01
   26.800   5.755E-01
   26.900   5.669E-01
   27.000   5.585E-01
   27.100   5.504E-01
   27.200   5.426E-01
   27.300   5.350E-01
   27.400   5.276E-01
   27.500   5.205E-01
   27.600   5.136E-01
   27.700   5.069E-01
   27.800   5.004E-01
   27.900   4.941E-01
   28.000   4.880E-01
   28.100   4.820E-01
   28.200   4.761E-01
   28.300   4.704E-01
   28.400   4.649E-01
   28.500   4.594E-01
   28.600   4.541E-01
   28.700   4.489E-01
   28.800   4.438E-01
   28.900   4.388E-01
   29.000   4.339E-01
   29.100   4.291E-01
   29.200   4.244E-01
   29.300   4.199E-01
   29.400   4.154E-01
   29.500   4.110E-01
   29.600   4.067E-01
   29.700   4.025E-01
   29.800   3.984E-01
   29.900   3.944E-01
   30.000   3.904E-01
 
 Z=  15 A=  30 P 
  U[MeV]  fE1[mb/MeV]
    0.100   7.311E-06
    0.200   2.925E-05
    0.300   6.584E-05
    0.400   1.171E-04
    0.500   1.831E-04
    0.600   2.639E-04
    0.700   3.595E-04
    0.800   4.700E-04
    0.900   5.956E-04
    1.000   7.363E-04
    1.100   8.922E-04
    1.200   1.064E-03
    1.300   1.250E-03
    1.400   1.453E-03
    1.500   1.671E-03
    1.600   1.906E-03
    1.700   2.157E-03
    1.800   2.424E-03
    1.900   2.708E-03
    2.000   3.009E-03
    2.100   3.327E-03
    2.200   3.663E-03
    2.300   4.017E-03
    2.400   4.389E-03
    2.500   4.779E-03
    2.600   5.188E-03
    2.700   5.617E-03
    2.800   6.065E-03
    2.900   6.533E-03
    3.000   7.022E-03
    3.100   7.531E-03
    3.200   8.063E-03
    3.300   8.616E-03
    3.400   9.192E-03
    3.500   9.791E-03
    3.600   1.041E-02
    3.700   1.106E-02
    3.800   1.173E-02
    3.900   1.243E-02
    4.000   1.316E-02
    4.100   1.391E-02
    4.200   1.469E-02
    4.300   1.550E-02
    4.400   1.634E-02
    4.500   1.721E-02
    4.600   1.811E-02
    4.700   1.904E-02
    4.800   2.001E-02
    4.900   2.101E-02
    5.000   2.205E-02
    5.100   2.313E-02
    5.200   2.424E-02
    5.300   2.540E-02
    5.400   2.660E-02
    5.500   2.784E-02
    5.600   2.913E-02
    5.700   3.046E-02
    5.800   3.184E-02
    5.900   3.327E-02
    6.000   3.475E-02
    6.100   3.629E-02
    6.200   3.789E-02
    6.300   3.954E-02
    6.400   4.126E-02
    6.500   4.303E-02
    6.600   4.488E-02
    6.700   4.680E-02
    6.800   4.878E-02
    6.900   5.085E-02
    7.000   5.299E-02
    7.100   5.522E-02
    7.200   5.753E-02
    7.300   5.993E-02
    7.400   6.243E-02
    7.500   6.503E-02
    7.600   6.773E-02
    7.700   7.054E-02
    7.800   7.346E-02
    7.900   7.650E-02
    8.000   7.966E-02
    8.100   8.296E-02
    8.200   8.639E-02
    8.300   8.996E-02
    8.400   9.369E-02
    8.500   9.756E-02
    8.600   1.016E-01
    8.700   1.058E-01
    8.800   1.102E-01
    8.900   1.148E-01
    9.000   1.195E-01
    9.100   1.245E-01
    9.200   1.297E-01
    9.300   1.350E-01
    9.400   1.406E-01
    9.500   1.464E-01
    9.600   1.525E-01
    9.700   1.588E-01
    9.800   1.653E-01
    9.900   1.721E-01
   10.000   1.791E-01
   10.100   1.864E-01
   10.200   1.939E-01
   10.300   2.017E-01
   10.400   2.097E-01
   10.500   2.180E-01
   10.600   2.265E-01
   10.700   2.354E-01
   10.800   2.445E-01
   10.900   2.538E-01
   11.000   2.635E-01
   11.100   2.734E-01
   11.200   2.836E-01
   11.300   2.942E-01
   11.400   3.051E-01
   11.500   3.163E-01
   11.600   3.278E-01
   11.700   3.398E-01
   11.800   3.522E-01
   11.900   3.650E-01
   12.000   3.782E-01
   12.100   3.920E-01
   12.200   4.062E-01
   12.300   4.210E-01
   12.400   4.364E-01
   12.500   4.524E-01
   12.600   4.690E-01
   12.700   4.863E-01
   12.800   5.043E-01
   12.900   5.229E-01
   13.000   5.424E-01
   13.100   5.626E-01
   13.200   5.836E-01
   13.300   6.055E-01
   13.400   6.281E-01
   13.500   6.517E-01
   13.600   6.761E-01
   13.700   7.014E-01
   13.800   7.276E-01
   13.900   7.546E-01
   14.000   7.825E-01
   14.100   8.113E-01
   14.200   8.408E-01
   14.300   8.711E-01
   14.400   9.021E-01
   14.500   9.337E-01
   14.600   9.659E-01
   14.700   9.985E-01
   14.800   1.031E+00
   14.900   1.065E+00
   15.000   1.098E+00
   15.100   1.131E+00
   15.200   1.164E+00
   15.300   1.196E+00
   15.400   1.229E+00
   15.500   1.260E+00
   15.600   1.291E+00
   15.700   1.321E+00
   15.800   1.350E+00
   15.900   1.379E+00
   16.000   1.406E+00
   16.100   1.432E+00
   16.200   1.457E+00
   16.300   1.481E+00
   16.400   1.504E+00
   16.500   1.526E+00
   16.600   1.547E+00
   16.700   1.567E+00
   16.800   1.586E+00
   16.900   1.604E+00
   17.000   1.621E+00
   17.100   1.637E+00
   17.200   1.652E+00
   17.300   1.667E+00
   17.400   1.681E+00
   17.500   1.694E+00
   17.600   1.707E+00
   17.700   1.719E+00
   17.800   1.731E+00
   17.900   1.742E+00
   18.000   1.753E+00
   18.100   1.763E+00
   18.200   1.772E+00
   18.300   1.781E+00
   18.400   1.789E+00
   18.500   1.796E+00
   18.600   1.802E+00
   18.700   1.807E+00
   18.800   1.811E+00
   18.900   1.814E+00
   19.000   1.816E+00
   19.100   1.816E+00
   19.200   1.816E+00
   19.300   1.814E+00
   19.400   1.811E+00
   19.500   1.807E+00
   19.600   1.801E+00
   19.700   1.795E+00
   19.800   1.787E+00
   19.900   1.778E+00
   20.000   1.768E+00
   20.100   1.757E+00
   20.200   1.745E+00
   20.300   1.731E+00
   20.400   1.716E+00
   20.500   1.701E+00
   20.600   1.684E+00
   20.700   1.666E+00
   20.800   1.648E+00
   20.900   1.628E+00
   21.000   1.608E+00
   21.100   1.587E+00
   21.200   1.566E+00
   21.300   1.544E+00
   21.400   1.523E+00
   21.500   1.500E+00
   21.600   1.478E+00
   21.700   1.456E+00
   21.800   1.434E+00
   21.900   1.412E+00
   22.000   1.390E+00
   22.100   1.368E+00
   22.200   1.346E+00
   22.300   1.325E+00
   22.400   1.304E+00
   22.500   1.283E+00
   22.600   1.263E+00
   22.700   1.243E+00
   22.800   1.223E+00
   22.900   1.203E+00
   23.000   1.184E+00
   23.100   1.166E+00
   23.200   1.147E+00
   23.300   1.129E+00
   23.400   1.112E+00
   23.500   1.095E+00
   23.600   1.078E+00
   23.700   1.062E+00
   23.800   1.046E+00
   23.900   1.030E+00
   24.000   1.015E+00
   24.100   1.000E+00
   24.200   9.855E-01
   24.300   9.713E-01
   24.400   9.573E-01
   24.500   9.436E-01
   24.600   9.301E-01
   24.700   9.168E-01
   24.800   9.037E-01
   24.900   8.906E-01
   25.000   8.777E-01
   25.100   8.648E-01
   25.200   8.520E-01
   25.300   8.393E-01
   25.400   8.266E-01
   25.500   8.139E-01
   25.600   8.012E-01
   25.700   7.886E-01
   25.800   7.761E-01
   25.900   7.636E-01
   26.000   7.512E-01
   26.100   7.389E-01
   26.200   7.267E-01
   26.300   7.147E-01
   26.400   7.029E-01
   26.500   6.912E-01
   26.600   6.797E-01
   26.700   6.685E-01
   26.800   6.575E-01
   26.900   6.467E-01
   27.000   6.362E-01
   27.100   6.259E-01
   27.200   6.159E-01
   27.300   6.062E-01
   27.400   5.967E-01
   27.500   5.875E-01
   27.600   5.785E-01
   27.700   5.698E-01
   27.800   5.613E-01
   27.900   5.531E-01
   28.000   5.451E-01
   28.100   5.373E-01
   28.200   5.298E-01
   28.300   5.224E-01
   28.400   5.152E-01
   28.500   5.083E-01
   28.600   5.015E-01
   28.700   4.948E-01
   28.800   4.883E-01
   28.900   4.820E-01
   29.000   4.759E-01
   29.100   4.698E-01
   29.200   4.640E-01
   29.300   4.582E-01
   29.400   4.527E-01
   29.500   4.472E-01
   29.600   4.419E-01
   29.700   4.368E-01
   29.800   4.317E-01
   29.900   4.268E-01
   30.000   4.220E-01
 
 Z=  15 A=  31 P 
  U[MeV]  fE1[mb/MeV]
    0.100   7.432E-06
    0.200   2.974E-05
    0.300   6.693E-05
    0.400   1.190E-04
    0.500   1.861E-04
    0.600   2.682E-04
    0.700   3.654E-04
    0.800   4.778E-04
    0.900   6.054E-04
    1.000   7.485E-04
    1.100   9.070E-04
    1.200   1.081E-03
    1.300   1.271E-03
    1.400   1.477E-03
    1.500   1.699E-03
    1.600   1.938E-03
    1.700   2.192E-03
    1.800   2.464E-03
    1.900   2.753E-03
    2.000   3.059E-03
    2.100   3.382E-03
    2.200   3.724E-03
    2.300   4.083E-03
    2.400   4.461E-03
    2.500   4.858E-03
    2.600   5.274E-03
    2.700   5.709E-03
    2.800   6.165E-03
    2.900   6.641E-03
    3.000   7.138E-03
    3.100   7.656E-03
    3.200   8.196E-03
    3.300   8.758E-03
    3.400   9.344E-03
    3.500   9.953E-03
    3.600   1.059E-02
    3.700   1.124E-02
    3.800   1.193E-02
    3.900   1.264E-02
    4.000   1.337E-02
    4.100   1.414E-02
    4.200   1.493E-02
    4.300   1.575E-02
    4.400   1.660E-02
    4.500   1.749E-02
    4.600   1.840E-02
    4.700   1.935E-02
    4.800   2.034E-02
    4.900   2.136E-02
    5.000   2.241E-02
    5.100   2.351E-02
    5.200   2.464E-02
    5.300   2.582E-02
    5.400   2.703E-02
    5.500   2.830E-02
    5.600   2.960E-02
    5.700   3.096E-02
    5.800   3.236E-02
    5.900   3.382E-02
    6.000   3.532E-02
    6.100   3.689E-02
    6.200   3.851E-02
    6.300   4.019E-02
    6.400   4.193E-02
    6.500   4.374E-02
    6.600   4.562E-02
    6.700   4.757E-02
    6.800   4.959E-02
    6.900   5.169E-02
    7.000   5.387E-02
    7.100   5.614E-02
    7.200   5.849E-02
    7.300   6.094E-02
    7.400   6.348E-02
    7.500   6.612E-02
    7.600   6.888E-02
    7.700   7.174E-02
    7.800   7.472E-02
    7.900   7.782E-02
    8.000   8.105E-02
    8.100   8.442E-02
    8.200   8.793E-02
    8.300   9.158E-02
    8.400   9.540E-02
    8.500   9.937E-02
    8.600   1.035E-01
    8.700   1.078E-01
    8.800   1.124E-01
    8.900   1.171E-01
    9.000   1.220E-01
    9.100   1.271E-01
    9.200   1.325E-01
    9.300   1.380E-01
    9.400   1.439E-01
    9.500   1.499E-01
    9.600   1.563E-01
    9.700   1.629E-01
    9.800   1.697E-01
    9.900   1.769E-01
   10.000   1.843E-01
   10.100   1.920E-01
   10.200   2.000E-01
   10.300   2.083E-01
   10.400   2.169E-01
   10.500   2.258E-01
   10.600   2.350E-01
   10.700   2.444E-01
   10.800   2.542E-01
   10.900   2.642E-01
   11.000   2.745E-01
   11.100   2.850E-01
   11.200   2.958E-01
   11.300   3.069E-01
   11.400   3.183E-01
   11.500   3.299E-01
   11.600   3.418E-01
   11.700   3.541E-01
   11.800   3.666E-01
   11.900   3.795E-01
   12.000   3.929E-01
   12.100   4.066E-01
   12.200   4.207E-01
   12.300   4.354E-01
   12.400   4.505E-01
   12.500   4.663E-01
   12.600   4.826E-01
   12.700   4.995E-01
   12.800   5.171E-01
   12.900   5.353E-01
   13.000   5.543E-01
   13.100   5.741E-01
   13.200   5.946E-01
   13.300   6.159E-01
   13.400   6.380E-01
   13.500   6.610E-01
   13.600   6.848E-01
   13.700   7.096E-01
   13.800   7.354E-01
   13.900   7.620E-01
   14.000   7.897E-01
   14.100   8.184E-01
   14.200   8.480E-01
   14.300   8.787E-01
   14.400   9.104E-01
   14.500   9.430E-01
   14.600   9.766E-01
   14.700   1.011E+00
   14.800   1.046E+00
   14.900   1.082E+00
   15.000   1.119E+00
   15.100   1.156E+00
   15.200   1.194E+00
   15.300   1.232E+00
   15.400   1.270E+00
   15.500   1.308E+00
   15.600   1.346E+00
   15.700   1.384E+00
   15.800   1.421E+00
   15.900   1.457E+00
   16.000   1.493E+00
   16.100   1.528E+00
   16.200   1.563E+00
   16.300   1.596E+00
   16.400   1.628E+00
   16.500   1.659E+00
   16.600   1.688E+00
   16.700   1.717E+00
   16.800   1.744E+00
   16.900   1.770E+00
   17.000   1.794E+00
   17.100   1.817E+00
   17.200   1.839E+00
   17.300   1.859E+00
   17.400   1.878E+00
   17.500   1.895E+00
   17.600   1.911E+00
   17.700   1.926E+00
   17.800   1.939E+00
   17.900   1.951E+00
   18.000   1.962E+00
   18.100   1.972E+00
   18.200   1.980E+00
   18.300   1.987E+00
   18.400   1.992E+00
   18.500   1.996E+00
   18.600   1.999E+00
   18.700   2.001E+00
   18.800   2.001E+00
   18.900   2.000E+00
   19.000   1.998E+00
   19.100   1.994E+00
   19.200   1.989E+00
   19.300   1.982E+00
   19.400   1.974E+00
   19.500   1.965E+00
   19.600   1.954E+00
   19.700   1.942E+00
   19.800   1.928E+00
   19.900   1.913E+00
   20.000   1.897E+00
   20.100   1.879E+00
   20.200   1.860E+00
   20.300   1.839E+00
   20.400   1.818E+00
   20.500   1.795E+00
   20.600   1.771E+00
   20.700   1.747E+00
   20.800   1.722E+00
   20.900   1.696E+00
   21.000   1.670E+00
   21.100   1.644E+00
   21.200   1.617E+00
   21.300   1.590E+00
   21.400   1.564E+00
   21.500   1.537E+00
   21.600   1.511E+00
   21.700   1.485E+00
   21.800   1.460E+00
   21.900   1.435E+00
   22.000   1.411E+00
   22.100   1.387E+00
   22.200   1.363E+00
   22.300   1.341E+00
   22.400   1.318E+00
   22.500   1.297E+00
   22.600   1.276E+00
   22.700   1.255E+00
   22.800   1.235E+00
   22.900   1.215E+00
   23.000   1.196E+00
   23.100   1.177E+00
   23.200   1.158E+00
   23.300   1.140E+00
   23.400   1.121E+00
   23.500   1.104E+00
   23.600   1.086E+00
   23.700   1.069E+00
   23.800   1.052E+00
   23.900   1.035E+00
   24.000   1.019E+00
   24.100   1.003E+00
   24.200   9.871E-01
   24.300   9.716E-01
   24.400   9.565E-01
   24.500   9.418E-01
   24.600   9.274E-01
   24.700   9.134E-01
   24.800   8.998E-01
   24.900   8.865E-01
   25.000   8.737E-01
   25.100   8.613E-01
   25.200   8.492E-01
   25.300   8.375E-01
   25.400   8.262E-01
   25.500   8.153E-01
   25.600   8.046E-01
   25.700   7.943E-01
   25.800   7.842E-01
   25.900   7.744E-01
   26.000   7.648E-01
   26.100   7.554E-01
   26.200   7.462E-01
   26.300   7.370E-01
   26.400   7.280E-01
   26.500   7.190E-01
   26.600   7.101E-01
   26.700   7.013E-01
   26.800   6.924E-01
   26.900   6.836E-01
   27.000   6.747E-01
   27.100   6.659E-01
   27.200   6.570E-01
   27.300   6.482E-01
   27.400   6.393E-01
   27.500   6.305E-01
   27.600   6.216E-01
   27.700   6.129E-01
   27.800   6.041E-01
   27.900   5.954E-01
   28.000   5.868E-01
   28.100   5.782E-01
   28.200   5.697E-01
   28.300   5.613E-01
   28.400   5.530E-01
   28.500   5.447E-01
   28.600   5.365E-01
   28.700   5.285E-01
   28.800   5.205E-01
   28.900   5.127E-01
   29.000   5.049E-01
   29.100   4.973E-01
   29.200   4.898E-01
   29.300   4.824E-01
   29.400   4.752E-01
   29.500   4.681E-01
   29.600   4.611E-01
   29.700   4.543E-01
   29.800   4.476E-01
   29.900   4.409E-01
   30.000   4.344E-01
 
 Z=  15 A=  32 P 
  U[MeV]  fE1[mb/MeV]
    0.100   7.748E-06
    0.200   3.100E-05
    0.300   6.977E-05
    0.400   1.241E-04
    0.500   1.940E-04
    0.600   2.796E-04
    0.700   3.809E-04
    0.800   4.980E-04
    0.900   6.310E-04
    1.000   7.800E-04
    1.100   9.452E-04
    1.200   1.127E-03
    1.300   1.324E-03
    1.400   1.539E-03
    1.500   1.770E-03
    1.600   2.018E-03
    1.700   2.283E-03
    1.800   2.566E-03
    1.900   2.866E-03
    2.000   3.185E-03
    2.100   3.521E-03
    2.200   3.876E-03
    2.300   4.249E-03
    2.400   4.642E-03
    2.500   5.054E-03
    2.600   5.486E-03
    2.700   5.937E-03
    2.800   6.410E-03
    2.900   6.903E-03
    3.000   7.418E-03
    3.100   7.955E-03
    3.200   8.514E-03
    3.300   9.096E-03
    3.400   9.702E-03
    3.500   1.033E-02
    3.600   1.099E-02
    3.700   1.166E-02
    3.800   1.237E-02
    3.900   1.310E-02
    4.000   1.386E-02
    4.100   1.465E-02
    4.200   1.546E-02
    4.300   1.631E-02
    4.400   1.719E-02
    4.500   1.809E-02
    4.600   1.904E-02
    4.700   2.001E-02
    4.800   2.102E-02
    4.900   2.206E-02
    5.000   2.314E-02
    5.100   2.426E-02
    5.200   2.542E-02
    5.300   2.662E-02
    5.400   2.786E-02
    5.500   2.914E-02
    5.600   3.047E-02
    5.700   3.185E-02
    5.800   3.327E-02
    5.900   3.475E-02
    6.000   3.628E-02
    6.100   3.786E-02
    6.200   3.949E-02
    6.300   4.119E-02
    6.400   4.295E-02
    6.500   4.476E-02
    6.600   4.665E-02
    6.700   4.860E-02
    6.800   5.063E-02
    6.900   5.273E-02
    7.000   5.490E-02
    7.100   5.716E-02
    7.200   5.950E-02
    7.300   6.193E-02
    7.400   6.445E-02
    7.500   6.707E-02
    7.600   6.979E-02
    7.700   7.261E-02
    7.800   7.554E-02
    7.900   7.859E-02
    8.000   8.176E-02
    8.100   8.505E-02
    8.200   8.848E-02
    8.300   9.204E-02
    8.400   9.575E-02
    8.500   9.961E-02
    8.600   1.036E-01
    8.700   1.078E-01
    8.800   1.122E-01
    8.900   1.167E-01
    9.000   1.215E-01
    9.100   1.264E-01
    9.200   1.315E-01
    9.300   1.369E-01
    9.400   1.425E-01
    9.500   1.483E-01
    9.600   1.544E-01
    9.700   1.608E-01
    9.800   1.674E-01
    9.900   1.743E-01
   10.000   1.815E-01
   10.100   1.889E-01
   10.200   1.967E-01
   10.300   2.048E-01
   10.400   2.133E-01
   10.500   2.220E-01
   10.600   2.311E-01
   10.700   2.405E-01
   10.800   2.503E-01
   10.900   2.604E-01
   11.000   2.709E-01
   11.100   2.818E-01
   11.200   2.929E-01
   11.300   3.045E-01
   11.400   3.164E-01
   11.500   3.287E-01
   11.600   3.413E-01
   11.700   3.543E-01
   11.800   3.678E-01
   11.900   3.816E-01
   12.000   3.959E-01
   12.100   4.107E-01
   12.200   4.259E-01
   12.300   4.417E-01
   12.400   4.580E-01
   12.500   4.748E-01
   12.600   4.924E-01
   12.700   5.105E-01
   12.800   5.294E-01
   12.900   5.490E-01
   13.000   5.693E-01
   13.100   5.905E-01
   13.200   6.126E-01
   13.300   6.355E-01
   13.400   6.593E-01
   13.500   6.841E-01
   13.600   7.098E-01
   13.700   7.366E-01
   13.800   7.644E-01
   13.900   7.932E-01
   14.000   8.232E-01
   14.100   8.542E-01
   14.200   8.863E-01
   14.300   9.195E-01
   14.400   9.538E-01
   14.500   9.892E-01
   14.600   1.026E+00
   14.700   1.063E+00
   14.800   1.101E+00
   14.900   1.140E+00
   15.000   1.180E+00
   15.100   1.221E+00
   15.200   1.262E+00
   15.300   1.304E+00
   15.400   1.346E+00
   15.500   1.388E+00
   15.600   1.430E+00
   15.700   1.473E+00
   15.800   1.516E+00
   15.900   1.558E+00
   16.000   1.600E+00
   16.100   1.642E+00
   16.200   1.683E+00
   16.300   1.723E+00
   16.400   1.762E+00
   16.500   1.800E+00
   16.600   1.837E+00
   16.700   1.873E+00
   16.800   1.907E+00
   16.900   1.939E+00
   17.000   1.969E+00
   17.100   1.997E+00
   17.200   2.023E+00
   17.300   2.046E+00
   17.400   2.068E+00
   17.500   2.087E+00
   17.600   2.104E+00
   17.700   2.119E+00
   17.800   2.132E+00
   17.900   2.143E+00
   18.000   2.152E+00
   18.100   2.159E+00
   18.200   2.165E+00
   18.300   2.169E+00
   18.400   2.172E+00
   18.500   2.174E+00
   18.600   2.175E+00
   18.700   2.174E+00
   18.800   2.173E+00
   18.900   2.170E+00
   19.000   2.166E+00
   19.100   2.161E+00
   19.200   2.154E+00
   19.300   2.146E+00
   19.400   2.137E+00
   19.500   2.125E+00
   19.600   2.112E+00
   19.700   2.097E+00
   19.800   2.080E+00
   19.900   2.061E+00
   20.000   2.041E+00
   20.100   2.018E+00
   20.200   1.993E+00
   20.300   1.967E+00
   20.400   1.940E+00
   20.500   1.911E+00
   20.600   1.881E+00
   20.700   1.850E+00
   20.800   1.818E+00
   20.900   1.786E+00
   21.000   1.753E+00
   21.100   1.721E+00
   21.200   1.688E+00
   21.300   1.656E+00
   21.400   1.625E+00
   21.500   1.594E+00
   21.600   1.563E+00
   21.700   1.534E+00
   21.800   1.506E+00
   21.900   1.478E+00
   22.000   1.452E+00
   22.100   1.426E+00
   22.200   1.401E+00
   22.300   1.378E+00
   22.400   1.355E+00
   22.500   1.333E+00
   22.600   1.311E+00
   22.700   1.291E+00
   22.800   1.271E+00
   22.900   1.251E+00
   23.000   1.232E+00
   23.100   1.213E+00
   23.200   1.194E+00
   23.300   1.176E+00
   23.400   1.158E+00
   23.500   1.140E+00
   23.600   1.123E+00
   23.700   1.105E+00
   23.800   1.088E+00
   23.900   1.071E+00
   24.000   1.054E+00
   24.100   1.038E+00
   24.200   1.022E+00
   24.300   1.006E+00
   24.400   9.910E-01
   24.500   9.761E-01
   24.600   9.617E-01
   24.700   9.478E-01
   24.800   9.344E-01
   24.900   9.214E-01
   25.000   9.090E-01
   25.100   8.970E-01
   25.200   8.856E-01
   25.300   8.745E-01
   25.400   8.639E-01
   25.500   8.537E-01
   25.600   8.438E-01
   25.700   8.342E-01
   25.800   8.249E-01
   25.900   8.158E-01
   26.000   8.069E-01
   26.100   7.980E-01
   26.200   7.892E-01
   26.300   7.805E-01
   26.400   7.717E-01
   26.500   7.628E-01
   26.600   7.539E-01
   26.700   7.448E-01
   26.800   7.356E-01
   26.900   7.263E-01
   27.000   7.168E-01
   27.100   7.072E-01
   27.200   6.974E-01
   27.300   6.874E-01
   27.400   6.774E-01
   27.500   6.673E-01
   27.600   6.572E-01
   27.700   6.470E-01
   27.800   6.368E-01
   27.900   6.267E-01
   28.000   6.167E-01
   28.100   6.069E-01
   28.200   5.971E-01
   28.300   5.876E-01
   28.400   5.782E-01
   28.500   5.691E-01
   28.600   5.602E-01
   28.700   5.515E-01
   28.800   5.431E-01
   28.900   5.349E-01
   29.000   5.269E-01
   29.100   5.192E-01
   29.200   5.116E-01
   29.300   5.043E-01
   29.400   4.971E-01
   29.500   4.900E-01
   29.600   4.830E-01
   29.700   4.761E-01
   29.800   4.693E-01
   29.900   4.625E-01
   30.000   4.558E-01
 
 Z=  15 A=  33 P 
  U[MeV]  fE1[mb/MeV]
    0.100   7.900E-06
    0.200   3.161E-05
    0.300   7.114E-05
    0.400   1.265E-04
    0.500   1.978E-04
    0.600   2.851E-04
    0.700   3.884E-04
    0.800   5.078E-04
    0.900   6.435E-04
    1.000   7.955E-04
    1.100   9.640E-04
    1.200   1.149E-03
    1.300   1.351E-03
    1.400   1.570E-03
    1.500   1.806E-03
    1.600   2.059E-03
    1.700   2.330E-03
    1.800   2.618E-03
    1.900   2.925E-03
    2.000   3.250E-03
    2.100   3.594E-03
    2.200   3.956E-03
    2.300   4.338E-03
    2.400   4.739E-03
    2.500   5.161E-03
    2.600   5.602E-03
    2.700   6.064E-03
    2.800   6.548E-03
    2.900   7.053E-03
    3.000   7.580E-03
    3.100   8.130E-03
    3.200   8.703E-03
    3.300   9.300E-03
    3.400   9.921E-03
    3.500   1.057E-02
    3.600   1.124E-02
    3.700   1.194E-02
    3.800   1.266E-02
    3.900   1.341E-02
    4.000   1.419E-02
    4.100   1.500E-02
    4.200   1.584E-02
    4.300   1.671E-02
    4.400   1.762E-02
    4.500   1.855E-02
    4.600   1.952E-02
    4.700   2.053E-02
    4.800   2.157E-02
    4.900   2.265E-02
    5.000   2.377E-02
    5.100   2.493E-02
    5.200   2.613E-02
    5.300   2.737E-02
    5.400   2.866E-02
    5.500   3.000E-02
    5.600   3.138E-02
    5.700   3.281E-02
    5.800   3.430E-02
    5.900   3.584E-02
    6.000   3.743E-02
    6.100   3.908E-02
    6.200   4.080E-02
    6.300   4.258E-02
    6.400   4.442E-02
    6.500   4.633E-02
    6.600   4.832E-02
    6.700   5.038E-02
    6.800   5.251E-02
    6.900   5.473E-02
    7.000   5.704E-02
    7.100   5.943E-02
    7.200   6.191E-02
    7.300   6.450E-02
    7.400   6.718E-02
    7.500   6.998E-02
    7.600   7.288E-02
    7.700   7.590E-02
    7.800   7.904E-02
    7.900   8.231E-02
    8.000   8.571E-02
    8.100   8.926E-02
    8.200   9.295E-02
    8.300   9.679E-02
    8.400   1.008E-01
    8.500   1.050E-01
    8.600   1.093E-01
    8.700   1.138E-01
    8.800   1.185E-01
    8.900   1.234E-01
    9.000   1.286E-01
    9.100   1.339E-01
    9.200   1.394E-01
    9.300   1.452E-01
    9.400   1.512E-01
    9.500   1.575E-01
    9.600   1.640E-01
    9.700   1.708E-01
    9.800   1.778E-01
    9.900   1.851E-01
   10.000   1.927E-01
   10.100   2.006E-01
   10.200   2.088E-01
   10.300   2.173E-01
   10.400   2.261E-01
   10.500   2.353E-01
   10.600   2.447E-01
   10.700   2.544E-01
   10.800   2.645E-01
   10.900   2.748E-01
   11.000   2.855E-01
   11.100   2.965E-01
   11.200   3.078E-01
   11.300   3.194E-01
   11.400   3.313E-01
   11.500   3.435E-01
   11.600   3.560E-01
   11.700   3.688E-01
   11.800   3.819E-01
   11.900   3.953E-01
   12.000   4.091E-01
   12.100   4.231E-01
   12.200   4.375E-01
   12.300   4.522E-01
   12.400   4.673E-01
   12.500   4.828E-01
   12.600   4.988E-01
   12.700   5.152E-01
   12.800   5.321E-01
   12.900   5.496E-01
   13.000   5.677E-01
   13.100   5.864E-01
   13.200   6.059E-01
   13.300   6.262E-01
   13.400   6.473E-01
   13.500   6.693E-01
   13.600   6.923E-01
   13.700   7.164E-01
   13.800   7.416E-01
   13.900   7.680E-01
   14.000   7.957E-01
   14.100   8.248E-01
   14.200   8.553E-01
   14.300   8.873E-01
   14.400   9.209E-01
   14.500   9.561E-01
   14.600   9.929E-01
   14.700   1.031E+00
   14.800   1.072E+00
   14.900   1.114E+00
   15.000   1.157E+00
   15.100   1.203E+00
   15.200   1.249E+00
   15.300   1.298E+00
   15.400   1.348E+00
   15.500   1.399E+00
   15.600   1.451E+00
   15.700   1.504E+00
   15.800   1.558E+00
   15.900   1.612E+00
   16.000   1.667E+00
   16.100   1.722E+00
   16.200   1.776E+00
   16.300   1.830E+00
   16.400   1.883E+00
   16.500   1.935E+00
   16.600   1.986E+00
   16.700   2.036E+00
   16.800   2.083E+00
   16.900   2.129E+00
   17.000   2.172E+00
   17.100   2.213E+00
   17.200   2.251E+00
   17.300   2.287E+00
   17.400   2.319E+00
   17.500   2.349E+00
   17.600   2.375E+00
   17.700   2.398E+00
   17.800   2.417E+00
   17.900   2.433E+00
   18.000   2.445E+00
   18.100   2.454E+00
   18.200   2.459E+00
   18.300   2.460E+00
   18.400   2.459E+00
   18.500   2.454E+00
   18.600   2.446E+00
   18.700   2.436E+00
   18.800   2.423E+00
   18.900   2.407E+00
   19.000   2.390E+00
   19.100   2.370E+00
   19.200   2.349E+00
   19.300   2.326E+00
   19.400   2.302E+00
   19.500   2.276E+00
   19.600   2.250E+00
   19.700   2.222E+00
   19.800   2.193E+00
   19.900   2.164E+00
   20.000   2.134E+00
   20.100   2.103E+00
   20.200   2.072E+00
   20.300   2.041E+00
   20.400   2.009E+00
   20.500   1.977E+00
   20.600   1.946E+00
   20.700   1.914E+00
   20.800   1.883E+00
   20.900   1.851E+00
   21.000   1.820E+00
   21.100   1.790E+00
   21.200   1.759E+00
   21.300   1.729E+00
   21.400   1.700E+00
   21.500   1.670E+00
   21.600   1.641E+00
   21.700   1.613E+00
   21.800   1.585E+00
   21.900   1.557E+00
   22.000   1.530E+00
   22.100   1.503E+00
   22.200   1.477E+00
   22.300   1.451E+00
   22.400   1.425E+00
   22.500   1.400E+00
   22.600   1.375E+00
   22.700   1.351E+00
   22.800   1.327E+00
   22.900   1.304E+00
   23.000   1.281E+00
   23.100   1.259E+00
   23.200   1.237E+00
   23.300   1.216E+00
   23.400   1.195E+00
   23.500   1.175E+00
   23.600   1.155E+00
   23.700   1.136E+00
   23.800   1.117E+00
   23.900   1.099E+00
   24.000   1.081E+00
   24.100   1.064E+00
   24.200   1.048E+00
   24.300   1.032E+00
   24.400   1.017E+00
   24.500   1.002E+00
   24.600   9.876E-01
   24.700   9.738E-01
   24.800   9.604E-01
   24.900   9.474E-01
   25.000   9.349E-01
   25.100   9.228E-01
   25.200   9.111E-01
   25.300   8.998E-01
   25.400   8.888E-01
   25.500   8.781E-01
   25.600   8.678E-01
   25.700   8.577E-01
   25.800   8.479E-01
   25.900   8.383E-01
   26.000   8.290E-01
   26.100   8.198E-01
   26.200   8.108E-01
   26.300   8.018E-01
   26.400   7.929E-01
   26.500   7.839E-01
   26.600   7.750E-01
   26.700   7.660E-01
   26.800   7.568E-01
   26.900   7.476E-01
   27.000   7.381E-01
   27.100   7.286E-01
   27.200   7.188E-01
   27.300   7.089E-01
   27.400   6.989E-01
   27.500   6.887E-01
   27.600   6.785E-01
   27.700   6.682E-01
   27.800   6.579E-01
   27.900   6.475E-01
   28.000   6.372E-01
   28.100   6.269E-01
   28.200   6.167E-01
   28.300   6.066E-01
   28.400   5.966E-01
   28.500   5.867E-01
   28.600   5.770E-01
   28.700   5.673E-01
   28.800   5.578E-01
   28.900   5.483E-01
   29.000   5.390E-01
   29.100   5.297E-01
   29.200   5.206E-01
   29.300   5.115E-01
   29.400   5.025E-01
   29.500   4.936E-01
   29.600   4.848E-01
   29.700   4.760E-01
   29.800   4.674E-01
   29.900   4.589E-01
   30.000   4.505E-01
 
 Z=  15 A=  34 P 
  U[MeV]  fE1[mb/MeV]
    0.100   7.356E-06
    0.200   2.943E-05
    0.300   6.624E-05
    0.400   1.178E-04
    0.500   1.842E-04
    0.600   2.655E-04
    0.700   3.618E-04
    0.800   4.731E-04
    0.900   5.996E-04
    1.000   7.413E-04
    1.100   8.985E-04
    1.200   1.071E-03
    1.300   1.260E-03
    1.400   1.464E-03
    1.500   1.685E-03
    1.600   1.921E-03
    1.700   2.175E-03
    1.800   2.445E-03
    1.900   2.732E-03
    2.000   3.037E-03
    2.100   3.360E-03
    2.200   3.700E-03
    2.300   4.059E-03
    2.400   4.436E-03
    2.500   4.833E-03
    2.600   5.249E-03
    2.700   5.686E-03
    2.800   6.142E-03
    2.900   6.620E-03
    3.000   7.119E-03
    3.100   7.640E-03
    3.200   8.184E-03
    3.300   8.752E-03
    3.400   9.343E-03
    3.500   9.959E-03
    3.600   1.060E-02
    3.700   1.127E-02
    3.800   1.196E-02
    3.900   1.268E-02
    4.000   1.343E-02
    4.100   1.422E-02
    4.200   1.503E-02
    4.300   1.587E-02
    4.400   1.675E-02
    4.500   1.766E-02
    4.600   1.860E-02
    4.700   1.959E-02
    4.800   2.061E-02
    4.900   2.167E-02
    5.000   2.277E-02
    5.100   2.391E-02
    5.200   2.510E-02
    5.300   2.634E-02
    5.400   2.763E-02
    5.500   2.897E-02
    5.600   3.036E-02
    5.700   3.180E-02
    5.800   3.331E-02
    5.900   3.487E-02
    6.000   3.651E-02
    6.100   3.820E-02
    6.200   3.997E-02
    6.300   4.182E-02
    6.400   4.374E-02
    6.500   4.575E-02
    6.600   4.784E-02
    6.700   5.002E-02
    6.800   5.230E-02
    6.900   5.468E-02
    7.000   5.717E-02
    7.100   5.977E-02
    7.200   6.249E-02
    7.300   6.533E-02
    7.400   6.831E-02
    7.500   7.142E-02
    7.600   7.468E-02
    7.700   7.810E-02
    7.800   8.167E-02
    7.900   8.541E-02
    8.000   8.933E-02
    8.100   9.343E-02
    8.200   9.773E-02
    8.300   1.022E-01
    8.400   1.069E-01
    8.500   1.118E-01
    8.600   1.170E-01
    8.700   1.224E-01
    8.800   1.280E-01
    8.900   1.338E-01
    9.000   1.400E-01
    9.100   1.463E-01
    9.200   1.530E-01
    9.300   1.599E-01
    9.400   1.671E-01
    9.500   1.745E-01
    9.600   1.822E-01
    9.700   1.901E-01
    9.800   1.983E-01
    9.900   2.067E-01
   10.000   2.154E-01
   10.100   2.243E-01
   10.200   2.333E-01
   10.300   2.426E-01
   10.400   2.521E-01
   10.500   2.619E-01
   10.600   2.718E-01
   10.700   2.820E-01
   10.800   2.925E-01
   10.900   3.032E-01
   11.000   3.142E-01
   11.100   3.255E-01
   11.200   3.371E-01
   11.300   3.490E-01
   11.400   3.613E-01
   11.500   3.739E-01
   11.600   3.869E-01
   11.700   4.003E-01
   11.800   4.141E-01
   11.900   4.284E-01
   12.000   4.432E-01
   12.100   4.585E-01
   12.200   4.745E-01
   12.300   4.911E-01
   12.400   5.085E-01
   12.500   5.267E-01
   12.600   5.456E-01
   12.700   5.655E-01
   12.800   5.863E-01
   12.900   6.080E-01
   13.000   6.308E-01
   13.100   6.546E-01
   13.200   6.794E-01
   13.300   7.054E-01
   13.400   7.325E-01
   13.500   7.609E-01
   13.600   7.906E-01
   13.700   8.218E-01
   13.800   8.545E-01
   13.900   8.888E-01
   14.000   9.250E-01
   14.100   9.631E-01
   14.200   1.003E+00
   14.300   1.045E+00
   14.400   1.090E+00
   14.500   1.136E+00
   14.600   1.185E+00
   14.700   1.236E+00
   14.800   1.289E+00
   14.900   1.344E+00
   15.000   1.400E+00
   15.100   1.459E+00
   15.200   1.518E+00
   15.300   1.578E+00
   15.400   1.639E+00
   15.500   1.701E+00
   15.600   1.762E+00
   15.700   1.823E+00
   15.800   1.883E+00
   15.900   1.942E+00
   16.000   2.000E+00
   16.100   2.056E+00
   16.200   2.110E+00
   16.300   2.163E+00
   16.400   2.213E+00
   16.500   2.261E+00
   16.600   2.307E+00
   16.700   2.350E+00
   16.800   2.391E+00
   16.900   2.430E+00
   17.000   2.466E+00
   17.100   2.499E+00
   17.200   2.530E+00
   17.300   2.558E+00
   17.400   2.584E+00
   17.500   2.608E+00
   17.600   2.629E+00
   17.700   2.647E+00
   17.800   2.663E+00
   17.900   2.675E+00
   18.000   2.684E+00
   18.100   2.690E+00
   18.200   2.693E+00
   18.300   2.692E+00
   18.400   2.688E+00
   18.500   2.680E+00
   18.600   2.668E+00
   18.700   2.653E+00
   18.800   2.635E+00
   18.900   2.614E+00
   19.000   2.591E+00
   19.100   2.566E+00
   19.200   2.539E+00
   19.300   2.510E+00
   19.400   2.480E+00
   19.500   2.449E+00
   19.600   2.418E+00
   19.700   2.386E+00
   19.800   2.354E+00
   19.900   2.322E+00
   20.000   2.290E+00
   20.100   2.257E+00
   20.200   2.225E+00
   20.300   2.193E+00
   20.400   2.160E+00
   20.500   2.128E+00
   20.600   2.096E+00
   20.700   2.065E+00
   20.800   2.033E+00
   20.900   2.001E+00
   21.000   1.970E+00
   21.100   1.939E+00
   21.200   1.907E+00
   21.300   1.876E+00
   21.400   1.845E+00
   21.500   1.813E+00
   21.600   1.782E+00
   21.700   1.750E+00
   21.800   1.718E+00
   21.900   1.687E+00
   22.000   1.655E+00
   22.100   1.623E+00
   22.200   1.591E+00
   22.300   1.560E+00
   22.400   1.528E+00
   22.500   1.497E+00
   22.600   1.467E+00
   22.700   1.437E+00
   22.800   1.407E+00
   22.900   1.378E+00
   23.000   1.350E+00
   23.100   1.322E+00
   23.200   1.296E+00
   23.300   1.270E+00
   23.400   1.245E+00
   23.500   1.221E+00
   23.600   1.197E+00
   23.700   1.175E+00
   23.800   1.153E+00
   23.900   1.131E+00
   24.000   1.111E+00
   24.100   1.090E+00
   24.200   1.071E+00
   24.300   1.052E+00
   24.400   1.033E+00
   24.500   1.015E+00
   24.600   9.973E-01
   24.700   9.800E-01
   24.800   9.633E-01
   24.900   9.469E-01
   25.000   9.310E-01
   25.100   9.156E-01
   25.200   9.006E-01
   25.300   8.862E-01
   25.400   8.722E-01
   25.500   8.587E-01
   25.600   8.457E-01
   25.700   8.331E-01
   25.800   8.210E-01
   25.900   8.092E-01
   26.000   7.977E-01
   26.100   7.864E-01
   26.200   7.753E-01
   26.300   7.644E-01
   26.400   7.534E-01
   26.500   7.425E-01
   26.600   7.315E-01
   26.700   7.204E-01
   26.800   7.092E-01
   26.900   6.979E-01
   27.000   6.865E-01
   27.100   6.750E-01
   27.200   6.634E-01
   27.300   6.517E-01
   27.400   6.401E-01
   27.500   6.285E-01
   27.600   6.170E-01
   27.700   6.057E-01
   27.800   5.945E-01
   27.900   5.836E-01
   28.000   5.730E-01
   28.100   5.627E-01
   28.200   5.528E-01
   28.300   5.432E-01
   28.400   5.340E-01
   28.500   5.252E-01
   28.600   5.167E-01
   28.700   5.086E-01
   28.800   5.009E-01
   28.900   4.934E-01
   29.000   4.862E-01
   29.100   4.793E-01
   29.200   4.725E-01
   29.300   4.659E-01
   29.400   4.595E-01
   29.500   4.530E-01
   29.600   4.466E-01
   29.700   4.402E-01
   29.800   4.336E-01
   29.900   4.270E-01
   30.000   4.203E-01
 
 Z=  15 A=  35 P 
  U[MeV]  fE1[mb/MeV]
    0.100   7.603E-06
    0.200   3.042E-05
    0.300   6.847E-05
    0.400   1.218E-04
    0.500   1.904E-04
    0.600   2.745E-04
    0.700   3.740E-04
    0.800   4.890E-04
    0.900   6.197E-04
    1.000   7.662E-04
    1.100   9.286E-04
    1.200   1.107E-03
    1.300   1.302E-03
    1.400   1.513E-03
    1.500   1.741E-03
    1.600   1.986E-03
    1.700   2.248E-03
    1.800   2.527E-03
    1.900   2.824E-03
    2.000   3.138E-03
    2.100   3.471E-03
    2.200   3.823E-03
    2.300   4.194E-03
    2.400   4.583E-03
    2.500   4.993E-03
    2.600   5.423E-03
    2.700   5.873E-03
    2.800   6.345E-03
    2.900   6.838E-03
    3.000   7.353E-03
    3.100   7.891E-03
    3.200   8.452E-03
    3.300   9.037E-03
    3.400   9.647E-03
    3.500   1.028E-02
    3.600   1.094E-02
    3.700   1.163E-02
    3.800   1.235E-02
    3.900   1.309E-02
    4.000   1.387E-02
    4.100   1.467E-02
    4.200   1.551E-02
    4.300   1.637E-02
    4.400   1.728E-02
    4.500   1.821E-02
    4.600   1.919E-02
    4.700   2.020E-02
    4.800   2.125E-02
    4.900   2.234E-02
    5.000   2.347E-02
    5.100   2.465E-02
    5.200   2.587E-02
    5.300   2.714E-02
    5.400   2.846E-02
    5.500   2.984E-02
    5.600   3.126E-02
    5.700   3.275E-02
    5.800   3.429E-02
    5.900   3.590E-02
    6.000   3.757E-02
    6.100   3.931E-02
    6.200   4.112E-02
    6.300   4.301E-02
    6.400   4.497E-02
    6.500   4.702E-02
    6.600   4.916E-02
    6.700   5.139E-02
    6.800   5.372E-02
    6.900   5.615E-02
    7.000   5.869E-02
    7.100   6.135E-02
    7.200   6.413E-02
    7.300   6.703E-02
    7.400   7.007E-02
    7.500   7.325E-02
    7.600   7.658E-02
    7.700   8.007E-02
    7.800   8.372E-02
    7.900   8.755E-02
    8.000   9.157E-02
    8.100   9.577E-02
    8.200   1.002E-01
    8.300   1.048E-01
    8.400   1.096E-01
    8.500   1.147E-01
    8.600   1.200E-01
    8.700   1.256E-01
    8.800   1.314E-01
    8.900   1.375E-01
    9.000   1.439E-01
    9.100   1.505E-01
    9.200   1.575E-01
    9.300   1.647E-01
    9.400   1.722E-01
    9.500   1.800E-01
    9.600   1.882E-01
    9.700   1.965E-01
    9.800   2.052E-01
    9.900   2.141E-01
   10.000   2.233E-01
   10.100   2.327E-01
   10.200   2.423E-01
   10.300   2.522E-01
   10.400   2.622E-01
   10.500   2.724E-01
   10.600   2.828E-01
   10.700   2.933E-01
   10.800   3.041E-01
   10.900   3.151E-01
   11.000   3.263E-01
   11.100   3.377E-01
   11.200   3.493E-01
   11.300   3.613E-01
   11.400   3.735E-01
   11.500   3.861E-01
   11.600   3.990E-01
   11.700   4.123E-01
   11.800   4.261E-01
   11.900   4.403E-01
   12.000   4.552E-01
   12.100   4.706E-01
   12.200   4.867E-01
   12.300   5.036E-01
   12.400   5.214E-01
   12.500   5.400E-01
   12.600   5.596E-01
   12.700   5.803E-01
   12.800   6.021E-01
   12.900   6.251E-01
   13.000   6.494E-01
   13.100   6.749E-01
   13.200   7.017E-01
   13.300   7.300E-01
   13.400   7.597E-01
   13.500   7.909E-01
   13.600   8.237E-01
   13.700   8.581E-01
   13.800   8.943E-01
   13.900   9.324E-01
   14.000   9.723E-01
   14.100   1.014E+00
   14.200   1.058E+00
   14.300   1.105E+00
   14.400   1.153E+00
   14.500   1.204E+00
   14.600   1.257E+00
   14.700   1.313E+00
   14.800   1.370E+00
   14.900   1.429E+00
   15.000   1.490E+00
   15.100   1.553E+00
   15.200   1.617E+00
   15.300   1.681E+00
   15.400   1.746E+00
   15.500   1.812E+00
   15.600   1.877E+00
   15.700   1.942E+00
   15.800   2.006E+00
   15.900   2.069E+00
   16.000   2.131E+00
   16.100   2.192E+00
   16.200   2.251E+00
   16.300   2.309E+00
   16.400   2.365E+00
   16.500   2.420E+00
   16.600   2.472E+00
   16.700   2.522E+00
   16.800   2.570E+00
   16.900   2.615E+00
   17.000   2.657E+00
   17.100   2.696E+00
   17.200   2.732E+00
   17.300   2.764E+00
   17.400   2.793E+00
   17.500   2.817E+00
   17.600   2.838E+00
   17.700   2.854E+00
   17.800   2.866E+00
   17.900   2.875E+00
   18.000   2.879E+00
   18.100   2.879E+00
   18.200   2.876E+00
   18.300   2.869E+00
   18.400   2.859E+00
   18.500   2.847E+00
   18.600   2.832E+00
   18.700   2.814E+00
   18.800   2.795E+00
   18.900   2.774E+00
   19.000   2.752E+00
   19.100   2.728E+00
   19.200   2.703E+00
   19.300   2.676E+00
   19.400   2.649E+00
   19.500   2.620E+00
   19.600   2.589E+00
   19.700   2.558E+00
   19.800   2.525E+00
   19.900   2.491E+00
   20.000   2.456E+00
   20.100   2.420E+00
   20.200   2.383E+00
   20.300   2.345E+00
   20.400   2.307E+00
   20.500   2.268E+00
   20.600   2.229E+00
   20.700   2.190E+00
   20.800   2.150E+00
   20.900   2.111E+00
   21.000   2.072E+00
   21.100   2.034E+00
   21.200   1.996E+00
   21.300   1.958E+00
   21.400   1.921E+00
   21.500   1.884E+00
   21.600   1.848E+00
   21.700   1.812E+00
   21.800   1.777E+00
   21.900   1.742E+00
   22.000   1.708E+00
   22.100   1.674E+00
   22.200   1.641E+00
   22.300   1.609E+00
   22.400   1.577E+00
   22.500   1.546E+00
   22.600   1.516E+00
   22.700   1.487E+00
   22.800   1.459E+00
   22.900   1.431E+00
   23.000   1.404E+00
   23.100   1.377E+00
   23.200   1.352E+00
   23.300   1.326E+00
   23.400   1.301E+00
   23.500   1.276E+00
   23.600   1.252E+00
   23.700   1.228E+00
   23.800   1.204E+00
   23.900   1.180E+00
   24.000   1.157E+00
   24.100   1.134E+00
   24.200   1.111E+00
   24.300   1.089E+00
   24.400   1.067E+00
   24.500   1.046E+00
   24.600   1.025E+00
   24.700   1.004E+00
   24.800   9.848E-01
   24.900   9.658E-01
   25.000   9.474E-01
   25.100   9.297E-01
   25.200   9.126E-01
   25.300   8.961E-01
   25.400   8.802E-01
   25.500   8.649E-01
   25.600   8.501E-01
   25.700   8.357E-01
   25.800   8.217E-01
   25.900   8.080E-01
   26.000   7.946E-01
   26.100   7.813E-01
   26.200   7.682E-01
   26.300   7.551E-01
   26.400   7.421E-01
   26.500   7.291E-01
   26.600   7.161E-01
   26.700   7.032E-01
   26.800   6.903E-01
   26.900   6.774E-01
   27.000   6.648E-01
   27.100   6.523E-01
   27.200   6.400E-01
   27.300   6.280E-01
   27.400   6.163E-01
   27.500   6.049E-01
   27.600   5.939E-01
   27.700   5.832E-01
   27.800   5.729E-01
   27.900   5.630E-01
   28.000   5.534E-01
   28.100   5.441E-01
   28.200   5.352E-01
   28.300   5.266E-01
   28.400   5.183E-01
   28.500   5.102E-01
   28.600   5.024E-01
   28.700   4.948E-01
   28.800   4.874E-01
   28.900   4.802E-01
   29.000   4.731E-01
   29.100   4.661E-01
   29.200   4.593E-01
   29.300   4.526E-01
   29.400   4.460E-01
   29.500   4.395E-01
   29.600   4.331E-01
   29.700   4.267E-01
   29.800   4.204E-01
   29.900   4.141E-01
   30.000   4.078E-01
 
 Z=  15 A=  36 P 
  U[MeV]  fE1[mb/MeV]
    0.100   8.437E-06
    0.200   3.376E-05
    0.300   7.598E-05
    0.400   1.351E-04
    0.500   2.113E-04
    0.600   3.046E-04
    0.700   4.150E-04
    0.800   5.426E-04
    0.900   6.877E-04
    1.000   8.502E-04
    1.100   1.030E-03
    1.200   1.229E-03
    1.300   1.445E-03
    1.400   1.679E-03
    1.500   1.932E-03
    1.600   2.203E-03
    1.700   2.494E-03
    1.800   2.804E-03
    1.900   3.133E-03
    2.000   3.482E-03
    2.100   3.852E-03
    2.200   4.242E-03
    2.300   4.653E-03
    2.400   5.085E-03
    2.500   5.539E-03
    2.600   6.016E-03
    2.700   6.516E-03
    2.800   7.039E-03
    2.900   7.585E-03
    3.000   8.157E-03
    3.100   8.753E-03
    3.200   9.376E-03
    3.300   1.002E-02
    3.400   1.070E-02
    3.500   1.140E-02
    3.600   1.214E-02
    3.700   1.290E-02
    3.800   1.369E-02
    3.900   1.452E-02
    4.000   1.538E-02
    4.100   1.627E-02
    4.200   1.719E-02
    4.300   1.816E-02
    4.400   1.915E-02
    4.500   2.019E-02
    4.600   2.127E-02
    4.700   2.239E-02
    4.800   2.355E-02
    4.900   2.476E-02
    5.000   2.601E-02
    5.100   2.732E-02
    5.200   2.867E-02
    5.300   3.007E-02
    5.400   3.153E-02
    5.500   3.305E-02
    5.600   3.463E-02
    5.700   3.626E-02
    5.800   3.797E-02
    5.900   3.974E-02
    6.000   4.158E-02
    6.100   4.350E-02
    6.200   4.550E-02
    6.300   4.758E-02
    6.400   4.974E-02
    6.500   5.200E-02
    6.600   5.435E-02
    6.700   5.680E-02
    6.800   5.935E-02
    6.900   6.202E-02
    7.000   6.480E-02
    7.100   6.771E-02
    7.200   7.074E-02
    7.300   7.391E-02
    7.400   7.723E-02
    7.500   8.069E-02
    7.600   8.431E-02
    7.700   8.810E-02
    7.800   9.206E-02
    7.900   9.621E-02
    8.000   1.006E-01
    8.100   1.051E-01
    8.200   1.098E-01
    8.300   1.148E-01
    8.400   1.200E-01
    8.500   1.254E-01
    8.600   1.311E-01
    8.700   1.371E-01
    8.800   1.433E-01
    8.900   1.497E-01
    9.000   1.565E-01
    9.100   1.636E-01
    9.200   1.709E-01
    9.300   1.785E-01
    9.400   1.865E-01
    9.500   1.947E-01
    9.600   2.033E-01
    9.700   2.121E-01
    9.800   2.212E-01
    9.900   2.306E-01
   10.000   2.403E-01
   10.100   2.503E-01
   10.200   2.605E-01
   10.300   2.709E-01
   10.400   2.816E-01
   10.500   2.924E-01
   10.600   3.035E-01
   10.700   3.148E-01
   10.800   3.263E-01
   10.900   3.380E-01
   11.000   3.499E-01
   11.100   3.621E-01
   11.200   3.745E-01
   11.300   3.872E-01
   11.400   4.002E-01
   11.500   4.136E-01
   11.600   4.274E-01
   11.700   4.416E-01
   11.800   4.563E-01
   11.900   4.716E-01
   12.000   4.874E-01
   12.100   5.040E-01
   12.200   5.212E-01
   12.300   5.393E-01
   12.400   5.582E-01
   12.500   5.781E-01
   12.600   5.990E-01
   12.700   6.211E-01
   12.800   6.443E-01
   12.900   6.687E-01
   13.000   6.945E-01
   13.100   7.217E-01
   13.200   7.504E-01
   13.300   7.807E-01
   13.400   8.125E-01
   13.500   8.461E-01
   13.600   8.814E-01
   13.700   9.185E-01
   13.800   9.576E-01
   13.900   9.986E-01
   14.000   1.042E+00
   14.100   1.086E+00
   14.200   1.133E+00
   14.300   1.182E+00
   14.400   1.233E+00
   14.500   1.286E+00
   14.600   1.340E+00
   14.700   1.396E+00
   14.800   1.454E+00
   14.900   1.512E+00
   15.000   1.571E+00
   15.100   1.631E+00
   15.200   1.691E+00
   15.300   1.751E+00
   15.400   1.811E+00
   15.500   1.869E+00
   15.600   1.927E+00
   15.700   1.984E+00
   15.800   2.039E+00
   15.900   2.093E+00
   16.000   2.145E+00
   16.100   2.195E+00
   16.200   2.244E+00
   16.300   2.290E+00
   16.400   2.335E+00
   16.500   2.378E+00
   16.600   2.419E+00
   16.700   2.457E+00
   16.800   2.494E+00
   16.900   2.528E+00
   17.000   2.559E+00
   17.100   2.589E+00
   17.200   2.616E+00
   17.300   2.641E+00
   17.400   2.663E+00
   17.500   2.683E+00
   17.600   2.701E+00
   17.700   2.717E+00
   17.800   2.730E+00
   17.900   2.742E+00
   18.000   2.751E+00
   18.100   2.757E+00
   18.200   2.762E+00
   18.300   2.765E+00
   18.400   2.765E+00
   18.500   2.764E+00
   18.600   2.761E+00
   18.700   2.756E+00
   18.800   2.749E+00
   18.900   2.740E+00
   19.000   2.729E+00
   19.100   2.716E+00
   19.200   2.701E+00
   19.300   2.685E+00
   19.400   2.666E+00
   19.500   2.645E+00
   19.600   2.622E+00
   19.700   2.598E+00
   19.800   2.572E+00
   19.900   2.544E+00
   20.000   2.515E+00
   20.100   2.485E+00
   20.200   2.453E+00
   20.300   2.421E+00
   20.400   2.388E+00
   20.500   2.355E+00
   20.600   2.321E+00
   20.700   2.287E+00
   20.800   2.252E+00
   20.900   2.218E+00
   21.000   2.184E+00
   21.100   2.150E+00
   21.200   2.116E+00
   21.300   2.082E+00
   21.400   2.049E+00
   21.500   2.016E+00
   21.600   1.984E+00
   21.700   1.951E+00
   21.800   1.920E+00
   21.900   1.888E+00
   22.000   1.857E+00
   22.100   1.826E+00
   22.200   1.796E+00
   22.300   1.767E+00
   22.400   1.738E+00
   22.500   1.710E+00
   22.600   1.682E+00
   22.700   1.655E+00
   22.800   1.628E+00
   22.900   1.602E+00
   23.000   1.576E+00
   23.100   1.551E+00
   23.200   1.525E+00
   23.300   1.499E+00
   23.400   1.474E+00
   23.500   1.448E+00
   23.600   1.422E+00
   23.700   1.396E+00
   23.800   1.369E+00
   23.900   1.343E+00
   24.000   1.317E+00
   24.100   1.291E+00
   24.200   1.265E+00
   24.300   1.240E+00
   24.400   1.215E+00
   24.500   1.190E+00
   24.600   1.166E+00
   24.700   1.142E+00
   24.800   1.119E+00
   24.900   1.097E+00
   25.000   1.075E+00
   25.100   1.053E+00
   25.200   1.033E+00
   25.300   1.013E+00
   25.400   9.930E-01
   25.500   9.739E-01
   25.600   9.553E-01
   25.700   9.372E-01
   25.800   9.195E-01
   25.900   9.022E-01
   26.000   8.852E-01
   26.100   8.685E-01
   26.200   8.522E-01
   26.300   8.361E-01
   26.400   8.202E-01
   26.500   8.046E-01
   26.600   7.892E-01
   26.700   7.740E-01
   26.800   7.591E-01
   26.900   7.443E-01
   27.000   7.298E-01
   27.100   7.156E-01
   27.200   7.016E-01
   27.300   6.879E-01
   27.400   6.746E-01
   27.500   6.617E-01
   27.600   6.491E-01
   27.700   6.369E-01
   27.800   6.252E-01
   27.900   6.139E-01
   28.000   6.030E-01
   28.100   5.925E-01
   28.200   5.824E-01
   28.300   5.727E-01
   28.400   5.634E-01
   28.500   5.543E-01
   28.600   5.456E-01
   28.700   5.372E-01
   28.800   5.290E-01
   28.900   5.210E-01
   29.000   5.132E-01
   29.100   5.056E-01
   29.200   4.982E-01
   29.300   4.909E-01
   29.400   4.838E-01
   29.500   4.768E-01
   29.600   4.700E-01
   29.700   4.633E-01
   29.800   4.567E-01
   29.900   4.502E-01
   30.000   4.439E-01
 
 Z=  15 A=  37 P 
  U[MeV]  fE1[mb/MeV]
    0.100   9.920E-06
    0.200   3.969E-05
    0.300   8.935E-05
    0.400   1.589E-04
    0.500   2.485E-04
    0.600   3.582E-04
    0.700   4.882E-04
    0.800   6.385E-04
    0.900   8.093E-04
    1.000   1.001E-03
    1.100   1.213E-03
    1.200   1.447E-03
    1.300   1.702E-03
    1.400   1.979E-03
    1.500   2.277E-03
    1.600   2.598E-03
    1.700   2.942E-03
    1.800   3.309E-03
    1.900   3.699E-03
    2.000   4.113E-03
    2.100   4.552E-03
    2.200   5.016E-03
    2.300   5.505E-03
    2.400   6.020E-03
    2.500   6.562E-03
    2.600   7.131E-03
    2.700   7.728E-03
    2.800   8.354E-03
    2.900   9.010E-03
    3.000   9.696E-03
    3.100   1.041E-02
    3.200   1.116E-02
    3.300   1.195E-02
    3.400   1.276E-02
    3.500   1.362E-02
    3.600   1.451E-02
    3.700   1.543E-02
    3.800   1.640E-02
    3.900   1.741E-02
    4.000   1.846E-02
    4.100   1.955E-02
    4.200   2.069E-02
    4.300   2.188E-02
    4.400   2.312E-02
    4.500   2.440E-02
    4.600   2.574E-02
    4.700   2.714E-02
    4.800   2.860E-02
    4.900   3.012E-02
    5.000   3.170E-02
    5.100   3.335E-02
    5.200   3.506E-02
    5.300   3.686E-02
    5.400   3.873E-02
    5.500   4.068E-02
    5.600   4.272E-02
    5.700   4.485E-02
    5.800   4.708E-02
    5.900   4.941E-02
    6.000   5.184E-02
    6.100   5.439E-02
    6.200   5.706E-02
    6.300   5.986E-02
    6.400   6.280E-02
    6.500   6.588E-02
    6.600   6.911E-02
    6.700   7.251E-02
    6.800   7.609E-02
    6.900   7.985E-02
    7.000   8.381E-02
    7.100   8.798E-02
    7.200   9.239E-02
    7.300   9.703E-02
    7.400   1.019E-01
    7.500   1.071E-01
    7.600   1.126E-01
    7.700   1.183E-01
    7.800   1.244E-01
    7.900   1.308E-01
    8.000   1.376E-01
    8.100   1.448E-01
    8.200   1.524E-01
    8.300   1.603E-01
    8.400   1.688E-01
    8.500   1.777E-01
    8.600   1.870E-01
    8.700   1.969E-01
    8.800   2.073E-01
    8.900   2.182E-01
    9.000   2.295E-01
    9.100   2.414E-01
    9.200   2.537E-01
    9.300   2.665E-01
    9.400   2.795E-01
    9.500   2.929E-01
    9.600   3.066E-01
    9.700   3.205E-01
    9.800   3.347E-01
    9.900   3.491E-01
   10.000   3.639E-01
   10.100   3.791E-01
   10.200   3.948E-01
   10.300   4.111E-01
   10.400   4.280E-01
   10.500   4.456E-01
   10.600   4.638E-01
   10.700   4.827E-01
   10.800   5.022E-01
   10.900   5.220E-01
   11.000   5.423E-01
   11.100   5.627E-01
   11.200   5.832E-01
   11.300   6.037E-01
   11.400   6.244E-01
   11.500   6.451E-01
   11.600   6.660E-01
   11.700   6.873E-01
   11.800   7.092E-01
   11.900   7.319E-01
   12.000   7.555E-01
   12.100   7.804E-01
   12.200   8.065E-01
   12.300   8.340E-01
   12.400   8.629E-01
   12.500   8.933E-01
   12.600   9.251E-01
   12.700   9.583E-01
   12.800   9.929E-01
   12.900   1.029E+00
   13.000   1.066E+00
   13.100   1.105E+00
   13.200   1.145E+00
   13.300   1.187E+00
   13.400   1.231E+00
   13.500   1.278E+00
   13.600   1.327E+00
   13.700   1.379E+00
   13.800   1.434E+00
   13.900   1.493E+00
   14.000   1.555E+00
   14.100   1.620E+00
   14.200   1.688E+00
   14.300   1.759E+00
   14.400   1.831E+00
   14.500   1.904E+00
   14.600   1.976E+00
   14.700   2.046E+00
   14.800   2.113E+00
   14.900   2.176E+00
   15.000   2.235E+00
   15.100   2.287E+00
   15.200   2.333E+00
   15.300   2.372E+00
   15.400   2.405E+00
   15.500   2.431E+00
   15.600   2.451E+00
   15.700   2.466E+00
   15.800   2.476E+00
   15.900   2.483E+00
   16.000   2.488E+00
   16.100   2.491E+00
   16.200   2.495E+00
   16.300   2.499E+00
   16.400   2.506E+00
   16.500   2.515E+00
   16.600   2.528E+00
   16.700   2.545E+00
   16.800   2.566E+00
   16.900   2.591E+00
   17.000   2.620E+00
   17.100   2.651E+00
   17.200   2.685E+00
   17.300   2.719E+00
   17.400   2.753E+00
   17.500   2.784E+00
   17.600   2.811E+00
   17.700   2.832E+00
   17.800   2.848E+00
   17.900   2.856E+00
   18.000   2.858E+00
   18.100   2.853E+00
   18.200   2.842E+00
   18.300   2.825E+00
   18.400   2.803E+00
   18.500   2.777E+00
   18.600   2.747E+00
   18.700   2.714E+00
   18.800   2.679E+00
   18.900   2.642E+00
   19.000   2.603E+00
   19.100   2.562E+00
   19.200   2.521E+00
   19.300   2.479E+00
   19.400   2.437E+00
   19.500   2.396E+00
   19.600   2.355E+00
   19.700   2.316E+00
   19.800   2.277E+00
   19.900   2.241E+00
   20.000   2.205E+00
   20.100   2.172E+00
   20.200   2.140E+00
   20.300   2.111E+00
   20.400   2.083E+00
   20.500   2.057E+00
   20.600   2.032E+00
   20.700   2.009E+00
   20.800   1.988E+00
   20.900   1.967E+00
   21.000   1.948E+00
   21.100   1.930E+00
   21.200   1.911E+00
   21.300   1.894E+00
   21.400   1.876E+00
   21.500   1.857E+00
   21.600   1.839E+00
   21.700   1.819E+00
   21.800   1.798E+00
   21.900   1.777E+00
   22.000   1.754E+00
   22.100   1.730E+00
   22.200   1.704E+00
   22.300   1.677E+00
   22.400   1.648E+00
   22.500   1.619E+00
   22.600   1.588E+00
   22.700   1.556E+00
   22.800   1.524E+00
   22.900   1.491E+00
   23.000   1.458E+00
   23.100   1.425E+00
   23.200   1.392E+00
   23.300   1.360E+00
   23.400   1.329E+00
   23.500   1.298E+00
   23.600   1.267E+00
   23.700   1.238E+00
   23.800   1.209E+00
   23.900   1.181E+00
   24.000   1.154E+00
   24.100   1.127E+00
   24.200   1.102E+00
   24.300   1.077E+00
   24.400   1.053E+00
   24.500   1.030E+00
   24.600   1.007E+00
   24.700   9.859E-01
   24.800   9.652E-01
   24.900   9.455E-01
   25.000   9.266E-01
   25.100   9.085E-01
   25.200   8.913E-01
   25.300   8.749E-01
   25.400   8.593E-01
   25.500   8.445E-01
   25.600   8.305E-01
   25.700   8.171E-01
   25.800   8.045E-01
   25.900   7.925E-01
   26.000   7.812E-01
   26.100   7.703E-01
   26.200   7.600E-01
   26.300   7.501E-01
   26.400   7.407E-01
   26.500   7.315E-01
   26.600   7.227E-01
   26.700   7.141E-01
   26.800   7.057E-01
   26.900   6.975E-01
   27.000   6.895E-01
   27.100   6.816E-01
   27.200   6.737E-01
   27.300   6.659E-01
   27.400   6.580E-01
   27.500   6.501E-01
   27.600   6.420E-01
   27.700   6.338E-01
   27.800   6.253E-01
   27.900   6.166E-01
   28.000   6.077E-01
   28.100   5.984E-01
   28.200   5.889E-01
   28.300   5.791E-01
   28.400   5.690E-01
   28.500   5.587E-01
   28.600   5.483E-01
   28.700   5.377E-01
   28.800   5.271E-01
   28.900   5.166E-01
   29.000   5.062E-01
   29.100   4.960E-01
   29.200   4.861E-01
   29.300   4.765E-01
   29.400   4.673E-01
   29.500   4.585E-01
   29.600   4.501E-01
   29.700   4.421E-01
   29.800   4.345E-01
   29.900   4.273E-01
   30.000   4.205E-01
 
 Z=  15 A=  38 P 
  U[MeV]  fE1[mb/MeV]
    0.100   1.097E-05
    0.200   4.389E-05
    0.300   9.879E-05
    0.400   1.757E-04
    0.500   2.748E-04
    0.600   3.962E-04
    0.700   5.399E-04
    0.800   7.062E-04
    0.900   8.952E-04
    1.000   1.107E-03
    1.100   1.342E-03
    1.200   1.601E-03
    1.300   1.884E-03
    1.400   2.190E-03
    1.500   2.521E-03
    1.600   2.877E-03
    1.700   3.259E-03
    1.800   3.666E-03
    1.900   4.099E-03
    2.000   4.559E-03
    2.100   5.047E-03
    2.200   5.562E-03
    2.300   6.106E-03
    2.400   6.680E-03
    2.500   7.283E-03
    2.600   7.918E-03
    2.700   8.584E-03
    2.800   9.283E-03
    2.900   1.002E-02
    3.000   1.078E-02
    3.100   1.158E-02
    3.200   1.242E-02
    3.300   1.330E-02
    3.400   1.422E-02
    3.500   1.518E-02
    3.600   1.618E-02
    3.700   1.722E-02
    3.800   1.831E-02
    3.900   1.944E-02
    4.000   2.063E-02
    4.100   2.186E-02
    4.200   2.315E-02
    4.300   2.450E-02
    4.400   2.590E-02
    4.500   2.736E-02
    4.600   2.889E-02
    4.700   3.048E-02
    4.800   3.214E-02
    4.900   3.388E-02
    5.000   3.569E-02
    5.100   3.758E-02
    5.200   3.955E-02
    5.300   4.162E-02
    5.400   4.378E-02
    5.500   4.603E-02
    5.600   4.839E-02
    5.700   5.087E-02
    5.800   5.346E-02
    5.900   5.617E-02
    6.000   5.902E-02
    6.100   6.201E-02
    6.200   6.515E-02
    6.300   6.845E-02
    6.400   7.192E-02
    6.500   7.557E-02
    6.600   7.941E-02
    6.700   8.347E-02
    6.800   8.775E-02
    6.900   9.227E-02
    7.000   9.705E-02
    7.100   1.021E-01
    7.200   1.075E-01
    7.300   1.131E-01
    7.400   1.191E-01
    7.500   1.255E-01
    7.600   1.323E-01
    7.700   1.394E-01
    7.800   1.471E-01
    7.900   1.551E-01
    8.000   1.637E-01
    8.100   1.728E-01
    8.200   1.825E-01
    8.300   1.928E-01
    8.400   2.038E-01
    8.500   2.154E-01
    8.600   2.277E-01
    8.700   2.408E-01
    8.800   2.546E-01
    8.900   2.691E-01
    9.000   2.844E-01
    9.100   3.005E-01
    9.200   3.171E-01
    9.300   3.344E-01
    9.400   3.522E-01
    9.500   3.705E-01
    9.600   3.891E-01
    9.700   4.082E-01
    9.800   4.277E-01
    9.900   4.475E-01
   10.000   4.676E-01
   10.100   4.882E-01
   10.200   5.090E-01
   10.300   5.300E-01
   10.400   5.511E-01
   10.500   5.723E-01
   10.600   5.933E-01
   10.700   6.140E-01
   10.800   6.345E-01
   10.900   6.547E-01
   11.000   6.746E-01
   11.100   6.945E-01
   11.200   7.145E-01
   11.300   7.348E-01
   11.400   7.555E-01
   11.500   7.771E-01
   11.600   7.996E-01
   11.700   8.233E-01
   11.800   8.483E-01
   11.900   8.749E-01
   12.000   9.032E-01
   12.100   9.333E-01
   12.200   9.652E-01
   12.300   9.989E-01
   12.400   1.035E+00
   12.500   1.072E+00
   12.600   1.111E+00
   12.700   1.152E+00
   12.800   1.195E+00
   12.900   1.240E+00
   13.000   1.287E+00
   13.100   1.336E+00
   13.200   1.387E+00
   13.300   1.442E+00
   13.400   1.499E+00
   13.500   1.560E+00
   13.600   1.625E+00
   13.700   1.693E+00
   13.800   1.763E+00
   13.900   1.836E+00
   14.000   1.910E+00
   14.100   1.984E+00
   14.200   2.056E+00
   14.300   2.125E+00
   14.400   2.190E+00
   14.500   2.248E+00
   14.600   2.298E+00
   14.700   2.341E+00
   14.800   2.375E+00
   14.900   2.401E+00
   15.000   2.420E+00
   15.100   2.432E+00
   15.200   2.439E+00
   15.300   2.442E+00
   15.400   2.443E+00
   15.500   2.443E+00
   15.600   2.444E+00
   15.700   2.447E+00
   15.800   2.453E+00
   15.900   2.463E+00
   16.000   2.478E+00
   16.100   2.498E+00
   16.200   2.524E+00
   16.300   2.556E+00
   16.400   2.594E+00
   16.500   2.636E+00
   16.600   2.681E+00
   16.700   2.729E+00
   16.800   2.778E+00
   16.900   2.825E+00
   17.000   2.869E+00
   17.100   2.907E+00
   17.200   2.939E+00
   17.300   2.963E+00
   17.400   2.979E+00
   17.500   2.985E+00
   17.600   2.983E+00
   17.700   2.972E+00
   17.800   2.955E+00
   17.900   2.933E+00
   18.000   2.906E+00
   18.100   2.875E+00
   18.200   2.841E+00
   18.300   2.806E+00
   18.400   2.768E+00
   18.500   2.729E+00
   18.600   2.689E+00
   18.700   2.648E+00
   18.800   2.606E+00
   18.900   2.564E+00
   19.000   2.522E+00
   19.100   2.480E+00
   19.200   2.439E+00
   19.300   2.398E+00
   19.400   2.359E+00
   19.500   2.320E+00
   19.600   2.284E+00
   19.700   2.249E+00
   19.800   2.216E+00
   19.900   2.185E+00
   20.000   2.156E+00
   20.100   2.130E+00
   20.200   2.106E+00
   20.300   2.085E+00
   20.400   2.066E+00
   20.500   2.049E+00
   20.600   2.034E+00
   20.700   2.020E+00
   20.800   2.008E+00
   20.900   1.996E+00
   21.000   1.985E+00
   21.100   1.974E+00
   21.200   1.962E+00
   21.300   1.950E+00
   21.400   1.937E+00
   21.500   1.923E+00
   21.600   1.906E+00
   21.700   1.888E+00
   21.800   1.867E+00
   21.900   1.844E+00
   22.000   1.819E+00
   22.100   1.791E+00
   22.200   1.762E+00
   22.300   1.730E+00
   22.400   1.698E+00
   22.500   1.664E+00
   22.600   1.629E+00
   22.700   1.594E+00
   22.800   1.560E+00
   22.900   1.525E+00
   23.000   1.491E+00
   23.100   1.457E+00
   23.200   1.424E+00
   23.300   1.391E+00
   23.400   1.359E+00
   23.500   1.328E+00
   23.600   1.298E+00
   23.700   1.268E+00
   23.800   1.238E+00
   23.900   1.209E+00
   24.000   1.181E+00
   24.100   1.153E+00
   24.200   1.126E+00
   24.300   1.100E+00
   24.400   1.075E+00
   24.500   1.050E+00
   24.600   1.027E+00
   24.700   1.005E+00
   24.800   9.835E-01
   24.900   9.633E-01
   25.000   9.442E-01
   25.100   9.262E-01
   25.200   9.093E-01
   25.300   8.934E-01
   25.400   8.785E-01
   25.500   8.646E-01
   25.600   8.517E-01
   25.700   8.395E-01
   25.800   8.283E-01
   25.900   8.177E-01
   26.000   8.079E-01
   26.100   7.988E-01
   26.200   7.902E-01
   26.300   7.822E-01
   26.400   7.746E-01
   26.500   7.674E-01
   26.600   7.604E-01
   26.700   7.537E-01
   26.800   7.469E-01
   26.900   7.401E-01
   27.000   7.330E-01
   27.100   7.255E-01
   27.200   7.175E-01
   27.300   7.088E-01
   27.400   6.995E-01
   27.500   6.895E-01
   27.600   6.788E-01
   27.700   6.675E-01
   27.800   6.557E-01
   27.900   6.434E-01
   28.000   6.308E-01
   28.100   6.182E-01
   28.200   6.055E-01
   28.300   5.929E-01
   28.400   5.805E-01
   28.500   5.685E-01
   28.600   5.568E-01
   28.700   5.456E-01
   28.800   5.348E-01
   28.900   5.245E-01
   29.000   5.147E-01
   29.100   5.052E-01
   29.200   4.962E-01
   29.300   4.875E-01
   29.400   4.791E-01
   29.500   4.710E-01
   29.600   4.631E-01
   29.700   4.555E-01
   29.800   4.482E-01
   29.900   4.411E-01
   30.000   4.342E-01
 
 Z=  15 A=  39 P 
  U[MeV]  fE1[mb/MeV]
    0.100   1.231E-05
    0.200   4.927E-05
    0.300   1.109E-04
    0.400   1.973E-04
    0.500   3.086E-04
    0.600   4.449E-04
    0.700   6.064E-04
    0.800   7.932E-04
    0.900   1.006E-03
    1.000   1.244E-03
    1.100   1.509E-03
    1.200   1.800E-03
    1.300   2.118E-03
    1.400   2.463E-03
    1.500   2.837E-03
    1.600   3.238E-03
    1.700   3.669E-03
    1.800   4.128E-03
    1.900   4.618E-03
    2.000   5.139E-03
    2.100   5.691E-03
    2.200   6.275E-03
    2.300   6.892E-03
    2.400   7.543E-03
    2.500   8.230E-03
    2.600   8.952E-03
    2.700   9.711E-03
    2.800   1.051E-02
    2.900   1.134E-02
    3.000   1.222E-02
    3.100   1.314E-02
    3.200   1.410E-02
    3.300   1.511E-02
    3.400   1.617E-02
    3.500   1.727E-02
    3.600   1.842E-02
    3.700   1.963E-02
    3.800   2.089E-02
    3.900   2.221E-02
    4.000   2.359E-02
    4.100   2.503E-02
    4.200   2.653E-02
    4.300   2.811E-02
    4.400   2.975E-02
    4.500   3.147E-02
    4.600   3.327E-02
    4.700   3.515E-02
    4.800   3.712E-02
    4.900   3.918E-02
    5.000   4.134E-02
    5.100   4.360E-02
    5.200   4.597E-02
    5.300   4.846E-02
    5.400   5.106E-02
    5.500   5.380E-02
    5.600   5.667E-02
    5.700   5.969E-02
    5.800   6.287E-02
    5.900   6.621E-02
    6.000   6.973E-02
    6.100   7.345E-02
    6.200   7.736E-02
    6.300   8.150E-02
    6.400   8.588E-02
    6.500   9.051E-02
    6.600   9.541E-02
    6.700   1.006E-01
    6.800   1.061E-01
    6.900   1.120E-01
    7.000   1.183E-01
    7.100   1.249E-01
    7.200   1.320E-01
    7.300   1.396E-01
    7.400   1.477E-01
    7.500   1.563E-01
    7.600   1.656E-01
    7.700   1.755E-01
    7.800   1.862E-01
    7.900   1.976E-01
    8.000   2.098E-01
    8.100   2.230E-01
    8.200   2.371E-01
    8.300   2.522E-01
    8.400   2.684E-01
    8.500   2.859E-01
    8.600   3.045E-01
    8.700   3.244E-01
    8.800   3.456E-01
    8.900   3.680E-01
    9.000   3.915E-01
    9.100   4.160E-01
    9.200   4.413E-01
    9.300   4.671E-01
    9.400   4.930E-01
    9.500   5.187E-01
    9.600   5.437E-01
    9.700   5.679E-01
    9.800   5.908E-01
    9.900   6.123E-01
   10.000   6.325E-01
   10.100   6.513E-01
   10.200   6.690E-01
   10.300   6.859E-01
   10.400   7.023E-01
   10.500   7.186E-01
   10.600   7.351E-01
   10.700   7.521E-01
   10.800   7.699E-01
   10.900   7.887E-01
   11.000   8.088E-01
   11.100   8.303E-01
   11.200   8.534E-01
   11.300   8.782E-01
   11.400   9.048E-01
   11.500   9.332E-01
   11.600   9.634E-01
   11.700   9.954E-01
   11.800   1.029E+00
   11.900   1.064E+00
   12.000   1.100E+00
   12.100   1.138E+00
   12.200   1.177E+00
   12.300   1.217E+00
   12.400   1.259E+00
   12.500   1.301E+00
   12.600   1.345E+00
   12.700   1.390E+00
   12.800   1.436E+00
   12.900   1.484E+00
   13.000   1.533E+00
   13.100   1.585E+00
   13.200   1.638E+00
   13.300   1.693E+00
   13.400   1.750E+00
   13.500   1.809E+00
   13.600   1.870E+00
   13.700   1.931E+00
   13.800   1.991E+00
   13.900   2.050E+00
   14.000   2.104E+00
   14.100   2.153E+00
   14.200   2.196E+00
   14.300   2.232E+00
   14.400   2.261E+00
   14.500   2.282E+00
   14.600   2.298E+00
   14.700   2.310E+00
   14.800   2.319E+00
   14.900   2.327E+00
   15.000   2.337E+00
   15.100   2.350E+00
   15.200   2.367E+00
   15.300   2.389E+00
   15.400   2.417E+00
   15.500   2.452E+00
   15.600   2.492E+00
   15.700   2.539E+00
   15.800   2.590E+00
   15.900   2.645E+00
   16.000   2.702E+00
   16.100   2.760E+00
   16.200   2.817E+00
   16.300   2.871E+00
   16.400   2.921E+00
   16.500   2.965E+00
   16.600   3.003E+00
   16.700   3.033E+00
   16.800   3.054E+00
   16.900   3.068E+00
   17.000   3.072E+00
   17.100   3.067E+00
   17.200   3.055E+00
   17.300   3.036E+00
   17.400   3.010E+00
   17.500   2.981E+00
   17.600   2.948E+00
   17.700   2.914E+00
   17.800   2.879E+00
   17.900   2.843E+00
   18.000   2.806E+00
   18.100   2.770E+00
   18.200   2.732E+00
   18.300   2.694E+00
   18.400   2.654E+00
   18.500   2.614E+00
   18.600   2.572E+00
   18.700   2.530E+00
   18.800   2.487E+00
   18.900   2.445E+00
   19.000   2.403E+00
   19.100   2.362E+00
   19.200   2.323E+00
   19.300   2.287E+00
   19.400   2.253E+00
   19.500   2.221E+00
   19.600   2.193E+00
   19.700   2.168E+00
   19.800   2.146E+00
   19.900   2.127E+00
   20.000   2.111E+00
   20.100   2.098E+00
   20.200   2.087E+00
   20.300   2.078E+00
   20.400   2.071E+00
   20.500   2.065E+00
   20.600   2.060E+00
   20.700   2.054E+00
   20.800   2.049E+00
   20.900   2.043E+00
   21.000   2.035E+00
   21.100   2.026E+00
   21.200   2.015E+00
   21.300   2.002E+00
   21.400   1.986E+00
   21.500   1.968E+00
   21.600   1.947E+00
   21.700   1.924E+00
   21.800   1.898E+00
   21.900   1.869E+00
   22.000   1.839E+00
   22.100   1.807E+00
   22.200   1.774E+00
   22.300   1.739E+00
   22.400   1.705E+00
   22.500   1.670E+00
   22.600   1.635E+00
   22.700   1.601E+00
   22.800   1.566E+00
   22.900   1.533E+00
   23.000   1.499E+00
   23.100   1.466E+00
   23.200   1.434E+00
   23.300   1.402E+00
   23.400   1.370E+00
   23.500   1.338E+00
   23.600   1.307E+00
   23.700   1.276E+00
   23.800   1.246E+00
   23.900   1.216E+00
   24.000   1.186E+00
   24.100   1.158E+00
   24.200   1.130E+00
   24.300   1.103E+00
   24.400   1.078E+00
   24.500   1.053E+00
   24.600   1.030E+00
   24.700   1.008E+00
   24.800   9.876E-01
   24.900   9.684E-01
   25.000   9.506E-01
   25.100   9.342E-01
   25.200   9.190E-01
   25.300   9.051E-01
   25.400   8.923E-01
   25.500   8.805E-01
   25.600   8.695E-01
   25.700   8.592E-01
   25.800   8.493E-01
   25.900   8.397E-01
   26.000   8.303E-01
   26.100   8.209E-01
   26.200   8.115E-01
   26.300   8.020E-01
   26.400   7.923E-01
   26.500   7.826E-01
   26.600   7.727E-01
   26.700   7.626E-01
   26.800   7.524E-01
   26.900   7.421E-01
   27.000   7.316E-01
   27.100   7.210E-01
   27.200   7.101E-01
   27.300   6.991E-01
   27.400   6.879E-01
   27.500   6.765E-01
   27.600   6.650E-01
   27.700   6.535E-01
   27.800   6.419E-01
   27.900   6.303E-01
   28.000   6.188E-01
   28.100   6.074E-01
   28.200   5.961E-01
   28.300   5.850E-01
   28.400   5.740E-01
   28.500   5.633E-01
   28.600   5.528E-01
   28.700   5.426E-01
   28.800   5.327E-01
   28.900   5.231E-01
   29.000   5.138E-01
   29.100   5.048E-01
   29.200   4.961E-01
   29.300   4.876E-01
   29.400   4.794E-01
   29.500   4.714E-01
   29.600   4.636E-01
   29.700   4.561E-01
   29.800   4.487E-01
   29.900   4.416E-01
   30.000   4.347E-01
 
 Z=  15 A=  40 P 
  U[MeV]  fE1[mb/MeV]
    0.100   1.397E-05
    0.200   5.590E-05
    0.300   1.259E-04
    0.400   2.239E-04
    0.500   3.502E-04
    0.600   5.050E-04
    0.700   6.884E-04
    0.800   9.007E-04
    0.900   1.142E-03
    1.000   1.413E-03
    1.100   1.714E-03
    1.200   2.045E-03
    1.300   2.408E-03
    1.400   2.801E-03
    1.500   3.227E-03
    1.600   3.685E-03
    1.700   4.176E-03
    1.800   4.701E-03
    1.900   5.261E-03
    2.000   5.857E-03
    2.100   6.489E-03
    2.200   7.159E-03
    2.300   7.868E-03
    2.400   8.616E-03
    2.500   9.405E-03
    2.600   1.024E-02
    2.700   1.111E-02
    2.800   1.203E-02
    2.900   1.300E-02
    3.000   1.402E-02
    3.100   1.508E-02
    3.200   1.620E-02
    3.300   1.737E-02
    3.400   1.860E-02
    3.500   1.989E-02
    3.600   2.124E-02
    3.700   2.266E-02
    3.800   2.414E-02
    3.900   2.569E-02
    4.000   2.732E-02
    4.100   2.902E-02
    4.200   3.080E-02
    4.300   3.268E-02
    4.400   3.464E-02
    4.500   3.669E-02
    4.600   3.885E-02
    4.700   4.111E-02
    4.800   4.349E-02
    4.900   4.598E-02
    5.000   4.860E-02
    5.100   5.136E-02
    5.200   5.426E-02
    5.300   5.731E-02
    5.400   6.052E-02
    5.500   6.391E-02
    5.600   6.748E-02
    5.700   7.125E-02
    5.800   7.524E-02
    5.900   7.945E-02
    6.000   8.392E-02
    6.100   8.865E-02
    6.200   9.367E-02
    6.300   9.901E-02
    6.400   1.047E-01
    6.500   1.107E-01
    6.600   1.172E-01
    6.700   1.241E-01
    6.800   1.314E-01
    6.900   1.393E-01
    7.000   1.478E-01
    7.100   1.569E-01
    7.200   1.667E-01
    7.300   1.772E-01
    7.400   1.885E-01
    7.500   2.008E-01
    7.600   2.140E-01
    7.700   2.283E-01
    7.800   2.438E-01
    7.900   2.605E-01
    8.000   2.786E-01
    8.100   2.981E-01
    8.200   3.192E-01
    8.300   3.419E-01
    8.400   3.663E-01
    8.500   3.924E-01
    8.600   4.201E-01
    8.700   4.492E-01
    8.800   4.796E-01
    8.900   5.108E-01
    9.000   5.423E-01
    9.100   5.735E-01
    9.200   6.038E-01
    9.300   6.324E-01
    9.400   6.587E-01
    9.500   6.824E-01
    9.600   7.031E-01
    9.700   7.212E-01
    9.800   7.368E-01
    9.900   7.505E-01
   10.000   7.630E-01
   10.100   7.752E-01
   10.200   7.876E-01
   10.300   8.010E-01
   10.400   8.160E-01
   10.500   8.330E-01
   10.600   8.524E-01
   10.700   8.744E-01
   10.800   8.993E-01
   10.900   9.270E-01
   11.000   9.576E-01
   11.100   9.908E-01
   11.200   1.026E+00
   11.300   1.064E+00
   11.400   1.103E+00
   11.500   1.144E+00
   11.600   1.185E+00
   11.700   1.226E+00
   11.800   1.267E+00
   11.900   1.308E+00
   12.000   1.350E+00
   12.100   1.391E+00
   12.200   1.433E+00
   12.300   1.475E+00
   12.400   1.517E+00
   12.500   1.560E+00
   12.600   1.603E+00
   12.700   1.646E+00
   12.800   1.688E+00
   12.900   1.730E+00
   13.000   1.771E+00
   13.100   1.811E+00
   13.200   1.852E+00
   13.300   1.892E+00
   13.400   1.932E+00
   13.500   1.971E+00
   13.600   2.010E+00
   13.700   2.048E+00
   13.800   2.083E+00
   13.900   2.116E+00
   14.000   2.145E+00
   14.100   2.170E+00
   14.200   2.193E+00
   14.300   2.213E+00
   14.400   2.233E+00
   14.500   2.253E+00
   14.600   2.276E+00
   14.700   2.302E+00
   14.800   2.333E+00
   14.900   2.368E+00
   15.000   2.410E+00
   15.100   2.457E+00
   15.200   2.509E+00
   15.300   2.566E+00
   15.400   2.626E+00
   15.500   2.690E+00
   15.600   2.754E+00
   15.700   2.818E+00
   15.800   2.880E+00
   15.900   2.937E+00
   16.000   2.989E+00
   16.100   3.033E+00
   16.200   3.069E+00
   16.300   3.097E+00
   16.400   3.117E+00
   16.500   3.129E+00
   16.600   3.133E+00
   16.700   3.130E+00
   16.800   3.120E+00
   16.900   3.104E+00
   17.000   3.082E+00
   17.100   3.055E+00
   17.200   3.023E+00
   17.300   2.988E+00
   17.400   2.949E+00
   17.500   2.908E+00
   17.600   2.866E+00
   17.700   2.822E+00
   17.800   2.777E+00
   17.900   2.732E+00
   18.000   2.686E+00
   18.100   2.639E+00
   18.200   2.592E+00
   18.300   2.545E+00
   18.400   2.498E+00
   18.500   2.451E+00
   18.600   2.406E+00
   18.700   2.362E+00
   18.800   2.321E+00
   18.900   2.282E+00
   19.000   2.246E+00
   19.100   2.213E+00
   19.200   2.184E+00
   19.300   2.159E+00
   19.400   2.137E+00
   19.500   2.119E+00
   19.600   2.104E+00
   19.700   2.093E+00
   19.800   2.084E+00
   19.900   2.079E+00
   20.000   2.075E+00
   20.100   2.073E+00
   20.200   2.073E+00
   20.300   2.073E+00
   20.400   2.074E+00
   20.500   2.075E+00
   20.600   2.075E+00
   20.700   2.074E+00
   20.800   2.071E+00
   20.900   2.067E+00
   21.000   2.060E+00
   21.100   2.051E+00
   21.200   2.039E+00
   21.300   2.024E+00
   21.400   2.006E+00
   21.500   1.986E+00
   21.600   1.962E+00
   21.700   1.937E+00
   21.800   1.908E+00
   21.900   1.878E+00
   22.000   1.847E+00
   22.100   1.814E+00
   22.200   1.781E+00
   22.300   1.747E+00
   22.400   1.712E+00
   22.500   1.678E+00
   22.600   1.644E+00
   22.700   1.610E+00
   22.800   1.577E+00
   22.900   1.544E+00
   23.000   1.511E+00
   23.100   1.478E+00
   23.200   1.446E+00
   23.300   1.414E+00
   23.400   1.382E+00
   23.500   1.350E+00
   23.600   1.319E+00
   23.700   1.289E+00
   23.800   1.259E+00
   23.900   1.230E+00
   24.000   1.202E+00
   24.100   1.174E+00
   24.200   1.148E+00
   24.300   1.123E+00
   24.400   1.099E+00
   24.500   1.076E+00
   24.600   1.055E+00
   24.700   1.034E+00
   24.800   1.015E+00
   24.900   9.969E-01
   25.000   9.795E-01
   25.100   9.628E-01
   25.200   9.468E-01
   25.300   9.312E-01
   25.400   9.162E-01
   25.500   9.016E-01
   25.600   8.874E-01
   25.700   8.737E-01
   25.800   8.605E-01
   25.900   8.477E-01
   26.000   8.353E-01
   26.100   8.233E-01
   26.200   8.118E-01
   26.300   8.005E-01
   26.400   7.895E-01
   26.500   7.788E-01
   26.600   7.682E-01
   26.700   7.578E-01
   26.800   7.476E-01
   26.900   7.373E-01
   27.000   7.271E-01
   27.100   7.167E-01
   27.200   7.062E-01
   27.300   6.955E-01
   27.400   6.847E-01
   27.500   6.736E-01
   27.600   6.624E-01
   27.700   6.511E-01
   27.800   6.398E-01
   27.900   6.285E-01
   28.000   6.172E-01
   28.100   6.061E-01
   28.200   5.951E-01
   28.300   5.843E-01
   28.400   5.736E-01
   28.500   5.631E-01
   28.600   5.528E-01
   28.700   5.426E-01
   28.800   5.326E-01
   28.900   5.228E-01
   29.000   5.131E-01
   29.100   5.038E-01
   29.200   4.947E-01
   29.300   4.858E-01
   29.400   4.773E-01
   29.500   4.690E-01
   29.600   4.610E-01
   29.700   4.533E-01
   29.800   4.458E-01
   29.900   4.386E-01
   30.000   4.317E-01
 
 Z=  15 A=  41 P 
  U[MeV]  fE1[mb/MeV]
    0.100   1.447E-05
    0.200   5.790E-05
    0.300   1.304E-04
    0.400   2.319E-04
    0.500   3.628E-04
    0.600   5.231E-04
    0.700   7.131E-04
    0.800   9.330E-04
    0.900   1.183E-03
    1.000   1.464E-03
    1.100   1.776E-03
    1.200   2.120E-03
    1.300   2.495E-03
    1.400   2.903E-03
    1.500   3.344E-03
    1.600   3.819E-03
    1.700   4.329E-03
    1.800   4.874E-03
    1.900   5.456E-03
    2.000   6.074E-03
    2.100   6.731E-03
    2.200   7.427E-03
    2.300   8.163E-03
    2.400   8.941E-03
    2.500   9.761E-03
    2.600   1.063E-02
    2.700   1.154E-02
    2.800   1.249E-02
    2.900   1.350E-02
    3.000   1.456E-02
    3.100   1.567E-02
    3.200   1.684E-02
    3.300   1.806E-02
    3.400   1.934E-02
    3.500   2.069E-02
    3.600   2.210E-02
    3.700   2.358E-02
    3.800   2.512E-02
    3.900   2.675E-02
    4.000   2.845E-02
    4.100   3.023E-02
    4.200   3.210E-02
    4.300   3.406E-02
    4.400   3.612E-02
    4.500   3.828E-02
    4.600   4.054E-02
    4.700   4.292E-02
    4.800   4.542E-02
    4.900   4.804E-02
    5.000   5.080E-02
    5.100   5.371E-02
    5.200   5.676E-02
    5.300   5.998E-02
    5.400   6.337E-02
    5.500   6.695E-02
    5.600   7.073E-02
    5.700   7.472E-02
    5.800   7.895E-02
    5.900   8.342E-02
    6.000   8.816E-02
    6.100   9.318E-02
    6.200   9.852E-02
    6.300   1.042E-01
    6.400   1.102E-01
    6.500   1.167E-01
    6.600   1.236E-01
    6.700   1.309E-01
    6.800   1.388E-01
    6.900   1.473E-01
    7.000   1.563E-01
    7.100   1.661E-01
    7.200   1.766E-01
    7.300   1.880E-01
    7.400   2.003E-01
    7.500   2.135E-01
    7.600   2.279E-01
    7.700   2.435E-01
    7.800   2.604E-01
    7.900   2.788E-01
    8.000   2.987E-01
    8.100   3.203E-01
    8.200   3.437E-01
    8.300   3.690E-01
    8.400   3.963E-01
    8.500   4.255E-01
    8.600   4.566E-01
    8.700   4.894E-01
    8.800   5.237E-01
    8.900   5.590E-01
    9.000   5.947E-01
    9.100   6.300E-01
    9.200   6.642E-01
    9.300   6.962E-01
    9.400   7.254E-01
    9.500   7.511E-01
    9.600   7.732E-01
    9.700   7.916E-01
    9.800   8.069E-01
    9.900   8.198E-01
   10.000   8.312E-01
   10.100   8.421E-01
   10.200   8.532E-01
   10.300   8.655E-01
   10.400   8.795E-01
   10.500   8.960E-01
   10.600   9.153E-01
   10.700   9.376E-01
   10.800   9.633E-01
   10.900   9.925E-01
   11.000   1.025E+00
   11.100   1.061E+00
   11.200   1.101E+00
   11.300   1.143E+00
   11.400   1.187E+00
   11.500   1.234E+00
   11.600   1.282E+00
   11.700   1.329E+00
   11.800   1.377E+00
   11.900   1.423E+00
   12.000   1.468E+00
   12.100   1.510E+00
   12.200   1.551E+00
   12.300   1.591E+00
   12.400   1.629E+00
   12.500   1.667E+00
   12.600   1.705E+00
   12.700   1.743E+00
   12.800   1.782E+00
   12.900   1.821E+00
   13.000   1.859E+00
   13.100   1.896E+00
   13.200   1.931E+00
   13.300   1.963E+00
   13.400   1.993E+00
   13.500   2.021E+00
   13.600   2.047E+00
   13.700   2.071E+00
   13.800   2.095E+00
   13.900   2.118E+00
   14.000   2.140E+00
   14.100   2.163E+00
   14.200   2.185E+00
   14.300   2.208E+00
   14.400   2.231E+00
   14.500   2.255E+00
   14.600   2.282E+00
   14.700   2.311E+00
   14.800   2.343E+00
   14.900   2.380E+00
   15.000   2.422E+00
   15.100   2.469E+00
   15.200   2.520E+00
   15.300   2.576E+00
   15.400   2.636E+00
   15.500   2.700E+00
   15.600   2.766E+00
   15.700   2.833E+00
   15.800   2.901E+00
   15.900   2.968E+00
   16.000   3.032E+00
   16.100   3.091E+00
   16.200   3.144E+00
   16.300   3.190E+00
   16.400   3.228E+00
   16.500   3.256E+00
   16.600   3.276E+00
   16.700   3.288E+00
   16.800   3.292E+00
   16.900   3.289E+00
   17.000   3.280E+00
   17.100   3.264E+00
   17.200   3.241E+00
   17.300   3.211E+00
   17.400   3.175E+00
   17.500   3.133E+00
   17.600   3.087E+00
   17.700   3.037E+00
   17.800   2.984E+00
   17.900   2.930E+00
   18.000   2.877E+00
   18.100   2.823E+00
   18.200   2.771E+00
   18.300   2.720E+00
   18.400   2.670E+00
   18.500   2.622E+00
   18.600   2.576E+00
   18.700   2.531E+00
   18.800   2.489E+00
   18.900   2.449E+00
   19.000   2.412E+00
   19.100   2.378E+00
   19.200   2.347E+00
   19.300   2.319E+00
   19.400   2.294E+00
   19.500   2.272E+00
   19.600   2.254E+00
   19.700   2.238E+00
   19.800   2.225E+00
   19.900   2.214E+00
   20.000   2.205E+00
   20.100   2.198E+00
   20.200   2.192E+00
   20.300   2.187E+00
   20.400   2.182E+00
   20.500   2.177E+00
   20.600   2.172E+00
   20.700   2.166E+00
   20.800   2.159E+00
   20.900   2.151E+00
   21.000   2.141E+00
   21.100   2.129E+00
   21.200   2.115E+00
   21.300   2.098E+00
   21.400   2.080E+00
   21.500   2.058E+00
   21.600   2.034E+00
   21.700   2.007E+00
   21.800   1.977E+00
   21.900   1.945E+00
   22.000   1.910E+00
   22.100   1.873E+00
   22.200   1.834E+00
   22.300   1.794E+00
   22.400   1.753E+00
   22.500   1.712E+00
   22.600   1.670E+00
   22.700   1.628E+00
   22.800   1.587E+00
   22.900   1.547E+00
   23.000   1.507E+00
   23.100   1.469E+00
   23.200   1.431E+00
   23.300   1.395E+00
   23.400   1.359E+00
   23.500   1.324E+00
   23.600   1.291E+00
   23.700   1.258E+00
   23.800   1.226E+00
   23.900   1.195E+00
   24.000   1.165E+00
   24.100   1.137E+00
   24.200   1.110E+00
   24.300   1.084E+00
   24.400   1.059E+00
   24.500   1.036E+00
   24.600   1.014E+00
   24.700   9.937E-01
   24.800   9.747E-01
   24.900   9.568E-01
   25.000   9.400E-01
   25.100   9.241E-01
   25.200   9.091E-01
   25.300   8.948E-01
   25.400   8.811E-01
   25.500   8.680E-01
   25.600   8.554E-01
   25.700   8.433E-01
   25.800   8.317E-01
   25.900   8.206E-01
   26.000   8.101E-01
   26.100   8.000E-01
   26.200   7.903E-01
   26.300   7.811E-01
   26.400   7.723E-01
   26.500   7.638E-01
   26.600   7.555E-01
   26.700   7.473E-01
   26.800   7.391E-01
   26.900   7.309E-01
   27.000   7.226E-01
   27.100   7.140E-01
   27.200   7.050E-01
   27.300   6.957E-01
   27.400   6.858E-01
   27.500   6.755E-01
   27.600   6.648E-01
   27.700   6.536E-01
   27.800   6.422E-01
   27.900   6.307E-01
   28.000   6.191E-01
   28.100   6.075E-01
   28.200   5.962E-01
   28.300   5.851E-01
   28.400   5.742E-01
   28.500   5.635E-01
   28.600   5.532E-01
   28.700   5.430E-01
   28.800   5.330E-01
   28.900   5.232E-01
   29.000   5.136E-01
   29.100   5.043E-01
   29.200   4.951E-01
   29.300   4.863E-01
   29.400   4.778E-01
   29.500   4.696E-01
   29.600   4.618E-01
   29.700   4.544E-01
   29.800   4.473E-01
   29.900   4.405E-01
   30.000   4.341E-01
 
 Z=  15 A=  42 P 
  U[MeV]  fE1[mb/MeV]
    0.100   2.025E-05
    0.200   8.104E-05
    0.300   1.825E-04
    0.400   3.248E-04
    0.500   5.082E-04
    0.600   7.330E-04
    0.700   9.998E-04
    0.800   1.309E-03
    0.900   1.661E-03
    1.000   2.057E-03
    1.100   2.498E-03
    1.200   2.983E-03
    1.300   3.515E-03
    1.400   4.095E-03
    1.500   4.723E-03
    1.600   5.401E-03
    1.700   6.131E-03
    1.800   6.913E-03
    1.900   7.750E-03
    2.000   8.643E-03
    2.100   9.595E-03
    2.200   1.061E-02
    2.300   1.168E-02
    2.400   1.282E-02
    2.500   1.403E-02
    2.600   1.531E-02
    2.700   1.666E-02
    2.800   1.810E-02
    2.900   1.961E-02
    3.000   2.121E-02
    3.100   2.290E-02
    3.200   2.468E-02
    3.300   2.656E-02
    3.400   2.855E-02
    3.500   3.065E-02
    3.600   3.287E-02
    3.700   3.521E-02
    3.800   3.768E-02
    3.900   4.030E-02
    4.000   4.307E-02
    4.100   4.600E-02
    4.200   4.910E-02
    4.300   5.239E-02
    4.400   5.587E-02
    4.500   5.957E-02
    4.600   6.349E-02
    4.700   6.767E-02
    4.800   7.211E-02
    4.900   7.684E-02
    5.000   8.189E-02
    5.100   8.728E-02
    5.200   9.305E-02
    5.300   9.922E-02
    5.400   1.058E-01
    5.500   1.129E-01
    5.600   1.206E-01
    5.700   1.288E-01
    5.800   1.377E-01
    5.900   1.473E-01
    6.000   1.578E-01
    6.100   1.691E-01
    6.200   1.813E-01
    6.300   1.947E-01
    6.400   2.093E-01
    6.500   2.252E-01
    6.600   2.426E-01
    6.700   2.616E-01
    6.800   2.824E-01
    6.900   3.051E-01
    7.000   3.298E-01
    7.100   3.568E-01
    7.200   3.860E-01
    7.300   4.174E-01
    7.400   4.509E-01
    7.500   4.864E-01
    7.600   5.235E-01
    7.700   5.616E-01
    7.800   6.003E-01
    7.900   6.388E-01
    8.000   6.765E-01
    8.100   7.129E-01
    8.200   7.474E-01
    8.300   7.799E-01
    8.400   8.099E-01
    8.500   8.372E-01
    8.600   8.616E-01
    8.700   8.829E-01
    8.800   9.009E-01
    8.900   9.158E-01
    9.000   9.276E-01
    9.100   9.369E-01
    9.200   9.443E-01
    9.300   9.506E-01
    9.400   9.566E-01
    9.500   9.631E-01
    9.600   9.709E-01
    9.700   9.807E-01
    9.800   9.930E-01
    9.900   1.008E+00
   10.000   1.027E+00
   10.100   1.048E+00
   10.200   1.074E+00
   10.300   1.102E+00
   10.400   1.134E+00
   10.500   1.169E+00
   10.600   1.207E+00
   10.700   1.248E+00
   10.800   1.291E+00
   10.900   1.336E+00
   11.000   1.384E+00
   11.100   1.432E+00
   11.200   1.482E+00
   11.300   1.532E+00
   11.400   1.582E+00
   11.500   1.631E+00
   11.600   1.678E+00
   11.700   1.723E+00
   11.800   1.765E+00
   11.900   1.805E+00
   12.000   1.843E+00
   12.100   1.880E+00
   12.200   1.917E+00
   12.300   1.954E+00
   12.400   1.992E+00
   12.500   2.031E+00
   12.600   2.071E+00
   12.700   2.109E+00
   12.800   2.143E+00
   12.900   2.173E+00
   13.000   2.195E+00
   13.100   2.209E+00
   13.200   2.214E+00
   13.300   2.211E+00
   13.400   2.201E+00
   13.500   2.186E+00
   13.600   2.170E+00
   13.700   2.153E+00
   13.800   2.140E+00
   13.900   2.130E+00
   14.000   2.126E+00
   14.100   2.129E+00
   14.200   2.138E+00
   14.300   2.153E+00
   14.400   2.176E+00
   14.500   2.205E+00
   14.600   2.241E+00
   14.700   2.284E+00
   14.800   2.333E+00
   14.900   2.390E+00
   15.000   2.453E+00
   15.100   2.523E+00
   15.200   2.599E+00
   15.300   2.682E+00
   15.400   2.770E+00
   15.500   2.861E+00
   15.600   2.955E+00
   15.700   3.048E+00
   15.800   3.138E+00
   15.900   3.222E+00
   16.000   3.297E+00
   16.100   3.361E+00
   16.200   3.413E+00
   16.300   3.450E+00
   16.400   3.473E+00
   16.500   3.482E+00
   16.600   3.478E+00
   16.700   3.460E+00
   16.800   3.430E+00
   16.900   3.387E+00
   17.000   3.334E+00
   17.100   3.271E+00
   17.200   3.201E+00
   17.300   3.126E+00
   17.400   3.047E+00
   17.500   2.967E+00
   17.600   2.888E+00
   17.700   2.810E+00
   17.800   2.735E+00
   17.900   2.662E+00
   18.000   2.592E+00
   18.100   2.524E+00
   18.200   2.460E+00
   18.300   2.399E+00
   18.400   2.341E+00
   18.500   2.286E+00
   18.600   2.236E+00
   18.700   2.190E+00
   18.800   2.148E+00
   18.900   2.111E+00
   19.000   2.079E+00
   19.100   2.053E+00
   19.200   2.031E+00
   19.300   2.015E+00
   19.400   2.004E+00
   19.500   1.997E+00
   19.600   1.996E+00
   19.700   1.998E+00
   19.800   2.004E+00
   19.900   2.013E+00
   20.000   2.026E+00
   20.100   2.040E+00
   20.200   2.055E+00
   20.300   2.071E+00
   20.400   2.087E+00
   20.500   2.101E+00
   20.600   2.114E+00
   20.700   2.124E+00
   20.800   2.132E+00
   20.900   2.136E+00
   21.000   2.137E+00
   21.100   2.134E+00
   21.200   2.127E+00
   21.300   2.116E+00
   21.400   2.101E+00
   21.500   2.081E+00
   21.600   2.058E+00
   21.700   2.031E+00
   21.800   2.000E+00
   21.900   1.967E+00
   22.000   1.931E+00
   22.100   1.893E+00
   22.200   1.854E+00
   22.300   1.814E+00
   22.400   1.773E+00
   22.500   1.732E+00
   22.600   1.692E+00
   22.700   1.651E+00
   22.800   1.612E+00
   22.900   1.573E+00
   23.000   1.534E+00
   23.100   1.497E+00
   23.200   1.460E+00
   23.300   1.424E+00
   23.400   1.388E+00
   23.500   1.354E+00
   23.600   1.320E+00
   23.700   1.287E+00
   23.800   1.256E+00
   23.900   1.225E+00
   24.000   1.195E+00
   24.100   1.166E+00
   24.200   1.138E+00
   24.300   1.111E+00
   24.400   1.084E+00
   24.500   1.059E+00
   24.600   1.034E+00
   24.700   1.011E+00
   24.800   9.889E-01
   24.900   9.684E-01
   25.000   9.493E-01
   25.100   9.317E-01
   25.200   9.156E-01
   25.300   9.010E-01
   25.400   8.877E-01
   25.500   8.758E-01
   25.600   8.650E-01
   25.700   8.552E-01
   25.800   8.461E-01
   25.900   8.376E-01
   26.000   8.293E-01
   26.100   8.209E-01
   26.200   8.123E-01
   26.300   8.032E-01
   26.400   7.935E-01
   26.500   7.832E-01
   26.600   7.723E-01
   26.700   7.609E-01
   26.800   7.490E-01
   26.900   7.367E-01
   27.000   7.241E-01
   27.100   7.113E-01
   27.200   6.984E-01
   27.300   6.856E-01
   27.400   6.728E-01
   27.500   6.602E-01
   27.600   6.479E-01
   27.700   6.357E-01
   27.800   6.237E-01
   27.900   6.120E-01
   28.000   6.005E-01
   28.100   5.891E-01
   28.200   5.781E-01
   28.300   5.672E-01
   28.400   5.566E-01
   28.500   5.463E-01
   28.600   5.363E-01
   28.700   5.266E-01
   28.800   5.172E-01
   28.900   5.082E-01
   29.000   4.995E-01
   29.100   4.912E-01
   29.200   4.833E-01
   29.300   4.756E-01
   29.400   4.681E-01
   29.500   4.608E-01
   29.600   4.537E-01
   29.700   4.468E-01
   29.800   4.401E-01
   29.900   4.336E-01
   30.000   4.274E-01
 
 Z=  15 A=  43 P 
  U[MeV]  fE1[mb/MeV]
    0.100   2.103E-05
    0.200   8.418E-05
    0.300   1.896E-04
    0.400   3.374E-04
    0.500   5.280E-04
    0.600   7.618E-04
    0.700   1.039E-03
    0.800   1.361E-03
    0.900   1.727E-03
    1.000   2.139E-03
    1.100   2.598E-03
    1.200   3.104E-03
    1.300   3.659E-03
    1.400   4.263E-03
    1.500   4.919E-03
    1.600   5.627E-03
    1.700   6.389E-03
    1.800   7.207E-03
    1.900   8.083E-03
    2.000   9.019E-03
    2.100   1.002E-02
    2.200   1.108E-02
    2.300   1.221E-02
    2.400   1.341E-02
    2.500   1.468E-02
    2.600   1.603E-02
    2.700   1.746E-02
    2.800   1.898E-02
    2.900   2.058E-02
    3.000   2.228E-02
    3.100   2.407E-02
    3.200   2.597E-02
    3.300   2.798E-02
    3.400   3.011E-02
    3.500   3.236E-02
    3.600   3.474E-02
    3.700   3.727E-02
    3.800   3.994E-02
    3.900   4.277E-02
    4.000   4.578E-02
    4.100   4.897E-02
    4.200   5.236E-02
    4.300   5.596E-02
    4.400   5.979E-02
    4.500   6.388E-02
    4.600   6.823E-02
    4.700   7.288E-02
    4.800   7.785E-02
    4.900   8.317E-02
    5.000   8.888E-02
    5.100   9.500E-02
    5.200   1.016E-01
    5.300   1.087E-01
    5.400   1.163E-01
    5.500   1.246E-01
    5.600   1.336E-01
    5.700   1.433E-01
    5.800   1.539E-01
    5.900   1.654E-01
    6.000   1.781E-01
    6.100   1.918E-01
    6.200   2.070E-01
    6.300   2.236E-01
    6.400   2.418E-01
    6.500   2.619E-01
    6.600   2.839E-01
    6.700   3.082E-01
    6.800   3.347E-01
    6.900   3.638E-01
    7.000   3.953E-01
    7.100   4.293E-01
    7.200   4.656E-01
    7.300   5.038E-01
    7.400   5.434E-01
    7.500   5.838E-01
    7.600   6.240E-01
    7.700   6.635E-01
    7.800   7.016E-01
    7.900   7.379E-01
    8.000   7.721E-01
    8.100   8.043E-01
    8.200   8.345E-01
    8.300   8.625E-01
    8.400   8.883E-01
    8.500   9.116E-01
    8.600   9.322E-01
    8.700   9.500E-01
    8.800   9.649E-01
    8.900   9.770E-01
    9.000   9.867E-01
    9.100   9.944E-01
    9.200   1.001E+00
    9.300   1.007E+00
    9.400   1.013E+00
    9.500   1.021E+00
    9.600   1.031E+00
    9.700   1.043E+00
    9.800   1.059E+00
    9.900   1.079E+00
   10.000   1.102E+00
   10.100   1.129E+00
   10.200   1.159E+00
   10.300   1.194E+00
   10.400   1.231E+00
   10.500   1.273E+00
   10.600   1.318E+00
   10.700   1.366E+00
   10.800   1.417E+00
   10.900   1.471E+00
   11.000   1.528E+00
   11.100   1.587E+00
   11.200   1.648E+00
   11.300   1.710E+00
   11.400   1.771E+00
   11.500   1.832E+00
   11.600   1.889E+00
   11.700   1.943E+00
   11.800   1.992E+00
   11.900   2.037E+00
   12.000   2.078E+00
   12.100   2.117E+00
   12.200   2.154E+00
   12.300   2.192E+00
   12.400   2.231E+00
   12.500   2.271E+00
   12.600   2.312E+00
   12.700   2.351E+00
   12.800   2.385E+00
   12.900   2.413E+00
   13.000   2.432E+00
   13.100   2.440E+00
   13.200   2.438E+00
   13.300   2.427E+00
   13.400   2.409E+00
   13.500   2.388E+00
   13.600   2.367E+00
   13.700   2.350E+00
   13.800   2.337E+00
   13.900   2.331E+00
   14.000   2.333E+00
   14.100   2.343E+00
   14.200   2.360E+00
   14.300   2.385E+00
   14.400   2.417E+00
   14.500   2.455E+00
   14.600   2.499E+00
   14.700   2.549E+00
   14.800   2.606E+00
   14.900   2.670E+00
   15.000   2.740E+00
   15.100   2.817E+00
   15.200   2.900E+00
   15.300   2.988E+00
   15.400   3.079E+00
   15.500   3.171E+00
   15.600   3.260E+00
   15.700   3.342E+00
   15.800   3.415E+00
   15.900   3.474E+00
   16.000   3.518E+00
   16.100   3.546E+00
   16.200   3.558E+00
   16.300   3.556E+00
   16.400   3.542E+00
   16.500   3.518E+00
   16.600   3.484E+00
   16.700   3.441E+00
   16.800   3.390E+00
   16.900   3.332E+00
   17.000   3.266E+00
   17.100   3.194E+00
   17.200   3.119E+00
   17.300   3.041E+00
   17.400   2.962E+00
   17.500   2.884E+00
   17.600   2.807E+00
   17.700   2.732E+00
   17.800   2.660E+00
   17.900   2.589E+00
   18.000   2.521E+00
   18.100   2.456E+00
   18.200   2.394E+00
   18.300   2.335E+00
   18.400   2.280E+00
   18.500   2.229E+00
   18.600   2.182E+00
   18.700   2.140E+00
   18.800   2.103E+00
   18.900   2.071E+00
   19.000   2.045E+00
   19.100   2.023E+00
   19.200   2.007E+00
   19.300   1.996E+00
   19.400   1.990E+00
   19.500   1.988E+00
   19.600   1.991E+00
   19.700   1.997E+00
   19.800   2.008E+00
   19.900   2.021E+00
   20.000   2.036E+00
   20.100   2.053E+00
   20.200   2.071E+00
   20.300   2.088E+00
   20.400   2.104E+00
   20.500   2.118E+00
   20.600   2.129E+00
   20.700   2.138E+00
   20.800   2.143E+00
   20.900   2.144E+00
   21.000   2.141E+00
   21.100   2.134E+00
   21.200   2.122E+00
   21.300   2.105E+00
   21.400   2.084E+00
   21.500   2.059E+00
   21.600   2.030E+00
   21.700   1.998E+00
   21.800   1.962E+00
   21.900   1.925E+00
   22.000   1.886E+00
   22.100   1.846E+00
   22.200   1.806E+00
   22.300   1.765E+00
   22.400   1.724E+00
   22.500   1.683E+00
   22.600   1.642E+00
   22.700   1.603E+00
   22.800   1.564E+00
   22.900   1.525E+00
   23.000   1.487E+00
   23.100   1.450E+00
   23.200   1.414E+00
   23.300   1.378E+00
   23.400   1.344E+00
   23.500   1.310E+00
   23.600   1.277E+00
   23.700   1.244E+00
   23.800   1.213E+00
   23.900   1.181E+00
   24.000   1.151E+00
   24.100   1.121E+00
   24.200   1.093E+00
   24.300   1.065E+00
   24.400   1.038E+00
   24.500   1.014E+00
   24.600   9.903E-01
   24.700   9.687E-01
   24.800   9.489E-01
   24.900   9.309E-01
   25.000   9.147E-01
   25.100   9.001E-01
   25.200   8.872E-01
   25.300   8.757E-01
   25.400   8.655E-01
   25.500   8.564E-01
   25.600   8.478E-01
   25.700   8.395E-01
   25.800   8.311E-01
   25.900   8.222E-01
   26.000   8.126E-01
   26.100   8.022E-01
   26.200   7.909E-01
   26.300   7.789E-01
   26.400   7.664E-01
   26.500   7.537E-01
   26.600   7.410E-01
   26.700   7.284E-01
   26.800   7.162E-01
   26.900   7.043E-01
   27.000   6.929E-01
   27.100   6.818E-01
   27.200   6.710E-01
   27.300   6.603E-01
   27.400   6.498E-01
   27.500   6.392E-01
   27.600   6.285E-01
   27.700   6.178E-01
   27.800   6.070E-01
   27.900   5.961E-01
   28.000   5.852E-01
   28.100   5.744E-01
   28.200   5.637E-01
   28.300   5.532E-01
   28.400   5.429E-01
   28.500   5.328E-01
   28.600   5.231E-01
   28.700   5.136E-01
   28.800   5.044E-01
   28.900   4.955E-01
   29.000   4.868E-01
   29.100   4.784E-01
   29.200   4.701E-01
   29.300   4.619E-01
   29.400   4.539E-01
   29.500   4.462E-01
   29.600   4.387E-01
   29.700   4.316E-01
   29.800   4.249E-01
   29.900   4.185E-01
   30.000   4.125E-01
 
 Z=  15 A=  44 P 
  U[MeV]  fE1[mb/MeV]
    0.100   2.901E-05
    0.200   1.161E-04
    0.300   2.615E-04
    0.400   4.654E-04
    0.500   7.285E-04
    0.600   1.051E-03
    0.700   1.435E-03
    0.800   1.879E-03
    0.900   2.386E-03
    1.000   2.957E-03
    1.100   3.593E-03
    1.200   4.296E-03
    1.300   5.067E-03
    1.400   5.908E-03
    1.500   6.822E-03
    1.600   7.811E-03
    1.700   8.877E-03
    1.800   1.002E-02
    1.900   1.125E-02
    2.000   1.257E-02
    2.100   1.398E-02
    2.200   1.548E-02
    2.300   1.708E-02
    2.400   1.878E-02
    2.500   2.060E-02
    2.600   2.252E-02
    2.700   2.457E-02
    2.800   2.675E-02
    2.900   2.906E-02
    3.000   3.151E-02
    3.100   3.412E-02
    3.200   3.688E-02
    3.300   3.982E-02
    3.400   4.294E-02
    3.500   4.626E-02
    3.600   4.978E-02
    3.700   5.353E-02
    3.800   5.752E-02
    3.900   6.178E-02
    4.000   6.631E-02
    4.100   7.115E-02
    4.200   7.631E-02
    4.300   8.183E-02
    4.400   8.774E-02
    4.500   9.408E-02
    4.600   1.009E-01
    4.700   1.082E-01
    4.800   1.160E-01
    4.900   1.245E-01
    5.000   1.336E-01
    5.100   1.435E-01
    5.200   1.542E-01
    5.300   1.658E-01
    5.400   1.784E-01
    5.500   1.922E-01
    5.600   2.071E-01
    5.700   2.235E-01
    5.800   2.415E-01
    5.900   2.611E-01
    6.000   2.827E-01
    6.100   3.064E-01
    6.200   3.324E-01
    6.300   3.610E-01
    6.400   3.924E-01
    6.500   4.268E-01
    6.600   4.643E-01
    6.700   5.049E-01
    6.800   5.487E-01
    6.900   5.953E-01
    7.000   6.443E-01
    7.100   6.950E-01
    7.200   7.467E-01
    7.300   7.982E-01
    7.400   8.487E-01
    7.500   8.972E-01
    7.600   9.431E-01
    7.700   9.859E-01
    7.800   1.025E+00
    7.900   1.062E+00
    8.000   1.095E+00
    8.100   1.125E+00
    8.200   1.151E+00
    8.300   1.175E+00
    8.400   1.195E+00
    8.500   1.213E+00
    8.600   1.230E+00
    8.700   1.245E+00
    8.800   1.258E+00
    8.900   1.271E+00
    9.000   1.283E+00
    9.100   1.295E+00
    9.200   1.304E+00
    9.300   1.313E+00
    9.400   1.321E+00
    9.500   1.328E+00
    9.600   1.335E+00
    9.700   1.343E+00
    9.800   1.351E+00
    9.900   1.361E+00
   10.000   1.373E+00
   10.100   1.386E+00
   10.200   1.403E+00
   10.300   1.422E+00
   10.400   1.445E+00
   10.500   1.470E+00
   10.600   1.500E+00
   10.700   1.533E+00
   10.800   1.570E+00
   10.900   1.610E+00
   11.000   1.653E+00
   11.100   1.699E+00
   11.200   1.747E+00
   11.300   1.797E+00
   11.400   1.847E+00
   11.500   1.899E+00
   11.600   1.950E+00
   11.700   2.000E+00
   11.800   2.049E+00
   11.900   2.095E+00
   12.000   2.138E+00
   12.100   2.178E+00
   12.200   2.215E+00
   12.300   2.250E+00
   12.400   2.284E+00
   12.500   2.318E+00
   12.600   2.354E+00
   12.700   2.390E+00
   12.800   2.428E+00
   12.900   2.466E+00
   13.000   2.502E+00
   13.100   2.533E+00
   13.200   2.559E+00
   13.300   2.578E+00
   13.400   2.589E+00
   13.500   2.593E+00
   13.600   2.591E+00
   13.700   2.586E+00
   13.800   2.580E+00
   13.900   2.575E+00
   14.000   2.574E+00
   14.100   2.579E+00
   14.200   2.589E+00
   14.300   2.605E+00
   14.400   2.627E+00
   14.500   2.655E+00
   14.600   2.686E+00
   14.700   2.721E+00
   14.800   2.759E+00
   14.900   2.798E+00
   15.000   2.838E+00
   15.100   2.879E+00
   15.200   2.921E+00
   15.300   2.965E+00
   15.400   3.010E+00
   15.500   3.057E+00
   15.600   3.105E+00
   15.700   3.156E+00
   15.800   3.207E+00
   15.900   3.259E+00
   16.000   3.310E+00
   16.100   3.358E+00
   16.200   3.401E+00
   16.300   3.437E+00
   16.400   3.466E+00
   16.500   3.486E+00
   16.600   3.496E+00
   16.700   3.496E+00
   16.800   3.485E+00
   16.900   3.464E+00
   17.000   3.432E+00
   17.100   3.390E+00
   17.200   3.338E+00
   17.300   3.276E+00
   17.400   3.207E+00
   17.500   3.133E+00
   17.600   3.056E+00
   17.700   2.978E+00
   17.800   2.900E+00
   17.900   2.826E+00
   18.000   2.755E+00
   18.100   2.689E+00
   18.200   2.627E+00
   18.300   2.569E+00
   18.400   2.515E+00
   18.500   2.464E+00
   18.600   2.417E+00
   18.700   2.374E+00
   18.800   2.333E+00
   18.900   2.296E+00
   19.000   2.261E+00
   19.100   2.231E+00
   19.200   2.203E+00
   19.300   2.179E+00
   19.400   2.159E+00
   19.500   2.142E+00
   19.600   2.129E+00
   19.700   2.119E+00
   19.800   2.112E+00
   19.900   2.108E+00
   20.000   2.107E+00
   20.100   2.108E+00
   20.200   2.110E+00
   20.300   2.113E+00
   20.400   2.116E+00
   20.500   2.119E+00
   20.600   2.120E+00
   20.700   2.120E+00
   20.800   2.116E+00
   20.900   2.110E+00
   21.000   2.101E+00
   21.100   2.088E+00
   21.200   2.073E+00
   21.300   2.054E+00
   21.400   2.031E+00
   21.500   2.006E+00
   21.600   1.977E+00
   21.700   1.944E+00
   21.800   1.909E+00
   21.900   1.870E+00
   22.000   1.830E+00
   22.100   1.787E+00
   22.200   1.742E+00
   22.300   1.697E+00
   22.400   1.652E+00
   22.500   1.607E+00
   22.600   1.562E+00
   22.700   1.519E+00
   22.800   1.477E+00
   22.900   1.436E+00
   23.000   1.397E+00
   23.100   1.360E+00
   23.200   1.324E+00
   23.300   1.290E+00
   23.400   1.257E+00
   23.500   1.225E+00
   23.600   1.194E+00
   23.700   1.165E+00
   23.800   1.136E+00
   23.900   1.109E+00
   24.000   1.083E+00
   24.100   1.057E+00
   24.200   1.033E+00
   24.300   1.010E+00
   24.400   9.874E-01
   24.500   9.663E-01
   24.600   9.464E-01
   24.700   9.279E-01
   24.800   9.109E-01
   24.900   8.954E-01
   25.000   8.816E-01
   25.100   8.693E-01
   25.200   8.586E-01
   25.300   8.492E-01
   25.400   8.411E-01
   25.500   8.339E-01
   25.600   8.275E-01
   25.700   8.215E-01
   25.800   8.158E-01
   25.900   8.100E-01
   26.000   8.041E-01
   26.100   7.977E-01
   26.200   7.908E-01
   26.300   7.831E-01
   26.400   7.747E-01
   26.500   7.654E-01
   26.600   7.552E-01
   26.700   7.443E-01
   26.800   7.327E-01
   26.900   7.206E-01
   27.000   7.082E-01
   27.100   6.957E-01
   27.200   6.832E-01
   27.300   6.708E-01
   27.400   6.586E-01
   27.500   6.467E-01
   27.600   6.350E-01
   27.700   6.236E-01
   27.800   6.123E-01
   27.900   6.013E-01
   28.000   5.904E-01
   28.100   5.796E-01
   28.200   5.689E-01
   28.300   5.583E-01
   28.400   5.479E-01
   28.500   5.376E-01
   28.600   5.275E-01
   28.700   5.177E-01
   28.800   5.083E-01
   28.900   4.992E-01
   29.000   4.905E-01
   29.100   4.824E-01
   29.200   4.748E-01
   29.300   4.678E-01
   29.400   4.614E-01
   29.500   4.554E-01
   29.600   4.498E-01
   29.700   4.446E-01
   29.800   4.396E-01
   29.900   4.348E-01
   30.000   4.300E-01
 
 Z=  15 A=  45 P 
  U[MeV]  fE1[mb/MeV]
    0.100   4.393E-05
    0.200   1.758E-04
    0.300   3.961E-04
    0.400   7.055E-04
    0.500   1.105E-03
    0.600   1.595E-03
    0.700   2.179E-03
    0.800   2.857E-03
    0.900   3.631E-03
    1.000   4.505E-03
    1.100   5.481E-03
    1.200   6.562E-03
    1.300   7.752E-03
    1.400   9.054E-03
    1.500   1.047E-02
    1.600   1.202E-02
    1.700   1.368E-02
    1.800   1.549E-02
    1.900   1.743E-02
    2.000   1.952E-02
    2.100   2.176E-02
    2.200   2.417E-02
    2.300   2.676E-02
    2.400   2.952E-02
    2.500   3.249E-02
    2.600   3.566E-02
    2.700   3.905E-02
    2.800   4.269E-02
    2.900   4.658E-02
    3.000   5.074E-02
    3.100   5.520E-02
    3.200   5.999E-02
    3.300   6.512E-02
    3.400   7.062E-02
    3.500   7.653E-02
    3.600   8.289E-02
    3.700   8.973E-02
    3.800   9.710E-02
    3.900   1.051E-01
    4.000   1.136E-01
    4.100   1.229E-01
    4.200   1.330E-01
    4.300   1.439E-01
    4.400   1.558E-01
    4.500   1.688E-01
    4.600   1.829E-01
    4.700   1.983E-01
    4.800   2.152E-01
    4.900   2.337E-01
    5.000   2.540E-01
    5.100   2.763E-01
    5.200   3.009E-01
    5.300   3.281E-01
    5.400   3.579E-01
    5.500   3.908E-01
    5.600   4.270E-01
    5.700   4.667E-01
    5.800   5.101E-01
    5.900   5.573E-01
    6.000   6.080E-01
    6.100   6.622E-01
    6.200   7.191E-01
    6.300   7.781E-01
    6.400   8.382E-01
    6.500   8.983E-01
    6.600   9.572E-01
    6.700   1.014E+00
    6.800   1.067E+00
    6.900   1.117E+00
    7.000   1.163E+00
    7.100   1.204E+00
    7.200   1.241E+00
    7.300   1.272E+00
    7.400   1.297E+00
    7.500   1.317E+00
    7.600   1.332E+00
    7.700   1.343E+00
    7.800   1.351E+00
    7.900   1.358E+00
    8.000   1.364E+00
    8.100   1.372E+00
    8.200   1.380E+00
    8.300   1.391E+00
    8.400   1.403E+00
    8.500   1.417E+00
    8.600   1.431E+00
    8.700   1.445E+00
    8.800   1.458E+00
    8.900   1.469E+00
    9.000   1.477E+00
    9.100   1.483E+00
    9.200   1.484E+00
    9.300   1.483E+00
    9.400   1.478E+00
    9.500   1.472E+00
    9.600   1.465E+00
    9.700   1.458E+00
    9.800   1.453E+00
    9.900   1.450E+00
   10.000   1.451E+00
   10.100   1.456E+00
   10.200   1.466E+00
   10.300   1.481E+00
   10.400   1.501E+00
   10.500   1.527E+00
   10.600   1.559E+00
   10.700   1.597E+00
   10.800   1.640E+00
   10.900   1.686E+00
   11.000   1.736E+00
   11.100   1.787E+00
   11.200   1.839E+00
   11.300   1.888E+00
   11.400   1.935E+00
   11.500   1.977E+00
   11.600   2.015E+00
   11.700   2.049E+00
   11.800   2.080E+00
   11.900   2.108E+00
   12.000   2.135E+00
   12.100   2.162E+00
   12.200   2.191E+00
   12.300   2.222E+00
   12.400   2.255E+00
   12.500   2.292E+00
   12.600   2.333E+00
   12.700   2.377E+00
   12.800   2.425E+00
   12.900   2.475E+00
   13.000   2.528E+00
   13.100   2.580E+00
   13.200   2.631E+00
   13.300   2.679E+00
   13.400   2.722E+00
   13.500   2.760E+00
   13.600   2.792E+00
   13.700   2.818E+00
   13.800   2.840E+00
   13.900   2.860E+00
   14.000   2.879E+00
   14.100   2.899E+00
   14.200   2.921E+00
   14.300   2.945E+00
   14.400   2.970E+00
   14.500   2.996E+00
   14.600   3.021E+00
   14.700   3.045E+00
   14.800   3.067E+00
   14.900   3.086E+00
   15.000   3.102E+00
   15.100   3.117E+00
   15.200   3.130E+00
   15.300   3.144E+00
   15.400   3.159E+00
   15.500   3.176E+00
   15.600   3.195E+00
   15.700   3.215E+00
   15.800   3.235E+00
   15.900   3.254E+00
   16.000   3.270E+00
   16.100   3.281E+00
   16.200   3.286E+00
   16.300   3.284E+00
   16.400   3.275E+00
   16.500   3.261E+00
   16.600   3.242E+00
   16.700   3.221E+00
   16.800   3.198E+00
   16.900   3.175E+00
   17.000   3.152E+00
   17.100   3.128E+00
   17.200   3.105E+00
   17.300   3.080E+00
   17.400   3.055E+00
   17.500   3.028E+00
   17.600   3.000E+00
   17.700   2.969E+00
   17.800   2.936E+00
   17.900   2.901E+00
   18.000   2.862E+00
   18.100   2.822E+00
   18.200   2.780E+00
   18.300   2.737E+00
   18.400   2.692E+00
   18.500   2.648E+00
   18.600   2.603E+00
   18.700   2.558E+00
   18.800   2.514E+00
   18.900   2.471E+00
   19.000   2.429E+00
   19.100   2.390E+00
   19.200   2.352E+00
   19.300   2.317E+00
   19.400   2.284E+00
   19.500   2.255E+00
   19.600   2.227E+00
   19.700   2.203E+00
   19.800   2.181E+00
   19.900   2.161E+00
   20.000   2.143E+00
   20.100   2.126E+00
   20.200   2.110E+00
   20.300   2.094E+00
   20.400   2.077E+00
   20.500   2.059E+00
   20.600   2.040E+00
   20.700   2.019E+00
   20.800   1.996E+00
   20.900   1.970E+00
   21.000   1.943E+00
   21.100   1.914E+00
   21.200   1.885E+00
   21.300   1.855E+00
   21.400   1.824E+00
   21.500   1.794E+00
   21.600   1.764E+00
   21.700   1.733E+00
   21.800   1.703E+00
   21.900   1.672E+00
   22.000   1.641E+00
   22.100   1.609E+00
   22.200   1.578E+00
   22.300   1.546E+00
   22.400   1.513E+00
   22.500   1.481E+00
   22.600   1.450E+00
   22.700   1.418E+00
   22.800   1.387E+00
   22.900   1.357E+00
   23.000   1.327E+00
   23.100   1.298E+00
   23.200   1.270E+00
   23.300   1.243E+00
   23.400   1.216E+00
   23.500   1.190E+00
   23.600   1.165E+00
   23.700   1.141E+00
   23.800   1.117E+00
   23.900   1.094E+00
   24.000   1.072E+00
   24.100   1.051E+00
   24.200   1.031E+00
   24.300   1.012E+00
   24.400   9.935E-01
   24.500   9.764E-01
   24.600   9.602E-01
   24.700   9.449E-01
   24.800   9.305E-01
   24.900   9.167E-01
   25.000   9.035E-01
   25.100   8.908E-01
   25.200   8.787E-01
   25.300   8.672E-01
   25.400   8.563E-01
   25.500   8.460E-01
   25.600   8.363E-01
   25.700   8.272E-01
   25.800   8.185E-01
   25.900   8.102E-01
   26.000   8.019E-01
   26.100   7.936E-01
   26.200   7.849E-01
   26.300   7.756E-01
   26.400   7.657E-01
   26.500   7.551E-01
   26.600   7.439E-01
   26.700   7.321E-01
   26.800   7.199E-01
   26.900   7.074E-01
   27.000   6.948E-01
   27.100   6.822E-01
   27.200   6.699E-01
   27.300   6.577E-01
   27.400   6.459E-01
   27.500   6.344E-01
   27.600   6.232E-01
   27.700   6.124E-01
   27.800   6.020E-01
   27.900   5.919E-01
   28.000   5.821E-01
   28.100   5.727E-01
   28.200   5.637E-01
   28.300   5.550E-01
   28.400   5.466E-01
   28.500   5.386E-01
   28.600   5.308E-01
   28.700   5.233E-01
   28.800   5.159E-01
   28.900   5.085E-01
   29.000   5.012E-01
   29.100   4.939E-01
   29.200   4.867E-01
   29.300   4.795E-01
   29.400   4.725E-01
   29.500   4.657E-01
   29.600   4.592E-01
   29.700   4.529E-01
   29.800   4.469E-01
   29.900   4.411E-01
   30.000   4.355E-01
 
 Z=  15 A=  46 P 
  U[MeV]  fE1[mb/MeV]
    0.100   6.371E-05
    0.200   2.551E-04
    0.300   5.748E-04
    0.400   1.024E-03
    0.500   1.604E-03
    0.600   2.318E-03
    0.700   3.167E-03
    0.800   4.156E-03
    0.900   5.287E-03
    1.000   6.565E-03
    1.100   7.995E-03
    1.200   9.583E-03
    1.300   1.133E-02
    1.400   1.326E-02
    1.500   1.536E-02
    1.600   1.764E-02
    1.700   2.013E-02
    1.800   2.282E-02
    1.900   2.573E-02
    2.000   2.887E-02
    2.100   3.226E-02
    2.200   3.592E-02
    2.300   3.985E-02
    2.400   4.408E-02
    2.500   4.864E-02
    2.600   5.354E-02
    2.700   5.882E-02
    2.800   6.450E-02
    2.900   7.061E-02
    3.000   7.720E-02
    3.100   8.430E-02
    3.200   9.196E-02
    3.300   1.002E-01
    3.400   1.092E-01
    3.500   1.188E-01
    3.600   1.293E-01
    3.700   1.407E-01
    3.800   1.530E-01
    3.900   1.665E-01
    4.000   1.811E-01
    4.100   1.971E-01
    4.200   2.145E-01
    4.300   2.336E-01
    4.400   2.545E-01
    4.500   2.775E-01
    4.600   3.028E-01
    4.700   3.305E-01
    4.800   3.611E-01
    4.900   3.948E-01
    5.000   4.319E-01
    5.100   4.727E-01
    5.200   5.175E-01
    5.300   5.664E-01
    5.400   6.197E-01
    5.500   6.774E-01
    5.600   7.391E-01
    5.700   8.046E-01
    5.800   8.731E-01
    5.900   9.437E-01
    6.000   1.015E+00
    6.100   1.087E+00
    6.200   1.158E+00
    6.300   1.226E+00
    6.400   1.292E+00
    6.500   1.355E+00
    6.600   1.414E+00
    6.700   1.470E+00
    6.800   1.521E+00
    6.900   1.566E+00
    7.000   1.605E+00
    7.100   1.637E+00
    7.200   1.661E+00
    7.300   1.678E+00
    7.400   1.688E+00
    7.500   1.691E+00
    7.600   1.690E+00
    7.700   1.684E+00
    7.800   1.676E+00
    7.900   1.666E+00
    8.000   1.655E+00
    8.100   1.645E+00
    8.200   1.636E+00
    8.300   1.628E+00
    8.400   1.622E+00
    8.500   1.617E+00
    8.600   1.615E+00
    8.700   1.613E+00
    8.800   1.612E+00
    8.900   1.612E+00
    9.000   1.610E+00
    9.100   1.608E+00
    9.200   1.603E+00
    9.300   1.596E+00
    9.400   1.587E+00
    9.500   1.576E+00
    9.600   1.563E+00
    9.700   1.549E+00
    9.800   1.536E+00
    9.900   1.525E+00
   10.000   1.516E+00
   10.100   1.511E+00
   10.200   1.510E+00
   10.300   1.515E+00
   10.400   1.524E+00
   10.500   1.540E+00
   10.600   1.562E+00
   10.700   1.590E+00
   10.800   1.624E+00
   10.900   1.665E+00
   11.000   1.711E+00
   11.100   1.762E+00
   11.200   1.817E+00
   11.300   1.874E+00
   11.400   1.931E+00
   11.500   1.986E+00
   11.600   2.038E+00
   11.700   2.083E+00
   11.800   2.121E+00
   11.900   2.151E+00
   12.000   2.174E+00
   12.100   2.190E+00
   12.200   2.204E+00
   12.300   2.216E+00
   12.400   2.231E+00
   12.500   2.249E+00
   12.600   2.273E+00
   12.700   2.305E+00
   12.800   2.345E+00
   12.900   2.393E+00
   13.000   2.449E+00
   13.100   2.511E+00
   13.200   2.579E+00
   13.300   2.649E+00
   13.400   2.719E+00
   13.500   2.786E+00
   13.600   2.848E+00
   13.700   2.903E+00
   13.800   2.950E+00
   13.900   2.989E+00
   14.000   3.022E+00
   14.100   3.051E+00
   14.200   3.077E+00
   14.300   3.103E+00
   14.400   3.129E+00
   14.500   3.157E+00
   14.600   3.187E+00
   14.700   3.217E+00
   14.800   3.247E+00
   14.900   3.276E+00
   15.000   3.303E+00
   15.100   3.326E+00
   15.200   3.345E+00
   15.300   3.359E+00
   15.400   3.370E+00
   15.500   3.377E+00
   15.600   3.381E+00
   15.700   3.383E+00
   15.800   3.382E+00
   15.900   3.378E+00
   16.000   3.372E+00
   16.100   3.364E+00
   16.200   3.353E+00
   16.300   3.339E+00
   16.400   3.324E+00
   16.500   3.306E+00
   16.600   3.286E+00
   16.700   3.265E+00
   16.800   3.243E+00
   16.900   3.220E+00
   17.000   3.196E+00
   17.100   3.170E+00
   17.200   3.142E+00
   17.300   3.113E+00
   17.400   3.081E+00
   17.500   3.047E+00
   17.600   3.010E+00
   17.700   2.972E+00
   17.800   2.933E+00
   17.900   2.893E+00
   18.000   2.854E+00
   18.100   2.816E+00
   18.200   2.779E+00
   18.300   2.745E+00
   18.400   2.712E+00
   18.500   2.681E+00
   18.600   2.651E+00
   18.700   2.623E+00
   18.800   2.596E+00
   18.900   2.570E+00
   19.000   2.545E+00
   19.100   2.520E+00
   19.200   2.496E+00
   19.300   2.471E+00
   19.400   2.446E+00
   19.500   2.419E+00
   19.600   2.391E+00
   19.700   2.361E+00
   19.800   2.328E+00
   19.900   2.293E+00
   20.000   2.257E+00
   20.100   2.219E+00
   20.200   2.182E+00
   20.300   2.144E+00
   20.400   2.107E+00
   20.500   2.071E+00
   20.600   2.036E+00
   20.700   2.002E+00
   20.800   1.968E+00
   20.900   1.934E+00
   21.000   1.899E+00
   21.100   1.864E+00
   21.200   1.828E+00
   21.300   1.791E+00
   21.400   1.753E+00
   21.500   1.714E+00
   21.600   1.676E+00
   21.700   1.637E+00
   21.800   1.599E+00
   21.900   1.561E+00
   22.000   1.525E+00
   22.100   1.488E+00
   22.200   1.453E+00
   22.300   1.418E+00
   22.400   1.385E+00
   22.500   1.352E+00
   22.600   1.320E+00
   22.700   1.289E+00
   22.800   1.260E+00
   22.900   1.232E+00
   23.000   1.206E+00
   23.100   1.182E+00
   23.200   1.159E+00
   23.300   1.138E+00
   23.400   1.119E+00
   23.500   1.102E+00
   23.600   1.086E+00
   23.700   1.072E+00
   23.800   1.058E+00
   23.900   1.046E+00
   24.000   1.034E+00
   24.100   1.022E+00
   24.200   1.011E+00
   24.300   1.000E+00
   24.400   9.892E-01
   24.500   9.779E-01
   24.600   9.663E-01
   24.700   9.543E-01
   24.800   9.420E-01
   24.900   9.292E-01
   25.000   9.162E-01
   25.100   9.030E-01
   25.200   8.898E-01
   25.300   8.769E-01
   25.400   8.643E-01
   25.500   8.523E-01
   25.600   8.407E-01
   25.700   8.298E-01
   25.800   8.193E-01
   25.900   8.093E-01
   26.000   7.997E-01
   26.100   7.904E-01
   26.200   7.813E-01
   26.300   7.721E-01
   26.400   7.629E-01
   26.500   7.534E-01
   26.600   7.434E-01
   26.700   7.331E-01
   26.800   7.222E-01
   26.900   7.110E-01
   27.000   6.994E-01
   27.100   6.877E-01
   27.200   6.761E-01
   27.300   6.647E-01
   27.400   6.536E-01
   27.500   6.431E-01
   27.600   6.330E-01
   27.700   6.235E-01
   27.800   6.145E-01
   27.900   6.059E-01
   28.000   5.977E-01
   28.100   5.896E-01
   28.200   5.815E-01
   28.300   5.734E-01
   28.400   5.651E-01
   28.500   5.565E-01
   28.600   5.477E-01
   28.700   5.388E-01
   28.800   5.298E-01
   28.900   5.208E-01
   29.000   5.120E-01
   29.100   5.035E-01
   29.200   4.954E-01
   29.300   4.877E-01
   29.400   4.805E-01
   29.500   4.738E-01
   29.600   4.676E-01
   29.700   4.618E-01
   29.800   4.564E-01
   29.900   4.513E-01
   30.000   4.466E-01
 
 Z=  15 A=  47 P 
  U[MeV]  fE1[mb/MeV]
    0.100   7.626E-05
    0.200   3.053E-04
    0.300   6.880E-04
    0.400   1.226E-03
    0.500   1.920E-03
    0.600   2.774E-03
    0.700   3.791E-03
    0.800   4.974E-03
    0.900   6.327E-03
    1.000   7.856E-03
    1.100   9.567E-03
    1.200   1.147E-02
    1.300   1.356E-02
    1.400   1.586E-02
    1.500   1.837E-02
    1.600   2.110E-02
    1.700   2.407E-02
    1.800   2.728E-02
    1.900   3.076E-02
    2.000   3.451E-02
    2.100   3.855E-02
    2.200   4.290E-02
    2.300   4.758E-02
    2.400   5.262E-02
    2.500   5.803E-02
    2.600   6.385E-02
    2.700   7.010E-02
    2.800   7.682E-02
    2.900   8.404E-02
    3.000   9.180E-02
    3.100   1.002E-01
    3.200   1.091E-01
    3.300   1.188E-01
    3.400   1.292E-01
    3.500   1.405E-01
    3.600   1.526E-01
    3.700   1.657E-01
    3.800   1.799E-01
    3.900   1.952E-01
    4.000   2.117E-01
    4.100   2.297E-01
    4.200   2.492E-01
    4.300   2.703E-01
    4.400   2.932E-01
    4.500   3.182E-01
    4.600   3.452E-01
    4.700   3.747E-01
    4.800   4.066E-01
    4.900   4.413E-01
    5.000   4.790E-01
    5.100   5.198E-01
    5.200   5.639E-01
    5.300   6.114E-01
    5.400   6.625E-01
    5.500   7.172E-01
    5.600   7.755E-01
    5.700   8.373E-01
    5.800   9.024E-01
    5.900   9.707E-01
    6.000   1.042E+00
    6.100   1.115E+00
    6.200   1.191E+00
    6.300   1.268E+00
    6.400   1.347E+00
    6.500   1.426E+00
    6.600   1.505E+00
    6.700   1.584E+00
    6.800   1.661E+00
    6.900   1.735E+00
    7.000   1.806E+00
    7.100   1.872E+00
    7.200   1.932E+00
    7.300   1.986E+00
    7.400   2.032E+00
    7.500   2.071E+00
    7.600   2.103E+00
    7.700   2.128E+00
    7.800   2.146E+00
    7.900   2.159E+00
    8.000   2.166E+00
    8.100   2.168E+00
    8.200   2.165E+00
    8.300   2.158E+00
    8.400   2.146E+00
    8.500   2.129E+00
    8.600   2.109E+00
    8.700   2.084E+00
    8.800   2.057E+00
    8.900   2.026E+00
    9.000   1.994E+00
    9.100   1.961E+00
    9.200   1.927E+00
    9.300   1.894E+00
    9.400   1.862E+00
    9.500   1.830E+00
    9.600   1.801E+00
    9.700   1.773E+00
    9.800   1.748E+00
    9.900   1.725E+00
   10.000   1.706E+00
   10.100   1.689E+00
   10.200   1.677E+00
   10.300   1.668E+00
   10.400   1.664E+00
   10.500   1.664E+00
   10.600   1.668E+00
   10.700   1.677E+00
   10.800   1.690E+00
   10.900   1.706E+00
   11.000   1.726E+00
   11.100   1.750E+00
   11.200   1.776E+00
   11.300   1.806E+00
   11.400   1.838E+00
   11.500   1.872E+00
   11.600   1.908E+00
   11.700   1.945E+00
   11.800   1.984E+00
   11.900   2.024E+00
   12.000   2.063E+00
   12.100   2.102E+00
   12.200   2.140E+00
   12.300   2.177E+00
   12.400   2.212E+00
   12.500   2.247E+00
   12.600   2.281E+00
   12.700   2.316E+00
   12.800   2.352E+00
   12.900   2.391E+00
   13.000   2.433E+00
   13.100   2.479E+00
   13.200   2.530E+00
   13.300   2.585E+00
   13.400   2.644E+00
   13.500   2.707E+00
   13.600   2.772E+00
   13.700   2.837E+00
   13.800   2.901E+00
   13.900   2.963E+00
   14.000   3.019E+00
   14.100   3.070E+00
   14.200   3.114E+00
   14.300   3.150E+00
   14.400   3.179E+00
   14.500   3.201E+00
   14.600   3.218E+00
   14.700   3.232E+00
   14.800   3.244E+00
   14.900   3.256E+00
   15.000   3.269E+00
   15.100   3.285E+00
   15.200   3.304E+00
   15.300   3.326E+00
   15.400   3.352E+00
   15.500   3.381E+00
   15.600   3.412E+00
   15.700   3.443E+00
   15.800   3.474E+00
   15.900   3.504E+00
   16.000   3.530E+00
   16.100   3.553E+00
   16.200   3.571E+00
   16.300   3.582E+00
   16.400   3.588E+00
   16.500   3.586E+00
   16.600   3.578E+00
   16.700   3.563E+00
   16.800   3.542E+00
   16.900   3.516E+00
   17.000   3.486E+00
   17.100   3.454E+00
   17.200   3.420E+00
   17.300   3.385E+00
   17.400   3.352E+00
   17.500   3.320E+00
   17.600   3.290E+00
   17.700   3.261E+00
   17.800   3.235E+00
   17.900   3.209E+00
   18.000   3.184E+00
   18.100   3.158E+00
   18.200   3.132E+00
   18.300   3.103E+00
   18.400   3.073E+00
   18.500   3.040E+00
   18.600   3.004E+00
   18.700   2.966E+00
   18.800   2.926E+00
   18.900   2.883E+00
   19.000   2.838E+00
   19.100   2.791E+00
   19.200   2.741E+00
   19.300   2.690E+00
   19.400   2.638E+00
   19.500   2.583E+00
   19.600   2.528E+00
   19.700   2.472E+00
   19.800   2.416E+00
   19.900   2.360E+00
   20.000   2.306E+00
   20.100   2.253E+00
   20.200   2.203E+00
   20.300   2.156E+00
   20.400   2.112E+00
   20.500   2.070E+00
   20.600   2.031E+00
   20.700   1.995E+00
   20.800   1.960E+00
   20.900   1.926E+00
   21.000   1.892E+00
   21.100   1.858E+00
   21.200   1.823E+00
   21.300   1.787E+00
   21.400   1.750E+00
   21.500   1.712E+00
   21.600   1.672E+00
   21.700   1.630E+00
   21.800   1.589E+00
   21.900   1.546E+00
   22.000   1.504E+00
   22.100   1.463E+00
   22.200   1.422E+00
   22.300   1.382E+00
   22.400   1.344E+00
   22.500   1.308E+00
   22.600   1.273E+00
   22.700   1.241E+00
   22.800   1.211E+00
   22.900   1.182E+00
   23.000   1.156E+00
   23.100   1.131E+00
   23.200   1.109E+00
   23.300   1.088E+00
   23.400   1.069E+00
   23.500   1.051E+00
   23.600   1.036E+00
   23.700   1.021E+00
   23.800   1.008E+00
   23.900   9.960E-01
   24.000   9.851E-01
   24.100   9.750E-01
   24.200   9.656E-01
   24.300   9.566E-01
   24.400   9.479E-01
   24.500   9.394E-01
   24.600   9.309E-01
   24.700   9.221E-01
   24.800   9.131E-01
   24.900   9.037E-01
   25.000   8.938E-01
   25.100   8.832E-01
   25.200   8.721E-01
   25.300   8.603E-01
   25.400   8.479E-01
   25.500   8.349E-01
   25.600   8.216E-01
   25.700   8.079E-01
   25.800   7.942E-01
   25.900   7.804E-01
   26.000   7.669E-01
   26.100   7.537E-01
   26.200   7.409E-01
   26.300   7.286E-01
   26.400   7.168E-01
   26.500   7.056E-01
   26.600   6.949E-01
   26.700   6.846E-01
   26.800   6.749E-01
   26.900   6.655E-01
   27.000   6.564E-01
   27.100   6.477E-01
   27.200   6.394E-01
   27.300   6.313E-01
   27.400   6.236E-01
   27.500   6.161E-01
   27.600   6.090E-01
   27.700   6.022E-01
   27.800   5.956E-01
   27.900   5.893E-01
   28.000   5.833E-01
   28.100   5.776E-01
   28.200   5.721E-01
   28.300   5.671E-01
   28.400   5.623E-01
   28.500   5.579E-01
   28.600   5.539E-01
   28.700   5.503E-01
   28.800   5.470E-01
   28.900   5.439E-01
   29.000   5.410E-01
   29.100   5.382E-01
   29.200   5.353E-01
   29.300   5.321E-01
   29.400   5.287E-01
   29.500   5.248E-01
   29.600   5.204E-01
   29.700   5.154E-01
   29.800   5.098E-01
   29.900   5.036E-01
   30.000   4.971E-01
 
 Z=  15 A=  48 P 
  U[MeV]  fE1[mb/MeV]
    0.100   7.630E-05
    0.200   3.055E-04
    0.300   6.883E-04
    0.400   1.226E-03
    0.500   1.920E-03
    0.600   2.774E-03
    0.700   3.790E-03
    0.800   4.971E-03
    0.900   6.322E-03
    1.000   7.847E-03
    1.100   9.552E-03
    1.200   1.144E-02
    1.300   1.353E-02
    1.400   1.581E-02
    1.500   1.830E-02
    1.600   2.102E-02
    1.700   2.396E-02
    1.800   2.714E-02
    1.900   3.057E-02
    2.000   3.427E-02
    2.100   3.825E-02
    2.200   4.253E-02
    2.300   4.713E-02
    2.400   5.207E-02
    2.500   5.736E-02
    2.600   6.304E-02
    2.700   6.914E-02
    2.800   7.567E-02
    2.900   8.267E-02
    3.000   9.019E-02
    3.100   9.825E-02
    3.200   1.069E-01
    3.300   1.162E-01
    3.400   1.262E-01
    3.500   1.369E-01
    3.600   1.485E-01
    3.700   1.609E-01
    3.800   1.744E-01
    3.900   1.888E-01
    4.000   2.044E-01
    4.100   2.213E-01
    4.200   2.396E-01
    4.300   2.593E-01
    4.400   2.807E-01
    4.500   3.039E-01
    4.600   3.291E-01
    4.700   3.564E-01
    4.800   3.860E-01
    4.900   4.182E-01
    5.000   4.532E-01
    5.100   4.911E-01
    5.200   5.323E-01
    5.300   5.769E-01
    5.400   6.251E-01
    5.500   6.771E-01
    5.600   7.330E-01
    5.700   7.930E-01
    5.800   8.570E-01
    5.900   9.249E-01
    6.000   9.967E-01
    6.100   1.072E+00
    6.200   1.151E+00
    6.300   1.232E+00
    6.400   1.316E+00
    6.500   1.402E+00
    6.600   1.489E+00
    6.700   1.577E+00
    6.800   1.665E+00
    6.900   1.752E+00
    7.000   1.837E+00
    7.100   1.920E+00
    7.200   1.999E+00
    7.300   2.075E+00
    7.400   2.144E+00
    7.500   2.207E+00
    7.600   2.263E+00
    7.700   2.310E+00
    7.800   2.348E+00
    7.900   2.376E+00
    8.000   2.395E+00
    8.100   2.404E+00
    8.200   2.404E+00
    8.300   2.395E+00
    8.400   2.378E+00
    8.500   2.354E+00
    8.600   2.325E+00
    8.700   2.292E+00
    8.800   2.256E+00
    8.900   2.220E+00
    9.000   2.183E+00
    9.100   2.148E+00
    9.200   2.116E+00
    9.300   2.086E+00
    9.400   2.059E+00
    9.500   2.036E+00
    9.600   2.016E+00
    9.700   1.999E+00
    9.800   1.984E+00
    9.900   1.972E+00
   10.000   1.961E+00
   10.100   1.952E+00
   10.200   1.944E+00
   10.300   1.937E+00
   10.400   1.931E+00
   10.500   1.925E+00
   10.600   1.920E+00
   10.700   1.916E+00
   10.800   1.913E+00
   10.900   1.912E+00
   11.000   1.913E+00
   11.100   1.917E+00
   11.200   1.924E+00
   11.300   1.935E+00
   11.400   1.950E+00
   11.500   1.970E+00
   11.600   1.996E+00
   11.700   2.028E+00
   11.800   2.066E+00
   11.900   2.110E+00
   12.000   2.160E+00
   12.100   2.215E+00
   12.200   2.276E+00
   12.300   2.341E+00
   12.400   2.409E+00
   12.500   2.479E+00
   12.600   2.550E+00
   12.700   2.621E+00
   12.800   2.691E+00
   12.900   2.760E+00
   13.000   2.825E+00
   13.100   2.889E+00
   13.200   2.949E+00
   13.300   3.007E+00
   13.400   3.062E+00
   13.500   3.114E+00
   13.600   3.164E+00
   13.700   3.211E+00
   13.800   3.255E+00
   13.900   3.295E+00
   14.000   3.331E+00
   14.100   3.364E+00
   14.200   3.393E+00
   14.300   3.418E+00
   14.400   3.440E+00
   14.500   3.458E+00
   14.600   3.475E+00
   14.700   3.489E+00
   14.800   3.502E+00
   14.900   3.513E+00
   15.000   3.525E+00
   15.100   3.537E+00
   15.200   3.549E+00
   15.300   3.562E+00
   15.400   3.575E+00
   15.500   3.590E+00
   15.600   3.604E+00
   15.700   3.619E+00
   15.800   3.633E+00
   15.900   3.645E+00
   16.000   3.656E+00
   16.100   3.664E+00
   16.200   3.670E+00
   16.300   3.672E+00
   16.400   3.672E+00
   16.500   3.669E+00
   16.600   3.663E+00
   16.700   3.656E+00
   16.800   3.648E+00
   16.900   3.638E+00
   17.000   3.627E+00
   17.100   3.615E+00
   17.200   3.602E+00
   17.300   3.586E+00
   17.400   3.569E+00
   17.500   3.549E+00
   17.600   3.526E+00
   17.700   3.500E+00
   17.800   3.470E+00
   17.900   3.438E+00
   18.000   3.403E+00
   18.100   3.366E+00
   18.200   3.328E+00
   18.300   3.288E+00
   18.400   3.247E+00
   18.500   3.206E+00
   18.600   3.163E+00
   18.700   3.120E+00
   18.800   3.075E+00
   18.900   3.029E+00
   19.000   2.980E+00
   19.100   2.929E+00
   19.200   2.876E+00
   19.300   2.821E+00
   19.400   2.763E+00
   19.500   2.704E+00
   19.600   2.644E+00
   19.700   2.584E+00
   19.800   2.524E+00
   19.900   2.467E+00
   20.000   2.411E+00
   20.100   2.358E+00
   20.200   2.308E+00
   20.300   2.261E+00
   20.400   2.216E+00
   20.500   2.174E+00
   20.600   2.134E+00
   20.700   2.095E+00
   20.800   2.056E+00
   20.900   2.017E+00
   21.000   1.978E+00
   21.100   1.939E+00
   21.200   1.899E+00
   21.300   1.859E+00
   21.400   1.819E+00
   21.500   1.780E+00
   21.600   1.741E+00
   21.700   1.703E+00
   21.800   1.666E+00
   21.900   1.631E+00
   22.000   1.596E+00
   22.100   1.562E+00
   22.200   1.530E+00
   22.300   1.498E+00
   22.400   1.466E+00
   22.500   1.436E+00
   22.600   1.406E+00
   22.700   1.377E+00
   22.800   1.349E+00
   22.900   1.322E+00
   23.000   1.296E+00
   23.100   1.271E+00
   23.200   1.248E+00
   23.300   1.226E+00
   23.400   1.204E+00
   23.500   1.184E+00
   23.600   1.164E+00
   23.700   1.145E+00
   23.800   1.126E+00
   23.900   1.107E+00
   24.000   1.088E+00
   24.100   1.068E+00
   24.200   1.048E+00
   24.300   1.027E+00
   24.400   1.006E+00
   24.500   9.839E-01
   24.600   9.616E-01
   24.700   9.392E-01
   24.800   9.169E-01
   24.900   8.950E-01
   25.000   8.737E-01
   25.100   8.533E-01
   25.200   8.339E-01
   25.300   8.157E-01
   25.400   7.988E-01
   25.500   7.831E-01
   25.600   7.687E-01
   25.700   7.555E-01
   25.800   7.434E-01
   25.900   7.322E-01
   26.000   7.219E-01
   26.100   7.122E-01
   26.200   7.031E-01
   26.300   6.944E-01
   26.400   6.861E-01
   26.500   6.779E-01
   26.600   6.700E-01
   26.700   6.622E-01
   26.800   6.547E-01
   26.900   6.473E-01
   27.000   6.401E-01
   27.100   6.332E-01
   27.200   6.267E-01
   27.300   6.207E-01
   27.400   6.152E-01
   27.500   6.102E-01
   27.600   6.059E-01
   27.700   6.022E-01
   27.800   5.992E-01
   27.900   5.968E-01
   28.000   5.951E-01
   28.100   5.939E-01
   28.200   5.932E-01
   28.300   5.929E-01
   28.400   5.930E-01
   28.500   5.933E-01
   28.600   5.937E-01
   28.700   5.940E-01
   28.800   5.942E-01
   28.900   5.940E-01
   29.000   5.934E-01
   29.100   5.922E-01
   29.200   5.904E-01
   29.300   5.881E-01
   29.400   5.852E-01
   29.500   5.818E-01
   29.600   5.780E-01
   29.700   5.740E-01
   29.800   5.698E-01
   29.900   5.655E-01
   30.000   5.612E-01
 
