 Z=  16 A=  27 S 
  U[MeV]  fE1[mb/MeV]
    0.100   1.138E-05
    0.200   4.555E-05
    0.300   1.025E-04
    0.400   1.824E-04
    0.500   2.853E-04
    0.600   4.113E-04
    0.700   5.605E-04
    0.800   7.333E-04
    0.900   9.297E-04
    1.000   1.150E-03
    1.100   1.394E-03
    1.200   1.664E-03
    1.300   1.957E-03
    1.400   2.276E-03
    1.500   2.621E-03
    1.600   2.992E-03
    1.700   3.389E-03
    1.800   3.814E-03
    1.900   4.266E-03
    2.000   4.746E-03
    2.100   5.255E-03
    2.200   5.794E-03
    2.300   6.363E-03
    2.400   6.963E-03
    2.500   7.596E-03
    2.600   8.261E-03
    2.700   8.959E-03
    2.800   9.693E-03
    2.900   1.046E-02
    3.000   1.127E-02
    3.100   1.211E-02
    3.200   1.300E-02
    3.300   1.392E-02
    3.400   1.489E-02
    3.500   1.590E-02
    3.600   1.696E-02
    3.700   1.806E-02
    3.800   1.922E-02
    3.900   2.042E-02
    4.000   2.168E-02
    4.100   2.299E-02
    4.200   2.437E-02
    4.300   2.580E-02
    4.400   2.729E-02
    4.500   2.885E-02
    4.600   3.048E-02
    4.700   3.218E-02
    4.800   3.396E-02
    4.900   3.582E-02
    5.000   3.776E-02
    5.100   3.979E-02
    5.200   4.191E-02
    5.300   4.412E-02
    5.400   4.644E-02
    5.500   4.886E-02
    5.600   5.140E-02
    5.700   5.405E-02
    5.800   5.684E-02
    5.900   5.975E-02
    6.000   6.280E-02
    6.100   6.600E-02
    6.200   6.936E-02
    6.300   7.288E-02
    6.400   7.657E-02
    6.500   8.045E-02
    6.600   8.453E-02
    6.700   8.880E-02
    6.800   9.330E-02
    6.900   9.802E-02
    7.000   1.030E-01
    7.100   1.082E-01
    7.200   1.137E-01
    7.300   1.194E-01
    7.400   1.255E-01
    7.500   1.318E-01
    7.600   1.384E-01
    7.700   1.454E-01
    7.800   1.526E-01
    7.900   1.602E-01
    8.000   1.682E-01
    8.100   1.764E-01
    8.200   1.849E-01
    8.300   1.937E-01
    8.400   2.028E-01
    8.500   2.122E-01
    8.600   2.217E-01
    8.700   2.314E-01
    8.800   2.413E-01
    8.900   2.512E-01
    9.000   2.612E-01
    9.100   2.711E-01
    9.200   2.810E-01
    9.300   2.908E-01
    9.400   3.005E-01
    9.500   3.100E-01
    9.600   3.194E-01
    9.700   3.286E-01
    9.800   3.377E-01
    9.900   3.466E-01
   10.000   3.554E-01
   10.100   3.641E-01
   10.200   3.729E-01
   10.300   3.816E-01
   10.400   3.904E-01
   10.500   3.993E-01
   10.600   4.083E-01
   10.700   4.175E-01
   10.800   4.269E-01
   10.900   4.366E-01
   11.000   4.465E-01
   11.100   4.567E-01
   11.200   4.673E-01
   11.300   4.781E-01
   11.400   4.893E-01
   11.500   5.008E-01
   11.600   5.126E-01
   11.700   5.249E-01
   11.800   5.375E-01
   11.900   5.506E-01
   12.000   5.641E-01
   12.100   5.781E-01
   12.200   5.927E-01
   12.300   6.077E-01
   12.400   6.234E-01
   12.500   6.397E-01
   12.600   6.565E-01
   12.700   6.739E-01
   12.800   6.918E-01
   12.900   7.102E-01
   13.000   7.289E-01
   13.100   7.480E-01
   13.200   7.672E-01
   13.300   7.865E-01
   13.400   8.056E-01
   13.500   8.245E-01
   13.600   8.430E-01
   13.700   8.610E-01
   13.800   8.783E-01
   13.900   8.949E-01
   14.000   9.107E-01
   14.100   9.257E-01
   14.200   9.400E-01
   14.300   9.535E-01
   14.400   9.665E-01
   14.500   9.790E-01
   14.600   9.911E-01
   14.700   1.003E+00
   14.800   1.015E+00
   14.900   1.027E+00
   15.000   1.039E+00
   15.100   1.052E+00
   15.200   1.064E+00
   15.300   1.077E+00
   15.400   1.091E+00
   15.500   1.105E+00
   15.600   1.119E+00
   15.700   1.133E+00
   15.800   1.148E+00
   15.900   1.162E+00
   16.000   1.177E+00
   16.100   1.192E+00
   16.200   1.207E+00
   16.300   1.221E+00
   16.400   1.236E+00
   16.500   1.251E+00
   16.600   1.267E+00
   16.700   1.282E+00
   16.800   1.298E+00
   16.900   1.314E+00
   17.000   1.331E+00
   17.100   1.348E+00
   17.200   1.366E+00
   17.300   1.384E+00
   17.400   1.402E+00
   17.500   1.421E+00
   17.600   1.439E+00
   17.700   1.457E+00
   17.800   1.474E+00
   17.900   1.490E+00
   18.000   1.505E+00
   18.100   1.519E+00
   18.200   1.530E+00
   18.300   1.540E+00
   18.400   1.546E+00
   18.500   1.551E+00
   18.600   1.552E+00
   18.700   1.550E+00
   18.800   1.546E+00
   18.900   1.538E+00
   19.000   1.528E+00
   19.100   1.516E+00
   19.200   1.501E+00
   19.300   1.484E+00
   19.400   1.466E+00
   19.500   1.447E+00
   19.600   1.427E+00
   19.700   1.407E+00
   19.800   1.386E+00
   19.900   1.365E+00
   20.000   1.345E+00
   20.100   1.325E+00
   20.200   1.305E+00
   20.300   1.286E+00
   20.400   1.268E+00
   20.500   1.251E+00
   20.600   1.234E+00
   20.700   1.219E+00
   20.800   1.204E+00
   20.900   1.189E+00
   21.000   1.176E+00
   21.100   1.163E+00
   21.200   1.150E+00
   21.300   1.139E+00
   21.400   1.127E+00
   21.500   1.116E+00
   21.600   1.106E+00
   21.700   1.095E+00
   21.800   1.085E+00
   21.900   1.075E+00
   22.000   1.066E+00
   22.100   1.056E+00
   22.200   1.047E+00
   22.300   1.037E+00
   22.400   1.027E+00
   22.500   1.017E+00
   22.600   1.008E+00
   22.700   9.974E-01
   22.800   9.870E-01
   22.900   9.763E-01
   23.000   9.652E-01
   23.100   9.538E-01
   23.200   9.420E-01
   23.300   9.298E-01
   23.400   9.172E-01
   23.500   9.043E-01
   23.600   8.909E-01
   23.700   8.772E-01
   23.800   8.632E-01
   23.900   8.490E-01
   24.000   8.347E-01
   24.100   8.202E-01
   24.200   8.057E-01
   24.300   7.913E-01
   24.400   7.769E-01
   24.500   7.627E-01
   24.600   7.488E-01
   24.700   7.351E-01
   24.800   7.216E-01
   24.900   7.085E-01
   25.000   6.957E-01
   25.100   6.833E-01
   25.200   6.713E-01
   25.300   6.596E-01
   25.400   6.482E-01
   25.500   6.373E-01
   25.600   6.267E-01
   25.700   6.164E-01
   25.800   6.065E-01
   25.900   5.969E-01
   26.000   5.876E-01
   26.100   5.786E-01
   26.200   5.699E-01
   26.300   5.615E-01
   26.400   5.534E-01
   26.500   5.455E-01
   26.600   5.378E-01
   26.700   5.304E-01
   26.800   5.232E-01
   26.900   5.162E-01
   27.000   5.094E-01
   27.100   5.028E-01
   27.200   4.964E-01
   27.300   4.901E-01
   27.400   4.840E-01
   27.500   4.780E-01
   27.600   4.721E-01
   27.700   4.664E-01
   27.800   4.607E-01
   27.900   4.552E-01
   28.000   4.498E-01
   28.100   4.444E-01
   28.200   4.391E-01
   28.300   4.340E-01
   28.400   4.289E-01
   28.500   4.238E-01
   28.600   4.189E-01
   28.700   4.140E-01
   28.800   4.092E-01
   28.900   4.045E-01
   29.000   3.999E-01
   29.100   3.953E-01
   29.200   3.908E-01
   29.300   3.864E-01
   29.400   3.821E-01
   29.500   3.779E-01
   29.600   3.737E-01
   29.700   3.696E-01
   29.800   3.656E-01
   29.900   3.616E-01
   30.000   3.577E-01
 
 Z=  16 A=  28 S 
  U[MeV]  fE1[mb/MeV]
    0.100   9.107E-06
    0.200   3.644E-05
    0.300   8.202E-05
    0.400   1.459E-04
    0.500   2.282E-04
    0.600   3.289E-04
    0.700   4.482E-04
    0.800   5.861E-04
    0.900   7.430E-04
    1.000   9.189E-04
    1.100   1.114E-03
    1.200   1.328E-03
    1.300   1.563E-03
    1.400   1.817E-03
    1.500   2.091E-03
    1.600   2.386E-03
    1.700   2.702E-03
    1.800   3.039E-03
    1.900   3.397E-03
    2.000   3.778E-03
    2.100   4.181E-03
    2.200   4.607E-03
    2.300   5.057E-03
    2.400   5.531E-03
    2.500   6.029E-03
    2.600   6.552E-03
    2.700   7.102E-03
    2.800   7.678E-03
    2.900   8.281E-03
    3.000   8.912E-03
    3.100   9.573E-03
    3.200   1.026E-02
    3.300   1.098E-02
    3.400   1.174E-02
    3.500   1.252E-02
    3.600   1.334E-02
    3.700   1.419E-02
    3.800   1.509E-02
    3.900   1.601E-02
    4.000   1.698E-02
    4.100   1.799E-02
    4.200   1.904E-02
    4.300   2.013E-02
    4.400   2.127E-02
    4.500   2.246E-02
    4.600   2.369E-02
    4.700   2.498E-02
    4.800   2.632E-02
    4.900   2.772E-02
    5.000   2.918E-02
    5.100   3.070E-02
    5.200   3.228E-02
    5.300   3.393E-02
    5.400   3.565E-02
    5.500   3.745E-02
    5.600   3.932E-02
    5.700   4.128E-02
    5.800   4.332E-02
    5.900   4.545E-02
    6.000   4.768E-02
    6.100   5.001E-02
    6.200   5.245E-02
    6.300   5.500E-02
    6.400   5.768E-02
    6.500   6.047E-02
    6.600   6.340E-02
    6.700   6.648E-02
    6.800   6.970E-02
    6.900   7.308E-02
    7.000   7.663E-02
    7.100   8.036E-02
    7.200   8.427E-02
    7.300   8.838E-02
    7.400   9.271E-02
    7.500   9.725E-02
    7.600   1.020E-01
    7.700   1.070E-01
    7.800   1.123E-01
    7.900   1.179E-01
    8.000   1.237E-01
    8.100   1.298E-01
    8.200   1.362E-01
    8.300   1.429E-01
    8.400   1.499E-01
    8.500   1.572E-01
    8.600   1.648E-01
    8.700   1.727E-01
    8.800   1.809E-01
    8.900   1.892E-01
    9.000   1.979E-01
    9.100   2.066E-01
    9.200   2.156E-01
    9.300   2.246E-01
    9.400   2.337E-01
    9.500   2.428E-01
    9.600   2.519E-01
    9.700   2.610E-01
    9.800   2.699E-01
    9.900   2.788E-01
   10.000   2.875E-01
   10.100   2.962E-01
   10.200   3.048E-01
   10.300   3.133E-01
   10.400   3.218E-01
   10.500   3.303E-01
   10.600   3.388E-01
   10.700   3.475E-01
   10.800   3.563E-01
   10.900   3.653E-01
   11.000   3.745E-01
   11.100   3.841E-01
   11.200   3.940E-01
   11.300   4.043E-01
   11.400   4.150E-01
   11.500   4.262E-01
   11.600   4.379E-01
   11.700   4.500E-01
   11.800   4.627E-01
   11.900   4.759E-01
   12.000   4.898E-01
   12.100   5.042E-01
   12.200   5.193E-01
   12.300   5.351E-01
   12.400   5.516E-01
   12.500   5.689E-01
   12.600   5.870E-01
   12.700   6.061E-01
   12.800   6.260E-01
   12.900   6.469E-01
   13.000   6.687E-01
   13.100   6.914E-01
   13.200   7.151E-01
   13.300   7.394E-01
   13.400   7.645E-01
   13.500   7.901E-01
   13.600   8.159E-01
   13.700   8.419E-01
   13.800   8.678E-01
   13.900   8.932E-01
   14.000   9.180E-01
   14.100   9.420E-01
   14.200   9.649E-01
   14.300   9.865E-01
   14.400   1.007E+00
   14.500   1.026E+00
   14.600   1.044E+00
   14.700   1.060E+00
   14.800   1.076E+00
   14.900   1.091E+00
   15.000   1.105E+00
   15.100   1.119E+00
   15.200   1.133E+00
   15.300   1.148E+00
   15.400   1.162E+00
   15.500   1.177E+00
   15.600   1.192E+00
   15.700   1.208E+00
   15.800   1.225E+00
   15.900   1.241E+00
   16.000   1.259E+00
   16.100   1.276E+00
   16.200   1.294E+00
   16.300   1.312E+00
   16.400   1.330E+00
   16.500   1.348E+00
   16.600   1.366E+00
   16.700   1.384E+00
   16.800   1.401E+00
   16.900   1.418E+00
   17.000   1.436E+00
   17.100   1.453E+00
   17.200   1.470E+00
   17.300   1.487E+00
   17.400   1.504E+00
   17.500   1.520E+00
   17.600   1.536E+00
   17.700   1.552E+00
   17.800   1.568E+00
   17.900   1.582E+00
   18.000   1.596E+00
   18.100   1.608E+00
   18.200   1.619E+00
   18.300   1.627E+00
   18.400   1.633E+00
   18.500   1.637E+00
   18.600   1.638E+00
   18.700   1.637E+00
   18.800   1.632E+00
   18.900   1.624E+00
   19.000   1.613E+00
   19.100   1.600E+00
   19.200   1.584E+00
   19.300   1.566E+00
   19.400   1.546E+00
   19.500   1.525E+00
   19.600   1.502E+00
   19.700   1.479E+00
   19.800   1.456E+00
   19.900   1.432E+00
   20.000   1.408E+00
   20.100   1.385E+00
   20.200   1.363E+00
   20.300   1.341E+00
   20.400   1.320E+00
   20.500   1.300E+00
   20.600   1.281E+00
   20.700   1.263E+00
   20.800   1.245E+00
   20.900   1.229E+00
   21.000   1.214E+00
   21.100   1.200E+00
   21.200   1.186E+00
   21.300   1.174E+00
   21.400   1.162E+00
   21.500   1.150E+00
   21.600   1.140E+00
   21.700   1.129E+00
   21.800   1.120E+00
   21.900   1.110E+00
   22.000   1.101E+00
   22.100   1.093E+00
   22.200   1.084E+00
   22.300   1.076E+00
   22.400   1.068E+00
   22.500   1.059E+00
   22.600   1.051E+00
   22.700   1.043E+00
   22.800   1.034E+00
   22.900   1.026E+00
   23.000   1.017E+00
   23.100   1.008E+00
   23.200   9.978E-01
   23.300   9.877E-01
   23.400   9.770E-01
   23.500   9.659E-01
   23.600   9.542E-01
   23.700   9.420E-01
   23.800   9.293E-01
   23.900   9.162E-01
   24.000   9.026E-01
   24.100   8.887E-01
   24.200   8.744E-01
   24.300   8.599E-01
   24.400   8.452E-01
   24.500   8.303E-01
   24.600   8.154E-01
   24.700   8.005E-01
   24.800   7.856E-01
   24.900   7.708E-01
   25.000   7.561E-01
   25.100   7.417E-01
   25.200   7.275E-01
   25.300   7.136E-01
   25.400   6.999E-01
   25.500   6.867E-01
   25.600   6.738E-01
   25.700   6.613E-01
   25.800   6.492E-01
   25.900   6.375E-01
   26.000   6.262E-01
   26.100   6.153E-01
   26.200   6.048E-01
   26.300   5.948E-01
   26.400   5.851E-01
   26.500   5.758E-01
   26.600   5.668E-01
   26.700   5.582E-01
   26.800   5.498E-01
   26.900   5.418E-01
   27.000   5.341E-01
   27.100   5.266E-01
   27.200   5.194E-01
   27.300   5.125E-01
   27.400   5.057E-01
   27.500   4.992E-01
   27.600   4.929E-01
   27.700   4.868E-01
   27.800   4.809E-01
   27.900   4.751E-01
   28.000   4.695E-01
   28.100   4.641E-01
   28.200   4.588E-01
   28.300   4.537E-01
   28.400   4.487E-01
   28.500   4.438E-01
   28.600   4.389E-01
   28.700   4.342E-01
   28.800   4.296E-01
   28.900   4.250E-01
   29.000   4.205E-01
   29.100   4.160E-01
   29.200   4.116E-01
   29.300   4.072E-01
   29.400   4.028E-01
   29.500   3.985E-01
   29.600   3.941E-01
   29.700   3.898E-01
   29.800   3.855E-01
   29.900   3.812E-01
   30.000   3.769E-01
 
 Z=  16 A=  29 S 
  U[MeV]  fE1[mb/MeV]
    0.100   8.519E-06
    0.200   3.408E-05
    0.300   7.672E-05
    0.400   1.365E-04
    0.500   2.134E-04
    0.600   3.076E-04
    0.700   4.191E-04
    0.800   5.481E-04
    0.900   6.946E-04
    1.000   8.589E-04
    1.100   1.041E-03
    1.200   1.241E-03
    1.300   1.460E-03
    1.400   1.697E-03
    1.500   1.953E-03
    1.600   2.228E-03
    1.700   2.522E-03
    1.800   2.836E-03
    1.900   3.169E-03
    2.000   3.523E-03
    2.100   3.898E-03
    2.200   4.294E-03
    2.300   4.711E-03
    2.400   5.151E-03
    2.500   5.612E-03
    2.600   6.097E-03
    2.700   6.605E-03
    2.800   7.138E-03
    2.900   7.695E-03
    3.000   8.277E-03
    3.100   8.886E-03
    3.200   9.521E-03
    3.300   1.018E-02
    3.400   1.088E-02
    3.500   1.160E-02
    3.600   1.235E-02
    3.700   1.313E-02
    3.800   1.394E-02
    3.900   1.479E-02
    4.000   1.567E-02
    4.100   1.659E-02
    4.200   1.754E-02
    4.300   1.853E-02
    4.400   1.956E-02
    4.500   2.064E-02
    4.600   2.175E-02
    4.700   2.291E-02
    4.800   2.412E-02
    4.900   2.537E-02
    5.000   2.668E-02
    5.100   2.803E-02
    5.200   2.944E-02
    5.300   3.091E-02
    5.400   3.244E-02
    5.500   3.403E-02
    5.600   3.568E-02
    5.700   3.741E-02
    5.800   3.920E-02
    5.900   4.107E-02
    6.000   4.302E-02
    6.100   4.505E-02
    6.200   4.717E-02
    6.300   4.938E-02
    6.400   5.169E-02
    6.500   5.410E-02
    6.600   5.662E-02
    6.700   5.926E-02
    6.800   6.201E-02
    6.900   6.489E-02
    7.000   6.791E-02
    7.100   7.107E-02
    7.200   7.438E-02
    7.300   7.785E-02
    7.400   8.149E-02
    7.500   8.531E-02
    7.600   8.932E-02
    7.700   9.353E-02
    7.800   9.796E-02
    7.900   1.026E-01
    8.000   1.075E-01
    8.100   1.127E-01
    8.200   1.181E-01
    8.300   1.238E-01
    8.400   1.297E-01
    8.500   1.360E-01
    8.600   1.426E-01
    8.700   1.496E-01
    8.800   1.568E-01
    8.900   1.644E-01
    9.000   1.723E-01
    9.100   1.805E-01
    9.200   1.890E-01
    9.300   1.979E-01
    9.400   2.069E-01
    9.500   2.163E-01
    9.600   2.258E-01
    9.700   2.354E-01
    9.800   2.452E-01
    9.900   2.550E-01
   10.000   2.649E-01
   10.100   2.747E-01
   10.200   2.846E-01
   10.300   2.943E-01
   10.400   3.041E-01
   10.500   3.138E-01
   10.600   3.235E-01
   10.700   3.332E-01
   10.800   3.430E-01
   10.900   3.529E-01
   11.000   3.631E-01
   11.100   3.735E-01
   11.200   3.843E-01
   11.300   3.955E-01
   11.400   4.072E-01
   11.500   4.194E-01
   11.600   4.323E-01
   11.700   4.459E-01
   11.800   4.603E-01
   11.900   4.756E-01
   12.000   4.917E-01
   12.100   5.089E-01
   12.200   5.271E-01
   12.300   5.463E-01
   12.400   5.667E-01
   12.500   5.883E-01
   12.600   6.110E-01
   12.700   6.350E-01
   12.800   6.602E-01
   12.900   6.866E-01
   13.000   7.141E-01
   13.100   7.428E-01
   13.200   7.724E-01
   13.300   8.029E-01
   13.400   8.342E-01
   13.500   8.660E-01
   13.600   8.981E-01
   13.700   9.303E-01
   13.800   9.623E-01
   13.900   9.940E-01
   14.000   1.025E+00
   14.100   1.055E+00
   14.200   1.085E+00
   14.300   1.113E+00
   14.400   1.140E+00
   14.500   1.166E+00
   14.600   1.191E+00
   14.700   1.215E+00
   14.800   1.237E+00
   14.900   1.259E+00
   15.000   1.280E+00
   15.100   1.300E+00
   15.200   1.320E+00
   15.300   1.339E+00
   15.400   1.357E+00
   15.500   1.376E+00
   15.600   1.394E+00
   15.700   1.411E+00
   15.800   1.429E+00
   15.900   1.447E+00
   16.000   1.464E+00
   16.100   1.481E+00
   16.200   1.498E+00
   16.300   1.515E+00
   16.400   1.531E+00
   16.500   1.546E+00
   16.600   1.561E+00
   16.700   1.576E+00
   16.800   1.589E+00
   16.900   1.601E+00
   17.000   1.613E+00
   17.100   1.623E+00
   17.200   1.632E+00
   17.300   1.640E+00
   17.400   1.647E+00
   17.500   1.653E+00
   17.600   1.658E+00
   17.700   1.662E+00
   17.800   1.666E+00
   17.900   1.669E+00
   18.000   1.672E+00
   18.100   1.674E+00
   18.200   1.676E+00
   18.300   1.678E+00
   18.400   1.678E+00
   18.500   1.678E+00
   18.600   1.677E+00
   18.700   1.675E+00
   18.800   1.672E+00
   18.900   1.667E+00
   19.000   1.660E+00
   19.100   1.652E+00
   19.200   1.642E+00
   19.300   1.630E+00
   19.400   1.616E+00
   19.500   1.601E+00
   19.600   1.584E+00
   19.700   1.567E+00
   19.800   1.548E+00
   19.900   1.528E+00
   20.000   1.508E+00
   20.100   1.488E+00
   20.200   1.467E+00
   20.300   1.446E+00
   20.400   1.426E+00
   20.500   1.406E+00
   20.600   1.387E+00
   20.700   1.368E+00
   20.800   1.350E+00
   20.900   1.332E+00
   21.000   1.315E+00
   21.100   1.299E+00
   21.200   1.284E+00
   21.300   1.270E+00
   21.400   1.256E+00
   21.500   1.243E+00
   21.600   1.230E+00
   21.700   1.218E+00
   21.800   1.207E+00
   21.900   1.196E+00
   22.000   1.185E+00
   22.100   1.174E+00
   22.200   1.163E+00
   22.300   1.153E+00
   22.400   1.142E+00
   22.500   1.131E+00
   22.600   1.120E+00
   22.700   1.110E+00
   22.800   1.098E+00
   22.900   1.087E+00
   23.000   1.076E+00
   23.100   1.064E+00
   23.200   1.052E+00
   23.300   1.040E+00
   23.400   1.028E+00
   23.500   1.015E+00
   23.600   1.002E+00
   23.700   9.882E-01
   23.800   9.743E-01
   23.900   9.600E-01
   24.000   9.453E-01
   24.100   9.303E-01
   24.200   9.150E-01
   24.300   8.995E-01
   24.400   8.838E-01
   24.500   8.681E-01
   24.600   8.524E-01
   24.700   8.367E-01
   24.800   8.212E-01
   24.900   8.059E-01
   25.000   7.908E-01
   25.100   7.760E-01
   25.200   7.615E-01
   25.300   7.474E-01
   25.400   7.336E-01
   25.500   7.202E-01
   25.600   7.071E-01
   25.700   6.944E-01
   25.800   6.820E-01
   25.900   6.700E-01
   26.000   6.583E-01
   26.100   6.469E-01
   26.200   6.359E-01
   26.300   6.252E-01
   26.400   6.148E-01
   26.500   6.047E-01
   26.600   5.950E-01
   26.700   5.856E-01
   26.800   5.764E-01
   26.900   5.676E-01
   27.000   5.591E-01
   27.100   5.508E-01
   27.200   5.429E-01
   27.300   5.351E-01
   27.400   5.277E-01
   27.500   5.204E-01
   27.600   5.134E-01
   27.700   5.066E-01
   27.800   5.000E-01
   27.900   4.935E-01
   28.000   4.873E-01
   28.100   4.812E-01
   28.200   4.753E-01
   28.300   4.696E-01
   28.400   4.639E-01
   28.500   4.585E-01
   28.600   4.531E-01
   28.700   4.478E-01
   28.800   4.427E-01
   28.900   4.376E-01
   29.000   4.325E-01
   29.100   4.276E-01
   29.200   4.226E-01
   29.300   4.177E-01
   29.400   4.127E-01
   29.500   4.078E-01
   29.600   4.028E-01
   29.700   3.979E-01
   29.800   3.929E-01
   29.900   3.879E-01
   30.000   3.829E-01
 
 Z=  16 A=  30 S 
  U[MeV]  fE1[mb/MeV]
    0.100   7.450E-06
    0.200   2.981E-05
    0.300   6.710E-05
    0.400   1.194E-04
    0.500   1.866E-04
    0.600   2.690E-04
    0.700   3.665E-04
    0.800   4.793E-04
    0.900   6.074E-04
    1.000   7.510E-04
    1.100   9.103E-04
    1.200   1.085E-03
    1.300   1.276E-03
    1.400   1.484E-03
    1.500   1.707E-03
    1.600   1.947E-03
    1.700   2.204E-03
    1.800   2.478E-03
    1.900   2.770E-03
    2.000   3.079E-03
    2.100   3.406E-03
    2.200   3.751E-03
    2.300   4.116E-03
    2.400   4.499E-03
    2.500   4.902E-03
    2.600   5.324E-03
    2.700   5.767E-03
    2.800   6.232E-03
    2.900   6.717E-03
    3.000   7.225E-03
    3.100   7.755E-03
    3.200   8.308E-03
    3.300   8.885E-03
    3.400   9.487E-03
    3.500   1.011E-02
    3.600   1.077E-02
    3.700   1.145E-02
    3.800   1.215E-02
    3.900   1.289E-02
    4.000   1.366E-02
    4.100   1.445E-02
    4.200   1.528E-02
    4.300   1.614E-02
    4.400   1.704E-02
    4.500   1.797E-02
    4.600   1.893E-02
    4.700   1.994E-02
    4.800   2.099E-02
    4.900   2.207E-02
    5.000   2.320E-02
    5.100   2.438E-02
    5.200   2.560E-02
    5.300   2.687E-02
    5.400   2.819E-02
    5.500   2.957E-02
    5.600   3.100E-02
    5.700   3.249E-02
    5.800   3.404E-02
    5.900   3.566E-02
    6.000   3.734E-02
    6.100   3.910E-02
    6.200   4.093E-02
    6.300   4.285E-02
    6.400   4.484E-02
    6.500   4.693E-02
    6.600   4.911E-02
    6.700   5.139E-02
    6.800   5.377E-02
    6.900   5.627E-02
    7.000   5.889E-02
    7.100   6.163E-02
    7.200   6.451E-02
    7.300   6.754E-02
    7.400   7.071E-02
    7.500   7.405E-02
    7.600   7.757E-02
    7.700   8.127E-02
    7.800   8.517E-02
    7.900   8.928E-02
    8.000   9.362E-02
    8.100   9.821E-02
    8.200   1.030E-01
    8.300   1.082E-01
    8.400   1.136E-01
    8.500   1.193E-01
    8.600   1.253E-01
    8.700   1.317E-01
    8.800   1.384E-01
    8.900   1.455E-01
    9.000   1.530E-01
    9.100   1.608E-01
    9.200   1.690E-01
    9.300   1.775E-01
    9.400   1.863E-01
    9.500   1.954E-01
    9.600   2.047E-01
    9.700   2.142E-01
    9.800   2.238E-01
    9.900   2.335E-01
   10.000   2.432E-01
   10.100   2.529E-01
   10.200   2.626E-01
   10.300   2.722E-01
   10.400   2.817E-01
   10.500   2.913E-01
   10.600   3.010E-01
   10.700   3.107E-01
   10.800   3.207E-01
   10.900   3.310E-01
   11.000   3.417E-01
   11.100   3.528E-01
   11.200   3.646E-01
   11.300   3.769E-01
   11.400   3.901E-01
   11.500   4.041E-01
   11.600   4.190E-01
   11.700   4.350E-01
   11.800   4.521E-01
   11.900   4.705E-01
   12.000   4.902E-01
   12.100   5.114E-01
   12.200   5.341E-01
   12.300   5.585E-01
   12.400   5.846E-01
   12.500   6.124E-01
   12.600   6.421E-01
   12.700   6.737E-01
   12.800   7.071E-01
   12.900   7.423E-01
   13.000   7.792E-01
   13.100   8.177E-01
   13.200   8.576E-01
   13.300   8.987E-01
   13.400   9.407E-01
   13.500   9.833E-01
   13.600   1.026E+00
   13.700   1.069E+00
   13.800   1.112E+00
   13.900   1.155E+00
   14.000   1.196E+00
   14.100   1.237E+00
   14.200   1.277E+00
   14.300   1.316E+00
   14.400   1.353E+00
   14.500   1.388E+00
   14.600   1.421E+00
   14.700   1.452E+00
   14.800   1.481E+00
   14.900   1.508E+00
   15.000   1.532E+00
   15.100   1.555E+00
   15.200   1.575E+00
   15.300   1.593E+00
   15.400   1.610E+00
   15.500   1.625E+00
   15.600   1.639E+00
   15.700   1.652E+00
   15.800   1.664E+00
   15.900   1.675E+00
   16.000   1.685E+00
   16.100   1.695E+00
   16.200   1.703E+00
   16.300   1.711E+00
   16.400   1.717E+00
   16.500   1.723E+00
   16.600   1.727E+00
   16.700   1.730E+00
   16.800   1.731E+00
   16.900   1.731E+00
   17.000   1.729E+00
   17.100   1.726E+00
   17.200   1.721E+00
   17.300   1.716E+00
   17.400   1.710E+00
   17.500   1.703E+00
   17.600   1.696E+00
   17.700   1.689E+00
   17.800   1.682E+00
   17.900   1.676E+00
   18.000   1.669E+00
   18.100   1.663E+00
   18.200   1.657E+00
   18.300   1.651E+00
   18.400   1.644E+00
   18.500   1.637E+00
   18.600   1.630E+00
   18.700   1.622E+00
   18.800   1.612E+00
   18.900   1.602E+00
   19.000   1.591E+00
   19.100   1.578E+00
   19.200   1.564E+00
   19.300   1.550E+00
   19.400   1.535E+00
   19.500   1.519E+00
   19.600   1.503E+00
   19.700   1.487E+00
   19.800   1.471E+00
   19.900   1.455E+00
   20.000   1.440E+00
   20.100   1.425E+00
   20.200   1.411E+00
   20.300   1.397E+00
   20.400   1.384E+00
   20.500   1.371E+00
   20.600   1.359E+00
   20.700   1.348E+00
   20.800   1.337E+00
   20.900   1.326E+00
   21.000   1.316E+00
   21.100   1.306E+00
   21.200   1.296E+00
   21.300   1.287E+00
   21.400   1.277E+00
   21.500   1.268E+00
   21.600   1.259E+00
   21.700   1.249E+00
   21.800   1.240E+00
   21.900   1.230E+00
   22.000   1.220E+00
   22.100   1.210E+00
   22.200   1.200E+00
   22.300   1.190E+00
   22.400   1.179E+00
   22.500   1.168E+00
   22.600   1.156E+00
   22.700   1.144E+00
   22.800   1.131E+00
   22.900   1.118E+00
   23.000   1.105E+00
   23.100   1.091E+00
   23.200   1.076E+00
   23.300   1.061E+00
   23.400   1.046E+00
   23.500   1.031E+00
   23.600   1.015E+00
   23.700   9.997E-01
   23.800   9.841E-01
   23.900   9.685E-01
   24.000   9.530E-01
   24.100   9.376E-01
   24.200   9.223E-01
   24.300   9.071E-01
   24.400   8.920E-01
   24.500   8.770E-01
   24.600   8.621E-01
   24.700   8.472E-01
   24.800   8.323E-01
   24.900   8.175E-01
   25.000   8.027E-01
   25.100   7.880E-01
   25.200   7.734E-01
   25.300   7.589E-01
   25.400   7.446E-01
   25.500   7.305E-01
   25.600   7.167E-01
   25.700   7.032E-01
   25.800   6.900E-01
   25.900   6.772E-01
   26.000   6.648E-01
   26.100   6.528E-01
   26.200   6.411E-01
   26.300   6.300E-01
   26.400   6.192E-01
   26.500   6.089E-01
   26.600   5.989E-01
   26.700   5.894E-01
   26.800   5.803E-01
   26.900   5.715E-01
   27.000   5.632E-01
   27.100   5.551E-01
   27.200   5.475E-01
   27.300   5.402E-01
   27.400   5.331E-01
   27.500   5.264E-01
   27.600   5.200E-01
   27.700   5.138E-01
   27.800   5.079E-01
   27.900   5.022E-01
   28.000   4.967E-01
   28.100   4.914E-01
   28.200   4.862E-01
   28.300   4.810E-01
   28.400   4.760E-01
   28.500   4.710E-01
   28.600   4.660E-01
   28.700   4.611E-01
   28.800   4.561E-01
   28.900   4.510E-01
   29.000   4.459E-01
   29.100   4.408E-01
   29.200   4.357E-01
   29.300   4.305E-01
   29.400   4.253E-01
   29.500   4.200E-01
   29.600   4.148E-01
   29.700   4.095E-01
   29.800   4.043E-01
   29.900   3.991E-01
   30.000   3.939E-01
 
 Z=  16 A=  31 S 
  U[MeV]  fE1[mb/MeV]
    0.100   8.125E-06
    0.200   3.251E-05
    0.300   7.317E-05
    0.400   1.301E-04
    0.500   2.035E-04
    0.600   2.933E-04
    0.700   3.995E-04
    0.800   5.224E-04
    0.900   6.620E-04
    1.000   8.184E-04
    1.100   9.917E-04
    1.200   1.182E-03
    1.300   1.390E-03
    1.400   1.615E-03
    1.500   1.858E-03
    1.600   2.119E-03
    1.700   2.398E-03
    1.800   2.695E-03
    1.900   3.011E-03
    2.000   3.346E-03
    2.100   3.700E-03
    2.200   4.074E-03
    2.300   4.467E-03
    2.400   4.881E-03
    2.500   5.316E-03
    2.600   5.771E-03
    2.700   6.248E-03
    2.800   6.748E-03
    2.900   7.269E-03
    3.000   7.814E-03
    3.100   8.382E-03
    3.200   8.974E-03
    3.300   9.591E-03
    3.400   1.023E-02
    3.500   1.090E-02
    3.600   1.160E-02
    3.700   1.232E-02
    3.800   1.307E-02
    3.900   1.385E-02
    4.000   1.466E-02
    4.100   1.550E-02
    4.200   1.637E-02
    4.300   1.727E-02
    4.400   1.821E-02
    4.500   1.918E-02
    4.600   2.019E-02
    4.700   2.123E-02
    4.800   2.232E-02
    4.900   2.344E-02
    5.000   2.460E-02
    5.100   2.581E-02
    5.200   2.706E-02
    5.300   2.836E-02
    5.400   2.970E-02
    5.500   3.109E-02
    5.600   3.253E-02
    5.700   3.403E-02
    5.800   3.558E-02
    5.900   3.719E-02
    6.000   3.886E-02
    6.100   4.058E-02
    6.200   4.238E-02
    6.300   4.424E-02
    6.400   4.617E-02
    6.500   4.817E-02
    6.600   5.025E-02
    6.700   5.241E-02
    6.800   5.466E-02
    6.900   5.698E-02
    7.000   5.940E-02
    7.100   6.192E-02
    7.200   6.453E-02
    7.300   6.725E-02
    7.400   7.007E-02
    7.500   7.301E-02
    7.600   7.607E-02
    7.700   7.925E-02
    7.800   8.256E-02
    7.900   8.600E-02
    8.000   8.959E-02
    8.100   9.333E-02
    8.200   9.722E-02
    8.300   1.013E-01
    8.400   1.055E-01
    8.500   1.099E-01
    8.600   1.145E-01
    8.700   1.193E-01
    8.800   1.242E-01
    8.900   1.294E-01
    9.000   1.348E-01
    9.100   1.405E-01
    9.200   1.463E-01
    9.300   1.524E-01
    9.400   1.587E-01
    9.500   1.653E-01
    9.600   1.722E-01
    9.700   1.793E-01
    9.800   1.866E-01
    9.900   1.943E-01
   10.000   2.022E-01
   10.100   2.103E-01
   10.200   2.187E-01
   10.300   2.274E-01
   10.400   2.364E-01
   10.500   2.456E-01
   10.600   2.551E-01
   10.700   2.649E-01
   10.800   2.749E-01
   10.900   2.852E-01
   11.000   2.957E-01
   11.100   3.065E-01
   11.200   3.175E-01
   11.300   3.288E-01
   11.400   3.404E-01
   11.500   3.523E-01
   11.600   3.644E-01
   11.700   3.769E-01
   11.800   3.896E-01
   11.900   4.027E-01
   12.000   4.161E-01
   12.100   4.299E-01
   12.200   4.440E-01
   12.300   4.586E-01
   12.400   4.735E-01
   12.500   4.889E-01
   12.600   5.048E-01
   12.700   5.212E-01
   12.800   5.381E-01
   12.900   5.556E-01
   13.000   5.737E-01
   13.100   5.924E-01
   13.200   6.119E-01
   13.300   6.320E-01
   13.400   6.530E-01
   13.500   6.747E-01
   13.600   6.973E-01
   13.700   7.208E-01
   13.800   7.451E-01
   13.900   7.704E-01
   14.000   7.965E-01
   14.100   8.236E-01
   14.200   8.516E-01
   14.300   8.804E-01
   14.400   9.102E-01
   14.500   9.408E-01
   14.600   9.723E-01
   14.700   1.005E+00
   14.800   1.038E+00
   14.900   1.071E+00
   15.000   1.106E+00
   15.100   1.140E+00
   15.200   1.176E+00
   15.300   1.212E+00
   15.400   1.248E+00
   15.500   1.284E+00
   15.600   1.320E+00
   15.700   1.357E+00
   15.800   1.393E+00
   15.900   1.429E+00
   16.000   1.465E+00
   16.100   1.500E+00
   16.200   1.534E+00
   16.300   1.568E+00
   16.400   1.601E+00
   16.500   1.633E+00
   16.600   1.665E+00
   16.700   1.695E+00
   16.800   1.724E+00
   16.900   1.752E+00
   17.000   1.778E+00
   17.100   1.803E+00
   17.200   1.827E+00
   17.300   1.849E+00
   17.400   1.870E+00
   17.500   1.890E+00
   17.600   1.908E+00
   17.700   1.924E+00
   17.800   1.939E+00
   17.900   1.952E+00
   18.000   1.964E+00
   18.100   1.974E+00
   18.200   1.982E+00
   18.300   1.989E+00
   18.400   1.994E+00
   18.500   1.997E+00
   18.600   1.999E+00
   18.700   1.999E+00
   18.800   1.997E+00
   18.900   1.994E+00
   19.000   1.989E+00
   19.100   1.983E+00
   19.200   1.975E+00
   19.300   1.965E+00
   19.400   1.955E+00
   19.500   1.943E+00
   19.600   1.929E+00
   19.700   1.915E+00
   19.800   1.899E+00
   19.900   1.883E+00
   20.000   1.865E+00
   20.100   1.847E+00
   20.200   1.827E+00
   20.300   1.807E+00
   20.400   1.787E+00
   20.500   1.766E+00
   20.600   1.744E+00
   20.700   1.721E+00
   20.800   1.699E+00
   20.900   1.676E+00
   21.000   1.652E+00
   21.100   1.629E+00
   21.200   1.605E+00
   21.300   1.581E+00
   21.400   1.557E+00
   21.500   1.533E+00
   21.600   1.509E+00
   21.700   1.485E+00
   21.800   1.461E+00
   21.900   1.437E+00
   22.000   1.414E+00
   22.100   1.390E+00
   22.200   1.367E+00
   22.300   1.344E+00
   22.400   1.322E+00
   22.500   1.300E+00
   22.600   1.279E+00
   22.700   1.257E+00
   22.800   1.237E+00
   22.900   1.217E+00
   23.000   1.197E+00
   23.100   1.178E+00
   23.200   1.160E+00
   23.300   1.142E+00
   23.400   1.124E+00
   23.500   1.107E+00
   23.600   1.090E+00
   23.700   1.074E+00
   23.800   1.058E+00
   23.900   1.043E+00
   24.000   1.028E+00
   24.100   1.013E+00
   24.200   9.982E-01
   24.300   9.837E-01
   24.400   9.694E-01
   24.500   9.552E-01
   24.600   9.412E-01
   24.700   9.273E-01
   24.800   9.134E-01
   24.900   8.997E-01
   25.000   8.861E-01
   25.100   8.726E-01
   25.200   8.592E-01
   25.300   8.459E-01
   25.400   8.328E-01
   25.500   8.200E-01
   25.600   8.073E-01
   25.700   7.948E-01
   25.800   7.826E-01
   25.900   7.707E-01
   26.000   7.590E-01
   26.100   7.476E-01
   26.200   7.365E-01
   26.300   7.257E-01
   26.400   7.151E-01
   26.500   7.048E-01
   26.600   6.948E-01
   26.700   6.849E-01
   26.800   6.754E-01
   26.900   6.660E-01
   27.000   6.568E-01
   27.100   6.477E-01
   27.200   6.388E-01
   27.300   6.301E-01
   27.400   6.215E-01
   27.500   6.130E-01
   27.600   6.046E-01
   27.700   5.963E-01
   27.800   5.881E-01
   27.900   5.800E-01
   28.000   5.719E-01
   28.100   5.639E-01
   28.200   5.560E-01
   28.300   5.481E-01
   28.400   5.403E-01
   28.500   5.326E-01
   28.600   5.249E-01
   28.700   5.173E-01
   28.800   5.097E-01
   28.900   5.023E-01
   29.000   4.949E-01
   29.100   4.877E-01
   29.200   4.806E-01
   29.300   4.736E-01
   29.400   4.668E-01
   29.500   4.601E-01
   29.600   4.535E-01
   29.700   4.471E-01
   29.800   4.408E-01
   29.900   4.347E-01
   30.000   4.287E-01
 
 Z=  16 A=  32 S 
  U[MeV]  fE1[mb/MeV]
    0.100   8.623E-06
    0.200   3.450E-05
    0.300   7.765E-05
    0.400   1.381E-04
    0.500   2.160E-04
    0.600   3.112E-04
    0.700   4.240E-04
    0.800   5.545E-04
    0.900   7.027E-04
    1.000   8.687E-04
    1.100   1.053E-03
    1.200   1.255E-03
    1.300   1.476E-03
    1.400   1.715E-03
    1.500   1.973E-03
    1.600   2.250E-03
    1.700   2.546E-03
    1.800   2.862E-03
    1.900   3.198E-03
    2.000   3.554E-03
    2.100   3.931E-03
    2.200   4.328E-03
    2.300   4.747E-03
    2.400   5.187E-03
    2.500   5.649E-03
    2.600   6.134E-03
    2.700   6.642E-03
    2.800   7.174E-03
    2.900   7.729E-03
    3.000   8.310E-03
    3.100   8.915E-03
    3.200   9.546E-03
    3.300   1.020E-02
    3.400   1.089E-02
    3.500   1.160E-02
    3.600   1.234E-02
    3.700   1.311E-02
    3.800   1.392E-02
    3.900   1.475E-02
    4.000   1.561E-02
    4.100   1.651E-02
    4.200   1.744E-02
    4.300   1.841E-02
    4.400   1.942E-02
    4.500   2.046E-02
    4.600   2.154E-02
    4.700   2.266E-02
    4.800   2.382E-02
    4.900   2.503E-02
    5.000   2.628E-02
    5.100   2.757E-02
    5.200   2.892E-02
    5.300   3.031E-02
    5.400   3.176E-02
    5.500   3.326E-02
    5.600   3.482E-02
    5.700   3.643E-02
    5.800   3.810E-02
    5.900   3.984E-02
    6.000   4.164E-02
    6.100   4.352E-02
    6.200   4.546E-02
    6.300   4.748E-02
    6.400   4.957E-02
    6.500   5.175E-02
    6.600   5.401E-02
    6.700   5.635E-02
    6.800   5.880E-02
    6.900   6.133E-02
    7.000   6.397E-02
    7.100   6.672E-02
    7.200   6.958E-02
    7.300   7.255E-02
    7.400   7.564E-02
    7.500   7.887E-02
    7.600   8.222E-02
    7.700   8.572E-02
    7.800   8.936E-02
    7.900   9.316E-02
    8.000   9.712E-02
    8.100   1.013E-01
    8.200   1.056E-01
    8.300   1.101E-01
    8.400   1.147E-01
    8.500   1.196E-01
    8.600   1.247E-01
    8.700   1.301E-01
    8.800   1.356E-01
    8.900   1.414E-01
    9.000   1.475E-01
    9.100   1.538E-01
    9.200   1.604E-01
    9.300   1.672E-01
    9.400   1.744E-01
    9.500   1.818E-01
    9.600   1.895E-01
    9.700   1.976E-01
    9.800   2.059E-01
    9.900   2.145E-01
   10.000   2.235E-01
   10.100   2.327E-01
   10.200   2.423E-01
   10.300   2.521E-01
   10.400   2.623E-01
   10.500   2.727E-01
   10.600   2.834E-01
   10.700   2.944E-01
   10.800   3.057E-01
   10.900   3.172E-01
   11.000   3.289E-01
   11.100   3.409E-01
   11.200   3.532E-01
   11.300   3.657E-01
   11.400   3.784E-01
   11.500   3.914E-01
   11.600   4.047E-01
   11.700   4.182E-01
   11.800   4.321E-01
   11.900   4.462E-01
   12.000   4.607E-01
   12.100   4.755E-01
   12.200   4.907E-01
   12.300   5.063E-01
   12.400   5.224E-01
   12.500   5.389E-01
   12.600   5.559E-01
   12.700   5.734E-01
   12.800   5.915E-01
   12.900   6.102E-01
   13.000   6.296E-01
   13.100   6.496E-01
   13.200   6.704E-01
   13.300   6.919E-01
   13.400   7.142E-01
   13.500   7.373E-01
   13.600   7.614E-01
   13.700   7.863E-01
   13.800   8.121E-01
   13.900   8.389E-01
   14.000   8.667E-01
   14.100   8.955E-01
   14.200   9.253E-01
   14.300   9.561E-01
   14.400   9.879E-01
   14.500   1.021E+00
   14.600   1.054E+00
   14.700   1.089E+00
   14.800   1.125E+00
   14.900   1.161E+00
   15.000   1.199E+00
   15.100   1.236E+00
   15.200   1.275E+00
   15.300   1.314E+00
   15.400   1.354E+00
   15.500   1.394E+00
   15.600   1.434E+00
   15.700   1.474E+00
   15.800   1.514E+00
   15.900   1.553E+00
   16.000   1.593E+00
   16.100   1.631E+00
   16.200   1.669E+00
   16.300   1.706E+00
   16.400   1.742E+00
   16.500   1.777E+00
   16.600   1.811E+00
   16.700   1.843E+00
   16.800   1.874E+00
   16.900   1.903E+00
   17.000   1.930E+00
   17.100   1.956E+00
   17.200   1.980E+00
   17.300   2.003E+00
   17.400   2.023E+00
   17.500   2.042E+00
   17.600   2.059E+00
   17.700   2.075E+00
   17.800   2.088E+00
   17.900   2.100E+00
   18.000   2.111E+00
   18.100   2.119E+00
   18.200   2.126E+00
   18.300   2.130E+00
   18.400   2.134E+00
   18.500   2.135E+00
   18.600   2.134E+00
   18.700   2.132E+00
   18.800   2.128E+00
   18.900   2.122E+00
   19.000   2.115E+00
   19.100   2.106E+00
   19.200   2.095E+00
   19.300   2.082E+00
   19.400   2.068E+00
   19.500   2.053E+00
   19.600   2.036E+00
   19.700   2.018E+00
   19.800   1.998E+00
   19.900   1.977E+00
   20.000   1.956E+00
   20.100   1.933E+00
   20.200   1.909E+00
   20.300   1.884E+00
   20.400   1.859E+00
   20.500   1.832E+00
   20.600   1.806E+00
   20.700   1.778E+00
   20.800   1.751E+00
   20.900   1.723E+00
   21.000   1.695E+00
   21.100   1.666E+00
   21.200   1.638E+00
   21.300   1.610E+00
   21.400   1.581E+00
   21.500   1.554E+00
   21.600   1.526E+00
   21.700   1.498E+00
   21.800   1.471E+00
   21.900   1.445E+00
   22.000   1.419E+00
   22.100   1.393E+00
   22.200   1.368E+00
   22.300   1.344E+00
   22.400   1.320E+00
   22.500   1.297E+00
   22.600   1.274E+00
   22.700   1.253E+00
   22.800   1.231E+00
   22.900   1.211E+00
   23.000   1.191E+00
   23.100   1.172E+00
   23.200   1.153E+00
   23.300   1.135E+00
   23.400   1.118E+00
   23.500   1.101E+00
   23.600   1.085E+00
   23.700   1.069E+00
   23.800   1.053E+00
   23.900   1.038E+00
   24.000   1.024E+00
   24.100   1.010E+00
   24.200   9.959E-01
   24.300   9.824E-01
   24.400   9.692E-01
   24.500   9.563E-01
   24.600   9.437E-01
   24.700   9.313E-01
   24.800   9.191E-01
   24.900   9.070E-01
   25.000   8.952E-01
   25.100   8.834E-01
   25.200   8.718E-01
   25.300   8.604E-01
   25.400   8.491E-01
   25.500   8.379E-01
   25.600   8.269E-01
   25.700   8.160E-01
   25.800   8.052E-01
   25.900   7.946E-01
   26.000   7.841E-01
   26.100   7.738E-01
   26.200   7.635E-01
   26.300   7.534E-01
   26.400   7.434E-01
   26.500   7.336E-01
   26.600   7.238E-01
   26.700   7.141E-01
   26.800   7.045E-01
   26.900   6.950E-01
   27.000   6.856E-01
   27.100   6.762E-01
   27.200   6.670E-01
   27.300   6.579E-01
   27.400   6.489E-01
   27.500   6.399E-01
   27.600   6.311E-01
   27.700   6.224E-01
   27.800   6.138E-01
   27.900   6.052E-01
   28.000   5.967E-01
   28.100   5.883E-01
   28.200   5.799E-01
   28.300   5.716E-01
   28.400   5.633E-01
   28.500   5.551E-01
   28.600   5.468E-01
   28.700   5.386E-01
   28.800   5.304E-01
   28.900   5.222E-01
   29.000   5.141E-01
   29.100   5.060E-01
   29.200   4.980E-01
   29.300   4.900E-01
   29.400   4.821E-01
   29.500   4.743E-01
   29.600   4.667E-01
   29.700   4.591E-01
   29.800   4.517E-01
   29.900   4.444E-01
   30.000   4.372E-01
 
 Z=  16 A=  33 S 
  U[MeV]  fE1[mb/MeV]
    0.100   8.992E-06
    0.200   3.598E-05
    0.300   8.097E-05
    0.400   1.440E-04
    0.500   2.252E-04
    0.600   3.245E-04
    0.700   4.421E-04
    0.800   5.781E-04
    0.900   7.326E-04
    1.000   9.057E-04
    1.100   1.098E-03
    1.200   1.308E-03
    1.300   1.538E-03
    1.400   1.788E-03
    1.500   2.057E-03
    1.600   2.345E-03
    1.700   2.654E-03
    1.800   2.983E-03
    1.900   3.333E-03
    2.000   3.704E-03
    2.100   4.096E-03
    2.200   4.509E-03
    2.300   4.945E-03
    2.400   5.403E-03
    2.500   5.884E-03
    2.600   6.389E-03
    2.700   6.917E-03
    2.800   7.470E-03
    2.900   8.048E-03
    3.000   8.651E-03
    3.100   9.280E-03
    3.200   9.936E-03
    3.300   1.062E-02
    3.400   1.133E-02
    3.500   1.207E-02
    3.600   1.284E-02
    3.700   1.364E-02
    3.800   1.447E-02
    3.900   1.533E-02
    4.000   1.623E-02
    4.100   1.716E-02
    4.200   1.813E-02
    4.300   1.913E-02
    4.400   2.017E-02
    4.500   2.125E-02
    4.600   2.236E-02
    4.700   2.352E-02
    4.800   2.472E-02
    4.900   2.597E-02
    5.000   2.726E-02
    5.100   2.860E-02
    5.200   2.998E-02
    5.300   3.142E-02
    5.400   3.291E-02
    5.500   3.445E-02
    5.600   3.605E-02
    5.700   3.771E-02
    5.800   3.943E-02
    5.900   4.122E-02
    6.000   4.307E-02
    6.100   4.499E-02
    6.200   4.698E-02
    6.300   4.905E-02
    6.400   5.119E-02
    6.500   5.341E-02
    6.600   5.572E-02
    6.700   5.812E-02
    6.800   6.061E-02
    6.900   6.320E-02
    7.000   6.589E-02
    7.100   6.868E-02
    7.200   7.159E-02
    7.300   7.461E-02
    7.400   7.775E-02
    7.500   8.102E-02
    7.600   8.442E-02
    7.700   8.796E-02
    7.800   9.164E-02
    7.900   9.548E-02
    8.000   9.948E-02
    8.100   1.036E-01
    8.200   1.080E-01
    8.300   1.125E-01
    8.400   1.172E-01
    8.500   1.222E-01
    8.600   1.273E-01
    8.700   1.326E-01
    8.800   1.382E-01
    8.900   1.440E-01
    9.000   1.501E-01
    9.100   1.564E-01
    9.200   1.630E-01
    9.300   1.699E-01
    9.400   1.771E-01
    9.500   1.845E-01
    9.600   1.923E-01
    9.700   2.004E-01
    9.800   2.088E-01
    9.900   2.175E-01
   10.000   2.265E-01
   10.100   2.359E-01
   10.200   2.456E-01
   10.300   2.556E-01
   10.400   2.660E-01
   10.500   2.767E-01
   10.600   2.877E-01
   10.700   2.990E-01
   10.800   3.106E-01
   10.900   3.226E-01
   11.000   3.348E-01
   11.100   3.474E-01
   11.200   3.604E-01
   11.300   3.736E-01
   11.400   3.872E-01
   11.500   4.012E-01
   11.600   4.155E-01
   11.700   4.303E-01
   11.800   4.454E-01
   11.900   4.611E-01
   12.000   4.772E-01
   12.100   4.939E-01
   12.200   5.112E-01
   12.300   5.290E-01
   12.400   5.475E-01
   12.500   5.666E-01
   12.600   5.865E-01
   12.700   6.071E-01
   12.800   6.284E-01
   12.900   6.505E-01
   13.000   6.735E-01
   13.100   6.973E-01
   13.200   7.220E-01
   13.300   7.475E-01
   13.400   7.741E-01
   13.500   8.015E-01
   13.600   8.299E-01
   13.700   8.594E-01
   13.800   8.898E-01
   13.900   9.212E-01
   14.000   9.537E-01
   14.100   9.872E-01
   14.200   1.022E+00
   14.300   1.057E+00
   14.400   1.094E+00
   14.500   1.131E+00
   14.600   1.169E+00
   14.700   1.208E+00
   14.800   1.248E+00
   14.900   1.289E+00
   15.000   1.330E+00
   15.100   1.371E+00
   15.200   1.413E+00
   15.300   1.455E+00
   15.400   1.497E+00
   15.500   1.539E+00
   15.600   1.581E+00
   15.700   1.623E+00
   15.800   1.664E+00
   15.900   1.705E+00
   16.000   1.744E+00
   16.100   1.783E+00
   16.200   1.821E+00
   16.300   1.857E+00
   16.400   1.892E+00
   16.500   1.925E+00
   16.600   1.957E+00
   16.700   1.987E+00
   16.800   2.015E+00
   16.900   2.040E+00
   17.000   2.064E+00
   17.100   2.085E+00
   17.200   2.105E+00
   17.300   2.122E+00
   17.400   2.137E+00
   17.500   2.150E+00
   17.600   2.162E+00
   17.700   2.171E+00
   17.800   2.179E+00
   17.900   2.186E+00
   18.000   2.191E+00
   18.100   2.195E+00
   18.200   2.198E+00
   18.300   2.200E+00
   18.400   2.200E+00
   18.500   2.200E+00
   18.600   2.199E+00
   18.700   2.197E+00
   18.800   2.194E+00
   18.900   2.190E+00
   19.000   2.185E+00
   19.100   2.179E+00
   19.200   2.171E+00
   19.300   2.162E+00
   19.400   2.152E+00
   19.500   2.140E+00
   19.600   2.126E+00
   19.700   2.110E+00
   19.800   2.093E+00
   19.900   2.074E+00
   20.000   2.052E+00
   20.100   2.029E+00
   20.200   2.005E+00
   20.300   1.979E+00
   20.400   1.951E+00
   20.500   1.922E+00
   20.600   1.892E+00
   20.700   1.861E+00
   20.800   1.830E+00
   20.900   1.799E+00
   21.000   1.767E+00
   21.100   1.735E+00
   21.200   1.703E+00
   21.300   1.672E+00
   21.400   1.641E+00
   21.500   1.611E+00
   21.600   1.581E+00
   21.700   1.552E+00
   21.800   1.524E+00
   21.900   1.497E+00
   22.000   1.470E+00
   22.100   1.444E+00
   22.200   1.419E+00
   22.300   1.395E+00
   22.400   1.371E+00
   22.500   1.348E+00
   22.600   1.326E+00
   22.700   1.305E+00
   22.800   1.284E+00
   22.900   1.263E+00
   23.000   1.243E+00
   23.100   1.224E+00
   23.200   1.204E+00
   23.300   1.186E+00
   23.400   1.167E+00
   23.500   1.150E+00
   23.600   1.132E+00
   23.700   1.115E+00
   23.800   1.098E+00
   23.900   1.081E+00
   24.000   1.065E+00
   24.100   1.050E+00
   24.200   1.034E+00
   24.300   1.019E+00
   24.400   1.004E+00
   24.500   9.901E-01
   24.600   9.762E-01
   24.700   9.627E-01
   24.800   9.495E-01
   24.900   9.368E-01
   25.000   9.244E-01
   25.100   9.124E-01
   25.200   9.007E-01
   25.300   8.894E-01
   25.400   8.784E-01
   25.500   8.677E-01
   25.600   8.573E-01
   25.700   8.471E-01
   25.800   8.372E-01
   25.900   8.275E-01
   26.000   8.179E-01
   26.100   8.084E-01
   26.200   7.990E-01
   26.300   7.898E-01
   26.400   7.805E-01
   26.500   7.713E-01
   26.600   7.620E-01
   26.700   7.527E-01
   26.800   7.434E-01
   26.900   7.341E-01
   27.000   7.246E-01
   27.100   7.151E-01
   27.200   7.056E-01
   27.300   6.959E-01
   27.400   6.862E-01
   27.500   6.765E-01
   27.600   6.667E-01
   27.700   6.569E-01
   27.800   6.470E-01
   27.900   6.372E-01
   28.000   6.274E-01
   28.100   6.176E-01
   28.200   6.079E-01
   28.300   5.982E-01
   28.400   5.886E-01
   28.500   5.791E-01
   28.600   5.697E-01
   28.700   5.604E-01
   28.800   5.512E-01
   28.900   5.422E-01
   29.000   5.333E-01
   29.100   5.245E-01
   29.200   5.159E-01
   29.300   5.075E-01
   29.400   4.992E-01
   29.500   4.911E-01
   29.600   4.832E-01
   29.700   4.754E-01
   29.800   4.678E-01
   29.900   4.603E-01
   30.000   4.530E-01
 
 Z=  16 A=  34 S 
  U[MeV]  fE1[mb/MeV]
    0.100   7.062E-06
    0.200   2.826E-05
    0.300   6.360E-05
    0.400   1.131E-04
    0.500   1.769E-04
    0.600   2.549E-04
    0.700   3.473E-04
    0.800   4.542E-04
    0.900   5.755E-04
    1.000   7.116E-04
    1.100   8.623E-04
    1.200   1.028E-03
    1.300   1.209E-03
    1.400   1.405E-03
    1.500   1.616E-03
    1.600   1.843E-03
    1.700   2.086E-03
    1.800   2.345E-03
    1.900   2.620E-03
    2.000   2.912E-03
    2.100   3.221E-03
    2.200   3.547E-03
    2.300   3.890E-03
    2.400   4.251E-03
    2.500   4.630E-03
    2.600   5.028E-03
    2.700   5.445E-03
    2.800   5.881E-03
    2.900   6.337E-03
    3.000   6.813E-03
    3.100   7.310E-03
    3.200   7.829E-03
    3.300   8.369E-03
    3.400   8.932E-03
    3.500   9.517E-03
    3.600   1.013E-02
    3.700   1.076E-02
    3.800   1.142E-02
    3.900   1.210E-02
    4.000   1.282E-02
    4.100   1.356E-02
    4.200   1.432E-02
    4.300   1.512E-02
    4.400   1.595E-02
    4.500   1.681E-02
    4.600   1.770E-02
    4.700   1.862E-02
    4.800   1.958E-02
    4.900   2.058E-02
    5.000   2.161E-02
    5.100   2.268E-02
    5.200   2.379E-02
    5.300   2.495E-02
    5.400   2.615E-02
    5.500   2.739E-02
    5.600   2.868E-02
    5.700   3.002E-02
    5.800   3.141E-02
    5.900   3.286E-02
    6.000   3.436E-02
    6.100   3.592E-02
    6.200   3.755E-02
    6.300   3.923E-02
    6.400   4.099E-02
    6.500   4.281E-02
    6.600   4.471E-02
    6.700   4.669E-02
    6.800   4.874E-02
    6.900   5.089E-02
    7.000   5.312E-02
    7.100   5.545E-02
    7.200   5.788E-02
    7.300   6.042E-02
    7.400   6.307E-02
    7.500   6.584E-02
    7.600   6.873E-02
    7.700   7.175E-02
    7.800   7.491E-02
    7.900   7.822E-02
    8.000   8.169E-02
    8.100   8.532E-02
    8.200   8.913E-02
    8.300   9.312E-02
    8.400   9.731E-02
    8.500   1.017E-01
    8.600   1.063E-01
    8.700   1.112E-01
    8.800   1.163E-01
    8.900   1.216E-01
    9.000   1.273E-01
    9.100   1.332E-01
    9.200   1.395E-01
    9.300   1.460E-01
    9.400   1.530E-01
    9.500   1.602E-01
    9.600   1.679E-01
    9.700   1.760E-01
    9.800   1.845E-01
    9.900   1.934E-01
   10.000   2.028E-01
   10.100   2.127E-01
   10.200   2.231E-01
   10.300   2.340E-01
   10.400   2.453E-01
   10.500   2.572E-01
   10.600   2.696E-01
   10.700   2.824E-01
   10.800   2.957E-01
   10.900   3.093E-01
   11.000   3.233E-01
   11.100   3.376E-01
   11.200   3.521E-01
   11.300   3.668E-01
   11.400   3.816E-01
   11.500   3.966E-01
   11.600   4.117E-01
   11.700   4.268E-01
   11.800   4.421E-01
   11.900   4.576E-01
   12.000   4.733E-01
   12.100   4.894E-01
   12.200   5.059E-01
   12.300   5.228E-01
   12.400   5.404E-01
   12.500   5.586E-01
   12.600   5.776E-01
   12.700   5.973E-01
   12.800   6.179E-01
   12.900   6.394E-01
   13.000   6.618E-01
   13.100   6.852E-01
   13.200   7.096E-01
   13.300   7.351E-01
   13.400   7.617E-01
   13.500   7.896E-01
   13.600   8.189E-01
   13.700   8.497E-01
   13.800   8.822E-01
   13.900   9.165E-01
   14.000   9.527E-01
   14.100   9.910E-01
   14.200   1.032E+00
   14.300   1.074E+00
   14.400   1.120E+00
   14.500   1.168E+00
   14.600   1.218E+00
   14.700   1.271E+00
   14.800   1.326E+00
   14.900   1.384E+00
   15.000   1.443E+00
   15.100   1.505E+00
   15.200   1.568E+00
   15.300   1.633E+00
   15.400   1.698E+00
   15.500   1.764E+00
   15.600   1.829E+00
   15.700   1.895E+00
   15.800   1.959E+00
   15.900   2.022E+00
   16.000   2.084E+00
   16.100   2.143E+00
   16.200   2.201E+00
   16.300   2.257E+00
   16.400   2.311E+00
   16.500   2.362E+00
   16.600   2.412E+00
   16.700   2.459E+00
   16.800   2.504E+00
   16.900   2.547E+00
   17.000   2.587E+00
   17.100   2.623E+00
   17.200   2.657E+00
   17.300   2.686E+00
   17.400   2.712E+00
   17.500   2.734E+00
   17.600   2.751E+00
   17.700   2.764E+00
   17.800   2.773E+00
   17.900   2.778E+00
   18.000   2.778E+00
   18.100   2.775E+00
   18.200   2.769E+00
   18.300   2.760E+00
   18.400   2.748E+00
   18.500   2.734E+00
   18.600   2.719E+00
   18.700   2.701E+00
   18.800   2.683E+00
   18.900   2.663E+00
   19.000   2.643E+00
   19.100   2.621E+00
   19.200   2.599E+00
   19.300   2.575E+00
   19.400   2.550E+00
   19.500   2.522E+00
   19.600   2.493E+00
   19.700   2.462E+00
   19.800   2.427E+00
   19.900   2.390E+00
   20.000   2.350E+00
   20.100   2.307E+00
   20.200   2.262E+00
   20.300   2.215E+00
   20.400   2.166E+00
   20.500   2.115E+00
   20.600   2.064E+00
   20.700   2.013E+00
   20.800   1.962E+00
   20.900   1.912E+00
   21.000   1.862E+00
   21.100   1.813E+00
   21.200   1.767E+00
   21.300   1.721E+00
   21.400   1.678E+00
   21.500   1.636E+00
   21.600   1.597E+00
   21.700   1.559E+00
   21.800   1.524E+00
   21.900   1.491E+00
   22.000   1.460E+00
   22.100   1.431E+00
   22.200   1.404E+00
   22.300   1.379E+00
   22.400   1.356E+00
   22.500   1.334E+00
   22.600   1.315E+00
   22.700   1.296E+00
   22.800   1.279E+00
   22.900   1.263E+00
   23.000   1.248E+00
   23.100   1.234E+00
   23.200   1.220E+00
   23.300   1.207E+00
   23.400   1.194E+00
   23.500   1.181E+00
   23.600   1.168E+00
   23.700   1.154E+00
   23.800   1.141E+00
   23.900   1.126E+00
   24.000   1.112E+00
   24.100   1.096E+00
   24.200   1.081E+00
   24.300   1.064E+00
   24.400   1.048E+00
   24.500   1.031E+00
   24.600   1.014E+00
   24.700   9.966E-01
   24.800   9.793E-01
   24.900   9.620E-01
   25.000   9.448E-01
   25.100   9.278E-01
   25.200   9.111E-01
   25.300   8.947E-01
   25.400   8.788E-01
   25.500   8.634E-01
   25.600   8.485E-01
   25.700   8.342E-01
   25.800   8.204E-01
   25.900   8.072E-01
   26.000   7.947E-01
   26.100   7.826E-01
   26.200   7.711E-01
   26.300   7.600E-01
   26.400   7.494E-01
   26.500   7.391E-01
   26.600   7.291E-01
   26.700   7.194E-01
   26.800   7.098E-01
   26.900   7.004E-01
   27.000   6.909E-01
   27.100   6.814E-01
   27.200   6.719E-01
   27.300   6.622E-01
   27.400   6.524E-01
   27.500   6.424E-01
   27.600   6.323E-01
   27.700   6.220E-01
   27.800   6.116E-01
   27.900   6.012E-01
   28.000   5.907E-01
   28.100   5.802E-01
   28.200   5.699E-01
   28.300   5.596E-01
   28.400   5.494E-01
   28.500   5.394E-01
   28.600   5.296E-01
   28.700   5.199E-01
   28.800   5.105E-01
   28.900   5.012E-01
   29.000   4.921E-01
   29.100   4.831E-01
   29.200   4.743E-01
   29.300   4.656E-01
   29.400   4.570E-01
   29.500   4.484E-01
   29.600   4.400E-01
   29.700   4.315E-01
   29.800   4.231E-01
   29.900   4.147E-01
   30.000   4.063E-01
 
 Z=  16 A=  35 S 
  U[MeV]  fE1[mb/MeV]
    0.100   7.696E-06
    0.200   3.079E-05
    0.300   6.931E-05
    0.400   1.233E-04
    0.500   1.928E-04
    0.600   2.778E-04
    0.700   3.785E-04
    0.800   4.950E-04
    0.900   6.273E-04
    1.000   7.755E-04
    1.100   9.399E-04
    1.200   1.121E-03
    1.300   1.318E-03
    1.400   1.532E-03
    1.500   1.762E-03
    1.600   2.010E-03
    1.700   2.275E-03
    1.800   2.557E-03
    1.900   2.858E-03
    2.000   3.176E-03
    2.100   3.513E-03
    2.200   3.869E-03
    2.300   4.244E-03
    2.400   4.638E-03
    2.500   5.053E-03
    2.600   5.487E-03
    2.700   5.943E-03
    2.800   6.420E-03
    2.900   6.919E-03
    3.000   7.440E-03
    3.100   7.984E-03
    3.200   8.551E-03
    3.300   9.143E-03
    3.400   9.759E-03
    3.500   1.040E-02
    3.600   1.107E-02
    3.700   1.176E-02
    3.800   1.249E-02
    3.900   1.324E-02
    4.000   1.402E-02
    4.100   1.483E-02
    4.200   1.568E-02
    4.300   1.655E-02
    4.400   1.746E-02
    4.500   1.841E-02
    4.600   1.939E-02
    4.700   2.041E-02
    4.800   2.147E-02
    4.900   2.257E-02
    5.000   2.371E-02
    5.100   2.490E-02
    5.200   2.613E-02
    5.300   2.740E-02
    5.400   2.873E-02
    5.500   3.011E-02
    5.600   3.155E-02
    5.700   3.304E-02
    5.800   3.458E-02
    5.900   3.619E-02
    6.000   3.787E-02
    6.100   3.961E-02
    6.200   4.142E-02
    6.300   4.331E-02
    6.400   4.528E-02
    6.500   4.732E-02
    6.600   4.946E-02
    6.700   5.168E-02
    6.800   5.400E-02
    6.900   5.641E-02
    7.000   5.894E-02
    7.100   6.157E-02
    7.200   6.432E-02
    7.300   6.720E-02
    7.400   7.020E-02
    7.500   7.334E-02
    7.600   7.663E-02
    7.700   8.007E-02
    7.800   8.367E-02
    7.900   8.744E-02
    8.000   9.138E-02
    8.100   9.551E-02
    8.200   9.984E-02
    8.300   1.044E-01
    8.400   1.091E-01
    8.500   1.141E-01
    8.600   1.193E-01
    8.700   1.248E-01
    8.800   1.305E-01
    8.900   1.365E-01
    9.000   1.428E-01
    9.100   1.494E-01
    9.200   1.564E-01
    9.300   1.636E-01
    9.400   1.712E-01
    9.500   1.792E-01
    9.600   1.875E-01
    9.700   1.962E-01
    9.800   2.053E-01
    9.900   2.148E-01
   10.000   2.247E-01
   10.100   2.349E-01
   10.200   2.456E-01
   10.300   2.567E-01
   10.400   2.682E-01
   10.500   2.801E-01
   10.600   2.924E-01
   10.700   3.050E-01
   10.800   3.181E-01
   10.900   3.316E-01
   11.000   3.454E-01
   11.100   3.596E-01
   11.200   3.741E-01
   11.300   3.890E-01
   11.400   4.042E-01
   11.500   4.198E-01
   11.600   4.356E-01
   11.700   4.517E-01
   11.800   4.681E-01
   11.900   4.848E-01
   12.000   5.019E-01
   12.100   5.194E-01
   12.200   5.374E-01
   12.300   5.559E-01
   12.400   5.751E-01
   12.500   5.949E-01
   12.600   6.156E-01
   12.700   6.371E-01
   12.800   6.595E-01
   12.900   6.829E-01
   13.000   7.074E-01
   13.100   7.330E-01
   13.200   7.597E-01
   13.300   7.876E-01
   13.400   8.169E-01
   13.500   8.476E-01
   13.600   8.797E-01
   13.700   9.135E-01
   13.800   9.490E-01
   13.900   9.864E-01
   14.000   1.026E+00
   14.100   1.067E+00
   14.200   1.111E+00
   14.300   1.157E+00
   14.400   1.206E+00
   14.500   1.257E+00
   14.600   1.310E+00
   14.700   1.366E+00
   14.800   1.424E+00
   14.900   1.484E+00
   15.000   1.546E+00
   15.100   1.609E+00
   15.200   1.674E+00
   15.300   1.739E+00
   15.400   1.805E+00
   15.500   1.870E+00
   15.600   1.936E+00
   15.700   2.000E+00
   15.800   2.063E+00
   15.900   2.124E+00
   16.000   2.183E+00
   16.100   2.240E+00
   16.200   2.294E+00
   16.300   2.346E+00
   16.400   2.396E+00
   16.500   2.442E+00
   16.600   2.486E+00
   16.700   2.527E+00
   16.800   2.565E+00
   16.900   2.600E+00
   17.000   2.633E+00
   17.100   2.663E+00
   17.200   2.691E+00
   17.300   2.717E+00
   17.400   2.740E+00
   17.500   2.761E+00
   17.600   2.780E+00
   17.700   2.796E+00
   17.800   2.810E+00
   17.900   2.821E+00
   18.000   2.830E+00
   18.100   2.835E+00
   18.200   2.837E+00
   18.300   2.836E+00
   18.400   2.831E+00
   18.500   2.822E+00
   18.600   2.808E+00
   18.700   2.791E+00
   18.800   2.769E+00
   18.900   2.743E+00
   19.000   2.714E+00
   19.100   2.681E+00
   19.200   2.644E+00
   19.300   2.605E+00
   19.400   2.564E+00
   19.500   2.522E+00
   19.600   2.479E+00
   19.700   2.436E+00
   19.800   2.394E+00
   19.900   2.352E+00
   20.000   2.311E+00
   20.100   2.271E+00
   20.200   2.233E+00
   20.300   2.196E+00
   20.400   2.160E+00
   20.500   2.125E+00
   20.600   2.091E+00
   20.700   2.058E+00
   20.800   2.025E+00
   20.900   1.992E+00
   21.000   1.960E+00
   21.100   1.927E+00
   21.200   1.895E+00
   21.300   1.862E+00
   21.400   1.830E+00
   21.500   1.797E+00
   21.600   1.764E+00
   21.700   1.731E+00
   21.800   1.699E+00
   21.900   1.666E+00
   22.000   1.634E+00
   22.100   1.602E+00
   22.200   1.571E+00
   22.300   1.541E+00
   22.400   1.511E+00
   22.500   1.482E+00
   22.600   1.454E+00
   22.700   1.426E+00
   22.800   1.399E+00
   22.900   1.374E+00
   23.000   1.348E+00
   23.100   1.324E+00
   23.200   1.300E+00
   23.300   1.277E+00
   23.400   1.255E+00
   23.500   1.233E+00
   23.600   1.212E+00
   23.700   1.192E+00
   23.800   1.172E+00
   23.900   1.153E+00
   24.000   1.135E+00
   24.100   1.117E+00
   24.200   1.099E+00
   24.300   1.082E+00
   24.400   1.065E+00
   24.500   1.049E+00
   24.600   1.032E+00
   24.700   1.015E+00
   24.800   9.990E-01
   24.900   9.826E-01
   25.000   9.664E-01
   25.100   9.502E-01
   25.200   9.342E-01
   25.300   9.184E-01
   25.400   9.028E-01
   25.500   8.875E-01
   25.600   8.724E-01
   25.700   8.577E-01
   25.800   8.434E-01
   25.900   8.294E-01
   26.000   8.159E-01
   26.100   8.027E-01
   26.200   7.900E-01
   26.300   7.776E-01
   26.400   7.656E-01
   26.500   7.539E-01
   26.600   7.425E-01
   26.700   7.314E-01
   26.800   7.205E-01
   26.900   7.096E-01
   27.000   6.989E-01
   27.100   6.883E-01
   27.200   6.776E-01
   27.300   6.668E-01
   27.400   6.560E-01
   27.500   6.451E-01
   27.600   6.341E-01
   27.700   6.230E-01
   27.800   6.118E-01
   27.900   6.005E-01
   28.000   5.892E-01
   28.100   5.780E-01
   28.200   5.668E-01
   28.300   5.557E-01
   28.400   5.448E-01
   28.500   5.342E-01
   28.600   5.238E-01
   28.700   5.138E-01
   28.800   5.040E-01
   28.900   4.946E-01
   29.000   4.856E-01
   29.100   4.769E-01
   29.200   4.685E-01
   29.300   4.603E-01
   29.400   4.524E-01
   29.500   4.447E-01
   29.600   4.371E-01
   29.700   4.296E-01
   29.800   4.221E-01
   29.900   4.147E-01
   30.000   4.072E-01
 
 Z=  16 A=  36 S 
  U[MeV]  fE1[mb/MeV]
    0.100   7.558E-06
    0.200   3.024E-05
    0.300   6.806E-05
    0.400   1.211E-04
    0.500   1.893E-04
    0.600   2.728E-04
    0.700   3.717E-04
    0.800   4.860E-04
    0.900   6.159E-04
    1.000   7.614E-04
    1.100   9.228E-04
    1.200   1.100E-03
    1.300   1.294E-03
    1.400   1.503E-03
    1.500   1.729E-03
    1.600   1.972E-03
    1.700   2.232E-03
    1.800   2.509E-03
    1.900   2.804E-03
    2.000   3.116E-03
    2.100   3.446E-03
    2.200   3.794E-03
    2.300   4.162E-03
    2.400   4.548E-03
    2.500   4.953E-03
    2.600   5.379E-03
    2.700   5.824E-03
    2.800   6.291E-03
    2.900   6.778E-03
    3.000   7.287E-03
    3.100   7.819E-03
    3.200   8.373E-03
    3.300   8.950E-03
    3.400   9.552E-03
    3.500   1.018E-02
    3.600   1.083E-02
    3.700   1.151E-02
    3.800   1.221E-02
    3.900   1.294E-02
    4.000   1.370E-02
    4.100   1.449E-02
    4.200   1.531E-02
    4.300   1.616E-02
    4.400   1.705E-02
    4.500   1.797E-02
    4.600   1.892E-02
    4.700   1.990E-02
    4.800   2.093E-02
    4.900   2.199E-02
    5.000   2.310E-02
    5.100   2.424E-02
    5.200   2.543E-02
    5.300   2.666E-02
    5.400   2.794E-02
    5.500   2.927E-02
    5.600   3.065E-02
    5.700   3.208E-02
    5.800   3.357E-02
    5.900   3.511E-02
    6.000   3.672E-02
    6.100   3.838E-02
    6.200   4.012E-02
    6.300   4.192E-02
    6.400   4.379E-02
    6.500   4.574E-02
    6.600   4.777E-02
    6.700   4.989E-02
    6.800   5.209E-02
    6.900   5.438E-02
    7.000   5.677E-02
    7.100   5.926E-02
    7.200   6.187E-02
    7.300   6.458E-02
    7.400   6.741E-02
    7.500   7.038E-02
    7.600   7.347E-02
    7.700   7.670E-02
    7.800   8.009E-02
    7.900   8.363E-02
    8.000   8.734E-02
    8.100   9.122E-02
    8.200   9.528E-02
    8.300   9.954E-02
    8.400   1.040E-01
    8.500   1.087E-01
    8.600   1.136E-01
    8.700   1.187E-01
    8.800   1.241E-01
    8.900   1.298E-01
    9.000   1.357E-01
    9.100   1.419E-01
    9.200   1.484E-01
    9.300   1.552E-01
    9.400   1.624E-01
    9.500   1.699E-01
    9.600   1.778E-01
    9.700   1.860E-01
    9.800   1.946E-01
    9.900   2.036E-01
   10.000   2.130E-01
   10.100   2.228E-01
   10.200   2.330E-01
   10.300   2.436E-01
   10.400   2.546E-01
   10.500   2.661E-01
   10.600   2.779E-01
   10.700   2.901E-01
   10.800   3.027E-01
   10.900   3.157E-01
   11.000   3.291E-01
   11.100   3.428E-01
   11.200   3.570E-01
   11.300   3.715E-01
   11.400   3.864E-01
   11.500   4.016E-01
   11.600   4.173E-01
   11.700   4.332E-01
   11.800   4.495E-01
   11.900   4.661E-01
   12.000   4.832E-01
   12.100   5.006E-01
   12.200   5.184E-01
   12.300   5.368E-01
   12.400   5.557E-01
   12.500   5.752E-01
   12.600   5.955E-01
   12.700   6.167E-01
   12.800   6.388E-01
   12.900   6.619E-01
   13.000   6.861E-01
   13.100   7.115E-01
   13.200   7.382E-01
   13.300   7.664E-01
   13.400   7.960E-01
   13.500   8.273E-01
   13.600   8.602E-01
   13.700   8.951E-01
   13.800   9.319E-01
   13.900   9.708E-01
   14.000   1.012E+00
   14.100   1.056E+00
   14.200   1.102E+00
   14.300   1.150E+00
   14.400   1.202E+00
   14.500   1.256E+00
   14.600   1.313E+00
   14.700   1.372E+00
   14.800   1.435E+00
   14.900   1.500E+00
   15.000   1.567E+00
   15.100   1.636E+00
   15.200   1.707E+00
   15.300   1.780E+00
   15.400   1.854E+00
   15.500   1.928E+00
   15.600   2.002E+00
   15.700   2.077E+00
   15.800   2.150E+00
   15.900   2.222E+00
   16.000   2.293E+00
   16.100   2.362E+00
   16.200   2.430E+00
   16.300   2.495E+00
   16.400   2.559E+00
   16.500   2.620E+00
   16.600   2.679E+00
   16.700   2.736E+00
   16.800   2.790E+00
   16.900   2.840E+00
   17.000   2.888E+00
   17.100   2.932E+00
   17.200   2.972E+00
   17.300   3.007E+00
   17.400   3.038E+00
   17.500   3.064E+00
   17.600   3.085E+00
   17.700   3.101E+00
   17.800   3.112E+00
   17.900   3.118E+00
   18.000   3.120E+00
   18.100   3.117E+00
   18.200   3.110E+00
   18.300   3.098E+00
   18.400   3.083E+00
   18.500   3.064E+00
   18.600   3.042E+00
   18.700   3.016E+00
   18.800   2.988E+00
   18.900   2.958E+00
   19.000   2.925E+00
   19.100   2.891E+00
   19.200   2.856E+00
   19.300   2.819E+00
   19.400   2.781E+00
   19.500   2.742E+00
   19.600   2.701E+00
   19.700   2.660E+00
   19.800   2.618E+00
   19.900   2.575E+00
   20.000   2.531E+00
   20.100   2.486E+00
   20.200   2.440E+00
   20.300   2.393E+00
   20.400   2.347E+00
   20.500   2.300E+00
   20.600   2.254E+00
   20.700   2.208E+00
   20.800   2.163E+00
   20.900   2.119E+00
   21.000   2.076E+00
   21.100   2.034E+00
   21.200   1.993E+00
   21.300   1.953E+00
   21.400   1.914E+00
   21.500   1.876E+00
   21.600   1.839E+00
   21.700   1.802E+00
   21.800   1.766E+00
   21.900   1.730E+00
   22.000   1.695E+00
   22.100   1.660E+00
   22.200   1.626E+00
   22.300   1.593E+00
   22.400   1.561E+00
   22.500   1.529E+00
   22.600   1.499E+00
   22.700   1.469E+00
   22.800   1.441E+00
   22.900   1.413E+00
   23.000   1.387E+00
   23.100   1.362E+00
   23.200   1.337E+00
   23.300   1.314E+00
   23.400   1.292E+00
   23.500   1.271E+00
   23.600   1.250E+00
   23.700   1.230E+00
   23.800   1.210E+00
   23.900   1.191E+00
   24.000   1.172E+00
   24.100   1.153E+00
   24.200   1.135E+00
   24.300   1.116E+00
   24.400   1.098E+00
   24.500   1.079E+00
   24.600   1.061E+00
   24.700   1.043E+00
   24.800   1.025E+00
   24.900   1.007E+00
   25.000   9.896E-01
   25.100   9.721E-01
   25.200   9.548E-01
   25.300   9.377E-01
   25.400   9.208E-01
   25.500   9.042E-01
   25.600   8.878E-01
   25.700   8.718E-01
   25.800   8.561E-01
   25.900   8.407E-01
   26.000   8.257E-01
   26.100   8.110E-01
   26.200   7.968E-01
   26.300   7.829E-01
   26.400   7.694E-01
   26.500   7.562E-01
   26.600   7.433E-01
   26.700   7.306E-01
   26.800   7.182E-01
   26.900   7.060E-01
   27.000   6.939E-01
   27.100   6.819E-01
   27.200   6.700E-01
   27.300   6.581E-01
   27.400   6.462E-01
   27.500   6.342E-01
   27.600   6.223E-01
   27.700   6.103E-01
   27.800   5.983E-01
   27.900   5.864E-01
   28.000   5.745E-01
   28.100   5.628E-01
   28.200   5.512E-01
   28.300   5.398E-01
   28.400   5.287E-01
   28.500   5.179E-01
   28.600   5.074E-01
   28.700   4.972E-01
   28.800   4.874E-01
   28.900   4.779E-01
   29.000   4.688E-01
   29.100   4.600E-01
   29.200   4.515E-01
   29.300   4.432E-01
   29.400   4.352E-01
   29.500   4.274E-01
   29.600   4.198E-01
   29.700   4.123E-01
   29.800   4.049E-01
   29.900   3.976E-01
   30.000   3.904E-01
 
 Z=  16 A=  37 S 
  U[MeV]  fE1[mb/MeV]
    0.100   8.726E-06
    0.200   3.491E-05
    0.300   7.858E-05
    0.400   1.398E-04
    0.500   2.185E-04
    0.600   3.150E-04
    0.700   4.291E-04
    0.800   5.611E-04
    0.900   7.110E-04
    1.000   8.791E-04
    1.100   1.065E-03
    1.200   1.270E-03
    1.300   1.493E-03
    1.400   1.735E-03
    1.500   1.997E-03
    1.600   2.277E-03
    1.700   2.577E-03
    1.800   2.897E-03
    1.900   3.237E-03
    2.000   3.597E-03
    2.100   3.978E-03
    2.200   4.381E-03
    2.300   4.804E-03
    2.400   5.250E-03
    2.500   5.718E-03
    2.600   6.209E-03
    2.700   6.724E-03
    2.800   7.262E-03
    2.900   7.825E-03
    3.000   8.413E-03
    3.100   9.026E-03
    3.200   9.666E-03
    3.300   1.033E-02
    3.400   1.103E-02
    3.500   1.175E-02
    3.600   1.250E-02
    3.700   1.328E-02
    3.800   1.410E-02
    3.900   1.494E-02
    4.000   1.582E-02
    4.100   1.673E-02
    4.200   1.767E-02
    4.300   1.866E-02
    4.400   1.968E-02
    4.500   2.073E-02
    4.600   2.183E-02
    4.700   2.297E-02
    4.800   2.415E-02
    4.900   2.538E-02
    5.000   2.665E-02
    5.100   2.797E-02
    5.200   2.934E-02
    5.300   3.076E-02
    5.400   3.224E-02
    5.500   3.377E-02
    5.600   3.536E-02
    5.700   3.701E-02
    5.800   3.872E-02
    5.900   4.050E-02
    6.000   4.234E-02
    6.100   4.426E-02
    6.200   4.626E-02
    6.300   4.833E-02
    6.400   5.048E-02
    6.500   5.273E-02
    6.600   5.506E-02
    6.700   5.748E-02
    6.800   6.001E-02
    6.900   6.264E-02
    7.000   6.538E-02
    7.100   6.823E-02
    7.200   7.120E-02
    7.300   7.431E-02
    7.400   7.754E-02
    7.500   8.092E-02
    7.600   8.444E-02
    7.700   8.812E-02
    7.800   9.197E-02
    7.900   9.598E-02
    8.000   1.002E-01
    8.100   1.046E-01
    8.200   1.092E-01
    8.300   1.140E-01
    8.400   1.190E-01
    8.500   1.242E-01
    8.600   1.297E-01
    8.700   1.354E-01
    8.800   1.414E-01
    8.900   1.477E-01
    9.000   1.543E-01
    9.100   1.612E-01
    9.200   1.683E-01
    9.300   1.759E-01
    9.400   1.837E-01
    9.500   1.919E-01
    9.600   2.005E-01
    9.700   2.094E-01
    9.800   2.187E-01
    9.900   2.284E-01
   10.000   2.385E-01
   10.100   2.490E-01
   10.200   2.599E-01
   10.300   2.712E-01
   10.400   2.829E-01
   10.500   2.950E-01
   10.600   3.075E-01
   10.700   3.203E-01
   10.800   3.336E-01
   10.900   3.473E-01
   11.000   3.613E-01
   11.100   3.758E-01
   11.200   3.906E-01
   11.300   4.059E-01
   11.400   4.215E-01
   11.500   4.376E-01
   11.600   4.540E-01
   11.700   4.709E-01
   11.800   4.882E-01
   11.900   5.060E-01
   12.000   5.243E-01
   12.100   5.431E-01
   12.200   5.625E-01
   12.300   5.825E-01
   12.400   6.033E-01
   12.500   6.249E-01
   12.600   6.474E-01
   12.700   6.709E-01
   12.800   6.954E-01
   12.900   7.212E-01
   13.000   7.482E-01
   13.100   7.765E-01
   13.200   8.064E-01
   13.300   8.378E-01
   13.400   8.709E-01
   13.500   9.058E-01
   13.600   9.425E-01
   13.700   9.811E-01
   13.800   1.022E+00
   13.900   1.065E+00
   14.000   1.110E+00
   14.100   1.157E+00
   14.200   1.206E+00
   14.300   1.257E+00
   14.400   1.311E+00
   14.500   1.367E+00
   14.600   1.424E+00
   14.700   1.483E+00
   14.800   1.544E+00
   14.900   1.606E+00
   15.000   1.668E+00
   15.100   1.731E+00
   15.200   1.795E+00
   15.300   1.858E+00
   15.400   1.920E+00
   15.500   1.982E+00
   15.600   2.042E+00
   15.700   2.102E+00
   15.800   2.159E+00
   15.900   2.216E+00
   16.000   2.270E+00
   16.100   2.323E+00
   16.200   2.374E+00
   16.300   2.424E+00
   16.400   2.472E+00
   16.500   2.518E+00
   16.600   2.563E+00
   16.700   2.605E+00
   16.800   2.646E+00
   16.900   2.684E+00
   17.000   2.719E+00
   17.100   2.752E+00
   17.200   2.783E+00
   17.300   2.810E+00
   17.400   2.834E+00
   17.500   2.855E+00
   17.600   2.873E+00
   17.700   2.888E+00
   17.800   2.900E+00
   17.900   2.909E+00
   18.000   2.916E+00
   18.100   2.919E+00
   18.200   2.920E+00
   18.300   2.919E+00
   18.400   2.915E+00
   18.500   2.908E+00
   18.600   2.900E+00
   18.700   2.889E+00
   18.800   2.877E+00
   18.900   2.862E+00
   19.000   2.847E+00
   19.100   2.829E+00
   19.200   2.811E+00
   19.300   2.792E+00
   19.400   2.771E+00
   19.500   2.749E+00
   19.600   2.726E+00
   19.700   2.702E+00
   19.800   2.676E+00
   19.900   2.649E+00
   20.000   2.621E+00
   20.100   2.591E+00
   20.200   2.559E+00
   20.300   2.526E+00
   20.400   2.491E+00
   20.500   2.455E+00
   20.600   2.419E+00
   20.700   2.381E+00
   20.800   2.343E+00
   20.900   2.304E+00
   21.000   2.265E+00
   21.100   2.226E+00
   21.200   2.187E+00
   21.300   2.148E+00
   21.400   2.110E+00
   21.500   2.072E+00
   21.600   2.034E+00
   21.700   1.997E+00
   21.800   1.960E+00
   21.900   1.923E+00
   22.000   1.887E+00
   22.100   1.852E+00
   22.200   1.817E+00
   22.300   1.783E+00
   22.400   1.749E+00
   22.500   1.716E+00
   22.600   1.684E+00
   22.700   1.653E+00
   22.800   1.623E+00
   22.900   1.593E+00
   23.000   1.565E+00
   23.100   1.537E+00
   23.200   1.511E+00
   23.300   1.486E+00
   23.400   1.461E+00
   23.500   1.437E+00
   23.600   1.415E+00
   23.700   1.392E+00
   23.800   1.371E+00
   23.900   1.349E+00
   24.000   1.329E+00
   24.100   1.308E+00
   24.200   1.288E+00
   24.300   1.267E+00
   24.400   1.247E+00
   24.500   1.226E+00
   24.600   1.206E+00
   24.700   1.185E+00
   24.800   1.165E+00
   24.900   1.145E+00
   25.000   1.124E+00
   25.100   1.104E+00
   25.200   1.084E+00
   25.300   1.064E+00
   25.400   1.045E+00
   25.500   1.026E+00
   25.600   1.007E+00
   25.700   9.882E-01
   25.800   9.700E-01
   25.900   9.522E-01
   26.000   9.348E-01
   26.100   9.178E-01
   26.200   9.011E-01
   26.300   8.847E-01
   26.400   8.687E-01
   26.500   8.529E-01
   26.600   8.375E-01
   26.700   8.222E-01
   26.800   8.072E-01
   26.900   7.925E-01
   27.000   7.779E-01
   27.100   7.636E-01
   27.200   7.494E-01
   27.300   7.355E-01
   27.400   7.217E-01
   27.500   7.082E-01
   27.600   6.949E-01
   27.700   6.818E-01
   27.800   6.689E-01
   27.900   6.562E-01
   28.000   6.437E-01
   28.100   6.315E-01
   28.200   6.195E-01
   28.300   6.078E-01
   28.400   5.963E-01
   28.500   5.850E-01
   28.600   5.740E-01
   28.700   5.633E-01
   28.800   5.528E-01
   28.900   5.427E-01
   29.000   5.328E-01
   29.100   5.231E-01
   29.200   5.138E-01
   29.300   5.047E-01
   29.400   4.958E-01
   29.500   4.871E-01
   29.600   4.787E-01
   29.700   4.705E-01
   29.800   4.624E-01
   29.900   4.545E-01
   30.000   4.467E-01
 
 Z=  16 A=  38 S 
  U[MeV]  fE1[mb/MeV]
    0.100   9.717E-06
    0.200   3.888E-05
    0.300   8.751E-05
    0.400   1.557E-04
    0.500   2.434E-04
    0.600   3.508E-04
    0.700   4.780E-04
    0.800   6.251E-04
    0.900   7.923E-04
    1.000   9.797E-04
    1.100   1.188E-03
    1.200   1.416E-03
    1.300   1.665E-03
    1.400   1.936E-03
    1.500   2.227E-03
    1.600   2.541E-03
    1.700   2.876E-03
    1.800   3.234E-03
    1.900   3.615E-03
    2.000   4.019E-03
    2.100   4.446E-03
    2.200   4.898E-03
    2.300   5.374E-03
    2.400   5.875E-03
    2.500   6.401E-03
    2.600   6.954E-03
    2.700   7.534E-03
    2.800   8.141E-03
    2.900   8.776E-03
    3.000   9.441E-03
    3.100   1.013E-02
    3.200   1.086E-02
    3.300   1.162E-02
    3.400   1.240E-02
    3.500   1.323E-02
    3.600   1.408E-02
    3.700   1.497E-02
    3.800   1.590E-02
    3.900   1.687E-02
    4.000   1.787E-02
    4.100   1.892E-02
    4.200   2.001E-02
    4.300   2.114E-02
    4.400   2.232E-02
    4.500   2.354E-02
    4.600   2.481E-02
    4.700   2.614E-02
    4.800   2.751E-02
    4.900   2.895E-02
    5.000   3.044E-02
    5.100   3.198E-02
    5.200   3.360E-02
    5.300   3.527E-02
    5.400   3.702E-02
    5.500   3.884E-02
    5.600   4.073E-02
    5.700   4.270E-02
    5.800   4.476E-02
    5.900   4.690E-02
    6.000   4.914E-02
    6.100   5.147E-02
    6.200   5.390E-02
    6.300   5.645E-02
    6.400   5.910E-02
    6.500   6.188E-02
    6.600   6.479E-02
    6.700   6.783E-02
    6.800   7.101E-02
    6.900   7.435E-02
    7.000   7.785E-02
    7.100   8.152E-02
    7.200   8.538E-02
    7.300   8.943E-02
    7.400   9.369E-02
    7.500   9.818E-02
    7.600   1.029E-01
    7.700   1.079E-01
    7.800   1.131E-01
    7.900   1.186E-01
    8.000   1.244E-01
    8.100   1.305E-01
    8.200   1.370E-01
    8.300   1.438E-01
    8.400   1.510E-01
    8.500   1.585E-01
    8.600   1.665E-01
    8.700   1.749E-01
    8.800   1.838E-01
    8.900   1.931E-01
    9.000   2.030E-01
    9.100   2.134E-01
    9.200   2.244E-01
    9.300   2.359E-01
    9.400   2.480E-01
    9.500   2.606E-01
    9.600   2.737E-01
    9.700   2.873E-01
    9.800   3.013E-01
    9.900   3.158E-01
   10.000   3.306E-01
   10.100   3.459E-01
   10.200   3.615E-01
   10.300   3.776E-01
   10.400   3.943E-01
   10.500   4.115E-01
   10.600   4.294E-01
   10.700   4.480E-01
   10.800   4.675E-01
   10.900   4.877E-01
   11.000   5.088E-01
   11.100   5.306E-01
   11.200   5.532E-01
   11.300   5.764E-01
   11.400   6.001E-01
   11.500   6.243E-01
   11.600   6.488E-01
   11.700   6.737E-01
   11.800   6.988E-01
   11.900   7.243E-01
   12.000   7.503E-01
   12.100   7.769E-01
   12.200   8.044E-01
   12.300   8.329E-01
   12.400   8.627E-01
   12.500   8.939E-01
   12.600   9.268E-01
   12.700   9.615E-01
   12.800   9.980E-01
   12.900   1.036E+00
   13.000   1.077E+00
   13.100   1.119E+00
   13.200   1.163E+00
   13.300   1.208E+00
   13.400   1.256E+00
   13.500   1.305E+00
   13.600   1.357E+00
   13.700   1.412E+00
   13.800   1.469E+00
   13.900   1.530E+00
   14.000   1.594E+00
   14.100   1.662E+00
   14.200   1.734E+00
   14.300   1.810E+00
   14.400   1.889E+00
   14.500   1.971E+00
   14.600   2.056E+00
   14.700   2.142E+00
   14.800   2.228E+00
   14.900   2.312E+00
   15.000   2.393E+00
   15.100   2.471E+00
   15.200   2.544E+00
   15.300   2.610E+00
   15.400   2.671E+00
   15.500   2.724E+00
   15.600   2.770E+00
   15.700   2.808E+00
   15.800   2.838E+00
   15.900   2.861E+00
   16.000   2.876E+00
   16.100   2.884E+00
   16.200   2.885E+00
   16.300   2.880E+00
   16.400   2.871E+00
   16.500   2.858E+00
   16.600   2.845E+00
   16.700   2.831E+00
   16.800   2.818E+00
   16.900   2.808E+00
   17.000   2.801E+00
   17.100   2.798E+00
   17.200   2.799E+00
   17.300   2.804E+00
   17.400   2.812E+00
   17.500   2.823E+00
   17.600   2.836E+00
   17.700   2.850E+00
   17.800   2.863E+00
   17.900   2.874E+00
   18.000   2.882E+00
   18.100   2.886E+00
   18.200   2.885E+00
   18.300   2.879E+00
   18.400   2.868E+00
   18.500   2.852E+00
   18.600   2.832E+00
   18.700   2.808E+00
   18.800   2.781E+00
   18.900   2.751E+00
   19.000   2.719E+00
   19.100   2.686E+00
   19.200   2.650E+00
   19.300   2.614E+00
   19.400   2.577E+00
   19.500   2.538E+00
   19.600   2.500E+00
   19.700   2.461E+00
   19.800   2.422E+00
   19.900   2.383E+00
   20.000   2.345E+00
   20.100   2.307E+00
   20.200   2.270E+00
   20.300   2.234E+00
   20.400   2.199E+00
   20.500   2.165E+00
   20.600   2.133E+00
   20.700   2.102E+00
   20.800   2.072E+00
   20.900   2.043E+00
   21.000   2.015E+00
   21.100   1.988E+00
   21.200   1.962E+00
   21.300   1.936E+00
   21.400   1.911E+00
   21.500   1.885E+00
   21.600   1.860E+00
   21.700   1.834E+00
   21.800   1.809E+00
   21.900   1.783E+00
   22.000   1.757E+00
   22.100   1.731E+00
   22.200   1.705E+00
   22.300   1.679E+00
   22.400   1.652E+00
   22.500   1.625E+00
   22.600   1.597E+00
   22.700   1.569E+00
   22.800   1.541E+00
   22.900   1.512E+00
   23.000   1.483E+00
   23.100   1.453E+00
   23.200   1.423E+00
   23.300   1.393E+00
   23.400   1.363E+00
   23.500   1.333E+00
   23.600   1.304E+00
   23.700   1.275E+00
   23.800   1.247E+00
   23.900   1.219E+00
   24.000   1.192E+00
   24.100   1.166E+00
   24.200   1.140E+00
   24.300   1.116E+00
   24.400   1.092E+00
   24.500   1.068E+00
   24.600   1.046E+00
   24.700   1.024E+00
   24.800   1.002E+00
   24.900   9.813E-01
   25.000   9.610E-01
   25.100   9.413E-01
   25.200   9.222E-01
   25.300   9.037E-01
   25.400   8.858E-01
   25.500   8.687E-01
   25.600   8.522E-01
   25.700   8.364E-01
   25.800   8.213E-01
   25.900   8.068E-01
   26.000   7.930E-01
   26.100   7.799E-01
   26.200   7.673E-01
   26.300   7.553E-01
   26.400   7.438E-01
   26.500   7.328E-01
   26.600   7.223E-01
   26.700   7.123E-01
   26.800   7.027E-01
   26.900   6.935E-01
   27.000   6.846E-01
   27.100   6.762E-01
   27.200   6.680E-01
   27.300   6.601E-01
   27.400   6.525E-01
   27.500   6.450E-01
   27.600   6.377E-01
   27.700   6.306E-01
   27.800   6.234E-01
   27.900   6.163E-01
   28.000   6.090E-01
   28.100   6.017E-01
   28.200   5.942E-01
   28.300   5.865E-01
   28.400   5.786E-01
   28.500   5.704E-01
   28.600   5.620E-01
   28.700   5.533E-01
   28.800   5.444E-01
   28.900   5.353E-01
   29.000   5.259E-01
   29.100   5.165E-01
   29.200   5.069E-01
   29.300   4.974E-01
   29.400   4.878E-01
   29.500   4.784E-01
   29.600   4.692E-01
   29.700   4.601E-01
   29.800   4.514E-01
   29.900   4.429E-01
   30.000   4.347E-01
 
 Z=  16 A=  39 S 
  U[MeV]  fE1[mb/MeV]
    0.100   1.042E-05
    0.200   4.170E-05
    0.300   9.387E-05
    0.400   1.670E-04
    0.500   2.611E-04
    0.600   3.764E-04
    0.700   5.129E-04
    0.800   6.707E-04
    0.900   8.502E-04
    1.000   1.051E-03
    1.100   1.274E-03
    1.200   1.520E-03
    1.300   1.788E-03
    1.400   2.078E-03
    1.500   2.392E-03
    1.600   2.729E-03
    1.700   3.089E-03
    1.800   3.474E-03
    1.900   3.884E-03
    2.000   4.319E-03
    2.100   4.779E-03
    2.200   5.265E-03
    2.300   5.778E-03
    2.400   6.318E-03
    2.500   6.886E-03
    2.600   7.483E-03
    2.700   8.108E-03
    2.800   8.764E-03
    2.900   9.451E-03
    3.000   1.017E-02
    3.100   1.092E-02
    3.200   1.170E-02
    3.300   1.252E-02
    3.400   1.338E-02
    3.500   1.427E-02
    3.600   1.520E-02
    3.700   1.617E-02
    3.800   1.718E-02
    3.900   1.823E-02
    4.000   1.933E-02
    4.100   2.047E-02
    4.200   2.165E-02
    4.300   2.289E-02
    4.400   2.418E-02
    4.500   2.552E-02
    4.600   2.691E-02
    4.700   2.836E-02
    4.800   2.987E-02
    4.900   3.145E-02
    5.000   3.309E-02
    5.100   3.480E-02
    5.200   3.657E-02
    5.300   3.843E-02
    5.400   4.036E-02
    5.500   4.238E-02
    5.600   4.448E-02
    5.700   4.667E-02
    5.800   4.896E-02
    5.900   5.136E-02
    6.000   5.386E-02
    6.100   5.647E-02
    6.200   5.920E-02
    6.300   6.206E-02
    6.400   6.506E-02
    6.500   6.820E-02
    6.600   7.149E-02
    6.700   7.494E-02
    6.800   7.857E-02
    6.900   8.238E-02
    7.000   8.639E-02
    7.100   9.060E-02
    7.200   9.505E-02
    7.300   9.973E-02
    7.400   1.047E-01
    7.500   1.099E-01
    7.600   1.154E-01
    7.700   1.212E-01
    7.800   1.273E-01
    7.900   1.338E-01
    8.000   1.407E-01
    8.100   1.480E-01
    8.200   1.557E-01
    8.300   1.638E-01
    8.400   1.725E-01
    8.500   1.816E-01
    8.600   1.913E-01
    8.700   2.015E-01
    8.800   2.124E-01
    8.900   2.240E-01
    9.000   2.362E-01
    9.100   2.491E-01
    9.200   2.628E-01
    9.300   2.772E-01
    9.400   2.923E-01
    9.500   3.081E-01
    9.600   3.246E-01
    9.700   3.417E-01
    9.800   3.594E-01
    9.900   3.777E-01
   10.000   3.965E-01
   10.100   4.160E-01
   10.200   4.361E-01
   10.300   4.569E-01
   10.400   4.785E-01
   10.500   5.007E-01
   10.600   5.237E-01
   10.700   5.474E-01
   10.800   5.715E-01
   10.900   5.959E-01
   11.000   6.203E-01
   11.100   6.447E-01
   11.200   6.687E-01
   11.300   6.923E-01
   11.400   7.155E-01
   11.500   7.384E-01
   11.600   7.613E-01
   11.700   7.844E-01
   11.800   8.082E-01
   11.900   8.330E-01
   12.000   8.592E-01
   12.100   8.871E-01
   12.200   9.170E-01
   12.300   9.490E-01
   12.400   9.833E-01
   12.500   1.020E+00
   12.600   1.059E+00
   12.700   1.100E+00
   12.800   1.143E+00
   12.900   1.189E+00
   13.000   1.237E+00
   13.100   1.287E+00
   13.200   1.340E+00
   13.300   1.397E+00
   13.400   1.456E+00
   13.500   1.520E+00
   13.600   1.587E+00
   13.700   1.659E+00
   13.800   1.736E+00
   13.900   1.816E+00
   14.000   1.901E+00
   14.100   1.988E+00
   14.200   2.077E+00
   14.300   2.166E+00
   14.400   2.253E+00
   14.500   2.337E+00
   14.600   2.416E+00
   14.700   2.488E+00
   14.800   2.552E+00
   14.900   2.607E+00
   15.000   2.654E+00
   15.100   2.691E+00
   15.200   2.720E+00
   15.300   2.742E+00
   15.400   2.757E+00
   15.500   2.766E+00
   15.600   2.770E+00
   15.700   2.770E+00
   15.800   2.766E+00
   15.900   2.761E+00
   16.000   2.754E+00
   16.100   2.748E+00
   16.200   2.744E+00
   16.300   2.743E+00
   16.400   2.746E+00
   16.500   2.753E+00
   16.600   2.765E+00
   16.700   2.781E+00
   16.800   2.801E+00
   16.900   2.825E+00
   17.000   2.850E+00
   17.100   2.875E+00
   17.200   2.899E+00
   17.300   2.921E+00
   17.400   2.939E+00
   17.500   2.952E+00
   17.600   2.960E+00
   17.700   2.961E+00
   17.800   2.956E+00
   17.900   2.946E+00
   18.000   2.930E+00
   18.100   2.909E+00
   18.200   2.884E+00
   18.300   2.856E+00
   18.400   2.826E+00
   18.500   2.794E+00
   18.600   2.761E+00
   18.700   2.727E+00
   18.800   2.693E+00
   18.900   2.658E+00
   19.000   2.623E+00
   19.100   2.588E+00
   19.200   2.553E+00
   19.300   2.518E+00
   19.400   2.483E+00
   19.500   2.448E+00
   19.600   2.414E+00
   19.700   2.380E+00
   19.800   2.347E+00
   19.900   2.314E+00
   20.000   2.283E+00
   20.100   2.252E+00
   20.200   2.222E+00
   20.300   2.194E+00
   20.400   2.166E+00
   20.500   2.140E+00
   20.600   2.116E+00
   20.700   2.092E+00
   20.800   2.070E+00
   20.900   2.048E+00
   21.000   2.027E+00
   21.100   2.006E+00
   21.200   1.986E+00
   21.300   1.966E+00
   21.400   1.946E+00
   21.500   1.925E+00
   21.600   1.904E+00
   21.700   1.883E+00
   21.800   1.861E+00
   21.900   1.839E+00
   22.000   1.815E+00
   22.100   1.791E+00
   22.200   1.765E+00
   22.300   1.738E+00
   22.400   1.710E+00
   22.500   1.681E+00
   22.600   1.651E+00
   22.700   1.619E+00
   22.800   1.587E+00
   22.900   1.554E+00
   23.000   1.521E+00
   23.100   1.487E+00
   23.200   1.453E+00
   23.300   1.420E+00
   23.400   1.387E+00
   23.500   1.354E+00
   23.600   1.322E+00
   23.700   1.291E+00
   23.800   1.261E+00
   23.900   1.232E+00
   24.000   1.203E+00
   24.100   1.176E+00
   24.200   1.149E+00
   24.300   1.123E+00
   24.400   1.097E+00
   24.500   1.073E+00
   24.600   1.049E+00
   24.700   1.026E+00
   24.800   1.004E+00
   24.900   9.826E-01
   25.000   9.620E-01
   25.100   9.422E-01
   25.200   9.232E-01
   25.300   9.049E-01
   25.400   8.876E-01
   25.500   8.710E-01
   25.600   8.553E-01
   25.700   8.404E-01
   25.800   8.264E-01
   25.900   8.132E-01
   26.000   8.008E-01
   26.100   7.893E-01
   26.200   7.785E-01
   26.300   7.684E-01
   26.400   7.590E-01
   26.500   7.503E-01
   26.600   7.423E-01
   26.700   7.347E-01
   26.800   7.276E-01
   26.900   7.209E-01
   27.000   7.145E-01
   27.100   7.082E-01
   27.200   7.019E-01
   27.300   6.954E-01
   27.400   6.887E-01
   27.500   6.816E-01
   27.600   6.740E-01
   27.700   6.659E-01
   27.800   6.572E-01
   27.900   6.479E-01
   28.000   6.382E-01
   28.100   6.280E-01
   28.200   6.175E-01
   28.300   6.067E-01
   28.400   5.958E-01
   28.500   5.848E-01
   28.600   5.738E-01
   28.700   5.630E-01
   28.800   5.523E-01
   28.900   5.418E-01
   29.000   5.315E-01
   29.100   5.215E-01
   29.200   5.118E-01
   29.300   5.024E-01
   29.400   4.932E-01
   29.500   4.843E-01
   29.600   4.756E-01
   29.700   4.672E-01
   29.800   4.590E-01
   29.900   4.510E-01
   30.000   4.433E-01
 
 Z=  16 A=  40 S 
  U[MeV]  fE1[mb/MeV]
    0.100   1.117E-05
    0.200   4.470E-05
    0.300   1.006E-04
    0.400   1.790E-04
    0.500   2.799E-04
    0.600   4.035E-04
    0.700   5.499E-04
    0.800   7.193E-04
    0.900   9.119E-04
    1.000   1.128E-03
    1.100   1.367E-03
    1.200   1.631E-03
    1.300   1.919E-03
    1.400   2.231E-03
    1.500   2.569E-03
    1.600   2.931E-03
    1.700   3.320E-03
    1.800   3.735E-03
    1.900   4.176E-03
    2.000   4.645E-03
    2.100   5.142E-03
    2.200   5.668E-03
    2.300   6.222E-03
    2.400   6.807E-03
    2.500   7.423E-03
    2.600   8.070E-03
    2.700   8.749E-03
    2.800   9.462E-03
    2.900   1.021E-02
    3.000   1.099E-02
    3.100   1.181E-02
    3.200   1.267E-02
    3.300   1.356E-02
    3.400   1.450E-02
    3.500   1.548E-02
    3.600   1.650E-02
    3.700   1.756E-02
    3.800   1.867E-02
    3.900   1.983E-02
    4.000   2.104E-02
    4.100   2.231E-02
    4.200   2.362E-02
    4.300   2.500E-02
    4.400   2.643E-02
    4.500   2.793E-02
    4.600   2.949E-02
    4.700   3.111E-02
    4.800   3.281E-02
    4.900   3.459E-02
    5.000   3.644E-02
    5.100   3.837E-02
    5.200   4.039E-02
    5.300   4.250E-02
    5.400   4.471E-02
    5.500   4.702E-02
    5.600   4.944E-02
    5.700   5.197E-02
    5.800   5.462E-02
    5.900   5.741E-02
    6.000   6.032E-02
    6.100   6.339E-02
    6.200   6.660E-02
    6.300   6.998E-02
    6.400   7.354E-02
    6.500   7.729E-02
    6.600   8.124E-02
    6.700   8.541E-02
    6.800   8.981E-02
    6.900   9.446E-02
    7.000   9.939E-02
    7.100   1.046E-01
    7.200   1.101E-01
    7.300   1.160E-01
    7.400   1.222E-01
    7.500   1.289E-01
    7.600   1.360E-01
    7.700   1.435E-01
    7.800   1.515E-01
    7.900   1.601E-01
    8.000   1.692E-01
    8.100   1.790E-01
    8.200   1.895E-01
    8.300   2.006E-01
    8.400   2.126E-01
    8.500   2.254E-01
    8.600   2.392E-01
    8.700   2.540E-01
    8.800   2.698E-01
    8.900   2.868E-01
    9.000   3.049E-01
    9.100   3.243E-01
    9.200   3.449E-01
    9.300   3.667E-01
    9.400   3.895E-01
    9.500   4.134E-01
    9.600   4.381E-01
    9.700   4.634E-01
    9.800   4.892E-01
    9.900   5.151E-01
   10.000   5.409E-01
   10.100   5.665E-01
   10.200   5.915E-01
   10.300   6.158E-01
   10.400   6.394E-01
   10.500   6.620E-01
   10.600   6.838E-01
   10.700   7.050E-01
   10.800   7.257E-01
   10.900   7.462E-01
   11.000   7.668E-01
   11.100   7.879E-01
   11.200   8.096E-01
   11.300   8.324E-01
   11.400   8.566E-01
   11.500   8.823E-01
   11.600   9.099E-01
   11.700   9.395E-01
   11.800   9.712E-01
   11.900   1.005E+00
   12.000   1.041E+00
   12.100   1.080E+00
   12.200   1.121E+00
   12.300   1.164E+00
   12.400   1.209E+00
   12.500   1.256E+00
   12.600   1.306E+00
   12.700   1.358E+00
   12.800   1.413E+00
   12.900   1.470E+00
   13.000   1.531E+00
   13.100   1.595E+00
   13.200   1.663E+00
   13.300   1.735E+00
   13.400   1.812E+00
   13.500   1.894E+00
   13.600   1.979E+00
   13.700   2.067E+00
   13.800   2.156E+00
   13.900   2.244E+00
   14.000   2.328E+00
   14.100   2.406E+00
   14.200   2.475E+00
   14.300   2.534E+00
   14.400   2.581E+00
   14.500   2.617E+00
   14.600   2.641E+00
   14.700   2.657E+00
   14.800   2.665E+00
   14.900   2.668E+00
   15.000   2.670E+00
   15.100   2.671E+00
   15.200   2.674E+00
   15.300   2.680E+00
   15.400   2.690E+00
   15.500   2.705E+00
   15.600   2.725E+00
   15.700   2.750E+00
   15.800   2.780E+00
   15.900   2.814E+00
   16.000   2.851E+00
   16.100   2.889E+00
   16.200   2.926E+00
   16.300   2.960E+00
   16.400   2.990E+00
   16.500   3.015E+00
   16.600   3.032E+00
   16.700   3.042E+00
   16.800   3.046E+00
   16.900   3.042E+00
   17.000   3.034E+00
   17.100   3.020E+00
   17.200   3.002E+00
   17.300   2.979E+00
   17.400   2.954E+00
   17.500   2.926E+00
   17.600   2.897E+00
   17.700   2.866E+00
   17.800   2.835E+00
   17.900   2.804E+00
   18.000   2.773E+00
   18.100   2.744E+00
   18.200   2.715E+00
   18.300   2.686E+00
   18.400   2.658E+00
   18.500   2.629E+00
   18.600   2.599E+00
   18.700   2.569E+00
   18.800   2.538E+00
   18.900   2.506E+00
   19.000   2.473E+00
   19.100   2.441E+00
   19.200   2.408E+00
   19.300   2.376E+00
   19.400   2.345E+00
   19.500   2.316E+00
   19.600   2.288E+00
   19.700   2.263E+00
   19.800   2.240E+00
   19.900   2.219E+00
   20.000   2.200E+00
   20.100   2.184E+00
   20.200   2.169E+00
   20.300   2.156E+00
   20.400   2.145E+00
   20.500   2.133E+00
   20.600   2.122E+00
   20.700   2.111E+00
   20.800   2.099E+00
   20.900   2.086E+00
   21.000   2.072E+00
   21.100   2.056E+00
   21.200   2.039E+00
   21.300   2.022E+00
   21.400   2.002E+00
   21.500   1.982E+00
   21.600   1.960E+00
   21.700   1.937E+00
   21.800   1.913E+00
   21.900   1.887E+00
   22.000   1.859E+00
   22.100   1.830E+00
   22.200   1.799E+00
   22.300   1.767E+00
   22.400   1.734E+00
   22.500   1.699E+00
   22.600   1.664E+00
   22.700   1.628E+00
   22.800   1.592E+00
   22.900   1.556E+00
   23.000   1.520E+00
   23.100   1.484E+00
   23.200   1.449E+00
   23.300   1.415E+00
   23.400   1.382E+00
   23.500   1.349E+00
   23.600   1.317E+00
   23.700   1.286E+00
   23.800   1.256E+00
   23.900   1.226E+00
   24.000   1.197E+00
   24.100   1.169E+00
   24.200   1.141E+00
   24.300   1.115E+00
   24.400   1.090E+00
   24.500   1.065E+00
   24.600   1.042E+00
   24.700   1.020E+00
   24.800   9.985E-01
   24.900   9.784E-01
   25.000   9.594E-01
   25.100   9.414E-01
   25.200   9.245E-01
   25.300   9.087E-01
   25.400   8.939E-01
   25.500   8.800E-01
   25.600   8.671E-01
   25.700   8.550E-01
   25.800   8.437E-01
   25.900   8.329E-01
   26.000   8.226E-01
   26.100   8.128E-01
   26.200   8.032E-01
   26.300   7.937E-01
   26.400   7.844E-01
   26.500   7.751E-01
   26.600   7.658E-01
   26.700   7.563E-01
   26.800   7.467E-01
   26.900   7.370E-01
   27.000   7.271E-01
   27.100   7.170E-01
   27.200   7.068E-01
   27.300   6.964E-01
   27.400   6.860E-01
   27.500   6.755E-01
   27.600   6.651E-01
   27.700   6.546E-01
   27.800   6.442E-01
   27.900   6.338E-01
   28.000   6.235E-01
   28.100   6.133E-01
   28.200   6.031E-01
   28.300   5.929E-01
   28.400   5.828E-01
   28.500   5.728E-01
   28.600   5.629E-01
   28.700   5.530E-01
   28.800   5.433E-01
   28.900   5.337E-01
   29.000   5.242E-01
   29.100   5.148E-01
   29.200   5.055E-01
   29.300   4.964E-01
   29.400   4.874E-01
   29.500   4.786E-01
   29.600   4.700E-01
   29.700   4.616E-01
   29.800   4.534E-01
   29.900   4.453E-01
   30.000   4.375E-01
 
 Z=  16 A=  41 S 
  U[MeV]  fE1[mb/MeV]
    0.100   1.183E-05
    0.200   4.734E-05
    0.300   1.066E-04
    0.400   1.896E-04
    0.500   2.965E-04
    0.600   4.275E-04
    0.700   5.826E-04
    0.800   7.621E-04
    0.900   9.662E-04
    1.000   1.195E-03
    1.100   1.449E-03
    1.200   1.729E-03
    1.300   2.034E-03
    1.400   2.365E-03
    1.500   2.723E-03
    1.600   3.108E-03
    1.700   3.521E-03
    1.800   3.961E-03
    1.900   4.430E-03
    2.000   4.929E-03
    2.100   5.457E-03
    2.200   6.016E-03
    2.300   6.606E-03
    2.400   7.229E-03
    2.500   7.884E-03
    2.600   8.573E-03
    2.700   9.297E-03
    2.800   1.006E-02
    2.900   1.085E-02
    3.000   1.169E-02
    3.100   1.256E-02
    3.200   1.348E-02
    3.300   1.444E-02
    3.400   1.544E-02
    3.500   1.649E-02
    3.600   1.758E-02
    3.700   1.872E-02
    3.800   1.992E-02
    3.900   2.116E-02
    4.000   2.246E-02
    4.100   2.382E-02
    4.200   2.524E-02
    4.300   2.672E-02
    4.400   2.827E-02
    4.500   2.988E-02
    4.600   3.157E-02
    4.700   3.333E-02
    4.800   3.517E-02
    4.900   3.709E-02
    5.000   3.910E-02
    5.100   4.120E-02
    5.200   4.340E-02
    5.300   4.570E-02
    5.400   4.811E-02
    5.500   5.063E-02
    5.600   5.327E-02
    5.700   5.605E-02
    5.800   5.895E-02
    5.900   6.201E-02
    6.000   6.522E-02
    6.100   6.859E-02
    6.200   7.214E-02
    6.300   7.588E-02
    6.400   7.981E-02
    6.500   8.397E-02
    6.600   8.836E-02
    6.700   9.300E-02
    6.800   9.791E-02
    6.900   1.031E-01
    7.000   1.086E-01
    7.100   1.145E-01
    7.200   1.207E-01
    7.300   1.273E-01
    7.400   1.344E-01
    7.500   1.420E-01
    7.600   1.500E-01
    7.700   1.587E-01
    7.800   1.679E-01
    7.900   1.778E-01
    8.000   1.885E-01
    8.100   1.999E-01
    8.200   2.122E-01
    8.300   2.254E-01
    8.400   2.397E-01
    8.500   2.550E-01
    8.600   2.716E-01
    8.700   2.894E-01
    8.800   3.086E-01
    8.900   3.293E-01
    9.000   3.516E-01
    9.100   3.754E-01
    9.200   4.008E-01
    9.300   4.277E-01
    9.400   4.559E-01
    9.500   4.851E-01
    9.600   5.151E-01
    9.700   5.453E-01
    9.800   5.752E-01
    9.900   6.043E-01
   10.000   6.322E-01
   10.100   6.584E-01
   10.200   6.828E-01
   10.300   7.054E-01
   10.400   7.265E-01
   10.500   7.464E-01
   10.600   7.656E-01
   10.700   7.848E-01
   10.800   8.044E-01
   10.900   8.251E-01
   11.000   8.473E-01
   11.100   8.713E-01
   11.200   8.976E-01
   11.300   9.263E-01
   11.400   9.576E-01
   11.500   9.913E-01
   11.600   1.027E+00
   11.700   1.066E+00
   11.800   1.106E+00
   11.900   1.147E+00
   12.000   1.190E+00
   12.100   1.233E+00
   12.200   1.276E+00
   12.300   1.320E+00
   12.400   1.365E+00
   12.500   1.410E+00
   12.600   1.457E+00
   12.700   1.504E+00
   12.800   1.553E+00
   12.900   1.603E+00
   13.000   1.654E+00
   13.100   1.707E+00
   13.200   1.762E+00
   13.300   1.818E+00
   13.400   1.877E+00
   13.500   1.939E+00
   13.600   2.003E+00
   13.700   2.069E+00
   13.800   2.138E+00
   13.900   2.207E+00
   14.000   2.275E+00
   14.100   2.340E+00
   14.200   2.400E+00
   14.300   2.454E+00
   14.400   2.500E+00
   14.500   2.537E+00
   14.600   2.566E+00
   14.700   2.588E+00
   14.800   2.605E+00
   14.900   2.620E+00
   15.000   2.634E+00
   15.100   2.651E+00
   15.200   2.671E+00
   15.300   2.697E+00
   15.400   2.729E+00
   15.500   2.767E+00
   15.600   2.811E+00
   15.700   2.860E+00
   15.800   2.912E+00
   15.900   2.966E+00
   16.000   3.019E+00
   16.100   3.071E+00
   16.200   3.118E+00
   16.300   3.160E+00
   16.400   3.193E+00
   16.500   3.219E+00
   16.600   3.234E+00
   16.700   3.241E+00
   16.800   3.239E+00
   16.900   3.229E+00
   17.000   3.213E+00
   17.100   3.193E+00
   17.200   3.169E+00
   17.300   3.143E+00
   17.400   3.115E+00
   17.500   3.085E+00
   17.600   3.054E+00
   17.700   3.022E+00
   17.800   2.988E+00
   17.900   2.952E+00
   18.000   2.915E+00
   18.100   2.877E+00
   18.200   2.839E+00
   18.300   2.799E+00
   18.400   2.760E+00
   18.500   2.720E+00
   18.600   2.680E+00
   18.700   2.641E+00
   18.800   2.602E+00
   18.900   2.564E+00
   19.000   2.527E+00
   19.100   2.491E+00
   19.200   2.457E+00
   19.300   2.424E+00
   19.400   2.394E+00
   19.500   2.367E+00
   19.600   2.342E+00
   19.700   2.320E+00
   19.800   2.301E+00
   19.900   2.285E+00
   20.000   2.271E+00
   20.100   2.259E+00
   20.200   2.249E+00
   20.300   2.241E+00
   20.400   2.233E+00
   20.500   2.226E+00
   20.600   2.218E+00
   20.700   2.208E+00
   20.800   2.197E+00
   20.900   2.184E+00
   21.000   2.169E+00
   21.100   2.150E+00
   21.200   2.130E+00
   21.300   2.107E+00
   21.400   2.081E+00
   21.500   2.055E+00
   21.600   2.026E+00
   21.700   1.997E+00
   21.800   1.966E+00
   21.900   1.934E+00
   22.000   1.901E+00
   22.100   1.868E+00
   22.200   1.833E+00
   22.300   1.798E+00
   22.400   1.762E+00
   22.500   1.725E+00
   22.600   1.688E+00
   22.700   1.650E+00
   22.800   1.612E+00
   22.900   1.574E+00
   23.000   1.537E+00
   23.100   1.500E+00
   23.200   1.463E+00
   23.300   1.427E+00
   23.400   1.392E+00
   23.500   1.357E+00
   23.600   1.324E+00
   23.700   1.291E+00
   23.800   1.260E+00
   23.900   1.229E+00
   24.000   1.199E+00
   24.100   1.169E+00
   24.200   1.141E+00
   24.300   1.113E+00
   24.400   1.087E+00
   24.500   1.061E+00
   24.600   1.037E+00
   24.700   1.014E+00
   24.800   9.918E-01
   24.900   9.712E-01
   25.000   9.519E-01
   25.100   9.340E-01
   25.200   9.173E-01
   25.300   9.018E-01
   25.400   8.873E-01
   25.500   8.739E-01
   25.600   8.612E-01
   25.700   8.492E-01
   25.800   8.377E-01
   25.900   8.265E-01
   26.000   8.156E-01
   26.100   8.049E-01
   26.200   7.945E-01
   26.300   7.842E-01
   26.400   7.741E-01
   26.500   7.643E-01
   26.600   7.548E-01
   26.700   7.456E-01
   26.800   7.366E-01
   26.900   7.278E-01
   27.000   7.191E-01
   27.100   7.105E-01
   27.200   7.020E-01
   27.300   6.934E-01
   27.400   6.847E-01
   27.500   6.758E-01
   27.600   6.667E-01
   27.700   6.573E-01
   27.800   6.475E-01
   27.900   6.374E-01
   28.000   6.270E-01
   28.100   6.164E-01
   28.200   6.057E-01
   28.300   5.948E-01
   28.400   5.840E-01
   28.500   5.733E-01
   28.600   5.628E-01
   28.700   5.524E-01
   28.800   5.422E-01
   28.900   5.323E-01
   29.000   5.225E-01
   29.100   5.128E-01
   29.200   5.034E-01
   29.300   4.940E-01
   29.400   4.848E-01
   29.500   4.758E-01
   29.600   4.669E-01
   29.700   4.582E-01
   29.800   4.497E-01
   29.900   4.415E-01
   30.000   4.334E-01
 
 Z=  16 A=  42 S 
  U[MeV]  fE1[mb/MeV]
    0.100   1.232E-05
    0.200   4.928E-05
    0.300   1.109E-04
    0.400   1.974E-04
    0.500   3.087E-04
    0.600   4.450E-04
    0.700   6.065E-04
    0.800   7.934E-04
    0.900   1.006E-03
    1.000   1.244E-03
    1.100   1.509E-03
    1.200   1.800E-03
    1.300   2.118E-03
    1.400   2.464E-03
    1.500   2.837E-03
    1.600   3.238E-03
    1.700   3.668E-03
    1.800   4.128E-03
    1.900   4.617E-03
    2.000   5.137E-03
    2.100   5.689E-03
    2.200   6.272E-03
    2.300   6.889E-03
    2.400   7.539E-03
    2.500   8.224E-03
    2.600   8.945E-03
    2.700   9.702E-03
    2.800   1.050E-02
    2.900   1.133E-02
    3.000   1.221E-02
    3.100   1.312E-02
    3.200   1.408E-02
    3.300   1.509E-02
    3.400   1.614E-02
    3.500   1.724E-02
    3.600   1.838E-02
    3.700   1.958E-02
    3.800   2.084E-02
    3.900   2.215E-02
    4.000   2.352E-02
    4.100   2.495E-02
    4.200   2.644E-02
    4.300   2.800E-02
    4.400   2.964E-02
    4.500   3.134E-02
    4.600   3.312E-02
    4.700   3.498E-02
    4.800   3.693E-02
    4.900   3.897E-02
    5.000   4.110E-02
    5.100   4.333E-02
    5.200   4.566E-02
    5.300   4.811E-02
    5.400   5.067E-02
    5.500   5.336E-02
    5.600   5.618E-02
    5.700   5.913E-02
    5.800   6.224E-02
    5.900   6.551E-02
    6.000   6.894E-02
    6.100   7.256E-02
    6.200   7.637E-02
    6.300   8.039E-02
    6.400   8.463E-02
    6.500   8.911E-02
    6.600   9.385E-02
    6.700   9.886E-02
    6.800   1.042E-01
    6.900   1.098E-01
    7.000   1.158E-01
    7.100   1.222E-01
    7.200   1.290E-01
    7.300   1.362E-01
    7.400   1.440E-01
    7.500   1.523E-01
    7.600   1.612E-01
    7.700   1.707E-01
    7.800   1.809E-01
    7.900   1.920E-01
    8.000   2.038E-01
    8.100   2.167E-01
    8.200   2.305E-01
    8.300   2.455E-01
    8.400   2.617E-01
    8.500   2.792E-01
    8.600   2.981E-01
    8.700   3.186E-01
    8.800   3.408E-01
    8.900   3.647E-01
    9.000   3.904E-01
    9.100   4.180E-01
    9.200   4.474E-01
    9.300   4.784E-01
    9.400   5.109E-01
    9.500   5.444E-01
    9.600   5.783E-01
    9.700   6.121E-01
    9.800   6.448E-01
    9.900   6.759E-01
   10.000   7.046E-01
   10.100   7.306E-01
   10.200   7.538E-01
   10.300   7.744E-01
   10.400   7.929E-01
   10.500   8.102E-01
   10.600   8.271E-01
   10.700   8.446E-01
   10.800   8.635E-01
   10.900   8.846E-01
   11.000   9.086E-01
   11.100   9.359E-01
   11.200   9.669E-01
   11.300   1.002E+00
   11.400   1.041E+00
   11.500   1.083E+00
   11.600   1.129E+00
   11.700   1.178E+00
   11.800   1.230E+00
   11.900   1.283E+00
   12.000   1.337E+00
   12.100   1.391E+00
   12.200   1.444E+00
   12.300   1.496E+00
   12.400   1.546E+00
   12.500   1.595E+00
   12.600   1.642E+00
   12.700   1.689E+00
   12.800   1.736E+00
   12.900   1.783E+00
   13.000   1.831E+00
   13.100   1.878E+00
   13.200   1.927E+00
   13.300   1.975E+00
   13.400   2.024E+00
   13.500   2.073E+00
   13.600   2.122E+00
   13.700   2.172E+00
   13.800   2.222E+00
   13.900   2.273E+00
   14.000   2.324E+00
   14.100   2.373E+00
   14.200   2.421E+00
   14.300   2.465E+00
   14.400   2.505E+00
   14.500   2.540E+00
   14.600   2.569E+00
   14.700   2.595E+00
   14.800   2.618E+00
   14.900   2.640E+00
   15.000   2.663E+00
   15.100   2.689E+00
   15.200   2.719E+00
   15.300   2.756E+00
   15.400   2.798E+00
   15.500   2.847E+00
   15.600   2.901E+00
   15.700   2.959E+00
   15.800   3.020E+00
   15.900   3.082E+00
   16.000   3.143E+00
   16.100   3.201E+00
   16.200   3.254E+00
   16.300   3.301E+00
   16.400   3.340E+00
   16.500   3.370E+00
   16.600   3.390E+00
   16.700   3.400E+00
   16.800   3.400E+00
   16.900   3.390E+00
   17.000   3.373E+00
   17.100   3.349E+00
   17.200   3.322E+00
   17.300   3.290E+00
   17.400   3.257E+00
   17.500   3.222E+00
   17.600   3.185E+00
   17.700   3.145E+00
   17.800   3.104E+00
   17.900   3.060E+00
   18.000   3.015E+00
   18.100   2.967E+00
   18.200   2.919E+00
   18.300   2.870E+00
   18.400   2.822E+00
   18.500   2.775E+00
   18.600   2.729E+00
   18.700   2.685E+00
   18.800   2.643E+00
   18.900   2.602E+00
   19.000   2.564E+00
   19.100   2.528E+00
   19.200   2.494E+00
   19.300   2.464E+00
   19.400   2.435E+00
   19.500   2.410E+00
   19.600   2.388E+00
   19.700   2.368E+00
   19.800   2.351E+00
   19.900   2.337E+00
   20.000   2.325E+00
   20.100   2.315E+00
   20.200   2.306E+00
   20.300   2.299E+00
   20.400   2.292E+00
   20.500   2.285E+00
   20.600   2.277E+00
   20.700   2.268E+00
   20.800   2.258E+00
   20.900   2.245E+00
   21.000   2.229E+00
   21.100   2.210E+00
   21.200   2.188E+00
   21.300   2.163E+00
   21.400   2.135E+00
   21.500   2.105E+00
   21.600   2.073E+00
   21.700   2.040E+00
   21.800   2.005E+00
   21.900   1.970E+00
   22.000   1.934E+00
   22.100   1.896E+00
   22.200   1.859E+00
   22.300   1.820E+00
   22.400   1.781E+00
   22.500   1.740E+00
   22.600   1.699E+00
   22.700   1.658E+00
   22.800   1.617E+00
   22.900   1.575E+00
   23.000   1.534E+00
   23.100   1.494E+00
   23.200   1.454E+00
   23.300   1.415E+00
   23.400   1.378E+00
   23.500   1.341E+00
   23.600   1.306E+00
   23.700   1.272E+00
   23.800   1.239E+00
   23.900   1.208E+00
   24.000   1.177E+00
   24.100   1.148E+00
   24.200   1.120E+00
   24.300   1.093E+00
   24.400   1.067E+00
   24.500   1.042E+00
   24.600   1.019E+00
   24.700   9.969E-01
   24.800   9.760E-01
   24.900   9.565E-01
   25.000   9.382E-01
   25.100   9.211E-01
   25.200   9.052E-01
   25.300   8.903E-01
   25.400   8.764E-01
   25.500   8.631E-01
   25.600   8.505E-01
   25.700   8.384E-01
   25.800   8.267E-01
   25.900   8.153E-01
   26.000   8.042E-01
   26.100   7.935E-01
   26.200   7.831E-01
   26.300   7.732E-01
   26.400   7.637E-01
   26.500   7.546E-01
   26.600   7.459E-01
   26.700   7.376E-01
   26.800   7.297E-01
   26.900   7.220E-01
   27.000   7.144E-01
   27.100   7.069E-01
   27.200   6.994E-01
   27.300   6.917E-01
   27.400   6.839E-01
   27.500   6.757E-01
   27.600   6.672E-01
   27.700   6.583E-01
   27.800   6.490E-01
   27.900   6.392E-01
   28.000   6.290E-01
   28.100   6.185E-01
   28.200   6.078E-01
   28.300   5.969E-01
   28.400   5.860E-01
   28.500   5.751E-01
   28.600   5.643E-01
   28.700   5.536E-01
   28.800   5.431E-01
   28.900   5.326E-01
   29.000   5.223E-01
   29.100   5.121E-01
   29.200   5.021E-01
   29.300   4.921E-01
   29.400   4.824E-01
   29.500   4.729E-01
   29.600   4.636E-01
   29.700   4.547E-01
   29.800   4.461E-01
   29.900   4.378E-01
   30.000   4.299E-01
 
 Z=  16 A=  43 S 
  U[MeV]  fE1[mb/MeV]
    0.100   1.630E-05
    0.200   6.521E-05
    0.300   1.468E-04
    0.400   2.613E-04
    0.500   4.087E-04
    0.600   5.894E-04
    0.700   8.037E-04
    0.800   1.052E-03
    0.900   1.334E-03
    1.000   1.651E-03
    1.100   2.004E-03
    1.200   2.392E-03
    1.300   2.817E-03
    1.400   3.279E-03
    1.500   3.779E-03
    1.600   4.319E-03
    1.700   4.897E-03
    1.800   5.517E-03
    1.900   6.179E-03
    2.000   6.884E-03
    2.100   7.633E-03
    2.200   8.428E-03
    2.300   9.270E-03
    2.400   1.016E-02
    2.500   1.110E-02
    2.600   1.210E-02
    2.700   1.315E-02
    2.800   1.425E-02
    2.900   1.542E-02
    3.000   1.664E-02
    3.100   1.794E-02
    3.200   1.929E-02
    3.300   2.072E-02
    3.400   2.222E-02
    3.500   2.380E-02
    3.600   2.546E-02
    3.700   2.720E-02
    3.800   2.904E-02
    3.900   3.097E-02
    4.000   3.300E-02
    4.100   3.513E-02
    4.200   3.738E-02
    4.300   3.974E-02
    4.400   4.223E-02
    4.500   4.486E-02
    4.600   4.763E-02
    4.700   5.055E-02
    4.800   5.363E-02
    4.900   5.689E-02
    5.000   6.034E-02
    5.100   6.399E-02
    5.200   6.785E-02
    5.300   7.195E-02
    5.400   7.630E-02
    5.500   8.092E-02
    5.600   8.584E-02
    5.700   9.108E-02
    5.800   9.667E-02
    5.900   1.026E-01
    6.000   1.090E-01
    6.100   1.159E-01
    6.200   1.232E-01
    6.300   1.312E-01
    6.400   1.397E-01
    6.500   1.489E-01
    6.600   1.588E-01
    6.700   1.696E-01
    6.800   1.813E-01
    6.900   1.939E-01
    7.000   2.078E-01
    7.100   2.228E-01
    7.200   2.393E-01
    7.300   2.572E-01
    7.400   2.768E-01
    7.500   2.981E-01
    7.600   3.213E-01
    7.700   3.465E-01
    7.800   3.737E-01
    7.900   4.028E-01
    8.000   4.338E-01
    8.100   4.664E-01
    8.200   5.002E-01
    8.300   5.347E-01
    8.400   5.694E-01
    8.500   6.038E-01
    8.600   6.373E-01
    8.700   6.695E-01
    8.800   7.001E-01
    8.900   7.288E-01
    9.000   7.557E-01
    9.100   7.804E-01
    9.200   8.028E-01
    9.300   8.229E-01
    9.400   8.406E-01
    9.500   8.560E-01
    9.600   8.694E-01
    9.700   8.812E-01
    9.800   8.922E-01
    9.900   9.030E-01
   10.000   9.144E-01
   10.100   9.273E-01
   10.200   9.425E-01
   10.300   9.606E-01
   10.400   9.821E-01
   10.500   1.008E+00
   10.600   1.037E+00
   10.700   1.071E+00
   10.800   1.110E+00
   10.900   1.154E+00
   11.000   1.202E+00
   11.100   1.254E+00
   11.200   1.311E+00
   11.300   1.372E+00
   11.400   1.436E+00
   11.500   1.502E+00
   11.600   1.570E+00
   11.700   1.638E+00
   11.800   1.705E+00
   11.900   1.769E+00
   12.000   1.830E+00
   12.100   1.887E+00
   12.200   1.940E+00
   12.300   1.989E+00
   12.400   2.036E+00
   12.500   2.081E+00
   12.600   2.126E+00
   12.700   2.170E+00
   12.800   2.214E+00
   12.900   2.256E+00
   13.000   2.295E+00
   13.100   2.330E+00
   13.200   2.358E+00
   13.300   2.379E+00
   13.400   2.391E+00
   13.500   2.394E+00
   13.600   2.388E+00
   13.700   2.376E+00
   13.800   2.358E+00
   13.900   2.338E+00
   14.000   2.318E+00
   14.100   2.301E+00
   14.200   2.289E+00
   14.300   2.284E+00
   14.400   2.286E+00
   14.500   2.297E+00
   14.600   2.317E+00
   14.700   2.346E+00
   14.800   2.386E+00
   14.900   2.435E+00
   15.000   2.495E+00
   15.100   2.563E+00
   15.200   2.642E+00
   15.300   2.728E+00
   15.400   2.822E+00
   15.500   2.922E+00
   15.600   3.026E+00
   15.700   3.131E+00
   15.800   3.234E+00
   15.900   3.332E+00
   16.000   3.421E+00
   16.100   3.499E+00
   16.200   3.562E+00
   16.300   3.608E+00
   16.400   3.637E+00
   16.500   3.648E+00
   16.600   3.642E+00
   16.700   3.620E+00
   16.800   3.585E+00
   16.900   3.539E+00
   17.000   3.484E+00
   17.100   3.423E+00
   17.200   3.356E+00
   17.300   3.285E+00
   17.400   3.211E+00
   17.500   3.135E+00
   17.600   3.056E+00
   17.700   2.976E+00
   17.800   2.896E+00
   17.900   2.818E+00
   18.000   2.742E+00
   18.100   2.669E+00
   18.200   2.599E+00
   18.300   2.533E+00
   18.400   2.472E+00
   18.500   2.414E+00
   18.600   2.361E+00
   18.700   2.312E+00
   18.800   2.268E+00
   18.900   2.228E+00
   19.000   2.193E+00
   19.100   2.163E+00
   19.200   2.139E+00
   19.300   2.120E+00
   19.400   2.106E+00
   19.500   2.099E+00
   19.600   2.096E+00
   19.700   2.098E+00
   19.800   2.106E+00
   19.900   2.117E+00
   20.000   2.131E+00
   20.100   2.149E+00
   20.200   2.167E+00
   20.300   2.186E+00
   20.400   2.204E+00
   20.500   2.219E+00
   20.600   2.232E+00
   20.700   2.241E+00
   20.800   2.245E+00
   20.900   2.244E+00
   21.000   2.239E+00
   21.100   2.230E+00
   21.200   2.217E+00
   21.300   2.199E+00
   21.400   2.179E+00
   21.500   2.155E+00
   21.600   2.128E+00
   21.700   2.099E+00
   21.800   2.066E+00
   21.900   2.031E+00
   22.000   1.994E+00
   22.100   1.954E+00
   22.200   1.912E+00
   22.300   1.869E+00
   22.400   1.824E+00
   22.500   1.779E+00
   22.600   1.733E+00
   22.700   1.688E+00
   22.800   1.643E+00
   22.900   1.598E+00
   23.000   1.555E+00
   23.100   1.513E+00
   23.200   1.472E+00
   23.300   1.432E+00
   23.400   1.394E+00
   23.500   1.357E+00
   23.600   1.322E+00
   23.700   1.288E+00
   23.800   1.254E+00
   23.900   1.223E+00
   24.000   1.192E+00
   24.100   1.163E+00
   24.200   1.134E+00
   24.300   1.107E+00
   24.400   1.081E+00
   24.500   1.056E+00
   24.600   1.032E+00
   24.700   1.009E+00
   24.800   9.869E-01
   24.900   9.655E-01
   25.000   9.451E-01
   25.100   9.258E-01
   25.200   9.076E-01
   25.300   8.908E-01
   25.400   8.754E-01
   25.500   8.615E-01
   25.600   8.492E-01
   25.700   8.382E-01
   25.800   8.287E-01
   25.900   8.204E-01
   26.000   8.132E-01
   26.100   8.068E-01
   26.200   8.010E-01
   26.300   7.955E-01
   26.400   7.899E-01
   26.500   7.841E-01
   26.600   7.776E-01
   26.700   7.702E-01
   26.800   7.619E-01
   26.900   7.524E-01
   27.000   7.419E-01
   27.100   7.304E-01
   27.200   7.182E-01
   27.300   7.054E-01
   27.400   6.924E-01
   27.500   6.793E-01
   27.600   6.663E-01
   27.700   6.536E-01
   27.800   6.411E-01
   27.900   6.289E-01
   28.000   6.170E-01
   28.100   6.053E-01
   28.200   5.938E-01
   28.300   5.825E-01
   28.400   5.713E-01
   28.500   5.601E-01
   28.600   5.491E-01
   28.700   5.382E-01
   28.800   5.275E-01
   28.900   5.170E-01
   29.000   5.067E-01
   29.100   4.967E-01
   29.200   4.870E-01
   29.300   4.777E-01
   29.400   4.687E-01
   29.500   4.600E-01
   29.600   4.516E-01
   29.700   4.435E-01
   29.800   4.357E-01
   29.900   4.281E-01
   30.000   4.208E-01
 
 Z=  16 A=  44 S 
  U[MeV]  fE1[mb/MeV]
    0.100   1.695E-05
    0.200   6.784E-05
    0.300   1.528E-04
    0.400   2.718E-04
    0.500   4.253E-04
    0.600   6.133E-04
    0.700   8.363E-04
    0.800   1.095E-03
    0.900   1.389E-03
    1.000   1.719E-03
    1.100   2.086E-03
    1.200   2.491E-03
    1.300   2.933E-03
    1.400   3.415E-03
    1.500   3.937E-03
    1.600   4.499E-03
    1.700   5.103E-03
    1.800   5.750E-03
    1.900   6.441E-03
    2.000   7.177E-03
    2.100   7.960E-03
    2.200   8.792E-03
    2.300   9.673E-03
    2.400   1.061E-02
    2.500   1.159E-02
    2.600   1.264E-02
    2.700   1.374E-02
    2.800   1.490E-02
    2.900   1.612E-02
    3.000   1.741E-02
    3.100   1.877E-02
    3.200   2.020E-02
    3.300   2.170E-02
    3.400   2.328E-02
    3.500   2.495E-02
    3.600   2.671E-02
    3.700   2.855E-02
    3.800   3.050E-02
    3.900   3.254E-02
    4.000   3.470E-02
    4.100   3.697E-02
    4.200   3.936E-02
    4.300   4.188E-02
    4.400   4.455E-02
    4.500   4.736E-02
    4.600   5.033E-02
    4.700   5.346E-02
    4.800   5.678E-02
    4.900   6.030E-02
    5.000   6.403E-02
    5.100   6.798E-02
    5.200   7.218E-02
    5.300   7.664E-02
    5.400   8.140E-02
    5.500   8.646E-02
    5.600   9.187E-02
    5.700   9.765E-02
    5.800   1.038E-01
    5.900   1.105E-01
    6.000   1.176E-01
    6.100   1.253E-01
    6.200   1.336E-01
    6.300   1.425E-01
    6.400   1.522E-01
    6.500   1.627E-01
    6.600   1.741E-01
    6.700   1.865E-01
    6.800   2.000E-01
    6.900   2.148E-01
    7.000   2.309E-01
    7.100   2.486E-01
    7.200   2.679E-01
    7.300   2.891E-01
    7.400   3.121E-01
    7.500   3.372E-01
    7.600   3.643E-01
    7.700   3.935E-01
    7.800   4.245E-01
    7.900   4.571E-01
    8.000   4.909E-01
    8.100   5.254E-01
    8.200   5.600E-01
    8.300   5.942E-01
    8.400   6.273E-01
    8.500   6.592E-01
    8.600   6.896E-01
    8.700   7.186E-01
    8.800   7.462E-01
    8.900   7.725E-01
    9.000   7.975E-01
    9.100   8.211E-01
    9.200   8.433E-01
    9.300   8.639E-01
    9.400   8.829E-01
    9.500   9.002E-01
    9.600   9.159E-01
    9.700   9.302E-01
    9.800   9.435E-01
    9.900   9.563E-01
   10.000   9.694E-01
   10.100   9.836E-01
   10.200   9.996E-01
   10.300   1.018E+00
   10.400   1.040E+00
   10.500   1.066E+00
   10.600   1.096E+00
   10.700   1.130E+00
   10.800   1.169E+00
   10.900   1.212E+00
   11.000   1.261E+00
   11.100   1.314E+00
   11.200   1.372E+00
   11.300   1.435E+00
   11.400   1.503E+00
   11.500   1.576E+00
   11.600   1.653E+00
   11.700   1.732E+00
   11.800   1.813E+00
   11.900   1.894E+00
   12.000   1.972E+00
   12.100   2.046E+00
   12.200   2.114E+00
   12.300   2.177E+00
   12.400   2.234E+00
   12.500   2.287E+00
   12.600   2.337E+00
   12.700   2.386E+00
   12.800   2.433E+00
   12.900   2.480E+00
   13.000   2.526E+00
   13.100   2.570E+00
   13.200   2.608E+00
   13.300   2.640E+00
   13.400   2.662E+00
   13.500   2.672E+00
   13.600   2.672E+00
   13.700   2.660E+00
   13.800   2.639E+00
   13.900   2.613E+00
   14.000   2.584E+00
   14.100   2.556E+00
   14.200   2.532E+00
   14.300   2.515E+00
   14.400   2.506E+00
   14.500   2.508E+00
   14.600   2.520E+00
   14.700   2.543E+00
   14.800   2.577E+00
   14.900   2.622E+00
   15.000   2.677E+00
   15.100   2.742E+00
   15.200   2.817E+00
   15.300   2.901E+00
   15.400   2.992E+00
   15.500   3.090E+00
   15.600   3.191E+00
   15.700   3.293E+00
   15.800   3.391E+00
   15.900   3.484E+00
   16.000   3.566E+00
   16.100   3.634E+00
   16.200   3.687E+00
   16.300   3.721E+00
   16.400   3.737E+00
   16.500   3.735E+00
   16.600   3.715E+00
   16.700   3.681E+00
   16.800   3.634E+00
   16.900   3.579E+00
   17.000   3.517E+00
   17.100   3.451E+00
   17.200   3.383E+00
   17.300   3.313E+00
   17.400   3.242E+00
   17.500   3.169E+00
   17.600   3.094E+00
   17.700   3.019E+00
   17.800   2.942E+00
   17.900   2.866E+00
   18.000   2.790E+00
   18.100   2.717E+00
   18.200   2.647E+00
   18.300   2.580E+00
   18.400   2.517E+00
   18.500   2.458E+00
   18.600   2.403E+00
   18.700   2.352E+00
   18.800   2.306E+00
   18.900   2.265E+00
   19.000   2.229E+00
   19.100   2.198E+00
   19.200   2.173E+00
   19.300   2.153E+00
   19.400   2.139E+00
   19.500   2.130E+00
   19.600   2.127E+00
   19.700   2.129E+00
   19.800   2.135E+00
   19.900   2.146E+00
   20.000   2.161E+00
   20.100   2.178E+00
   20.200   2.196E+00
   20.300   2.215E+00
   20.400   2.232E+00
   20.500   2.247E+00
   20.600   2.258E+00
   20.700   2.264E+00
   20.800   2.264E+00
   20.900   2.259E+00
   21.000   2.248E+00
   21.100   2.232E+00
   21.200   2.212E+00
   21.300   2.187E+00
   21.400   2.159E+00
   21.500   2.127E+00
   21.600   2.093E+00
   21.700   2.057E+00
   21.800   2.018E+00
   21.900   1.977E+00
   22.000   1.934E+00
   22.100   1.889E+00
   22.200   1.843E+00
   22.300   1.797E+00
   22.400   1.749E+00
   22.500   1.702E+00
   22.600   1.655E+00
   22.700   1.608E+00
   22.800   1.563E+00
   22.900   1.519E+00
   23.000   1.476E+00
   23.100   1.434E+00
   23.200   1.394E+00
   23.300   1.356E+00
   23.400   1.319E+00
   23.500   1.284E+00
   23.600   1.250E+00
   23.700   1.218E+00
   23.800   1.187E+00
   23.900   1.157E+00
   24.000   1.128E+00
   24.100   1.101E+00
   24.200   1.074E+00
   24.300   1.049E+00
   24.400   1.024E+00
   24.500   1.001E+00
   24.600   9.780E-01
   24.700   9.562E-01
   24.800   9.354E-01
   24.900   9.155E-01
   25.000   8.968E-01
   25.100   8.794E-01
   25.200   8.635E-01
   25.300   8.492E-01
   25.400   8.366E-01
   25.500   8.257E-01
   25.600   8.165E-01
   25.700   8.088E-01
   25.800   8.026E-01
   25.900   7.975E-01
   26.000   7.933E-01
   26.100   7.897E-01
   26.200   7.862E-01
   26.300   7.825E-01
   26.400   7.782E-01
   26.500   7.730E-01
   26.600   7.669E-01
   26.700   7.596E-01
   26.800   7.512E-01
   26.900   7.418E-01
   27.000   7.315E-01
   27.100   7.205E-01
   27.200   7.090E-01
   27.300   6.970E-01
   27.400   6.849E-01
   27.500   6.726E-01
   27.600   6.603E-01
   27.700   6.482E-01
   27.800   6.362E-01
   27.900   6.244E-01
   28.000   6.127E-01
   28.100   6.011E-01
   28.200   5.896E-01
   28.300   5.782E-01
   28.400   5.668E-01
   28.500   5.556E-01
   28.600   5.445E-01
   28.700   5.335E-01
   28.800   5.227E-01
   28.900   5.121E-01
   29.000   5.018E-01
   29.100   4.917E-01
   29.200   4.819E-01
   29.300   4.723E-01
   29.400   4.631E-01
   29.500   4.542E-01
   29.600   4.456E-01
   29.700   4.373E-01
   29.800   4.292E-01
   29.900   4.214E-01
   30.000   4.138E-01
 
 Z=  16 A=  45 S 
  U[MeV]  fE1[mb/MeV]
    0.100   2.275E-05
    0.200   9.103E-05
    0.300   2.050E-04
    0.400   3.648E-04
    0.500   5.709E-04
    0.600   8.236E-04
    0.700   1.123E-03
    0.800   1.471E-03
    0.900   1.867E-03
    1.000   2.312E-03
    1.100   2.807E-03
    1.200   3.353E-03
    1.300   3.951E-03
    1.400   4.603E-03
    1.500   5.310E-03
    1.600   6.072E-03
    1.700   6.893E-03
    1.800   7.774E-03
    1.900   8.716E-03
    2.000   9.721E-03
    2.100   1.079E-02
    2.200   1.193E-02
    2.300   1.314E-02
    2.400   1.443E-02
    2.500   1.579E-02
    2.600   1.724E-02
    2.700   1.876E-02
    2.800   2.038E-02
    2.900   2.209E-02
    3.000   2.389E-02
    3.100   2.580E-02
    3.200   2.782E-02
    3.300   2.994E-02
    3.400   3.219E-02
    3.500   3.457E-02
    3.600   3.708E-02
    3.700   3.973E-02
    3.800   4.254E-02
    3.900   4.550E-02
    4.000   4.864E-02
    4.100   5.196E-02
    4.200   5.548E-02
    4.300   5.922E-02
    4.400   6.318E-02
    4.500   6.738E-02
    4.600   7.184E-02
    4.700   7.659E-02
    4.800   8.165E-02
    4.900   8.704E-02
    5.000   9.280E-02
    5.100   9.894E-02
    5.200   1.055E-01
    5.300   1.126E-01
    5.400   1.201E-01
    5.500   1.283E-01
    5.600   1.370E-01
    5.700   1.464E-01
    5.800   1.566E-01
    5.900   1.676E-01
    6.000   1.796E-01
    6.100   1.925E-01
    6.200   2.066E-01
    6.300   2.220E-01
    6.400   2.388E-01
    6.500   2.571E-01
    6.600   2.772E-01
    6.700   2.991E-01
    6.800   3.232E-01
    6.900   3.495E-01
    7.000   3.782E-01
    7.100   4.095E-01
    7.200   4.435E-01
    7.300   4.802E-01
    7.400   5.195E-01
    7.500   5.610E-01
    7.600   6.044E-01
    7.700   6.491E-01
    7.800   6.943E-01
    7.900   7.392E-01
    8.000   7.828E-01
    8.100   8.244E-01
    8.200   8.637E-01
    8.300   9.001E-01
    8.400   9.337E-01
    8.500   9.645E-01
    8.600   9.925E-01
    8.700   1.018E+00
    8.800   1.041E+00
    8.900   1.062E+00
    9.000   1.081E+00
    9.100   1.099E+00
    9.200   1.117E+00
    9.300   1.134E+00
    9.400   1.151E+00
    9.500   1.168E+00
    9.600   1.185E+00
    9.700   1.202E+00
    9.800   1.217E+00
    9.900   1.233E+00
   10.000   1.247E+00
   10.100   1.261E+00
   10.200   1.275E+00
   10.300   1.290E+00
   10.400   1.306E+00
   10.500   1.323E+00
   10.600   1.343E+00
   10.700   1.365E+00
   10.800   1.391E+00
   10.900   1.420E+00
   11.000   1.453E+00
   11.100   1.491E+00
   11.200   1.532E+00
   11.300   1.579E+00
   11.400   1.630E+00
   11.500   1.687E+00
   11.600   1.748E+00
   11.700   1.813E+00
   11.800   1.882E+00
   11.900   1.954E+00
   12.000   2.027E+00
   12.100   2.099E+00
   12.200   2.170E+00
   12.300   2.237E+00
   12.400   2.299E+00
   12.500   2.356E+00
   12.600   2.409E+00
   12.700   2.458E+00
   12.800   2.505E+00
   12.900   2.550E+00
   13.000   2.596E+00
   13.100   2.640E+00
   13.200   2.685E+00
   13.300   2.726E+00
   13.400   2.764E+00
   13.500   2.796E+00
   13.600   2.820E+00
   13.700   2.835E+00
   13.800   2.841E+00
   13.900   2.839E+00
   14.000   2.829E+00
   14.100   2.816E+00
   14.200   2.800E+00
   14.300   2.785E+00
   14.400   2.774E+00
   14.500   2.769E+00
   14.600   2.770E+00
   14.700   2.779E+00
   14.800   2.796E+00
   14.900   2.821E+00
   15.000   2.854E+00
   15.100   2.894E+00
   15.200   2.939E+00
   15.300   2.990E+00
   15.400   3.044E+00
   15.500   3.102E+00
   15.600   3.162E+00
   15.700   3.224E+00
   15.800   3.286E+00
   15.900   3.349E+00
   16.000   3.411E+00
   16.100   3.472E+00
   16.200   3.529E+00
   16.300   3.582E+00
   16.400   3.628E+00
   16.500   3.665E+00
   16.600   3.691E+00
   16.700   3.706E+00
   16.800   3.707E+00
   16.900   3.695E+00
   17.000   3.668E+00
   17.100   3.629E+00
   17.200   3.579E+00
   17.300   3.520E+00
   17.400   3.454E+00
   17.500   3.384E+00
   17.600   3.310E+00
   17.700   3.233E+00
   17.800   3.156E+00
   17.900   3.078E+00
   18.000   3.000E+00
   18.100   2.923E+00
   18.200   2.848E+00
   18.300   2.776E+00
   18.400   2.708E+00
   18.500   2.645E+00
   18.600   2.587E+00
   18.700   2.535E+00
   18.800   2.487E+00
   18.900   2.445E+00
   19.000   2.407E+00
   19.100   2.373E+00
   19.200   2.344E+00
   19.300   2.318E+00
   19.400   2.296E+00
   19.500   2.277E+00
   19.600   2.262E+00
   19.700   2.250E+00
   19.800   2.241E+00
   19.900   2.234E+00
   20.000   2.231E+00
   20.100   2.230E+00
   20.200   2.230E+00
   20.300   2.232E+00
   20.400   2.234E+00
   20.500   2.236E+00
   20.600   2.237E+00
   20.700   2.236E+00
   20.800   2.231E+00
   20.900   2.223E+00
   21.000   2.210E+00
   21.100   2.193E+00
   21.200   2.170E+00
   21.300   2.143E+00
   21.400   2.112E+00
   21.500   2.077E+00
   21.600   2.040E+00
   21.700   2.000E+00
   21.800   1.959E+00
   21.900   1.917E+00
   22.000   1.873E+00
   22.100   1.829E+00
   22.200   1.785E+00
   22.300   1.740E+00
   22.400   1.694E+00
   22.500   1.648E+00
   22.600   1.602E+00
   22.700   1.555E+00
   22.800   1.510E+00
   22.900   1.465E+00
   23.000   1.421E+00
   23.100   1.379E+00
   23.200   1.338E+00
   23.300   1.298E+00
   23.400   1.261E+00
   23.500   1.225E+00
   23.600   1.192E+00
   23.700   1.160E+00
   23.800   1.130E+00
   23.900   1.102E+00
   24.000   1.075E+00
   24.100   1.050E+00
   24.200   1.026E+00
   24.300   1.004E+00
   24.400   9.826E-01
   24.500   9.627E-01
   24.600   9.439E-01
   24.700   9.263E-01
   24.800   9.098E-01
   24.900   8.943E-01
   25.000   8.799E-01
   25.100   8.665E-01
   25.200   8.541E-01
   25.300   8.428E-01
   25.400   8.325E-01
   25.500   8.233E-01
   25.600   8.152E-01
   25.700   8.080E-01
   25.800   8.017E-01
   25.900   7.961E-01
   26.000   7.909E-01
   26.100   7.860E-01
   26.200   7.811E-01
   26.300   7.761E-01
   26.400   7.707E-01
   26.500   7.648E-01
   26.600   7.583E-01
   26.700   7.511E-01
   26.800   7.432E-01
   26.900   7.344E-01
   27.000   7.250E-01
   27.100   7.148E-01
   27.200   7.040E-01
   27.300   6.928E-01
   27.400   6.812E-01
   27.500   6.694E-01
   27.600   6.576E-01
   27.700   6.459E-01
   27.800   6.344E-01
   27.900   6.230E-01
   28.000   6.118E-01
   28.100   6.008E-01
   28.200   5.899E-01
   28.300   5.790E-01
   28.400   5.682E-01
   28.500   5.574E-01
   28.600   5.467E-01
   28.700   5.360E-01
   28.800   5.255E-01
   28.900   5.152E-01
   29.000   5.052E-01
   29.100   4.954E-01
   29.200   4.860E-01
   29.300   4.770E-01
   29.400   4.684E-01
   29.500   4.603E-01
   29.600   4.525E-01
   29.700   4.452E-01
   29.800   4.383E-01
   29.900   4.319E-01
   30.000   4.258E-01
 
 Z=  16 A=  46 S 
  U[MeV]  fE1[mb/MeV]
    0.100   3.334E-05
    0.200   1.334E-04
    0.300   3.006E-04
    0.400   5.351E-04
    0.500   8.378E-04
    0.600   1.209E-03
    0.700   1.651E-03
    0.800   2.163E-03
    0.900   2.747E-03
    1.000   3.406E-03
    1.100   4.140E-03
    1.200   4.952E-03
    1.300   5.843E-03
    1.400   6.818E-03
    1.500   7.877E-03
    1.600   9.024E-03
    1.700   1.026E-02
    1.800   1.160E-02
    1.900   1.303E-02
    2.000   1.457E-02
    2.100   1.621E-02
    2.200   1.797E-02
    2.300   1.985E-02
    2.400   2.185E-02
    2.500   2.399E-02
    2.600   2.627E-02
    2.700   2.869E-02
    2.800   3.127E-02
    2.900   3.402E-02
    3.000   3.695E-02
    3.100   4.007E-02
    3.200   4.339E-02
    3.300   4.692E-02
    3.400   5.069E-02
    3.500   5.471E-02
    3.600   5.900E-02
    3.700   6.358E-02
    3.800   6.847E-02
    3.900   7.371E-02
    4.000   7.931E-02
    4.100   8.532E-02
    4.200   9.176E-02
    4.300   9.868E-02
    4.400   1.061E-01
    4.500   1.141E-01
    4.600   1.228E-01
    4.700   1.321E-01
    4.800   1.422E-01
    4.900   1.532E-01
    5.000   1.651E-01
    5.100   1.780E-01
    5.200   1.921E-01
    5.300   2.075E-01
    5.400   2.244E-01
    5.500   2.428E-01
    5.600   2.630E-01
    5.700   2.851E-01
    5.800   3.095E-01
    5.900   3.363E-01
    6.000   3.657E-01
    6.100   3.980E-01
    6.200   4.333E-01
    6.300   4.719E-01
    6.400   5.137E-01
    6.500   5.587E-01
    6.600   6.068E-01
    6.700   6.575E-01
    6.800   7.101E-01
    6.900   7.639E-01
    7.000   8.178E-01
    7.100   8.709E-01
    7.200   9.221E-01
    7.300   9.707E-01
    7.400   1.016E+00
    7.500   1.058E+00
    7.600   1.095E+00
    7.700   1.128E+00
    7.800   1.156E+00
    7.900   1.180E+00
    8.000   1.198E+00
    8.100   1.213E+00
    8.200   1.223E+00
    8.300   1.232E+00
    8.400   1.238E+00
    8.500   1.244E+00
    8.600   1.250E+00
    8.700   1.258E+00
    8.800   1.267E+00
    8.900   1.277E+00
    9.000   1.289E+00
    9.100   1.303E+00
    9.200   1.317E+00
    9.300   1.332E+00
    9.400   1.347E+00
    9.500   1.360E+00
    9.600   1.372E+00
    9.700   1.382E+00
    9.800   1.389E+00
    9.900   1.394E+00
   10.000   1.396E+00
   10.100   1.397E+00
   10.200   1.396E+00
   10.300   1.396E+00
   10.400   1.396E+00
   10.500   1.399E+00
   10.600   1.405E+00
   10.700   1.415E+00
   10.800   1.430E+00
   10.900   1.451E+00
   11.000   1.477E+00
   11.100   1.509E+00
   11.200   1.548E+00
   11.300   1.592E+00
   11.400   1.642E+00
   11.500   1.697E+00
   11.600   1.756E+00
   11.700   1.818E+00
   11.800   1.881E+00
   11.900   1.946E+00
   12.000   2.010E+00
   12.100   2.072E+00
   12.200   2.133E+00
   12.300   2.191E+00
   12.400   2.247E+00
   12.500   2.299E+00
   12.600   2.349E+00
   12.700   2.396E+00
   12.800   2.443E+00
   12.900   2.489E+00
   13.000   2.537E+00
   13.100   2.587E+00
   13.200   2.640E+00
   13.300   2.695E+00
   13.400   2.753E+00
   13.500   2.812E+00
   13.600   2.871E+00
   13.700   2.927E+00
   13.800   2.979E+00
   13.900   3.024E+00
   14.000   3.063E+00
   14.100   3.094E+00
   14.200   3.116E+00
   14.300   3.132E+00
   14.400   3.142E+00
   14.500   3.148E+00
   14.600   3.153E+00
   14.700   3.160E+00
   14.800   3.169E+00
   14.900   3.181E+00
   15.000   3.198E+00
   15.100   3.218E+00
   15.200   3.241E+00
   15.300   3.266E+00
   15.400   3.293E+00
   15.500   3.320E+00
   15.600   3.347E+00
   15.700   3.374E+00
   15.800   3.402E+00
   15.900   3.430E+00
   16.000   3.459E+00
   16.100   3.488E+00
   16.200   3.516E+00
   16.300   3.540E+00
   16.400   3.560E+00
   16.500   3.573E+00
   16.600   3.577E+00
   16.700   3.572E+00
   16.800   3.557E+00
   16.900   3.533E+00
   17.000   3.500E+00
   17.100   3.460E+00
   17.200   3.414E+00
   17.300   3.366E+00
   17.400   3.316E+00
   17.500   3.267E+00
   17.600   3.220E+00
   17.700   3.176E+00
   17.800   3.133E+00
   17.900   3.094E+00
   18.000   3.055E+00
   18.100   3.018E+00
   18.200   2.980E+00
   18.300   2.942E+00
   18.400   2.901E+00
   18.500   2.860E+00
   18.600   2.817E+00
   18.700   2.773E+00
   18.800   2.729E+00
   18.900   2.685E+00
   19.000   2.642E+00
   19.100   2.600E+00
   19.200   2.560E+00
   19.300   2.522E+00
   19.400   2.486E+00
   19.500   2.452E+00
   19.600   2.419E+00
   19.700   2.389E+00
   19.800   2.360E+00
   19.900   2.333E+00
   20.000   2.307E+00
   20.100   2.283E+00
   20.200   2.260E+00
   20.300   2.237E+00
   20.400   2.215E+00
   20.500   2.192E+00
   20.600   2.170E+00
   20.700   2.147E+00
   20.800   2.123E+00
   20.900   2.097E+00
   21.000   2.069E+00
   21.100   2.039E+00
   21.200   2.006E+00
   21.300   1.971E+00
   21.400   1.933E+00
   21.500   1.894E+00
   21.600   1.854E+00
   21.700   1.813E+00
   21.800   1.773E+00
   21.900   1.733E+00
   22.000   1.695E+00
   22.100   1.658E+00
   22.200   1.622E+00
   22.300   1.588E+00
   22.400   1.554E+00
   22.500   1.520E+00
   22.600   1.487E+00
   22.700   1.453E+00
   22.800   1.419E+00
   22.900   1.385E+00
   23.000   1.350E+00
   23.100   1.316E+00
   23.200   1.283E+00
   23.300   1.250E+00
   23.400   1.217E+00
   23.500   1.186E+00
   23.600   1.156E+00
   23.700   1.128E+00
   23.800   1.101E+00
   23.900   1.075E+00
   24.000   1.052E+00
   24.100   1.029E+00
   24.200   1.009E+00
   24.300   9.896E-01
   24.400   9.720E-01
   24.500   9.557E-01
   24.600   9.407E-01
   24.700   9.270E-01
   24.800   9.143E-01
   24.900   9.027E-01
   25.000   8.919E-01
   25.100   8.819E-01
   25.200   8.724E-01
   25.300   8.633E-01
   25.400   8.544E-01
   25.500   8.455E-01
   25.600   8.364E-01
   25.700   8.271E-01
   25.800   8.176E-01
   25.900   8.078E-01
   26.000   7.979E-01
   26.100   7.879E-01
   26.200   7.778E-01
   26.300   7.678E-01
   26.400   7.579E-01
   26.500   7.482E-01
   26.600   7.386E-01
   26.700   7.292E-01
   26.800   7.198E-01
   26.900   7.104E-01
   27.000   7.008E-01
   27.100   6.910E-01
   27.200   6.808E-01
   27.300   6.703E-01
   27.400   6.595E-01
   27.500   6.484E-01
   27.600   6.371E-01
   27.700   6.257E-01
   27.800   6.144E-01
   27.900   6.032E-01
   28.000   5.923E-01
   28.100   5.816E-01
   28.200   5.714E-01
   28.300   5.615E-01
   28.400   5.521E-01
   28.500   5.432E-01
   28.600   5.347E-01
   28.700   5.267E-01
   28.800   5.190E-01
   28.900   5.116E-01
   29.000   5.045E-01
   29.100   4.976E-01
   29.200   4.909E-01
   29.300   4.844E-01
   29.400   4.779E-01
   29.500   4.714E-01
   29.600   4.650E-01
   29.700   4.586E-01
   29.800   4.523E-01
   29.900   4.461E-01
   30.000   4.400E-01
 
 Z=  16 A=  47 S 
  U[MeV]  fE1[mb/MeV]
    0.100   4.965E-05
    0.200   1.988E-04
    0.300   4.478E-04
    0.400   7.976E-04
    0.500   1.249E-03
    0.600   1.804E-03
    0.700   2.464E-03
    0.800   3.231E-03
    0.900   4.108E-03
    1.000   5.098E-03
    1.100   6.203E-03
    1.200   7.428E-03
    1.300   8.777E-03
    1.400   1.025E-02
    1.500   1.187E-02
    1.600   1.362E-02
    1.700   1.551E-02
    1.800   1.756E-02
    1.900   1.977E-02
    2.000   2.215E-02
    2.100   2.471E-02
    2.200   2.746E-02
    2.300   3.040E-02
    2.400   3.357E-02
    2.500   3.695E-02
    2.600   4.058E-02
    2.700   4.447E-02
    2.800   4.864E-02
    2.900   5.310E-02
    3.000   5.789E-02
    3.100   6.302E-02
    3.200   6.853E-02
    3.300   7.444E-02
    3.400   8.079E-02
    3.500   8.762E-02
    3.600   9.497E-02
    3.700   1.029E-01
    3.800   1.114E-01
    3.900   1.207E-01
    4.000   1.307E-01
    4.100   1.415E-01
    4.200   1.532E-01
    4.300   1.659E-01
    4.400   1.798E-01
    4.500   1.949E-01
    4.600   2.114E-01
    4.700   2.294E-01
    4.800   2.492E-01
    4.900   2.708E-01
    5.000   2.946E-01
    5.100   3.208E-01
    5.200   3.496E-01
    5.300   3.813E-01
    5.400   4.161E-01
    5.500   4.544E-01
    5.600   4.964E-01
    5.700   5.424E-01
    5.800   5.923E-01
    5.900   6.462E-01
    6.000   7.039E-01
    6.100   7.650E-01
    6.200   8.288E-01
    6.300   8.943E-01
    6.400   9.606E-01
    6.500   1.027E+00
    6.600   1.091E+00
    6.700   1.153E+00
    6.800   1.213E+00
    6.900   1.269E+00
    7.000   1.321E+00
    7.100   1.369E+00
    7.200   1.411E+00
    7.300   1.449E+00
    7.400   1.480E+00
    7.500   1.504E+00
    7.600   1.522E+00
    7.700   1.533E+00
    7.800   1.539E+00
    7.900   1.540E+00
    8.000   1.537E+00
    8.100   1.532E+00
    8.200   1.524E+00
    8.300   1.516E+00
    8.400   1.507E+00
    8.500   1.499E+00
    8.600   1.492E+00
    8.700   1.486E+00
    8.800   1.482E+00
    8.900   1.480E+00
    9.000   1.479E+00
    9.100   1.481E+00
    9.200   1.483E+00
    9.300   1.487E+00
    9.400   1.491E+00
    9.500   1.495E+00
    9.600   1.498E+00
    9.700   1.500E+00
    9.800   1.501E+00
    9.900   1.500E+00
   10.000   1.497E+00
   10.100   1.493E+00
   10.200   1.489E+00
   10.300   1.486E+00
   10.400   1.485E+00
   10.500   1.487E+00
   10.600   1.493E+00
   10.700   1.503E+00
   10.800   1.519E+00
   10.900   1.541E+00
   11.000   1.568E+00
   11.100   1.603E+00
   11.200   1.644E+00
   11.300   1.692E+00
   11.400   1.745E+00
   11.500   1.804E+00
   11.600   1.867E+00
   11.700   1.933E+00
   11.800   1.999E+00
   11.900   2.063E+00
   12.000   2.124E+00
   12.100   2.180E+00
   12.200   2.229E+00
   12.300   2.272E+00
   12.400   2.309E+00
   12.500   2.343E+00
   12.600   2.376E+00
   12.700   2.410E+00
   12.800   2.447E+00
   12.900   2.489E+00
   13.000   2.538E+00
   13.100   2.594E+00
   13.200   2.656E+00
   13.300   2.726E+00
   13.400   2.801E+00
   13.500   2.878E+00
   13.600   2.957E+00
   13.700   3.033E+00
   13.800   3.103E+00
   13.900   3.165E+00
   14.000   3.217E+00
   14.100   3.258E+00
   14.200   3.288E+00
   14.300   3.308E+00
   14.400   3.321E+00
   14.500   3.330E+00
   14.600   3.337E+00
   14.700   3.345E+00
   14.800   3.356E+00
   14.900   3.371E+00
   15.000   3.390E+00
   15.100   3.413E+00
   15.200   3.439E+00
   15.300   3.467E+00
   15.400   3.495E+00
   15.500   3.521E+00
   15.600   3.545E+00
   15.700   3.564E+00
   15.800   3.579E+00
   15.900   3.589E+00
   16.000   3.594E+00
   16.100   3.592E+00
   16.200   3.586E+00
   16.300   3.574E+00
   16.400   3.558E+00
   16.500   3.539E+00
   16.600   3.517E+00
   16.700   3.493E+00
   16.800   3.468E+00
   16.900   3.441E+00
   17.000   3.412E+00
   17.100   3.379E+00
   17.200   3.344E+00
   17.300   3.306E+00
   17.400   3.264E+00
   17.500   3.220E+00
   17.600   3.175E+00
   17.700   3.128E+00
   17.800   3.081E+00
   17.900   3.034E+00
   18.000   2.988E+00
   18.100   2.942E+00
   18.200   2.898E+00
   18.300   2.855E+00
   18.400   2.813E+00
   18.500   2.773E+00
   18.600   2.734E+00
   18.700   2.698E+00
   18.800   2.664E+00
   18.900   2.632E+00
   19.000   2.603E+00
   19.100   2.575E+00
   19.200   2.549E+00
   19.300   2.524E+00
   19.400   2.500E+00
   19.500   2.477E+00
   19.600   2.454E+00
   19.700   2.431E+00
   19.800   2.406E+00
   19.900   2.381E+00
   20.000   2.354E+00
   20.100   2.326E+00
   20.200   2.295E+00
   20.300   2.264E+00
   20.400   2.231E+00
   20.500   2.197E+00
   20.600   2.162E+00
   20.700   2.127E+00
   20.800   2.091E+00
   20.900   2.054E+00
   21.000   2.016E+00
   21.100   1.977E+00
   21.200   1.935E+00
   21.300   1.893E+00
   21.400   1.848E+00
   21.500   1.803E+00
   21.600   1.757E+00
   21.700   1.712E+00
   21.800   1.667E+00
   21.900   1.623E+00
   22.000   1.581E+00
   22.100   1.540E+00
   22.200   1.501E+00
   22.300   1.464E+00
   22.400   1.428E+00
   22.500   1.393E+00
   22.600   1.359E+00
   22.700   1.326E+00
   22.800   1.294E+00
   22.900   1.264E+00
   23.000   1.234E+00
   23.100   1.206E+00
   23.200   1.179E+00
   23.300   1.153E+00
   23.400   1.129E+00
   23.500   1.107E+00
   23.600   1.087E+00
   23.700   1.068E+00
   23.800   1.051E+00
   23.900   1.036E+00
   24.000   1.023E+00
   24.100   1.011E+00
   24.200   1.001E+00
   24.300   9.909E-01
   24.400   9.821E-01
   24.500   9.737E-01
   24.600   9.655E-01
   24.700   9.573E-01
   24.800   9.487E-01
   24.900   9.397E-01
   25.000   9.302E-01
   25.100   9.199E-01
   25.200   9.089E-01
   25.300   8.973E-01
   25.400   8.852E-01
   25.500   8.727E-01
   25.600   8.601E-01
   25.700   8.475E-01
   25.800   8.350E-01
   25.900   8.227E-01
   26.000   8.107E-01
   26.100   7.991E-01
   26.200   7.877E-01
   26.300   7.766E-01
   26.400   7.659E-01
   26.500   7.554E-01
   26.600   7.451E-01
   26.700   7.349E-01
   26.800   7.249E-01
   26.900   7.150E-01
   27.000   7.050E-01
   27.100   6.949E-01
   27.200   6.848E-01
   27.300   6.746E-01
   27.400   6.645E-01
   27.500   6.544E-01
   27.600   6.444E-01
   27.700   6.347E-01
   27.800   6.252E-01
   27.900   6.159E-01
   28.000   6.069E-01
   28.100   5.981E-01
   28.200   5.894E-01
   28.300   5.808E-01
   28.400   5.721E-01
   28.500   5.634E-01
   28.600   5.546E-01
   28.700   5.457E-01
   28.800   5.366E-01
   28.900   5.274E-01
   29.000   5.182E-01
   29.100   5.089E-01
   29.200   4.997E-01
   29.300   4.907E-01
   29.400   4.819E-01
   29.500   4.734E-01
   29.600   4.653E-01
   29.700   4.576E-01
   29.800   4.503E-01
   29.900   4.436E-01
   30.000   4.373E-01
 
 Z=  16 A=  48 S 
  U[MeV]  fE1[mb/MeV]
    0.100   5.963E-05
    0.200   2.387E-04
    0.300   5.378E-04
    0.400   9.579E-04
    0.500   1.500E-03
    0.600   2.167E-03
    0.700   2.959E-03
    0.800   3.881E-03
    0.900   4.934E-03
    1.000   6.122E-03
    1.100   7.450E-03
    1.200   8.922E-03
    1.300   1.054E-02
    1.400   1.232E-02
    1.500   1.425E-02
    1.600   1.635E-02
    1.700   1.863E-02
    1.800   2.109E-02
    1.900   2.375E-02
    2.000   2.660E-02
    2.100   2.967E-02
    2.200   3.297E-02
    2.300   3.651E-02
    2.400   4.030E-02
    2.500   4.436E-02
    2.600   4.871E-02
    2.700   5.336E-02
    2.800   5.834E-02
    2.900   6.368E-02
    3.000   6.939E-02
    3.100   7.551E-02
    3.200   8.207E-02
    3.300   8.910E-02
    3.400   9.663E-02
    3.500   1.047E-01
    3.600   1.134E-01
    3.700   1.227E-01
    3.800   1.328E-01
    3.900   1.436E-01
    4.000   1.552E-01
    4.100   1.677E-01
    4.200   1.813E-01
    4.300   1.959E-01
    4.400   2.117E-01
    4.500   2.288E-01
    4.600   2.474E-01
    4.700   2.674E-01
    4.800   2.892E-01
    4.900   3.129E-01
    5.000   3.385E-01
    5.100   3.663E-01
    5.200   3.966E-01
    5.300   4.293E-01
    5.400   4.648E-01
    5.500   5.031E-01
    5.600   5.445E-01
    5.700   5.890E-01
    5.800   6.367E-01
    5.900   6.876E-01
    6.000   7.417E-01
    6.100   7.989E-01
    6.200   8.590E-01
    6.300   9.218E-01
    6.400   9.869E-01
    6.500   1.054E+00
    6.600   1.123E+00
    6.700   1.193E+00
    6.800   1.264E+00
    6.900   1.335E+00
    7.000   1.406E+00
    7.100   1.475E+00
    7.200   1.543E+00
    7.300   1.608E+00
    7.400   1.669E+00
    7.500   1.725E+00
    7.600   1.776E+00
    7.700   1.821E+00
    7.800   1.860E+00
    7.900   1.893E+00
    8.000   1.919E+00
    8.100   1.939E+00
    8.200   1.955E+00
    8.300   1.966E+00
    8.400   1.973E+00
    8.500   1.977E+00
    8.600   1.977E+00
    8.700   1.974E+00
    8.800   1.968E+00
    8.900   1.958E+00
    9.000   1.945E+00
    9.100   1.928E+00
    9.200   1.909E+00
    9.300   1.887E+00
    9.400   1.863E+00
    9.500   1.837E+00
    9.600   1.812E+00
    9.700   1.786E+00
    9.800   1.761E+00
    9.900   1.737E+00
   10.000   1.715E+00
   10.100   1.695E+00
   10.200   1.677E+00
   10.300   1.662E+00
   10.400   1.649E+00
   10.500   1.640E+00
   10.600   1.635E+00
   10.700   1.634E+00
   10.800   1.637E+00
   10.900   1.645E+00
   11.000   1.658E+00
   11.100   1.676E+00
   11.200   1.699E+00
   11.300   1.726E+00
   11.400   1.758E+00
   11.500   1.795E+00
   11.600   1.835E+00
   11.700   1.879E+00
   11.800   1.924E+00
   11.900   1.972E+00
   12.000   2.021E+00
   12.100   2.070E+00
   12.200   2.119E+00
   12.300   2.166E+00
   12.400   2.213E+00
   12.500   2.257E+00
   12.600   2.301E+00
   12.700   2.343E+00
   12.800   2.385E+00
   12.900   2.427E+00
   13.000   2.470E+00
   13.100   2.516E+00
   13.200   2.566E+00
   13.300   2.619E+00
   13.400   2.676E+00
   13.500   2.739E+00
   13.600   2.805E+00
   13.700   2.874E+00
   13.800   2.946E+00
   13.900   3.019E+00
   14.000   3.092E+00
   14.100   3.162E+00
   14.200   3.228E+00
   14.300   3.289E+00
   14.400   3.343E+00
   14.500   3.390E+00
   14.600   3.428E+00
   14.700   3.458E+00
   14.800   3.482E+00
   14.900   3.499E+00
   15.000   3.512E+00
   15.100   3.523E+00
   15.200   3.533E+00
   15.300   3.544E+00
   15.400   3.557E+00
   15.500   3.575E+00
   15.600   3.596E+00
   15.700   3.621E+00
   15.800   3.649E+00
   15.900   3.680E+00
   16.000   3.712E+00
   16.100   3.744E+00
   16.200   3.773E+00
   16.300   3.799E+00
   16.400   3.819E+00
   16.500   3.832E+00
   16.600   3.836E+00
   16.700   3.832E+00
   16.800   3.818E+00
   16.900   3.794E+00
   17.000   3.762E+00
   17.100   3.721E+00
   17.200   3.673E+00
   17.300   3.621E+00
   17.400   3.564E+00
   17.500   3.506E+00
   17.600   3.448E+00
   17.700   3.392E+00
   17.800   3.338E+00
   17.900   3.287E+00
   18.000   3.241E+00
   18.100   3.199E+00
   18.200   3.161E+00
   18.300   3.126E+00
   18.400   3.094E+00
   18.500   3.064E+00
   18.600   3.035E+00
   18.700   3.005E+00
   18.800   2.975E+00
   18.900   2.943E+00
   19.000   2.910E+00
   19.100   2.874E+00
   19.200   2.835E+00
   19.300   2.794E+00
   19.400   2.750E+00
   19.500   2.703E+00
   19.600   2.653E+00
   19.700   2.600E+00
   19.800   2.546E+00
   19.900   2.490E+00
   20.000   2.433E+00
   20.100   2.377E+00
   20.200   2.321E+00
   20.300   2.267E+00
   20.400   2.214E+00
   20.500   2.164E+00
   20.600   2.117E+00
   20.700   2.072E+00
   20.800   2.030E+00
   20.900   1.991E+00
   21.000   1.954E+00
   21.100   1.918E+00
   21.200   1.884E+00
   21.300   1.850E+00
   21.400   1.816E+00
   21.500   1.782E+00
   21.600   1.746E+00
   21.700   1.708E+00
   21.800   1.669E+00
   21.900   1.628E+00
   22.000   1.585E+00
   22.100   1.542E+00
   22.200   1.497E+00
   22.300   1.453E+00
   22.400   1.410E+00
   22.500   1.367E+00
   22.600   1.327E+00
   22.700   1.288E+00
   22.800   1.251E+00
   22.900   1.217E+00
   23.000   1.185E+00
   23.100   1.155E+00
   23.200   1.128E+00
   23.300   1.103E+00
   23.400   1.080E+00
   23.500   1.059E+00
   23.600   1.040E+00
   23.700   1.024E+00
   23.800   1.009E+00
   23.900   9.954E-01
   24.000   9.841E-01
   24.100   9.745E-01
   24.200   9.666E-01
   24.300   9.601E-01
   24.400   9.548E-01
   24.500   9.505E-01
   24.600   9.469E-01
   24.700   9.435E-01
   24.800   9.399E-01
   24.900   9.358E-01
   25.000   9.308E-01
   25.100   9.246E-01
   25.200   9.169E-01
   25.300   9.077E-01
   25.400   8.968E-01
   25.500   8.844E-01
   25.600   8.706E-01
   25.700   8.555E-01
   25.800   8.394E-01
   25.900   8.225E-01
   26.000   8.053E-01
   26.100   7.879E-01
   26.200   7.706E-01
   26.300   7.537E-01
   26.400   7.374E-01
   26.500   7.219E-01
   26.600   7.072E-01
   26.700   6.934E-01
   26.800   6.805E-01
   26.900   6.686E-01
   27.000   6.576E-01
   27.100   6.474E-01
   27.200   6.379E-01
   27.300   6.290E-01
   27.400   6.207E-01
   27.500   6.128E-01
   27.600   6.053E-01
   27.700   5.979E-01
   27.800   5.908E-01
   27.900   5.839E-01
   28.000   5.770E-01
   28.100   5.703E-01
   28.200   5.638E-01
   28.300   5.574E-01
   28.400   5.513E-01
   28.500   5.455E-01
   28.600   5.400E-01
   28.700   5.349E-01
   28.800   5.301E-01
   28.900   5.256E-01
   29.000   5.214E-01
   29.100   5.174E-01
   29.200   5.135E-01
   29.300   5.097E-01
   29.400   5.058E-01
   29.500   5.018E-01
   29.600   4.975E-01
   29.700   4.928E-01
   29.800   4.879E-01
   29.900   4.825E-01
   30.000   4.768E-01
 
 Z=  16 A=  49 S 
  U[MeV]  fE1[mb/MeV]
    0.100   5.938E-05
    0.200   2.377E-04
    0.300   5.355E-04
    0.400   9.536E-04
    0.500   1.493E-03
    0.600   2.156E-03
    0.700   2.944E-03
    0.800   3.859E-03
    0.900   4.905E-03
    1.000   6.084E-03
    1.100   7.401E-03
    1.200   8.858E-03
    1.300   1.046E-02
    1.400   1.221E-02
    1.500   1.412E-02
    1.600   1.620E-02
    1.700   1.844E-02
    1.800   2.086E-02
    1.900   2.346E-02
    2.000   2.626E-02
    2.100   2.926E-02
    2.200   3.248E-02
    2.300   3.593E-02
    2.400   3.961E-02
    2.500   4.355E-02
    2.600   4.776E-02
    2.700   5.225E-02
    2.800   5.705E-02
    2.900   6.217E-02
    3.000   6.764E-02
    3.100   7.348E-02
    3.200   7.971E-02
    3.300   8.638E-02
    3.400   9.350E-02
    3.500   1.011E-01
    3.600   1.093E-01
    3.700   1.180E-01
    3.800   1.273E-01
    3.900   1.373E-01
    4.000   1.481E-01
    4.100   1.596E-01
    4.200   1.720E-01
    4.300   1.853E-01
    4.400   1.997E-01
    4.500   2.151E-01
    4.600   2.318E-01
    4.700   2.498E-01
    4.800   2.692E-01
    4.900   2.902E-01
    5.000   3.130E-01
    5.100   3.376E-01
    5.200   3.642E-01
    5.300   3.931E-01
    5.400   4.244E-01
    5.500   4.582E-01
    5.600   4.949E-01
    5.700   5.345E-01
    5.800   5.774E-01
    5.900   6.235E-01
    6.000   6.731E-01
    6.100   7.263E-01
    6.200   7.830E-01
    6.300   8.434E-01
    6.400   9.072E-01
    6.500   9.744E-01
    6.600   1.045E+00
    6.700   1.118E+00
    6.800   1.193E+00
    6.900   1.271E+00
    7.000   1.349E+00
    7.100   1.429E+00
    7.200   1.509E+00
    7.300   1.588E+00
    7.400   1.666E+00
    7.500   1.742E+00
    7.600   1.815E+00
    7.700   1.884E+00
    7.800   1.948E+00
    7.900   2.006E+00
    8.000   2.058E+00
    8.100   2.102E+00
    8.200   2.138E+00
    8.300   2.166E+00
    8.400   2.186E+00
    8.500   2.197E+00
    8.600   2.200E+00
    8.700   2.195E+00
    8.800   2.183E+00
    8.900   2.165E+00
    9.000   2.142E+00
    9.100   2.115E+00
    9.200   2.085E+00
    9.300   2.054E+00
    9.400   2.022E+00
    9.500   1.991E+00
    9.600   1.961E+00
    9.700   1.933E+00
    9.800   1.909E+00
    9.900   1.887E+00
   10.000   1.868E+00
   10.100   1.853E+00
   10.200   1.840E+00
   10.300   1.831E+00
   10.400   1.824E+00
   10.500   1.820E+00
   10.600   1.818E+00
   10.700   1.818E+00
   10.800   1.820E+00
   10.900   1.823E+00
   11.000   1.829E+00
   11.100   1.836E+00
   11.200   1.846E+00
   11.300   1.858E+00
   11.400   1.872E+00
   11.500   1.889E+00
   11.600   1.910E+00
   11.700   1.934E+00
   11.800   1.963E+00
   11.900   1.995E+00
   12.000   2.032E+00
   12.100   2.074E+00
   12.200   2.122E+00
   12.300   2.174E+00
   12.400   2.231E+00
   12.500   2.293E+00
   12.600   2.360E+00
   12.700   2.430E+00
   12.800   2.502E+00
   12.900   2.577E+00
   13.000   2.653E+00
   13.100   2.729E+00
   13.200   2.805E+00
   13.300   2.881E+00
   13.400   2.955E+00
   13.500   3.027E+00
   13.600   3.099E+00
   13.700   3.169E+00
   13.800   3.238E+00
   13.900   3.305E+00
   14.000   3.370E+00
   14.100   3.433E+00
   14.200   3.493E+00
   14.300   3.550E+00
   14.400   3.602E+00
   14.500   3.650E+00
   14.600   3.693E+00
   14.700   3.732E+00
   14.800   3.766E+00
   14.900   3.795E+00
   15.000   3.820E+00
   15.100   3.842E+00
   15.200   3.860E+00
   15.300   3.876E+00
   15.400   3.889E+00
   15.500   3.899E+00
   15.600   3.908E+00
   15.700   3.915E+00
   15.800   3.919E+00
   15.900   3.923E+00
   16.000   3.925E+00
   16.100   3.925E+00
   16.200   3.923E+00
   16.300   3.919E+00
   16.400   3.914E+00
   16.500   3.905E+00
   16.600   3.895E+00
   16.700   3.881E+00
   16.800   3.864E+00
   16.900   3.845E+00
   17.000   3.823E+00
   17.100   3.798E+00
   17.200   3.772E+00
   17.300   3.743E+00
   17.400   3.714E+00
   17.500   3.683E+00
   17.600   3.651E+00
   17.700   3.619E+00
   17.800   3.586E+00
   17.900   3.553E+00
   18.000   3.519E+00
   18.100   3.485E+00
   18.200   3.451E+00
   18.300   3.416E+00
   18.400   3.380E+00
   18.500   3.342E+00
   18.600   3.303E+00
   18.700   3.262E+00
   18.800   3.218E+00
   18.900   3.171E+00
   19.000   3.121E+00
   19.100   3.068E+00
   19.200   3.013E+00
   19.300   2.954E+00
   19.400   2.894E+00
   19.500   2.832E+00
   19.600   2.769E+00
   19.700   2.706E+00
   19.800   2.644E+00
   19.900   2.582E+00
   20.000   2.522E+00
   20.100   2.463E+00
   20.200   2.407E+00
   20.300   2.352E+00
   20.400   2.300E+00
   20.500   2.249E+00
   20.600   2.201E+00
   20.700   2.155E+00
   20.800   2.109E+00
   20.900   2.066E+00
   21.000   2.023E+00
   21.100   1.982E+00
   21.200   1.941E+00
   21.300   1.902E+00
   21.400   1.863E+00
   21.500   1.825E+00
   21.600   1.789E+00
   21.700   1.753E+00
   21.800   1.719E+00
   21.900   1.685E+00
   22.000   1.653E+00
   22.100   1.621E+00
   22.200   1.590E+00
   22.300   1.560E+00
   22.400   1.530E+00
   22.500   1.500E+00
   22.600   1.470E+00
   22.700   1.441E+00
   22.800   1.412E+00
   22.900   1.384E+00
   23.000   1.357E+00
   23.100   1.331E+00
   23.200   1.306E+00
   23.300   1.283E+00
   23.400   1.261E+00
   23.500   1.240E+00
   23.600   1.221E+00
   23.700   1.203E+00
   23.800   1.185E+00
   23.900   1.168E+00
   24.000   1.151E+00
   24.100   1.133E+00
   24.200   1.114E+00
   24.300   1.095E+00
   24.400   1.074E+00
   24.500   1.052E+00
   24.600   1.029E+00
   24.700   1.006E+00
   24.800   9.817E-01
   24.900   9.574E-01
   25.000   9.330E-01
   25.100   9.089E-01
   25.200   8.855E-01
   25.300   8.628E-01
   25.400   8.412E-01
   25.500   8.207E-01
   25.600   8.015E-01
   25.700   7.836E-01
   25.800   7.670E-01
   25.900   7.517E-01
   26.000   7.377E-01
   26.100   7.248E-01
   26.200   7.130E-01
   26.300   7.021E-01
   26.400   6.919E-01
   26.500   6.825E-01
   26.600   6.735E-01
   26.700   6.650E-01
   26.800   6.568E-01
   26.900   6.488E-01
   27.000   6.410E-01
   27.100   6.333E-01
   27.200   6.258E-01
   27.300   6.185E-01
   27.400   6.114E-01
   27.500   6.045E-01
   27.600   5.980E-01
   27.700   5.919E-01
   27.800   5.862E-01
   27.900   5.811E-01
   28.000   5.766E-01
   28.100   5.727E-01
   28.200   5.694E-01
   28.300   5.667E-01
   28.400   5.646E-01
   28.500   5.630E-01
   28.600   5.619E-01
   28.700   5.610E-01
   28.800   5.604E-01
   28.900   5.599E-01
   29.000   5.594E-01
   29.100   5.587E-01
   29.200   5.577E-01
   29.300   5.564E-01
   29.400   5.547E-01
   29.500   5.526E-01
   29.600   5.501E-01
   29.700   5.472E-01
   29.800   5.441E-01
   29.900   5.406E-01
   30.000   5.371E-01
 
 Z=  16 A=  50 S 
  U[MeV]  fE1[mb/MeV]
    0.100   9.245E-05
    0.200   3.701E-04
    0.300   8.341E-04
    0.400   1.486E-03
    0.500   2.328E-03
    0.600   3.364E-03
    0.700   4.598E-03
    0.800   6.033E-03
    0.900   7.677E-03
    1.000   9.534E-03
    1.100   1.161E-02
    1.200   1.392E-02
    1.300   1.647E-02
    1.400   1.926E-02
    1.500   2.232E-02
    1.600   2.565E-02
    1.700   2.927E-02
    1.800   3.319E-02
    1.900   3.743E-02
    2.000   4.201E-02
    2.100   4.696E-02
    2.200   5.228E-02
    2.300   5.802E-02
    2.400   6.420E-02
    2.500   7.084E-02
    2.600   7.799E-02
    2.700   8.569E-02
    2.800   9.396E-02
    2.900   1.029E-01
    3.000   1.125E-01
    3.100   1.228E-01
    3.200   1.339E-01
    3.300   1.459E-01
    3.400   1.588E-01
    3.500   1.727E-01
    3.600   1.878E-01
    3.700   2.041E-01
    3.800   2.216E-01
    3.900   2.406E-01
    4.000   2.611E-01
    4.100   2.834E-01
    4.200   3.074E-01
    4.300   3.333E-01
    4.400   3.614E-01
    4.500   3.917E-01
    4.600   4.243E-01
    4.700   4.594E-01
    4.800   4.971E-01
    4.900   5.374E-01
    5.000   5.805E-01
    5.100   6.264E-01
    5.200   6.751E-01
    5.300   7.266E-01
    5.400   7.809E-01
    5.500   8.381E-01
    5.600   8.981E-01
    5.700   9.610E-01
    5.800   1.027E+00
    5.900   1.096E+00
    6.000   1.169E+00
    6.100   1.245E+00
    6.200   1.324E+00
    6.300   1.407E+00
    6.400   1.493E+00
    6.500   1.582E+00
    6.600   1.674E+00
    6.700   1.768E+00
    6.800   1.863E+00
    6.900   1.958E+00
    7.000   2.052E+00
    7.100   2.144E+00
    7.200   2.232E+00
    7.300   2.315E+00
    7.400   2.391E+00
    7.500   2.460E+00
    7.600   2.520E+00
    7.700   2.570E+00
    7.800   2.609E+00
    7.900   2.637E+00
    8.000   2.654E+00
    8.100   2.659E+00
    8.200   2.654E+00
    8.300   2.638E+00
    8.400   2.612E+00
    8.500   2.578E+00
    8.600   2.537E+00
    8.700   2.489E+00
    8.800   2.437E+00
    8.900   2.381E+00
    9.000   2.324E+00
    9.100   2.266E+00
    9.200   2.209E+00
    9.300   2.155E+00
    9.400   2.103E+00
    9.500   2.056E+00
    9.600   2.014E+00
    9.700   1.977E+00
    9.800   1.945E+00
    9.900   1.919E+00
   10.000   1.898E+00
   10.100   1.883E+00
   10.200   1.873E+00
   10.300   1.867E+00
   10.400   1.866E+00
   10.500   1.868E+00
   10.600   1.873E+00
   10.700   1.882E+00
   10.800   1.892E+00
   10.900   1.904E+00
   11.000   1.919E+00
   11.100   1.935E+00
   11.200   1.952E+00
   11.300   1.972E+00
   11.400   1.993E+00
   11.500   2.015E+00
   11.600   2.040E+00
   11.700   2.066E+00
   11.800   2.095E+00
   11.900   2.126E+00
   12.000   2.159E+00
   12.100   2.195E+00
   12.200   2.233E+00
   12.300   2.273E+00
   12.400   2.316E+00
   12.500   2.361E+00
   12.600   2.407E+00
   12.700   2.454E+00
   12.800   2.503E+00
   12.900   2.552E+00
   13.000   2.602E+00
   13.100   2.653E+00
   13.200   2.704E+00
   13.300   2.755E+00
   13.400   2.807E+00
   13.500   2.859E+00
   13.600   2.911E+00
   13.700   2.962E+00
   13.800   3.014E+00
   13.900   3.065E+00
   14.000   3.116E+00
   14.100   3.167E+00
   14.200   3.219E+00
   14.300   3.269E+00
   14.400   3.320E+00
   14.500   3.369E+00
   14.600   3.417E+00
   14.700   3.464E+00
   14.800   3.508E+00
   14.900   3.549E+00
   15.000   3.587E+00
   15.100   3.623E+00
   15.200   3.656E+00
   15.300   3.686E+00
   15.400   3.714E+00
   15.500   3.740E+00
   15.600   3.764E+00
   15.700   3.787E+00
   15.800   3.809E+00
   15.900   3.829E+00
   16.000   3.847E+00
   16.100   3.863E+00
   16.200   3.877E+00
   16.300   3.888E+00
   16.400   3.897E+00
   16.500   3.904E+00
   16.600   3.909E+00
   16.700   3.912E+00
   16.800   3.912E+00
   16.900   3.912E+00
   17.000   3.909E+00
   17.100   3.905E+00
   17.200   3.900E+00
   17.300   3.892E+00
   17.400   3.882E+00
   17.500   3.868E+00
   17.600   3.852E+00
   17.700   3.832E+00
   17.800   3.808E+00
   17.900   3.780E+00
   18.000   3.747E+00
   18.100   3.712E+00
   18.200   3.672E+00
   18.300   3.629E+00
   18.400   3.583E+00
   18.500   3.534E+00
   18.600   3.482E+00
   18.700   3.426E+00
   18.800   3.366E+00
   18.900   3.302E+00
   19.000   3.235E+00
   19.100   3.162E+00
   19.200   3.086E+00
   19.300   3.007E+00
   19.400   2.924E+00
   19.500   2.838E+00
   19.600   2.751E+00
   19.700   2.663E+00
   19.800   2.575E+00
   19.900   2.488E+00
   20.000   2.403E+00
   20.100   2.320E+00
   20.200   2.239E+00
   20.300   2.162E+00
   20.400   2.089E+00
   20.500   2.019E+00
   20.600   1.953E+00
   20.700   1.891E+00
   20.800   1.833E+00
   20.900   1.779E+00
   21.000   1.728E+00
   21.100   1.681E+00
   21.200   1.636E+00
   21.300   1.594E+00
   21.400   1.555E+00
   21.500   1.518E+00
   21.600   1.484E+00
   21.700   1.451E+00
   21.800   1.421E+00
   21.900   1.392E+00
   22.000   1.365E+00
   22.100   1.340E+00
   22.200   1.317E+00
   22.300   1.294E+00
   22.400   1.273E+00
   22.500   1.252E+00
   22.600   1.231E+00
   22.700   1.211E+00
   22.800   1.192E+00
   22.900   1.172E+00
   23.000   1.152E+00
   23.100   1.133E+00
   23.200   1.114E+00
   23.300   1.096E+00
   23.400   1.078E+00
   23.500   1.061E+00
   23.600   1.045E+00
   23.700   1.031E+00
   23.800   1.017E+00
   23.900   1.004E+00
   24.000   9.917E-01
   24.100   9.802E-01
   24.200   9.690E-01
   24.300   9.579E-01
   24.400   9.467E-01
   24.500   9.352E-01
   24.600   9.232E-01
   24.700   9.106E-01
   24.800   8.975E-01
   24.900   8.839E-01
   25.000   8.701E-01
   25.100   8.561E-01
   25.200   8.422E-01
   25.300   8.286E-01
   25.400   8.155E-01
   25.500   8.030E-01
   25.600   7.913E-01
   25.700   7.804E-01
   25.800   7.704E-01
   25.900   7.613E-01
   26.000   7.531E-01
   26.100   7.456E-01
   26.200   7.389E-01
   26.300   7.328E-01
   26.400   7.272E-01
   26.500   7.219E-01
   26.600   7.169E-01
   26.700   7.120E-01
   26.800   7.070E-01
   26.900   7.019E-01
   27.000   6.966E-01
   27.100   6.911E-01
   27.200   6.853E-01
   27.300   6.794E-01
   27.400   6.734E-01
   27.500   6.674E-01
   27.600   6.615E-01
   27.700   6.558E-01
   27.800   6.504E-01
   27.900   6.453E-01
   28.000   6.407E-01
   28.100   6.364E-01
   28.200   6.325E-01
   28.300   6.290E-01
   28.400   6.257E-01
   28.500   6.226E-01
   28.600   6.197E-01
   28.700   6.166E-01
   28.800   6.134E-01
   28.900   6.100E-01
   29.000   6.061E-01
   29.100   6.018E-01
   29.200   5.970E-01
   29.300   5.917E-01
   29.400   5.859E-01
   29.500   5.797E-01
   29.600   5.732E-01
   29.700   5.666E-01
   29.800   5.598E-01
   29.900   5.530E-01
   30.000   5.462E-01
 
 Z=  16 A=  51 S 
  U[MeV]  fE1[mb/MeV]
    0.100   1.070E-04
    0.200   4.283E-04
    0.300   9.652E-04
    0.400   1.719E-03
    0.500   2.694E-03
    0.600   3.893E-03
    0.700   5.320E-03
    0.800   6.980E-03
    0.900   8.881E-03
    1.000   1.103E-02
    1.100   1.343E-02
    1.200   1.610E-02
    1.300   1.904E-02
    1.400   2.228E-02
    1.500   2.581E-02
    1.600   2.965E-02
    1.700   3.383E-02
    1.800   3.836E-02
    1.900   4.325E-02
    2.000   4.854E-02
    2.100   5.424E-02
    2.200   6.038E-02
    2.300   6.698E-02
    2.400   7.409E-02
    2.500   8.174E-02
    2.600   8.996E-02
    2.700   9.879E-02
    2.800   1.083E-01
    2.900   1.185E-01
    3.000   1.295E-01
    3.100   1.413E-01
    3.200   1.540E-01
    3.300   1.677E-01
    3.400   1.824E-01
    3.500   1.982E-01
    3.600   2.153E-01
    3.700   2.337E-01
    3.800   2.536E-01
    3.900   2.750E-01
    4.000   2.981E-01
    4.100   3.230E-01
    4.200   3.498E-01
    4.300   3.787E-01
    4.400   4.099E-01
    4.500   4.434E-01
    4.600   4.794E-01
    4.700   5.179E-01
    4.800   5.592E-01
    4.900   6.033E-01
    5.000   6.503E-01
    5.100   7.002E-01
    5.200   7.531E-01
    5.300   8.089E-01
    5.400   8.678E-01
    5.500   9.298E-01
    5.600   9.948E-01
    5.700   1.063E+00
    5.800   1.134E+00
    5.900   1.209E+00
    6.000   1.286E+00
    6.100   1.367E+00
    6.200   1.451E+00
    6.300   1.537E+00
    6.400   1.626E+00
    6.500   1.717E+00
    6.600   1.810E+00
    6.700   1.902E+00
    6.800   1.995E+00
    6.900   2.086E+00
    7.000   2.175E+00
    7.100   2.261E+00
    7.200   2.342E+00
    7.300   2.417E+00
    7.400   2.486E+00
    7.500   2.548E+00
    7.600   2.602E+00
    7.700   2.647E+00
    7.800   2.682E+00
    7.900   2.709E+00
    8.000   2.726E+00
    8.100   2.733E+00
    8.200   2.732E+00
    8.300   2.723E+00
    8.400   2.706E+00
    8.500   2.682E+00
    8.600   2.652E+00
    8.700   2.618E+00
    8.800   2.580E+00
    8.900   2.540E+00
    9.000   2.499E+00
    9.100   2.458E+00
    9.200   2.419E+00
    9.300   2.381E+00
    9.400   2.346E+00
    9.500   2.315E+00
    9.600   2.288E+00
    9.700   2.265E+00
    9.800   2.246E+00
    9.900   2.232E+00
   10.000   2.221E+00
   10.100   2.214E+00
   10.200   2.211E+00
   10.300   2.210E+00
   10.400   2.212E+00
   10.500   2.216E+00
   10.600   2.221E+00
   10.700   2.228E+00
   10.800   2.237E+00
   10.900   2.246E+00
   11.000   2.257E+00
   11.100   2.268E+00
   11.200   2.281E+00
   11.300   2.294E+00
   11.400   2.310E+00
   11.500   2.327E+00
   11.600   2.347E+00
   11.700   2.368E+00
   11.800   2.392E+00
   11.900   2.419E+00
   12.000   2.448E+00
   12.100   2.480E+00
   12.200   2.514E+00
   12.300   2.551E+00
   12.400   2.589E+00
   12.500   2.628E+00
   12.600   2.669E+00
   12.700   2.711E+00
   12.800   2.753E+00
   12.900   2.796E+00
   13.000   2.839E+00
   13.100   2.883E+00
   13.200   2.927E+00
   13.300   2.971E+00
   13.400   3.016E+00
   13.500   3.060E+00
   13.600   3.104E+00
   13.700   3.148E+00
   13.800   3.191E+00
   13.900   3.233E+00
   14.000   3.275E+00
   14.100   3.316E+00
   14.200   3.356E+00
   14.300   3.395E+00
   14.400   3.434E+00
   14.500   3.471E+00
   14.600   3.508E+00
   14.700   3.543E+00
   14.800   3.577E+00
   14.900   3.609E+00
   15.000   3.640E+00
   15.100   3.670E+00
   15.200   3.698E+00
   15.300   3.725E+00
   15.400   3.750E+00
   15.500   3.774E+00
   15.600   3.796E+00
   15.700   3.817E+00
   15.800   3.836E+00
   15.900   3.853E+00
   16.000   3.868E+00
   16.100   3.881E+00
   16.200   3.893E+00
   16.300   3.903E+00
   16.400   3.911E+00
   16.500   3.919E+00
   16.600   3.925E+00
   16.700   3.931E+00
   16.800   3.935E+00
   16.900   3.937E+00
   17.000   3.938E+00
   17.100   3.936E+00
   17.200   3.932E+00
   17.300   3.924E+00
   17.400   3.912E+00
   17.500   3.897E+00
   17.600   3.877E+00
   17.700   3.853E+00
   17.800   3.825E+00
   17.900   3.792E+00
   18.000   3.755E+00
   18.100   3.714E+00
   18.200   3.670E+00
   18.300   3.622E+00
   18.400   3.571E+00
   18.500   3.517E+00
   18.600   3.460E+00
   18.700   3.399E+00
   18.800   3.335E+00
   18.900   3.267E+00
   19.000   3.195E+00
   19.100   3.120E+00
   19.200   3.041E+00
   19.300   2.959E+00
   19.400   2.875E+00
   19.500   2.790E+00
   19.600   2.704E+00
   19.700   2.619E+00
   19.800   2.534E+00
   19.900   2.451E+00
   20.000   2.370E+00
   20.100   2.291E+00
   20.200   2.216E+00
   20.300   2.144E+00
   20.400   2.075E+00
   20.500   2.010E+00
   20.600   1.948E+00
   20.700   1.890E+00
   20.800   1.836E+00
   20.900   1.785E+00
   21.000   1.738E+00
   21.100   1.693E+00
   21.200   1.652E+00
   21.300   1.613E+00
   21.400   1.577E+00
   21.500   1.542E+00
   21.600   1.510E+00
   21.700   1.480E+00
   21.800   1.451E+00
   21.900   1.424E+00
   22.000   1.398E+00
   22.100   1.372E+00
   22.200   1.348E+00
   22.300   1.324E+00
   22.400   1.301E+00
   22.500   1.279E+00
   22.600   1.256E+00
   22.700   1.235E+00
   22.800   1.213E+00
   22.900   1.192E+00
   23.000   1.172E+00
   23.100   1.152E+00
   23.200   1.133E+00
   23.300   1.116E+00
   23.400   1.099E+00
   23.500   1.083E+00
   23.600   1.067E+00
   23.700   1.053E+00
   23.800   1.039E+00
   23.900   1.025E+00
   24.000   1.012E+00
   24.100   9.989E-01
   24.200   9.857E-01
   24.300   9.723E-01
   24.400   9.588E-01
   24.500   9.451E-01
   24.600   9.314E-01
   24.700   9.176E-01
   24.800   9.039E-01
   24.900   8.905E-01
   25.000   8.775E-01
   25.100   8.650E-01
   25.200   8.530E-01
   25.300   8.417E-01
   25.400   8.310E-01
   25.500   8.211E-01
   25.600   8.118E-01
   25.700   8.033E-01
   25.800   7.954E-01
   25.900   7.882E-01
   26.000   7.815E-01
   26.100   7.754E-01
   26.200   7.698E-01
   26.300   7.645E-01
   26.400   7.595E-01
   26.500   7.548E-01
   26.600   7.502E-01
   26.700   7.457E-01
   26.800   7.412E-01
   26.900   7.366E-01
   27.000   7.319E-01
   27.100   7.271E-01
   27.200   7.222E-01
   27.300   7.171E-01
   27.400   7.120E-01
   27.500   7.067E-01
   27.600   7.015E-01
   27.700   6.964E-01
   27.800   6.913E-01
   27.900   6.863E-01
   28.000   6.815E-01
   28.100   6.768E-01
   28.200   6.722E-01
   28.300   6.678E-01
   28.400   6.633E-01
   28.500   6.588E-01
   28.600   6.543E-01
   28.700   6.495E-01
   28.800   6.445E-01
   28.900   6.392E-01
   29.000   6.336E-01
   29.100   6.276E-01
   29.200   6.212E-01
   29.300   6.146E-01
   29.400   6.076E-01
   29.500   6.005E-01
   29.600   5.933E-01
   29.700   5.860E-01
   29.800   5.787E-01
   29.900   5.716E-01
   30.000   5.645E-01
 
