 Z=  18 A=  32 Ar
  U[MeV]  fE1[mb/MeV]
    0.100   1.170E-05
    0.200   4.680E-05
    0.300   1.054E-04
    0.400   1.874E-04
    0.500   2.932E-04
    0.600   4.227E-04
    0.700   5.763E-04
    0.800   7.540E-04
    0.900   9.562E-04
    1.000   1.183E-03
    1.100   1.435E-03
    1.200   1.713E-03
    1.300   2.016E-03
    1.400   2.345E-03
    1.500   2.702E-03
    1.600   3.085E-03
    1.700   3.497E-03
    1.800   3.937E-03
    1.900   4.406E-03
    2.000   4.906E-03
    2.100   5.436E-03
    2.200   5.997E-03
    2.300   6.591E-03
    2.400   7.219E-03
    2.500   7.881E-03
    2.600   8.579E-03
    2.700   9.314E-03
    2.800   1.009E-02
    2.900   1.090E-02
    3.000   1.175E-02
    3.100   1.265E-02
    3.200   1.359E-02
    3.300   1.458E-02
    3.400   1.562E-02
    3.500   1.670E-02
    3.600   1.784E-02
    3.700   1.904E-02
    3.800   2.029E-02
    3.900   2.161E-02
    4.000   2.298E-02
    4.100   2.443E-02
    4.200   2.595E-02
    4.300   2.754E-02
    4.400   2.921E-02
    4.500   3.096E-02
    4.600   3.281E-02
    4.700   3.474E-02
    4.800   3.678E-02
    4.900   3.892E-02
    5.000   4.117E-02
    5.100   4.354E-02
    5.200   4.603E-02
    5.300   4.866E-02
    5.400   5.142E-02
    5.500   5.434E-02
    5.600   5.741E-02
    5.700   6.065E-02
    5.800   6.406E-02
    5.900   6.764E-02
    6.000   7.142E-02
    6.100   7.539E-02
    6.200   7.957E-02
    6.300   8.394E-02
    6.400   8.852E-02
    6.500   9.331E-02
    6.600   9.830E-02
    6.700   1.035E-01
    6.800   1.089E-01
    6.900   1.144E-01
    7.000   1.201E-01
    7.100   1.259E-01
    7.200   1.318E-01
    7.300   1.378E-01
    7.400   1.439E-01
    7.500   1.500E-01
    7.600   1.561E-01
    7.700   1.622E-01
    7.800   1.683E-01
    7.900   1.745E-01
    8.000   1.808E-01
    8.100   1.871E-01
    8.200   1.936E-01
    8.300   2.004E-01
    8.400   2.073E-01
    8.500   2.146E-01
    8.600   2.223E-01
    8.700   2.305E-01
    8.800   2.390E-01
    8.900   2.482E-01
    9.000   2.578E-01
    9.100   2.680E-01
    9.200   2.789E-01
    9.300   2.903E-01
    9.400   3.022E-01
    9.500   3.147E-01
    9.600   3.277E-01
    9.700   3.412E-01
    9.800   3.550E-01
    9.900   3.691E-01
   10.000   3.833E-01
   10.100   3.976E-01
   10.200   4.118E-01
   10.300   4.259E-01
   10.400   4.397E-01
   10.500   4.533E-01
   10.600   4.664E-01
   10.700   4.793E-01
   10.800   4.918E-01
   10.900   5.040E-01
   11.000   5.161E-01
   11.100   5.282E-01
   11.200   5.403E-01
   11.300   5.526E-01
   11.400   5.654E-01
   11.500   5.786E-01
   11.600   5.926E-01
   11.700   6.074E-01
   11.800   6.232E-01
   11.900   6.402E-01
   12.000   6.584E-01
   12.100   6.780E-01
   12.200   6.991E-01
   12.300   7.217E-01
   12.400   7.460E-01
   12.500   7.719E-01
   12.600   7.995E-01
   12.700   8.289E-01
   12.800   8.599E-01
   12.900   8.925E-01
   13.000   9.268E-01
   13.100   9.626E-01
   13.200   9.998E-01
   13.300   1.038E+00
   13.400   1.078E+00
   13.500   1.119E+00
   13.600   1.160E+00
   13.700   1.202E+00
   13.800   1.245E+00
   13.900   1.287E+00
   14.000   1.329E+00
   14.100   1.371E+00
   14.200   1.412E+00
   14.300   1.452E+00
   14.400   1.490E+00
   14.500   1.525E+00
   14.600   1.559E+00
   14.700   1.590E+00
   14.800   1.618E+00
   14.900   1.642E+00
   15.000   1.664E+00
   15.100   1.683E+00
   15.200   1.700E+00
   15.300   1.714E+00
   15.400   1.726E+00
   15.500   1.736E+00
   15.600   1.745E+00
   15.700   1.754E+00
   15.800   1.762E+00
   15.900   1.770E+00
   16.000   1.778E+00
   16.100   1.787E+00
   16.200   1.796E+00
   16.300   1.806E+00
   16.400   1.817E+00
   16.500   1.828E+00
   16.600   1.840E+00
   16.700   1.853E+00
   16.800   1.865E+00
   16.900   1.878E+00
   17.000   1.891E+00
   17.100   1.903E+00
   17.200   1.914E+00
   17.300   1.925E+00
   17.400   1.935E+00
   17.500   1.944E+00
   17.600   1.951E+00
   17.700   1.957E+00
   17.800   1.961E+00
   17.900   1.963E+00
   18.000   1.963E+00
   18.100   1.961E+00
   18.200   1.957E+00
   18.300   1.951E+00
   18.400   1.943E+00
   18.500   1.933E+00
   18.600   1.920E+00
   18.700   1.906E+00
   18.800   1.889E+00
   18.900   1.870E+00
   19.000   1.850E+00
   19.100   1.828E+00
   19.200   1.804E+00
   19.300   1.778E+00
   19.400   1.752E+00
   19.500   1.725E+00
   19.600   1.698E+00
   19.700   1.671E+00
   19.800   1.644E+00
   19.900   1.617E+00
   20.000   1.592E+00
   20.100   1.567E+00
   20.200   1.543E+00
   20.300   1.520E+00
   20.400   1.498E+00
   20.500   1.477E+00
   20.600   1.457E+00
   20.700   1.439E+00
   20.800   1.421E+00
   20.900   1.404E+00
   21.000   1.389E+00
   21.100   1.374E+00
   21.200   1.360E+00
   21.300   1.346E+00
   21.400   1.333E+00
   21.500   1.321E+00
   21.600   1.308E+00
   21.700   1.296E+00
   21.800   1.285E+00
   21.900   1.273E+00
   22.000   1.261E+00
   22.100   1.249E+00
   22.200   1.237E+00
   22.300   1.224E+00
   22.400   1.212E+00
   22.500   1.199E+00
   22.600   1.186E+00
   22.700   1.173E+00
   22.800   1.160E+00
   22.900   1.147E+00
   23.000   1.133E+00
   23.100   1.120E+00
   23.200   1.106E+00
   23.300   1.091E+00
   23.400   1.077E+00
   23.500   1.062E+00
   23.600   1.047E+00
   23.700   1.032E+00
   23.800   1.016E+00
   23.900   1.001E+00
   24.000   9.853E-01
   24.100   9.696E-01
   24.200   9.539E-01
   24.300   9.382E-01
   24.400   9.225E-01
   24.500   9.070E-01
   24.600   8.917E-01
   24.700   8.765E-01
   24.800   8.614E-01
   24.900   8.466E-01
   25.000   8.320E-01
   25.100   8.176E-01
   25.200   8.034E-01
   25.300   7.894E-01
   25.400   7.755E-01
   25.500   7.619E-01
   25.600   7.484E-01
   25.700   7.352E-01
   25.800   7.222E-01
   25.900   7.094E-01
   26.000   6.968E-01
   26.100   6.845E-01
   26.200   6.725E-01
   26.300   6.608E-01
   26.400   6.494E-01
   26.500   6.383E-01
   26.600   6.276E-01
   26.700   6.172E-01
   26.800   6.071E-01
   26.900   5.973E-01
   27.000   5.879E-01
   27.100   5.787E-01
   27.200   5.699E-01
   27.300   5.614E-01
   27.400   5.531E-01
   27.500   5.450E-01
   27.600   5.372E-01
   27.700   5.297E-01
   27.800   5.223E-01
   27.900   5.151E-01
   28.000   5.081E-01
   28.100   5.014E-01
   28.200   4.947E-01
   28.300   4.883E-01
   28.400   4.820E-01
   28.500   4.759E-01
   28.600   4.700E-01
   28.700   4.642E-01
   28.800   4.585E-01
   28.900   4.529E-01
   29.000   4.475E-01
   29.100   4.422E-01
   29.200   4.370E-01
   29.300   4.319E-01
   29.400   4.269E-01
   29.500   4.220E-01
   29.600   4.171E-01
   29.700   4.123E-01
   29.800   4.075E-01
   29.900   4.028E-01
   30.000   3.981E-01
 
 Z=  18 A=  33 Ar
  U[MeV]  fE1[mb/MeV]
    0.100   1.236E-05
    0.200   4.945E-05
    0.300   1.113E-04
    0.400   1.980E-04
    0.500   3.097E-04
    0.600   4.465E-04
    0.700   6.086E-04
    0.800   7.961E-04
    0.900   1.009E-03
    1.000   1.249E-03
    1.100   1.514E-03
    1.200   1.806E-03
    1.300   2.126E-03
    1.400   2.472E-03
    1.500   2.847E-03
    1.600   3.250E-03
    1.700   3.681E-03
    1.800   4.143E-03
    1.900   4.634E-03
    2.000   5.156E-03
    2.100   5.710E-03
    2.200   6.296E-03
    2.300   6.915E-03
    2.400   7.568E-03
    2.500   8.256E-03
    2.600   8.980E-03
    2.700   9.740E-03
    2.800   1.054E-02
    2.900   1.138E-02
    3.000   1.226E-02
    3.100   1.318E-02
    3.200   1.414E-02
    3.300   1.515E-02
    3.400   1.620E-02
    3.500   1.731E-02
    3.600   1.846E-02
    3.700   1.967E-02
    3.800   2.093E-02
    3.900   2.224E-02
    4.000   2.362E-02
    4.100   2.505E-02
    4.200   2.655E-02
    4.300   2.811E-02
    4.400   2.975E-02
    4.500   3.145E-02
    4.600   3.323E-02
    4.700   3.509E-02
    4.800   3.703E-02
    4.900   3.905E-02
    5.000   4.117E-02
    5.100   4.337E-02
    5.200   4.568E-02
    5.300   4.808E-02
    5.400   5.059E-02
    5.500   5.321E-02
    5.600   5.594E-02
    5.700   5.880E-02
    5.800   6.177E-02
    5.900   6.488E-02
    6.000   6.811E-02
    6.100   7.148E-02
    6.200   7.500E-02
    6.300   7.865E-02
    6.400   8.246E-02
    6.500   8.642E-02
    6.600   9.053E-02
    6.700   9.481E-02
    6.800   9.924E-02
    6.900   1.038E-01
    7.000   1.086E-01
    7.100   1.135E-01
    7.200   1.186E-01
    7.300   1.239E-01
    7.400   1.293E-01
    7.500   1.349E-01
    7.600   1.407E-01
    7.700   1.466E-01
    7.800   1.527E-01
    7.900   1.590E-01
    8.000   1.655E-01
    8.100   1.721E-01
    8.200   1.790E-01
    8.300   1.860E-01
    8.400   1.933E-01
    8.500   2.007E-01
    8.600   2.084E-01
    8.700   2.163E-01
    8.800   2.244E-01
    8.900   2.328E-01
    9.000   2.415E-01
    9.100   2.504E-01
    9.200   2.596E-01
    9.300   2.691E-01
    9.400   2.789E-01
    9.500   2.890E-01
    9.600   2.994E-01
    9.700   3.100E-01
    9.800   3.210E-01
    9.900   3.322E-01
   10.000   3.437E-01
   10.100   3.555E-01
   10.200   3.676E-01
   10.300   3.799E-01
   10.400   3.925E-01
   10.500   4.054E-01
   10.600   4.184E-01
   10.700   4.318E-01
   10.800   4.453E-01
   10.900   4.591E-01
   11.000   4.732E-01
   11.100   4.875E-01
   11.200   5.020E-01
   11.300   5.168E-01
   11.400   5.319E-01
   11.500   5.473E-01
   11.600   5.631E-01
   11.700   5.792E-01
   11.800   5.957E-01
   11.900   6.126E-01
   12.000   6.299E-01
   12.100   6.478E-01
   12.200   6.662E-01
   12.300   6.851E-01
   12.400   7.046E-01
   12.500   7.248E-01
   12.600   7.456E-01
   12.700   7.671E-01
   12.800   7.893E-01
   12.900   8.122E-01
   13.000   8.358E-01
   13.100   8.602E-01
   13.200   8.853E-01
   13.300   9.112E-01
   13.400   9.379E-01
   13.500   9.653E-01
   13.600   9.935E-01
   13.700   1.022E+00
   13.800   1.052E+00
   13.900   1.082E+00
   14.000   1.113E+00
   14.100   1.144E+00
   14.200   1.176E+00
   14.300   1.209E+00
   14.400   1.242E+00
   14.500   1.275E+00
   14.600   1.308E+00
   14.700   1.341E+00
   14.800   1.374E+00
   14.900   1.407E+00
   15.000   1.440E+00
   15.100   1.473E+00
   15.200   1.504E+00
   15.300   1.536E+00
   15.400   1.566E+00
   15.500   1.596E+00
   15.600   1.624E+00
   15.700   1.652E+00
   15.800   1.679E+00
   15.900   1.704E+00
   16.000   1.729E+00
   16.100   1.752E+00
   16.200   1.775E+00
   16.300   1.796E+00
   16.400   1.817E+00
   16.500   1.836E+00
   16.600   1.855E+00
   16.700   1.873E+00
   16.800   1.890E+00
   16.900   1.907E+00
   17.000   1.922E+00
   17.100   1.937E+00
   17.200   1.952E+00
   17.300   1.965E+00
   17.400   1.978E+00
   17.500   1.990E+00
   17.600   2.002E+00
   17.700   2.012E+00
   17.800   2.022E+00
   17.900   2.030E+00
   18.000   2.038E+00
   18.100   2.045E+00
   18.200   2.050E+00
   18.300   2.055E+00
   18.400   2.058E+00
   18.500   2.060E+00
   18.600   2.060E+00
   18.700   2.059E+00
   18.800   2.057E+00
   18.900   2.053E+00
   19.000   2.048E+00
   19.100   2.041E+00
   19.200   2.032E+00
   19.300   2.022E+00
   19.400   2.011E+00
   19.500   1.998E+00
   19.600   1.984E+00
   19.700   1.968E+00
   19.800   1.951E+00
   19.900   1.932E+00
   20.000   1.912E+00
   20.100   1.891E+00
   20.200   1.869E+00
   20.300   1.846E+00
   20.400   1.822E+00
   20.500   1.797E+00
   20.600   1.772E+00
   20.700   1.746E+00
   20.800   1.720E+00
   20.900   1.693E+00
   21.000   1.667E+00
   21.100   1.641E+00
   21.200   1.615E+00
   21.300   1.589E+00
   21.400   1.564E+00
   21.500   1.540E+00
   21.600   1.516E+00
   21.700   1.492E+00
   21.800   1.470E+00
   21.900   1.448E+00
   22.000   1.427E+00
   22.100   1.407E+00
   22.200   1.388E+00
   22.300   1.369E+00
   22.400   1.351E+00
   22.500   1.334E+00
   22.600   1.317E+00
   22.700   1.300E+00
   22.800   1.284E+00
   22.900   1.268E+00
   23.000   1.252E+00
   23.100   1.236E+00
   23.200   1.220E+00
   23.300   1.204E+00
   23.400   1.188E+00
   23.500   1.171E+00
   23.600   1.154E+00
   23.700   1.137E+00
   23.800   1.120E+00
   23.900   1.102E+00
   24.000   1.084E+00
   24.100   1.066E+00
   24.200   1.048E+00
   24.300   1.030E+00
   24.400   1.012E+00
   24.500   9.936E-01
   24.600   9.757E-01
   24.700   9.579E-01
   24.800   9.405E-01
   24.900   9.234E-01
   25.000   9.067E-01
   25.100   8.904E-01
   25.200   8.746E-01
   25.300   8.592E-01
   25.400   8.444E-01
   25.500   8.300E-01
   25.600   8.162E-01
   25.700   8.028E-01
   25.800   7.899E-01
   25.900   7.774E-01
   26.000   7.654E-01
   26.100   7.537E-01
   26.200   7.424E-01
   26.300   7.313E-01
   26.400   7.206E-01
   26.500   7.101E-01
   26.600   6.998E-01
   26.700   6.896E-01
   26.800   6.796E-01
   26.900   6.697E-01
   27.000   6.599E-01
   27.100   6.502E-01
   27.200   6.406E-01
   27.300   6.310E-01
   27.400   6.215E-01
   27.500   6.121E-01
   27.600   6.027E-01
   27.700   5.934E-01
   27.800   5.842E-01
   27.900   5.750E-01
   28.000   5.661E-01
   28.100   5.572E-01
   28.200   5.485E-01
   28.300   5.400E-01
   28.400   5.317E-01
   28.500   5.237E-01
   28.600   5.158E-01
   28.700   5.082E-01
   28.800   5.008E-01
   28.900   4.937E-01
   29.000   4.869E-01
   29.100   4.804E-01
   29.200   4.741E-01
   29.300   4.680E-01
   29.400   4.623E-01
   29.500   4.567E-01
   29.600   4.515E-01
   29.700   4.464E-01
   29.800   4.416E-01
   29.900   4.369E-01
   30.000   4.324E-01
 
 Z=  18 A=  34 Ar
  U[MeV]  fE1[mb/MeV]
    0.100   8.890E-06
    0.200   3.557E-05
    0.300   8.007E-05
    0.400   1.424E-04
    0.500   2.228E-04
    0.600   3.211E-04
    0.700   4.376E-04
    0.800   5.724E-04
    0.900   7.257E-04
    1.000   8.975E-04
    1.100   1.088E-03
    1.200   1.298E-03
    1.300   1.527E-03
    1.400   1.776E-03
    1.500   2.044E-03
    1.600   2.333E-03
    1.700   2.642E-03
    1.800   2.973E-03
    1.900   3.324E-03
    2.000   3.698E-03
    2.100   4.093E-03
    2.200   4.512E-03
    2.300   4.953E-03
    2.400   5.419E-03
    2.500   5.909E-03
    2.600   6.425E-03
    2.700   6.966E-03
    2.800   7.534E-03
    2.900   8.130E-03
    3.000   8.753E-03
    3.100   9.406E-03
    3.200   1.009E-02
    3.300   1.080E-02
    3.400   1.155E-02
    3.500   1.233E-02
    3.600   1.314E-02
    3.700   1.400E-02
    3.800   1.488E-02
    3.900   1.581E-02
    4.000   1.678E-02
    4.100   1.779E-02
    4.200   1.884E-02
    4.300   1.994E-02
    4.400   2.109E-02
    4.500   2.228E-02
    4.600   2.353E-02
    4.700   2.484E-02
    4.800   2.620E-02
    4.900   2.762E-02
    5.000   2.910E-02
    5.100   3.066E-02
    5.200   3.228E-02
    5.300   3.397E-02
    5.400   3.574E-02
    5.500   3.760E-02
    5.600   3.954E-02
    5.700   4.157E-02
    5.800   4.370E-02
    5.900   4.593E-02
    6.000   4.826E-02
    6.100   5.071E-02
    6.200   5.328E-02
    6.300   5.597E-02
    6.400   5.880E-02
    6.500   6.176E-02
    6.600   6.488E-02
    6.700   6.814E-02
    6.800   7.157E-02
    6.900   7.517E-02
    7.000   7.895E-02
    7.100   8.291E-02
    7.200   8.706E-02
    7.300   9.142E-02
    7.400   9.598E-02
    7.500   1.008E-01
    7.600   1.058E-01
    7.700   1.110E-01
    7.800   1.164E-01
    7.900   1.221E-01
    8.000   1.280E-01
    8.100   1.342E-01
    8.200   1.406E-01
    8.300   1.472E-01
    8.400   1.540E-01
    8.500   1.611E-01
    8.600   1.684E-01
    8.700   1.759E-01
    8.800   1.837E-01
    8.900   1.916E-01
    9.000   1.999E-01
    9.100   2.083E-01
    9.200   2.171E-01
    9.300   2.262E-01
    9.400   2.355E-01
    9.500   2.453E-01
    9.600   2.554E-01
    9.700   2.659E-01
    9.800   2.768E-01
    9.900   2.882E-01
   10.000   3.000E-01
   10.100   3.122E-01
   10.200   3.250E-01
   10.300   3.382E-01
   10.400   3.519E-01
   10.500   3.661E-01
   10.600   3.808E-01
   10.700   3.959E-01
   10.800   4.115E-01
   10.900   4.276E-01
   11.000   4.440E-01
   11.100   4.608E-01
   11.200   4.780E-01
   11.300   4.954E-01
   11.400   5.130E-01
   11.500   5.308E-01
   11.600   5.486E-01
   11.700   5.665E-01
   11.800   5.843E-01
   11.900   6.020E-01
   12.000   6.197E-01
   12.100   6.372E-01
   12.200   6.546E-01
   12.300   6.719E-01
   12.400   6.892E-01
   12.500   7.066E-01
   12.600   7.241E-01
   12.700   7.418E-01
   12.800   7.599E-01
   12.900   7.783E-01
   13.000   7.973E-01
   13.100   8.168E-01
   13.200   8.370E-01
   13.300   8.579E-01
   13.400   8.795E-01
   13.500   9.019E-01
   13.600   9.252E-01
   13.700   9.494E-01
   13.800   9.747E-01
   13.900   1.001E+00
   14.000   1.029E+00
   14.100   1.057E+00
   14.200   1.088E+00
   14.300   1.119E+00
   14.400   1.153E+00
   14.500   1.188E+00
   14.600   1.225E+00
   14.700   1.264E+00
   14.800   1.305E+00
   14.900   1.347E+00
   15.000   1.392E+00
   15.100   1.438E+00
   15.200   1.486E+00
   15.300   1.536E+00
   15.400   1.587E+00
   15.500   1.639E+00
   15.600   1.692E+00
   15.700   1.746E+00
   15.800   1.799E+00
   15.900   1.853E+00
   16.000   1.906E+00
   16.100   1.958E+00
   16.200   2.008E+00
   16.300   2.057E+00
   16.400   2.105E+00
   16.500   2.150E+00
   16.600   2.193E+00
   16.700   2.234E+00
   16.800   2.272E+00
   16.900   2.308E+00
   17.000   2.342E+00
   17.100   2.374E+00
   17.200   2.404E+00
   17.300   2.432E+00
   17.400   2.458E+00
   17.500   2.482E+00
   17.600   2.504E+00
   17.700   2.524E+00
   17.800   2.542E+00
   17.900   2.556E+00
   18.000   2.568E+00
   18.100   2.577E+00
   18.200   2.582E+00
   18.300   2.584E+00
   18.400   2.583E+00
   18.500   2.577E+00
   18.600   2.568E+00
   18.700   2.556E+00
   18.800   2.540E+00
   18.900   2.520E+00
   19.000   2.498E+00
   19.100   2.474E+00
   19.200   2.447E+00
   19.300   2.418E+00
   19.400   2.387E+00
   19.500   2.356E+00
   19.600   2.323E+00
   19.700   2.290E+00
   19.800   2.257E+00
   19.900   2.224E+00
   20.000   2.190E+00
   20.100   2.156E+00
   20.200   2.123E+00
   20.300   2.089E+00
   20.400   2.054E+00
   20.500   2.020E+00
   20.600   1.985E+00
   20.700   1.950E+00
   20.800   1.915E+00
   20.900   1.879E+00
   21.000   1.843E+00
   21.100   1.807E+00
   21.200   1.771E+00
   21.300   1.735E+00
   21.400   1.700E+00
   21.500   1.664E+00
   21.600   1.630E+00
   21.700   1.595E+00
   21.800   1.561E+00
   21.900   1.528E+00
   22.000   1.496E+00
   22.100   1.464E+00
   22.200   1.434E+00
   22.300   1.404E+00
   22.400   1.375E+00
   22.500   1.347E+00
   22.600   1.320E+00
   22.700   1.294E+00
   22.800   1.270E+00
   22.900   1.246E+00
   23.000   1.224E+00
   23.100   1.203E+00
   23.200   1.183E+00
   23.300   1.165E+00
   23.400   1.148E+00
   23.500   1.132E+00
   23.600   1.117E+00
   23.700   1.103E+00
   23.800   1.090E+00
   23.900   1.077E+00
   24.000   1.066E+00
   24.100   1.054E+00
   24.200   1.044E+00
   24.300   1.033E+00
   24.400   1.023E+00
   24.500   1.012E+00
   24.600   1.002E+00
   24.700   9.914E-01
   24.800   9.808E-01
   24.900   9.699E-01
   25.000   9.587E-01
   25.100   9.472E-01
   25.200   9.352E-01
   25.300   9.229E-01
   25.400   9.102E-01
   25.500   8.971E-01
   25.600   8.837E-01
   25.700   8.700E-01
   25.800   8.562E-01
   25.900   8.422E-01
   26.000   8.283E-01
   26.100   8.145E-01
   26.200   8.009E-01
   26.300   7.876E-01
   26.400   7.746E-01
   26.500   7.621E-01
   26.600   7.499E-01
   26.700   7.382E-01
   26.800   7.269E-01
   26.900   7.160E-01
   27.000   7.055E-01
   27.100   6.953E-01
   27.200   6.854E-01
   27.300   6.757E-01
   27.400   6.661E-01
   27.500   6.566E-01
   27.600   6.472E-01
   27.700   6.378E-01
   27.800   6.284E-01
   27.900   6.189E-01
   28.000   6.094E-01
   28.100   5.998E-01
   28.200   5.901E-01
   28.300   5.803E-01
   28.400   5.704E-01
   28.500   5.604E-01
   28.600   5.503E-01
   28.700   5.401E-01
   28.800   5.299E-01
   28.900   5.198E-01
   29.000   5.096E-01
   29.100   4.995E-01
   29.200   4.896E-01
   29.300   4.798E-01
   29.400   4.702E-01
   29.500   4.609E-01
   29.600   4.519E-01
   29.700   4.432E-01
   29.800   4.349E-01
   29.900   4.269E-01
   30.000   4.194E-01
 
 Z=  18 A=  35 Ar
  U[MeV]  fE1[mb/MeV]
    0.100   8.113E-06
    0.200   3.246E-05
    0.300   7.307E-05
    0.400   1.300E-04
    0.500   2.032E-04
    0.600   2.929E-04
    0.700   3.991E-04
    0.800   5.219E-04
    0.900   6.614E-04
    1.000   8.179E-04
    1.100   9.913E-04
    1.200   1.182E-03
    1.300   1.390E-03
    1.400   1.616E-03
    1.500   1.859E-03
    1.600   2.121E-03
    1.700   2.400E-03
    1.800   2.699E-03
    1.900   3.016E-03
    2.000   3.353E-03
    2.100   3.709E-03
    2.200   4.086E-03
    2.300   4.482E-03
    2.400   4.900E-03
    2.500   5.338E-03
    2.600   5.799E-03
    2.700   6.282E-03
    2.800   6.787E-03
    2.900   7.316E-03
    3.000   7.869E-03
    3.100   8.446E-03
    3.200   9.049E-03
    3.300   9.678E-03
    3.400   1.033E-02
    3.500   1.102E-02
    3.600   1.173E-02
    3.700   1.247E-02
    3.800   1.324E-02
    3.900   1.404E-02
    4.000   1.488E-02
    4.100   1.574E-02
    4.200   1.664E-02
    4.300   1.758E-02
    4.400   1.856E-02
    4.500   1.957E-02
    4.600   2.062E-02
    4.700   2.172E-02
    4.800   2.286E-02
    4.900   2.404E-02
    5.000   2.527E-02
    5.100   2.655E-02
    5.200   2.788E-02
    5.300   2.926E-02
    5.400   3.070E-02
    5.500   3.220E-02
    5.600   3.375E-02
    5.700   3.538E-02
    5.800   3.706E-02
    5.900   3.882E-02
    6.000   4.065E-02
    6.100   4.257E-02
    6.200   4.456E-02
    6.300   4.664E-02
    6.400   4.881E-02
    6.500   5.107E-02
    6.600   5.344E-02
    6.700   5.592E-02
    6.800   5.851E-02
    6.900   6.122E-02
    7.000   6.406E-02
    7.100   6.704E-02
    7.200   7.017E-02
    7.300   7.345E-02
    7.400   7.690E-02
    7.500   8.053E-02
    7.600   8.434E-02
    7.700   8.836E-02
    7.800   9.259E-02
    7.900   9.706E-02
    8.000   1.018E-01
    8.100   1.068E-01
    8.200   1.120E-01
    8.300   1.176E-01
    8.400   1.235E-01
    8.500   1.297E-01
    8.600   1.363E-01
    8.700   1.432E-01
    8.800   1.506E-01
    8.900   1.584E-01
    9.000   1.667E-01
    9.100   1.754E-01
    9.200   1.847E-01
    9.300   1.944E-01
    9.400   2.047E-01
    9.500   2.156E-01
    9.600   2.270E-01
    9.700   2.389E-01
    9.800   2.514E-01
    9.900   2.642E-01
   10.000   2.775E-01
   10.100   2.911E-01
   10.200   3.049E-01
   10.300   3.188E-01
   10.400   3.329E-01
   10.500   3.470E-01
   10.600   3.610E-01
   10.700   3.751E-01
   10.800   3.891E-01
   10.900   4.031E-01
   11.000   4.171E-01
   11.100   4.313E-01
   11.200   4.455E-01
   11.300   4.600E-01
   11.400   4.749E-01
   11.500   4.901E-01
   11.600   5.058E-01
   11.700   5.223E-01
   11.800   5.396E-01
   11.900   5.579E-01
   12.000   5.774E-01
   12.100   5.982E-01
   12.200   6.207E-01
   12.300   6.448E-01
   12.400   6.709E-01
   12.500   6.990E-01
   12.600   7.292E-01
   12.700   7.618E-01
   12.800   7.969E-01
   12.900   8.347E-01
   13.000   8.753E-01
   13.100   9.189E-01
   13.200   9.658E-01
   13.300   1.016E+00
   13.400   1.070E+00
   13.500   1.127E+00
   13.600   1.189E+00
   13.700   1.253E+00
   13.800   1.321E+00
   13.900   1.392E+00
   14.000   1.466E+00
   14.100   1.541E+00
   14.200   1.617E+00
   14.300   1.692E+00
   14.400   1.766E+00
   14.500   1.838E+00
   14.600   1.906E+00
   14.700   1.970E+00
   14.800   2.030E+00
   14.900   2.085E+00
   15.000   2.136E+00
   15.100   2.183E+00
   15.200   2.228E+00
   15.300   2.269E+00
   15.400   2.308E+00
   15.500   2.346E+00
   15.600   2.382E+00
   15.700   2.416E+00
   15.800   2.448E+00
   15.900   2.477E+00
   16.000   2.504E+00
   16.100   2.528E+00
   16.200   2.548E+00
   16.300   2.564E+00
   16.400   2.577E+00
   16.500   2.587E+00
   16.600   2.594E+00
   16.700   2.598E+00
   16.800   2.601E+00
   16.900   2.602E+00
   17.000   2.603E+00
   17.100   2.603E+00
   17.200   2.602E+00
   17.300   2.601E+00
   17.400   2.599E+00
   17.500   2.597E+00
   17.600   2.592E+00
   17.700   2.586E+00
   17.800   2.577E+00
   17.900   2.567E+00
   18.000   2.554E+00
   18.100   2.538E+00
   18.200   2.521E+00
   18.300   2.503E+00
   18.400   2.482E+00
   18.500   2.461E+00
   18.600   2.437E+00
   18.700   2.413E+00
   18.800   2.388E+00
   18.900   2.361E+00
   19.000   2.333E+00
   19.100   2.305E+00
   19.200   2.276E+00
   19.300   2.246E+00
   19.400   2.216E+00
   19.500   2.186E+00
   19.600   2.156E+00
   19.700   2.126E+00
   19.800   2.097E+00
   19.900   2.069E+00
   20.000   2.041E+00
   20.100   2.013E+00
   20.200   1.987E+00
   20.300   1.961E+00
   20.400   1.936E+00
   20.500   1.913E+00
   20.600   1.889E+00
   20.700   1.867E+00
   20.800   1.845E+00
   20.900   1.824E+00
   21.000   1.803E+00
   21.100   1.782E+00
   21.200   1.762E+00
   21.300   1.741E+00
   21.400   1.720E+00
   21.500   1.699E+00
   21.600   1.677E+00
   21.700   1.655E+00
   21.800   1.633E+00
   21.900   1.610E+00
   22.000   1.586E+00
   22.100   1.563E+00
   22.200   1.538E+00
   22.300   1.514E+00
   22.400   1.489E+00
   22.500   1.464E+00
   22.600   1.438E+00
   22.700   1.413E+00
   22.800   1.387E+00
   22.900   1.361E+00
   23.000   1.335E+00
   23.100   1.308E+00
   23.200   1.282E+00
   23.300   1.255E+00
   23.400   1.228E+00
   23.500   1.201E+00
   23.600   1.175E+00
   23.700   1.148E+00
   23.800   1.121E+00
   23.900   1.095E+00
   24.000   1.070E+00
   24.100   1.044E+00
   24.200   1.020E+00
   24.300   9.958E-01
   24.400   9.726E-01
   24.500   9.502E-01
   24.600   9.287E-01
   24.700   9.081E-01
   24.800   8.885E-01
   24.900   8.698E-01
   25.000   8.522E-01
   25.100   8.355E-01
   25.200   8.198E-01
   25.300   8.051E-01
   25.400   7.912E-01
   25.500   7.782E-01
   25.600   7.659E-01
   25.700   7.543E-01
   25.800   7.434E-01
   25.900   7.330E-01
   26.000   7.230E-01
   26.100   7.134E-01
   26.200   7.042E-01
   26.300   6.952E-01
   26.400   6.864E-01
   26.500   6.777E-01
   26.600   6.693E-01
   26.700   6.609E-01
   26.800   6.527E-01
   26.900   6.446E-01
   27.000   6.367E-01
   27.100   6.289E-01
   27.200   6.212E-01
   27.300   6.136E-01
   27.400   6.061E-01
   27.500   5.986E-01
   27.600   5.912E-01
   27.700   5.837E-01
   27.800   5.762E-01
   27.900   5.686E-01
   28.000   5.608E-01
   28.100   5.529E-01
   28.200   5.447E-01
   28.300   5.363E-01
   28.400   5.278E-01
   28.500   5.191E-01
   28.600   5.102E-01
   28.700   5.013E-01
   28.800   4.922E-01
   28.900   4.832E-01
   29.000   4.742E-01
   29.100   4.653E-01
   29.200   4.564E-01
   29.300   4.477E-01
   29.400   4.390E-01
   29.500   4.306E-01
   29.600   4.223E-01
   29.700   4.141E-01
   29.800   4.062E-01
   29.900   3.985E-01
   30.000   3.910E-01
 
 Z=  18 A=  36 Ar
  U[MeV]  fE1[mb/MeV]
    0.100   7.967E-06
    0.200   3.187E-05
    0.300   7.174E-05
    0.400   1.276E-04
    0.500   1.995E-04
    0.600   2.875E-04
    0.700   3.918E-04
    0.800   5.123E-04
    0.900   6.491E-04
    1.000   8.025E-04
    1.100   9.726E-04
    1.200   1.159E-03
    1.300   1.363E-03
    1.400   1.584E-03
    1.500   1.822E-03
    1.600   2.078E-03
    1.700   2.352E-03
    1.800   2.644E-03
    1.900   2.954E-03
    2.000   3.283E-03
    2.100   3.630E-03
    2.200   3.997E-03
    2.300   4.384E-03
    2.400   4.790E-03
    2.500   5.217E-03
    2.600   5.664E-03
    2.700   6.133E-03
    2.800   6.624E-03
    2.900   7.136E-03
    3.000   7.671E-03
    3.100   8.230E-03
    3.200   8.812E-03
    3.300   9.419E-03
    3.400   1.005E-02
    3.500   1.071E-02
    3.600   1.139E-02
    3.700   1.210E-02
    3.800   1.284E-02
    3.900   1.361E-02
    4.000   1.441E-02
    4.100   1.523E-02
    4.200   1.609E-02
    4.300   1.698E-02
    4.400   1.791E-02
    4.500   1.887E-02
    4.600   1.986E-02
    4.700   2.090E-02
    4.800   2.197E-02
    4.900   2.308E-02
    5.000   2.423E-02
    5.100   2.542E-02
    5.200   2.666E-02
    5.300   2.794E-02
    5.400   2.927E-02
    5.500   3.065E-02
    5.600   3.209E-02
    5.700   3.357E-02
    5.800   3.511E-02
    5.900   3.671E-02
    6.000   3.837E-02
    6.100   4.010E-02
    6.200   4.189E-02
    6.300   4.374E-02
    6.400   4.567E-02
    6.500   4.768E-02
    6.600   4.976E-02
    6.700   5.193E-02
    6.800   5.418E-02
    6.900   5.653E-02
    7.000   5.897E-02
    7.100   6.151E-02
    7.200   6.415E-02
    7.300   6.691E-02
    7.400   6.978E-02
    7.500   7.278E-02
    7.600   7.590E-02
    7.700   7.916E-02
    7.800   8.257E-02
    7.900   8.613E-02
    8.000   8.985E-02
    8.100   9.373E-02
    8.200   9.780E-02
    8.300   1.021E-01
    8.400   1.065E-01
    8.500   1.112E-01
    8.600   1.161E-01
    8.700   1.212E-01
    8.800   1.266E-01
    8.900   1.323E-01
    9.000   1.383E-01
    9.100   1.445E-01
    9.200   1.511E-01
    9.300   1.580E-01
    9.400   1.653E-01
    9.500   1.729E-01
    9.600   1.810E-01
    9.700   1.894E-01
    9.800   1.983E-01
    9.900   2.077E-01
   10.000   2.175E-01
   10.100   2.278E-01
   10.200   2.386E-01
   10.300   2.500E-01
   10.400   2.619E-01
   10.500   2.743E-01
   10.600   2.873E-01
   10.700   3.008E-01
   10.800   3.149E-01
   10.900   3.295E-01
   11.000   3.445E-01
   11.100   3.601E-01
   11.200   3.761E-01
   11.300   3.925E-01
   11.400   4.093E-01
   11.500   4.265E-01
   11.600   4.440E-01
   11.700   4.617E-01
   11.800   4.798E-01
   11.900   4.981E-01
   12.000   5.167E-01
   12.100   5.356E-01
   12.200   5.547E-01
   12.300   5.741E-01
   12.400   5.939E-01
   12.500   6.140E-01
   12.600   6.347E-01
   12.700   6.558E-01
   12.800   6.777E-01
   12.900   7.003E-01
   13.000   7.237E-01
   13.100   7.482E-01
   13.200   7.738E-01
   13.300   8.008E-01
   13.400   8.291E-01
   13.500   8.591E-01
   13.600   8.910E-01
   13.700   9.248E-01
   13.800   9.607E-01
   13.900   9.990E-01
   14.000   1.040E+00
   14.100   1.083E+00
   14.200   1.130E+00
   14.300   1.179E+00
   14.400   1.231E+00
   14.500   1.287E+00
   14.600   1.345E+00
   14.700   1.407E+00
   14.800   1.471E+00
   14.900   1.538E+00
   15.000   1.608E+00
   15.100   1.680E+00
   15.200   1.753E+00
   15.300   1.828E+00
   15.400   1.904E+00
   15.500   1.980E+00
   15.600   2.057E+00
   15.700   2.134E+00
   15.800   2.210E+00
   15.900   2.285E+00
   16.000   2.360E+00
   16.100   2.434E+00
   16.200   2.506E+00
   16.300   2.578E+00
   16.400   2.648E+00
   16.500   2.716E+00
   16.600   2.782E+00
   16.700   2.845E+00
   16.800   2.905E+00
   16.900   2.960E+00
   17.000   3.011E+00
   17.100   3.057E+00
   17.200   3.096E+00
   17.300   3.129E+00
   17.400   3.156E+00
   17.500   3.175E+00
   17.600   3.188E+00
   17.700   3.194E+00
   17.800   3.195E+00
   17.900   3.190E+00
   18.000   3.181E+00
   18.100   3.167E+00
   18.200   3.151E+00
   18.300   3.131E+00
   18.400   3.109E+00
   18.500   3.084E+00
   18.600   3.056E+00
   18.700   3.026E+00
   18.800   2.994E+00
   18.900   2.958E+00
   19.000   2.920E+00
   19.100   2.879E+00
   19.200   2.835E+00
   19.300   2.788E+00
   19.400   2.738E+00
   19.500   2.687E+00
   19.600   2.633E+00
   19.700   2.579E+00
   19.800   2.523E+00
   19.900   2.468E+00
   20.000   2.412E+00
   20.100   2.357E+00
   20.200   2.303E+00
   20.300   2.249E+00
   20.400   2.198E+00
   20.500   2.148E+00
   20.600   2.099E+00
   20.700   2.052E+00
   20.800   2.007E+00
   20.900   1.964E+00
   21.000   1.922E+00
   21.100   1.882E+00
   21.200   1.843E+00
   21.300   1.806E+00
   21.400   1.771E+00
   21.500   1.737E+00
   21.600   1.704E+00
   21.700   1.673E+00
   21.800   1.643E+00
   21.900   1.615E+00
   22.000   1.588E+00
   22.100   1.561E+00
   22.200   1.536E+00
   22.300   1.511E+00
   22.400   1.488E+00
   22.500   1.464E+00
   22.600   1.442E+00
   22.700   1.420E+00
   22.800   1.398E+00
   22.900   1.377E+00
   23.000   1.356E+00
   23.100   1.335E+00
   23.200   1.315E+00
   23.300   1.295E+00
   23.400   1.276E+00
   23.500   1.257E+00
   23.600   1.239E+00
   23.700   1.221E+00
   23.800   1.203E+00
   23.900   1.185E+00
   24.000   1.168E+00
   24.100   1.151E+00
   24.200   1.134E+00
   24.300   1.117E+00
   24.400   1.100E+00
   24.500   1.084E+00
   24.600   1.067E+00
   24.700   1.051E+00
   24.800   1.035E+00
   24.900   1.018E+00
   25.000   1.002E+00
   25.100   9.864E-01
   25.200   9.706E-01
   25.300   9.550E-01
   25.400   9.395E-01
   25.500   9.241E-01
   25.600   9.088E-01
   25.700   8.936E-01
   25.800   8.784E-01
   25.900   8.632E-01
   26.000   8.480E-01
   26.100   8.328E-01
   26.200   8.174E-01
   26.300   8.021E-01
   26.400   7.867E-01
   26.500   7.714E-01
   26.600   7.561E-01
   26.700   7.409E-01
   26.800   7.259E-01
   26.900   7.110E-01
   27.000   6.964E-01
   27.100   6.819E-01
   27.200   6.677E-01
   27.300   6.538E-01
   27.400   6.401E-01
   27.500   6.267E-01
   27.600   6.135E-01
   27.700   6.006E-01
   27.800   5.880E-01
   27.900   5.756E-01
   28.000   5.634E-01
   28.100   5.514E-01
   28.200   5.396E-01
   28.300   5.280E-01
   28.400   5.166E-01
   28.500   5.055E-01
   28.600   4.945E-01
   28.700   4.838E-01
   28.800   4.733E-01
   28.900   4.631E-01
   29.000   4.532E-01
   29.100   4.436E-01
   29.200   4.342E-01
   29.300   4.252E-01
   29.400   4.164E-01
   29.500   4.079E-01
   29.600   3.998E-01
   29.700   3.918E-01
   29.800   3.842E-01
   29.900   3.768E-01
   30.000   3.696E-01
 
 Z=  18 A=  37 Ar
  U[MeV]  fE1[mb/MeV]
    0.100   8.747E-06
    0.200   3.499E-05
    0.300   7.877E-05
    0.400   1.401E-04
    0.500   2.191E-04
    0.600   3.157E-04
    0.700   4.301E-04
    0.800   5.624E-04
    0.900   7.127E-04
    1.000   8.811E-04
    1.100   1.068E-03
    1.200   1.273E-03
    1.300   1.497E-03
    1.400   1.739E-03
    1.500   2.001E-03
    1.600   2.282E-03
    1.700   2.583E-03
    1.800   2.903E-03
    1.900   3.244E-03
    2.000   3.605E-03
    2.100   3.987E-03
    2.200   4.390E-03
    2.300   4.814E-03
    2.400   5.261E-03
    2.500   5.730E-03
    2.600   6.222E-03
    2.700   6.737E-03
    2.800   7.276E-03
    2.900   7.839E-03
    3.000   8.428E-03
    3.100   9.041E-03
    3.200   9.682E-03
    3.300   1.035E-02
    3.400   1.104E-02
    3.500   1.177E-02
    3.600   1.252E-02
    3.700   1.330E-02
    3.800   1.411E-02
    3.900   1.496E-02
    4.000   1.583E-02
    4.100   1.674E-02
    4.200   1.769E-02
    4.300   1.867E-02
    4.400   1.969E-02
    4.500   2.074E-02
    4.600   2.184E-02
    4.700   2.298E-02
    4.800   2.415E-02
    4.900   2.538E-02
    5.000   2.664E-02
    5.100   2.796E-02
    5.200   2.932E-02
    5.300   3.074E-02
    5.400   3.220E-02
    5.500   3.373E-02
    5.600   3.530E-02
    5.700   3.694E-02
    5.800   3.864E-02
    5.900   4.040E-02
    6.000   4.223E-02
    6.100   4.413E-02
    6.200   4.611E-02
    6.300   4.816E-02
    6.400   5.028E-02
    6.500   5.250E-02
    6.600   5.479E-02
    6.700   5.718E-02
    6.800   5.967E-02
    6.900   6.226E-02
    7.000   6.495E-02
    7.100   6.775E-02
    7.200   7.067E-02
    7.300   7.371E-02
    7.400   7.688E-02
    7.500   8.018E-02
    7.600   8.363E-02
    7.700   8.722E-02
    7.800   9.098E-02
    7.900   9.490E-02
    8.000   9.899E-02
    8.100   1.033E-01
    8.200   1.078E-01
    8.300   1.124E-01
    8.400   1.173E-01
    8.500   1.225E-01
    8.600   1.279E-01
    8.700   1.335E-01
    8.800   1.394E-01
    8.900   1.456E-01
    9.000   1.521E-01
    9.100   1.589E-01
    9.200   1.660E-01
    9.300   1.735E-01
    9.400   1.814E-01
    9.500   1.897E-01
    9.600   1.984E-01
    9.700   2.075E-01
    9.800   2.171E-01
    9.900   2.271E-01
   10.000   2.376E-01
   10.100   2.486E-01
   10.200   2.602E-01
   10.300   2.723E-01
   10.400   2.849E-01
   10.500   2.980E-01
   10.600   3.118E-01
   10.700   3.260E-01
   10.800   3.408E-01
   10.900   3.561E-01
   11.000   3.718E-01
   11.100   3.881E-01
   11.200   4.048E-01
   11.300   4.219E-01
   11.400   4.394E-01
   11.500   4.573E-01
   11.600   4.756E-01
   11.700   4.943E-01
   11.800   5.135E-01
   11.900   5.332E-01
   12.000   5.533E-01
   12.100   5.741E-01
   12.200   5.956E-01
   12.300   6.177E-01
   12.400   6.407E-01
   12.500   6.646E-01
   12.600   6.895E-01
   12.700   7.155E-01
   12.800   7.426E-01
   12.900   7.709E-01
   13.000   8.006E-01
   13.100   8.318E-01
   13.200   8.644E-01
   13.300   8.988E-01
   13.400   9.349E-01
   13.500   9.730E-01
   13.600   1.013E+00
   13.700   1.056E+00
   13.800   1.100E+00
   13.900   1.147E+00
   14.000   1.197E+00
   14.100   1.249E+00
   14.200   1.304E+00
   14.300   1.361E+00
   14.400   1.421E+00
   14.500   1.483E+00
   14.600   1.548E+00
   14.700   1.614E+00
   14.800   1.682E+00
   14.900   1.751E+00
   15.000   1.820E+00
   15.100   1.891E+00
   15.200   1.961E+00
   15.300   2.031E+00
   15.400   2.101E+00
   15.500   2.170E+00
   15.600   2.238E+00
   15.700   2.304E+00
   15.800   2.370E+00
   15.900   2.434E+00
   16.000   2.496E+00
   16.100   2.556E+00
   16.200   2.615E+00
   16.300   2.671E+00
   16.400   2.725E+00
   16.500   2.776E+00
   16.600   2.823E+00
   16.700   2.867E+00
   16.800   2.906E+00
   16.900   2.941E+00
   17.000   2.972E+00
   17.100   2.997E+00
   17.200   3.018E+00
   17.300   3.035E+00
   17.400   3.047E+00
   17.500   3.055E+00
   17.600   3.059E+00
   17.700   3.060E+00
   17.800   3.058E+00
   17.900   3.053E+00
   18.000   3.046E+00
   18.100   3.037E+00
   18.200   3.026E+00
   18.300   3.012E+00
   18.400   2.997E+00
   18.500   2.979E+00
   18.600   2.958E+00
   18.700   2.935E+00
   18.800   2.909E+00
   18.900   2.880E+00
   19.000   2.849E+00
   19.100   2.814E+00
   19.200   2.776E+00
   19.300   2.737E+00
   19.400   2.695E+00
   19.500   2.652E+00
   19.600   2.607E+00
   19.700   2.562E+00
   19.800   2.517E+00
   19.900   2.472E+00
   20.000   2.427E+00
   20.100   2.383E+00
   20.200   2.340E+00
   20.300   2.298E+00
   20.400   2.258E+00
   20.500   2.218E+00
   20.600   2.180E+00
   20.700   2.143E+00
   20.800   2.107E+00
   20.900   2.072E+00
   21.000   2.038E+00
   21.100   2.005E+00
   21.200   1.972E+00
   21.300   1.939E+00
   21.400   1.907E+00
   21.500   1.876E+00
   21.600   1.844E+00
   21.700   1.813E+00
   21.800   1.783E+00
   21.900   1.752E+00
   22.000   1.722E+00
   22.100   1.692E+00
   22.200   1.662E+00
   22.300   1.633E+00
   22.400   1.605E+00
   22.500   1.577E+00
   22.600   1.549E+00
   22.700   1.522E+00
   22.800   1.496E+00
   22.900   1.471E+00
   23.000   1.446E+00
   23.100   1.421E+00
   23.200   1.398E+00
   23.300   1.374E+00
   23.400   1.352E+00
   23.500   1.329E+00
   23.600   1.307E+00
   23.700   1.285E+00
   23.800   1.264E+00
   23.900   1.242E+00
   24.000   1.221E+00
   24.100   1.199E+00
   24.200   1.178E+00
   24.300   1.157E+00
   24.400   1.136E+00
   24.500   1.115E+00
   24.600   1.094E+00
   24.700   1.073E+00
   24.800   1.052E+00
   24.900   1.031E+00
   25.000   1.011E+00
   25.100   9.907E-01
   25.200   9.705E-01
   25.300   9.507E-01
   25.400   9.310E-01
   25.500   9.118E-01
   25.600   8.928E-01
   25.700   8.743E-01
   25.800   8.561E-01
   25.900   8.385E-01
   26.000   8.213E-01
   26.100   8.046E-01
   26.200   7.884E-01
   26.300   7.728E-01
   26.400   7.576E-01
   26.500   7.430E-01
   26.600   7.288E-01
   26.700   7.151E-01
   26.800   7.019E-01
   26.900   6.891E-01
   27.000   6.766E-01
   27.100   6.645E-01
   27.200   6.528E-01
   27.300   6.413E-01
   27.400   6.301E-01
   27.500   6.191E-01
   27.600   6.084E-01
   27.700   5.978E-01
   27.800   5.873E-01
   27.900   5.770E-01
   28.000   5.668E-01
   28.100   5.566E-01
   28.200   5.466E-01
   28.300   5.366E-01
   28.400   5.267E-01
   28.500   5.168E-01
   28.600   5.070E-01
   28.700   4.972E-01
   28.800   4.875E-01
   28.900   4.779E-01
   29.000   4.684E-01
   29.100   4.590E-01
   29.200   4.497E-01
   29.300   4.407E-01
   29.400   4.318E-01
   29.500   4.231E-01
   29.600   4.147E-01
   29.700   4.065E-01
   29.800   3.986E-01
   29.900   3.909E-01
   30.000   3.835E-01
 
 Z=  18 A=  38 Ar
  U[MeV]  fE1[mb/MeV]
    0.100   8.602E-06
    0.200   3.442E-05
    0.300   7.746E-05
    0.400   1.378E-04
    0.500   2.154E-04
    0.600   3.104E-04
    0.700   4.229E-04
    0.800   5.530E-04
    0.900   7.007E-04
    1.000   8.662E-04
    1.100   1.050E-03
    1.200   1.251E-03
    1.300   1.471E-03
    1.400   1.709E-03
    1.500   1.966E-03
    1.600   2.242E-03
    1.700   2.537E-03
    1.800   2.851E-03
    1.900   3.185E-03
    2.000   3.539E-03
    2.100   3.913E-03
    2.200   4.308E-03
    2.300   4.724E-03
    2.400   5.161E-03
    2.500   5.620E-03
    2.600   6.101E-03
    2.700   6.605E-03
    2.800   7.131E-03
    2.900   7.681E-03
    3.000   8.256E-03
    3.100   8.855E-03
    3.200   9.479E-03
    3.300   1.013E-02
    3.400   1.080E-02
    3.500   1.151E-02
    3.600   1.224E-02
    3.700   1.300E-02
    3.800   1.379E-02
    3.900   1.461E-02
    4.000   1.546E-02
    4.100   1.634E-02
    4.200   1.726E-02
    4.300   1.820E-02
    4.400   1.919E-02
    4.500   2.021E-02
    4.600   2.126E-02
    4.700   2.236E-02
    4.800   2.349E-02
    4.900   2.467E-02
    5.000   2.589E-02
    5.100   2.715E-02
    5.200   2.845E-02
    5.300   2.981E-02
    5.400   3.121E-02
    5.500   3.266E-02
    5.600   3.417E-02
    5.700   3.573E-02
    5.800   3.734E-02
    5.900   3.902E-02
    6.000   4.075E-02
    6.100   4.255E-02
    6.200   4.441E-02
    6.300   4.634E-02
    6.400   4.835E-02
    6.500   5.043E-02
    6.600   5.258E-02
    6.700   5.482E-02
    6.800   5.715E-02
    6.900   5.956E-02
    7.000   6.206E-02
    7.100   6.466E-02
    7.200   6.737E-02
    7.300   7.018E-02
    7.400   7.310E-02
    7.500   7.614E-02
    7.600   7.930E-02
    7.700   8.259E-02
    7.800   8.602E-02
    7.900   8.959E-02
    8.000   9.331E-02
    8.100   9.719E-02
    8.200   1.012E-01
    8.300   1.055E-01
    8.400   1.099E-01
    8.500   1.145E-01
    8.600   1.193E-01
    8.700   1.243E-01
    8.800   1.295E-01
    8.900   1.350E-01
    9.000   1.408E-01
    9.100   1.468E-01
    9.200   1.531E-01
    9.300   1.597E-01
    9.400   1.666E-01
    9.500   1.738E-01
    9.600   1.814E-01
    9.700   1.893E-01
    9.800   1.977E-01
    9.900   2.064E-01
   10.000   2.156E-01
   10.100   2.252E-01
   10.200   2.353E-01
   10.300   2.459E-01
   10.400   2.570E-01
   10.500   2.686E-01
   10.600   2.808E-01
   10.700   2.935E-01
   10.800   3.068E-01
   10.900   3.206E-01
   11.000   3.350E-01
   11.100   3.500E-01
   11.200   3.656E-01
   11.300   3.817E-01
   11.400   3.984E-01
   11.500   4.156E-01
   11.600   4.333E-01
   11.700   4.516E-01
   11.800   4.704E-01
   11.900   4.897E-01
   12.000   5.096E-01
   12.100   5.301E-01
   12.200   5.511E-01
   12.300   5.728E-01
   12.400   5.951E-01
   12.500   6.183E-01
   12.600   6.422E-01
   12.700   6.671E-01
   12.800   6.929E-01
   12.900   7.199E-01
   13.000   7.480E-01
   13.100   7.775E-01
   13.200   8.084E-01
   13.300   8.409E-01
   13.400   8.751E-01
   13.500   9.112E-01
   13.600   9.494E-01
   13.700   9.898E-01
   13.800   1.033E+00
   13.900   1.078E+00
   14.000   1.126E+00
   14.100   1.176E+00
   14.200   1.230E+00
   14.300   1.286E+00
   14.400   1.346E+00
   14.500   1.408E+00
   14.600   1.473E+00
   14.700   1.541E+00
   14.800   1.612E+00
   14.900   1.685E+00
   15.000   1.759E+00
   15.100   1.836E+00
   15.200   1.914E+00
   15.300   1.993E+00
   15.400   2.072E+00
   15.500   2.152E+00
   15.600   2.231E+00
   15.700   2.311E+00
   15.800   2.389E+00
   15.900   2.467E+00
   16.000   2.544E+00
   16.100   2.619E+00
   16.200   2.693E+00
   16.300   2.766E+00
   16.400   2.836E+00
   16.500   2.904E+00
   16.600   2.969E+00
   16.700   3.030E+00
   16.800   3.087E+00
   16.900   3.140E+00
   17.000   3.188E+00
   17.100   3.230E+00
   17.200   3.267E+00
   17.300   3.297E+00
   17.400   3.322E+00
   17.500   3.340E+00
   17.600   3.353E+00
   17.700   3.361E+00
   17.800   3.364E+00
   17.900   3.363E+00
   18.000   3.357E+00
   18.100   3.347E+00
   18.200   3.334E+00
   18.300   3.318E+00
   18.400   3.299E+00
   18.500   3.276E+00
   18.600   3.250E+00
   18.700   3.220E+00
   18.800   3.187E+00
   18.900   3.151E+00
   19.000   3.112E+00
   19.100   3.069E+00
   19.200   3.024E+00
   19.300   2.977E+00
   19.400   2.928E+00
   19.500   2.877E+00
   19.600   2.825E+00
   19.700   2.773E+00
   19.800   2.720E+00
   19.900   2.667E+00
   20.000   2.615E+00
   20.100   2.564E+00
   20.200   2.513E+00
   20.300   2.463E+00
   20.400   2.415E+00
   20.500   2.367E+00
   20.600   2.320E+00
   20.700   2.275E+00
   20.800   2.231E+00
   20.900   2.188E+00
   21.000   2.146E+00
   21.100   2.105E+00
   21.200   2.065E+00
   21.300   2.027E+00
   21.400   1.989E+00
   21.500   1.953E+00
   21.600   1.917E+00
   21.700   1.883E+00
   21.800   1.849E+00
   21.900   1.816E+00
   22.000   1.784E+00
   22.100   1.752E+00
   22.200   1.721E+00
   22.300   1.691E+00
   22.400   1.661E+00
   22.500   1.632E+00
   22.600   1.604E+00
   22.700   1.576E+00
   22.800   1.549E+00
   22.900   1.523E+00
   23.000   1.497E+00
   23.100   1.472E+00
   23.200   1.448E+00
   23.300   1.423E+00
   23.400   1.400E+00
   23.500   1.377E+00
   23.600   1.354E+00
   23.700   1.332E+00
   23.800   1.309E+00
   23.900   1.287E+00
   24.000   1.265E+00
   24.100   1.243E+00
   24.200   1.222E+00
   24.300   1.200E+00
   24.400   1.178E+00
   24.500   1.156E+00
   24.600   1.134E+00
   24.700   1.112E+00
   24.800   1.091E+00
   24.900   1.069E+00
   25.000   1.047E+00
   25.100   1.026E+00
   25.200   1.004E+00
   25.300   9.833E-01
   25.400   9.624E-01
   25.500   9.418E-01
   25.600   9.216E-01
   25.700   9.017E-01
   25.800   8.821E-01
   25.900   8.630E-01
   26.000   8.443E-01
   26.100   8.261E-01
   26.200   8.083E-01
   26.300   7.910E-01
   26.400   7.741E-01
   26.500   7.577E-01
   26.600   7.417E-01
   26.700   7.263E-01
   26.800   7.112E-01
   26.900   6.966E-01
   27.000   6.825E-01
   27.100   6.687E-01
   27.200   6.554E-01
   27.300   6.424E-01
   27.400   6.298E-01
   27.500   6.176E-01
   27.600   6.056E-01
   27.700   5.939E-01
   27.800   5.825E-01
   27.900   5.713E-01
   28.000   5.603E-01
   28.100   5.496E-01
   28.200   5.390E-01
   28.300   5.287E-01
   28.400   5.185E-01
   28.500   5.085E-01
   28.600   4.987E-01
   28.700   4.890E-01
   28.800   4.795E-01
   28.900   4.702E-01
   29.000   4.610E-01
   29.100   4.521E-01
   29.200   4.432E-01
   29.300   4.346E-01
   29.400   4.261E-01
   29.500   4.179E-01
   29.600   4.098E-01
   29.700   4.019E-01
   29.800   3.942E-01
   29.900   3.867E-01
   30.000   3.793E-01
 
 Z=  18 A=  39 Ar
  U[MeV]  fE1[mb/MeV]
    0.100   9.583E-06
    0.200   3.834E-05
    0.300   8.629E-05
    0.400   1.535E-04
    0.500   2.400E-04
    0.600   3.458E-04
    0.700   4.711E-04
    0.800   6.160E-04
    0.900   7.806E-04
    1.000   9.650E-04
    1.100   1.169E-03
    1.200   1.394E-03
    1.300   1.639E-03
    1.400   1.904E-03
    1.500   2.191E-03
    1.600   2.498E-03
    1.700   2.826E-03
    1.800   3.177E-03
    1.900   3.549E-03
    2.000   3.943E-03
    2.100   4.360E-03
    2.200   4.800E-03
    2.300   5.264E-03
    2.400   5.751E-03
    2.500   6.262E-03
    2.600   6.798E-03
    2.700   7.359E-03
    2.800   7.946E-03
    2.900   8.560E-03
    3.000   9.200E-03
    3.100   9.867E-03
    3.200   1.056E-02
    3.300   1.129E-02
    3.400   1.204E-02
    3.500   1.283E-02
    3.600   1.364E-02
    3.700   1.449E-02
    3.800   1.537E-02
    3.900   1.628E-02
    4.000   1.723E-02
    4.100   1.821E-02
    4.200   1.923E-02
    4.300   2.029E-02
    4.400   2.139E-02
    4.500   2.253E-02
    4.600   2.371E-02
    4.700   2.493E-02
    4.800   2.619E-02
    4.900   2.751E-02
    5.000   2.886E-02
    5.100   3.027E-02
    5.200   3.173E-02
    5.300   3.324E-02
    5.400   3.481E-02
    5.500   3.643E-02
    5.600   3.811E-02
    5.700   3.985E-02
    5.800   4.165E-02
    5.900   4.352E-02
    6.000   4.545E-02
    6.100   4.746E-02
    6.200   4.954E-02
    6.300   5.170E-02
    6.400   5.394E-02
    6.500   5.626E-02
    6.600   5.867E-02
    6.700   6.117E-02
    6.800   6.376E-02
    6.900   6.646E-02
    7.000   6.925E-02
    7.100   7.216E-02
    7.200   7.518E-02
    7.300   7.831E-02
    7.400   8.157E-02
    7.500   8.497E-02
    7.600   8.849E-02
    7.700   9.217E-02
    7.800   9.599E-02
    7.900   9.997E-02
    8.000   1.041E-01
    8.100   1.084E-01
    8.200   1.129E-01
    8.300   1.176E-01
    8.400   1.225E-01
    8.500   1.276E-01
    8.600   1.330E-01
    8.700   1.385E-01
    8.800   1.444E-01
    8.900   1.504E-01
    9.000   1.568E-01
    9.100   1.634E-01
    9.200   1.704E-01
    9.300   1.776E-01
    9.400   1.852E-01
    9.500   1.932E-01
    9.600   2.015E-01
    9.700   2.102E-01
    9.800   2.193E-01
    9.900   2.288E-01
   10.000   2.387E-01
   10.100   2.492E-01
   10.200   2.601E-01
   10.300   2.714E-01
   10.400   2.833E-01
   10.500   2.958E-01
   10.600   3.087E-01
   10.700   3.222E-01
   10.800   3.363E-01
   10.900   3.509E-01
   11.000   3.661E-01
   11.100   3.819E-01
   11.200   3.983E-01
   11.300   4.152E-01
   11.400   4.328E-01
   11.500   4.509E-01
   11.600   4.697E-01
   11.700   4.891E-01
   11.800   5.092E-01
   11.900   5.299E-01
   12.000   5.514E-01
   12.100   5.737E-01
   12.200   5.969E-01
   12.300   6.209E-01
   12.400   6.459E-01
   12.500   6.720E-01
   12.600   6.992E-01
   12.700   7.275E-01
   12.800   7.572E-01
   12.900   7.882E-01
   13.000   8.206E-01
   13.100   8.546E-01
   13.200   8.903E-01
   13.300   9.276E-01
   13.400   9.667E-01
   13.500   1.008E+00
   13.600   1.051E+00
   13.700   1.096E+00
   13.800   1.143E+00
   13.900   1.192E+00
   14.000   1.243E+00
   14.100   1.296E+00
   14.200   1.351E+00
   14.300   1.408E+00
   14.400   1.467E+00
   14.500   1.526E+00
   14.600   1.588E+00
   14.700   1.650E+00
   14.800   1.713E+00
   14.900   1.776E+00
   15.000   1.839E+00
   15.100   1.903E+00
   15.200   1.966E+00
   15.300   2.028E+00
   15.400   2.090E+00
   15.500   2.152E+00
   15.600   2.212E+00
   15.700   2.271E+00
   15.800   2.330E+00
   15.900   2.388E+00
   16.000   2.445E+00
   16.100   2.501E+00
   16.200   2.555E+00
   16.300   2.609E+00
   16.400   2.661E+00
   16.500   2.711E+00
   16.600   2.759E+00
   16.700   2.804E+00
   16.800   2.847E+00
   16.900   2.887E+00
   17.000   2.924E+00
   17.100   2.957E+00
   17.200   2.987E+00
   17.300   3.014E+00
   17.400   3.036E+00
   17.500   3.056E+00
   17.600   3.072E+00
   17.700   3.085E+00
   17.800   3.095E+00
   17.900   3.102E+00
   18.000   3.107E+00
   18.100   3.108E+00
   18.200   3.107E+00
   18.300   3.104E+00
   18.400   3.098E+00
   18.500   3.089E+00
   18.600   3.078E+00
   18.700   3.064E+00
   18.800   3.048E+00
   18.900   3.030E+00
   19.000   3.010E+00
   19.100   2.987E+00
   19.200   2.963E+00
   19.300   2.937E+00
   19.400   2.910E+00
   19.500   2.882E+00
   19.600   2.853E+00
   19.700   2.823E+00
   19.800   2.793E+00
   19.900   2.762E+00
   20.000   2.731E+00
   20.100   2.699E+00
   20.200   2.667E+00
   20.300   2.635E+00
   20.400   2.601E+00
   20.500   2.568E+00
   20.600   2.533E+00
   20.700   2.498E+00
   20.800   2.461E+00
   20.900   2.425E+00
   21.000   2.387E+00
   21.100   2.349E+00
   21.200   2.310E+00
   21.300   2.271E+00
   21.400   2.232E+00
   21.500   2.193E+00
   21.600   2.153E+00
   21.700   2.114E+00
   21.800   2.075E+00
   21.900   2.037E+00
   22.000   1.999E+00
   22.100   1.962E+00
   22.200   1.925E+00
   22.300   1.889E+00
   22.400   1.853E+00
   22.500   1.819E+00
   22.600   1.785E+00
   22.700   1.752E+00
   22.800   1.720E+00
   22.900   1.688E+00
   23.000   1.657E+00
   23.100   1.628E+00
   23.200   1.599E+00
   23.300   1.570E+00
   23.400   1.543E+00
   23.500   1.516E+00
   23.600   1.490E+00
   23.700   1.464E+00
   23.800   1.439E+00
   23.900   1.415E+00
   24.000   1.391E+00
   24.100   1.367E+00
   24.200   1.344E+00
   24.300   1.321E+00
   24.400   1.298E+00
   24.500   1.276E+00
   24.600   1.254E+00
   24.700   1.232E+00
   24.800   1.210E+00
   24.900   1.189E+00
   25.000   1.167E+00
   25.100   1.145E+00
   25.200   1.124E+00
   25.300   1.102E+00
   25.400   1.081E+00
   25.500   1.059E+00
   25.600   1.038E+00
   25.700   1.017E+00
   25.800   9.958E-01
   25.900   9.748E-01
   26.000   9.541E-01
   26.100   9.337E-01
   26.200   9.135E-01
   26.300   8.937E-01
   26.400   8.742E-01
   26.500   8.552E-01
   26.600   8.366E-01
   26.700   8.185E-01
   26.800   8.009E-01
   26.900   7.838E-01
   27.000   7.672E-01
   27.100   7.511E-01
   27.200   7.355E-01
   27.300   7.205E-01
   27.400   7.059E-01
   27.500   6.917E-01
   27.600   6.780E-01
   27.700   6.647E-01
   27.800   6.517E-01
   27.900   6.392E-01
   28.000   6.269E-01
   28.100   6.150E-01
   28.200   6.034E-01
   28.300   5.921E-01
   28.400   5.810E-01
   28.500   5.703E-01
   28.600   5.598E-01
   28.700   5.495E-01
   28.800   5.396E-01
   28.900   5.298E-01
   29.000   5.203E-01
   29.100   5.111E-01
   29.200   5.021E-01
   29.300   4.934E-01
   29.400   4.848E-01
   29.500   4.765E-01
   29.600   4.683E-01
   29.700   4.604E-01
   29.800   4.526E-01
   29.900   4.450E-01
   30.000   4.376E-01
 
 Z=  18 A=  40 Ar
  U[MeV]  fE1[mb/MeV]
    0.100   1.049E-05
    0.200   4.195E-05
    0.300   9.443E-05
    0.400   1.680E-04
    0.500   2.626E-04
    0.600   3.785E-04
    0.700   5.156E-04
    0.800   6.742E-04
    0.900   8.543E-04
    1.000   1.056E-03
    1.100   1.280E-03
    1.200   1.526E-03
    1.300   1.794E-03
    1.400   2.085E-03
    1.500   2.398E-03
    1.600   2.735E-03
    1.700   3.095E-03
    1.800   3.478E-03
    1.900   3.886E-03
    2.000   4.318E-03
    2.100   4.776E-03
    2.200   5.258E-03
    2.300   5.766E-03
    2.400   6.300E-03
    2.500   6.861E-03
    2.600   7.449E-03
    2.700   8.065E-03
    2.800   8.709E-03
    2.900   9.383E-03
    3.000   1.009E-02
    3.100   1.082E-02
    3.200   1.158E-02
    3.300   1.238E-02
    3.400   1.321E-02
    3.500   1.407E-02
    3.600   1.497E-02
    3.700   1.590E-02
    3.800   1.687E-02
    3.900   1.787E-02
    4.000   1.892E-02
    4.100   2.000E-02
    4.200   2.113E-02
    4.300   2.229E-02
    4.400   2.351E-02
    4.500   2.476E-02
    4.600   2.606E-02
    4.700   2.741E-02
    4.800   2.881E-02
    4.900   3.026E-02
    5.000   3.176E-02
    5.100   3.332E-02
    5.200   3.493E-02
    5.300   3.661E-02
    5.400   3.834E-02
    5.500   4.014E-02
    5.600   4.201E-02
    5.700   4.394E-02
    5.800   4.594E-02
    5.900   4.802E-02
    6.000   5.017E-02
    6.100   5.241E-02
    6.200   5.473E-02
    6.300   5.713E-02
    6.400   5.963E-02
    6.500   6.222E-02
    6.600   6.491E-02
    6.700   6.771E-02
    6.800   7.061E-02
    6.900   7.363E-02
    7.000   7.676E-02
    7.100   8.002E-02
    7.200   8.341E-02
    7.300   8.694E-02
    7.400   9.061E-02
    7.500   9.443E-02
    7.600   9.840E-02
    7.700   1.025E-01
    7.800   1.069E-01
    7.900   1.114E-01
    8.000   1.160E-01
    8.100   1.209E-01
    8.200   1.260E-01
    8.300   1.314E-01
    8.400   1.369E-01
    8.500   1.427E-01
    8.600   1.488E-01
    8.700   1.551E-01
    8.800   1.617E-01
    8.900   1.686E-01
    9.000   1.758E-01
    9.100   1.834E-01
    9.200   1.913E-01
    9.300   1.996E-01
    9.400   2.082E-01
    9.500   2.172E-01
    9.600   2.267E-01
    9.700   2.365E-01
    9.800   2.469E-01
    9.900   2.577E-01
   10.000   2.689E-01
   10.100   2.807E-01
   10.200   2.930E-01
   10.300   3.058E-01
   10.400   3.192E-01
   10.500   3.331E-01
   10.600   3.476E-01
   10.700   3.627E-01
   10.800   3.783E-01
   10.900   3.945E-01
   11.000   4.113E-01
   11.100   4.287E-01
   11.200   4.467E-01
   11.300   4.654E-01
   11.400   4.847E-01
   11.500   5.047E-01
   11.600   5.255E-01
   11.700   5.469E-01
   11.800   5.692E-01
   11.900   5.923E-01
   12.000   6.163E-01
   12.100   6.413E-01
   12.200   6.673E-01
   12.300   6.943E-01
   12.400   7.224E-01
   12.500   7.517E-01
   12.600   7.821E-01
   12.700   8.138E-01
   12.800   8.467E-01
   12.900   8.808E-01
   13.000   9.163E-01
   13.100   9.530E-01
   13.200   9.911E-01
   13.300   1.030E+00
   13.400   1.071E+00
   13.500   1.113E+00
   13.600   1.157E+00
   13.700   1.201E+00
   13.800   1.248E+00
   13.900   1.295E+00
   14.000   1.345E+00
   14.100   1.396E+00
   14.200   1.448E+00
   14.300   1.503E+00
   14.400   1.559E+00
   14.500   1.617E+00
   14.600   1.677E+00
   14.700   1.739E+00
   14.800   1.803E+00
   14.900   1.869E+00
   15.000   1.936E+00
   15.100   2.006E+00
   15.200   2.077E+00
   15.300   2.149E+00
   15.400   2.223E+00
   15.500   2.297E+00
   15.600   2.371E+00
   15.700   2.445E+00
   15.800   2.519E+00
   15.900   2.591E+00
   16.000   2.662E+00
   16.100   2.731E+00
   16.200   2.798E+00
   16.300   2.861E+00
   16.400   2.920E+00
   16.500   2.976E+00
   16.600   3.027E+00
   16.700   3.073E+00
   16.800   3.115E+00
   16.900   3.151E+00
   17.000   3.183E+00
   17.100   3.210E+00
   17.200   3.232E+00
   17.300   3.250E+00
   17.400   3.265E+00
   17.500   3.277E+00
   17.600   3.286E+00
   17.700   3.293E+00
   17.800   3.298E+00
   17.900   3.302E+00
   18.000   3.305E+00
   18.100   3.307E+00
   18.200   3.308E+00
   18.300   3.308E+00
   18.400   3.307E+00
   18.500   3.306E+00
   18.600   3.302E+00
   18.700   3.297E+00
   18.800   3.290E+00
   18.900   3.279E+00
   19.000   3.266E+00
   19.100   3.249E+00
   19.200   3.228E+00
   19.300   3.202E+00
   19.400   3.172E+00
   19.500   3.138E+00
   19.600   3.099E+00
   19.700   3.055E+00
   19.800   3.008E+00
   19.900   2.958E+00
   20.000   2.904E+00
   20.100   2.849E+00
   20.200   2.791E+00
   20.300   2.733E+00
   20.400   2.674E+00
   20.500   2.615E+00
   20.600   2.556E+00
   20.700   2.498E+00
   20.800   2.441E+00
   20.900   2.386E+00
   21.000   2.332E+00
   21.100   2.279E+00
   21.200   2.228E+00
   21.300   2.179E+00
   21.400   2.132E+00
   21.500   2.086E+00
   21.600   2.041E+00
   21.700   1.998E+00
   21.800   1.957E+00
   21.900   1.917E+00
   22.000   1.878E+00
   22.100   1.840E+00
   22.200   1.804E+00
   22.300   1.768E+00
   22.400   1.734E+00
   22.500   1.701E+00
   22.600   1.668E+00
   22.700   1.637E+00
   22.800   1.606E+00
   22.900   1.577E+00
   23.000   1.548E+00
   23.100   1.520E+00
   23.200   1.493E+00
   23.300   1.467E+00
   23.400   1.442E+00
   23.500   1.417E+00
   23.600   1.393E+00
   23.700   1.370E+00
   23.800   1.348E+00
   23.900   1.326E+00
   24.000   1.304E+00
   24.100   1.283E+00
   24.200   1.262E+00
   24.300   1.241E+00
   24.400   1.221E+00
   24.500   1.201E+00
   24.600   1.180E+00
   24.700   1.160E+00
   24.800   1.140E+00
   24.900   1.119E+00
   25.000   1.099E+00
   25.100   1.078E+00
   25.200   1.058E+00
   25.300   1.037E+00
   25.400   1.017E+00
   25.500   9.960E-01
   25.600   9.756E-01
   25.700   9.552E-01
   25.800   9.350E-01
   25.900   9.150E-01
   26.000   8.952E-01
   26.100   8.757E-01
   26.200   8.565E-01
   26.300   8.377E-01
   26.400   8.193E-01
   26.500   8.013E-01
   26.600   7.837E-01
   26.700   7.666E-01
   26.800   7.500E-01
   26.900   7.339E-01
   27.000   7.182E-01
   27.100   7.031E-01
   27.200   6.885E-01
   27.300   6.744E-01
   27.400   6.608E-01
   27.500   6.477E-01
   27.600   6.352E-01
   27.700   6.231E-01
   27.800   6.114E-01
   27.900   6.003E-01
   28.000   5.895E-01
   28.100   5.791E-01
   28.200   5.691E-01
   28.300   5.594E-01
   28.400   5.501E-01
   28.500   5.410E-01
   28.600   5.322E-01
   28.700   5.237E-01
   28.800   5.154E-01
   28.900   5.073E-01
   29.000   4.994E-01
   29.100   4.917E-01
   29.200   4.842E-01
   29.300   4.769E-01
   29.400   4.698E-01
   29.500   4.628E-01
   29.600   4.560E-01
   29.700   4.493E-01
   29.800   4.428E-01
   29.900   4.364E-01
   30.000   4.302E-01
 
 Z=  18 A=  41 Ar
  U[MeV]  fE1[mb/MeV]
    0.100   1.117E-05
    0.200   4.470E-05
    0.300   1.006E-04
    0.400   1.789E-04
    0.500   2.798E-04
    0.600   4.032E-04
    0.700   5.494E-04
    0.800   7.184E-04
    0.900   9.104E-04
    1.000   1.126E-03
    1.100   1.364E-03
    1.200   1.626E-03
    1.300   1.912E-03
    1.400   2.222E-03
    1.500   2.557E-03
    1.600   2.916E-03
    1.700   3.300E-03
    1.800   3.710E-03
    1.900   4.145E-03
    2.000   4.607E-03
    2.100   5.096E-03
    2.200   5.611E-03
    2.300   6.154E-03
    2.400   6.726E-03
    2.500   7.326E-03
    2.600   7.955E-03
    2.700   8.615E-03
    2.800   9.305E-03
    2.900   1.003E-02
    3.000   1.078E-02
    3.100   1.157E-02
    3.200   1.239E-02
    3.300   1.324E-02
    3.400   1.413E-02
    3.500   1.506E-02
    3.600   1.602E-02
    3.700   1.703E-02
    3.800   1.807E-02
    3.900   1.915E-02
    4.000   2.028E-02
    4.100   2.145E-02
    4.200   2.266E-02
    4.300   2.392E-02
    4.400   2.523E-02
    4.500   2.659E-02
    4.600   2.800E-02
    4.700   2.946E-02
    4.800   3.097E-02
    4.900   3.255E-02
    5.000   3.418E-02
    5.100   3.587E-02
    5.200   3.763E-02
    5.300   3.945E-02
    5.400   4.134E-02
    5.500   4.330E-02
    5.600   4.534E-02
    5.700   4.745E-02
    5.800   4.965E-02
    5.900   5.192E-02
    6.000   5.429E-02
    6.100   5.674E-02
    6.200   5.929E-02
    6.300   6.194E-02
    6.400   6.469E-02
    6.500   6.756E-02
    6.600   7.053E-02
    6.700   7.363E-02
    6.800   7.685E-02
    6.900   8.020E-02
    7.000   8.368E-02
    7.100   8.731E-02
    7.200   9.110E-02
    7.300   9.504E-02
    7.400   9.915E-02
    7.500   1.034E-01
    7.600   1.079E-01
    7.700   1.126E-01
    7.800   1.174E-01
    7.900   1.225E-01
    8.000   1.278E-01
    8.100   1.333E-01
    8.200   1.391E-01
    8.300   1.452E-01
    8.400   1.515E-01
    8.500   1.581E-01
    8.600   1.651E-01
    8.700   1.723E-01
    8.800   1.799E-01
    8.900   1.878E-01
    9.000   1.962E-01
    9.100   2.049E-01
    9.200   2.140E-01
    9.300   2.235E-01
    9.400   2.335E-01
    9.500   2.440E-01
    9.600   2.549E-01
    9.700   2.664E-01
    9.800   2.784E-01
    9.900   2.909E-01
   10.000   3.040E-01
   10.100   3.177E-01
   10.200   3.320E-01
   10.300   3.468E-01
   10.400   3.623E-01
   10.500   3.784E-01
   10.600   3.952E-01
   10.700   4.126E-01
   10.800   4.306E-01
   10.900   4.493E-01
   11.000   4.687E-01
   11.100   4.888E-01
   11.200   5.095E-01
   11.300   5.311E-01
   11.400   5.534E-01
   11.500   5.765E-01
   11.600   6.004E-01
   11.700   6.253E-01
   11.800   6.510E-01
   11.900   6.778E-01
   12.000   7.055E-01
   12.100   7.342E-01
   12.200   7.641E-01
   12.300   7.950E-01
   12.400   8.270E-01
   12.500   8.602E-01
   12.600   8.945E-01
   12.700   9.301E-01
   12.800   9.669E-01
   12.900   1.005E+00
   13.000   1.045E+00
   13.100   1.085E+00
   13.200   1.128E+00
   13.300   1.172E+00
   13.400   1.217E+00
   13.500   1.265E+00
   13.600   1.314E+00
   13.700   1.365E+00
   13.800   1.418E+00
   13.900   1.473E+00
   14.000   1.531E+00
   14.100   1.590E+00
   14.200   1.652E+00
   14.300   1.715E+00
   14.400   1.781E+00
   14.500   1.848E+00
   14.600   1.917E+00
   14.700   1.987E+00
   14.800   2.058E+00
   14.900   2.130E+00
   15.000   2.202E+00
   15.100   2.274E+00
   15.200   2.345E+00
   15.300   2.415E+00
   15.400   2.484E+00
   15.500   2.550E+00
   15.600   2.614E+00
   15.700   2.674E+00
   15.800   2.732E+00
   15.900   2.785E+00
   16.000   2.835E+00
   16.100   2.880E+00
   16.200   2.920E+00
   16.300   2.956E+00
   16.400   2.987E+00
   16.500   3.014E+00
   16.600   3.036E+00
   16.700   3.054E+00
   16.800   3.070E+00
   16.900   3.082E+00
   17.000   3.092E+00
   17.100   3.101E+00
   17.200   3.108E+00
   17.300   3.115E+00
   17.400   3.123E+00
   17.500   3.131E+00
   17.600   3.139E+00
   17.700   3.149E+00
   17.800   3.159E+00
   17.900   3.170E+00
   18.000   3.182E+00
   18.100   3.194E+00
   18.200   3.206E+00
   18.300   3.218E+00
   18.400   3.229E+00
   18.500   3.238E+00
   18.600   3.246E+00
   18.700   3.252E+00
   18.800   3.255E+00
   18.900   3.254E+00
   19.000   3.251E+00
   19.100   3.243E+00
   19.200   3.231E+00
   19.300   3.215E+00
   19.400   3.194E+00
   19.500   3.168E+00
   19.600   3.138E+00
   19.700   3.103E+00
   19.800   3.063E+00
   19.900   3.019E+00
   20.000   2.972E+00
   20.100   2.922E+00
   20.200   2.869E+00
   20.300   2.813E+00
   20.400   2.757E+00
   20.500   2.699E+00
   20.600   2.641E+00
   20.700   2.583E+00
   20.800   2.525E+00
   20.900   2.469E+00
   21.000   2.413E+00
   21.100   2.358E+00
   21.200   2.305E+00
   21.300   2.254E+00
   21.400   2.204E+00
   21.500   2.155E+00
   21.600   2.108E+00
   21.700   2.063E+00
   21.800   2.019E+00
   21.900   1.976E+00
   22.000   1.934E+00
   22.100   1.893E+00
   22.200   1.853E+00
   22.300   1.815E+00
   22.400   1.777E+00
   22.500   1.740E+00
   22.600   1.704E+00
   22.700   1.668E+00
   22.800   1.634E+00
   22.900   1.601E+00
   23.000   1.569E+00
   23.100   1.538E+00
   23.200   1.508E+00
   23.300   1.480E+00
   23.400   1.452E+00
   23.500   1.425E+00
   23.600   1.400E+00
   23.700   1.375E+00
   23.800   1.351E+00
   23.900   1.329E+00
   24.000   1.306E+00
   24.100   1.284E+00
   24.200   1.263E+00
   24.300   1.242E+00
   24.400   1.221E+00
   24.500   1.201E+00
   24.600   1.180E+00
   24.700   1.160E+00
   24.800   1.139E+00
   24.900   1.119E+00
   25.000   1.099E+00
   25.100   1.078E+00
   25.200   1.058E+00
   25.300   1.038E+00
   25.400   1.018E+00
   25.500   9.976E-01
   25.600   9.778E-01
   25.700   9.581E-01
   25.800   9.387E-01
   25.900   9.194E-01
   26.000   9.005E-01
   26.100   8.818E-01
   26.200   8.635E-01
   26.300   8.454E-01
   26.400   8.277E-01
   26.500   8.104E-01
   26.600   7.935E-01
   26.700   7.769E-01
   26.800   7.608E-01
   26.900   7.451E-01
   27.000   7.299E-01
   27.100   7.151E-01
   27.200   7.008E-01
   27.300   6.869E-01
   27.400   6.735E-01
   27.500   6.606E-01
   27.600   6.482E-01
   27.700   6.362E-01
   27.800   6.246E-01
   27.900   6.135E-01
   28.000   6.029E-01
   28.100   5.926E-01
   28.200   5.827E-01
   28.300   5.732E-01
   28.400   5.639E-01
   28.500   5.550E-01
   28.600   5.464E-01
   28.700   5.380E-01
   28.800   5.299E-01
   28.900   5.219E-01
   29.000   5.141E-01
   29.100   5.064E-01
   29.200   4.989E-01
   29.300   4.914E-01
   29.400   4.841E-01
   29.500   4.768E-01
   29.600   4.696E-01
   29.700   4.625E-01
   29.800   4.555E-01
   29.900   4.486E-01
   30.000   4.417E-01
 
 Z=  18 A=  42 Ar
  U[MeV]  fE1[mb/MeV]
    0.100   1.008E-05
    0.200   4.032E-05
    0.300   9.075E-05
    0.400   1.614E-04
    0.500   2.524E-04
    0.600   3.637E-04
    0.700   4.956E-04
    0.800   6.481E-04
    0.900   8.213E-04
    1.000   1.015E-03
    1.100   1.231E-03
    1.200   1.467E-03
    1.300   1.725E-03
    1.400   2.005E-03
    1.500   2.307E-03
    1.600   2.631E-03
    1.700   2.978E-03
    1.800   3.348E-03
    1.900   3.741E-03
    2.000   4.158E-03
    2.100   4.599E-03
    2.200   5.065E-03
    2.300   5.555E-03
    2.400   6.071E-03
    2.500   6.614E-03
    2.600   7.182E-03
    2.700   7.778E-03
    2.800   8.402E-03
    2.900   9.055E-03
    3.000   9.736E-03
    3.100   1.045E-02
    3.200   1.119E-02
    3.300   1.196E-02
    3.400   1.277E-02
    3.500   1.361E-02
    3.600   1.448E-02
    3.700   1.539E-02
    3.800   1.634E-02
    3.900   1.732E-02
    4.000   1.834E-02
    4.100   1.940E-02
    4.200   2.050E-02
    4.300   2.165E-02
    4.400   2.283E-02
    4.500   2.407E-02
    4.600   2.535E-02
    4.700   2.668E-02
    4.800   2.806E-02
    4.900   2.949E-02
    5.000   3.098E-02
    5.100   3.253E-02
    5.200   3.413E-02
    5.300   3.579E-02
    5.400   3.752E-02
    5.500   3.932E-02
    5.600   4.118E-02
    5.700   4.312E-02
    5.800   4.513E-02
    5.900   4.723E-02
    6.000   4.940E-02
    6.100   5.166E-02
    6.200   5.402E-02
    6.300   5.647E-02
    6.400   5.902E-02
    6.500   6.167E-02
    6.600   6.443E-02
    6.700   6.731E-02
    6.800   7.032E-02
    6.900   7.345E-02
    7.000   7.672E-02
    7.100   8.014E-02
    7.200   8.370E-02
    7.300   8.743E-02
    7.400   9.133E-02
    7.500   9.541E-02
    7.600   9.969E-02
    7.700   1.042E-01
    7.800   1.089E-01
    7.900   1.138E-01
    8.000   1.190E-01
    8.100   1.244E-01
    8.200   1.301E-01
    8.300   1.362E-01
    8.400   1.425E-01
    8.500   1.492E-01
    8.600   1.563E-01
    8.700   1.637E-01
    8.800   1.715E-01
    8.900   1.798E-01
    9.000   1.886E-01
    9.100   1.979E-01
    9.200   2.077E-01
    9.300   2.180E-01
    9.400   2.290E-01
    9.500   2.406E-01
    9.600   2.530E-01
    9.700   2.661E-01
    9.800   2.800E-01
    9.900   2.948E-01
   10.000   3.105E-01
   10.100   3.272E-01
   10.200   3.448E-01
   10.300   3.635E-01
   10.400   3.832E-01
   10.500   4.039E-01
   10.600   4.256E-01
   10.700   4.484E-01
   10.800   4.721E-01
   10.900   4.967E-01
   11.000   5.223E-01
   11.100   5.487E-01
   11.200   5.759E-01
   11.300   6.037E-01
   11.400   6.321E-01
   11.500   6.609E-01
   11.600   6.900E-01
   11.700   7.193E-01
   11.800   7.485E-01
   11.900   7.775E-01
   12.000   8.065E-01
   12.100   8.353E-01
   12.200   8.642E-01
   12.300   8.934E-01
   12.400   9.232E-01
   12.500   9.540E-01
   12.600   9.861E-01
   12.700   1.020E+00
   12.800   1.056E+00
   12.900   1.095E+00
   13.000   1.136E+00
   13.100   1.181E+00
   13.200   1.229E+00
   13.300   1.281E+00
   13.400   1.336E+00
   13.500   1.396E+00
   13.600   1.459E+00
   13.700   1.528E+00
   13.800   1.600E+00
   13.900   1.678E+00
   14.000   1.760E+00
   14.100   1.848E+00
   14.200   1.941E+00
   14.300   2.038E+00
   14.400   2.140E+00
   14.500   2.246E+00
   14.600   2.356E+00
   14.700   2.467E+00
   14.800   2.580E+00
   14.900   2.692E+00
   15.000   2.801E+00
   15.100   2.906E+00
   15.200   3.006E+00
   15.300   3.098E+00
   15.400   3.182E+00
   15.500   3.257E+00
   15.600   3.323E+00
   15.700   3.379E+00
   15.800   3.426E+00
   15.900   3.463E+00
   16.000   3.490E+00
   16.100   3.507E+00
   16.200   3.515E+00
   16.300   3.513E+00
   16.400   3.503E+00
   16.500   3.486E+00
   16.600   3.464E+00
   16.700   3.439E+00
   16.800   3.411E+00
   16.900   3.385E+00
   17.000   3.360E+00
   17.100   3.337E+00
   17.200   3.319E+00
   17.300   3.304E+00
   17.400   3.292E+00
   17.500   3.284E+00
   17.600   3.277E+00
   17.700   3.271E+00
   17.800   3.266E+00
   17.900   3.259E+00
   18.000   3.251E+00
   18.100   3.240E+00
   18.200   3.228E+00
   18.300   3.212E+00
   18.400   3.194E+00
   18.500   3.174E+00
   18.600   3.153E+00
   18.700   3.130E+00
   18.800   3.105E+00
   18.900   3.081E+00
   19.000   3.056E+00
   19.100   3.030E+00
   19.200   3.004E+00
   19.300   2.978E+00
   19.400   2.952E+00
   19.500   2.925E+00
   19.600   2.898E+00
   19.700   2.870E+00
   19.800   2.841E+00
   19.900   2.812E+00
   20.000   2.781E+00
   20.100   2.749E+00
   20.200   2.715E+00
   20.300   2.679E+00
   20.400   2.641E+00
   20.500   2.601E+00
   20.600   2.559E+00
   20.700   2.514E+00
   20.800   2.468E+00
   20.900   2.421E+00
   21.000   2.372E+00
   21.100   2.324E+00
   21.200   2.275E+00
   21.300   2.226E+00
   21.400   2.178E+00
   21.500   2.130E+00
   21.600   2.083E+00
   21.700   2.037E+00
   21.800   1.992E+00
   21.900   1.947E+00
   22.000   1.903E+00
   22.100   1.860E+00
   22.200   1.818E+00
   22.300   1.776E+00
   22.400   1.736E+00
   22.500   1.696E+00
   22.600   1.657E+00
   22.700   1.619E+00
   22.800   1.583E+00
   22.900   1.548E+00
   23.000   1.514E+00
   23.100   1.481E+00
   23.200   1.450E+00
   23.300   1.421E+00
   23.400   1.392E+00
   23.500   1.365E+00
   23.600   1.339E+00
   23.700   1.314E+00
   23.800   1.289E+00
   23.900   1.265E+00
   24.000   1.242E+00
   24.100   1.220E+00
   24.200   1.198E+00
   24.300   1.177E+00
   24.400   1.155E+00
   24.500   1.135E+00
   24.600   1.114E+00
   24.700   1.094E+00
   24.800   1.075E+00
   24.900   1.055E+00
   25.000   1.036E+00
   25.100   1.016E+00
   25.200   9.975E-01
   25.300   9.787E-01
   25.400   9.600E-01
   25.500   9.415E-01
   25.600   9.231E-01
   25.700   9.049E-01
   25.800   8.869E-01
   25.900   8.691E-01
   26.000   8.517E-01
   26.100   8.346E-01
   26.200   8.180E-01
   26.300   8.017E-01
   26.400   7.860E-01
   26.500   7.707E-01
   26.600   7.560E-01
   26.700   7.418E-01
   26.800   7.281E-01
   26.900   7.149E-01
   27.000   7.023E-01
   27.100   6.901E-01
   27.200   6.784E-01
   27.300   6.673E-01
   27.400   6.566E-01
   27.500   6.463E-01
   27.600   6.364E-01
   27.700   6.269E-01
   27.800   6.177E-01
   27.900   6.088E-01
   28.000   6.000E-01
   28.100   5.914E-01
   28.200   5.829E-01
   28.300   5.744E-01
   28.400   5.660E-01
   28.500   5.576E-01
   28.600   5.491E-01
   28.700   5.407E-01
   28.800   5.322E-01
   28.900   5.238E-01
   29.000   5.153E-01
   29.100   5.069E-01
   29.200   4.985E-01
   29.300   4.901E-01
   29.400   4.819E-01
   29.500   4.737E-01
   29.600   4.656E-01
   29.700   4.577E-01
   29.800   4.499E-01
   29.900   4.423E-01
   30.000   4.349E-01
 
 Z=  18 A=  43 Ar
  U[MeV]  fE1[mb/MeV]
    0.100   1.057E-05
    0.200   4.230E-05
    0.300   9.521E-05
    0.400   1.694E-04
    0.500   2.648E-04
    0.600   3.817E-04
    0.700   5.201E-04
    0.800   6.801E-04
    0.900   8.620E-04
    1.000   1.066E-03
    1.100   1.292E-03
    1.200   1.540E-03
    1.300   1.812E-03
    1.400   2.106E-03
    1.500   2.423E-03
    1.600   2.764E-03
    1.700   3.129E-03
    1.800   3.519E-03
    1.900   3.933E-03
    2.000   4.372E-03
    2.100   4.837E-03
    2.200   5.327E-03
    2.300   5.845E-03
    2.400   6.390E-03
    2.500   6.963E-03
    2.600   7.564E-03
    2.700   8.194E-03
    2.800   8.854E-03
    2.900   9.545E-03
    3.000   1.027E-02
    3.100   1.102E-02
    3.200   1.181E-02
    3.300   1.263E-02
    3.400   1.349E-02
    3.500   1.438E-02
    3.600   1.531E-02
    3.700   1.628E-02
    3.800   1.728E-02
    3.900   1.833E-02
    4.000   1.942E-02
    4.100   2.056E-02
    4.200   2.174E-02
    4.300   2.297E-02
    4.400   2.424E-02
    4.500   2.557E-02
    4.600   2.695E-02
    4.700   2.838E-02
    4.800   2.987E-02
    4.900   3.142E-02
    5.000   3.302E-02
    5.100   3.470E-02
    5.200   3.644E-02
    5.300   3.825E-02
    5.400   4.013E-02
    5.500   4.209E-02
    5.600   4.413E-02
    5.700   4.625E-02
    5.800   4.846E-02
    5.900   5.075E-02
    6.000   5.315E-02
    6.100   5.565E-02
    6.200   5.825E-02
    6.300   6.096E-02
    6.400   6.380E-02
    6.500   6.675E-02
    6.600   6.984E-02
    6.700   7.307E-02
    6.800   7.645E-02
    6.900   7.998E-02
    7.000   8.367E-02
    7.100   8.754E-02
    7.200   9.160E-02
    7.300   9.586E-02
    7.400   1.003E-01
    7.500   1.050E-01
    7.600   1.100E-01
    7.700   1.152E-01
    7.800   1.206E-01
    7.900   1.264E-01
    8.000   1.325E-01
    8.100   1.389E-01
    8.200   1.457E-01
    8.300   1.529E-01
    8.400   1.606E-01
    8.500   1.687E-01
    8.600   1.772E-01
    8.700   1.863E-01
    8.800   1.960E-01
    8.900   2.063E-01
    9.000   2.172E-01
    9.100   2.289E-01
    9.200   2.413E-01
    9.300   2.545E-01
    9.400   2.687E-01
    9.500   2.838E-01
    9.600   3.000E-01
    9.700   3.173E-01
    9.800   3.358E-01
    9.900   3.556E-01
   10.000   3.767E-01
   10.100   3.992E-01
   10.200   4.231E-01
   10.300   4.484E-01
   10.400   4.751E-01
   10.500   5.031E-01
   10.600   5.324E-01
   10.700   5.629E-01
   10.800   5.943E-01
   10.900   6.266E-01
   11.000   6.593E-01
   11.100   6.923E-01
   11.200   7.253E-01
   11.300   7.579E-01
   11.400   7.901E-01
   11.500   8.217E-01
   11.600   8.529E-01
   11.700   8.837E-01
   11.800   9.145E-01
   11.900   9.455E-01
   12.000   9.770E-01
   12.100   1.009E+00
   12.200   1.043E+00
   12.300   1.077E+00
   12.400   1.113E+00
   12.500   1.151E+00
   12.600   1.190E+00
   12.700   1.232E+00
   12.800   1.277E+00
   12.900   1.324E+00
   13.000   1.375E+00
   13.100   1.430E+00
   13.200   1.489E+00
   13.300   1.552E+00
   13.400   1.620E+00
   13.500   1.693E+00
   13.600   1.771E+00
   13.700   1.854E+00
   13.800   1.943E+00
   13.900   2.038E+00
   14.000   2.138E+00
   14.100   2.243E+00
   14.200   2.353E+00
   14.300   2.467E+00
   14.400   2.582E+00
   14.500   2.698E+00
   14.600   2.812E+00
   14.700   2.922E+00
   14.800   3.024E+00
   14.900   3.117E+00
   15.000   3.199E+00
   15.100   3.269E+00
   15.200   3.327E+00
   15.300   3.372E+00
   15.400   3.406E+00
   15.500   3.430E+00
   15.600   3.444E+00
   15.700   3.450E+00
   15.800   3.449E+00
   15.900   3.443E+00
   16.000   3.432E+00
   16.100   3.418E+00
   16.200   3.403E+00
   16.300   3.387E+00
   16.400   3.372E+00
   16.500   3.359E+00
   16.600   3.348E+00
   16.700   3.340E+00
   16.800   3.332E+00
   16.900   3.325E+00
   17.000   3.318E+00
   17.100   3.309E+00
   17.200   3.298E+00
   17.300   3.284E+00
   17.400   3.268E+00
   17.500   3.249E+00
   17.600   3.228E+00
   17.700   3.205E+00
   17.800   3.181E+00
   17.900   3.157E+00
   18.000   3.133E+00
   18.100   3.110E+00
   18.200   3.088E+00
   18.300   3.068E+00
   18.400   3.050E+00
   18.500   3.033E+00
   18.600   3.018E+00
   18.700   3.004E+00
   18.800   2.991E+00
   18.900   2.979E+00
   19.000   2.968E+00
   19.100   2.956E+00
   19.200   2.944E+00
   19.300   2.931E+00
   19.400   2.916E+00
   19.500   2.900E+00
   19.600   2.881E+00
   19.700   2.860E+00
   19.800   2.836E+00
   19.900   2.809E+00
   20.000   2.778E+00
   20.100   2.744E+00
   20.200   2.707E+00
   20.300   2.668E+00
   20.400   2.626E+00
   20.500   2.584E+00
   20.600   2.540E+00
   20.700   2.496E+00
   20.800   2.452E+00
   20.900   2.408E+00
   21.000   2.363E+00
   21.100   2.319E+00
   21.200   2.274E+00
   21.300   2.230E+00
   21.400   2.185E+00
   21.500   2.139E+00
   21.600   2.094E+00
   21.700   2.048E+00
   21.800   2.002E+00
   21.900   1.956E+00
   22.000   1.911E+00
   22.100   1.866E+00
   22.200   1.822E+00
   22.300   1.779E+00
   22.400   1.737E+00
   22.500   1.695E+00
   22.600   1.655E+00
   22.700   1.617E+00
   22.800   1.579E+00
   22.900   1.543E+00
   23.000   1.509E+00
   23.100   1.476E+00
   23.200   1.444E+00
   23.300   1.414E+00
   23.400   1.385E+00
   23.500   1.356E+00
   23.600   1.330E+00
   23.700   1.304E+00
   23.800   1.279E+00
   23.900   1.255E+00
   24.000   1.231E+00
   24.100   1.209E+00
   24.200   1.188E+00
   24.300   1.167E+00
   24.400   1.146E+00
   24.500   1.126E+00
   24.600   1.107E+00
   24.700   1.088E+00
   24.800   1.069E+00
   24.900   1.050E+00
   25.000   1.032E+00
   25.100   1.014E+00
   25.200   9.958E-01
   25.300   9.779E-01
   25.400   9.601E-01
   25.500   9.425E-01
   25.600   9.251E-01
   25.700   9.079E-01
   25.800   8.910E-01
   25.900   8.744E-01
   26.000   8.583E-01
   26.100   8.425E-01
   26.200   8.273E-01
   26.300   8.125E-01
   26.400   7.983E-01
   26.500   7.844E-01
   26.600   7.710E-01
   26.700   7.580E-01
   26.800   7.453E-01
   26.900   7.328E-01
   27.000   7.205E-01
   27.100   7.084E-01
   27.200   6.964E-01
   27.300   6.846E-01
   27.400   6.730E-01
   27.500   6.616E-01
   27.600   6.505E-01
   27.700   6.397E-01
   27.800   6.292E-01
   27.900   6.190E-01
   28.000   6.091E-01
   28.100   5.994E-01
   28.200   5.900E-01
   28.300   5.807E-01
   28.400   5.715E-01
   28.500   5.622E-01
   28.600   5.530E-01
   28.700   5.437E-01
   28.800   5.343E-01
   28.900   5.249E-01
   29.000   5.155E-01
   29.100   5.061E-01
   29.200   4.968E-01
   29.300   4.875E-01
   29.400   4.785E-01
   29.500   4.696E-01
   29.600   4.610E-01
   29.700   4.526E-01
   29.800   4.444E-01
   29.900   4.365E-01
   30.000   4.288E-01
 
 Z=  18 A=  44 Ar
  U[MeV]  fE1[mb/MeV]
    0.100   1.030E-05
    0.200   4.119E-05
    0.300   9.272E-05
    0.400   1.649E-04
    0.500   2.579E-04
    0.600   3.717E-04
    0.700   5.065E-04
    0.800   6.623E-04
    0.900   8.394E-04
    1.000   1.038E-03
    1.100   1.258E-03
    1.200   1.500E-03
    1.300   1.764E-03
    1.400   2.051E-03
    1.500   2.360E-03
    1.600   2.692E-03
    1.700   3.047E-03
    1.800   3.426E-03
    1.900   3.829E-03
    2.000   4.257E-03
    2.100   4.710E-03
    2.200   5.188E-03
    2.300   5.692E-03
    2.400   6.222E-03
    2.500   6.780E-03
    2.600   7.365E-03
    2.700   7.979E-03
    2.800   8.621E-03
    2.900   9.294E-03
    3.000   9.996E-03
    3.100   1.073E-02
    3.200   1.150E-02
    3.300   1.230E-02
    3.400   1.313E-02
    3.500   1.400E-02
    3.600   1.490E-02
    3.700   1.585E-02
    3.800   1.683E-02
    3.900   1.785E-02
    4.000   1.891E-02
    4.100   2.001E-02
    4.200   2.116E-02
    4.300   2.235E-02
    4.400   2.360E-02
    4.500   2.488E-02
    4.600   2.623E-02
    4.700   2.762E-02
    4.800   2.907E-02
    4.900   3.057E-02
    5.000   3.214E-02
    5.100   3.376E-02
    5.200   3.545E-02
    5.300   3.721E-02
    5.400   3.904E-02
    5.500   4.094E-02
    5.600   4.292E-02
    5.700   4.498E-02
    5.800   4.712E-02
    5.900   4.935E-02
    6.000   5.167E-02
    6.100   5.409E-02
    6.200   5.662E-02
    6.300   5.925E-02
    6.400   6.199E-02
    6.500   6.485E-02
    6.600   6.784E-02
    6.700   7.096E-02
    6.800   7.422E-02
    6.900   7.763E-02
    7.000   8.120E-02
    7.100   8.493E-02
    7.200   8.884E-02
    7.300   9.294E-02
    7.400   9.725E-02
    7.500   1.018E-01
    7.600   1.065E-01
    7.700   1.115E-01
    7.800   1.167E-01
    7.900   1.223E-01
    8.000   1.281E-01
    8.100   1.343E-01
    8.200   1.408E-01
    8.300   1.477E-01
    8.400   1.549E-01
    8.500   1.627E-01
    8.600   1.709E-01
    8.700   1.796E-01
    8.800   1.888E-01
    8.900   1.986E-01
    9.000   2.091E-01
    9.100   2.203E-01
    9.200   2.322E-01
    9.300   2.449E-01
    9.400   2.585E-01
    9.500   2.731E-01
    9.600   2.887E-01
    9.700   3.054E-01
    9.800   3.233E-01
    9.900   3.425E-01
   10.000   3.631E-01
   10.100   3.852E-01
   10.200   4.088E-01
   10.300   4.341E-01
   10.400   4.609E-01
   10.500   4.894E-01
   10.600   5.195E-01
   10.700   5.511E-01
   10.800   5.840E-01
   10.900   6.181E-01
   11.000   6.532E-01
   11.100   6.890E-01
   11.200   7.251E-01
   11.300   7.614E-01
   11.400   7.975E-01
   11.500   8.334E-01
   11.600   8.690E-01
   11.700   9.044E-01
   11.800   9.400E-01
   11.900   9.762E-01
   12.000   1.013E+00
   12.100   1.052E+00
   12.200   1.091E+00
   12.300   1.133E+00
   12.400   1.176E+00
   12.500   1.221E+00
   12.600   1.266E+00
   12.700   1.313E+00
   12.800   1.361E+00
   12.900   1.410E+00
   13.000   1.459E+00
   13.100   1.509E+00
   13.200   1.561E+00
   13.300   1.616E+00
   13.400   1.672E+00
   13.500   1.732E+00
   13.600   1.795E+00
   13.700   1.862E+00
   13.800   1.933E+00
   13.900   2.009E+00
   14.000   2.090E+00
   14.100   2.175E+00
   14.200   2.267E+00
   14.300   2.363E+00
   14.400   2.466E+00
   14.500   2.573E+00
   14.600   2.683E+00
   14.700   2.796E+00
   14.800   2.910E+00
   14.900   3.020E+00
   15.000   3.125E+00
   15.100   3.222E+00
   15.200   3.307E+00
   15.300   3.380E+00
   15.400   3.439E+00
   15.500   3.484E+00
   15.600   3.516E+00
   15.700   3.537E+00
   15.800   3.550E+00
   15.900   3.556E+00
   16.000   3.557E+00
   16.100   3.556E+00
   16.200   3.554E+00
   16.300   3.551E+00
   16.400   3.550E+00
   16.500   3.551E+00
   16.600   3.555E+00
   16.700   3.563E+00
   16.800   3.572E+00
   16.900   3.584E+00
   17.000   3.597E+00
   17.100   3.609E+00
   17.200   3.618E+00
   17.300   3.625E+00
   17.400   3.627E+00
   17.500   3.623E+00
   17.600   3.614E+00
   17.700   3.600E+00
   17.800   3.580E+00
   17.900   3.555E+00
   18.000   3.527E+00
   18.100   3.495E+00
   18.200   3.461E+00
   18.300   3.426E+00
   18.400   3.389E+00
   18.500   3.352E+00
   18.600   3.314E+00
   18.700   3.277E+00
   18.800   3.240E+00
   18.900   3.204E+00
   19.000   3.169E+00
   19.100   3.135E+00
   19.200   3.101E+00
   19.300   3.069E+00
   19.400   3.038E+00
   19.500   3.007E+00
   19.600   2.978E+00
   19.700   2.949E+00
   19.800   2.920E+00
   19.900   2.891E+00
   20.000   2.862E+00
   20.100   2.832E+00
   20.200   2.799E+00
   20.300   2.765E+00
   20.400   2.729E+00
   20.500   2.690E+00
   20.600   2.649E+00
   20.700   2.606E+00
   20.800   2.562E+00
   20.900   2.516E+00
   21.000   2.469E+00
   21.100   2.422E+00
   21.200   2.374E+00
   21.300   2.326E+00
   21.400   2.277E+00
   21.500   2.228E+00
   21.600   2.178E+00
   21.700   2.128E+00
   21.800   2.078E+00
   21.900   2.027E+00
   22.000   1.975E+00
   22.100   1.924E+00
   22.200   1.873E+00
   22.300   1.823E+00
   22.400   1.774E+00
   22.500   1.727E+00
   22.600   1.681E+00
   22.700   1.637E+00
   22.800   1.595E+00
   22.900   1.555E+00
   23.000   1.517E+00
   23.100   1.481E+00
   23.200   1.447E+00
   23.300   1.416E+00
   23.400   1.386E+00
   23.500   1.357E+00
   23.600   1.331E+00
   23.700   1.305E+00
   23.800   1.280E+00
   23.900   1.256E+00
   24.000   1.233E+00
   24.100   1.210E+00
   24.200   1.187E+00
   24.300   1.165E+00
   24.400   1.143E+00
   24.500   1.121E+00
   24.600   1.100E+00
   24.700   1.079E+00
   24.800   1.058E+00
   24.900   1.037E+00
   25.000   1.017E+00
   25.100   9.969E-01
   25.200   9.774E-01
   25.300   9.583E-01
   25.400   9.396E-01
   25.500   9.214E-01
   25.600   9.035E-01
   25.700   8.861E-01
   25.800   8.691E-01
   25.900   8.524E-01
   26.000   8.361E-01
   26.100   8.202E-01
   26.200   8.047E-01
   26.300   7.896E-01
   26.400   7.750E-01
   26.500   7.607E-01
   26.600   7.468E-01
   26.700   7.333E-01
   26.800   7.201E-01
   26.900   7.072E-01
   27.000   6.945E-01
   27.100   6.819E-01
   27.200   6.696E-01
   27.300   6.574E-01
   27.400   6.454E-01
   27.500   6.337E-01
   27.600   6.223E-01
   27.700   6.113E-01
   27.800   6.008E-01
   27.900   5.909E-01
   28.000   5.815E-01
   28.100   5.728E-01
   28.200   5.646E-01
   28.300   5.570E-01
   28.400   5.498E-01
   28.500   5.429E-01
   28.600   5.363E-01
   28.700   5.298E-01
   28.800   5.232E-01
   28.900   5.165E-01
   29.000   5.095E-01
   29.100   5.022E-01
   29.200   4.946E-01
   29.300   4.867E-01
   29.400   4.786E-01
   29.500   4.703E-01
   29.600   4.620E-01
   29.700   4.538E-01
   29.800   4.456E-01
   29.900   4.376E-01
   30.000   4.298E-01
 
 Z=  18 A=  45 Ar
  U[MeV]  fE1[mb/MeV]
    0.100   1.289E-05
    0.200   5.156E-05
    0.300   1.161E-04
    0.400   2.065E-04
    0.500   3.229E-04
    0.600   4.655E-04
    0.700   6.343E-04
    0.800   8.297E-04
    0.900   1.052E-03
    1.000   1.301E-03
    1.100   1.577E-03
    1.200   1.881E-03
    1.300   2.214E-03
    1.400   2.574E-03
    1.500   2.963E-03
    1.600   3.382E-03
    1.700   3.830E-03
    1.800   4.309E-03
    1.900   4.819E-03
    2.000   5.360E-03
    2.100   5.933E-03
    2.200   6.540E-03
    2.300   7.180E-03
    2.400   7.855E-03
    2.500   8.566E-03
    2.600   9.312E-03
    2.700   1.010E-02
    2.800   1.092E-02
    2.900   1.178E-02
    3.000   1.269E-02
    3.100   1.363E-02
    3.200   1.462E-02
    3.300   1.565E-02
    3.400   1.673E-02
    3.500   1.786E-02
    3.600   1.904E-02
    3.700   2.027E-02
    3.800   2.155E-02
    3.900   2.289E-02
    4.000   2.429E-02
    4.100   2.574E-02
    4.200   2.726E-02
    4.300   2.884E-02
    4.400   3.049E-02
    4.500   3.222E-02
    4.600   3.401E-02
    4.700   3.588E-02
    4.800   3.784E-02
    4.900   3.988E-02
    5.000   4.200E-02
    5.100   4.422E-02
    5.200   4.654E-02
    5.300   4.896E-02
    5.400   5.148E-02
    5.500   5.412E-02
    5.600   5.688E-02
    5.700   5.977E-02
    5.800   6.279E-02
    5.900   6.595E-02
    6.000   6.925E-02
    6.100   7.272E-02
    6.200   7.635E-02
    6.300   8.016E-02
    6.400   8.415E-02
    6.500   8.835E-02
    6.600   9.276E-02
    6.700   9.739E-02
    6.800   1.023E-01
    6.900   1.074E-01
    7.000   1.128E-01
    7.100   1.185E-01
    7.200   1.245E-01
    7.300   1.309E-01
    7.400   1.376E-01
    7.500   1.447E-01
    7.600   1.523E-01
    7.700   1.602E-01
    7.800   1.687E-01
    7.900   1.777E-01
    8.000   1.872E-01
    8.100   1.974E-01
    8.200   2.081E-01
    8.300   2.196E-01
    8.400   2.318E-01
    8.500   2.448E-01
    8.600   2.587E-01
    8.700   2.734E-01
    8.800   2.890E-01
    8.900   3.056E-01
    9.000   3.233E-01
    9.100   3.419E-01
    9.200   3.616E-01
    9.300   3.823E-01
    9.400   4.040E-01
    9.500   4.267E-01
    9.600   4.503E-01
    9.700   4.747E-01
    9.800   4.999E-01
    9.900   5.257E-01
   10.000   5.521E-01
   10.100   5.790E-01
   10.200   6.063E-01
   10.300   6.340E-01
   10.400   6.621E-01
   10.500   6.906E-01
   10.600   7.196E-01
   10.700   7.490E-01
   10.800   7.791E-01
   10.900   8.098E-01
   11.000   8.413E-01
   11.100   8.737E-01
   11.200   9.072E-01
   11.300   9.419E-01
   11.400   9.780E-01
   11.500   1.016E+00
   11.600   1.055E+00
   11.700   1.096E+00
   11.800   1.139E+00
   11.900   1.185E+00
   12.000   1.232E+00
   12.100   1.281E+00
   12.200   1.333E+00
   12.300   1.386E+00
   12.400   1.441E+00
   12.500   1.498E+00
   12.600   1.555E+00
   12.700   1.614E+00
   12.800   1.673E+00
   12.900   1.732E+00
   13.000   1.790E+00
   13.100   1.848E+00
   13.200   1.905E+00
   13.300   1.961E+00
   13.400   2.016E+00
   13.500   2.070E+00
   13.600   2.124E+00
   13.700   2.176E+00
   13.800   2.227E+00
   13.900   2.277E+00
   14.000   2.327E+00
   14.100   2.375E+00
   14.200   2.422E+00
   14.300   2.467E+00
   14.400   2.511E+00
   14.500   2.553E+00
   14.600   2.595E+00
   14.700   2.635E+00
   14.800   2.675E+00
   14.900   2.714E+00
   15.000   2.754E+00
   15.100   2.794E+00
   15.200   2.835E+00
   15.300   2.878E+00
   15.400   2.921E+00
   15.500   2.967E+00
   15.600   3.013E+00
   15.700   3.061E+00
   15.800   3.109E+00
   15.900   3.159E+00
   16.000   3.210E+00
   16.100   3.262E+00
   16.200   3.315E+00
   16.300   3.369E+00
   16.400   3.423E+00
   16.500   3.476E+00
   16.600   3.530E+00
   16.700   3.581E+00
   16.800   3.630E+00
   16.900   3.675E+00
   17.000   3.714E+00
   17.100   3.745E+00
   17.200   3.768E+00
   17.300   3.782E+00
   17.400   3.784E+00
   17.500   3.776E+00
   17.600   3.756E+00
   17.700   3.726E+00
   17.800   3.687E+00
   17.900   3.641E+00
   18.000   3.588E+00
   18.100   3.532E+00
   18.200   3.473E+00
   18.300   3.413E+00
   18.400   3.355E+00
   18.500   3.298E+00
   18.600   3.244E+00
   18.700   3.195E+00
   18.800   3.149E+00
   18.900   3.109E+00
   19.000   3.073E+00
   19.100   3.042E+00
   19.200   3.016E+00
   19.300   2.994E+00
   19.400   2.977E+00
   19.500   2.963E+00
   19.600   2.954E+00
   19.700   2.948E+00
   19.800   2.944E+00
   19.900   2.944E+00
   20.000   2.945E+00
   20.100   2.948E+00
   20.200   2.950E+00
   20.300   2.951E+00
   20.400   2.950E+00
   20.500   2.945E+00
   20.600   2.936E+00
   20.700   2.920E+00
   20.800   2.897E+00
   20.900   2.866E+00
   21.000   2.828E+00
   21.100   2.783E+00
   21.200   2.731E+00
   21.300   2.672E+00
   21.400   2.609E+00
   21.500   2.542E+00
   21.600   2.472E+00
   21.700   2.400E+00
   21.800   2.328E+00
   21.900   2.255E+00
   22.000   2.183E+00
   22.100   2.112E+00
   22.200   2.043E+00
   22.300   1.976E+00
   22.400   1.911E+00
   22.500   1.849E+00
   22.600   1.790E+00
   22.700   1.734E+00
   22.800   1.681E+00
   22.900   1.632E+00
   23.000   1.586E+00
   23.100   1.543E+00
   23.200   1.503E+00
   23.300   1.467E+00
   23.400   1.433E+00
   23.500   1.401E+00
   23.600   1.372E+00
   23.700   1.344E+00
   23.800   1.318E+00
   23.900   1.293E+00
   24.000   1.269E+00
   24.100   1.245E+00
   24.200   1.222E+00
   24.300   1.199E+00
   24.400   1.175E+00
   24.500   1.152E+00
   24.600   1.128E+00
   24.700   1.104E+00
   24.800   1.080E+00
   24.900   1.056E+00
   25.000   1.032E+00
   25.100   1.009E+00
   25.200   9.863E-01
   25.300   9.645E-01
   25.400   9.434E-01
   25.500   9.232E-01
   25.600   9.038E-01
   25.700   8.852E-01
   25.800   8.673E-01
   25.900   8.499E-01
   26.000   8.329E-01
   26.100   8.164E-01
   26.200   8.000E-01
   26.300   7.839E-01
   26.400   7.680E-01
   26.500   7.522E-01
   26.600   7.366E-01
   26.700   7.212E-01
   26.800   7.060E-01
   26.900   6.912E-01
   27.000   6.767E-01
   27.100   6.626E-01
   27.200   6.491E-01
   27.300   6.361E-01
   27.400   6.237E-01
   27.500   6.120E-01
   27.600   6.011E-01
   27.700   5.908E-01
   27.800   5.813E-01
   27.900   5.724E-01
   28.000   5.642E-01
   28.100   5.565E-01
   28.200   5.494E-01
   28.300   5.426E-01
   28.400   5.361E-01
   28.500   5.298E-01
   28.600   5.236E-01
   28.700   5.173E-01
   28.800   5.109E-01
   28.900   5.043E-01
   29.000   4.974E-01
   29.100   4.902E-01
   29.200   4.828E-01
   29.300   4.752E-01
   29.400   4.673E-01
   29.500   4.593E-01
   29.600   4.512E-01
   29.700   4.431E-01
   29.800   4.350E-01
   29.900   4.270E-01
   30.000   4.191E-01
 
 Z=  18 A=  46 Ar
  U[MeV]  fE1[mb/MeV]
    0.100   1.256E-05
    0.200   5.025E-05
    0.300   1.131E-04
    0.400   2.013E-04
    0.500   3.147E-04
    0.600   4.537E-04
    0.700   6.184E-04
    0.800   8.090E-04
    0.900   1.026E-03
    1.000   1.269E-03
    1.100   1.538E-03
    1.200   1.835E-03
    1.300   2.159E-03
    1.400   2.511E-03
    1.500   2.891E-03
    1.600   3.300E-03
    1.700   3.739E-03
    1.800   4.207E-03
    1.900   4.705E-03
    2.000   5.235E-03
    2.100   5.797E-03
    2.200   6.391E-03
    2.300   7.018E-03
    2.400   7.680E-03
    2.500   8.377E-03
    2.600   9.110E-03
    2.700   9.881E-03
    2.800   1.069E-02
    2.900   1.154E-02
    3.000   1.243E-02
    3.100   1.336E-02
    3.200   1.433E-02
    3.300   1.535E-02
    3.400   1.642E-02
    3.500   1.754E-02
    3.600   1.870E-02
    3.700   1.992E-02
    3.800   2.119E-02
    3.900   2.252E-02
    4.000   2.391E-02
    4.100   2.536E-02
    4.200   2.688E-02
    4.300   2.846E-02
    4.400   3.011E-02
    4.500   3.184E-02
    4.600   3.364E-02
    4.700   3.552E-02
    4.800   3.749E-02
    4.900   3.955E-02
    5.000   4.170E-02
    5.100   4.396E-02
    5.200   4.631E-02
    5.300   4.878E-02
    5.400   5.137E-02
    5.500   5.408E-02
    5.600   5.692E-02
    5.700   5.990E-02
    5.800   6.304E-02
    5.900   6.633E-02
    6.000   6.979E-02
    6.100   7.343E-02
    6.200   7.726E-02
    6.300   8.131E-02
    6.400   8.557E-02
    6.500   9.008E-02
    6.600   9.485E-02
    6.700   9.989E-02
    6.800   1.052E-01
    6.900   1.109E-01
    7.000   1.170E-01
    7.100   1.234E-01
    7.200   1.302E-01
    7.300   1.375E-01
    7.400   1.454E-01
    7.500   1.537E-01
    7.600   1.627E-01
    7.700   1.724E-01
    7.800   1.828E-01
    7.900   1.940E-01
    8.000   2.061E-01
    8.100   2.192E-01
    8.200   2.334E-01
    8.300   2.488E-01
    8.400   2.655E-01
    8.500   2.836E-01
    8.600   3.031E-01
    8.700   3.242E-01
    8.800   3.469E-01
    8.900   3.711E-01
    9.000   3.967E-01
    9.100   4.237E-01
    9.200   4.516E-01
    9.300   4.802E-01
    9.400   5.092E-01
    9.500   5.381E-01
    9.600   5.667E-01
    9.700   5.948E-01
    9.800   6.223E-01
    9.900   6.494E-01
   10.000   6.763E-01
   10.100   7.031E-01
   10.200   7.302E-01
   10.300   7.576E-01
   10.400   7.855E-01
   10.500   8.139E-01
   10.600   8.429E-01
   10.700   8.723E-01
   10.800   9.022E-01
   10.900   9.327E-01
   11.000   9.637E-01
   11.100   9.958E-01
   11.200   1.029E+00
   11.300   1.065E+00
   11.400   1.103E+00
   11.500   1.145E+00
   11.600   1.191E+00
   11.700   1.243E+00
   11.800   1.300E+00
   11.900   1.363E+00
   12.000   1.432E+00
   12.100   1.508E+00
   12.200   1.589E+00
   12.300   1.676E+00
   12.400   1.768E+00
   12.500   1.862E+00
   12.600   1.958E+00
   12.700   2.053E+00
   12.800   2.147E+00
   12.900   2.237E+00
   13.000   2.324E+00
   13.100   2.407E+00
   13.200   2.486E+00
   13.300   2.563E+00
   13.400   2.639E+00
   13.500   2.713E+00
   13.600   2.785E+00
   13.700   2.855E+00
   13.800   2.921E+00
   13.900   2.981E+00
   14.000   3.033E+00
   14.100   3.075E+00
   14.200   3.107E+00
   14.300   3.128E+00
   14.400   3.137E+00
   14.500   3.137E+00
   14.600   3.129E+00
   14.700   3.117E+00
   14.800   3.103E+00
   14.900   3.090E+00
   15.000   3.082E+00
   15.100   3.081E+00
   15.200   3.088E+00
   15.300   3.104E+00
   15.400   3.130E+00
   15.500   3.165E+00
   15.600   3.209E+00
   15.700   3.262E+00
   15.800   3.323E+00
   15.900   3.391E+00
   16.000   3.467E+00
   16.100   3.547E+00
   16.200   3.632E+00
   16.300   3.718E+00
   16.400   3.802E+00
   16.500   3.880E+00
   16.600   3.948E+00
   16.700   4.001E+00
   16.800   4.038E+00
   16.900   4.055E+00
   17.000   4.052E+00
   17.100   4.029E+00
   17.200   3.989E+00
   17.300   3.934E+00
   17.400   3.868E+00
   17.500   3.793E+00
   17.600   3.713E+00
   17.700   3.631E+00
   17.800   3.546E+00
   17.900   3.463E+00
   18.000   3.380E+00
   18.100   3.300E+00
   18.200   3.222E+00
   18.300   3.149E+00
   18.400   3.079E+00
   18.500   3.015E+00
   18.600   2.956E+00
   18.700   2.903E+00
   18.800   2.856E+00
   18.900   2.815E+00
   19.000   2.779E+00
   19.100   2.748E+00
   19.200   2.721E+00
   19.300   2.698E+00
   19.400   2.678E+00
   19.500   2.661E+00
   19.600   2.645E+00
   19.700   2.630E+00
   19.800   2.615E+00
   19.900   2.601E+00
   20.000   2.587E+00
   20.100   2.573E+00
   20.200   2.560E+00
   20.300   2.548E+00
   20.400   2.537E+00
   20.500   2.526E+00
   20.600   2.515E+00
   20.700   2.503E+00
   20.800   2.490E+00
   20.900   2.474E+00
   21.000   2.455E+00
   21.100   2.432E+00
   21.200   2.403E+00
   21.300   2.370E+00
   21.400   2.331E+00
   21.500   2.287E+00
   21.600   2.238E+00
   21.700   2.185E+00
   21.800   2.129E+00
   21.900   2.072E+00
   22.000   2.013E+00
   22.100   1.953E+00
   22.200   1.895E+00
   22.300   1.837E+00
   22.400   1.781E+00
   22.500   1.727E+00
   22.600   1.675E+00
   22.700   1.625E+00
   22.800   1.578E+00
   22.900   1.532E+00
   23.000   1.490E+00
   23.100   1.449E+00
   23.200   1.411E+00
   23.300   1.376E+00
   23.400   1.342E+00
   23.500   1.310E+00
   23.600   1.280E+00
   23.700   1.251E+00
   23.800   1.224E+00
   23.900   1.198E+00
   24.000   1.174E+00
   24.100   1.151E+00
   24.200   1.128E+00
   24.300   1.107E+00
   24.400   1.086E+00
   24.500   1.066E+00
   24.600   1.046E+00
   24.700   1.027E+00
   24.800   1.009E+00
   24.900   9.902E-01
   25.000   9.722E-01
   25.100   9.546E-01
   25.200   9.374E-01
   25.300   9.206E-01
   25.400   9.043E-01
   25.500   8.886E-01
   25.600   8.733E-01
   25.700   8.586E-01
   25.800   8.444E-01
   25.900   8.306E-01
   26.000   8.171E-01
   26.100   8.040E-01
   26.200   7.912E-01
   26.300   7.786E-01
   26.400   7.664E-01
   26.500   7.546E-01
   26.600   7.431E-01
   26.700   7.320E-01
   26.800   7.214E-01
   26.900   7.112E-01
   27.000   7.015E-01
   27.100   6.921E-01
   27.200   6.831E-01
   27.300   6.742E-01
   27.400   6.654E-01
   27.500   6.566E-01
   27.600   6.475E-01
   27.700   6.380E-01
   27.800   6.282E-01
   27.900   6.179E-01
   28.000   6.073E-01
   28.100   5.964E-01
   28.200   5.853E-01
   28.300   5.741E-01
   28.400   5.630E-01
   28.500   5.521E-01
   28.600   5.413E-01
   28.700   5.308E-01
   28.800   5.204E-01
   28.900   5.102E-01
   29.000   5.001E-01
   29.100   4.901E-01
   29.200   4.802E-01
   29.300   4.702E-01
   29.400   4.603E-01
   29.500   4.505E-01
   29.600   4.409E-01
   29.700   4.315E-01
   29.800   4.223E-01
   29.900   4.134E-01
   30.000   4.049E-01
 
 Z=  18 A=  47 Ar
  U[MeV]  fE1[mb/MeV]
    0.100   1.584E-05
    0.200   6.337E-05
    0.300   1.427E-04
    0.400   2.538E-04
    0.500   3.970E-04
    0.600   5.725E-04
    0.700   7.804E-04
    0.800   1.021E-03
    0.900   1.295E-03
    1.000   1.602E-03
    1.100   1.944E-03
    1.200   2.319E-03
    1.300   2.730E-03
    1.400   3.177E-03
    1.500   3.659E-03
    1.600   4.179E-03
    1.700   4.737E-03
    1.800   5.333E-03
    1.900   5.969E-03
    2.000   6.645E-03
    2.100   7.363E-03
    2.200   8.124E-03
    2.300   8.929E-03
    2.400   9.779E-03
    2.500   1.068E-02
    2.600   1.162E-02
    2.700   1.262E-02
    2.800   1.366E-02
    2.900   1.476E-02
    3.000   1.592E-02
    3.100   1.713E-02
    3.200   1.841E-02
    3.300   1.974E-02
    3.400   2.114E-02
    3.500   2.261E-02
    3.600   2.415E-02
    3.700   2.576E-02
    3.800   2.745E-02
    3.900   2.922E-02
    4.000   3.108E-02
    4.100   3.302E-02
    4.200   3.506E-02
    4.300   3.720E-02
    4.400   3.944E-02
    4.500   4.180E-02
    4.600   4.426E-02
    4.700   4.686E-02
    4.800   4.958E-02
    4.900   5.244E-02
    5.000   5.544E-02
    5.100   5.860E-02
    5.200   6.193E-02
    5.300   6.544E-02
    5.400   6.913E-02
    5.500   7.303E-02
    5.600   7.715E-02
    5.700   8.149E-02
    5.800   8.610E-02
    5.900   9.097E-02
    6.000   9.613E-02
    6.100   1.016E-01
    6.200   1.074E-01
    6.300   1.136E-01
    6.400   1.202E-01
    6.500   1.273E-01
    6.600   1.348E-01
    6.700   1.429E-01
    6.800   1.515E-01
    6.900   1.608E-01
    7.000   1.707E-01
    7.100   1.815E-01
    7.200   1.931E-01
    7.300   2.056E-01
    7.400   2.192E-01
    7.500   2.340E-01
    7.600   2.500E-01
    7.700   2.674E-01
    7.800   2.864E-01
    7.900   3.070E-01
    8.000   3.295E-01
    8.100   3.539E-01
    8.200   3.803E-01
    8.300   4.089E-01
    8.400   4.395E-01
    8.500   4.721E-01
    8.600   5.065E-01
    8.700   5.423E-01
    8.800   5.790E-01
    8.900   6.160E-01
    9.000   6.525E-01
    9.100   6.878E-01
    9.200   7.215E-01
    9.300   7.530E-01
    9.400   7.823E-01
    9.500   8.094E-01
    9.600   8.345E-01
    9.700   8.580E-01
    9.800   8.803E-01
    9.900   9.018E-01
   10.000   9.231E-01
   10.100   9.447E-01
   10.200   9.670E-01
   10.300   9.906E-01
   10.400   1.016E+00
   10.500   1.043E+00
   10.600   1.071E+00
   10.700   1.101E+00
   10.800   1.133E+00
   10.900   1.165E+00
   11.000   1.198E+00
   11.100   1.232E+00
   11.200   1.267E+00
   11.300   1.303E+00
   11.400   1.340E+00
   11.500   1.380E+00
   11.600   1.423E+00
   11.700   1.471E+00
   11.800   1.522E+00
   11.900   1.579E+00
   12.000   1.642E+00
   12.100   1.710E+00
   12.200   1.785E+00
   12.300   1.865E+00
   12.400   1.950E+00
   12.500   2.038E+00
   12.600   2.130E+00
   12.700   2.223E+00
   12.800   2.316E+00
   12.900   2.406E+00
   13.000   2.493E+00
   13.100   2.577E+00
   13.200   2.657E+00
   13.300   2.735E+00
   13.400   2.809E+00
   13.500   2.883E+00
   13.600   2.955E+00
   13.700   3.025E+00
   13.800   3.092E+00
   13.900   3.154E+00
   14.000   3.211E+00
   14.100   3.258E+00
   14.200   3.296E+00
   14.300   3.322E+00
   14.400   3.337E+00
   14.500   3.341E+00
   14.600   3.336E+00
   14.700   3.324E+00
   14.800   3.307E+00
   14.900   3.290E+00
   15.000   3.274E+00
   15.100   3.263E+00
   15.200   3.259E+00
   15.300   3.262E+00
   15.400   3.274E+00
   15.500   3.295E+00
   15.600   3.324E+00
   15.700   3.360E+00
   15.800   3.403E+00
   15.900   3.453E+00
   16.000   3.507E+00
   16.100   3.567E+00
   16.200   3.630E+00
   16.300   3.697E+00
   16.400   3.766E+00
   16.500   3.836E+00
   16.600   3.904E+00
   16.700   3.969E+00
   16.800   4.026E+00
   16.900   4.073E+00
   17.000   4.106E+00
   17.100   4.121E+00
   17.200   4.118E+00
   17.300   4.095E+00
   17.400   4.054E+00
   17.500   3.996E+00
   17.600   3.923E+00
   17.700   3.841E+00
   17.800   3.751E+00
   17.900   3.657E+00
   18.000   3.562E+00
   18.100   3.467E+00
   18.200   3.374E+00
   18.300   3.285E+00
   18.400   3.200E+00
   18.500   3.121E+00
   18.600   3.048E+00
   18.700   2.982E+00
   18.800   2.922E+00
   18.900   2.870E+00
   19.000   2.824E+00
   19.100   2.784E+00
   19.200   2.750E+00
   19.300   2.721E+00
   19.400   2.695E+00
   19.500   2.673E+00
   19.600   2.654E+00
   19.700   2.636E+00
   19.800   2.619E+00
   19.900   2.603E+00
   20.000   2.587E+00
   20.100   2.571E+00
   20.200   2.555E+00
   20.300   2.540E+00
   20.400   2.524E+00
   20.500   2.508E+00
   20.600   2.491E+00
   20.700   2.474E+00
   20.800   2.456E+00
   20.900   2.436E+00
   21.000   2.414E+00
   21.100   2.389E+00
   21.200   2.360E+00
   21.300   2.327E+00
   21.400   2.290E+00
   21.500   2.249E+00
   21.600   2.204E+00
   21.700   2.155E+00
   21.800   2.103E+00
   21.900   2.049E+00
   22.000   1.992E+00
   22.100   1.935E+00
   22.200   1.877E+00
   22.300   1.820E+00
   22.400   1.764E+00
   22.500   1.709E+00
   22.600   1.655E+00
   22.700   1.605E+00
   22.800   1.556E+00
   22.900   1.510E+00
   23.000   1.467E+00
   23.100   1.427E+00
   23.200   1.389E+00
   23.300   1.353E+00
   23.400   1.320E+00
   23.500   1.289E+00
   23.600   1.260E+00
   23.700   1.232E+00
   23.800   1.206E+00
   23.900   1.180E+00
   24.000   1.156E+00
   24.100   1.132E+00
   24.200   1.110E+00
   24.300   1.088E+00
   24.400   1.066E+00
   24.500   1.045E+00
   24.600   1.025E+00
   24.700   1.005E+00
   24.800   9.854E-01
   24.900   9.667E-01
   25.000   9.486E-01
   25.100   9.312E-01
   25.200   9.145E-01
   25.300   8.985E-01
   25.400   8.833E-01
   25.500   8.688E-01
   25.600   8.550E-01
   25.700   8.419E-01
   25.800   8.294E-01
   25.900   8.174E-01
   26.000   8.059E-01
   26.100   7.948E-01
   26.200   7.840E-01
   26.300   7.733E-01
   26.400   7.629E-01
   26.500   7.525E-01
   26.600   7.423E-01
   26.700   7.321E-01
   26.800   7.219E-01
   26.900   7.117E-01
   27.000   7.015E-01
   27.100   6.912E-01
   27.200   6.808E-01
   27.300   6.703E-01
   27.400   6.598E-01
   27.500   6.493E-01
   27.600   6.389E-01
   27.700   6.286E-01
   27.800   6.183E-01
   27.900   6.080E-01
   28.000   5.978E-01
   28.100   5.876E-01
   28.200   5.773E-01
   28.300   5.670E-01
   28.400   5.568E-01
   28.500   5.467E-01
   28.600   5.367E-01
   28.700   5.270E-01
   28.800   5.175E-01
   28.900   5.082E-01
   29.000   4.992E-01
   29.100   4.904E-01
   29.200   4.818E-01
   29.300   4.732E-01
   29.400   4.647E-01
   29.500   4.563E-01
   29.600   4.478E-01
   29.700   4.395E-01
   29.800   4.313E-01
   29.900   4.232E-01
   30.000   4.153E-01
 
 Z=  18 A=  48 Ar
  U[MeV]  fE1[mb/MeV]
    0.100   2.224E-05
    0.200   8.899E-05
    0.300   2.004E-04
    0.400   3.567E-04
    0.500   5.581E-04
    0.600   8.051E-04
    0.700   1.098E-03
    0.800   1.438E-03
    0.900   1.825E-03
    1.000   2.260E-03
    1.100   2.744E-03
    1.200   3.278E-03
    1.300   3.863E-03
    1.400   4.501E-03
    1.500   5.192E-03
    1.600   5.938E-03
    1.700   6.740E-03
    1.800   7.602E-03
    1.900   8.523E-03
    2.000   9.507E-03
    2.100   1.056E-02
    2.200   1.167E-02
    2.300   1.286E-02
    2.400   1.412E-02
    2.500   1.545E-02
    2.600   1.686E-02
    2.700   1.836E-02
    2.800   1.994E-02
    2.900   2.162E-02
    3.000   2.339E-02
    3.100   2.526E-02
    3.200   2.723E-02
    3.300   2.932E-02
    3.400   3.153E-02
    3.500   3.386E-02
    3.600   3.633E-02
    3.700   3.893E-02
    3.800   4.169E-02
    3.900   4.461E-02
    4.000   4.770E-02
    4.100   5.097E-02
    4.200   5.444E-02
    4.300   5.813E-02
    4.400   6.203E-02
    4.500   6.619E-02
    4.600   7.061E-02
    4.700   7.531E-02
    4.800   8.032E-02
    4.900   8.568E-02
    5.000   9.139E-02
    5.100   9.751E-02
    5.200   1.041E-01
    5.300   1.111E-01
    5.400   1.187E-01
    5.500   1.268E-01
    5.600   1.356E-01
    5.700   1.451E-01
    5.800   1.553E-01
    5.900   1.665E-01
    6.000   1.785E-01
    6.100   1.917E-01
    6.200   2.061E-01
    6.300   2.218E-01
    6.400   2.389E-01
    6.500   2.577E-01
    6.600   2.784E-01
    6.700   3.010E-01
    6.800   3.259E-01
    6.900   3.532E-01
    7.000   3.830E-01
    7.100   4.156E-01
    7.200   4.509E-01
    7.300   4.890E-01
    7.400   5.295E-01
    7.500   5.723E-01
    7.600   6.167E-01
    7.700   6.618E-01
    7.800   7.068E-01
    7.900   7.505E-01
    8.000   7.921E-01
    8.100   8.307E-01
    8.200   8.656E-01
    8.300   8.966E-01
    8.400   9.235E-01
    8.500   9.461E-01
    8.600   9.647E-01
    8.700   9.796E-01
    8.800   9.911E-01
    8.900   9.999E-01
    9.000   1.007E+00
    9.100   1.013E+00
    9.200   1.019E+00
    9.300   1.025E+00
    9.400   1.033E+00
    9.500   1.043E+00
    9.600   1.054E+00
    9.700   1.068E+00
    9.800   1.084E+00
    9.900   1.102E+00
   10.000   1.122E+00
   10.100   1.144E+00
   10.200   1.167E+00
   10.300   1.191E+00
   10.400   1.216E+00
   10.500   1.241E+00
   10.600   1.267E+00
   10.700   1.291E+00
   10.800   1.315E+00
   10.900   1.339E+00
   11.000   1.361E+00
   11.100   1.384E+00
   11.200   1.407E+00
   11.300   1.431E+00
   11.400   1.457E+00
   11.500   1.488E+00
   11.600   1.522E+00
   11.700   1.562E+00
   11.800   1.609E+00
   11.900   1.661E+00
   12.000   1.721E+00
   12.100   1.787E+00
   12.200   1.860E+00
   12.300   1.938E+00
   12.400   2.021E+00
   12.500   2.109E+00
   12.600   2.199E+00
   12.700   2.289E+00
   12.800   2.379E+00
   12.900   2.466E+00
   13.000   2.549E+00
   13.100   2.628E+00
   13.200   2.703E+00
   13.300   2.775E+00
   13.400   2.844E+00
   13.500   2.913E+00
   13.600   2.982E+00
   13.700   3.051E+00
   13.800   3.122E+00
   13.900   3.193E+00
   14.000   3.265E+00
   14.100   3.337E+00
   14.200   3.406E+00
   14.300   3.472E+00
   14.400   3.533E+00
   14.500   3.585E+00
   14.600   3.627E+00
   14.700   3.658E+00
   14.800   3.677E+00
   14.900   3.684E+00
   15.000   3.682E+00
   15.100   3.673E+00
   15.200   3.659E+00
   15.300   3.644E+00
   15.400   3.630E+00
   15.500   3.620E+00
   15.600   3.614E+00
   15.700   3.615E+00
   15.800   3.622E+00
   15.900   3.636E+00
   16.000   3.657E+00
   16.100   3.685E+00
   16.200   3.717E+00
   16.300   3.753E+00
   16.400   3.792E+00
   16.500   3.830E+00
   16.600   3.866E+00
   16.700   3.897E+00
   16.800   3.921E+00
   16.900   3.936E+00
   17.000   3.938E+00
   17.100   3.928E+00
   17.200   3.906E+00
   17.300   3.871E+00
   17.400   3.826E+00
   17.500   3.774E+00
   17.600   3.717E+00
   17.700   3.658E+00
   17.800   3.598E+00
   17.900   3.539E+00
   18.000   3.481E+00
   18.100   3.425E+00
   18.200   3.370E+00
   18.300   3.318E+00
   18.400   3.266E+00
   18.500   3.216E+00
   18.600   3.166E+00
   18.700   3.118E+00
   18.800   3.070E+00
   18.900   3.024E+00
   19.000   2.979E+00
   19.100   2.936E+00
   19.200   2.895E+00
   19.300   2.856E+00
   19.400   2.819E+00
   19.500   2.784E+00
   19.600   2.750E+00
   19.700   2.716E+00
   19.800   2.684E+00
   19.900   2.652E+00
   20.000   2.621E+00
   20.100   2.589E+00
   20.200   2.558E+00
   20.300   2.526E+00
   20.400   2.495E+00
   20.500   2.462E+00
   20.600   2.430E+00
   20.700   2.397E+00
   20.800   2.363E+00
   20.900   2.328E+00
   21.000   2.291E+00
   21.100   2.254E+00
   21.200   2.214E+00
   21.300   2.171E+00
   21.400   2.127E+00
   21.500   2.079E+00
   21.600   2.030E+00
   21.700   1.978E+00
   21.800   1.925E+00
   21.900   1.870E+00
   22.000   1.816E+00
   22.100   1.762E+00
   22.200   1.710E+00
   22.300   1.660E+00
   22.400   1.613E+00
   22.500   1.568E+00
   22.600   1.525E+00
   22.700   1.486E+00
   22.800   1.449E+00
   22.900   1.414E+00
   23.000   1.382E+00
   23.100   1.352E+00
   23.200   1.324E+00
   23.300   1.297E+00
   23.400   1.272E+00
   23.500   1.248E+00
   23.600   1.225E+00
   23.700   1.203E+00
   23.800   1.181E+00
   23.900   1.159E+00
   24.000   1.138E+00
   24.100   1.117E+00
   24.200   1.096E+00
   24.300   1.076E+00
   24.400   1.056E+00
   24.500   1.036E+00
   24.600   1.017E+00
   24.700   9.985E-01
   24.800   9.808E-01
   24.900   9.638E-01
   25.000   9.477E-01
   25.100   9.324E-01
   25.200   9.179E-01
   25.300   9.043E-01
   25.400   8.915E-01
   25.500   8.794E-01
   25.600   8.679E-01
   25.700   8.568E-01
   25.800   8.460E-01
   25.900   8.352E-01
   26.000   8.242E-01
   26.100   8.129E-01
   26.200   8.010E-01
   26.300   7.886E-01
   26.400   7.755E-01
   26.500   7.619E-01
   26.600   7.478E-01
   26.700   7.335E-01
   26.800   7.192E-01
   26.900   7.050E-01
   27.000   6.910E-01
   27.100   6.774E-01
   27.200   6.643E-01
   27.300   6.516E-01
   27.400   6.394E-01
   27.500   6.276E-01
   27.600   6.162E-01
   27.700   6.051E-01
   27.800   5.943E-01
   27.900   5.837E-01
   28.000   5.735E-01
   28.100   5.635E-01
   28.200   5.538E-01
   28.300   5.445E-01
   28.400   5.356E-01
   28.500   5.270E-01
   28.600   5.189E-01
   28.700   5.111E-01
   28.800   5.036E-01
   28.900   4.965E-01
   29.000   4.897E-01
   29.100   4.831E-01
   29.200   4.767E-01
   29.300   4.704E-01
   29.400   4.641E-01
   29.500   4.578E-01
   29.600   4.513E-01
   29.700   4.445E-01
   29.800   4.375E-01
   29.900   4.302E-01
   30.000   4.228E-01
 
 Z=  18 A=  49 Ar
  U[MeV]  fE1[mb/MeV]
    0.100   3.382E-05
    0.200   1.354E-04
    0.300   3.049E-04
    0.400   5.428E-04
    0.500   8.497E-04
    0.600   1.226E-03
    0.700   1.674E-03
    0.800   2.193E-03
    0.900   2.785E-03
    1.000   3.452E-03
    1.100   4.195E-03
    1.200   5.016E-03
    1.300   5.918E-03
    1.400   6.902E-03
    1.500   7.972E-03
    1.600   9.130E-03
    1.700   1.038E-02
    1.800   1.172E-02
    1.900   1.317E-02
    2.000   1.471E-02
    2.100   1.637E-02
    2.200   1.813E-02
    2.300   2.002E-02
    2.400   2.203E-02
    2.500   2.416E-02
    2.600   2.644E-02
    2.700   2.886E-02
    2.800   3.143E-02
    2.900   3.416E-02
    3.000   3.707E-02
    3.100   4.015E-02
    3.200   4.344E-02
    3.300   4.692E-02
    3.400   5.063E-02
    3.500   5.458E-02
    3.600   5.877E-02
    3.700   6.324E-02
    3.800   6.800E-02
    3.900   7.307E-02
    4.000   7.848E-02
    4.100   8.425E-02
    4.200   9.042E-02
    4.300   9.701E-02
    4.400   1.041E-01
    4.500   1.116E-01
    4.600   1.197E-01
    4.700   1.284E-01
    4.800   1.377E-01
    4.900   1.478E-01
    5.000   1.586E-01
    5.100   1.702E-01
    5.200   1.828E-01
    5.300   1.964E-01
    5.400   2.111E-01
    5.500   2.269E-01
    5.600   2.441E-01
    5.700   2.627E-01
    5.800   2.828E-01
    5.900   3.046E-01
    6.000   3.282E-01
    6.100   3.537E-01
    6.200   3.813E-01
    6.300   4.109E-01
    6.400   4.428E-01
    6.500   4.768E-01
    6.600   5.130E-01
    6.700   5.513E-01
    6.800   5.915E-01
    6.900   6.334E-01
    7.000   6.765E-01
    7.100   7.205E-01
    7.200   7.650E-01
    7.300   8.094E-01
    7.400   8.532E-01
    7.500   8.961E-01
    7.600   9.377E-01
    7.700   9.777E-01
    7.800   1.016E+00
    7.900   1.052E+00
    8.000   1.086E+00
    8.100   1.118E+00
    8.200   1.149E+00
    8.300   1.177E+00
    8.400   1.203E+00
    8.500   1.227E+00
    8.600   1.250E+00
    8.700   1.272E+00
    8.800   1.291E+00
    8.900   1.309E+00
    9.000   1.325E+00
    9.100   1.340E+00
    9.200   1.353E+00
    9.300   1.365E+00
    9.400   1.375E+00
    9.500   1.385E+00
    9.600   1.393E+00
    9.700   1.400E+00
    9.800   1.407E+00
    9.900   1.413E+00
   10.000   1.418E+00
   10.100   1.423E+00
   10.200   1.428E+00
   10.300   1.433E+00
   10.400   1.439E+00
   10.500   1.446E+00
   10.600   1.453E+00
   10.700   1.462E+00
   10.800   1.472E+00
   10.900   1.483E+00
   11.000   1.495E+00
   11.100   1.510E+00
   11.200   1.527E+00
   11.300   1.546E+00
   11.400   1.567E+00
   11.500   1.593E+00
   11.600   1.621E+00
   11.700   1.654E+00
   11.800   1.691E+00
   11.900   1.732E+00
   12.000   1.778E+00
   12.100   1.827E+00
   12.200   1.881E+00
   12.300   1.937E+00
   12.400   1.995E+00
   12.500   2.055E+00
   12.600   2.117E+00
   12.700   2.178E+00
   12.800   2.240E+00
   12.900   2.301E+00
   13.000   2.363E+00
   13.100   2.425E+00
   13.200   2.488E+00
   13.300   2.552E+00
   13.400   2.618E+00
   13.500   2.686E+00
   13.600   2.758E+00
   13.700   2.832E+00
   13.800   2.908E+00
   13.900   2.988E+00
   14.000   3.069E+00
   14.100   3.150E+00
   14.200   3.232E+00
   14.300   3.311E+00
   14.400   3.387E+00
   14.500   3.457E+00
   14.600   3.522E+00
   14.700   3.578E+00
   14.800   3.627E+00
   14.900   3.668E+00
   15.000   3.700E+00
   15.100   3.725E+00
   15.200   3.744E+00
   15.300   3.756E+00
   15.400   3.764E+00
   15.500   3.769E+00
   15.600   3.770E+00
   15.700   3.771E+00
   15.800   3.770E+00
   15.900   3.771E+00
   16.000   3.772E+00
   16.100   3.776E+00
   16.200   3.781E+00
   16.300   3.789E+00
   16.400   3.799E+00
   16.500   3.812E+00
   16.600   3.826E+00
   16.700   3.841E+00
   16.800   3.858E+00
   16.900   3.874E+00
   17.000   3.891E+00
   17.100   3.906E+00
   17.200   3.919E+00
   17.300   3.929E+00
   17.400   3.933E+00
   17.500   3.930E+00
   17.600   3.919E+00
   17.700   3.899E+00
   17.800   3.869E+00
   17.900   3.828E+00
   18.000   3.779E+00
   18.100   3.722E+00
   18.200   3.659E+00
   18.300   3.591E+00
   18.400   3.521E+00
   18.500   3.450E+00
   18.600   3.380E+00
   18.700   3.312E+00
   18.800   3.247E+00
   18.900   3.186E+00
   19.000   3.130E+00
   19.100   3.077E+00
   19.200   3.030E+00
   19.300   2.986E+00
   19.400   2.946E+00
   19.500   2.909E+00
   19.600   2.874E+00
   19.700   2.842E+00
   19.800   2.810E+00
   19.900   2.778E+00
   20.000   2.746E+00
   20.100   2.712E+00
   20.200   2.677E+00
   20.300   2.640E+00
   20.400   2.600E+00
   20.500   2.558E+00
   20.600   2.513E+00
   20.700   2.467E+00
   20.800   2.418E+00
   20.900   2.368E+00
   21.000   2.317E+00
   21.100   2.265E+00
   21.200   2.212E+00
   21.300   2.157E+00
   21.400   2.102E+00
   21.500   2.047E+00
   21.600   1.991E+00
   21.700   1.935E+00
   21.800   1.879E+00
   21.900   1.823E+00
   22.000   1.768E+00
   22.100   1.714E+00
   22.200   1.662E+00
   22.300   1.611E+00
   22.400   1.562E+00
   22.500   1.516E+00
   22.600   1.472E+00
   22.700   1.431E+00
   22.800   1.393E+00
   22.900   1.357E+00
   23.000   1.324E+00
   23.100   1.294E+00
   23.200   1.267E+00
   23.300   1.242E+00
   23.400   1.219E+00
   23.500   1.198E+00
   23.600   1.179E+00
   23.700   1.161E+00
   23.800   1.144E+00
   23.900   1.129E+00
   24.000   1.114E+00
   24.100   1.100E+00
   24.200   1.086E+00
   24.300   1.073E+00
   24.400   1.061E+00
   24.500   1.049E+00
   24.600   1.037E+00
   24.700   1.025E+00
   24.800   1.013E+00
   24.900   1.000E+00
   25.000   9.877E-01
   25.100   9.746E-01
   25.200   9.610E-01
   25.300   9.471E-01
   25.400   9.329E-01
   25.500   9.186E-01
   25.600   9.042E-01
   25.700   8.898E-01
   25.800   8.754E-01
   25.900   8.610E-01
   26.000   8.465E-01
   26.100   8.317E-01
   26.200   8.167E-01
   26.300   8.012E-01
   26.400   7.853E-01
   26.500   7.689E-01
   26.600   7.522E-01
   26.700   7.353E-01
   26.800   7.183E-01
   26.900   7.014E-01
   27.000   6.848E-01
   27.100   6.688E-01
   27.200   6.533E-01
   27.300   6.386E-01
   27.400   6.247E-01
   27.500   6.117E-01
   27.600   5.994E-01
   27.700   5.879E-01
   27.800   5.772E-01
   27.900   5.672E-01
   28.000   5.578E-01
   28.100   5.489E-01
   28.200   5.406E-01
   28.300   5.329E-01
   28.400   5.255E-01
   28.500   5.186E-01
   28.600   5.121E-01
   28.700   5.058E-01
   28.800   4.997E-01
   28.900   4.938E-01
   29.000   4.878E-01
   29.100   4.818E-01
   29.200   4.756E-01
   29.300   4.692E-01
   29.400   4.625E-01
   29.500   4.557E-01
   29.600   4.486E-01
   29.700   4.414E-01
   29.800   4.342E-01
   29.900   4.269E-01
   30.000   4.198E-01
 
 Z=  18 A=  50 Ar
  U[MeV]  fE1[mb/MeV]
    0.100   3.458E-05
    0.200   1.384E-04
    0.300   3.117E-04
    0.400   5.548E-04
    0.500   8.684E-04
    0.600   1.253E-03
    0.700   1.710E-03
    0.800   2.240E-03
    0.900   2.844E-03
    1.000   3.524E-03
    1.100   4.282E-03
    1.200   5.119E-03
    1.300   6.037E-03
    1.400   7.039E-03
    1.500   8.126E-03
    1.600   9.303E-03
    1.700   1.057E-02
    1.800   1.193E-02
    1.900   1.340E-02
    2.000   1.496E-02
    2.100   1.663E-02
    2.200   1.842E-02
    2.300   2.031E-02
    2.400   2.234E-02
    2.500   2.448E-02
    2.600   2.677E-02
    2.700   2.919E-02
    2.800   3.176E-02
    2.900   3.449E-02
    3.000   3.738E-02
    3.100   4.045E-02
    3.200   4.371E-02
    3.300   4.716E-02
    3.400   5.081E-02
    3.500   5.469E-02
    3.600   5.881E-02
    3.700   6.318E-02
    3.800   6.782E-02
    3.900   7.275E-02
    4.000   7.799E-02
    4.100   8.356E-02
    4.200   8.949E-02
    4.300   9.580E-02
    4.400   1.025E-01
    4.500   1.097E-01
    4.600   1.174E-01
    4.700   1.255E-01
    4.800   1.343E-01
    4.900   1.436E-01
    5.000   1.537E-01
    5.100   1.644E-01
    5.200   1.760E-01
    5.300   1.884E-01
    5.400   2.018E-01
    5.500   2.162E-01
    5.600   2.317E-01
    5.700   2.484E-01
    5.800   2.665E-01
    5.900   2.861E-01
    6.000   3.073E-01
    6.100   3.303E-01
    6.200   3.551E-01
    6.300   3.821E-01
    6.400   4.114E-01
    6.500   4.431E-01
    6.600   4.774E-01
    6.700   5.145E-01
    6.800   5.546E-01
    6.900   5.978E-01
    7.000   6.441E-01
    7.100   6.937E-01
    7.200   7.466E-01
    7.300   8.025E-01
    7.400   8.613E-01
    7.500   9.229E-01
    7.600   9.867E-01
    7.700   1.052E+00
    7.800   1.119E+00
    7.900   1.187E+00
    8.000   1.255E+00
    8.100   1.322E+00
    8.200   1.387E+00
    8.300   1.450E+00
    8.400   1.510E+00
    8.500   1.565E+00
    8.600   1.616E+00
    8.700   1.661E+00
    8.800   1.700E+00
    8.900   1.732E+00
    9.000   1.756E+00
    9.100   1.774E+00
    9.200   1.784E+00
    9.300   1.787E+00
    9.400   1.784E+00
    9.500   1.774E+00
    9.600   1.759E+00
    9.700   1.739E+00
    9.800   1.714E+00
    9.900   1.687E+00
   10.000   1.657E+00
   10.100   1.626E+00
   10.200   1.595E+00
   10.300   1.565E+00
   10.400   1.537E+00
   10.500   1.510E+00
   10.600   1.487E+00
   10.700   1.467E+00
   10.800   1.451E+00
   10.900   1.439E+00
   11.000   1.431E+00
   11.100   1.428E+00
   11.200   1.430E+00
   11.300   1.435E+00
   11.400   1.445E+00
   11.500   1.460E+00
   11.600   1.478E+00
   11.700   1.501E+00
   11.800   1.527E+00
   11.900   1.557E+00
   12.000   1.590E+00
   12.100   1.626E+00
   12.200   1.666E+00
   12.300   1.710E+00
   12.400   1.757E+00
   12.500   1.808E+00
   12.600   1.862E+00
   12.700   1.920E+00
   12.800   1.981E+00
   12.900   2.045E+00
   13.000   2.112E+00
   13.100   2.182E+00
   13.200   2.254E+00
   13.300   2.328E+00
   13.400   2.403E+00
   13.500   2.478E+00
   13.600   2.554E+00
   13.700   2.630E+00
   13.800   2.705E+00
   13.900   2.781E+00
   14.000   2.857E+00
   14.100   2.933E+00
   14.200   3.010E+00
   14.300   3.088E+00
   14.400   3.168E+00
   14.500   3.249E+00
   14.600   3.330E+00
   14.700   3.413E+00
   14.800   3.496E+00
   14.900   3.578E+00
   15.000   3.659E+00
   15.100   3.738E+00
   15.200   3.815E+00
   15.300   3.889E+00
   15.400   3.960E+00
   15.500   4.027E+00
   15.600   4.090E+00
   15.700   4.148E+00
   15.800   4.200E+00
   15.900   4.247E+00
   16.000   4.290E+00
   16.100   4.327E+00
   16.200   4.361E+00
   16.300   4.390E+00
   16.400   4.416E+00
   16.500   4.438E+00
   16.600   4.456E+00
   16.700   4.470E+00
   16.800   4.479E+00
   16.900   4.482E+00
   17.000   4.479E+00
   17.100   4.469E+00
   17.200   4.453E+00
   17.300   4.430E+00
   17.400   4.400E+00
   17.500   4.365E+00
   17.600   4.325E+00
   17.700   4.281E+00
   17.800   4.233E+00
   17.900   4.181E+00
   18.000   4.127E+00
   18.100   4.071E+00
   18.200   4.012E+00
   18.300   3.951E+00
   18.400   3.889E+00
   18.500   3.826E+00
   18.600   3.762E+00
   18.700   3.698E+00
   18.800   3.635E+00
   18.900   3.572E+00
   19.000   3.510E+00
   19.100   3.449E+00
   19.200   3.387E+00
   19.300   3.324E+00
   19.400   3.261E+00
   19.500   3.195E+00
   19.600   3.127E+00
   19.700   3.056E+00
   19.800   2.984E+00
   19.900   2.909E+00
   20.000   2.833E+00
   20.100   2.756E+00
   20.200   2.680E+00
   20.300   2.606E+00
   20.400   2.533E+00
   20.500   2.462E+00
   20.600   2.395E+00
   20.700   2.330E+00
   20.800   2.268E+00
   20.900   2.209E+00
   21.000   2.151E+00
   21.100   2.096E+00
   21.200   2.043E+00
   21.300   1.991E+00
   21.400   1.941E+00
   21.500   1.893E+00
   21.600   1.847E+00
   21.700   1.803E+00
   21.800   1.762E+00
   21.900   1.724E+00
   22.000   1.689E+00
   22.100   1.656E+00
   22.200   1.626E+00
   22.300   1.598E+00
   22.400   1.573E+00
   22.500   1.549E+00
   22.600   1.526E+00
   22.700   1.504E+00
   22.800   1.481E+00
   22.900   1.459E+00
   23.000   1.436E+00
   23.100   1.412E+00
   23.200   1.387E+00
   23.300   1.361E+00
   23.400   1.335E+00
   23.500   1.308E+00
   23.600   1.282E+00
   23.700   1.255E+00
   23.800   1.229E+00
   23.900   1.204E+00
   24.000   1.180E+00
   24.100   1.157E+00
   24.200   1.135E+00
   24.300   1.114E+00
   24.400   1.093E+00
   24.500   1.074E+00
   24.600   1.054E+00
   24.700   1.035E+00
   24.800   1.015E+00
   24.900   9.957E-01
   25.000   9.756E-01
   25.100   9.548E-01
   25.200   9.336E-01
   25.300   9.119E-01
   25.400   8.898E-01
   25.500   8.675E-01
   25.600   8.451E-01
   25.700   8.229E-01
   25.800   8.009E-01
   25.900   7.795E-01
   26.000   7.586E-01
   26.100   7.384E-01
   26.200   7.191E-01
   26.300   7.007E-01
   26.400   6.832E-01
   26.500   6.668E-01
   26.600   6.513E-01
   26.700   6.369E-01
   26.800   6.235E-01
   26.900   6.110E-01
   27.000   5.995E-01
   27.100   5.890E-01
   27.200   5.793E-01
   27.300   5.704E-01
   27.400   5.623E-01
   27.500   5.549E-01
   27.600   5.482E-01
   27.700   5.420E-01
   27.800   5.364E-01
   27.900   5.312E-01
   28.000   5.263E-01
   28.100   5.217E-01
   28.200   5.174E-01
   28.300   5.131E-01
   28.400   5.090E-01
   28.500   5.050E-01
   28.600   5.011E-01
   28.700   4.973E-01
   28.800   4.935E-01
   28.900   4.899E-01
   29.000   4.864E-01
   29.100   4.831E-01
   29.200   4.799E-01
   29.300   4.769E-01
   29.400   4.741E-01
   29.500   4.715E-01
   29.600   4.690E-01
   29.700   4.668E-01
   29.800   4.646E-01
   29.900   4.626E-01
   30.000   4.607E-01
 
 Z=  18 A=  51 Ar
  U[MeV]  fE1[mb/MeV]
    0.100   4.010E-05
    0.200   1.605E-04
    0.300   3.614E-04
    0.400   6.433E-04
    0.500   1.007E-03
    0.600   1.453E-03
    0.700   1.983E-03
    0.800   2.597E-03
    0.900   3.297E-03
    1.000   4.086E-03
    1.100   4.964E-03
    1.200   5.933E-03
    1.300   6.997E-03
    1.400   8.157E-03
    1.500   9.417E-03
    1.600   1.078E-02
    1.700   1.225E-02
    1.800   1.383E-02
    1.900   1.552E-02
    2.000   1.733E-02
    2.100   1.926E-02
    2.200   2.132E-02
    2.300   2.351E-02
    2.400   2.585E-02
    2.500   2.833E-02
    2.600   3.096E-02
    2.700   3.376E-02
    2.800   3.672E-02
    2.900   3.987E-02
    3.000   4.320E-02
    3.100   4.673E-02
    3.200   5.048E-02
    3.300   5.444E-02
    3.400   5.865E-02
    3.500   6.310E-02
    3.600   6.783E-02
    3.700   7.284E-02
    3.800   7.815E-02
    3.900   8.379E-02
    4.000   8.977E-02
    4.100   9.613E-02
    4.200   1.029E-01
    4.300   1.101E-01
    4.400   1.177E-01
    4.500   1.259E-01
    4.600   1.346E-01
    4.700   1.438E-01
    4.800   1.537E-01
    4.900   1.643E-01
    5.000   1.755E-01
    5.100   1.876E-01
    5.200   2.005E-01
    5.300   2.144E-01
    5.400   2.293E-01
    5.500   2.453E-01
    5.600   2.624E-01
    5.700   2.809E-01
    5.800   3.007E-01
    5.900   3.221E-01
    6.000   3.451E-01
    6.100   3.700E-01
    6.200   3.967E-01
    6.300   4.255E-01
    6.400   4.565E-01
    6.500   4.899E-01
    6.600   5.257E-01
    6.700   5.641E-01
    6.800   6.053E-01
    6.900   6.492E-01
    7.000   6.959E-01
    7.100   7.454E-01
    7.200   7.977E-01
    7.300   8.525E-01
    7.400   9.098E-01
    7.500   9.692E-01
    7.600   1.030E+00
    7.700   1.093E+00
    7.800   1.157E+00
    7.900   1.221E+00
    8.000   1.285E+00
    8.100   1.348E+00
    8.200   1.410E+00
    8.300   1.470E+00
    8.400   1.527E+00
    8.500   1.580E+00
    8.600   1.630E+00
    8.700   1.675E+00
    8.800   1.714E+00
    8.900   1.748E+00
    9.000   1.776E+00
    9.100   1.799E+00
    9.200   1.815E+00
    9.300   1.826E+00
    9.400   1.831E+00
    9.500   1.830E+00
    9.600   1.826E+00
    9.700   1.817E+00
    9.800   1.805E+00
    9.900   1.790E+00
   10.000   1.773E+00
   10.100   1.755E+00
   10.200   1.737E+00
   10.300   1.720E+00
   10.400   1.703E+00
   10.500   1.688E+00
   10.600   1.676E+00
   10.700   1.665E+00
   10.800   1.658E+00
   10.900   1.654E+00
   11.000   1.653E+00
   11.100   1.656E+00
   11.200   1.663E+00
   11.300   1.673E+00
   11.400   1.686E+00
   11.500   1.704E+00
   11.600   1.725E+00
   11.700   1.749E+00
   11.800   1.777E+00
   11.900   1.809E+00
   12.000   1.844E+00
   12.100   1.883E+00
   12.200   1.925E+00
   12.300   1.971E+00
   12.400   2.021E+00
   12.500   2.074E+00
   12.600   2.131E+00
   12.700   2.192E+00
   12.800   2.256E+00
   12.900   2.323E+00
   13.000   2.393E+00
   13.100   2.466E+00
   13.200   2.541E+00
   13.300   2.617E+00
   13.400   2.695E+00
   13.500   2.773E+00
   13.600   2.852E+00
   13.700   2.931E+00
   13.800   3.010E+00
   13.900   3.089E+00
   14.000   3.168E+00
   14.100   3.247E+00
   14.200   3.326E+00
   14.300   3.405E+00
   14.400   3.483E+00
   14.500   3.561E+00
   14.600   3.638E+00
   14.700   3.714E+00
   14.800   3.789E+00
   14.900   3.860E+00
   15.000   3.929E+00
   15.100   3.994E+00
   15.200   4.056E+00
   15.300   4.112E+00
   15.400   4.164E+00
   15.500   4.210E+00
   15.600   4.251E+00
   15.700   4.287E+00
   15.800   4.318E+00
   15.900   4.344E+00
   16.000   4.365E+00
   16.100   4.382E+00
   16.200   4.395E+00
   16.300   4.404E+00
   16.400   4.408E+00
   16.500   4.408E+00
   16.600   4.403E+00
   16.700   4.394E+00
   16.800   4.379E+00
   16.900   4.360E+00
   17.000   4.335E+00
   17.100   4.306E+00
   17.200   4.272E+00
   17.300   4.234E+00
   17.400   4.193E+00
   17.500   4.149E+00
   17.600   4.103E+00
   17.700   4.055E+00
   17.800   4.005E+00
   17.900   3.955E+00
   18.000   3.903E+00
   18.100   3.852E+00
   18.200   3.801E+00
   18.300   3.749E+00
   18.400   3.699E+00
   18.500   3.649E+00
   18.600   3.600E+00
   18.700   3.552E+00
   18.800   3.504E+00
   18.900   3.456E+00
   19.000   3.408E+00
   19.100   3.360E+00
   19.200   3.310E+00
   19.300   3.259E+00
   19.400   3.206E+00
   19.500   3.151E+00
   19.600   3.095E+00
   19.700   3.037E+00
   19.800   2.979E+00
   19.900   2.920E+00
   20.000   2.861E+00
   20.100   2.803E+00
   20.200   2.745E+00
   20.300   2.689E+00
   20.400   2.633E+00
   20.500   2.579E+00
   20.600   2.525E+00
   20.700   2.472E+00
   20.800   2.419E+00
   20.900   2.367E+00
   21.000   2.315E+00
   21.100   2.264E+00
   21.200   2.213E+00
   21.300   2.162E+00
   21.400   2.113E+00
   21.500   2.065E+00
   21.600   2.019E+00
   21.700   1.974E+00
   21.800   1.931E+00
   21.900   1.890E+00
   22.000   1.851E+00
   22.100   1.814E+00
   22.200   1.779E+00
   22.300   1.745E+00
   22.400   1.712E+00
   22.500   1.680E+00
   22.600   1.649E+00
   22.700   1.618E+00
   22.800   1.587E+00
   22.900   1.556E+00
   23.000   1.526E+00
   23.100   1.495E+00
   23.200   1.464E+00
   23.300   1.434E+00
   23.400   1.404E+00
   23.500   1.374E+00
   23.600   1.346E+00
   23.700   1.318E+00
   23.800   1.291E+00
   23.900   1.264E+00
   24.000   1.239E+00
   24.100   1.214E+00
   24.200   1.189E+00
   24.300   1.165E+00
   24.400   1.141E+00
   24.500   1.116E+00
   24.600   1.092E+00
   24.700   1.068E+00
   24.800   1.044E+00
   24.900   1.019E+00
   25.000   9.943E-01
   25.100   9.696E-01
   25.200   9.451E-01
   25.300   9.209E-01
   25.400   8.971E-01
   25.500   8.739E-01
   25.600   8.513E-01
   25.700   8.294E-01
   25.800   8.084E-01
   25.900   7.883E-01
   26.000   7.691E-01
   26.100   7.509E-01
   26.200   7.337E-01
   26.300   7.175E-01
   26.400   7.022E-01
   26.500   6.879E-01
   26.600   6.746E-01
   26.700   6.622E-01
   26.800   6.506E-01
   26.900   6.399E-01
   27.000   6.300E-01
   27.100   6.208E-01
   27.200   6.124E-01
   27.300   6.046E-01
   27.400   5.975E-01
   27.500   5.909E-01
   27.600   5.849E-01
   27.700   5.793E-01
   27.800   5.742E-01
   27.900   5.694E-01
   28.000   5.650E-01
   28.100   5.609E-01
   28.200   5.570E-01
   28.300   5.534E-01
   28.400   5.500E-01
   28.500   5.467E-01
   28.600   5.437E-01
   28.700   5.407E-01
   28.800   5.379E-01
   28.900   5.352E-01
   29.000   5.326E-01
   29.100   5.300E-01
   29.200   5.274E-01
   29.300   5.249E-01
   29.400   5.225E-01
   29.500   5.200E-01
   29.600   5.177E-01
   29.700   5.154E-01
   29.800   5.131E-01
   29.900   5.109E-01
   30.000   5.088E-01
 
 Z=  18 A=  52 Ar
  U[MeV]  fE1[mb/MeV]
    0.100   6.192E-05
    0.200   2.479E-04
    0.300   5.583E-04
    0.400   9.943E-04
    0.500   1.557E-03
    0.600   2.248E-03
    0.700   3.069E-03
    0.800   4.023E-03
    0.900   5.113E-03
    1.000   6.342E-03
    1.100   7.713E-03
    1.200   9.231E-03
    1.300   1.090E-02
    1.400   1.273E-02
    1.500   1.471E-02
    1.600   1.687E-02
    1.700   1.920E-02
    1.800   2.172E-02
    1.900   2.443E-02
    2.000   2.734E-02
    2.100   3.046E-02
    2.200   3.380E-02
    2.300   3.737E-02
    2.400   4.120E-02
    2.500   4.528E-02
    2.600   4.965E-02
    2.700   5.430E-02
    2.800   5.927E-02
    2.900   6.457E-02
    3.000   7.023E-02
    3.100   7.627E-02
    3.200   8.272E-02
    3.300   8.960E-02
    3.400   9.694E-02
    3.500   1.048E-01
    3.600   1.132E-01
    3.700   1.222E-01
    3.800   1.318E-01
    3.900   1.420E-01
    4.000   1.530E-01
    4.100   1.648E-01
    4.200   1.775E-01
    4.300   1.911E-01
    4.400   2.056E-01
    4.500   2.213E-01
    4.600   2.381E-01
    4.700   2.562E-01
    4.800   2.756E-01
    4.900   2.965E-01
    5.000   3.189E-01
    5.100   3.431E-01
    5.200   3.689E-01
    5.300   3.967E-01
    5.400   4.264E-01
    5.500   4.581E-01
    5.600   4.920E-01
    5.700   5.280E-01
    5.800   5.662E-01
    5.900   6.066E-01
    6.000   6.492E-01
    6.100   6.941E-01
    6.200   7.411E-01
    6.300   7.902E-01
    6.400   8.415E-01
    6.500   8.950E-01
    6.600   9.507E-01
    6.700   1.009E+00
    6.800   1.069E+00
    6.900   1.131E+00
    7.000   1.196E+00
    7.100   1.263E+00
    7.200   1.332E+00
    7.300   1.403E+00
    7.400   1.475E+00
    7.500   1.548E+00
    7.600   1.622E+00
    7.700   1.695E+00
    7.800   1.767E+00
    7.900   1.837E+00
    8.000   1.904E+00
    8.100   1.967E+00
    8.200   2.024E+00
    8.300   2.075E+00
    8.400   2.120E+00
    8.500   2.157E+00
    8.600   2.186E+00
    8.700   2.206E+00
    8.800   2.218E+00
    8.900   2.222E+00
    9.000   2.218E+00
    9.100   2.207E+00
    9.200   2.189E+00
    9.300   2.165E+00
    9.400   2.136E+00
    9.500   2.104E+00
    9.600   2.068E+00
    9.700   2.031E+00
    9.800   1.993E+00
    9.900   1.955E+00
   10.000   1.918E+00
   10.100   1.883E+00
   10.200   1.851E+00
   10.300   1.822E+00
   10.400   1.797E+00
   10.500   1.776E+00
   10.600   1.759E+00
   10.700   1.747E+00
   10.800   1.740E+00
   10.900   1.738E+00
   11.000   1.741E+00
   11.100   1.748E+00
   11.200   1.760E+00
   11.300   1.777E+00
   11.400   1.798E+00
   11.500   1.823E+00
   11.600   1.852E+00
   11.700   1.885E+00
   11.800   1.922E+00
   11.900   1.962E+00
   12.000   2.005E+00
   12.100   2.052E+00
   12.200   2.101E+00
   12.300   2.153E+00
   12.400   2.207E+00
   12.500   2.263E+00
   12.600   2.320E+00
   12.700   2.379E+00
   12.800   2.438E+00
   12.900   2.497E+00
   13.000   2.556E+00
   13.100   2.615E+00
   13.200   2.674E+00
   13.300   2.732E+00
   13.400   2.789E+00
   13.500   2.846E+00
   13.600   2.902E+00
   13.700   2.958E+00
   13.800   3.014E+00
   13.900   3.070E+00
   14.000   3.125E+00
   14.100   3.180E+00
   14.200   3.236E+00
   14.300   3.292E+00
   14.400   3.349E+00
   14.500   3.407E+00
   14.600   3.465E+00
   14.700   3.524E+00
   14.800   3.583E+00
   14.900   3.643E+00
   15.000   3.702E+00
   15.100   3.760E+00
   15.200   3.817E+00
   15.300   3.871E+00
   15.400   3.923E+00
   15.500   3.972E+00
   15.600   4.019E+00
   15.700   4.063E+00
   15.800   4.104E+00
   15.900   4.143E+00
   16.000   4.180E+00
   16.100   4.214E+00
   16.200   4.247E+00
   16.300   4.276E+00
   16.400   4.302E+00
   16.500   4.325E+00
   16.600   4.343E+00
   16.700   4.356E+00
   16.800   4.365E+00
   16.900   4.368E+00
   17.000   4.366E+00
   17.100   4.358E+00
   17.200   4.347E+00
   17.300   4.331E+00
   17.400   4.312E+00
   17.500   4.290E+00
   17.600   4.265E+00
   17.700   4.237E+00
   17.800   4.206E+00
   17.900   4.172E+00
   18.000   4.135E+00
   18.100   4.094E+00
   18.200   4.050E+00
   18.300   4.001E+00
   18.400   3.948E+00
   18.500   3.892E+00
   18.600   3.832E+00
   18.700   3.769E+00
   18.800   3.704E+00
   18.900   3.638E+00
   19.000   3.569E+00
   19.100   3.500E+00
   19.200   3.430E+00
   19.300   3.358E+00
   19.400   3.284E+00
   19.500   3.209E+00
   19.600   3.132E+00
   19.700   3.053E+00
   19.800   2.973E+00
   19.900   2.891E+00
   20.000   2.808E+00
   20.100   2.724E+00
   20.200   2.641E+00
   20.300   2.559E+00
   20.400   2.478E+00
   20.500   2.399E+00
   20.600   2.323E+00
   20.700   2.251E+00
   20.800   2.181E+00
   20.900   2.114E+00
   21.000   2.051E+00
   21.100   1.992E+00
   21.200   1.935E+00
   21.300   1.882E+00
   21.400   1.832E+00
   21.500   1.785E+00
   21.600   1.741E+00
   21.700   1.699E+00
   21.800   1.660E+00
   21.900   1.624E+00
   22.000   1.590E+00
   22.100   1.558E+00
   22.200   1.528E+00
   22.300   1.499E+00
   22.400   1.472E+00
   22.500   1.447E+00
   22.600   1.422E+00
   22.700   1.397E+00
   22.800   1.373E+00
   22.900   1.349E+00
   23.000   1.325E+00
   23.100   1.301E+00
   23.200   1.277E+00
   23.300   1.253E+00
   23.400   1.229E+00
   23.500   1.205E+00
   23.600   1.181E+00
   23.700   1.158E+00
   23.800   1.135E+00
   23.900   1.113E+00
   24.000   1.092E+00
   24.100   1.072E+00
   24.200   1.053E+00
   24.300   1.035E+00
   24.400   1.018E+00
   24.500   1.002E+00
   24.600   9.857E-01
   24.700   9.702E-01
   24.800   9.550E-01
   24.900   9.400E-01
   25.000   9.251E-01
   25.100   9.101E-01
   25.200   8.952E-01
   25.300   8.804E-01
   25.400   8.657E-01
   25.500   8.511E-01
   25.600   8.369E-01
   25.700   8.230E-01
   25.800   8.095E-01
   25.900   7.965E-01
   26.000   7.841E-01
   26.100   7.721E-01
   26.200   7.607E-01
   26.300   7.498E-01
   26.400   7.394E-01
   26.500   7.294E-01
   26.600   7.200E-01
   26.700   7.109E-01
   26.800   7.023E-01
   26.900   6.941E-01
   27.000   6.863E-01
   27.100   6.788E-01
   27.200   6.718E-01
   27.300   6.652E-01
   27.400   6.590E-01
   27.500   6.532E-01
   27.600   6.477E-01
   27.700   6.425E-01
   27.800   6.376E-01
   27.900   6.328E-01
   28.000   6.281E-01
   28.100   6.235E-01
   28.200   6.188E-01
   28.300   6.141E-01
   28.400   6.093E-01
   28.500   6.045E-01
   28.600   5.994E-01
   28.700   5.943E-01
   28.800   5.891E-01
   28.900   5.838E-01
   29.000   5.784E-01
   29.100   5.730E-01
   29.200   5.676E-01
   29.300   5.622E-01
   29.400   5.568E-01
   29.500   5.515E-01
   29.600   5.463E-01
   29.700   5.413E-01
   29.800   5.363E-01
   29.900   5.313E-01
   30.000   5.264E-01
 
 Z=  18 A=  53 Ar
  U[MeV]  fE1[mb/MeV]
    0.100   7.686E-05
    0.200   3.077E-04
    0.300   6.932E-04
    0.400   1.234E-03
    0.500   1.933E-03
    0.600   2.792E-03
    0.700   3.813E-03
    0.800   4.999E-03
    0.900   6.355E-03
    1.000   7.884E-03
    1.100   9.592E-03
    1.200   1.148E-02
    1.300   1.357E-02
    1.400   1.585E-02
    1.500   1.833E-02
    1.600   2.103E-02
    1.700   2.395E-02
    1.800   2.710E-02
    1.900   3.050E-02
    2.000   3.415E-02
    2.100   3.808E-02
    2.200   4.228E-02
    2.300   4.679E-02
    2.400   5.162E-02
    2.500   5.679E-02
    2.600   6.232E-02
    2.700   6.822E-02
    2.800   7.454E-02
    2.900   8.129E-02
    3.000   8.850E-02
    3.100   9.622E-02
    3.200   1.045E-01
    3.300   1.133E-01
    3.400   1.227E-01
    3.500   1.328E-01
    3.600   1.436E-01
    3.700   1.552E-01
    3.800   1.676E-01
    3.900   1.809E-01
    4.000   1.951E-01
    4.100   2.104E-01
    4.200   2.268E-01
    4.300   2.444E-01
    4.400   2.633E-01
    4.500   2.835E-01
    4.600   3.053E-01
    4.700   3.285E-01
    4.800   3.535E-01
    4.900   3.802E-01
    5.000   4.087E-01
    5.100   4.392E-01
    5.200   4.716E-01
    5.300   5.061E-01
    5.400   5.428E-01
    5.500   5.816E-01
    5.600   6.226E-01
    5.700   6.658E-01
    5.800   7.113E-01
    5.900   7.591E-01
    6.000   8.092E-01
    6.100   8.616E-01
    6.200   9.164E-01
    6.300   9.735E-01
    6.400   1.033E+00
    6.500   1.094E+00
    6.600   1.157E+00
    6.700   1.222E+00
    6.800   1.289E+00
    6.900   1.356E+00
    7.000   1.423E+00
    7.100   1.490E+00
    7.200   1.557E+00
    7.300   1.623E+00
    7.400   1.686E+00
    7.500   1.748E+00
    7.600   1.807E+00
    7.700   1.863E+00
    7.800   1.915E+00
    7.900   1.964E+00
    8.000   2.009E+00
    8.100   2.050E+00
    8.200   2.087E+00
    8.300   2.119E+00
    8.400   2.148E+00
    8.500   2.171E+00
    8.600   2.191E+00
    8.700   2.207E+00
    8.800   2.219E+00
    8.900   2.228E+00
    9.000   2.233E+00
    9.100   2.236E+00
    9.200   2.236E+00
    9.300   2.233E+00
    9.400   2.228E+00
    9.500   2.222E+00
    9.600   2.214E+00
    9.700   2.205E+00
    9.800   2.195E+00
    9.900   2.185E+00
   10.000   2.176E+00
   10.100   2.167E+00
   10.200   2.160E+00
   10.300   2.154E+00
   10.400   2.150E+00
   10.500   2.149E+00
   10.600   2.150E+00
   10.700   2.155E+00
   10.800   2.162E+00
   10.900   2.174E+00
   11.000   2.188E+00
   11.100   2.207E+00
   11.200   2.229E+00
   11.300   2.255E+00
   11.400   2.285E+00
   11.500   2.318E+00
   11.600   2.354E+00
   11.700   2.392E+00
   11.800   2.433E+00
   11.900   2.475E+00
   12.000   2.519E+00
   12.100   2.563E+00
   12.200   2.607E+00
   12.300   2.651E+00
   12.400   2.694E+00
   12.500   2.737E+00
   12.600   2.779E+00
   12.700   2.821E+00
   12.800   2.864E+00
   12.900   2.908E+00
   13.000   2.953E+00
   13.100   3.000E+00
   13.200   3.050E+00
   13.300   3.102E+00
   13.400   3.156E+00
   13.500   3.214E+00
   13.600   3.273E+00
   13.700   3.335E+00
   13.800   3.398E+00
   13.900   3.461E+00
   14.000   3.523E+00
   14.100   3.584E+00
   14.200   3.641E+00
   14.300   3.695E+00
   14.400   3.744E+00
   14.500   3.788E+00
   14.600   3.826E+00
   14.700   3.859E+00
   14.800   3.888E+00
   14.900   3.912E+00
   15.000   3.932E+00
   15.100   3.950E+00
   15.200   3.967E+00
   15.300   3.982E+00
   15.400   3.997E+00
   15.500   4.012E+00
   15.600   4.028E+00
   15.700   4.045E+00
   15.800   4.063E+00
   15.900   4.082E+00
   16.000   4.102E+00
   16.100   4.121E+00
   16.200   4.140E+00
   16.300   4.158E+00
   16.400   4.173E+00
   16.500   4.186E+00
   16.600   4.194E+00
   16.700   4.198E+00
   16.800   4.195E+00
   16.900   4.186E+00
   17.000   4.170E+00
   17.100   4.147E+00
   17.200   4.116E+00
   17.300   4.078E+00
   17.400   4.035E+00
   17.500   3.986E+00
   17.600   3.934E+00
   17.700   3.878E+00
   17.800   3.820E+00
   17.900   3.762E+00
   18.000   3.703E+00
   18.100   3.645E+00
   18.200   3.588E+00
   18.300   3.533E+00
   18.400   3.480E+00
   18.500   3.429E+00
   18.600   3.380E+00
   18.700   3.333E+00
   18.800   3.288E+00
   18.900   3.244E+00
   19.000   3.202E+00
   19.100   3.160E+00
   19.200   3.119E+00
   19.300   3.078E+00
   19.400   3.038E+00
   19.500   2.996E+00
   19.600   2.954E+00
   19.700   2.910E+00
   19.800   2.864E+00
   19.900   2.816E+00
   20.000   2.764E+00
   20.100   2.711E+00
   20.200   2.654E+00
   20.300   2.594E+00
   20.400   2.532E+00
   20.500   2.469E+00
   20.600   2.404E+00
   20.700   2.338E+00
   20.800   2.273E+00
   20.900   2.208E+00
   21.000   2.144E+00
   21.100   2.082E+00
   21.200   2.021E+00
   21.300   1.962E+00
   21.400   1.906E+00
   21.500   1.851E+00
   21.600   1.798E+00
   21.700   1.748E+00
   21.800   1.699E+00
   21.900   1.653E+00
   22.000   1.609E+00
   22.100   1.566E+00
   22.200   1.526E+00
   22.300   1.488E+00
   22.400   1.451E+00
   22.500   1.416E+00
   22.600   1.383E+00
   22.700   1.352E+00
   22.800   1.323E+00
   22.900   1.295E+00
   23.000   1.269E+00
   23.100   1.245E+00
   23.200   1.222E+00
   23.300   1.201E+00
   23.400   1.181E+00
   23.500   1.163E+00
   23.600   1.146E+00
   23.700   1.130E+00
   23.800   1.115E+00
   23.900   1.102E+00
   24.000   1.089E+00
   24.100   1.078E+00
   24.200   1.067E+00
   24.300   1.056E+00
   24.400   1.046E+00
   24.500   1.036E+00
   24.600   1.026E+00
   24.700   1.016E+00
   24.800   1.006E+00
   24.900   9.945E-01
   25.000   9.828E-01
   25.100   9.704E-01
   25.200   9.572E-01
   25.300   9.432E-01
   25.400   9.284E-01
   25.500   9.130E-01
   25.600   8.969E-01
   25.700   8.804E-01
   25.800   8.637E-01
   25.900   8.469E-01
   26.000   8.301E-01
   26.100   8.135E-01
   26.200   7.972E-01
   26.300   7.814E-01
   26.400   7.662E-01
   26.500   7.515E-01
   26.600   7.375E-01
   26.700   7.242E-01
   26.800   7.116E-01
   26.900   6.999E-01
   27.000   6.889E-01
   27.100   6.788E-01
   27.200   6.696E-01
   27.300   6.611E-01
   27.400   6.536E-01
   27.500   6.468E-01
   27.600   6.409E-01
   27.700   6.357E-01
   27.800   6.313E-01
   27.900   6.275E-01
   28.000   6.242E-01
   28.100   6.214E-01
   28.200   6.190E-01
   28.300   6.169E-01
   28.400   6.149E-01
   28.500   6.129E-01
   28.600   6.108E-01
   28.700   6.085E-01
   28.800   6.060E-01
   28.900   6.031E-01
   29.000   5.997E-01
   29.100   5.958E-01
   29.200   5.914E-01
   29.300   5.864E-01
   29.400   5.808E-01
   29.500   5.746E-01
   29.600   5.678E-01
   29.700   5.606E-01
   29.800   5.529E-01
   29.900   5.449E-01
   30.000   5.366E-01
 
 Z=  18 A=  54 Ar
  U[MeV]  fE1[mb/MeV]
    0.100   8.403E-05
    0.200   3.364E-04
    0.300   7.578E-04
    0.400   1.350E-03
    0.500   2.114E-03
    0.600   3.052E-03
    0.700   4.168E-03
    0.800   5.465E-03
    0.900   6.947E-03
    1.000   8.619E-03
    1.100   1.049E-02
    1.200   1.255E-02
    1.300   1.483E-02
    1.400   1.732E-02
    1.500   2.003E-02
    1.600   2.298E-02
    1.700   2.617E-02
    1.800   2.961E-02
    1.900   3.332E-02
    2.000   3.731E-02
    2.100   4.159E-02
    2.200   4.618E-02
    2.300   5.110E-02
    2.400   5.637E-02
    2.500   6.200E-02
    2.600   6.802E-02
    2.700   7.446E-02
    2.800   8.134E-02
    2.900   8.869E-02
    3.000   9.654E-02
    3.100   1.049E-01
    3.200   1.139E-01
    3.300   1.235E-01
    3.400   1.337E-01
    3.500   1.447E-01
    3.600   1.564E-01
    3.700   1.689E-01
    3.800   1.824E-01
    3.900   1.968E-01
    4.000   2.122E-01
    4.100   2.287E-01
    4.200   2.464E-01
    4.300   2.655E-01
    4.400   2.859E-01
    4.500   3.078E-01
    4.600   3.312E-01
    4.700   3.564E-01
    4.800   3.835E-01
    4.900   4.124E-01
    5.000   4.434E-01
    5.100   4.765E-01
    5.200   5.119E-01
    5.300   5.496E-01
    5.400   5.896E-01
    5.500   6.321E-01
    5.600   6.770E-01
    5.700   7.242E-01
    5.800   7.738E-01
    5.900   8.257E-01
    6.000   8.796E-01
    6.100   9.354E-01
    6.200   9.930E-01
    6.300   1.052E+00
    6.400   1.113E+00
    6.500   1.174E+00
    6.600   1.237E+00
    6.700   1.300E+00
    6.800   1.363E+00
    6.900   1.427E+00
    7.000   1.492E+00
    7.100   1.556E+00
    7.200   1.619E+00
    7.300   1.683E+00
    7.400   1.746E+00
    7.500   1.808E+00
    7.600   1.869E+00
    7.700   1.929E+00
    7.800   1.987E+00
    7.900   2.043E+00
    8.000   2.096E+00
    8.100   2.146E+00
    8.200   2.193E+00
    8.300   2.236E+00
    8.400   2.275E+00
    8.500   2.310E+00
    8.600   2.340E+00
    8.700   2.365E+00
    8.800   2.385E+00
    8.900   2.401E+00
    9.000   2.412E+00
    9.100   2.419E+00
    9.200   2.422E+00
    9.300   2.422E+00
    9.400   2.418E+00
    9.500   2.412E+00
    9.600   2.403E+00
    9.700   2.393E+00
    9.800   2.381E+00
    9.900   2.369E+00
   10.000   2.356E+00
   10.100   2.342E+00
   10.200   2.329E+00
   10.300   2.317E+00
   10.400   2.305E+00
   10.500   2.294E+00
   10.600   2.285E+00
   10.700   2.277E+00
   10.800   2.271E+00
   10.900   2.267E+00
   11.000   2.265E+00
   11.100   2.266E+00
   11.200   2.270E+00
   11.300   2.278E+00
   11.400   2.288E+00
   11.500   2.303E+00
   11.600   2.322E+00
   11.700   2.344E+00
   11.800   2.371E+00
   11.900   2.402E+00
   12.000   2.438E+00
   12.100   2.477E+00
   12.200   2.519E+00
   12.300   2.566E+00
   12.400   2.615E+00
   12.500   2.666E+00
   12.600   2.719E+00
   12.700   2.774E+00
   12.800   2.829E+00
   12.900   2.884E+00
   13.000   2.938E+00
   13.100   2.992E+00
   13.200   3.044E+00
   13.300   3.096E+00
   13.400   3.145E+00
   13.500   3.193E+00
   13.600   3.240E+00
   13.700   3.285E+00
   13.800   3.329E+00
   13.900   3.372E+00
   14.000   3.414E+00
   14.100   3.455E+00
   14.200   3.496E+00
   14.300   3.536E+00
   14.400   3.577E+00
   14.500   3.618E+00
   14.600   3.659E+00
   14.700   3.701E+00
   14.800   3.743E+00
   14.900   3.787E+00
   15.000   3.831E+00
   15.100   3.876E+00
   15.200   3.922E+00
   15.300   3.968E+00
   15.400   4.013E+00
   15.500   4.058E+00
   15.600   4.102E+00
   15.700   4.145E+00
   15.800   4.187E+00
   15.900   4.227E+00
   16.000   4.264E+00
   16.100   4.300E+00
   16.200   4.333E+00
   16.300   4.362E+00
   16.400   4.388E+00
   16.500   4.409E+00
   16.600   4.426E+00
   16.700   4.438E+00
   16.800   4.444E+00
   16.900   4.445E+00
   17.000   4.440E+00
   17.100   4.430E+00
   17.200   4.415E+00
   17.300   4.395E+00
   17.400   4.371E+00
   17.500   4.342E+00
   17.600   4.309E+00
   17.700   4.272E+00
   17.800   4.231E+00
   17.900   4.186E+00
   18.000   4.136E+00
   18.100   4.082E+00
   18.200   4.024E+00
   18.300   3.962E+00
   18.400   3.897E+00
   18.500   3.829E+00
   18.600   3.758E+00
   18.700   3.686E+00
   18.800   3.612E+00
   18.900   3.538E+00
   19.000   3.463E+00
   19.100   3.388E+00
   19.200   3.312E+00
   19.300   3.236E+00
   19.400   3.160E+00
   19.500   3.084E+00
   19.600   3.007E+00
   19.700   2.929E+00
   19.800   2.851E+00
   19.900   2.773E+00
   20.000   2.695E+00
   20.100   2.617E+00
   20.200   2.541E+00
   20.300   2.465E+00
   20.400   2.392E+00
   20.500   2.320E+00
   20.600   2.252E+00
   20.700   2.185E+00
   20.800   2.122E+00
   20.900   2.061E+00
   21.000   2.004E+00
   21.100   1.950E+00
   21.200   1.898E+00
   21.300   1.850E+00
   21.400   1.804E+00
   21.500   1.760E+00
   21.600   1.719E+00
   21.700   1.680E+00
   21.800   1.643E+00
   21.900   1.608E+00
   22.000   1.574E+00
   22.100   1.542E+00
   22.200   1.511E+00
   22.300   1.481E+00
   22.400   1.453E+00
   22.500   1.425E+00
   22.600   1.398E+00
   22.700   1.372E+00
   22.800   1.347E+00
   22.900   1.323E+00
   23.000   1.299E+00
   23.100   1.276E+00
   23.200   1.254E+00
   23.300   1.233E+00
   23.400   1.212E+00
   23.500   1.192E+00
   23.600   1.174E+00
   23.700   1.156E+00
   23.800   1.138E+00
   23.900   1.122E+00
   24.000   1.106E+00
   24.100   1.091E+00
   24.200   1.076E+00
   24.300   1.061E+00
   24.400   1.047E+00
   24.500   1.033E+00
   24.600   1.019E+00
   24.700   1.005E+00
   24.800   9.912E-01
   24.900   9.774E-01
   25.000   9.638E-01
   25.100   9.504E-01
   25.200   9.373E-01
   25.300   9.246E-01
   25.400   9.124E-01
   25.500   9.005E-01
   25.600   8.892E-01
   25.700   8.784E-01
   25.800   8.680E-01
   25.900   8.581E-01
   26.000   8.485E-01
   26.100   8.393E-01
   26.200   8.303E-01
   26.300   8.214E-01
   26.400   8.127E-01
   26.500   8.040E-01
   26.600   7.954E-01
   26.700   7.868E-01
   26.800   7.783E-01
   26.900   7.698E-01
   27.000   7.614E-01
   27.100   7.531E-01
   27.200   7.449E-01
   27.300   7.369E-01
   27.400   7.291E-01
   27.500   7.213E-01
   27.600   7.137E-01
   27.700   7.062E-01
   27.800   6.987E-01
   27.900   6.912E-01
   28.000   6.838E-01
   28.100   6.763E-01
   28.200   6.687E-01
   28.300   6.612E-01
   28.400   6.535E-01
   28.500   6.459E-01
   28.600   6.383E-01
   28.700   6.307E-01
   28.800   6.233E-01
   28.900   6.159E-01
   29.000   6.087E-01
   29.100   6.017E-01
   29.200   5.949E-01
   29.300   5.884E-01
   29.400   5.820E-01
   29.500   5.759E-01
   29.600   5.699E-01
   29.700   5.642E-01
   29.800   5.585E-01
   29.900   5.529E-01
   30.000   5.474E-01
 
 Z=  18 A=  55 Ar
  U[MeV]  fE1[mb/MeV]
    0.100   9.612E-05
    0.200   3.848E-04
    0.300   8.668E-04
    0.400   1.544E-03
    0.500   2.418E-03
    0.600   3.492E-03
    0.700   4.768E-03
    0.800   6.252E-03
    0.900   7.948E-03
    1.000   9.861E-03
    1.100   1.200E-02
    1.200   1.436E-02
    1.300   1.697E-02
    1.400   1.982E-02
    1.500   2.293E-02
    1.600   2.630E-02
    1.700   2.996E-02
    1.800   3.390E-02
    1.900   3.815E-02
    2.000   4.273E-02
    2.100   4.764E-02
    2.200   5.290E-02
    2.300   5.854E-02
    2.400   6.458E-02
    2.500   7.104E-02
    2.600   7.795E-02
    2.700   8.534E-02
    2.800   9.323E-02
    2.900   1.017E-01
    3.000   1.107E-01
    3.100   1.203E-01
    3.200   1.306E-01
    3.300   1.416E-01
    3.400   1.533E-01
    3.500   1.659E-01
    3.600   1.793E-01
    3.700   1.937E-01
    3.800   2.090E-01
    3.900   2.255E-01
    4.000   2.431E-01
    4.100   2.620E-01
    4.200   2.822E-01
    4.300   3.038E-01
    4.400   3.269E-01
    4.500   3.517E-01
    4.600   3.782E-01
    4.700   4.066E-01
    4.800   4.368E-01
    4.900   4.691E-01
    5.000   5.036E-01
    5.100   5.402E-01
    5.200   5.790E-01
    5.300   6.201E-01
    5.400   6.635E-01
    5.500   7.091E-01
    5.600   7.569E-01
    5.700   8.067E-01
    5.800   8.584E-01
    5.900   9.118E-01
    6.000   9.667E-01
    6.100   1.023E+00
    6.200   1.080E+00
    6.300   1.138E+00
    6.400   1.196E+00
    6.500   1.255E+00
    6.600   1.314E+00
    6.700   1.372E+00
    6.800   1.431E+00
    6.900   1.490E+00
    7.000   1.548E+00
    7.100   1.607E+00
    7.200   1.665E+00
    7.300   1.723E+00
    7.400   1.781E+00
    7.500   1.839E+00
    7.600   1.896E+00
    7.700   1.953E+00
    7.800   2.009E+00
    7.900   2.064E+00
    8.000   2.117E+00
    8.100   2.169E+00
    8.200   2.219E+00
    8.300   2.267E+00
    8.400   2.312E+00
    8.500   2.354E+00
    8.600   2.393E+00
    8.700   2.429E+00
    8.800   2.461E+00
    8.900   2.489E+00
    9.000   2.514E+00
    9.100   2.535E+00
    9.200   2.553E+00
    9.300   2.567E+00
    9.400   2.577E+00
    9.500   2.584E+00
    9.600   2.588E+00
    9.700   2.588E+00
    9.800   2.586E+00
    9.900   2.581E+00
   10.000   2.574E+00
   10.100   2.566E+00
   10.200   2.555E+00
   10.300   2.544E+00
   10.400   2.533E+00
   10.500   2.521E+00
   10.600   2.509E+00
   10.700   2.498E+00
   10.800   2.489E+00
   10.900   2.481E+00
   11.000   2.476E+00
   11.100   2.473E+00
   11.200   2.474E+00
   11.300   2.478E+00
   11.400   2.486E+00
   11.500   2.499E+00
   11.600   2.516E+00
   11.700   2.538E+00
   11.800   2.564E+00
   11.900   2.594E+00
   12.000   2.629E+00
   12.100   2.668E+00
   12.200   2.710E+00
   12.300   2.756E+00
   12.400   2.805E+00
   12.500   2.856E+00
   12.600   2.909E+00
   12.700   2.963E+00
   12.800   3.018E+00
   12.900   3.073E+00
   13.000   3.128E+00
   13.100   3.182E+00
   13.200   3.235E+00
   13.300   3.286E+00
   13.400   3.336E+00
   13.500   3.385E+00
   13.600   3.431E+00
   13.700   3.477E+00
   13.800   3.520E+00
   13.900   3.562E+00
   14.000   3.602E+00
   14.100   3.642E+00
   14.200   3.679E+00
   14.300   3.716E+00
   14.400   3.752E+00
   14.500   3.787E+00
   14.600   3.821E+00
   14.700   3.855E+00
   14.800   3.889E+00
   14.900   3.923E+00
   15.000   3.957E+00
   15.100   3.992E+00
   15.200   4.026E+00
   15.300   4.061E+00
   15.400   4.095E+00
   15.500   4.130E+00
   15.600   4.163E+00
   15.700   4.195E+00
   15.800   4.227E+00
   15.900   4.256E+00
   16.000   4.284E+00
   16.100   4.309E+00
   16.200   4.332E+00
   16.300   4.352E+00
   16.400   4.368E+00
   16.500   4.381E+00
   16.600   4.390E+00
   16.700   4.394E+00
   16.800   4.394E+00
   16.900   4.390E+00
   17.000   4.381E+00
   17.100   4.367E+00
   17.200   4.349E+00
   17.300   4.327E+00
   17.400   4.300E+00
   17.500   4.270E+00
   17.600   4.235E+00
   17.700   4.196E+00
   17.800   4.153E+00
   17.900   4.106E+00
   18.000   4.055E+00
   18.100   4.000E+00
   18.200   3.941E+00
   18.300   3.878E+00
   18.400   3.813E+00
   18.500   3.745E+00
   18.600   3.674E+00
   18.700   3.603E+00
   18.800   3.530E+00
   18.900   3.456E+00
   19.000   3.382E+00
   19.100   3.307E+00
   19.200   3.233E+00
   19.300   3.158E+00
   19.400   3.083E+00
   19.500   3.009E+00
   19.600   2.934E+00
   19.700   2.859E+00
   19.800   2.785E+00
   19.900   2.711E+00
   20.000   2.638E+00
   20.100   2.566E+00
   20.200   2.495E+00
   20.300   2.425E+00
   20.400   2.358E+00
   20.500   2.292E+00
   20.600   2.228E+00
   20.700   2.167E+00
   20.800   2.108E+00
   20.900   2.051E+00
   21.000   1.997E+00
   21.100   1.946E+00
   21.200   1.897E+00
   21.300   1.850E+00
   21.400   1.805E+00
   21.500   1.763E+00
   21.600   1.722E+00
   21.700   1.684E+00
   21.800   1.647E+00
   21.900   1.612E+00
   22.000   1.578E+00
   22.100   1.546E+00
   22.200   1.515E+00
   22.300   1.486E+00
   22.400   1.458E+00
   22.500   1.430E+00
   22.600   1.405E+00
   22.700   1.380E+00
   22.800   1.356E+00
   22.900   1.333E+00
   23.000   1.311E+00
   23.100   1.290E+00
   23.200   1.270E+00
   23.300   1.250E+00
   23.400   1.232E+00
   23.500   1.214E+00
   23.600   1.197E+00
   23.700   1.180E+00
   23.800   1.164E+00
   23.900   1.149E+00
   24.000   1.134E+00
   24.100   1.119E+00
   24.200   1.104E+00
   24.300   1.090E+00
   24.400   1.075E+00
   24.500   1.061E+00
   24.600   1.048E+00
   24.700   1.034E+00
   24.800   1.021E+00
   24.900   1.008E+00
   25.000   9.953E-01
   25.100   9.832E-01
   25.200   9.716E-01
   25.300   9.603E-01
   25.400   9.494E-01
   25.500   9.388E-01
   25.600   9.285E-01
   25.700   9.184E-01
   25.800   9.084E-01
   25.900   8.984E-01
   26.000   8.884E-01
   26.100   8.783E-01
   26.200   8.681E-01
   26.300   8.578E-01
   26.400   8.474E-01
   26.500   8.369E-01
   26.600   8.264E-01
   26.700   8.159E-01
   26.800   8.056E-01
   26.900   7.954E-01
   27.000   7.855E-01
   27.100   7.758E-01
   27.200   7.664E-01
   27.300   7.572E-01
   27.400   7.484E-01
   27.500   7.398E-01
   27.600   7.315E-01
   27.700   7.233E-01
   27.800   7.153E-01
   27.900   7.073E-01
   28.000   6.994E-01
   28.100   6.914E-01
   28.200   6.835E-01
   28.300   6.755E-01
   28.400   6.675E-01
   28.500   6.595E-01
   28.600   6.515E-01
   28.700   6.436E-01
   28.800   6.358E-01
   28.900   6.281E-01
   29.000   6.205E-01
   29.100   6.132E-01
   29.200   6.061E-01
   29.300   5.993E-01
   29.400   5.926E-01
   29.500   5.862E-01
   29.600   5.801E-01
   29.700   5.740E-01
   29.800   5.682E-01
   29.900   5.624E-01
   30.000   5.567E-01
 
 Z=  18 A=  56 Ar
  U[MeV]  fE1[mb/MeV]
    0.100   9.896E-05
    0.200   3.961E-04
    0.300   8.925E-04
    0.400   1.590E-03
    0.500   2.489E-03
    0.600   3.595E-03
    0.700   4.910E-03
    0.800   6.438E-03
    0.900   8.185E-03
    1.000   1.016E-02
    1.100   1.236E-02
    1.200   1.479E-02
    1.300   1.748E-02
    1.400   2.042E-02
    1.500   2.362E-02
    1.600   2.710E-02
    1.700   3.087E-02
    1.800   3.493E-02
    1.900   3.932E-02
    2.000   4.403E-02
    2.100   4.910E-02
    2.200   5.453E-02
    2.300   6.036E-02
    2.400   6.659E-02
    2.500   7.327E-02
    2.600   8.041E-02
    2.700   8.804E-02
    2.800   9.620E-02
    2.900   1.049E-01
    3.000   1.142E-01
    3.100   1.242E-01
    3.200   1.349E-01
    3.300   1.463E-01
    3.400   1.584E-01
    3.500   1.715E-01
    3.600   1.854E-01
    3.700   2.004E-01
    3.800   2.163E-01
    3.900   2.335E-01
    4.000   2.518E-01
    4.100   2.715E-01
    4.200   2.925E-01
    4.300   3.151E-01
    4.400   3.393E-01
    4.500   3.653E-01
    4.600   3.931E-01
    4.700   4.228E-01
    4.800   4.546E-01
    4.900   4.886E-01
    5.000   5.248E-01
    5.100   5.633E-01
    5.200   6.043E-01
    5.300   6.477E-01
    5.400   6.934E-01
    5.500   7.416E-01
    5.600   7.920E-01
    5.700   8.445E-01
    5.800   8.989E-01
    5.900   9.550E-01
    6.000   1.013E+00
    6.100   1.071E+00
    6.200   1.131E+00
    6.300   1.191E+00
    6.400   1.251E+00
    6.500   1.311E+00
    6.600   1.371E+00
    6.700   1.430E+00
    6.800   1.489E+00
    6.900   1.548E+00
    7.000   1.607E+00
    7.100   1.665E+00
    7.200   1.723E+00
    7.300   1.781E+00
    7.400   1.839E+00
    7.500   1.897E+00
    7.600   1.955E+00
    7.700   2.013E+00
    7.800   2.071E+00
    7.900   2.128E+00
    8.000   2.185E+00
    8.100   2.242E+00
    8.200   2.297E+00
    8.300   2.350E+00
    8.400   2.402E+00
    8.500   2.452E+00
    8.600   2.499E+00
    8.700   2.543E+00
    8.800   2.585E+00
    8.900   2.624E+00
    9.000   2.659E+00
    9.100   2.691E+00
    9.200   2.719E+00
    9.300   2.743E+00
    9.400   2.764E+00
    9.500   2.780E+00
    9.600   2.793E+00
    9.700   2.801E+00
    9.800   2.806E+00
    9.900   2.807E+00
   10.000   2.805E+00
   10.100   2.800E+00
   10.200   2.793E+00
   10.300   2.783E+00
   10.400   2.771E+00
   10.500   2.759E+00
   10.600   2.746E+00
   10.700   2.733E+00
   10.800   2.721E+00
   10.900   2.710E+00
   11.000   2.701E+00
   11.100   2.696E+00
   11.200   2.693E+00
   11.300   2.695E+00
   11.400   2.701E+00
   11.500   2.712E+00
   11.600   2.727E+00
   11.700   2.748E+00
   11.800   2.774E+00
   11.900   2.805E+00
   12.000   2.841E+00
   12.100   2.882E+00
   12.200   2.927E+00
   12.300   2.976E+00
   12.400   3.028E+00
   12.500   3.082E+00
   12.600   3.139E+00
   12.700   3.198E+00
   12.800   3.257E+00
   12.900   3.316E+00
   13.000   3.375E+00
   13.100   3.434E+00
   13.200   3.491E+00
   13.300   3.547E+00
   13.400   3.601E+00
   13.500   3.653E+00
   13.600   3.704E+00
   13.700   3.752E+00
   13.800   3.799E+00
   13.900   3.843E+00
   14.000   3.886E+00
   14.100   3.926E+00
   14.200   3.964E+00
   14.300   4.001E+00
   14.400   4.035E+00
   14.500   4.068E+00
   14.600   4.099E+00
   14.700   4.128E+00
   14.800   4.156E+00
   14.900   4.184E+00
   15.000   4.210E+00
   15.100   4.235E+00
   15.200   4.260E+00
   15.300   4.285E+00
   15.400   4.309E+00
   15.500   4.333E+00
   15.600   4.355E+00
   15.700   4.377E+00
   15.800   4.398E+00
   15.900   4.417E+00
   16.000   4.434E+00
   16.100   4.448E+00
   16.200   4.460E+00
   16.300   4.468E+00
   16.400   4.473E+00
   16.500   4.474E+00
   16.600   4.470E+00
   16.700   4.463E+00
   16.800   4.452E+00
   16.900   4.437E+00
   17.000   4.419E+00
   17.100   4.397E+00
   17.200   4.372E+00
   17.300   4.343E+00
   17.400   4.312E+00
   17.500   4.276E+00
   17.600   4.237E+00
   17.700   4.195E+00
   17.800   4.148E+00
   17.900   4.097E+00
   18.000   4.042E+00
   18.100   3.983E+00
   18.200   3.920E+00
   18.300   3.854E+00
   18.400   3.784E+00
   18.500   3.712E+00
   18.600   3.638E+00
   18.700   3.563E+00
   18.800   3.487E+00
   18.900   3.410E+00
   19.000   3.334E+00
   19.100   3.257E+00
   19.200   3.181E+00
   19.300   3.104E+00
   19.400   3.028E+00
   19.500   2.952E+00
   19.600   2.876E+00
   19.700   2.801E+00
   19.800   2.727E+00
   19.900   2.653E+00
   20.000   2.580E+00
   20.100   2.509E+00
   20.200   2.440E+00
   20.300   2.372E+00
   20.400   2.306E+00
   20.500   2.242E+00
   20.600   2.180E+00
   20.700   2.121E+00
   20.800   2.064E+00
   20.900   2.009E+00
   21.000   1.956E+00
   21.100   1.906E+00
   21.200   1.857E+00
   21.300   1.811E+00
   21.400   1.767E+00
   21.500   1.725E+00
   21.600   1.685E+00
   21.700   1.647E+00
   21.800   1.611E+00
   21.900   1.576E+00
   22.000   1.543E+00
   22.100   1.512E+00
   22.200   1.482E+00
   22.300   1.453E+00
   22.400   1.426E+00
   22.500   1.400E+00
   22.600   1.375E+00
   22.700   1.351E+00
   22.800   1.329E+00
   22.900   1.307E+00
   23.000   1.286E+00
   23.100   1.266E+00
   23.200   1.247E+00
   23.300   1.229E+00
   23.400   1.212E+00
   23.500   1.195E+00
   23.600   1.179E+00
   23.700   1.164E+00
   23.800   1.148E+00
   23.900   1.134E+00
   24.000   1.119E+00
   24.100   1.105E+00
   24.200   1.091E+00
   24.300   1.077E+00
   24.400   1.064E+00
   24.500   1.050E+00
   24.600   1.038E+00
   24.700   1.025E+00
   24.800   1.013E+00
   24.900   1.002E+00
   25.000   9.906E-01
   25.100   9.799E-01
   25.200   9.696E-01
   25.300   9.596E-01
   25.400   9.498E-01
   25.500   9.401E-01
   25.600   9.305E-01
   25.700   9.208E-01
   25.800   9.110E-01
   25.900   9.010E-01
   26.000   8.908E-01
   26.100   8.804E-01
   26.200   8.697E-01
   26.300   8.588E-01
   26.400   8.478E-01
   26.500   8.367E-01
   26.600   8.256E-01
   26.700   8.146E-01
   26.800   8.037E-01
   26.900   7.931E-01
   27.000   7.827E-01
   27.100   7.727E-01
   27.200   7.631E-01
   27.300   7.537E-01
   27.400   7.448E-01
   27.500   7.361E-01
   27.600   7.276E-01
   27.700   7.194E-01
   27.800   7.114E-01
   27.900   7.034E-01
   28.000   6.955E-01
   28.100   6.875E-01
   28.200   6.796E-01
   28.300   6.716E-01
   28.400   6.636E-01
   28.500   6.556E-01
   28.600   6.476E-01
   28.700   6.396E-01
   28.800   6.317E-01
   28.900   6.239E-01
   29.000   6.163E-01
   29.100   6.088E-01
   29.200   6.016E-01
   29.300   5.946E-01
   29.400   5.878E-01
   29.500   5.812E-01
   29.600   5.748E-01
   29.700   5.686E-01
   29.800   5.626E-01
   29.900   5.566E-01
   30.000   5.507E-01
 
