# n + In113 : (n,n'01)  
# jendl4.0   S.Kunieda, A.Ichihara, K.Shibata+ EVAL-FEB22
# uncertainties: n
# # energies =    52
#   E(MeV)       xs(mb) 
 3.95190E-01    0.00000E+00
 4.00000E-01    3.98500E-01
 4.50000E-01    2.84300E+00
 5.00000E-01    4.61300E+00
 5.50000E-01    6.35800E+00
 6.00000E-01    8.25700E+00
 6.50000E-01    1.03500E+01
 7.00000E-01    1.09800E+01
 7.50000E-01    1.21900E+01
 8.00000E-01    1.37600E+01
 8.50000E-01    1.55500E+01
 9.00000E-01    1.75100E+01
 9.50000E-01    1.95700E+01
 1.00000E+00    2.17200E+01
 1.20000E+00    1.96400E+01
 1.40000E+00    1.79300E+01
 1.60000E+00    1.39400E+01
 1.80000E+00    1.08600E+01
 2.00000E+00    8.55200E+00
 2.20000E+00    6.78700E+00
 2.40000E+00    5.39900E+00
 2.60000E+00    4.30200E+00
 2.80000E+00    3.43600E+00
 3.00000E+00    2.75300E+00
 3.25000E+00    2.08500E+00
 3.50000E+00    1.60900E+00
 3.75000E+00    1.24300E+00
 4.00000E+00    9.66700E-01
 4.25000E+00    7.64400E-01
 4.50000E+00    6.02800E-01
 4.75000E+00    4.92800E-01
 5.00000E+00    3.98600E-01
 5.50000E+00    2.86900E-01
 6.00000E+00    2.27200E-01
 6.50000E+00    1.95700E-01
 7.00000E+00    1.93100E-01
 7.50000E+00    1.82800E-01
 8.00000E+00    1.75900E-01
 8.50000E+00    1.70900E-01
 9.00000E+00    1.66800E-01
 9.50000E+00    1.63200E-01
 1.00000E+01    1.59800E-01
 1.10000E+01    1.53100E-01
 1.20000E+01    1.46100E-01
 1.30000E+01    1.39200E-01
 1.40000E+01    1.32600E-01
 1.50000E+01    1.26700E-01
 1.60000E+01    1.21000E-01
 1.70000E+01    1.15500E-01
 1.80000E+01    1.21800E-01
 1.90000E+01    1.17300E-01
 2.00000E+01    1.13300E-01
