# n + In113 : (n,n'02)  
# jendl4.0   S.Kunieda, A.Ichihara, K.Shibata+ EVAL-FEB22
# uncertainties: n
# # energies =    46
#   E(MeV)       xs(mb) 
 6.52538E-01    0.00000E+00
 7.00000E-01    1.09000E+01
 7.50000E-01    1.82200E+01
 8.00000E-01    2.40100E+01
 8.50000E-01    2.92300E+01
 9.00000E-01    3.42600E+01
 9.50000E-01    3.92300E+01
 1.00000E+00    4.42200E+01
 1.20000E+00    4.55200E+01
 1.40000E+00    4.52900E+01
 1.60000E+00    3.48600E+01
 1.80000E+00    2.69300E+01
 2.00000E+00    2.08500E+01
 2.20000E+00    1.61600E+01
 2.40000E+00    1.25700E+01
 2.60000E+00    9.78900E+00
 2.80000E+00    7.63800E+00
 3.00000E+00    5.97800E+00
 3.25000E+00    4.40200E+00
 3.50000E+00    3.30900E+00
 3.75000E+00    2.50200E+00
 4.00000E+00    1.91000E+00
 4.25000E+00    1.49100E+00
 4.50000E+00    1.16500E+00
 4.75000E+00    9.47100E-01
 5.00000E+00    7.63700E-01
 5.50000E+00    5.49100E-01
 6.00000E+00    4.35400E-01
 6.50000E+00    3.75500E-01
 7.00000E+00    3.70800E-01
 7.50000E+00    3.50900E-01
 8.00000E+00    3.37600E-01
 8.50000E+00    3.27600E-01
 9.00000E+00    3.19500E-01
 9.50000E+00    3.12400E-01
 1.00000E+01    3.05900E-01
 1.10000E+01    2.93100E-01
 1.20000E+01    2.80300E-01
 1.30000E+01    2.67700E-01
 1.40000E+01    2.55600E-01
 1.50000E+01    2.44900E-01
 1.60000E+01    2.34300E-01
 1.70000E+01    2.24200E-01
 1.80000E+01    2.36600E-01
 1.90000E+01    2.28200E-01
 2.00000E+01    2.20800E-01
