# n + In113 : (n,na)    
# jendl4.0   S.Kunieda, A.Ichihara, K.Shibata+ EVAL-FEB22
# uncertainties: n
# # energies =    27
#   E(MeV)       xs(mb) 
 3.50000E+00    0.00000E+00
 3.75000E+00    2.41700E-31
 4.00000E+00    3.78200E-27
 4.25000E+00    6.07700E-24
 4.50000E+00    1.82100E-21
 4.75000E+00    2.37200E-19
 5.00000E+00    1.34400E-17
 5.50000E+00    1.08800E-14
 6.00000E+00    2.23700E-12
 6.50000E+00    1.71100E-10
 7.00000E+00    6.46500E-09
 7.50000E+00    1.44400E-07
 8.00000E+00    2.13800E-06
 8.50000E+00    2.19400E-05
 9.00000E+00    1.63000E-04
 9.50000E+00    8.83300E-04
 1.00000E+01    2.92200E-03
 1.10000E+01    6.55500E-03
 1.20000E+01    1.22600E-02
 1.30000E+01    3.24200E-02
 1.40000E+01    8.86600E-02
 1.50000E+01    2.21500E-01
 1.60000E+01    5.00100E-01
 1.70000E+01    1.01200E+00
 1.80000E+01    1.78800E+00
 1.90000E+01    2.83100E+00
 2.00000E+01    4.06200E+00
