# n + W   0 : (n,xa)
# jendl4.0   N.Iwamoto                         EVAL-Feb10
#
# # energies =   111
#   E(MeV)          xs(mb) 
 4.67403E-02    2.37234E-04
 5.00000E-02    2.02774E-04
 6.00000E-02    1.77620E-04
 7.00000E-02    1.62059E-04
 8.00000E-02    1.51287E-04
 9.00000E-02    1.44006E-04
 9.96253E-02    1.38768E-04
 1.00000E-01    1.32936E-04
 1.05000E-01    1.35645E-04
 1.10000E-01    1.27990E-04
 1.20000E-01    1.20078E-04
 1.30000E-01    1.14127E-04
 1.40000E-01    1.09517E-04
 1.50000E-01    1.05955E-04
 1.60000E-01    1.03177E-04
 1.70000E-01    1.00495E-04
 1.80000E-01    9.84693E-05
 1.90000E-01    9.70164E-05
 2.00000E-01    9.56673E-05
 2.08153E-01    9.47359E-05
 2.09957E-01    9.25778E-05
 2.25000E-01    8.40804E-05
 2.50000E-01    7.96842E-05
 2.75000E-01    7.69880E-05
 2.93332E-01    7.62052E-05
 3.00000E-01    7.42518E-05
 3.10648E-01    7.32553E-05
 3.11199E-01    7.32038E-05
 4.00000E-01    7.30419E-05
 4.14367E-01    7.35123E-05
 4.55569E-01    7.42679E-05
 4.78021E-01    7.48429E-05
 4.89685E-01    7.57357E-05
 5.00000E-01    7.64551E-05
 5.35939E-01    7.92219E-05
 5.54138E-01    7.86659E-05
 5.98622E-01    8.23129E-05
 6.00000E-01    8.24259E-05
 6.26193E-01    8.49737E-05
 6.26194E-01    8.49738E-05
 6.34680E-01    8.58155E-05
 7.00000E-01    9.40248E-05
 7.43999E-01    1.00741E-04
 7.76296E-01    1.06066E-04
 7.76297E-01    1.06066E-04
 8.00000E-01    1.10775E-04
 8.55290E-01    1.22261E-04
 8.75802E-01    1.26907E-04
 9.00000E-01    1.31768E-04
 9.08481E-01    1.33686E-04
 9.09507E-01    1.33737E-04
 9.18034E-01    1.34950E-04
 9.31357E-01    1.36932E-04
 9.39803E-01    1.38551E-04
 9.65293E-01    1.43212E-04
 9.65294E-01    1.43212E-04
 9.79350E-01    1.45184E-04
 1.00000E+00    1.50315E-04
 1.00760E+00    1.52056E-04
 1.03206E+00    1.57542E-04
 1.05874E+00    1.63308E-04
 1.06836E+00    1.65352E-04
 1.07791E+00    1.67490E-04
 1.10000E+00    1.73809E-04
 1.20000E+00    2.02479E-04
 1.30000E+00    2.29218E-04
 1.40000E+00    2.55555E-04
 1.50000E+00    2.87457E-04
 1.60000E+00    3.23569E-04
 1.70000E+00    3.67325E-04
 1.80000E+00    4.18962E-04
 1.90000E+00    4.68543E-04
 2.00000E+00    5.24094E-04
 2.25000E+00    7.03759E-04
 2.50000E+00    9.17563E-04
 2.75000E+00    1.14694E-03
 3.00000E+00    1.42227E-03
 3.50000E+00    2.02696E-03
 4.00000E+00    2.75797E-03
 4.50000E+00    3.57217E-03
 5.00000E+00    4.43696E-03
 5.50000E+00    5.32300E-03
 6.00000E+00    6.25939E-03
 6.50000E+00    7.37076E-03
 7.00000E+00    8.95161E-03
 7.50000E+00    1.15246E-02
 8.00000E+00    1.55852E-02
 8.50000E+00    2.14510E-02
 9.00000E+00    2.85626E-02
 9.50000E+00    3.84537E-02
 1.00000E+01    5.35361E-02
 1.05000E+01    7.60575E-02
 1.10000E+01    1.08621E-01
 1.15000E+01    1.54495E-01
 1.20000E+01    2.17016E-01
 1.25000E+01    2.99695E-01
 1.30000E+01    4.05772E-01
 1.35000E+01    5.37866E-01
 1.40000E+01    6.97500E-01
 1.45000E+01    8.85777E-01
 1.50000E+01    1.10218E+00
 1.55000E+01    1.34506E+00
 1.60000E+01    1.61253E+00
 1.65000E+01    1.90150E+00
 1.70000E+01    2.20901E+00
 1.75000E+01    2.53168E+00
 1.80000E+01    2.86628E+00
 1.85000E+01    3.20972E+00
 1.90000E+01    3.55923E+00
 1.95000E+01    3.91240E+00
 2.00000E+01    4.26716E+00
