# n + W   0 : (n,h)
# jendl4.0   N.Iwamoto                         EVAL-Feb10
# uncertainties: n
# # energies =    28
#   E(MeV)          xs(mb) 
 6.50000E+00    0.00000E+00
 7.00000E+00    2.39688E-33
 7.50000E+00    2.87160E-29
 8.00000E+00    3.95964E-26
 8.50000E+00    1.18254E-23
 9.00000E+00    1.14331E-21
 9.50000E+00    4.68765E-20
 1.00000E+01    9.86234E-19
 1.05000E+01    1.23793E-17
 1.10000E+01    1.06867E-16
 1.15000E+01    7.33599E-16
 1.20000E+01    4.47403E-15
 1.25000E+01    2.53901E-14
 1.30000E+01    1.41100E-13
 1.35000E+01    8.62180E-13
 1.40000E+01    6.13290E-12
 1.45000E+01    4.41570E-11
 1.50000E+01    2.85657E-10
 1.55000E+01    1.59465E-09
 1.60000E+01    6.67415E-09
 1.65000E+01    2.69161E-08
 1.70000E+01    9.39633E-08
 1.75000E+01    2.88673E-07
 1.80000E+01    7.93038E-07
 1.85000E+01    1.97657E-06
 1.90000E+01    4.52759E-06
 1.95000E+01    9.60857E-06
 2.00000E+01    1.92027E-05
