# n + Sn120 : (n,na)    
# jendl.ad   N.Iwamoto                         EVAL-Apr14
# uncertainties: n
# # energies =    28
#   E(MeV)       xs(mb) 
 4.85107E+00    0.00000E+00
 7.00000E+00    6.72930E-24
 7.50000E+00    6.65350E-19
 8.00000E+00    2.41160E-15
 8.50000E+00    1.13490E-12
 9.00000E+00    1.32320E-10
 9.50000E+00    2.32840E-09
 1.00000E+01    1.20150E-08
 1.05000E+01    1.15270E-07
 1.10000E+01    8.29220E-07
 1.15000E+01    5.05441E-06
 1.20000E+01    2.42847E-05
 1.25000E+01    9.70170E-05
 1.30000E+01    3.31051E-04
 1.35000E+01    9.96363E-04
 1.40000E+01    2.69811E-03
 1.45000E+01    6.70321E-03
 1.50000E+01    1.54577E-02
 1.55000E+01    3.34636E-02
 1.60000E+01    6.84410E-02
 1.65000E+01    1.32739E-01
 1.70000E+01    2.44659E-01
 1.75000E+01    4.28084E-01
 1.80000E+01    7.10577E-01
 1.85000E+01    1.11737E+00
 1.90000E+01    1.66756E+00
 1.95000E+01    2.36910E+00
 2.00000E+01    3.22242E+00
