# n + Ho166m: (n,tot)   
# endfb8.0   Herman,Oblozinsky,Mughabghab      EVAL-MAR06
# uncertainties: n
# # energies =   171
#   E(MeV)       xs(mb) 
 1.00000E-11    3.26180E+07
 1.00000E-07    1.18731E+07
 4.13990E-07    1.48979E+06
 5.31580E-07    4.73622E+05
 6.82560E-07    1.87383E+05
 8.76420E-07    8.56300E+04
 1.12540E-06    4.42149E+04
 1.44500E-06    2.58110E+04
 1.85540E-06    1.71700E+04
 2.37240E-06    1.29112E+04
 3.05900E-06    1.08799E+04
 3.92790E-06    1.03515E+04
 5.04350E-06    1.24286E+04
 6.47600E-06    1.19506E+05
 8.31530E-06    1.22015E+06
 1.06770E-05    1.32573E+04
 1.37100E-05    9.04251E+03
 1.76030E-05    7.94929E+03
 2.26030E-05    7.42652E+03
 2.92030E-05    7.04280E+03
 3.72670E-05    6.55130E+03
 4.78510E-05    1.70849E+05
 6.14420E-05    8.24706E+04
 7.88930E-05    9.27180E+04
 1.01300E-04    8.26893E+04
 1.30070E-04    7.38178E+04
 1.67020E-04    6.60069E+04
 2.14450E-04    5.91031E+04
 2.75360E-04    5.30079E+04
 3.53580E-04    4.76384E+04
 4.54000E-04    4.28946E+04
 5.82950E-04    3.87064E+04
 7.48520E-04    3.50172E+04
 9.61120E-04    3.17557E+04
 1.23410E-03    2.88779E+04
 1.58460E-03    2.63426E+04
 2.03470E-03    2.47338E+04
 2.24870E-03    2.38817E+04
 2.48520E-03    2.32686E+04
 2.61260E-03    2.28777E+04
 2.74650E-03    2.23019E+04
 3.03540E-03    2.15672E+04
 3.35460E-03    2.08719E+04
 3.70740E-03    2.00470E+04
 4.30740E-03    1.88331E+04
 5.53080E-03    1.74711E+04
 7.10170E-03    1.62652E+04
 9.11880E-03    1.51968E+04
 1.17090E-02    1.42512E+04
 1.50340E-02    1.34084E+04
 1.93050E-02    1.28343E+04
 2.18750E-02    1.25481E+04
 2.35790E-02    1.24090E+04
 2.41760E-02    1.23416E+04
 2.47880E-02    1.22406E+04
 2.60580E-02    1.21276E+04
 2.70000E-02    1.20125E+04
 2.85000E-02    1.18057E+04
 3.18280E-02    1.15786E+04
 3.43070E-02    1.12865E+04
 4.08680E-02    1.09520E+04
 4.63090E-02    1.06865E+04
 5.24750E-02    1.04818E+04
 5.65620E-02    1.02357E+04
 6.73790E-02    1.00040E+04
 7.20000E-02    9.85000E+03
 7.95000E-02    9.72505E+03
 8.25000E-02    9.64867E+03
 8.65170E-02    9.49519E+03
 9.80370E-02    9.27710E+03
 1.11090E-01    9.12861E+03
 1.16790E-01    9.04334E+03
 1.22770E-01    8.95940E+03
 1.29070E-01    8.88236E+03
 1.35690E-01    8.84783E+03
 1.42640E-01    8.82034E+03
 1.49960E-01    8.79144E+03
 1.57640E-01    8.76106E+03
 1.65730E-01    8.72911E+03
 1.74220E-01    8.69553E+03
 1.83160E-01    8.66021E+03
 1.92550E-01    8.62311E+03
 2.02420E-01    8.58409E+03
 2.12800E-01    8.54307E+03
 2.23710E-01    8.49995E+03
 2.35180E-01    8.45462E+03
 2.47240E-01    8.38191E+03
 2.73240E-01    8.30420E+03
 2.87250E-01    8.26303E+03
 2.94520E-01    8.24380E+03
 2.97200E-01    8.23612E+03
 2.98500E-01    8.22694E+03
 3.01970E-01    8.16006E+03
 3.33730E-01    8.03132E+03
 3.68830E-01    7.92642E+03
 3.87740E-01    7.85168E+03
 4.07620E-01    7.73181E+03
 4.50490E-01    7.55804E+03
 4.97870E-01    7.41642E+03
 5.23400E-01    7.31554E+03
 5.50230E-01    7.20950E+03
 5.78440E-01    7.09800E+03
 6.08100E-01    6.98078E+03
 6.39280E-01    6.85755E+03
 6.72060E-01    6.73015E+03
 7.06510E-01    6.67836E+03
 7.42740E-01    6.66651E+03
 7.80820E-01    6.65405E+03
 8.20850E-01    6.64095E+03
 8.62940E-01    6.62717E+03
 9.07180E-01    6.61145E+03
 9.61640E-01    6.59619E+03
 1.00260E+00    6.59858E+03
 1.10800E+00    6.61900E+03
 1.16480E+00    6.63367E+03
 1.22460E+00    6.65105E+03
 1.28730E+00    6.67503E+03
 1.35340E+00    6.70060E+03
 1.42270E+00    6.72747E+03
 1.49570E+00    6.75574E+03
 1.57240E+00    6.78545E+03
 1.65300E+00    6.81666E+03
 1.73770E+00    6.84949E+03
 1.82680E+00    6.88318E+03
 1.92050E+00    6.90724E+03
 2.01900E+00    6.92891E+03
 2.12250E+00    6.94293E+03
 2.23130E+00    6.94561E+03
 2.30690E+00    6.94725E+03
 2.34570E+00    6.94808E+03
 2.36530E+00    6.94865E+03
 2.38520E+00    6.95008E+03
 2.46600E+00    6.94483E+03
 2.59240E+00    6.91779E+03
 2.72530E+00    6.88815E+03
 2.86500E+00    6.84477E+03
 3.01190E+00    6.78652E+03
 3.16640E+00    6.71445E+03
 3.32870E+00    6.59588E+03
 3.67880E+00    6.41218E+03
 4.06570E+00    6.20355E+03
 4.49330E+00    6.03415E+03
 4.72370E+00    5.91713E+03
 4.96590E+00    5.80174E+03
 5.22050E+00    5.69981E+03
 5.48810E+00    5.59374E+03
 5.76950E+00    5.48231E+03
 6.06530E+00    5.38401E+03
 6.37630E+00    5.31028E+03
 6.59240E+00    5.26455E+03
 6.70320E+00    5.20185E+03
 7.04690E+00    5.12847E+03
 7.40820E+00    5.06658E+03
 7.78800E+00    5.00632E+03
 8.18730E+00    4.97711E+03
 8.60710E+00    4.95332E+03
 9.04840E+00    4.95230E+03
 9.51230E+00    4.96755E+03
 1.00000E+01    4.99676E+03
 1.05130E+01    5.04091E+03
 1.10520E+01    5.09338E+03
 1.16180E+01    5.15292E+03
 1.22140E+01    5.21553E+03
 1.28400E+01    5.27847E+03
 1.34990E+01    5.32244E+03
 1.38400E+01    5.35145E+03
 1.41910E+01    5.37570E+03
 1.45500E+01    5.39975E+03
 1.49180E+01    5.42997E+03
 1.56830E+01    5.46010E+03
 1.64870E+01    5.47597E+03
