# n + Ho166m: (n,xa)    
# endfb8.0   Herman,Oblozinsky,Mughabghab      EVAL-MAR06
# 
# # energies =    84
#   E(MeV)        xs(mb) 
 1.00000E-03    2.38620E-11
 1.00000E-03    2.42993E-11
 2.00000E-03    6.75920E-11
 5.00000E-03    2.68230E-10
 7.00000E-03    4.45520E-10
 1.00000E-02    8.56870E-10
 2.00000E-02    2.44380E-09
 4.85483E-02    9.67052E-09
 5.00000E-02    1.00380E-08
 7.00000E-02    4.44160E-08
 7.69499E-02    5.04200E-08
 1.00000E-01    7.03330E-08
 1.32566E-01    8.20721E-08
 1.66099E-01    9.41597E-08
 1.75546E-01    9.75651E-08
 1.86039E-01    1.01347E-07
 2.00000E-01    1.06380E-07
 2.56233E-01    1.06895E-07
 2.59372E-01    1.06924E-07
 2.60000E-01    1.06930E-07
 2.79001E-01    1.07762E-07
 2.90883E-01    1.08282E-07
 2.92683E-01    1.08361E-07
 3.25763E-01    1.09810E-07
 3.44356E-01    1.10624E-07
 5.00000E-01    1.17440E-07
 7.00000E-01    2.37580E-07
 1.00000E+00    4.16600E-07
 1.02000E+00    4.52510E-07
 1.03000E+00    4.63090E-07
 1.04000E+00    4.73670E-07
 1.05000E+00    4.84330E-07
 1.06000E+00    4.57300E-07
 1.09000E+00    4.94050E-07
 1.11000E+00    5.31760E-07
 1.13000E+00    5.55390E-07
 1.14000E+00    5.67230E-07
 1.15000E+00    5.41640E-07
 1.17000E+00    5.70290E-07
 1.20000E+00    6.21540E-07
 1.30000E+00    7.37920E-07
 1.50000E+00    1.02547E-06
 1.55000E+00    1.09046E-06
 1.60000E+00    1.20220E-06
 1.63000E+00    1.23856E-06
 1.65000E+00    1.29301E-06
 1.69000E+00    1.38255E-06
 1.70000E+00    1.40494E-06
 1.75000E+00    1.51030E-06
 1.80000E+00    1.63659E-06
 1.85000E+00    1.74683E-06
 1.90000E+00    1.90035E-06
 1.95000E+00    2.02878E-06
 2.00000E+00    2.20337E-06
 2.01000E+00    2.23603E-06
 2.02000E+00    2.26796E-06
 2.04000E+00    2.31331E-06
 2.06000E+00    2.43054E-06
 2.08000E+00    2.69559E-06
 2.10000E+00    2.76542E-06
 2.50000E+00    1.08543E-05
 2.60000E+00    1.34997E-05
 2.70000E+00    1.65745E-05
 2.80000E+00    1.94971E-05
 2.90000E+00    2.29690E-05
 3.00000E+00    2.71411E-05
 3.50000E+00    5.46870E-05
 4.00000E+00    8.36685E-05
 5.00000E+00    2.30325E-04
 6.00000E+00    6.93220E-04
 7.00000E+00    2.24342E-03
 8.00000E+00    7.26607E-03
 9.00000E+00    2.47404E-02
 1.00000E+01    7.88447E-02
 1.10000E+01    2.19805E-01
 1.20000E+01    5.12270E-01
 1.30000E+01    1.00235E+00
 1.40000E+01    1.70734E+00
 1.50000E+01    2.62846E+00
 1.60000E+01    3.75675E+00
 1.70000E+01    5.14122E+00
 1.80000E+01    6.71129E+00
 1.90000E+01    8.49958E+00
 2.00000E+01    1.04946E+01
