# n + Sn114 : (n,xp)    
# jendl.ad   N.Iwamoto                         EVAL-Apr14
# 
# # energies =   110
#   E(MeV)        xs(mb) 
 1.05000E-01    0.00000E+00
 1.10000E-01    0.00000E+00
 1.20000E-01    0.00000E+00
 1.30000E-01    0.00000E+00
 1.40000E-01    0.00000E+00
 1.50000E-01    0.00000E+00
 1.60000E-01    0.00000E+00
 1.70000E-01    0.00000E+00
 1.80000E-01    0.00000E+00
 1.90000E-01    0.00000E+00
 2.00000E-01    0.00000E+00
 2.25000E-01    0.00000E+00
 2.50000E-01    0.00000E+00
 2.75000E-01    0.00000E+00
 3.00000E-01    0.00000E+00
 4.00000E-01    0.00000E+00
 5.00000E-01    0.00000E+00
 6.00000E-01    0.00000E+00
 7.00000E-01    0.00000E+00
 8.00000E-01    0.00000E+00
 9.00000E-01    0.00000E+00
 1.00000E+00    0.00000E+00
 1.10000E+00    0.00000E+00
 1.20000E+00    0.00000E+00
 1.30000E+00    0.00000E+00
 1.31142E+00    0.00000E+00
 1.40000E+00    0.00000E+00
 1.50000E+00    0.00000E+00
 1.60000E+00    0.00000E+00
 1.70000E+00    0.00000E+00
 1.80000E+00    0.00000E+00
 1.90000E+00    0.00000E+00
 1.97057E+00    0.00000E+00
 2.00000E+00    0.00000E+00
 2.17537E+00    0.00000E+00
 2.17538E+00    0.00000E+00
 2.20697E+00    0.00000E+00
 2.25000E+00    0.00000E+00
 2.25878E+00    0.00000E+00
 2.29514E+00    0.00000E+00
 2.44312E+00    0.00000E+00
 2.47580E+00    0.00000E+00
 2.50000E+00    0.00000E+00
 2.53703E+00    0.00000E+00
 2.59881E+00    0.00000E+00
 2.63761E+00    0.00000E+00
 2.75000E+00    0.00000E+00
 2.76265E+00    0.00000E+00
 2.78414E+00    0.00000E+00
 2.78985E+00    0.00000E+00
 2.84008E+00    0.00000E+00
 2.88514E+00    0.00000E+00
 2.93085E+00    0.00000E+00
 2.94155E+00    0.00000E+00
 2.96950E+00    0.00000E+00
 3.00000E+00    4.14040E-10
 3.05179E+00    1.13730E-09
 3.05208E+00    1.14020E-09
 3.05490E+00    1.16620E-09
 3.05491E+00    1.16627E-09
 3.09860E+00    1.48430E-09
 3.11471E+00    2.22530E-09
 3.12755E+00    2.90360E-09
 3.13461E+00    3.18540E-09
 3.13462E+00    3.18580E-09
 3.17768E+00    3.96360E-09
 3.21434E+00    6.57170E-09
 3.21716E+00    3.86123E-04
 3.21864E+00    3.89642E-04
 3.23237E+00    4.24112E-04
 3.23601E+00    4.32905E-04
 3.23602E+00    4.32929E-04
 3.24020E+00    4.43095E-04
 3.25457E+00    4.80451E-04
 3.27076E+00    5.26083E-04
 3.27312E+00    5.33227E-04
 3.50000E+00    1.88484E-03
 4.00000E+00    2.00400E-02
 4.50000E+00    1.03670E-01
 5.00000E+00    3.62416E-01
 5.50000E+00    9.54224E-01
 6.00000E+00    2.02126E+00
 6.50000E+00    3.47407E+00
 7.00000E+00    5.40747E+00
 7.50000E+00    7.67686E+00
 8.00000E+00    1.02758E+01
 8.50000E+00    1.33309E+01
 9.00000E+00    1.70673E+01
 9.50000E+00    2.17375E+01
 1.00000E+01    2.75538E+01
 1.05000E+01    3.46891E+01
 1.10000E+01    4.31104E+01
 1.15000E+01    5.29506E+01
 1.20000E+01    6.39798E+01
 1.25000E+01    7.62209E+01
 1.30000E+01    8.92442E+01
 1.35000E+01    1.02843E+02
 1.40000E+01    1.16522E+02
 1.45000E+01    1.29919E+02
 1.50000E+01    1.42927E+02
 1.55000E+01    1.55275E+02
 1.60000E+01    1.67319E+02
 1.65000E+01    1.78743E+02
 1.70000E+01    1.89896E+02
 1.75000E+01    2.00208E+02
 1.80000E+01    2.11258E+02
 1.85000E+01    2.20399E+02
 1.90000E+01    2.29199E+02
 1.95000E+01    2.37146E+02
 2.00000E+01    2.44732E+02
