# n + Sn114 : (n,d)g    
# jendl.ad   N.Iwamoto                         EVAL-Apr14
# uncertainties: n
# # energies =    28
#   E(MeV)       xs(mb) 
 6.31108E+00    0.00000E+00
 6.70625E+00    8.38330E-15
 7.50000E+00    2.52220E-14
 8.00000E+00    1.65060E-10
 8.50000E+00    2.77700E-08
 9.00000E+00    7.44070E-07
 9.50000E+00    6.95484E-06
 1.00000E+01    3.56571E-05
 1.05000E+01    1.59274E-04
 1.10000E+01    7.86911E-04
 1.15000E+01    3.63745E-03
 1.20000E+01    1.36910E-02
 1.25000E+01    4.13799E-02
 1.30000E+01    1.02795E-01
 1.35000E+01    2.16334E-01
 1.40000E+01    3.97510E-01
 1.45000E+01    6.55678E-01
 1.50000E+01    9.94439E-01
 1.55000E+01    1.40988E+00
 1.60000E+01    1.89705E+00
 1.65000E+01    2.44334E+00
 1.70000E+01    2.97661E+00
 1.75000E+01    3.60941E+00
 1.80000E+01    4.26921E+00
 1.85000E+01    4.95622E+00
 1.90000E+01    5.59107E+00
 1.95000E+01    6.30614E+00
 2.00000E+01    7.03337E+00
