# n + Sn114 : (n,p)     
# jendl.ad   N.Iwamoto                         EVAL-Apr14
# uncertainties: n
# # energies =    53
#   E(MeV)       xs(mb) 
 2.96950E+00    0.00000E+00
 3.00000E+00    4.14040E-10
 3.05179E+00    1.13730E-09
 3.05208E+00    1.14020E-09
 3.05490E+00    1.16620E-09
 3.09860E+00    1.48430E-09
 3.11471E+00    2.22530E-09
 3.12755E+00    2.90360E-09
 3.13462E+00    3.18580E-09
 3.17768E+00    3.96360E-09
 3.21434E+00    6.57170E-09
 3.21716E+00    3.86123E-04
 3.21864E+00    3.89642E-04
 3.23237E+00    4.24112E-04
 3.23602E+00    4.32929E-04
 3.24020E+00    4.43095E-04
 3.25457E+00    4.80451E-04
 3.27076E+00    5.26083E-04
 3.27312E+00    5.33227E-04
 3.50000E+00    1.88484E-03
 4.00000E+00    2.00400E-02
 4.50000E+00    1.03670E-01
 5.00000E+00    3.62416E-01
 5.50000E+00    9.54224E-01
 6.00000E+00    2.02126E+00
 6.50000E+00    3.47407E+00
 7.00000E+00    5.40747E+00
 7.50000E+00    7.67686E+00
 8.00000E+00    1.02758E+01
 8.50000E+00    1.33309E+01
 9.00000E+00    1.70673E+01
 9.50000E+00    2.17375E+01
 1.00000E+01    2.75538E+01
 1.05000E+01    3.46890E+01
 1.10000E+01    4.31089E+01
 1.15000E+01    5.29378E+01
 1.20000E+01    6.39159E+01
 1.25000E+01    7.59946E+01
 1.30000E+01    8.86449E+01
 1.35000E+01    1.01560E+02
 1.40000E+01    1.14093E+02
 1.45000E+01    1.25747E+02
 1.50000E+01    1.36385E+02
 1.55000E+01    1.45789E+02
 1.60000E+01    1.54419E+02
 1.65000E+01    1.62065E+02
 1.70000E+01    1.69193E+02
 1.75000E+01    1.75288E+02
 1.80000E+01    1.82084E+02
 1.85000E+01    1.86635E+02
 1.90000E+01    1.90613E+02
 1.95000E+01    1.93586E+02
 2.00000E+01    1.95956E+02
