# n + Sn114 : (n,tot)   
# jendl.ad   N.Iwamoto                         EVAL-Apr14
# uncertainties: n
# # energies =    69
#   E(MeV)       xs(mb) 
 1.00000E-10    8.74839E+02
 5.00000E-09    2.38209E+02
 1.00000E-08    1.80409E+02
 1.50000E-08    1.51592E+02
 2.00000E-08    1.33371E+02
 2.50000E-08    1.20496E+02
 3.00000E-08    1.10759E+02
 3.50000E-08    1.01837E+02
 4.20000E-08    9.31645E+01
 5.00000E-08    8.59361E+01
 5.80000E-08    7.98679E+01
 6.70000E-08    7.37091E+01
 8.00000E-08    6.67182E+01
 1.00000E-07    5.80519E+01
 1.40000E-07    5.01093E+01
 1.80000E-07    4.47594E+01
 2.20000E-07    4.12253E+01
 2.50000E-07    3.88160E+01
 2.80000E-07    3.70873E+01
 3.00000E-07    3.58755E+01
 3.20000E-07    3.45361E+01
 3.50000E-07    3.26735E+01
 4.00000E-07    2.99103E+01
 5.00000E-07    2.67740E+01
 6.25000E-07    2.39880E+01
 7.80000E-07    2.22136E+01
 8.50000E-07    2.13785E+01
 9.10000E-07    2.07957E+01
 9.50000E-07    2.04631E+01
 9.72000E-07    2.02253E+01
 9.96000E-07    1.99848E+01
 1.02000E-06    1.97539E+01
 1.04500E-06    1.95138E+01
 1.07100E-06    1.92812E+01
 1.09700E-06    1.90596E+01
 1.12300E-06    1.88350E+01
 1.15000E-06    1.81772E+01
 1.30000E-06    1.70291E+01
 1.50000E-06    1.51587E+01
 2.10000E-06    1.32518E+01
 2.60000E-06    1.18852E+01
 3.30000E-06    1.07195E+01
 4.00000E-06    8.36195E+00
 9.87700E-06    6.13720E+00
 1.59680E-05    5.03953E+00
 2.77000E-05    4.29498E+00
 4.80520E-05    4.05600E+00
 7.55014E-05    5.07703E+00
 1.48728E-04    4.38304E+03
 3.67262E-04    7.98767E+02
 9.06898E-04    1.11215E+03
 1.42510E-03    2.25198E+02
 2.23945E-03    4.08076E+02
 3.51910E-03    3.96575E+02
 5.53000E-03    3.04238E+02
 9.11800E-03    2.19857E+02
 1.50300E-02    1.61691E+02
 2.47800E-02    1.16598E+02
 4.08500E-02    8.54599E+01
 6.73400E-02    6.75522E+01
 1.11000E-01    5.94351E+01
 1.83000E-01    5.70613E+01
 3.02000E-01    6.05608E+01
 5.00000E-01    7.07629E+01
 8.21000E-01    9.86151E+01
 1.35300E+00    1.00302E+02
 2.23100E+00    6.84659E+01
 3.67900E+00    2.79702E+01
 6.06500E+00    1.82912E+03
