# n + Sn114 : (n,d)m    
# jendl.ad   N.Iwamoto                         EVAL-Apr14
# uncertainties: n
# # energies =    26
#   E(MeV)       xs(mb) 
 6.70625E+00    0.00000E+00
 8.00000E+00    5.63890E-12
 8.50000E+00    5.93460E-09
 9.00000E+00    6.03950E-07
 9.50000E+00    1.64786E-05
 1.00000E+01    1.39514E-04
 1.05000E+01    1.01647E-03
 1.10000E+01    4.87077E-03
 1.15000E+01    1.71041E-02
 1.20000E+01    4.69931E-02
 1.25000E+01    1.05873E-01
 1.30000E+01    2.02412E-01
 1.35000E+01    3.39319E-01
 1.40000E+01    5.12806E-01
 1.45000E+01    7.14018E-01
 1.50000E+01    9.33348E-01
 1.55000E+01    1.16026E+00
 1.60000E+01    1.38984E+00
 1.65000E+01    1.61566E+00
 1.70000E+01    1.82331E+00
 1.75000E+01    2.03650E+00
 1.80000E+01    2.25507E+00
 1.85000E+01    2.46043E+00
 1.90000E+01    2.58970E+00
 1.95000E+01    2.78955E+00
 2.00000E+01    2.98864E+00
