# n + Sn114 : (n,xt)    
# jendl.ad   N.Iwamoto                         EVAL-Apr14
# 
# # energies =   110
#   E(MeV)        xs(mb) 
 1.05000E-01    0.00000E+00
 1.10000E-01    0.00000E+00
 1.20000E-01    0.00000E+00
 1.30000E-01    0.00000E+00
 1.40000E-01    0.00000E+00
 1.50000E-01    0.00000E+00
 1.60000E-01    0.00000E+00
 1.70000E-01    0.00000E+00
 1.80000E-01    0.00000E+00
 1.90000E-01    0.00000E+00
 2.00000E-01    0.00000E+00
 2.25000E-01    0.00000E+00
 2.50000E-01    0.00000E+00
 2.75000E-01    0.00000E+00
 3.00000E-01    0.00000E+00
 4.00000E-01    0.00000E+00
 5.00000E-01    0.00000E+00
 6.00000E-01    0.00000E+00
 7.00000E-01    0.00000E+00
 8.00000E-01    0.00000E+00
 9.00000E-01    0.00000E+00
 1.00000E+00    0.00000E+00
 1.10000E+00    0.00000E+00
 1.20000E+00    0.00000E+00
 1.30000E+00    0.00000E+00
 1.31142E+00    0.00000E+00
 1.40000E+00    0.00000E+00
 1.50000E+00    0.00000E+00
 1.60000E+00    0.00000E+00
 1.70000E+00    0.00000E+00
 1.80000E+00    0.00000E+00
 1.90000E+00    0.00000E+00
 1.97057E+00    0.00000E+00
 2.00000E+00    0.00000E+00
 2.17537E+00    0.00000E+00
 2.17538E+00    0.00000E+00
 2.20697E+00    0.00000E+00
 2.25000E+00    0.00000E+00
 2.25878E+00    0.00000E+00
 2.29514E+00    0.00000E+00
 2.44312E+00    0.00000E+00
 2.47580E+00    0.00000E+00
 2.50000E+00    0.00000E+00
 2.53703E+00    0.00000E+00
 2.59881E+00    0.00000E+00
 2.63761E+00    0.00000E+00
 2.75000E+00    0.00000E+00
 2.76265E+00    0.00000E+00
 2.78414E+00    0.00000E+00
 2.78985E+00    0.00000E+00
 2.84008E+00    0.00000E+00
 2.88514E+00    0.00000E+00
 2.93085E+00    0.00000E+00
 2.94155E+00    0.00000E+00
 2.96950E+00    0.00000E+00
 3.00000E+00    0.00000E+00
 3.05179E+00    0.00000E+00
 3.05208E+00    0.00000E+00
 3.05490E+00    0.00000E+00
 3.05491E+00    0.00000E+00
 3.09860E+00    0.00000E+00
 3.11471E+00    0.00000E+00
 3.12755E+00    0.00000E+00
 3.13461E+00    0.00000E+00
 3.13462E+00    0.00000E+00
 3.17768E+00    0.00000E+00
 3.21434E+00    0.00000E+00
 3.21716E+00    0.00000E+00
 3.21864E+00    0.00000E+00
 3.23237E+00    0.00000E+00
 3.23601E+00    0.00000E+00
 3.23602E+00    0.00000E+00
 3.24020E+00    0.00000E+00
 3.25457E+00    0.00000E+00
 3.27076E+00    0.00000E+00
 3.27312E+00    0.00000E+00
 3.50000E+00    0.00000E+00
 4.00000E+00    0.00000E+00
 4.50000E+00    0.00000E+00
 5.00000E+00    0.00000E+00
 5.50000E+00    0.00000E+00
 6.00000E+00    0.00000E+00
 6.50000E+00    0.00000E+00
 7.00000E+00    0.00000E+00
 7.50000E+00    0.00000E+00
 8.00000E+00    0.00000E+00
 8.50000E+00    0.00000E+00
 9.00000E+00    0.00000E+00
 9.50000E+00    0.00000E+00
 1.00000E+01    5.93457E-16
 1.05000E+01    1.24867E-15
 1.10000E+01    1.90390E-15
 1.15000E+01    5.05770E-12
 1.20000E+01    1.16950E-09
 1.25000E+01    5.92710E-08
 1.30000E+01    1.16925E-06
 1.35000E+01    1.22561E-05
 1.40000E+01    8.19813E-05
 1.45000E+01    3.92572E-04
 1.50000E+01    1.44829E-03
 1.55000E+01    4.31633E-03
 1.60000E+01    1.07413E-02
 1.65000E+01    2.29336E-02
 1.70000E+01    4.28605E-02
 1.75000E+01    7.26878E-02
 1.80000E+01    1.13297E-01
 1.85000E+01    1.65041E-01
 1.90000E+01    2.27743E-01
 1.95000E+01    3.00778E-01
 2.00000E+01    3.83314E-01
