# n + Eu152 : (n,n'38)  
# jendl4.0   N.Iwamoto                         EVAL-Nov09
# uncertainties: n
# # energies =    62
#   E(MeV)       xs(mb) 
 2.22678E-01    0.00000E+00
 2.22924E-01    5.45348E+00
 2.25000E-01    1.56432E+01
 2.25992E-01    1.83347E+01
 2.50000E-01    4.33270E+01
 2.75000E-01    5.44975E+01
 3.00000E-01    6.16207E+01
 4.00000E-01    6.43239E+01
 5.00000E-01    5.31550E+01
 6.00000E-01    4.23341E+01
 7.00000E-01    3.35715E+01
 8.00000E-01    2.70532E+01
 9.00000E-01    2.18329E+01
 1.00000E+00    1.74986E+01
 1.10000E+00    1.42727E+01
 1.20000E+00    1.18020E+01
 1.30000E+00    9.71507E+00
 1.40000E+00    7.99956E+00
 1.50000E+00    6.61167E+00
 1.60000E+00    5.48406E+00
 1.70000E+00    4.56414E+00
 1.80000E+00    3.81065E+00
 1.90000E+00    3.19110E+00
 2.00000E+00    2.67982E+00
 2.25000E+00    1.73600E+00
 2.50000E+00    1.15883E+00
 2.75000E+00    7.70399E-01
 3.00000E+00    5.11752E-01
 3.50000E+00    2.29703E-01
 4.00000E+00    1.02350E-01
 4.50000E+00    4.54787E-02
 5.00000E+00    2.04534E-02
 5.50000E+00    9.44601E-03
 6.00000E+00    4.67331E-03
 6.50000E+00    2.60820E-03
 7.00000E+00    1.69272E-03
 7.50000E+00    1.26317E-03
 8.00000E+00    1.04291E-03
 8.50000E+00    9.15243E-04
 9.00000E+00    8.30902E-04
 9.50000E+00    7.69499E-04
 1.00000E+01    7.20933E-04
 1.05000E+01    6.80471E-04
 1.10000E+01    6.45161E-04
 1.15000E+01    6.13438E-04
 1.20000E+01    5.84253E-04
 1.25000E+01    5.56832E-04
 1.30000E+01    5.30867E-04
 1.35000E+01    5.06145E-04
 1.40000E+01    4.82610E-04
 1.45000E+01    4.60277E-04
 1.50000E+01    4.39166E-04
 1.55000E+01    4.20917E-04
 1.60000E+01    4.03756E-04
 1.65000E+01    3.87627E-04
 1.70000E+01    3.72285E-04
 1.75000E+01    3.57809E-04
 1.80000E+01    3.44150E-04
 1.85000E+01    3.31266E-04
 1.90000E+01    3.19068E-04
 1.95000E+01    3.07480E-04
 2.00000E+01    2.96426E-04
