# n + Eu152 : (n,n'33)  
# jendl4.0   N.Iwamoto                         EVAL-Nov09
# uncertainties: n
# # energies =    67
#   E(MeV)       xs(mb) 
 2.13020E-01    0.00000E+00
 2.15784E-01    1.53360E-01
 2.15852E-01    1.55680E-01
 2.20917E-01    3.26849E-01
 2.22262E-01    3.74217E-01
 2.22678E-01    3.89145E-01
 2.22924E-01    3.98059E-01
 2.25000E-01    4.74110E-01
 2.25992E-01    5.11604E-01
 2.50000E-01    1.59977E+00
 2.75000E-01    3.01424E+00
 3.00000E-01    4.58342E+00
 4.00000E-01    9.57472E+00
 5.00000E-01    1.13582E+01
 6.00000E-01    1.15586E+01
 7.00000E-01    1.07510E+01
 8.00000E-01    9.80332E+00
 9.00000E-01    8.69100E+00
 1.00000E+00    7.55342E+00
 1.10000E+00    6.57645E+00
 1.20000E+00    5.75400E+00
 1.30000E+00    4.96063E+00
 1.40000E+00    4.25981E+00
 1.50000E+00    3.65581E+00
 1.60000E+00    3.13738E+00
 1.70000E+00    2.69346E+00
 1.80000E+00    2.31381E+00
 1.90000E+00    1.98925E+00
 2.00000E+00    1.71173E+00
 2.25000E+00    1.17109E+00
 2.50000E+00    8.16362E-01
 2.75000E+00    5.63019E-01
 3.00000E+00    4.10216E-01
 3.50000E+00    2.04751E-01
 4.00000E+00    1.05907E-01
 4.50000E+00    5.93156E-02
 5.00000E+00    3.75411E-02
 5.50000E+00    2.71192E-02
 6.00000E+00    2.19487E-02
 6.50000E+00    1.91309E-02
 7.00000E+00    1.73397E-02
 7.50000E+00    1.60012E-02
 8.00000E+00    1.48944E-02
 8.50000E+00    1.39238E-02
 9.00000E+00    1.30561E-02
 9.50000E+00    1.22919E-02
 1.00000E+01    1.16135E-02
 1.05000E+01    1.10093E-02
 1.10000E+01    1.04616E-02
 1.15000E+01    9.95896E-03
 1.20000E+01    9.49127E-03
 1.25000E+01    9.05069E-03
 1.30000E+01    8.63178E-03
 1.35000E+01    8.23159E-03
 1.40000E+01    7.84882E-03
 1.45000E+01    7.48548E-03
 1.50000E+01    7.14196E-03
 1.55000E+01    6.84543E-03
 1.60000E+01    6.56551E-03
 1.65000E+01    6.30105E-03
 1.70000E+01    6.05172E-03
 1.75000E+01    5.81646E-03
 1.80000E+01    5.59447E-03
 1.85000E+01    5.38507E-03
 1.90000E+01    5.18684E-03
 1.95000E+01    4.99849E-03
 2.00000E+01    4.81881E-03
