# n + Eu152 : (n,n'37)  
# jendl4.0   N.Iwamoto                         EVAL-Nov09
# uncertainties: n
# # energies =    63
#   E(MeV)       xs(mb) 
 2.22262E-01    0.00000E+00
 2.22678E-01    1.72065E+01
 2.22924E-01    2.14360E+01
 2.25000E-01    4.03149E+01
 2.25992E-01    4.58619E+01
 2.50000E-01    8.55137E+01
 2.75000E-01    9.53013E+01
 3.00000E-01    9.83372E+01
 4.00000E-01    8.30843E+01
 5.00000E-01    6.30490E+01
 6.00000E-01    4.84687E+01
 7.00000E-01    3.82054E+01
 8.00000E-01    3.10321E+01
 9.00000E-01    2.54092E+01
 1.00000E+00    2.07108E+01
 1.10000E+00    1.71591E+01
 1.20000E+00    1.43869E+01
 1.30000E+00    1.19594E+01
 1.40000E+00    9.90915E+00
 1.50000E+00    8.21559E+00
 1.60000E+00    6.81712E+00
 1.70000E+00    5.66284E+00
 1.80000E+00    4.71043E+00
 1.90000E+00    3.92461E+00
 2.00000E+00    3.27605E+00
 2.25000E+00    2.08685E+00
 2.50000E+00    1.37061E+00
 2.75000E+00    8.98431E-01
 3.00000E+00    5.92164E-01
 3.50000E+00    2.61577E-01
 4.00000E+00    1.15245E-01
 4.50000E+00    5.12037E-02
 5.00000E+00    2.36340E-02
 5.50000E+00    1.17464E-02
 6.00000E+00    6.64943E-03
 6.50000E+00    4.42580E-03
 7.00000E+00    3.39513E-03
 7.50000E+00    2.86167E-03
 8.00000E+00    2.54385E-03
 8.50000E+00    2.32444E-03
 9.00000E+00    2.15516E-03
 9.50000E+00    2.01765E-03
 1.00000E+01    1.90089E-03
 1.05000E+01    1.79942E-03
 1.10000E+01    1.70864E-03
 1.15000E+01    1.62594E-03
 1.20000E+01    1.54930E-03
 1.25000E+01    1.47694E-03
 1.30000E+01    1.40825E-03
 1.35000E+01    1.34276E-03
 1.40000E+01    1.28038E-03
 1.45000E+01    1.22115E-03
 1.50000E+01    1.16516E-03
 1.55000E+01    1.11675E-03
 1.60000E+01    1.07123E-03
 1.65000E+01    1.02842E-03
 1.70000E+01    9.87716E-04
 1.75000E+01    9.49310E-04
 1.80000E+01    9.13071E-04
 1.85000E+01    8.78889E-04
 1.90000E+01    8.46529E-04
 1.95000E+01    8.15783E-04
 2.00000E+01    7.86456E-04
