# n + Eu152 : (n,n'03)  
# jendl4.0   N.Iwamoto                         EVAL-Nov09
# uncertainties: n
# # energies =   110
#   E(MeV)       xs(mb) 
 7.77720E-02    0.00000E+00
 7.87524E-02    1.48192E+02
 8.00000E-02    2.07962E+02
 9.00000E-02    3.69470E+02
 9.02080E-02    3.71093E+02
 9.04466E-02    3.69568E+02
 1.00000E-01    4.04240E+02
 1.08833E-01    4.22260E+02
 1.09814E-01    4.23534E+02
 1.10000E-01    4.23774E+02
 1.12187E-01    4.26410E+02
 1.14727E-01    4.20755E+02
 1.18950E-01    4.18208E+02
 1.20000E-01    4.13102E+02
 1.21640E-01    4.10229E+02
 1.25362E-01    4.05129E+02
 1.30000E-01    3.99743E+02
 1.40000E-01    3.91044E+02
 1.42768E-01    3.88486E+02
 1.47056E-01    3.76579E+02
 1.48842E-01    3.72639E+02
 1.49724E-01    3.71128E+02
 1.49748E-01    3.71002E+02
 1.50000E-01    3.70391E+02
 1.51688E-01    3.67324E+02
 1.59104E-01    3.48800E+02
 1.60000E-01    3.47370E+02
 1.61949E-01    3.44545E+02
 1.70000E-01    3.32466E+02
 1.76098E-01    3.25113E+02
 1.78866E-01    3.14590E+02
 1.80000E-01    3.11697E+02
 1.80120E-01    3.11433E+02
 1.81832E-01    3.07205E+02
 1.90000E-01    2.93368E+02
 1.93778E-01    2.88189E+02
 1.98221E-01    2.82617E+02
 2.00000E-01    2.79869E+02
 2.00991E-01    2.78569E+02
 2.02082E-01    2.77059E+02
 2.02467E-01    2.76554E+02
 2.04460E-01    2.73455E+02
 2.04532E-01    2.73356E+02
 2.13020E-01    2.59167E+02
 2.15784E-01    2.55720E+02
 2.15852E-01    2.55265E+02
 2.20917E-01    2.46585E+02
 2.22262E-01    2.44842E+02
 2.22678E-01    2.42720E+02
 2.22924E-01    2.41846E+02
 2.25000E-01    2.35693E+02
 2.25992E-01    2.33685E+02
 2.50000E-01    1.98193E+02
 2.75000E-01    1.80899E+02
 3.00000E-01    1.68799E+02
 4.00000E-01    1.19778E+02
 5.00000E-01    8.48747E+01
 6.00000E-01    6.20340E+01
 7.00000E-01    4.81335E+01
 8.00000E-01    3.73828E+01
 9.00000E-01    2.97639E+01
 1.00000E+00    2.41310E+01
 1.10000E+00    1.97842E+01
 1.20000E+00    1.61081E+01
 1.30000E+00    1.31599E+01
 1.40000E+00    1.07762E+01
 1.50000E+00    8.84738E+00
 1.60000E+00    7.28218E+00
 1.70000E+00    6.00921E+00
 1.80000E+00    4.97182E+00
 1.90000E+00    4.12473E+00
 2.00000E+00    3.43156E+00
 2.25000E+00    2.17410E+00
 2.50000E+00    1.42361E+00
 2.75000E+00    9.31005E-01
 3.00000E+00    6.19486E-01
 3.50000E+00    2.75766E-01
 4.00000E+00    1.24274E-01
 4.50000E+00    5.81949E-02
 5.00000E+00    2.96555E-02
 5.50000E+00    1.72104E-02
 6.00000E+00    1.17183E-02
 6.50000E+00    9.17069E-03
 7.00000E+00    7.84384E-03
 7.50000E+00    7.03037E-03
 8.00000E+00    6.45017E-03
 8.50000E+00    5.98641E-03
 9.00000E+00    5.59263E-03
 9.50000E+00    5.25483E-03
 1.00000E+01    4.95913E-03
 1.05000E+01    4.69746E-03
 1.10000E+01    4.46130E-03
 1.15000E+01    4.24493E-03
 1.20000E+01    4.04380E-03
 1.25000E+01    3.85445E-03
 1.30000E+01    3.67454E-03
 1.35000E+01    3.50299E-03
 1.40000E+01    3.33966E-03
 1.45000E+01    3.18476E-03
 1.50000E+01    3.03846E-03
 1.55000E+01    2.91065E-03
 1.60000E+01    2.79051E-03
 1.65000E+01    2.67759E-03
 1.70000E+01    2.57114E-03
 1.75000E+01    2.47071E-03
 1.80000E+01    2.37597E-03
 1.85000E+01    2.28661E-03
 1.90000E+01    2.20200E-03
 1.95000E+01    2.12160E-03
 2.00000E+01    2.04487E-03
