# n + Eu152 : (n,np)    
# jendl4.0   N.Iwamoto                         EVAL-Nov09
# uncertainties: n
# # energies =    28
#   E(MeV)       xs(mb) 
 5.63817E+00    0.00000E+00
 7.00000E+00    2.01740E-12
 7.50000E+00    3.94480E-09
 8.00000E+00    4.65680E-07
 8.50000E+00    1.25511E-05
 9.00000E+00    1.36769E-04
 9.50000E+00    8.34830E-04
 1.00000E+01    3.47081E-03
 1.05000E+01    1.10294E-02
 1.10000E+01    2.96075E-02
 1.15000E+01    7.00465E-02
 1.20000E+01    1.50688E-01
 1.25000E+01    3.00095E-01
 1.30000E+01    5.58718E-01
 1.35000E+01    9.77949E-01
 1.40000E+01    1.61447E+00
 1.45000E+01    2.51692E+00
 1.50000E+01    3.72833E+00
 1.55000E+01    5.30182E+00
 1.60000E+01    7.21939E+00
 1.65000E+01    9.39105E+00
 1.70000E+01    1.18864E+01
 1.75000E+01    1.46019E+01
 1.80000E+01    1.75516E+01
 1.85000E+01    2.07473E+01
 1.90000E+01    2.39472E+01
 1.95000E+01    2.74048E+01
 2.00000E+01    3.07414E+01
