# n + Eu152 : (n,nd)    
# jendl4.0   N.Iwamoto                         EVAL-Nov09
# uncertainties: n
# # energies =    21
#   E(MeV)       xs(mb) 
 9.03245E+00    0.00000E+00
 1.05000E+01    2.85730E-17
 1.10000E+01    3.36480E-13
 1.15000E+01    1.65150E-10
 1.20000E+01    1.42260E-08
 1.25000E+01    4.18080E-07
 1.30000E+01    5.97311E-06
 1.35000E+01    5.11369E-05
 1.40000E+01    2.99785E-04
 1.45000E+01    1.31534E-03
 1.50000E+01    4.58682E-03
 1.55000E+01    1.30291E-02
 1.60000E+01    3.27855E-02
 1.65000E+01    7.07688E-02
 1.70000E+01    1.36233E-01
 1.75000E+01    2.35267E-01
 1.80000E+01    3.76701E-01
 1.85000E+01    5.62848E-01
 1.90000E+01    7.93400E-01
 1.95000E+01    1.07758E+00
 2.00000E+01    1.40089E+00
