# n + Eu152 : (n,n'01)  
# jendl4.0   N.Iwamoto                         EVAL-Nov09
# uncertainties: n
# # energies =   115
#   E(MeV)       xs(mb) 
 4.59028E-02    0.00000E+00
 5.00000E-02    4.16099E-01
 6.00000E-02    1.18958E+00
 6.57305E-02    1.73804E+00
 7.00000E-02    2.07488E+00
 7.77719E-02    2.87901E+00
 7.87524E-02    2.97517E+00
 8.00000E-02    2.93177E+00
 9.00000E-02    3.70888E+00
 9.02080E-02    3.72687E+00
 9.04466E-02    3.74480E+00
 1.00000E-01    4.60120E+00
 1.08833E-01    5.43010E+00
 1.09814E-01    5.52064E+00
 1.10000E-01    5.50264E+00
 1.12187E-01    5.63193E+00
 1.14727E-01    5.76841E+00
 1.18950E-01    6.07018E+00
 1.20000E-01    6.11349E+00
 1.21640E-01    6.21615E+00
 1.25362E-01    6.11376E+00
 1.30000E-01    6.29918E+00
 1.40000E-01    6.80964E+00
 1.42768E-01    6.96035E+00
 1.47056E-01    7.19296E+00
 1.48842E-01    7.28496E+00
 1.49724E-01    7.33049E+00
 1.49748E-01    7.33171E+00
 1.50000E-01    7.34473E+00
 1.51688E-01    7.43189E+00
 1.59104E-01    7.81503E+00
 1.60000E-01    7.71834E+00
 1.61949E-01    7.72874E+00
 1.70000E-01    7.98529E+00
 1.76098E-01    8.22832E+00
 1.78866E-01    8.27595E+00
 1.80000E-01    8.18991E+00
 1.80120E-01    8.18834E+00
 1.81832E-01    8.18939E+00
 1.90000E-01    8.36774E+00
 1.93778E-01    8.47867E+00
 1.98221E-01    8.61743E+00
 2.00000E-01    8.67394E+00
 2.00991E-01    8.70581E+00
 2.02082E-01    8.74113E+00
 2.02467E-01    8.75365E+00
 2.04460E-01    8.81761E+00
 2.04532E-01    8.79968E+00
 2.13020E-01    8.88632E+00
 2.15784E-01    8.94117E+00
 2.15852E-01    8.93090E+00
 2.20917E-01    8.96298E+00
 2.22262E-01    8.98366E+00
 2.22678E-01    8.96651E+00
 2.22924E-01    8.96451E+00
 2.25000E-01    8.91946E+00
 2.25992E-01    8.91888E+00
 2.50000E-01    9.09027E+00
 2.75000E-01    9.51080E+00
 3.00000E-01    9.94268E+00
 4.00000E-01    9.44390E+00
 5.00000E-01    7.91731E+00
 6.00000E-01    6.62893E+00
 7.00000E-01    5.62362E+00
 8.00000E-01    4.68184E+00
 9.00000E-01    3.95962E+00
 1.00000E+00    3.37705E+00
 1.10000E+00    2.85974E+00
 1.20000E+00    2.40042E+00
 1.30000E+00    2.01316E+00
 1.40000E+00    1.68693E+00
 1.50000E+00    1.41376E+00
 1.60000E+00    1.18548E+00
 1.70000E+00    9.94949E-01
 1.80000E+00    8.36049E-01
 1.90000E+00    7.03541E-01
 2.00000E+00    5.92994E-01
 2.25000E+00    3.86106E-01
 2.50000E+00    2.58336E-01
 2.75000E+00    1.71536E-01
 3.00000E+00    1.53306E-01
 3.50000E+00    8.86605E-02
 4.00000E+00    5.81023E-02
 4.50000E+00    4.31701E-02
 5.00000E+00    3.54557E-02
 5.50000E+00    3.09839E-02
 6.00000E+00    2.79751E-02
 6.50000E+00    2.55665E-02
 7.00000E+00    2.33819E-02
 7.50000E+00    2.12956E-02
 8.00000E+00    1.93018E-02
 8.50000E+00    1.77547E-02
 9.00000E+00    1.66572E-02
 9.50000E+00    1.56802E-02
 1.00000E+01    1.48081E-02
 1.05000E+01    1.40283E-02
 1.10000E+01    1.33212E-02
 1.15000E+01    1.26717E-02
 1.20000E+01    1.20674E-02
 1.25000E+01    1.14986E-02
 1.30000E+01    1.09585E-02
 1.35000E+01    1.04439E-02
 1.40000E+01    9.95440E-03
 1.45000E+01    9.49060E-03
 1.50000E+01    9.05285E-03
 1.55000E+01    8.67211E-03
 1.60000E+01    8.31417E-03
 1.65000E+01    7.97776E-03
 1.70000E+01    7.66061E-03
 1.75000E+01    7.36141E-03
 1.80000E+01    7.07913E-03
 1.85000E+01    6.81290E-03
 1.90000E+01    6.56083E-03
 1.95000E+01    6.32128E-03
 2.00000E+01    6.09268E-03
