# n + Eu152 : (n,xa)    
# jendl4.0   N.Iwamoto                         EVAL-Nov09
# 
# # energies =   121
#   E(MeV)        xs(mb) 
 4.59028E-02    1.70611E-02
 5.00000E-02    1.64756E-02
 6.00000E-02    1.53512E-02
 6.57305E-02    1.48687E-02
 7.00000E-02    1.45607E-02
 7.77719E-02    1.40738E-02
 7.77720E-02    1.40738E-02
 7.87524E-02    1.36307E-02
 8.00000E-02    1.33682E-02
 9.00000E-02    1.28893E-02
 9.02080E-02    1.28793E-02
 9.04465E-02    1.27676E-02
 9.04466E-02    1.27676E-02
 1.00000E-01    1.15845E-02
 1.04416E-01    1.13236E-02
 1.08833E-01    1.10627E-02
 1.09814E-01    1.09808E-02
 1.10000E-01    1.09653E-02
 1.12187E-01    1.08360E-02
 1.14727E-01    1.05333E-02
 1.18950E-01    1.00300E-02
 1.18951E-01    1.00298E-02
 1.20000E-01    9.86752E-03
 1.21640E-01    9.70805E-03
 1.25362E-01    9.32901E-03
 1.30000E-01    8.88442E-03
 1.40000E-01    8.34493E-03
 1.42768E-01    8.21913E-03
 1.47056E-01    7.90539E-03
 1.48842E-01    7.73662E-03
 1.49724E-01    7.68119E-03
 1.49748E-01    7.67771E-03
 1.50000E-01    7.64113E-03
 1.51687E-01    7.52143E-03
 1.51688E-01    7.52136E-03
 1.59104E-01    7.01573E-03
 1.60000E-01    6.96525E-03
 1.61949E-01    6.87131E-03
 1.70000E-01    6.48323E-03
 1.76098E-01    6.28325E-03
 1.78866E-01    6.10182E-03
 1.80000E-01    6.02748E-03
 1.80120E-01    6.01962E-03
 1.81832E-01    5.90809E-03
 1.90000E-01    5.80106E-03
 1.93778E-01    5.69227E-03
 1.98221E-01    5.57003E-03
 2.00000E-01    5.50277E-03
 2.00991E-01    5.46559E-03
 2.02082E-01    5.42500E-03
 2.02467E-01    5.41067E-03
 2.04460E-01    5.32659E-03
 2.04461E-01    5.32655E-03
 2.04532E-01    5.32355E-03
 2.13020E-01    5.01475E-03
 2.15784E-01    4.93892E-03
 2.15852E-01    4.93705E-03
 2.20917E-01    4.75716E-03
 2.22262E-01    4.72270E-03
 2.22678E-01    4.69046E-03
 2.22924E-01    4.67139E-03
 2.25000E-01    4.56269E-03
 2.25992E-01    4.52655E-03
 2.50000E-01    3.93936E-03
 2.75000E-01    3.68041E-03
 3.00000E-01    3.65900E-03
 4.00000E-01    3.02759E-03
 5.00000E-01    2.52689E-03
 6.00000E-01    2.22823E-03
 7.00000E-01    2.07279E-03
 8.00000E-01    1.99575E-03
 9.00000E-01    1.97199E-03
 1.00000E+00    1.98136E-03
 1.10000E+00    2.01644E-03
 1.20000E+00    2.07469E-03
 1.30000E+00    2.15303E-03
 1.40000E+00    2.24864E-03
 1.50000E+00    2.36132E-03
 1.60000E+00    2.49066E-03
 1.70000E+00    2.63636E-03
 1.80000E+00    2.79845E-03
 1.90000E+00    2.97709E-03
 2.00000E+00    3.16794E-03
 2.25000E+00    3.60888E-03
 2.50000E+00    4.18603E-03
 2.75000E+00    5.01283E-03
 3.00000E+00    8.32820E-03
 3.50000E+00    1.12861E-02
 4.00000E+00    1.51491E-02
 4.50000E+00    2.02864E-02
 5.00000E+00    2.73935E-02
 5.50000E+00    3.75230E-02
 6.00000E+00    5.25128E-02
 6.50000E+00    7.50504E-02
 7.00000E+00    1.08579E-01
 7.50000E+00    1.57267E-01
 8.00000E+00    2.25892E-01
 8.50000E+00    3.18984E-01
 9.00000E+00    4.40073E-01
 9.50000E+00    5.91464E-01
 1.00000E+01    7.73025E-01
 1.05000E+01    9.83991E-01
 1.10000E+01    1.21979E+00
 1.15000E+01    1.47583E+00
 1.20000E+01    1.74673E+00
 1.25000E+01    2.02703E+00
 1.30000E+01    2.31167E+00
 1.35000E+01    2.59632E+00
 1.40000E+01    2.87731E+00
 1.45000E+01    3.15250E+00
 1.50000E+01    3.42006E+00
 1.55000E+01    3.67835E+00
 1.60000E+01    3.92493E+00
 1.65000E+01    4.15817E+00
 1.70000E+01    4.37913E+00
 1.75000E+01    4.58657E+00
 1.80000E+01    4.77744E+00
 1.85000E+01    4.95699E+00
 1.90000E+01    5.12449E+00
 1.95000E+01    5.27669E+00
 2.00000E+01    5.41767E+00
