# n + Mo100 : (n,n'14)  
# jendl4.0   K.Shibata, A.Ichihara, S.Kunieda+ EVAL-MAR09
# uncertainties: n
# # energies =    28
#   E(MeV)       xs(mb) 
 2.06339E+00    0.00000E+00
 2.50000E+00    1.08100E+02
 3.00000E+00    9.06900E+01
 3.50000E+00    6.26200E+01
 4.00000E+00    4.02500E+01
 4.50000E+00    2.39700E+01
 5.00000E+00    1.50400E+01
 5.50000E+00    9.99500E+00
 6.00000E+00    7.80400E+00
 6.50000E+00    6.35300E+00
 7.00000E+00    5.34600E+00
 7.50000E+00    5.22700E+00
 8.00000E+00    4.58700E+00
 8.50000E+00    4.63500E+00
 9.00000E+00    4.10600E+00
 9.50000E+00    4.20500E+00
 1.00000E+01    3.73700E+00
 1.10000E+01    3.43300E+00
 1.20000E+01    3.18400E+00
 1.30000E+01    2.98000E+00
 1.40000E+01    2.81500E+00
 1.46000E+01    2.73600E+00
 1.50000E+01    2.68600E+00
 1.60000E+01    2.58900E+00
 1.70000E+01    2.51900E+00
 1.80000E+01    2.46000E+00
 1.90000E+01    2.40600E+00
 2.00000E+01    2.35400E+00
