# n + Mo100 : (n,n'13)  
# jendl4.0   K.Shibata, A.Ichihara, S.Kunieda+ EVAL-MAR09
# uncertainties: n
# # energies =    28
#   E(MeV)       xs(mb) 
 2.05806E+00    0.00000E+00
 2.50000E+00    3.77200E+01
 3.00000E+00    2.84900E+01
 3.50000E+00    1.90000E+01
 4.00000E+00    1.20400E+01
 4.50000E+00    7.03100E+00
 5.00000E+00    4.32500E+00
 5.50000E+00    2.81400E+00
 6.00000E+00    2.15900E+00
 6.50000E+00    1.73000E+00
 7.00000E+00    1.43600E+00
 7.50000E+00    1.38600E+00
 8.00000E+00    1.20000E+00
 8.50000E+00    1.19700E+00
 9.00000E+00    1.04700E+00
 9.50000E+00    1.05800E+00
 1.00000E+01    9.29400E-01
 1.10000E+01    8.37000E-01
 1.20000E+01    7.65500E-01
 1.30000E+01    7.10200E-01
 1.40000E+01    6.67300E-01
 1.46000E+01    6.47200E-01
 1.50000E+01    6.34600E-01
 1.60000E+01    6.10400E-01
 1.70000E+01    5.93200E-01
 1.80000E+01    5.78800E-01
 1.90000E+01    5.65700E-01
 2.00000E+01    5.52600E-01
