# n + Mo100 : (n,n'11)  
# jendl4.0   K.Shibata, A.Ichihara, S.Kunieda+ EVAL-MAR09
# uncertainties: n
# # energies =    29
#   E(MeV)       xs(mb) 
 1.92757E+00    0.00000E+00
 2.00000E+00    5.82900E+01
 2.50000E+00    1.42500E+02
 3.00000E+00    1.28300E+02
 3.50000E+00    1.15400E+02
 4.00000E+00    9.61700E+01
 4.50000E+00    8.02800E+01
 5.00000E+00    6.99500E+01
 5.50000E+00    6.38000E+01
 6.00000E+00    6.04300E+01
 6.50000E+00    5.86500E+01
 7.00000E+00    5.74700E+01
 7.50000E+00    5.62800E+01
 8.00000E+00    5.48900E+01
 8.50000E+00    5.32900E+01
 9.00000E+00    5.16400E+01
 9.50000E+00    5.00500E+01
 1.00000E+01    4.86100E+01
 1.10000E+01    4.63100E+01
 1.20000E+01    4.47100E+01
 1.30000E+01    4.35800E+01
 1.40000E+01    4.27200E+01
 1.46000E+01    4.23300E+01
 1.50000E+01    4.19700E+01
 1.60000E+01    4.13200E+01
 1.70000E+01    4.07600E+01
 1.80000E+01    4.02500E+01
 1.90000E+01    3.97400E+01
 2.00000E+01    3.92400E+01
