# n + Mo100 : (n,xd)    
# jendl4.0   K.Shibata, A.Ichihara, S.Kunieda+ EVAL-MAR09
# 
# # energies =    63
#   E(MeV)        xs(mb) 
 5.40977E-01    0.00000E+00
 6.00000E-01    0.00000E+00
 7.00000E-01    0.00000E+00
 7.02138E-01    0.00000E+00
 8.00000E-01    0.00000E+00
 9.00000E-01    0.00000E+00
 1.00000E+00    0.00000E+00
 1.07453E+00    0.00000E+00
 1.14758E+00    0.00000E+00
 1.47869E+00    0.00000E+00
 1.50000E+00    0.00000E+00
 1.51983E+00    0.00000E+00
 1.62360E+00    0.00000E+00
 1.78434E+00    0.00000E+00
 1.78935E+00    0.00000E+00
 1.86555E+00    0.00000E+00
 1.92757E+00    0.00000E+00
 1.99730E+00    0.00000E+00
 2.00000E+00    0.00000E+00
 2.05806E+00    0.00000E+00
 2.06339E+00    0.00000E+00
 2.10302E+00    0.00000E+00
 2.10737E+00    0.00000E+00
 2.12440E+00    0.00000E+00
 2.17777E+00    0.00000E+00
 2.21165E+00    0.00000E+00
 2.22331E+00    0.00000E+00
 2.30954E+00    0.00000E+00
 2.33332E+00    0.00000E+00
 2.34373E+00    0.00000E+00
 2.36262E+00    0.00000E+00
 2.39358E+00    0.00000E+00
 2.42019E+00    0.00000E+00
 2.44108E+00    0.00000E+00
 2.45655E+00    0.00000E+00
 2.46665E+00    0.00000E+00
 2.50000E+00    0.00000E+00
 3.00000E+00    0.00000E+00
 3.50000E+00    0.00000E+00
 4.00000E+00    0.00000E+00
 4.50000E+00    0.00000E+00
 5.00000E+00    0.00000E+00
 5.50000E+00    0.00000E+00
 6.00000E+00    0.00000E+00
 6.50000E+00    0.00000E+00
 7.00000E+00    0.00000E+00
 7.50000E+00    0.00000E+00
 8.00000E+00    0.00000E+00
 8.50000E+00    0.00000E+00
 9.00000E+00    0.00000E+00
 9.50000E+00    0.00000E+00
 1.00000E+01    0.00000E+00
 1.10000E+01    0.00000E+00
 1.20000E+01    4.12100E-07
 1.30000E+01    7.15500E-06
 1.40000E+01    1.36000E-01
 1.46000E+01    3.67500E-01
 1.50000E+01    6.26300E-01
 1.60000E+01    1.74100E+00
 1.70000E+01    3.62300E+00
 1.80000E+01    6.17400E+00
 1.90000E+01    9.19318E+00
 2.00000E+01    1.24796E+01
