# n + Mo100 : (n,el)    
# jendl4.0   K.Shibata, A.Ichihara, S.Kunieda+ EVAL-MAR09
# uncertainties: n
# # energies =    69
#   E(MeV)       xs(mb) 
 1.00000E-10    7.72506E+03
 5.00000E-09    6.09072E+03
 1.00000E-08    6.04339E+03
 1.50000E-08    6.02489E+03
 2.00000E-08    6.01470E+03
 2.50000E-08    6.00853E+03
 3.00000E-08    6.00412E+03
 3.50000E-08    6.00060E+03
 4.20000E-08    5.99719E+03
 5.00000E-08    5.99474E+03
 5.80000E-08    5.99297E+03
 6.70000E-08    5.99077E+03
 8.00000E-08    5.98909E+03
 1.00000E-07    5.98682E+03
 1.40000E-07    5.98511E+03
 1.80000E-07    5.98419E+03
 2.20000E-07    5.98338E+03
 2.50000E-07    5.98270E+03
 2.80000E-07    5.98219E+03
 3.00000E-07    5.98206E+03
 3.20000E-07    5.98192E+03
 3.50000E-07    5.98171E+03
 4.00000E-07    5.98132E+03
 5.00000E-07    5.98072E+03
 6.25000E-07    5.97997E+03
 7.80000E-07    5.97935E+03
 8.50000E-07    5.97900E+03
 9.10000E-07    5.97874E+03
 9.50000E-07    5.97857E+03
 9.72000E-07    5.97845E+03
 9.96000E-07    5.97832E+03
 1.02000E-06    5.97819E+03
 1.04500E-06    5.97811E+03
 1.07100E-06    5.97803E+03
 1.09700E-06    5.97796E+03
 1.12300E-06    5.97788E+03
 1.15000E-06    5.97763E+03
 1.30000E-06    5.97712E+03
 1.50000E-06    5.97601E+03
 2.10000E-06    5.97439E+03
 2.60000E-06    5.97267E+03
 3.30000E-06    5.97064E+03
 4.00000E-06    5.96236E+03
 9.87700E-06    5.94449E+03
 1.59680E-05    5.91957E+03
 2.77000E-05    5.87431E+03
 4.80520E-05    5.80547E+03
 7.55014E-05    5.66010E+03
 1.48728E-04    2.34720E+04
 3.67262E-04    8.06759E+03
 9.06898E-04    6.61522E+03
 1.42510E-03    8.63933E+03
 2.23945E-03    8.60754E+03
 3.51910E-03    7.28831E+03
 5.53000E-03    1.03149E+04
 9.11800E-03    7.62851E+03
 1.50300E-02    1.05986E+04
 2.47800E-02    8.24820E+03
 4.08500E-02    8.18327E+03
 6.73400E-02    8.70113E+03
 1.11000E-01    9.21616E+03
 1.83000E-01    9.15967E+03
 3.02000E-01    8.60991E+03
 5.00000E-01    7.22745E+03
 8.21000E-01    5.27319E+03
 1.35300E+00    3.67053E+03
 2.23100E+00    2.12880E+03
 3.67900E+00    1.69683E+03
 6.06500E+00    2.04221E+03
