# n + Hg194 : (n,n'12)  
# tendl.2019 A.J. Koning and D. Rochman        EVAL-NOV19
# uncertainties: n
# # energies =    78
#   E(MeV)       xs(mb) 
 2.14892E+00    0.00000E+00
 2.15404E+00    4.02182E-04
 2.17658E+00    2.17270E-03
 2.19077E+00    3.28733E-03
 2.20000E+00    4.01236E-03
 2.27125E+00    4.29258E-02
 2.27599E+00    4.55145E-02
 2.37609E+00    1.00185E-01
 2.38655E+00    1.05897E-01
 2.40000E+00    1.13243E-01
 2.43580E+00    1.53414E-01
 2.47618E+00    1.98724E-01
 2.48797E+00    2.11953E-01
 2.57482E+00    3.09407E-01
 2.60000E+00    3.37661E-01
 2.70138E+00    4.77056E-01
 2.80000E+00    6.12655E-01
 2.90302E+00    7.57760E-01
 3.00000E+00    8.94357E-01
 3.07943E+00    9.96498E-01
 3.18910E+00    1.13752E+00
 3.20000E+00    1.15154E+00
 3.40000E+00    1.35968E+00
 3.41115E+00    1.36768E+00
 3.54946E+00    1.46685E+00
 3.60000E+00    1.50309E+00
 3.76679E+00    1.55831E+00
 3.80000E+00    1.56930E+00
 4.00000E+00    1.43416E+00
 4.20000E+00    1.18223E+00
 4.40000E+00    9.26069E-01
 4.60000E+00    7.11980E-01
 4.80000E+00    5.44780E-01
 5.00000E+00    4.16890E-01
 5.20000E+00    3.19443E-01
 5.40000E+00    2.45013E-01
 5.60000E+00    1.87333E-01
 5.80000E+00    1.43322E-01
 6.00000E+00    1.09528E-01
 6.20000E+00    8.36308E-02
 6.40000E+00    6.38192E-02
 6.60000E+00    4.87053E-02
 6.80000E+00    3.71783E-02
 7.00000E+00    2.83845E-02
 7.20000E+00    2.16783E-02
 7.40000E+00    1.65504E-02
 7.60000E+00    1.26323E-02
 7.80000E+00    9.64035E-03
 8.00000E+00    7.34683E-03
 8.50000E+00    3.71900E-03
 9.00000E+00    1.87984E-03
 9.50000E+00    9.51891E-04
 1.00000E+01    4.84128E-04
 1.05000E+01    2.47711E-04
 1.10000E+01    1.27605E-04
 1.15000E+01    6.62047E-05
 1.20000E+01    3.46139E-05
 1.25000E+01    1.82548E-05
 1.30000E+01    9.71780E-06
 1.35000E+01    5.22492E-06
 1.40000E+01    2.83773E-06
 1.45000E+01    1.55638E-06
 1.50000E+01    8.61510E-07
 1.60000E+01    2.70610E-07
 1.70000E+01    8.73720E-08
 1.80000E+01    2.87160E-08
 1.90000E+01    9.65840E-09
 2.00000E+01    3.31170E-09
 2.10000E+01    1.15780E-09
 2.20000E+01    4.13280E-10
 2.30000E+01    1.50980E-10
 2.40000E+01    5.63540E-11
 2.50000E+01    2.14970E-11
 2.60000E+01    8.31880E-12
 2.70000E+01    3.26460E-12
 2.80000E+01    1.29830E-12
 2.90000E+01    5.23200E-13
 3.00000E+01    2.13690E-13
