# n + Eu152 : (n,tot)   
# endfb8.0   JNDC FPND W.G., R.Q.Wright        EVAL-MAR05
# uncertainties: n
# # energies =   171
#   E(MeV)       xs(mb) 
 1.00000E-11    1.83600E+08
 1.00000E-07    1.33540E+06
 4.13990E-07    3.43829E+05
 5.31580E-07    3.42112E+05
 6.82560E-07    1.10308E+06
 8.76420E-07    1.14050E+06
 1.12540E-06    6.85251E+05
 1.44500E-06    1.04586E+06
 1.85540E-06    9.45660E+05
 2.37240E-06    9.78397E+04
 3.05900E-06    4.15828E+05
 3.92790E-06    2.99443E+05
 5.04350E-06    2.01093E+05
 6.47600E-06    1.37450E+05
 8.31530E-06    2.61647E+05
 1.06770E-05    2.19020E+05
 1.37100E-05    3.08078E+05
 1.76030E-05    1.41959E+05
 2.26030E-05    3.29121E+05
 2.92030E-05    3.18260E+05
 3.72670E-05    1.22251E+05
 4.78510E-05    2.10333E+05
 6.14420E-05    1.90372E+05
 7.88930E-05    1.62994E+05
 1.01300E-04    1.44377E+05
 1.30070E-04    1.27938E+05
 1.67020E-04    1.13461E+05
 2.14450E-04    1.00664E+05
 2.75360E-04    8.93610E+04
 3.53580E-04    7.94029E+04
 4.54000E-04    7.06060E+04
 5.82950E-04    6.28503E+04
 7.48520E-04    5.60022E+04
 9.61120E-04    4.99621E+04
 1.23410E-03    4.46407E+04
 1.58460E-03    3.99209E+04
 2.03470E-03    3.69331E+04
 2.24870E-03    3.53487E+04
 2.48520E-03    3.42184E+04
 2.61260E-03    3.34873E+04
 2.74650E-03    3.24152E+04
 3.03540E-03    3.10489E+04
 3.35460E-03    2.97477E+04
 3.70740E-03    2.82102E+04
 4.30740E-03    2.59482E+04
 5.53080E-03    2.34006E+04
 7.10170E-03    2.11392E+04
 9.11880E-03    1.91340E+04
 1.17090E-02    1.73554E+04
 1.50340E-02    1.57674E+04
 1.93050E-02    1.46838E+04
 2.18750E-02    1.41438E+04
 2.35790E-02    1.38818E+04
 2.41760E-02    1.37547E+04
 2.47880E-02    1.35674E+04
 2.60580E-02    1.33578E+04
 2.70000E-02    1.31357E+04
 2.85000E-02    1.27465E+04
 3.18280E-02    1.23202E+04
 3.43070E-02    1.17739E+04
 4.08680E-02    1.11506E+04
 4.63090E-02    1.06602E+04
 5.24750E-02    1.02843E+04
 5.65620E-02    9.83349E+03
 6.73790E-02    9.41332E+03
 7.20000E-02    9.13232E+03
 7.95000E-02    8.65602E+03
 8.25000E-02    8.49704E+03
 8.65170E-02    8.18002E+03
 9.80370E-02    7.79835E+03
 1.11090E-01    7.64611E+03
 1.16790E-01    7.56584E+03
 1.22770E-01    7.48996E+03
 1.29070E-01    7.41100E+03
 1.35690E-01    7.33991E+03
 1.42640E-01    7.26890E+03
 1.49960E-01    7.19787E+03
 1.57640E-01    7.13687E+03
 1.65730E-01    7.07405E+03
 1.74220E-01    7.01202E+03
 1.83160E-01    6.95910E+03
 1.92550E-01    6.90434E+03
 2.02420E-01    6.85328E+03
 2.12800E-01    6.81232E+03
 2.23710E-01    6.76960E+03
 2.35180E-01    6.72468E+03
 2.47240E-01    6.66773E+03
 2.73240E-01    6.62511E+03
 2.87250E-01    6.60291E+03
 2.94520E-01    6.59255E+03
 2.97200E-01    6.58841E+03
 2.98500E-01    6.58346E+03
 3.01970E-01    6.57643E+03
 3.33730E-01    6.56970E+03
 3.68830E-01    6.56422E+03
 3.87740E-01    6.56032E+03
 4.07620E-01    6.55406E+03
 4.50490E-01    6.54498E+03
 4.97870E-01    6.54772E+03
 5.23400E-01    6.56735E+03
 5.50230E-01    6.58808E+03
 5.78440E-01    6.60987E+03
 6.08100E-01    6.63278E+03
 6.39280E-01    6.65687E+03
 6.72060E-01    6.68218E+03
 7.06510E-01    6.70880E+03
 7.42740E-01    6.73678E+03
 7.80820E-01    6.76620E+03
 8.20850E-01    6.79712E+03
 8.62940E-01    6.82963E+03
 9.07180E-01    6.85975E+03
 9.61640E-01    6.88376E+03
 1.00260E+00    6.91611E+03
 1.10800E+00    6.94200E+03
 1.16480E+00    6.95929E+03
 1.22460E+00    6.97723E+03
 1.28730E+00    6.98518E+03
 1.35340E+00    6.98754E+03
 1.42270E+00    6.99002E+03
 1.49570E+00    6.98398E+03
 1.57240E+00    6.96665E+03
 1.65300E+00    6.94841E+03
 1.73770E+00    6.92773E+03
 1.82680E+00    6.89413E+03
 1.92050E+00    6.85622E+03
 2.01900E+00    6.79919E+03
 2.12250E+00    6.72478E+03
 2.23130E+00    6.65997E+03
 2.30690E+00    6.61975E+03
 2.34570E+00    6.59925E+03
 2.36530E+00    6.58648E+03
 2.38520E+00    6.55768E+03
 2.46600E+00    6.49835E+03
 2.59240E+00    6.42390E+03
 2.72530E+00    6.34672E+03
 2.86500E+00    6.27083E+03
 3.01190E+00    6.17786E+03
 3.16640E+00    6.06235E+03
 3.32870E+00    5.88951E+03
 3.67880E+00    5.66555E+03
 4.06570E+00    5.43718E+03
 4.49330E+00    5.26258E+03
 4.72370E+00    5.14990E+03
 4.96590E+00    5.04380E+03
 5.22050E+00    4.95314E+03
 5.48810E+00    4.85956E+03
 5.76950E+00    4.77218E+03
 6.06530E+00    4.70913E+03
 6.37630E+00    4.66783E+03
 6.59240E+00    4.64221E+03
 6.70320E+00    4.60724E+03
 7.04690E+00    4.57704E+03
 7.40820E+00    4.56063E+03
 7.78800E+00    4.55364E+03
 8.18730E+00    4.56602E+03
 8.60710E+00    4.58433E+03
 9.04840E+00    4.61958E+03
 9.51230E+00    4.66782E+03
 1.00000E+01    4.74250E+03
 1.05130E+01    4.84341E+03
 1.10520E+01    4.94627E+03
 1.16180E+01    5.04474E+03
 1.22140E+01    5.06635E+03
 1.28400E+01    5.06539E+03
 1.34990E+01    5.06468E+03
 1.38400E+01    5.06495E+03
 1.41910E+01    5.06912E+03
 1.45500E+01    5.07383E+03
 1.49180E+01    5.08967E+03
 1.56830E+01    5.12575E+03
 1.64870E+01    5.17954E+03
