# n + Eu152 : (n,el)    
# endfb8.0   JNDC FPND W.G., R.Q.Wright        EVAL-MAR05
# uncertainties: n
# # energies =   171
#   E(MeV)       xs(mb) 
 1.00000E-11    4.11684E+04
 1.00000E-07    1.19338E+04
 4.13990E-07    7.53571E+03
 5.31580E-07    6.28356E+03
 6.82560E-07    5.83231E+03
 8.76420E-07    1.00702E+04
 1.12540E-06    6.50670E+03
 1.44500E-06    6.47795E+03
 1.85540E-06    1.49743E+04
 2.37240E-06    8.28431E+03
 3.05900E-06    7.67570E+03
 3.92790E-06    8.68242E+03
 5.04350E-06    7.39249E+03
 6.47600E-06    8.30782E+03
 8.31530E-06    8.59195E+03
 1.06770E-05    8.50532E+03
 1.37100E-05    1.09103E+04
 1.76030E-05    9.24852E+03
 2.26030E-05    1.66143E+04
 2.92030E-05    2.19507E+04
 3.72670E-05    1.35867E+04
 4.78510E-05    1.93647E+04
 6.14420E-05    4.08418E+04
 7.88930E-05    3.96371E+04
 1.01300E-04    3.82520E+04
 1.30070E-04    3.68318E+04
 1.67020E-04    3.53858E+04
 2.14450E-04    3.39179E+04
 2.75360E-04    3.24361E+04
 3.53580E-04    3.09512E+04
 4.54000E-04    2.94682E+04
 5.82950E-04    2.75223E+04
 7.48520E-04    2.50143E+04
 9.61120E-04    2.27856E+04
 1.23410E-03    2.08183E+04
 1.58460E-03    1.90700E+04
 2.03470E-03    1.79579E+04
 2.24870E-03    1.73643E+04
 2.48520E-03    1.69379E+04
 2.61260E-03    1.66607E+04
 2.74650E-03    1.62522E+04
 3.03540E-03    1.57338E+04
 3.35460E-03    1.52395E+04
 3.70740E-03    1.46499E+04
 4.30740E-03    1.37777E+04
 5.53080E-03    1.27809E+04
 7.10170E-03    1.18810E+04
 9.11880E-03    1.10654E+04
 1.17090E-02    1.03211E+04
 1.50340E-02    9.63510E+03
 1.93050E-02    9.15282E+03
 2.18750E-02    8.90460E+03
 2.35790E-02    8.78223E+03
 2.41760E-02    8.72219E+03
 2.47880E-02    8.63355E+03
 2.60580E-02    8.53417E+03
 2.70000E-02    8.42828E+03
 2.85000E-02    8.23954E+03
 3.18280E-02    8.03025E+03
 3.43070E-02    7.75416E+03
 4.08680E-02    7.43037E+03
 4.63090E-02    7.16656E+03
 5.24750E-02    6.95935E+03
 5.65620E-02    6.70308E+03
 6.73790E-02    6.45180E+03
 7.20000E-02    6.20343E+03
 7.95000E-02    5.87671E+03
 8.25000E-02    5.76435E+03
 8.65170E-02    5.53769E+03
 9.80370E-02    5.29797E+03
 1.11090E-01    5.23277E+03
 1.16790E-01    5.19449E+03
 1.22770E-01    5.15597E+03
 1.29070E-01    5.12281E+03
 1.35690E-01    5.08882E+03
 1.42640E-01    5.05307E+03
 1.49960E-01    5.01566E+03
 1.57640E-01    4.98177E+03
 1.65730E-01    4.94875E+03
 1.74220E-01    4.91403E+03
 1.83160E-01    4.87913E+03
 1.92550E-01    4.84924E+03
 2.02420E-01    4.81857E+03
 2.12800E-01    4.78641E+03
 2.23710E-01    4.75747E+03
 2.35180E-01    4.72991E+03
 2.47240E-01    4.68847E+03
 2.73240E-01    4.65379E+03
 2.87250E-01    4.63645E+03
 2.94520E-01    4.62836E+03
 2.97200E-01    4.62513E+03
 2.98500E-01    4.62126E+03
 3.01970E-01    4.60645E+03
 3.33730E-01    4.58534E+03
 3.68830E-01    4.56822E+03
 3.87740E-01    4.55601E+03
 4.07620E-01    4.53646E+03
 4.50490E-01    4.51174E+03
 4.97870E-01    4.50023E+03
 5.23400E-01    4.50343E+03
 5.50230E-01    4.50684E+03
 5.78440E-01    4.51043E+03
 6.08100E-01    4.51420E+03
 6.39280E-01    4.51817E+03
 6.72060E-01    4.52234E+03
 7.06510E-01    4.52673E+03
 7.42740E-01    4.53299E+03
 7.80820E-01    4.54089E+03
 8.20850E-01    4.54920E+03
 8.62940E-01    4.55793E+03
 9.07180E-01    4.56790E+03
 9.61640E-01    4.57757E+03
 1.00260E+00    4.59080E+03
 1.10800E+00    4.60074E+03
 1.16480E+00    4.60708E+03
 1.22460E+00    4.61182E+03
 1.28730E+00    4.60841E+03
 1.35340E+00    4.60385E+03
 1.42270E+00    4.59906E+03
 1.49570E+00    4.59118E+03
 1.57240E+00    4.57337E+03
 1.65300E+00    4.55388E+03
 1.73770E+00    4.53144E+03
 1.82680E+00    4.49901E+03
 1.92050E+00    4.46328E+03
 2.01900E+00    4.40449E+03
 2.12250E+00    4.33183E+03
 2.23130E+00    4.26930E+03
 2.30690E+00    4.23495E+03
 2.34570E+00    4.21811E+03
 2.36530E+00    4.20674E+03
 2.38520E+00    4.17786E+03
 2.46600E+00    4.11838E+03
 2.59240E+00    4.04826E+03
 2.72530E+00    3.97839E+03
 2.86500E+00    3.90485E+03
 3.01190E+00    3.81262E+03
 3.16640E+00    3.70467E+03
 3.32870E+00    3.54151E+03
 3.67880E+00    3.32884E+03
 4.06570E+00    3.11984E+03
 4.49330E+00    2.96653E+03
 4.72370E+00    2.86856E+03
 4.96590E+00    2.78103E+03
 5.22050E+00    2.70741E+03
 5.48810E+00    2.63352E+03
 5.76950E+00    2.56223E+03
 6.06530E+00    2.53338E+03
 6.37630E+00    2.51020E+03
 6.59240E+00    2.48571E+03
 6.70320E+00    2.45247E+03
 7.04690E+00    2.43743E+03
 7.40820E+00    2.44459E+03
 7.78800E+00    2.45531E+03
 8.18730E+00    2.48916E+03
 8.60710E+00    2.52983E+03
 9.04840E+00    2.58908E+03
 9.51230E+00    2.65415E+03
 1.00000E+01    2.72538E+03
 1.05130E+01    2.80331E+03
 1.10520E+01    2.89874E+03
 1.16180E+01    3.00291E+03
 1.22140E+01    3.08526E+03
 1.28400E+01    3.16899E+03
 1.34990E+01    3.24490E+03
 1.38400E+01    3.29493E+03
 1.41910E+01    3.33411E+03
 1.45500E+01    3.36965E+03
 1.49180E+01    3.42257E+03
 1.56830E+01    3.49176E+03
 1.64870E+01    3.55599E+03
