# n + Sb125 : (n,n'13)  
# jeff3.3    A.J. Koning and D. Rochman        EVAL-DEC15
# uncertainties: n
# # energies =    79
#   E(MeV)       xs(mb) 
 1.75015E+00    0.00000E+00
 1.80000E+00    6.19609E+00
 1.81454E+00    6.95836E+00
 1.82129E+00    7.31222E+00
 1.90511E+00    1.17065E+01
 1.90929E+00    1.19256E+01
 1.92922E+00    1.29705E+01
 1.96318E+00    1.47508E+01
 1.98717E+00    1.60085E+01
 1.99885E+00    1.66208E+01
 2.00000E+00    1.66811E+01
 2.00974E+00    1.69102E+01
 2.01831E+00    1.71117E+01
 2.12916E+00    1.97189E+01
 2.17059E+00    2.06934E+01
 2.20000E+00    2.13851E+01
 2.21111E+00    2.15006E+01
 2.21880E+00    2.15805E+01
 2.23510E+00    2.17499E+01
 2.24498E+00    2.18525E+01
 2.25881E+00    2.19963E+01
 2.40000E+00    2.34636E+01
 2.60000E+00    2.23549E+01
 2.80000E+00    1.98649E+01
 3.00000E+00    1.69509E+01
 3.20000E+00    1.40769E+01
 3.40000E+00    1.14752E+01
 3.60000E+00    9.24691E+00
 3.80000E+00    7.40653E+00
 4.00000E+00    5.92205E+00
 4.20000E+00    4.74184E+00
 4.40000E+00    3.81099E+00
 4.60000E+00    3.07721E+00
 4.80000E+00    2.49656E+00
 5.00000E+00    2.03622E+00
 5.20000E+00    1.66824E+00
 5.40000E+00    1.37303E+00
 5.60000E+00    1.13483E+00
 5.80000E+00    9.43421E-01
 6.00000E+00    7.89632E-01
 6.20000E+00    6.66540E-01
 6.40000E+00    5.67936E-01
 6.60000E+00    4.88551E-01
 6.80000E+00    4.26033E-01
 7.00000E+00    3.75460E-01
 7.20000E+00    3.35270E-01
 7.40000E+00    3.02753E-01
 7.60000E+00    2.76268E-01
 7.80000E+00    2.54873E-01
 8.00000E+00    2.37156E-01
 8.50000E+00    2.05116E-01
 9.00000E+00    1.84302E-01
 9.50000E+00    1.70088E-01
 1.00000E+01    1.59843E-01
 1.05000E+01    1.51992E-01
 1.10000E+01    1.45554E-01
 1.15000E+01    1.39936E-01
 1.20000E+01    1.34808E-01
 1.25000E+01    1.30013E-01
 1.30000E+01    1.25491E-01
 1.35000E+01    1.21238E-01
 1.40000E+01    1.17269E-01
 1.45000E+01    1.13602E-01
 1.50000E+01    1.10242E-01
 1.60000E+01    1.04414E-01
 1.70000E+01    9.95877E-02
 1.80000E+01    9.54503E-02
 1.90000E+01    9.17482E-02
 2.00000E+01    8.83333E-02
 2.10000E+01    8.51023E-02
 2.20000E+01    8.19527E-02
 2.30000E+01    7.88209E-02
 2.40000E+01    7.57371E-02
 2.50000E+01    7.28050E-02
 2.60000E+01    7.01387E-02
 2.70000E+01    6.78093E-02
 2.80000E+01    6.58264E-02
 2.90000E+01    6.41425E-02
 3.00000E+01    6.26718E-02
