# n + Sb125 : (n,n'10)  
# jeff3.3    A.J. Koning and D. Rochman        EVAL-DEC15
# uncertainties: n
# # energies =    82
#   E(MeV)       xs(mb) 
 1.60442E+00    0.00000E+00
 1.67341E+00    2.26173E+01
 1.71442E+00    3.60618E+01
 1.75015E+00    4.77753E+01
 1.80000E+00    6.41179E+01
 1.81454E+00    6.54146E+01
 1.82129E+00    6.60166E+01
 1.90511E+00    7.34918E+01
 1.90929E+00    7.38646E+01
 1.92922E+00    7.56420E+01
 1.96318E+00    7.86706E+01
 1.98717E+00    8.08101E+01
 1.99885E+00    8.18517E+01
 2.00000E+00    8.19543E+01
 2.00974E+00    8.21422E+01
 2.01831E+00    8.23075E+01
 2.12916E+00    8.44457E+01
 2.17059E+00    8.52449E+01
 2.20000E+00    8.58122E+01
 2.21111E+00    8.56571E+01
 2.21880E+00    8.55497E+01
 2.23510E+00    8.53221E+01
 2.24498E+00    8.51841E+01
 2.25881E+00    8.49910E+01
 2.40000E+00    8.30195E+01
 2.60000E+00    7.29526E+01
 2.80000E+00    6.10121E+01
 3.00000E+00    4.94789E+01
 3.20000E+00    3.93130E+01
 3.40000E+00    3.08103E+01
 3.60000E+00    2.39436E+01
 3.80000E+00    1.85254E+01
 4.00000E+00    1.43127E+01
 4.20000E+00    1.10666E+01
 4.40000E+00    8.57625E+00
 4.60000E+00    6.66293E+00
 4.80000E+00    5.18650E+00
 5.00000E+00    4.04531E+00
 5.20000E+00    3.15717E+00
 5.40000E+00    2.46464E+00
 5.60000E+00    1.92241E+00
 5.80000E+00    1.49974E+00
 6.00000E+00    1.17145E+00
 6.20000E+00    9.17069E-01
 6.40000E+00    7.19844E-01
 6.60000E+00    5.66823E-01
 6.80000E+00    4.51008E-01
 7.00000E+00    3.60997E-01
 7.20000E+00    2.92789E-01
 7.40000E+00    2.40401E-01
 7.60000E+00    1.99919E-01
 7.80000E+00    1.69334E-01
 8.00000E+00    1.45522E-01
 8.50000E+00    1.07619E-01
 9.00000E+00    8.78120E-02
 9.50000E+00    7.73020E-02
 1.00000E+01    7.16310E-02
 1.05000E+01    6.84932E-02
 1.10000E+01    6.66615E-02
 1.15000E+01    6.54813E-02
 1.20000E+01    6.46084E-02
 1.25000E+01    6.38697E-02
 1.30000E+01    6.31831E-02
 1.35000E+01    6.25140E-02
 1.40000E+01    6.18506E-02
 1.45000E+01    6.11908E-02
 1.50000E+01    6.05371E-02
 1.60000E+01    5.92658E-02
 1.70000E+01    5.80711E-02
 1.80000E+01    5.69691E-02
 1.90000E+01    5.59486E-02
 2.00000E+01    5.49704E-02
 2.10000E+01    5.39839E-02
 2.20000E+01    5.29484E-02
 2.30000E+01    5.18481E-02
 2.40000E+01    5.06955E-02
 2.50000E+01    4.95209E-02
 2.60000E+01    4.83578E-02
 2.70000E+01    4.72312E-02
 2.80000E+01    4.61531E-02
 2.90000E+01    4.51230E-02
 3.00000E+01    4.41330E-02
