# n + Hf179 : (n,n'05)  
# endfb8.0   R.Q. Wright, T. Kawano            EVAL-OCT16
# uncertainties: n
# # energies =    69
#   E(MeV)       xs(mb) 
 3.77151E-01    0.00000E+00
 4.00000E-01    9.61502E-01
 4.50000E-01    3.13215E+00
 5.00000E-01    5.52260E+00
 6.00000E-01    8.66346E+00
 7.00000E-01    1.00689E+01
 8.00000E-01    1.00480E+01
 9.00000E-01    9.52323E+00
 1.00000E+00    8.43096E+00
 1.10000E+00    7.65110E+00
 1.20000E+00    6.96005E+00
 1.30000E+00    6.36541E+00
 1.40000E+00    5.85760E+00
 1.50000E+00    5.40880E+00
 1.60000E+00    4.99242E+00
 1.70000E+00    4.59222E+00
 1.80000E+00    4.20155E+00
 1.90000E+00    3.82055E+00
 2.00000E+00    3.45118E+00
 2.10000E+00    3.13758E+00
 2.20000E+00    2.79579E+00
 2.30000E+00    2.47821E+00
 2.40000E+00    2.18642E+00
 2.50000E+00    1.92090E+00
 2.60000E+00    1.68143E+00
 2.70000E+00    1.46703E+00
 2.80000E+00    1.27631E+00
 2.90000E+00    1.10764E+00
 3.00000E+00    9.59164E-01
 3.10000E+00    8.29036E-01
 3.20000E+00    7.15456E-01
 3.30000E+00    6.16587E-01
 3.40000E+00    5.30969E-01
 3.50000E+00    4.57061E-01
 3.60000E+00    3.93360E-01
 3.80000E+00    2.91353E-01
 4.00000E+00    2.15895E-01
 4.50000E+00    1.02103E-01
 5.00000E+00    4.80272E-02
 5.50000E+00    2.22067E-02
 6.00000E+00    9.98207E-03
 6.50000E+00    4.35536E-03
 7.00000E+00    1.87727E-03
 7.50000E+00    8.13373E-04
 8.00000E+00    3.57555E-04
 8.50000E+00    1.60206E-04
 9.00000E+00    7.32335E-05
 9.50000E+00    3.41643E-05
 1.00000E+01    1.62434E-05
 1.05000E+01    7.85860E-06
 1.10000E+01    3.85799E-06
 1.15000E+01    4.96214E-05
 1.20000E+01    4.38185E-05
 1.25000E+01    3.85547E-05
 1.30000E+01    3.39151E-05
 1.35000E+01    2.95991E-05
 1.40000E+01    2.55934E-05
 1.45000E+01    2.18630E-05
 1.50000E+01    1.83714E-05
 1.55000E+01    1.51041E-05
 1.60000E+01    1.20959E-05
 1.65000E+01    9.25934E-06
 1.70000E+01    6.60703E-06
 1.75000E+01    4.36386E-06
 1.80000E+01    1.87631E-06
 1.85000E+01    2.96790E-10
 1.90000E+01    1.68990E-10
 1.95000E+01    9.68510E-11
 2.00000E+01    5.58000E-11
