# n + Hf179 : (n,n'04)  
# endfb8.0   R.Q. Wright, T. Kawano            EVAL-OCT16
# uncertainties: n
# # energies =    70
#   E(MeV)       xs(mb) 
 3.39622E-01    0.00000E+00
 3.50000E-01    1.42371E+02
 4.00000E-01    2.19963E+02
 4.50000E-01    2.56353E+02
 5.00000E-01    2.74461E+02
 6.00000E-01    2.98182E+02
 7.00000E-01    2.87132E+02
 8.00000E-01    2.62661E+02
 9.00000E-01    2.36190E+02
 1.00000E+00    2.01557E+02
 1.10000E+00    1.68297E+02
 1.20000E+00    1.39841E+02
 1.30000E+00    1.16428E+02
 1.40000E+00    9.74993E+01
 1.50000E+00    8.21782E+01
 1.60000E+00    6.96293E+01
 1.70000E+00    5.92105E+01
 1.80000E+00    5.04623E+01
 1.90000E+00    4.30629E+01
 2.00000E+00    3.67628E+01
 2.10000E+00    3.17900E+01
 2.20000E+00    2.70961E+01
 2.30000E+00    2.30908E+01
 2.40000E+00    1.96719E+01
 2.50000E+00    1.67530E+01
 2.60000E+00    1.42619E+01
 2.70000E+00    1.21366E+01
 2.80000E+00    1.03238E+01
 2.90000E+00    8.77886E+00
 3.00000E+00    7.46253E+00
 3.10000E+00    6.34174E+00
 3.20000E+00    5.38831E+00
 3.30000E+00    4.57675E+00
 3.40000E+00    3.88564E+00
 3.50000E+00    3.29720E+00
 3.60000E+00    2.79618E+00
 3.80000E+00    2.00735E+00
 4.00000E+00    1.43849E+00
 4.50000E+00    6.23743E-01
 5.00000E+00    2.70778E-01
 5.50000E+00    1.17297E-01
 6.00000E+00    5.02895E-02
 6.50000E+00    2.12621E-02
 7.00000E+00    8.98157E-03
 7.50000E+00    3.84052E-03
 8.00000E+00    1.67291E-03
 8.50000E+00    7.44501E-04
 9.00000E+00    3.38532E-04
 9.50000E+00    1.57261E-04
 1.00000E+01    7.45139E-05
 1.05000E+01    3.59503E-05
 1.10000E+01    1.76100E-05
 1.15000E+01    5.64507E-05
 1.20000E+01    4.72444E-05
 1.25000E+01    4.02896E-05
 1.30000E+01    3.47995E-05
 1.35000E+01    3.00520E-05
 1.40000E+01    2.58260E-05
 1.45000E+01    2.19826E-05
 1.50000E+01    1.84331E-05
 1.55000E+01    1.51361E-05
 1.60000E+01    1.21128E-05
 1.65000E+01    9.26859E-06
 1.70000E+01    6.61232E-06
 1.75000E+01    4.36694E-06
 1.80000E+01    1.87818E-06
 1.85000E+01    1.36790E-09
 1.90000E+01    7.79950E-10
 1.95000E+01    4.47580E-10
 2.00000E+01    2.58170E-10
