# n + Os192 : (n,n'28)  
# jendl4.0   N.Iwamoto                         EVAL-Jan10
# uncertainties: n
# # energies =    53
#   E(MeV)       xs(mb) 
 1.83611E+00    0.00000E+00
 1.84706E+00    2.72206E+01
 1.86773E+00    3.82909E+01
 1.87768E+00    4.12991E+01
 1.87852E+00    4.14998E+01
 1.88866E+00    4.29979E+01
 1.90000E+00    4.48084E+01
 1.90489E+00    4.54314E+01
 1.91268E+00    4.63568E+01
 1.93178E+00    4.82519E+01
 1.93411E+00    4.84231E+01
 1.94708E+00    4.91845E+01
 1.95019E+00    4.93373E+01
 1.95100E+00    4.93798E+01
 2.00000E+00    5.14996E+01
 2.25000E+00    5.30740E+01
 2.50000E+00    4.36856E+01
 2.75000E+00    3.44888E+01
 3.00000E+00    2.49091E+01
 3.50000E+00    1.26712E+01
 4.00000E+00    6.07314E+00
 4.50000E+00    2.89235E+00
 5.00000E+00    1.45160E+00
 5.50000E+00    8.10652E-01
 6.00000E+00    5.23112E-01
 6.50000E+00    3.89172E-01
 7.00000E+00    3.22055E-01
 7.50000E+00    2.84233E-01
 8.00000E+00    2.59722E-01
 8.50000E+00    2.41760E-01
 9.00000E+00    2.27493E-01
 9.50000E+00    2.15492E-01
 1.00000E+01    2.04946E-01
 1.05000E+01    1.95221E-01
 1.10000E+01    1.85935E-01
 1.15000E+01    1.76908E-01
 1.20000E+01    1.68104E-01
 1.25000E+01    1.59658E-01
 1.30000E+01    1.51636E-01
 1.35000E+01    1.44124E-01
 1.40000E+01    1.37145E-01
 1.45000E+01    1.30695E-01
 1.50000E+01    1.24748E-01
 1.55000E+01    1.19257E-01
 1.60000E+01    1.14168E-01
 1.65000E+01    1.09422E-01
 1.70000E+01    1.04971E-01
 1.75000E+01    1.00766E-01
 1.80000E+01    9.67765E-02
 1.85000E+01    9.29834E-02
 1.90000E+01    8.93751E-02
 1.95000E+01    8.59474E-02
 2.00000E+01    8.27007E-02
