# n + Os192 : (n,n'04)  
# jendl4.0   N.Iwamoto                         EVAL-Jan10
# uncertainties: n
# # energies =    89
#   E(MeV)       xs(mb) 
 6.93999E-01    0.00000E+00
 7.00000E-01    7.19816E+01
 8.00000E-01    1.79948E+02
 9.00000E-01    2.33730E+02
 9.14372E-01    2.41453E+02
 9.61566E-01    2.63692E+02
 1.00000E+00    2.75370E+02
 1.07516E+00    3.02501E+02
 1.09495E+00    3.08198E+02
 1.10000E+00    3.09023E+02
 1.13344E+00    3.14945E+02
 1.14953E+00    3.05030E+02
 1.20000E+00    3.05674E+02
 1.21263E+00    3.06692E+02
 1.30000E+00    3.11511E+02
 1.34820E+00    3.13157E+02
 1.36918E+00    3.04644E+02
 1.40000E+00    3.01031E+02
 1.41727E+00    2.99786E+02
 1.45793E+00    2.87396E+02
 1.46425E+00    2.82415E+02
 1.47304E+00    2.79419E+02
 1.50000E+00    2.74202E+02
 1.56880E+00    2.66759E+02
 1.60000E+00    2.61167E+02
 1.60010E+00    2.61157E+02
 1.62134E+00    2.56147E+02
 1.65374E+00    2.48086E+02
 1.67384E+00    2.45502E+02
 1.70000E+00    2.38938E+02
 1.71737E+00    2.36111E+02
 1.72191E+00    2.35444E+02
 1.74290E+00    2.32550E+02
 1.78970E+00    2.23739E+02
 1.80000E+00    2.21160E+02
 1.81721E+00    2.18422E+02
 1.83611E+00    2.13954E+02
 1.84706E+00    2.10571E+02
 1.86773E+00    2.05334E+02
 1.87768E+00    2.02774E+02
 1.87852E+00    2.02226E+02
 1.88866E+00    1.97805E+02
 1.90000E+00    1.93958E+02
 1.90489E+00    1.92772E+02
 1.91268E+00    1.90425E+02
 1.93178E+00    1.85690E+02
 1.93411E+00    1.84941E+02
 1.94708E+00    1.81729E+02
 1.95019E+00    1.80612E+02
 1.95100E+00    1.80328E+02
 2.00000E+00    1.70512E+02
 2.25000E+00    1.32583E+02
 2.50000E+00    9.49230E+01
 2.75000E+00    7.07162E+01
 3.00000E+00    4.81509E+01
 3.50000E+00    2.32016E+01
 4.00000E+00    1.07758E+01
 4.50000E+00    4.90614E+00
 5.00000E+00    2.22299E+00
 5.50000E+00    1.01964E+00
 6.00000E+00    4.85919E-01
 6.50000E+00    2.50249E-01
 7.00000E+00    1.45799E-01
 7.50000E+00    9.89786E-02
 8.00000E+00    7.70586E-02
 8.50000E+00    6.58633E-02
 9.00000E+00    6.06865E-02
 9.50000E+00    5.84716E-02
 1.00000E+01    5.67342E-02
 1.05000E+01    5.50199E-02
 1.10000E+01    5.31745E-02
 1.15000E+01    5.12126E-02
 1.20000E+01    4.91657E-02
 1.25000E+01    4.70860E-02
 1.30000E+01    4.50173E-02
 1.35000E+01    4.29925E-02
 1.40000E+01    4.10239E-02
 1.45000E+01    3.91152E-02
 1.50000E+01    3.72617E-02
 1.55000E+01    3.54539E-02
 1.60000E+01    3.36817E-02
 1.65000E+01    3.19352E-02
 1.70000E+01    3.02088E-02
 1.75000E+01    2.84993E-02
 1.80000E+01    2.68084E-02
 1.85000E+01    2.51411E-02
 1.90000E+01    2.35029E-02
 1.95000E+01    2.18996E-02
 2.00000E+01    2.03359E-02
