# n + Os192 : (n,n'10)  
# jendl4.0   N.Iwamoto                         EVAL-Jan10
# uncertainties: n
# # energies =    78
#   E(MeV)       xs(mb) 
 1.14953E+00    0.00000E+00
 1.20000E+00    4.02481E+00
 1.21263E+00    4.79025E+00
 1.30000E+00    1.09082E+01
 1.34820E+00    1.47998E+01
 1.36918E+00    1.58756E+01
 1.40000E+00    1.79817E+01
 1.41727E+00    1.91999E+01
 1.45793E+00    2.17778E+01
 1.46425E+00    2.20409E+01
 1.47304E+00    2.23524E+01
 1.50000E+00    2.39835E+01
 1.56880E+00    2.82944E+01
 1.60000E+00    2.90715E+01
 1.60010E+00    2.90761E+01
 1.62134E+00    2.96559E+01
 1.65374E+00    3.06837E+01
 1.67384E+00    3.15023E+01
 1.70000E+00    3.23026E+01
 1.71737E+00    3.30006E+01
 1.72191E+00    3.31905E+01
 1.74290E+00    3.40865E+01
 1.78970E+00    3.56694E+01
 1.80000E+00    3.57078E+01
 1.81721E+00    3.60499E+01
 1.83611E+00    3.62826E+01
 1.84706E+00    3.64721E+01
 1.86773E+00    3.67275E+01
 1.87768E+00    3.67468E+01
 1.87852E+00    3.67152E+01
 1.88866E+00    3.67174E+01
 1.90000E+00    3.67343E+01
 1.90489E+00    3.67877E+01
 1.91268E+00    3.67477E+01
 1.93178E+00    3.69521E+01
 1.93411E+00    3.69823E+01
 1.94708E+00    3.71601E+01
 1.95019E+00    3.71462E+01
 1.95100E+00    3.70759E+01
 2.00000E+00    3.74054E+01
 2.25000E+00    3.78310E+01
 2.50000E+00    3.20558E+01
 2.75000E+00    2.74993E+01
 3.00000E+00    2.13165E+01
 3.50000E+00    1.23610E+01
 4.00000E+00    6.72186E+00
 4.50000E+00    3.57682E+00
 5.00000E+00    1.93314E+00
 5.50000E+00    1.10323E+00
 6.00000E+00    6.93312E-01
 6.50000E+00    4.89003E-01
 7.00000E+00    3.83682E-01
 7.50000E+00    3.25836E-01
 8.00000E+00    2.91117E-01
 8.50000E+00    2.67975E-01
 9.00000E+00    2.50866E-01
 9.50000E+00    2.36867E-01
 1.00000E+01    2.24420E-01
 1.05000E+01    2.12687E-01
 1.10000E+01    2.01357E-01
 1.15000E+01    1.90380E-01
 1.20000E+01    1.79934E-01
 1.25000E+01    1.70099E-01
 1.30000E+01    1.60954E-01
 1.35000E+01    1.52540E-01
 1.40000E+01    1.44835E-01
 1.45000E+01    1.37793E-01
 1.50000E+01    1.31345E-01
 1.55000E+01    1.25415E-01
 1.60000E+01    1.19924E-01
 1.65000E+01    1.14799E-01
 1.70000E+01    1.09982E-01
 1.75000E+01    1.05422E-01
 1.80000E+01    1.01093E-01
 1.85000E+01    9.69804E-02
 1.90000E+01    9.30777E-02
 1.95000E+01    8.93858E-02
 2.00000E+01    8.59072E-02
