# n + Os192 : (n,n'27)  
# jendl4.0   N.Iwamoto                         EVAL-Jan10
# uncertainties: n
# # energies =    54
#   E(MeV)       xs(mb) 
 1.81721E+00    0.00000E+00
 1.83611E+00    2.48458E+01
 1.84706E+00    2.92959E+01
 1.86773E+00    3.43361E+01
 1.87768E+00    3.61602E+01
 1.87852E+00    3.61270E+01
 1.88866E+00    3.73439E+01
 1.90000E+00    3.83150E+01
 1.90489E+00    3.89031E+01
 1.91268E+00    3.96436E+01
 1.93178E+00    4.16175E+01
 1.93411E+00    4.18441E+01
 1.94708E+00    4.31300E+01
 1.95019E+00    4.31378E+01
 1.95100E+00    4.31856E+01
 2.00000E+00    4.70305E+01
 2.25000E+00    5.70365E+01
 2.50000E+00    5.02583E+01
 2.75000E+00    4.16623E+01
 3.00000E+00    3.12104E+01
 3.50000E+00    1.67439E+01
 4.00000E+00    8.37266E+00
 4.50000E+00    4.13981E+00
 5.00000E+00    2.14429E+00
 5.50000E+00    1.22462E+00
 6.00000E+00    7.99708E-01
 6.50000E+00    5.97104E-01
 7.00000E+00    4.94114E-01
 7.50000E+00    4.35735E-01
 8.00000E+00    3.97949E-01
 8.50000E+00    3.70345E-01
 9.00000E+00    3.48471E-01
 9.50000E+00    3.30089E-01
 1.00000E+01    3.13926E-01
 1.05000E+01    2.99005E-01
 1.10000E+01    2.84744E-01
 1.15000E+01    2.70879E-01
 1.20000E+01    2.57357E-01
 1.25000E+01    2.44395E-01
 1.30000E+01    2.32092E-01
 1.35000E+01    2.20575E-01
 1.40000E+01    2.09880E-01
 1.45000E+01    2.00005E-01
 1.50000E+01    1.90902E-01
 1.55000E+01    1.82499E-01
 1.60000E+01    1.74710E-01
 1.65000E+01    1.67447E-01
 1.70000E+01    1.60634E-01
 1.75000E+01    1.54197E-01
 1.80000E+01    1.48086E-01
 1.85000E+01    1.42275E-01
 1.90000E+01    1.36748E-01
 1.95000E+01    1.31497E-01
 2.00000E+01    1.26525E-01
