# n + Os192 : (n,n'16)  
# jendl4.0   N.Iwamoto                         EVAL-Jan10
# uncertainties: n
# # energies =    69
#   E(MeV)       xs(mb) 
 1.46425E+00    0.00000E+00
 1.47304E+00    2.91140E+00
 1.50000E+00    6.00830E+00
 1.56880E+00    1.34642E+01
 1.60000E+00    1.67724E+01
 1.60010E+00    1.67846E+01
 1.62134E+00    1.91400E+01
 1.65374E+00    2.26938E+01
 1.67384E+00    2.50298E+01
 1.70000E+00    2.79493E+01
 1.71737E+00    2.99843E+01
 1.72191E+00    3.04514E+01
 1.74290E+00    3.26242E+01
 1.78970E+00    3.71803E+01
 1.80000E+00    3.80030E+01
 1.81721E+00    3.96353E+01
 1.83611E+00    4.12133E+01
 1.84706E+00    4.22101E+01
 1.86773E+00    4.37222E+01
 1.87768E+00    4.41152E+01
 1.87852E+00    4.40950E+01
 1.88866E+00    4.43262E+01
 1.90000E+00    4.46472E+01
 1.90489E+00    4.48533E+01
 1.91268E+00    4.50222E+01
 1.93178E+00    4.58105E+01
 1.93411E+00    4.59130E+01
 1.94708E+00    4.64869E+01
 1.95019E+00    4.65240E+01
 1.95100E+00    4.64713E+01
 2.00000E+00    4.80995E+01
 2.25000E+00    5.01675E+01
 2.50000E+00    4.31363E+01
 2.75000E+00    3.65133E+01
 3.00000E+00    2.74827E+01
 3.50000E+00    1.52613E+01
 4.00000E+00    7.80586E+00
 4.50000E+00    3.83569E+00
 5.00000E+00    1.86049E+00
 5.50000E+00    9.11869E-01
 6.00000E+00    4.68555E-01
 6.50000E+00    2.63746E-01
 7.00000E+00    1.68901E-01
 7.50000E+00    1.24184E-01
 8.00000E+00    1.01926E-01
 8.50000E+00    8.97181E-02
 9.00000E+00    8.21459E-02
 9.50000E+00    7.67738E-02
 1.00000E+01    7.24713E-02
 1.05000E+01    6.86667E-02
 1.10000E+01    6.51061E-02
 1.15000E+01    6.16962E-02
 1.20000E+01    5.84345E-02
 1.25000E+01    5.53427E-02
 1.30000E+01    5.24461E-02
 1.35000E+01    4.97638E-02
 1.40000E+01    4.72942E-02
 1.45000E+01    4.50283E-02
 1.50000E+01    4.29489E-02
 1.55000E+01    4.10342E-02
 1.60000E+01    3.92611E-02
 1.65000E+01    3.76074E-02
 1.70000E+01    3.60544E-02
 1.75000E+01    3.45855E-02
 1.80000E+01    3.31905E-02
 1.85000E+01    3.18642E-02
 1.90000E+01    3.06035E-02
 1.95000E+01    2.94080E-02
 2.00000E+01    2.82786E-02
