# n + Os192 : (n,n'11)  
# jendl4.0   N.Iwamoto                         EVAL-Jan10
# uncertainties: n
# # energies =    76
#   E(MeV)       xs(mb) 
 1.21263E+00    0.00000E+00
 1.30000E+00    6.03595E+01
 1.34820E+00    6.75266E+01
 1.36918E+00    7.01941E+01
 1.40000E+00    7.32378E+01
 1.41727E+00    7.49267E+01
 1.45793E+00    7.80307E+01
 1.46425E+00    7.82472E+01
 1.47304E+00    7.84807E+01
 1.50000E+00    7.92025E+01
 1.56880E+00    8.09710E+01
 1.60000E+00    8.15325E+01
 1.60010E+00    8.15347E+01
 1.62134E+00    8.13020E+01
 1.65374E+00    7.98467E+01
 1.67384E+00    7.91339E+01
 1.70000E+00    7.76361E+01
 1.71737E+00    7.69422E+01
 1.72191E+00    7.67651E+01
 1.74290E+00    7.59373E+01
 1.78970E+00    7.34547E+01
 1.80000E+00    7.28445E+01
 1.81721E+00    7.20619E+01
 1.83611E+00    7.08539E+01
 1.84706E+00    6.89407E+01
 1.86773E+00    6.65955E+01
 1.87768E+00    6.55999E+01
 1.87852E+00    6.54412E+01
 1.88866E+00    6.39745E+01
 1.90000E+00    6.26001E+01
 1.90489E+00    6.21300E+01
 1.91268E+00    6.13326E+01
 1.93178E+00    5.84038E+01
 1.93411E+00    5.76789E+01
 1.94708E+00    5.51278E+01
 1.95019E+00    5.46302E+01
 1.95100E+00    5.45245E+01
 2.00000E+00    4.91104E+01
 2.25000E+00    3.56315E+01
 2.50000E+00    2.49421E+01
 2.75000E+00    1.83551E+01
 3.00000E+00    1.38636E+01
 3.50000E+00    7.22125E+00
 4.00000E+00    3.94039E+00
 4.50000E+00    2.40935E+00
 5.00000E+00    1.69704E+00
 5.50000E+00    1.34507E+00
 6.00000E+00    1.15064E+00
 6.50000E+00    1.02477E+00
 7.00000E+00    9.32523E-01
 7.50000E+00    8.59587E-01
 8.00000E+00    8.00565E-01
 8.50000E+00    7.51946E-01
 9.00000E+00    7.10852E-01
 9.50000E+00    6.74470E-01
 1.00000E+01    6.40750E-01
 1.05000E+01    6.08268E-01
 1.10000E+01    5.76565E-01
 1.15000E+01    5.45650E-01
 1.20000E+01    5.16096E-01
 1.25000E+01    4.88166E-01
 1.30000E+01    4.62121E-01
 1.35000E+01    4.38112E-01
 1.40000E+01    4.16093E-01
 1.45000E+01    3.95948E-01
 1.50000E+01    3.77494E-01
 1.55000E+01    3.60513E-01
 1.60000E+01    3.44788E-01
 1.65000E+01    3.30111E-01
 1.70000E+01    3.16316E-01
 1.75000E+01    3.03260E-01
 1.80000E+01    2.90858E-01
 1.85000E+01    2.79060E-01
 1.90000E+01    2.67861E-01
 1.95000E+01    2.57262E-01
 2.00000E+01    2.47271E-01
