# n + Os192 : (n,n'13)  
# jendl4.0   N.Iwamoto                         EVAL-Jan10
# uncertainties: n
# # energies =    73
#   E(MeV)       xs(mb) 
 1.36918E+00    0.00000E+00
 1.40000E+00    2.95226E+00
 1.41727E+00    3.82817E+00
 1.45793E+00    5.91574E+00
 1.46425E+00    6.24799E+00
 1.47304E+00    6.57747E+00
 1.50000E+00    7.95489E+00
 1.56880E+00    1.19189E+01
 1.60000E+00    1.34552E+01
 1.60010E+00    1.34613E+01
 1.62134E+00    1.46056E+01
 1.65374E+00    1.61391E+01
 1.67384E+00    1.71597E+01
 1.70000E+00    1.83832E+01
 1.71737E+00    1.92706E+01
 1.72191E+00    1.95076E+01
 1.74290E+00    2.06194E+01
 1.78970E+00    2.26732E+01
 1.80000E+00    2.29529E+01
 1.81721E+00    2.35662E+01
 1.83611E+00    2.41487E+01
 1.84706E+00    2.45251E+01
 1.86773E+00    2.51492E+01
 1.87768E+00    2.53782E+01
 1.87852E+00    2.53761E+01
 1.88866E+00    2.56171E+01
 1.90000E+00    2.58713E+01
 1.90489E+00    2.60083E+01
 1.91268E+00    2.61404E+01
 1.93178E+00    2.66588E+01
 1.93411E+00    2.67254E+01
 1.94708E+00    2.70987E+01
 1.95019E+00    2.71479E+01
 1.95100E+00    2.71015E+01
 2.00000E+00    2.81763E+01
 2.25000E+00    2.96195E+01
 2.50000E+00    2.63913E+01
 2.75000E+00    2.33789E+01
 3.00000E+00    1.88186E+01
 3.50000E+00    1.13936E+01
 4.00000E+00    6.38843E+00
 4.50000E+00    3.50487E+00
 5.00000E+00    1.96844E+00
 5.50000E+00    1.17945E+00
 6.00000E+00    7.83036E-01
 6.50000E+00    5.80889E-01
 7.00000E+00    4.73188E-01
 7.50000E+00    4.11097E-01
 8.00000E+00    3.71710E-01
 8.50000E+00    3.44116E-01
 9.00000E+00    3.23033E-01
 9.50000E+00    3.05556E-01
 1.00000E+01    2.90017E-01
 1.05000E+01    2.75407E-01
 1.10000E+01    2.61292E-01
 1.15000E+01    2.47564E-01
 1.20000E+01    2.34399E-01
 1.25000E+01    2.21910E-01
 1.30000E+01    2.10219E-01
 1.35000E+01    1.99407E-01
 1.40000E+01    1.89465E-01
 1.45000E+01    1.80352E-01
 1.50000E+01    1.71995E-01
 1.55000E+01    1.64301E-01
 1.60000E+01    1.57177E-01
 1.65000E+01    1.50530E-01
 1.70000E+01    1.44285E-01
 1.75000E+01    1.38378E-01
 1.80000E+01    1.32767E-01
 1.85000E+01    1.27434E-01
 1.90000E+01    1.22367E-01
 1.95000E+01    1.17566E-01
 2.00000E+01    1.13033E-01
