# n + Os192 : (n,n'12)  
# jendl4.0   N.Iwamoto                         EVAL-Jan10
# uncertainties: n
# # energies =    74
#   E(MeV)       xs(mb) 
 1.34820E+00    0.00000E+00
 1.36918E+00    4.93473E+01
 1.40000E+00    6.61923E+01
 1.41727E+00    7.28083E+01
 1.45793E+00    8.50305E+01
 1.46425E+00    8.64455E+01
 1.47304E+00    8.85889E+01
 1.50000E+00    9.52950E+01
 1.56880E+00    1.10455E+02
 1.60000E+00    1.14332E+02
 1.60010E+00    1.14347E+02
 1.62134E+00    1.16882E+02
 1.65374E+00    1.20521E+02
 1.67384E+00    1.23125E+02
 1.70000E+00    1.25740E+02
 1.71737E+00    1.27822E+02
 1.72191E+00    1.28379E+02
 1.74290E+00    1.30966E+02
 1.78970E+00    1.32440E+02
 1.80000E+00    1.32465E+02
 1.81721E+00    1.32865E+02
 1.83611E+00    1.32798E+02
 1.84706E+00    1.31815E+02
 1.86773E+00    1.31144E+02
 1.87768E+00    1.30801E+02
 1.87852E+00    1.30668E+02
 1.88866E+00    1.28706E+02
 1.90000E+00    1.27660E+02
 1.90489E+00    1.27394E+02
 1.91268E+00    1.26828E+02
 1.93178E+00    1.25991E+02
 1.93411E+00    1.25894E+02
 1.94708E+00    1.25419E+02
 1.95019E+00    1.25144E+02
 1.95100E+00    1.25073E+02
 2.00000E+00    1.21923E+02
 2.25000E+00    9.87674E+01
 2.50000E+00    7.28314E+01
 2.75000E+00    5.56894E+01
 3.00000E+00    4.01737E+01
 3.50000E+00    2.07212E+01
 4.00000E+00    1.03982E+01
 4.50000E+00    5.36456E+00
 5.00000E+00    3.01015E+00
 5.50000E+00    1.91327E+00
 6.00000E+00    1.39012E+00
 6.50000E+00    1.12234E+00
 7.00000E+00    9.70000E-01
 7.50000E+00    8.72123E-01
 8.00000E+00    8.02770E-01
 8.50000E+00    7.49813E-01
 9.00000E+00    7.06970E-01
 9.50000E+00    6.70166E-01
 1.00000E+01    6.36738E-01
 1.05000E+01    6.04928E-01
 1.10000E+01    5.74008E-01
 1.15000E+01    5.43818E-01
 1.20000E+01    5.14837E-01
 1.25000E+01    4.87348E-01
 1.30000E+01    4.61625E-01
 1.35000E+01    4.37845E-01
 1.40000E+01    4.15986E-01
 1.45000E+01    3.95955E-01
 1.50000E+01    3.77586E-01
 1.55000E+01    3.60678E-01
 1.60000E+01    3.45020E-01
 1.65000E+01    3.30412E-01
 1.70000E+01    3.16688E-01
 1.75000E+01    3.03704E-01
 1.80000E+01    2.91373E-01
 1.85000E+01    2.79652E-01
 1.90000E+01    2.68518E-01
 1.95000E+01    2.57969E-01
 2.00000E+01    2.48013E-01
