# n + Os192 : (n,n'14)  
# jendl4.0   N.Iwamoto                         EVAL-Jan10
# uncertainties: n
# # energies =    71
#   E(MeV)       xs(mb) 
 1.41727E+00    0.00000E+00
 1.45793E+00    7.56563E+01
 1.46425E+00    7.68353E+01
 1.47304E+00    8.02326E+01
 1.50000E+00    8.94326E+01
 1.56880E+00    1.07830E+02
 1.60000E+00    1.14156E+02
 1.60010E+00    1.14177E+02
 1.62134E+00    1.16806E+02
 1.65374E+00    1.19141E+02
 1.67384E+00    1.21944E+02
 1.70000E+00    1.21829E+02
 1.71737E+00    1.23302E+02
 1.72191E+00    1.23727E+02
 1.74290E+00    1.25758E+02
 1.78970E+00    1.27637E+02
 1.80000E+00    1.27773E+02
 1.81721E+00    1.28868E+02
 1.83611E+00    1.27336E+02
 1.84706E+00    1.25893E+02
 1.86773E+00    1.23743E+02
 1.87768E+00    1.22866E+02
 1.87852E+00    1.22459E+02
 1.88866E+00    1.20339E+02
 1.90000E+00    1.18373E+02
 1.90489E+00    1.17953E+02
 1.91268E+00    1.17011E+02
 1.93178E+00    1.15216E+02
 1.93411E+00    1.14832E+02
 1.94708E+00    1.13467E+02
 1.95019E+00    1.12769E+02
 1.95100E+00    1.12650E+02
 2.00000E+00    1.09040E+02
 2.25000E+00    9.07981E+01
 2.50000E+00    6.93508E+01
 2.75000E+00    5.36609E+01
 3.00000E+00    3.84318E+01
 3.50000E+00    1.94500E+01
 4.00000E+00    9.45451E+00
 4.50000E+00    4.65688E+00
 5.00000E+00    2.44747E+00
 5.50000E+00    1.43744E+00
 6.00000E+00    9.69976E-01
 6.50000E+00    7.42710E-01
 7.00000E+00    6.22660E-01
 7.50000E+00    5.51521E-01
 8.00000E+00    5.04226E-01
 8.50000E+00    4.69517E-01
 9.00000E+00    4.42081E-01
 9.50000E+00    4.18840E-01
 1.00000E+01    3.97956E-01
 1.05000E+01    3.78208E-01
 1.10000E+01    3.59067E-01
 1.15000E+01    3.40413E-01
 1.20000E+01    3.22458E-01
 1.25000E+01    3.05386E-01
 1.30000E+01    2.89378E-01
 1.35000E+01    2.74554E-01
 1.40000E+01    2.60909E-01
 1.45000E+01    2.48393E-01
 1.50000E+01    2.36909E-01
 1.55000E+01    2.26336E-01
 1.60000E+01    2.16544E-01
 1.65000E+01    2.07409E-01
 1.70000E+01    1.98829E-01
 1.75000E+01    1.90708E-01
 1.80000E+01    1.82991E-01
 1.85000E+01    1.75655E-01
 1.90000E+01    1.68684E-01
 1.95000E+01    1.62076E-01
 2.00000E+01    1.55837E-01
