# n + Os192 : (n,p)     
# jendl4.0   N.Iwamoto                         EVAL-Jan10
# uncertainties: n
# # energies =    33
#   E(MeV)       xs(mb) 
 3.40797E+00    0.00000E+00
 4.50000E+00    2.17830E-16
 5.00000E+00    1.42000E-15
 5.50000E+00    1.28170E-12
 6.00000E+00    1.27520E-10
 6.50000E+00    3.80370E-09
 7.00000E+00    5.89300E-08
 7.50000E+00    6.34230E-07
 8.00000E+00    5.18829E-06
 8.50000E+00    3.28072E-05
 9.00000E+00    1.63951E-04
 9.50000E+00    6.66243E-04
 1.00000E+01    2.26683E-03
 1.05000E+01    6.62844E-03
 1.10000E+01    1.70155E-02
 1.15000E+01    3.90007E-02
 1.20000E+01    8.09241E-02
 1.25000E+01    1.53827E-01
 1.30000E+01    2.70829E-01
 1.35000E+01    4.46188E-01
 1.40000E+01    6.94368E-01
 1.45000E+01    1.02917E+00
 1.50000E+01    1.46272E+00
 1.55000E+01    2.00415E+00
 1.60000E+01    2.65743E+00
 1.65000E+01    3.41965E+00
 1.70000E+01    4.28010E+00
 1.75000E+01    5.21991E+00
 1.80000E+01    6.21535E+00
 1.85000E+01    7.24003E+00
 1.90000E+01    8.26904E+00
 1.95000E+01    9.27984E+00
 2.00000E+01    1.02834E+01
