# n + Os192 : (n,n'33)  
# jendl4.0   N.Iwamoto                         EVAL-Jan10
# uncertainties: n
# # energies =    48
#   E(MeV)       xs(mb) 
 1.88866E+00    0.00000E+00
 1.90000E+00    1.66674E+01
 1.90489E+00    1.91270E+01
 1.91268E+00    2.19307E+01
 1.93178E+00    2.67613E+01
 1.93411E+00    2.72202E+01
 1.94708E+00    2.95704E+01
 1.95019E+00    2.98502E+01
 1.95100E+00    2.99572E+01
 2.00000E+00    3.56439E+01
 2.25000E+00    4.98266E+01
 2.50000E+00    4.67070E+01
 2.75000E+00    3.92641E+01
 3.00000E+00    2.96870E+01
 3.50000E+00    1.60204E+01
 4.00000E+00    7.96454E+00
 4.50000E+00    3.84544E+00
 5.00000E+00    1.89732E+00
 5.50000E+00    1.00338E+00
 6.00000E+00    5.96079E-01
 6.50000E+00    4.07949E-01
 7.00000E+00    3.17467E-01
 7.50000E+00    2.70421E-01
 8.00000E+00    2.42745E-01
 8.50000E+00    2.24065E-01
 9.00000E+00    2.10003E-01
 9.50000E+00    1.98545E-01
 1.00000E+01    1.88667E-01
 1.05000E+01    1.79671E-01
 1.10000E+01    1.71144E-01
 1.15000E+01    1.62885E-01
 1.20000E+01    1.54840E-01
 1.25000E+01    1.47109E-01
 1.30000E+01    1.39756E-01
 1.35000E+01    1.32859E-01
 1.40000E+01    1.26446E-01
 1.45000E+01    1.20515E-01
 1.50000E+01    1.15044E-01
 1.55000E+01    1.09991E-01
 1.60000E+01    1.05307E-01
 1.65000E+01    1.00939E-01
 1.70000E+01    9.68422E-02
 1.75000E+01    9.29735E-02
 1.80000E+01    8.93030E-02
 1.85000E+01    8.58134E-02
 1.90000E+01    8.24935E-02
 1.95000E+01    7.93388E-02
 2.00000E+01    7.63496E-02
