# n + Os192 : (n,n'25)  
# jendl4.0   N.Iwamoto                         EVAL-Jan10
# uncertainties: n
# # energies =    57
#   E(MeV)       xs(mb) 
 1.74290E+00    0.00000E+00
 1.78970E+00    4.00012E+01
 1.80000E+00    4.24123E+01
 1.81721E+00    4.61588E+01
 1.83611E+00    4.87626E+01
 1.84706E+00    5.02518E+01
 1.86773E+00    5.20512E+01
 1.87768E+00    5.29205E+01
 1.87852E+00    5.27714E+01
 1.88866E+00    5.31938E+01
 1.90000E+00    5.35315E+01
 1.90489E+00    5.38532E+01
 1.91268E+00    5.41239E+01
 1.93178E+00    5.53895E+01
 1.93411E+00    5.55279E+01
 1.94708E+00    5.64209E+01
 1.95019E+00    5.63079E+01
 1.95100E+00    5.63298E+01
 2.00000E+00    5.93081E+01
 2.25000E+00    6.38231E+01
 2.50000E+00    5.36411E+01
 2.75000E+00    4.42225E+01
 3.00000E+00    3.27711E+01
 3.50000E+00    1.74678E+01
 4.00000E+00    8.77501E+00
 4.50000E+00    4.42571E+00
 5.00000E+00    2.38125E+00
 5.50000E+00    1.43514E+00
 6.00000E+00    9.92363E-01
 6.50000E+00    7.75459E-01
 7.00000E+00    6.60025E-01
 7.50000E+00    5.90530E-01
 8.00000E+00    5.42973E-01
 8.50000E+00    5.06898E-01
 9.00000E+00    4.77697E-01
 9.50000E+00    4.52857E-01
 1.00000E+01    4.30786E-01
 1.05000E+01    4.10250E-01
 1.10000E+01    3.90514E-01
 1.15000E+01    3.71291E-01
 1.20000E+01    3.52547E-01
 1.25000E+01    3.34621E-01
 1.30000E+01    3.17637E-01
 1.35000E+01    3.01769E-01
 1.40000E+01    2.87061E-01
 1.45000E+01    2.73498E-01
 1.50000E+01    2.61009E-01
 1.55000E+01    2.49486E-01
 1.60000E+01    2.38807E-01
 1.65000E+01    2.28850E-01
 1.70000E+01    2.19506E-01
 1.75000E+01    2.10678E-01
 1.80000E+01    2.02298E-01
 1.85000E+01    1.94331E-01
 1.90000E+01    1.86753E-01
 1.95000E+01    1.79557E-01
 2.00000E+01    1.72746E-01
