# n + Os192 : (n,n'31)  
# jendl4.0   N.Iwamoto                         EVAL-Jan10
# uncertainties: n
# # energies =    50
#   E(MeV)       xs(mb) 
 1.87768E+00    0.00000E+00
 1.87852E+00    5.59226E+00
 1.88866E+00    1.71700E+01
 1.90000E+00    2.20546E+01
 1.90489E+00    2.36278E+01
 1.91268E+00    2.55662E+01
 1.93178E+00    2.94249E+01
 1.93411E+00    2.98343E+01
 1.94708E+00    3.18688E+01
 1.95019E+00    3.20470E+01
 1.95100E+00    3.21305E+01
 2.00000E+00    3.73863E+01
 2.25000E+00    5.10513E+01
 2.50000E+00    4.74089E+01
 2.75000E+00    3.96259E+01
 3.00000E+00    2.96918E+01
 3.50000E+00    1.58874E+01
 4.00000E+00    7.78074E+00
 4.50000E+00    3.65020E+00
 5.00000E+00    1.70431E+00
 5.50000E+00    8.17883E-01
 6.00000E+00    4.20103E-01
 6.50000E+00    2.42063E-01
 7.00000E+00    1.61345E-01
 7.50000E+00    1.23555E-01
 8.00000E+00    1.04438E-01
 8.50000E+00    9.35157E-02
 9.00000E+00    8.63716E-02
 9.50000E+00    8.10907E-02
 1.00000E+01    7.67979E-02
 1.05000E+01    7.30138E-02
 1.10000E+01    6.94877E-02
 1.15000E+01    6.61015E-02
 1.20000E+01    6.28174E-02
 1.25000E+01    5.96697E-02
 1.30000E+01    5.66803E-02
 1.35000E+01    5.38791E-02
 1.40000E+01    5.12753E-02
 1.45000E+01    4.88686E-02
 1.50000E+01    4.66489E-02
 1.55000E+01    4.45990E-02
 1.60000E+01    4.26986E-02
 1.65000E+01    4.09267E-02
 1.70000E+01    3.92649E-02
 1.75000E+01    3.76955E-02
 1.80000E+01    3.62064E-02
 1.85000E+01    3.47908E-02
 1.90000E+01    3.34440E-02
 1.95000E+01    3.21643E-02
 2.00000E+01    3.09518E-02
