# n + Zn 66 : (n,h)     
# endfb8.0   N.Iwamoto                         EVAL-Dec09
# uncertainties: n
# # energies =    40
#   E(MeV)       xs(mb) 
 8.79255E+00    0.00000E+00
 1.01589E+01    5.62120E-12
 1.10000E+01    2.32560E-11
 1.11039E+01    2.38290E-10
 1.13156E+01    6.78900E-10
 1.14426E+01    9.43360E-10
 1.15000E+01    1.06290E-09
 1.17037E+01    1.15700E-08
 1.18101E+01    1.70580E-08
 1.18647E+01    1.98740E-08
 1.20000E+01    2.68530E-08
 1.20071E+01    3.03250E-08
 1.21187E+01    8.49090E-08
 1.22402E+01    1.44340E-07
 1.23092E+01    1.78080E-07
 1.23278E+01    1.87180E-07
 1.24074E+01    2.26110E-07
 1.24963E+01    2.69600E-07
 1.25000E+01    2.71410E-07
 1.25989E+01    5.08390E-07
 1.25993E+01    5.09350E-07
 1.26476E+01    6.25090E-07
 1.26588E+01    6.51930E-07
 1.27003E+01    7.51370E-07
 1.28182E+01    1.03389E-06
 1.30000E+01    1.46953E-06
 1.35000E+01    5.20431E-06
 1.40000E+01    1.37271E-05
 1.45000E+01    2.94349E-05
 1.50000E+01    5.40603E-05
 1.55000E+01    8.82366E-05
 1.60000E+01    1.31455E-04
 1.65000E+01    1.84107E-04
 1.70000E+01    2.50808E-04
 1.75000E+01    3.46531E-04
 1.80000E+01    5.05882E-04
 1.85000E+01    7.90953E-04
 1.90000E+01    1.33247E-03
 1.95000E+01    2.31127E-03
 2.00000E+01    3.97659E-03
