# n + Zn 66 : (n,n'02)  
# endfb8.0   N.Iwamoto                         EVAL-Dec09
# uncertainties: n
# # energies =    55
#   E(MeV)       xs(mb) 
 1.90160E+00    0.00000E+00
 2.00000E+00    1.34388E+02
 2.25000E+00    2.71629E+02
 2.40883E+00    3.35761E+02
 2.48863E+00    3.57536E+02
 2.50000E+00    3.58567E+02
 2.74517E+00    4.02678E+02
 2.75000E+00    4.00083E+02
 2.80568E+00    3.98895E+02
 2.80800E+00    3.96293E+02
 2.82309E+00    3.91401E+02
 2.87044E+00    3.73510E+02
 2.98341E+00    3.39833E+02
 3.00000E+00    3.38668E+02
 3.07636E+00    3.20650E+02
 3.12502E+00    3.08604E+02
 3.15288E+00    3.01632E+02
 3.26195E+00    2.77042E+02
 3.27668E+00    2.71721E+02
 3.27872E+00    2.70533E+02
 3.29099E+00    2.65174E+02
 3.50000E+00    2.07524E+02
 4.00000E+00    1.31133E+02
 4.50000E+00    8.53450E+01
 5.00000E+00    5.80611E+01
 5.50000E+00    4.08431E+01
 6.00000E+00    2.95738E+01
 6.50000E+00    2.19051E+01
 7.00000E+00    1.66806E+01
 7.50000E+00    1.31270E+01
 8.00000E+00    1.06865E+01
 8.50000E+00    8.97975E+00
 9.00000E+00    7.75273E+00
 9.50000E+00    6.84758E+00
 1.00000E+01    6.15658E+00
 1.05000E+01    5.59936E+00
 1.10000E+01    5.15744E+00
 1.15000E+01    4.76842E+00
 1.20000E+01    4.44054E+00
 1.25000E+01    4.14080E+00
 1.30000E+01    3.88327E+00
 1.35000E+01    3.64475E+00
 1.40000E+01    3.43590E+00
 1.45000E+01    3.24275E+00
 1.50000E+01    3.07095E+00
 1.55000E+01    2.91007E+00
 1.60000E+01    2.76568E+00
 1.65000E+01    2.62815E+00
 1.70000E+01    2.50307E+00
 1.75000E+01    2.38180E+00
 1.80000E+01    2.27053E+00
 1.85000E+01    2.16183E+00
 1.90000E+01    2.06145E+00
 1.95000E+01    1.96362E+00
 2.00000E+01    1.87317E+00
