# n + Zn 66 : (n,p)     
# endfb8.0   N.Iwamoto                         EVAL-Dec09
# uncertainties: n
# # energies =    72
#   E(MeV)       xs(mb) 
 1.88725E+00    0.00000E+00
 2.07604E+00    6.13444E-05
 2.12871E+00    8.75214E-05
 2.16648E+00    1.10950E-04
 2.27893E+00    2.01298E-04
 2.35953E+00    3.06671E-04
 2.48703E+00    5.07849E-04
 2.57663E+00    8.03241E-04
 2.62824E+00    1.06848E-03
 2.72252E+00    1.64256E-03
 2.78477E+00    2.05535E-03
 2.81726E+00    2.28055E-03
 2.91117E+00    2.94790E-03
 2.91995E+00    3.01084E-03
 2.95542E+00    3.26702E-03
 2.98341E+00    3.47020E-03
 3.00000E+00    3.64400E-03
 3.05910E+00    4.43434E-03
 3.06305E+00    4.48773E-03
 3.07636E+00    4.67930E-03
 3.11832E+00    5.43377E-03
 3.12502E+00    5.55808E-03
 3.15288E+00    6.24957E-03
 3.15348E+00    6.27260E-03
 3.25182E+00    1.00901E-02
 3.26195E+00    1.04852E-02
 3.27668E+00    1.12626E-02
 3.27872E+00    1.13759E-02
 3.29099E+00    1.20033E-02
 3.34136E+00    1.75340E-02
 3.34868E+00    1.83383E-02
 3.40816E+00    2.48783E-02
 3.45831E+00    3.03935E-02
 3.47127E+00    3.18191E-02
 3.48872E+00    3.37386E-02
 3.50000E+00    3.49911E-02
 3.54218E+00    6.23384E-02
 3.59092E+00    9.39764E-02
 3.60723E+00    1.04570E-01
 4.00000E+00    3.59820E-01
 4.50000E+00    1.78464E+00
 5.00000E+00    5.16452E+00
 5.50000E+00    1.02921E+01
 6.00000E+00    1.58810E+01
 6.50000E+00    2.08527E+01
 7.00000E+00    2.49482E+01
 7.50000E+00    2.83923E+01
 8.00000E+00    3.15072E+01
 8.50000E+00    3.45839E+01
 9.00000E+00    3.77819E+01
 9.50000E+00    4.12171E+01
 1.00000E+01    4.44241E+01
 1.05000E+01    4.83406E+01
 1.10000E+01    5.24654E+01
 1.15000E+01    5.61734E+01
 1.20000E+01    5.93133E+01
 1.25000E+01    6.09696E+01
 1.30000E+01    6.12254E+01
 1.35000E+01    6.01588E+01
 1.40000E+01    5.84117E+01
 1.45000E+01    5.62117E+01
 1.50000E+01    5.40251E+01
 1.55000E+01    5.18556E+01
 1.60000E+01    4.99468E+01
 1.65000E+01    4.81060E+01
 1.70000E+01    4.65489E+01
 1.75000E+01    4.50662E+01
 1.80000E+01    4.38081E+01
 1.85000E+01    4.27016E+01
 1.90000E+01    4.15534E+01
 1.95000E+01    4.04337E+01
 2.00000E+01    3.94024E+01
