# n + Zn 66 : (n,n'03)  
# endfb8.0   N.Iwamoto                         EVAL-Dec09
# uncertainties: n
# # energies =    52
#   E(MeV)       xs(mb) 
 2.40883E+00    0.00000E+00
 2.48863E+00    2.93424E+01
 2.50000E+00    3.11648E+01
 2.74517E+00    6.17152E+01
 2.75000E+00    6.20847E+01
 2.80568E+00    6.70702E+01
 2.80800E+00    6.69179E+01
 2.82309E+00    6.75703E+01
 2.87044E+00    6.94736E+01
 2.98341E+00    7.28590E+01
 3.00000E+00    7.73863E+01
 3.07636E+00    7.83975E+01
 3.12502E+00    7.68098E+01
 3.15288E+00    7.64478E+01
 3.26195E+00    7.31620E+01
 3.27668E+00    7.24180E+01
 3.27872E+00    7.23410E+01
 3.29099E+00    7.12602E+01
 3.50000E+00    6.05334E+01
 4.00000E+00    4.11996E+01
 4.50000E+00    2.78583E+01
 5.00000E+00    2.01160E+01
 5.50000E+00    1.54146E+01
 6.00000E+00    1.23603E+01
 6.50000E+00    1.02561E+01
 7.00000E+00    8.68242E+00
 7.50000E+00    7.48963E+00
 8.00000E+00    6.58736E+00
 8.50000E+00    5.89747E+00
 9.00000E+00    5.35638E+00
 9.50000E+00    4.92013E+00
 1.00000E+01    4.55769E+00
 1.05000E+01    4.24063E+00
 1.10000E+01    3.97487E+00
 1.15000E+01    3.72536E+00
 1.20000E+01    3.50699E+00
 1.25000E+01    3.29851E+00
 1.30000E+01    3.11108E+00
 1.35000E+01    2.93526E+00
 1.40000E+01    2.77588E+00
 1.45000E+01    2.62613E+00
 1.50000E+01    2.49182E+00
 1.55000E+01    2.36400E+00
 1.60000E+01    2.25010E+00
 1.65000E+01    2.14024E+00
 1.70000E+01    2.04105E+00
 1.75000E+01    1.94460E+00
 1.80000E+01    1.85592E+00
 1.85000E+01    1.76972E+00
 1.90000E+01    1.68931E+00
 1.95000E+01    1.61170E+00
 2.00000E+01    1.53885E+00
