# n + Zn 66 : (n,n'10)  
# endfb8.0   N.Iwamoto                         EVAL-Dec09
# uncertainties: n
# # energies =    43
#   E(MeV)       xs(mb) 
 2.98341E+00    0.00000E+00
 3.00000E+00    1.89783E+01
 3.07636E+00    4.28526E+01
 3.12502E+00    5.35780E+01
 3.15288E+00    5.88879E+01
 3.26195E+00    7.63042E+01
 3.27668E+00    7.74296E+01
 3.27872E+00    7.74923E+01
 3.29099E+00    7.81165E+01
 3.50000E+00    8.81431E+01
 4.00000E+00    8.31778E+01
 4.50000E+00    5.91246E+01
 5.00000E+00    3.95065E+01
 5.50000E+00    2.69721E+01
 6.00000E+00    1.89916E+01
 6.50000E+00    1.37304E+01
 7.00000E+00    1.01731E+01
 7.50000E+00    7.66336E+00
 8.00000E+00    5.90035E+00
 8.50000E+00    4.67634E+00
 9.00000E+00    3.82247E+00
 9.50000E+00    3.22054E+00
 1.00000E+01    2.78790E+00
 1.05000E+01    2.46516E+00
 1.10000E+01    2.22738E+00
 1.15000E+01    2.03544E+00
 1.20000E+01    1.88449E+00
 1.25000E+01    1.75458E+00
 1.30000E+01    1.64545E+00
 1.35000E+01    1.54602E+00
 1.40000E+01    1.46010E+00
 1.45000E+01    1.37950E+00
 1.50000E+01    1.30802E+00
 1.55000E+01    1.24085E+00
 1.60000E+01    1.18063E+00
 1.65000E+01    1.12363E+00
 1.70000E+01    1.07180E+00
 1.75000E+01    1.02206E+00
 1.80000E+01    9.76385E-01
 1.85000E+01    9.31926E-01
 1.90000E+01    8.90865E-01
 1.95000E+01    8.50763E-01
 2.00000E+01    8.13650E-01
