# n + Zn 66 : (n,xh)    
# endfb8.0   N.Iwamoto                         EVAL-Dec09
# 
# # energies =    87
#   E(MeV)        xs(mb) 
 1.05000E-01    0.00000E+00
 1.10000E-01    0.00000E+00
 1.20000E-01    0.00000E+00
 1.30000E-01    0.00000E+00
 1.40000E-01    0.00000E+00
 1.50000E-01    0.00000E+00
 1.60000E-01    0.00000E+00
 1.70000E-01    0.00000E+00
 1.80000E-01    0.00000E+00
 1.90000E-01    0.00000E+00
 2.00000E-01    0.00000E+00
 2.25000E-01    0.00000E+00
 2.50000E-01    0.00000E+00
 2.75000E-01    0.00000E+00
 3.00000E-01    0.00000E+00
 4.00000E-01    0.00000E+00
 5.00000E-01    0.00000E+00
 6.00000E-01    0.00000E+00
 7.00000E-01    0.00000E+00
 8.00000E-01    0.00000E+00
 9.00000E-01    0.00000E+00
 1.00000E+00    0.00000E+00
 1.05529E+00    0.00000E+00
 1.10000E+00    0.00000E+00
 1.20000E+00    0.00000E+00
 1.30000E+00    0.00000E+00
 1.40000E+00    0.00000E+00
 1.50000E+00    0.00000E+00
 1.60000E+00    0.00000E+00
 1.70000E+00    0.00000E+00
 1.80000E+00    0.00000E+00
 1.90000E+00    0.00000E+00
 1.90160E+00    0.00000E+00
 2.00000E+00    0.00000E+00
 2.25000E+00    0.00000E+00
 2.40883E+00    0.00000E+00
 2.48863E+00    0.00000E+00
 2.50000E+00    0.00000E+00
 2.74517E+00    0.00000E+00
 2.75000E+00    0.00000E+00
 2.80568E+00    0.00000E+00
 2.80800E+00    0.00000E+00
 2.82309E+00    0.00000E+00
 2.87044E+00    0.00000E+00
 2.98341E+00    0.00000E+00
 3.00000E+00    0.00000E+00
 3.07636E+00    0.00000E+00
 3.12502E+00    0.00000E+00
 3.15288E+00    0.00000E+00
 3.26195E+00    0.00000E+00
 3.27668E+00    0.00000E+00
 3.27872E+00    0.00000E+00
 3.29099E+00    0.00000E+00
 3.50000E+00    0.00000E+00
 4.00000E+00    0.00000E+00
 4.50000E+00    0.00000E+00
 5.00000E+00    0.00000E+00
 5.50000E+00    0.00000E+00
 6.00000E+00    0.00000E+00
 6.50000E+00    0.00000E+00
 7.00000E+00    0.00000E+00
 7.50000E+00    0.00000E+00
 8.00000E+00    0.00000E+00
 8.50000E+00    0.00000E+00
 9.00000E+00    8.53454E-13
 9.50000E+00    2.91047E-12
 1.00000E+01    4.96748E-12
 1.05000E+01    1.27728E-11
 1.10000E+01    2.32560E-11
 1.15000E+01    1.06290E-09
 1.20000E+01    2.68530E-08
 1.25000E+01    2.71410E-07
 1.30000E+01    1.46953E-06
 1.35000E+01    5.20431E-06
 1.40000E+01    1.37271E-05
 1.45000E+01    2.94349E-05
 1.50000E+01    5.40603E-05
 1.55000E+01    8.82366E-05
 1.60000E+01    1.31455E-04
 1.65000E+01    1.84107E-04
 1.70000E+01    2.50808E-04
 1.75000E+01    3.46531E-04
 1.80000E+01    5.05882E-04
 1.85000E+01    7.90953E-04
 1.90000E+01    1.33247E-03
 1.95000E+01    2.31127E-03
 2.00000E+01    3.97659E-03
