# n + Yb171 : (n,n'15)  
# jendl4.0   S.Kunieda, A.Ichihara, K.Shibata+ EVAL-FEB10
# uncertainties: n
# # energies =    49
#   E(MeV)       xs(mb) 
 5.12104E-01    0.00000E+00
 5.50000E-01    5.27400E-04
 6.00000E-01    5.24000E-03
 6.50000E-01    2.16600E-02
 7.00000E-01    5.31800E-02
 7.50000E-01    1.03000E-01
 8.00000E-01    1.84100E-01
 8.50000E-01    2.92600E-01
 9.00000E-01    4.30500E-01
 9.50000E-01    6.04800E-01
 1.00000E+00    7.97200E-01
 1.20000E+00    1.92400E+00
 1.40000E+00    3.29600E+00
 1.60000E+00    4.74500E+00
 1.80000E+00    6.12300E+00
 2.00000E+00    7.36300E+00
 2.20000E+00    8.40800E+00
 2.40000E+00    9.21900E+00
 2.60000E+00    9.78000E+00
 2.80000E+00    1.01100E+01
 3.00000E+00    1.02500E+01
 3.25000E+00    1.02100E+01
 3.50000E+00    1.00900E+01
 3.75000E+00    9.93600E+00
 4.00000E+00    9.80800E+00
 4.25000E+00    9.72800E+00
 4.50000E+00    9.70500E+00
 4.75000E+00    9.72100E+00
 5.00000E+00    9.75300E+00
 5.50000E+00    9.77500E+00
 6.00000E+00    9.64400E+00
 6.50000E+00    9.31600E+00
 7.00000E+00    8.81900E+00
 7.50000E+00    8.21900E+00
 8.00000E+00    7.59300E+00
 8.50000E+00    7.00200E+00
 9.00000E+00    6.48200E+00
 9.50000E+00    6.04000E+00
 1.00000E+01    5.66800E+00
 1.10000E+01    5.07500E+00
 1.20000E+01    4.59100E+00
 1.30000E+01    4.16400E+00
 1.40000E+01    3.78500E+00
 1.50000E+01    3.46100E+00
 1.60000E+01    3.19200E+00
 1.70000E+01    2.96700E+00
 1.80000E+01    2.77300E+00
 1.90000E+01    2.59700E+00
 2.00000E+01    2.43300E+00
