# n + Yb171 : (n,a)     
# jendl4.0   S.Kunieda, A.Ichihara, K.Shibata+ EVAL-FEB10
# uncertainties: n
# # energies =    37
#   E(MeV)       xs(mb) 
 1.40000E+00    0.00000E+00
 1.60000E+00    1.30400E-03
 1.80000E+00    5.62300E-03
 2.00000E+00    7.07200E-03
 2.20000E+00    7.39000E-03
 2.40000E+00    7.78900E-03
 2.60000E+00    9.26900E-03
 2.80000E+00    1.04900E-02
 3.00000E+00    1.20400E-02
 3.25000E+00    1.39400E-02
 3.50000E+00    1.55100E-02
 3.75000E+00    3.49600E-02
 4.00000E+00    3.70100E-02
 4.25000E+00    4.10500E-02
 4.50000E+00    4.58400E-02
 4.75000E+00    4.89700E-02
 5.00000E+00    5.27500E-02
 5.50000E+00    6.65600E-02
 6.00000E+00    8.13800E-02
 6.50000E+00    1.04800E-01
 7.00000E+00    1.32200E-01
 7.50000E+00    1.72900E-01
 8.00000E+00    2.23300E-01
 8.50000E+00    2.94800E-01
 9.00000E+00    3.84200E-01
 9.50000E+00    5.03500E-01
 1.00000E+01    6.48900E-01
 1.10000E+01    1.05200E+00
 1.20000E+01    1.60600E+00
 1.30000E+01    2.30700E+00
 1.40000E+01    3.09300E+00
 1.50000E+01    3.86900E+00
 1.60000E+01    4.51800E+00
 1.70000E+01    4.93400E+00
 1.80000E+01    5.08700E+00
 1.90000E+01    5.01700E+00
 2.00000E+01    4.79100E+00
