# n + Yb171 : (n,n'21)  
# jendl4.0   S.Kunieda, A.Ichihara, K.Shibata+ EVAL-FEB10
# uncertainties: n
# # energies =    43
#   E(MeV)       xs(mb) 
 8.37412E-01    0.00000E+00
 8.50000E-01    1.16200E-04
 9.00000E-01    2.04700E-03
 9.50000E-01    7.33600E-03
 1.00000E+00    1.67800E-02
 1.20000E+00    1.15200E-01
 1.40000E+00    2.89700E-01
 1.60000E+00    4.85600E-01
 1.80000E+00    6.44000E-01
 2.00000E+00    7.46700E-01
 2.20000E+00    7.94800E-01
 2.40000E+00    7.97100E-01
 2.60000E+00    7.66400E-01
 2.80000E+00    7.15200E-01
 3.00000E+00    6.52900E-01
 3.25000E+00    5.62100E-01
 3.50000E+00    4.79700E-01
 3.75000E+00    4.06400E-01
 4.00000E+00    3.38500E-01
 4.25000E+00    2.78400E-01
 4.50000E+00    2.29100E-01
 4.75000E+00    1.93200E-01
 5.00000E+00    1.63800E-01
 5.50000E+00    1.24000E-01
 6.00000E+00    1.06900E-01
 6.50000E+00    9.55600E-02
 7.00000E+00    9.40000E-02
 7.50000E+00    9.01200E-02
 8.00000E+00    9.17800E-02
 8.50000E+00    8.89600E-02
 9.00000E+00    9.05900E-02
 9.50000E+00    8.75500E-02
 1.00000E+01    8.85900E-02
 1.10000E+01    8.56700E-02
 1.20000E+01    8.20200E-02
 1.30000E+01    7.79100E-02
 1.40000E+01    7.50600E-02
 1.50000E+01    7.21400E-02
 1.60000E+01    6.91300E-02
 1.70000E+01    6.28900E-02
 1.80000E+01    6.01700E-02
 1.90000E+01    5.74400E-02
 2.00000E+01    5.47100E-02
