# n + Yb171 : (n,n'09)  
# jendl4.0   S.Kunieda, A.Ichihara, K.Shibata+ EVAL-FEB10
# uncertainties: n
# # energies =    54
#   E(MeV)       xs(mb) 
 2.60595E-01    0.00000E+00
 3.00000E-01    2.14900E-02
 3.50000E-01    1.03600E-01
 4.00000E-01    2.77100E-01
 4.50000E-01    5.78100E-01
 5.00000E-01    1.02000E+00
 5.50000E-01    1.65500E+00
 6.00000E-01    2.47000E+00
 6.50000E-01    3.48800E+00
 7.00000E-01    4.69700E+00
 7.50000E-01    6.08700E+00
 8.00000E-01    7.63900E+00
 8.50000E-01    9.31000E+00
 9.00000E-01    1.09900E+01
 9.50000E-01    1.25600E+01
 1.00000E+00    1.37700E+01
 1.20000E+00    1.88700E+01
 1.40000E+00    2.04600E+01
 1.60000E+00    1.96200E+01
 1.80000E+00    1.74800E+01
 2.00000E+00    1.48800E+01
 2.20000E+00    1.23100E+01
 2.40000E+00    1.00000E+01
 2.60000E+00    8.02900E+00
 2.80000E+00    6.38700E+00
 3.00000E+00    5.04600E+00
 3.25000E+00    3.67100E+00
 3.50000E+00    2.71100E+00
 3.75000E+00    2.00700E+00
 4.00000E+00    1.48400E+00
 4.25000E+00    1.09800E+00
 4.50000E+00    8.25600E-01
 4.75000E+00    6.41500E-01
 5.00000E+00    5.05100E-01
 5.50000E+00    3.36300E-01
 6.00000E+00    2.60200E-01
 6.50000E+00    2.12400E-01
 7.00000E+00    1.93500E-01
 7.50000E+00    1.73800E-01
 8.00000E+00    1.67200E-01
 8.50000E+00    1.54300E-01
 9.00000E+00    1.50300E-01
 9.50000E+00    1.39600E-01
 1.00000E+01    1.36200E-01
 1.10000E+01    1.23400E-01
 1.20000E+01    1.11800E-01
 1.30000E+01    1.01200E-01
 1.40000E+01    9.35400E-02
 1.50000E+01    8.66400E-02
 1.60000E+01    8.03900E-02
 1.70000E+01    7.10700E-02
 1.80000E+01    6.63000E-02
 1.90000E+01    6.19000E-02
 2.00000E+01    5.78100E-02
