# n + Sm146 : (n,n'09)  
# jeff3.3    A.J. Koning and D. Rochman        EVAL-DEC15
# uncertainties: n
# # energies =    80
#   E(MeV)       xs(mb) 
 2.22628E+00    0.00000E+00
 2.23780E+00    2.04565E+00
 2.24033E+00    2.49493E+00
 2.24642E+00    3.57635E+00
 2.28552E+00    1.05196E+01
 2.29655E+00    1.24782E+01
 2.34711E+00    2.14564E+01
 2.40000E+00    3.08484E+01
 2.41751E+00    3.10459E+01
 2.42565E+00    3.11377E+01
 2.45584E+00    3.14782E+01
 2.53074E+00    3.23230E+01
 2.54850E+00    3.25233E+01
 2.55558E+00    3.26032E+01
 2.56175E+00    3.26728E+01
 2.56957E+00    3.27610E+01
 2.60000E+00    3.31042E+01
 2.61797E+00    3.29801E+01
 2.62076E+00    3.29609E+01
 2.62309E+00    3.29448E+01
 2.65422E+00    3.27299E+01
 2.66801E+00    3.26347E+01
 2.68558E+00    3.25134E+01
 2.69673E+00    3.24364E+01
 2.80000E+00    3.17234E+01
 3.00000E+00    2.69411E+01
 3.20000E+00    2.06234E+01
 3.40000E+00    1.47082E+01
 3.60000E+00    1.01107E+01
 3.80000E+00    6.85630E+00
 4.00000E+00    4.64724E+00
 4.20000E+00    3.17351E+00
 4.40000E+00    2.19070E+00
 4.60000E+00    1.53037E+00
 4.80000E+00    1.08100E+00
 5.00000E+00    7.71387E-01
 5.20000E+00    5.55084E-01
 5.40000E+00    4.01880E-01
 5.60000E+00    2.92346E-01
 5.80000E+00    2.13419E-01
 6.00000E+00    1.56350E-01
 6.20000E+00    1.14561E-01
 6.40000E+00    8.44414E-02
 6.60000E+00    6.25045E-02
 6.80000E+00    4.65144E-02
 7.00000E+00    3.47480E-02
 7.20000E+00    2.61551E-02
 7.40000E+00    1.97673E-02
 7.60000E+00    1.50354E-02
 7.80000E+00    1.14994E-02
 8.00000E+00    8.82573E-03
 8.50000E+00    4.65653E-03
 9.00000E+00    2.50398E-03
 9.50000E+00    1.35697E-03
 1.00000E+01    7.36868E-04
 1.05000E+01    4.01282E-04
 1.10000E+01    2.19697E-04
 1.15000E+01    1.21182E-04
 1.20000E+01    6.74491E-05
 1.25000E+01    3.79420E-05
 1.30000E+01    2.15788E-05
 1.35000E+01    1.24172E-05
 1.40000E+01    7.22831E-06
 1.45000E+01    4.25172E-06
 1.50000E+01    2.52475E-06
 1.60000E+01    9.12140E-07
 1.70000E+01    3.38670E-07
 1.80000E+01    1.28860E-07
 1.90000E+01    4.99160E-08
 2.00000E+01    1.99030E-08
 2.10000E+01    8.14270E-09
 2.20000E+01    3.40020E-09
 2.30000E+01    1.45220E-09
 2.40000E+01    6.32410E-10
 2.50000E+01    2.80470E-10
 2.60000E+01    1.26320E-10
 2.70000E+01    5.76480E-11
 2.80000E+01    2.65920E-11
 2.90000E+01    1.23830E-11
 3.00000E+01    5.82240E-12
