# n + Sm146 : (n,n'07)  
# jeff3.3    A.J. Koning and D. Rochman        EVAL-DEC15
# uncertainties: n
# # energies =    83
#   E(MeV)       xs(mb) 
 2.09780E+00    0.00000E+00
 2.17070E+00    3.41383E+00
 2.20000E+00    4.78591E+00
 2.22628E+00    5.99902E+00
 2.23780E+00    6.53079E+00
 2.24033E+00    6.64758E+00
 2.24642E+00    6.92869E+00
 2.28552E+00    8.73360E+00
 2.29655E+00    9.24275E+00
 2.34711E+00    1.15766E+01
 2.40000E+00    1.40181E+01
 2.41751E+00    1.47051E+01
 2.42565E+00    1.50245E+01
 2.45584E+00    1.62090E+01
 2.53074E+00    1.91478E+01
 2.54850E+00    1.98446E+01
 2.55558E+00    2.01224E+01
 2.56175E+00    2.03644E+01
 2.56957E+00    2.06713E+01
 2.60000E+00    2.18652E+01
 2.61797E+00    2.21382E+01
 2.62076E+00    2.21806E+01
 2.62309E+00    2.22160E+01
 2.65422E+00    2.26891E+01
 2.66801E+00    2.28986E+01
 2.68558E+00    2.31656E+01
 2.69673E+00    2.33350E+01
 2.80000E+00    2.49041E+01
 3.00000E+00    2.31987E+01
 3.20000E+00    1.92416E+01
 3.40000E+00    1.48995E+01
 3.60000E+00    1.12220E+01
 3.80000E+00    8.43212E+00
 4.00000E+00    6.39221E+00
 4.20000E+00    4.91436E+00
 4.40000E+00    3.83697E+00
 4.60000E+00    3.04534E+00
 4.80000E+00    2.45753E+00
 5.00000E+00    2.01837E+00
 5.20000E+00    1.68835E+00
 5.40000E+00    1.43912E+00
 5.60000E+00    1.25106E+00
 5.80000E+00    1.10939E+00
 6.00000E+00    1.00347E+00
 6.20000E+00    9.23662E-01
 6.40000E+00    8.65622E-01
 6.60000E+00    8.23168E-01
 6.80000E+00    7.92687E-01
 7.00000E+00    7.70516E-01
 7.20000E+00    7.54941E-01
 7.40000E+00    7.43763E-01
 7.60000E+00    7.35858E-01
 7.80000E+00    7.30240E-01
 8.00000E+00    7.26104E-01
 8.50000E+00    7.19687E-01
 9.00000E+00    7.15243E-01
 9.50000E+00    7.10643E-01
 1.00000E+01    7.05205E-01
 1.05000E+01    6.98981E-01
 1.10000E+01    6.92301E-01
 1.15000E+01    6.85507E-01
 1.20000E+01    6.78820E-01
 1.25000E+01    6.72328E-01
 1.30000E+01    6.66028E-01
 1.35000E+01    6.59851E-01
 1.40000E+01    6.53748E-01
 1.45000E+01    6.47654E-01
 1.50000E+01    6.41509E-01
 1.60000E+01    6.28855E-01
 1.70000E+01    6.15488E-01
 1.80000E+01    6.01409E-01
 1.90000E+01    5.86813E-01
 2.00000E+01    5.71991E-01
 2.10000E+01    5.57316E-01
 2.20000E+01    5.43149E-01
 2.30000E+01    5.29704E-01
 2.40000E+01    5.17000E-01
 2.50000E+01    5.04913E-01
 2.60000E+01    4.93268E-01
 2.70000E+01    4.81910E-01
 2.80000E+01    4.70741E-01
 2.90000E+01    4.59737E-01
 3.00000E+01    4.48936E-01
