# n + Sm146 : (n,xp)    
# jeff3.3    A.J. Koning and D. Rochman        EVAL-DEC15
# 
# # energies =   127
#   E(MeV)        xs(mb) 
 7.52280E-01    1.00008E-17
 8.00000E-01    2.89759E-17
 9.00000E-01    8.30327E-17
 1.00000E+00    1.37090E-16
 1.20000E+00    2.45203E-16
 1.38981E+00    3.47809E-16
 1.39083E+00    3.48360E-16
 1.40000E+00    3.53317E-16
 1.60000E+00    4.61431E-16
 1.65932E+00    4.97767E-14
 1.80000E+00    1.66730E-13
 1.82421E+00    4.65737E-12
 2.00000E+00    3.72640E-11
 2.05982E+00    4.89154E-10
 2.09780E+00    7.76063E-10
 2.17070E+00    1.32676E-09
 2.20000E+00    1.54810E-09
 2.22628E+00    5.00206E-09
 2.23780E+00    6.51611E-09
 2.24033E+00    6.84864E-09
 2.24642E+00    7.64904E-09
 2.28552E+00    1.27880E-08
 2.29655E+00    1.42376E-08
 2.34711E+00    2.08827E-08
 2.40000E+00    2.78340E-08
 2.41751E+00    5.16594E-08
 2.42565E+00    6.27352E-08
 2.45584E+00    1.03814E-07
 2.53074E+00    2.05729E-07
 2.54850E+00    2.29895E-07
 2.55558E+00    2.39529E-07
 2.56175E+00    2.47924E-07
 2.56957E+00    2.58565E-07
 2.60000E+00    2.99970E-07
 2.61797E+00    4.59491E-07
 2.62076E+00    4.84258E-07
 2.62309E+00    5.04942E-07
 2.65422E+00    7.81285E-07
 2.66801E+00    9.03699E-07
 2.68558E+00    1.05967E-06
 2.69673E+00    1.15865E-06
 2.80000E+00    2.07538E-06
 3.00000E+00    1.04489E-05
 3.20000E+00    3.85552E-05
 3.40000E+00    1.14931E-04
 3.60000E+00    2.93444E-04
 3.80000E+00    6.62520E-04
 4.00000E+00    1.35115E-03
 4.20000E+00    2.53323E-03
 4.40000E+00    4.42231E-03
 4.60000E+00    7.26676E-03
 4.80000E+00    1.13371E-02
 5.00000E+00    1.71517E-02
 5.20000E+00    2.48934E-02
 5.40000E+00    3.45694E-02
 5.60000E+00    4.69941E-02
 5.80000E+00    6.23078E-02
 6.00000E+00    8.00978E-02
 6.20000E+00    1.00932E-01
 6.40000E+00    1.26684E-01
 6.60000E+00    1.54654E-01
 6.80000E+00    1.90441E-01
 7.00000E+00    2.26085E-01
 7.20000E+00    2.66930E-01
 7.40000E+00    3.21054E-01
 7.60000E+00    3.71158E-01
 7.80000E+00    4.43183E-01
 8.00000E+00    5.05063E-01
 8.50000E+00    7.17626E-01
 9.00000E+00    9.96422E-01
 9.50000E+00    1.35711E+00
 1.00000E+01    1.81410E+00
 1.05000E+01    2.39063E+00
 1.10000E+01    3.11409E+00
 1.15000E+01    4.00468E+00
 1.20000E+01    5.08026E+00
 1.25000E+01    6.36397E+00
 1.30000E+01    7.82971E+00
 1.35000E+01    9.54410E+00
 1.40000E+01    1.14363E+01
 1.45000E+01    1.35811E+01
 1.50000E+01    1.59050E+01
 1.60000E+01    2.11631E+01
 1.70000E+01    2.71354E+01
 1.80000E+01    3.37419E+01
 1.90000E+01    4.16111E+01
 2.00000E+01    5.01079E+01
 2.10000E+01    5.88652E+01
 2.20000E+01    6.83901E+01
 2.30000E+01    7.83528E+01
 2.40000E+01    8.88472E+01
 2.50000E+01    9.96424E+01
 2.60000E+01    1.10726E+02
 2.70000E+01    1.21925E+02
 2.80000E+01    1.33292E+02
 2.90000E+01    1.44937E+02
 3.00000E+01    1.57007E+02
 3.00000E+01    1.57230E+02
 3.20000E+01    1.82348E+02
 3.40000E+01    2.07716E+02
 3.60000E+01    2.32702E+02
 3.80000E+01    2.57438E+02
 4.00000E+01    2.80851E+02
 4.20000E+01    3.03694E+02
 4.40000E+01    3.25370E+02
 4.60000E+01    3.46388E+02
 4.80000E+01    3.66319E+02
 5.00000E+01    3.85611E+02
 5.20000E+01    4.04914E+02
 5.40000E+01    4.23766E+02
 5.60000E+01    4.42363E+02
 5.80000E+01    4.60101E+02
 6.00000E+01    4.76538E+02
 6.50000E+01    5.14140E+02
 7.00000E+01    5.47326E+02
 7.50000E+01    5.77587E+02
 8.00000E+01    6.03770E+02
 9.00000E+01    6.45933E+02
 1.00000E+02    6.75405E+02
 1.10000E+02    7.16096E+02
 1.20000E+02    7.69585E+02
 1.30000E+02    8.28994E+02
 1.40000E+02    9.04823E+02
 1.50000E+02    1.01865E+03
 1.60000E+02    1.19473E+03
 1.80000E+02    1.71099E+03
 2.00000E+02    2.42458E+03
