# n + Sm146 : (n,n'06)  
# jeff3.3    A.J. Koning and D. Rochman        EVAL-DEC15
# uncertainties: n
# # energies =    84
#   E(MeV)       xs(mb) 
 2.05982E+00    0.00000E+00
 2.09780E+00    8.16297E+00
 2.17070E+00    2.38312E+01
 2.20000E+00    3.01286E+01
 2.22628E+00    3.23088E+01
 2.23780E+00    3.32645E+01
 2.24033E+00    3.34744E+01
 2.24642E+00    3.39797E+01
 2.28552E+00    3.72235E+01
 2.29655E+00    3.81385E+01
 2.34711E+00    4.23331E+01
 2.40000E+00    4.67209E+01
 2.41751E+00    4.74909E+01
 2.42565E+00    4.78488E+01
 2.45584E+00    4.91764E+01
 2.53074E+00    5.24701E+01
 2.54850E+00    5.32510E+01
 2.55558E+00    5.35624E+01
 2.56175E+00    5.38337E+01
 2.56957E+00    5.41776E+01
 2.60000E+00    5.55157E+01
 2.61797E+00    5.53519E+01
 2.62076E+00    5.53264E+01
 2.62309E+00    5.53052E+01
 2.65422E+00    5.50214E+01
 2.66801E+00    5.48956E+01
 2.68558E+00    5.47355E+01
 2.69673E+00    5.46338E+01
 2.80000E+00    5.36923E+01
 3.00000E+00    4.48811E+01
 3.20000E+00    3.44651E+01
 3.40000E+00    2.51465E+01
 3.60000E+00    1.79914E+01
 3.80000E+00    1.28729E+01
 4.00000E+00    9.28450E+00
 4.20000E+00    6.77089E+00
 4.40000E+00    4.99037E+00
 4.60000E+00    3.71396E+00
 4.80000E+00    2.78570E+00
 5.00000E+00    2.10325E+00
 5.20000E+00    1.59601E+00
 5.40000E+00    1.21502E+00
 5.60000E+00    9.27197E-01
 5.80000E+00    7.08584E-01
 6.00000E+00    5.42363E-01
 6.20000E+00    4.14380E-01
 6.40000E+00    3.17703E-01
 6.60000E+00    2.43852E-01
 6.80000E+00    1.87793E-01
 7.00000E+00    1.44573E-01
 7.20000E+00    1.11814E-01
 7.40000E+00    8.65449E-02
 7.60000E+00    6.71679E-02
 7.80000E+00    5.22804E-02
 8.00000E+00    4.07084E-02
 8.50000E+00    2.20475E-02
 9.00000E+00    1.20579E-02
 9.50000E+00    6.62254E-03
 1.00000E+01    3.64541E-03
 1.05000E+01    2.01607E-03
 1.10000E+01    1.12327E-03
 1.15000E+01    6.31524E-04
 1.20000E+01    3.58541E-04
 1.25000E+01    2.05694E-04
 1.30000E+01    1.19191E-04
 1.35000E+01    6.97721E-05
 1.40000E+01    4.12437E-05
 1.45000E+01    2.45912E-05
 1.50000E+01    1.47795E-05
 1.60000E+01    5.45019E-06
 1.70000E+01    2.05827E-06
 1.80000E+01    7.94500E-07
 1.90000E+01    3.11800E-07
 2.00000E+01    1.25870E-07
 2.10000E+01    5.20920E-08
 2.20000E+01    2.19760E-08
 2.30000E+01    9.46400E-09
 2.40000E+01    4.14610E-09
 2.50000E+01    1.84520E-09
 2.60000E+01    8.32550E-10
 2.70000E+01    3.80540E-10
 2.80000E+01    1.75990E-10
 2.90000E+01    8.23100E-11
 3.00000E+01    3.89240E-11
