# n + Sm146 : (n,n'13)  
# jeff3.3    A.J. Koning and D. Rochman        EVAL-DEC15
# uncertainties: n
# # energies =    76
#   E(MeV)       xs(mb) 
 2.28552E+00    0.00000E+00
 2.29655E+00    6.14964E+00
 2.34711E+00    3.43389E+01
 2.40000E+00    6.38272E+01
 2.41751E+00    6.46122E+01
 2.42565E+00    6.49772E+01
 2.45584E+00    6.63307E+01
 2.53074E+00    6.96887E+01
 2.54850E+00    7.04849E+01
 2.55558E+00    7.08023E+01
 2.56175E+00    7.10789E+01
 2.56957E+00    7.14295E+01
 2.60000E+00    7.27938E+01
 2.61797E+00    7.33003E+01
 2.62076E+00    7.33790E+01
 2.62309E+00    7.34446E+01
 2.65422E+00    7.43221E+01
 2.66801E+00    7.47107E+01
 2.68558E+00    7.52060E+01
 2.69673E+00    7.55202E+01
 2.80000E+00    7.84310E+01
 3.00000E+00    7.61706E+01
 3.20000E+00    6.48716E+01
 3.40000E+00    4.99321E+01
 3.60000E+00    3.61576E+01
 3.80000E+00    2.53847E+01
 4.00000E+00    1.76031E+01
 4.20000E+00    1.22018E+01
 4.40000E+00    8.50777E+00
 4.60000E+00    5.98582E+00
 4.80000E+00    4.25319E+00
 5.00000E+00    3.05279E+00
 5.20000E+00    2.21102E+00
 5.40000E+00    1.61261E+00
 5.60000E+00    1.18277E+00
 5.80000E+00    8.71144E-01
 6.00000E+00    6.44143E-01
 6.20000E+00    4.76438E-01
 6.40000E+00    3.54439E-01
 6.60000E+00    2.64769E-01
 6.80000E+00    1.98722E-01
 7.00000E+00    1.49641E-01
 7.20000E+00    1.13474E-01
 7.40000E+00    8.63021E-02
 7.60000E+00    6.60202E-02
 7.80000E+00    5.07447E-02
 8.00000E+00    3.91130E-02
 8.50000E+00    2.08207E-02
 9.00000E+00    1.12904E-02
 9.50000E+00    6.18011E-03
 1.00000E+01    3.39814E-03
 1.05000E+01    1.87805E-03
 1.10000E+01    1.04509E-03
 1.15000E+01    5.86298E-04
 1.20000E+01    3.31811E-04
 1.25000E+01    1.89585E-04
 1.30000E+01    1.09327E-04
 1.35000E+01    6.36526E-05
 1.40000E+01    3.74083E-05
 1.45000E+01    2.21705E-05
 1.50000E+01    1.32445E-05
 1.60000E+01    4.82921E-06
 1.70000E+01    1.80719E-06
 1.80000E+01    6.93170E-07
 1.90000E+01    2.70910E-07
 2.00000E+01    1.09010E-07
 2.10000E+01    4.49710E-08
 2.20000E+01    1.88990E-08
 2.30000E+01    8.10410E-09
 2.40000E+01    3.53550E-09
 2.50000E+01    1.56800E-09
 2.60000E+01    7.05800E-10
 2.70000E+01    3.22140E-10
 2.80000E+01    1.48840E-10
 2.90000E+01    6.95450E-11
 3.00000E+01    3.28480E-11
