# n + Sm146 : (n,n'05)  
# jeff3.3    A.J. Koning and D. Rochman        EVAL-DEC15
# uncertainties: n
# # energies =    86
#   E(MeV)       xs(mb) 
 1.82421E+00    0.00000E+00
 2.00000E+00    2.68106E+00
 2.05982E+00    5.84599E+00
 2.09780E+00    7.85543E+00
 2.17070E+00    1.17124E+01
 2.20000E+00    1.32626E+01
 2.22628E+00    1.49625E+01
 2.23780E+00    1.57077E+01
 2.24033E+00    1.58714E+01
 2.24642E+00    1.62653E+01
 2.28552E+00    1.87945E+01
 2.29655E+00    1.95080E+01
 2.34711E+00    2.27786E+01
 2.40000E+00    2.61998E+01
 2.41751E+00    2.68088E+01
 2.42565E+00    2.70919E+01
 2.45584E+00    2.81419E+01
 2.53074E+00    3.07470E+01
 2.54850E+00    3.13647E+01
 2.55558E+00    3.16110E+01
 2.56175E+00    3.18256E+01
 2.56957E+00    3.20975E+01
 2.60000E+00    3.31559E+01
 2.61797E+00    3.32355E+01
 2.62076E+00    3.32479E+01
 2.62309E+00    3.32582E+01
 2.65422E+00    3.33962E+01
 2.66801E+00    3.34573E+01
 2.68558E+00    3.35352E+01
 2.69673E+00    3.35846E+01
 2.80000E+00    3.40423E+01
 3.00000E+00    2.92973E+01
 3.20000E+00    2.29290E+01
 3.40000E+00    1.71247E+01
 3.60000E+00    1.25853E+01
 3.80000E+00    9.26672E+00
 4.00000E+00    6.90214E+00
 4.20000E+00    5.22999E+00
 4.40000E+00    4.04055E+00
 4.60000E+00    3.18540E+00
 4.80000E+00    2.56151E+00
 5.00000E+00    2.10145E+00
 5.20000E+00    1.75881E+00
 5.40000E+00    1.50128E+00
 5.60000E+00    1.30673E+00
 5.80000E+00    1.15896E+00
 6.00000E+00    1.04664E+00
 6.20000E+00    9.60065E-01
 6.40000E+00    8.94631E-01
 6.60000E+00    8.45182E-01
 6.80000E+00    8.08058E-01
 7.00000E+00    7.80413E-01
 7.20000E+00    7.60627E-01
 7.40000E+00    7.46648E-01
 7.60000E+00    7.37373E-01
 7.80000E+00    7.31654E-01
 8.00000E+00    7.28488E-01
 8.50000E+00    7.27289E-01
 9.00000E+00    7.28711E-01
 9.50000E+00    7.27565E-01
 1.00000E+01    7.21877E-01
 1.05000E+01    7.11795E-01
 1.10000E+01    6.98496E-01
 1.15000E+01    6.83391E-01
 1.20000E+01    6.67679E-01
 1.25000E+01    6.52192E-01
 1.30000E+01    6.37397E-01
 1.35000E+01    6.23422E-01
 1.40000E+01    6.10236E-01
 1.45000E+01    5.97690E-01
 1.50000E+01    5.85614E-01
 1.60000E+01    5.62413E-01
 1.70000E+01    5.40310E-01
 1.80000E+01    5.19654E-01
 1.90000E+01    5.00946E-01
 2.00000E+01    4.84569E-01
 2.10000E+01    4.70676E-01
 2.20000E+01    4.59129E-01
 2.30000E+01    4.49556E-01
 2.40000E+01    4.41409E-01
 2.50000E+01    4.34009E-01
 2.60000E+01    4.26652E-01
 2.70000E+01    4.18819E-01
 2.80000E+01    4.10354E-01
 2.90000E+01    4.01479E-01
 3.00000E+01    3.92613E-01
