# n + Yb176 : (n,el)    
# endfb8.0   S.Kunieda, A.Ichihara, K.Shibata+ EVAL-FEB10
# uncertainties: n
# # energies =   171
#   E(MeV)       xs(mb) 
 1.00000E-11    1.33473E+04
 1.00000E-07    8.83875E+03
 4.13990E-07    8.82278E+03
 5.31580E-07    8.81549E+03
 6.82560E-07    8.80612E+03
 8.76420E-07    8.79410E+03
 1.12540E-06    8.77866E+03
 1.44500E-06    8.75884E+03
 1.85540E-06    8.73368E+03
 2.37240E-06    8.70318E+03
 3.05900E-06    8.66482E+03
 3.92790E-06    8.61591E+03
 5.04350E-06    8.55310E+03
 6.47600E-06    8.47246E+03
 8.31530E-06    8.36892E+03
 1.06770E-05    8.23908E+03
 1.37100E-05    8.08883E+03
 1.76030E-05    7.89828E+03
 2.26030E-05    7.66784E+03
 2.92030E-05    7.39648E+03
 3.72670E-05    7.08547E+03
 4.78510E-05    6.72270E+03
 6.14420E-05    6.31114E+03
 7.88930E-05    5.85332E+03
 1.01300E-04    5.30747E+03
 1.30070E-04    5.86186E+03
 1.67020E-04    4.31697E+03
 2.14450E-04    3.50293E+03
 2.75360E-04    2.35334E+03
 3.53580E-04    1.86273E+04
 4.54000E-04    1.77780E+05
 5.82950E-04    1.19633E+05
 7.48520E-04    1.55169E+04
 9.61120E-04    5.73170E+03
 1.23410E-03    5.22258E+04
 1.58460E-03    2.04912E+04
 2.03470E-03    3.15689E+04
 2.24870E-03    7.14342E+03
 2.48520E-03    9.55095E+03
 2.61260E-03    8.34100E+03
 2.74650E-03    4.63131E+04
 3.03540E-03    1.54624E+04
 3.35460E-03    1.01737E+04
 3.70740E-03    8.85595E+03
 4.30740E-03    1.09651E+04
 5.53080E-03    1.48672E+04
 7.10170E-03    1.39100E+04
 9.11880E-03    1.30987E+04
 1.17090E-02    1.23767E+04
 1.50340E-02    1.16978E+04
 1.93050E-02    1.12169E+04
 2.18750E-02    1.09802E+04
 2.35790E-02    1.08641E+04
 2.41760E-02    1.08068E+04
 2.47880E-02    1.07214E+04
 2.60580E-02    1.06243E+04
 2.70000E-02    1.05239E+04
 2.85000E-02    1.03453E+04
 3.18280E-02    1.01610E+04
 3.43070E-02    9.92144E+03
 4.08680E-02    9.64872E+03
 4.63090E-02    9.43311E+03
 5.24750E-02    9.26649E+03
 5.65620E-02    9.06475E+03
 6.73790E-02    8.87544E+03
 7.20000E-02    8.75110E+03
 7.95000E-02    8.64084E+03
 8.25000E-02    8.54897E+03
 8.65170E-02    8.36817E+03
 9.80370E-02    8.12383E+03
 1.11090E-01    7.95653E+03
 1.16790E-01    7.86230E+03
 1.22770E-01    7.76770E+03
 1.29070E-01    7.67431E+03
 1.35690E-01    7.58180E+03
 1.42640E-01    7.48908E+03
 1.49960E-01    7.39706E+03
 1.57640E-01    7.30515E+03
 1.65730E-01    7.21276E+03
 1.74220E-01    7.12108E+03
 1.83160E-01    7.02900E+03
 1.92550E-01    6.93769E+03
 2.02420E-01    6.84511E+03
 2.12800E-01    6.75310E+03
 2.23710E-01    6.66222E+03
 2.35180E-01    6.57253E+03
 2.47240E-01    6.44082E+03
 2.73240E-01    6.30554E+03
 2.87250E-01    6.23631E+03
 2.94520E-01    6.20786E+03
 2.97200E-01    6.19656E+03
 2.98500E-01    6.18305E+03
 3.01970E-01    6.08459E+03
 3.33730E-01    5.90690E+03
 3.68830E-01    5.77582E+03
 3.87740E-01    5.68779E+03
 4.07620E-01    5.56086E+03
 4.50490E-01    5.38998E+03
 4.97870E-01    5.26324E+03
 5.23400E-01    5.18237E+03
 5.50230E-01    5.10267E+03
 5.78440E-01    5.02039E+03
 6.08100E-01    4.94591E+03
 6.39280E-01    4.87020E+03
 6.72060E-01    4.79725E+03
 7.06510E-01    4.72949E+03
 7.42740E-01    4.66037E+03
 7.80820E-01    4.59919E+03
 8.20850E-01    4.53734E+03
 8.62940E-01    4.48374E+03
 9.07180E-01    4.42691E+03
 9.61640E-01    4.37644E+03
 1.00260E+00    4.30653E+03
 1.10800E+00    4.22764E+03
 1.16480E+00    4.16861E+03
 1.22460E+00    4.09271E+03
 1.28730E+00    4.00955E+03
 1.35340E+00    3.92133E+03
 1.42270E+00    3.77632E+03
 1.49570E+00    3.61405E+03
 1.57240E+00    3.48673E+03
 1.65300E+00    3.46326E+03
 1.73770E+00    3.44793E+03
 1.82680E+00    3.43404E+03
 1.92050E+00    3.42305E+03
 2.01900E+00    3.41155E+03
 2.12250E+00    3.39946E+03
 2.23130E+00    3.38893E+03
 2.30690E+00    3.38240E+03
 2.34570E+00    3.37907E+03
 2.36530E+00    3.37682E+03
 2.38520E+00    3.36921E+03
 2.46600E+00    3.35019E+03
 2.59240E+00    3.32621E+03
 2.72530E+00    3.30003E+03
 2.86500E+00    3.26542E+03
 3.01190E+00    3.22756E+03
 3.16640E+00    3.18380E+03
 3.32870E+00    3.10896E+03
 3.67880E+00    2.98934E+03
 4.06570E+00    2.85177E+03
 4.49330E+00    2.73826E+03
 4.72370E+00    2.65858E+03
 4.96590E+00    2.58233E+03
 5.22050E+00    2.50558E+03
 5.48810E+00    2.43374E+03
 5.76950E+00    2.36650E+03
 6.06530E+00    2.30606E+03
 6.37630E+00    2.25890E+03
 6.59240E+00    2.23420E+03
 6.70320E+00    2.20465E+03
 7.04690E+00    2.16728E+03
 7.40820E+00    2.14011E+03
 7.78800E+00    2.12417E+03
 8.18730E+00    2.11912E+03
 8.60710E+00    2.12815E+03
 9.04840E+00    2.14823E+03
 9.51230E+00    2.17988E+03
 1.00000E+01    2.22477E+03
 1.05130E+01    2.27734E+03
 1.10520E+01    2.33693E+03
 1.16180E+01    2.40232E+03
 1.22140E+01    2.47054E+03
 1.28400E+01    2.53908E+03
 1.34990E+01    2.58816E+03
 1.38400E+01    2.62047E+03
 1.41910E+01    2.64875E+03
 1.45500E+01    2.67666E+03
 1.49180E+01    2.71372E+03
 1.56830E+01    2.75441E+03
 1.64870E+01    2.78234E+03
