# n + Yb176 : (n,xa)    
# endfb8.0   S.Kunieda, A.Ichihara, K.Shibata+ EVAL-FEB10
# 
# # energies =    75
#   E(MeV)        xs(mb) 
 8.26008E-02    0.00000E+00
 9.00000E-02    0.00000E+00
 1.00000E-01    0.00000E+00
 1.20000E-01    0.00000E+00
 1.40000E-01    0.00000E+00
 1.60000E-01    0.00000E+00
 1.80000E-01    0.00000E+00
 2.00000E-01    0.00000E+00
 2.50000E-01    0.00000E+00
 2.73258E-01    0.00000E+00
 3.00000E-01    0.00000E+00
 3.50000E-01    0.00000E+00
 4.00000E-01    0.00000E+00
 4.50000E-01    0.00000E+00
 5.00000E-01    0.00000E+00
 5.50000E-01    0.00000E+00
 5.67937E-01    0.00000E+00
 6.00000E-01    0.00000E+00
 6.50000E-01    0.00000E+00
 7.00000E-01    0.00000E+00
 7.50000E-01    0.00000E+00
 8.00000E-01    0.00000E+00
 8.50000E-01    0.00000E+00
 9.00000E-01    0.00000E+00
 9.50000E-01    0.00000E+00
 9.59469E-01    0.00000E+00
 1.00000E+00    0.00000E+00
 1.05602E+00    0.00000E+00
 1.09444E+00    0.00000E+00
 1.13849E+00    0.00000E+00
 1.20000E+00    0.00000E+00
 1.20024E+00    0.00000E+00
 1.26813E+00    0.00000E+00
 1.29076E+00    0.00000E+00
 1.34879E+00    0.00000E+00
 1.40000E+00    0.00000E+00
 1.43920E+00    0.00000E+00
 1.43991E+00    0.00000E+00
 1.44997E+00    0.00000E+00
 1.60000E+00    0.00000E+00
 1.80000E+00    0.00000E+00
 2.00000E+00    0.00000E+00
 2.20000E+00    0.00000E+00
 2.40000E+00    0.00000E+00
 2.60000E+00    0.00000E+00
 2.80000E+00    0.00000E+00
 3.00000E+00    0.00000E+00
 3.25000E+00    0.00000E+00
 3.50000E+00    0.00000E+00
 3.75000E+00    0.00000E+00
 4.00000E+00    0.00000E+00
 4.25000E+00    0.00000E+00
 4.50000E+00    0.00000E+00
 4.75000E+00    0.00000E+00
 5.00000E+00    0.00000E+00
 5.50000E+00    9.34900E-05
 6.00000E+00    1.43900E-04
 6.50000E+00    2.61600E-04
 7.00000E+00    4.22100E-04
 7.50000E+00    7.79000E-04
 8.00000E+00    1.31300E-03
 8.50000E+00    2.28400E-03
 9.00000E+00    3.72100E-03
 9.50000E+00    6.12900E-03
 1.00000E+01    9.66100E-03
 1.10000E+01    2.34443E-02
 1.20000E+01    5.33130E-02
 1.30000E+01    1.12520E-01
 1.40000E+01    2.18100E-01
 1.50000E+01    3.84100E-01
 1.60000E+01    6.15970E-01
 1.70000E+01    9.09400E-01
 1.80000E+01    1.25320E+00
 1.90000E+01    1.63220E+00
 2.00000E+01    2.03040E+00
