# n + Yb176 : (n,n'01)  
# endfb8.0   S.Kunieda, A.Ichihara, K.Shibata+ EVAL-FEB10
# uncertainties: n
# # energies =    62
#   E(MeV)       xs(mb) 
 8.26008E-02    0.00000E+00
 9.00000E-02    1.22700E+02
 1.00000E-01    1.91500E+02
 1.20000E-01    3.10700E+02
 1.40000E-01    4.15400E+02
 1.60000E-01    5.10400E+02
 1.80000E-01    5.98700E+02
 2.00000E-01    6.81300E+02
 2.50000E-01    8.66000E+02
 3.00000E-01    1.02200E+03
 3.50000E-01    1.15100E+03
 4.00000E-01    1.25700E+03
 4.50000E-01    1.34600E+03
 5.00000E-01    1.42100E+03
 5.50000E-01    1.48500E+03
 6.00000E-01    1.54000E+03
 6.50000E-01    1.58800E+03
 7.00000E-01    1.63100E+03
 7.50000E-01    1.66900E+03
 8.00000E-01    1.70400E+03
 8.50000E-01    1.73500E+03
 9.00000E-01    1.76300E+03
 9.50000E-01    1.78800E+03
 1.00000E+00    1.81000E+03
 1.20000E+00    1.81100E+03
 1.40000E+00    1.58300E+03
 1.60000E+00    1.53600E+03
 1.80000E+00    1.34100E+03
 2.00000E+00    1.19100E+03
 2.20000E+00    1.06500E+03
 2.40000E+00    9.57100E+02
 2.60000E+00    8.65800E+02
 2.80000E+00    7.89800E+02
 3.00000E+00    7.27700E+02
 3.25000E+00    6.67700E+02
 3.50000E+00    6.20700E+02
 3.75000E+00    5.87500E+02
 4.00000E+00    5.62700E+02
 4.25000E+00    5.44300E+02
 4.50000E+00    5.30100E+02
 4.75000E+00    5.18700E+02
 5.00000E+00    5.08700E+02
 5.50000E+00    4.89900E+02
 6.00000E+00    4.70200E+02
 6.50000E+00    4.49700E+02
 7.00000E+00    4.29300E+02
 7.50000E+00    4.10000E+02
 8.00000E+00    3.92600E+02
 8.50000E+00    3.77000E+02
 9.00000E+00    3.62900E+02
 9.50000E+00    3.50200E+02
 1.00000E+01    3.38300E+02
 1.10000E+01    3.16900E+02
 1.20000E+01    2.97500E+02
 1.30000E+01    2.79900E+02
 1.40000E+01    2.64100E+02
 1.50000E+01    2.50100E+02
 1.60000E+01    2.37500E+02
 1.70000E+01    2.26100E+02
 1.80000E+01    2.15600E+02
 1.90000E+01    2.06000E+02
 2.00000E+01    1.97300E+02
