# n + Yb176 : (n,xp)    
# endfb8.0   S.Kunieda, A.Ichihara, K.Shibata+ EVAL-FEB10
# 
# # energies =    75
#   E(MeV)        xs(mb) 
 8.26008E-02    0.00000E+00
 9.00000E-02    0.00000E+00
 1.00000E-01    0.00000E+00
 1.20000E-01    0.00000E+00
 1.40000E-01    0.00000E+00
 1.60000E-01    0.00000E+00
 1.80000E-01    0.00000E+00
 2.00000E-01    0.00000E+00
 2.50000E-01    0.00000E+00
 2.73258E-01    0.00000E+00
 3.00000E-01    0.00000E+00
 3.50000E-01    0.00000E+00
 4.00000E-01    0.00000E+00
 4.50000E-01    0.00000E+00
 5.00000E-01    0.00000E+00
 5.50000E-01    0.00000E+00
 5.67937E-01    0.00000E+00
 6.00000E-01    0.00000E+00
 6.50000E-01    0.00000E+00
 7.00000E-01    0.00000E+00
 7.50000E-01    0.00000E+00
 8.00000E-01    0.00000E+00
 8.50000E-01    0.00000E+00
 9.00000E-01    0.00000E+00
 9.50000E-01    0.00000E+00
 9.59469E-01    0.00000E+00
 1.00000E+00    0.00000E+00
 1.05602E+00    0.00000E+00
 1.09444E+00    0.00000E+00
 1.13849E+00    0.00000E+00
 1.20000E+00    0.00000E+00
 1.20024E+00    0.00000E+00
 1.26813E+00    0.00000E+00
 1.29076E+00    0.00000E+00
 1.34879E+00    0.00000E+00
 1.40000E+00    0.00000E+00
 1.43920E+00    0.00000E+00
 1.43991E+00    0.00000E+00
 1.44997E+00    0.00000E+00
 1.60000E+00    0.00000E+00
 1.80000E+00    0.00000E+00
 2.00000E+00    0.00000E+00
 2.20000E+00    0.00000E+00
 2.40000E+00    0.00000E+00
 2.60000E+00    0.00000E+00
 2.80000E+00    0.00000E+00
 3.00000E+00    0.00000E+00
 3.25000E+00    0.00000E+00
 3.50000E+00    0.00000E+00
 3.75000E+00    0.00000E+00
 4.00000E+00    0.00000E+00
 4.25000E+00    0.00000E+00
 4.50000E+00    0.00000E+00
 4.75000E+00    0.00000E+00
 5.00000E+00    0.00000E+00
 5.50000E+00    0.00000E+00
 6.00000E+00    0.00000E+00
 6.50000E+00    0.00000E+00
 7.00000E+00    0.00000E+00
 7.50000E+00    5.65600E-06
 8.00000E+00    5.98400E-05
 8.50000E+00    3.35700E-04
 9.00000E+00    1.23100E-03
 9.50000E+00    4.21300E-03
 1.00000E+01    1.12900E-02
 1.10000E+01    6.23600E-02
 1.20000E+01    2.33500E-01
 1.30000E+01    6.41713E-01
 1.40000E+01    1.39592E+00
 1.50000E+01    2.56826E+00
 1.60000E+01    4.22840E+00
 1.70000E+01    6.43820E+00
 1.80000E+01    9.17000E+00
 1.90000E+01    1.23970E+01
 2.00000E+01    1.60740E+01
