# n + Ru102 : (n,el)    
# jendl4.0   JNDC FP NUCLEAR DATA W.G.         EVAL-MAR90
# uncertainties: n
# # energies =   171
#   E(MeV)       xs(mb) 
 1.00000E-11    1.55278E+04
 1.00000E-07    8.88764E+03
 4.13990E-07    8.87663E+03
 5.31580E-07    8.87209E+03
 6.82560E-07    8.86626E+03
 8.76420E-07    8.85878E+03
 1.12540E-06    8.85020E+03
 1.44500E-06    8.84008E+03
 1.85540E-06    8.82723E+03
 2.37240E-06    8.81058E+03
 3.05900E-06    8.78902E+03
 3.92790E-06    8.76153E+03
 5.04350E-06    8.72624E+03
 6.47600E-06    8.68092E+03
 8.31530E-06    8.62273E+03
 1.06770E-05    8.54801E+03
 1.37100E-05    8.46044E+03
 1.76030E-05    8.35876E+03
 2.26030E-05    8.22643E+03
 2.92030E-05    8.07624E+03
 3.72670E-05    7.90333E+03
 4.78510E-05    7.70657E+03
 6.14420E-05    7.48600E+03
 7.88930E-05    7.24865E+03
 1.01300E-04    7.00015E+03
 1.30070E-04    6.74804E+03
 1.67020E-04    6.49521E+03
 2.14450E-04    6.25058E+03
 2.75360E-04    6.01111E+03
 3.53580E-04    5.87772E+03
 4.54000E-04    5.61238E+03
 5.82950E-04    5.52239E+03
 7.48520E-04    5.17276E+03
 9.61120E-04    4.98579E+03
 1.23410E-03    1.36980E+04
 1.58460E-03    6.27375E+03
 2.03470E-03    5.13622E+03
 2.24870E-03    6.61229E+03
 2.48520E-03    4.70502E+03
 2.61260E-03    7.65701E+03
 2.74650E-03    5.49050E+03
 3.03540E-03    1.10271E+04
 3.35460E-03    1.38944E+04
 3.70740E-03    1.19753E+04
 4.30740E-03    1.05564E+04
 5.53080E-03    9.46143E+03
 7.10170E-03    9.30227E+03
 9.11880E-03    7.93801E+03
 1.17090E-02    8.09210E+03
 1.50340E-02    6.80458E+03
 1.93050E-02    6.83396E+03
 2.18750E-02    6.86513E+03
 2.35790E-02    6.88224E+03
 2.41760E-02    6.89116E+03
 2.47880E-02    6.90435E+03
 2.60580E-02    6.91912E+03
 2.70000E-02    6.93531E+03
 2.85000E-02    6.96665E+03
 3.18280E-02    7.00310E+03
 3.43070E-02    7.06230E+03
 4.08680E-02    7.14077E+03
 4.63090E-02    7.21081E+03
 5.24750E-02    7.26804E+03
 5.65620E-02    7.34415E+03
 6.73790E-02    7.42012E+03
 7.20000E-02    7.47241E+03
 7.95000E-02    7.51711E+03
 8.25000E-02    7.54506E+03
 8.65170E-02    7.60616E+03
 9.80370E-02    7.67141E+03
 1.11090E-01    7.68072E+03
 1.16790E-01    7.68577E+03
 1.22770E-01    7.69054E+03
 1.29070E-01    7.69511E+03
 1.35690E-01    7.69991E+03
 1.42640E-01    7.70496E+03
 1.49960E-01    7.70532E+03
 1.57640E-01    7.70054E+03
 1.65730E-01    7.69553E+03
 1.74220E-01    7.69070E+03
 1.83160E-01    7.68590E+03
 1.92550E-01    7.68063E+03
 2.02420E-01    7.66957E+03
 2.12800E-01    7.65557E+03
 2.23710E-01    7.64169E+03
 2.35180E-01    7.62792E+03
 2.47240E-01    7.60072E+03
 2.73240E-01    7.56805E+03
 2.87250E-01    7.55183E+03
 2.94520E-01    7.54425E+03
 2.97200E-01    7.54123E+03
 2.98500E-01    7.53727E+03
 3.01970E-01    7.50184E+03
 3.33730E-01    7.43338E+03
 3.68830E-01    7.37759E+03
 3.87740E-01    7.33958E+03
 4.07620E-01    7.28936E+03
 4.50490E-01    7.19999E+03
 4.97870E-01    7.01151E+03
 5.23400E-01    6.88073E+03
 5.50230E-01    6.74653E+03
 5.78440E-01    6.62152E+03
 6.08100E-01    6.49363E+03
 6.39280E-01    6.37032E+03
 6.72060E-01    6.25045E+03
 7.06510E-01    6.14482E+03
 7.42740E-01    6.05118E+03
 7.80820E-01    5.95321E+03
 8.20850E-01    5.86155E+03
 8.62940E-01    5.77016E+03
 9.07180E-01    5.66481E+03
 9.61640E-01    5.55243E+03
 1.00260E+00    5.37588E+03
 1.10800E+00    5.17749E+03
 1.16480E+00    5.01417E+03
 1.22460E+00    4.85958E+03
 1.28730E+00    4.72314E+03
 1.35340E+00    4.58864E+03
 1.42270E+00    4.46106E+03
 1.49570E+00    4.32663E+03
 1.57240E+00    4.18151E+03
 1.65300E+00    4.02301E+03
 1.73770E+00    3.86996E+03
 1.82680E+00    3.71981E+03
 1.92050E+00    3.56871E+03
 2.01900E+00    3.41825E+03
 2.12250E+00    3.26080E+03
 2.23130E+00    3.13351E+03
 2.30690E+00    3.05778E+03
 2.34570E+00    3.01917E+03
 2.36530E+00    2.99402E+03
 2.38520E+00    2.93527E+03
 2.46600E+00    2.81438E+03
 2.59240E+00    2.66514E+03
 2.72530E+00    2.52225E+03
 2.86500E+00    2.38702E+03
 3.01190E+00    2.26839E+03
 3.16640E+00    2.16157E+03
 3.32870E+00    2.00746E+03
 3.67880E+00    1.80496E+03
 4.06570E+00    1.67968E+03
 4.49330E+00    1.61814E+03
 4.72370E+00    1.57746E+03
 4.96590E+00    1.55624E+03
 5.22050E+00    1.56657E+03
 5.48810E+00    1.57792E+03
 5.76950E+00    1.59056E+03
 6.06530E+00    1.62474E+03
 6.37630E+00    1.66256E+03
 6.59240E+00    1.68603E+03
 6.70320E+00    1.71837E+03
 7.04690E+00    1.77344E+03
 7.40820E+00    1.83615E+03
 7.78800E+00    1.90040E+03
 8.18730E+00    1.96531E+03
 8.60710E+00    2.03432E+03
 9.04840E+00    2.17459E+03
 9.51230E+00    2.22860E+03
 1.00000E+01    2.17131E+03
 1.05130E+01    2.16734E+03
 1.10520E+01    2.24215E+03
 1.16180E+01    2.35891E+03
 1.22140E+01    2.37914E+03
 1.28400E+01    2.41032E+03
 1.34990E+01    2.45477E+03
 1.38400E+01    2.48133E+03
 1.41910E+01    2.48531E+03
 1.45500E+01    2.48843E+03
 1.49180E+01    2.48680E+03
 1.56830E+01    2.47254E+03
 1.64870E+01    2.43963E+03
