# n + Ru102 : (n,tot)   
# jendl4.0   JNDC FP NUCLEAR DATA W.G.         EVAL-MAR90
# uncertainties: n
# # energies =   171
#   E(MeV)       xs(mb) 
 1.00000E-11    3.14823E+04
 1.00000E-07    9.41769E+03
 4.13990E-07    9.21732E+03
 5.31580E-07    9.17229E+03
 6.82560E-07    9.13073E+03
 8.76420E-07    9.09196E+03
 1.12540E-06    9.05715E+03
 1.44500E-06    9.02073E+03
 1.85540E-06    8.99031E+03
 2.37240E-06    8.95312E+03
 3.05900E-06    8.90766E+03
 3.92790E-06    8.86830E+03
 5.04350E-06    8.82131E+03
 6.47600E-06    8.76788E+03
 8.31530E-06    1.02438E+04
 1.06770E-05    8.63526E+03
 1.37100E-05    8.51882E+03
 1.76030E-05    8.57424E+03
 2.26030E-05    8.26519E+03
 2.92030E-05    8.10647E+03
 3.72670E-05    8.85662E+03
 4.78510E-05    7.72537E+03
 6.14420E-05    7.49918E+03
 7.88930E-05    7.25889E+03
 1.01300E-04    7.00770E+03
 1.30070E-04    7.16914E+03
 1.67020E-04    6.68271E+03
 2.14450E-04    6.25429E+03
 2.75360E-04    6.01333E+03
 3.53580E-04    7.09239E+03
 4.54000E-04    5.61906E+03
 5.82950E-04    6.12984E+03
 7.48520E-04    5.43121E+03
 9.61120E-04    5.87439E+03
 1.23410E-03    1.60310E+04
 1.58460E-03    6.72067E+03
 2.03470E-03    5.51431E+03
 2.24870E-03    7.30761E+03
 2.48520E-03    4.87448E+03
 2.61260E-03    8.65936E+03
 2.74650E-03    5.93990E+03
 3.03540E-03    1.15649E+04
 3.35460E-03    1.53749E+04
 3.70740E-03    1.24821E+04
 4.30740E-03    1.10938E+04
 5.53080E-03    9.94034E+03
 7.10170E-03    9.69193E+03
 9.11880E-03    8.26944E+03
 1.17090E-02    8.46169E+03
 1.50340E-02    7.08457E+03
 1.93050E-02    7.08210E+03
 2.18750E-02    7.09868E+03
 2.35790E-02    7.10806E+03
 2.41760E-02    7.11294E+03
 2.47880E-02    7.12056E+03
 2.60580E-02    7.12963E+03
 2.70000E-02    7.13959E+03
 2.85000E-02    7.15927E+03
 3.18280E-02    7.18380E+03
 3.43070E-02    7.22783E+03
 4.08680E-02    7.29065E+03
 4.63090E-02    7.34802E+03
 5.24750E-02    7.39703E+03
 5.65620E-02    7.46363E+03
 6.73790E-02    7.53099E+03
 7.20000E-02    7.57822E+03
 7.95000E-02    7.61890E+03
 8.25000E-02    7.64487E+03
 8.65170E-02    7.70167E+03
 9.80370E-02    7.76136E+03
 1.11090E-01    7.76807E+03
 1.16790E-01    7.77153E+03
 1.22770E-01    7.77481E+03
 1.29070E-01    7.77795E+03
 1.35690E-01    7.78124E+03
 1.42640E-01    7.78471E+03
 1.49960E-01    7.78393E+03
 1.57640E-01    7.77852E+03
 1.65730E-01    7.77284E+03
 1.74220E-01    7.76736E+03
 1.83160E-01    7.76192E+03
 1.92550E-01    7.75599E+03
 2.02420E-01    7.74466E+03
 2.12800E-01    7.73056E+03
 2.23710E-01    7.71656E+03
 2.35180E-01    7.70268E+03
 2.47240E-01    7.67563E+03
 2.73240E-01    7.64339E+03
 2.87250E-01    7.62737E+03
 2.94520E-01    7.61990E+03
 2.97200E-01    7.61691E+03
 2.98500E-01    7.61302E+03
 3.01970E-01    7.57849E+03
 3.33730E-01    7.51176E+03
 3.68830E-01    7.45739E+03
 3.87740E-01    7.42003E+03
 4.07620E-01    7.36865E+03
 4.50490E-01    7.29492E+03
 4.97870E-01    7.23365E+03
 5.23400E-01    7.18527E+03
 5.50230E-01    7.13402E+03
 5.78440E-01    7.08012E+03
 6.08100E-01    7.02401E+03
 6.39280E-01    6.97139E+03
 6.72060E-01    6.91790E+03
 7.06510E-01    6.86166E+03
 7.42740E-01    6.80254E+03
 7.80820E-01    6.74040E+03
 8.20850E-01    6.67506E+03
 8.62940E-01    6.60637E+03
 9.07180E-01    6.52796E+03
 9.61640E-01    6.45335E+03
 1.00260E+00    6.34845E+03
 1.10800E+00    6.23038E+03
 1.16480E+00    6.14618E+03
 1.22460E+00    6.05925E+03
 1.28730E+00    5.97194E+03
 1.35340E+00    5.88036E+03
 1.42270E+00    5.78822E+03
 1.49570E+00    5.69809E+03
 1.57240E+00    5.60349E+03
 1.65300E+00    5.50407E+03
 1.73770E+00    5.40054E+03
 1.82680E+00    5.29953E+03
 1.92050E+00    5.19503E+03
 2.01900E+00    5.08631E+03
 2.12250E+00    4.98192E+03
 2.23130E+00    4.89290E+03
 2.30690E+00    4.83767E+03
 2.34570E+00    4.80951E+03
 2.36530E+00    4.79107E+03
 2.38520E+00    4.74912E+03
 2.46600E+00    4.66298E+03
 2.59240E+00    4.55977E+03
 2.72530E+00    4.46266E+03
 2.86500E+00    4.36413E+03
 3.01190E+00    4.28435E+03
 3.16640E+00    4.21758E+03
 3.32870E+00    4.11498E+03
 3.67880E+00    3.98536E+03
 4.06570E+00    3.91187E+03
 4.49330E+00    3.88020E+03
 4.72370E+00    3.85765E+03
 4.96590E+00    3.84421E+03
 5.22050E+00    3.84744E+03
 5.48810E+00    3.85110E+03
 5.76950E+00    3.85499E+03
 6.06530E+00    3.86788E+03
 6.37630E+00    3.88466E+03
 6.59240E+00    3.89506E+03
 6.70320E+00    3.90941E+03
 7.04690E+00    3.93693E+03
 7.40820E+00    3.97487E+03
 7.78800E+00    4.01514E+03
 8.18730E+00    4.06636E+03
 8.60710E+00    4.12485E+03
 9.04840E+00    4.18771E+03
 9.51230E+00    4.25804E+03
 1.00000E+01    4.32742E+03
 1.05130E+01    4.39153E+03
 1.10520E+01    4.45661E+03
 1.16180E+01    4.51859E+03
 1.22140E+01    4.53352E+03
 1.28400E+01    4.53469E+03
 1.34990E+01    4.53556E+03
 1.38400E+01    4.53329E+03
 1.41910E+01    4.51621E+03
 1.45500E+01    4.49710E+03
 1.49180E+01    4.46576E+03
 1.56830E+01    4.42199E+03
 1.64870E+01    4.38255E+03
