# n + Nb 94 : (n,xd)    
# jendl4.0   A.Ichihara, K.Shibata, S.Kunieda+ EVAL-NOV09
# 
# # energies =    73
#   E(MeV)        xs(mb) 
 4.13413E-02    0.00000E+00
 5.00000E-02    0.00000E+00
 5.93275E-02    0.00000E+00
 6.00000E-02    0.00000E+00
 7.00000E-02    0.00000E+00
 7.95130E-02    0.00000E+00
 8.00000E-02    0.00000E+00
 1.00000E-01    0.00000E+00
 1.14619E-01    0.00000E+00
 1.20000E-01    0.00000E+00
 1.40000E-01    0.00000E+00
 1.41815E-01    0.00000E+00
 1.60000E-01    0.00000E+00
 1.80000E-01    0.00000E+00
 2.00000E-01    0.00000E+00
 2.50000E-01    0.00000E+00
 3.00000E-01    0.00000E+00
 3.04810E-01    0.00000E+00
 3.15161E-01    0.00000E+00
 3.37693E-01    0.00000E+00
 3.50000E-01    0.00000E+00
 4.00000E-01    0.00000E+00
 4.00511E-01    0.00000E+00
 4.55055E-01    0.00000E+00
 5.00000E-01    0.00000E+00
 6.00000E-01    0.00000E+00
 6.38304E-01    0.00000E+00
 6.47874E-01    0.00000E+00
 6.73366E-01    0.00000E+00
 7.00000E-01    0.00000E+00
 7.94341E-01    0.00000E+00
 8.00000E-01    0.00000E+00
 8.01083E-01    0.00000E+00
 8.25725E-01    0.00000E+00
 9.00000E-01    0.00000E+00
 9.05281E-01    0.00000E+00
 9.34450E-01    0.00000E+00
 9.42708E-01    0.00000E+00
 9.45215E-01    0.00000E+00
 9.67714E-01    0.00000E+00
 9.80742E-01    0.00000E+00
 9.87292E-01    0.00000E+00
 9.89900E-01    0.00000E+00
 1.00000E+00    0.00000E+00
 1.01600E+00    0.00000E+00
 1.02196E+00    0.00000E+00
 1.03440E+00    0.00000E+00
 1.04125E+00    0.00000E+00
 1.07175E+00    0.00000E+00
 1.08186E+00    0.00000E+00
 1.50000E+00    0.00000E+00
 2.00000E+00    0.00000E+00
 2.50000E+00    0.00000E+00
 3.00000E+00    0.00000E+00
 3.50000E+00    0.00000E+00
 4.00000E+00    0.00000E+00
 5.00000E+00    0.00000E+00
 6.00000E+00    0.00000E+00
 7.00000E+00    3.56400E-06
 7.30000E+00    1.21800E-05
 8.00000E+00    8.79300E-05
 9.00000E+00    2.81000E-03
 1.00000E+01    6.73800E-02
 1.10000E+01    4.70900E-01
 1.20000E+01    1.68700E+00
 1.30000E+01    3.46700E+00
 1.40000E+01    5.29301E+00
 1.50000E+01    8.09583E+00
 1.60000E+01    1.15631E+01
 1.70000E+01    1.47366E+01
 1.80000E+01    1.79089E+01
 1.90000E+01    2.10183E+01
 2.00000E+01    2.44680E+01
