# n + Nd146 : (n,g)     
# jendl.ad   N.Iwamoto                         EVAL-Apr14
# uncertainties: n
# # energies =    69
#   E(MeV)       xs(mb) 
 1.00000E-10    1.04034E+04
 5.00000E-09    2.83302E+03
 1.00000E-08    2.14572E+03
 1.50000E-08    1.80285E+03
 2.00000E-08    1.58604E+03
 2.50000E-08    1.43279E+03
 3.00000E-08    1.31693E+03
 3.50000E-08    1.21075E+03
 4.20000E-08    1.10753E+03
 5.00000E-08    1.02145E+03
 5.80000E-08    9.49210E+02
 6.70000E-08    8.75838E+02
 8.00000E-08    7.92588E+02
 1.00000E-07    6.89312E+02
 1.40000E-07    5.94617E+02
 1.80000E-07    5.30793E+02
 2.20000E-07    4.88599E+02
 2.50000E-07    4.59837E+02
 2.80000E-07    4.39188E+02
 3.00000E-07    4.24685E+02
 3.20000E-07    4.08669E+02
 3.50000E-07    3.86400E+02
 4.00000E-07    3.53266E+02
 5.00000E-07    3.15608E+02
 6.25000E-07    2.82128E+02
 7.80000E-07    2.60832E+02
 8.50000E-07    2.50796E+02
 9.10000E-07    2.43795E+02
 9.50000E-07    2.39724E+02
 9.72000E-07    2.36856E+02
 9.96000E-07    2.33967E+02
 1.02000E-06    2.31113E+02
 1.04500E-06    2.28278E+02
 1.07100E-06    2.25453E+02
 1.09700E-06    2.22741E+02
 1.12300E-06    2.20096E+02
 1.15000E-06    2.12048E+02
 1.30000E-06    1.98176E+02
 1.50000E-06    1.75380E+02
 2.10000E-06    1.51958E+02
 2.60000E-06    1.35041E+02
 3.30000E-06    1.20436E+02
 4.00000E-06    9.01694E+01
 9.87700E-06    6.00446E+01
 1.59680E-05    4.32993E+01
 2.77000E-05    2.92135E+01
 4.80520E-05    1.93189E+01
 7.55014E-05    1.14234E+01
 1.48728E-04    7.33028E+02
 3.67262E-04    4.74082E+02
 9.06898E-04    3.86140E+02
 1.42510E-03    4.53325E+02
 2.23945E-03    2.32308E+02
 3.51910E-03    2.64963E+02
 5.53000E-03    1.31951E+02
 9.11800E-03    1.27330E+02
 1.50300E-02    1.01936E+02
 2.47800E-02    8.47750E+01
 4.08500E-02    7.34171E+01
 6.73400E-02    6.26368E+01
 1.11000E-01    5.24760E+01
 1.83000E-01    4.62346E+01
 3.02000E-01    4.48664E+01
 5.00000E-01    2.48061E+01
 8.21000E-01    2.71121E+01
 1.35300E+00    1.96657E+01
 2.23100E+00    1.28177E+01
 3.67900E+00    5.60942E+00
 6.06500E+00    1.16037E+00
