# n + Nd146 : (n,t)m    
# jendl.ad   N.Iwamoto                         EVAL-Apr14
# uncertainties: n
# # energies =    25
#   E(MeV)       xs(mb) 
 7.16209E+00    0.00000E+00
 8.50000E+00    2.53270E-20
 9.00000E+00    2.16500E-15
 9.50000E+00    2.74910E-12
 1.00000E+01    4.01950E-10
 1.05000E+01    1.65060E-08
 1.10000E+01    2.97070E-07
 1.15000E+01    3.01788E-06
 1.20000E+01    2.02188E-05
 1.25000E+01    9.91184E-05
 1.30000E+01    3.80450E-04
 1.35000E+01    1.20075E-03
 1.40000E+01    3.21415E-03
 1.45000E+01    7.48223E-03
 1.50000E+01    1.53480E-02
 1.55000E+01    2.82021E-02
 1.60000E+01    4.58577E-02
 1.65000E+01    7.34219E-02
 1.70000E+01    1.03951E-01
 1.75000E+01    1.45135E-01
 1.80000E+01    1.91390E-01
 1.85000E+01    2.41001E-01
 1.90000E+01    3.06183E-01
 1.95000E+01    3.56810E-01
 2.00000E+01    4.16397E-01
