# n + Sn120 :  n        
# jeff3.3    N.Iwamoto,K.Shibata               EVAL-Dec09
# uncertainties: n
# # energies =   100
#   E(MeV)       xs(mb) 
 1.05000E-01    0.00000E+00
 1.10000E-01    2.09324E-04
 1.20000E-01    2.21206E-04
 1.30000E-01    2.28052E-04
 1.40000E-01    2.37240E-04
 1.50000E-01    2.48630E-04
 1.60000E-01    2.60924E-04
 1.70000E-01    2.73033E-04
 1.80000E-01    2.84228E-04
 1.90000E-01    2.94180E-04
 2.00000E-01    3.01400E-04
 2.25000E-01    1.53097E-03
 2.50000E-01    1.75680E-03
 2.75000E-01    2.03499E-03
 3.00000E-01    2.26194E-03
 4.00000E-01    8.19151E-03
 5.00000E-01    2.13079E-02
 6.00000E-01    4.58409E-02
 7.00000E-01    8.72109E-02
 8.00000E-01    1.52181E-01
 9.00000E-01    2.48960E-01
 1.00000E+00    3.88611E-01
 1.10000E+00    5.85196E-01
 1.18112E+00    8.05637E-01
 1.20000E+00    6.97592E-01
 1.30000E+00    7.43247E-01
 1.40000E+00    8.85176E-01
 1.50000E+00    1.07533E+00
 1.60000E+00    1.30625E+00
 1.70000E+00    1.59076E+00
 1.80000E+00    1.93968E+00
 1.89088E+00    2.33142E+00
 1.90000E+00    2.35445E+00
 2.00000E+00    2.82503E+00
 2.11485E+00    3.45708E+00
 2.17810E+00    3.68296E+00
 2.19128E+00    3.72481E+00
 2.21276E+00    3.71251E+00
 2.25000E+00    3.61265E+00
 2.30349E+00    3.64868E+00
 2.31632E+00    3.63386E+00
 2.37519E+00    3.67291E+00
 2.42049E+00    3.63405E+00
 2.44127E+00    3.64683E+00
 2.48637E+00    3.53124E+00
 2.50000E+00    3.48443E+00
 2.50251E+00    3.47895E+00
 2.56137E+00    3.47928E+00
 2.60902E+00    3.47068E+00
 2.66559E+00    3.55041E+00
 2.70775E+00    3.57707E+00
 2.71364E+00    3.58325E+00
 2.71862E+00    3.58026E+00
 2.75000E+00    3.64401E+00
 2.75107E+00    3.64452E+00
 2.77284E+00    3.62944E+00
 2.77414E+00    3.62933E+00
 2.82360E+00    3.63083E+00
 2.82557E+00    3.65328E+00
 2.85924E+00    3.70219E+00
 2.86038E+00    3.69988E+00
 2.86827E+00    3.70148E+00
 2.88165E+00    3.70980E+00
 2.92664E+00    3.77184E+00
 2.95518E+00    3.83481E+00
 3.00000E+00    3.84206E+00
 3.50000E+00    5.01639E+02
 4.00000E+00    1.14322E+03
 4.50000E+00    1.58678E+03
 5.00000E+00    1.83950E+03
 5.50000E+00    1.95966E+03
 6.00000E+00    2.00279E+03
 6.50000E+00    2.00705E+03
 7.00000E+00    1.99487E+03
 7.50000E+00    1.97850E+03
 8.00000E+00    1.96410E+03
 8.50000E+00    1.95352E+03
 9.00000E+00    1.94595E+03
 9.50000E+00    1.87363E+03
 1.00000E+01    1.52512E+03
 1.05000E+01    1.15417E+03
 1.10000E+01    8.69276E+02
 1.15000E+01    6.69141E+02
 1.20000E+01    5.29415E+02
 1.25000E+01    4.32824E+02
 1.30000E+01    3.61834E+02
 1.35000E+01    3.09278E+02
 1.40000E+01    2.69863E+02
 1.45000E+01    2.39464E+02
 1.50000E+01    2.16156E+02
 1.55000E+01    1.97582E+02
 1.60000E+01    1.82992E+02
 1.65000E+01    1.70865E+02
 1.70000E+01    1.61014E+02
 1.75000E+01    1.52425E+02
 1.80000E+01    1.45139E+02
 1.85000E+01    1.38542E+02
 1.90000E+01    1.32753E+02
 1.95000E+01    1.27468E+02
 2.00000E+01    1.22692E+02
