# n + Sn120 : (n,tot)   
# jeff3.3    N.Iwamoto,K.Shibata               EVAL-Dec09
# uncertainties: n
# # energies =   171
#   E(MeV)       xs(mb) 
 1.00000E-11    1.02439E+04
 1.00000E-07    5.26981E+03
 4.13990E-07    5.24956E+03
 5.31580E-07    5.24510E+03
 6.82560E-07    5.24125E+03
 8.76420E-07    5.23792E+03
 1.12540E-06    5.23474E+03
 1.44500E-06    5.23229E+03
 1.85540E-06    5.23125E+03
 2.37240E-06    5.22990E+03
 3.05900E-06    5.22815E+03
 3.92790E-06    5.22592E+03
 5.04350E-06    5.22306E+03
 6.47600E-06    5.21939E+03
 8.31530E-06    5.21467E+03
 1.06770E-05    5.20862E+03
 1.37100E-05    5.20320E+03
 1.76030E-05    5.19859E+03
 2.26030E-05    5.19258E+03
 2.92030E-05    5.18496E+03
 3.72670E-05    5.17530E+03
 4.78510E-05    5.16276E+03
 6.14420E-05    5.14667E+03
 7.88930E-05    5.12600E+03
 1.01300E-04    5.10038E+03
 1.30070E-04    5.07487E+03
 1.67020E-04    5.04375E+03
 2.14450E-04    5.00379E+03
 2.75360E-04    4.95427E+03
 3.53580E-04    6.19296E+03
 4.54000E-04    4.89875E+03
 5.82950E-04    4.80983E+03
 7.48520E-04    7.30653E+03
 9.61120E-04    4.93596E+03
 1.23410E-03    5.24754E+03
 1.58460E-03    5.64953E+03
 2.03470E-03    4.68408E+03
 2.24870E-03    4.63490E+03
 2.48520E-03    4.59486E+03
 2.61260E-03    4.55859E+03
 2.74650E-03    4.71651E+03
 3.03540E-03    7.86819E+03
 3.35460E-03    4.71840E+03
 3.70740E-03    5.54170E+03
 4.30740E-03    5.46045E+03
 5.53080E-03    4.64713E+03
 7.10170E-03    6.35340E+03
 9.11880E-03    5.60393E+03
 1.17090E-02    4.91566E+03
 1.50340E-02    5.98930E+03
 1.93050E-02    5.04504E+03
 2.18750E-02    5.94663E+03
 2.35790E-02    6.15399E+03
 2.41760E-02    4.15831E+03
 2.47880E-02    6.54263E+03
 2.60580E-02    6.19250E+03
 2.70000E-02    6.31543E+03
 2.85000E-02    5.83099E+03
 3.18280E-02    6.36407E+03
 3.43070E-02    5.44043E+03
 4.08680E-02    5.90189E+03
 4.63090E-02    5.59935E+03
 5.24750E-02    6.99833E+03
 5.65620E-02    6.52553E+03
 6.73790E-02    5.90678E+03
 7.20000E-02    6.31335E+03
 7.95000E-02    6.30804E+03
 8.25000E-02    6.30698E+03
 8.65170E-02    6.30480E+03
 9.80370E-02    6.30783E+03
 1.11090E-01    6.31760E+03
 1.16790E-01    6.32340E+03
 1.22770E-01    6.32913E+03
 1.29070E-01    6.33493E+03
 1.35690E-01    6.34071E+03
 1.42640E-01    6.34648E+03
 1.49960E-01    6.35227E+03
 1.57640E-01    6.35808E+03
 1.65730E-01    6.36388E+03
 1.74220E-01    6.36968E+03
 1.83160E-01    6.37549E+03
 1.92550E-01    6.38143E+03
 2.02420E-01    6.39074E+03
 2.12800E-01    6.40194E+03
 2.23710E-01    6.41372E+03
 2.35180E-01    6.42610E+03
 2.47240E-01    6.44596E+03
 2.73240E-01    6.46718E+03
 2.87250E-01    6.47843E+03
 2.94520E-01    6.48368E+03
 2.97200E-01    6.48577E+03
 2.98500E-01    6.48828E+03
 3.01970E-01    6.50655E+03
 3.33730E-01    6.54171E+03
 3.68830E-01    6.57031E+03
 3.87740E-01    6.58768E+03
 4.07620E-01    6.61271E+03
 4.50490E-01    6.64899E+03
 4.97870E-01    6.67856E+03
 5.23400E-01    6.69958E+03
 5.50230E-01    6.71653E+03
 5.78440E-01    6.73062E+03
 6.08100E-01    6.74544E+03
 6.39280E-01    6.76102E+03
 6.72060E-01    6.77330E+03
 7.06510E-01    6.77983E+03
 7.42740E-01    6.78662E+03
 7.80820E-01    6.79179E+03
 8.20850E-01    6.78581E+03
 8.62940E-01    6.77771E+03
 9.07180E-01    6.76725E+03
 9.61640E-01    6.74850E+03
 1.00260E+00    6.68737E+03
 1.10800E+00    6.60115E+03
 1.16480E+00    6.53962E+03
 1.22460E+00    6.48175E+03
 1.28730E+00    6.42766E+03
 1.35340E+00    6.37079E+03
 1.42270E+00    6.31073E+03
 1.49570E+00    6.22889E+03
 1.57240E+00    6.11840E+03
 1.65300E+00    6.00348E+03
 1.73770E+00    5.89690E+03
 1.82680E+00    5.78785E+03
 1.92050E+00    5.67544E+03
 2.01900E+00    5.55677E+03
 2.12250E+00    5.42712E+03
 2.23130E+00    5.31790E+03
 2.30690E+00    5.25754E+03
 2.34570E+00    5.22698E+03
 2.36530E+00    5.20634E+03
 2.38520E+00    5.15394E+03
 2.46600E+00    5.04999E+03
 2.59240E+00    4.93033E+03
 2.72530E+00    4.80909E+03
 2.86500E+00    4.69527E+03
 3.01190E+00    4.59119E+03
 3.16640E+00    4.50036E+03
 3.32870E+00    4.37196E+03
 3.67880E+00    4.25897E+03
 4.06570E+00    4.19416E+03
 4.49330E+00    4.16456E+03
 4.72370E+00    4.15537E+03
 4.96590E+00    4.15067E+03
 5.22050E+00    4.15286E+03
 5.48810E+00    4.15608E+03
 5.76950E+00    4.16713E+03
 6.06530E+00    4.18203E+03
 6.37630E+00    4.20123E+03
 6.59240E+00    4.21387E+03
 6.70320E+00    4.23268E+03
 7.04690E+00    4.26996E+03
 7.40820E+00    4.31064E+03
 7.78800E+00    4.35481E+03
 8.18730E+00    4.40450E+03
 8.60710E+00    4.45686E+03
 9.04840E+00    4.51190E+03
 9.51230E+00    4.56580E+03
 1.00000E+01    4.61027E+03
 1.05130E+01    4.65015E+03
 1.10520E+01    4.68090E+03
 1.16180E+01    4.70409E+03
 1.22140E+01    4.71343E+03
 1.28400E+01    4.71244E+03
 1.34990E+01    4.70034E+03
 1.38400E+01    4.69016E+03
 1.41910E+01    4.67140E+03
 1.45500E+01    4.65150E+03
 1.49180E+01    4.61309E+03
 1.56830E+01    4.54856E+03
 1.64870E+01    4.46844E+03
