# n + Yb174 : (n,n'01)  
# endfb8.0   S.Kunieda, A.Ichihara, K.Shibata+ EVAL-FEB10
# uncertainties: n
# # energies =    63
#   E(MeV)       xs(mb) 
 7.69145E-02    0.00000E+00
 8.00000E-02    8.71400E+01
 9.00000E-02    1.67900E+02
 1.00000E-01    2.41500E+02
 1.20000E-01    3.71100E+02
 1.40000E-01    4.85400E+02
 1.60000E-01    5.89200E+02
 1.80000E-01    6.85400E+02
 2.00000E-01    7.74800E+02
 2.50000E-01    9.73300E+02
 3.00000E-01    1.13700E+03
 3.50000E-01    1.26800E+03
 4.00000E-01    1.37400E+03
 4.50000E-01    1.45900E+03
 5.00000E-01    1.52700E+03
 5.50000E-01    1.58100E+03
 6.00000E-01    1.62500E+03
 6.50000E-01    1.66100E+03
 7.00000E-01    1.69100E+03
 7.50000E-01    1.71700E+03
 8.00000E-01    1.74000E+03
 8.50000E-01    1.76100E+03
 9.00000E-01    1.77900E+03
 9.50000E-01    1.79400E+03
 1.00000E+00    1.80800E+03
 1.20000E+00    1.84600E+03
 1.40000E+00    1.76100E+03
 1.60000E+00    1.54100E+03
 1.80000E+00    1.24700E+03
 2.00000E+00    1.08800E+03
 2.20000E+00    9.37900E+02
 2.40000E+00    8.36300E+02
 2.60000E+00    7.62500E+02
 2.80000E+00    7.04200E+02
 3.00000E+00    6.56700E+02
 3.25000E+00    6.10200E+02
 3.50000E+00    5.73800E+02
 3.75000E+00    5.44400E+02
 4.00000E+00    5.23400E+02
 4.25000E+00    5.07300E+02
 4.50000E+00    4.94800E+02
 4.75000E+00    4.84800E+02
 5.00000E+00    4.76200E+02
 5.50000E+00    4.60700E+02
 6.00000E+00    4.45000E+02
 6.50000E+00    4.28400E+02
 7.00000E+00    4.11600E+02
 7.50000E+00    3.95500E+02
 8.00000E+00    3.80400E+02
 8.50000E+00    3.66700E+02
 9.00000E+00    3.54200E+02
 9.50000E+00    3.42700E+02
 1.00000E+01    3.32000E+02
 1.10000E+01    3.12500E+02
 1.20000E+01    2.94900E+02
 1.30000E+01    2.78700E+02
 1.40000E+01    2.64100E+02
 1.50000E+01    2.51000E+02
 1.60000E+01    2.39200E+02
 1.70000E+01    2.28400E+02
 1.80000E+01    2.18600E+02
 1.90000E+01    2.09500E+02
 2.00000E+01    2.01300E+02
