# n + Eu152 : (n,n'19)  
# tendl.2019 A.J. Koning and D. Rochman        EVAL-NOV19
# uncertainties: n
# # energies =    85
#   E(MeV)       xs(mb) 
 1.51687E-01    0.00000E+00
 1.59104E-01    2.88169E+01
 1.61949E-01    3.98704E+01
 1.76098E-01    9.48428E+01
 1.78867E-01    1.05601E+02
 1.80120E-01    1.10469E+02
 1.81832E-01    1.17121E+02
 1.93778E-01    1.63534E+02
 1.98221E-01    1.80796E+02
 2.00000E-01    1.87708E+02
 2.00991E-01    1.86991E+02
 2.02082E-01    1.86202E+02
 2.03464E-01    1.85202E+02
 3.00000E-01    1.15361E+02
 4.00000E-01    8.02103E+01
 5.00000E-01    6.40721E+01
 6.00000E-01    5.44816E+01
 7.00000E-01    4.67452E+01
 8.00000E-01    3.94546E+01
 9.00000E-01    3.26216E+01
 1.00000E+00    2.64263E+01
 1.20000E+00    1.70362E+01
 1.40000E+00    1.09311E+01
 1.60000E+00    7.09286E+00
 1.80000E+00    4.68866E+00
 2.00000E+00    3.16214E+00
 2.20000E+00    2.17539E+00
 2.40000E+00    1.52205E+00
 2.60000E+00    1.07754E+00
 2.80000E+00    7.67691E-01
 3.00000E+00    5.47842E-01
 3.20000E+00    3.89683E-01
 3.40000E+00    2.75903E-01
 3.60000E+00    1.94378E-01
 3.80000E+00    1.36368E-01
 4.00000E+00    9.53956E-02
 4.20000E+00    6.65995E-02
 4.40000E+00    4.64305E-02
 4.60000E+00    3.23583E-02
 4.80000E+00    2.25771E-02
 5.00000E+00    1.57819E-02
 5.20000E+00    1.10787E-02
 5.40000E+00    7.81178E-03
 5.60000E+00    5.53853E-03
 5.80000E+00    3.95356E-03
 6.00000E+00    2.82724E-03
 6.20000E+00    2.04000E-03
 6.40000E+00    1.47986E-03
 6.60000E+00    1.07908E-03
 6.80000E+00    7.91106E-04
 7.00000E+00    5.82166E-04
 7.20000E+00    4.30335E-04
 7.40000E+00    3.19101E-04
 7.60000E+00    2.37275E-04
 7.80000E+00    1.77019E-04
 8.00000E+00    1.32292E-04
 8.50000E+00    6.46389E-05
 9.00000E+00    3.20458E-05
 9.50000E+00    1.61394E-05
 1.00000E+01    8.25694E-06
 1.05000E+01    4.29303E-06
 1.10000E+01    2.26826E-06
 1.15000E+01    1.21696E-06
 1.20000E+01    6.62110E-07
 1.25000E+01    3.64760E-07
 1.30000E+01    2.03140E-07
 1.35000E+01    1.14220E-07
 1.40000E+01    6.47830E-08
 1.45000E+01    3.70270E-08
 1.50000E+01    2.13310E-08
 1.60000E+01    7.23130E-09
 1.70000E+01    2.51600E-09
 1.80000E+01    9.01040E-10
 1.90000E+01    3.29490E-10
 2.00000E+01    1.24910E-10
 2.10000E+01    4.87390E-11
 2.20000E+01    1.94570E-11
 2.30000E+01    7.94790E-12
 2.40000E+01    3.31330E-12
 2.50000E+01    1.40620E-12
 2.60000E+01    6.07340E-13
 2.70000E+01    2.66530E-13
 2.80000E+01    1.18850E-13
 2.90000E+01    5.38270E-14
 3.00000E+01    2.47590E-14
