# n + Eu152 : (n,n'27)  
# tendl.2019 A.J. Koning and D. Rochman        EVAL-NOV19
# uncertainties: n
# # energies =    77
#   E(MeV)       xs(mb) 
 1.98221E-01    0.00000E+00
 2.00000E-01    1.03082E+01
 2.00991E-01    1.04719E+01
 2.02082E-01    1.06522E+01
 2.03464E-01    1.08805E+01
 3.00000E-01    2.68300E+01
 4.00000E-01    2.32987E+01
 5.00000E-01    1.90573E+01
 6.00000E-01    1.54925E+01
 7.00000E-01    1.26002E+01
 8.00000E-01    1.02554E+01
 9.00000E-01    8.37604E+00
 1.00000E+00    6.85275E+00
 1.20000E+00    4.72002E+00
 1.40000E+00    3.34208E+00
 1.60000E+00    2.41462E+00
 1.80000E+00    1.77041E+00
 2.00000E+00    1.31093E+00
 2.20000E+00    9.77797E-01
 2.40000E+00    7.32796E-01
 2.60000E+00    5.50126E-01
 2.80000E+00    4.12673E-01
 3.00000E+00    3.08730E-01
 3.20000E+00    2.29701E-01
 3.40000E+00    1.69901E-01
 3.60000E+00    1.24925E-01
 3.80000E+00    9.13657E-02
 4.00000E+00    6.65251E-02
 4.20000E+00    4.82459E-02
 4.40000E+00    3.48598E-02
 4.60000E+00    2.51158E-02
 4.80000E+00    1.80610E-02
 5.00000E+00    1.29729E-02
 5.20000E+00    9.32770E-03
 5.40000E+00    6.71199E-03
 5.60000E+00    4.84007E-03
 5.80000E+00    3.50173E-03
 6.00000E+00    2.52940E-03
 6.20000E+00    1.83776E-03
 6.40000E+00    1.33877E-03
 6.60000E+00    9.77827E-04
 6.80000E+00    7.16774E-04
 7.00000E+00    5.26534E-04
 7.20000E+00    3.88075E-04
 7.40000E+00    2.86777E-04
 7.60000E+00    2.12394E-04
 7.80000E+00    1.57810E-04
 8.00000E+00    1.17457E-04
 8.50000E+00    5.68583E-05
 9.00000E+00    2.79781E-05
 9.50000E+00    1.40107E-05
 1.00000E+01    7.13713E-06
 1.05000E+01    3.69834E-06
 1.10000E+01    1.94867E-06
 1.15000E+01    1.04310E-06
 1.20000E+01    5.66460E-07
 1.25000E+01    3.11650E-07
 1.30000E+01    1.73420E-07
 1.35000E+01    9.74710E-08
 1.40000E+01    5.52780E-08
 1.45000E+01    3.15940E-08
 1.50000E+01    1.81980E-08
 1.60000E+01    6.16210E-09
 1.70000E+01    2.13880E-09
 1.80000E+01    7.63580E-10
 1.90000E+01    2.78340E-10
 2.00000E+01    1.05230E-10
 2.10000E+01    4.09660E-11
 2.20000E+01    1.63220E-11
 2.30000E+01    6.65290E-12
 2.40000E+01    2.76690E-12
 2.50000E+01    1.17150E-12
 2.60000E+01    5.04890E-13
 2.70000E+01    2.21210E-13
 2.80000E+01    9.85310E-14
 2.90000E+01    4.45870E-14
 3.00000E+01    2.04930E-14
