# n + Eu152 : (n,n'23)  
# tendl.2019 A.J. Koning and D. Rochman        EVAL-NOV19
# uncertainties: n
# # energies =    81
#   E(MeV)       xs(mb) 
 1.78867E-01    0.00000E+00
 1.80120E-01    1.67968E+00
 1.81832E-01    3.97464E+00
 1.93778E-01    1.99885E+01
 1.98221E-01    2.59444E+01
 2.00000E-01    2.83292E+01
 2.00991E-01    2.83431E+01
 2.02082E-01    2.83585E+01
 2.03464E-01    2.83779E+01
 3.00000E-01    2.97343E+01
 4.00000E-01    2.48344E+01
 5.00000E-01    2.00400E+01
 6.00000E-01    1.61697E+01
 7.00000E-01    1.30730E+01
 8.00000E-01    1.05827E+01
 9.00000E-01    8.60076E+00
 1.00000E+00    7.00623E+00
 1.20000E+00    4.79445E+00
 1.40000E+00    3.38120E+00
 1.60000E+00    2.43726E+00
 1.80000E+00    1.78477E+00
 2.00000E+00    1.32070E+00
 2.20000E+00    9.84758E-01
 2.40000E+00    7.37862E-01
 2.60000E+00    5.53826E-01
 2.80000E+00    4.15343E-01
 3.00000E+00    3.10616E-01
 3.20000E+00    2.31003E-01
 3.40000E+00    1.70783E-01
 3.60000E+00    1.25516E-01
 3.80000E+00    9.17618E-02
 4.00000E+00    6.67914E-02
 4.20000E+00    4.84262E-02
 4.40000E+00    3.49841E-02
 4.60000E+00    2.52005E-02
 4.80000E+00    1.81208E-02
 5.00000E+00    1.30144E-02
 5.20000E+00    9.35647E-03
 5.40000E+00    6.73265E-03
 5.60000E+00    4.85466E-03
 5.80000E+00    3.51205E-03
 6.00000E+00    2.53670E-03
 6.20000E+00    1.84296E-03
 6.40000E+00    1.34238E-03
 6.60000E+00    9.80383E-04
 6.80000E+00    7.18538E-04
 7.00000E+00    5.27774E-04
 7.20000E+00    3.88951E-04
 7.40000E+00    2.87378E-04
 7.60000E+00    2.12816E-04
 7.80000E+00    1.58104E-04
 8.00000E+00    1.17663E-04
 8.50000E+00    5.69449E-05
 9.00000E+00    2.80159E-05
 9.50000E+00    1.40280E-05
 1.00000E+01    7.14540E-06
 1.05000E+01    3.70247E-06
 1.10000E+01    1.95080E-06
 1.15000E+01    1.04422E-06
 1.20000E+01    5.67060E-07
 1.25000E+01    3.11970E-07
 1.30000E+01    1.73590E-07
 1.35000E+01    9.75630E-08
 1.40000E+01    5.53270E-08
 1.45000E+01    3.16210E-08
 1.50000E+01    1.82120E-08
 1.60000E+01    6.16630E-09
 1.70000E+01    2.14010E-09
 1.80000E+01    7.64010E-10
 1.90000E+01    2.78490E-10
 2.00000E+01    1.05280E-10
 2.10000E+01    4.09870E-11
 2.20000E+01    1.63300E-11
 2.30000E+01    6.65610E-12
 2.40000E+01    2.76820E-12
 2.50000E+01    1.17190E-12
 2.60000E+01    5.05070E-13
 2.70000E+01    2.21290E-13
 2.80000E+01    9.85630E-14
 2.90000E+01    4.46010E-14
 3.00000E+01    2.04990E-14
