# n + Eu152 : (n,n'30)  
# tendl.2019 A.J. Koning and D. Rochman        EVAL-NOV19
# uncertainties: n
# # energies =    73
#   E(MeV)       xs(mb) 
 2.03464E-01    0.00000E+00
 3.00000E-01    2.61192E+01
 4.00000E-01    2.29123E+01
 5.00000E-01    1.88005E+01
 6.00000E-01    1.53110E+01
 7.00000E-01    1.24711E+01
 8.00000E-01    1.01652E+01
 9.00000E-01    8.31399E+00
 1.00000E+00    6.81051E+00
 1.20000E+00    4.69970E+00
 1.40000E+00    3.33146E+00
 1.60000E+00    2.40849E+00
 1.80000E+00    1.76654E+00
 2.00000E+00    1.30830E+00
 2.20000E+00    9.75920E-01
 2.40000E+00    7.31429E-01
 2.60000E+00    5.49125E-01
 2.80000E+00    4.11950E-01
 3.00000E+00    3.08219E-01
 3.20000E+00    2.29348E-01
 3.40000E+00    1.69661E-01
 3.60000E+00    1.24764E-01
 3.80000E+00    9.12582E-02
 4.00000E+00    6.64529E-02
 4.20000E+00    4.81970E-02
 4.40000E+00    3.48261E-02
 4.60000E+00    2.50928E-02
 4.80000E+00    1.80449E-02
 5.00000E+00    1.29617E-02
 5.20000E+00    9.31992E-03
 5.40000E+00    6.70640E-03
 5.60000E+00    4.83612E-03
 5.80000E+00    3.49894E-03
 6.00000E+00    2.52742E-03
 6.20000E+00    1.83636E-03
 6.40000E+00    1.33780E-03
 6.60000E+00    9.77134E-04
 6.80000E+00    7.16296E-04
 7.00000E+00    5.26198E-04
 7.20000E+00    3.87837E-04
 7.40000E+00    2.86614E-04
 7.60000E+00    2.12280E-04
 7.80000E+00    1.57730E-04
 8.00000E+00    1.17401E-04
 8.50000E+00    5.68348E-05
 9.00000E+00    2.79678E-05
 9.50000E+00    1.40060E-05
 1.00000E+01    7.13489E-06
 1.05000E+01    3.69723E-06
 1.10000E+01    1.94810E-06
 1.15000E+01    1.04279E-06
 1.20000E+01    5.66300E-07
 1.25000E+01    3.11560E-07
 1.30000E+01    1.73370E-07
 1.35000E+01    9.74460E-08
 1.40000E+01    5.52650E-08
 1.45000E+01    3.15870E-08
 1.50000E+01    1.81950E-08
 1.60000E+01    6.16100E-09
 1.70000E+01    2.13840E-09
 1.80000E+01    7.63470E-10
 1.90000E+01    2.78300E-10
 2.00000E+01    1.05210E-10
 2.10000E+01    4.09610E-11
 2.20000E+01    1.63200E-11
 2.30000E+01    6.65210E-12
 2.40000E+01    2.76660E-12
 2.50000E+01    1.17130E-12
 2.60000E+01    5.04840E-13
 2.70000E+01    2.21190E-13
 2.80000E+01    9.85230E-14
 2.90000E+01    4.45830E-14
 3.00000E+01    2.04910E-14
