# n + Eu152 : (n,n'26)  
# tendl.2019 A.J. Koning and D. Rochman        EVAL-NOV19
# uncertainties: n
# # energies =    78
#   E(MeV)       xs(mb) 
 1.93778E-01    0.00000E+00
 1.98221E-01    2.79165E-02
 2.00000E-01    3.90944E-02
 2.00991E-01    4.65776E-02
 2.02082E-01    5.48158E-02
 2.03464E-01    6.52515E-02
 3.00000E-01    7.94207E-01
 4.00000E-01    1.52985E+00
 5.00000E-01    1.94419E+00
 6.00000E-01    2.05405E+00
 7.00000E-01    1.96753E+00
 8.00000E-01    1.78831E+00
 9.00000E-01    1.58729E+00
 1.00000E+00    1.39319E+00
 1.20000E+00    1.09047E+00
 1.40000E+00    8.73419E-01
 1.60000E+00    7.10193E-01
 1.80000E+00    5.81040E-01
 2.00000E+00    4.74905E-01
 2.20000E+00    3.86454E-01
 2.40000E+00    3.12256E-01
 2.60000E+00    2.49847E-01
 2.80000E+00    1.97642E-01
 3.00000E+00    1.54503E-01
 3.20000E+00    1.19230E-01
 3.40000E+00    9.09783E-02
 3.60000E+00    6.87662E-02
 3.80000E+00    5.15937E-02
 4.00000E+00    3.85030E-02
 4.20000E+00    2.86137E-02
 4.40000E+00    2.11921E-02
 4.60000E+00    1.56640E-02
 4.80000E+00    1.15606E-02
 5.00000E+00    8.53142E-03
 5.20000E+00    6.30292E-03
 5.40000E+00    4.66095E-03
 5.60000E+00    3.45233E-03
 5.80000E+00    2.56304E-03
 6.00000E+00    1.89712E-03
 6.20000E+00    1.41030E-03
 6.40000E+00    1.04912E-03
 6.60000E+00    7.81073E-04
 6.80000E+00    5.82557E-04
 7.00000E+00    4.34625E-04
 7.20000E+00    3.24852E-04
 7.40000E+00    2.43095E-04
 7.60000E+00    1.82108E-04
 7.80000E+00    1.36731E-04
 8.00000E+00    1.02760E-04
 8.50000E+00    5.08553E-05
 9.00000E+00    2.55488E-05
 9.50000E+00    1.30637E-05
 1.00000E+01    6.80039E-06
 1.05000E+01    3.60447E-06
 1.10000E+01    1.94412E-06
 1.15000E+01    1.06562E-06
 1.20000E+01    5.92460E-07
 1.25000E+01    3.33500E-07
 1.30000E+01    1.89690E-07
 1.35000E+01    1.08860E-07
 1.40000E+01    6.29540E-08
 1.45000E+01    3.66420E-08
 1.50000E+01    2.14630E-08
 1.60000E+01    7.48470E-09
 1.70000E+01    2.66250E-09
 1.80000E+01    9.71080E-10
 1.90000E+01    3.61000E-10
 2.00000E+01    1.39080E-10
 2.10000E+01    5.51580E-11
 2.20000E+01    2.23730E-11
 2.30000E+01    9.27460E-12
 2.40000E+01    3.91640E-12
 2.50000E+01    1.68040E-12
 2.60000E+01    7.32630E-13
 2.70000E+01    3.24280E-13
 2.80000E+01    1.45790E-13
 2.90000E+01    6.65550E-14
 3.00000E+01    3.08510E-14
