# n + Eu152 : (n,n'20)  
# tendl.2019 A.J. Koning and D. Rochman        EVAL-NOV19
# uncertainties: n
# # energies =    84
#   E(MeV)       xs(mb) 
 1.59104E-01    0.00000E+00
 1.61949E-01    6.26057E-01
 1.76098E-01    3.73963E+00
 1.78867E-01    4.34896E+00
 1.80120E-01    4.62470E+00
 1.81832E-01    5.00143E+00
 1.93778E-01    7.63022E+00
 1.98221E-01    8.60793E+00
 2.00000E-01    8.99941E+00
 2.00991E-01    8.99533E+00
 2.02082E-01    8.99083E+00
 2.03464E-01    8.98514E+00
 3.00000E-01    8.58748E+00
 4.00000E-01    7.47852E+00
 5.00000E-01    6.72147E+00
 6.00000E-01    6.00432E+00
 7.00000E-01    5.24037E+00
 8.00000E-01    4.46962E+00
 9.00000E-01    3.75914E+00
 1.00000E+00    3.13210E+00
 1.20000E+00    2.20325E+00
 1.40000E+00    1.58470E+00
 1.60000E+00    1.16411E+00
 1.80000E+00    8.69133E-01
 2.00000E+00    6.55673E-01
 2.20000E+00    4.97919E-01
 2.40000E+00    3.79277E-01
 2.60000E+00    2.88725E-01
 2.80000E+00    2.19046E-01
 3.00000E+00    1.65304E-01
 3.20000E+00    1.23785E-01
 3.40000E+00    9.19821E-02
 3.60000E+00    6.78461E-02
 3.80000E+00    4.97211E-02
 4.00000E+00    3.62449E-02
 4.20000E+00    2.62951E-02
 4.40000E+00    1.89949E-02
 4.60000E+00    1.36700E-02
 4.80000E+00    9.81568E-03
 5.00000E+00    7.03362E-03
 5.20000E+00    5.04274E-03
 5.40000E+00    3.61693E-03
 5.60000E+00    2.59855E-03
 5.80000E+00    1.87264E-03
 6.00000E+00    1.34724E-03
 6.20000E+00    9.74933E-04
 6.40000E+00    7.07355E-04
 6.60000E+00    5.14701E-04
 6.80000E+00    3.75895E-04
 7.00000E+00    2.75206E-04
 7.20000E+00    2.02211E-04
 7.40000E+00    1.48987E-04
 7.60000E+00    1.10053E-04
 7.80000E+00    8.15695E-05
 8.00000E+00    6.05759E-05
 8.50000E+00    2.91781E-05
 9.00000E+00    1.42948E-05
 9.50000E+00    7.12859E-06
 1.00000E+01    3.61595E-06
 1.05000E+01    1.86536E-06
 1.10000E+01    9.78210E-07
 1.15000E+01    5.21020E-07
 1.20000E+01    2.81510E-07
 1.25000E+01    1.54100E-07
 1.30000E+01    8.53330E-08
 1.35000E+01    4.77460E-08
 1.40000E+01    2.69660E-08
 1.45000E+01    1.53550E-08
 1.50000E+01    8.81470E-09
 1.60000E+01    2.96760E-09
 1.70000E+01    1.02510E-09
 1.80000E+01    3.64480E-10
 1.90000E+01    1.32370E-10
 2.00000E+01    4.98720E-11
 2.10000E+01    1.93560E-11
 2.20000E+01    7.69020E-12
 2.30000E+01    3.12650E-12
 2.40000E+01    1.29720E-12
 2.50000E+01    5.48020E-13
 2.60000E+01    2.35710E-13
 2.70000E+01    1.03090E-13
 2.80000E+01    4.58390E-14
 2.90000E+01    2.07110E-14
 3.00000E+01    9.50520E-15
