# n + Dy160 : (n,2na)   
# jendl.ad   N.Iwamoto                         EVAL-Apr14
# uncertainties: n
# # energies =    21
#   E(MeV)       xs(mb) 
 8.14824E+00    0.00000E+00
 1.05000E+01    2.70540E-32
 1.10000E+01    2.53490E-26
 1.15000E+01    6.52010E-22
 1.20000E+01    1.89370E-18
 1.25000E+01    1.33690E-15
 1.30000E+01    2.89570E-13
 1.35000E+01    2.41150E-11
 1.40000E+01    9.60400E-10
 1.45000E+01    2.12000E-08
 1.50000E+01    2.86070E-07
 1.55000E+01    2.63570E-06
 1.60000E+01    1.63155E-05
 1.65000E+01    6.20572E-05
 1.70000E+01    1.71939E-04
 1.75000E+01    4.17614E-04
 1.80000E+01    9.28806E-04
 1.85000E+01    1.90013E-03
 1.90000E+01    3.72753E-03
 1.95000E+01    6.89779E-03
 2.00000E+01    1.18798E-02
