# n + Dy160 : (n,t)g    
# jendl.ad   N.Iwamoto                         EVAL-Apr14
# uncertainties: n
# # energies =    26
#   E(MeV)       xs(mb) 
 7.12399E+00    0.00000E+00
 7.23498E+00    4.83830E-24
 8.50000E+00    5.99840E-23
 9.00000E+00    2.00450E-17
 9.50000E+00    7.72390E-14
 1.00000E+01    2.53670E-11
 1.05000E+01    1.85230E-09
 1.10000E+01    5.04190E-08
 1.15000E+01    6.94260E-07
 1.20000E+01    5.85672E-06
 1.25000E+01    3.43740E-05
 1.30000E+01    1.34748E-04
 1.35000E+01    4.97570E-04
 1.40000E+01    1.52964E-03
 1.45000E+01    4.22964E-03
 1.50000E+01    9.64153E-03
 1.55000E+01    1.92815E-02
 1.60000E+01    3.53180E-02
 1.65000E+01    5.95411E-02
 1.70000E+01    9.15743E-02
 1.75000E+01    1.33213E-01
 1.80000E+01    1.84235E-01
 1.85000E+01    2.44197E-01
 1.90000E+01    3.10776E-01
 1.95000E+01    3.86294E-01
 2.00000E+01    4.66249E-01
