# n + Dy160 : (n,tot)   
# jendl.ad   N.Iwamoto                         EVAL-Apr14
# uncertainties: n
# # energies =   171
#   E(MeV)       xs(mb) 
 1.00000E-11    6.06536E+05
 1.00000E-07    2.22280E+04
 4.13990E-07    1.67589E+04
 5.31580E-07    1.63815E+04
 6.82560E-07    1.70150E+04
 8.76420E-07    2.00296E+04
 1.12540E-06    3.26832E+04
 1.44500E-06    3.53689E+05
 1.85540E-06    5.39290E+05
 2.37240E-06    1.65975E+04
 3.05900E-06    7.79790E+03
 3.92790E-06    6.83871E+03
 5.04350E-06    8.25780E+03
 6.47600E-06    1.57847E+04
 8.31530E-06    1.96304E+06
 1.06770E-05    1.60470E+05
 1.37100E-05    1.02011E+04
 1.76030E-05    9.37233E+05
 2.26030E-05    6.14921E+03
 2.92030E-05    1.69914E+04
 3.72670E-05    4.38963E+02
 4.78510E-05    2.73263E+02
 6.14420E-05    1.94881E+04
 7.88930E-05    1.12818E+05
 1.01300E-04    2.69860E+03
 1.30070E-04    5.01976E+04
 1.67020E-04    2.25626E+04
 2.14450E-04    3.18552E+03
 2.75360E-04    1.36896E+04
 3.53580E-04    2.53862E+04
 4.54000E-04    4.93790E+03
 5.82950E-04    1.20966E+04
 7.48520E-04    3.62969E+03
 9.61120E-04    4.09198E+03
 1.23410E-03    3.76594E+03
 1.58460E-03    5.05749E+03
 2.03470E-03    3.62469E+03
 2.24870E-03    3.37368E+03
 2.48520E-03    3.19473E+03
 2.61260E-03    3.08179E+03
 2.74650E-03    2.91999E+03
 3.03540E-03    2.71705E+03
 3.35460E-03    2.52744E+03
 3.70740E-03    2.31646E+03
 4.30740E-03    2.05579E+03
 5.53080E-03    1.77621E+03
 7.10170E-03    1.55306E+03
 9.11880E-03    1.37628E+03
 1.17090E-02    1.23713E+03
 1.50340E-02    1.11342E+03
 1.93050E-02    1.02829E+03
 2.18750E-02    9.84785E+02
 2.35790E-02    9.63658E+02
 2.41760E-02    9.53819E+02
 2.47880E-02    9.39060E+02
 2.60580E-02    9.22145E+02
 2.70000E-02    9.04150E+02
 2.85000E-02    8.72512E+02
 3.18280E-02    8.38500E+02
 3.43070E-02    7.95198E+02
 4.08680E-02    7.44115E+02
 4.63090E-02    7.04127E+02
 5.24750E-02    6.74196E+02
 5.65620E-02    6.39477E+02
 6.73790E-02    6.08022E+02
 7.20000E-02    5.88727E+02
 7.95000E-02    5.73493E+02
 8.25000E-02    5.64543E+02
 8.65170E-02    5.18985E+02
 9.80370E-02    4.58765E+02
 1.11090E-01    4.23340E+02
 1.16790E-01    4.05246E+02
 1.22770E-01    3.88662E+02
 1.29070E-01    3.73345E+02
 1.35690E-01    3.59047E+02
 1.42640E-01    3.46131E+02
 1.49960E-01    3.34113E+02
 1.57640E-01    3.23012E+02
 1.65730E-01    3.13029E+02
 1.74220E-01    3.04151E+02
 1.83160E-01    2.95786E+02
 1.92550E-01    2.88194E+02
 2.02420E-01    2.81667E+02
 2.12800E-01    2.75562E+02
 2.23710E-01    2.70019E+02
 2.35180E-01    2.65188E+02
 2.47240E-01    2.58403E+02
 2.73240E-01    2.52385E+02
 2.87250E-01    2.49771E+02
 2.94520E-01    2.48555E+02
 2.97200E-01    2.48069E+02
 2.98500E-01    2.47541E+02
 3.01970E-01    2.44950E+02
 3.33730E-01    2.40197E+02
 3.68830E-01    2.36734E+02
 3.87740E-01    2.34476E+02
 4.07620E-01    2.33533E+02
 4.50490E-01    2.32764E+02
 4.97870E-01    2.32819E+02
 5.23400E-01    2.34047E+02
 5.50230E-01    2.35345E+02
 5.78440E-01    2.36758E+02
 6.08100E-01    2.39211E+02
 6.39280E-01    2.42167E+02
 6.72060E-01    2.45297E+02
 7.06510E-01    2.49423E+02
 7.42740E-01    2.54194E+02
 7.80820E-01    2.59372E+02
 8.20850E-01    2.65756E+02
 8.62940E-01    2.72632E+02
 9.07180E-01    2.81307E+02
 9.61640E-01    2.84403E+02
 1.00260E+00    2.79023E+02
 1.10800E+00    2.75512E+02
 1.16480E+00    2.76732E+02
 1.22460E+00    2.79325E+02
 1.28730E+00    2.66246E+02
 1.35340E+00    2.46281E+02
 1.42270E+00    2.28781E+02
 1.49570E+00    2.15507E+02
 1.57240E+00    2.01549E+02
 1.65300E+00    1.90197E+02
 1.73770E+00    1.81227E+02
 1.82680E+00    1.74195E+02
 1.92050E+00    1.64850E+02
 2.01900E+00    1.50833E+02
 2.12250E+00    1.36101E+02
 2.23130E+00    1.25538E+02
 2.30690E+00    1.21055E+02
 2.34570E+00    1.18948E+02
 2.36530E+00    1.17524E+02
 2.38520E+00    1.14071E+02
 2.46600E+00    1.05901E+02
 2.59240E+00    9.32529E+01
 2.72530E+00    8.28656E+01
 2.86500E+00    7.54393E+01
 3.01190E+00    6.74117E+01
 3.16640E+00    5.93593E+01
 3.32870E+00    4.88937E+01
 3.67880E+00    3.63685E+01
 4.06570E+00    2.54426E+01
 4.49330E+00    1.85726E+01
 4.72370E+00    1.47161E+01
 4.96590E+00    1.16008E+01
 5.22050E+00    9.05528E+00
 5.48810E+00    7.01505E+00
 5.76950E+00    5.38244E+00
 6.06530E+00    4.09011E+00
 6.37630E+00    1.13086E+03
 6.59240E+00    2.90788E+03
 6.70320E+00    2.89555E+03
 7.04690E+00    2.87749E+03
 7.40820E+00    2.85971E+03
 7.78800E+00    2.84225E+03
 8.18730E+00    2.82336E+03
 8.60710E+00    2.80046E+03
 9.04840E+00    2.78987E+03
 9.51230E+00    2.77221E+03
 1.00000E+01    2.75530E+03
 1.05130E+01    2.73799E+03
 1.10520E+01    2.72129E+03
 1.16180E+01    2.70459E+03
 1.22140E+01    2.68879E+03
 1.28400E+01    2.67272E+03
 1.34990E+01    2.66112E+03
 1.38400E+01    2.65307E+03
 1.41910E+01    2.64548E+03
 1.45500E+01    2.63771E+03
 1.49180E+01    2.62604E+03
 1.56830E+01    2.61061E+03
 1.64870E+01    2.59525E+03
