# n + Dy160 : (n,g)     
# jendl.ad   N.Iwamoto                         EVAL-Apr14
# uncertainties: n
# # energies =   171
#   E(MeV)       xs(mb) 
 1.00000E-11    6.06313E+05
 1.00000E-07    2.22275E+04
 4.13990E-07    1.67557E+04
 5.31580E-07    1.63766E+04
 6.82560E-07    1.70099E+04
 8.76420E-07    2.00228E+04
 1.12540E-06    3.26754E+04
 1.44500E-06    3.53692E+05
 1.85540E-06    5.39254E+05
 2.37240E-06    1.65991E+04
 3.05900E-06    7.79933E+03
 3.92790E-06    6.84010E+03
 5.04350E-06    8.25931E+03
 6.47600E-06    1.57868E+04
 8.31530E-06    1.96294E+06
 1.06770E-05    1.60496E+05
 1.37100E-05    1.02032E+04
 1.76030E-05    9.37220E+05
 2.26030E-05    6.14964E+03
 2.92030E-05    1.69919E+04
 3.72670E-05    4.39016E+02
 4.78510E-05    2.73298E+02
 6.14420E-05    1.94871E+04
 7.88930E-05    1.12819E+05
 1.01300E-04    2.69849E+03
 1.30070E-04    5.01971E+04
 1.67020E-04    2.25610E+04
 2.14450E-04    3.18547E+03
 2.75360E-04    1.36892E+04
 3.53580E-04    2.53863E+04
 4.54000E-04    4.93754E+03
 5.82950E-04    1.20961E+04
 7.48520E-04    3.62950E+03
 9.61120E-04    4.09167E+03
 1.23410E-03    3.76567E+03
 1.58460E-03    5.05759E+03
 2.03470E-03    3.62445E+03
 2.24870E-03    3.37323E+03
 2.48520E-03    3.19434E+03
 2.61260E-03    3.08104E+03
 2.74650E-03    2.91942E+03
 3.03540E-03    2.71668E+03
 3.35460E-03    2.52728E+03
 3.70740E-03    2.31562E+03
 4.30740E-03    2.05519E+03
 5.53080E-03    1.77577E+03
 7.10170E-03    1.55254E+03
 9.11880E-03    1.37621E+03
 1.17090E-02    1.23672E+03
 1.50340E-02    1.11332E+03
 1.93050E-02    1.02805E+03
 2.18750E-02    9.84587E+02
 2.35790E-02    9.63511E+02
 2.41760E-02    9.53691E+02
 2.47880E-02    9.38749E+02
 2.60580E-02    9.21140E+02
 2.70000E-02    9.04005E+02
 2.85000E-02    8.72437E+02
 3.18280E-02    8.38430E+02
 3.43070E-02    7.94766E+02
 4.08680E-02    7.43990E+02
 4.63090E-02    7.03919E+02
 5.24750E-02    6.74128E+02
 5.65620E-02    6.39458E+02
 6.73790E-02    6.08017E+02
 7.20000E-02    5.88714E+02
 7.95000E-02    5.73493E+02
 8.25000E-02    5.64543E+02
 8.65170E-02    5.18981E+02
 9.80370E-02    4.58764E+02
 1.11090E-01    4.23339E+02
 1.16790E-01    4.05245E+02
 1.22770E-01    3.88662E+02
 1.29070E-01    3.73344E+02
 1.35690E-01    3.59046E+02
 1.42640E-01    3.46130E+02
 1.49960E-01    3.34113E+02
 1.57640E-01    3.23011E+02
 1.65730E-01    3.13029E+02
 1.74220E-01    3.04151E+02
 1.83160E-01    2.95785E+02
 1.92550E-01    2.88199E+02
 2.02420E-01    2.81836E+02
 2.12800E-01    2.75686E+02
 2.23710E-01    2.70186E+02
 2.35180E-01    2.65269E+02
 2.47240E-01    2.58496E+02
 2.73240E-01    2.52459E+02
 2.87250E-01    2.49894E+02
 2.94520E-01    2.48713E+02
 2.97200E-01    2.48242E+02
 2.98500E-01    2.47678E+02
 3.01970E-01    2.45025E+02
 3.33730E-01    2.40286E+02
 3.68830E-01    2.36734E+02
 3.87740E-01    2.34476E+02
 4.07620E-01    2.33534E+02
 4.50490E-01    2.32764E+02
 4.97870E-01    2.32819E+02
 5.23400E-01    2.34047E+02
 5.50230E-01    2.35345E+02
 5.78440E-01    2.36760E+02
 6.08100E-01    2.39250E+02
 6.39280E-01    2.42261E+02
 6.72060E-01    2.45426E+02
 7.06510E-01    2.49456E+02
 7.42740E-01    2.54291E+02
 7.80820E-01    2.59459E+02
 8.20850E-01    2.65814E+02
 8.62940E-01    2.72744E+02
 9.07180E-01    2.81308E+02
 9.61640E-01    2.84401E+02
 1.00260E+00    2.79023E+02
 1.10800E+00    2.75512E+02
 1.16480E+00    2.76732E+02
 1.22460E+00    2.79293E+02
 1.28730E+00    2.66244E+02
 1.35340E+00    2.46533E+02
 1.42270E+00    2.28785E+02
 1.49570E+00    2.15545E+02
 1.57240E+00    2.01723E+02
 1.65300E+00    1.90223E+02
 1.73770E+00    1.81334E+02
 1.82680E+00    1.74205E+02
 1.92050E+00    1.64853E+02
 2.01900E+00    1.50842E+02
 2.12250E+00    1.36068E+02
 2.23130E+00    1.25564E+02
 2.30690E+00    1.21082E+02
 2.34570E+00    1.18981E+02
 2.36530E+00    1.17581E+02
 2.38520E+00    1.14098E+02
 2.46600E+00    1.05887E+02
 2.59240E+00    9.32310E+01
 2.72530E+00    8.28803E+01
 2.86500E+00    7.54572E+01
 3.01190E+00    6.74331E+01
 3.16640E+00    5.93748E+01
 3.32870E+00    4.88970E+01
 3.67880E+00    3.63533E+01
 4.06570E+00    2.54345E+01
 4.49330E+00    1.85596E+01
 4.72370E+00    1.47050E+01
 4.96590E+00    1.15881E+01
 5.22050E+00    9.04000E+00
 5.48810E+00    7.00060E+00
 5.76950E+00    5.36474E+00
 6.06530E+00    4.07112E+00
 6.37630E+00    3.21478E+00
 6.59240E+00    2.78759E+00
 6.70320E+00    2.31436E+00
 7.04690E+00    1.76739E+00
 7.40820E+00    1.38126E+00
 7.78800E+00    1.13106E+00
 8.18730E+00    9.84901E-01
 8.60710E+00    9.14745E-01
 9.04840E+00    8.96207E-01
 9.51230E+00    9.10956E-01
 1.00000E+01    9.41880E-01
 1.05130E+01    9.75221E-01
 1.10520E+01    1.00153E+00
 1.16180E+01    1.01367E+00
 1.22140E+01    1.00781E+00
 1.28400E+01    9.82783E-01
 1.34990E+01    9.62131E-01
 1.38400E+01    9.44062E-01
 1.41910E+01    9.21276E-01
 1.45500E+01    8.93371E-01
 1.49180E+01    8.39438E-01
 1.56830E+01    7.49250E-01
 1.64870E+01    6.51771E-01
