# n + Cu 63 : (n,tot)   
# jendl4.0   N.Yamamuro,T.Kawakita             EVAL-MAR87
# uncertainties: n
# # energies =   171
#   E(MeV)       xs(mb) 
 1.00000E-11    5.91028E+04
 1.00000E-07    6.72777E+03
 4.13990E-07    6.14631E+03
 5.31580E-07    6.02144E+03
 6.82560E-07    5.91084E+03
 8.76420E-07    5.81278E+03
 1.12540E-06    5.72650E+03
 1.44500E-06    5.64969E+03
 1.85540E-06    5.58105E+03
 2.37240E-06    5.51921E+03
 3.05900E-06    5.45999E+03
 3.92790E-06    5.40689E+03
 5.04350E-06    5.35856E+03
 6.47600E-06    5.30903E+03
 8.31530E-06    5.26515E+03
 1.06770E-05    5.21622E+03
 1.37100E-05    5.17096E+03
 1.76030E-05    5.11766E+03
 2.26030E-05    5.06457E+03
 2.92030E-05    5.00110E+03
 3.72670E-05    4.93569E+03
 4.78510E-05    4.85603E+03
 6.14420E-05    4.76961E+03
 7.88930E-05    4.66696E+03
 1.01300E-04    4.55404E+03
 1.30070E-04    4.42392E+03
 1.67020E-04    4.27634E+03
 2.14450E-04    4.10778E+03
 2.75360E-04    3.90100E+03
 3.53580E-04    3.64379E+03
 4.54000E-04    2.00410E+04
 5.82950E-04    5.87609E+03
 7.48520E-04    3.54218E+03
 9.61120E-04    3.18906E+03
 1.23410E-03    2.59922E+03
 1.58460E-03    2.62043E+04
 2.03470E-03    9.44689E+04
 2.24870E-03    7.75118E+03
 2.48520E-03    4.18366E+03
 2.61260E-03    4.45485E+04
 2.74650E-03    5.18688E+03
 3.03540E-03    3.96071E+03
 3.35460E-03    3.29819E+03
 3.70740E-03    2.44679E+03
 4.30740E-03    1.89588E+04
 5.53080E-03    6.90949E+03
 7.10170E-03    1.61665E+04
 9.11880E-03    2.20694E+04
 1.17090E-02    1.04785E+04
 1.50340E-02    8.46812E+03
 1.93050E-02    1.07478E+04
 2.18750E-02    1.05348E+04
 2.35790E-02    5.20384E+03
 2.41760E-02    2.09225E+03
 2.47880E-02    2.02132E+04
 2.60580E-02    1.51421E+04
 2.70000E-02    6.05777E+03
 2.85000E-02    9.96028E+03
 3.18280E-02    9.77409E+03
 3.43070E-02    6.66519E+03
 4.08680E-02    8.38253E+03
 4.63090E-02    4.59272E+03
 5.24750E-02    1.29973E+04
 5.65620E-02    7.43361E+03
 6.73790E-02    4.86459E+03
 7.20000E-02    9.01136E+03
 7.95000E-02    9.73336E+03
 8.25000E-02    7.34663E+03
 8.65170E-02    6.45284E+03
 9.80370E-02    6.36202E+03
 1.11090E-01    5.15476E+03
 1.16790E-01    4.67077E+03
 1.22770E-01    6.17790E+03
 1.29070E-01    5.05406E+03
 1.35690E-01    8.87505E+03
 1.42640E-01    5.74643E+03
 1.49960E-01    5.67050E+03
 1.57640E-01    5.37689E+03
 1.65730E-01    6.29864E+03
 1.74220E-01    5.24855E+03
 1.83160E-01    4.80613E+03
 1.92550E-01    6.46304E+03
 2.02420E-01    5.84393E+03
 2.12800E-01    5.77145E+03
 2.23710E-01    5.48431E+03
 2.35180E-01    4.91396E+03
 2.47240E-01    5.42925E+03
 2.73240E-01    4.83221E+03
 2.87250E-01    5.87587E+03
 2.94520E-01    5.04058E+03
 2.97200E-01    6.60971E+03
 2.98500E-01    4.91510E+03
 3.01970E-01    4.97920E+03
 3.33730E-01    4.80323E+03
 3.68830E-01    4.43280E+03
 3.87740E-01    4.23761E+03
 4.07620E-01    4.41297E+03
 4.50490E-01    4.86950E+03
 4.97870E-01    4.34388E+03
 5.23400E-01    4.38321E+03
 5.50230E-01    4.03105E+03
 5.78440E-01    4.24181E+03
 6.08100E-01    4.12508E+03
 6.39280E-01    3.86346E+03
 6.72060E-01    3.75487E+03
 7.06510E-01    3.71687E+03
 7.42740E-01    3.63366E+03
 7.80820E-01    3.74095E+03
 8.20850E-01    3.63044E+03
 8.62940E-01    3.70102E+03
 9.07180E-01    3.57289E+03
 9.61640E-01    3.46063E+03
 1.00260E+00    3.52800E+03
 1.10800E+00    3.30505E+03
 1.16480E+00    3.26808E+03
 1.22460E+00    3.22924E+03
 1.28730E+00    3.18840E+03
 1.35340E+00    3.14722E+03
 1.42270E+00    3.12864E+03
 1.49570E+00    3.11711E+03
 1.57240E+00    3.10500E+03
 1.65300E+00    3.09227E+03
 1.73770E+00    3.07981E+03
 1.82680E+00    3.08179E+03
 1.92050E+00    3.08925E+03
 2.01900E+00    3.09709E+03
 2.12250E+00    3.10533E+03
 2.23130E+00    3.11377E+03
 2.30690E+00    3.12390E+03
 2.34570E+00    3.12954E+03
 2.36530E+00    3.13335E+03
 2.38520E+00    3.14301E+03
 2.46600E+00    3.16292E+03
 2.59240E+00    3.18791E+03
 2.72530E+00    3.21858E+03
 2.86500E+00    3.26479E+03
 3.01190E+00    3.31440E+03
 3.16640E+00    3.36655E+03
 3.32870E+00    3.44992E+03
 3.67880E+00    3.56127E+03
 4.06570E+00    3.66496E+03
 4.49330E+00    3.72663E+03
 4.72370E+00    3.76692E+03
 4.96590E+00    3.80927E+03
 5.22050E+00    3.83615E+03
 5.48810E+00    3.83705E+03
 5.76950E+00    3.83732E+03
 6.06530E+00    3.82619E+03
 6.37630E+00    3.81208E+03
 6.59240E+00    3.80334E+03
 6.70320E+00    3.79128E+03
 7.04690E+00    3.76504E+03
 7.40820E+00    3.72968E+03
 7.78800E+00    3.69250E+03
 8.18730E+00    3.65344E+03
 8.60710E+00    3.61309E+03
 9.04840E+00    3.56394E+03
 9.51230E+00    3.50406E+03
 1.00000E+01    3.44268E+03
 1.05130E+01    3.37970E+03
 1.10520E+01    3.30250E+03
 1.16180E+01    3.21435E+03
 1.22140E+01    3.13229E+03
 1.28400E+01    3.05039E+03
 1.34990E+01    2.98871E+03
 1.38400E+01    2.94652E+03
 1.41910E+01    2.90443E+03
 1.45500E+01    2.86150E+03
 1.49180E+01    2.79848E+03
 1.56830E+01    2.71963E+03
 1.64870E+01    2.65601E+03
