# n + Cu 63 : (n,n'12)  
# jendl4.0   N.Yamamuro,T.Kawakita             EVAL-MAR87
# uncertainties: n
# # energies =    69
#   E(MeV)       xs(mb) 
 2.37446E+00    0.00000E+00
 2.37499E+00    1.91292E-01
 2.37605E+00    5.70883E-01
 2.37813E+00    1.31820E+00
 2.38015E+00    2.04216E+00
 2.38210E+00    2.74350E+00
 2.38590E+00    4.10234E+00
 2.38946E+00    5.37626E+00
 2.39281E+00    6.57055E+00
 2.39909E+00    8.80985E+00
 2.40460E+00    1.07692E+01
 2.40944E+00    1.24837E+01
 2.41792E+00    1.54840E+01
 2.42430E+00    1.77342E+01
 2.43391E+00    2.11096E+01
 2.44355E+00    2.44849E+01
 2.45754E+00    2.62642E+01
 2.46809E+00    2.75987E+01
 2.48399E+00    2.96005E+01
 2.50000E+00    3.16022E+01
 2.51844E+00    3.35852E+01
 2.53702E+00    3.55682E+01
 2.54515E+00    3.62116E+01
 2.55226E+00    3.68006E+01
 2.57665E+00    3.89313E+01
 2.58071E+00    3.90434E+01
 2.60511E+00    4.00722E+01
 2.62819E+00    4.10367E+01
 2.67202E+00    4.28451E+01
 2.71097E+00    4.44275E+01
 2.74552E+00    4.58121E+01
 2.77611E+00    4.70236E+01
 2.80315E+00    4.80837E+01
 2.85112E+00    4.99388E+01
 2.88763E+00    5.13302E+01
 2.94328E+00    5.34172E+01
 3.00000E+00    5.55042E+01
 3.05443E+00    5.44808E+01
 3.10635E+00    5.35213E+01
 3.15583E+00    5.26218E+01
 3.20293E+00    5.17786E+01
 3.24773E+00    5.09880E+01
 3.33342E+00    4.95057E+01
 3.41025E+00    4.82087E+01
 3.47893E+00    4.70738E+01
 3.54015E+00    4.60807E+01
 3.59461E+00    4.52118E+01
 3.64295E+00    4.44515E+01
 3.72911E+00    4.31210E+01
 3.79506E+00    4.21231E+01
 3.84529E+00    4.13747E+01
 3.92188E+00    4.02521E+01
 4.00000E+00    3.91295E+01
 5.00000E+00    2.11681E+01
 6.00000E+00    1.10313E+01
 7.00000E+00    4.88952E+00
 8.00000E+00    2.71559E+00
 9.00000E+00    2.25060E+00
 1.00000E+01    1.74246E+00
 1.10000E+01    9.08096E-01
 1.20000E+01    7.46500E-01
 1.30000E+01    9.64053E-01
 1.40000E+01    6.74009E-01
 1.50000E+01    5.24350E-01
 1.60000E+01    1.03074E+00
 1.70000E+01    6.47760E-01
 1.80000E+01    3.83524E-01
 1.90000E+01    3.45220E-01
 2.00000E+01    4.66855E-01
