# n + Cu 63 : (n,n'11)  
# jendl4.0   N.Yamamuro,T.Kawakita             EVAL-MAR87
# uncertainties: n
# # energies =    77
#   E(MeV)       xs(mb) 
 2.24339E+00    0.00000E+00
 2.24389E+00    8.77279E-02
 2.24488E+00    2.62497E-01
 2.24685E+00    6.09302E-01
 2.24879E+00    9.50688E-01
 2.25070E+00    1.28674E+00
 2.25447E+00    1.94834E+00
 2.25812E+00    2.58926E+00
 2.26167E+00    3.21016E+00
 2.26511E+00    3.81166E+00
 2.27180E+00    4.97705E+00
 2.27808E+00    6.06960E+00
 2.28399E+00    7.09387E+00
 2.28954E+00    8.05413E+00
 2.29476E+00    8.95436E+00
 2.30457E+00    1.06423E+01
 2.31320E+00    1.21193E+01
 2.32077E+00    1.34116E+01
 2.32741E+00    1.45424E+01
 2.33909E+00    1.65213E+01
 2.34788E+00    1.80054E+01
 2.36113E+00    2.02317E+01
 2.37446E+00    2.24579E+01
 2.39155E+00    2.40904E+01
 2.40444E+00    2.53147E+01
 2.42392E+00    2.71513E+01
 2.44355E+00    2.89878E+01
 2.47161E+00    3.09991E+01
 2.50000E+00    3.30104E+01
 2.51844E+00    3.43705E+01
 2.53702E+00    3.57307E+01
 2.54515E+00    3.63010E+01
 2.55226E+00    3.58967E+01
 2.57665E+00    3.68708E+01
 2.58071E+00    3.70466E+01
 2.62973E+00    3.82406E+01
 2.67339E+00    3.92854E+01
 2.71219E+00    4.01995E+01
 2.74660E+00    4.09994E+01
 2.80787E+00    4.23993E+01
 2.85472E+00    4.34491E+01
 2.89036E+00    4.42365E+01
 2.94467E+00    4.54176E+01
 3.00000E+00    4.65987E+01
 3.05443E+00    4.56604E+01
 3.10635E+00    4.47807E+01
 3.15583E+00    4.39560E+01
 3.20293E+00    4.31828E+01
 3.24773E+00    4.24580E+01
 3.29029E+00    4.17784E+01
 3.37161E+00    4.05043E+01
 3.44442E+00    3.93894E+01
 3.50941E+00    3.84139E+01
 3.56728E+00    3.75604E+01
 3.61870E+00    3.68135E+01
 3.66430E+00    3.61600E+01
 3.74549E+00    3.50163E+01
 3.80755E+00    3.41586E+01
 3.85478E+00    3.35153E+01
 3.92672E+00    3.25504E+01
 4.00000E+00    3.15854E+01
 5.00000E+00    1.90344E+01
 6.00000E+00    1.01463E+01
 7.00000E+00    4.61887E+00
 8.00000E+00    2.95328E+00
 9.00000E+00    2.27649E+00
 1.00000E+01    1.81716E+00
 1.10000E+01    9.62719E-01
 1.20000E+01    8.24050E-01
 1.30000E+01    1.09389E+00
 1.40000E+01    6.28743E-01
 1.50000E+01    7.41852E-01
 1.60000E+01    1.24565E+00
 1.70000E+01    7.94076E-01
 1.80000E+01    4.68785E-01
 1.90000E+01    4.32649E-01
 2.00000E+01    5.90731E-01
