# n + Cu 63 : (n,xa)    
# jendl4.0   N.Yamamuro,T.Kawakita             EVAL-MAR87
# 
# # energies =   150
#   E(MeV)        xs(mb) 
 6.80434E-01    0.00000E+00
 6.80649E-01    0.00000E+00
 6.81079E-01    0.00000E+00
 6.81507E-01    0.00000E+00
 6.82361E-01    0.00000E+00
 6.83210E-01    0.00000E+00
 6.84053E-01    0.00000E+00
 6.84890E-01    0.00000E+00
 6.86554E-01    0.00000E+00
 6.88197E-01    0.00000E+00
 6.89817E-01    0.00000E+00
 6.91416E-01    0.00000E+00
 6.92994E-01    0.00000E+00
 6.94551E-01    0.00000E+00
 6.96086E-01    0.00000E+00
 6.99120E-01    0.00000E+00
 7.02071E-01    0.00000E+00
 7.04941E-01    0.00000E+00
 7.07733E-01    0.00000E+00
 7.10449E-01    0.00000E+00
 7.13089E-01    0.00000E+00
 7.15657E-01    0.00000E+00
 7.18153E-01    0.00000E+00
 7.23014E-01    0.00000E+00
 7.27600E-01    0.00000E+00
 7.31927E-01    0.00000E+00
 7.36006E-01    0.00000E+00
 7.39852E-01    0.00000E+00
 7.43475E-01    0.00000E+00
 7.46888E-01    0.00000E+00
 7.53329E-01    0.00000E+00
 7.59010E-01    0.00000E+00
 7.64017E-01    0.00000E+00
 7.68425E-01    0.00000E+00
 7.72303E-01    0.00000E+00
 7.79136E-01    0.00000E+00
 7.84300E-01    0.00000E+00
 7.92111E-01    0.00000E+00
 8.00000E-01    0.00000E+00
 8.05026E-01    0.00000E+00
 8.09925E-01    0.00000E+00
 8.19502E-01    0.00000E+00
 8.28583E-01    0.00000E+00
 8.37187E-01    0.00000E+00
 8.45336E-01    0.00000E+00
 8.53047E-01    0.00000E+00
 8.60339E-01    0.00000E+00
 8.67233E-01    0.00000E+00
 8.73746E-01    0.00000E+00
 8.86090E-01    0.00000E+00
 8.97034E-01    0.00000E+00
 9.06721E-01    0.00000E+00
 9.15282E-01    0.00000E+00
 9.22840E-01    0.00000E+00
 9.36217E-01    0.00000E+00
 9.46376E-01    0.00000E+00
 9.61823E-01    0.00000E+00
 9.77521E-01    0.00000E+00
 9.80303E-01    0.00000E+00
 9.85191E-01    0.00000E+00
 9.88872E-01    0.00000E+00
 9.94421E-01    0.00000E+00
 1.00000E+00    0.00000E+00
 1.01404E+00    0.00000E+00
 1.02739E+00    0.00000E+00
 1.04006E+00    0.00000E+00
 1.05208E+00    0.00000E+00
 1.06348E+00    0.00000E+00
 1.07427E+00    0.00000E+00
 1.08449E+00    0.00000E+00
 1.09416E+00    0.00000E+00
 1.11253E+00    0.00000E+00
 1.12885E+00    0.00000E+00
 1.14333E+00    0.00000E+00
 1.15614E+00    0.00000E+00
 1.16748E+00    0.00000E+00
 1.18758E+00    0.00000E+00
 1.20289E+00    0.00000E+00
 1.22622E+00    0.00000E+00
 1.25000E+00    0.00000E+00
 1.27387E+00    0.00000E+00
 1.29208E+00    0.00000E+00
 1.31988E+00    0.00000E+00
 1.34827E+00    0.00000E+00
 1.36936E+00    0.00000E+00
 1.38539E+00    0.00000E+00
 1.39754E+00    0.00000E+00
 1.41596E+00    0.00000E+00
 1.43463E+00    0.00000E+00
 1.45070E+00    0.00000E+00
 1.46287E+00    0.00000E+00
 1.48132E+00    0.00000E+00
 1.50000E+00    0.00000E+00
 1.53548E+00    1.32271E-04
 1.57180E+00    2.67670E-04
 1.60853E+00    4.04600E-04
 1.64137E+00    5.27036E-04
 1.67066E+00    6.36216E-04
 1.69671E+00    7.33346E-04
 1.71984E+00    8.19576E-04
 1.76108E+00    9.73317E-04
 1.79266E+00    1.09104E-03
 1.84109E+00    1.27159E-03
 1.89083E+00    1.45701E-03
 1.94465E+00    1.65765E-03
 2.00000E+00    1.86400E-03
 2.04323E+00    2.28904E-03
 2.09505E+00    2.79853E-03
 2.11436E+00    2.98839E-03
 2.12655E+00    3.10824E-03
 2.18419E+00    3.67494E-03
 2.24339E+00    4.25701E-03
 2.30799E+00    4.89221E-03
 2.37446E+00    5.54569E-03
 2.44355E+00    6.22499E-03
 2.50000E+00    6.78000E-03
 2.53702E+00    9.59122E-03
 2.54515E+00    1.02086E-02
 2.55226E+00    1.07485E-02
 2.57665E+00    1.26006E-02
 2.58071E+00    1.29090E-02
 2.66401E+00    1.92346E-02
 2.75000E+00    2.57645E-02
 2.81048E+00    3.03569E-02
 2.90369E+00    3.74356E-02
 3.00000E+00    4.47490E-02
 3.11787E+00    8.82643E-02
 3.20930E+00    1.22019E-01
 3.35150E+00    1.74516E-01
 3.50000E+00    2.29340E-01
 3.62284E+00    2.74691E-01
 3.75000E+00    3.21635E-01
 3.87298E+00    3.67038E-01
 4.00000E+00    4.13930E-01
 5.00000E+00    1.81002E+00
 6.00000E+00    5.21650E+00
 7.00000E+00    1.21000E+01
 8.00000E+00    1.88000E+01
 9.00000E+00    2.54000E+01
 1.00000E+01    2.98415E+01
 1.10000E+01    3.43683E+01
 1.20000E+01    4.01951E+01
 1.30000E+01    4.66600E+01
 1.40000E+01    5.34285E+01
 1.50000E+01    5.99239E+01
 1.60000E+01    6.81609E+01
 1.70000E+01    7.54692E+01
 1.80000E+01    8.05405E+01
 1.90000E+01    8.54338E+01
 2.00000E+01    8.90730E+01
