# n + Cu 63 : (n,n'06)  
# jendl4.0   N.Yamamuro,T.Kawakita             EVAL-MAR87
# uncertainties: n
# # energies =    90
#   E(MeV)       xs(mb) 
 1.89083E+00    0.00000E+00
 1.89124E+00    2.10125E-01
 1.89207E+00    6.28727E-01
 1.89371E+00    1.45939E+00
 1.89533E+00    2.27707E+00
 1.89692E+00    3.08197E+00
 1.90006E+00    4.66662E+00
 1.90311E+00    6.20175E+00
 1.90606E+00    7.68891E+00
 1.90893E+00    9.12959E+00
 1.91450E+00    1.19209E+01
 1.91973E+00    1.45378E+01
 1.92465E+00    1.69911E+01
 1.92928E+00    1.92910E+01
 1.93362E+00    2.14473E+01
 1.94180E+00    2.54902E+01
 1.94898E+00    2.90278E+01
 1.95529E+00    3.21231E+01
 1.96082E+00    3.48316E+01
 1.97054E+00    3.95713E+01
 1.97787E+00    4.31261E+01
 1.98890E+00    4.84584E+01
 2.00000E+00    5.37906E+01
 2.01072E+00    5.59418E+01
 2.02691E+00    5.91687E+01
 2.04323E+00    6.23956E+01
 2.05606E+00    6.46498E+01
 2.07547E+00    6.80312E+01
 2.09505E+00    7.14125E+01
 2.11436E+00    7.44770E+01
 2.12655E+00    7.56307E+01
 2.15518E+00    7.81945E+01
 2.17690E+00    8.01174E+01
 2.20989E+00    8.30016E+01
 2.24339E+00    8.58859E+01
 2.27546E+00    8.80049E+01
 2.32443E+00    9.11833E+01
 2.37446E+00    9.43618E+01
 2.40876E+00    9.58160E+01
 2.44355E+00    9.72702E+01
 2.50000E+00    9.79927E+01
 2.53702E+00    9.92191E+01
 2.54515E+00    9.93416E+01
 2.55226E+00    9.84414E+01
 2.57665E+00    9.82172E+01
 2.58071E+00    9.79598E+01
 2.62973E+00    9.66018E+01
 2.67339E+00    9.54136E+01
 2.75155E+00    9.33342E+01
 2.81167E+00    9.17746E+01
 2.85761E+00    9.06049E+01
 2.92794E+00    8.88504E+01
 3.00000E+00    8.70959E+01
 3.05443E+00    8.45400E+01
 3.10635E+00    8.21438E+01
 3.15583E+00    7.98974E+01
 3.20293E+00    7.77914E+01
 3.24773E+00    7.58170E+01
 3.29029E+00    7.39660E+01
 3.33071E+00    7.22307E+01
 3.36904E+00    7.06039E+01
 3.40539E+00    6.90787E+01
 3.43981E+00    6.76489E+01
 3.50530E+00    6.49679E+01
 3.56363E+00    6.26221E+01
 3.61546E+00    6.05695E+01
 3.66143E+00    5.87735E+01
 3.70213E+00    5.72020E+01
 3.73811E+00    5.58269E+01
 3.80193E+00    5.34205E+01
 3.85051E+00    5.16157E+01
 3.88735E+00    5.02621E+01
 3.94327E+00    4.82317E+01
 4.00000E+00    4.62013E+01
 5.00000E+00    2.55379E+01
 6.00000E+00    1.11396E+01
 7.00000E+00    8.75228E+00
 8.00000E+00    4.17542E+00
 9.00000E+00    1.66202E+00
 1.00000E+01    3.20030E+00
 1.10000E+01    2.87241E+00
 1.20000E+01    1.60463E+00
 1.30000E+01    6.58037E-01
 1.40000E+01    1.85056E+00
 1.50000E+01    1.11938E+00
 1.60000E+01    4.75953E-01
 1.70000E+01    1.33840E+00
 1.80000E+01    1.33040E+00
 1.90000E+01    8.08017E-01
 2.00000E+01    3.39200E-01
