# n + Cu 63 : (n,n'10)  
# jendl4.0   N.Yamamuro,T.Kawakita             EVAL-MAR87
# uncertainties: n
# # energies =    78
#   E(MeV)       xs(mb) 
 2.12655E+00    0.00000E+00
 2.12699E+00    1.55096E-01
 2.12788E+00    4.64074E-01
 2.12964E+00    1.07720E+00
 2.13137E+00    1.68074E+00
 2.13308E+00    2.27486E+00
 2.13644E+00    3.44451E+00
 2.13970E+00    4.57762E+00
 2.14287E+00    5.67532E+00
 2.14594E+00    6.73871E+00
 2.15191E+00    8.79903E+00
 2.15751E+00    1.07306E+01
 2.16278E+00    1.25414E+01
 2.16774E+00    1.42391E+01
 2.17239E+00    1.58306E+01
 2.18114E+00    1.88148E+01
 2.18883E+00    2.14259E+01
 2.19557E+00    2.37106E+01
 2.20149E+00    2.57098E+01
 2.21189E+00    2.92083E+01
 2.21973E+00    3.18322E+01
 2.23153E+00    3.57680E+01
 2.24339E+00    3.97038E+01
 2.25937E+00    4.16520E+01
 2.27345E+00    4.33566E+01
 2.29829E+00    4.63398E+01
 2.31710E+00    4.85771E+01
 2.33131E+00    5.02551E+01
 2.35279E+00    5.27722E+01
 2.37446E+00    5.52892E+01
 2.40876E+00    5.82936E+01
 2.44355E+00    6.12980E+01
 2.47161E+00    6.28954E+01
 2.50000E+00    6.44929E+01
 2.53702E+00    6.70458E+01
 2.54515E+00    6.75264E+01
 2.55226E+00    6.72037E+01
 2.57665E+00    6.81169E+01
 2.58071E+00    6.81039E+01
 2.67969E+00    6.88765E+01
 2.75641E+00    6.94560E+01
 2.87563E+00    7.03253E+01
 3.00000E+00    7.11945E+01
 3.05443E+00    6.93877E+01
 3.10635E+00    6.76937E+01
 3.15583E+00    6.61057E+01
 3.20293E+00    6.46169E+01
 3.24773E+00    6.32212E+01
 3.29029E+00    6.19126E+01
 3.33071E+00    6.06859E+01
 3.36904E+00    5.95359E+01
 3.44212E+00    5.73795E+01
 3.50736E+00    5.54927E+01
 3.56546E+00    5.38417E+01
 3.61708E+00    5.23971E+01
 3.66286E+00    5.11331E+01
 3.70340E+00    5.00271E+01
 3.77542E+00    4.80916E+01
 3.83036E+00    4.66399E+01
 3.87208E+00    4.55512E+01
 3.93552E+00    4.39181E+01
 4.00000E+00    4.22850E+01
 5.00000E+00    2.31984E+01
 6.00000E+00    1.05977E+01
 7.00000E+00    5.24777E+00
 8.00000E+00    3.26776E+00
 9.00000E+00    1.63024E+00
 1.00000E+01    1.52368E+00
 1.10000E+01    1.00200E+00
 1.20000E+01    8.42831E-01
 1.30000E+01    6.50221E-01
 1.40000E+01    6.23550E-01
 1.50000E+01    7.26448E-01
 1.60000E+01    4.71139E-01
 1.70000E+01    6.26482E-01
 1.80000E+01    4.46169E-01
 1.90000E+01    4.08823E-01
 2.00000E+01    3.37088E-01
