# n + Cu 63 : (n,el)    
# jendl4.0   N.Yamamuro,T.Kawakita             EVAL-MAR87
# uncertainties: n
# # energies =   171
#   E(MeV)       xs(mb) 
 1.00000E-11    1.03678E+04
 1.00000E-07    5.10664E+03
 4.13990E-07    5.10146E+03
 5.31580E-07    5.09995E+03
 6.82560E-07    5.09860E+03
 8.76420E-07    5.09686E+03
 1.12540E-06    5.09463E+03
 1.44500E-06    5.09177E+03
 1.85540E-06    5.08818E+03
 2.37240E-06    5.08423E+03
 3.05900E-06    5.07935E+03
 3.92790E-06    5.07312E+03
 5.04350E-06    5.06513E+03
 6.47600E-06    5.05487E+03
 8.31530E-06    5.04169E+03
 1.06770E-05    5.02476E+03
 1.37100E-05    5.00304E+03
 1.76030E-05    4.97514E+03
 2.26030E-05    4.93879E+03
 2.92030E-05    4.89378E+03
 3.72670E-05    4.84459E+03
 4.78510E-05    4.78234E+03
 6.14420E-05    4.70398E+03
 7.88930E-05    4.61677E+03
 1.01300E-04    4.51000E+03
 1.30070E-04    4.39007E+03
 1.67020E-04    4.24858E+03
 2.14450E-04    4.08388E+03
 2.75360E-04    3.88069E+03
 3.53580E-04    3.60385E+03
 4.54000E-04    1.20181E+04
 5.82950E-04    5.27422E+03
 7.48520E-04    3.46780E+03
 9.61120E-04    3.05055E+03
 1.23410E-03    2.58747E+03
 1.58460E-03    2.58582E+04
 2.03470E-03    9.35167E+04
 2.24870E-03    7.71506E+03
 2.48520E-03    4.06691E+03
 2.61260E-03    4.07500E+04
 2.74650E-03    5.17027E+03
 3.03540E-03    3.91483E+03
 3.35460E-03    3.26461E+03
 3.70740E-03    2.43696E+03
 4.30740E-03    1.83843E+04
 5.53080E-03    6.68614E+03
 7.10170E-03    1.58937E+04
 9.11880E-03    2.18780E+04
 1.17090E-02    1.03651E+04
 1.50340E-02    8.36623E+03
 1.93050E-02    1.06133E+04
 2.18750E-02    1.04602E+04
 2.35790E-02    5.08737E+03
 2.41760E-02    2.06564E+03
 2.47880E-02    2.00958E+04
 2.60580E-02    1.50814E+04
 2.70000E-02    6.01828E+03
 2.85000E-02    9.90253E+03
 3.18280E-02    9.71458E+03
 3.43070E-02    6.61036E+03
 4.08680E-02    8.34252E+03
 4.63090E-02    4.54304E+03
 5.24750E-02    1.29426E+04
 5.65620E-02    7.38242E+03
 6.73790E-02    4.81687E+03
 7.20000E-02    8.96565E+03
 7.95000E-02    9.68925E+03
 8.25000E-02    7.30353E+03
 8.65170E-02    6.41178E+03
 9.80370E-02    6.32382E+03
 1.11090E-01    5.11850E+03
 1.16790E-01    4.63560E+03
 1.22770E-01    6.14382E+03
 1.29070E-01    5.02109E+03
 1.35690E-01    8.84319E+03
 1.42640E-01    5.71553E+03
 1.49960E-01    5.64047E+03
 1.57640E-01    5.34776E+03
 1.65730E-01    6.27035E+03
 1.74220E-01    5.22118E+03
 1.83160E-01    4.77966E+03
 1.92550E-01    6.43746E+03
 2.02420E-01    5.81907E+03
 2.12800E-01    5.74725E+03
 2.23710E-01    5.46078E+03
 2.35180E-01    4.89110E+03
 2.47240E-01    5.40739E+03
 2.73240E-01    4.81133E+03
 2.87250E-01    5.85550E+03
 2.94520E-01    5.02049E+03
 2.97200E-01    6.58965E+03
 2.98500E-01    4.89517E+03
 3.01970E-01    4.95960E+03
 3.33730E-01    4.78426E+03
 3.68830E-01    4.41430E+03
 3.87740E-01    4.21942E+03
 4.07620E-01    4.39524E+03
 4.50490E-01    4.85242E+03
 4.97870E-01    4.32714E+03
 5.23400E-01    4.36651E+03
 5.50230E-01    4.01435E+03
 5.78440E-01    4.22511E+03
 6.08100E-01    4.10841E+03
 6.39280E-01    3.84678E+03
 6.72060E-01    3.73151E+03
 7.06510E-01    3.67058E+03
 7.42740E-01    3.56377E+03
 7.80820E-01    3.64740E+03
 8.20850E-01    3.51337E+03
 8.62940E-01    3.56036E+03
 9.07180E-01    3.40665E+03
 9.61640E-01    3.23500E+03
 1.00260E+00    3.17099E+03
 1.10800E+00    2.87611E+03
 1.16480E+00    2.79121E+03
 1.22460E+00    2.70396E+03
 1.28730E+00    2.62685E+03
 1.35340E+00    2.51711E+03
 1.42270E+00    2.39965E+03
 1.49570E+00    2.30636E+03
 1.57240E+00    2.23794E+03
 1.65300E+00    2.16976E+03
 1.73770E+00    2.09972E+03
 1.82680E+00    2.04613E+03
 1.92050E+00    1.99922E+03
 2.01900E+00    1.95761E+03
 2.12250E+00    1.90282E+03
 2.23130E+00    1.86656E+03
 2.30690E+00    1.85512E+03
 2.34570E+00    1.84960E+03
 2.36530E+00    1.84587E+03
 2.38520E+00    1.83641E+03
 2.46600E+00    1.81667E+03
 2.59240E+00    1.79198E+03
 2.72530E+00    1.78047E+03
 2.86500E+00    1.78461E+03
 3.01190E+00    1.80060E+03
 3.16640E+00    1.82584E+03
 3.32870E+00    1.86631E+03
 3.67880E+00    1.92158E+03
 4.06570E+00    1.98881E+03
 4.49330E+00    2.02962E+03
 4.72370E+00    2.05582E+03
 4.96590E+00    2.09242E+03
 5.22050E+00    2.12871E+03
 5.48810E+00    2.14000E+03
 5.76950E+00    2.15127E+03
 6.06530E+00    2.15403E+03
 6.37630E+00    2.15292E+03
 6.59240E+00    2.15223E+03
 6.70320E+00    2.15113E+03
 7.04690E+00    2.13849E+03
 7.40820E+00    2.11838E+03
 7.78800E+00    2.09724E+03
 8.18730E+00    2.07502E+03
 8.60710E+00    2.05155E+03
 9.04840E+00    2.01641E+03
 9.51230E+00    1.97234E+03
 1.00000E+01    1.92630E+03
 1.05130E+01    1.87819E+03
 1.10520E+01    1.81407E+03
 1.16180E+01    1.73484E+03
 1.22140E+01    1.65770E+03
 1.28400E+01    1.58001E+03
 1.34990E+01    1.52220E+03
 1.38400E+01    1.48279E+03
 1.41910E+01    1.44399E+03
 1.45500E+01    1.40449E+03
 1.49180E+01    1.34577E+03
 1.56830E+01    1.27257E+03
 1.64870E+01    1.21878E+03
