# n + Cu 63 : (n,n'05)  
# jendl4.0   N.Yamamuro,T.Kawakita             EVAL-MAR87
# uncertainties: n
# # energies =   108
#   E(MeV)       xs(mb) 
 1.57180E+00    0.00000E+00
 1.57237E+00    2.17467E-01
 1.57350E+00    6.51547E-01
 1.57463E+00    1.08393E+00
 1.57576E+00    1.51463E+00
 1.57800E+00    2.37265E+00
 1.58023E+00    3.22397E+00
 1.58245E+00    4.06864E+00
 1.58465E+00    4.90670E+00
 1.58903E+00    6.56975E+00
 1.59336E+00    8.20680E+00
 1.59762E+00    9.81828E+00
 1.60183E+00    1.14046E+01
 1.60599E+00    1.29661E+01
 1.61009E+00    1.45032E+01
 1.61414E+00    1.60163E+01
 1.61814E+00    1.75057E+01
 1.62603E+00    2.04381E+01
 1.63372E+00    2.32788E+01
 1.64120E+00    2.60308E+01
 1.64847E+00    2.86967E+01
 1.65556E+00    3.12793E+01
 1.66244E+00    3.37813E+01
 1.66914E+00    3.62050E+01
 1.67566E+00    3.85530E+01
 1.68200E+00    4.08277E+01
 1.69435E+00    4.52347E+01
 1.70601E+00    4.93664E+01
 1.71701E+00    5.32398E+01
 1.72739E+00    5.68711E+01
 1.73718E+00    6.02755E+01
 1.74640E+00    6.34671E+01
 1.75510E+00    6.64592E+01
 1.77152E+00    7.20694E+01
 1.78601E+00    7.69784E+01
 1.79879E+00    8.12737E+01
 1.81004E+00    8.50321E+01
 1.81995E+00    8.83207E+01
 1.83742E+00    9.40758E+01
 1.85063E+00    9.83921E+01
 1.87062E+00    1.04867E+02
 1.89083E+00    1.11341E+02
 1.91755E+00    1.14586E+02
 1.93784E+00    1.17019E+02
 1.96867E+00    1.20669E+02
 2.00000E+00    1.24319E+02
 2.04323E+00    1.28768E+02
 2.09505E+00    1.30045E+02
 2.11436E+00    1.30148E+02
 2.12655E+00    1.29461E+02
 2.24339E+00    1.30684E+02
 2.37446E+00    1.31492E+02
 2.44355E+00    1.29591E+02
 2.50000E+00    1.27801E+02
 2.53702E+00    1.27253E+02
 2.54515E+00    1.26268E+02
 2.55226E+00    1.25805E+02
 2.57665E+00    1.23997E+02
 2.58071E+00    1.23390E+02
 2.62973E+00    1.19849E+02
 2.67339E+00    1.16750E+02
 2.71219E+00    1.14039E+02
 2.74660E+00    1.11666E+02
 2.77707E+00    1.09591E+02
 2.83120E+00    1.05958E+02
 2.87249E+00    1.03233E+02
 2.90385E+00    1.01190E+02
 2.95153E+00    9.81248E+01
 3.00000E+00    9.50597E+01
 3.05443E+00    9.18847E+01
 3.10635E+00    8.89081E+01
 3.15583E+00    8.61176E+01
 3.20293E+00    8.35014E+01
 3.24773E+00    8.10488E+01
 3.29029E+00    7.87495E+01
 3.33071E+00    7.65939E+01
 3.36904E+00    7.45730E+01
 3.40539E+00    7.26784E+01
 3.43981E+00    7.09022E+01
 3.47240E+00    6.92370E+01
 3.50324E+00    6.76759E+01
 3.56179E+00    6.47489E+01
 3.61383E+00    6.21877E+01
 3.65998E+00    5.99467E+01
 3.70085E+00    5.79858E+01
 3.73698E+00    5.62700E+01
 3.76889E+00    5.47687E+01
 3.82539E+00    5.21414E+01
 3.86831E+00    5.01709E+01
 3.90082E+00    4.86931E+01
 3.95010E+00    4.64763E+01
 4.00000E+00    4.42595E+01
 5.00000E+00    2.46910E+01
 6.00000E+00    8.90281E+00
 7.00000E+00    4.56257E+00
 8.00000E+00    4.50847E+00
 9.00000E+00    3.60013E+00
 1.00000E+01    7.12203E-01
 1.10000E+01    9.13926E-01
 1.20000E+01    1.93610E+00
 1.30000E+01    1.87228E+00
 1.40000E+01    5.45770E-01
 1.50000E+01    1.31158E+00
 1.60000E+01    1.33315E+00
 1.70000E+01    2.26024E-01
 1.80000E+01    3.91415E-01
 1.90000E+01    9.43125E-01
 2.00000E+01    9.48779E-01
