# n + Cu 63 : (n,n'04)  
# jendl4.0   N.Yamamuro,T.Kawakita             EVAL-MAR87
# uncertainties: n
# # energies =   103
#   E(MeV)       xs(mb) 
 1.43463E+00    0.00000E+00
 1.43513E+00    6.57511E-01
 1.43612E+00    1.96224E+00
 1.43710E+00    3.24659E+00
 1.43902E+00    5.77514E+00
 1.44089E+00    8.22467E+00
 1.44270E+00    1.05977E+01
 1.44446E+00    1.28965E+01
 1.44787E+00    1.73504E+01
 1.45107E+00    2.15260E+01
 1.45408E+00    2.54407E+01
 1.45691E+00    2.91106E+01
 1.46223E+00    3.59917E+01
 1.46690E+00    4.20128E+01
 1.47100E+00    4.72811E+01
 1.47459E+00    5.18910E+01
 1.48090E+00    5.99582E+01
 1.48565E+00    6.60086E+01
 1.49281E+00    7.50841E+01
 1.50000E+00    8.41597E+01
 1.50879E+00    8.77372E+01
 1.52430E+00    9.39979E+01
 1.53604E+00    9.86935E+01
 1.55382E+00    1.05737E+02
 1.57180E+00    1.12780E+02
 1.59006E+00    1.16732E+02
 1.60737E+00    1.20437E+02
 1.62377E+00    1.23910E+02
 1.63930E+00    1.27166E+02
 1.65399E+00    1.30219E+02
 1.68189E+00    1.35943E+02
 1.70669E+00    1.40951E+02
 1.72869E+00    1.45334E+02
 1.74817E+00    1.49168E+02
 1.76540E+00    1.52523E+02
 1.79595E+00    1.58395E+02
 1.81922E+00    1.62799E+02
 1.85468E+00    1.69404E+02
 1.89083E+00    1.76010E+02
 1.94465E+00    1.79884E+02
 2.00000E+00    1.83758E+02
 2.04323E+00    1.87367E+02
 2.09505E+00    1.88491E+02
 2.11436E+00    1.88881E+02
 2.12655E+00    1.87078E+02
 2.18419E+00    1.84663E+02
 2.24339E+00    1.82248E+02
 2.30799E+00    1.80365E+02
 2.37446E+00    1.78482E+02
 2.44355E+00    1.73834E+02
 2.50000E+00    1.69695E+02
 2.53702E+00    1.67775E+02
 2.54515E+00    1.66718E+02
 2.55226E+00    1.65781E+02
 2.57665E+00    1.63493E+02
 2.58071E+00    1.62598E+02
 2.62203E+00    1.58499E+02
 2.65345E+00    1.55426E+02
 2.70129E+00    1.50815E+02
 2.75000E+00    1.46204E+02
 2.78007E+00    1.43389E+02
 2.83350E+00    1.38462E+02
 2.87423E+00    1.34768E+02
 2.90517E+00    1.31996E+02
 2.95221E+00    1.27840E+02
 3.00000E+00    1.23683E+02
 3.05837E+00    1.19518E+02
 3.11037E+00    1.15874E+02
 3.15660E+00    1.12686E+02
 3.19761E+00    1.09896E+02
 3.23393E+00    1.07454E+02
 3.26605E+00    1.05318E+02
 3.32303E+00    1.01580E+02
 3.36641E+00    9.87763E+01
 3.39932E+00    9.66735E+01
 3.44930E+00    9.35194E+01
 3.50000E+00    9.03653E+01
 3.56089E+00    8.66385E+01
 3.60726E+00    8.38434E+01
 3.64242E+00    8.17471E+01
 3.69582E+00    7.86027E+01
 3.75000E+00    7.54582E+01
 3.81100E+00    7.19753E+01
 3.85739E+00    6.93632E+01
 3.89256E+00    6.74041E+01
 3.94591E+00    6.44654E+01
 4.00000E+00    6.15267E+01
 5.00000E+00    3.40827E+01
 6.00000E+00    1.92110E+01
 7.00000E+00    1.33127E+01
 8.00000E+00    9.46968E+00
 9.00000E+00    8.00435E+00
 1.00000E+01    6.85011E+00
 1.10000E+01    6.70336E+00
 1.20000E+01    5.76967E+00
 1.30000E+01    5.49928E+00
 1.40000E+01    5.42465E+00
 1.50000E+01    4.86378E+00
 1.60000E+01    4.70964E+00
 1.70000E+01    4.43733E+00
 1.80000E+01    4.47448E+00
 1.90000E+01    4.01772E+00
 2.00000E+01    3.85956E+00
