# n + Cu 63 : (n,n'02)  
# jendl4.0   N.Yamamuro,T.Kawakita             EVAL-MAR87
# uncertainties: n
# # energies =   111
#   E(MeV)       xs(mb) 
 9.77521E-01    0.00000E+00
 9.77868E-01    1.82424E+00
 9.78552E-01    5.41571E+00
 9.79216E-01    8.89494E+00
 9.80502E-01    1.56359E+01
 9.81709E-01    2.19556E+01
 9.82843E-01    2.78804E+01
 9.84971E-01    3.89892E+01
 9.86837E-01    4.87094E+01
 9.88473E-01    5.72146E+01
 9.91342E-01    7.20987E+01
 9.93500E-01    8.32618E+01
 9.96745E-01    1.00006E+02
 1.00000E+00    1.16751E+02
 1.00700E+00    1.22357E+02
 1.01382E+00    1.27787E+02
 1.02048E+00    1.33048E+02
 1.02697E+00    1.38144E+02
 1.03330E+00    1.43082E+02
 1.04567E+00    1.52647E+02
 1.05740E+00    1.61615E+02
 1.06851E+00    1.70023E+02
 1.07904E+00    1.77904E+02
 1.08900E+00    1.85294E+02
 1.09843E+00    1.92221E+02
 1.10734E+00    1.98716E+02
 1.11576E+00    2.04804E+02
 1.13172E+00    2.16220E+02
 1.14587E+00    2.26209E+02
 1.15839E+00    2.34950E+02
 1.16947E+00    2.42598E+02
 1.17924E+00    2.49290E+02
 1.19655E+00    2.61001E+02
 1.20969E+00    2.69784E+02
 1.22968E+00    2.82958E+02
 1.25000E+00    2.96133E+02
 1.27387E+00    3.06467E+02
 1.29208E+00    3.14218E+02
 1.31988E+00    3.25845E+02
 1.34827E+00    3.37471E+02
 1.39078E+00    3.40281E+02
 1.43463E+00    3.43090E+02
 1.46695E+00    3.39943E+02
 1.50000E+00    3.36795E+02
 1.57180E+00    3.41524E+02
 1.72395E+00    3.39587E+02
 1.89083E+00    3.37650E+02
 1.94465E+00    3.31528E+02
 2.00000E+00    3.25407E+02
 2.04323E+00    3.22687E+02
 2.09505E+00    3.15176E+02
 2.11436E+00    3.12491E+02
 2.12655E+00    3.08145E+02
 2.15518E+00    3.02728E+02
 2.19884E+00    2.94602E+02
 2.24339E+00    2.86476E+02
 2.27546E+00    2.82129E+02
 2.32443E+00    2.75607E+02
 2.37446E+00    2.69086E+02
 2.40876E+00    2.63700E+02
 2.44355E+00    2.58314E+02
 2.50000E+00    2.49695E+02
 2.53702E+00    2.45274E+02
 2.54515E+00    2.43526E+02
 2.55226E+00    2.41866E+02
 2.57665E+00    2.37718E+02
 2.58071E+00    2.36432E+02
 2.62203E+00    2.30375E+02
 2.65345E+00    2.25833E+02
 2.70129E+00    2.19019E+02
 2.75000E+00    2.12205E+02
 2.78007E+00    2.08049E+02
 2.83350E+00    2.00776E+02
 2.87423E+00    1.95321E+02
 2.90517E+00    1.91230E+02
 2.95221E+00    1.85093E+02
 3.00000E+00    1.78956E+02
 3.05837E+00    1.74115E+02
 3.11037E+00    1.69880E+02
 3.15660E+00    1.66174E+02
 3.19761E+00    1.62931E+02
 3.23393E+00    1.60093E+02
 3.29849E+00    1.55128E+02
 3.34775E+00    1.51404E+02
 3.38518E+00    1.48610E+02
 3.44211E+00    1.44421E+02
 3.50000E+00    1.40231E+02
 3.56089E+00    1.35952E+02
 3.60726E+00    1.32742E+02
 3.67794E+00    1.27927E+02
 3.75000E+00    1.23113E+02
 3.81100E+00    1.19127E+02
 3.85739E+00    1.16137E+02
 3.92805E+00    1.11653E+02
 4.00000E+00    1.07168E+02
 5.00000E+00    8.32594E+01
 6.00000E+00    6.55996E+01
 7.00000E+00    5.38006E+01
 8.00000E+00    4.71983E+01
 9.00000E+00    4.23781E+01
 1.00000E+01    3.79083E+01
 1.10000E+01    3.49691E+01
 1.20000E+01    3.28555E+01
 1.30000E+01    3.11080E+01
 1.40000E+01    2.93589E+01
 1.50000E+01    2.81406E+01
 1.60000E+01    2.69241E+01
 1.70000E+01    2.54765E+01
 1.80000E+01    2.42756E+01
 1.90000E+01    2.31051E+01
 2.00000E+01    2.19730E+01
