# n + Gd157 : (n,n'20)  
# tendl.2019 A.J. Koning and D. Rochman        EVAL-NOV19
# uncertainties: n
# # energies =    80
#   E(MeV)       xs(mb) 
 5.83185E-01    0.00000E+00
 6.00000E-01    1.09432E+01
 6.11494E-01    1.45933E+01
 6.16336E-01    1.61310E+01
 6.21449E-01    1.77547E+01
 6.44677E-01    2.51312E+01
 6.59915E-01    2.99703E+01
 6.68801E-01    3.27923E+01
 6.87290E-01    3.86638E+01
 6.89354E-01    3.93193E+01
 6.91082E-01    3.98680E+01
 7.00000E-01    4.27001E+01
 7.05898E-01    4.33986E+01
 8.00000E-01    5.45438E+01
 9.00000E-01    5.94902E+01
 1.00000E+00    6.19201E+01
 1.20000E+00    6.32240E+01
 1.40000E+00    6.06341E+01
 1.60000E+00    5.48491E+01
 1.80000E+00    4.67194E+01
 2.00000E+00    3.75472E+01
 2.20000E+00    2.88839E+01
 2.40000E+00    2.15183E+01
 2.60000E+00    1.56989E+01
 2.80000E+00    1.13194E+01
 3.00000E+00    8.11724E+00
 3.20000E+00    5.96665E+00
 3.40000E+00    4.27518E+00
 3.60000E+00    3.13313E+00
 3.80000E+00    2.25195E+00
 4.00000E+00    1.61904E+00
 4.20000E+00    1.16553E+00
 4.40000E+00    8.39703E-01
 4.60000E+00    6.05766E-01
 4.80000E+00    4.37990E-01
 5.00000E+00    3.16901E-01
 5.20000E+00    2.30290E-01
 5.40000E+00    1.67583E-01
 5.60000E+00    1.22362E-01
 5.80000E+00    8.97619E-02
 6.00000E+00    6.56624E-02
 6.20000E+00    4.84401E-02
 6.40000E+00    3.58368E-02
 6.60000E+00    2.66083E-02
 6.80000E+00    1.98579E-02
 7.00000E+00    1.48560E-02
 7.20000E+00    1.11771E-02
 7.40000E+00    8.42909E-03
 7.60000E+00    6.37685E-03
 7.80000E+00    4.84272E-03
 8.00000E+00    3.68276E-03
 8.50000E+00    1.88460E-03
 9.00000E+00    9.80597E-04
 9.50000E+00    5.18590E-04
 1.00000E+01    2.78391E-04
 1.05000E+01    1.51592E-04
 1.10000E+01    8.37347E-05
 1.15000E+01    4.68204E-05
 1.20000E+01    2.65197E-05
 1.25000E+01    1.51961E-05
 1.30000E+01    8.79413E-06
 1.35000E+01    5.14729E-06
 1.40000E+01    3.04305E-06
 1.45000E+01    1.81407E-06
 1.50000E+01    1.09076E-06
 1.60000E+01    4.05080E-07
 1.70000E+01    1.54670E-07
 1.80000E+01    6.04640E-08
 1.90000E+01    2.40850E-08
 2.00000E+01    9.87670E-09
 2.10000E+01    4.14170E-09
 2.20000E+01    1.76800E-09
 2.30000E+01    7.69690E-10
 2.40000E+01    3.42150E-10
 2.50000E+01    1.54660E-10
 2.60000E+01    7.10540E-11
 2.70000E+01    3.31360E-11
 2.80000E+01    1.56550E-11
 2.90000E+01    7.48710E-12
 3.00000E+01    3.62290E-12
