# n + Cd111 : (n,n'20)  
# tendl.2019 A.J. Koning and D. Rochman        EVAL-NOV19
# uncertainties: n
# # energies =    75
#   E(MeV)       xs(mb) 
 1.02928E+00    0.00000E+00
 1.05628E+00    8.44603E+00
 1.06711E+00    1.18338E+01
 1.08806E+00    1.83873E+01
 1.12571E+00    3.01648E+01
 1.12858E+00    3.10625E+01
 1.14028E+00    3.47225E+01
 1.16147E+00    4.13511E+01
 1.19651E+00    5.23120E+01
 1.20000E+00    5.34038E+01
 1.20078E+00    5.34065E+01
 1.26802E+00    5.36355E+01
 1.40000E+00    5.40850E+01
 1.60000E+00    4.77376E+01
 1.80000E+00    4.07716E+01
 2.00000E+00    3.41887E+01
 2.20000E+00    2.81889E+01
 2.40000E+00    2.27186E+01
 2.60000E+00    1.80077E+01
 2.80000E+00    1.40353E+01
 3.00000E+00    1.07816E+01
 3.20000E+00    8.19607E+00
 3.40000E+00    6.18598E+00
 3.60000E+00    4.65281E+00
 3.80000E+00    3.49799E+00
 4.00000E+00    2.63563E+00
 4.20000E+00    1.99416E+00
 4.40000E+00    1.51713E+00
 4.60000E+00    1.16092E+00
 4.80000E+00    8.93687E-01
 5.00000E+00    6.91885E-01
 5.20000E+00    5.37973E-01
 5.40000E+00    4.20084E-01
 5.60000E+00    3.28410E-01
 5.80000E+00    2.57431E-01
 6.00000E+00    2.01716E-01
 6.20000E+00    1.58296E-01
 6.40000E+00    1.24221E-01
 6.60000E+00    9.73799E-02
 6.80000E+00    7.61468E-02
 7.00000E+00    5.96559E-02
 7.20000E+00    4.68369E-02
 7.40000E+00    3.67965E-02
 7.60000E+00    2.88568E-02
 7.80000E+00    2.26999E-02
 8.00000E+00    1.78377E-02
 8.50000E+00    9.81814E-03
 9.00000E+00    5.45536E-03
 9.50000E+00    3.06778E-03
 1.00000E+01    1.74908E-03
 1.05000E+01    1.01095E-03
 1.10000E+01    5.92162E-04
 1.15000E+01    3.50969E-04
 1.20000E+01    2.10208E-04
 1.25000E+01    1.27108E-04
 1.30000E+01    7.75385E-05
 1.35000E+01    4.77068E-05
 1.40000E+01    2.95840E-05
 1.45000E+01    1.84911E-05
 1.50000E+01    1.16427E-05
 1.60000E+01    4.70673E-06
 1.70000E+01    1.95228E-06
 1.80000E+01    8.28640E-07
 1.90000E+01    3.60010E-07
 2.00000E+01    1.59710E-07
 2.10000E+01    7.16510E-08
 2.20000E+01    3.29660E-08
 2.30000E+01    1.54620E-08
 2.40000E+01    7.37030E-09
 2.50000E+01    3.55990E-09
 2.60000E+01    1.73940E-09
 2.70000E+01    8.58820E-10
 2.80000E+01    4.28860E-10
 2.90000E+01    2.16180E-10
 3.00000E+01    1.10150E-10
