# n + U 232 : (n,n'04)  
# jendl4.0   O.Iwamoto, T.Nakagawa, et al.     EVAL-JAN10
# uncertainties: y
# # energies =    67
#   E(MeV)       xs(mb)       xslow(mb)      xsupp(mb)
 5.43352E-01    0.00000E+00    0.00000E+00    0.00000E+00
 5.65642E-01    1.79120E-07    2.23900E-08    3.35850E-07
 6.00000E-01    2.96852E-06    3.71065E-07    5.56597E-06
 6.31701E-01    1.28454E-05    1.60568E-06    2.40851E-05
 6.94215E-01    8.60743E-05    1.07593E-05    1.61389E-04
 7.00000E-01    1.29996E-04    1.62495E-05    2.43742E-04
 7.37753E-01    6.34030E-04    7.92538E-05    1.18881E-03
 7.50147E-01    8.26470E-04    1.03309E-04    1.54963E-03
 8.00000E-01    1.71012E-03    6.61817E-04    2.75842E-03
 8.09303E-01    1.90644E-03    7.37792E-04    3.07509E-03
 8.36691E-01    2.55805E-03    9.89965E-04    4.12613E-03
 8.70560E-01    3.52747E-03    1.36513E-03    5.68981E-03
 9.00000E-01    4.55939E-03    1.76448E-03    7.35430E-03
 9.15382E-01    5.18216E-03    2.00550E-03    8.35882E-03
 9.19078E-01    5.34062E-03    2.06682E-03    8.61442E-03
 9.74900E-01    8.24397E-03    3.19042E-03    1.32975E-02
 9.89081E-01    9.14714E-03    3.53994E-03    1.47543E-02
 1.00000E+00    1.49726E-02    5.71953E-03    2.42257E-02
 1.02127E+00    2.24950E-02    8.59309E-03    3.63969E-02
 1.10000E+00    2.87652E-02    1.09883E-02    4.65421E-02
 1.20000E+00    5.10206E-02    2.07144E-02    8.13268E-02
 1.30000E+00    9.02515E-02    3.66421E-02    1.43861E-01
 1.40000E+00    1.34637E-01    5.46626E-02    2.14611E-01
 1.50000E+00    2.07413E-01    8.69060E-02    3.27920E-01
 1.60000E+00    2.83346E-01    1.18722E-01    4.47970E-01
 1.70000E+00    3.91351E-01    1.63976E-01    6.18726E-01
 1.80000E+00    4.97905E-01    2.08622E-01    7.87188E-01
 1.90000E+00    6.38856E-01    2.67681E-01    1.01003E+00
 2.00000E+00    7.74787E-01    2.74275E-01    1.27530E+00
 2.30000E+00    1.29098E+00    4.57007E-01    2.12495E+00
 2.50000E+00    1.70066E+00    4.21764E-01    2.97956E+00
 2.70000E+00    2.52358E+00    6.25848E-01    4.42131E+00
 3.00000E+00    3.50748E+00    1.33635E+00    5.67861E+00
 3.50000E+00    4.45800E+00    1.99273E+00    6.92327E+00
 4.00000E+00    5.40379E+00    2.58301E+00    8.22457E+00
 4.50000E+00    5.67183E+00    2.71113E+00    8.63253E+00
 5.00000E+00    5.87544E+00    3.33137E+00    8.41951E+00
 5.50000E+00    6.03715E+00    3.42306E+00    8.65124E+00
 6.00000E+00    6.16554E+00    3.67466E+00    8.65642E+00
 6.50000E+00    6.21079E+00    3.70163E+00    8.71995E+00
 7.00000E+00    6.20341E+00    3.82130E+00    8.58552E+00
 7.50000E+00    6.00979E+00    3.70203E+00    8.31755E+00
 8.00000E+00    5.76809E+00    3.77810E+00    7.75808E+00
 8.50000E+00    5.46482E+00    3.57946E+00    7.35018E+00
 9.00000E+00    5.13938E+00    3.59243E+00    6.68633E+00
 9.50000E+00    4.84997E+00    3.39013E+00    6.30981E+00
 1.00000E+01    4.54329E+00    3.31206E+00    5.77452E+00
 1.05000E+01    4.27508E+00    3.11653E+00    5.43363E+00
 1.10000E+01    4.00386E+00    2.91881E+00    5.08891E+00
 1.15000E+01    3.74723E+00    2.73173E+00    4.76273E+00
 1.20000E+01    3.48110E+00    2.61431E+00    4.34789E+00
 1.25000E+01    3.24517E+00    2.43712E+00    4.05322E+00
 1.30000E+01    3.01431E+00    2.26375E+00    3.76487E+00
 1.35000E+01    2.81162E+00    2.11153E+00    3.51171E+00
 1.40000E+01    2.60818E+00    1.97700E+00    3.23936E+00
 1.45000E+01    2.42296E+00    1.83660E+00    3.00932E+00
 1.50000E+01    2.24129E+00    1.69442E+00    2.78816E+00
 1.55000E+01    2.08395E+00    1.57547E+00    2.59243E+00
 1.60000E+01    1.93796E+00    1.45928E+00    2.41664E+00
 1.65000E+01    1.80956E+00    1.36260E+00    2.25652E+00
 1.70000E+01    1.69666E+00    1.27758E+00    2.11573E+00
 1.75000E+01    1.59532E+00    1.20128E+00    1.98936E+00
 1.80000E+01    1.49983E+00    1.12937E+00    1.87029E+00
 1.85000E+01    1.41414E+00    1.06485E+00    1.76343E+00
 1.90000E+01    1.33398E+00    1.00449E+00    1.66347E+00
 1.95000E+01    1.26265E+00    9.50776E-01    1.57452E+00
 2.00000E+01    1.19597E+00    9.00565E-01    1.49137E+00
