# n + U 232 : (n,el)    
# jendl4.0   O.Iwamoto, T.Nakagawa, et al.     EVAL-JAN10
# uncertainties: y
# # energies =    69
#   E(MeV)       xs(mb)       xslow(mb)      xsupp(mb)
 1.00000E-10    1.23114E+04    1.23114E+04    1.23114E+04
 5.00000E-09    1.09211E+04    1.09211E+04    1.09211E+04
 1.00000E-08    1.08712E+04    1.08712E+04    1.08712E+04
 1.50000E-08    1.08441E+04    1.08441E+04    1.08441E+04
 2.00000E-08    1.08235E+04    1.08235E+04    1.08235E+04
 2.50000E-08    1.08068E+04    1.08068E+04    1.08068E+04
 3.00000E-08    1.07919E+04    1.07919E+04    1.07919E+04
 3.50000E-08    1.07745E+04    1.07745E+04    1.07745E+04
 4.20000E-08    1.07552E+04    1.07552E+04    1.07552E+04
 5.00000E-08    1.07353E+04    1.07353E+04    1.07353E+04
 5.80000E-08    1.07145E+04    1.07145E+04    1.07145E+04
 6.70000E-08    1.06905E+04    1.06905E+04    1.06905E+04
 8.00000E-08    1.06551E+04    1.06551E+04    1.06551E+04
 1.00000E-07    1.05972E+04    1.05972E+04    1.05972E+04
 1.40000E-07    1.05245E+04    1.05245E+04    1.05245E+04
 1.80000E-07    1.04590E+04    1.04590E+04    1.04590E+04
 2.20000E-07    1.04058E+04    1.04058E+04    1.04058E+04
 2.50000E-07    1.03640E+04    1.03640E+04    1.03640E+04
 2.80000E-07    1.03308E+04    1.03308E+04    1.03308E+04
 3.00000E-07    1.03059E+04    1.03059E+04    1.03059E+04
 3.20000E-07    1.02754E+04    1.02754E+04    1.02754E+04
 3.50000E-07    1.02306E+04    1.02306E+04    1.02306E+04
 4.00000E-07    1.01544E+04    1.01544E+04    1.01544E+04
 5.00000E-07    1.00533E+04    1.00533E+04    1.00533E+04
 6.25000E-07    9.94558E+03    9.94558E+03    9.94558E+03
 7.80000E-07    9.86774E+03    9.86774E+03    9.86774E+03
 8.50000E-07    9.82673E+03    9.82673E+03    9.82673E+03
 9.10000E-07    9.79736E+03    9.79736E+03    9.79736E+03
 9.50000E-07    9.77925E+03    9.77925E+03    9.77925E+03
 9.72000E-07    9.76586E+03    9.76586E+03    9.76586E+03
 9.96000E-07    9.75227E+03    9.75227E+03    9.75227E+03
 1.02000E-06    9.73944E+03    9.73944E+03    9.73944E+03
 1.04500E-06    9.72615E+03    9.72615E+03    9.72615E+03
 1.07100E-06    9.71259E+03    9.71259E+03    9.71259E+03
 1.09700E-06    9.69903E+03    9.69903E+03    9.69903E+03
 1.12300E-06    9.68521E+03    9.68521E+03    9.68521E+03
 1.15000E-06    9.64108E+03    9.64108E+03    9.64108E+03
 1.30000E-06    9.56098E+03    9.56098E+03    9.56098E+03
 1.50000E-06    9.38666E+03    9.38666E+03    9.38666E+03
 2.10000E-06    9.13487E+03    9.13487E+03    9.13487E+03
 2.60000E-06    8.85154E+03    8.85154E+03    8.85154E+03
 3.30000E-06    8.42247E+03    8.42247E+03    8.42247E+03
 4.00000E-06    1.29950E+04    1.29950E+04    1.29950E+04
 9.87700E-06    1.80788E+04    1.80788E+04    1.80788E+04
 1.59680E-05    1.44550E+04    1.44550E+04    1.44550E+04
 2.77000E-05    1.38722E+04    1.38722E+04    1.38722E+04
 4.80520E-05    1.24514E+04    1.24514E+04    1.24514E+04
 7.55014E-05    1.34737E+04    1.34737E+04    1.34737E+04
 1.48728E-04    1.57465E+04    1.57465E+04    1.57465E+04
 3.67262E-04    1.61690E+04    1.38245E+04    1.85135E+04
 9.06898E-04    1.55636E+04    1.33068E+04    1.78203E+04
 1.42510E-03    1.51402E+04    1.29449E+04    1.73355E+04
 2.23945E-03    1.47072E+04    1.26335E+04    1.67809E+04
 3.51910E-03    1.42631E+04    1.22520E+04    1.62743E+04
 5.53000E-03    1.37902E+04    1.19285E+04    1.56519E+04
 9.11800E-03    1.32851E+04    1.15182E+04    1.50520E+04
 1.50300E-02    1.27796E+04    1.10927E+04    1.44666E+04
 2.47800E-02    1.22633E+04    1.07058E+04    1.38207E+04
 4.08500E-02    1.16267E+04    1.02896E+04    1.29637E+04
 6.73400E-02    1.07503E+04    9.62151E+03    1.18791E+04
 1.11000E-01    9.64595E+03    8.79324E+03    1.04986E+04
 1.83000E-01    8.41130E+03    7.66774E+03    9.15486E+03
 3.02000E-01    6.92336E+03    6.66582E+03    7.18091E+03
 5.00000E-01    5.16124E+03    5.02137E+03    5.30111E+03
 8.21000E-01    3.70987E+03    3.57780E+03    3.84194E+03
 1.35300E+00    3.39410E+03    3.19792E+03    3.59028E+03
 2.23100E+00    4.12604E+03    3.83969E+03    4.41238E+03
 3.67900E+00    4.04065E+03    3.85801E+03    4.22329E+03
 6.06500E+00    2.80129E+03    2.64217E+03    2.96040E+03
