# n + U 232 : (n,n'03)  
# jendl4.0   O.Iwamoto, T.Nakagawa, et al.     EVAL-JAN10
# uncertainties: y
# # energies =    70
#   E(MeV)       xs(mb)       xslow(mb)      xsupp(mb)
 3.24002E-01    0.00000E+00    0.00000E+00    0.00000E+00
 4.00000E-01    6.23440E-03    1.66458E-03    1.08042E-02
 5.00000E-01    6.80859E-02    1.81789E-02    1.17993E-01
 5.43352E-01    1.48806E-01    3.97312E-02    2.57881E-01
 5.65642E-01    2.02027E-01    5.39412E-02    3.50113E-01
 6.00000E-01    3.04135E-01    1.12530E-02    5.97017E-01
 6.31701E-01    4.22654E-01    1.56382E-02    8.29670E-01
 6.94215E-01    7.20907E-01    2.66736E-02    1.41514E+00
 7.00000E-01    7.54656E-01    2.79223E-02    1.48139E+00
 7.37753E-01    1.08475E+00    4.01358E-02    2.12936E+00
 7.50147E-01    1.20149E+00    4.44551E-02    2.35853E+00
 8.00000E-01    1.71308E+00    1.09637E-01    3.31652E+00
 8.09303E-01    1.81695E+00    1.16285E-01    3.51762E+00
 8.36691E-01    2.13191E+00    1.36442E-01    4.12738E+00
 8.70560E-01    2.53266E+00    1.62090E-01    4.90323E+00
 9.00000E-01    2.90237E+00    1.85752E-01    5.61899E+00
 9.15382E-01    3.10360E+00    1.98630E-01    6.00857E+00
 9.19078E-01    3.15163E+00    2.01704E-01    6.10156E+00
 9.74900E-01    3.92014E+00    2.50889E-01    7.58939E+00
 9.89081E-01    4.12154E+00    2.63779E-01    7.97930E+00
 1.00000E+00    4.27966E+00    5.22119E-01    8.03720E+00
 1.02127E+00    4.65909E+00    5.68409E-01    8.74977E+00
 1.10000E+00    6.02488E+00    7.35036E-01    1.13147E+01
 1.20000E+00    8.00057E+00    1.28809E+00    1.47130E+01
 1.30000E+00    1.02082E+01    1.64352E+00    1.87729E+01
 1.40000E+00    1.21863E+01    1.96199E+00    2.24106E+01
 1.50000E+00    1.41730E+01    3.07554E+00    2.52705E+01
 1.60000E+00    1.58627E+01    3.44221E+00    2.82832E+01
 1.70000E+00    1.74369E+01    3.78381E+00    3.10900E+01
 1.80000E+00    1.87572E+01    4.07031E+00    3.34441E+01
 1.90000E+00    1.98571E+01    4.30899E+00    3.54052E+01
 2.00000E+00    2.08163E+01    7.03591E+00    3.45967E+01
 2.30000E+00    2.27151E+01    7.67770E+00    3.77525E+01
 2.50000E+00    2.32474E+01    9.90339E+00    3.65914E+01
 2.70000E+00    2.41396E+01    1.02835E+01    3.79957E+01
 3.00000E+00    2.48255E+01    1.16432E+01    3.80078E+01
 3.50000E+00    2.35517E+01    1.12813E+01    3.58221E+01
 4.00000E+00    2.27397E+01    1.08014E+01    3.46780E+01
 4.50000E+00    2.13272E+01    1.01304E+01    3.25240E+01
 5.00000E+00    1.98746E+01    1.06528E+01    2.90964E+01
 5.50000E+00    1.90438E+01    1.02075E+01    2.78801E+01
 6.00000E+00    1.81712E+01    1.08300E+01    2.55124E+01
 6.50000E+00    1.77029E+01    1.05509E+01    2.48549E+01
 7.00000E+00    1.71602E+01    1.04506E+01    2.38698E+01
 7.50000E+00    1.66266E+01    1.01256E+01    2.31276E+01
 8.00000E+00    1.60245E+01    9.75892E+00    2.22901E+01
 8.50000E+00    1.53496E+01    9.34791E+00    2.13513E+01
 9.00000E+00    1.46430E+01    8.99080E+00    2.02952E+01
 9.50000E+00    1.39148E+01    8.54369E+00    1.92859E+01
 1.00000E+01    1.31620E+01    8.21309E+00    1.81109E+01
 1.05000E+01    1.24295E+01    7.75601E+00    1.71030E+01
 1.10000E+01    1.16794E+01    7.28794E+00    1.60709E+01
 1.15000E+01    1.09753E+01    6.84859E+00    1.51020E+01
 1.20000E+01    1.02655E+01    6.59045E+00    1.39405E+01
 1.25000E+01    9.62178E+00    6.17718E+00    1.30664E+01
 1.30000E+01    8.98094E+00    5.76576E+00    1.21961E+01
 1.35000E+01    8.41640E+00    5.40333E+00    1.14295E+01
 1.40000E+01    7.85943E+00    5.10077E+00    1.06181E+01
 1.45000E+01    7.37692E+00    4.78762E+00    9.96622E+00
 1.50000E+01    6.90478E+00    4.47430E+00    9.33526E+00
 1.55000E+01    6.49742E+00    4.21033E+00    8.78451E+00
 1.60000E+01    6.10211E+00    3.94196E+00    8.26226E+00
 1.65000E+01    5.75962E+00    3.72071E+00    7.79853E+00
 1.70000E+01    5.42952E+00    3.50747E+00    7.35157E+00
 1.75000E+01    5.14190E+00    3.32167E+00    6.96213E+00
 1.80000E+01    4.86576E+00    3.14328E+00    6.58824E+00
 1.85000E+01    4.62488E+00    2.98767E+00    6.26209E+00
 1.90000E+01    4.39386E+00    2.83843E+00    5.94929E+00
 1.95000E+01    4.19328E+00    2.70886E+00    5.67770E+00
 2.00000E+01    4.00074E+00    2.58448E+00    5.41700E+00
