# n + Tb159 : (n,xa)    
# jendl.ad   N.Iwamoto                         EVAL-Apr14
# 
# # energies =   103
#   E(MeV)        xs(mb) 
 5.83641E-02    1.32730E-07
 6.00000E-02    1.27740E-07
 7.00000E-02    1.18217E-07
 8.00000E-02    1.11640E-07
 9.00000E-02    1.13320E-07
 1.00000E-01    1.09471E-07
 1.05000E-01    1.07908E-07
 1.10000E-01    1.06403E-07
 1.20000E-01    1.04463E-07
 1.30000E-01    1.03190E-07
 1.38378E-01    1.02420E-07
 1.40000E-01    1.01690E-07
 1.50000E-01    1.00320E-07
 1.60000E-01    9.93910E-08
 1.70000E-01    9.89454E-08
 1.80000E-01    9.88230E-08
 1.90000E-01    1.05370E-07
 2.00000E-01    1.05747E-07
 2.25000E-01    1.08096E-07
 2.42680E-01    1.10546E-07
 2.42681E-01    1.10546E-07
 2.50000E-01    1.11270E-07
 2.75000E-01    1.15890E-07
 3.00000E-01    1.29680E-07
 3.50493E-01    1.45750E-07
 3.50494E-01    1.45750E-07
 3.64348E-01    1.46727E-07
 3.65852E-01    1.47082E-07
 3.90865E-01    1.58310E-07
 4.00000E-01    1.58490E-07
 4.30918E-01    1.64213E-07
 4.57485E-01    1.69130E-07
 5.00000E-01    1.94860E-07
 5.13639E-01    2.00399E-07
 5.35376E-01    2.09776E-07
 5.40106E-01    2.11840E-07
 5.48560E-01    2.14938E-07
 5.51075E-01    2.15860E-07
 5.51076E-01    2.15860E-07
 5.84494E-01    2.30660E-07
 6.00000E-01    2.51540E-07
 6.21541E-01    2.61203E-07
 6.73155E-01    2.82410E-07
 6.78514E-01    2.85600E-07
 6.82202E-01    2.86580E-07
 7.00000E-01    3.17850E-07
 7.66132E-01    3.65730E-07
 7.82032E-01    3.79030E-07
 8.00000E-01    4.25170E-07
 8.04071E-01    4.29281E-07
 8.27418E-01    4.52860E-07
 8.60388E-01    4.91410E-07
 8.62741E-01    4.93060E-07
 9.00000E-01    5.81720E-07
 1.00000E+00    7.89000E-07
 1.10000E+00    1.04259E-06
 1.20000E+00    1.36432E-06
 1.30000E+00    1.76304E-06
 1.40000E+00    2.27226E-06
 1.50000E+00    2.91870E-06
 1.60000E+00    3.70117E-06
 1.70000E+00    4.67567E-06
 1.80000E+00    5.87626E-06
 1.90000E+00    7.33949E-06
 2.00000E+00    9.24798E-06
 2.25000E+00    1.49123E-05
 2.50000E+00    2.24908E-05
 2.75000E+00    3.65456E-05
 3.00000E+00    6.31597E-05
 3.50000E+00    1.30885E-04
 4.00000E+00    2.49565E-04
 4.50000E+00    4.45391E-04
 5.00000E+00    7.65841E-04
 5.50000E+00    1.29729E-03
 6.00000E+00    2.22536E-03
 6.50000E+00    3.90793E-03
 7.00000E+00    6.96917E-03
 7.50000E+00    1.24761E-02
 8.00000E+00    2.21539E-02
 8.50000E+00    3.85707E-02
 9.00000E+00    6.55166E-02
 9.50000E+00    1.06712E-01
 1.00000E+01    1.69543E-01
 1.05000E+01    2.59078E-01
 1.10000E+01    3.80733E-01
 1.15000E+01    5.39009E-01
 1.20000E+01    7.36822E-01
 1.25000E+01    9.75900E-01
 1.30000E+01    1.25550E+00
 1.35000E+01    1.57385E+00
 1.40000E+01    1.92668E+00
 1.45000E+01    2.30971E+00
 1.50000E+01    2.71698E+00
 1.55000E+01    3.14382E+00
 1.60000E+01    3.58358E+00
 1.65000E+01    4.03024E+00
 1.70000E+01    4.48273E+00
 1.75000E+01    4.93328E+00
 1.80000E+01    5.37979E+00
 1.85000E+01    5.81965E+00
 1.90000E+01    6.25042E+00
 1.95000E+01    6.66891E+00
 2.00000E+01    7.07623E+00
