# n + Tb159 : (n,xp)    
# jendl.ad   N.Iwamoto                         EVAL-Apr14
# 
# # energies =   103
#   E(MeV)        xs(mb) 
 5.83641E-02    0.00000E+00
 6.00000E-02    0.00000E+00
 7.00000E-02    0.00000E+00
 8.00000E-02    0.00000E+00
 9.00000E-02    0.00000E+00
 1.00000E-01    0.00000E+00
 1.05000E-01    0.00000E+00
 1.10000E-01    0.00000E+00
 1.20000E-01    0.00000E+00
 1.30000E-01    0.00000E+00
 1.38378E-01    0.00000E+00
 1.40000E-01    0.00000E+00
 1.50000E-01    0.00000E+00
 1.60000E-01    0.00000E+00
 1.70000E-01    0.00000E+00
 1.80000E-01    0.00000E+00
 1.90000E-01    1.22444E-18
 2.00000E-01    2.07221E-17
 2.25000E-01    6.94662E-17
 2.42680E-01    1.18369E-16
 2.42681E-01    1.18377E-16
 2.50000E-01    1.77649E-16
 2.75000E-01    4.31960E-16
 3.00000E-01    7.08800E-16
 3.50493E-01    1.89152E-15
 3.50494E-01    1.89155E-15
 3.64348E-01    2.31094E-15
 3.65852E-01    2.35647E-15
 3.90865E-01    3.12139E-15
 4.00000E-01    3.40265E-15
 4.30918E-01    4.53653E-15
 4.57485E-01    5.60260E-15
 5.00000E-01    7.31807E-15
 5.13639E-01    7.86897E-15
 5.35376E-01    8.83530E-15
 5.40106E-01    9.05259E-15
 5.48560E-01    9.44096E-15
 5.51075E-01    9.55650E-15
 5.51076E-01    9.55654E-15
 5.84494E-01    1.10934E-14
 6.00000E-01    1.18069E-14
 6.21541E-01    1.27982E-14
 6.73155E-01    1.51975E-14
 6.78514E-01    1.54512E-14
 6.82202E-01    1.56257E-14
 7.00000E-01    1.64683E-14
 7.66132E-01    1.98530E-14
 7.82032E-01    2.06855E-14
 8.00000E-01    2.16589E-14
 8.04071E-01    2.18920E-14
 8.27418E-01    2.32290E-14
 8.60388E-01    2.52457E-14
 8.62741E-01    2.53920E-14
 9.00000E-01    2.77436E-14
 1.00000E+00    3.50061E-14
 1.10000E+00    5.68835E-14
 1.20000E+00    8.24500E-14
 1.30000E+00    1.33060E-13
 1.40000E+00    4.96580E-13
 1.50000E+00    3.21330E-12
 1.60000E+00    1.90220E-11
 1.70000E+00    9.45360E-11
 1.80000E+00    3.98350E-10
 1.90000E+00    1.45440E-09
 2.00000E+00    4.68970E-09
 2.25000E+00    5.63710E-08
 2.50000E+00    3.97850E-07
 2.75000E+00    1.97458E-06
 3.00000E+00    7.18721E-06
 3.50000E+00    5.20063E-05
 4.00000E+00    2.06715E-04
 4.50000E+00    5.42904E-04
 5.00000E+00    1.06319E-03
 5.50000E+00    1.69305E-03
 6.00000E+00    2.40001E-03
 6.50000E+00    3.25851E-03
 7.00000E+00    5.17437E-03
 7.50000E+00    9.54648E-03
 8.00000E+00    1.92632E-02
 8.50000E+00    3.92659E-02
 9.00000E+00    7.71544E-02
 9.50000E+00    1.43474E-01
 1.00000E+01    2.51389E-01
 1.05000E+01    4.15877E-01
 1.10000E+01    6.50925E-01
 1.15000E+01    9.70776E-01
 1.20000E+01    1.38404E+00
 1.25000E+01    1.90018E+00
 1.30000E+01    2.52076E+00
 1.35000E+01    3.25153E+00
 1.40000E+01    4.08910E+00
 1.45000E+01    5.03712E+00
 1.50000E+01    6.08992E+00
 1.55000E+01    7.24918E+00
 1.60000E+01    8.51061E+00
 1.65000E+01    9.87090E+00
 1.70000E+01    1.13278E+01
 1.75000E+01    1.28767E+01
 1.80000E+01    1.45163E+01
 1.85000E+01    1.62378E+01
 1.90000E+01    1.80432E+01
 1.95000E+01    1.99143E+01
 2.00000E+01    2.18664E+01
