# n + Hg198 : (n,g)     
# jendl4.0   K.SHIBATA, T.FUKAHORI, S.CHIBA,+  EVAL-SEP97
# uncertainties: n
# # energies =    69
#   E(MeV)       xs(mb) 
 1.00000E-10    1.38398E+04
 5.00000E-09    3.76999E+03
 1.00000E-08    2.85614E+03
 1.50000E-08    2.40046E+03
 2.00000E-08    2.11262E+03
 2.50000E-08    1.90927E+03
 3.00000E-08    1.75562E+03
 3.50000E-08    1.61476E+03
 4.20000E-08    1.47770E+03
 5.00000E-08    1.36373E+03
 5.80000E-08    1.26818E+03
 6.70000E-08    1.17115E+03
 8.00000E-08    1.06091E+03
 1.00000E-07    9.24739E+02
 1.40000E-07    8.00036E+02
 1.80000E-07    7.16276E+02
 2.20000E-07    6.61160E+02
 2.50000E-07    6.23675E+02
 2.80000E-07    5.96816E+02
 3.00000E-07    5.77974E+02
 3.20000E-07    5.57058E+02
 3.50000E-07    5.28271E+02
 4.00000E-07    4.85699E+02
 5.00000E-07    4.37653E+02
 6.25000E-07    3.95273E+02
 7.80000E-07    3.68743E+02
 8.50000E-07    3.56365E+02
 9.10000E-07    3.47766E+02
 9.50000E-07    3.42811E+02
 9.72000E-07    3.39306E+02
 9.96000E-07    3.35793E+02
 1.02000E-06    3.32354E+02
 1.04500E-06    3.28894E+02
 1.07100E-06    3.25512E+02
 1.09700E-06    3.22297E+02
 1.12300E-06    3.19076E+02
 1.15000E-06    3.09528E+02
 1.30000E-06    2.93255E+02
 1.50000E-06    2.67578E+02
 2.10000E-06    2.42835E+02
 2.60000E-06    2.26964E+02
 3.30000E-06    2.15424E+02
 4.00000E-06    2.14651E+02
 9.87700E-06    3.62196E+02
 1.59680E-05    8.92949E+04
 2.77000E-05    2.37700E+02
 4.80520E-05    7.78980E+01
 7.55014E-05    1.78627E+04
 1.48728E-04    8.42820E+03
 3.67262E-04    2.91198E+03
 9.06898E-04    8.09074E+02
 1.42510E-03    6.24581E+02
 2.23945E-03    4.83363E+02
 3.51910E-03    3.74076E+02
 5.53000E-03    2.85753E+02
 9.11800E-03    2.22033E+02
 1.50300E-02    1.84344E+02
 2.47800E-02    1.53331E+02
 4.08500E-02    1.27540E+02
 6.73400E-02    1.05975E+02
 1.11000E-01    8.50505E+01
 1.83000E-01    6.70536E+01
 3.02000E-01    5.28252E+01
 5.00000E-01    4.20939E+01
 8.21000E-01    4.03578E+01
 1.35300E+00    3.13813E+01
 2.23100E+00    1.39825E+01
 3.67900E+00    3.46249E+00
 6.06500E+00    2.87872E-01
