# n + Hg198 : (n,el)    
# jendl4.0   K.SHIBATA, T.FUKAHORI, S.CHIBA,+  EVAL-SEP97
# uncertainties: n
# # energies =   171
#   E(MeV)       xs(mb) 
 1.00000E-11    1.87506E+04
 1.00000E-07    1.27829E+04
 4.13990E-07    1.27748E+04
 5.31580E-07    1.27709E+04
 6.82560E-07    1.27663E+04
 8.76420E-07    1.27605E+04
 1.12540E-06    1.27530E+04
 1.44500E-06    1.27434E+04
 1.85540E-06    1.27313E+04
 2.37240E-06    1.27155E+04
 3.05900E-06    1.26951E+04
 3.92790E-06    1.26691E+04
 5.04350E-06    1.26313E+04
 6.47600E-06    1.25655E+04
 8.31530E-06    1.24776E+04
 1.06770E-05    1.23125E+04
 1.37100E-05    1.19388E+04
 1.76030E-05    9.61563E+03
 2.26030E-05    2.57368E+04
 2.92030E-05    1.37817E+04
 3.72670E-05    1.32429E+04
 4.78510E-05    1.28712E+04
 6.14420E-05    1.22735E+04
 7.88930E-05    2.26576E+04
 1.01300E-04    1.36220E+04
 1.30070E-04    1.27777E+04
 1.67020E-04    1.19295E+04
 2.14450E-04    9.47261E+03
 2.75360E-04    1.31252E+05
 3.53580E-04    2.49830E+04
 4.54000E-04    4.18171E+04
 5.82950E-04    3.85014E+04
 7.48520E-04    3.44171E+04
 9.61120E-04    3.12981E+04
 1.23410E-03    2.93814E+04
 1.58460E-03    2.75961E+04
 2.03470E-03    2.64048E+04
 2.24870E-03    2.57500E+04
 2.48520E-03    2.52680E+04
 2.61260E-03    2.49513E+04
 2.74650E-03    2.44849E+04
 3.03540E-03    2.38759E+04
 3.35460E-03    2.32809E+04
 3.70740E-03    2.25584E+04
 4.30740E-03    2.14484E+04
 5.53080E-03    2.01332E+04
 7.10170E-03    1.88969E+04
 9.11880E-03    1.77970E+04
 1.17090E-02    1.69807E+04
 1.50340E-02    1.62224E+04
 1.93050E-02    1.56743E+04
 2.18750E-02    1.53896E+04
 2.35790E-02    1.52489E+04
 2.41760E-02    1.51794E+04
 2.47880E-02    1.50759E+04
 2.60580E-02    1.49583E+04
 2.70000E-02    1.48361E+04
 2.85000E-02    1.46150E+04
 3.18280E-02    1.43686E+04
 3.43070E-02    1.40438E+04
 4.08680E-02    1.36628E+04
 4.63090E-02    1.33533E+04
 5.24750E-02    1.31109E+04
 5.65620E-02    1.28142E+04
 6.73790E-02    1.25335E+04
 7.20000E-02    1.23446E+04
 7.95000E-02    1.21913E+04
 8.25000E-02    1.20971E+04
 8.65170E-02    1.19075E+04
 9.80370E-02    1.15689E+04
 1.11090E-01    1.12525E+04
 1.16790E-01    1.10750E+04
 1.22770E-01    1.09000E+04
 1.29070E-01    1.07278E+04
 1.35690E-01    1.05585E+04
 1.42640E-01    1.03915E+04
 1.49960E-01    1.02275E+04
 1.57640E-01    1.00659E+04
 1.65730E-01    9.90705E+03
 1.74220E-01    9.75036E+03
 1.83160E-01    9.59632E+03
 1.92550E-01    9.44470E+03
 2.02420E-01    9.29557E+03
 2.12800E-01    9.14863E+03
 2.23710E-01    9.00388E+03
 2.35180E-01    8.86180E+03
 2.47240E-01    8.65298E+03
 2.73240E-01    8.44815E+03
 2.87250E-01    8.34778E+03
 2.94520E-01    8.30254E+03
 2.97200E-01    8.28484E+03
 2.98500E-01    8.26421E+03
 3.01970E-01    8.11871E+03
 3.33730E-01    7.86408E+03
 3.68830E-01    7.67804E+03
 3.87740E-01    7.55687E+03
 4.07620E-01    7.29962E+03
 4.50490E-01    6.83903E+03
 4.97870E-01    6.50812E+03
 5.23400E-01    6.30235E+03
 5.50230E-01    6.10706E+03
 5.78440E-01    5.91455E+03
 6.08100E-01    5.74232E+03
 6.39280E-01    5.57960E+03
 6.72060E-01    5.42034E+03
 7.06510E-01    5.25912E+03
 7.42740E-01    5.09629E+03
 7.80820E-01    4.94687E+03
 8.20850E-01    4.84014E+03
 8.62940E-01    4.73640E+03
 9.07180E-01    4.63021E+03
 9.61640E-01    4.53152E+03
 1.00260E+00    4.47747E+03
 1.10800E+00    4.37276E+03
 1.16480E+00    4.25294E+03
 1.22460E+00    4.15259E+03
 1.28730E+00    4.14593E+03
 1.35340E+00    4.14915E+03
 1.42270E+00    4.09406E+03
 1.49570E+00    4.08013E+03
 1.57240E+00    4.18902E+03
 1.65300E+00    4.27062E+03
 1.73770E+00    4.33662E+03
 1.82680E+00    4.34289E+03
 1.92050E+00    4.18342E+03
 2.01900E+00    4.14249E+03
 2.12250E+00    4.19340E+03
 2.23130E+00    4.23774E+03
 2.30690E+00    4.26526E+03
 2.34570E+00    4.27928E+03
 2.36530E+00    4.28875E+03
 2.38520E+00    4.31281E+03
 2.46600E+00    4.36235E+03
 2.59240E+00    4.42457E+03
 2.72530E+00    4.49042E+03
 2.86500E+00    4.55961E+03
 3.01190E+00    4.60059E+03
 3.16640E+00    4.61975E+03
 3.32870E+00    4.65048E+03
 3.67880E+00    4.69246E+03
 4.06570E+00    4.62671E+03
 4.49330E+00    4.52724E+03
 4.72370E+00    4.46238E+03
 4.96590E+00    4.37443E+03
 5.22050E+00    4.24480E+03
 5.48810E+00    4.11820E+03
 5.76950E+00    3.99177E+03
 6.06530E+00    3.82348E+03
 6.37630E+00    3.67072E+03
 6.59240E+00    3.58145E+03
 6.70320E+00    3.46350E+03
 7.04690E+00    3.29222E+03
 7.40820E+00    3.12675E+03
 7.78800E+00    2.99622E+03
 8.18730E+00    3.03836E+03
 8.60710E+00    2.92452E+03
 9.04840E+00    2.78512E+03
 9.51230E+00    2.62873E+03
 1.00000E+01    2.55815E+03
 1.05130E+01    2.56937E+03
 1.10520E+01    2.58054E+03
 1.16180E+01    2.59497E+03
 1.22140E+01    2.64581E+03
 1.28400E+01    2.70826E+03
 1.34990E+01    2.75598E+03
 1.38400E+01    2.78932E+03
 1.41910E+01    2.82773E+03
 1.45500E+01    2.86747E+03
 1.49180E+01    2.92781E+03
 1.56830E+01    3.00310E+03
 1.64870E+01    3.05972E+03
