# n + Hg198 : (n,n')    
# jendl4.0   K.SHIBATA, T.FUKAHORI, S.CHIBA,+  EVAL-SEP97
# uncertainties: n
# # energies =   107
#   E(MeV)       xs(mb) 
 4.13898E-01    0.00000E+00
 4.13900E-01    1.07681E-02
 4.20000E-01    3.45978E+01
 4.40000E-01    1.41350E+02
 4.60000E-01    2.43493E+02
 5.00000E-01    4.35475E+02
 6.00000E-01    6.28931E+02
 8.00000E-01    8.54988E+02
 1.00000E+00    9.55594E+02
 1.05380E+00    9.43622E+02
 1.05384E+00    9.43614E+02
 1.07836E+00    9.51497E+02
 1.09320E+00    9.56088E+02
 1.09324E+00    9.56100E+02
 1.10288E+00    9.73535E+02
 1.13243E+00    1.02647E+03
 1.15192E+00    1.06039E+03
 1.17162E+00    1.09406E+03
 1.25000E+00    1.22256E+03
 1.37500E+00    1.29025E+03
 1.40864E+00    1.30739E+03
 1.40870E+00    1.30745E+03
 1.42663E+00    1.32420E+03
 1.45435E+00    1.38284E+03
 1.50000E+00    1.47749E+03
 1.55639E+00    1.46439E+03
 1.62062E+00    1.45700E+03
 1.62500E+00    1.45825E+03
 1.64390E+00    1.46292E+03
 1.64393E+00    1.46293E+03
 1.68843E+00    1.47896E+03
 1.69188E+00    1.48019E+03
 1.69190E+00    1.48020E+03
 1.73041E+00    1.49417E+03
 1.73294E+00    1.49509E+03
 1.75000E+00    1.50121E+03
 1.76892E+00    1.50832E+03
 1.76897E+00    1.50834E+03
 1.82196E+00    1.54353E+03
 1.82505E+00    1.54554E+03
 1.84184E+00    1.55683E+03
 1.84420E+00    1.55939E+03
 1.84425E+00    1.55945E+03
 1.84595E+00    1.56200E+03
 1.85661E+00    1.57792E+03
 1.86827E+00    1.59973E+03
 1.87500E+00    1.61514E+03
 1.88318E+00    1.63324E+03
 1.90898E+00    1.68987E+03
 1.91109E+00    1.69520E+03
 1.91943E+00    1.71990E+03
 1.92054E+00    1.72324E+03
 1.92074E+00    1.72384E+03
 1.92212E+00    1.72865E+03
 2.00000E+00    1.99483E+03
 2.06250E+00    2.04593E+03
 2.12500E+00    2.09413E+03
 2.18750E+00    2.13959E+03
 2.25000E+00    2.18247E+03
 2.31250E+00    2.22872E+03
 2.37500E+00    2.27267E+03
 2.50000E+00    2.35410E+03
 2.62500E+00    2.39814E+03
 2.75000E+00    2.43390E+03
 2.87500E+00    2.47108E+03
 3.00000E+00    2.50136E+03
 3.12500E+00    2.51755E+03
 3.25000E+00    2.53003E+03
 3.37500E+00    2.54234E+03
 3.50000E+00    2.55148E+03
 3.62500E+00    2.56504E+03
 3.75000E+00    2.57585E+03
 4.00000E+00    2.59665E+03
 4.50000E+00    2.58996E+03
 5.00000E+00    2.58341E+03
 5.50000E+00    2.52345E+03
 6.00000E+00    2.46755E+03
 7.00000E+00    2.42933E+03
 8.00000E+00    2.39073E+03
 8.25000E+00    2.25457E+03
 8.50000E+00    2.12229E+03
 8.75000E+00    1.99366E+03
 9.00000E+00    1.86847E+03
 9.25000E+00    1.74654E+03
 9.50000E+00    1.62769E+03
 9.75000E+00    1.51177E+03
 1.00000E+01    1.39862E+03
 1.02500E+01    1.29004E+03
 1.05000E+01    1.18397E+03
 1.07500E+01    1.08031E+03
 1.10000E+01    9.78927E+02
 1.12500E+01    8.79732E+02
 1.15000E+01    7.82625E+02
 1.17500E+01    6.87516E+02
 1.20000E+01    5.94322E+02
 1.25000E+01    5.38539E+02
 1.30000E+01    4.84719E+02
 1.35000E+01    4.32712E+02
 1.40000E+01    3.82388E+02
 1.45000E+01    3.61622E+02
 1.50000E+01    3.41435E+02
 1.55000E+01    3.21788E+02
 1.60000E+01    3.02647E+02
 1.70000E+01    2.79361E+02
 1.80000E+01    2.56985E+02
 1.90000E+01    2.41447E+02
 2.00000E+01    2.26364E+02
