# n + Sb121 : (n,p)     
# jendl.ad   K.Shibata                         EVAL-APR13
# uncertainties: n
# # energies =    27
#   E(MeV)       xs(mb) 
 2.50000E+00    0.00000E+00
 3.00000E+00    2.64700E-02
 3.50000E+00    8.57000E-02
 4.00000E+00    1.82120E-01
 4.50000E+00    3.12900E-01
 5.00000E+00    4.22200E-01
 5.50000E+00    5.09500E-01
 6.00000E+00    5.56400E-01
 6.50000E+00    6.15900E-01
 7.00000E+00    6.93300E-01
 7.50000E+00    8.34300E-01
 8.00000E+00    1.03290E+00
 8.50000E+00    1.30770E+00
 9.00000E+00    1.67020E+00
 9.50000E+00    2.11100E+00
 1.00000E+01    2.64800E+00
 1.10000E+01    3.89600E+00
 1.20000E+01    5.36700E+00
 1.30000E+01    6.85500E+00
 1.40000E+01    8.17700E+00
 1.45000E+01    8.79900E+00
 1.50000E+01    9.36000E+00
 1.60000E+01    1.03770E+01
 1.70000E+01    1.11980E+01
 1.80000E+01    1.18020E+01
 1.90000E+01    1.22260E+01
 2.00000E+01    1.24690E+01
