# n + Sb121 : (n,a)     
# jendl.ad   K.Shibata                         EVAL-APR13
# uncertainties: n
# # energies =    23
#   E(MeV)       xs(mb) 
 4.50000E+00    0.00000E+00
 5.00000E+00    1.36376E-05
 5.50000E+00    7.76571E-05
 6.00000E+00    9.44700E-04
 6.50000E+00    1.06116E-03
 7.00000E+00    2.40260E-03
 7.50000E+00    4.41480E-03
 8.00000E+00    8.32820E-03
 8.50000E+00    1.42380E-02
 9.00000E+00    2.48590E-02
 9.50000E+00    4.05110E-02
 1.00000E+01    6.57330E-02
 1.10000E+01    1.55090E-01
 1.20000E+01    3.20370E-01
 1.30000E+01    5.75970E-01
 1.40000E+01    9.13700E-01
 1.45000E+01    1.09740E+00
 1.50000E+01    1.29430E+00
 1.60000E+01    1.65410E+00
 1.70000E+01    1.92150E+00
 1.80000E+01    2.07420E+00
 1.90000E+01    2.12760E+00
 2.00000E+01    2.10300E+00
