# n + Sb121 : (n,p)g    
# jendl.ad   K.Shibata                         EVAL-APR13
# uncertainties: n
# # energies =    28
#   E(MeV)       xs(mb) 
 1.00000E-11    0.00000E+00
 2.50000E+00    0.00000E+00
 3.00000E+00    1.56200E-02
 3.50000E+00    4.62700E-02
 4.00000E+00    9.59500E-02
 4.50000E+00    1.69500E-01
 5.00000E+00    2.35800E-01
 5.50000E+00    2.96900E-01
 6.00000E+00    3.35800E-01
 6.50000E+00    3.74100E-01
 7.00000E+00    4.16700E-01
 7.50000E+00    4.85500E-01
 8.00000E+00    5.82300E-01
 8.50000E+00    7.09600E-01
 9.00000E+00    8.77400E-01
 9.50000E+00    1.07200E+00
 1.00000E+01    1.30400E+00
 1.10000E+01    1.80300E+00
 1.20000E+01    2.33600E+00
 1.30000E+01    2.82600E+00
 1.40000E+01    3.22700E+00
 1.45000E+01    3.41000E+00
 1.50000E+01    3.56900E+00
 1.60000E+01    3.84000E+00
 1.70000E+01    4.10500E+00
 1.80000E+01    4.22100E+00
 1.90000E+01    4.27200E+00
 2.00000E+01    4.26600E+00
