# n + Sb121 : (n,p)m    
# jendl.ad   K.Shibata                         EVAL-APR13
# uncertainties: n
# # energies =    28
#   E(MeV)       xs(mb) 
 1.00000E-11    0.00000E+00
 2.50000E+00    0.00000E+00
 3.00000E+00    1.08500E-02
 3.50000E+00    3.94300E-02
 4.00000E+00    8.61700E-02
 4.50000E+00    1.43400E-01
 5.00000E+00    1.86400E-01
 5.50000E+00    2.12600E-01
 6.00000E+00    2.20600E-01
 6.50000E+00    2.41800E-01
 7.00000E+00    2.76600E-01
 7.50000E+00    3.48800E-01
 8.00000E+00    4.50600E-01
 8.50000E+00    5.98100E-01
 9.00000E+00    7.92800E-01
 9.50000E+00    1.03900E+00
 1.00000E+01    1.34400E+00
 1.10000E+01    2.09300E+00
 1.20000E+01    3.03100E+00
 1.30000E+01    4.02900E+00
 1.40000E+01    4.95000E+00
 1.45000E+01    5.38900E+00
 1.50000E+01    5.79100E+00
 1.60000E+01    6.53700E+00
 1.70000E+01    7.09300E+00
 1.80000E+01    7.58100E+00
 1.90000E+01    7.95400E+00
 2.00000E+01    8.20300E+00
