# n + Sb121 : (n,a)n    
# jendl.ad   K.Shibata                         EVAL-APR13
# uncertainties: n
# # energies =    24
#   E(MeV)       xs(mb) 
 1.00000E-11    0.00000E+00
 4.50000E+00    0.00000E+00
 5.00000E+00    1.48600E-07
 5.50000E+00    9.67100E-07
 6.00000E+00    7.54000E-05
 6.50000E+00    5.25600E-05
 7.00000E+00    1.17600E-04
 7.50000E+00    2.09800E-04
 8.00000E+00    5.44200E-04
 8.50000E+00    8.92000E-04
 9.00000E+00    2.09900E-03
 9.50000E+00    3.17100E-03
 1.00000E+01    6.79300E-03
 1.10000E+01    1.91300E-02
 1.20000E+01    4.62700E-02
 1.30000E+01    9.57700E-02
 1.40000E+01    1.73100E-01
 1.45000E+01    1.99500E-01
 1.50000E+01    2.59600E-01
 1.60000E+01    3.78000E-01
 1.70000E+01    5.03000E-01
 1.80000E+01    6.19500E-01
 1.90000E+01    7.08800E-01
 2.00000E+01    7.52900E-01
