# n + Dy160 : (n,el)    
# endfb8.0   Kim,Herman,Oh,Oblozinsky          EVAL-FEB06
# uncertainties: n
# # energies =   171
#   E(MeV)       xs(mb) 
 1.00000E-11    8.82273E+03
 1.00000E-07    5.59989E+03
 4.13990E-07    5.45323E+03
 5.31580E-07    5.36487E+03
 6.82560E-07    5.23699E+03
 8.76420E-07    5.03492E+03
 1.12540E-06    4.64358E+03
 1.44500E-06    3.49154E+03
 1.85540E-06    8.44484E+03
 2.37240E-06    5.64530E+03
 3.05900E-06    4.88715E+03
 3.92790E-06    4.17449E+03
 5.04350E-06    3.19341E+03
 6.47600E-06    1.52561E+03
 8.31530E-06    3.09422E+05
 1.06770E-05    4.95081E+04
 1.37100E-05    6.59455E+03
 1.76030E-05    2.79084E+05
 2.26030E-05    1.81864E+04
 2.92030E-05    1.09242E+04
 3.72670E-05    8.78440E+03
 4.78510E-05    6.98589E+03
 6.14420E-05    5.80225E+03
 7.88930E-05    9.94385E+04
 1.01300E-04    7.06812E+03
 1.30070E-04    3.66773E+04
 1.67020E-04    1.32465E+04
 2.14450E-04    5.90973E+03
 2.75360E-04    4.64208E+04
 3.53580E-04    5.39409E+04
 4.54000E-04    1.11360E+04
 5.82950E-04    8.67449E+04
 7.48520E-04    1.67403E+04
 9.61120E-04    1.86831E+04
 1.23410E-03    1.28846E+04
 1.58460E-03    2.56936E+04
 2.03470E-03    1.94334E+04
 2.24870E-03    1.89150E+04
 2.48520E-03    1.85369E+04
 2.61260E-03    1.82905E+04
 2.74650E-03    1.79290E+04
 3.03540E-03    1.74612E+04
 3.35460E-03    1.70102E+04
 3.70740E-03    1.64662E+04
 4.30740E-03    1.56470E+04
 5.53080E-03    1.47024E+04
 7.10170E-03    1.38426E+04
 9.11880E-03    1.30638E+04
 1.17090E-02    1.23628E+04
 1.50340E-02    1.17314E+04
 1.93050E-02    1.12426E+04
 2.18750E-02    1.09990E+04
 2.35790E-02    1.08924E+04
 2.41760E-02    1.08375E+04
 2.47880E-02    1.07575E+04
 2.60580E-02    1.06695E+04
 2.70000E-02    1.05762E+04
 2.85000E-02    1.04116E+04
 3.18280E-02    1.02301E+04
 3.43070E-02    9.99444E+03
 4.08680E-02    9.72123E+03
 4.63090E-02    9.50170E+03
 5.24750E-02    9.32780E+03
 5.65620E-02    9.11415E+03
 6.73790E-02    8.90925E+03
 7.20000E-02    8.76930E+03
 7.95000E-02    8.65405E+03
 8.25000E-02    8.58279E+03
 8.65170E-02    8.39938E+03
 9.80370E-02    8.14745E+03
 1.11090E-01    7.97857E+03
 1.16790E-01    7.87669E+03
 1.22770E-01    7.78437E+03
 1.29070E-01    7.69502E+03
 1.35690E-01    7.60118E+03
 1.42640E-01    7.50250E+03
 1.49960E-01    7.40454E+03
 1.57640E-01    7.31778E+03
 1.65730E-01    7.22752E+03
 1.74220E-01    7.13263E+03
 1.83160E-01    7.03284E+03
 1.92550E-01    6.92818E+03
 2.02420E-01    6.84147E+03
 2.12800E-01    6.76659E+03
 2.23710E-01    6.68788E+03
 2.35180E-01    6.60512E+03
 2.47240E-01    6.47240E+03
 2.73240E-01    6.33054E+03
 2.87250E-01    6.25537E+03
 2.94520E-01    6.22028E+03
 2.97200E-01    6.20626E+03
 2.98500E-01    6.18950E+03
 3.01970E-01    6.10390E+03
 3.33730E-01    5.94769E+03
 3.68830E-01    5.82040E+03
 3.87740E-01    5.73055E+03
 4.07620E-01    5.62244E+03
 4.50490E-01    5.47810E+03
 4.97870E-01    5.36709E+03
 5.23400E-01    5.30541E+03
 5.50230E-01    5.24116E+03
 5.78440E-01    5.17383E+03
 6.08100E-01    5.11948E+03
 6.39280E-01    5.07275E+03
 6.72060E-01    5.02364E+03
 7.06510E-01    4.97605E+03
 7.42740E-01    4.93556E+03
 7.80820E-01    4.89344E+03
 8.20850E-01    4.85573E+03
 8.62940E-01    4.82132E+03
 9.07180E-01    4.81460E+03
 9.61640E-01    4.77575E+03
 1.00260E+00    4.65998E+03
 1.10800E+00    4.55394E+03
 1.16480E+00    4.50873E+03
 1.22460E+00    4.49577E+03
 1.28730E+00    4.35155E+03
 1.35340E+00    4.20322E+03
 1.42270E+00    4.08423E+03
 1.49570E+00    4.01135E+03
 1.57240E+00    3.91115E+03
 1.65300E+00    3.84287E+03
 1.73770E+00    3.77554E+03
 1.82680E+00    3.71467E+03
 1.92050E+00    3.65639E+03
 2.01900E+00    3.59642E+03
 2.12250E+00    3.53821E+03
 2.23130E+00    3.48789E+03
 2.30690E+00    3.45667E+03
 2.34570E+00    3.44076E+03
 2.36530E+00    3.43000E+03
 2.38520E+00    3.40271E+03
 2.46600E+00    3.34648E+03
 2.59240E+00    3.27592E+03
 2.72530E+00    3.20174E+03
 2.86500E+00    3.12378E+03
 3.01190E+00    3.04577E+03
 3.16640E+00    2.96677E+03
 3.32870E+00    2.84134E+03
 3.67880E+00    2.67424E+03
 4.06570E+00    2.52376E+03
 4.49330E+00    2.41370E+03
 4.72370E+00    2.33528E+03
 4.96590E+00    2.26809E+03
 5.22050E+00    2.22318E+03
 5.48810E+00    2.17637E+03
 5.76950E+00    2.12812E+03
 6.06530E+00    2.10563E+03
 6.37630E+00    2.09694E+03
 6.59240E+00    2.09155E+03
 6.70320E+00    2.08445E+03
 7.04690E+00    2.09631E+03
 7.40820E+00    2.12309E+03
 7.78800E+00    2.15567E+03
 8.18730E+00    2.22136E+03
 8.60710E+00    2.27168E+03
 9.04840E+00    2.32111E+03
 9.51230E+00    2.39200E+03
 1.00000E+01    2.46443E+03
 1.05130E+01    2.53839E+03
 1.10520E+01    2.60865E+03
 1.16180E+01    2.67597E+03
 1.22140E+01    2.73162E+03
 1.28400E+01    2.77854E+03
 1.34990E+01    2.80229E+03
 1.38400E+01    2.81615E+03
 1.41910E+01    2.82015E+03
 1.45500E+01    2.82264E+03
 1.49180E+01    2.81580E+03
 1.56830E+01    2.78865E+03
 1.64870E+01    2.73958E+03
