# n + Dy160 : (n,tot)   
# endfb8.0   Kim,Herman,Oh,Oblozinsky          EVAL-FEB06
# uncertainties: n
# # energies =   171
#   E(MeV)       xs(mb) 
 1.00000E-11    6.07980E+05
 1.00000E-07    2.75996E+04
 4.13990E-07    2.20759E+04
 5.31580E-07    2.16262E+04
 6.82560E-07    2.21498E+04
 8.76420E-07    2.49794E+04
 1.12540E-06    3.72459E+04
 1.44500E-06    3.57108E+05
 1.85540E-06    5.47770E+05
 2.37240E-06    2.22287E+04
 3.05900E-06    1.26878E+04
 3.92790E-06    1.10311E+04
 5.04350E-06    1.14758E+04
 6.47600E-06    1.73372E+04
 8.31530E-06    2.27234E+06
 1.06770E-05    2.10013E+05
 1.37100E-05    1.67258E+04
 1.76030E-05    1.21225E+06
 2.26030E-05    2.42637E+04
 2.92030E-05    2.79433E+04
 3.72670E-05    9.24861E+03
 4.78510E-05    7.28126E+03
 6.14420E-05    2.52864E+04
 7.88930E-05    2.12267E+05
 1.01300E-04    9.77612E+03
 1.30070E-04    8.68868E+04
 1.67020E-04    3.58144E+04
 2.14450E-04    9.09782E+03
 2.75360E-04    6.01077E+04
 3.53580E-04    7.93239E+04
 4.54000E-04    1.60741E+04
 5.82950E-04    9.88380E+04
 7.48520E-04    2.03691E+04
 9.61120E-04    2.27741E+04
 1.23410E-03    1.66494E+04
 1.58460E-03    3.07705E+04
 2.03470E-03    2.31677E+04
 2.24870E-03    2.23825E+04
 2.48520E-03    2.18180E+04
 2.61260E-03    2.14542E+04
 2.74650E-03    2.09264E+04
 3.03540E-03    2.02524E+04
 3.35460E-03    1.96129E+04
 3.70740E-03    1.88546E+04
 4.30740E-03    1.77397E+04
 5.53080E-03    1.64903E+04
 7.10170E-03    1.53861E+04
 9.11880E-03    1.44105E+04
 1.17090E-02    1.35494E+04
 1.50340E-02    1.27844E+04
 1.93050E-02    1.22083E+04
 2.18750E-02    1.19224E+04
 2.35790E-02    1.17958E+04
 2.41760E-02    1.17306E+04
 2.47880E-02    1.16357E+04
 2.60580E-02    1.15315E+04
 2.70000E-02    1.14210E+04
 2.85000E-02    1.12266E+04
 3.18280E-02    1.10125E+04
 3.43070E-02    1.07356E+04
 4.08680E-02    1.04160E+04
 4.63090E-02    1.01609E+04
 5.24750E-02    9.96012E+03
 5.65620E-02    9.71564E+03
 6.73790E-02    9.48323E+03
 7.20000E-02    9.32618E+03
 7.95000E-02    9.19775E+03
 8.25000E-02    9.11892E+03
 8.65170E-02    8.94736E+03
 9.80370E-02    8.71025E+03
 1.11090E-01    8.55171E+03
 1.16790E-01    8.45666E+03
 1.22770E-01    8.37321E+03
 1.29070E-01    8.29408E+03
 1.35690E-01    8.21096E+03
 1.42640E-01    8.12356E+03
 1.49960E-01    8.03932E+03
 1.57640E-01    7.97223E+03
 1.65730E-01    7.90295E+03
 1.74220E-01    7.83012E+03
 1.83160E-01    7.75353E+03
 1.92550E-01    7.67325E+03
 2.02420E-01    7.61363E+03
 2.12800E-01    7.56822E+03
 2.23710E-01    7.52049E+03
 2.35180E-01    7.47030E+03
 2.47240E-01    7.38982E+03
 2.73240E-01    7.30380E+03
 2.87250E-01    7.25822E+03
 2.94520E-01    7.23694E+03
 2.97200E-01    7.22844E+03
 2.98500E-01    7.21828E+03
 3.01970E-01    7.18122E+03
 3.33730E-01    7.11857E+03
 3.68830E-01    7.06752E+03
 3.87740E-01    7.03127E+03
 4.07620E-01    7.00131E+03
 4.50490E-01    6.97248E+03
 4.97870E-01    6.94969E+03
 5.23400E-01    6.94212E+03
 5.50230E-01    6.93660E+03
 5.78440E-01    6.93118E+03
 6.08100E-01    6.93295E+03
 6.39280E-01    6.93771E+03
 6.72060E-01    6.94273E+03
 7.06510E-01    6.94800E+03
 7.42740E-01    6.95354E+03
 7.80820E-01    6.95936E+03
 8.20850E-01    6.96548E+03
 8.62940E-01    6.97192E+03
 9.07180E-01    6.97927E+03
 9.61640E-01    6.98638E+03
 1.00260E+00    6.98114E+03
 1.10800E+00    6.96919E+03
 1.16480E+00    6.96067E+03
 1.22460E+00    6.95062E+03
 1.28730E+00    6.93329E+03
 1.35340E+00    6.91392E+03
 1.42270E+00    6.89357E+03
 1.49570E+00    6.87193E+03
 1.57240E+00    6.84252E+03
 1.65300E+00    6.80845E+03
 1.73770E+00    6.77264E+03
 1.82680E+00    6.73497E+03
 1.92050E+00    6.69398E+03
 2.01900E+00    6.64294E+03
 2.12250E+00    6.58801E+03
 2.23130E+00    6.54017E+03
 2.30690E+00    6.51049E+03
 2.34570E+00    6.49535E+03
 2.36530E+00    6.48513E+03
 2.38520E+00    6.45918E+03
 2.46600E+00    6.40572E+03
 2.59240E+00    6.33844E+03
 2.72530E+00    6.26493E+03
 2.86500E+00    6.18675E+03
 3.01190E+00    6.10454E+03
 3.16640E+00    6.01812E+03
 3.32870E+00    5.87954E+03
 3.67880E+00    5.68217E+03
 4.06570E+00    5.49358E+03
 4.49330E+00    5.35268E+03
 4.72370E+00    5.25230E+03
 4.96590E+00    5.16341E+03
 5.22050E+00    5.09806E+03
 5.48810E+00    5.02979E+03
 5.76950E+00    4.95904E+03
 6.06530E+00    4.91469E+03
 6.37630E+00    4.88766E+03
 6.59240E+00    4.87089E+03
 6.70320E+00    4.84811E+03
 7.04690E+00    4.83636E+03
 7.40820E+00    4.83886E+03
 7.78800E+00    4.84287E+03
 8.18730E+00    4.86669E+03
 8.60710E+00    4.89811E+03
 9.04840E+00    4.93546E+03
 9.51230E+00    4.98297E+03
 1.00000E+01    5.03314E+03
 1.05130E+01    5.08584E+03
 1.10520E+01    5.13609E+03
 1.16180E+01    5.18423E+03
 1.22140E+01    5.22224E+03
 1.28400E+01    5.25218E+03
 1.34990E+01    5.26414E+03
 1.38400E+01    5.27010E+03
 1.41910E+01    5.26680E+03
 1.45500E+01    5.26209E+03
 1.49180E+01    5.24466E+03
 1.56830E+01    5.20408E+03
 1.64870E+01    5.14191E+03
