# n + Xe132 : (n,p)     
# jendl.ad   kunieda                           EVAL-Mar14
# uncertainties: n
# # energies =    37
#   E(MeV)       xs(mb) 
 2.81964E+00    0.00000E+00
 2.84181E+00    8.43840E-13
 2.86974E+00    1.90690E-12
 2.94056E+00    4.60250E-12
 4.00000E+00    4.49530E-11
 4.50000E+00    6.52560E-08
 5.00000E+00    5.18108E-06
 5.50000E+00    1.06676E-04
 6.00000E+00    6.74362E-04
 6.50000E+00    3.48476E-03
 7.00000E+00    1.07293E-02
 7.50000E+00    2.70094E-02
 8.00000E+00    5.81111E-02
 8.50000E+00    9.69665E-02
 9.00000E+00    1.57707E-01
 9.50000E+00    2.53852E-01
 1.00000E+01    4.16075E-01
 1.05000E+01    6.30305E-01
 1.10000E+01    9.54243E-01
 1.15000E+01    1.39438E+00
 1.20000E+01    1.97628E+00
 1.25000E+01    2.70908E+00
 1.30000E+01    3.59838E+00
 1.35000E+01    4.66653E+00
 1.40000E+01    5.89588E+00
 1.45000E+01    7.29371E+00
 1.50000E+01    8.82579E+00
 1.55000E+01    1.04805E+01
 1.60000E+01    1.21685E+01
 1.65000E+01    1.39039E+01
 1.70000E+01    1.55573E+01
 1.75000E+01    1.70882E+01
 1.80000E+01    1.84900E+01
 1.85000E+01    1.97124E+01
 1.90000E+01    2.16161E+01
 1.95000E+01    2.23952E+01
 2.00000E+01    2.29417E+01
