# n + Xe132 : (n,d)     
# jendl.ad   kunieda                           EVAL-Mar14
# uncertainties: n
# # energies =    37
#   E(MeV)       xs(mb) 
 6.95329E+00    0.00000E+00
 7.10415E+00    6.83920E-19
 7.44972E+00    7.95570E-15
 7.55993E+00    1.04960E-14
 7.73287E+00    1.02260E-13
 7.81201E+00    1.45470E-13
 7.83672E+00    1.58970E-13
 7.96675E+00    2.30020E-13
 8.00000E+00    2.48200E-13
 8.02110E+00    2.79600E-13
 8.05995E+00    3.44100E-13
 8.10901E+00    4.30220E-13
 8.11106E+00    4.33830E-13
 8.50000E+00    1.12140E-12
 9.00000E+00    3.61340E-10
 9.50000E+00    3.67360E-08
 1.00000E+01    9.80900E-07
 1.05000E+01    1.07589E-05
 1.10000E+01    8.12855E-05
 1.15000E+01    5.00610E-04
 1.20000E+01    2.60255E-03
 1.25000E+01    1.14074E-02
 1.30000E+01    4.20276E-02
 1.35000E+01    8.01042E-02
 1.40000E+01    1.71981E-01
 1.45000E+01    3.72940E-01
 1.50000E+01    5.87031E-01
 1.55000E+01    8.81204E-01
 1.60000E+01    1.44878E+00
 1.65000E+01    1.98143E+00
 1.70000E+01    2.61853E+00
 1.75000E+01    3.36027E+00
 1.80000E+01    3.81586E+00
 1.85000E+01    4.39471E+00
 1.90000E+01    5.35721E+00
 1.95000E+01    6.41463E+00
 2.00000E+01    6.63828E+00
