# n + Xe132 : (n,p)g    
# jendl.ad   kunieda                           EVAL-Mar14
# uncertainties: n
# # energies =    35
#   E(MeV)       xs(mb) 
 2.81964E+00    0.00000E+00
 2.94056E+00    4.60250E-12
 4.00000E+00    4.49270E-11
 4.50000E+00    6.50170E-08
 5.00000E+00    5.14017E-06
 5.50000E+00    1.05233E-04
 6.00000E+00    6.60841E-04
 6.50000E+00    3.38464E-03
 7.00000E+00    1.02878E-02
 7.50000E+00    2.54824E-02
 8.00000E+00    5.38599E-02
 8.50000E+00    8.63462E-02
 9.00000E+00    1.33873E-01
 9.50000E+00    2.05081E-01
 1.00000E+01    3.31924E-01
 1.05000E+01    4.72058E-01
 1.10000E+01    6.99715E-01
 1.15000E+01    1.01190E+00
 1.20000E+01    1.43529E+00
 1.25000E+01    1.91509E+00
 1.30000E+01    2.55552E+00
 1.35000E+01    3.37997E+00
 1.40000E+01    4.14696E+00
 1.45000E+01    5.25383E+00
 1.50000E+01    6.17962E+00
 1.55000E+01    7.24000E+00
 1.60000E+01    8.51245E+00
 1.65000E+01    9.55131E+00
 1.70000E+01    1.10029E+01
 1.75000E+01    1.17418E+01
 1.80000E+01    1.24954E+01
 1.85000E+01    1.38303E+01
 1.90000E+01    1.47809E+01
 1.95000E+01    1.50310E+01
 2.00000E+01    1.52181E+01
