# n + Xe132 : (n,p)m    
# jendl.ad   kunieda                           EVAL-Mar14
# uncertainties: n
# # energies =    34
#   E(MeV)       xs(mb) 
 2.94056E+00    0.00000E+00
 4.00000E+00    2.56820E-14
 4.50000E+00    2.39160E-10
 5.00000E+00    4.09110E-08
 5.50000E+00    1.44307E-06
 6.00000E+00    1.35209E-05
 6.50000E+00    1.00123E-04
 7.00000E+00    4.41446E-04
 7.50000E+00    1.52704E-03
 8.00000E+00    4.25121E-03
 8.50000E+00    1.06203E-02
 9.00000E+00    2.38341E-02
 9.50000E+00    4.87706E-02
 1.00000E+01    8.41506E-02
 1.05000E+01    1.58247E-01
 1.10000E+01    2.54528E-01
 1.15000E+01    3.82480E-01
 1.20000E+01    5.40994E-01
 1.25000E+01    7.93993E-01
 1.30000E+01    1.04286E+00
 1.35000E+01    1.28656E+00
 1.40000E+01    1.74892E+00
 1.45000E+01    2.03988E+00
 1.50000E+01    2.64617E+00
 1.55000E+01    3.24047E+00
 1.60000E+01    3.65604E+00
 1.65000E+01    4.35258E+00
 1.70000E+01    4.55440E+00
 1.75000E+01    5.34641E+00
 1.80000E+01    5.99459E+00
 1.85000E+01    5.88214E+00
 1.90000E+01    6.83521E+00
 1.95000E+01    7.36416E+00
 2.00000E+01    7.72356E+00
