# n + Kr 84 : (n,tot)   
# endfb8.0   JNDC FPND W.G., Mughabghab        EVAL-JAN05
# uncertainties: n
# # energies =   171
#   E(MeV)       xs(mb) 
 1.00000E-11    8.07735E+03
 1.00000E-07    3.76109E+03
 4.13990E-07    3.74514E+03
 5.31580E-07    3.74167E+03
 6.82560E-07    3.73882E+03
 8.76420E-07    3.73622E+03
 1.12540E-06    3.73416E+03
 1.44500E-06    3.73166E+03
 1.85540E-06    3.73052E+03
 2.37240E-06    3.72976E+03
 3.05900E-06    3.72879E+03
 3.92790E-06    3.72755E+03
 5.04350E-06    3.72595E+03
 6.47600E-06    3.72390E+03
 8.31530E-06    3.72127E+03
 1.06770E-05    3.71789E+03
 1.37100E-05    3.71363E+03
 1.76030E-05    3.70973E+03
 2.26030E-05    3.70533E+03
 2.92030E-05    3.69975E+03
 3.72670E-05    3.69267E+03
 4.78510E-05    3.68349E+03
 6.14420E-05    3.67170E+03
 7.88930E-05    3.65657E+03
 1.01300E-04    3.63713E+03
 1.30070E-04    3.61217E+03
 1.67020E-04    3.57387E+03
 2.14450E-04    3.51716E+03
 2.75360E-04    3.42011E+03
 3.53580E-04    3.18242E+03
 4.54000E-04    2.47790E+04
 5.82950E-04    3.76564E+03
 7.48520E-04    3.32135E+03
 9.61120E-04    2.88799E+03
 1.23410E-03    1.78946E+04
 1.58460E-03    1.60909E+03
 2.03470E-03    1.57405E+05
 2.24870E-03    3.85142E+04
 2.48520E-03    1.12503E+04
 2.61260E-03    9.02791E+03
 2.74650E-03    1.37913E+04
 3.03540E-03    6.35912E+03
 3.35460E-03    5.75753E+03
 3.70740E-03    5.25683E+03
 4.30740E-03    7.35025E+03
 5.53080E-03    5.51852E+03
 7.10170E-03    4.46287E+03
 9.11880E-03    1.94927E+04
 1.17090E-02    7.31034E+03
 1.50340E-02    6.70663E+03
 1.93050E-02    4.93612E+03
 2.18750E-02    4.43458E+03
 2.35790E-02    3.29418E+03
 2.41760E-02    1.67492E+04
 2.47880E-02    2.81756E+03
 2.60580E-02    2.83937E+04
 2.70000E-02    6.25005E+03
 2.85000E-02    4.24969E+03
 3.18280E-02    2.27688E+04
 3.43070E-02    8.71301E+03
 4.08680E-02    8.89097E+03
 4.63090E-02    7.19579E+03
 5.24750E-02    5.13472E+03
 5.65620E-02    7.82354E+03
 6.73790E-02    1.72977E+04
 7.20000E-02    1.47322E+04
 7.95000E-02    1.02161E+04
 8.25000E-02    1.12551E+04
 8.65170E-02    8.85350E+03
 9.80370E-02    8.07890E+03
 1.11090E-01    8.06129E+03
 1.16790E-01    8.05045E+03
 1.22770E-01    8.03905E+03
 1.29070E-01    8.02706E+03
 1.35690E-01    8.01447E+03
 1.42640E-01    8.00123E+03
 1.49960E-01    7.98730E+03
 1.57640E-01    7.97267E+03
 1.65730E-01    7.95598E+03
 1.74220E-01    7.93618E+03
 1.83160E-01    7.91531E+03
 1.92550E-01    7.89338E+03
 2.02420E-01    7.87033E+03
 2.12800E-01    7.84432E+03
 2.23710E-01    7.81378E+03
 2.35180E-01    7.78161E+03
 2.47240E-01    7.72978E+03
 2.73240E-01    7.67020E+03
 2.87250E-01    7.63713E+03
 2.94520E-01    7.62169E+03
 2.97200E-01    7.61552E+03
 2.98500E-01    7.60815E+03
 3.01970E-01    7.54057E+03
 3.33730E-01    7.40282E+03
 3.68830E-01    7.29928E+03
 3.87740E-01    7.23510E+03
 4.07620E-01    7.13244E+03
 4.50490E-01    6.99740E+03
 4.97870E-01    6.88519E+03
 5.23400E-01    6.78431E+03
 5.50230E-01    6.67773E+03
 5.78440E-01    6.57717E+03
 6.08100E-01    6.47859E+03
 6.39280E-01    6.37544E+03
 6.72060E-01    6.27263E+03
 7.06510E-01    6.16624E+03
 7.42740E-01    6.05475E+03
 7.80820E-01    5.93760E+03
 8.20850E-01    5.81569E+03
 8.62940E-01    5.69861E+03
 9.07180E-01    5.56774E+03
 9.61640E-01    5.44481E+03
 1.00260E+00    5.27666E+03
 1.10800E+00    5.10001E+03
 1.16480E+00    4.98438E+03
 1.22460E+00    4.87469E+03
 1.28730E+00    4.76676E+03
 1.35340E+00    4.66371E+03
 1.42270E+00    4.56118E+03
 1.49570E+00    4.46704E+03
 1.57240E+00    4.37737E+03
 1.65300E+00    4.29030E+03
 1.73770E+00    4.20773E+03
 1.82680E+00    4.13367E+03
 1.92050E+00    4.06242E+03
 2.01900E+00    3.99917E+03
 2.12250E+00    3.93912E+03
 2.23130E+00    3.89572E+03
 2.30690E+00    3.86894E+03
 2.34570E+00    3.85529E+03
 2.36530E+00    3.84607E+03
 2.38520E+00    3.82673E+03
 2.46600E+00    3.79336E+03
 2.59240E+00    3.75209E+03
 2.72530E+00    3.72008E+03
 2.86500E+00    3.69336E+03
 3.01190E+00    3.67385E+03
 3.16640E+00    3.66020E+03
 3.32870E+00    3.65245E+03
 3.67880E+00    3.66684E+03
 4.06570E+00    3.72255E+03
 4.49330E+00    3.77964E+03
 4.72370E+00    3.82032E+03
 4.96590E+00    3.86883E+03
 5.22050E+00    3.93552E+03
 5.48810E+00    4.00651E+03
 5.76950E+00    4.08114E+03
 6.06530E+00    4.15952E+03
 6.37630E+00    4.22461E+03
 6.59240E+00    4.26357E+03
 6.70320E+00    4.31730E+03
 7.04690E+00    4.38443E+03
 7.40820E+00    4.43759E+03
 7.78800E+00    4.48825E+03
 8.18730E+00    4.50446E+03
 8.60710E+00    4.51398E+03
 9.04840E+00    4.49684E+03
 9.51230E+00    4.46038E+03
 1.00000E+01    4.39977E+03
 1.05130E+01    4.31707E+03
 1.10520E+01    4.23625E+03
 1.16180E+01    4.15514E+03
 1.22140E+01    4.05894E+03
 1.28400E+01    3.96008E+03
 1.34990E+01    3.88748E+03
 1.38400E+01    3.84020E+03
 1.41910E+01    3.79531E+03
 1.45500E+01    3.75153E+03
 1.49180E+01    3.68785E+03
 1.56830E+01    3.60356E+03
 1.64870E+01    3.50964E+03
