# n + Rb 85 : (n,n'09)  
# tendl.2019 A.J. Koning and D. Rochman        EVAL-NOV19
# uncertainties: n
# # energies =    87
#   E(MeV)       xs(mb) 
 9.62246E-01    0.00000E+00
 1.00000E+00    3.19073E+01
 1.18896E+00    1.10239E+02
 1.20000E+00    1.14815E+02
 1.24911E+00    1.19609E+02
 1.30873E+00    1.25429E+02
 1.31133E+00    1.25683E+02
 1.40000E+00    1.34339E+02
 1.40065E+00    1.34310E+02
 1.46223E+00    1.31523E+02
 1.46643E+00    1.31332E+02
 1.51406E+00    1.29177E+02
 1.60000E+00    1.25287E+02
 1.65084E+00    1.22152E+02
 1.68845E+00    1.19832E+02
 1.76856E+00    1.14892E+02
 1.80000E+00    1.12953E+02
 1.80816E+00    1.12373E+02
 1.81357E+00    1.11989E+02
 1.82361E+00    1.11276E+02
 1.87463E+00    1.07651E+02
 1.91346E+00    1.04892E+02
 1.95262E+00    1.02110E+02
 1.97319E+00    1.00648E+02
 2.00000E+00    9.87437E+01
 2.02366E+00    9.70858E+01
 2.05220E+00    9.50859E+01
 2.06373E+00    9.42780E+01
 2.20000E+00    8.47292E+01
 2.40000E+00    6.80304E+01
 2.60000E+00    5.30218E+01
 2.80000E+00    4.11771E+01
 3.00000E+00    3.20737E+01
 3.20000E+00    2.50457E+01
 3.40000E+00    1.95748E+01
 3.60000E+00    1.52936E+01
 3.80000E+00    1.19448E+01
 4.00000E+00    9.32962E+00
 4.20000E+00    7.29705E+00
 4.40000E+00    5.71635E+00
 4.60000E+00    4.49312E+00
 4.80000E+00    3.54613E+00
 5.00000E+00    2.81246E+00
 5.20000E+00    2.24251E+00
 5.40000E+00    1.79815E+00
 5.60000E+00    1.45053E+00
 5.80000E+00    1.17781E+00
 6.00000E+00    9.62303E-01
 6.20000E+00    7.92390E-01
 6.40000E+00    6.55525E-01
 6.60000E+00    5.47287E-01
 6.80000E+00    4.59156E-01
 7.00000E+00    3.88610E-01
 7.20000E+00    3.31226E-01
 7.40000E+00    2.82998E-01
 7.60000E+00    2.44695E-01
 7.80000E+00    2.13076E-01
 8.00000E+00    1.87372E-01
 8.50000E+00    1.41164E-01
 9.00000E+00    1.12422E-01
 9.50000E+00    9.43301E-02
 1.00000E+01    8.28431E-02
 1.05000E+01    7.54744E-02
 1.10000E+01    7.06805E-02
 1.15000E+01    6.75000E-02
 1.20000E+01    6.53402E-02
 1.25000E+01    6.38345E-02
 1.30000E+01    6.27501E-02
 1.35000E+01    6.19408E-02
 1.40000E+01    6.13160E-02
 1.45000E+01    6.08220E-02
 1.50000E+01    6.04262E-02
 1.60000E+01    5.98580E-02
 1.70000E+01    5.95199E-02
 1.80000E+01    5.93384E-02
 1.90000E+01    5.92250E-02
 2.00000E+01    5.90774E-02
 2.10000E+01    5.88106E-02
 2.20000E+01    5.83819E-02
 2.30000E+01    5.77943E-02
 2.40000E+01    5.70834E-02
 2.50000E+01    5.62945E-02
 2.60000E+01    5.54670E-02
 2.70000E+01    5.46255E-02
 2.80000E+01    5.37799E-02
 2.90000E+01    5.29301E-02
 3.00000E+01    5.20694E-02
