# n + Rb 85 : (n,n'06)  
# tendl.2019 A.J. Koning and D. Rochman        EVAL-NOV19
# uncertainties: n
# # energies =    91
#   E(MeV)       xs(mb) 
 8.96343E-01    0.00000E+00
 9.00000E-01    9.84388E-01
 9.30625E-01    7.25364E+00
 9.46441E-01    1.04913E+01
 9.62246E-01    1.37268E+01
 1.00000E+00    2.14554E+01
 1.18896E+00    4.50046E+01
 1.20000E+00    4.63805E+01
 1.24911E+00    4.75345E+01
 1.30873E+00    4.89356E+01
 1.31133E+00    4.89967E+01
 1.40000E+00    5.10803E+01
 1.40065E+00    5.10694E+01
 1.46223E+00    5.00330E+01
 1.46643E+00    4.99623E+01
 1.51406E+00    4.91608E+01
 1.60000E+00    4.77145E+01
 1.65084E+00    4.67737E+01
 1.68845E+00    4.60777E+01
 1.76856E+00    4.45952E+01
 1.80000E+00    4.40134E+01
 1.80816E+00    4.38835E+01
 1.81357E+00    4.37974E+01
 1.82361E+00    4.36376E+01
 1.87463E+00    4.28257E+01
 1.91346E+00    4.22077E+01
 1.95262E+00    4.15844E+01
 1.97319E+00    4.12571E+01
 2.00000E+00    4.08304E+01
 2.02366E+00    4.04246E+01
 2.05220E+00    3.99352E+01
 2.06373E+00    3.97375E+01
 2.20000E+00    3.74005E+01
 2.40000E+00    3.29970E+01
 2.60000E+00    2.82577E+01
 2.80000E+00    2.36021E+01
 3.00000E+00    1.92988E+01
 3.20000E+00    1.54991E+01
 3.40000E+00    1.22582E+01
 3.60000E+00    9.57059E+00
 3.80000E+00    7.39839E+00
 4.00000E+00    5.67787E+00
 4.20000E+00    4.33986E+00
 4.40000E+00    3.30931E+00
 4.60000E+00    2.52496E+00
 4.80000E+00    1.93082E+00
 5.00000E+00    1.48206E+00
 5.20000E+00    1.14291E+00
 5.40000E+00    8.85676E-01
 5.60000E+00    6.90568E-01
 5.80000E+00    5.41632E-01
 6.00000E+00    4.27215E-01
 6.20000E+00    3.39439E-01
 6.40000E+00    2.70548E-01
 6.60000E+00    2.17317E-01
 6.80000E+00    1.74996E-01
 7.00000E+00    1.41775E-01
 7.20000E+00    1.15276E-01
 7.40000E+00    9.34525E-02
 7.60000E+00    7.63523E-02
 7.80000E+00    6.24613E-02
 8.00000E+00    5.13131E-02
 8.50000E+00    3.16694E-02
 9.00000E+00    1.97760E-02
 9.50000E+00    1.24712E-02
 1.00000E+01    7.94007E-03
 1.05000E+01    5.10320E-03
 1.10000E+01    3.30817E-03
 1.15000E+01    2.15810E-03
 1.20000E+01    1.41427E-03
 1.25000E+01    9.30900E-04
 1.30000E+01    6.15383E-04
 1.35000E+01    4.08731E-04
 1.40000E+01    2.72616E-04
 1.45000E+01    1.82638E-04
 1.50000E+01    1.22879E-04
 1.60000E+01    5.62733E-05
 1.70000E+01    2.62041E-05
 1.80000E+01    1.24106E-05
 1.90000E+01    5.98746E-06
 2.00000E+01    2.93816E-06
 2.10000E+01    1.46585E-06
 2.20000E+01    7.38000E-07
 2.30000E+01    3.71660E-07
 2.40000E+01    1.90520E-07
 2.50000E+01    9.85610E-08
 2.60000E+01    5.14780E-08
 2.70000E+01    2.70710E-08
 2.80000E+01    1.44060E-08
 2.90000E+01    7.74700E-09
 3.00000E+01    4.19750E-09
