# n + Rb 85 : (n,n'12)  
# tendl.2019 A.J. Koning and D. Rochman        EVAL-NOV19
# uncertainties: n
# # energies =    82
#   E(MeV)       xs(mb) 
 1.30873E+00    0.00000E+00
 1.31133E+00    4.82788E-01
 1.40000E+00    1.69480E+01
 1.40065E+00    1.69912E+01
 1.46223E+00    2.10800E+01
 1.46643E+00    2.13588E+01
 1.51406E+00    2.45214E+01
 1.60000E+00    3.02276E+01
 1.65084E+00    3.21928E+01
 1.68845E+00    3.36466E+01
 1.76856E+00    3.67433E+01
 1.80000E+00    3.79586E+01
 1.80816E+00    3.80328E+01
 1.81357E+00    3.80820E+01
 1.82361E+00    3.81733E+01
 1.87463E+00    3.86374E+01
 1.91346E+00    3.89905E+01
 1.95262E+00    3.93467E+01
 1.97319E+00    3.95338E+01
 2.00000E+00    3.97776E+01
 2.02366E+00    3.97081E+01
 2.05220E+00    3.96243E+01
 2.06373E+00    3.95904E+01
 2.20000E+00    3.91901E+01
 2.40000E+00    3.26738E+01
 2.60000E+00    2.57206E+01
 2.80000E+00    2.03054E+01
 3.00000E+00    1.62208E+01
 3.20000E+00    1.30615E+01
 3.40000E+00    1.05527E+01
 3.60000E+00    8.53162E+00
 3.80000E+00    6.89625E+00
 4.00000E+00    5.57358E+00
 4.20000E+00    4.50858E+00
 4.40000E+00    3.64993E+00
 4.60000E+00    2.96170E+00
 4.80000E+00    2.41019E+00
 5.00000E+00    1.96814E+00
 5.20000E+00    1.61315E+00
 5.40000E+00    1.32811E+00
 5.60000E+00    1.09902E+00
 5.80000E+00    9.13695E-01
 6.00000E+00    7.63826E-01
 6.20000E+00    6.42834E-01
 6.40000E+00    5.42928E-01
 6.60000E+00    4.62565E-01
 6.80000E+00    3.95807E-01
 7.00000E+00    3.41470E-01
 7.20000E+00    2.96616E-01
 7.40000E+00    2.58277E-01
 7.60000E+00    2.27428E-01
 7.80000E+00    2.01695E-01
 8.00000E+00    1.80518E-01
 8.50000E+00    1.41785E-01
 9.00000E+00    1.17068E-01
 9.50000E+00    1.01119E-01
 1.00000E+01    9.07436E-02
 1.05000E+01    8.39272E-02
 1.10000E+01    7.93858E-02
 1.15000E+01    7.63022E-02
 1.20000E+01    7.41542E-02
 1.25000E+01    7.26105E-02
 1.30000E+01    7.14554E-02
 1.35000E+01    7.05503E-02
 1.40000E+01    6.98088E-02
 1.45000E+01    6.91796E-02
 1.50000E+01    6.86317E-02
 1.60000E+01    6.77159E-02
 1.70000E+01    6.69820E-02
 1.80000E+01    6.63679E-02
 1.90000E+01    6.57963E-02
 2.00000E+01    6.51760E-02
 2.10000E+01    6.44307E-02
 2.20000E+01    6.35228E-02
 2.30000E+01    6.24597E-02
 2.40000E+01    6.12811E-02
 2.50000E+01    6.00385E-02
 2.60000E+01    5.87784E-02
 2.70000E+01    5.75318E-02
 2.80000E+01    5.63145E-02
 2.90000E+01    5.51297E-02
 3.00000E+01    5.39729E-02
