# n + Rb 85 : (n,n'10)  
# tendl.2019 A.J. Koning and D. Rochman        EVAL-NOV19
# uncertainties: n
# # energies =    85
#   E(MeV)       xs(mb) 
 1.18896E+00    0.00000E+00
 1.20000E+00    9.28012E+00
 1.24911E+00    2.34184E+01
 1.30873E+00    4.05825E+01
 1.31133E+00    4.13310E+01
 1.40000E+00    6.68583E+01
 1.40065E+00    6.69240E+01
 1.46223E+00    7.31471E+01
 1.46643E+00    7.35716E+01
 1.51406E+00    7.83849E+01
 1.60000E+00    8.70698E+01
 1.65084E+00    8.89516E+01
 1.68845E+00    9.03436E+01
 1.76856E+00    9.33087E+01
 1.80000E+00    9.44724E+01
 1.80816E+00    9.43567E+01
 1.81357E+00    9.42799E+01
 1.82361E+00    9.41376E+01
 1.87463E+00    9.34140E+01
 1.91346E+00    9.28632E+01
 1.95262E+00    9.23079E+01
 1.97319E+00    9.20161E+01
 2.00000E+00    9.16359E+01
 2.02366E+00    9.08598E+01
 2.05220E+00    8.99236E+01
 2.06373E+00    8.95454E+01
 2.20000E+00    8.50755E+01
 2.40000E+00    7.04066E+01
 2.60000E+00    5.49734E+01
 2.80000E+00    4.25008E+01
 3.00000E+00    3.29871E+01
 3.20000E+00    2.57318E+01
 3.40000E+00    2.01373E+01
 3.60000E+00    1.57853E+01
 3.80000E+00    1.23891E+01
 4.00000E+00    9.73469E+00
 4.20000E+00    7.66458E+00
 4.40000E+00    6.04561E+00
 4.60000E+00    4.78404E+00
 4.80000E+00    3.79980E+00
 5.00000E+00    3.03096E+00
 5.20000E+00    2.42828E+00
 5.40000E+00    1.95550E+00
 5.60000E+00    1.58282E+00
 5.80000E+00    1.28758E+00
 6.00000E+00    1.05351E+00
 6.20000E+00    8.67305E-01
 6.40000E+00    7.16532E-01
 6.60000E+00    5.96789E-01
 6.80000E+00    4.98787E-01
 7.00000E+00    4.20015E-01
 7.20000E+00    3.55805E-01
 7.40000E+00    3.01602E-01
 7.60000E+00    2.58441E-01
 7.80000E+00    2.22805E-01
 8.00000E+00    1.93710E-01
 8.50000E+00    1.41338E-01
 9.00000E+00    1.08641E-01
 9.50000E+00    8.79942E-02
 1.00000E+01    7.48525E-02
 1.05000E+01    6.64128E-02
 1.10000E+01    6.09247E-02
 1.15000E+01    5.72946E-02
 1.20000E+01    5.48429E-02
 1.25000E+01    5.31466E-02
 1.30000E+01    5.19343E-02
 1.35000E+01    5.10340E-02
 1.40000E+01    5.03371E-02
 1.45000E+01    4.97769E-02
 1.50000E+01    4.93121E-02
 1.60000E+01    4.85764E-02
 1.70000E+01    4.80153E-02
 1.80000E+01    4.75592E-02
 1.90000E+01    4.71405E-02
 2.00000E+01    4.66874E-02
 2.10000E+01    4.61425E-02
 2.20000E+01    4.54789E-02
 2.30000E+01    4.47037E-02
 2.40000E+01    4.38477E-02
 2.50000E+01    4.29489E-02
 2.60000E+01    4.20404E-02
 2.70000E+01    4.11442E-02
 2.80000E+01    4.02706E-02
 2.90000E+01    3.94209E-02
 3.00000E+01    3.85915E-02
