# n + Si  0 : (n,p)
# jeff3.3    M.B.Chadwick,P.G.Young,D.Hetrick  EVAL-JUN97
# uncertainties: y
# # energies =   195
#   E(MeV)          xs(mb) 
 4.03128E+00    7.15132E-02
 4.18000E+00    1.98427E+00
 4.22000E+00    1.04199E+00
 4.22100E+00    1.04701E+00
 4.26000E+00    8.57487E-01
 4.30000E+00    7.96577E-01
 4.34000E+00    9.91965E-01
 4.36000E+00    1.11050E+00
 4.40000E+00    1.39110E+00
 4.42100E+00    1.48154E+00
 4.50000E+00    1.86500E+00
 4.52000E+00    2.08621E+00
 4.54000E+00    2.39678E+00
 4.56000E+00    2.63044E+00
 4.60000E+00    3.25178E+00
 4.62000E+00    3.61806E+00
 4.66000E+00    4.50871E+00
 4.72000E+00    5.89135E+00
 4.80000E+00    8.10069E+00
 4.84000E+00    9.21182E+00
 4.88000E+00    1.06510E+01
 4.94000E+00    1.31801E+01
 5.00000E+00    1.30926E+01
 5.00621E+00    1.33128E+01
 5.04972E+00    1.48550E+01
 5.10000E+00    1.66394E+01
 5.15400E+00    1.74361E+01
 5.20000E+00    1.74164E+01
 5.24000E+00    1.65782E+01
 5.26000E+00    1.58838E+01
 5.30000E+00    1.38956E+01
 5.34000E+00    1.27752E+01
 5.36000E+00    1.30041E+01
 5.40000E+00    1.46627E+01
 5.42166E+00    1.60475E+01
 5.44000E+00    1.72196E+01
 5.50000E+00    2.19892E+01
 5.59000E+00    3.32336E+01
 5.60000E+00    3.49428E+01
 5.66000E+00    4.08706E+01
 5.67757E+00    4.17914E+01
 5.67990E+00    4.19130E+01
 5.68068E+00    4.19535E+01
 5.74000E+00    4.50693E+01
 5.75000E+00    4.53499E+01
 5.96000E+00    5.12812E+01
 5.98000E+00    5.18496E+01
 6.00000E+00    5.24956E+01
 6.04000E+00    5.68440E+01
 6.06000E+00    6.01536E+01
 6.10000E+00    7.32270E+01
 6.14000E+00    6.84677E+01
 6.16000E+00    6.91616E+01
 6.18000E+00    7.64288E+01
 6.20000E+00    8.13164E+01
 6.21340E+00    8.30648E+01
 6.21528E+00    8.33112E+01
 6.24000E+00    8.65548E+01
 6.25000E+00    7.57886E+01
 6.27870E+00    7.71670E+01
 6.28055E+00    7.73691E+01
 6.30000E+00    7.94892E+01
 6.32000E+00    8.16865E+01
 6.34000E+00    8.38866E+01
 6.35308E+00    9.01096E+01
 6.35330E+00    9.02150E+01
 6.36000E+00    9.72354E+01
 6.37000E+00    1.14115E+02
 6.38000E+00    1.47559E+02
 6.40000E+00    1.94793E+02
 6.42000E+00    1.64241E+02
 6.44000E+00    1.43446E+02
 6.46000E+00    1.54240E+02
 6.48000E+00    1.70227E+02
 6.50000E+00    1.65950E+02
 6.56000E+00    1.26046E+02
 6.57290E+00    1.22711E+02
 6.57376E+00    1.22491E+02
 6.58000E+00    1.20874E+02
 6.60000E+00    1.22249E+02
 6.62000E+00    1.33060E+02
 6.64000E+00    1.36547E+02
 6.67000E+00    1.69973E+02
 6.67230E+00    1.72549E+02
 6.67322E+00    1.73583E+02
 6.68000E+00    1.81208E+02
 6.71000E+00    1.65789E+02
 6.72000E+00    1.59296E+02
 6.74000E+00    1.59178E+02
 6.75000E+00    1.68466E+02
 6.75092E+00    1.69325E+02
 6.76000E+00    1.77782E+02
 6.78000E+00    2.04244E+02
 6.80000E+00    2.54418E+02
 6.82000E+00    2.18413E+02
 6.84000E+00    1.87453E+02
 6.92000E+00    1.44147E+02
 6.94000E+00    1.56931E+02
 6.95000E+00    1.65952E+02
 6.96000E+00    1.78293E+02
 7.00000E+00    1.63170E+02
 7.02000E+00    1.85074E+02
 7.04000E+00    1.86402E+02
 7.06000E+00    1.97672E+02
 7.08000E+00    2.02522E+02
 7.09190E+00    1.90626E+02
 7.09385E+00    1.88672E+02
 7.10000E+00    1.82517E+02
 7.10730E+00    1.71871E+02
 7.11570E+00    1.59593E+02
 7.12000E+00    1.53307E+02
 7.14000E+00    1.46823E+02
 7.16000E+00    1.55925E+02
 7.20000E+00    2.10902E+02
 7.22000E+00    2.10745E+02
 7.26000E+00    2.29586E+02
 7.28000E+00    2.30867E+02
 7.30000E+00    2.18785E+02
 7.36000E+00    1.93788E+02
 7.38000E+00    1.94415E+02
 7.40000E+00    2.04126E+02
 7.42000E+00    1.99117E+02
 7.44000E+00    2.20726E+02
 7.46000E+00    2.31830E+02
 7.50000E+00    1.54273E+02
 7.52000E+00    1.55407E+02
 7.55000E+00    1.63218E+02
 7.58000E+00    1.85684E+02
 7.60000E+00    1.97923E+02
 7.62000E+00    1.99518E+02
 7.64000E+00    1.94906E+02
 7.66000E+00    2.10640E+02
 7.68000E+00    2.44774E+02
 7.68200E+00    2.45504E+02
 7.70000E+00    2.76925E+02
 7.72000E+00    2.66549E+02
 7.74000E+00    2.37182E+02
 7.76000E+00    2.26041E+02
 7.80000E+00    2.48627E+02
 7.82000E+00    2.48885E+02
 7.86000E+00    2.38029E+02
 7.92000E+00    2.46596E+02
 7.96000E+00    2.44999E+02
 7.98000E+00    2.36606E+02
 8.00000E+00    2.21720E+02
 8.03000E+00    1.98739E+02
 8.06000E+00    1.75813E+02
 8.08000E+00    1.72732E+02
 8.12000E+00    1.74094E+02
 8.14000E+00    1.80337E+02
 8.16000E+00    1.91431E+02
 8.22000E+00    2.07300E+02
 8.24000E+00    2.04634E+02
 8.26000E+00    1.93325E+02
 8.28000E+00    1.79582E+02
 8.32000E+00    1.80963E+02
 8.36000E+00    2.15547E+02
 8.40000E+00    2.39349E+02
 8.42000E+00    2.43941E+02
 8.46000E+00    2.22661E+02
 8.48000E+00    2.15632E+02
 8.50000E+00    2.24254E+02
 8.52000E+00    2.32877E+02
 8.54000E+00    2.36058E+02
 8.56000E+00    2.27572E+02
 8.58000E+00    2.19077E+02
 8.60000E+00    2.15728E+02
 8.62000E+00    2.39633E+02
 8.64000E+00    2.82085E+02
 8.66000E+00    2.92147E+02
 8.68000E+00    2.81521E+02
 8.70000E+00    2.59680E+02
 8.74000E+00    2.24815E+02
 8.76000E+00    2.11017E+02
 8.77000E+00    2.14157E+02
 8.78000E+00    2.02420E+02
 8.80000E+00    1.95022E+02
 8.82000E+00    2.01570E+02
 8.98000E+00    2.00299E+02
 9.00000E+00    2.12177E+02
 9.50000E+00    2.21185E+02
 1.00000E+01    2.29926E+02
 1.10000E+01    2.46664E+02
 1.20000E+01    2.61042E+02
 1.30000E+01    2.70544E+02
 1.35000E+01    2.73273E+02
 1.40000E+01    2.53009E+02
 1.45000E+01    2.32763E+02
 1.50000E+01    2.16824E+02
 1.60000E+01    1.84844E+02
 1.70000E+01    1.64618E+02
 1.75000E+01    1.50875E+02
 1.80000E+01    1.40468E+02
 1.90000E+01    1.13824E+02
 2.00000E+01    8.70181E+01
