# n + Si  0 : (n,p00)
# jeff3.3    M.B.Chadwick,P.G.Young,D.Hetrick  EVAL-JUN97
# uncertainties: n
# # energies =   166
#   E(MeV)          xs(mb) 
 4.03128E+00    7.15132E-02
 4.18000E+00    1.24477E+00
 4.22000E+00    6.96445E-01
 4.22100E+00    6.99690E-01
 4.26000E+00    5.97519E-01
 4.30000E+00    5.71887E-01
 4.34000E+00    6.98231E-01
 4.36000E+00    7.73758E-01
 4.40000E+00    9.50617E-01
 4.42100E+00    1.00975E+00
 4.50000E+00    1.25785E+00
 4.52000E+00    1.39380E+00
 4.54000E+00    1.58050E+00
 4.56000E+00    1.72035E+00
 4.60000E+00    2.08342E+00
 4.62000E+00    2.29337E+00
 4.72000E+00    3.54599E+00
 4.80000E+00    4.69594E+00
 4.84000E+00    5.25057E+00
 4.88000E+00    5.95812E+00
 4.94000E+00    7.16670E+00
 5.00000E+00    7.02207E+00
 5.10000E+00    8.77502E+00
 5.15400E+00    9.16253E+00
 5.20000E+00    9.15024E+00
 5.24000E+00    8.74167E+00
 5.26000E+00    8.40467E+00
 5.30000E+00    7.44650E+00
 5.34000E+00    6.91250E+00
 5.36000E+00    7.02530E+00
 5.40000E+00    7.82411E+00
 5.44000E+00    9.04608E+00
 5.50000E+00    1.13038E+01
 5.59000E+00    1.66586E+01
 5.60000E+00    1.74676E+01
 5.66000E+00    2.02646E+01
 5.74000E+00    2.22308E+01
 5.98000E+00    2.53505E+01
 6.00000E+00    2.56468E+01
 6.04000E+00    2.75705E+01
 6.06000E+00    2.90415E+01
 6.10000E+00    3.49486E+01
 6.14000E+00    3.25790E+01
 6.16000E+00    3.28150E+01
 6.18000E+00    3.60614E+01
 6.20000E+00    3.82029E+01
 6.24000E+00    4.03876E+01
 6.25000E+00    3.54473E+01
 6.27870E+00    3.59397E+01
 6.34000E+00    3.86680E+01
 6.35330E+00    4.14345E+01
 6.36000E+00    4.45393E+01
 6.37000E+00    5.20204E+01
 6.38000E+00    6.68717E+01
 6.40000E+00    8.77138E+01
 6.42000E+00    7.39207E+01
 6.44000E+00    6.45196E+01
 6.46000E+00    6.91079E+01
 6.48000E+00    7.59587E+01
 6.50000E+00    7.38400E+01
 6.56000E+00    5.54311E+01
 6.58000E+00    5.28964E+01
 6.60000E+00    5.31866E+01
 6.62000E+00    5.74695E+01
 6.64000E+00    5.86102E+01
 6.68000E+00    7.65567E+01
 6.71000E+00    6.95113E+01
 6.72000E+00    6.66350E+01
 6.74000E+00    6.61902E+01
 6.76000E+00    7.33737E+01
 6.78000E+00    8.36460E+01
 6.80000E+00    1.03327E+02
 6.82000E+00    8.83059E+01
 6.84000E+00    7.54654E+01
 6.92000E+00    5.68330E+01
 6.94000E+00    6.14018E+01
 6.95000E+00    6.46708E+01
 6.96000E+00    6.91904E+01
 7.00000E+00    6.26000E+01
 7.02000E+00    7.04067E+01
 7.04000E+00    7.04061E+01
 7.06000E+00    7.40781E+01
 7.08000E+00    7.53318E+01
 7.10000E+00    6.74935E+01
 7.12000E+00    5.64272E+01
 7.14000E+00    5.36827E+01
 7.16000E+00    5.65320E+01
 7.20000E+00    7.50054E+01
 7.22000E+00    7.43850E+01
 7.26000E+00    7.97147E+01
 7.28000E+00    7.95389E+01
 7.30000E+00    7.48308E+01
 7.36000E+00    6.48175E+01
 7.38000E+00    6.45024E+01
 7.40000E+00    6.71303E+01
 7.42000E+00    6.49697E+01
 7.44000E+00    7.13357E+01
 7.46000E+00    7.42625E+01
 7.50000E+00    4.88695E+01
 7.52000E+00    4.88644E+01
 7.55000E+00    5.06954E+01
 7.58000E+00    5.69008E+01
 7.60000E+00    6.01284E+01
 7.62000E+00    6.01316E+01
 7.64000E+00    5.82995E+01
 7.66000E+00    6.24429E+01
 7.68000E+00    7.18582E+01
 7.68200E+00    7.20122E+01
 7.70000E+00    8.05394E+01
 7.72000E+00    7.69225E+01
 7.74000E+00    6.79702E+01
 7.76000E+00    6.42787E+01
 7.80000E+00    6.94547E+01
 7.82000E+00    6.89377E+01
 7.86000E+00    6.48418E+01
 7.92000E+00    6.54076E+01
 7.96000E+00    6.38341E+01
 7.98000E+00    6.11156E+01
 8.03000E+00    5.04225E+01
 8.06000E+00    4.41919E+01
 8.08000E+00    4.31082E+01
 8.12000E+00    4.27956E+01
 8.14000E+00    4.39706E+01
 8.16000E+00    4.62764E+01
 8.22000E+00    4.89068E+01
 8.24000E+00    4.79061E+01
 8.26000E+00    4.49410E+01
 8.28000E+00    4.14630E+01
 8.32000E+00    4.11116E+01
 8.36000E+00    4.80437E+01
 8.40000E+00    5.23942E+01
 8.42000E+00    5.29374E+01
 8.46000E+00    4.75660E+01
 8.48000E+00    4.56919E+01
 8.52000E+00    4.85137E+01
 8.54000E+00    4.88131E+01
 8.58000E+00    4.46951E+01
 8.60000E+00    4.37014E+01
 8.62000E+00    4.81114E+01
 8.64000E+00    5.60990E+01
 8.66000E+00    5.76462E+01
 8.68000E+00    5.51584E+01
 8.70000E+00    5.05493E+01
 8.74000E+00    4.31876E+01
 8.76000E+00    4.02653E+01
 8.77000E+00    4.07009E+01
 8.78000E+00    3.83548E+01
 8.80000E+00    3.66906E+01
 8.82000E+00    3.76079E+01
 8.98000E+00    3.50637E+01
 9.00000E+00    3.68083E+01
 9.50000E+00    3.20032E+01
 1.00000E+01    2.77920E+01
 1.10000E+01    2.10266E+01
 1.20000E+01    1.57545E+01
 1.30000E+01    1.14445E+01
 1.35000E+01    1.01116E+01
 1.40000E+01    8.05558E+00
 1.45000E+01    6.20290E+00
 1.50000E+01    5.36306E+00
 1.60000E+01    3.85042E+00
 1.70000E+01    3.17998E+00
 1.75000E+01    2.79910E+00
 1.80000E+01    2.62774E+00
 1.90000E+01    2.16530E+00
 2.00000E+01    1.67722E+00
