# n + Pu238 : (n,n'11)  
# tendl.2019 A.J. Koning and D. Rochman        EVAL-DEC19
# uncertainties: n
# # energies =    85
#   E(MeV)       xs(mb) 
 9.72302E-01    0.00000E+00
 9.87256E-01    3.55171E+00
 9.89626E-01    4.11460E+00
 1.00000E+00    6.57853E+00
 1.02292E+00    8.87686E+00
 1.03290E+00    9.87762E+00
 1.07448E+00    1.40471E+01
 1.08468E+00    1.50699E+01
 1.08715E+00    1.53176E+01
 1.13053E+00    1.96676E+01
 1.13880E+00    2.04969E+01
 1.17938E+00    2.45661E+01
 1.20000E+00    2.66338E+01
 1.20756E+00    2.67354E+01
 1.23386E+00    2.70888E+01
 1.25730E+00    2.74038E+01
 1.26958E+00    2.75688E+01
 1.31585E+00    2.81906E+01
 1.40000E+00    2.93214E+01
 1.43266E+00    2.87357E+01
 1.43516E+00    2.86909E+01
 1.45337E+00    2.83643E+01
 1.46447E+00    2.81653E+01
 1.60000E+00    2.57349E+01
 1.80000E+00    2.05374E+01
 2.00000E+00    1.57781E+01
 2.20000E+00    1.18345E+01
 2.40000E+00    8.64935E+00
 2.60000E+00    6.15515E+00
 2.80000E+00    4.28347E+00
 3.00000E+00    2.93455E+00
 3.20000E+00    1.99155E+00
 3.40000E+00    1.34590E+00
 3.60000E+00    9.09261E-01
 3.80000E+00    6.15796E-01
 4.00000E+00    4.17773E-01
 4.20000E+00    2.82611E-01
 4.40000E+00    1.90300E-01
 4.60000E+00    1.27589E-01
 4.80000E+00    8.51405E-02
 5.00000E+00    5.59087E-02
 5.20000E+00    3.47592E-02
 5.40000E+00    2.12466E-02
 5.60000E+00    1.33434E-02
 5.80000E+00    8.57494E-03
 6.00000E+00    5.61679E-03
 6.20000E+00    3.72517E-03
 6.40000E+00    2.50334E-03
 6.60000E+00    1.69593E-03
 6.80000E+00    1.15827E-03
 7.00000E+00    7.98430E-04
 7.20000E+00    5.52935E-04
 7.40000E+00    3.86197E-04
 7.60000E+00    2.71107E-04
 7.80000E+00    1.91197E-04
 8.00000E+00    1.35774E-04
 8.50000E+00    5.87476E-05
 9.00000E+00    2.61198E-05
 9.50000E+00    1.19157E-05
 1.00000E+01    5.57207E-06
 1.05000E+01    2.66940E-06
 1.10000E+01    1.30838E-06
 1.15000E+01    6.55650E-07
 1.20000E+01    3.35550E-07
 1.25000E+01    1.75160E-07
 1.30000E+01    9.31310E-08
 1.35000E+01    5.03770E-08
 1.40000E+01    2.76970E-08
 1.45000E+01    1.54670E-08
 1.50000E+01    8.76810E-09
 1.60000E+01    2.92910E-09
 1.70000E+01    1.03740E-09
 1.80000E+01    3.86280E-10
 1.90000E+01    1.50560E-10
 2.00000E+01    6.11320E-11
 2.10000E+01    2.57730E-11
 2.20000E+01    1.12350E-11
 2.30000E+01    5.06240E-12
 2.40000E+01    2.35590E-12
 2.50000E+01    1.12970E-12
 2.60000E+01    5.58260E-13
 2.70000E+01    2.83530E-13
 2.80000E+01    1.47310E-13
 2.90000E+01    7.82420E-14
 3.00000E+01    4.23960E-14
