# n + Sm150 : (n,n'06)  
# jeff3.3    A.J. Koning and D. Rochman        EVAL-DEC15
# uncertainties: n
# # energies =    89
#   E(MeV)       xs(mb) 
 1.17363E+00    0.00000E+00
 1.20000E+00    7.01647E+01
 1.20188E+00    7.03936E+01
 1.26396E+00    7.79515E+01
 1.28753E+00    8.08210E+01
 1.36684E+00    9.04766E+01
 1.40000E+00    9.45137E+01
 1.42688E+00    9.47678E+01
 1.45893E+00    9.50707E+01
 1.51470E+00    9.55979E+01
 1.60000E+00    9.64042E+01
 1.61379E+00    9.52249E+01
 1.65366E+00    9.18152E+01
 1.66955E+00    9.04563E+01
 1.68397E+00    8.92231E+01
 1.69549E+00    8.82379E+01
 1.72504E+00    8.57109E+01
 1.77190E+00    8.17034E+01
 1.77676E+00    8.12878E+01
 1.78523E+00    8.05634E+01
 1.79832E+00    7.94440E+01
 1.80000E+00    7.93003E+01
 1.80637E+00    7.89319E+01
 1.83175E+00    7.74641E+01
 1.83415E+00    7.73253E+01
 1.84004E+00    7.69846E+01
 1.84534E+00    7.66781E+01
 1.84939E+00    7.64439E+01
 1.89597E+00    7.37500E+01
 2.00000E+00    6.77335E+01
 2.20000E+00    4.98797E+01
 2.40000E+00    3.45392E+01
 2.60000E+00    2.31496E+01
 2.80000E+00    1.53492E+01
 3.00000E+00    1.02175E+01
 3.20000E+00    6.89007E+00
 3.40000E+00    4.73647E+00
 3.60000E+00    3.33198E+00
 3.80000E+00    2.40653E+00
 4.00000E+00    1.78974E+00
 4.20000E+00    1.37544E+00
 4.40000E+00    1.09453E+00
 4.60000E+00    9.03149E-01
 4.80000E+00    7.72451E-01
 5.00000E+00    6.83564E-01
 5.20000E+00    6.23543E-01
 5.40000E+00    5.83606E-01
 5.60000E+00    5.57665E-01
 5.80000E+00    5.41499E-01
 6.00000E+00    5.32086E-01
 6.20000E+00    5.27412E-01
 6.40000E+00    5.26096E-01
 6.60000E+00    5.26923E-01
 6.80000E+00    5.29220E-01
 7.00000E+00    5.32446E-01
 7.20000E+00    5.36199E-01
 7.40000E+00    5.40247E-01
 7.60000E+00    5.44376E-01
 7.80000E+00    5.48447E-01
 8.00000E+00    5.52360E-01
 8.50000E+00    5.60971E-01
 9.00000E+00    5.67351E-01
 9.50000E+00    5.71202E-01
 1.00000E+01    5.72603E-01
 1.05000E+01    5.71874E-01
 1.10000E+01    5.69478E-01
 1.15000E+01    5.65936E-01
 1.20000E+01    5.61795E-01
 1.25000E+01    5.57570E-01
 1.30000E+01    5.53719E-01
 1.35000E+01    5.50595E-01
 1.40000E+01    5.48411E-01
 1.45000E+01    5.47252E-01
 1.50000E+01    5.47087E-01
 1.60000E+01    5.49214E-01
 1.70000E+01    5.53378E-01
 1.80000E+01    5.58034E-01
 1.90000E+01    5.62197E-01
 2.00000E+01    5.65847E-01
 2.10000E+01    5.69749E-01
 2.20000E+01    5.74900E-01
 2.30000E+01    5.82041E-01
 2.40000E+01    5.91389E-01
 2.50000E+01    6.02577E-01
 2.60000E+01    6.14785E-01
 2.70000E+01    6.27034E-01
 2.80000E+01    6.38528E-01
 2.90000E+01    6.48837E-01
 3.00000E+01    6.57877E-01
