# n + Sm150 : (n,xn)    
# jeff3.3    A.J. Koning and D. Rochman        EVAL-DEC15
# 
# # energies =   131
#   E(MeV)        xs(mb) 
 3.36202E-01    2.00000E-17
 4.00000E-01    5.93026E+02
 5.00000E-01    1.04847E+03
 6.00000E-01    1.31577E+03
 7.00000E-01    1.55761E+03
 7.45446E-01    1.63821E+03
 7.78577E-01    1.77992E+03
 8.00000E-01    1.88004E+03
 9.00000E-01    2.05533E+03
 1.00000E+00    2.18267E+03
 1.05319E+00    2.16668E+03
 1.07861E+00    2.20337E+03
 1.17363E+00    2.37587E+03
 1.20000E+00    2.49391E+03
 1.20188E+00    2.49270E+03
 1.26396E+00    2.50749E+03
 1.28753E+00    2.52067E+03
 1.36684E+00    2.56521E+03
 1.40000E+00    2.58430E+03
 1.42688E+00    2.55690E+03
 1.45893E+00    2.54460E+03
 1.51470E+00    2.53106E+03
 1.60000E+00    2.56552E+03
 1.61379E+00    2.55193E+03
 1.65366E+00    2.52014E+03
 1.66955E+00    2.50922E+03
 1.68397E+00    2.50214E+03
 1.69549E+00    2.49791E+03
 1.72504E+00    2.49155E+03
 1.77190E+00    2.49681E+03
 1.77676E+00    2.49893E+03
 1.78523E+00    2.50264E+03
 1.79832E+00    2.50856E+03
 1.80000E+00    2.51840E+03
 1.80637E+00    2.50955E+03
 1.83175E+00    2.48099E+03
 1.83415E+00    2.47848E+03
 1.84004E+00    2.47275E+03
 1.84534E+00    2.46805E+03
 1.84939E+00    2.46571E+03
 1.89597E+00    2.43888E+03
 2.00000E+00    2.50803E+03
 2.20000E+00    2.49112E+03
 2.40000E+00    2.48020E+03
 2.60000E+00    2.47404E+03
 2.80000E+00    2.46879E+03
 3.00000E+00    2.46078E+03
 3.20000E+00    2.44792E+03
 3.40000E+00    2.42889E+03
 3.60000E+00    2.40437E+03
 3.80000E+00    2.37621E+03
 4.00000E+00    2.34642E+03
 4.20000E+00    2.31704E+03
 4.40000E+00    2.28976E+03
 4.60000E+00    2.26592E+03
 4.80000E+00    2.24621E+03
 5.00000E+00    2.23114E+03
 5.20000E+00    2.22081E+03
 5.40000E+00    2.21508E+03
 5.60000E+00    2.21344E+03
 5.80000E+00    2.21547E+03
 6.00000E+00    2.22027E+03
 6.20000E+00    2.22702E+03
 6.40000E+00    2.23491E+03
 6.60000E+00    2.24317E+03
 6.80000E+00    2.25118E+03
 7.00000E+00    2.25821E+03
 7.20000E+00    2.26383E+03
 7.40000E+00    2.26785E+03
 7.60000E+00    2.27015E+03
 7.80000E+00    2.27056E+03
 8.00000E+00    2.26932E+03
 8.50000E+00    2.37688E+03
 9.00000E+00    2.61810E+03
 9.50000E+00    2.91009E+03
 1.00000E+01    3.16585E+03
 1.05000E+01    3.35843E+03
 1.10000E+01    3.48772E+03
 1.15000E+01    3.57810E+03
 1.20000E+01    3.64631E+03
 1.25000E+01    3.69901E+03
 1.30000E+01    3.73971E+03
 1.35000E+01    3.77157E+03
 1.40000E+01    3.79604E+03
 1.45000E+01    3.81587E+03
 1.50000E+01    3.83665E+03
 1.60000E+01    3.92227E+03
 1.70000E+01    4.09915E+03
 1.80000E+01    4.32292E+03
 1.90000E+01    4.50324E+03
 2.00000E+01    4.62771E+03
 2.10000E+01    4.71516E+03
 2.20000E+01    4.77655E+03
 2.30000E+01    4.82601E+03
 2.40000E+01    4.86726E+03
 2.50000E+01    4.93135E+03
 2.60000E+01    5.02185E+03
 2.70000E+01    5.12344E+03
 2.80000E+01    5.21833E+03
 2.90000E+01    5.29550E+03
 3.00000E+01            NaN
 3.00000E+01    5.36045E+03
 3.20000E+01    5.44789E+03
 3.40000E+01    5.53634E+03
 3.60000E+01    5.63198E+03
 3.80000E+01    5.73895E+03
 4.00000E+01    5.82791E+03
 4.20000E+01    5.90826E+03
 4.40000E+01    5.99158E+03
 4.60000E+01    6.06879E+03
 4.80000E+01    6.13147E+03
 5.00000E+01    6.19372E+03
 5.20000E+01    6.25310E+03
 5.40000E+01    6.30358E+03
 5.60000E+01    6.35794E+03
 5.80000E+01    6.41073E+03
 6.00000E+01    6.45811E+03
 6.50000E+01    6.55093E+03
 7.00000E+01    6.64246E+03
 7.50000E+01    6.72430E+03
 8.00000E+01    6.79838E+03
 9.00000E+01    7.15600E+03
 1.00000E+02    7.54548E+03
 1.10000E+02    7.94614E+03
 1.20000E+02    8.38230E+03
 1.30000E+02    8.88705E+03
 1.40000E+02    9.41201E+03
 1.50000E+02    9.98318E+03
 1.60000E+02    1.05933E+04
 1.80000E+02    1.20988E+04
 2.00000E+02    1.38835E+04
