# n + Sm150 : (n,n'08)  
# jeff3.3    A.J. Koning and D. Rochman        EVAL-DEC15
# uncertainties: n
# # energies =    86
#   E(MeV)       xs(mb) 
 1.26396E+00    0.00000E+00
 1.28753E+00    7.55491E+00
 1.36684E+00    3.29763E+01
 1.40000E+00    4.36051E+01
 1.42688E+00    4.40491E+01
 1.45893E+00    4.45785E+01
 1.51470E+00    4.54997E+01
 1.60000E+00    4.69086E+01
 1.61379E+00    4.70989E+01
 1.65366E+00    4.76492E+01
 1.66955E+00    4.78685E+01
 1.68397E+00    4.80676E+01
 1.69549E+00    4.82266E+01
 1.72504E+00    4.86344E+01
 1.77190E+00    4.92812E+01
 1.77676E+00    4.93482E+01
 1.78523E+00    4.94651E+01
 1.79832E+00    4.96458E+01
 1.80000E+00    4.96690E+01
 1.80637E+00    4.95258E+01
 1.83175E+00    4.89550E+01
 1.83415E+00    4.89011E+01
 1.84004E+00    4.87686E+01
 1.84534E+00    4.86494E+01
 1.84939E+00    4.85584E+01
 1.89597E+00    4.75109E+01
 2.00000E+00    4.51716E+01
 2.20000E+00    3.54318E+01
 2.40000E+00    2.49739E+01
 2.60000E+00    1.64362E+01
 2.80000E+00    1.04460E+01
 3.00000E+00    6.56032E+00
 3.20000E+00    4.12957E+00
 3.40000E+00    2.62900E+00
 3.60000E+00    1.69869E+00
 3.80000E+00    1.11484E+00
 4.00000E+00    7.42033E-01
 4.20000E+00    5.00127E-01
 4.40000E+00    3.40316E-01
 4.60000E+00    2.33348E-01
 4.80000E+00    1.60974E-01
 5.00000E+00    1.11716E-01
 5.20000E+00    7.79875E-02
 5.40000E+00    5.47768E-02
 5.60000E+00    3.87288E-02
 5.80000E+00    2.75560E-02
 6.00000E+00    1.97215E-02
 6.20000E+00    1.42017E-02
 6.40000E+00    1.03261E-02
 6.60000E+00    7.54771E-03
 6.80000E+00    5.55910E-03
 7.00000E+00    4.12548E-03
 7.20000E+00    3.07597E-03
 7.40000E+00    2.31421E-03
 7.60000E+00    1.74698E-03
 7.80000E+00    1.32594E-03
 8.00000E+00    1.01060E-03
 8.50000E+00    5.17591E-04
 9.00000E+00    2.66833E-04
 9.50000E+00    1.38034E-04
 1.00000E+01    7.18476E-05
 1.05000E+01    3.77384E-05
 1.10000E+01    2.00490E-05
 1.15000E+01    1.07900E-05
 1.20000E+01    5.89027E-06
 1.25000E+01    3.26123E-06
 1.30000E+01    1.83034E-06
 1.35000E+01    1.04058E-06
 1.40000E+01    5.98590E-07
 1.45000E+01    3.47960E-07
 1.50000E+01    2.04230E-07
 1.60000E+01    7.20970E-08
 1.70000E+01    2.62070E-08
 1.80000E+01    9.77050E-09
 1.90000E+01    3.70040E-09
 2.00000E+01    1.45200E-09
 2.10000E+01    5.85270E-10
 2.20000E+01    2.42190E-10
 2.30000E+01    1.02950E-10
 2.40000E+01    4.45230E-11
 2.50000E+01    1.95840E-11
 2.60000E+01    8.73220E-12
 2.70000E+01    3.93500E-12
 2.80000E+01    1.79230E-12
 2.90000E+01    8.25790E-13
 3.00000E+01    3.85090E-13
