# n + Sm150 : (n,xa)    
# jeff3.3    A.J. Koning and D. Rochman        EVAL-DEC15
# 
# # energies =   131
#   E(MeV)        xs(mb) 
 3.36202E-01    4.73769E-05
 4.00000E-01    4.22606E-05
 5.00000E-01    5.06353E-05
 6.00000E-01    6.50682E-05
 7.00000E-01    8.04826E-05
 7.45446E-01    8.64665E-05
 7.78577E-01    9.08288E-05
 8.00000E-01    9.36496E-05
 9.00000E-01    1.18933E-04
 1.00000E+00    1.52169E-04
 1.05319E+00    1.57255E-04
 1.07861E+00    1.59686E-04
 1.17363E+00    1.68771E-04
 1.20000E+00    1.71293E-04
 1.20188E+00    1.71773E-04
 1.26396E+00    1.87613E-04
 1.28753E+00    1.93627E-04
 1.36684E+00    2.13864E-04
 1.40000E+00    2.22325E-04
 1.42688E+00    2.34626E-04
 1.45893E+00    2.49293E-04
 1.51470E+00    2.74816E-04
 1.60000E+00    3.13852E-04
 1.61379E+00    3.20117E-04
 1.65366E+00    3.37642E-04
 1.66955E+00    3.44626E-04
 1.68397E+00    3.50965E-04
 1.69549E+00    3.56028E-04
 1.72504E+00    3.69017E-04
 1.77190E+00    3.89614E-04
 1.77676E+00    3.91750E-04
 1.78523E+00    3.95473E-04
 1.79832E+00    4.01227E-04
 1.80000E+00    4.01965E-04
 1.80637E+00    4.05796E-04
 1.83175E+00    4.21059E-04
 1.83415E+00    4.22502E-04
 1.84004E+00    4.26044E-04
 1.84534E+00    4.29232E-04
 1.84939E+00    4.31667E-04
 1.89597E+00    4.59680E-04
 2.00000E+00    5.22242E-04
 2.20000E+00    6.42177E-04
 2.40000E+00    7.60976E-04
 2.60000E+00    9.08572E-04
 2.80000E+00    1.02907E-03
 3.00000E+00    1.18807E-03
 3.20000E+00    1.34707E-03
 3.40000E+00    1.50719E-03
 3.60000E+00    1.71360E-03
 3.80000E+00    1.91347E-03
 4.00000E+00    2.15990E-03
 4.20000E+00    2.43401E-03
 4.40000E+00    2.74084E-03
 4.60000E+00    3.14715E-03
 4.80000E+00    3.56750E-03
 5.00000E+00    4.09540E-03
 5.20000E+00    4.70655E-03
 5.40000E+00    5.42025E-03
 5.60000E+00    6.42940E-03
 5.80000E+00    7.46216E-03
 6.00000E+00    8.79767E-03
 6.20000E+00    1.03559E-02
 6.40000E+00    1.21462E-02
 6.60000E+00    1.49332E-02
 6.80000E+00    1.78790E-02
 7.00000E+00    2.09856E-02
 7.20000E+00    2.54325E-02
 7.40000E+00    3.01382E-02
 7.60000E+00    3.77184E-02
 7.80000E+00    4.56603E-02
 8.00000E+00    5.38067E-02
 8.50000E+00    8.32808E-02
 9.00000E+00    1.23612E-01
 9.50000E+00    1.80643E-01
 1.00000E+01    2.57881E-01
 1.05000E+01    3.73032E-01
 1.10000E+01    5.30901E-01
 1.15000E+01    7.39393E-01
 1.20000E+01    1.00483E+00
 1.25000E+01    1.34221E+00
 1.30000E+01    1.74017E+00
 1.35000E+01    2.19854E+00
 1.40000E+01    2.76847E+00
 1.45000E+01    3.45038E+00
 1.50000E+01    4.13698E+00
 1.60000E+01    5.91693E+00
 1.70000E+01    8.31743E+00
 1.80000E+01    1.17222E+01
 1.90000E+01    1.64312E+01
 2.00000E+01    1.99833E+01
 2.10000E+01    2.30633E+01
 2.20000E+01    2.39787E+01
 2.30000E+01    2.24252E+01
 2.40000E+01    2.27279E+01
 2.50000E+01    2.32479E+01
 2.60000E+01    2.38802E+01
 2.70000E+01    2.45663E+01
 2.80000E+01    2.52645E+01
 2.90000E+01    2.59574E+01
 3.00000E+01            NaN
 3.00000E+01    2.65116E+01
 3.20000E+01    2.77585E+01
 3.40000E+01    2.85858E+01
 3.60000E+01    2.95735E+01
 3.80000E+01    3.04101E+01
 4.00000E+01    3.11122E+01
 4.20000E+01    3.17157E+01
 4.40000E+01    3.22381E+01
 4.60000E+01    3.26820E+01
 4.80000E+01    3.30719E+01
 5.00000E+01    3.34635E+01
 5.20000E+01    3.38564E+01
 5.40000E+01    3.42319E+01
 5.60000E+01    3.46230E+01
 5.80000E+01    3.50581E+01
 6.00000E+01    3.55277E+01
 6.50000E+01    3.67896E+01
 7.00000E+01    3.78692E+01
 7.50000E+01    3.90299E+01
 8.00000E+01    3.99939E+01
 9.00000E+01    4.52224E+01
 1.00000E+02    5.19785E+01
 1.10000E+02    5.76805E+01
 1.20000E+02    6.43069E+01
 1.30000E+02    7.31583E+01
 1.40000E+02    8.20362E+01
 1.50000E+02    9.03969E+01
 1.60000E+02    1.00241E+02
 1.80000E+02    1.26354E+02
 2.00000E+02    1.77605E+02
