# n + Sm150 : (n,n'10)  
# jeff3.3    A.J. Koning and D. Rochman        EVAL-DEC15
# uncertainties: n
# # energies =    84
#   E(MeV)       xs(mb) 
 1.36684E+00    0.00000E+00
 1.40000E+00    4.67810E-01
 1.42688E+00    9.84737E-01
 1.45893E+00    1.60109E+00
 1.51470E+00    2.67359E+00
 1.60000E+00    4.31399E+00
 1.61379E+00    4.58870E+00
 1.65366E+00    5.38293E+00
 1.66955E+00    5.69947E+00
 1.68397E+00    5.98673E+00
 1.69549E+00    6.21621E+00
 1.72504E+00    6.80487E+00
 1.77190E+00    7.73835E+00
 1.77676E+00    7.83516E+00
 1.78523E+00    8.00389E+00
 1.79832E+00    8.26466E+00
 1.80000E+00    8.29812E+00
 1.80637E+00    8.37748E+00
 1.83175E+00    8.69369E+00
 1.83415E+00    8.72359E+00
 1.84004E+00    8.79698E+00
 1.84534E+00    8.86301E+00
 1.84939E+00    8.91347E+00
 1.89597E+00    9.49380E+00
 2.00000E+00    1.07899E+01
 2.20000E+00    1.11641E+01
 2.40000E+00    9.85038E+00
 2.60000E+00    7.93966E+00
 2.80000E+00    6.13227E+00
 3.00000E+00    4.66590E+00
 3.20000E+00    3.54906E+00
 3.40000E+00    2.72362E+00
 3.60000E+00    2.12084E+00
 3.80000E+00    1.68336E+00
 4.00000E+00    1.36679E+00
 4.20000E+00    1.13924E+00
 4.40000E+00    9.76407E-01
 4.60000E+00    8.61381E-01
 4.80000E+00    7.81789E-01
 5.00000E+00    7.28856E-01
 5.20000E+00    6.95793E-01
 5.40000E+00    6.77487E-01
 5.60000E+00    6.70062E-01
 5.80000E+00    6.70369E-01
 6.00000E+00    6.75988E-01
 6.20000E+00    6.85184E-01
 6.40000E+00    6.96578E-01
 6.60000E+00    7.08897E-01
 6.80000E+00    7.21358E-01
 7.00000E+00    7.33324E-01
 7.20000E+00    7.44309E-01
 7.40000E+00    7.54065E-01
 7.60000E+00    7.62370E-01
 7.80000E+00    7.69155E-01
 8.00000E+00    7.74418E-01
 8.50000E+00    7.81351E-01
 9.00000E+00    7.81003E-01
 9.50000E+00    7.75827E-01
 1.00000E+01    7.68108E-01
 1.05000E+01    7.59541E-01
 1.10000E+01    7.51131E-01
 1.15000E+01    7.43321E-01
 1.20000E+01    7.36175E-01
 1.25000E+01    7.29532E-01
 1.30000E+01    7.23165E-01
 1.35000E+01    7.16845E-01
 1.40000E+01    7.10371E-01
 1.45000E+01    7.03603E-01
 1.50000E+01    6.96450E-01
 1.60000E+01    6.80855E-01
 1.70000E+01    6.63750E-01
 1.80000E+01    6.45752E-01
 1.90000E+01    6.27608E-01
 2.00000E+01    6.09960E-01
 2.10000E+01    5.93215E-01
 2.20000E+01    5.77518E-01
 2.30000E+01    5.62784E-01
 2.40000E+01    5.48762E-01
 2.50000E+01    5.35153E-01
 2.60000E+01    5.21729E-01
 2.70000E+01    5.08410E-01
 2.80000E+01    4.95273E-01
 2.90000E+01    4.82468E-01
 3.00000E+01    4.70148E-01
