# n + Sm150 : (n,n'13)  
# jeff3.3    A.J. Koning and D. Rochman        EVAL-DEC15
# uncertainties: n
# # energies =    80
#   E(MeV)       xs(mb) 
 1.51470E+00    0.00000E+00
 1.60000E+00    5.51739E+01
 1.61379E+00    5.57097E+01
 1.65366E+00    5.72587E+01
 1.66955E+00    5.78760E+01
 1.68397E+00    5.84362E+01
 1.69549E+00    5.88838E+01
 1.72504E+00    6.00318E+01
 1.77190E+00    6.18524E+01
 1.77676E+00    6.20412E+01
 1.78523E+00    6.23703E+01
 1.79832E+00    6.28788E+01
 1.80000E+00    6.29441E+01
 1.80637E+00    6.30094E+01
 1.83175E+00    6.32694E+01
 1.83415E+00    6.32940E+01
 1.84004E+00    6.33544E+01
 1.84534E+00    6.34087E+01
 1.84939E+00    6.34502E+01
 1.89597E+00    6.39275E+01
 2.00000E+00    6.49935E+01
 2.20000E+00    6.48648E+01
 2.40000E+00    5.56935E+01
 2.60000E+00    4.22234E+01
 2.80000E+00    2.96711E+01
 3.00000E+00    2.00394E+01
 3.20000E+00    1.33004E+01
 3.40000E+00    8.79692E+00
 3.60000E+00    5.84291E+00
 3.80000E+00    3.91322E+00
 4.00000E+00    2.64692E+00
 4.20000E+00    1.80978E+00
 4.40000E+00    1.24871E+00
 4.60000E+00    8.68158E-01
 4.80000E+00    6.07135E-01
 5.00000E+00    4.26966E-01
 5.20000E+00    3.01832E-01
 5.40000E+00    2.14514E-01
 5.60000E+00    1.53353E-01
 5.80000E+00    1.10314E-01
 6.00000E+00    7.96846E-02
 6.20000E+00    5.79053E-02
 6.40000E+00    4.24513E-02
 6.60000E+00    3.12413E-02
 6.80000E+00    2.31586E-02
 7.00000E+00    1.72802E-02
 7.20000E+00    1.29456E-02
 7.40000E+00    9.78250E-03
 7.60000E+00    7.41705E-03
 7.80000E+00    5.65125E-03
 8.00000E+00    4.32764E-03
 8.50000E+00    2.24486E-03
 9.00000E+00    1.17553E-03
 9.50000E+00    6.19119E-04
 1.00000E+01    3.28512E-04
 1.05000E+01    1.75963E-04
 1.10000E+01    9.52887E-05
 1.15000E+01    5.22149E-05
 1.20000E+01    2.89717E-05
 1.25000E+01    1.62676E-05
 1.30000E+01    9.23696E-06
 1.35000E+01    5.30088E-06
 1.40000E+01    3.07241E-06
 1.45000E+01    1.79722E-06
 1.50000E+01    1.06067E-06
 1.60000E+01    3.78220E-07
 1.70000E+01    1.38890E-07
 1.80000E+01    5.23460E-08
 1.90000E+01    2.00400E-08
 2.00000E+01    7.93630E-09
 2.10000E+01    3.22080E-09
 2.20000E+01    1.33830E-09
 2.30000E+01    5.69880E-10
 2.40000E+01    2.46480E-10
 2.50000E+01    1.08390E-10
 2.60000E+01    4.83690E-11
 2.70000E+01    2.18560E-11
 2.80000E+01    9.99940E-12
 2.90000E+01    4.63230E-12
 3.00000E+01    2.17170E-12
