# n + Cl 35 : (n,el)    
# endfb8.0   Sayer,Guber,Leal,Larson,Young+    EVAL-OCT03
# uncertainties: n
# # energies =   171
#   E(MeV)       xs(mb) 
 1.00000E-11    5.17956E+04
 1.00000E-07    2.06905E+04
 4.13990E-07    2.06220E+04
 5.31580E-07    2.05955E+04
 6.82560E-07    2.05615E+04
 8.76420E-07    2.05214E+04
 1.12540E-06    2.04738E+04
 1.44500E-06    2.04127E+04
 1.85540E-06    2.03349E+04
 2.37240E-06    2.02343E+04
 3.05900E-06    2.01039E+04
 3.92790E-06    1.99377E+04
 5.04350E-06    1.97243E+04
 6.47600E-06    1.94522E+04
 8.31530E-06    1.91315E+04
 1.06770E-05    1.87298E+04
 1.37100E-05    1.82198E+04
 1.76030E-05    1.76213E+04
 2.26030E-05    1.68792E+04
 2.92030E-05    1.60241E+04
 3.72670E-05    1.50503E+04
 4.78510E-05    1.39414E+04
 6.14420E-05    1.27262E+04
 7.88930E-05    1.14405E+04
 1.01300E-04    1.01226E+04
 1.30070E-04    8.82241E+03
 1.67020E-04    7.58699E+03
 2.14450E-04    6.45809E+03
 2.75360E-04    5.46272E+03
 3.53580E-04    4.78015E+03
 4.54000E-04    3.91062E+03
 5.82950E-04    3.34181E+03
 7.48520E-04    2.89052E+03
 9.61120E-04    2.53737E+03
 1.23410E-03    2.26338E+03
 1.58460E-03    2.05155E+03
 2.03470E-03    1.93154E+03
 2.24870E-03    1.87287E+03
 2.48520E-03    1.83267E+03
 2.61260E-03    1.80722E+03
 2.74650E-03    1.77202E+03
 3.03540E-03    1.72847E+03
 3.35460E-03    1.68897E+03
 3.70740E-03    1.82175E+03
 4.30740E-03    1.58380E+03
 5.53080E-03    1.51824E+03
 7.10170E-03    1.45829E+03
 9.11880E-03    1.38901E+03
 1.17090E-02    2.70615E+03
 1.50340E-02    2.63787E+03
 1.93050E-02    1.36611E+03
 2.18750E-02    1.27115E+03
 2.35790E-02    1.17628E+03
 2.41760E-02    1.09760E+03
 2.47880E-02    8.44859E+02
 2.60580E-02    1.21544E+04
 2.70000E-02    3.04705E+03
 2.85000E-02    1.73518E+03
 3.18280E-02    1.57290E+03
 3.43070E-02    1.50068E+03
 4.08680E-02    1.63930E+03
 4.63090E-02    1.42048E+03
 5.24750E-02    1.70196E+03
 5.65620E-02    2.12091E+03
 6.73790E-02    2.61964E+03
 7.20000E-02    1.49881E+03
 7.95000E-02    1.44155E+03
 8.25000E-02    1.42336E+03
 8.65170E-02    1.46535E+03
 9.80370E-02    1.83005E+03
 1.11090E-01    3.53562E+03
 1.16790E-01    1.37233E+03
 1.22770E-01    1.33294E+03
 1.29070E-01    2.69098E+03
 1.35690E-01    1.73199E+03
 1.42640E-01    2.25359E+03
 1.49960E-01    1.30384E+03
 1.57640E-01    1.40262E+03
 1.65730E-01    1.12409E+03
 1.74220E-01    1.73595E+03
 1.83160E-01    4.16448E+03
 1.92550E-01    1.60817E+03
 2.02420E-01    1.16642E+03
 2.12800E-01    2.89305E+03
 2.23710E-01    2.20178E+03
 2.35180E-01    1.69929E+03
 2.47240E-01    1.66768E+03
 2.73240E-01    3.08183E+03
 2.87250E-01    2.09403E+03
 2.94520E-01    2.71628E+03
 2.97200E-01    1.31427E+03
 2.98500E-01    1.18053E+03
 3.01970E-01    1.77852E+03
 3.33730E-01    3.14432E+03
 3.68830E-01    2.27376E+03
 3.87740E-01    3.00609E+03
 4.07620E-01    2.07949E+03
 4.50490E-01    2.82147E+03
 4.97870E-01    2.25225E+03
 5.23400E-01    2.80916E+03
 5.50230E-01    2.20322E+03
 5.78440E-01    2.06860E+03
 6.08100E-01    2.44120E+03
 6.39280E-01    2.30299E+03
 6.72060E-01    2.20735E+03
 7.06510E-01    2.48556E+03
 7.42740E-01    2.62246E+03
 7.80820E-01    2.57849E+03
 8.20850E-01    2.68081E+03
 8.62940E-01    2.93274E+03
 9.07180E-01    2.59529E+03
 9.61640E-01    2.53972E+03
 1.00260E+00    2.87980E+03
 1.10800E+00    3.46320E+03
 1.16480E+00    2.97488E+03
 1.22460E+00    2.49086E+03
 1.28730E+00    2.50873E+03
 1.35340E+00    2.52430E+03
 1.42270E+00    2.54065E+03
 1.49570E+00    2.56157E+03
 1.57240E+00    2.59127E+03
 1.65300E+00    2.62272E+03
 1.73770E+00    2.65628E+03
 1.82680E+00    2.66086E+03
 1.92050E+00    2.64478E+03
 2.01900E+00    2.64848E+03
 2.12250E+00    2.66279E+03
 2.23130E+00    2.67350E+03
 2.30690E+00    2.67965E+03
 2.34570E+00    2.68279E+03
 2.36530E+00    2.68491E+03
 2.38520E+00    2.69021E+03
 2.46600E+00    2.69625E+03
 2.59240E+00    2.70111E+03
 2.72530E+00    2.66333E+03
 2.86500E+00    2.61676E+03
 3.01190E+00    2.57495E+03
 3.16640E+00    2.51861E+03
 3.32870E+00    2.43171E+03
 3.67880E+00    2.32717E+03
 4.06570E+00    2.18749E+03
 4.49330E+00    2.06053E+03
 4.72370E+00    1.98418E+03
 4.96590E+00    1.90297E+03
 5.22050E+00    1.81955E+03
 5.48810E+00    1.75645E+03
 5.76950E+00    1.70314E+03
 6.06530E+00    1.63978E+03
 6.37630E+00    1.58447E+03
 6.59240E+00    1.55083E+03
 6.70320E+00    1.50670E+03
 7.04690E+00    1.44221E+03
 7.40820E+00    1.38090E+03
 7.78800E+00    1.32416E+03
 8.18730E+00    1.26634E+03
 8.60710E+00    1.20980E+03
 9.04840E+00    1.14997E+03
 9.51230E+00    1.09150E+03
 1.00000E+01    1.04539E+03
 1.05130E+01    1.00432E+03
 1.10520E+01    9.73034E+02
 1.16180E+01    9.45019E+02
 1.22140E+01    9.19802E+02
 1.28400E+01    8.98330E+02
 1.34990E+01    8.90635E+02
 1.38400E+01    8.87868E+02
 1.41910E+01    8.86149E+02
 1.45500E+01    8.89877E+02
 1.49180E+01    8.98355E+02
 1.56830E+01    9.12961E+02
 1.64870E+01    9.31875E+02
