# n + Si 30 : (n,g)     
# jendl4.0   K.Shibata, S.Kunieda              EVAL-AUG07
# uncertainties: n
# # energies =    69
#   E(MeV)       xs(mb) 
 1.00000E-10    7.47613E+02
 5.00000E-09    2.03562E+02
 1.00000E-08    1.54166E+02
 1.50000E-08    1.29528E+02
 2.00000E-08    1.13960E+02
 2.50000E-08    1.02957E+02
 3.00000E-08    9.46423E+01
 3.50000E-08    8.70163E+01
 4.20000E-08    7.95912E+01
 5.00000E-08    7.34151E+01
 5.80000E-08    6.82350E+01
 6.70000E-08    6.29703E+01
 8.00000E-08    5.69817E+01
 1.00000E-07    4.95756E+01
 1.40000E-07    4.27781E+01
 1.80000E-07    3.81982E+01
 2.20000E-07    3.51785E+01
 2.50000E-07    3.31191E+01
 2.80000E-07    3.16404E+01
 3.00000E-07    3.06013E+01
 3.20000E-07    2.94457E+01
 3.50000E-07    2.78506E+01
 4.00000E-07    2.54838E+01
 5.00000E-07    2.27936E+01
 6.25000E-07    2.03951E+01
 7.80000E-07    1.88779E+01
 8.50000E-07    1.81640E+01
 9.10000E-07    1.76656E+01
 9.50000E-07    1.73769E+01
 9.72000E-07    1.71728E+01
 9.96000E-07    1.69668E+01
 1.02000E-06    1.67643E+01
 1.04500E-06    1.65616E+01
 1.07100E-06    1.63621E+01
 1.09700E-06    1.61692E+01
 1.12300E-06    1.59813E+01
 1.15000E-06    1.54103E+01
 1.30000E-06    1.44222E+01
 1.50000E-06    1.28099E+01
 2.10000E-06    1.11585E+01
 2.60000E-06    9.96861E+00
 3.30000E-06    8.94789E+00
 4.00000E-06    6.85993E+00
 9.87700E-06    4.82537E+00
 1.59680E-05    3.73346E+00
 2.77000E-05    2.83720E+00
 4.80520E-05    2.20897E+00
 7.55014E-05    1.67493E+00
 1.48728E-04    1.14342E+00
 3.67262E-04    7.60847E-01
 9.06898E-04    6.50326E-01
 1.42510E-03    9.57260E+02
 2.23945E-03    6.85538E+01
 3.51910E-03    1.52829E+02
 5.53000E-03    2.74028E-01
 9.11800E-03    1.68416E-01
 1.50300E-02    1.28077E-01
 2.47800E-02    1.00491E-01
 4.08500E-02    8.23633E-02
 6.73400E-02    7.92866E-02
 1.11000E-01    8.17468E-01
 1.83000E-01    9.99710E-01
 3.02000E-01    1.14199E-01
 5.00000E-01    1.06293E-01
 8.21000E-01    1.03433E-01
 1.35300E+00    5.62748E-01
 2.23100E+00    4.97141E-01
 3.67900E+00    4.10653E-01
 6.06500E+00    3.89453E-01
