# n + Ta180m: (n,tot)   
# jendl.ad   K.Shibata (JAEA)                  EVAL-Oct14
# uncertainties: n
# # energies =    69
#   E(MeV)       xs(mb) 
 1.00000E-10    3.22311E+06
 5.00000E-09    9.21842E+05
 1.00000E-08    7.27532E+05
 1.50000E-08    6.37334E+05
 2.00000E-08    5.85111E+05
 2.50000E-08    5.52391E+05
 3.00000E-08    5.31348E+05
 3.50000E-08    5.16518E+05
 4.20000E-08    5.08549E+05
 5.00000E-08    5.09980E+05
 5.80000E-08    5.20794E+05
 6.70000E-08    5.47850E+05
 8.00000E-08    6.19317E+05
 1.00000E-07    9.13693E+05
 1.40000E-07    2.38719E+06
 1.80000E-07    5.25550E+06
 2.20000E-07    2.47128E+06
 2.50000E-07    1.09347E+06
 2.80000E-07    7.99979E+05
 3.00000E-07    7.80221E+05
 3.20000E-07    9.44335E+05
 3.50000E-07    2.16512E+06
 4.00000E-07    5.71973E+06
 5.00000E-07    5.29550E+05
 6.25000E-07    1.04542E+05
 7.80000E-07    5.18804E+04
 8.50000E-07    4.07394E+04
 9.10000E-07    3.53074E+04
 9.50000E-07    3.28516E+04
 9.72000E-07    3.13932E+04
 9.96000E-07    3.01271E+04
 1.02000E-06    2.90683E+04
 1.04500E-06    2.81809E+04
 1.07100E-06    2.74725E+04
 1.09700E-06    2.69437E+04
 1.12300E-06    2.65737E+04
 1.15000E-06    2.66041E+04
 1.30000E-06    3.14555E+04
 1.50000E-06    9.72992E+05
 2.10000E-06    8.18460E+05
 2.60000E-06    2.02233E+04
 3.30000E-06    4.22159E+05
 4.00000E-06    3.18315E+05
 9.87700E-06    1.47524E+05
 1.59680E-05    2.51656E+05
 2.77000E-05    7.18574E+04
 4.80520E-05    1.02754E+05
 7.55014E-05    5.34950E+04
 1.48728E-04    3.66550E+04
 3.67262E-04    1.95531E+04
 9.06898E-04    1.18013E+04
 1.42510E-03    8.60610E+03
 2.23945E-03    6.20872E+03
 3.51910E-03    4.45122E+03
 5.53000E-03    3.22874E+03
 9.11800E-03    2.34347E+03
 1.50300E-02    1.80585E+03
 2.47800E-02    1.42540E+03
 4.08500E-02    1.17646E+03
 6.73400E-02    1.00381E+03
 1.11000E-01    8.04996E+02
 1.83000E-01    6.57556E+02
 3.02000E-01    4.64661E+02
 5.00000E-01    3.03433E+02
 8.21000E-01    1.72672E+02
 1.35300E+00    7.94063E+01
 2.23100E+00    2.60678E+01
 3.67900E+00    4.14255E+00
 6.06500E+00    4.85607E+02
