# n + Te130 : (n,tot)   
# endfb8.0   W.N.Su+, Mughabghab               EVAL-DEC04
# uncertainties: n
# # energies =   171
#   E(MeV)       xs(mb) 
 1.00000E-11    9.59571E+03
 1.00000E-07    4.65985E+03
 4.13990E-07    4.63239E+03
 5.31580E-07    4.62636E+03
 6.82560E-07    4.62072E+03
 8.76420E-07    4.61555E+03
 1.12540E-06    4.61180E+03
 1.44500E-06    4.60758E+03
 1.85540E-06    4.60220E+03
 2.37240E-06    4.59620E+03
 3.05900E-06    4.59226E+03
 3.92790E-06    4.58764E+03
 5.04350E-06    4.58170E+03
 6.47600E-06    4.57408E+03
 8.31530E-06    4.56430E+03
 1.06770E-05    4.55174E+03
 1.37100E-05    4.53592E+03
 1.76030E-05    4.52028E+03
 2.26030E-05    4.50154E+03
 2.92030E-05    4.47777E+03
 3.72670E-05    4.44764E+03
 4.78510E-05    4.41138E+03
 6.14420E-05    4.37383E+03
 7.88930E-05    4.32635E+03
 1.01300E-04    4.27607E+03
 1.30070E-04    4.21957E+03
 1.67020E-04    4.16206E+03
 2.14450E-04    4.10050E+03
 2.75360E-04    4.04046E+03
 3.53580E-04    3.98315E+03
 4.54000E-04    3.92827E+03
 5.82950E-04    3.87774E+03
 7.48520E-04    3.83307E+03
 9.61120E-04    3.91481E+03
 1.23410E-03    3.76097E+03
 1.58460E-03    3.97032E+03
 2.03470E-03    3.77759E+03
 2.24870E-03    3.70350E+03
 2.48520E-03    3.69704E+03
 2.61260E-03    3.69243E+03
 2.74650E-03    3.68505E+03
 3.03540E-03    3.88220E+03
 3.35460E-03    3.66756E+03
 3.70740E-03    3.65679E+03
 4.30740E-03    3.93040E+03
 5.53080E-03    4.26442E+03
 7.10170E-03    3.75878E+03
 9.11880E-03    4.92039E+03
 1.17090E-02    3.78990E+03
 1.50340E-02    3.81545E+03
 1.93050E-02    3.93963E+03
 2.18750E-02    4.10875E+03
 2.35790E-02    3.68887E+03
 2.41760E-02    6.88546E+03
 2.47880E-02    3.56568E+03
 2.60580E-02    3.52007E+03
 2.70000E-02    3.73347E+03
 2.85000E-02    5.18866E+03
 3.18280E-02    5.58481E+03
 3.43070E-02    5.59464E+03
 4.08680E-02    5.60841E+03
 4.63090E-02    5.62138E+03
 5.24750E-02    5.63249E+03
 5.65620E-02    5.64692E+03
 6.73790E-02    5.66131E+03
 7.20000E-02    5.67105E+03
 7.95000E-02    5.70492E+03
 8.25000E-02    5.79577E+03
 8.65170E-02    6.00327E+03
 9.80370E-02    6.23676E+03
 1.11090E-01    6.27192E+03
 1.16790E-01    6.29113E+03
 1.22770E-01    6.31133E+03
 1.29070E-01    6.33258E+03
 1.35690E-01    6.35490E+03
 1.42640E-01    6.37837E+03
 1.49960E-01    6.40069E+03
 1.57640E-01    6.41328E+03
 1.65730E-01    6.42518E+03
 1.74220E-01    6.43769E+03
 1.83160E-01    6.45084E+03
 1.92550E-01    6.46466E+03
 2.02420E-01    6.47919E+03
 2.12800E-01    6.49447E+03
 2.23710E-01    6.51053E+03
 2.35180E-01    6.52741E+03
 2.47240E-01    6.55449E+03
 2.73240E-01    6.58343E+03
 2.87250E-01    6.59877E+03
 2.94520E-01    6.60593E+03
 2.97200E-01    6.60879E+03
 2.98500E-01    6.61221E+03
 3.01970E-01    6.63621E+03
 3.33730E-01    6.67582E+03
 3.68830E-01    6.70691E+03
 3.87740E-01    6.72906E+03
 4.07620E-01    6.76458E+03
 4.50490E-01    6.81484E+03
 4.97870E-01    6.84893E+03
 5.23400E-01    6.87180E+03
 5.50230E-01    6.89584E+03
 5.78440E-01    6.92112E+03
 6.08100E-01    6.94759E+03
 6.39280E-01    6.96923E+03
 6.72060E-01    6.98833E+03
 7.06510E-01    7.00841E+03
 7.42740E-01    7.02951E+03
 7.80820E-01    7.05006E+03
 8.20850E-01    7.06321E+03
 8.62940E-01    7.07584E+03
 9.07180E-01    7.09015E+03
 9.61640E-01    7.10027E+03
 1.00260E+00    7.09375E+03
 1.10800E+00    7.07957E+03
 1.16480E+00    7.06945E+03
 1.22460E+00    7.05594E+03
 1.28730E+00    7.01983E+03
 1.35340E+00    6.97734E+03
 1.42270E+00    6.93268E+03
 1.49570E+00    6.87973E+03
 1.57240E+00    6.80409E+03
 1.65300E+00    6.71177E+03
 1.73770E+00    6.60074E+03
 1.82680E+00    6.47720E+03
 1.92050E+00    6.32448E+03
 2.01900E+00    6.09519E+03
 2.12250E+00    5.89643E+03
 2.23130E+00    5.77503E+03
 2.30690E+00    5.69971E+03
 2.34570E+00    5.66131E+03
 2.36530E+00    5.63537E+03
 2.38520E+00    5.57376E+03
 2.46600E+00    5.45433E+03
 2.59240E+00    5.31505E+03
 2.72530E+00    5.17943E+03
 2.86500E+00    5.05958E+03
 3.01190E+00    4.94991E+03
 3.16640E+00    4.85526E+03
 3.32870E+00    4.74275E+03
 3.67880E+00    4.61963E+03
 4.06570E+00    4.51025E+03
 4.49330E+00    4.42483E+03
 4.72370E+00    4.37198E+03
 4.96590E+00    4.32144E+03
 5.22050E+00    4.27744E+03
 5.48810E+00    4.24031E+03
 5.76950E+00    4.21477E+03
 6.06530E+00    4.19852E+03
 6.37630E+00    4.19448E+03
 6.59240E+00    4.19920E+03
 6.70320E+00    4.20887E+03
 7.04690E+00    4.23649E+03
 7.40820E+00    4.27669E+03
 7.78800E+00    4.33234E+03
 8.18730E+00    4.39376E+03
 8.60710E+00    4.46279E+03
 9.04840E+00    4.53563E+03
 9.51230E+00    4.60972E+03
 1.00000E+01    4.67494E+03
 1.05130E+01    4.73009E+03
 1.10520E+01    4.77281E+03
 1.16180E+01    4.80197E+03
 1.22140E+01    4.81768E+03
 1.28400E+01    4.81988E+03
 1.34990E+01    4.81425E+03
 1.38400E+01    4.80729E+03
 1.41910E+01    4.79768E+03
 1.45500E+01    4.78735E+03
 1.49180E+01    4.76828E+03
 1.56830E+01    4.73948E+03
 1.64870E+01    4.70674E+03
