# n + Lu176 : (n,xa)    
# jendl.ad   N.Iwamoto                         EVAL-Apr14
# 
# # energies =   112
#   E(MeV)        xs(mb) 
 1.05000E-01    1.22151E-04
 1.10000E-01    1.25370E-04
 1.20000E-01    1.23049E-04
 1.23549E-01    1.22225E-04
 1.30000E-01    1.20728E-04
 1.40000E-01    1.18449E-04
 1.50000E-01    1.16465E-04
 1.60000E-01    1.14735E-04
 1.70000E-01    1.14813E-04
 1.80000E-01    1.14890E-04
 1.85186E-01    1.14857E-04
 1.90000E-01    1.11595E-04
 1.95472E-01    1.10272E-04
 2.00000E-01    1.09177E-04
 2.25000E-01    1.12237E-04
 2.34436E-01    1.10787E-04
 2.37119E-01    1.10374E-04
 2.38266E-01    1.10198E-04
 2.50000E-01    1.08530E-04
 2.75000E-01    1.07717E-04
 3.00000E-01    1.07887E-04
 3.01065E-01    1.07894E-04
 3.07010E-01    1.07756E-04
 3.40787E-01    1.14674E-04
 3.74627E-01    1.14228E-04
 3.74628E-01    1.14228E-04
 3.83528E-01    1.13650E-04
 3.88787E-01    1.13309E-04
 3.91106E-01    1.13158E-04
 4.00000E-01    1.11639E-04
 4.27327E-01    1.19266E-04
 4.35520E-01    1.17905E-04
 4.39831E-01    1.17550E-04
 4.52688E-01    1.13398E-04
 4.66422E-01    1.11048E-04
 4.90431E-01    1.06940E-04
 4.90637E-01    1.06595E-04
 5.00000E-01    1.03043E-04
 5.07755E-01    1.01198E-04
 5.36141E-01    1.03355E-04
 5.67161E-01    9.94810E-05
 5.81314E-01    9.60040E-05
 5.95166E-01    9.39852E-05
 5.99160E-01    9.25343E-05
 6.00000E-01    9.22291E-05
 6.16967E-01    9.58372E-05
 6.18626E-01    9.55728E-05
 6.38838E-01    9.23517E-05
 6.41416E-01    9.20865E-05
 6.53902E-01    9.08018E-05
 6.60897E-01    8.99374E-05
 6.62209E-01    8.97481E-05
 6.86513E-01    8.75418E-05
 6.91797E-01    8.70621E-05
 6.92145E-01    8.70305E-05
 6.97771E-01    8.65289E-05
 6.97772E-01    8.65288E-05
 6.99688E-01    8.63610E-05
 7.00000E-01    8.63337E-05
 7.13292E-01    9.18286E-05
 7.13568E-01    9.17994E-05
 8.00000E-01    8.43867E-05
 9.00000E-01    8.75250E-05
 1.00000E+00    8.88343E-05
 1.10000E+00    9.08469E-05
 1.20000E+00    9.36800E-05
 1.30000E+00    9.73305E-05
 1.40000E+00    1.01672E-04
 1.50000E+00    1.06716E-04
 1.60000E+00    1.12424E-04
 1.70000E+00    1.18777E-04
 1.80000E+00    1.25806E-04
 1.90000E+00    1.33538E-04
 2.00000E+00    1.41915E-04
 2.25000E+00    1.69795E-04
 2.50000E+00    1.96445E-04
 2.75000E+00    2.37672E-04
 3.00000E+00    3.57040E-04
 3.50000E+00    5.12562E-04
 4.00000E+00    7.40820E-04
 4.50000E+00    1.05808E-03
 5.00000E+00    1.56967E-03
 5.50000E+00    2.38812E-03
 6.00000E+00    3.72904E-03
 6.50000E+00    5.94629E-03
 7.00000E+00    9.61248E-03
 7.50000E+00    1.55743E-02
 8.00000E+00    2.51964E-02
 8.50000E+00    4.03102E-02
 9.00000E+00    6.35648E-02
 9.50000E+00    9.82742E-02
 1.00000E+01    1.48229E-01
 1.05000E+01    2.17229E-01
 1.10000E+01    3.09031E-01
 1.15000E+01    4.26050E-01
 1.20000E+01    5.69393E-01
 1.25000E+01    7.38679E-01
 1.30000E+01    9.32197E-01
 1.35000E+01    1.14723E+00
 1.40000E+01    1.38043E+00
 1.45000E+01    1.62797E+00
 1.50000E+01    1.88669E+00
 1.55000E+01    2.15287E+00
 1.60000E+01    2.42337E+00
 1.65000E+01    2.69565E+00
 1.70000E+01    2.96713E+00
 1.75000E+01    3.23611E+00
 1.80000E+01    3.50114E+00
 1.85000E+01    3.76108E+00
 1.90000E+01    4.01508E+00
 1.95000E+01    4.26261E+00
 2.00000E+01    4.50337E+00
