# n + Lu176 : (n,tot)   
# jendl.ad   N.Iwamoto                         EVAL-Apr14
# uncertainties: n
# # energies =    69
#   E(MeV)       xs(mb) 
 1.00000E-10    9.89014E+06
 5.00000E-09    2.93889E+06
 1.00000E-08    2.39636E+06
 1.50000E-08    2.17063E+06
 2.00000E-08    2.06340E+06
 2.50000E-08    2.02003E+06
 3.00000E-08    2.01867E+06
 3.50000E-08    2.05904E+06
 4.20000E-08    2.16285E+06
 5.00000E-08    2.33839E+06
 5.80000E-08    2.60700E+06
 6.70000E-08    3.11695E+06
 8.00000E-08    4.42422E+06
 1.00000E-07    9.46410E+06
 1.40000E-07    9.19995E+06
 1.80000E-07    2.64897E+06
 2.20000E-07    1.02634E+06
 2.50000E-07    5.73840E+05
 2.80000E-07    3.83910E+05
 3.00000E-07    2.93066E+05
 3.20000E-07    2.19129E+05
 3.50000E-07    1.48439E+05
 4.00000E-07    8.58215E+04
 5.00000E-07    4.81137E+04
 6.25000E-07    3.25449E+04
 7.80000E-07    2.86705E+04
 8.50000E-07    2.88311E+04
 9.10000E-07    2.98938E+04
 9.50000E-07    3.10011E+04
 9.72000E-07    3.20779E+04
 9.96000E-07    3.34398E+04
 1.02000E-06    3.51506E+04
 1.04500E-06    3.72892E+04
 1.07100E-06    3.99037E+04
 1.09700E-06    4.30747E+04
 1.12300E-06    4.70108E+04
 1.15000E-06    7.04810E+04
 1.30000E-06    3.91019E+05
 1.50000E-06    1.05495E+06
 2.10000E-06    1.23203E+04
 2.60000E-06    5.63807E+03
 3.30000E-06    8.55234E+03
 4.00000E-06    1.68236E+05
 9.87700E-06    1.09625E+05
 1.59680E-05    8.62627E+04
 2.77000E-05    8.44857E+04
 4.80520E-05    1.11685E+05
 7.55014E-05    4.91072E+04
 1.48728E-04    2.92207E+04
 3.67262E-04    1.60018E+04
 9.06898E-04    9.86966E+03
 1.42510E-03    7.32470E+03
 2.23945E-03    5.44152E+03
 3.51910E-03    4.09742E+03
 5.53000E-03    3.17304E+03
 9.11800E-03    2.45840E+03
 1.50300E-02    1.96751E+03
 2.47800E-02    1.54387E+03
 4.08500E-02    1.20281E+03
 6.73400E-02    9.50839E+02
 1.11000E-01    8.10242E+02
 1.83000E-01    6.64897E+02
 3.02000E-01    5.64138E+02
 5.00000E-01    3.69144E+02
 8.21000E-01    2.08050E+02
 1.35300E+00    8.22263E+01
 2.23100E+00    2.15357E+01
 3.67900E+00    4.27810E+00
 6.06500E+00    2.23553E+03
