# n + Lu176 : (n,xp)    
# jendl.ad   N.Iwamoto                         EVAL-Apr14
# 
# # energies =   112
#   E(MeV)        xs(mb) 
 1.05000E-01    2.26305E-18
 1.10000E-01    2.54700E-18
 1.20000E-01    3.15620E-18
 1.23549E-01    3.36350E-18
 1.30000E-01    3.74200E-18
 1.40000E-01    4.33420E-18
 1.50000E-01    4.93450E-18
 1.60000E-01    5.54750E-18
 1.70000E-01    6.54590E-18
 1.80000E-01    7.63840E-18
 1.85186E-01    8.21780E-18
 1.90000E-01    8.76490E-18
 1.95472E-01    1.35440E-17
 2.00000E-01    1.47540E-17
 2.25000E-01    2.38600E-17
 2.34436E-01    2.87860E-17
 2.37119E-01    3.03970E-17
 2.38266E-01    3.10840E-17
 2.50000E-01    3.92950E-17
 2.75000E-01    6.94760E-17
 3.00000E-01    1.25940E-16
 3.01065E-01    1.29190E-16
 3.07010E-01    1.47090E-16
 3.40787E-01    3.17910E-16
 3.74627E-01    6.83235E-16
 3.74628E-01    6.83250E-16
 3.83528E-01    8.03690E-16
 3.88787E-01    9.64030E-16
 3.91106E-01    1.01110E-15
 4.00000E-01    1.21660E-15
 4.27327E-01    2.22400E-15
 4.35520E-01    2.66100E-15
 4.39831E-01    2.92400E-15
 4.52688E-01    3.55990E-15
 4.66422E-01    4.62330E-15
 4.90431E-01    7.15870E-15
 4.90637E-01    7.15300E-15
 5.00000E-01    8.33960E-15
 5.07755E-01    9.56110E-15
 5.36141E-01    1.58810E-14
 5.67161E-01    2.73540E-14
 5.81314E-01    3.41490E-14
 5.95166E-01    4.27940E-14
 5.99160E-01    4.52570E-14
 6.00000E-01    4.57450E-14
 6.16967E-01    5.94280E-14
 6.18626E-01    6.10070E-14
 6.38838E-01    8.48510E-14
 6.41416E-01    8.84820E-14
 6.53902E-01    1.08990E-13
 6.60897E-01    1.21750E-13
 6.62209E-01    1.24080E-13
 6.86513E-01    1.82040E-13
 6.91797E-01    1.97930E-13
 6.92145E-01    1.99030E-13
 6.97771E-01    2.17607E-13
 6.97772E-01    2.17610E-13
 6.99688E-01    2.23860E-13
 7.00000E-01    2.24890E-13
 7.13292E-01    2.76070E-13
 7.13568E-01    2.76980E-13
 8.00000E-01    1.01380E-12
 9.00000E-01    4.22190E-12
 1.00000E+00    1.49780E-11
 1.10000E+00    4.83300E-11
 1.20000E+00    1.42030E-10
 1.30000E+00    3.84470E-10
 1.40000E+00    9.66150E-10
 1.50000E+00    2.27090E-09
 1.60000E+00    5.02420E-09
 1.70000E+00    1.05220E-08
 1.80000E+00    2.09570E-08
 1.90000E+00    3.98710E-08
 2.00000E+00    7.27410E-08
 2.25000E+00    2.73750E-07
 2.50000E+00    8.70960E-07
 2.75000E+00    2.29434E-06
 3.00000E+00    5.21745E-06
 3.50000E+00    1.96819E-05
 4.00000E+00    5.30373E-05
 4.50000E+00    1.12393E-04
 5.00000E+00    2.05841E-04
 5.50000E+00    3.69010E-04
 6.00000E+00    7.52183E-04
 6.50000E+00    1.84597E-03
 7.00000E+00    4.95700E-03
 7.50000E+00    1.30261E-02
 8.00000E+00    3.17899E-02
 8.50000E+00    7.10831E-02
 9.00000E+00    1.45750E-01
 9.50000E+00    2.75539E-01
 1.00000E+01    4.83497E-01
 1.05000E+01    7.93429E-01
 1.10000E+01    1.22743E+00
 1.15000E+01    1.80427E+00
 1.20000E+01    2.53904E+00
 1.25000E+01    3.44347E+00
 1.30000E+01    4.52636E+00
 1.35000E+01    5.79386E+00
 1.40000E+01    7.24990E+00
 1.45000E+01    8.89600E+00
 1.50000E+01    1.07316E+01
 1.55000E+01    1.27541E+01
 1.60000E+01    1.49591E+01
 1.65000E+01    1.73413E+01
 1.70000E+01    1.98930E+01
 1.75000E+01    2.26059E+01
 1.80000E+01    2.54701E+01
 1.85000E+01    2.84748E+01
 1.90000E+01    3.16088E+01
 1.95000E+01    3.48606E+01
 2.00000E+01    3.82200E+01
