# n + Lu175 : (n,xt)    
# jendl.ad   N.Iwamoto                         EVAL-Apr14
# 
# # energies =    98
#   E(MeV)        xs(mb) 
 1.05000E-01    0.00000E+00
 1.10000E-01    0.00000E+00
 1.14462E-01    0.00000E+00
 1.20000E-01    0.00000E+00
 1.30000E-01    0.00000E+00
 1.40000E-01    0.00000E+00
 1.50000E-01    0.00000E+00
 1.60000E-01    0.00000E+00
 1.70000E-01    0.00000E+00
 1.80000E-01    0.00000E+00
 1.90000E-01    0.00000E+00
 2.00000E-01    0.00000E+00
 2.25000E-01    0.00000E+00
 2.50000E-01    0.00000E+00
 2.52915E-01    0.00000E+00
 2.75000E-01    0.00000E+00
 3.00000E-01    0.00000E+00
 3.45360E-01    0.00000E+00
 3.55518E-01    0.00000E+00
 3.72928E-01    0.00000E+00
 3.98613E-01    0.00000E+00
 4.00000E-01    0.00000E+00
 4.14768E-01    0.00000E+00
 4.17373E-01    0.00000E+00
 4.35235E-01    0.00000E+00
 5.00000E-01    0.00000E+00
 5.17627E-01    0.00000E+00
 5.32302E-01    0.00000E+00
 5.49550E-01    0.00000E+00
 5.65542E-01    0.00000E+00
 5.98682E-01    0.00000E+00
 6.00000E-01    0.00000E+00
 6.30142E-01    0.00000E+00
 6.36408E-01    0.00000E+00
 6.76709E-01    0.00000E+00
 6.88246E-01    0.00000E+00
 6.89271E-01    0.00000E+00
 7.00000E-01    0.00000E+00
 7.61717E-01    0.00000E+00
 7.77899E-01    0.00000E+00
 7.77900E-01    0.00000E+00
 8.00000E-01    0.00000E+00
 8.02702E-01    0.00000E+00
 8.04562E-01    0.00000E+00
 8.49973E-01    0.00000E+00
 8.68680E-01    0.00000E+00
 8.70993E-01    0.00000E+00
 8.91410E-01    0.00000E+00
 9.00000E-01    0.00000E+00
 1.00000E+00    0.00000E+00
 1.10000E+00    0.00000E+00
 1.20000E+00    0.00000E+00
 1.30000E+00    0.00000E+00
 1.40000E+00    0.00000E+00
 1.50000E+00    0.00000E+00
 1.60000E+00    0.00000E+00
 1.70000E+00    0.00000E+00
 1.80000E+00    0.00000E+00
 1.90000E+00    0.00000E+00
 2.00000E+00    0.00000E+00
 2.25000E+00    0.00000E+00
 2.50000E+00    0.00000E+00
 2.75000E+00    0.00000E+00
 3.00000E+00    0.00000E+00
 3.50000E+00    0.00000E+00
 4.00000E+00    0.00000E+00
 4.50000E+00    0.00000E+00
 5.00000E+00    9.73567E-23
 5.50000E+00    2.80536E-22
 6.00000E+00    4.67470E-22
 6.50000E+00    3.31190E-17
 7.00000E+00    5.32210E-14
 7.50000E+00    8.23190E-12
 8.00000E+00    3.04460E-10
 8.50000E+00    4.39810E-09
 9.00000E+00    3.49970E-08
 9.50000E+00    2.09220E-07
 1.00000E+01    1.23201E-06
 1.05000E+01    7.20868E-06
 1.10000E+01    3.68034E-05
 1.15000E+01    1.55248E-04
 1.20000E+01    5.34269E-04
 1.25000E+01    1.60508E-03
 1.30000E+01    4.19380E-03
 1.35000E+01    9.68626E-03
 1.40000E+01    2.00126E-02
 1.45000E+01    3.73752E-02
 1.50000E+01    6.37993E-02
 1.55000E+01    1.00739E-01
 1.60000E+01    1.48903E-01
 1.65000E+01    2.08292E-01
 1.70000E+01    2.78349E-01
 1.75000E+01    3.58141E-01
 1.80000E+01    4.46513E-01
 1.85000E+01    5.42213E-01
 1.90000E+01    6.43978E-01
 1.95000E+01    7.50596E-01
 2.00000E+01    8.60926E-01
