# n + Lu175 : (n,n')    
# jendl.ad   N.Iwamoto                         EVAL-Apr14
# uncertainties: n
# # energies =    98
#   E(MeV)       xs(mb) 
 1.05000E-01    0.00000E+00
 1.10000E-01    1.06247E-02
 1.14462E-01    1.28699E-02
 1.20000E-01    1.66043E+02
 1.30000E-01    2.83617E+02
 1.40000E-01    3.77230E+02
 1.50000E-01    4.55210E+02
 1.60000E-01    5.39754E+02
 1.70000E-01    6.04057E+02
 1.80000E-01    6.58462E+02
 1.90000E-01    7.05661E+02
 2.00000E-01    7.46227E+02
 2.25000E-01    8.22977E+02
 2.50000E-01    8.75606E+02
 2.52915E-01    8.81568E+02
 2.75000E-01    9.89024E+02
 3.00000E-01    1.06101E+03
 3.45360E-01    1.15127E+03
 3.55518E-01    1.23708E+03
 3.72928E-01    1.38985E+03
 3.98613E-01    1.52504E+03
 4.00000E-01    1.54651E+03
 4.14768E-01    1.64573E+03
 4.17373E-01    1.66505E+03
 4.35235E-01    1.80185E+03
 5.00000E-01    2.16946E+03
 5.17627E-01    2.22294E+03
 5.32302E-01    2.26545E+03
 5.49550E-01    2.31246E+03
 5.65542E-01    2.36222E+03
 5.98682E-01    2.43234E+03
 6.00000E-01    2.43455E+03
 6.30142E-01    2.47588E+03
 6.36408E-01    2.48858E+03
 6.76709E-01    2.56015E+03
 6.88246E-01    2.58506E+03
 6.89271E-01    2.58779E+03
 7.00000E-01    2.60811E+03
 7.61717E-01    2.69499E+03
 7.77899E-01    2.71824E+03
 7.77900E-01    2.71824E+03
 8.00000E-01    2.75116E+03
 8.02702E-01    2.75442E+03
 8.04562E-01    2.75659E+03
 8.49973E-01    2.80191E+03
 8.68680E-01    2.81733E+03
 8.70993E-01    2.81913E+03
 8.91410E-01    2.83737E+03
 9.00000E-01    2.84488E+03
 1.00000E+00    2.92504E+03
 1.10000E+00    3.01206E+03
 1.20000E+00    3.08285E+03
 1.30000E+00    3.13699E+03
 1.40000E+00    3.17524E+03
 1.50000E+00    3.19933E+03
 1.60000E+00    3.21154E+03
 1.70000E+00    3.21408E+03
 1.80000E+00    3.20930E+03
 1.90000E+00    3.19939E+03
 2.00000E+00    3.18621E+03
 2.25000E+00    3.14627E+03
 2.50000E+00    3.10790E+03
 2.75000E+00    3.07632E+03
 3.00000E+00    3.04534E+03
 3.50000E+00    2.98622E+03
 4.00000E+00    2.93891E+03
 4.50000E+00    2.90758E+03
 5.00000E+00    2.88360E+03
 5.50000E+00    2.85854E+03
 6.00000E+00    2.82960E+03
 6.50000E+00    2.79853E+03
 7.00000E+00    2.76807E+03
 7.50000E+00    2.73998E+03
 8.00000E+00    2.69038E+03
 8.50000E+00    2.30400E+03
 9.00000E+00    1.79334E+03
 9.50000E+00    1.38035E+03
 1.00000E+01    1.09322E+03
 1.05000E+01    9.04867E+02
 1.10000E+01    7.80778E+02
 1.15000E+01    6.96335E+02
 1.20000E+01    6.36364E+02
 1.25000E+01    5.91566E+02
 1.30000E+01    5.56351E+02
 1.35000E+01    5.27495E+02
 1.40000E+01    5.03101E+02
 1.45000E+01    4.81973E+02
 1.50000E+01    4.63311E+02
 1.55000E+01    4.46538E+02
 1.60000E+01    4.31156E+02
 1.65000E+01    4.16920E+02
 1.70000E+01    4.03623E+02
 1.75000E+01    3.91127E+02
 1.80000E+01    3.79328E+02
 1.85000E+01    3.68167E+02
 1.90000E+01    3.57596E+02
 1.95000E+01    3.47593E+02
 2.00000E+01    3.38094E+02
