# n + Se 80 : (n,n'16)  
# jeff3.3    A.J. Koning and D. Rochman        EVAL-DEC15
# uncertainties: n
# # energies =    70
#   E(MeV)       xs(mb) 
 2.85002E+00    0.00000E+00
 2.86121E+00    2.55752E+00
 2.86267E+00    2.89117E+00
 2.87210E+00    5.04643E+00
 2.93205E+00    1.87480E+01
 2.98474E+00    3.07903E+01
 3.00000E+00    3.42780E+01
 3.03584E+00    3.72147E+01
 3.06335E+00    3.94688E+01
 3.07128E+00    4.01186E+01
 3.07432E+00    4.03677E+01
 3.07608E+00    4.05119E+01
 3.16524E+00    4.78176E+01
 3.19988E+00    5.06559E+01
 3.20000E+00    5.06658E+01
 3.21702E+00    5.07486E+01
 3.23978E+00    5.08594E+01
 3.40000E+00    5.16393E+01
 3.60000E+00    4.64807E+01
 3.80000E+00    3.83724E+01
 4.00000E+00    3.17954E+01
 4.20000E+00    2.62162E+01
 4.40000E+00    2.14523E+01
 4.60000E+00    1.74329E+01
 4.80000E+00    1.41490E+01
 5.00000E+00    1.14587E+01
 5.20000E+00    9.25105E+00
 5.40000E+00    7.44238E+00
 5.60000E+00    5.95965E+00
 5.80000E+00    4.75292E+00
 6.00000E+00    3.77651E+00
 6.20000E+00    2.99264E+00
 6.40000E+00    2.36670E+00
 6.60000E+00    1.86978E+00
 6.80000E+00    1.47686E+00
 7.00000E+00    1.16742E+00
 7.20000E+00    9.23947E-01
 7.40000E+00    7.33118E-01
 7.60000E+00    5.80349E-01
 7.80000E+00    4.62871E-01
 8.00000E+00    3.67876E-01
 8.50000E+00    2.11770E-01
 9.00000E+00    1.24249E-01
 9.50000E+00    7.41091E-02
 1.00000E+01    4.48675E-02
 1.05000E+01    2.74781E-02
 1.10000E+01    1.69601E-02
 1.15000E+01    1.05398E-02
 1.20000E+01    6.59188E-03
 1.25000E+01    4.15075E-03
 1.30000E+01    2.63218E-03
 1.35000E+01    1.68209E-03
 1.40000E+01    1.08285E-03
 1.45000E+01    7.01568E-04
 1.50000E+01    4.57501E-04
 1.60000E+01    1.97647E-04
 1.70000E+01    8.70422E-05
 1.80000E+01    3.89905E-05
 1.90000E+01    1.77828E-05
 2.00000E+01    8.25397E-06
 2.10000E+01    3.91033E-06
 2.20000E+01    1.87739E-06
 2.30000E+01    9.03850E-07
 2.40000E+01    4.43380E-07
 2.50000E+01    2.21810E-07
 2.60000E+01    1.12040E-07
 2.70000E+01    5.72480E-08
 2.80000E+01    2.93790E-08
 2.90000E+01    1.52000E-08
 3.00000E+01    7.91800E-09
