# n + Se 80 : (n,n'06)  
# jeff3.3    A.J. Koning and D. Rochman        EVAL-DEC15
# uncertainties: n
# # energies =    85
#   E(MeV)       xs(mb) 
 1.98456E+00    0.00000E+00
 2.00000E+00    3.05777E+01
 2.14789E+00    1.36341E+02
 2.20000E+00    1.73607E+02
 2.34046E+00    2.11951E+02
 2.37376E+00    2.21042E+02
 2.40000E+00    2.28205E+02
 2.52626E+00    2.32980E+02
 2.54530E+00    2.33699E+02
 2.60000E+00    2.35768E+02
 2.66056E+00    2.30203E+02
 2.75094E+00    2.21899E+02
 2.80000E+00    2.17391E+02
 2.80932E+00    2.15837E+02
 2.82218E+00    2.13693E+02
 2.85002E+00    2.09052E+02
 2.86121E+00    2.07187E+02
 2.86267E+00    2.06944E+02
 2.87210E+00    2.05372E+02
 2.93205E+00    1.95378E+02
 2.98474E+00    1.86594E+02
 3.00000E+00    1.84050E+02
 3.03584E+00    1.78670E+02
 3.06335E+00    1.74541E+02
 3.07128E+00    1.73351E+02
 3.07432E+00    1.72895E+02
 3.07608E+00    1.72630E+02
 3.16524E+00    1.59247E+02
 3.19988E+00    1.54048E+02
 3.20000E+00    1.54030E+02
 3.21702E+00    1.51760E+02
 3.23978E+00    1.48725E+02
 3.40000E+00    1.27358E+02
 3.60000E+00    1.04371E+02
 3.80000E+00    8.52375E+01
 4.00000E+00    6.93326E+01
 4.20000E+00    5.61253E+01
 4.40000E+00    4.51757E+01
 4.60000E+00    3.61875E+01
 4.80000E+00    2.88907E+01
 5.00000E+00    2.30195E+01
 5.20000E+00    1.83370E+01
 5.40000E+00    1.46348E+01
 5.60000E+00    1.17163E+01
 5.80000E+00    9.42997E+00
 6.00000E+00    7.64273E+00
 6.20000E+00    6.24970E+00
 6.40000E+00    5.16174E+00
 6.60000E+00    4.31104E+00
 6.80000E+00    3.64581E+00
 7.00000E+00    3.12260E+00
 7.20000E+00    2.71030E+00
 7.40000E+00    2.38523E+00
 7.60000E+00    2.12163E+00
 7.80000E+00    1.91552E+00
 8.00000E+00    1.74610E+00
 8.50000E+00    1.45485E+00
 9.00000E+00    1.27768E+00
 9.50000E+00    1.16442E+00
 1.00000E+01    1.08752E+00
 1.05000E+01    1.03122E+00
 1.10000E+01    9.86714E-01
 1.15000E+01    9.49320E-01
 1.20000E+01    9.16666E-01
 1.25000E+01    8.87539E-01
 1.30000E+01    8.61275E-01
 1.35000E+01    8.37357E-01
 1.40000E+01    8.15283E-01
 1.45000E+01    7.94584E-01
 1.50000E+01    7.74881E-01
 1.60000E+01    7.37664E-01
 1.70000E+01    7.03118E-01
 1.80000E+01    6.71562E-01
 1.90000E+01    6.43341E-01
 2.00000E+01    6.18701E-01
 2.10000E+01    5.97622E-01
 2.20000E+01    5.79538E-01
 2.30000E+01    5.63324E-01
 2.40000E+01    5.47718E-01
 2.50000E+01    5.31818E-01
 2.60000E+01    5.15363E-01
 2.70000E+01    4.98656E-01
 2.80000E+01    4.82269E-01
 2.90000E+01    4.66749E-01
 3.00000E+01    4.52454E-01
