# n + Mn 55 : (n,tot)   
# jendl.ad   K.Shibata,T.Hojuyama              EVAL-MAR87
# uncertainties: n
# # energies =    69
#   E(MeV)       xs(mb) 
 1.00000E-10    9.27112E+04
 5.00000E-09    2.52443E+04
 1.00000E-08    1.91190E+04
 1.50000E-08    1.60636E+04
 2.00000E-08    1.41327E+04
 2.50000E-08    1.27692E+04
 3.00000E-08    1.17385E+04
 3.50000E-08    1.07929E+04
 4.20000E-08    9.87131E+03
 5.00000E-08    9.10514E+03
 5.80000E-08    8.46321E+03
 6.70000E-08    7.81130E+03
 8.00000E-08    7.06837E+03
 1.00000E-07    6.14980E+03
 1.40000E-07    5.30804E+03
 1.80000E-07    4.73997E+03
 2.20000E-07    4.36531E+03
 2.50000E-07    4.11035E+03
 2.80000E-07    3.92789E+03
 3.00000E-07    3.79921E+03
 3.20000E-07    3.65580E+03
 3.50000E-07    3.45794E+03
 4.00000E-07    3.16499E+03
 5.00000E-07    2.83285E+03
 6.25000E-07    2.53595E+03
 7.80000E-07    2.34786E+03
 8.50000E-07    2.25916E+03
 9.10000E-07    2.19752E+03
 9.50000E-07    2.16169E+03
 9.72000E-07    2.13661E+03
 9.96000E-07    2.11133E+03
 1.02000E-06    2.08721E+03
 1.04500E-06    2.06214E+03
 1.07100E-06    2.03747E+03
 1.09700E-06    2.01394E+03
 1.12300E-06    1.99001E+03
 1.15000E-06    1.91961E+03
 1.30000E-06    1.79776E+03
 1.50000E-06    1.59901E+03
 2.10000E-06    1.39692E+03
 2.60000E-06    1.25214E+03
 3.30000E-06    1.12884E+03
 4.00000E-06    8.78291E+02
 9.87700E-06    6.37965E+02
 1.59680E-05    5.18020E+02
 2.77000E-05    4.29026E+02
 4.80520E-05    3.78842E+02
 7.55014E-05    3.83008E+02
 1.48728E-04    6.17122E+03
 3.67262E-04    7.39694E+02
 9.06898E-04    1.80110E+03
 1.42510E-03    2.85435E+02
 2.23945E-03    4.66509E+02
 3.51910E-03    6.43008E+01
 5.53000E-03    1.32811E+02
 9.11800E-03    3.51738E+01
 1.50300E-02    4.56624E+01
 2.47800E-02    2.67854E+01
 4.08500E-02    2.00745E+01
 6.73400E-02    1.50155E+01
 1.11000E-01    1.01090E+01
 1.83000E-01    6.15394E+00
 3.02000E-01    5.06386E+00
 5.00000E-01    3.82131E+00
 8.21000E-01    2.70686E+00
 1.35300E+00    1.94415E+00
 2.23100E+00    1.58947E+00
 3.67900E+00    1.10028E+00
 6.06500E+00    2.14752E+01
