# n + Cd116 : (n,xa)    
# jendl.ad   kunieda                           EVAL-Mar14
# 
# # energies =    73
#   E(MeV)        xs(mb) 
 1.50000E-01    0.00000E+00
 2.00000E-01    0.00000E+00
 3.00000E-01    0.00000E+00
 4.00000E-01    0.00000E+00
 5.00000E-01    0.00000E+00
 5.17959E-01    0.00000E+00
 6.00000E-01    0.00000E+00
 7.00000E-01    0.00000E+00
 8.00000E-01    0.00000E+00
 9.00000E-01    0.00000E+00
 1.00000E+00    0.00000E+00
 1.20000E+00    0.00000E+00
 1.22355E+00    0.00000E+00
 1.23005E+00    0.00000E+00
 1.29372E+00    0.00000E+00
 1.39232E+00    0.00000E+00
 1.40000E+00    0.00000E+00
 1.60000E+00    0.00000E+00
 1.65678E+00    0.00000E+00
 1.80000E+00    0.00000E+00
 1.93248E+00    0.00000E+00
 1.93827E+00    0.00000E+00
 1.94522E+00    0.00000E+00
 1.96834E+00    0.00000E+00
 2.00000E+00    0.00000E+00
 2.04430E+00    0.00000E+00
 2.05477E+00    0.00000E+00
 2.05967E+00    0.00000E+00
 2.13686E+00    0.00000E+00
 2.20000E+00    0.00000E+00
 2.20775E+00    0.00000E+00
 2.21400E+00    0.00000E+00
 2.26840E+00    0.00000E+00
 2.31154E+00    0.00000E+00
 2.31242E+00    0.00000E+00
 2.31316E+00    0.00000E+00
 2.40000E+00    0.00000E+00
 2.70000E+00    0.00000E+00
 3.00000E+00    0.00000E+00
 3.50000E+00    0.00000E+00
 4.00000E+00    0.00000E+00
 4.50000E+00    0.00000E+00
 5.00000E+00    4.76530E-13
 5.50000E+00    3.80172E-10
 6.00000E+00    1.19386E-08
 6.50000E+00    9.57292E-08
 7.00000E+00    4.92087E-07
 7.50000E+00    2.01848E-06
 8.00000E+00    9.39794E-06
 8.50000E+00    3.62683E-05
 9.00000E+00    8.58521E-05
 9.50000E+00    2.63048E-04
 1.00000E+01    5.36507E-04
 1.05000E+01    1.17911E-03
 1.10000E+01    1.96675E-03
 1.15000E+01    3.10483E-03
 1.20000E+01    5.31173E-03
 1.25000E+01    8.77699E-03
 1.30000E+01    1.39425E-02
 1.35000E+01    2.37689E-02
 1.40000E+01    3.79274E-02
 1.45000E+01    5.92466E-02
 1.50000E+01    9.19730E-02
 1.55000E+01    1.33477E-01
 1.60000E+01    1.86766E-01
 1.65000E+01    2.53283E-01
 1.70000E+01    3.35605E-01
 1.75000E+01    4.28400E-01
 1.80000E+01    5.33782E-01
 1.85000E+01    6.50325E-01
 1.90000E+01    7.79463E-01
 1.95000E+01    9.19792E-01
 2.00000E+01    1.06750E+00
