# n + Cd116 : (n,tot)   
# jendl.ad   kunieda                           EVAL-Mar14
# uncertainties: n
# # energies =    69
#   E(MeV)       xs(mb) 
 1.00000E-10    5.22759E+02
 5.00000E-09    1.42337E+02
 1.00000E-08    1.07796E+02
 1.50000E-08    9.05705E+01
 2.00000E-08    7.96806E+01
 2.50000E-08    7.19906E+01
 3.00000E-08    6.61780E+01
 3.50000E-08    6.08391E+01
 4.20000E-08    5.56462E+01
 5.00000E-08    5.13335E+01
 5.80000E-08    4.77130E+01
 6.70000E-08    4.40275E+01
 8.00000E-08    3.98361E+01
 1.00000E-07    3.46649E+01
 1.40000E-07    2.99053E+01
 1.80000E-07    2.67006E+01
 2.20000E-07    2.45942E+01
 2.50000E-07    2.31536E+01
 2.80000E-07    2.21179E+01
 3.00000E-07    2.13905E+01
 3.20000E-07    2.05819E+01
 3.50000E-07    1.94653E+01
 4.00000E-07    1.78187E+01
 5.00000E-07    1.59353E+01
 6.25000E-07    1.42564E+01
 7.80000E-07    1.31970E+01
 8.50000E-07    1.26950E+01
 9.10000E-07    1.23453E+01
 9.50000E-07    1.21420E+01
 9.72000E-07    1.20001E+01
 9.96000E-07    1.18570E+01
 1.02000E-06    1.17203E+01
 1.04500E-06    1.15782E+01
 1.07100E-06    1.14333E+01
 1.09700E-06    1.12982E+01
 1.12300E-06    1.11689E+01
 1.15000E-06    1.07657E+01
 1.30000E-06    1.00731E+01
 1.50000E-06    8.94412E+00
 2.10000E-06    7.78822E+00
 2.60000E-06    6.95761E+00
 3.30000E-06    6.24613E+00
 4.00000E-06    4.80514E+00
 9.87700E-06    3.49002E+00
 1.59680E-05    5.67023E+00
 2.77000E-05    5.01669E+02
 4.80520E-05    1.30442E+00
 7.55014E-05    8.54515E-01
 1.48728E-04    4.61703E-01
 3.67262E-04    3.55882E+02
 9.06898E-04    6.16785E+02
 1.42510E-03    2.88761E+02
 2.23945E-03    2.85991E+02
 3.51910E-03    2.53184E+02
 5.53000E-03    1.99523E+02
 9.11800E-03    1.45952E+02
 1.50300E-02    1.01173E+02
 2.47800E-02    7.03019E+01
 4.08500E-02    5.17044E+01
 6.73400E-02    4.19806E+01
 1.11000E-01    3.62463E+01
 1.83000E-01    3.35889E+01
 3.02000E-01    3.37565E+01
 5.00000E-01    1.76377E+01
 8.21000E-01    1.51655E+01
 1.35300E+00    1.26285E+01
 2.23100E+00    6.56073E+00
 3.67900E+00    2.44225E+00
 6.06500E+00    1.66809E+03
