# n + Os190 : (n,n'24)  
# tendl.2019 A.J. Koning and D. Rochman        EVAL-NOV19
# uncertainties: n
# # energies =    69
#   E(MeV)       xs(mb) 
 1.59229E+00    0.00000E+00
 1.60000E+00    1.09339E+01
 1.62455E+00    1.44781E+01
 1.67532E+00    2.18075E+01
 1.68458E+00    2.31443E+01
 1.68842E+00    2.36987E+01
 1.68952E+00    2.38575E+01
 1.71446E+00    2.74579E+01
 1.80000E+00    3.98069E+01
 2.00000E+00    4.59205E+01
 2.20000E+00    4.24024E+01
 2.40000E+00    3.42460E+01
 2.60000E+00    2.55962E+01
 2.80000E+00    1.84045E+01
 3.00000E+00    1.29823E+01
 3.20000E+00    8.95095E+00
 3.40000E+00    6.19460E+00
 3.60000E+00    4.28213E+00
 3.80000E+00    2.96590E+00
 4.00000E+00    2.06253E+00
 4.20000E+00    1.44135E+00
 4.40000E+00    1.01215E+00
 4.60000E+00    7.06274E-01
 4.80000E+00    4.99596E-01
 5.00000E+00    3.55635E-01
 5.20000E+00    2.54554E-01
 5.40000E+00    1.83256E-01
 5.60000E+00    1.31947E-01
 5.80000E+00    9.57302E-02
 6.00000E+00    6.97648E-02
 6.20000E+00    5.12221E-02
 6.40000E+00    3.77584E-02
 6.60000E+00    2.79649E-02
 6.80000E+00    2.08094E-02
 7.00000E+00    1.55198E-02
 7.20000E+00    1.16406E-02
 7.40000E+00    8.75088E-03
 7.60000E+00    6.60040E-03
 7.80000E+00    4.99693E-03
 8.00000E+00    3.78723E-03
 8.50000E+00    1.91158E-03
 9.00000E+00    9.70038E-04
 9.50000E+00    4.94983E-04
 1.00000E+01    2.54528E-04
 1.05000E+01    1.32114E-04
 1.10000E+01    6.92824E-05
 1.15000E+01    3.67270E-05
 1.20000E+01    1.96758E-05
 1.25000E+01    1.06577E-05
 1.30000E+01    5.83489E-06
 1.35000E+01    3.22860E-06
 1.40000E+01    1.80418E-06
 1.45000E+01    1.01835E-06
 1.50000E+01    5.79880E-07
 1.60000E+01    1.92750E-07
 1.70000E+01    6.59770E-08
 1.80000E+01    2.30690E-08
 1.90000E+01    8.31470E-09
 2.00000E+01    3.06600E-09
 2.10000E+01    1.15660E-09
 2.20000E+01    4.46230E-10
 2.30000E+01    1.75590E-10
 2.40000E+01    7.05500E-11
 2.50000E+01    2.88640E-11
 2.60000E+01    1.20410E-11
 2.70000E+01    5.09620E-12
 2.80000E+01    2.18760E-12
 2.90000E+01    9.50820E-13
 3.00000E+01    4.18900E-13
