# n + Os190 : (n,n'18)  
# tendl.2019 A.J. Koning and D. Rochman        EVAL-NOV19
# uncertainties: n
# # energies =    75
#   E(MeV)       xs(mb) 
 1.48987E+00    0.00000E+00
 1.52214E+00    1.57767E+01
 1.55351E+00    3.11133E+01
 1.55542E+00    3.20471E+01
 1.57737E+00    4.27784E+01
 1.57864E+00    4.33993E+01
 1.59229E+00    5.00727E+01
 1.60000E+00    5.38421E+01
 1.62455E+00    5.61159E+01
 1.67532E+00    6.08182E+01
 1.68458E+00    6.16759E+01
 1.68842E+00    6.20315E+01
 1.68952E+00    6.21334E+01
 1.71446E+00    6.44433E+01
 1.80000E+00    7.23660E+01
 2.00000E+00    6.80967E+01
 2.20000E+00    5.47873E+01
 2.40000E+00    4.03238E+01
 2.60000E+00    2.82237E+01
 2.80000E+00    1.92371E+01
 3.00000E+00    1.29276E+01
 3.20000E+00    8.51143E+00
 3.40000E+00    5.67147E+00
 3.60000E+00    3.78292E+00
 3.80000E+00    2.53164E+00
 4.00000E+00    1.70282E+00
 4.20000E+00    1.15234E+00
 4.40000E+00    7.81991E-01
 4.60000E+00    5.31822E-01
 4.80000E+00    3.67690E-01
 5.00000E+00    2.55775E-01
 5.20000E+00    1.79264E-01
 5.40000E+00    1.26554E-01
 5.60000E+00    8.94619E-02
 5.80000E+00    6.37868E-02
 6.00000E+00    4.57223E-02
 6.20000E+00    3.30331E-02
 6.40000E+00    2.39759E-02
 6.60000E+00    1.74911E-02
 6.80000E+00    1.28242E-02
 7.00000E+00    9.42634E-03
 7.20000E+00    6.96995E-03
 7.40000E+00    5.16644E-03
 7.60000E+00    3.84322E-03
 7.80000E+00    2.87033E-03
 8.00000E+00    2.14679E-03
 8.50000E+00    1.05000E-03
 9.00000E+00    5.17997E-04
 9.50000E+00    2.58042E-04
 1.00000E+01    1.30112E-04
 1.05000E+01    6.64790E-05
 1.10000E+01    3.44136E-05
 1.15000E+01    1.80394E-05
 1.20000E+01    9.56531E-06
 1.25000E+01    5.13037E-06
 1.30000E+01    2.78183E-06
 1.35000E+01    1.52481E-06
 1.40000E+01    8.44320E-07
 1.45000E+01    4.72400E-07
 1.50000E+01    2.66770E-07
 1.60000E+01    8.73170E-08
 1.70000E+01    2.94790E-08
 1.80000E+01    1.01830E-08
 1.90000E+01    3.63290E-09
 2.00000E+01    1.32810E-09
 2.10000E+01    4.97230E-10
 2.20000E+01    1.90470E-10
 2.30000E+01    7.44180E-11
 2.40000E+01    2.97010E-11
 2.50000E+01    1.20800E-11
 2.60000E+01    5.01470E-12
 2.70000E+01    2.11370E-12
 2.80000E+01    9.03900E-13
 2.90000E+01    3.91360E-13
 3.00000E+01    1.71720E-13
