# n + Os190 : (n,n'19)  
# tendl.2019 A.J. Koning and D. Rochman        EVAL-NOV19
# uncertainties: n
# # energies =    74
#   E(MeV)       xs(mb) 
 1.52214E+00    0.00000E+00
 1.55351E+00    1.91864E+00
 1.55542E+00    2.03546E+00
 1.57737E+00    3.37796E+00
 1.57864E+00    3.45563E+00
 1.59229E+00    4.29049E+00
 1.60000E+00    4.76205E+00
 1.62455E+00    6.14628E+00
 1.67532E+00    9.00891E+00
 1.68458E+00    9.53103E+00
 1.68842E+00    9.74755E+00
 1.68952E+00    9.80957E+00
 1.71446E+00    1.12158E+01
 1.80000E+00    1.60389E+01
 2.00000E+00    2.10210E+01
 2.20000E+00    2.03451E+01
 2.40000E+00    1.72154E+01
 2.60000E+00    1.36680E+01
 2.80000E+00    1.05195E+01
 3.00000E+00    7.93679E+00
 3.20000E+00    5.80319E+00
 3.40000E+00    4.24364E+00
 3.60000E+00    3.08127E+00
 3.80000E+00    2.22793E+00
 4.00000E+00    1.60766E+00
 4.20000E+00    1.15942E+00
 4.40000E+00    8.34913E-01
 4.60000E+00    5.98148E-01
 4.80000E+00    4.32562E-01
 5.00000E+00    3.13559E-01
 5.20000E+00    2.28153E-01
 5.40000E+00    1.66649E-01
 5.60000E+00    1.21517E-01
 5.80000E+00    8.91221E-02
 6.00000E+00    6.55569E-02
 6.20000E+00    4.85023E-02
 6.40000E+00    3.59827E-02
 6.60000E+00    2.67896E-02
 6.80000E+00    2.00196E-02
 7.00000E+00    1.49820E-02
 7.20000E+00    1.12692E-02
 7.40000E+00    8.49143E-03
 7.60000E+00    6.41716E-03
 7.80000E+00    4.86652E-03
 8.00000E+00    3.69403E-03
 8.50000E+00    1.87130E-03
 9.00000E+00    9.53538E-04
 9.50000E+00    4.89118E-04
 1.00000E+01    2.53127E-04
 1.05000E+01    1.32340E-04
 1.10000E+01    6.99294E-05
 1.15000E+01    3.73502E-05
 1.20000E+01    2.01552E-05
 1.25000E+01    1.09925E-05
 1.30000E+01    6.05715E-06
 1.35000E+01    3.37194E-06
 1.40000E+01    1.89494E-06
 1.45000E+01    1.07516E-06
 1.50000E+01    6.15130E-07
 1.60000E+01    2.06080E-07
 1.70000E+01    7.09660E-08
 1.80000E+01    2.49310E-08
 1.90000E+01    9.02460E-09
 2.00000E+01    3.34180E-09
 2.10000E+01    1.26590E-09
 2.20000E+01    4.90380E-10
 2.30000E+01    1.93660E-10
 2.40000E+01    7.80550E-11
 2.50000E+01    3.20240E-11
 2.60000E+01    1.33930E-11
 2.70000E+01    5.68150E-12
 2.80000E+01    2.44420E-12
 2.90000E+01    1.06440E-12
 3.00000E+01    4.69810E-13
