# n + Os190 : (n,n'20)  
# tendl.2019 A.J. Koning and D. Rochman        EVAL-NOV19
# uncertainties: n
# # energies =    73
#   E(MeV)       xs(mb) 
 1.55351E+00    0.00000E+00
 1.55542E+00    6.16253E-01
 1.57737E+00    7.69799E+00
 1.57864E+00    8.10771E+00
 1.59229E+00    1.25116E+01
 1.60000E+00    1.49991E+01
 1.62455E+00    1.63341E+01
 1.67532E+00    1.90949E+01
 1.68458E+00    1.95984E+01
 1.68842E+00    1.98072E+01
 1.68952E+00    1.98671E+01
 1.71446E+00    2.12233E+01
 1.80000E+00    2.58748E+01
 2.00000E+00    2.53352E+01
 2.20000E+00    2.06670E+01
 2.40000E+00    1.53181E+01
 2.60000E+00    1.07623E+01
 2.80000E+00    7.35856E+00
 3.00000E+00    4.96056E+00
 3.20000E+00    3.29265E+00
 3.40000E+00    2.19166E+00
 3.60000E+00    1.45721E+00
 3.80000E+00    9.70520E-01
 4.00000E+00    6.48961E-01
 4.20000E+00    4.36406E-01
 4.40000E+00    2.95187E-01
 4.60000E+00    1.99497E-01
 4.80000E+00    1.37119E-01
 5.00000E+00    9.49704E-02
 5.20000E+00    6.63315E-02
 5.40000E+00    4.67065E-02
 5.60000E+00    3.29574E-02
 5.80000E+00    2.34705E-02
 6.00000E+00    1.68118E-02
 6.20000E+00    1.21431E-02
 6.40000E+00    8.81233E-03
 6.60000E+00    6.42921E-03
 6.80000E+00    4.71382E-03
 7.00000E+00    3.46485E-03
 7.20000E+00    2.56171E-03
 7.40000E+00    1.89857E-03
 7.60000E+00    1.41200E-03
 7.80000E+00    1.05426E-03
 8.00000E+00    7.88248E-04
 8.50000E+00    3.85201E-04
 9.00000E+00    1.89893E-04
 9.50000E+00    9.45467E-05
 1.00000E+01    4.76504E-05
 1.05000E+01    2.43273E-05
 1.10000E+01    1.25753E-05
 1.15000E+01    6.57688E-06
 1.20000E+01    3.47649E-06
 1.25000E+01    1.85757E-06
 1.30000E+01    1.00307E-06
 1.35000E+01    5.47570E-07
 1.40000E+01    3.02090E-07
 1.45000E+01    1.68520E-07
 1.50000E+01    9.49690E-08
 1.60000E+01    3.10360E-08
 1.70000E+01    1.04820E-08
 1.80000E+01    3.62120E-09
 1.90000E+01    1.29000E-09
 2.00000E+01    4.70250E-10
 2.10000E+01    1.75530E-10
 2.20000E+01    6.71200E-11
 2.30000E+01    2.62280E-11
 2.40000E+01    1.04870E-11
 2.50000E+01    4.27630E-12
 2.60000E+01    1.77920E-12
 2.70000E+01    7.50740E-13
 2.80000E+01    3.20980E-13
 2.90000E+01    1.38830E-13
 3.00000E+01    6.08420E-14
