# n + Zr 93 : (n,n'06)  
# jendl4.0   A.Ichihara, K.Shibata, S.Kunieda+ EVAL-SEP09
# uncertainties: n
# # energies =    35
#   E(MeV)       xs(mb) 
 1.44088E+00    0.00000E+00
 1.50000E+00    3.26600E+01
 1.60000E+00    7.60500E+01
 1.70000E+00    9.42500E+01
 1.80000E+00    9.83700E+01
 1.90000E+00    9.81200E+01
 2.00000E+00    9.68600E+01
 2.10000E+00    9.43000E+01
 2.20000E+00    8.76400E+01
 2.30000E+00    8.24200E+01
 2.40000E+00    7.84700E+01
 2.50000E+00    7.57800E+01
 2.60000E+00    7.52700E+01
 2.80000E+00    6.52900E+01
 3.00000E+00    5.55900E+01
 3.50000E+00    3.56800E+01
 4.00000E+00    2.10900E+01
 4.50000E+00    1.15500E+01
 5.00000E+00    6.12800E+00
 5.50000E+00    3.13600E+00
 6.00000E+00    1.60900E+00
 7.00000E+00    4.35500E-01
 8.00000E+00    1.26700E-01
 9.00000E+00    3.94300E-02
 1.00000E+01    1.29500E-02
 1.10000E+01    4.46100E-03
 1.20000E+01    1.60600E-03
 1.30000E+01    6.00200E-04
 1.40000E+01    2.31500E-04
 1.50000E+01    9.19900E-05
 1.60000E+01    3.75200E-05
 1.70000E+01    1.56900E-05
 1.80000E+01    6.72500E-06
 1.90000E+01    2.93900E-06
 2.00000E+01    1.31500E-06
