# n + Sc 45 : (n,xt)    
# endfb8.0   A.B.Smith,R.J.Howerton            EVAL-JUL92
# 
# # energies =    82
#   E(MeV)        xs(mb) 
 1.27000E-02    0.00000E+00
 1.00000E-01    0.00000E+00
 2.00000E-01    0.00000E+00
 3.85000E-01    0.00000E+00
 4.00000E-01    0.00000E+00
 5.55100E-01    0.00000E+00
 6.00000E-01    0.00000E+00
 7.36200E-01    0.00000E+00
 8.00000E-01    0.00000E+00
 9.60100E-01    0.00000E+00
 9.96300E-01    0.00000E+00
 1.00000E+00    0.00000E+00
 1.09100E+00    0.00000E+00
 1.20000E+00    0.00000E+00
 1.26500E+00    0.00000E+00
 1.33200E+00    0.00000E+00
 1.40000E+00    0.00000E+00
 1.44000E+00    0.00000E+00
 1.46600E+00    0.00000E+00
 1.59100E+00    0.00000E+00
 1.59500E+00    0.00000E+00
 1.69900E+00    0.00000E+00
 1.84000E+00    0.00000E+00
 1.89500E+00    0.00000E+00
 1.90000E+00    0.00000E+00
 2.00000E+00    0.00000E+00
 2.10000E+00    0.00000E+00
 2.17000E+00    0.00000E+00
 2.25000E+00    0.00000E+00
 2.37000E+00    0.00000E+00
 2.38000E+00    0.00000E+00
 2.50000E+00    0.00000E+00
 2.62000E+00    0.00000E+00
 2.75000E+00    0.00000E+00
 2.86200E+00    0.00000E+00
 3.00000E+00    0.00000E+00
 3.20000E+00    0.00000E+00
 3.25000E+00    0.00000E+00
 3.46800E+00    0.00000E+00
 3.50000E+00    0.00000E+00
 3.75000E+00    0.00000E+00
 3.83000E+00    0.00000E+00
 4.00000E+00    0.00000E+00
 4.50000E+00    0.00000E+00
 4.77000E+00    0.00000E+00
 5.00000E+00    0.00000E+00
 5.50000E+00    0.00000E+00
 5.90000E+00    0.00000E+00
 6.00000E+00    0.00000E+00
 6.50000E+00    0.00000E+00
 7.00000E+00    0.00000E+00
 7.04400E+00    0.00000E+00
 7.14000E+00    0.00000E+00
 7.50000E+00    0.00000E+00
 8.00000E+00    0.00000E+00
 8.03000E+00    0.00000E+00
 8.03000E+00    0.00000E+00
 8.11000E+00    0.00000E+00
 8.40000E+00    0.00000E+00
 9.00000E+00    0.00000E+00
 9.06000E+00    0.00000E+00
 9.50000E+00    0.00000E+00
 9.75500E+00    0.00000E+00
 1.00000E+01    3.48000E-13
 1.10000E+01    1.51000E-04
 1.15800E+01    7.60342E-03
 1.15900E+01    7.73191E-03
 1.20000E+01    1.30000E-02
 1.25000E+01    6.25000E-02
 1.30000E+01    1.12000E-01
 1.35000E+01    1.91000E-01
 1.40000E+01    2.70000E-01
 1.45000E+01    3.75000E-01
 1.50000E+01    4.80000E-01
 1.55000E+01    5.95000E-01
 1.60000E+01    7.10000E-01
 1.65000E+01    9.20000E-01
 1.70000E+01    1.13000E+00
 1.75000E+01    1.32000E+00
 1.80000E+01    1.51000E+00
 1.90000E+01    2.07000E+00
 2.00000E+01    2.46000E+00
