# n + Sc 45 : (n,n')    
# endfb8.0   A.B.Smith,R.J.Howerton            EVAL-JUL92
# uncertainties: n
# # energies =    82
#   E(MeV)       xs(mb) 
 1.27000E-02    0.00000E+00
 1.00000E-01    3.32000E+01
 2.00000E-01    5.11000E+01
 3.85000E-01    6.80275E+01
 4.00000E-01    8.30000E+01
 5.55100E-01    1.04714E+02
 6.00000E-01    1.49400E+02
 7.36200E-01    1.84744E+02
 8.00000E-01    2.87500E+02
 9.60100E-01    3.43135E+02
 9.96300E-01    3.55986E+02
 1.00000E+00    3.75700E+02
 1.09100E+00    4.15376E+02
 1.20000E+00    4.81800E+02
 1.26500E+00    5.02470E+02
 1.33200E+00    5.87252E+02
 1.40000E+00    6.76700E+02
 1.44000E+00    6.83715E+02
 1.46600E+00    6.96143E+02
 1.59100E+00    7.98233E+02
 1.59500E+00    8.05100E+02
 1.69900E+00    8.29575E+02
 1.84000E+00    9.30235E+02
 1.89500E+00    9.80883E+02
 1.90000E+00    9.80467E+02
 2.00000E+00    9.78813E+02
 2.10000E+00    9.87158E+02
 2.17000E+00    1.00210E+03
 2.25000E+00    1.02976E+03
 2.37000E+00    1.06544E+03
 2.38000E+00    1.06834E+03
 2.50000E+00    1.10252E+03
 2.62000E+00    1.12280E+03
 2.75000E+00    1.14701E+03
 2.86200E+00    1.15210E+03
 3.00000E+00    1.15852E+03
 3.20000E+00    1.17210E+03
 3.25000E+00    1.17556E+03
 3.46800E+00    1.17740E+03
 3.50000E+00    1.17940E+03
 3.75000E+00    1.17530E+03
 3.83000E+00    1.17250E+03
 4.00000E+00    1.16928E+03
 4.50000E+00    1.15560E+03
 4.77000E+00    1.15716E+03
 5.00000E+00    1.15890E+03
 5.50000E+00    1.17190E+03
 5.90000E+00    1.18910E+03
 6.00000E+00    1.19370E+03
 6.50000E+00    1.21170E+03
 7.00000E+00    1.23264E+03
 7.04400E+00    1.23240E+03
 7.14000E+00    1.23270E+03
 7.50000E+00    1.23740E+03
 8.00000E+00    1.23785E+03
 8.03000E+00    1.23840E+03
 8.03000E+00    1.23840E+03
 8.11000E+00    1.23928E+03
 8.40000E+00    1.24383E+03
 9.00000E+00    1.23791E+03
 9.06000E+00    1.23682E+03
 9.50000E+00    1.21914E+03
 9.75500E+00    1.20775E+03
 1.00000E+01    1.19637E+03
 1.10000E+01    1.06083E+03
 1.15800E+01    9.55443E+02
 1.15900E+01    9.53228E+02
 1.20000E+01    8.61097E+02
 1.25000E+01    7.39429E+02
 1.30000E+01    6.09760E+02
 1.35000E+01    5.11192E+02
 1.40000E+01    4.12623E+02
 1.45000E+01    3.46055E+02
 1.50000E+01    2.82586E+02
 1.55000E+01    2.35117E+02
 1.60000E+01    1.93449E+02
 1.65000E+01    1.71380E+02
 1.70000E+01    1.58411E+02
 1.75000E+01    1.52343E+02
 1.80000E+01    1.48274E+02
 1.90000E+01    1.46237E+02
 2.00000E+01    1.43200E+02
