# n + Dy161 : (n,2na)   
# jendl.ad   N.Iwamoto                         EVAL-Apr14
# uncertainties: n
# # energies =    25
#   E(MeV)       xs(mb) 
 6.05287E+00    0.00000E+00
 8.50000E+00    4.29320E-31
 9.00000E+00    4.34420E-25
 9.50000E+00    7.00280E-21
 1.00000E+01    1.32710E-17
 1.05000E+01    5.50990E-15
 1.10000E+01    7.25920E-13
 1.15000E+01    4.14400E-11
 1.20000E+01    1.19470E-09
 1.25000E+01    1.97540E-08
 1.30000E+01    2.06350E-07
 1.35000E+01    1.48411E-06
 1.40000E+01    7.79071E-06
 1.45000E+01    3.19050E-05
 1.50000E+01    1.03384E-04
 1.55000E+01    2.80984E-04
 1.60000E+01    6.23810E-04
 1.65000E+01    1.15349E-03
 1.70000E+01    1.92648E-03
 1.75000E+01    3.12487E-03
 1.80000E+01    5.07314E-03
 1.85000E+01    8.03846E-03
 1.90000E+01    1.29414E-02
 1.95000E+01    2.05154E-02
 2.00000E+01    3.14797E-02
