# n + Dy161 : (n,g)     
# jendl.ad   N.Iwamoto                         EVAL-Apr14
# uncertainties: n
# # energies =   171
#   E(MeV)       xs(mb) 
 1.00000E-11    6.62256E+06
 1.00000E-07    1.88555E+05
 4.13990E-07    1.01603E+05
 5.31580E-07    8.32271E+04
 6.82560E-07    6.77255E+04
 8.76420E-07    5.52852E+04
 1.12540E-06    4.64283E+04
 1.44500E-06    4.34078E+04
 1.85540E-06    6.48930E+04
 2.37240E-06    6.87429E+05
 3.05900E-06    1.00345E+06
 3.92790E-06    5.40674E+05
 5.04350E-06    1.42377E+04
 6.47600E-06    8.45951E+04
 8.31530E-06    2.70745E+04
 1.06770E-05    4.37924E+04
 1.37100E-05    4.35153E+05
 1.76030E-05    1.94054E+05
 2.26030E-05    3.74186E+04
 2.92030E-05    3.54841E+04
 3.72670E-05    2.24505E+05
 4.78510E-05    1.18840E+05
 6.14420E-05    3.05471E+04
 7.88930E-05    4.96983E+04
 1.01300E-04    5.24888E+04
 1.30070E-04    4.02177E+04
 1.67020E-04    7.24703E+04
 2.14450E-04    2.68848E+04
 2.75360E-04    3.19960E+04
 3.53580E-04    2.71349E+04
 4.54000E-04    2.80625E+04
 5.82950E-04    2.37506E+04
 7.48520E-04    1.99947E+04
 9.61120E-04    1.68256E+04
 1.23410E-03    1.42066E+04
 1.58460E-03    1.19962E+04
 2.03470E-03    1.06480E+04
 2.24870E-03    9.95038E+03
 2.48520E-03    9.45634E+03
 2.61260E-03    9.14137E+03
 2.74650E-03    8.69241E+03
 3.03540E-03    8.12283E+03
 3.35460E-03    7.59184E+03
 3.70740E-03    6.98007E+03
 4.30740E-03    6.11727E+03
 5.53080E-03    5.18466E+03
 7.10170E-03    4.41873E+03
 9.11880E-03    3.79713E+03
 1.17090E-02    3.30923E+03
 1.50340E-02    2.88850E+03
 1.93050E-02    2.60957E+03
 2.18750E-02    2.47935E+03
 2.35790E-02    2.41620E+03
 2.41760E-02    2.38629E+03
 2.47880E-02    2.33937E+03
 2.60580E-02    2.26859E+03
 2.70000E-02    2.18569E+03
 2.85000E-02    2.04867E+03
 3.18280E-02    1.93334E+03
 3.43070E-02    1.79737E+03
 4.08680E-02    1.63960E+03
 4.63090E-02    1.46084E+03
 5.24750E-02    1.35368E+03
 5.65620E-02    1.24692E+03
 6.73790E-02    1.15381E+03
 7.20000E-02    1.08874E+03
 7.95000E-02    1.01981E+03
 8.25000E-02    9.88404E+02
 8.65170E-02    9.29049E+02
 9.80370E-02    8.33698E+02
 1.11090E-01    7.45280E+02
 1.16790E-01    7.11367E+02
 1.22770E-01    6.82323E+02
 1.29070E-01    6.53113E+02
 1.35690E-01    6.15000E+02
 1.42640E-01    5.85121E+02
 1.49960E-01    5.60218E+02
 1.57640E-01    5.37443E+02
 1.65730E-01    5.17387E+02
 1.74220E-01    4.99501E+02
 1.83160E-01    4.81421E+02
 1.92550E-01    4.64456E+02
 2.02420E-01    4.45385E+02
 2.12800E-01    4.22155E+02
 2.23710E-01    4.00764E+02
 2.35180E-01    3.85947E+02
 2.47240E-01    3.66897E+02
 2.73240E-01    3.52103E+02
 2.87250E-01    3.45529E+02
 2.94520E-01    3.42460E+02
 2.97200E-01    3.41234E+02
 2.98500E-01    3.39768E+02
 3.01970E-01    3.28149E+02
 3.33730E-01    3.06253E+02
 3.68830E-01    2.90840E+02
 3.87740E-01    2.80933E+02
 4.07620E-01    2.67825E+02
 4.50490E-01    2.48293E+02
 4.97870E-01    2.35297E+02
 5.23400E-01    2.26648E+02
 5.50230E-01    2.16617E+02
 5.78440E-01    2.06556E+02
 6.08100E-01    1.97315E+02
 6.39280E-01    1.87411E+02
 6.72060E-01    1.79056E+02
 7.06510E-01    1.69423E+02
 7.42740E-01    1.61922E+02
 7.80820E-01    1.55422E+02
 8.20850E-01    1.50851E+02
 8.62940E-01    1.46449E+02
 9.07180E-01    1.41221E+02
 9.61640E-01    1.36008E+02
 1.00260E+00    1.28572E+02
 1.10800E+00    1.20713E+02
 1.16480E+00    1.15540E+02
 1.22460E+00    1.10316E+02
 1.28730E+00    1.05181E+02
 1.35340E+00    1.00228E+02
 1.42270E+00    9.53796E+01
 1.49570E+00    9.06222E+01
 1.57240E+00    8.58871E+01
 1.65300E+00    8.13413E+01
 1.73770E+00    7.69719E+01
 1.82680E+00    7.27085E+01
 1.92050E+00    6.85447E+01
 2.01900E+00    6.39351E+01
 2.12250E+00    5.92870E+01
 2.23130E+00    5.58058E+01
 2.30690E+00    5.41607E+01
 2.34570E+00    5.33361E+01
 2.36530E+00    5.27792E+01
 2.38520E+00    5.14674E+01
 2.46600E+00    4.85587E+01
 2.59240E+00    4.44290E+01
 2.72530E+00    4.06528E+01
 2.86500E+00    3.72949E+01
 3.01190E+00    3.38541E+01
 3.16640E+00    3.04812E+01
 3.32870E+00    2.59351E+01
 3.67880E+00    2.01973E+01
 4.06570E+00    1.51290E+01
 4.49330E+00    1.18158E+01
 4.72370E+00    9.85415E+00
 4.96590E+00    8.14859E+00
 5.22050E+00    6.64899E+00
 5.48810E+00    5.38559E+00
 5.76950E+00    4.32996E+00
 6.06530E+00    3.47274E+00
 6.37630E+00    2.88548E+00
 6.59240E+00    2.59697E+00
 6.70320E+00    2.26728E+00
 7.04690E+00    1.88863E+00
 7.40820E+00    1.62167E+00
 7.78800E+00    1.45297E+00
 8.18730E+00    1.35640E+00
 8.60710E+00    1.30870E+00
 9.04840E+00    1.29119E+00
 9.51230E+00    1.28986E+00
 1.00000E+01    1.29418E+00
 1.05130E+01    1.29488E+00
 1.10520E+01    1.28520E+00
 1.16180E+01    1.25899E+00
 1.22140E+01    1.21855E+00
 1.28400E+01    1.17111E+00
 1.34990E+01    1.13177E+00
 1.38400E+01    1.10143E+00
 1.41910E+01    1.06569E+00
 1.45500E+01    1.01999E+00
 1.49180E+01    9.39539E-01
 1.56830E+01    8.18900E-01
 1.64870E+01    6.95999E-01
