# n + Dy161 : (n,n')    
# jendl.ad   N.Iwamoto                         EVAL-Apr14
# uncertainties: n
# # energies =   116
#   E(MeV)       xs(mb) 
 2.58118E-02    0.00000E+00
 3.00000E-02    1.70705E+02
 4.00000E-02    2.97532E+02
 4.40947E-02    3.37626E+02
 5.00000E-02    6.38101E+02
 6.00000E-02    7.68615E+02
 7.00000E-02    8.48061E+02
 7.50344E-02    8.78673E+02
 8.00000E-02    9.71759E+02
 9.00000E-02    1.05298E+03
 1.00000E-01    1.11661E+03
 1.00516E-01    1.11942E+03
 1.01032E-01    1.12222E+03
 1.03708E-01    1.14157E+03
 1.10000E-01    1.26924E+03
 1.20000E-01    1.35451E+03
 1.30000E-01    1.42044E+03
 1.32585E-01    1.43416E+03
 1.40000E-01    1.52037E+03
 1.50000E-01    1.58523E+03
 1.60000E-01    1.63675E+03
 1.70000E-01    1.67999E+03
 1.80000E-01    1.71714E+03
 1.85385E-01    1.73501E+03
 1.90000E-01    1.75226E+03
 2.00000E-01    1.78369E+03
 2.02347E-01    1.78992E+03
 2.14287E-01    1.83681E+03
 2.25000E-01    1.89254E+03
 2.50000E-01    1.95645E+03
 2.69116E-01    1.99218E+03
 2.75000E-01    2.00144E+03
 3.00000E-01    2.03713E+03
 3.16914E-01    2.05917E+03
 3.22700E-01    2.07092E+03
 3.69275E-01    2.12694E+03
 4.00000E-01    2.16580E+03
 4.09541E-01    2.17663E+03
 4.20855E-01    2.18857E+03
 4.46179E-01    2.22761E+03
 4.54262E-01    2.23667E+03
 4.60096E-01    2.25063E+03
 4.88603E-01    2.28815E+03
 5.00000E-01    2.30116E+03
 5.11285E-01    2.31487E+03
 5.15209E-01    2.31942E+03
 5.24266E-01    2.33159E+03
 5.37548E-01    2.34892E+03
 5.53702E-01    2.37487E+03
 5.71502E-01    2.40260E+03
 5.90780E-01    2.43116E+03
 6.00000E-01    2.44239E+03
 6.11389E-01    2.45678E+03
 6.13653E-01    2.46029E+03
 6.32172E-01    2.48977E+03
 6.37136E-01    2.49689E+03
 6.46024E-01    2.51258E+03
 6.82575E-01    2.55631E+03
 6.92614E-01    2.56894E+03
 7.00000E-01    2.57797E+03
 7.00441E-01    2.57849E+03
 7.03522E-01    2.58360E+03
 7.21544E-01    2.60809E+03
 7.23104E-01    2.61022E+03
 7.35494E-01    2.62447E+03
 8.00000E-01    2.68874E+03
 9.00000E-01    2.76559E+03
 1.00000E+00    2.83251E+03
 1.10000E+00    2.88316E+03
 1.20000E+00    2.92613E+03
 1.30000E+00    2.94994E+03
 1.40000E+00    2.96965E+03
 1.50000E+00    2.98639E+03
 1.60000E+00    2.98725E+03
 1.70000E+00    2.98822E+03
 1.80000E+00    2.98971E+03
 1.90000E+00    2.99201E+03
 2.00000E+00    2.99522E+03
 2.25000E+00    2.98172E+03
 2.50000E+00    2.97923E+03
 2.75000E+00    2.96630E+03
 3.00000E+00    2.96744E+03
 3.50000E+00    2.95812E+03
 4.00000E+00    2.93850E+03
 4.50000E+00    2.90786E+03
 5.00000E+00    2.87369E+03
 5.50000E+00    2.84067E+03
 6.00000E+00    2.81011E+03
 6.50000E+00    2.78203E+03
 7.00000E+00    2.62283E+03
 7.50000E+00    2.19539E+03
 8.00000E+00    1.75666E+03
 8.50000E+00    1.41320E+03
 9.00000E+00    1.15154E+03
 9.50000E+00    9.51310E+02
 1.00000E+01    7.98920E+02
 1.05000E+01    6.84641E+02
 1.10000E+01    5.98599E+02
 1.15000E+01    5.34354E+02
 1.20000E+01    4.84969E+02
 1.25000E+01    4.47240E+02
 1.30000E+01    4.17256E+02
 1.35000E+01    3.93596E+02
 1.40000E+01    3.74065E+02
 1.45000E+01    3.58090E+02
 1.50000E+01    3.44335E+02
 1.55000E+01    3.32589E+02
 1.60000E+01    3.22355E+02
 1.65000E+01    3.13176E+02
 1.70000E+01    3.04067E+02
 1.75000E+01    2.96359E+02
 1.80000E+01    2.88848E+02
 1.85000E+01    2.82388E+02
 1.90000E+01    2.75699E+02
 1.95000E+01    2.69459E+02
 2.00000E+01    2.63755E+02
