# n + Xe128 : (n,tot)   
# endfb8.0   JNDC FPND W.G., Mughabghab        EVAL-JAN05
# uncertainties: n
# # energies =   171
#   E(MeV)       xs(mb) 
 1.00000E-11    6.74133E+04
 1.00000E-07    8.66673E+03
 4.13990E-07    7.97044E+03
 5.31580E-07    7.81386E+03
 6.82560E-07    7.67082E+03
 8.76420E-07    7.53877E+03
 1.12540E-06    7.41638E+03
 1.44500E-06    7.30000E+03
 1.85540E-06    7.18745E+03
 2.37240E-06    7.07606E+03
 3.05900E-06    6.95914E+03
 3.92790E-06    6.84098E+03
 5.04350E-06    6.71965E+03
 6.47600E-06    6.58882E+03
 8.31530E-06    6.45108E+03
 1.06770E-05    6.30680E+03
 1.37100E-05    6.15515E+03
 1.76030E-05    5.99684E+03
 2.26030E-05    5.83180E+03
 2.92030E-05    5.66567E+03
 3.72670E-05    5.49846E+03
 4.78510E-05    5.32095E+03
 6.14420E-05    5.11921E+03
 7.88930E-05    1.50442E+04
 1.01300E-04    5.14502E+03
 1.30070E-04    4.47583E+03
 1.67020E-04    3.57863E+03
 2.14450E-04    9.85228E+04
 2.75360E-04    1.09693E+04
 3.53580E-04    1.06392E+04
 4.54000E-04    1.19018E+04
 5.82950E-04    1.15268E+05
 7.48520E-04    1.32449E+04
 9.61120E-04    7.56974E+03
 1.23410E-03    9.46940E+03
 1.58460E-03    9.26747E+03
 2.03470E-03    9.02714E+03
 2.24870E-03    6.34315E+03
 2.48520E-03    5.76417E+03
 2.61260E-03    4.20460E+03
 2.74650E-03    1.82906E+04
 3.03540E-03    6.08657E+03
 3.35460E-03    1.69236E+04
 3.70740E-03    1.02713E+04
 4.30740E-03    9.68425E+03
 5.53080E-03    9.03087E+03
 7.10170E-03    8.46049E+03
 9.11880E-03    7.96652E+03
 1.17090E-02    7.53832E+03
 1.50340E-02    7.16813E+03
 1.93050E-02    6.92408E+03
 2.18750E-02    6.80639E+03
 2.35790E-02    6.75126E+03
 2.41760E-02    6.72294E+03
 2.47880E-02    6.68214E+03
 2.60580E-02    6.63794E+03
 2.70000E-02    6.59137E+03
 2.85000E-02    6.51123E+03
 3.18280E-02    6.42495E+03
 3.43070E-02    6.31756E+03
 4.08680E-02    6.19888E+03
 4.63090E-02    6.10889E+03
 5.24750E-02    6.04182E+03
 5.65620E-02    5.96385E+03
 6.73790E-02    5.89314E+03
 7.20000E-02    5.84770E+03
 7.95000E-02    5.81152E+03
 8.25000E-02    5.78979E+03
 8.65170E-02    5.74721E+03
 9.80370E-02    5.69587E+03
 1.11090E-01    5.67854E+03
 1.16790E-01    5.66869E+03
 1.22770E-01    5.65832E+03
 1.29070E-01    5.64741E+03
 1.35690E-01    5.63596E+03
 1.42640E-01    5.62391E+03
 1.49960E-01    5.61820E+03
 1.57640E-01    5.61944E+03
 1.65730E-01    5.62073E+03
 1.74220E-01    5.62209E+03
 1.83160E-01    5.62353E+03
 1.92550E-01    5.62503E+03
 2.02420E-01    5.62788E+03
 2.12800E-01    5.63751E+03
 2.23710E-01    5.64858E+03
 2.35180E-01    5.66022E+03
 2.47240E-01    5.67952E+03
 2.73240E-01    5.70571E+03
 2.87250E-01    5.72092E+03
 2.94520E-01    5.72803E+03
 2.97200E-01    5.73087E+03
 2.98500E-01    5.73426E+03
 3.01970E-01    5.76077E+03
 3.33730E-01    5.81545E+03
 3.68830E-01    5.86022E+03
 3.87740E-01    5.89212E+03
 4.07620E-01    5.94169E+03
 4.50490E-01    6.01098E+03
 4.97870E-01    6.06739E+03
 5.23400E-01    6.10758E+03
 5.50230E-01    6.14982E+03
 5.78440E-01    6.19424E+03
 6.08100E-01    6.24023E+03
 6.39280E-01    6.28160E+03
 6.72060E-01    6.32330E+03
 7.06510E-01    6.36713E+03
 7.42740E-01    6.41207E+03
 7.80820E-01    6.44988E+03
 8.20850E-01    6.48753E+03
 8.62940E-01    6.52712E+03
 9.07180E-01    6.56505E+03
 9.61640E-01    6.59303E+03
 1.00260E+00    6.62726E+03
 1.10800E+00    6.64592E+03
 1.16480E+00    6.65719E+03
 1.22460E+00    6.66445E+03
 1.28730E+00    6.65215E+03
 1.35340E+00    6.63692E+03
 1.42270E+00    6.61976E+03
 1.49570E+00    6.58567E+03
 1.57240E+00    6.54471E+03
 1.65300E+00    6.49362E+03
 1.73770E+00    6.43268E+03
 1.82680E+00    6.36794E+03
 1.92050E+00    6.28945E+03
 2.01900E+00    6.20326E+03
 2.12250E+00    6.11269E+03
 2.23130E+00    6.03379E+03
 2.30690E+00    5.98483E+03
 2.34570E+00    5.95988E+03
 2.36530E+00    5.94302E+03
 2.38520E+00    5.90023E+03
 2.46600E+00    5.81201E+03
 2.59240E+00    5.70004E+03
 2.72530E+00    5.58183E+03
 2.86500E+00    5.46134E+03
 3.01190E+00    5.33661E+03
 3.16640E+00    5.20177E+03
 3.32870E+00    5.00189E+03
 3.67880E+00    4.74763E+03
 4.06570E+00    4.51641E+03
 4.49330E+00    4.35391E+03
 4.72370E+00    4.24721E+03
 4.96590E+00    4.16355E+03
 5.22050E+00    4.11553E+03
 5.48810E+00    4.06563E+03
 5.76950E+00    4.01583E+03
 6.06530E+00    4.01532E+03
 6.37630E+00    4.03368E+03
 6.59240E+00    4.04507E+03
 6.70320E+00    4.06115E+03
 7.04690E+00    4.11238E+03
 7.40820E+00    4.18258E+03
 7.78800E+00    4.25638E+03
 8.18730E+00    4.33396E+03
 8.60710E+00    4.41553E+03
 9.04840E+00    4.49617E+03
 9.51230E+00    4.57120E+03
 1.00000E+01    4.63569E+03
 1.05130E+01    4.69352E+03
 1.10520E+01    4.75054E+03
 1.16180E+01    4.81074E+03
 1.22140E+01    4.86358E+03
 1.28400E+01    4.91357E+03
 1.34990E+01    4.95133E+03
 1.38400E+01    4.97713E+03
 1.41910E+01    5.00512E+03
 1.45500E+01    5.03353E+03
 1.49180E+01    5.07203E+03
 1.56830E+01    5.10448E+03
 1.64870E+01    5.07806E+03
