# n + Sb121 : (n,n'18)  
# tendl.2019 A.J. Koning and D. Rochman        EVAL-NOV19
# uncertainties: n
# # energies =    74
#   E(MeV)       xs(mb) 
 1.60367E+00    0.00000E+00
 1.62595E+00    1.30819E+00
 1.64188E+00    2.24354E+00
 1.66354E+00    3.51533E+00
 1.67284E+00    4.06138E+00
 1.75080E+00    8.63888E+00
 1.77317E+00    9.95236E+00
 1.80000E+00    1.15277E+01
 1.82591E+00    1.19051E+01
 1.83720E+00    1.20695E+01
 1.88358E+00    1.27450E+01
 1.89871E+00    1.29653E+01
 1.92654E+00    1.33706E+01
 1.94318E+00    1.36130E+01
 2.00000E+00    1.44405E+01
 2.20000E+00    1.55660E+01
 2.40000E+00    1.61827E+01
 2.60000E+00    1.61981E+01
 2.80000E+00    1.56088E+01
 3.00000E+00    1.45195E+01
 3.20000E+00    1.30475E+01
 3.40000E+00    1.13487E+01
 3.60000E+00    9.59073E+00
 3.80000E+00    7.90725E+00
 4.00000E+00    6.39286E+00
 4.20000E+00    5.09083E+00
 4.40000E+00    4.01132E+00
 4.60000E+00    3.13806E+00
 4.80000E+00    2.44320E+00
 5.00000E+00    1.89538E+00
 5.20000E+00    1.46558E+00
 5.40000E+00    1.12971E+00
 5.60000E+00    8.67868E-01
 5.80000E+00    6.64404E-01
 6.00000E+00    5.07651E-01
 6.20000E+00    3.86741E-01
 6.40000E+00    2.94744E-01
 6.60000E+00    2.23018E-01
 6.80000E+00    1.69291E-01
 7.00000E+00    1.28945E-01
 7.20000E+00    9.81152E-02
 7.40000E+00    7.50346E-02
 7.60000E+00    5.74363E-02
 7.80000E+00    4.40605E-02
 8.00000E+00    3.39725E-02
 8.50000E+00    1.79383E-02
 9.00000E+00    9.67546E-03
 9.50000E+00    5.32747E-03
 1.00000E+01    2.98377E-03
 1.05000E+01    1.69329E-03
 1.10000E+01    9.71920E-04
 1.15000E+01    5.63733E-04
 1.20000E+01    3.30102E-04
 1.25000E+01    1.95126E-04
 1.30000E+01    1.16417E-04
 1.35000E+01    7.00701E-05
 1.40000E+01    4.25317E-05
 1.45000E+01    2.60401E-05
 1.50000E+01    1.60719E-05
 1.60000E+01    6.26864E-06
 1.70000E+01    2.51742E-06
 1.80000E+01    1.03757E-06
 1.90000E+01    4.37980E-07
 2.00000E+01    1.87830E-07
 2.10000E+01    8.29260E-08
 2.20000E+01    3.73130E-08
 2.30000E+01    1.71440E-08
 2.40000E+01    7.97300E-09
 2.50000E+01    3.75860E-09
 2.60000E+01    1.79660E-09
 2.70000E+01    8.70790E-10
 2.80000E+01    4.27790E-10
 2.90000E+01    2.13020E-10
 3.00000E+01    1.07460E-10
