# n + Sb121 : (n,n'20)  
# tendl.2019 A.J. Koning and D. Rochman        EVAL-NOV19
# uncertainties: n
# # energies =    72
#   E(MeV)       xs(mb) 
 1.64188E+00    0.00000E+00
 1.66354E+00    4.56675E+00
 1.67284E+00    6.52754E+00
 1.75080E+00    2.29645E+01
 1.77317E+00    2.76809E+01
 1.80000E+00    3.33377E+01
 1.82591E+00    3.48584E+01
 1.83720E+00    3.55211E+01
 1.88358E+00    3.82432E+01
 1.89871E+00    3.91312E+01
 1.92654E+00    4.07646E+01
 1.94318E+00    4.17413E+01
 2.00000E+00    4.50762E+01
 2.20000E+00    4.69065E+01
 2.40000E+00    4.63816E+01
 2.60000E+00    4.44557E+01
 2.80000E+00    4.14265E+01
 3.00000E+00    3.75507E+01
 3.20000E+00    3.30331E+01
 3.40000E+00    2.81909E+01
 3.60000E+00    2.33919E+01
 3.80000E+00    1.89323E+01
 4.00000E+00    1.50145E+01
 4.20000E+00    1.17171E+01
 4.40000E+00    9.03940E+00
 4.60000E+00    6.92029E+00
 4.80000E+00    5.27411E+00
 5.00000E+00    4.01007E+00
 5.20000E+00    3.04583E+00
 5.40000E+00    2.31335E+00
 5.60000E+00    1.75739E+00
 5.80000E+00    1.33574E+00
 6.00000E+00    1.01678E+00
 6.20000E+00    7.74192E-01
 6.40000E+00    5.91540E-01
 6.60000E+00    4.49798E-01
 6.80000E+00    3.43807E-01
 7.00000E+00    2.64139E-01
 7.20000E+00    2.02974E-01
 7.40000E+00    1.56904E-01
 7.60000E+00    1.21500E-01
 7.80000E+00    9.43048E-02
 8.00000E+00    7.35949E-02
 8.50000E+00    4.00418E-02
 9.00000E+00    2.22193E-02
 9.50000E+00    1.25541E-02
 1.00000E+01    7.19402E-03
 1.05000E+01    4.16479E-03
 1.10000E+01    2.43155E-03
 1.15000E+01    1.43050E-03
 1.20000E+01    8.47339E-04
 1.25000E+01    5.05414E-04
 1.30000E+01    3.03624E-04
 1.35000E+01    1.83689E-04
 1.40000E+01    1.11923E-04
 1.45000E+01    6.87237E-05
 1.50000E+01    4.25153E-05
 1.60000E+01    1.66496E-05
 1.70000E+01    6.71599E-06
 1.80000E+01    2.78334E-06
 1.90000E+01    1.18238E-06
 2.00000E+01    5.10180E-07
 2.10000E+01    2.26320E-07
 2.20000E+01    1.02150E-07
 2.30000E+01    4.70290E-08
 2.40000E+01    2.19110E-08
 2.50000E+01    1.03510E-08
 2.60000E+01    4.96100E-09
 2.70000E+01    2.41150E-09
 2.80000E+01    1.18800E-09
 2.90000E+01    5.92980E-10
 3.00000E+01    2.99670E-10
