# n + Lu175 : (n,2n)    
# endfb8.0   R.Q. Wright, Leonard-Stewart      EVAL-MAR98
# uncertainties: n
# # energies =    89
#   E(MeV)       xs(mb) 
 7.85500E+00    0.00000E+00
 7.87000E+00    1.00000E+01
 7.87806E+00    1.13420E+01
 7.88563E+00    1.27633E+01
 7.89273E+00    1.42572E+01
 7.89939E+00    1.58160E+01
 7.90564E+00    1.74319E+01
 7.91151E+00    1.90964E+01
 7.91701E+00    2.08010E+01
 7.92217E+00    2.25370E+01
 7.93186E+00    2.61918E+01
 7.94034E+00    2.98729E+01
 7.94778E+00    3.35159E+01
 7.95429E+00    3.70661E+01
 7.95998E+00    4.04797E+01
 7.96997E+00    4.72273E+01
 7.97747E+00    5.30164E+01
 7.98309E+00    5.78193E+01
 7.99154E+00    6.58517E+01
 8.00000E+00    7.50000E+01
 8.03083E+00    8.47827E+01
 8.05791E+00    9.43839E+01
 8.08167E+00    1.03673E+02
 8.10252E+00    1.12547E+02
 8.13914E+00    1.29945E+02
 8.16672E+00    1.44736E+02
 8.18746E+00    1.56924E+02
 8.21867E+00    1.77158E+02
 8.25000E+00    2.00000E+02
 8.28084E+00    2.16708E+02
 8.33510E+00    2.49374E+02
 8.37602E+00    2.77067E+02
 8.43778E+00    3.24477E+02
 8.50000E+00    3.80000E+02
 8.56182E+00    4.20539E+02
 8.65540E+00    4.89599E+02
 8.75000E+00    5.70000E+02
 8.87412E+00    6.62495E+02
 9.00000E+00    7.70000E+02
 9.12414E+00    8.64234E+02
 9.25000E+00    9.70000E+02
 9.37417E+00    1.06532E+03
 9.50000E+00    1.17000E+03
 9.75000E+00    1.33000E+03
 1.00000E+01    1.46000E+03
 1.02500E+01    1.57000E+03
 1.05000E+01    1.66000E+03
 1.07500E+01    1.73000E+03
 1.10000E+01    1.79000E+03
 1.12500E+01    1.85000E+03
 1.15000E+01    1.89500E+03
 1.17500E+01    1.94000E+03
 1.20000E+01    1.97500E+03
 1.22500E+01    2.00500E+03
 1.25000E+01    2.03500E+03
 1.27500E+01    2.06000E+03
 1.30000E+01    2.07500E+03
 1.32500E+01    2.09000E+03
 1.35000E+01    2.10000E+03
 1.37500E+01    2.11500E+03
 1.40000E+01    2.12000E+03
 1.42500E+01    2.12500E+03
 1.45000E+01    2.11000E+03
 1.47500E+01    2.02300E+03
 1.50000E+01    1.92700E+03
 1.52500E+01    1.79300E+03
 1.55000E+01    1.62900E+03
 1.57500E+01    1.47500E+03
 1.60000E+01    1.31500E+03
 1.62500E+01    1.16300E+03
 1.65000E+01    1.04100E+03
 1.67500E+01    9.29000E+02
 1.70000E+01    8.22000E+02
 1.72500E+01    7.26000E+02
 1.75000E+01    6.35000E+02
 1.77500E+01    5.57500E+02
 1.80000E+01    4.90000E+02
 1.82500E+01    4.34000E+02
 1.85000E+01    3.78000E+02
 1.87500E+01    3.36500E+02
 1.88746E+01    3.12386E+02
 1.90000E+01    2.90000E+02
 1.92500E+01    2.58500E+02
 1.93746E+01    2.39556E+02
 1.95000E+01    2.22000E+02
 1.96246E+01    2.05917E+02
 1.97500E+01    1.91000E+02
 1.98746E+01    1.74814E+02
 2.00000E+01    1.60000E+02
