# n + Yb174 : (n,n'15)  
# jeff3.3    A.J. Koning and D. Rochman        EVAL-DEC15
# uncertainties: n
# # energies =    77
#   E(MeV)       xs(mb) 
 1.63382E+00    0.00000E+00
 1.64345E+00    5.15774E+00
 1.68091E+00    2.52210E+01
 1.68453E+00    2.71599E+01
 1.71155E+00    4.16316E+01
 1.71933E+00    4.57985E+01
 1.72078E+00    4.65751E+01
 1.72540E+00    4.90495E+01
 1.74369E+00    5.88455E+01
 1.77021E+00    7.30494E+01
 1.79626E+00    8.70016E+01
 1.80000E+00    8.90047E+01
 1.81587E+00    8.93768E+01
 1.83037E+00    8.97167E+01
 1.86214E+00    9.04615E+01
 1.87001E+00    9.06460E+01
 1.87179E+00    9.06877E+01
 2.00000E+00    9.36934E+01
 2.20000E+00    7.30274E+01
 2.40000E+00    5.23726E+01
 2.60000E+00    3.64933E+01
 2.80000E+00    2.51044E+01
 3.00000E+00    1.71605E+01
 3.20000E+00    1.18517E+01
 3.40000E+00    8.09328E+00
 3.60000E+00    5.55605E+00
 3.80000E+00    3.83920E+00
 4.00000E+00    2.67007E+00
 4.20000E+00    1.86863E+00
 4.40000E+00    1.31453E+00
 4.60000E+00    9.41222E-01
 4.80000E+00    6.73095E-01
 5.00000E+00    4.78289E-01
 5.20000E+00    3.42083E-01
 5.40000E+00    2.45806E-01
 5.60000E+00    1.77430E-01
 5.80000E+00    1.27779E-01
 6.00000E+00    9.27787E-02
 6.20000E+00    6.75401E-02
 6.40000E+00    4.94988E-02
 6.60000E+00    3.63964E-02
 6.80000E+00    2.69249E-02
 7.00000E+00    1.99985E-02
 7.20000E+00    1.48984E-02
 7.40000E+00    1.11633E-02
 7.60000E+00    8.37934E-03
 7.80000E+00    6.31334E-03
 8.00000E+00    4.76454E-03
 8.50000E+00    2.37092E-03
 9.00000E+00    1.19088E-03
 9.50000E+00    6.04944E-04
 1.00000E+01    3.11229E-04
 1.05000E+01    1.62268E-04
 1.10000E+01    8.57494E-05
 1.15000E+01    4.59208E-05
 1.20000E+01    2.49073E-05
 1.25000E+01    1.36774E-05
 1.30000E+01    7.59857E-06
 1.35000E+01    4.26725E-06
 1.40000E+01    2.42154E-06
 1.45000E+01    1.38834E-06
 1.50000E+01    8.02900E-07
 1.60000E+01    2.76370E-07
 1.70000E+01    9.81430E-08
 1.80000E+01    3.57540E-08
 1.90000E+01    1.34300E-08
 2.00000E+01    5.18670E-09
 2.10000E+01    2.05010E-09
 2.20000E+01    8.26500E-10
 2.30000E+01    3.40260E-10
 2.40000E+01    1.43100E-10
 2.50000E+01    6.13590E-11
 2.60000E+01    2.67320E-11
 2.70000E+01    1.18330E-11
 2.80000E+01    5.29890E-12
 2.90000E+01    2.41050E-12
 3.00000E+01    1.11410E-12
