# n + Yb174 : (n,n'14)  
# jeff3.3    A.J. Koning and D. Rochman        EVAL-DEC15
# uncertainties: n
# # energies =    78
#   E(MeV)       xs(mb) 
 1.61567E+00    0.00000E+00
 1.63382E+00    7.77621E+00
 1.64345E+00    1.19021E+01
 1.68091E+00    2.79514E+01
 1.68453E+00    2.95024E+01
 1.71155E+00    4.10788E+01
 1.71933E+00    4.44120E+01
 1.72078E+00    4.50333E+01
 1.72540E+00    4.70126E+01
 1.74369E+00    5.48488E+01
 1.77021E+00    6.62110E+01
 1.79626E+00    7.73719E+01
 1.80000E+00    7.89742E+01
 1.81587E+00    7.95643E+01
 1.83037E+00    8.01034E+01
 1.86214E+00    8.12846E+01
 1.87001E+00    8.15772E+01
 1.87179E+00    8.16434E+01
 2.00000E+00    8.64102E+01
 2.20000E+00    7.30497E+01
 2.40000E+00    5.62209E+01
 2.60000E+00    4.15441E+01
 2.80000E+00    2.99861E+01
 3.00000E+00    2.13208E+01
 3.20000E+00    1.54241E+01
 3.40000E+00    1.08416E+01
 3.60000E+00    7.63741E+00
 3.80000E+00    5.40212E+00
 4.00000E+00    3.83724E+00
 4.20000E+00    2.73708E+00
 4.40000E+00    1.95873E+00
 4.60000E+00    1.43057E+00
 4.80000E+00    1.03544E+00
 5.00000E+00    7.45748E-01
 5.20000E+00    5.39851E-01
 5.40000E+00    3.92244E-01
 5.60000E+00    2.86037E-01
 5.80000E+00    2.07925E-01
 6.00000E+00    1.52266E-01
 6.20000E+00    1.11712E-01
 6.40000E+00    8.24550E-02
 6.60000E+00    6.10217E-02
 6.80000E+00    4.54125E-02
 7.00000E+00    3.39162E-02
 7.20000E+00    2.53961E-02
 7.40000E+00    1.91211E-02
 7.60000E+00    1.44178E-02
 7.80000E+00    1.09108E-02
 8.00000E+00    8.26929E-03
 8.50000E+00    4.15773E-03
 9.00000E+00    2.10961E-03
 9.50000E+00    1.08234E-03
 1.00000E+01    5.62244E-04
 1.05000E+01    2.95867E-04
 1.10000E+01    1.57717E-04
 1.15000E+01    8.51469E-05
 1.20000E+01    4.65266E-05
 1.25000E+01    2.57220E-05
 1.30000E+01    1.43774E-05
 1.35000E+01    8.11893E-06
 1.40000E+01    4.63044E-06
 1.45000E+01    2.66695E-06
 1.50000E+01    1.54882E-06
 1.60000E+01    5.37140E-07
 1.70000E+01    1.92020E-07
 1.80000E+01    7.03860E-08
 1.90000E+01    2.65890E-08
 2.00000E+01    1.03240E-08
 2.10000E+01    4.10070E-09
 2.20000E+01    1.66060E-09
 2.30000E+01    6.86400E-10
 2.40000E+01    2.89710E-10
 2.50000E+01    1.24630E-10
 2.60000E+01    5.44520E-11
 2.70000E+01    2.41680E-11
 2.80000E+01    1.08500E-11
 2.90000E+01    4.94840E-12
 3.00000E+01    2.29300E-12
