# n + Yb174 : (n,n'06)  
# jeff3.3    A.J. Koning and D. Rochman        EVAL-DEC15
# uncertainties: n
# # energies =    88
#   E(MeV)       xs(mb) 
 1.34375E+00    0.00000E+00
 1.35582E+00    9.64680E-08
 1.39003E+00    3.69890E-07
 1.40000E+00    4.49580E-07
 1.47671E+00    1.31790E-05
 1.49574E+00    1.63368E-05
 1.52695E+00    2.15159E-05
 1.57007E+00    2.86713E-05
 1.58124E+00    3.05248E-05
 1.60000E+00    3.36379E-05
 1.61567E+00    4.82524E-05
 1.63382E+00    6.51800E-05
 1.64345E+00    7.41614E-05
 1.68091E+00    1.09098E-04
 1.68453E+00    1.12475E-04
 1.71155E+00    1.37675E-04
 1.71933E+00    1.44931E-04
 1.72078E+00    1.46283E-04
 1.72540E+00    1.50592E-04
 1.74369E+00    1.67650E-04
 1.77021E+00    1.92384E-04
 1.79626E+00    2.16679E-04
 1.80000E+00    2.20167E-04
 1.81587E+00    2.63686E-04
 1.83037E+00    3.03448E-04
 1.86214E+00    3.90568E-04
 1.87001E+00    4.12149E-04
 1.87179E+00    4.17030E-04
 2.00000E+00    7.68608E-04
 2.20000E+00    1.76168E-03
 2.40000E+00    3.13997E-03
 2.60000E+00    4.79110E-03
 2.80000E+00    6.63046E-03
 3.00000E+00    8.60974E-03
 3.20000E+00    1.14595E-02
 3.40000E+00    1.37806E-02
 3.60000E+00    1.61600E-02
 3.80000E+00    1.86918E-02
 4.00000E+00    2.16281E-02
 4.20000E+00    2.54598E-02
 4.40000E+00    3.09736E-02
 4.60000E+00    3.84946E-02
 4.80000E+00    4.92725E-02
 5.00000E+00    6.42209E-02
 5.20000E+00    8.41793E-02
 5.40000E+00    1.09760E-01
 5.60000E+00    1.41210E-01
 5.80000E+00    1.78218E-01
 6.00000E+00    2.20029E-01
 6.20000E+00    2.65118E-01
 6.40000E+00    3.11529E-01
 6.60000E+00    3.56949E-01
 6.80000E+00    3.99184E-01
 7.00000E+00    4.36367E-01
 7.20000E+00    4.67264E-01
 7.40000E+00    4.91352E-01
 7.60000E+00    5.08717E-01
 7.80000E+00    5.19951E-01
 8.00000E+00    5.25928E-01
 8.50000E+00    5.24482E-01
 9.00000E+00    5.10986E-01
 9.50000E+00    4.95493E-01
 1.00000E+01    4.83188E-01
 1.05000E+01    4.75723E-01
 1.10000E+01    4.72655E-01
 1.15000E+01    4.72582E-01
 1.20000E+01    4.73915E-01
 1.25000E+01    4.75360E-01
 1.30000E+01    4.76146E-01
 1.35000E+01    4.75958E-01
 1.40000E+01    4.74826E-01
 1.45000E+01    4.72961E-01
 1.50000E+01    4.70650E-01
 1.60000E+01    4.65711E-01
 1.70000E+01    4.61346E-01
 1.80000E+01    4.57556E-01
 1.90000E+01    4.53523E-01
 2.00000E+01    4.48304E-01
 2.10000E+01    4.41158E-01
 2.20000E+01    4.31800E-01
 2.30000E+01    4.20735E-01
 2.40000E+01    4.09140E-01
 2.50000E+01    3.98226E-01
 2.60000E+01    3.88705E-01
 2.70000E+01    3.80687E-01
 2.80000E+01    3.73779E-01
 2.90000E+01    3.67274E-01
 3.00000E+01    3.60417E-01
