# n + Os184 : (n,n'16)  
# jeff3.3    A.J. Koning and D. Rochman        EVAL-DEC15
# uncertainties: n
# # energies =    76
#   E(MeV)       xs(mb) 
 1.62956E+00    0.00000E+00
 1.64046E+00    3.11784E+00
 1.64678E+00    4.92562E+00
 1.70726E+00    2.22253E+01
 1.71686E+00    2.49713E+01
 1.72749E+00    2.80119E+01
 1.80000E+00    4.87527E+01
 1.84281E+00    5.17613E+01
 1.84634E+00    5.20093E+01
 1.85022E+00    5.22820E+01
 1.85116E+00    5.23481E+01
 1.85172E+00    5.23874E+01
 1.88145E+00    5.44768E+01
 1.88780E+00    5.49230E+01
 1.90298E+00    5.59898E+01
 1.90922E+00    5.64284E+01
 2.00000E+00    6.28081E+01
 2.20000E+00    6.95996E+01
 2.40000E+00    7.27580E+01
 2.60000E+00    7.16546E+01
 2.80000E+00    6.68317E+01
 3.00000E+00    5.87651E+01
 3.20000E+00    4.91690E+01
 3.40000E+00    3.79610E+01
 3.60000E+00    2.77719E+01
 3.80000E+00    1.95060E+01
 4.00000E+00    1.33397E+01
 4.20000E+00    8.99048E+00
 4.40000E+00    6.02111E+00
 4.60000E+00    4.05163E+00
 4.80000E+00    2.72368E+00
 5.00000E+00    1.83033E+00
 5.20000E+00    1.23746E+00
 5.40000E+00    8.41409E-01
 5.60000E+00    5.72888E-01
 5.80000E+00    3.93057E-01
 6.00000E+00    2.71821E-01
 6.20000E+00    1.88775E-01
 6.40000E+00    1.32535E-01
 6.60000E+00    9.33338E-02
 6.80000E+00    6.61835E-02
 7.00000E+00    4.72366E-02
 7.20000E+00    3.37698E-02
 7.40000E+00    2.43740E-02
 7.60000E+00    1.76145E-02
 7.80000E+00    1.27922E-02
 8.00000E+00    9.34198E-03
 8.50000E+00    4.31936E-03
 9.00000E+00    2.03888E-03
 9.50000E+00    9.76172E-04
 1.00000E+01    4.72940E-04
 1.05000E+01    2.31787E-04
 1.10000E+01    1.15037E-04
 1.15000E+01    5.78274E-05
 1.20000E+01    2.94276E-05
 1.25000E+01    1.51608E-05
 1.30000E+01    7.90644E-06
 1.35000E+01    4.17220E-06
 1.40000E+01    2.22641E-06
 1.45000E+01    1.20080E-06
 1.50000E+01    6.54170E-07
 1.60000E+01    1.99740E-07
 1.70000E+01    6.30850E-08
 1.80000E+01    2.03260E-08
 1.90000E+01    6.79800E-09
 2.00000E+01    2.33440E-09
 2.10000E+01    8.23890E-10
 2.20000E+01    2.97200E-10
 2.30000E+01    1.10250E-10
 2.40000E+01    4.19740E-11
 2.50000E+01    1.62330E-11
 2.60000E+01    6.37800E-12
 2.70000E+01    2.54520E-12
 2.80000E+01    1.03040E-12
 2.90000E+01    4.23340E-13
 3.00000E+01    1.76710E-13
