# n + Os184 : (n,n'20)  
# jeff3.3    A.J. Koning and D. Rochman        EVAL-DEC15
# uncertainties: n
# # energies =    72
#   E(MeV)       xs(mb) 
 1.71686E+00    0.00000E+00
 1.72749E+00    3.70695E+00
 1.80000E+00    2.89933E+01
 1.84281E+00    3.40231E+01
 1.84634E+00    3.44378E+01
 1.85022E+00    3.48937E+01
 1.85116E+00    3.50041E+01
 1.85172E+00    3.50699E+01
 1.88145E+00    3.85629E+01
 1.88780E+00    3.93089E+01
 1.90298E+00    4.10924E+01
 1.90922E+00    4.18256E+01
 2.00000E+00    5.24913E+01
 2.20000E+00    6.11432E+01
 2.40000E+00    6.58969E+01
 2.60000E+00    6.63104E+01
 2.80000E+00    6.27364E+01
 3.00000E+00    5.57385E+01
 3.20000E+00    4.70462E+01
 3.40000E+00    3.65733E+01
 3.60000E+00    2.69063E+01
 3.80000E+00    1.89786E+01
 4.00000E+00    1.30190E+01
 4.20000E+00    8.79333E+00
 4.40000E+00    5.89840E+00
 4.60000E+00    3.96006E+00
 4.80000E+00    2.67687E+00
 5.00000E+00    1.80074E+00
 5.20000E+00    1.21870E+00
 5.40000E+00    8.29331E-01
 5.60000E+00    5.65033E-01
 5.80000E+00    3.87875E-01
 6.00000E+00    2.68369E-01
 6.20000E+00    1.86467E-01
 6.40000E+00    1.30975E-01
 6.60000E+00    9.22739E-02
 6.80000E+00    6.54665E-02
 7.00000E+00    4.67451E-02
 7.20000E+00    3.34324E-02
 7.40000E+00    2.41403E-02
 7.60000E+00    1.74521E-02
 7.80000E+00    1.26779E-02
 8.00000E+00    9.26136E-03
 8.50000E+00    4.28475E-03
 9.00000E+00    2.02367E-03
 9.50000E+00    9.69394E-04
 1.00000E+01    4.69881E-04
 1.05000E+01    2.30391E-04
 1.10000E+01    1.14395E-04
 1.15000E+01    5.75290E-05
 1.20000E+01    2.92873E-05
 1.25000E+01    1.50937E-05
 1.30000E+01    7.87356E-06
 1.35000E+01    4.15573E-06
 1.40000E+01    2.21799E-06
 1.45000E+01    1.19644E-06
 1.50000E+01    6.51880E-07
 1.60000E+01    1.99090E-07
 1.70000E+01    6.28970E-08
 1.80000E+01    2.02700E-08
 1.90000E+01    6.78070E-09
 2.00000E+01    2.32880E-09
 2.10000E+01    8.22020E-10
 2.20000E+01    2.96560E-10
 2.30000E+01    1.10020E-10
 2.40000E+01    4.18900E-11
 2.50000E+01    1.62020E-11
 2.60000E+01    6.36660E-12
 2.70000E+01    2.54100E-12
 2.80000E+01    1.02870E-12
 2.90000E+01    4.22700E-13
 3.00000E+01    1.76460E-13
