# n + Os184 : (n,n'12)  
# jeff3.3    A.J. Koning and D. Rochman        EVAL-DEC15
# uncertainties: n
# # energies =    81
#   E(MeV)       xs(mb) 
 1.45365E+00    0.00000E+00
 1.50880E+00    4.16781E+01
 1.55216E+00    7.44462E+01
 1.60000E+00    1.10600E+02
 1.62200E+00    1.14371E+02
 1.62956E+00    1.15667E+02
 1.64046E+00    1.17535E+02
 1.64678E+00    1.18618E+02
 1.70726E+00    1.28984E+02
 1.71686E+00    1.30630E+02
 1.72749E+00    1.32452E+02
 1.80000E+00    1.44880E+02
 1.84281E+00    1.44040E+02
 1.84634E+00    1.43971E+02
 1.85022E+00    1.43895E+02
 1.85116E+00    1.43876E+02
 1.85172E+00    1.43865E+02
 1.88145E+00    1.43282E+02
 1.88780E+00    1.43157E+02
 1.90298E+00    1.42859E+02
 1.90922E+00    1.42737E+02
 2.00000E+00    1.40956E+02
 2.20000E+00    1.34955E+02
 2.40000E+00    1.27717E+02
 2.60000E+00    1.17011E+02
 2.80000E+00    1.02722E+02
 3.00000E+00    8.55629E+01
 3.20000E+00    6.78755E+01
 3.40000E+00    5.03204E+01
 3.60000E+00    3.55807E+01
 3.80000E+00    2.42880E+01
 4.00000E+00    1.62134E+01
 4.20000E+00    1.07009E+01
 4.40000E+00    7.06645E+00
 4.60000E+00    4.66924E+00
 4.80000E+00    3.07714E+00
 5.00000E+00    2.04051E+00
 5.20000E+00    1.36230E+00
 5.40000E+00    9.15855E-01
 5.60000E+00    6.17206E-01
 5.80000E+00    4.19479E-01
 6.00000E+00    2.87533E-01
 6.20000E+00    1.98028E-01
 6.40000E+00    1.37942E-01
 6.60000E+00    9.64026E-02
 6.80000E+00    6.78577E-02
 7.00000E+00    4.80901E-02
 7.20000E+00    3.41430E-02
 7.40000E+00    2.44777E-02
 7.60000E+00    1.75741E-02
 7.80000E+00    1.26811E-02
 8.00000E+00    9.20244E-03
 8.50000E+00    4.19097E-03
 9.00000E+00    1.95081E-03
 9.50000E+00    9.22485E-04
 1.00000E+01    4.42228E-04
 1.05000E+01    2.14826E-04
 1.10000E+01    1.05827E-04
 1.15000E+01    5.28563E-05
 1.20000E+01    2.67456E-05
 1.25000E+01    1.37092E-05
 1.30000E+01    7.11651E-06
 1.35000E+01    3.73956E-06
 1.40000E+01    1.98781E-06
 1.45000E+01    1.06826E-06
 1.50000E+01    5.80010E-07
 1.60000E+01    1.76000E-07
 1.70000E+01    5.52720E-08
 1.80000E+01    1.77140E-08
 1.90000E+01    5.89600E-09
 2.00000E+01    2.01610E-09
 2.10000E+01    7.08980E-10
 2.20000E+01    2.54910E-10
 2.30000E+01    9.42700E-11
 2.40000E+01    3.57880E-11
 2.50000E+01    1.38060E-11
 2.60000E+01    5.41210E-12
 2.70000E+01    2.15570E-12
 2.80000E+01    8.71180E-13
 2.90000E+01    3.57380E-13
 3.00000E+01    1.48950E-13
