# n + Ca 43 : (n,tot)   
# jendl4.0   K.Shibata                         EVAL-JUN06
# uncertainties: n
# # energies =   171
#   E(MeV)       xs(mb) 
 1.00000E-11    7.88336E+04
 1.00000E-07    7.31401E+03
 4.13990E-07    6.51909E+03
 5.31580E-07    6.34996E+03
 6.82560E-07    6.20124E+03
 8.76420E-07    6.07061E+03
 1.12540E-06    5.95687E+03
 1.44500E-06    5.85761E+03
 1.85540E-06    5.77264E+03
 2.37240E-06    5.69616E+03
 3.05900E-06    5.62953E+03
 3.92790E-06    5.57417E+03
 5.04350E-06    5.52932E+03
 6.47600E-06    5.49046E+03
 8.31530E-06    5.46233E+03
 1.06770E-05    5.44448E+03
 1.37100E-05    5.43271E+03
 1.76030E-05    5.43632E+03
 2.26030E-05    5.45012E+03
 2.92030E-05    5.47996E+03
 3.72670E-05    5.52812E+03
 4.78510E-05    5.59765E+03
 6.14420E-05    5.70206E+03
 7.88930E-05    5.84247E+03
 1.01300E-04    6.04251E+03
 1.30070E-04    6.32068E+03
 1.67020E-04    6.71227E+03
 2.14450E-04    7.27945E+03
 2.75360E-04    8.13034E+03
 3.53580E-04    9.47063E+03
 4.54000E-04    1.17600E+04
 5.82950E-04    1.61936E+04
 7.48520E-04    2.69826E+04
 9.61120E-04    7.07784E+04
 1.23410E-03    5.52230E+05
 1.58460E-03    1.61925E+05
 2.03470E-03    2.34936E+04
 2.24870E-03    1.20586E+04
 2.48520E-03    7.50685E+03
 2.61260E-03    5.53065E+03
 2.74650E-03    3.44799E+03
 3.03540E-03    2.61542E+03
 3.35460E-03    5.17803E+02
 3.70740E-03    2.19906E+04
 4.30740E-03    5.78739E+04
 5.53080E-03    6.60126E+03
 7.10170E-03    2.83032E+04
 9.11880E-03    7.10865E+03
 1.17090E-02    1.78318E+04
 1.50340E-02    9.65052E+03
 1.93050E-02    1.52138E+04
 2.18750E-02    1.81767E+04
 2.35790E-02    6.46544E+03
 2.41760E-02    5.04575E+03
 2.47880E-02    1.52338E+03
 2.60580E-02    1.47945E+04
 2.70000E-02    2.71490E+04
 2.85000E-02    1.45409E+04
 3.18280E-02    6.57838E+03
 3.43070E-02    6.89193E+03
 4.08680E-02    6.12526E+03
 4.63090E-02    5.79651E+03
 5.24750E-02    5.55767E+03
 5.65620E-02    5.26978E+03
 6.73790E-02    5.00868E+03
 7.20000E-02    4.84657E+03
 7.95000E-02    4.71171E+03
 8.25000E-02    4.63588E+03
 8.65170E-02    4.48032E+03
 9.80370E-02    4.29627E+03
 1.11090E-01    4.20676E+03
 1.16790E-01    4.15251E+03
 1.22770E-01    4.09548E+03
 1.29070E-01    4.03548E+03
 1.35690E-01    3.97246E+03
 1.42640E-01    3.90619E+03
 1.49960E-01    3.83653E+03
 1.57640E-01    3.76330E+03
 1.65730E-01    3.68630E+03
 1.74220E-01    3.60535E+03
 1.83160E-01    3.52023E+03
 1.92550E-01    3.43246E+03
 2.02420E-01    3.38032E+03
 2.12800E-01    3.34275E+03
 2.23710E-01    3.30326E+03
 2.35180E-01    3.26173E+03
 2.47240E-01    3.19514E+03
 2.73240E-01    3.12396E+03
 2.87250E-01    3.08625E+03
 2.94520E-01    3.06864E+03
 2.97200E-01    3.06161E+03
 2.98500E-01    3.05425E+03
 3.01970E-01    3.02525E+03
 3.33730E-01    2.97061E+03
 3.68830E-01    2.92609E+03
 3.87740E-01    2.89487E+03
 4.07620E-01    2.86636E+03
 4.50490E-01    2.83243E+03
 4.97870E-01    2.80847E+03
 5.23400E-01    2.80109E+03
 5.50230E-01    2.79366E+03
 5.78440E-01    2.78623E+03
 6.08100E-01    2.78579E+03
 6.39280E-01    2.78822E+03
 6.72060E-01    2.79077E+03
 7.06510E-01    2.79560E+03
 7.42740E-01    2.80578E+03
 7.80820E-01    2.81670E+03
 8.20850E-01    2.83097E+03
 8.62940E-01    2.84937E+03
 9.07180E-01    2.87047E+03
 9.61640E-01    2.89412E+03
 1.00260E+00    2.93348E+03
 1.10800E+00    2.97952E+03
 1.16480E+00    3.01290E+03
 1.22460E+00    3.04797E+03
 1.28730E+00    3.08485E+03
 1.35340E+00    3.12362E+03
 1.42270E+00    3.16436E+03
 1.49570E+00    3.20680E+03
 1.57240E+00    3.24707E+03
 1.65300E+00    3.28825E+03
 1.73770E+00    3.33156E+03
 1.82680E+00    3.37710E+03
 1.92050E+00    3.42472E+03
 2.01900E+00    3.46069E+03
 2.12250E+00    3.49040E+03
 2.23130E+00    3.51629E+03
 2.30690E+00    3.53235E+03
 2.34570E+00    3.54053E+03
 2.36530E+00    3.54606E+03
 2.38520E+00    3.56010E+03
 2.46600E+00    3.58196E+03
 2.59240E+00    3.59176E+03
 2.72530E+00    3.60103E+03
 2.86500E+00    3.61070E+03
 3.01190E+00    3.60775E+03
 3.16640E+00    3.59479E+03
 3.32870E+00    3.57123E+03
 3.67880E+00    3.51466E+03
 4.06570E+00    3.44165E+03
 4.49330E+00    3.37632E+03
 4.72370E+00    3.32974E+03
 4.96590E+00    3.28076E+03
 5.22050E+00    3.22929E+03
 5.48810E+00    3.17675E+03
 5.76950E+00    3.12658E+03
 6.06530E+00    3.07421E+03
 6.37630E+00    3.02925E+03
 6.59240E+00    3.00363E+03
 6.70320E+00    2.96881E+03
 7.04690E+00    2.91449E+03
 7.40820E+00    2.85740E+03
 7.78800E+00    2.79738E+03
 8.18730E+00    2.73428E+03
 8.60710E+00    2.66794E+03
 9.04840E+00    2.59820E+03
 9.51230E+00    2.52489E+03
 1.00000E+01    2.45164E+03
 1.05130E+01    2.37860E+03
 1.10520E+01    2.30975E+03
 1.16180E+01    2.24393E+03
 1.22140E+01    2.18633E+03
 1.28400E+01    2.13401E+03
 1.34990E+01    2.10187E+03
 1.38400E+01    2.08095E+03
 1.41910E+01    2.06403E+03
 1.45500E+01    2.04960E+03
 1.49180E+01    2.03322E+03
 1.56830E+01    2.01701E+03
 1.64870E+01    2.00864E+03
