# n + Ca 43 : (n,g)     
# jendl4.0   K.Shibata                         EVAL-JUN06
# uncertainties: n
# # energies =    69
#   E(MeV)       xs(mb) 
 1.00000E-10    4.33030E+04
 5.00000E-09    1.17908E+04
 1.00000E-08    8.92969E+03
 1.50000E-08    7.50265E+03
 2.00000E-08    6.60103E+03
 2.50000E-08    5.96379E+03
 3.00000E-08    5.48217E+03
 3.50000E-08    5.04041E+03
 4.20000E-08    4.61031E+03
 5.00000E-08    4.25261E+03
 5.80000E-08    3.95259E+03
 6.70000E-08    3.64767E+03
 8.00000E-08    3.30083E+03
 1.00000E-07    2.87193E+03
 1.40000E-07    2.47825E+03
 1.80000E-07    2.21304E+03
 2.20000E-07    2.03818E+03
 2.50000E-07    1.91893E+03
 2.80000E-07    1.83331E+03
 3.00000E-07    1.77315E+03
 3.20000E-07    1.70623E+03
 3.50000E-07    1.61389E+03
 4.00000E-07    1.47687E+03
 5.00000E-07    1.32114E+03
 6.25000E-07    1.18232E+03
 7.80000E-07    1.09452E+03
 8.50000E-07    1.05322E+03
 9.10000E-07    1.02438E+03
 9.50000E-07    1.00767E+03
 9.72000E-07    9.95865E+02
 9.96000E-07    9.83949E+02
 1.02000E-06    9.72234E+02
 1.04500E-06    9.60508E+02
 1.07100E-06    9.48969E+02
 1.09700E-06    9.37810E+02
 1.12300E-06    9.26944E+02
 1.15000E-06    8.93923E+02
 1.30000E-06    8.36781E+02
 1.50000E-06    7.43574E+02
 2.10000E-06    6.48186E+02
 2.60000E-06    5.79459E+02
 3.30000E-06    5.20579E+02
 4.00000E-06    4.00395E+02
 9.87700E-06    2.83813E+02
 1.59680E-05    2.21884E+02
 2.77000E-05    1.71901E+02
 4.80520E-05    1.37886E+02
 7.55014E-05    1.10943E+02
 1.48728E-04    9.07486E+01
 3.67262E-04    1.15695E+02
 9.06898E-04    7.85523E+02
 1.42510E-03    1.47607E+03
 2.23945E-03    1.71883E+02
 3.51910E-03    4.47240E+02
 5.53000E-03    9.38279E+01
 9.11800E-03    6.23232E+01
 1.50300E-02    4.79809E+01
 2.47800E-02    2.50429E+01
 4.08500E-02    1.78730E+01
 6.73400E-02    1.61139E+01
 1.11000E-01    1.49483E+01
 1.83000E-01    1.43039E+01
 3.02000E-01    1.08851E+01
 5.00000E-01    6.14674E+00
 8.21000E-01    4.11097E+00
 1.35300E+00    3.98892E+00
 2.23100E+00    2.97217E+00
 3.67900E+00    1.91201E+00
 6.06500E+00    1.24770E+00
