# n + Si 28 : (n,p05)   
# endfb8.0   M.B.Chadwick,P.G.Young,D.Hetrick  EVAL-DEC02
# uncertainties: n
# # energies =   138
#   E(MeV)       xs(mb) 
 5.67757E+00    0.00000E+00
 6.04000E+00    1.31842E-02
 6.06000E+00    2.06642E-02
 6.10000E+00    4.11200E-02
 6.14000E+00    5.24726E-02
 6.16000E+00    5.99686E-02
 6.18000E+00    7.40880E-02
 6.20000E+00    8.69600E-02
 6.21340E+00    9.43057E-02
 6.24000E+00    1.09440E-01
 6.25000E+00    9.90010E-02
 6.27870E+00    1.11251E-01
 6.28000E+00    1.11933E-01
 6.30000E+00    1.22592E-01
 6.32000E+00    1.33619E-01
 6.34000E+00    1.44990E-01
 6.35330E+00    1.61755E-01
 6.36000E+00    1.77696E-01
 6.37000E+00    2.14600E-01
 6.38000E+00    2.85760E-01
 6.40000E+00    3.96800E-01
 6.42000E+00    3.48600E-01
 6.44000E+00    3.16624E-01
 6.46000E+00    3.54752E-01
 6.48000E+00    4.07424E-01
 6.50000E+00    4.11600E-01
 6.56000E+00    5.55716E-01
 6.57290E+00    5.91984E-01
 6.58000E+00    6.10776E-01
 6.60000E+00    6.97360E-01
 6.62000E+00    8.47360E-01
 6.64000E+00    9.59364E-01
 6.67000E+00    1.36797E+00
 6.67230E+00    1.40203E+00
 6.68000E+00    1.51903E+00
 6.71000E+00    1.55168E+00
 6.72000E+00    1.54246E+00
 6.74000E+00    1.64635E+00
 6.75000E+00    1.80030E+00
 6.76000E+00    1.96049E+00
 6.78000E+00    2.39340E+00
 6.80000E+00    3.16050E+00
 6.82000E+00    2.85348E+00
 6.84000E+00    2.56800E+00
 6.92000E+00    2.34756E+00
 6.94000E+00    2.66515E+00
 6.95000E+00    2.87700E+00
 6.96000E+00    3.15496E+00
 7.00000E+00    3.10050E+00
 7.02000E+00    3.75539E+00
 7.04000E+00    4.01359E+00
 7.06000E+00    4.50594E+00
 7.08000E+00    4.87033E+00
 7.09190E+00    4.72003E+00
 7.10000E+00    4.60786E+00
 7.10730E+00    4.41141E+00
 7.11570E+00    4.17320E+00
 7.12000E+00    4.04622E+00
 7.14000E+00    4.05274E+00
 7.16000E+00    4.50348E+00
 7.20000E+00    6.65497E+00
 7.22000E+00    6.91406E+00
 7.26000E+00    8.11936E+00
 7.28000E+00    8.45635E+00
 7.30000E+00    8.28244E+00
 7.36000E+00    8.05233E+00
 7.38000E+00    8.32424E+00
 7.40000E+00    9.00534E+00
 7.42000E+00    9.03224E+00
 7.44000E+00    1.03110E+01
 7.46000E+00    1.11333E+01
 7.50000E+00    7.73692E+00
 7.52000E+00    7.93960E+00
 7.55000E+00    8.57271E+00
 7.58000E+00    1.00360E+01
 7.60000E+00    1.08926E+01
 7.62000E+00    1.11638E+01
 7.64000E+00    1.10783E+01
 7.66000E+00    1.21823E+01
 7.68000E+00    1.44173E+01
 7.68200E+00    1.44833E+01
 7.70000E+00    1.65942E+01
 7.72000E+00    1.62054E+01
 7.74000E+00    1.46073E+01
 7.76000E+00    1.41134E+01
 7.80000E+00    1.59968E+01
 7.82000E+00    1.62368E+01
 7.86000E+00    1.59428E+01
 7.92000E+00    1.71850E+01
 7.96000E+00    1.75050E+01
 7.98000E+00    1.71038E+01
 8.00000E+00    1.61817E+01
 8.03000E+00    1.45807E+01
 8.06000E+00    1.29518E+01
 8.08000E+00    1.27741E+01
 8.10000E+00    1.28809E+01
 8.12000E+00    1.29882E+01
 8.14000E+00    1.35241E+01
 8.16000E+00    1.44393E+01
 8.22000E+00    1.58677E+01
 8.24000E+00    1.57230E+01
 8.26000E+00    1.48928E+01
 8.28000E+00    1.38602E+01
 8.30000E+00    1.39711E+01
 8.32000E+00    1.40824E+01
 8.36000E+00    1.69950E+01
 8.40000E+00    1.90758E+01
 8.42000E+00    1.95282E+01
 8.46000E+00    1.79220E+01
 8.48000E+00    1.74072E+01
 8.50000E+00    1.81937E+01
 8.52000E+00    1.88888E+01
 8.54000E+00    1.91291E+01
 8.56000E+00    1.83938E+01
 8.58000E+00    1.76675E+01
 8.60000E+00    1.73666E+01
 8.62000E+00    1.93248E+01
 8.64000E+00    2.28158E+01
 8.66000E+00    2.36190E+01
 8.68000E+00    2.27105E+01
 8.70000E+00    2.08785E+01
 8.74000E+00    1.79518E+01
 8.76000E+00    1.67921E+01
 8.77000E+00    1.70395E+01
 8.78000E+00    1.60630E+01
 8.80000E+00    1.54335E+01
 8.82000E+00    1.59489E+01
 8.98000E+00    1.56686E+01
 9.00000E+00    1.66116E+01
 9.50000E+00    1.58080E+01
 1.00000E+01    1.43480E+01
 1.10000E+01    1.11480E+01
 1.20000E+01    8.17750E+00
 1.30000E+01    5.78250E+00
 1.45000E+01    3.28400E+00
 1.60000E+01    1.84670E+00
 1.75000E+01    1.08670E+00
 2.00000E+01    6.44090E-01
