# n + Si 28 : (n,a02)   
# endfb8.0   M.B.Chadwick,P.G.Young,D.Hetrick  EVAL-DEC02
# uncertainties: n
# # energies =   144
#   E(MeV)       xs(mb) 
 3.75569E+00    0.00000E+00
 5.04000E+00    1.67200E-04
 5.08000E+00    3.13600E-04
 5.10000E+00    3.88000E-04
 5.14000E+00    6.91600E-04
 5.16000E+00    9.21568E-04
 5.20000E+00    1.56396E-03
 5.22000E+00    2.02400E-03
 5.25000E+00    2.92250E-03
 5.26000E+00    3.25515E-03
 5.28000E+00    4.03194E-03
 5.30000E+00    4.72194E-03
 5.32000E+00    5.27354E-03
 5.34000E+00    5.69153E-03
 5.36000E+00    5.79593E-03
 5.39920E+00    5.67591E-03
 5.40000E+00    5.67192E-03
 5.44000E+00    5.98400E-03
 5.46000E+00    6.25609E-03
 5.50000E+00    7.12010E-03
 5.51000E+00    9.35000E-03
 5.52000E+00    1.20840E-02
 5.54000E+00    1.63800E-02
 5.56000E+00    1.44000E-02
 5.58000E+00    1.51198E-02
 5.58150E+00    1.53095E-02
 5.61000E+00    1.91100E-02
 5.62000E+00    2.09000E-02
 5.64000E+00    2.11200E-02
 5.64680E+00    2.07115E-02
 5.66000E+00    1.97600E-02
 5.67000E+00    2.02500E-02
 5.70000E+00    2.40000E-02
 5.72000E+00    2.75200E-02
 5.74000E+00    3.33203E-02
 5.75000E+00    4.37500E-02
 5.76000E+00    5.47200E-02
 5.78000E+00    1.10960E-01
 5.80000E+00    1.68800E-01
 5.82000E+00    1.19280E-01
 5.84000E+00    5.98400E-02
 5.86000E+00    7.54400E-02
 5.88000E+00    1.19040E-01
 5.90000E+00    1.38000E-01
 5.92000E+00    1.07120E-01
 5.94000E+00    9.12600E-02
 5.96000E+00    8.56800E-02
 5.98000E+00    8.99000E-02
 6.00000E+00    9.99000E-02
 6.02000E+00    1.19616E-01
 6.04000E+00    1.35408E-01
 6.10000E+00    2.02704E-01
 6.12000E+00    2.28650E-01
 6.14000E+00    2.56095E-01
 6.16000E+00    2.85051E-01
 6.18000E+00    3.15494E-01
 6.22000E+00    3.80893E-01
 6.24000E+00    4.15835E-01
 6.25000E+00    4.38000E-01
 6.26000E+00    5.37600E-01
 6.26730E+00    6.49440E-01
 6.27000E+00    6.91680E-01
 6.28180E+00    7.81812E-01
 6.29000E+00    8.46660E-01
 6.30000E+00    8.98800E-01
 6.31000E+00    8.75160E-01
 6.32000E+00    8.23440E-01
 6.34000E+00    7.71552E-01
 6.36000E+00    7.96320E-01
 6.37000E+00    8.59740E-01
 6.40000E+00    1.00164E+00
 6.42000E+00    1.06656E+00
 6.46000E+00    1.12349E+00
 6.48000E+00    1.17564E+00
 6.54000E+00    1.50688E+00
 6.56000E+00    1.57536E+00
 6.62000E+00    1.74253E+00
 6.64000E+00    1.87246E+00
 6.67000E+00    2.07537E+00
 6.68000E+00    2.16960E+00
 6.69000E+00    2.25400E+00
 6.71000E+00    2.36444E+00
 6.73000E+00    2.51563E+00
 6.76000E+00    2.75063E+00
 6.79040E+00    3.13224E+00
 6.80000E+00    3.28800E+00
 6.85780E+00    4.44120E+00
 6.86000E+00    4.48800E+00
 6.92000E+00    5.56416E+00
 6.98000E+00    6.48960E+00
 7.00000E+00    7.02080E+00
 7.02000E+00    6.93420E+00
 7.04000E+00    6.46760E+00
 7.08000E+00    6.43667E+00
 7.10000E+00    6.47766E+00
 7.13500E+00    6.68488E+00
 7.14000E+00    6.75079E+00
 7.16000E+00    7.01740E+00
 7.20000E+00    7.56443E+00
 7.22000E+00    7.84486E+00
 7.24000E+00    8.31712E+00
 7.26000E+00    9.00674E+00
 7.28000E+00    1.08758E+01
 7.30000E+00    1.22791E+01
 7.34000E+00    9.86800E+00
 7.36000E+00    1.01727E+01
 7.40000E+00    1.22721E+01
 7.44000E+00    1.57876E+01
 7.46000E+00    1.71926E+01
 7.48000E+00    1.80171E+01
 7.50000E+00    1.83506E+01
 7.54000E+00    1.88382E+01
 7.55000E+00    1.92614E+01
 7.58000E+00    2.05564E+01
 7.62000E+00    2.35372E+01
 7.64900E+00    2.67805E+01
 7.70000E+00    2.59211E+01
 7.71860E+00    2.50126E+01
 7.72000E+00    2.49431E+01
 7.74000E+00    2.23687E+01
 7.78000E+00    2.29326E+01
 7.84000E+00    2.50803E+01
 7.86000E+00    2.59812E+01
 7.90000E+00    2.93844E+01
 7.94000E+00    3.18570E+01
 8.00000E+00    3.11087E+01
 8.03000E+00    3.10889E+01
 8.14000E+00    3.09960E+01
 8.16000E+00    3.07302E+01
 8.22000E+00    2.72439E+01
 8.24000E+00    2.64817E+01
 8.26000E+00    2.65577E+01
 8.28000E+00    2.71290E+01
 8.50000E+00    2.84588E+01
 9.00000E+00    2.94470E+01
 9.50000E+00    2.79110E+01
 1.00000E+01    2.54300E+01
 1.10000E+01    1.98570E+01
 1.20000E+01    1.42390E+01
 1.30000E+01    9.52450E+00
 1.45000E+01    4.64390E+00
 1.60000E+01    2.05120E+00
 1.75000E+01    8.51040E-01
 2.00000E+01    6.14330E-02
