# n + Si 28 : (n,p06)   
# endfb8.0   M.B.Chadwick,P.G.Young,D.Hetrick  EVAL-DEC02
# uncertainties: n
# # energies =   138
#   E(MeV)       xs(mb) 
 5.68068E+00    0.00000E+00
 6.04000E+00    1.31842E-02
 6.06000E+00    2.06642E-02
 6.10000E+00    4.11200E-02
 6.14000E+00    5.24726E-02
 6.16000E+00    5.99686E-02
 6.18000E+00    7.40880E-02
 6.20000E+00    8.69600E-02
 6.21340E+00    9.43057E-02
 6.24000E+00    1.09440E-01
 6.25000E+00    9.90010E-02
 6.27870E+00    1.11251E-01
 6.28000E+00    1.11933E-01
 6.30000E+00    1.22592E-01
 6.32000E+00    1.33619E-01
 6.34000E+00    1.44990E-01
 6.35330E+00    1.61755E-01
 6.36000E+00    1.77696E-01
 6.37000E+00    2.14600E-01
 6.38000E+00    2.85760E-01
 6.40000E+00    3.96800E-01
 6.42000E+00    3.48600E-01
 6.44000E+00    3.16624E-01
 6.46000E+00    3.54752E-01
 6.48000E+00    4.07424E-01
 6.50000E+00    4.11600E-01
 6.56000E+00    6.49376E-01
 6.57290E+00    7.02770E-01
 6.58000E+00    7.30536E-01
 6.60000E+00    8.48960E-01
 6.62000E+00    1.04596E+00
 6.64000E+00    1.19750E+00
 6.67000E+00    1.73021E+00
 6.67230E+00    1.77484E+00
 6.68000E+00    1.92835E+00
 6.71000E+00    1.98848E+00
 6.72000E+00    1.98202E+00
 6.74000E+00    2.12587E+00
 6.75000E+00    2.32980E+00
 6.76000E+00    2.54237E+00
 6.78000E+00    3.11555E+00
 6.80000E+00    4.12800E+00
 6.82000E+00    3.73828E+00
 6.84000E+00    3.37346E+00
 6.92000E+00    3.11070E+00
 6.94000E+00    3.53767E+00
 6.95000E+00    3.82200E+00
 6.96000E+00    4.19456E+00
 7.00000E+00    4.13400E+00
 7.02000E+00    4.99777E+00
 7.04000E+00    5.33248E+00
 7.06000E+00    5.97768E+00
 7.08000E+00    6.45241E+00
 7.09190E+00    6.24868E+00
 7.10000E+00    6.09726E+00
 7.10730E+00    5.83490E+00
 7.11570E+00    5.51728E+00
 7.12000E+00    5.34818E+00
 7.14000E+00    5.35141E+00
 7.16000E+00    5.94109E+00
 7.20000E+00    8.76508E+00
 7.22000E+00    9.09972E+00
 7.26000E+00    1.06722E+01
 7.28000E+00    1.11086E+01
 7.30000E+00    1.08742E+01
 7.36000E+00    1.05568E+01
 7.38000E+00    1.09087E+01
 7.40000E+00    1.17965E+01
 7.42000E+00    1.18272E+01
 7.44000E+00    1.34968E+01
 7.46000E+00    1.45682E+01
 7.50000E+00    1.01175E+01
 7.52000E+00    1.03998E+01
 7.55000E+00    1.12556E+01
 7.58000E+00    1.32063E+01
 7.60000E+00    1.43538E+01
 7.62000E+00    1.47314E+01
 7.64000E+00    1.46378E+01
 7.66000E+00    1.61170E+01
 7.68000E+00    1.90973E+01
 7.68200E+00    1.91870E+01
 7.70000E+00    2.20069E+01
 7.72000E+00    2.15160E+01
 7.74000E+00    1.94157E+01
 7.76000E+00    1.87794E+01
 7.80000E+00    2.13291E+01
 7.82000E+00    2.16703E+01
 7.86000E+00    2.13176E+01
 7.92000E+00    2.30384E+01
 7.96000E+00    2.35053E+01
 7.98000E+00    2.29844E+01
 8.00000E+00    2.17616E+01
 8.03000E+00    1.96421E+01
 8.06000E+00    1.74771E+01
 8.08000E+00    1.72562E+01
 8.10000E+00    1.74195E+01
 8.12000E+00    1.75835E+01
 8.14000E+00    1.83285E+01
 8.16000E+00    1.95894E+01
 8.22000E+00    2.15936E+01
 8.24000E+00    2.14182E+01
 8.26000E+00    2.03075E+01
 8.28000E+00    1.89180E+01
 8.30000E+00    1.90879E+01
 8.32000E+00    1.92585E+01
 8.36000E+00    2.32855E+01
 8.40000E+00    2.61848E+01
 8.42000E+00    2.68302E+01
 8.46000E+00    2.46675E+01
 8.48000E+00    2.39800E+01
 8.50000E+00    2.50852E+01
 8.52000E+00    2.60622E+01
 8.54000E+00    2.64125E+01
 8.56000E+00    2.54153E+01
 8.58000E+00    2.44290E+01
 8.60000E+00    2.40300E+01
 8.62000E+00    2.67584E+01
 8.64000E+00    3.16144E+01
 8.66000E+00    3.27504E+01
 8.68000E+00    3.15127E+01
 8.70000E+00    2.89909E+01
 8.74000E+00    2.49619E+01
 8.76000E+00    2.33656E+01
 8.77000E+00    2.37180E+01
 8.78000E+00    2.23666E+01
 8.80000E+00    2.15050E+01
 8.82000E+00    2.22384E+01
 8.98000E+00    2.19679E+01
 9.00000E+00    2.33058E+01
 9.50000E+00    2.20080E+01
 1.00000E+01    2.01030E+01
 1.10000E+01    1.57870E+01
 1.20000E+01    1.15370E+01
 1.30000E+01    8.00290E+00
 1.45000E+01    4.29350E+00
 1.60000E+01    2.12340E+00
 1.75000E+01    9.73990E-01
 2.00000E+01    8.08850E-02
