# n + Si 28 : (n,any)   
# endfb8.0   M.B.Chadwick,P.G.Young,D.Hetrick  EVAL-DEC02
# uncertainties: n
# # energies =   152
#   E(MeV)       xs(mb) 
 2.00000E+01    0.00000E+00
 2.00000E+01    9.27550E+02
 2.01512E+01    9.24876E+02
 2.06042E+01    9.16941E+02
 2.10000E+01    9.10106E+02
 2.20000E+01    8.93290E+02
 2.30000E+01    8.77041E+02
 2.40000E+01    8.61200E+02
 2.48970E+01    8.47240E+02
 2.50000E+01    8.45650E+02
 2.60000E+01    8.30380E+02
 2.61795E+01    8.27676E+02
 2.64639E+01    8.23421E+02
 2.65345E+01    8.22370E+02
 2.70000E+01    8.15490E+02
 2.71925E+01    8.12671E+02
 2.74715E+01    8.08610E+02
 2.80000E+01    8.01000E+02
 2.85194E+01    7.93628E+02
 2.90000E+01    7.86901E+02
 2.92624E+01    7.83265E+02
 2.94080E+01    7.81258E+02
 3.00000E+01    7.73170E+02
 3.09984E+01    7.59842E+02
 3.10000E+01    7.59821E+02
 3.15900E+01    7.52159E+02
 3.20000E+01    7.46933E+02
 3.23171E+01    7.42948E+02
 3.29207E+01    7.35503E+02
 3.30000E+01    7.34539E+02
 3.40000E+01    7.22664E+02
 3.48812E+01    7.12639E+02
 3.50000E+01    7.11320E+02
 3.51570E+01    7.09584E+02
 3.53239E+01    7.07744E+02
 3.60000E+01    7.00361E+02
 3.70000E+01    6.89656E+02
 3.74690E+01    6.84730E+02
 3.74860E+01    6.84553E+02
 3.80000E+01    6.79229E+02
 3.80003E+01    6.79226E+02
 3.90000E+01    6.69096E+02
 3.92809E+01    6.66304E+02
 3.98980E+01    6.60258E+02
 4.00000E+01    6.59270E+02
 4.10000E+01    6.48581E+02
 4.10936E+01    6.47501E+02
 4.11255E+01    6.47131E+02
 4.20000E+01    6.36734E+02
 4.20052E+01    6.36671E+02
 4.30000E+01    6.24872E+02
 4.40000E+01    6.13917E+02
 4.40058E+01    6.13858E+02
 4.48035E+01    6.06279E+02
 4.50000E+01    6.04610E+02
 4.50816E+01    6.03938E+02
 4.53581E+01    6.01700E+02
 4.57324E+01    5.98773E+02
 4.60000E+01    5.96753E+02
 4.60621E+01    5.96293E+02
 4.65449E+01    5.92825E+02
 4.67752E+01    5.91239E+02
 4.70000E+01    5.89735E+02
 4.80000E+01    5.83557E+02
 4.90000E+01    5.78220E+02
 4.95280E+01    5.75740E+02
 5.00000E+01    5.73720E+02
 5.08320E+01    5.70477E+02
 5.10000E+01    5.69854E+02
 5.17139E+01    5.67290E+02
 5.19292E+01    5.66537E+02
 5.20000E+01    5.66291E+02
 5.30000E+01    5.62856E+02
 5.40000E+01    5.59396E+02
 5.48247E+01    5.56430E+02
 5.50000E+01    5.55780E+02
 5.57170E+01    5.53128E+02
 5.60000E+01    5.52094E+02
 5.66164E+01    5.49868E+02
 5.70000E+01    5.48498E+02
 5.80000E+01    5.44978E+02
 5.90000E+01    5.41526E+02
 6.00000E+01    5.38130E+02
 6.06696E+01    5.35893E+02
 6.10000E+01    5.34802E+02
 6.20000E+01    5.31551E+02
 6.22088E+01    5.30881E+02
 6.30000E+01    5.28364E+02
 6.40000E+01    5.25231E+02
 6.50000E+01    5.22140E+02
 6.53070E+01    5.21199E+02
 6.60000E+01    5.19095E+02
 6.70000E+01    5.16103E+02
 6.80000E+01    5.13164E+02
 6.90000E+01    5.10276E+02
 7.00000E+01    5.07440E+02
 7.10000E+01    5.04657E+02
 7.16193E+01    5.02961E+02
 7.20000E+01    5.01928E+02
 7.30000E+01    4.99247E+02
 7.40000E+01    4.96613E+02
 7.50000E+01    4.94020E+02
 7.60000E+01    4.91470E+02
 7.70000E+01    4.88965E+02
 7.80000E+01    4.86504E+02
 7.90000E+01    4.84086E+02
 8.00000E+01    4.81710E+02
 8.10000E+01    4.79373E+02
 8.20000E+01    4.77074E+02
 8.30000E+01    4.74814E+02
 8.40000E+01    4.72592E+02
 8.50000E+01    4.70410E+02
 8.60000E+01    4.68283E+02
 8.70000E+01    4.66217E+02
 8.80000E+01    4.64200E+02
 8.90000E+01    4.62221E+02
 9.00000E+01    4.60270E+02
 9.10000E+01    4.58349E+02
 9.20000E+01    4.56466E+02
 9.30000E+01    4.54619E+02
 9.40000E+01    4.52804E+02
 9.50000E+01    4.51020E+02
 9.60000E+01    4.49289E+02
 9.70000E+01    4.47623E+02
 9.80000E+01    4.46009E+02
 9.90000E+01    4.44436E+02
 1.00000E+02    4.42890E+02
 1.02000E+02    4.39926E+02
 1.04000E+02    4.37148E+02
 1.06000E+02    4.34524E+02
 1.08000E+02    4.32023E+02
 1.10000E+02    4.29620E+02
 1.12000E+02    4.27381E+02
 1.14000E+02    4.25368E+02
 1.16000E+02    4.23558E+02
 1.18000E+02    4.21925E+02
 1.20000E+02    4.20450E+02
 1.22000E+02    4.19180E+02
 1.24000E+02    4.18143E+02
 1.26000E+02    4.17295E+02
 1.28000E+02    4.16596E+02
 1.30000E+02    4.16010E+02
 1.32000E+02    4.15539E+02
 1.34000E+02    4.15207E+02
 1.36000E+02    4.15012E+02
 1.38000E+02    4.14954E+02
 1.40000E+02    4.15030E+02
 1.42000E+02    4.15264E+02
 1.44000E+02    4.15668E+02
 1.46000E+02    4.16225E+02
 1.48000E+02    4.16921E+02
 1.50000E+02    4.17740E+02
