# n + Si 28 : (n,a01)   
# endfb8.0   M.B.Chadwick,P.G.Young,D.Hetrick  EVAL-DEC02
# uncertainties: n
# # energies =   161
#   E(MeV)       xs(mb) 
 3.35163E+00    0.00000E+00
 4.54000E+00    8.25600E-02
 4.58000E+00    1.61920E-01
 4.64000E+00    2.45269E-01
 4.66000E+00    2.58560E-01
 4.70000E+00    3.04000E-01
 4.74000E+00    3.70560E-01
 4.77560E+00    5.35414E-01
 4.78000E+00    5.57760E-01
 4.80000E+00    6.31176E-01
 4.82000E+00    6.83520E-01
 4.86000E+00    7.11360E-01
 4.88000E+00    7.05250E-01
 4.90000E+00    6.78400E-01
 4.94000E+00    7.04000E-01
 4.96000E+00    7.43360E-01
 4.98000E+00    8.17920E-01
 5.00000E+00    9.20000E-01
 5.04000E+00    7.72196E-01
 5.08000E+00    6.64330E-01
 5.10000E+00    6.27939E-01
 5.14000E+00    7.24085E-01
 5.16000E+00    8.00290E-01
 5.20000E+00    9.67153E-01
 5.22000E+00    1.06764E+00
 5.25000E+00    1.22277E+00
 5.26000E+00    1.26180E+00
 5.28000E+00    1.34137E+00
 5.30000E+00    1.34607E+00
 5.32000E+00    1.28358E+00
 5.34000E+00    1.17607E+00
 5.36000E+00    1.00823E+00
 5.39920E+00    6.77714E-01
 5.40000E+00    6.71555E-01
 5.44000E+00    4.36506E-01
 5.46000E+00    3.32715E-01
 5.50000E+00    1.31010E-01
 5.51000E+00    1.60922E-01
 5.52000E+00    1.96002E-01
 5.54000E+00    2.40178E-01
 5.56000E+00    1.94328E-01
 5.58000E+00    1.90308E-01
 5.58150E+00    1.91776E-01
 5.61000E+00    2.20693E-01
 5.62000E+00    2.35448E-01
 5.64000E+00    2.27462E-01
 5.64680E+00    2.19952E-01
 5.66000E+00    2.04531E-01
 5.67000E+00    2.05830E-01
 5.70000E+00    2.32320E-01
 5.72000E+00    2.58894E-01
 5.74000E+00    3.05450E-01
 5.75000E+00    3.96250E-01
 5.76000E+00    4.89926E-01
 5.78000E+00    9.72243E-01
 5.80000E+00    1.44999E+00
 5.82000E+00    1.00604E+00
 5.84000E+00    4.96237E-01
 5.86000E+00    6.15853E-01
 5.88000E+00    9.57677E-01
 5.90000E+00    1.09517E+00
 5.92000E+00    8.39326E-01
 5.94000E+00    7.06555E-01
 5.96000E+00    6.55942E-01
 5.98000E+00    6.81008E-01
 6.00000E+00    7.49250E-01
 6.02000E+00    8.31616E-01
 6.04000E+00    8.81608E-01
 6.10000E+00    1.13176E+00
 6.12000E+00    1.22567E+00
 6.14000E+00    1.32316E+00
 6.16000E+00    1.42428E+00
 6.18000E+00    1.52893E+00
 6.22000E+00    1.74904E+00
 6.24000E+00    1.86444E+00
 6.25000E+00    1.94180E+00
 6.26000E+00    2.35760E+00
 6.26730E+00    2.82625E+00
 6.27000E+00    3.00168E+00
 6.28180E+00    3.35270E+00
 6.29000E+00    3.60191E+00
 6.30000E+00    3.78780E+00
 6.31000E+00    3.65466E+00
 6.32000E+00    3.40844E+00
 6.34000E+00    3.14035E+00
 6.36000E+00    3.19032E+00
 6.37000E+00    3.41849E+00
 6.40000E+00    3.89854E+00
 6.42000E+00    4.09656E+00
 6.46000E+00    4.21109E+00
 6.48000E+00    4.35714E+00
 6.54000E+00    5.09680E+00
 6.56000E+00    5.14180E+00
 6.62000E+00    5.18610E+00
 6.64000E+00    5.42589E+00
 6.67000E+00    5.79558E+00
 6.68000E+00    5.98900E+00
 6.69000E+00    6.15250E+00
 6.71000E+00    6.31677E+00
 6.73000E+00    6.58574E+00
 6.76000E+00    6.99937E+00
 6.79040E+00    7.76162E+00
 6.80000E+00    8.08300E+00
 6.85780E+00    1.04464E+01
 6.86000E+00    1.05400E+01
 6.92000E+00    1.25580E+01
 6.98000E+00    1.41440E+01
 7.00000E+00    1.51386E+01
 7.02000E+00    1.46286E+01
 7.04000E+00    1.33608E+01
 7.08000E+00    1.27806E+01
 7.10000E+00    1.26236E+01
 7.13500E+00    1.26279E+01
 7.14000E+00    1.26978E+01
 7.16000E+00    1.29794E+01
 7.20000E+00    1.35515E+01
 7.22000E+00    1.38420E+01
 7.24000E+00    1.44610E+01
 7.26000E+00    1.54384E+01
 7.28000E+00    1.83864E+01
 7.30000E+00    2.04824E+01
 7.34000E+00    1.60440E+01
 7.36000E+00    1.63378E+01
 7.40000E+00    1.92512E+01
 7.44000E+00    2.42208E+01
 7.46000E+00    2.60958E+01
 7.48000E+00    2.70640E+01
 7.50000E+00    2.72865E+01
 7.54000E+00    2.73981E+01
 7.55000E+00    2.78618E+01
 7.58000E+00    2.92604E+01
 7.62000E+00    3.28092E+01
 7.64900E+00    3.67808E+01
 7.70000E+00    3.47079E+01
 7.71860E+00    3.31897E+01
 7.72000E+00    3.30751E+01
 7.74000E+00    2.93778E+01
 7.78000E+00    2.95562E+01
 7.84000E+00    3.14506E+01
 7.86000E+00    3.22912E+01
 7.90000E+00    3.58871E+01
 7.94000E+00    3.82474E+01
 8.00000E+00    3.64299E+01
 8.03000E+00    3.61090E+01
 8.14000E+00    3.49401E+01
 8.16000E+00    3.44537E+01
 8.22000E+00    3.00551E+01
 8.24000E+00    2.90578E+01
 8.26000E+00    2.89853E+01
 8.28000E+00    2.94508E+01
 8.50000E+00    2.91445E+01
 9.00000E+00    2.73690E+01
 9.50000E+00    2.42470E+01
 1.00000E+01    2.10270E+01
 1.10000E+01    1.52220E+01
 1.20000E+01    1.02080E+01
 1.30000E+01    6.40050E+00
 1.45000E+01    2.95590E+00
 1.60000E+01    1.29000E+00
 1.75000E+01    5.33750E-01
 2.00000E+01    4.40360E-02
