# n + Si 28 : (n,p04)   
# endfb8.0   M.B.Chadwick,P.G.Young,D.Hetrick  EVAL-DEC02
# uncertainties: n
# # energies =   138
#   E(MeV)       xs(mb) 
 5.42166E+00    0.00000E+00
 6.04000E+00    5.93287E-02
 6.06000E+00    9.29891E-02
 6.10000E+00    1.85040E-01
 6.14000E+00    2.36127E-01
 6.16000E+00    2.69859E-01
 6.18000E+00    3.33396E-01
 6.20000E+00    3.91320E-01
 6.21340E+00    4.24376E-01
 6.24000E+00    4.92480E-01
 6.25000E+00    4.45504E-01
 6.27870E+00    5.00632E-01
 6.28000E+00    5.03698E-01
 6.30000E+00    5.51664E-01
 6.32000E+00    6.01286E-01
 6.34000E+00    6.52453E-01
 6.35330E+00    7.27897E-01
 6.36000E+00    7.99632E-01
 6.37000E+00    9.65700E-01
 6.38000E+00    1.28592E+00
 6.40000E+00    1.78560E+00
 6.42000E+00    1.56870E+00
 6.44000E+00    1.42481E+00
 6.46000E+00    1.59638E+00
 6.48000E+00    1.83341E+00
 6.50000E+00    1.85220E+00
 6.56000E+00    1.91066E+00
 6.57290E+00    1.96598E+00
 6.58000E+00    1.99400E+00
 6.60000E+00    2.18304E+00
 6.62000E+00    2.56194E+00
 6.64000E+00    2.81686E+00
 6.67000E+00    3.87379E+00
 6.67230E+00    3.96048E+00
 6.68000E+00    4.25693E+00
 6.71000E+00    4.23072E+00
 6.72000E+00    4.17182E+00
 6.74000E+00    4.38761E+00
 6.75000E+00    4.76550E+00
 6.76000E+00    5.15635E+00
 6.78000E+00    6.22079E+00
 6.80000E+00    8.12700E+00
 6.82000E+00    7.26642E+00
 6.84000E+00    6.48158E+00
 6.92000E+00    5.75626E+00
 6.94000E+00    6.49631E+00
 6.95000E+00    6.99300E+00
 6.96000E+00    7.64784E+00
 7.00000E+00    7.44120E+00
 7.02000E+00    8.73434E+00
 7.04000E+00    9.07091E+00
 7.06000E+00    9.91911E+00
 7.08000E+00    1.04645E+01
 7.09190E+00    1.00052E+01
 7.10000E+00    9.68115E+00
 7.10730E+00    9.19675E+00
 7.11570E+00    8.62497E+00
 7.12000E+00    8.32632E+00
 7.14000E+00    8.18012E+00
 7.16000E+00    8.92752E+00
 7.20000E+00    1.27689E+01
 7.22000E+00    1.30707E+01
 7.26000E+00    1.49387E+01
 7.28000E+00    1.53665E+01
 7.30000E+00    1.48746E+01
 7.36000E+00    1.40093E+01
 7.38000E+00    1.43445E+01
 7.40000E+00    1.53775E+01
 7.42000E+00    1.52901E+01
 7.44000E+00    1.73106E+01
 7.46000E+00    1.85435E+01
 7.50000E+00    1.26965E+01
 7.52000E+00    1.28999E+01
 7.55000E+00    1.37289E+01
 7.58000E+00    1.58514E+01
 7.60000E+00    1.70516E+01
 7.62000E+00    1.73250E+01
 7.64000E+00    1.70474E+01
 7.66000E+00    1.85924E+01
 7.68000E+00    2.18272E+01
 7.68200E+00    2.19098E+01
 7.70000E+00    2.49270E+01
 7.72000E+00    2.41576E+01
 7.74000E+00    2.16135E+01
 7.76000E+00    2.07313E+01
 7.80000E+00    2.31700E+01
 7.82000E+00    2.33587E+01
 7.86000E+00    2.26371E+01
 7.92000E+00    2.39514E+01
 7.96000E+00    2.41128E+01
 7.98000E+00    2.34266E+01
 8.00000E+00    2.20406E+01
 8.03000E+00    1.97268E+01
 8.06000E+00    1.74068E+01
 8.08000E+00    1.70924E+01
 8.10000E+00    1.71602E+01
 8.12000E+00    1.72280E+01
 8.14000E+00    1.78616E+01
 8.16000E+00    1.89886E+01
 8.22000E+00    2.06032E+01
 8.24000E+00    2.03300E+01
 8.26000E+00    1.91767E+01
 8.28000E+00    1.77733E+01
 8.30000E+00    1.78421E+01
 8.32000E+00    1.79109E+01
 8.36000E+00    2.14410E+01
 8.40000E+00    2.38744E+01
 8.42000E+00    2.43439E+01
 8.46000E+00    2.21667E+01
 8.48000E+00    2.14463E+01
 8.50000E+00    2.23286E+01
 8.52000E+00    2.31219E+01
 8.54000E+00    2.33556E+01
 8.56000E+00    2.23997E+01
 8.58000E+00    2.14595E+01
 8.60000E+00    2.10393E+01
 8.62000E+00    2.33509E+01
 8.64000E+00    2.74974E+01
 8.66000E+00    2.83913E+01
 8.68000E+00    2.72279E+01
 8.70000E+00    2.49662E+01
 8.74000E+00    2.13542E+01
 8.76000E+00    1.99223E+01
 8.77000E+00    2.01893E+01
 8.78000E+00    1.90072E+01
 8.80000E+00    1.82144E+01
 8.82000E+00    1.87729E+01
 8.98000E+00    1.80554E+01
 9.00000E+00    1.90909E+01
 9.50000E+00    1.71170E+01
 1.00000E+01    1.50640E+01
 1.10000E+01    1.13900E+01
 1.20000E+01    8.15300E+00
 1.30000E+01    5.57150E+00
 1.45000E+01    2.93270E+00
 1.60000E+01    1.43900E+00
 1.75000E+01    6.59780E-01
 2.00000E+01    5.50350E-02
