# n + S  33 : (n,el)    
# endfb8.0   H.Nakamura                        EVAL-MAY87
# uncertainties: n
# # energies =   171
#   E(MeV)       xs(mb) 
 1.00000E-11    7.28175E+03
 1.00000E-07    2.85045E+03
 4.13990E-07    2.84697E+03
 5.31580E-07    2.84632E+03
 6.82560E-07    2.84582E+03
 8.76420E-07    2.84563E+03
 1.12540E-06    2.84539E+03
 1.44500E-06    2.84507E+03
 1.85540E-06    2.84467E+03
 2.37240E-06    2.84439E+03
 3.05900E-06    2.84425E+03
 3.92790E-06    2.84408E+03
 5.04350E-06    2.84386E+03
 6.47600E-06    2.84357E+03
 8.31530E-06    2.84320E+03
 1.06770E-05    2.84273E+03
 1.37100E-05    2.84213E+03
 1.76030E-05    2.84135E+03
 2.26030E-05    2.84034E+03
 2.92030E-05    2.83906E+03
 3.72670E-05    2.83743E+03
 4.78510E-05    2.83532E+03
 6.14420E-05    2.83261E+03
 7.88930E-05    2.82912E+03
 1.01300E-04    2.82465E+03
 1.30070E-04    2.81891E+03
 1.67020E-04    2.81154E+03
 2.14450E-04    2.80208E+03
 2.75360E-04    2.78993E+03
 3.53580E-04    2.77433E+03
 4.54000E-04    2.75429E+03
 5.82950E-04    2.73040E+03
 7.48520E-04    2.70333E+03
 9.61120E-04    2.66866E+03
 1.23410E-03    2.62644E+03
 1.58460E-03    2.57955E+03
 2.03470E-03    2.54027E+03
 2.24870E-03    2.51814E+03
 2.48520E-03    2.50080E+03
 2.61260E-03    2.48845E+03
 2.74650E-03    2.46864E+03
 3.03540E-03    2.44136E+03
 3.35460E-03    2.41557E+03
 3.70740E-03    2.37972E+03
 4.30740E-03    2.32103E+03
 5.53080E-03    2.24421E+03
 7.10170E-03    2.16316E+03
 9.11880E-03    2.06838E+03
 1.17090E-02    2.56144E+03
 1.50340E-02    1.98495E+03
 1.93050E-02    1.86913E+03
 2.18750E-02    1.67145E+03
 2.35790E-02    7.18662E+03
 2.41760E-02    2.62955E+03
 2.47880E-02    2.11433E+03
 2.60580E-02    1.99515E+03
 2.70000E-02    1.94236E+03
 2.85000E-02    1.88379E+03
 3.18280E-02    1.83112E+03
 3.43070E-02    1.75318E+03
 4.08680E-02    1.60083E+03
 4.63090E-02    2.71193E+03
 5.24750E-02    4.99286E+03
 5.65620E-02    2.08996E+03
 6.73790E-02    1.77373E+03
 7.20000E-02    3.12098E+03
 7.95000E-02    2.62667E+03
 8.25000E-02    2.20554E+03
 8.65170E-02    2.00292E+03
 9.80370E-02    1.86091E+03
 1.11090E-01    1.74982E+03
 1.16790E-01    1.59642E+03
 1.22770E-01    3.08393E+03
 1.29070E-01    2.58353E+03
 1.35690E-01    2.09361E+03
 1.42640E-01    1.98742E+03
 1.49960E-01    1.93154E+03
 1.57640E-01    1.89298E+03
 1.65730E-01    1.85841E+03
 1.74220E-01    1.82405E+03
 1.83160E-01    1.78597E+03
 1.92550E-01    1.72942E+03
 2.02420E-01    1.60323E+03
 2.12800E-01    2.38917E+03
 2.23710E-01    2.40017E+03
 2.35180E-01    2.01763E+03
 2.47240E-01    2.12815E+03
 2.73240E-01    2.31934E+03
 2.87250E-01    2.31461E+03
 2.94520E-01    2.31241E+03
 2.97200E-01    2.31152E+03
 2.98500E-01    2.31047E+03
 3.01970E-01    2.30279E+03
 3.33730E-01    2.28800E+03
 3.68830E-01    2.27676E+03
 3.87740E-01    2.27110E+03
 4.07620E-01    2.26705E+03
 4.50490E-01    2.26498E+03
 4.97870E-01    2.26528E+03
 5.23400E-01    2.26897E+03
 5.50230E-01    2.27286E+03
 5.78440E-01    2.27696E+03
 6.08100E-01    2.28147E+03
 6.39280E-01    2.28790E+03
 6.72060E-01    2.29504E+03
 7.06510E-01    2.30255E+03
 7.42740E-01    2.31044E+03
 7.80820E-01    2.31874E+03
 8.20850E-01    2.32746E+03
 8.62940E-01    2.32876E+03
 9.07180E-01    2.33074E+03
 9.61640E-01    2.33811E+03
 1.00260E+00    2.35165E+03
 1.10800E+00    2.36968E+03
 1.16480E+00    2.38263E+03
 1.22460E+00    2.39623E+03
 1.28730E+00    2.41053E+03
 1.35340E+00    2.42553E+03
 1.42270E+00    2.43941E+03
 1.49570E+00    2.45299E+03
 1.57240E+00    2.46726E+03
 1.65300E+00    2.48226E+03
 1.73770E+00    2.49802E+03
 1.82680E+00    2.51460E+03
 1.92050E+00    2.53197E+03
 2.01900E+00    2.53983E+03
 2.12250E+00    2.53545E+03
 2.23130E+00    2.53158E+03
 2.30690E+00    2.52918E+03
 2.34570E+00    2.52795E+03
 2.36530E+00    2.52713E+03
 2.38520E+00    2.52500E+03
 2.46600E+00    2.51883E+03
 2.59240E+00    2.51026E+03
 2.72530E+00    2.50124E+03
 2.86500E+00    2.48961E+03
 3.01190E+00    2.45602E+03
 3.16640E+00    2.41444E+03
 3.32870E+00    2.35712E+03
 3.67880E+00    2.27567E+03
 4.06570E+00    2.16671E+03
 4.49330E+00    2.07649E+03
 4.72370E+00    2.01655E+03
 4.96590E+00    1.95040E+03
 5.22050E+00    1.87590E+03
 5.48810E+00    1.80310E+03
 5.76950E+00    1.72864E+03
 6.06530E+00    1.65145E+03
 6.37630E+00    1.58427E+03
 6.59240E+00    1.54564E+03
 6.70320E+00    1.49386E+03
 7.04690E+00    1.41362E+03
 7.40820E+00    1.33144E+03
 7.78800E+00    1.25143E+03
 8.18730E+00    1.17947E+03
 8.60710E+00    1.11210E+03
 9.04840E+00    1.05594E+03
 9.51230E+00    9.80214E+02
 1.00000E+01    9.18963E+02
 1.05130E+01    8.74885E+02
 1.10520E+01    8.35181E+02
 1.16180E+01    7.98932E+02
 1.22140E+01    7.66080E+02
 1.28400E+01    7.40740E+02
 1.34990E+01    7.32354E+02
 1.38400E+01    7.27287E+02
 1.41910E+01    7.22664E+02
 1.45500E+01    7.19858E+02
 1.49180E+01    7.19950E+02
 1.56830E+01    7.24725E+02
 1.64870E+01    7.36277E+02
