# n + Sn114 : (n,el)    
# endfb8.0   JNDC FPND W.G., Mughabghab        EVAL-DEC04
# uncertainties: n
# # energies =   171
#   E(MeV)       xs(mb) 
 1.00000E-11    7.69127E+03
 1.00000E-07    4.54855E+03
 4.13990E-07    4.54644E+03
 5.31580E-07    4.54622E+03
 6.82560E-07    4.54594E+03
 8.76420E-07    4.54558E+03
 1.12540E-06    4.54512E+03
 1.44500E-06    4.54452E+03
 1.85540E-06    4.54376E+03
 2.37240E-06    4.54280E+03
 3.05900E-06    4.54165E+03
 3.92790E-06    4.54021E+03
 5.04350E-06    4.53835E+03
 6.47600E-06    4.53596E+03
 8.31530E-06    4.53290E+03
 1.06770E-05    4.52897E+03
 1.37100E-05    4.52392E+03
 1.76030E-05    4.51743E+03
 2.26030E-05    4.50898E+03
 2.92030E-05    4.49827E+03
 3.72670E-05    4.48469E+03
 4.78510E-05    4.46706E+03
 6.14420E-05    4.43800E+03
 7.88930E-05    4.39442E+03
 1.01300E-04    4.32612E+03
 1.30070E-04    4.30965E+03
 1.67020E-04    3.90595E+03
 2.14450E-04    2.86940E+03
 2.75360E-04    7.04323E+04
 3.53580E-04    5.40475E+03
 4.54000E-04    4.88984E+03
 5.82950E-04    1.17537E+04
 7.48520E-04    4.69180E+03
 9.61120E-04    1.22190E+04
 1.23410E-03    6.52767E+03
 1.58460E-03    8.14574E+03
 2.03470E-03    5.95060E+03
 2.24870E-03    5.90738E+03
 2.48520E-03    5.87716E+03
 2.61260E-03    5.85800E+03
 2.74650E-03    5.83054E+03
 3.03540E-03    5.79776E+03
 3.35460E-03    5.76892E+03
 3.70740E-03    5.73786E+03
 4.30740E-03    5.69678E+03
 5.53080E-03    5.66329E+03
 7.10170E-03    5.65000E+03
 9.11880E-03    5.65604E+03
 1.17090E-02    5.67946E+03
 1.50340E-02    5.71880E+03
 1.93050E-02    5.75723E+03
 2.18750E-02    5.78104E+03
 2.35790E-02    5.79372E+03
 2.41760E-02    5.80025E+03
 2.47880E-02    5.81024E+03
 2.60580E-02    5.82184E+03
 2.70000E-02    5.83434E+03
 2.85000E-02    5.85823E+03
 3.18280E-02    5.88626E+03
 3.43070E-02    5.92618E+03
 4.08680E-02    5.97623E+03
 4.63090E-02    6.01958E+03
 5.24750E-02    6.05495E+03
 5.65620E-02    6.09947E+03
 6.73790E-02    6.14228E+03
 7.20000E-02    6.17179E+03
 7.95000E-02    6.19591E+03
 8.25000E-02    6.21057E+03
 8.65170E-02    6.23993E+03
 9.80370E-02    6.26831E+03
 1.11090E-01    6.26602E+03
 1.16790E-01    6.26390E+03
 1.22770E-01    6.26167E+03
 1.29070E-01    6.25932E+03
 1.35690E-01    6.25685E+03
 1.42640E-01    6.25426E+03
 1.49960E-01    6.25339E+03
 1.57640E-01    6.25441E+03
 1.65730E-01    6.25549E+03
 1.74220E-01    6.25662E+03
 1.83160E-01    6.25781E+03
 1.92550E-01    6.25906E+03
 2.02420E-01    6.26038E+03
 2.12800E-01    6.26176E+03
 2.23710E-01    6.26321E+03
 2.35180E-01    6.26474E+03
 2.47240E-01    6.26719E+03
 2.73240E-01    6.26981E+03
 2.87250E-01    6.27119E+03
 2.94520E-01    6.27184E+03
 2.97200E-01    6.27211E+03
 2.98500E-01    6.27257E+03
 3.01970E-01    6.27600E+03
 3.33730E-01    6.28260E+03
 3.68830E-01    6.28797E+03
 3.87740E-01    6.29180E+03
 4.07620E-01    6.29795E+03
 4.50490E-01    6.30685E+03
 4.97870E-01    6.31411E+03
 5.23400E-01    6.31869E+03
 5.50230E-01    6.32007E+03
 5.78440E-01    6.32097E+03
 6.08100E-01    6.32191E+03
 6.39280E-01    6.32291E+03
 6.72060E-01    6.32379E+03
 7.06510E-01    6.31848E+03
 7.42740E-01    6.30966E+03
 7.80820E-01    6.30038E+03
 8.20850E-01    6.29063E+03
 8.62940E-01    6.27785E+03
 9.07180E-01    6.25492E+03
 9.61640E-01    6.23219E+03
 1.00260E+00    6.19035E+03
 1.10800E+00    6.13452E+03
 1.16480E+00    6.09445E+03
 1.22460E+00    6.05235E+03
 1.28730E+00    5.97700E+03
 1.35340E+00    5.79577E+03
 1.42270E+00    5.60575E+03
 1.49570E+00    5.44733E+03
 1.57240E+00    5.31877E+03
 1.65300E+00    5.18972E+03
 1.73770E+00    5.06263E+03
 1.82680E+00    4.92901E+03
 1.92050E+00    4.79081E+03
 2.01900E+00    4.62868E+03
 2.12250E+00    4.46279E+03
 2.23130E+00    4.29290E+03
 2.30690E+00    4.16087E+03
 2.34570E+00    4.09745E+03
 2.36530E+00    4.05590E+03
 2.38520E+00    3.95098E+03
 2.46600E+00    3.74810E+03
 2.59240E+00    3.50882E+03
 2.72530E+00    3.29747E+03
 2.86500E+00    3.09795E+03
 3.01190E+00    2.90669E+03
 3.16640E+00    2.73875E+03
 3.32870E+00    2.51429E+03
 3.67880E+00    2.24494E+03
 4.06570E+00    2.06698E+03
 4.49330E+00    1.96781E+03
 4.72370E+00    1.90332E+03
 4.96590E+00    1.86786E+03
 5.22050E+00    1.87793E+03
 5.48810E+00    1.88923E+03
 5.76950E+00    1.90226E+03
 6.06530E+00    1.94893E+03
 6.37630E+00    2.00234E+03
 6.59240E+00    2.03544E+03
 6.70320E+00    2.07825E+03
 7.04690E+00    2.15795E+03
 7.40820E+00    2.25044E+03
 7.78800E+00    2.34548E+03
 8.18730E+00    2.44308E+03
 8.60710E+00    2.54557E+03
 9.04840E+00    2.64148E+03
 9.51230E+00    2.73427E+03
 1.00000E+01    2.88943E+03
 1.05130E+01    3.04534E+03
 1.10520E+01    3.05784E+03
 1.16180E+01    2.98893E+03
 1.22140E+01    2.91830E+03
 1.28400E+01    2.87694E+03
 1.34990E+01    2.89804E+03
 1.38400E+01    2.90529E+03
 1.41910E+01    2.86634E+03
 1.45500E+01    2.82993E+03
 1.49180E+01    2.76329E+03
 1.56830E+01    2.65025E+03
 1.64870E+01    2.51061E+03
