# n + Mo 95 : (n,p)m    
# jendl.ad   K.Shibata, A.Ichihara, S.Kunieda  EVAL-MAY13
# uncertainties: n
# # energies =    29
#   E(MeV)       xs(mb) 
 3.82952E-01    0.00000E+00
 2.00000E+00    0.00000E+00
 2.50000E+00    1.49000E-04
 3.00000E+00    2.91300E-03
 3.50000E+00    1.38300E-02
 4.00000E+00    4.33200E-02
 4.50000E+00    8.38900E-02
 5.00000E+00    1.44600E-01
 5.50000E+00    2.31100E-01
 6.00000E+00    3.26200E-01
 6.50000E+00    4.69500E-01
 7.00000E+00    6.02600E-01
 7.50000E+00    8.19600E-01
 8.10000E+00    1.10200E+00
 8.50000E+00    1.31200E+00
 9.00000E+00    1.55000E+00
 9.50000E+00    1.92900E+00
 1.00000E+01    2.17700E+00
 1.10000E+01    2.88500E+00
 1.20000E+01    3.64100E+00
 1.30000E+01    4.50300E+00
 1.40000E+01    5.29600E+00
 1.45000E+01    5.53100E+00
 1.50000E+01    5.80600E+00
 1.60000E+01    6.05300E+00
 1.70000E+01    6.07100E+00
 1.80000E+01    5.96200E+00
 1.90000E+01    5.78000E+00
 2.00000E+01    5.52600E+00
