# n + Os192 : (n,n'18)  
# tendl.2019 A.J. Koning and D. Rochman        EVAL-NOV19
# uncertainties: n
# # energies =    75
#   E(MeV)       xs(mb) 
 1.56880E+00    0.00000E+00
 1.60000E+00    8.53997E+00
 1.60011E+00    8.54811E+00
 1.62134E+00    1.01189E+01
 1.65384E+00    1.25235E+01
 1.67384E+00    1.40032E+01
 1.71737E+00    1.72239E+01
 1.72191E+00    1.75598E+01
 1.74290E+00    1.91128E+01
 1.78969E+00    2.25747E+01
 1.80000E+00    2.33375E+01
 1.81721E+00    2.43089E+01
 1.83611E+00    2.53757E+01
 1.84705E+00    2.59932E+01
 2.00000E+00    3.46265E+01
 2.02599E+00    3.46816E+01
 2.20000E+00    3.50507E+01
 2.40000E+00    2.66576E+01
 2.60000E+00    1.85139E+01
 2.80000E+00    1.27659E+01
 3.00000E+00    8.94019E+00
 3.20000E+00    6.37450E+00
 3.40000E+00    4.61400E+00
 3.60000E+00    3.37534E+00
 3.80000E+00    2.48501E+00
 4.00000E+00    1.83526E+00
 4.20000E+00    1.35743E+00
 4.40000E+00    1.00462E+00
 4.60000E+00    7.44196E-01
 4.80000E+00    5.51968E-01
 5.00000E+00    4.10047E-01
 5.20000E+00    3.05178E-01
 5.40000E+00    2.27535E-01
 5.60000E+00    1.69085E-01
 5.80000E+00    1.26117E-01
 6.00000E+00    9.42597E-02
 6.20000E+00    7.06217E-02
 6.40000E+00    5.30325E-02
 6.60000E+00    3.99436E-02
 6.80000E+00    3.01091E-02
 7.00000E+00    2.27894E-02
 7.20000E+00    1.72672E-02
 7.40000E+00    1.31098E-02
 7.60000E+00    9.97838E-03
 7.80000E+00    7.59834E-03
 8.00000E+00    5.80060E-03
 8.50000E+00    2.95566E-03
 9.00000E+00    1.51303E-03
 9.50000E+00    7.80088E-04
 1.00000E+01    4.05565E-04
 1.05000E+01    2.12728E-04
 1.10000E+01    1.12571E-04
 1.15000E+01    6.00877E-05
 1.20000E+01    3.23496E-05
 1.25000E+01    1.75761E-05
 1.30000E+01    9.63866E-06
 1.35000E+01    5.33621E-06
 1.40000E+01    2.98275E-06
 1.45000E+01    1.68331E-06
 1.50000E+01    9.58850E-07
 1.60000E+01    3.19340E-07
 1.70000E+01    1.09680E-07
 1.80000E+01    3.85210E-08
 1.90000E+01    1.38800E-08
 2.00000E+01    5.10160E-09
 2.10000E+01    1.91220E-09
 2.20000E+01    7.31630E-10
 2.30000E+01    2.85810E-10
 2.40000E+01    1.13860E-10
 2.50000E+01    4.62270E-11
 2.60000E+01    1.90880E-11
 2.70000E+01    8.00750E-12
 2.80000E+01    3.40820E-12
 2.90000E+01    1.46910E-12
 3.00000E+01    6.41300E-13
