# n + Zr  0 : (n,non)
# jendl4.0   JNDC FP NUCLEAR DATA W.G.         EVAL-AUG89
# uncertainties: n
# # energies =   122
#   E(MeV)          xs(mb) 
 2.60000E-02    0.00000E+00
 2.60000E-02    0.00000E+00
 2.77500E-02    7.41033E+00
 2.95000E-02    7.03380E+00
 3.12500E-02    6.69743E+00
 3.30000E-02    6.39530E+00
 3.47500E-02    6.12256E+00
 3.65000E-02    5.87527E+00
 3.82500E-02    5.65013E+00
 4.00000E-02    5.44440E+00
 4.25000E-02    5.17839E+00
 4.50000E-02    4.94193E+00
 4.75000E-02    4.73053E+00
 5.00000E-02    4.54055E+00
 5.25000E-02    4.37354E+00
 5.50000E-02    7.05193E+00
 5.75000E-02    6.83350E+00
 6.00000E-02    6.62682E+00
 6.25000E-02    6.45893E+00
 6.50000E-02    6.30033E+00
 6.75000E-02    6.15000E+00
 7.00000E-02    6.00700E+00
 7.50000E-02    8.89850E+00
 8.00000E-02    8.55945E+00
 8.50000E-02    8.27286E+00
 9.00000E-02    7.99975E+00
 9.50000E-02    7.82719E+00
 1.00000E-01    7.67236E+00
 1.25000E-01    7.18331E+00
 1.50000E-01    6.70943E+00
 2.00000E-01    9.85712E+00
 2.50000E-01    9.36598E+00
 3.00000E-01    9.05672E+00
 3.87298E-01    8.69545E+00
 5.00000E-01    8.36691E+00
 7.00000E-01    8.56768E+00
 7.68971E-01    8.70764E+00
 8.00000E-01    8.77059E+00
 9.00000E-01    9.07761E+00
 1.00000E+00    1.28452E+02
 1.21817E+00    2.65335E+02
 1.21827E+00    2.65405E+02
 1.25000E+00    2.87720E+02
 1.48257E+00    3.70819E+02
 1.48260E+00    3.70837E+02
 1.50000E+00    3.81721E+02
 1.75000E+00    5.03941E+02
 1.90268E+00    6.18844E+02
 1.90298E+00    6.19124E+02
 1.90300E+00    6.19145E+02
 2.00000E+00    7.18611E+02
 2.06405E+00    7.49005E+02
 2.06486E+00    7.49389E+02
 2.06490E+00    7.49408E+02
 2.15490E+00    7.97653E+02
 2.15495E+00    7.97681E+02
 2.15515E+00    7.97809E+02
 2.19408E+00    8.23385E+02
 2.19418E+00    8.23460E+02
 2.21329E+00    8.41657E+02
 2.21420E+00    8.43893E+02
 2.22492E+00    8.70188E+02
 2.22512E+00    8.70679E+02
 2.25000E+00    9.31705E+02
 2.28477E+00    9.90184E+02
 2.28609E+00    9.92379E+02
 2.31298E+00    1.03707E+03
 2.31440E+00    1.03936E+03
 2.34580E+00    1.08972E+03
 2.34584E+00    1.08977E+03
 2.34776E+00    1.09182E+03
 2.38190E+00    1.12823E+03
 2.38194E+00    1.12828E+03
 2.38416E+00    1.13059E+03
 2.39316E+00    1.13998E+03
 2.39320E+00    1.14003E+03
 2.42147E+00    1.17027E+03
 2.42150E+00    1.17031E+03
 2.42157E+00    1.17040E+03
 2.50000E+00    1.25171E+03
 3.00000E+00    1.49814E+03
 3.50000E+00    1.63792E+03
 4.00000E+00    1.80456E+03
 5.00000E+00    1.76293E+03
 5.50592E+00    1.75450E+03
 5.51284E+00    1.75439E+03
 6.00000E+00    1.74657E+03
 6.46628E+00    1.75134E+03
 6.48074E+00    1.75148E+03
 6.55616E+00    1.75226E+03
 7.00000E+00    1.75692E+03
 7.15013E+00    1.75747E+03
 7.16524E+00    1.75753E+03
 7.23762E+00    1.75780E+03
 7.28251E+00    1.75797E+03
 7.28394E+00    1.75799E+03
 7.48331E+00    1.76181E+03
 8.00000E+00    1.77170E+03
 8.48528E+00    1.75888E+03
 8.56294E+00    1.75728E+03
 8.64016E+00    1.75482E+03
 8.65246E+00    1.75443E+03
 8.80203E+00    1.75254E+03
 8.80545E+00    1.75257E+03
 9.00000E+00    1.75410E+03
 1.00000E+01    1.73692E+03
 1.10000E+01    1.70865E+03
 1.20000E+01    1.69544E+03
 1.30000E+01    1.68903E+03
 1.34039E+01    1.68932E+03
 1.34923E+01    1.68937E+03
 1.40000E+01    1.68975E+03
 1.45000E+01    1.69717E+03
 1.50000E+01    1.69414E+03
 1.60000E+01    1.71352E+03
 1.70000E+01    1.74120E+03
 1.80000E+01    1.74229E+03
 1.87508E+01    1.73611E+03
 1.90000E+01    1.73407E+03
 1.93981E+01    1.72691E+03
 1.93988E+01    1.72690E+03
 2.00000E+01    1.71684E+03
