# n + Ba137 : (n,tot)   
# jeff3.3    JNDC FP NUCLEAR DATA W.G.         EVAL-MAR90
# uncertainties: n
# # energies =   171
#   E(MeV)       xs(mb) 
 1.00000E-11    4.52481E+04
 1.00000E-07    5.15277E+03
 4.13990E-07    4.66894E+03
 5.31580E-07    4.55991E+03
 6.82560E-07    4.46034E+03
 8.76420E-07    4.36842E+03
 1.12540E-06    4.28296E+03
 1.44500E-06    4.20200E+03
 1.85540E-06    4.12471E+03
 2.37240E-06    4.04602E+03
 3.05900E-06    3.96679E+03
 3.92790E-06    3.88732E+03
 5.04350E-06    3.80577E+03
 6.47600E-06    3.72020E+03
 8.31530E-06    3.63197E+03
 1.06770E-05    3.54148E+03
 1.37100E-05    3.44935E+03
 1.76030E-05    3.35712E+03
 2.26030E-05    3.26530E+03
 2.92030E-05    3.17766E+03
 3.72670E-05    3.09545E+03
 4.78510E-05    3.01724E+03
 6.14420E-05    2.94396E+03
 7.88930E-05    2.87433E+03
 1.01300E-04    2.93971E+03
 1.30070E-04    2.73859E+03
 1.67020E-04    2.64996E+03
 2.14450E-04    2.52897E+03
 2.75360E-04    2.27367E+03
 3.53580E-04    4.04081E+04
 4.54000E-04    2.23688E+04
 5.82950E-04    4.40469E+03
 7.48520E-04    2.99479E+03
 9.61120E-04    7.43533E+03
 1.23410E-03    1.49145E+04
 1.58460E-03    5.05912E+03
 2.03470E-03    3.07025E+03
 2.24870E-03    1.29346E+04
 2.48520E-03    2.47535E+03
 2.61260E-03    3.59198E+04
 2.74650E-03    3.09886E+03
 3.03540E-03    4.99764E+03
 3.35460E-03    2.75591E+03
 3.70740E-03    1.41771E+04
 4.30740E-03    5.03068E+03
 5.53080E-03    9.83765E+03
 7.10170E-03    6.20250E+03
 9.11880E-03    7.82220E+03
 1.17090E-02    5.01570E+03
 1.50340E-02    4.93437E+03
 1.93050E-02    4.90178E+03
 2.18750E-02    4.90394E+03
 2.35790E-02    4.90576E+03
 2.41760E-02    4.90685E+03
 2.47880E-02    4.91242E+03
 2.60580E-02    4.92413E+03
 2.70000E-02    4.93726E+03
 2.85000E-02    4.96366E+03
 3.18280E-02    4.99669E+03
 3.43070E-02    5.04095E+03
 4.08680E-02    5.10066E+03
 4.63090E-02    5.29160E+03
 5.24750E-02    5.50830E+03
 5.65620E-02    5.39200E+03
 6.73790E-02    5.22809E+03
 7.20000E-02    5.01290E+03
 7.95000E-02    4.84826E+03
 8.25000E-02    4.75957E+03
 8.65170E-02    4.63525E+03
 9.80370E-02    4.59105E+03
 1.11090E-01    4.60744E+03
 1.16790E-01    4.61817E+03
 1.22770E-01    4.62945E+03
 1.29070E-01    4.64132E+03
 1.35690E-01    4.65378E+03
 1.42640E-01    4.66689E+03
 1.49960E-01    4.68210E+03
 1.57640E-01    4.70469E+03
 1.65730E-01    4.72926E+03
 1.74220E-01    4.75509E+03
 1.83160E-01    4.78226E+03
 1.92550E-01    4.81080E+03
 2.02420E-01    4.84150E+03
 2.12800E-01    4.87738E+03
 2.23710E-01    4.91561E+03
 2.35180E-01    4.95581E+03
 2.47240E-01    5.02028E+03
 2.73240E-01    5.08919E+03
 2.87250E-01    5.12570E+03
 2.94520E-01    5.14275E+03
 2.97200E-01    5.14956E+03
 2.98500E-01    5.15790E+03
 3.01970E-01    5.22334E+03
 3.33730E-01    5.34953E+03
 3.68830E-01    5.44720E+03
 3.87740E-01    5.51000E+03
 4.07620E-01    5.61073E+03
 4.50490E-01    5.74902E+03
 4.97870E-01    5.85505E+03
 5.23400E-01    5.93058E+03
 5.50230E-01    6.00997E+03
 5.78440E-01    6.09345E+03
 6.08100E-01    6.17518E+03
 6.39280E-01    6.25516E+03
 6.72060E-01    6.33923E+03
 7.06510E-01    6.42725E+03
 7.42740E-01    6.51070E+03
 7.80820E-01    6.59448E+03
 8.20850E-01    6.68227E+03
 8.62940E-01    6.76474E+03
 9.07180E-01    6.85358E+03
 9.61640E-01    6.93623E+03
 1.00260E+00    7.03524E+03
 1.10800E+00    7.13248E+03
 1.16480E+00    7.19923E+03
 1.22460E+00    7.26573E+03
 1.28730E+00    7.30815E+03
 1.35340E+00    7.34089E+03
 1.42270E+00    7.36827E+03
 1.49570E+00    7.37864E+03
 1.57240E+00    7.36614E+03
 1.65300E+00    7.35293E+03
 1.73770E+00    7.33256E+03
 1.82680E+00    7.28184E+03
 1.92050E+00    7.21641E+03
 2.01900E+00    7.12895E+03
 2.12250E+00    7.00712E+03
 2.23130E+00    6.87444E+03
 2.30690E+00    6.79210E+03
 2.34570E+00    6.75013E+03
 2.36530E+00    6.72178E+03
 2.38520E+00    6.65508E+03
 2.46600E+00    6.52691E+03
 2.59240E+00    6.36894E+03
 2.72530E+00    6.22087E+03
 2.86500E+00    6.06871E+03
 3.01190E+00    5.90858E+03
 3.16640E+00    5.74029E+03
 3.32870E+00    5.49559E+03
 3.67880E+00    5.18532E+03
 4.06570E+00    4.90973E+03
 4.49330E+00    4.71908E+03
 4.72370E+00    4.59626E+03
 4.96590E+00    4.50031E+03
 5.22050E+00    4.44657E+03
 5.48810E+00    4.39081E+03
 5.76950E+00    4.33527E+03
 6.06530E+00    4.32994E+03
 6.37630E+00    4.34444E+03
 6.59240E+00    4.35343E+03
 6.70320E+00    4.36582E+03
 7.04690E+00    4.39030E+03
 7.40820E+00    4.42500E+03
 7.78800E+00    4.46165E+03
 8.18730E+00    4.50017E+03
 8.60710E+00    4.54068E+03
 9.04840E+00    4.58326E+03
 9.51230E+00    4.63359E+03
 1.00000E+01    4.69485E+03
 1.05130E+01    4.76402E+03
 1.10520E+01    4.83428E+03
 1.16180E+01    4.90435E+03
 1.22140E+01    4.96023E+03
 1.28400E+01    5.01288E+03
 1.34990E+01    5.05231E+03
 1.38400E+01    5.07651E+03
 1.41910E+01    5.08790E+03
 1.45500E+01    5.09746E+03
 1.49180E+01    5.10481E+03
 1.56830E+01    5.10318E+03
 1.64870E+01    5.08861E+03
