# n + Ba137 : (n,el)    
# jeff3.3    JNDC FP NUCLEAR DATA W.G.         EVAL-MAR90
# uncertainties: n
# # energies =   171
#   E(MeV)       xs(mb) 
 1.00000E-11    6.24511E+03
 1.00000E-07    3.87349E+03
 4.13990E-07    3.85957E+03
 5.31580E-07    3.85243E+03
 6.82560E-07    3.84385E+03
 8.76420E-07    3.83308E+03
 1.12540E-06    3.81925E+03
 1.44500E-06    3.80292E+03
 1.85540E-06    3.78358E+03
 2.37240E-06    3.75853E+03
 3.05900E-06    3.72610E+03
 3.92790E-06    3.68593E+03
 5.04350E-06    3.64272E+03
 6.47600E-06    3.58900E+03
 8.31530E-06    3.52976E+03
 1.06770E-05    3.46215E+03
 1.37100E-05    3.39042E+03
 1.76030E-05    3.31421E+03
 2.26030E-05    3.23460E+03
 2.92030E-05    3.15622E+03
 3.72670E-05    3.08065E+03
 4.78510E-05    3.00720E+03
 6.14420E-05    2.93708E+03
 7.88930E-05    2.86902E+03
 1.01300E-04    2.79934E+03
 1.30070E-04    2.73509E+03
 1.67020E-04    2.64681E+03
 2.14450E-04    2.52558E+03
 2.75360E-04    2.26642E+03
 3.53580E-04    3.62028E+04
 4.54000E-04    1.90868E+04
 5.82950E-04    4.35885E+03
 7.48520E-04    2.99337E+03
 9.61120E-04    6.14024E+03
 1.23410E-03    1.40161E+04
 1.58460E-03    4.79879E+03
 2.03470E-03    3.06924E+03
 2.24870E-03    1.22868E+04
 2.48520E-03    2.42576E+03
 2.61260E-03    3.48170E+04
 2.74650E-03    3.09361E+03
 3.03540E-03    4.56594E+03
 3.35460E-03    2.68720E+03
 3.70740E-03    1.40294E+04
 4.30740E-03    4.79061E+03
 5.53080E-03    9.64625E+03
 7.10170E-03    6.09612E+03
 9.11880E-03    7.69561E+03
 1.17090E-02    4.92726E+03
 1.50340E-02    4.86281E+03
 1.93050E-02    4.83633E+03
 2.18750E-02    4.84092E+03
 2.35790E-02    4.84383E+03
 2.41760E-02    4.84545E+03
 2.47880E-02    4.85181E+03
 2.60580E-02    4.86442E+03
 2.70000E-02    4.87848E+03
 2.85000E-02    4.90636E+03
 3.18280E-02    4.94084E+03
 3.43070E-02    4.98710E+03
 4.08680E-02    5.04908E+03
 4.63090E-02    5.24033E+03
 5.24750E-02    5.45650E+03
 5.65620E-02    5.34339E+03
 6.73790E-02    5.18295E+03
 7.20000E-02    4.97115E+03
 7.95000E-02    4.80925E+03
 8.25000E-02    4.72219E+03
 8.65170E-02    4.60047E+03
 9.80370E-02    4.55835E+03
 1.11090E-01    4.57575E+03
 1.16790E-01    4.58709E+03
 1.22770E-01    4.59900E+03
 1.29070E-01    4.61154E+03
 1.35690E-01    4.62471E+03
 1.42640E-01    4.63856E+03
 1.49960E-01    4.65448E+03
 1.57640E-01    4.67754E+03
 1.65730E-01    4.70257E+03
 1.74220E-01    4.72888E+03
 1.83160E-01    4.75655E+03
 1.92550E-01    4.78562E+03
 2.02420E-01    4.81674E+03
 2.12800E-01    4.85235E+03
 2.23710E-01    4.89021E+03
 2.35180E-01    4.93000E+03
 2.47240E-01    4.99383E+03
 2.73240E-01    5.06147E+03
 2.87250E-01    5.09030E+03
 2.94520E-01    5.10202E+03
 2.97200E-01    5.10670E+03
 2.98500E-01    5.11230E+03
 3.01970E-01    5.16555E+03
 3.33730E-01    5.27499E+03
 3.68830E-01    5.36193E+03
 3.87740E-01    5.41659E+03
 4.07620E-01    5.50366E+03
 4.50490E-01    5.62800E+03
 4.97870E-01    5.72424E+03
 5.23400E-01    5.79236E+03
 5.50230E-01    5.86396E+03
 5.78440E-01    5.93925E+03
 6.08100E-01    6.01770E+03
 6.39280E-01    6.09113E+03
 6.72060E-01    6.16552E+03
 7.06510E-01    6.23616E+03
 7.42740E-01    6.30397E+03
 7.80820E-01    6.37525E+03
 8.20850E-01    6.44700E+03
 8.62940E-01    6.51220E+03
 9.07180E-01    6.58444E+03
 9.61640E-01    6.64480E+03
 1.00260E+00    6.71413E+03
 1.10800E+00    6.77699E+03
 1.16480E+00    6.82160E+03
 1.22460E+00    6.86583E+03
 1.28730E+00    6.87671E+03
 1.35340E+00    6.85277E+03
 1.42270E+00    6.82630E+03
 1.49570E+00    6.77520E+03
 1.57240E+00    6.70818E+03
 1.65300E+00    6.63774E+03
 1.73770E+00    6.55739E+03
 1.82680E+00    6.43886E+03
 1.92050E+00    6.28475E+03
 2.01900E+00    6.11764E+03
 2.12250E+00    5.90517E+03
 2.23130E+00    5.68509E+03
 2.30690E+00    5.55831E+03
 2.34570E+00    5.49623E+03
 2.36530E+00    5.45429E+03
 2.38520E+00    5.34958E+03
 2.46600E+00    5.14590E+03
 2.59240E+00    4.89400E+03
 2.72530E+00    4.65128E+03
 2.86500E+00    4.41727E+03
 3.01190E+00    4.18095E+03
 3.16640E+00    3.94240E+03
 3.32870E+00    3.61042E+03
 3.67880E+00    3.20991E+03
 4.06570E+00    2.90173E+03
 4.49330E+00    2.70357E+03
 4.72370E+00    2.57618E+03
 4.96590E+00    2.47615E+03
 5.22050E+00    2.41582E+03
 5.48810E+00    2.35421E+03
 5.76950E+00    2.29606E+03
 6.06530E+00    2.27887E+03
 6.37630E+00    2.28063E+03
 6.59240E+00    2.28172E+03
 6.70320E+00    2.28361E+03
 7.04690E+00    2.31355E+03
 7.40820E+00    2.36188E+03
 7.78800E+00    2.38784E+03
 8.18730E+00    2.41489E+03
 8.60710E+00    2.46318E+03
 9.04840E+00    2.51811E+03
 9.51230E+00    2.57023E+03
 1.00000E+01    2.61425E+03
 1.05130E+01    2.64943E+03
 1.10520E+01    2.70635E+03
 1.16180E+01    2.77666E+03
 1.22140E+01    2.82091E+03
 1.28400E+01    2.85783E+03
 1.34990E+01    2.88866E+03
 1.38400E+01    2.90812E+03
 1.41910E+01    2.91754E+03
 1.45500E+01    2.92643E+03
 1.49180E+01    2.93377E+03
 1.56830E+01    2.93309E+03
 1.64870E+01    2.91986E+03
