# n + Cd  0 : (n,n')
# jendl.ad   kunieda                           EVAL-Mar14
# uncertainties: n
# # energies =    94
#   E(MeV)          xs(mb) 
 1.50000E-01    0.00000E+00
 2.00000E-01    1.24918E-03
 2.47622E-01    6.94376E-03
 3.00000E-01    4.47646E+01
 3.45247E-01    1.09800E+02
 3.99818E-01    2.05934E+02
 4.00000E-01    2.06206E+02
 4.20510E-01    2.21470E+02
 5.00000E-01    2.66551E+02
 6.00000E-01    3.99739E+02
 6.25820E-01    4.31857E+02
 6.86669E-01    6.19582E+02
 7.00000E-01    6.69542E+02
 7.06366E-01    6.79097E+02
 7.11341E-01    6.86562E+02
 7.42694E-01    7.33885E+02
 7.59657E-01    7.61515E+02
 7.61766E-01    7.65070E+02
 8.00000E-01    8.30779E+02
 8.38820E-01    8.64588E+02
 8.61706E-01    8.83392E+02
 8.61707E-01    8.83393E+02
 8.63382E-01    8.84770E+02
 8.72665E-01    8.92936E+02
 8.74482E-01    8.94710E+02
 9.00000E-01    9.18328E+02
 9.76703E-01    9.62149E+02
 9.95502E-01    9.71696E+02
 1.00000E+00    9.73940E+02
 1.02601E+00    9.83220E+02
 1.02928E+00    9.84502E+02
 1.05628E+00    9.95034E+02
 1.06711E+00    9.99054E+02
 1.08806E+00    1.00678E+03
 1.12571E+00    1.02060E+03
 1.12858E+00    1.02169E+03
 1.14028E+00    1.02596E+03
 1.16147E+00    1.03713E+03
 1.19651E+00    1.05666E+03
 1.20000E+00    1.05867E+03
 1.20078E+00    1.05900E+03
 1.26802E+00    1.10935E+03
 1.28627E+00    1.12603E+03
 1.30061E+00    1.13853E+03
 1.31039E+00    1.14646E+03
 1.33363E+00    1.16692E+03
 1.33800E+00    1.17127E+03
 1.33869E+00    1.17198E+03
 1.34210E+00    1.17541E+03
 1.35190E+00    1.18528E+03
 1.35286E+00    1.18624E+03
 1.35353E+00    1.18694E+03
 1.40000E+00    1.23607E+03
 1.60000E+00    1.38475E+03
 1.80000E+00    1.44928E+03
 2.00000E+00    1.51798E+03
 2.20000E+00    1.57358E+03
 2.40000E+00    1.62609E+03
 2.70000E+00    1.67551E+03
 3.00000E+00    1.71032E+03
 3.50000E+00    1.76280E+03
 4.00000E+00    1.82999E+03
 4.50000E+00    1.90727E+03
 5.00000E+00    1.97459E+03
 5.50000E+00    2.01764E+03
 6.00000E+00    2.03063E+03
 6.50000E+00    2.02249E+03
 7.00000E+00    1.99742E+03
 7.50000E+00    1.94473E+03
 8.00000E+00    1.87002E+03
 8.50000E+00    1.78767E+03
 9.00000E+00    1.71828E+03
 9.50000E+00    1.63533E+03
 1.00000E+01    1.43997E+03
 1.05000E+01    1.17989E+03
 1.10000E+01    9.30602E+02
 1.15000E+01    7.45398E+02
 1.20000E+01    5.94573E+02
 1.25000E+01    4.91142E+02
 1.30000E+01    4.17542E+02
 1.35000E+01    3.64935E+02
 1.40000E+01    3.22452E+02
 1.45000E+01    2.93327E+02
 1.50000E+01    2.69936E+02
 1.55000E+01    2.50497E+02
 1.60000E+01    2.33606E+02
 1.65000E+01    2.18957E+02
 1.70000E+01    2.08702E+02
 1.75000E+01    1.99338E+02
 1.80000E+01    1.88368E+02
 1.85000E+01    1.79114E+02
 1.90000E+01    1.72971E+02
 1.95000E+01    1.65295E+02
 2.00000E+01    1.58956E+02
