# n + Tb159 : (n,tot)   
# jeff3.3    N.Iwamoto,A.Zukeran               EVAL-Dec09
# uncertainties: n
# # energies =   171
#   E(MeV)       xs(mb) 
 1.00000E-11    2.60127E+05
 1.00000E-07    1.53390E+04
 4.13990E-07    1.24735E+04
 5.31580E-07    1.18906E+04
 6.82560E-07    1.14059E+04
 8.76420E-07    1.10323E+04
 1.12540E-06    1.08162E+04
 1.44500E-06    1.09065E+04
 1.85540E-06    1.19474E+04
 2.37240E-06    2.27012E+04
 3.05900E-06    2.91237E+05
 3.92790E-06    2.73477E+04
 5.04350E-06    1.41746E+04
 6.47600E-06    8.76888E+03
 8.31530E-06    2.62783E+04
 1.06770E-05    6.21948E+05
 1.37100E-05    1.51574E+04
 1.76030E-05    3.33534E+04
 2.26030E-05    1.06564E+05
 2.92030E-05    3.17085E+04
 3.72670E-05    1.09119E+05
 4.78510E-05    2.91597E+04
 6.14420E-05    8.02738E+04
 7.88930E-05    4.52169E+04
 1.01300E-04    5.86729E+04
 1.30070E-04    1.08462E+05
 1.67020E-04    2.13772E+04
 2.14450E-04    4.67738E+04
 2.75360E-04    4.77764E+04
 3.53580E-04    3.90577E+04
 4.54000E-04    4.81518E+04
 5.82950E-04    4.65637E+04
 7.48520E-04    2.79732E+04
 9.61120E-04    3.31615E+04
 1.23410E-03    2.46985E+04
 1.58460E-03    2.26556E+04
 2.03470E-03    2.13213E+04
 2.24870E-03    2.05973E+04
 2.48520E-03    2.00697E+04
 2.61260E-03    1.97260E+04
 2.74650E-03    1.92226E+04
 3.03540E-03    1.85700E+04
 3.35460E-03    1.79397E+04
 3.70740E-03    1.71990E+04
 4.30740E-03    1.62069E+04
 5.53080E-03    1.50639E+04
 7.10170E-03    1.40664E+04
 9.11880E-03    1.32144E+04
 1.17090E-02    1.25191E+04
 1.50340E-02    1.18697E+04
 1.93050E-02    1.14120E+04
 2.18750E-02    1.11941E+04
 2.35790E-02    1.10873E+04
 2.41760E-02    1.10345E+04
 2.47880E-02    1.09559E+04
 2.60580E-02    1.08665E+04
 2.70000E-02    1.07741E+04
 2.85000E-02    1.06103E+04
 3.18280E-02    1.04461E+04
 3.43070E-02    1.02332E+04
 4.08680E-02    9.98329E+03
 4.63090E-02    9.78172E+03
 5.24750E-02    9.63864E+03
 5.65620E-02    9.46926E+03
 6.73790E-02    9.30869E+03
 7.20000E-02    9.20269E+03
 7.95000E-02    9.11674E+03
 8.25000E-02    9.06513E+03
 8.65170E-02    8.96089E+03
 9.80370E-02    8.81298E+03
 1.11090E-01    8.71240E+03
 1.16790E-01    8.65555E+03
 1.22770E-01    8.59905E+03
 1.29070E-01    8.54543E+03
 1.35690E-01    8.49558E+03
 1.42640E-01    8.44327E+03
 1.49960E-01    8.38829E+03
 1.57640E-01    8.33063E+03
 1.65730E-01    8.27872E+03
 1.74220E-01    8.22937E+03
 1.83160E-01    8.17747E+03
 1.92550E-01    8.12293E+03
 2.02420E-01    8.07109E+03
 2.12800E-01    8.02735E+03
 2.23710E-01    7.98165E+03
 2.35180E-01    7.93360E+03
 2.47240E-01    7.85912E+03
 2.73240E-01    7.79236E+03
 2.87250E-01    7.75895E+03
 2.94520E-01    7.74336E+03
 2.97200E-01    7.73713E+03
 2.98500E-01    7.72968E+03
 3.01970E-01    7.68415E+03
 3.33730E-01    7.61380E+03
 3.68830E-01    7.55750E+03
 3.87740E-01    7.51790E+03
 4.07620E-01    7.47745E+03
 4.50490E-01    7.42698E+03
 4.97870E-01    7.38636E+03
 5.23400E-01    7.36791E+03
 5.50230E-01    7.35260E+03
 5.78440E-01    7.33651E+03
 6.08100E-01    7.31970E+03
 6.39280E-01    7.30880E+03
 6.72060E-01    7.30141E+03
 7.06510E-01    7.29365E+03
 7.42740E-01    7.28548E+03
 7.80820E-01    7.27690E+03
 8.20850E-01    7.26792E+03
 8.62940E-01    7.25939E+03
 9.07180E-01    7.25006E+03
 9.61640E-01    7.24101E+03
 1.00260E+00    7.22724E+03
 1.10800E+00    7.20733E+03
 1.16480E+00    7.18945E+03
 1.22460E+00    7.16846E+03
 1.28730E+00    7.14000E+03
 1.35340E+00    7.10967E+03
 1.42270E+00    7.07781E+03
 1.49570E+00    7.04081E+03
 1.57240E+00    6.99027E+03
 1.65300E+00    6.93622E+03
 1.73770E+00    6.87940E+03
 1.82680E+00    6.82094E+03
 1.92050E+00    6.76286E+03
 2.01900E+00    6.69613E+03
 2.12250E+00    6.61758E+03
 2.23130E+00    6.54911E+03
 2.30690E+00    6.50663E+03
 2.34570E+00    6.48497E+03
 2.36530E+00    6.47043E+03
 2.38520E+00    6.43503E+03
 2.46600E+00    6.36231E+03
 2.59240E+00    6.27196E+03
 2.72530E+00    6.17802E+03
 2.86500E+00    6.07962E+03
 3.01190E+00    5.98456E+03
 3.16640E+00    5.88817E+03
 3.32870E+00    5.74352E+03
 3.67880E+00    5.55866E+03
 4.06570E+00    5.38203E+03
 4.49330E+00    5.25672E+03
 4.72370E+00    5.17666E+03
 4.96590E+00    5.10110E+03
 5.22050E+00    5.03617E+03
 5.48810E+00    4.97273E+03
 5.76950E+00    4.92077E+03
 6.06530E+00    4.87336E+03
 6.37630E+00    4.84188E+03
 6.59240E+00    4.82344E+03
 6.70320E+00    4.80708E+03
 7.04690E+00    4.78574E+03
 7.40820E+00    4.77482E+03
 7.78800E+00    4.77152E+03
 8.18730E+00    4.78223E+03
 8.60710E+00    4.79697E+03
 9.04840E+00    4.82337E+03
 9.51230E+00    4.85374E+03
 1.00000E+01    4.89047E+03
 1.05130E+01    4.93308E+03
 1.10520E+01    4.97798E+03
 1.16180E+01    5.02451E+03
 1.22140E+01    5.06884E+03
 1.28400E+01    5.11021E+03
 1.34990E+01    5.13661E+03
 1.38400E+01    5.15312E+03
 1.41910E+01    5.16437E+03
 1.45500E+01    5.17485E+03
 1.49180E+01    5.18389E+03
 1.56830E+01    5.18452E+03
 1.64870E+01    5.16955E+03
