# n + Tb159 : (n,el)    
# jeff3.3    N.Iwamoto,A.Zukeran               EVAL-Dec09
# uncertainties: n
# # energies =   171
#   E(MeV)       xs(mb) 
 1.00000E-11    1.06473E+04
 1.00000E-07    6.83242E+03
 4.13990E-07    6.76823E+03
 5.31580E-07    6.73396E+03
 6.82560E-07    6.68941E+03
 8.76420E-07    6.62940E+03
 1.12540E-06    6.54647E+03
 1.44500E-06    6.42663E+03
 1.85540E-06    6.23419E+03
 2.37240E-06    5.73957E+03
 3.05900E-06    7.47114E+03
 3.92790E-06    6.49446E+03
 5.04350E-06    6.14756E+03
 6.47600E-06    5.36300E+03
 8.31530E-06    3.67521E+03
 1.06770E-05    5.36679E+04
 1.37100E-05    7.56710E+03
 1.76030E-05    6.25934E+03
 2.26030E-05    1.04580E+04
 2.92030E-05    6.62844E+03
 3.72670E-05    1.45417E+04
 4.78510E-05    6.96390E+03
 6.14420E-05    1.39889E+04
 7.88930E-05    1.34014E+04
 1.01300E-04    1.80475E+04
 1.30070E-04    5.20846E+04
 1.67020E-04    8.51620E+03
 2.14450E-04    1.85520E+04
 2.75360E-04    2.02227E+04
 3.53580E-04    1.81061E+04
 4.54000E-04    2.61234E+04
 5.82950E-04    2.87513E+04
 7.48520E-04    1.80729E+04
 9.61120E-04    2.33613E+04
 1.23410E-03    1.57089E+04
 1.58460E-03    1.50276E+04
 2.03470E-03    1.45645E+04
 2.24870E-03    1.42635E+04
 2.48520E-03    1.40314E+04
 2.61260E-03    1.38794E+04
 2.74650E-03    1.36539E+04
 3.03540E-03    1.33587E+04
 3.35460E-03    1.30699E+04
 3.70740E-03    1.27237E+04
 4.30740E-03    1.22345E+04
 5.53080E-03    1.16555E+04
 7.10170E-03    1.11190E+04
 9.11880E-03    1.06329E+04
 1.17090E-02    1.02173E+04
 1.50340E-02    9.82233E+03
 1.93050E-02    9.53993E+03
 2.18750E-02    9.40312E+03
 2.35790E-02    9.33623E+03
 2.41760E-02    9.30223E+03
 2.47880E-02    9.25237E+03
 2.60580E-02    9.19562E+03
 2.70000E-02    9.13689E+03
 2.85000E-02    9.03297E+03
 3.18280E-02    8.92949E+03
 3.43070E-02    8.79563E+03
 4.08680E-02    8.63687E+03
 4.63090E-02    8.50826E+03
 5.24750E-02    8.41910E+03
 5.65620E-02    8.23437E+03
 6.73790E-02    8.05018E+03
 7.20000E-02    7.94932E+03
 7.95000E-02    7.86929E+03
 8.25000E-02    7.82152E+03
 8.65170E-02    7.72449E+03
 9.80370E-02    7.58436E+03
 1.11090E-01    7.48723E+03
 1.16790E-01    7.43273E+03
 1.22770E-01    7.37748E+03
 1.29070E-01    7.32366E+03
 1.35690E-01    7.27134E+03
 1.42640E-01    7.21641E+03
 1.49960E-01    7.15867E+03
 1.57640E-01    7.09796E+03
 1.65730E-01    7.03414E+03
 1.74220E-01    6.97090E+03
 1.83160E-01    6.91279E+03
 1.92550E-01    6.85200E+03
 2.02420E-01    6.79029E+03
 2.12800E-01    6.73683E+03
 2.23710E-01    6.68228E+03
 2.35180E-01    6.62493E+03
 2.47240E-01    6.53855E+03
 2.73240E-01    6.45781E+03
 2.87250E-01    6.41567E+03
 2.94520E-01    6.39600E+03
 2.97200E-01    6.38814E+03
 2.98500E-01    6.37875E+03
 3.01970E-01    6.32177E+03
 3.33730E-01    6.21282E+03
 3.68830E-01    6.09323E+03
 3.87740E-01    6.00251E+03
 4.07620E-01    5.89316E+03
 4.50490E-01    5.75867E+03
 4.97870E-01    5.66840E+03
 5.23400E-01    5.61156E+03
 5.50230E-01    5.55447E+03
 5.78440E-01    5.49399E+03
 6.08100E-01    5.42770E+03
 6.39280E-01    5.35757E+03
 6.72060E-01    5.28602E+03
 7.06510E-01    5.22931E+03
 7.42740E-01    5.17394E+03
 7.80820E-01    5.11834E+03
 8.20850E-01    5.06935E+03
 8.62940E-01    5.01869E+03
 9.07180E-01    4.96087E+03
 9.61640E-01    4.90472E+03
 1.00260E+00    4.81970E+03
 1.10800E+00    4.72375E+03
 1.16480E+00    4.65792E+03
 1.22460E+00    4.59323E+03
 1.28730E+00    4.52530E+03
 1.35340E+00    4.45578E+03
 1.42270E+00    4.38954E+03
 1.49570E+00    4.32046E+03
 1.57240E+00    4.24787E+03
 1.65300E+00    4.17160E+03
 1.73770E+00    4.09671E+03
 1.82680E+00    4.02297E+03
 1.92050E+00    3.94544E+03
 2.01900E+00    3.86396E+03
 2.12250E+00    3.77874E+03
 2.23130E+00    3.70840E+03
 2.30690E+00    3.66560E+03
 2.34570E+00    3.64378E+03
 2.36530E+00    3.62904E+03
 2.38520E+00    3.59163E+03
 2.46600E+00    3.51459E+03
 2.59240E+00    3.42245E+03
 2.72530E+00    3.32865E+03
 2.86500E+00    3.23002E+03
 3.01190E+00    3.12864E+03
 3.16640E+00    3.02910E+03
 3.32870E+00    2.88417E+03
 3.67880E+00    2.69724E+03
 4.06570E+00    2.52753E+03
 4.49330E+00    2.41269E+03
 4.72370E+00    2.34658E+03
 4.96590E+00    2.28553E+03
 5.22050E+00    2.23446E+03
 5.48810E+00    2.19014E+03
 5.76950E+00    2.15473E+03
 6.06530E+00    2.12842E+03
 6.37630E+00    2.11136E+03
 6.59240E+00    2.10468E+03
 6.70320E+00    2.09946E+03
 7.04690E+00    2.10029E+03
 7.40820E+00    2.10856E+03
 7.78800E+00    2.12889E+03
 8.18730E+00    2.15766E+03
 8.60710E+00    2.18983E+03
 9.04840E+00    2.23261E+03
 9.51230E+00    2.28261E+03
 1.00000E+01    2.33758E+03
 1.05130E+01    2.39741E+03
 1.10520E+01    2.45866E+03
 1.16180E+01    2.52138E+03
 1.22140E+01    2.58046E+03
 1.28400E+01    2.63656E+03
 1.34990E+01    2.67305E+03
 1.38400E+01    2.69663E+03
 1.41910E+01    2.71412E+03
 1.45500E+01    2.73106E+03
 1.49180E+01    2.74970E+03
 1.56830E+01    2.76291E+03
 1.64870E+01    2.76069E+03
