# n + Cs133 : (n,t)m    
# jendl.ad   N.Iwamoto                         EVAL-Apr14
# uncertainties: n
# # energies =    26
#   E(MeV)       xs(mb) 
 6.74900E+00    0.00000E+00
 8.00000E+00    4.54720E-19
 8.50000E+00    3.04830E-14
 9.00000E+00    2.36910E-11
 9.50000E+00    1.85780E-09
 1.00000E+01    3.79030E-08
 1.05000E+01    3.33090E-07
 1.10000E+01    1.72829E-06
 1.15000E+01    6.39344E-06
 1.20000E+01    2.11783E-05
 1.25000E+01    7.36726E-05
 1.30000E+01    2.65187E-04
 1.35000E+01    8.63551E-04
 1.40000E+01    2.54300E-03
 1.45000E+01    6.47949E-03
 1.50000E+01    1.43833E-02
 1.55000E+01    2.81203E-02
 1.60000E+01    4.95928E-02
 1.65000E+01    7.93792E-02
 1.70000E+01    1.18330E-01
 1.75000E+01    1.66341E-01
 1.80000E+01    2.22745E-01
 1.85000E+01    2.87193E-01
 1.90000E+01    3.58513E-01
 1.95000E+01    4.30799E-01
 2.00000E+01    5.16029E-01
