# n + Cs133 : (n,xd)    
# jendl.ad   N.Iwamoto                         EVAL-Apr14
# 
# # energies =    88
#   E(MeV)        xs(mb) 
 8.16117E-02    0.00000E+00
 9.00000E-02    0.00000E+00
 1.00000E-01    0.00000E+00
 1.05000E-01    0.00000E+00
 1.10000E-01    0.00000E+00
 1.20000E-01    0.00000E+00
 1.30000E-01    0.00000E+00
 1.40000E-01    0.00000E+00
 1.50000E-01    0.00000E+00
 1.60000E-01    0.00000E+00
 1.61832E-01    0.00000E+00
 1.70000E-01    0.00000E+00
 1.80000E-01    0.00000E+00
 1.90000E-01    0.00000E+00
 2.00000E-01    0.00000E+00
 2.25000E-01    0.00000E+00
 2.50000E-01    0.00000E+00
 2.75000E-01    0.00000E+00
 3.00000E-01    0.00000E+00
 3.86764E-01    0.00000E+00
 4.00000E-01    0.00000E+00
 4.40329E-01    0.00000E+00
 5.00000E-01    0.00000E+00
 6.00000E-01    0.00000E+00
 6.37361E-01    0.00000E+00
 6.45250E-01    0.00000E+00
 7.00000E-01    0.00000E+00
 7.10895E-01    0.00000E+00
 7.33827E-01    0.00000E+00
 7.73536E-01    0.00000E+00
 7.94766E-01    0.00000E+00
 8.00000E-01    0.00000E+00
 8.25276E-01    0.00000E+00
 8.78436E-01    0.00000E+00
 8.78437E-01    0.00000E+00
 9.00000E-01    0.00000E+00
 9.23042E-01    0.00000E+00
 9.23043E-01    0.00000E+00
 9.48746E-01    0.00000E+00
 1.00000E+00    0.00000E+00
 1.10000E+00    0.00000E+00
 1.20000E+00    0.00000E+00
 1.30000E+00    0.00000E+00
 1.40000E+00    0.00000E+00
 1.50000E+00    0.00000E+00
 1.60000E+00    0.00000E+00
 1.70000E+00    0.00000E+00
 1.80000E+00    0.00000E+00
 1.90000E+00    0.00000E+00
 2.00000E+00    0.00000E+00
 2.25000E+00    0.00000E+00
 2.50000E+00    0.00000E+00
 2.75000E+00    0.00000E+00
 3.00000E+00    0.00000E+00
 3.50000E+00    0.00000E+00
 4.00000E+00    4.11825E-18
 4.50000E+00    2.18908E-17
 5.00000E+00    5.07480E-14
 5.50000E+00    1.92510E-12
 6.00000E+00    8.54680E-10
 6.50000E+00    4.31380E-08
 7.00000E+00    6.20980E-07
 7.50000E+00    4.21345E-06
 8.00000E+00    1.83780E-05
 8.50000E+00    7.01466E-05
 9.00000E+00    2.97095E-04
 9.50000E+00    1.28735E-03
 1.00000E+01    3.74611E-03
 1.05000E+01    1.20753E-02
 1.10000E+01    3.48729E-02
 1.15000E+01    7.33872E-02
 1.20000E+01    1.41712E-01
 1.25000E+01    2.50913E-01
 1.30000E+01    3.62995E-01
 1.35000E+01    5.62997E-01
 1.40000E+01    7.47462E-01
 1.45000E+01    9.65193E-01
 1.50000E+01    1.21545E+00
 1.55000E+01    1.49970E+00
 1.60000E+01    1.70238E+00
 1.65000E+01    2.04192E+00
 1.70000E+01    2.28303E+00
 1.75000E+01    2.67655E+00
 1.80000E+01    2.95525E+00
 1.85000E+01    3.24494E+00
 1.90000E+01    3.55162E+00
 1.95000E+01    4.02555E+00
 2.00000E+01    4.35742E+00
