# n + Zn  0 : (n,xa)
# jendl.ad   N.Iwamoto                         EVAL-Apr14
#
# # energies =   112
#   E(MeV)          xs(mb) 
 1.05000E-01    7.97578E-02
 1.10000E-01    7.97467E-02
 1.20000E-01    7.77639E-02
 1.30000E-01    8.50826E-02
 1.40000E-01    9.35599E-02
 1.50000E-01    9.47745E-02
 1.60000E-01    9.62153E-02
 1.70000E-01    9.79082E-02
 1.80000E-01    9.97312E-02
 1.90000E-01    1.01967E-01
 2.00000E-01    1.04222E-01
 2.25000E-01    1.10360E-01
 2.50000E-01    1.17655E-01
 2.75000E-01    1.26599E-01
 3.00000E-01    1.36986E-01
 4.00000E-01    1.91542E-01
 5.00000E-01    2.73210E-01
 6.00000E-01    3.91395E-01
 7.00000E-01    5.59786E-01
 8.00000E-01    7.97383E-01
 9.00000E-01    1.13014E+00
 1.00000E+00    1.58897E+00
 1.00719E+00    1.62671E+00
 1.00720E+00    1.62676E+00
 1.10000E+00    1.26811E+00
 1.20000E+00    1.46291E+00
 1.30000E+00    1.79208E+00
 1.40000E+00    2.24483E+00
 1.50000E+00    2.84257E+00
 1.60000E+00    3.63392E+00
 1.70000E+00    4.65204E+00
 1.80000E+00    5.93626E+00
 1.82774E+00    6.34626E+00
 1.90000E+00    6.80460E+00
 1.94045E+00    7.27948E+00
 2.00000E+00    7.84619E+00
 2.25000E+00    1.24915E+01
 2.34310E+00    1.49812E+01
 2.50000E+00    1.91418E+01
 2.65060E+00    2.51920E+01
 2.75000E+00    2.96803E+01
 2.77971E+00    3.11900E+01
 2.83788E+00    3.40533E+01
 3.00000E+00    4.08877E+01
 3.02680E+00    4.23838E+01
 3.04569E+00    4.30803E+01
 3.05311E+00    4.27918E+01
 3.11966E+00    4.43793E+01
 3.12633E+00    4.45384E+01
 3.14341E+00    4.50473E+01
 3.23706E+00    4.85404E+01
 3.24724E+00    4.87491E+01
 3.25649E+00    4.89388E+01
 3.29112E+00    4.97995E+01
 3.31346E+00    5.03877E+01
 3.33683E+00    5.08709E+01
 3.34920E+00    5.11267E+01
 3.35902E+00    5.11133E+01
 3.35903E+00    5.11135E+01
 3.37421E+00    5.13433E+01
 3.41906E+00    5.20222E+01
 3.42299E+00    5.20040E+01
 3.46888E+00    5.25816E+01
 3.47919E+00    5.27113E+01
 3.50000E+00    5.24834E+01
 3.50677E+00    5.25942E+01
 3.51309E+00    5.26976E+01
 3.51967E+00    5.28053E+01
 3.55522E+00    5.33870E+01
 3.59453E+00    5.40324E+01
 3.60296E+00    5.41713E+01
 3.60835E+00    5.42601E+01
 3.64360E+00    5.49032E+01
 3.65396E+00    5.51106E+01
 3.65883E+00    5.52081E+01
 3.66340E+00    5.52996E+01
 3.67783E+00    5.55885E+01
 3.68423E+00    5.57166E+01
 3.68565E+00    5.57450E+01
 4.00000E+00    5.93405E+01
 4.50000E+00    6.41144E+01
 5.00000E+00    7.17149E+01
 5.50000E+00    7.37384E+01
 6.00000E+00    7.49021E+01
 6.50000E+00    7.55263E+01
 7.00000E+00    7.46740E+01
 7.50000E+00    7.51377E+01
 8.00000E+00    7.66113E+01
 8.50000E+00    7.88344E+01
 9.00000E+00    8.28750E+01
 9.50000E+00    9.11506E+01
 1.00000E+01    1.06351E+02
 1.05000E+01    1.28305E+02
 1.10000E+01    1.54871E+02
 1.15000E+01    1.83796E+02
 1.20000E+01    2.11452E+02
 1.25000E+01    2.35507E+02
 1.30000E+01    2.52151E+02
 1.35000E+01    2.60797E+02
 1.40000E+01    2.63632E+02
 1.45000E+01    2.63521E+02
 1.50000E+01    2.60180E+02
 1.55000E+01    2.56308E+02
 1.60000E+01    2.53478E+02
 1.65000E+01    2.51477E+02
 1.70000E+01    2.50939E+02
 1.75000E+01    2.51263E+02
 1.80000E+01    2.52191E+02
 1.85000E+01    2.53068E+02
 1.90000E+01    2.53957E+02
 1.95000E+01    2.54418E+02
 2.00000E+01    2.54611E+02
