# n + Yb172 : (n,n'17)  
# tendl.2019 A.J. Koning and D. Rochman        EVAL-NOV19
# uncertainties: n
# # energies =    76
#   E(MeV)       xs(mb) 
 1.41325E+00    0.00000E+00
 1.47447E+00    1.58737E+01
 1.48545E+00    1.87207E+01
 1.50488E+00    2.37587E+01
 1.51904E+00    2.74303E+01
 1.54652E+00    3.45556E+01
 1.54965E+00    3.53671E+01
 1.55824E+00    3.75945E+01
 1.55953E+00    3.79289E+01
 1.56331E+00    3.89091E+01
 1.56672E+00    3.97932E+01
 1.60000E+00    4.84224E+01
 1.60926E+00    4.82815E+01
 1.61793E+00    4.81495E+01
 1.64272E+00    4.77722E+01
 1.80000E+00    4.53782E+01
 2.00000E+00    3.43812E+01
 2.20000E+00    2.40701E+01
 2.40000E+00    1.62915E+01
 2.60000E+00    1.08511E+01
 2.80000E+00    7.17601E+00
 3.00000E+00    4.74141E+00
 3.20000E+00    3.18237E+00
 3.40000E+00    2.12490E+00
 3.60000E+00    1.43115E+00
 3.80000E+00    9.72854E-01
 4.00000E+00    6.66951E-01
 4.20000E+00    4.60733E-01
 4.40000E+00    3.24887E-01
 4.60000E+00    2.28330E-01
 4.80000E+00    1.60440E-01
 5.00000E+00    1.13495E-01
 5.20000E+00    8.07410E-02
 5.40000E+00    5.77533E-02
 5.60000E+00    4.15363E-02
 5.80000E+00    2.98452E-02
 6.00000E+00    2.16002E-02
 6.20000E+00    1.57081E-02
 6.40000E+00    1.14741E-02
 6.60000E+00    8.43820E-03
 6.80000E+00    6.23326E-03
 7.00000E+00    4.62460E-03
 7.20000E+00    3.44778E-03
 7.40000E+00    2.57748E-03
 7.60000E+00    1.93609E-03
 7.80000E+00    1.45848E-03
 8.00000E+00    1.10194E-03
 8.50000E+00    5.53720E-04
 9.00000E+00    2.81713E-04
 9.50000E+00    1.44984E-04
 1.00000E+01    7.55289E-05
 1.05000E+01    3.98563E-05
 1.10000E+01    2.13087E-05
 1.15000E+01    1.15389E-05
 1.20000E+01    6.32717E-06
 1.25000E+01    3.50860E-06
 1.30000E+01    1.96667E-06
 1.35000E+01    1.11397E-06
 1.40000E+01    6.37350E-07
 1.45000E+01    3.67910E-07
 1.50000E+01    2.14550E-07
 1.60000E+01    7.48090E-08
 1.70000E+01    2.69750E-08
 1.80000E+01    9.94540E-09
 1.90000E+01    3.78940E-09
 2.00000E+01    1.48080E-09
 2.10000E+01    5.91510E-10
 2.20000E+01    2.41440E-10
 2.30000E+01    1.00800E-10
 2.40000E+01    4.30440E-11
 2.50000E+01    1.86700E-11
 2.60000E+01    8.23070E-12
 2.70000E+01    3.67350E-12
 2.80000E+01    1.66460E-12
 2.90000E+01    7.66450E-13
 3.00000E+01    3.57360E-13
