# n + Yb172 : (n,n'05)  
# tendl.2019 A.J. Koning and D. Rochman        EVAL-NOV19
# uncertainties: n
# # energies =    90
#   E(MeV)       xs(mb) 
 1.04903E+00    0.00000E+00
 1.12443E+00    5.51318E+01
 1.16171E+00    8.23907E+01
 1.17926E+00    9.52231E+01
 1.20000E+00    1.10388E+02
 1.20550E+00    1.10481E+02
 1.22889E+00    1.10876E+02
 1.27044E+00    1.11577E+02
 1.29409E+00    1.11977E+02
 1.33850E+00    1.12727E+02
 1.36089E+00    1.13105E+02
 1.37811E+00    1.13395E+02
 1.38389E+00    1.13493E+02
 1.40000E+00    1.13765E+02
 1.41325E+00    1.12600E+02
 1.47447E+00    1.07220E+02
 1.48545E+00    1.06255E+02
 1.50488E+00    1.04548E+02
 1.51904E+00    1.03303E+02
 1.54652E+00    1.00888E+02
 1.54965E+00    1.00613E+02
 1.55824E+00    9.98581E+01
 1.55953E+00    9.97447E+01
 1.56331E+00    9.94125E+01
 1.56672E+00    9.91128E+01
 1.60000E+00    9.61880E+01
 1.60926E+00    9.49391E+01
 1.61793E+00    9.37698E+01
 1.64272E+00    9.04263E+01
 1.80000E+00    6.92138E+01
 2.00000E+00    4.67302E+01
 2.20000E+00    3.05666E+01
 2.40000E+00    1.97165E+01
 2.60000E+00    1.26727E+01
 2.80000E+00    8.17071E+00
 3.00000E+00    5.30687E+00
 3.20000E+00    3.52658E+00
 3.40000E+00    2.33640E+00
 3.60000E+00    1.56405E+00
 3.80000E+00    1.05736E+00
 4.00000E+00    7.27954E-01
 4.20000E+00    5.04498E-01
 4.40000E+00    3.48166E-01
 4.60000E+00    2.42369E-01
 4.80000E+00    1.69829E-01
 5.00000E+00    1.19730E-01
 5.20000E+00    8.49146E-02
 5.40000E+00    6.05663E-02
 5.60000E+00    4.34476E-02
 5.80000E+00    3.11430E-02
 6.00000E+00    2.24884E-02
 6.20000E+00    1.63209E-02
 6.40000E+00    1.18987E-02
 6.60000E+00    8.73439E-03
 6.80000E+00    6.44113E-03
 7.00000E+00    4.77101E-03
 7.20000E+00    3.55143E-03
 7.40000E+00    2.65119E-03
 7.60000E+00    1.98870E-03
 7.80000E+00    1.49638E-03
 8.00000E+00    1.12939E-03
 8.50000E+00    5.66329E-04
 9.00000E+00    2.87701E-04
 9.50000E+00    1.47895E-04
 1.00000E+01    7.69695E-05
 1.05000E+01    4.05813E-05
 1.10000E+01    2.16792E-05
 1.15000E+01    1.17306E-05
 1.20000E+01    6.42724E-06
 1.25000E+01    3.56113E-06
 1.30000E+01    1.99443E-06
 1.35000E+01    1.12880E-06
 1.40000E+01    6.45390E-07
 1.45000E+01    3.72350E-07
 1.50000E+01    2.17040E-07
 1.60000E+01    7.56330E-08
 1.70000E+01    2.72590E-08
 1.80000E+01    1.00450E-08
 1.90000E+01    3.82550E-09
 2.00000E+01    1.49430E-09
 2.10000E+01    5.96670E-10
 2.20000E+01    2.43460E-10
 2.30000E+01    1.01610E-10
 2.40000E+01    4.33740E-11
 2.50000E+01    1.88070E-11
 2.60000E+01    8.28810E-12
 2.70000E+01    3.69780E-12
 2.80000E+01    1.67500E-12
 2.90000E+01    7.71040E-13
 3.00000E+01    3.59420E-13
