# n + Yb172 : (n,xa)    
# tendl.2019 A.J. Koning and D. Rochman        EVAL-NOV19
# 
# # energies =   134
#   E(MeV)        xs(mb) 
 7.92049E-02    2.62372E-07
 1.00000E-01    2.02680E-07
 2.00000E-01    1.49830E-07
 2.61795E-01    1.78521E-07
 3.00000E-01    1.96260E-07
 4.00000E-01    2.84090E-07
 5.00000E-01    3.93880E-07
 5.43145E-01    4.46845E-07
 6.00000E-01    5.16640E-07
 7.00000E-01    6.58639E-07
 8.00000E-01    9.41260E-07
 9.00000E-01    1.41985E-06
 9.17471E-01    1.53487E-06
 1.00000E+00    2.07821E-06
 1.04903E+00    2.34659E-06
 1.12443E+00    2.75930E-06
 1.16171E+00    2.96336E-06
 1.17926E+00    3.05943E-06
 1.20000E+00    3.17295E-06
 1.20550E+00    3.20637E-06
 1.22889E+00    3.34848E-06
 1.27044E+00    3.60093E-06
 1.29409E+00    3.74462E-06
 1.33850E+00    4.01444E-06
 1.36089E+00    4.15048E-06
 1.37811E+00    4.25510E-06
 1.38389E+00    4.29022E-06
 1.40000E+00    4.38810E-06
 1.41325E+00    4.52420E-06
 1.47447E+00    5.15302E-06
 1.48545E+00    5.26580E-06
 1.50488E+00    5.46538E-06
 1.51904E+00    5.61083E-06
 1.54652E+00    5.89309E-06
 1.54965E+00    5.92524E-06
 1.55824E+00    6.01347E-06
 1.55953E+00    6.02672E-06
 1.56331E+00    6.06555E-06
 1.56672E+00    6.10057E-06
 1.60000E+00    6.44241E-06
 1.60926E+00    6.52193E-06
 1.61793E+00    6.59638E-06
 1.64272E+00    6.80925E-06
 1.80000E+00    8.15981E-06
 2.00000E+00    1.13479E-05
 2.20000E+00    1.41000E-05
 2.40000E+00    1.82283E-05
 2.60000E+00    2.36969E-05
 2.80000E+00    2.88509E-05
 3.00000E+00    3.73751E-05
 3.20000E+00    4.73315E-05
 3.40000E+00    5.87967E-05
 3.60000E+00    7.44121E-05
 3.80000E+00    9.00372E-05
 4.00000E+00    1.12740E-04
 4.20000E+00    1.38979E-04
 4.40000E+00    1.70723E-04
 4.60000E+00    2.14386E-04
 4.80000E+00    2.61097E-04
 5.00000E+00    3.25611E-04
 5.20000E+00    4.05986E-04
 5.40000E+00    4.98817E-04
 5.60000E+00    6.29144E-04
 5.80000E+00    7.66886E-04
 6.00000E+00    9.52360E-04
 6.20000E+00    1.20992E-03
 6.40000E+00    1.48532E-03
 6.60000E+00    1.90337E-03
 6.80000E+00    2.32669E-03
 7.00000E+00    2.92603E-03
 7.20000E+00    3.82019E-03
 7.40000E+00    4.69719E-03
 7.60000E+00    6.07009E-03
 7.80000E+00    7.46373E-03
 8.00000E+00    9.38450E-03
 8.50000E+00    1.68845E-02
 9.00000E+00    2.99990E-02
 9.50000E+00    5.22428E-02
 1.00000E+01    8.85407E-02
 1.05000E+01    1.45171E-01
 1.10000E+01    2.28737E-01
 1.15000E+01    3.46287E-01
 1.20000E+01    5.05095E-01
 1.25000E+01    7.12276E-01
 1.30000E+01    9.64593E-01
 1.35000E+01    1.29836E+00
 1.40000E+01    1.69542E+00
 1.45000E+01    2.13116E+00
 1.50000E+01    2.67206E+00
 1.60000E+01    3.96062E+00
 1.70000E+01    5.65842E+00
 1.80000E+01    7.97493E+00
 1.90000E+01    1.12332E+01
 2.00000E+01    1.58342E+01
 2.10000E+01    2.09420E+01
 2.20000E+01    2.40651E+01
 2.30000E+01    2.66266E+01
 2.40000E+01    2.36527E+01
 2.50000E+01    2.33733E+01
 2.60000E+01    2.34596E+01
 2.70000E+01    2.37832E+01
 2.80000E+01    2.42588E+01
 2.90000E+01    2.48188E+01
 3.00000E+01    2.54343E+01
 3.00000E+01    2.53565E+01
 3.20000E+01    2.64846E+01
 3.40000E+01    2.78096E+01
 3.60000E+01    2.91143E+01
 3.80000E+01    3.04182E+01
 4.00000E+01    3.17302E+01
 4.20000E+01    3.31091E+01
 4.40000E+01    3.44997E+01
 4.60000E+01    3.59437E+01
 4.80000E+01    3.74820E+01
 5.00000E+01    3.90577E+01
 5.20000E+01    4.06673E+01
 5.40000E+01    4.22956E+01
 5.60000E+01    4.39257E+01
 5.80000E+01    4.56455E+01
 6.00000E+01    4.74804E+01
 6.50000E+01    5.13249E+01
 7.00000E+01    5.46799E+01
 7.50000E+01    5.85599E+01
 8.00000E+01    6.08593E+01
 9.00000E+01    6.35713E+01
 1.00000E+02    7.13297E+01
 1.10000E+02    7.16852E+01
 1.20000E+02    7.14263E+01
 1.30000E+02    7.41564E+01
 1.40000E+02    8.28310E+01
 1.50000E+02    9.60863E+01
 1.60000E+02    1.12728E+02
 1.80000E+02    1.39766E+02
 2.00000E+02    2.96457E+02
