# n + Yb172 : (n,n'16)  
# tendl.2019 A.J. Koning and D. Rochman        EVAL-NOV19
# uncertainties: n
# # energies =    78
#   E(MeV)       xs(mb) 
 1.38389E+00    0.00000E+00
 1.40000E+00    1.82217E+00
 1.41325E+00    2.72527E+00
 1.47447E+00    6.89791E+00
 1.48545E+00    7.64629E+00
 1.50488E+00    8.97059E+00
 1.51904E+00    9.93572E+00
 1.54652E+00    1.18087E+01
 1.54965E+00    1.20220E+01
 1.55824E+00    1.26075E+01
 1.55953E+00    1.26954E+01
 1.56331E+00    1.29531E+01
 1.56672E+00    1.31855E+01
 1.60000E+00    1.54538E+01
 1.60926E+00    1.57017E+01
 1.61793E+00    1.59339E+01
 1.64272E+00    1.65977E+01
 1.80000E+00    2.08090E+01
 2.00000E+00    2.02253E+01
 2.20000E+00    1.74054E+01
 2.40000E+00    1.41558E+01
 2.60000E+00    1.10901E+01
 2.80000E+00    8.46047E+00
 3.00000E+00    6.34782E+00
 3.20000E+00    4.88453E+00
 3.40000E+00    3.61782E+00
 3.60000E+00    2.67935E+00
 3.80000E+00    1.98608E+00
 4.00000E+00    1.47261E+00
 4.20000E+00    1.09178E+00
 4.40000E+00    8.29266E-01
 4.60000E+00    6.14527E-01
 4.80000E+00    4.55521E-01
 5.00000E+00    3.38133E-01
 5.20000E+00    2.51428E-01
 5.40000E+00    1.87310E-01
 5.60000E+00    1.39827E-01
 5.80000E+00    1.03976E-01
 6.00000E+00    7.76565E-02
 6.20000E+00    5.81341E-02
 6.40000E+00    4.36123E-02
 6.60000E+00    3.28784E-02
 6.80000E+00    2.48555E-02
 7.00000E+00    1.88466E-02
 7.20000E+00    1.43430E-02
 7.40000E+00    1.09346E-02
 7.60000E+00    8.36941E-03
 7.80000E+00    6.41971E-03
 8.00000E+00    4.93572E-03
 8.50000E+00    2.58493E-03
 9.00000E+00    1.36703E-03
 9.50000E+00    7.29465E-04
 1.00000E+01    3.92972E-04
 1.05000E+01    2.13850E-04
 1.10000E+01    1.17577E-04
 1.15000E+01    6.53028E-05
 1.20000E+01    3.66393E-05
 1.25000E+01    2.07472E-05
 1.30000E+01    1.18554E-05
 1.35000E+01    6.83609E-06
 1.40000E+01    3.97679E-06
 1.45000E+01    2.33144E-06
 1.50000E+01    1.37932E-06
 1.60000E+01    4.93440E-07
 1.70000E+01    1.81850E-07
 1.80000E+01    6.83150E-08
 1.90000E+01    2.64630E-08
 2.00000E+01    1.04960E-08
 2.10000E+01    4.24960E-09
 2.20000E+01    1.75570E-09
 2.30000E+01    7.40860E-10
 2.40000E+01    3.19320E-10
 2.50000E+01    1.39620E-10
 2.60000E+01    6.19900E-11
 2.70000E+01    2.78490E-11
 2.80000E+01    1.26990E-11
 2.90000E+01    5.88440E-12
 3.00000E+01    2.76060E-12
