# n + Sn114 :  n        
# jeff3.3    N.Iwamoto                         EVAL-Dec09
# uncertainties: n
# # energies =   106
#   E(MeV)       xs(mb) 
 1.05000E-01    0.00000E+00
 1.10000E-01    7.26361E-04
 1.20000E-01    8.35861E-04
 1.30000E-01    8.65275E-04
 1.40000E-01    8.80232E-04
 1.50000E-01    8.93266E-04
 1.60000E-01    9.07487E-04
 1.70000E-01    9.24235E-04
 1.80000E-01    9.43200E-04
 1.90000E-01    9.63790E-04
 2.00000E-01    9.85538E-04
 2.25000E-01    5.94446E-03
 2.50000E-01    6.42480E-03
 2.75000E-01    6.88487E-03
 3.00000E-01    7.42866E-03
 4.00000E-01    2.71642E-02
 5.00000E-01    7.12901E-02
 6.00000E-01    1.55043E-01
 7.00000E-01    2.97039E-01
 8.00000E-01    5.20012E-01
 9.00000E-01    8.51008E-01
 1.00000E+00    1.32159E+00
 1.10000E+00    1.97408E+00
 1.20000E+00    2.84566E+00
 1.30000E+00    3.98234E+00
 1.31142E+00    4.09035E+00
 1.40000E+00    3.95012E+00
 1.50000E+00    4.65471E+00
 1.60000E+00    5.58578E+00
 1.70000E+00    6.74707E+00
 1.80000E+00    8.15461E+00
 1.90000E+00    9.83798E+00
 1.97057E+00    1.13479E+01
 2.00000E+00    1.16849E+01
 2.17538E+00    1.54722E+01
 2.20697E+00    1.59985E+01
 2.25000E+00    1.67162E+01
 2.25878E+00    1.68300E+01
 2.29514E+00    1.66296E+01
 2.44312E+00    1.73081E+01
 2.47580E+00    1.74904E+01
 2.50000E+00    1.73573E+01
 2.53703E+00    1.77886E+01
 2.59881E+00    1.77682E+01
 2.63761E+00    1.79610E+01
 2.75000E+00    1.85907E+01
 2.76265E+00    1.86950E+01
 2.78414E+00    1.87569E+01
 2.78985E+00    1.87537E+01
 2.84008E+00    1.90336E+01
 2.88514E+00    1.92011E+01
 2.93085E+00    1.95552E+01
 2.94155E+00    1.97008E+01
 2.96950E+00    1.97221E+01
 3.00000E+00    1.95008E+01
 3.05179E+00    1.99787E+01
 3.05208E+00    1.99727E+01
 3.05490E+00    1.99559E+01
 3.09860E+00    1.99659E+01
 3.11471E+00    1.99899E+01
 3.12755E+00    2.00667E+01
 3.13462E+00    2.02444E+01
 3.17768E+00    2.04613E+01
 3.21434E+00    2.06436E+01
 3.21716E+00    2.06314E+01
 3.21864E+00    2.06332E+01
 3.23237E+00    2.08223E+01
 3.23602E+00    2.08874E+01
 3.24020E+00    2.09040E+01
 3.25457E+00    2.08877E+01
 3.27076E+00    2.08455E+01
 3.27312E+00    2.08445E+01
 3.50000E+00    1.17680E+02
 4.00000E+00    6.61751E+02
 4.50000E+00    1.19764E+03
 5.00000E+00    1.58672E+03
 5.50000E+00    1.81967E+03
 6.00000E+00    1.93747E+03
 6.50000E+00    1.98527E+03
 7.00000E+00    1.99779E+03
 7.50000E+00    1.99350E+03
 8.00000E+00    1.98345E+03
 8.50000E+00    1.97291E+03
 9.00000E+00    1.96341E+03
 9.50000E+00    1.95492E+03
 1.00000E+01    1.94649E+03
 1.05000E+01    1.93687E+03
 1.10000E+01    1.78937E+03
 1.15000E+01    1.54668E+03
 1.20000E+01    1.29238E+03
 1.25000E+01    1.08263E+03
 1.30000E+01    9.15513E+02
 1.35000E+01    7.78530E+02
 1.40000E+01    6.67950E+02
 1.45000E+01    5.77437E+02
 1.50000E+01    5.05910E+02
 1.55000E+01    4.48216E+02
 1.60000E+01    4.02494E+02
 1.65000E+01    3.67223E+02
 1.70000E+01    3.36421E+02
 1.75000E+01    3.10389E+02
 1.80000E+01    2.89023E+02
 1.85000E+01    2.70628E+02
 1.90000E+01    2.55209E+02
 1.95000E+01    2.41614E+02
 2.00000E+01    2.29954E+02
