# n + Sn114 : (n,n'03)  
# jeff3.3    N.Iwamoto                         EVAL-Dec09
# uncertainties: n
# # energies =    72
#   E(MeV)       xs(mb) 
 2.17537E+00    0.00000E+00
 2.20697E+00    1.54536E+01
 2.25000E+00    2.97896E+01
 2.25878E+00    3.23653E+01
 2.29514E+00    4.13444E+01
 2.44312E+00    6.40843E+01
 2.47580E+00    6.63543E+01
 2.50000E+00    6.73635E+01
 2.53703E+00    6.84699E+01
 2.59881E+00    6.94853E+01
 2.63761E+00    6.92118E+01
 2.75000E+00    6.85156E+01
 2.76265E+00    6.84728E+01
 2.78414E+00    6.83191E+01
 2.78985E+00    6.82561E+01
 2.84008E+00    6.78322E+01
 2.88514E+00    6.75191E+01
 2.93085E+00    6.71266E+01
 2.94155E+00    6.70328E+01
 2.96950E+00    6.64414E+01
 3.00000E+00    6.63433E+01
 3.05179E+00    6.48616E+01
 3.05208E+00    6.48367E+01
 3.05490E+00    6.46329E+01
 3.09860E+00    6.27390E+01
 3.11471E+00    6.20907E+01
 3.12755E+00    6.15904E+01
 3.13462E+00    6.13160E+01
 3.17768E+00    5.97737E+01
 3.21434E+00    5.82076E+01
 3.21716E+00    5.80411E+01
 3.21864E+00    5.79673E+01
 3.23237E+00    5.73188E+01
 3.23602E+00    5.70689E+01
 3.24020E+00    5.67790E+01
 3.25457E+00    5.58321E+01
 3.27076E+00    5.47702E+01
 3.27312E+00    5.46264E+01
 3.50000E+00    4.31932E+01
 4.00000E+00    2.49030E+01
 4.50000E+00    1.44324E+01
 5.00000E+00    8.80105E+00
 5.50000E+00    5.82983E+00
 6.00000E+00    4.26107E+00
 6.50000E+00    3.41345E+00
 7.00000E+00    2.91030E+00
 7.50000E+00    2.58339E+00
 8.00000E+00    2.34706E+00
 8.50000E+00    2.16193E+00
 9.00000E+00    2.00936E+00
 9.50000E+00    1.87954E+00
 1.00000E+01    1.76686E+00
 1.05000E+01    1.66819E+00
 1.10000E+01    1.57876E+00
 1.15000E+01    1.49922E+00
 1.20000E+01    1.42539E+00
 1.25000E+01    1.35807E+00
 1.30000E+01    1.29480E+00
 1.35000E+01    1.23614E+00
 1.40000E+01    1.18136E+00
 1.45000E+01    1.12967E+00
 1.50000E+01    1.08187E+00
 1.55000E+01    1.03567E+00
 1.60000E+01    9.93019E-01
 1.65000E+01    9.50840E-01
 1.70000E+01    9.11851E-01
 1.75000E+01    8.72941E-01
 1.80000E+01    8.36865E-01
 1.85000E+01    8.01024E-01
 1.90000E+01    7.67825E-01
 1.95000E+01    7.35276E-01
 2.00000E+01    7.05100E-01
