# n + Sn114 : (n,xn)    
# jeff3.3    N.Iwamoto                         EVAL-Dec09
# 
# # energies =   110
#   E(MeV)        xs(mb) 
 1.05000E-01    0.00000E+00
 1.10000E-01    7.26361E-04
 1.20000E-01    8.35861E-04
 1.30000E-01    8.65275E-04
 1.40000E-01    8.80232E-04
 1.50000E-01    8.93266E-04
 1.60000E-01    9.07487E-04
 1.70000E-01    9.24235E-04
 1.80000E-01    9.43200E-04
 1.90000E-01    9.63790E-04
 2.00000E-01    9.85538E-04
 2.25000E-01    5.94446E-03
 2.50000E-01    6.42480E-03
 2.75000E-01    6.88487E-03
 3.00000E-01    7.42866E-03
 4.00000E-01    2.71642E-02
 5.00000E-01    7.12901E-02
 6.00000E-01    1.55043E-01
 7.00000E-01    2.97039E-01
 8.00000E-01    5.20012E-01
 9.00000E-01    8.51008E-01
 1.00000E+00    1.32159E+00
 1.10000E+00    1.97408E+00
 1.20000E+00    2.84566E+00
 1.30000E+00    3.98234E+00
 1.31142E+00    4.09035E+00
 1.40000E+00    3.56857E+02
 1.50000E+00    5.29084E+02
 1.60000E+00    6.33233E+02
 1.70000E+00    7.10274E+02
 1.80000E+00    7.73632E+02
 1.90000E+00    8.29711E+02
 1.97057E+00    8.66299E+02
 2.00000E+00    8.96369E+02
 2.17537E+00    9.90874E+02
 2.17538E+00    9.90885E+02
 2.20697E+00    1.01336E+03
 2.25000E+00    1.06060E+03
 2.25878E+00    1.06874E+03
 2.29514E+00    1.13146E+03
 2.44312E+00    1.33326E+03
 2.47580E+00    1.36754E+03
 2.50000E+00    1.40121E+03
 2.53703E+00    1.43589E+03
 2.59881E+00    1.49455E+03
 2.63761E+00    1.53314E+03
 2.75000E+00    1.61648E+03
 2.76265E+00    1.62370E+03
 2.78414E+00    1.63803E+03
 2.78985E+00    1.64223E+03
 2.84008E+00    1.67711E+03
 2.88514E+00    1.70378E+03
 2.93085E+00    1.72930E+03
 2.94155E+00    1.73542E+03
 2.96950E+00    1.75264E+03
 3.00000E+00    1.77531E+03
 3.05179E+00    1.79806E+03
 3.05208E+00    1.79828E+03
 3.05490E+00    1.80001E+03
 3.05491E+00    1.80001E+03
 3.09860E+00    1.82034E+03
 3.11471E+00    1.82720E+03
 3.12755E+00    1.83249E+03
 3.13461E+00    1.83564E+03
 3.13462E+00    1.83564E+03
 3.17768E+00    1.85269E+03
 3.21434E+00    1.86551E+03
 3.21716E+00    1.86681E+03
 3.21864E+00    1.86741E+03
 3.23237E+00    1.87262E+03
 3.23601E+00    1.87423E+03
 3.23602E+00    1.87424E+03
 3.24020E+00    1.87629E+03
 3.25457E+00    1.88277E+03
 3.27076E+00    1.88990E+03
 3.27312E+00    1.89086E+03
 3.50000E+00    1.97042E+03
 4.00000E+00    2.09721E+03
 4.50000E+00    2.18829E+03
 5.00000E+00    2.24248E+03
 5.50000E+00    2.26098E+03
 6.00000E+00    2.25338E+03
 6.50000E+00    2.23100E+03
 7.00000E+00    2.20288E+03
 7.50000E+00    2.17429E+03
 8.00000E+00    2.14844E+03
 8.50000E+00    2.12666E+03
 9.00000E+00    2.10855E+03
 9.50000E+00    2.09315E+03
 1.00000E+01    2.07901E+03
 1.05000E+01    2.06769E+03
 1.10000E+01    2.19018E+03
 1.15000E+01    2.41121E+03
 1.20000E+01    2.64137E+03
 1.25000E+01    2.83075E+03
 1.30000E+01    2.97632E+03
 1.35000E+01    3.09312E+03
 1.40000E+01    3.18382E+03
 1.45000E+01    3.25205E+03
 1.50000E+01    3.30307E+03
 1.55000E+01    3.33503E+03
 1.60000E+01    3.35799E+03
 1.65000E+01    3.36401E+03
 1.70000E+01    3.36967E+03
 1.75000E+01    3.36408E+03
 1.80000E+01    3.35827E+03
 1.85000E+01    3.34451E+03
 1.90000E+01    3.33381E+03
 1.95000E+01    3.32254E+03
 2.00000E+01    3.31952E+03
