# n + Sn114 : (n,h)     
# jeff3.3    N.Iwamoto                         EVAL-Dec09
# uncertainties: n
# # energies =    64
#   E(MeV)       xs(mb) 
 6.90086E+00    0.00000E+00
 7.52384E+00    5.61200E-25
 8.13616E+00    1.76900E-21
 8.22487E+00    2.02910E-21
 8.32897E+00    2.33700E-21
 8.34674E+00    2.38970E-21
 8.38272E+00    2.49620E-21
 8.78817E+00    3.69720E-21
 8.78842E+00    3.69790E-21
 8.92394E+00    4.10000E-21
 8.98372E+00    4.27740E-21
 9.00000E+00    4.34480E-21
 9.00104E+00    4.42440E-21
 9.04135E+00    7.54180E-21
 9.07614E+00    1.02450E-20
 9.08704E+00    1.10940E-20
 9.08808E+00    1.11750E-20
 9.15171E+00    1.61470E-20
 9.22183E+00    2.16300E-20
 9.22627E+00    2.19770E-20
 9.25653E+00    2.43430E-20
 9.29519E+00    2.73670E-20
 9.32529E+00    2.97210E-20
 9.33843E+00    3.07490E-20
 9.34632E+00    3.13660E-20
 9.37702E+00    3.37670E-20
 9.41632E+00    3.68400E-20
 9.42400E+00    3.74410E-20
 9.42970E+00    3.78870E-20
 9.42993E+00    3.79050E-20
 9.44014E+00    3.87030E-20
 9.45629E+00    3.99660E-20
 9.49382E+00    4.29020E-20
 9.49527E+00    4.30160E-20
 9.50000E+00    4.33900E-20
 9.50774E+00    6.41420E-19
 9.51278E+00    1.03080E-18
 9.51490E+00    1.19460E-18
 9.55616E+00    4.38260E-18
 9.55919E+00    4.61680E-18
 9.57331E+00    5.70780E-18
 9.57332E+00    5.70850E-18
 9.57735E+00    6.01990E-18
 1.00000E+01    3.86770E-17
 1.05000E+01    6.60110E-15
 1.10000E+01    3.21730E-13
 1.15000E+01    6.51030E-12
 1.20000E+01    6.89840E-11
 1.25000E+01    4.54710E-10
 1.30000E+01    2.07680E-09
 1.35000E+01    7.20100E-09
 1.40000E+01    2.01910E-08
 1.45000E+01    4.94140E-08
 1.50000E+01    1.16160E-07
 1.55000E+01    2.96310E-07
 1.60000E+01    8.55910E-07
 1.65000E+01    2.60011E-06
 1.70000E+01    7.71794E-06
 1.75000E+01    2.07481E-05
 1.80000E+01    5.10412E-05
 1.85000E+01    1.15433E-04
 1.90000E+01    2.42065E-04
 1.95000E+01    4.74527E-04
 2.00000E+01    8.76108E-04
