# n + Sn114 : (n,n'02)  
# jeff3.3    N.Iwamoto                         EVAL-Dec09
# uncertainties: n
# # energies =    74
#   E(MeV)       xs(mb) 
 1.97057E+00    0.00000E+00
 2.00000E+00    2.05668E+01
 2.17538E+00    7.96425E+01
 2.20697E+00    8.39061E+01
 2.25000E+00    8.99433E+01
 2.25878E+00    9.11191E+01
 2.29514E+00    9.38075E+01
 2.44312E+00    1.00012E+02
 2.47580E+00    9.97603E+01
 2.50000E+00    9.89631E+01
 2.53703E+00    9.77479E+01
 2.59881E+00    9.53825E+01
 2.63761E+00    9.31495E+01
 2.75000E+00    8.84724E+01
 2.76265E+00    8.80774E+01
 2.78414E+00    8.72621E+01
 2.78985E+00    8.70235E+01
 2.84008E+00    8.51883E+01
 2.88514E+00    8.37273E+01
 2.93085E+00    8.22720E+01
 2.94155E+00    8.19394E+01
 2.96950E+00    8.06207E+01
 3.00000E+00    8.33960E+01
 3.05179E+00    8.02884E+01
 3.05208E+00    8.02292E+01
 3.05490E+00    7.99271E+01
 3.09860E+00    7.68016E+01
 3.11471E+00    7.57554E+01
 3.12755E+00    7.49536E+01
 3.13462E+00    7.45157E+01
 3.17768E+00    7.20941E+01
 3.21434E+00    7.02677E+01
 3.21716E+00    7.00642E+01
 3.21864E+00    6.99773E+01
 3.23237E+00    6.92222E+01
 3.23602E+00    6.89412E+01
 3.24020E+00    6.86039E+01
 3.25457E+00    6.75131E+01
 3.27076E+00    6.62974E+01
 3.27312E+00    6.61338E+01
 3.50000E+00    5.30316E+01
 4.00000E+00    3.18560E+01
 4.50000E+00    2.06140E+01
 5.00000E+00    1.47091E+01
 5.50000E+00    1.15998E+01
 6.00000E+00    9.91092E+00
 6.50000E+00    8.91309E+00
 7.00000E+00    8.18968E+00
 7.50000E+00    7.58656E+00
 8.00000E+00    7.05120E+00
 8.50000E+00    6.57211E+00
 9.00000E+00    6.14573E+00
 9.50000E+00    5.76718E+00
 1.00000E+01    5.43083E+00
 1.05000E+01    5.13201E+00
 1.10000E+01    4.85823E+00
 1.15000E+01    4.61262E+00
 1.20000E+01    4.38312E+00
 1.25000E+01    4.17321E+00
 1.30000E+01    3.97612E+00
 1.35000E+01    3.79384E+00
 1.40000E+01    3.62364E+00
 1.45000E+01    3.46413E+00
 1.50000E+01    3.31584E+00
 1.55000E+01    3.17323E+00
 1.60000E+01    3.04106E+00
 1.65000E+01    2.91037E+00
 1.70000E+01    2.78976E+00
 1.75000E+01    2.66887E+00
 1.80000E+01    2.55744E+00
 1.85000E+01    2.44618E+00
 1.90000E+01    2.34389E+00
 1.95000E+01    2.24313E+00
 2.00000E+01    2.15041E+00
