# n + Sn114 : (n,n'04)  
# jeff3.3    N.Iwamoto                         EVAL-Dec09
# uncertainties: n
# # energies =    71
#   E(MeV)       xs(mb) 
 2.20697E+00    0.00000E+00
 2.25000E+00    3.80296E+01
 2.25878E+00    4.43175E+01
 2.29514E+00    6.66116E+01
 2.44312E+00    1.12544E+02
 2.47580E+00    1.20123E+02
 2.50000E+00    1.24849E+02
 2.53703E+00    1.30247E+02
 2.59881E+00    1.34543E+02
 2.63761E+00    1.35840E+02
 2.75000E+00    1.34296E+02
 2.76265E+00    1.34578E+02
 2.78414E+00    1.33726E+02
 2.78985E+00    1.33110E+02
 2.84008E+00    1.28698E+02
 2.88514E+00    1.26146E+02
 2.93085E+00    1.23215E+02
 2.94155E+00    1.22245E+02
 2.96950E+00    1.20182E+02
 3.00000E+00    1.17517E+02
 3.05179E+00    1.14773E+02
 3.05208E+00    1.14726E+02
 3.05490E+00    1.14531E+02
 3.09860E+00    1.11793E+02
 3.11471E+00    1.10628E+02
 3.12755E+00    1.09801E+02
 3.13462E+00    1.09191E+02
 3.17768E+00    1.06151E+02
 3.21434E+00    1.04141E+02
 3.21716E+00    1.03886E+02
 3.21864E+00    1.03767E+02
 3.23237E+00    1.02756E+02
 3.23602E+00    1.02504E+02
 3.24020E+00    1.02142E+02
 3.25457E+00    1.00948E+02
 3.27076E+00    9.96435E+01
 3.27312E+00    9.94505E+01
 3.50000E+00    8.48620E+01
 4.00000E+00    5.63613E+01
 4.50000E+00    3.50893E+01
 5.00000E+00    2.10415E+01
 5.50000E+00    1.24044E+01
 6.00000E+00    7.33116E+00
 6.50000E+00    4.44011E+00
 7.00000E+00    2.77057E+00
 7.50000E+00    1.83554E+00
 8.00000E+00    1.31624E+00
 8.50000E+00    1.02417E+00
 9.00000E+00    8.53119E-01
 9.50000E+00    7.46354E-01
 1.00000E+01    6.74422E-01
 1.05000E+01    6.22303E-01
 1.10000E+01    5.81166E-01
 1.15000E+01    5.47682E-01
 1.20000E+01    5.18420E-01
 1.25000E+01    4.92686E-01
 1.30000E+01    4.69040E-01
 1.35000E+01    4.47387E-01
 1.40000E+01    4.27341E-01
 1.45000E+01    4.08503E-01
 1.50000E+01    3.91153E-01
 1.55000E+01    3.74401E-01
 1.60000E+01    3.58970E-01
 1.65000E+01    3.43728E-01
 1.70000E+01    3.29649E-01
 1.75000E+01    3.15617E-01
 1.80000E+01    3.02590E-01
 1.85000E+01    2.89668E-01
 1.90000E+01    2.77677E-01
 1.95000E+01    2.65938E-01
 2.00000E+01    2.55035E-01
