# n + Mo 98 : (n,el)    
# jeff3.3    K.Shibata, A.Ichihara, S.Kunieda+ EVAL-MAR09
# uncertainties: n
# # energies =   171
#   E(MeV)       xs(mb) 
 1.00000E-11    9.60904E+03
 1.00000E-07    5.43926E+03
 4.13990E-07    5.43675E+03
 5.31580E-07    5.43616E+03
 6.82560E-07    5.43540E+03
 8.76420E-07    5.43460E+03
 1.12540E-06    5.43408E+03
 1.44500E-06    5.43346E+03
 1.85540E-06    5.43266E+03
 2.37240E-06    5.43163E+03
 3.05900E-06    5.43029E+03
 3.92790E-06    5.42859E+03
 5.04350E-06    5.42641E+03
 6.47600E-06    5.42360E+03
 8.31530E-06    5.42000E+03
 1.06770E-05    5.41785E+03
 1.37100E-05    5.40954E+03
 1.76030E-05    5.40178E+03
 2.26030E-05    5.39166E+03
 2.92030E-05    5.37883E+03
 3.72670E-05    5.36256E+03
 4.78510E-05    5.34145E+03
 6.14420E-05    5.31435E+03
 7.88930E-05    5.27955E+03
 1.01300E-04    5.23486E+03
 1.30070E-04    5.17748E+03
 1.67020E-04    5.09278E+03
 2.14450E-04    4.96227E+03
 2.75360E-04    4.70371E+03
 3.53580E-04    6.22031E+03
 4.54000E-04    4.70554E+04
 5.82950E-04    7.07296E+03
 7.48520E-04    6.43591E+03
 9.61120E-04    5.34066E+03
 1.23410E-03    1.13439E+04
 1.58460E-03    5.61693E+03
 2.03470E-03    6.01928E+03
 2.24870E-03    5.29671E+03
 2.48520E-03    5.73816E+03
 2.61260E-03    5.11584E+03
 2.74650E-03    4.92626E+03
 3.03540E-03    9.88229E+03
 3.35460E-03    5.48975E+03
 3.70740E-03    5.48217E+03
 4.30740E-03    5.78945E+03
 5.53080E-03    9.60121E+03
 7.10170E-03    1.19657E+04
 9.11880E-03    1.12240E+04
 1.17090E-02    7.61968E+03
 1.50340E-02    6.54406E+03
 1.93050E-02    6.62165E+03
 2.18750E-02    7.45193E+03
 2.35790E-02    5.66343E+03
 2.41760E-02    7.73198E+03
 2.47880E-02    6.07436E+03
 2.60580E-02    5.75887E+03
 2.70000E-02    5.72788E+03
 2.85000E-02    7.78183E+03
 3.18280E-02    8.73163E+03
 3.43070E-02    9.00497E+03
 4.08680E-02    9.07231E+03
 4.63090E-02    9.13225E+03
 5.24750E-02    9.17845E+03
 5.65620E-02    9.23603E+03
 6.73790E-02    9.28812E+03
 7.20000E-02    9.31977E+03
 7.95000E-02    9.34526E+03
 8.25000E-02    9.35842E+03
 8.65170E-02    9.38364E+03
 9.80370E-02    9.39822E+03
 1.11090E-01    9.38821E+03
 1.16790E-01    9.38170E+03
 1.22770E-01    9.37486E+03
 1.29070E-01    9.36767E+03
 1.35690E-01    9.36011E+03
 1.42640E-01    9.35217E+03
 1.49960E-01    9.34381E+03
 1.57640E-01    9.33503E+03
 1.65730E-01    9.32580E+03
 1.74220E-01    9.31609E+03
 1.83160E-01    9.30588E+03
 1.92550E-01    9.29449E+03
 2.02420E-01    9.26638E+03
 2.12800E-01    9.22992E+03
 2.23710E-01    9.19158E+03
 2.35180E-01    9.15128E+03
 2.47240E-01    9.08664E+03
 2.73240E-01    9.01755E+03
 2.87250E-01    8.98094E+03
 2.94520E-01    8.96385E+03
 2.97200E-01    8.95703E+03
 2.98500E-01    8.94872E+03
 3.01970E-01    8.88479E+03
 3.33730E-01    8.76158E+03
 3.68830E-01    8.66117E+03
 3.87740E-01    8.58986E+03
 4.07620E-01    8.47926E+03
 4.50490E-01    8.31977E+03
 4.97870E-01    8.19249E+03
 5.23400E-01    8.10653E+03
 5.50230E-01    8.01619E+03
 5.78440E-01    7.92145E+03
 6.08100E-01    7.82656E+03
 6.39280E-01    7.72865E+03
 6.72060E-01    7.62589E+03
 7.06510E-01    7.52390E+03
 7.42740E-01    7.35585E+03
 7.80820E-01    7.07597E+03
 8.20850E-01    6.71618E+03
 8.62940E-01    6.35087E+03
 9.07180E-01    6.07580E+03
 9.61640E-01    5.87463E+03
 1.00260E+00    5.68714E+03
 1.10800E+00    5.51979E+03
 1.16480E+00    5.40046E+03
 1.22460E+00    5.27508E+03
 1.28730E+00    5.14327E+03
 1.35340E+00    5.00469E+03
 1.42270E+00    4.81543E+03
 1.49570E+00    4.58983E+03
 1.57240E+00    4.47957E+03
 1.65300E+00    4.36094E+03
 1.73770E+00    4.22216E+03
 1.82680E+00    4.00034E+03
 1.92050E+00    3.64622E+03
 2.01900E+00    3.45743E+03
 2.12250E+00    3.32620E+03
 2.23130E+00    3.16542E+03
 2.30690E+00    3.03341E+03
 2.34570E+00    2.96352E+03
 2.36530E+00    2.90400E+03
 2.38520E+00    2.73231E+03
 2.46600E+00    2.46111E+03
 2.59240E+00    2.34070E+03
 2.72530E+00    2.22711E+03
 2.86500E+00    2.10786E+03
 3.01190E+00    2.01610E+03
 3.16640E+00    1.94495E+03
 3.32870E+00    1.84065E+03
 3.67880E+00    1.74791E+03
 4.06570E+00    1.69395E+03
 4.49330E+00    1.67747E+03
 4.72370E+00    1.68285E+03
 4.96590E+00    1.69519E+03
 5.22050E+00    1.71941E+03
 5.48810E+00    1.74904E+03
 5.76950E+00    1.78811E+03
 6.06530E+00    1.83163E+03
 6.37630E+00    1.87194E+03
 6.59240E+00    1.89695E+03
 6.70320E+00    1.93143E+03
 7.04690E+00    1.98521E+03
 7.40820E+00    2.03798E+03
 7.78800E+00    2.08940E+03
 8.18730E+00    2.13938E+03
 8.60710E+00    2.19921E+03
 9.04840E+00    2.21529E+03
 9.51230E+00    2.24492E+03
 1.00000E+01    2.26363E+03
 1.05130E+01    2.27637E+03
 1.10520E+01    2.27963E+03
 1.16180E+01    2.27476E+03
 1.22140E+01    2.25701E+03
 1.28400E+01    2.23090E+03
 1.34990E+01    2.20373E+03
 1.38400E+01    2.18410E+03
 1.41910E+01    2.16069E+03
 1.45500E+01    2.13430E+03
 1.49180E+01    2.09048E+03
 1.56830E+01    2.02743E+03
 1.64870E+01    1.95749E+03
