# n + Ru100 : (n,n'08)  
# jeff3.3    A.J. Koning and D. Rochman        EVAL-DEC15
# uncertainties: n
# # energies =    82
#   E(MeV)       xs(mb) 
 2.07237E+00    0.00000E+00
 2.08347E+00    2.93991E+00
 2.09639E+00    6.36182E+00
 2.10846E+00    9.55861E+00
 2.12030E+00    1.26945E+01
 2.15252E+00    2.12281E+01
 2.18876E+00    3.08265E+01
 2.20000E+00    3.38035E+01
 2.21615E+00    3.48130E+01
 2.26344E+00    3.77690E+01
 2.29090E+00    3.94855E+01
 2.33686E+00    4.23583E+01
 2.34807E+00    4.30591E+01
 2.37499E+00    4.47418E+01
 2.39049E+00    4.57106E+01
 2.40000E+00    4.63051E+01
 2.41148E+00    4.60684E+01
 2.43814E+00    4.55185E+01
 2.46261E+00    4.50139E+01
 2.49432E+00    4.43599E+01
 2.51820E+00    4.38674E+01
 2.53778E+00    4.34636E+01
 2.54224E+00    4.33716E+01
 2.55277E+00    4.31544E+01
 2.56180E+00    4.29682E+01
 2.60000E+00    4.21804E+01
 2.80000E+00    3.29206E+01
 3.00000E+00    2.42311E+01
 3.20000E+00    1.76173E+01
 3.40000E+00    1.27868E+01
 3.60000E+00    9.39593E+00
 3.80000E+00    7.00811E+00
 4.00000E+00    5.27779E+00
 4.20000E+00    3.99454E+00
 4.40000E+00    3.03186E+00
 4.60000E+00    2.30647E+00
 4.80000E+00    1.75871E+00
 5.00000E+00    1.34479E+00
 5.20000E+00    1.03212E+00
 5.40000E+00    7.95689E-01
 5.60000E+00    6.16424E-01
 5.80000E+00    4.79912E-01
 6.00000E+00    3.75456E-01
 6.20000E+00    2.95107E-01
 6.40000E+00    2.32921E-01
 6.60000E+00    1.84592E-01
 6.80000E+00    1.46679E-01
 7.00000E+00    1.16237E-01
 7.20000E+00    9.26469E-02
 7.40000E+00    7.40235E-02
 7.60000E+00    5.94658E-02
 7.80000E+00    4.77652E-02
 8.00000E+00    3.84885E-02
 8.50000E+00    2.25497E-02
 9.00000E+00    1.33235E-02
 9.50000E+00    7.94366E-03
 1.00000E+01    4.78059E-03
 1.05000E+01    2.89587E-03
 1.10000E+01    1.76283E-03
 1.15000E+01    1.08011E-03
 1.20000E+01    6.66642E-04
 1.25000E+01    4.14590E-04
 1.30000E+01    2.59943E-04
 1.35000E+01    1.64229E-04
 1.40000E+01    1.04509E-04
 1.45000E+01    6.69742E-05
 1.50000E+01    4.32020E-05
 1.60000E+01    1.83129E-05
 1.70000E+01    7.94429E-06
 1.80000E+01    3.52283E-06
 1.90000E+01    1.59068E-06
 2.00000E+01    7.30210E-07
 2.10000E+01    3.39910E-07
 2.20000E+01    1.58990E-07
 2.30000E+01    7.63450E-08
 2.40000E+01    3.71810E-08
 2.50000E+01    1.83800E-08
 2.60000E+01    9.21200E-09
 2.70000E+01    4.67280E-09
 2.80000E+01    2.39370E-09
 2.90000E+01    1.23780E-09
 3.00000E+01    6.45490E-10
