# n + Hg  0 : (n,xn)
# jendl4.0   K.SHIBATA, T.FUKAHORI, S.CHIBA,+  EVAL-SEP97
#
# # energies =   192
#   E(MeV)          xs(mb) 
 3.69756E-01    3.08357E+02
 3.69800E-01    3.08432E+02
 3.82350E-01    3.29947E+02
 3.94900E-01    3.52282E+02
 4.20000E-01    4.06312E+02
 4.65000E-01    5.34824E+02
 5.10000E-01    6.97152E+02
 6.00000E-01    8.98791E+02
 8.00000E-01    1.12843E+03
 9.51978E-01    1.18993E+03
 9.52020E-01    1.18995E+03
 9.76010E-01    1.21250E+03
 1.00000E+00    1.24632E+03
 1.03449E+00    1.26480E+03
 1.06142E+00    1.28272E+03
 1.06250E+00    1.28348E+03
 1.08836E+00    1.30061E+03
 1.12500E+00    1.32922E+03
 1.14224E+00    1.34540E+03
 1.25000E+00    1.47446E+03
 1.26040E+00    1.47890E+03
 1.26043E+00    1.47892E+03
 1.29037E+00    1.49880E+03
 1.32032E+00    1.51860E+03
 1.38021E+00    1.56794E+03
 1.50000E+00    1.71393E+03
 1.52280E+00    1.70910E+03
 1.52284E+00    1.70910E+03
 1.55898E+00    1.70585E+03
 1.57822E+00    1.70514E+03
 1.58164E+00    1.70539E+03
 1.59512E+00    1.70839E+03
 1.60144E+00    1.70986E+03
 1.61249E+00    1.71327E+03
 1.61653E+00    1.71451E+03
 1.63913E+00    1.72189E+03
 1.64676E+00    1.72473E+03
 1.64968E+00    1.72584E+03
 1.65126E+00    1.72656E+03
 1.65143E+00    1.72664E+03
 1.66737E+00    1.73417E+03
 1.66740E+00    1.73418E+03
 1.68423E+00    1.74339E+03
 1.69347E+00    1.74874E+03
 1.70108E+00    1.75321E+03
 1.71530E+00    1.76150E+03
 1.71531E+00    1.76150E+03
 1.72122E+00    1.76497E+03
 1.72697E+00    1.76832E+03
 1.72934E+00    1.76983E+03
 1.73726E+00    1.77517E+03
 1.73963E+00    1.77685E+03
 1.74305E+00    1.77954E+03
 1.75000E+00    1.78552E+03
 1.78456E+00    1.81829E+03
 1.80072E+00    1.83544E+03
 1.81956E+00    1.86063E+03
 1.82484E+00    1.86780E+03
 1.83370E+00    1.87968E+03
 1.85511E+00    1.91011E+03
 1.85765E+00    1.91413E+03
 1.86080E+00    1.91919E+03
 1.86084E+00    1.91926E+03
 1.86617E+00    1.92812E+03
 1.89240E+00    1.97238E+03
 1.93040E+00    2.04083E+03
 1.97250E+00    2.11954E+03
 1.98225E+00    2.13819E+03
 1.98426E+00    2.14229E+03
 2.00000E+00    2.17635E+03
 2.05944E+00    2.19258E+03
 2.07170E+00    2.19591E+03
 2.08476E+00    2.19969E+03
 2.12496E+00    2.21290E+03
 2.12718E+00    2.21363E+03
 2.13763E+00    2.21713E+03
 2.13773E+00    2.21716E+03
 2.13863E+00    2.21769E+03
 2.14627E+00    2.22242E+03
 2.15461E+00    2.22761E+03
 2.16225E+00    2.23243E+03
 2.16230E+00    2.23247E+03
 2.20054E+00    2.25685E+03
 2.25000E+00    2.28903E+03
 2.31250E+00    2.32972E+03
 2.37500E+00    2.37067E+03
 2.43750E+00    2.40917E+03
 2.50000E+00    2.44818E+03
 2.53080E+00    2.45492E+03
 2.56160E+00    2.46155E+03
 2.59240E+00    2.46805E+03
 2.62320E+00    2.47443E+03
 2.65490E+00    2.48031E+03
 2.68660E+00    2.48602E+03
 2.75000E+00    2.49825E+03
 2.80065E+00    2.50934E+03
 2.85130E+00    2.52231E+03
 2.88848E+00    2.53295E+03
 2.92565E+00    2.54285E+03
 2.96283E+00    2.55256E+03
 3.00000E+00    2.56213E+03
 3.06250E+00    2.56802E+03
 3.12500E+00    2.57348E+03
 3.18750E+00    2.57802E+03
 3.25000E+00    2.58216E+03
 3.31250E+00    2.58630E+03
 3.37500E+00    2.59019E+03
 3.43750E+00    2.59318E+03
 3.50000E+00    2.59594E+03
 3.56250E+00    2.60034E+03
 3.62500E+00    2.60454E+03
 3.68750E+00    2.60836E+03
 3.75000E+00    2.61199E+03
 3.81250E+00    2.61523E+03
 3.87500E+00    2.61829E+03
 3.93750E+00    2.62120E+03
 4.00000E+00    2.62395E+03
 4.12500E+00    2.61965E+03
 4.25000E+00    2.61508E+03
 4.37500E+00    2.60992E+03
 4.50000E+00    2.60451E+03
 4.62500E+00    2.60011E+03
 4.75000E+00    2.59548E+03
 4.87500E+00    2.59085E+03
 5.00000E+00    2.58601E+03
 5.50000E+00    2.52461E+03
 6.00000E+00    2.46751E+03
 6.50000E+00    2.41931E+03
 7.00000E+00    2.44579E+03
 7.50000E+00    2.52692E+03
 8.00000E+00    2.62707E+03
 8.12500E+00    2.66454E+03
 8.25000E+00    2.72262E+03
 8.37500E+00    2.79224E+03
 8.50000E+00    2.86231E+03
 8.62500E+00    2.93986E+03
 8.75000E+00    3.01783E+03
 8.87500E+00    3.09760E+03
 9.00000E+00    3.17777E+03
 9.12500E+00    3.25952E+03
 9.25000E+00    3.34165E+03
 9.37500E+00    3.42525E+03
 9.50000E+00    3.50920E+03
 9.62500E+00    3.59454E+03
 9.75000E+00    3.68022E+03
 9.87500E+00    3.76719E+03
 1.00000E+01    3.85455E+03
 1.01250E+01    3.88511E+03
 1.02500E+01    3.91581E+03
 1.03750E+01    3.94726E+03
 1.05000E+01    3.97884E+03
 1.06250E+01    4.01115E+03
 1.07500E+01    4.04358E+03
 1.08750E+01    4.07669E+03
 1.10000E+01    4.10993E+03
 1.11250E+01    4.14382E+03
 1.12500E+01    4.17783E+03
 1.13750E+01    4.21246E+03
 1.15000E+01    4.24720E+03
 1.16250E+01    4.28255E+03
 1.17500E+01    4.31799E+03
 1.18750E+01    4.35402E+03
 1.20000E+01    4.39014E+03
 1.22500E+01    4.41976E+03
 1.25000E+01    4.44952E+03
 1.27500E+01    4.47975E+03
 1.30000E+01    4.51011E+03
 1.32500E+01    4.54092E+03
 1.35000E+01    4.57184E+03
 1.37500E+01    4.60330E+03
 1.38750E+01    4.61910E+03
 1.40000E+01    4.63492E+03
 1.42500E+01    4.66188E+03
 1.45000E+01    4.68886E+03
 1.47500E+01    4.71726E+03
 1.50000E+01    4.74900E+03
 1.52500E+01    4.78733E+03
 1.55000E+01    4.82567E+03
 1.57500E+01    4.86460E+03
 1.60000E+01    4.90354E+03
 1.65000E+01    5.05434E+03
 1.70000E+01    5.20518E+03
 1.75000E+01    5.35613E+03
 1.80000E+01    5.50712E+03
 1.82500E+01    5.58953E+03
 1.85000E+01    5.67196E+03
 1.87500E+01    5.75439E+03
 1.90000E+01    5.83686E+03
 1.92500E+01    5.92376E+03
 1.95000E+01    6.01064E+03
 1.97500E+01    6.09745E+03
 2.00000E+01    6.18424E+03
