# n + Pm147 : (n,n'14)  
# tendl.2019 A.J. Koning and D. Rochman        EVAL-NOV19
# uncertainties: n
# # energies =    85
#   E(MeV)       xs(mb) 
 6.71881E-01    0.00000E+00
 6.85061E-01    5.56161E+01
 6.90601E-01    7.89936E+01
 7.00000E-01    1.18655E+02
 7.35697E-01    1.29407E+02
 8.00000E-01    1.48774E+02
 8.12792E-01    1.48637E+02
 8.42314E-01    1.48320E+02
 8.71080E-01    1.48011E+02
 8.86042E-01    1.47850E+02
 9.00000E-01    1.47700E+02
 9.16248E-01    1.47190E+02
 9.37392E-01    1.46527E+02
 9.46454E-01    1.46243E+02
 9.76992E-01    1.45285E+02
 9.79680E-01    1.45200E+02
 9.90756E-01    1.44853E+02
 1.00000E+00    1.44563E+02
 1.04830E+00    1.39229E+02
 1.05620E+00    1.38356E+02
 1.05825E+00    1.38130E+02
 1.20000E+00    1.22475E+02
 1.40000E+00    9.18184E+01
 1.60000E+00    6.40074E+01
 1.80000E+00    4.16781E+01
 2.00000E+00    2.63083E+01
 2.20000E+00    1.65860E+01
 2.40000E+00    1.06268E+01
 2.60000E+00    6.95715E+00
 2.80000E+00    4.65271E+00
 3.00000E+00    3.17072E+00
 3.20000E+00    2.19697E+00
 3.40000E+00    1.54331E+00
 3.60000E+00    1.09736E+00
 3.80000E+00    7.89621E-01
 4.00000E+00    5.75709E-01
 4.20000E+00    4.26521E-01
 4.40000E+00    3.22512E-01
 4.60000E+00    2.50102E-01
 4.80000E+00    2.00023E-01
 5.00000E+00    1.65630E-01
 5.20000E+00    1.42208E-01
 5.40000E+00    1.26496E-01
 5.60000E+00    1.16282E-01
 5.80000E+00    1.09814E-01
 6.00000E+00    1.06092E-01
 6.20000E+00    1.04112E-01
 6.40000E+00    1.03430E-01
 6.60000E+00    1.03574E-01
 6.80000E+00    1.04179E-01
 7.00000E+00    1.05045E-01
 7.20000E+00    1.05987E-01
 7.40000E+00    1.06887E-01
 7.60000E+00    1.07678E-01
 7.80000E+00    1.08304E-01
 8.00000E+00    1.08748E-01
 8.50000E+00    1.09063E-01
 9.00000E+00    1.08450E-01
 9.50000E+00    1.07265E-01
 1.00000E+01    1.05830E-01
 1.05000E+01    1.04361E-01
 1.10000E+01    1.02983E-01
 1.15000E+01    1.01737E-01
 1.20000E+01    1.00625E-01
 1.25000E+01    9.96162E-02
 1.30000E+01    9.86723E-02
 1.35000E+01    9.77568E-02
 1.40000E+01    9.68363E-02
 1.45000E+01    9.58884E-02
 1.50000E+01    9.48974E-02
 1.60000E+01    9.27571E-02
 1.70000E+01    9.04079E-02
 1.80000E+01    8.79201E-02
 1.90000E+01    8.54059E-02
 2.00000E+01    8.29681E-02
 2.10000E+01    8.06664E-02
 2.20000E+01    7.85205E-02
 2.30000E+01    7.65179E-02
 2.40000E+01    7.46228E-02
 2.50000E+01    7.27880E-02
 2.60000E+01    7.09738E-02
 2.70000E+01    6.91658E-02
 2.80000E+01    6.73734E-02
 2.90000E+01    6.56208E-02
 3.00000E+01    6.39317E-02
