# n + Yb168 : (n,n'06)  
# jeff3.3    A.J. Koning and D. Rochman        EVAL-DEC15
# uncertainties: n
# # energies =    89
#   E(MeV)       xs(mb) 
 1.07356E+00    0.00000E+00
 1.10459E+00    2.63851E+01
 1.16214E+00    7.53203E+01
 1.16667E+00    7.91722E+01
 1.17842E+00    8.91633E+01
 1.20000E+00    1.07513E+02
 1.20419E+00    1.08136E+02
 1.23890E+00    1.13298E+02
 1.24051E+00    1.13537E+02
 1.28668E+00    1.20404E+02
 1.31012E+00    1.23889E+02
 1.34805E+00    1.29530E+02
 1.39847E+00    1.37029E+02
 1.40000E+00    1.37256E+02
 1.41632E+00    1.37537E+02
 1.43401E+00    1.37841E+02
 1.44161E+00    1.37972E+02
 1.45381E+00    1.38182E+02
 1.46048E+00    1.38297E+02
 1.48144E+00    1.38657E+02
 1.48888E+00    1.38785E+02
 1.52058E+00    1.39331E+02
 1.55227E+00    1.39876E+02
 1.56065E+00    1.40020E+02
 1.60000E+00    1.40697E+02
 1.60458E+00    1.39990E+02
 1.60749E+00    1.39540E+02
 1.61414E+00    1.38513E+02
 1.80000E+00    1.09804E+02
 2.00000E+00    7.59983E+01
 2.20000E+00    5.03457E+01
 2.40000E+00    3.29688E+01
 2.60000E+00    2.16155E+01
 2.80000E+00    1.42580E+01
 3.00000E+00    9.49025E+00
 3.20000E+00    6.54114E+00
 3.40000E+00    4.42698E+00
 3.60000E+00    3.02449E+00
 3.80000E+00    2.08392E+00
 4.00000E+00    1.45976E+00
 4.20000E+00    1.03289E+00
 4.40000E+00    7.19755E-01
 4.60000E+00    5.05224E-01
 4.80000E+00    3.56156E-01
 5.00000E+00    2.52164E-01
 5.20000E+00    1.79339E-01
 5.40000E+00    1.28098E-01
 5.60000E+00    9.18974E-02
 5.80000E+00    6.58731E-02
 6.00000E+00    4.75538E-02
 6.20000E+00    3.44638E-02
 6.40000E+00    2.50895E-02
 6.60000E+00    1.83893E-02
 6.80000E+00    1.35460E-02
 7.00000E+00    1.00315E-02
 7.20000E+00    7.46500E-03
 7.40000E+00    5.57558E-03
 7.60000E+00    4.18634E-03
 7.80000E+00    3.15258E-03
 8.00000E+00    2.38263E-03
 8.50000E+00    1.20046E-03
 9.00000E+00    6.16138E-04
 9.50000E+00    3.21055E-04
 1.00000E+01    1.68727E-04
 1.05000E+01    8.92287E-05
 1.10000E+01    4.75527E-05
 1.15000E+01    2.55866E-05
 1.20000E+01    1.39097E-05
 1.25000E+01    7.63950E-06
 1.30000E+01    4.23784E-06
 1.35000E+01    2.37560E-06
 1.40000E+01    1.34448E-06
 1.45000E+01    7.67650E-07
 1.50000E+01    4.42750E-07
 1.60000E+01    1.50800E-07
 1.70000E+01    5.31230E-08
 1.80000E+01    1.91180E-08
 1.90000E+01    7.11480E-09
 2.00000E+01    2.71850E-09
 2.10000E+01    1.06420E-09
 2.20000E+01    4.25600E-10
 2.30000E+01    1.74720E-10
 2.40000E+01    7.29860E-11
 2.50000E+01    3.10150E-11
 2.60000E+01    1.33900E-11
 2.70000E+01    5.85300E-12
 2.80000E+01    2.60280E-12
 2.90000E+01    1.17720E-12
 3.00000E+01    5.39590E-13
