# n + Yb168 : (n,n'15)  
# jeff3.3    A.J. Koning and D. Rochman        EVAL-DEC15
# uncertainties: n
# # energies =    79
#   E(MeV)       xs(mb) 
 1.31012E+00    0.00000E+00
 1.34805E+00    2.21360E+00
 1.39847E+00    5.15611E+00
 1.40000E+00    5.24540E+00
 1.41632E+00    5.94328E+00
 1.43401E+00    6.69975E+00
 1.44161E+00    7.02475E+00
 1.45381E+00    7.54645E+00
 1.46048E+00    7.83168E+00
 1.48144E+00    8.72798E+00
 1.48888E+00    9.04613E+00
 1.52058E+00    1.04017E+01
 1.55227E+00    1.17569E+01
 1.56065E+00    1.21152E+01
 1.60000E+00    1.37979E+01
 1.60458E+00    1.39164E+01
 1.60749E+00    1.39917E+01
 1.61414E+00    1.41637E+01
 1.80000E+00    1.89714E+01
 2.00000E+00    1.84389E+01
 2.20000E+00    1.50883E+01
 2.40000E+00    1.14742E+01
 2.60000E+00    8.43795E+00
 2.80000E+00    6.09398E+00
 3.00000E+00    4.36497E+00
 3.20000E+00    3.25245E+00
 3.40000E+00    2.31942E+00
 3.60000E+00    1.66151E+00
 3.80000E+00    1.19617E+00
 4.00000E+00    8.64339E-01
 4.20000E+00    6.30808E-01
 4.40000E+00    4.68328E-01
 4.60000E+00    3.38438E-01
 4.80000E+00    2.45783E-01
 5.00000E+00    1.78914E-01
 5.20000E+00    1.30612E-01
 5.40000E+00    9.56261E-02
 5.60000E+00    7.02344E-02
 5.80000E+00    5.14717E-02
 6.00000E+00    3.79560E-02
 6.20000E+00    2.80691E-02
 6.40000E+00    2.08249E-02
 6.60000E+00    1.55476E-02
 6.80000E+00    1.16504E-02
 7.00000E+00    8.77077E-03
 7.20000E+00    6.62992E-03
 7.40000E+00    5.02553E-03
 7.60000E+00    3.82704E-03
 7.80000E+00    2.92088E-03
 8.00000E+00    2.23578E-03
 8.50000E+00    1.15982E-03
 9.00000E+00    6.10860E-04
 9.50000E+00    3.25737E-04
 1.00000E+01    1.74809E-04
 1.05000E+01    9.42337E-05
 1.10000E+01    5.11088E-05
 1.15000E+01    2.79442E-05
 1.20000E+01    1.54149E-05
 1.25000E+01    8.57955E-06
 1.30000E+01    4.81729E-06
 1.35000E+01    2.73036E-06
 1.40000E+01    1.56084E-06
 1.45000E+01    8.99380E-07
 1.50000E+01    5.23080E-07
 1.60000E+01    1.80800E-07
 1.70000E+01    6.45100E-08
 1.80000E+01    2.34790E-08
 1.90000E+01    8.82690E-09
 2.00000E+01    3.40420E-09
 2.10000E+01    1.34400E-09
 2.20000E+01    5.41740E-10
 2.30000E+01    2.23980E-10
 2.40000E+01    9.41580E-11
 2.50000E+01    4.02370E-11
 2.60000E+01    1.74580E-11
 2.70000E+01    7.66490E-12
 2.80000E+01    3.42240E-12
 2.90000E+01    1.55380E-12
 3.00000E+01    7.14760E-13
