# n + Yb168 : (n,n'11)  
# jeff3.3    A.J. Koning and D. Rochman        EVAL-DEC15
# uncertainties: n
# # energies =    83
#   E(MeV)       xs(mb) 
 1.20419E+00    0.00000E+00
 1.23890E+00    8.08204E+00
 1.24051E+00    8.45693E+00
 1.28668E+00    1.92074E+01
 1.31012E+00    2.46653E+01
 1.34805E+00    3.34971E+01
 1.39847E+00    4.52372E+01
 1.40000E+00    4.55934E+01
 1.41632E+00    4.59242E+01
 1.43401E+00    4.62827E+01
 1.44161E+00    4.64367E+01
 1.45381E+00    4.66840E+01
 1.46048E+00    4.68191E+01
 1.48144E+00    4.72439E+01
 1.48888E+00    4.73947E+01
 1.52058E+00    4.80372E+01
 1.55227E+00    4.86795E+01
 1.56065E+00    4.88493E+01
 1.60000E+00    4.96468E+01
 1.60458E+00    4.94432E+01
 1.60749E+00    4.93138E+01
 1.61414E+00    4.90182E+01
 1.80000E+00    4.07554E+01
 2.00000E+00    2.79675E+01
 2.20000E+00    1.78895E+01
 2.40000E+00    1.12040E+01
 2.60000E+00    7.00796E+00
 2.80000E+00    4.41191E+00
 3.00000E+00    2.80887E+00
 3.20000E+00    1.83958E+00
 3.40000E+00    1.20349E+00
 3.60000E+00    7.98384E-01
 3.80000E+00    5.36579E-01
 4.00000E+00    3.64573E-01
 4.20000E+00    2.54046E-01
 4.40000E+00    1.75833E-01
 4.60000E+00    1.21807E-01
 4.80000E+00    8.49179E-02
 5.00000E+00    5.95032E-02
 5.20000E+00    4.19052E-02
 5.40000E+00    2.96528E-02
 5.60000E+00    2.10834E-02
 5.80000E+00    1.49809E-02
 6.00000E+00    1.07270E-02
 6.20000E+00    7.71294E-03
 6.40000E+00    5.57337E-03
 6.60000E+00    4.05707E-03
 6.80000E+00    2.96835E-03
 7.00000E+00    2.18451E-03
 7.20000E+00    1.61595E-03
 7.40000E+00    1.19996E-03
 7.60000E+00    8.95962E-04
 7.80000E+00    6.71036E-04
 8.00000E+00    5.04412E-04
 8.50000E+00    2.50787E-04
 9.00000E+00    1.27034E-04
 9.50000E+00    6.53362E-05
 1.00000E+01    3.38972E-05
 1.05000E+01    1.77030E-05
 1.10000E+01    9.32311E-06
 1.15000E+01    4.96178E-06
 1.20000E+01    2.67082E-06
 1.25000E+01    1.45398E-06
 1.30000E+01    8.00230E-07
 1.35000E+01    4.45400E-07
 1.40000E+01    2.50440E-07
 1.45000E+01    1.42130E-07
 1.50000E+01    8.15120E-08
 1.60000E+01    2.74820E-08
 1.70000E+01    9.59610E-09
 1.80000E+01    3.42690E-09
 1.90000E+01    1.26660E-09
 2.00000E+01    4.80980E-10
 2.10000E+01    1.87250E-10
 2.20000E+01    7.45400E-11
 2.30000E+01    3.04860E-11
 2.40000E+01    1.26970E-11
 2.50000E+01    5.38180E-12
 2.60000E+01    2.31780E-12
 2.70000E+01    1.01050E-12
 2.80000E+01    4.48070E-13
 2.90000E+01    2.02050E-13
 3.00000E+01    9.23440E-14
