# n + Yb168 : (n,n'09)  
# jeff3.3    A.J. Koning and D. Rochman        EVAL-DEC15
# uncertainties: n
# # energies =    86
#   E(MeV)       xs(mb) 
 1.16667E+00    0.00000E+00
 1.17842E+00    2.34773E+01
 1.20000E+00    6.65959E+01
 1.20419E+00    6.74561E+01
 1.23890E+00    7.45819E+01
 1.24051E+00    7.49124E+01
 1.28668E+00    8.43909E+01
 1.31012E+00    8.92030E+01
 1.34805E+00    9.69899E+01
 1.39847E+00    1.07341E+02
 1.40000E+00    1.07655E+02
 1.41632E+00    1.07863E+02
 1.43401E+00    1.08088E+02
 1.44161E+00    1.08185E+02
 1.45381E+00    1.08340E+02
 1.46048E+00    1.08425E+02
 1.48144E+00    1.08692E+02
 1.48888E+00    1.08786E+02
 1.52058E+00    1.09190E+02
 1.55227E+00    1.09593E+02
 1.56065E+00    1.09700E+02
 1.60000E+00    1.10201E+02
 1.60458E+00    1.09578E+02
 1.60749E+00    1.09183E+02
 1.61414E+00    1.08279E+02
 1.80000E+00    8.30101E+01
 2.00000E+00    5.43040E+01
 2.20000E+00    3.44831E+01
 2.40000E+00    2.20353E+01
 2.60000E+00    1.43375E+01
 2.80000E+00    9.53074E+00
 3.00000E+00    6.49074E+00
 3.20000E+00    4.60127E+00
 3.40000E+00    3.31066E+00
 3.60000E+00    2.46053E+00
 3.80000E+00    1.89391E+00
 4.00000E+00    1.51218E+00
 4.20000E+00    1.26280E+00
 4.40000E+00    1.07915E+00
 4.60000E+00    9.52856E-01
 4.80000E+00    8.65678E-01
 5.00000E+00    8.05677E-01
 5.20000E+00    7.64668E-01
 5.40000E+00    7.36971E-01
 5.60000E+00    7.18689E-01
 5.80000E+00    7.06926E-01
 6.00000E+00    7.00228E-01
 6.20000E+00    6.97131E-01
 6.40000E+00    6.96745E-01
 6.60000E+00    6.98395E-01
 6.80000E+00    7.01496E-01
 7.00000E+00    7.05601E-01
 7.20000E+00    7.10313E-01
 7.40000E+00    7.15323E-01
 7.60000E+00    7.20395E-01
 7.80000E+00    7.25347E-01
 8.00000E+00    7.30070E-01
 8.50000E+00    7.40517E-01
 9.00000E+00    7.48902E-01
 9.50000E+00    7.55461E-01
 1.00000E+01    7.60537E-01
 1.05000E+01    7.64510E-01
 1.10000E+01    7.67696E-01
 1.15000E+01    7.70294E-01
 1.20000E+01    7.72319E-01
 1.25000E+01    7.73644E-01
 1.30000E+01    7.74074E-01
 1.35000E+01    7.73447E-01
 1.40000E+01    7.71675E-01
 1.45000E+01    7.68771E-01
 1.50000E+01    7.64826E-01
 1.60000E+01    7.54579E-01
 1.70000E+01    7.43120E-01
 1.80000E+01    7.33265E-01
 1.90000E+01    7.27624E-01
 2.00000E+01    7.27752E-01
 2.10000E+01    7.33695E-01
 2.20000E+01    7.44050E-01
 2.30000E+01    7.56502E-01
 2.40000E+01    7.68802E-01
 2.50000E+01    7.79635E-01
 2.60000E+01    7.88836E-01
 2.70000E+01    7.96951E-01
 2.80000E+01    8.04690E-01
 2.90000E+01    8.12520E-01
 3.00000E+01    8.20509E-01
