# n + I 127 : (n,g)     
# jendl4.0   JNDC FP NUCLEAR DATA W.G.         EVAL-MAR90
# uncertainties: n
# # energies =    69
#   E(MeV)       xs(mb) 
 1.00000E-10    4.46972E+04
 5.00000E-09    1.21699E+04
 1.00000E-08    9.21675E+03
 1.50000E-08    7.74351E+03
 2.00000E-08    6.81257E+03
 2.50000E-08    6.15465E+03
 3.00000E-08    5.65746E+03
 3.50000E-08    5.20135E+03
 4.20000E-08    4.75722E+03
 5.00000E-08    4.38783E+03
 5.80000E-08    4.07808E+03
 6.70000E-08    3.76323E+03
 8.00000E-08    3.40501E+03
 1.00000E-07    2.96197E+03
 1.40000E-07    2.55529E+03
 1.80000E-07    2.28127E+03
 2.20000E-07    2.10052E+03
 2.50000E-07    1.97724E+03
 2.80000E-07    1.88874E+03
 3.00000E-07    1.82654E+03
 3.20000E-07    1.75736E+03
 3.50000E-07    1.66189E+03
 4.00000E-07    1.52018E+03
 5.00000E-07    1.35908E+03
 6.25000E-07    1.21550E+03
 7.80000E-07    1.12473E+03
 8.50000E-07    1.08199E+03
 9.10000E-07    1.05216E+03
 9.50000E-07    1.03489E+03
 9.72000E-07    1.02268E+03
 9.96000E-07    1.01037E+03
 1.02000E-06    9.98266E+02
 1.04500E-06    9.86155E+02
 1.07100E-06    9.74252E+02
 1.09700E-06    9.62757E+02
 1.12300E-06    9.51531E+02
 1.15000E-06    9.17377E+02
 1.30000E-06    8.58464E+02
 1.50000E-06    7.62621E+02
 2.10000E-06    6.65108E+02
 2.60000E-06    5.95874E+02
 3.30000E-06    5.37838E+02
 4.00000E-06    4.46335E+02
 9.87700E-06    7.16474E+02
 1.59680E-05    1.34877E+04
 2.77000E-05    1.80275E+05
 4.80520E-05    2.41830E+03
 7.55014E-05    2.36493E+04
 1.48728E-04    1.31981E+04
 3.67262E-04    8.79037E+03
 9.06898E-04    3.57915E+03
 1.42510E-03    2.89834E+03
 2.23945E-03    2.11185E+03
 3.51910E-03    1.70692E+03
 5.53000E-03    1.46798E+03
 9.11800E-03    1.11925E+03
 1.50300E-02    8.70145E+02
 2.47800E-02    6.77246E+02
 4.08500E-02    5.13481E+02
 6.73400E-02    3.46734E+02
 1.11000E-01    2.40229E+02
 1.83000E-01    1.75146E+02
 3.02000E-01    1.34595E+02
 5.00000E-01    1.03530E+02
 8.21000E-01    7.34590E+01
 1.35300E+00    5.57946E+01
 2.23100E+00    2.99943E+01
 3.67900E+00    9.10804E+00
 6.06500E+00    1.44754E+00
