# n + I 127 : (n,el)    
# jendl4.0   JNDC FP NUCLEAR DATA W.G.         EVAL-MAR90
# uncertainties: n
# # energies =   171
#   E(MeV)       xs(mb) 
 1.00000E-11    5.32315E+03
 1.00000E-07    3.23431E+03
 4.13990E-07    3.22175E+03
 5.31580E-07    3.21533E+03
 6.82560E-07    3.20749E+03
 8.76420E-07    3.19745E+03
 1.12540E-06    3.18456E+03
 1.44500E-06    3.16800E+03
 1.85540E-06    3.14696E+03
 2.37240E-06    3.11971E+03
 3.05900E-06    3.08419E+03
 3.92790E-06    3.03841E+03
 5.04350E-06    2.97961E+03
 6.47600E-06    2.90411E+03
 8.31530E-06    2.80457E+03
 1.06770E-05    2.66289E+03
 1.37100E-05    2.43779E+03
 1.76030E-05    2.69633E+03
 2.26030E-05    1.67489E+03
 2.92030E-05    2.99153E+04
 3.72670E-05    9.60869E+04
 4.78510E-05    4.47124E+03
 6.14420E-05    1.00073E+04
 7.88930E-05    7.76007E+03
 1.01300E-04    3.06104E+03
 1.30070E-04    8.27208E+03
 1.67020E-04    3.36550E+04
 2.14450E-04    7.26188E+03
 2.75360E-04    3.60860E+03
 3.53580E-04    2.19051E+04
 4.54000E-04    9.22400E+03
 5.82950E-04    1.40197E+04
 7.48520E-04    9.28109E+03
 9.61120E-04    7.94706E+03
 1.23410E-03    7.01198E+03
 1.58460E-03    7.21625E+03
 2.03470E-03    8.08291E+03
 2.24870E-03    8.15801E+03
 2.48520E-03    4.98306E+03
 2.61260E-03    5.07340E+03
 2.74650E-03    9.01456E+03
 3.03540E-03    5.64756E+03
 3.35460E-03    5.66615E+03
 3.70740E-03    8.12325E+03
 4.30740E-03    7.27198E+03
 5.53080E-03    6.64182E+03
 7.10170E-03    6.41267E+03
 9.11880E-03    6.20740E+03
 1.17090E-02    6.02490E+03
 1.50340E-02    5.86957E+03
 1.93050E-02    5.76753E+03
 2.18750E-02    5.72200E+03
 2.35790E-02    5.69800E+03
 2.41760E-02    5.68550E+03
 2.47880E-02    5.66935E+03
 2.60580E-02    5.65452E+03
 2.70000E-02    5.63839E+03
 2.85000E-02    5.60671E+03
 3.18280E-02    5.57143E+03
 3.43070E-02    5.53550E+03
 4.08680E-02    5.49090E+03
 4.63090E-02    5.45859E+03
 5.24750E-02    5.41874E+03
 5.65620E-02    5.36317E+03
 6.73790E-02    5.30371E+03
 7.20000E-02    5.26795E+03
 7.95000E-02    5.23950E+03
 8.25000E-02    5.22090E+03
 8.65170E-02    5.18446E+03
 9.80370E-02    5.12594E+03
 1.11090E-01    5.10628E+03
 1.16790E-01    5.09616E+03
 1.22770E-01    5.08552E+03
 1.29070E-01    5.07433E+03
 1.35690E-01    5.06257E+03
 1.42640E-01    5.05021E+03
 1.49960E-01    5.04056E+03
 1.57640E-01    5.03984E+03
 1.65730E-01    5.03963E+03
 1.74220E-01    5.03942E+03
 1.83160E-01    5.03919E+03
 1.92550E-01    5.03911E+03
 2.02420E-01    5.03800E+03
 2.12800E-01    5.02844E+03
 2.23710E-01    5.01809E+03
 2.35180E-01    5.00721E+03
 2.47240E-01    5.00572E+03
 2.73240E-01    5.01843E+03
 2.87250E-01    5.02529E+03
 2.94520E-01    5.02850E+03
 2.97200E-01    5.02978E+03
 2.98500E-01    5.03131E+03
 3.01970E-01    5.04597E+03
 3.33730E-01    5.08124E+03
 3.68830E-01    5.11041E+03
 3.87740E-01    5.13120E+03
 4.07620E-01    5.16033E+03
 4.50490E-01    5.18102E+03
 4.97870E-01    5.19772E+03
 5.23400E-01    5.21929E+03
 5.50230E-01    5.24280E+03
 5.78440E-01    5.26752E+03
 6.08100E-01    5.29295E+03
 6.39280E-01    5.29992E+03
 6.72060E-01    5.29736E+03
 7.06510E-01    5.29943E+03
 7.42740E-01    5.30256E+03
 7.80820E-01    5.30312E+03
 8.20850E-01    5.30665E+03
 8.62940E-01    5.31086E+03
 9.07180E-01    5.31565E+03
 9.61640E-01    5.32026E+03
 1.00260E+00    5.30878E+03
 1.10800E+00    5.28554E+03
 1.16480E+00    5.25652E+03
 1.22460E+00    5.22332E+03
 1.28730E+00    5.17295E+03
 1.35340E+00    5.11680E+03
 1.42270E+00    5.05746E+03
 1.49570E+00    4.98555E+03
 1.57240E+00    4.90285E+03
 1.65300E+00    4.81491E+03
 1.73770E+00    4.71772E+03
 1.82680E+00    4.61177E+03
 1.92050E+00    4.49939E+03
 2.01900E+00    4.37066E+03
 2.12250E+00    4.22901E+03
 2.23130E+00    4.11094E+03
 2.30690E+00    4.03798E+03
 2.34570E+00    4.00079E+03
 2.36530E+00    3.97567E+03
 2.38520E+00    3.91693E+03
 2.46600E+00    3.80269E+03
 2.59240E+00    3.66978E+03
 2.72530E+00    3.54036E+03
 2.86500E+00    3.41333E+03
 3.01190E+00    3.28101E+03
 3.16640E+00    3.14082E+03
 3.32870E+00    2.94290E+03
 3.67880E+00    2.69626E+03
 4.06570E+00    2.49806E+03
 4.49330E+00    2.37020E+03
 4.72370E+00    2.28845E+03
 4.96590E+00    2.22885E+03
 5.22050E+00    2.20344E+03
 5.48810E+00    2.17730E+03
 5.76950E+00    2.15165E+03
 6.06530E+00    2.16348E+03
 6.37630E+00    2.18832E+03
 6.59240E+00    2.20373E+03
 6.70320E+00    2.22533E+03
 7.04690E+00    2.28429E+03
 7.40820E+00    2.36204E+03
 7.78800E+00    2.44572E+03
 8.18730E+00    2.54758E+03
 8.60710E+00    2.65796E+03
 9.04840E+00    2.80494E+03
 9.51230E+00    2.85127E+03
 1.00000E+01    2.85064E+03
 1.05130E+01    2.81572E+03
 1.10520E+01    2.85119E+03
 1.16180E+01    2.93406E+03
 1.22140E+01    2.95125E+03
 1.28400E+01    2.96594E+03
 1.34990E+01    3.01222E+03
 1.38400E+01    3.04690E+03
 1.41910E+01    3.05690E+03
 1.45500E+01    3.06693E+03
 1.49180E+01    3.07784E+03
 1.56830E+01    3.07785E+03
 1.64870E+01    3.05645E+03
