# n + Ni 60 : (n,a)     
# endfb8.0   T.Kawano,A.Kahler,L.Leal          EVAL-Oct12
# uncertainties: y
# # energies =    64
#   E(MeV)       xs(mb)       xslow(mb)      xsupp(mb)
 8.00000E-01    0.00000E+00    0.00000E+00    0.00000E+00
 8.00000E-01    1.05840E-09    1.05840E-09    1.05840E-09
 9.00000E-01    4.10500E-09    4.10500E-09    4.10500E-09
 1.00000E+00    1.46210E-08    1.46210E-08    1.46210E-08
 1.10000E+00    4.81600E-08    4.81600E-08    4.81600E-08
 1.20000E+00    1.47840E-07    1.47840E-07    1.47840E-07
 1.30000E+00    4.25550E-07    4.25550E-07    4.25550E-07
 1.40000E+00    8.31040E-07    8.31040E-07    8.31040E-07
 1.50000E+00    1.70547E-06    1.70547E-06    1.70547E-06
 1.60000E+00    3.66362E-06    3.66362E-06    3.66362E-06
 1.70000E+00    7.79929E-06    7.79929E-06    7.79929E-06
 1.80000E+00    1.62518E-05    1.62518E-05    1.62518E-05
 1.90000E+00    3.30543E-05    3.30543E-05    3.30543E-05
 2.00000E+00    6.56144E-05    6.56144E-05    6.56144E-05
 2.10000E+00    1.27209E-04    1.27209E-04    1.27209E-04
 2.20000E+00    2.35379E-04    2.35379E-04    2.35379E-04
 2.30000E+00    4.02691E-04    4.02691E-04    4.02691E-04
 2.40000E+00    6.76200E-04    6.76200E-04    6.76200E-04
 2.50000E+00    1.13997E-03    1.13997E-03    1.13997E-03
 2.60000E+00    1.85165E-03    1.85165E-03    1.85165E-03
 2.70000E+00    2.94484E-03    2.94484E-03    2.94484E-03
 2.80000E+00    4.62603E-03    4.62603E-03    4.62603E-03
 2.90000E+00    7.24620E-03    7.24620E-03    7.24620E-03
 3.00000E+00    1.12842E-02    1.12842E-02    1.12842E-02
 3.10000E+00    1.74493E-02    1.74493E-02    1.74493E-02
 3.20000E+00    2.64198E-02    2.64198E-02    2.64198E-02
 3.30000E+00    3.80687E-02    3.80687E-02    3.80687E-02
 3.40000E+00    5.36688E-02    5.36688E-02    5.36688E-02
 3.50000E+00    7.15526E-02    7.15526E-02    7.15526E-02
 3.60000E+00    9.85462E-02    9.85462E-02    9.85462E-02
 3.80000E+00    1.82533E-01    1.82533E-01    1.82533E-01
 4.00000E+00    3.17868E-01    3.17868E-01    3.17868E-01
 4.50000E+00    9.27025E-01    9.27025E-01    9.27025E-01
 5.00000E+00    2.19159E+00    2.19159E+00    2.19159E+00
 5.50000E+00    4.70002E+00    4.70002E+00    4.70002E+00
 6.00000E+00    9.04154E+00    9.04154E+00    9.04154E+00
 6.50000E+00    1.52802E+01    1.52802E+01    1.52802E+01
 7.00000E+00    2.27073E+01    2.27073E+01    2.27073E+01
 7.50000E+00    3.08361E+01    3.08361E+01    3.08361E+01
 8.00000E+00    3.81171E+01    3.81171E+01    3.81171E+01
 8.50000E+00    4.47751E+01    4.47751E+01    4.47751E+01
 9.00000E+00    5.07900E+01    5.07900E+01    5.07900E+01
 9.50000E+00    5.60269E+01    5.60269E+01    5.60269E+01
 1.00000E+01    6.03756E+01    6.03756E+01    6.03756E+01
 1.05000E+01    6.37658E+01    6.37658E+01    6.37658E+01
 1.10000E+01    6.62574E+01    6.62574E+01    6.62574E+01
 1.15000E+01    6.79510E+01    6.79510E+01    6.79510E+01
 1.20000E+01    6.89903E+01    6.89903E+01    6.89903E+01
 1.25000E+01    6.95982E+01    6.95982E+01    6.95982E+01
 1.30000E+01    6.83772E+01    6.83772E+01    6.83772E+01
 1.35000E+01    6.80464E+01    6.80464E+01    6.80464E+01
 1.40000E+01    6.66815E+01    6.66815E+01    6.66815E+01
 1.45000E+01    6.42422E+01    6.42422E+01    6.42422E+01
 1.50000E+01    6.08061E+01    6.08061E+01    6.08061E+01
 1.55000E+01    5.65470E+01    5.65470E+01    5.65470E+01
 1.60000E+01    5.17857E+01    5.17857E+01    5.17857E+01
 1.65000E+01    4.69562E+01    4.69562E+01    4.69562E+01
 1.70000E+01    4.23783E+01    4.23783E+01    4.23783E+01
 1.75000E+01    3.82325E+01    3.82325E+01    3.82325E+01
 1.80000E+01    3.45961E+01    3.45961E+01    3.45961E+01
 1.85000E+01    3.13934E+01    3.13934E+01    3.13934E+01
 1.90000E+01    2.84795E+01    2.84795E+01    2.84795E+01
 1.95000E+01    2.61998E+01    2.61998E+01    2.61998E+01
 2.00000E+01    2.42213E+01    2.42213E+01    2.42213E+01
