# n + Ni 60 : (n,xa)    
# endfb8.0   T.Kawano,A.Kahler,L.Leal          EVAL-Oct12
# 
# # energies =   112
#   E(MeV)        xs(mb) 
 1.35495E+00    6.48355E-07
 1.40000E+00    8.31040E-07
 1.50000E+00    1.70547E-06
 1.60000E+00    3.66362E-06
 1.70000E+00    7.79929E-06
 1.80000E+00    1.62518E-05
 1.90000E+00    3.30543E-05
 2.00000E+00    6.56144E-05
 2.10000E+00    1.27209E-04
 2.19497E+00    2.29939E-04
 2.20000E+00    2.35379E-04
 2.30000E+00    4.02691E-04
 2.32332E+00    4.66487E-04
 2.40000E+00    6.76200E-04
 2.50000E+00    1.13997E-03
 2.54794E+00    1.48117E-03
 2.60000E+00    1.85165E-03
 2.67028E+00    2.61992E-03
 2.70000E+00    2.94484E-03
 2.80000E+00    4.62603E-03
 2.90000E+00    7.24620E-03
 3.00000E+00    1.12842E-02
 3.10000E+00    1.74493E-02
 3.17221E+00    2.39265E-02
 3.17660E+00    2.43206E-02
 3.20000E+00    2.64198E-02
 3.23964E+00    3.10376E-02
 3.24778E+00    3.19853E-02
 3.30000E+00    3.80687E-02
 3.32440E+00    4.18759E-02
 3.37455E+00    4.96993E-02
 3.40000E+00    5.36688E-02
 3.43790E+00    6.04474E-02
 3.45061E+00    6.27205E-02
 3.50000E+00    7.15526E-02
 3.60000E+00    9.85462E-02
 3.64849E+00    1.18909E-01
 3.68047E+00    1.32338E-01
 3.68388E+00    1.33768E-01
 3.73249E+00    1.54183E-01
 3.76431E+00    1.67544E-01
 3.79346E+00    1.79786E-01
 3.79898E+00    1.82105E-01
 3.80000E+00    1.82533E-01
 3.94022E+00    2.77415E-01
 3.95323E+00    2.86223E-01
 3.96056E+00    2.91177E-01
 3.99187E+00    3.12369E-01
 4.00000E+00    3.17868E-01
 4.07536E+00    4.09674E-01
 4.08812E+00    4.25221E-01
 4.10291E+00    4.43246E-01
 4.10766E+00    4.49031E-01
 4.14718E+00    4.97184E-01
 4.14820E+00    4.98423E-01
 4.50000E+00    9.27025E-01
 5.00000E+00    2.19159E+00
 5.50000E+00    4.70002E+00
 6.00000E+00    9.04154E+00
 6.50000E+00    1.52802E+01
 7.00000E+00    2.27073E+01
 7.50000E+00    3.08361E+01
 8.00000E+00    3.81171E+01
 8.50000E+00    4.47751E+01
 9.00000E+00    5.07900E+01
 9.50000E+00    5.60269E+01
 1.00000E+01    6.03759E+01
 1.05000E+01    6.37719E+01
 1.10000E+01    6.63203E+01
 1.15000E+01    6.83735E+01
 1.20000E+01    7.01136E+01
 1.25000E+01    7.14076E+01
 1.30000E+01    7.08347E+01
 1.35000E+01    7.15475E+01
 1.40000E+01    7.20449E+01
 1.45000E+01    7.25867E+01
 1.50000E+01    7.33676E+01
 1.55000E+01    7.44014E+01
 1.60000E+01    7.56061E+01
 1.65000E+01    7.69957E+01
 1.70000E+01    7.86069E+01
 1.75000E+01    8.05121E+01
 1.80000E+01    8.27991E+01
 1.85000E+01    8.55522E+01
 1.90000E+01    8.87995E+01
 1.95000E+01    9.24204E+01
 2.00000E+01    9.62288E+01
 2.00000E+01    8.90103E+01
 2.20000E+01    1.02281E+02
 2.40000E+01    1.09258E+02
 2.60000E+01    1.10743E+02
 2.80000E+01    1.11100E+02
 3.00000E+01    1.13132E+02
 3.50000E+01    1.25666E+02
 4.00000E+01    1.32273E+02
 4.50000E+01    1.37467E+02
 5.00000E+01    1.44605E+02
 5.50000E+01    1.53026E+02
 6.00000E+01    1.58956E+02
 6.50000E+01    1.65660E+02
 7.00000E+01    1.71952E+02
 7.50000E+01    1.76720E+02
 8.00000E+01    1.82555E+02
 8.50000E+01    1.86946E+02
 9.00000E+01    1.91112E+02
 9.50000E+01    1.94842E+02
 1.00000E+02    1.98020E+02
 1.10000E+02    2.03476E+02
 1.20000E+02    2.08049E+02
 1.30000E+02    2.12215E+02
 1.40000E+02    2.15228E+02
 1.50000E+02    2.17697E+02
