# n + Ba133 : (n,p04)   
# endfb8.0   Herman,Oblozinsky,Mughabghab      EVAL-MAR06
# uncertainties: n
# # energies =    74
#   E(MeV)       xs(mb) 
 7.20000E-01    0.00000E+00
 7.50000E-01    2.15050E-07
 7.60000E-01    2.36820E-07
 7.80000E-01    2.87490E-07
 8.00000E-01    3.47960E-07
 8.20000E-01    4.18940E-07
 8.40000E-01    6.04860E-07
 8.50000E-01    6.65360E-07
 8.60000E-01    7.31380E-07
 8.70000E-01    8.01520E-07
 8.83300E-01    9.01480E-07
 8.90000E-01    9.55890E-07
 9.02000E-01    1.06041E-06
 1.00000E+00    2.35547E-06
 1.01000E+00    2.54648E-06
 1.02000E+00    2.75332E-06
 1.03000E+00    2.97707E-06
 1.04000E+00    3.21678E-06
 1.05000E+00    3.47363E-06
 1.06000E+00    3.74937E-06
 1.07000E+00    4.04294E-06
 1.08000E+00    4.35717E-06
 1.09000E+00    4.69296E-06
 1.10000E+00    5.05232E-06
 1.13000E+00    6.21827E-06
 1.14000E+00    6.67977E-06
 1.15000E+00    7.17108E-06
 1.16000E+00    7.69313E-06
 1.17000E+00    8.24792E-06
 1.20000E+00    1.01363E-05
 1.30000E+00    1.83620E-05
 1.40000E+00    3.22858E-05
 1.50000E+00    5.40606E-05
 1.60000E+00    8.66472E-05
 1.70000E+00    1.33504E-04
 1.80000E+00    1.98478E-04
 1.90000E+00    2.85595E-04
 2.00000E+00    3.98907E-04
 2.02000E+00    4.28691E-04
 2.04000E+00    4.60231E-04
 2.06000E+00    4.93562E-04
 2.08000E+00    5.11039E-04
 2.10000E+00    5.45617E-04
 2.50000E+00    2.65924E-03
 2.60000E+00    3.67895E-03
 2.62000E+00    3.91070E-03
 2.64000E+00    4.08346E-03
 2.66000E+00    4.12931E-03
 2.72000E+00    4.66555E-03
 2.76000E+00    5.04237E-03
 2.78000E+00    5.09300E-03
 2.84000E+00    5.67677E-03
 2.86000E+00    5.87751E-03
 2.88000E+00    6.13028E-03
 2.90000E+00    6.18599E-03
 3.00000E+00    7.25490E-03
 3.50000E+00    1.20209E-02
 4.00000E+00    1.56992E-02
 5.00000E+00    1.60386E-02
 6.00000E+00    9.64632E-03
 7.00000E+00    5.38539E-03
 8.00000E+00    2.66574E-03
 9.00000E+00    1.18988E-03
 1.00000E+01    5.18099E-04
 1.10000E+01    2.28143E-04
 1.20000E+01    1.02371E-04
 1.30000E+01    4.77979E-05
 1.40000E+01    2.29710E-05
 1.50000E+01    1.14384E-05
 1.60000E+01    5.76276E-06
 1.70000E+01    2.97303E-06
 1.80000E+01    1.53962E-06
 1.90000E+01    8.08160E-07
 2.00000E+01    4.26890E-07
