# n + Ba133 : (n,p01)   
# endfb8.0   Herman,Oblozinsky,Mughabghab      EVAL-MAR06
# uncertainties: n
# # energies =    89
#   E(MeV)       xs(mb) 
 3.70000E-01    0.00000E+00
 3.80000E-01    3.80750E-07
 3.90000E-01    4.17740E-07
 4.00000E-01    4.58220E-07
 4.10000E-01    5.01820E-07
 4.20000E-01    5.48720E-07
 4.30000E-01    5.99300E-07
 4.40000E-01    6.53740E-07
 4.50000E-01    1.08622E-06
 4.60000E-01    1.20666E-06
 5.00000E-01    1.82217E-06
 5.20000E-01    2.22698E-06
 5.40000E-01    2.71348E-06
 5.60000E-01    3.28792E-06
 5.77500E-01    3.87704E-06
 5.80000E-01    3.96821E-06
 6.00000E-01    4.65002E-06
 6.20000E-01    5.46041E-06
 6.60000E-01    7.26015E-06
 6.76500E-01    8.16467E-06
 7.00000E-01    9.58378E-06
 7.20000E-01    1.09896E-05
 7.50000E-01    1.36701E-05
 7.60000E-01    1.46945E-05
 7.80000E-01    1.70090E-05
 8.20000E-01    2.23230E-05
 8.40000E-01    2.56100E-05
 8.50000E-01    2.74263E-05
 8.60000E-01    2.93695E-05
 8.83300E-01    3.40011E-05
 9.02000E-01    3.80938E-05
 1.00000E+00    6.72495E-05
 1.01000E+00    7.14101E-05
 1.02000E+00    7.58367E-05
 1.04000E+00    8.51221E-05
 1.05000E+00    8.99779E-05
 1.06000E+00    9.51015E-05
 1.07000E+00    1.00503E-04
 1.08000E+00    1.06201E-04
 1.09000E+00    1.12202E-04
 1.10000E+00    1.18515E-04
 1.11000E+00    1.25159E-04
 1.13000E+00    1.37869E-04
 1.14000E+00    1.45742E-04
 1.15000E+00    1.54005E-04
 1.16000E+00    1.62657E-04
 1.17000E+00    1.71737E-04
 1.20000E+00    2.01704E-04
 1.30000E+00    3.12279E-04
 1.40000E+00    4.78873E-04
 1.50000E+00    7.06182E-04
 1.60000E+00    1.00524E-03
 1.70000E+00    1.38638E-03
 1.80000E+00    1.87420E-03
 1.90000E+00    3.96943E-03
 2.00000E+00    5.26411E-03
 2.02000E+00    5.58128E-03
 2.04000E+00    5.91194E-03
 2.06000E+00    6.25679E-03
 2.08000E+00    6.29124E-03
 2.10000E+00    6.64229E-03
 2.50000E+00    1.74617E-02
 2.60000E+00    2.03489E-02
 2.64000E+00    2.17679E-02
 2.66000E+00    2.17880E-02
 2.74000E+00    2.46638E-02
 2.76000E+00    2.54011E-02
 2.78000E+00    2.54219E-02
 2.88000E+00    2.90972E-02
 2.90000E+00    2.91221E-02
 3.00000E+00    3.27728E-02
 3.50000E+00    4.71199E-02
 4.00000E+00    5.50652E-02
 5.00000E+00    4.63389E-02
 6.00000E+00    2.47330E-02
 7.00000E+00    1.29776E-02
 8.00000E+00    6.28190E-03
 9.00000E+00    2.80149E-03
 1.00000E+01    1.23006E-03
 1.10000E+01    5.47403E-04
 1.20000E+01    2.48136E-04
 1.30000E+01    1.16990E-04
 1.40000E+01    5.67642E-05
 1.50000E+01    2.85317E-05
 1.60000E+01    1.45044E-05
 1.70000E+01    7.54649E-06
 1.80000E+01    3.93827E-06
 1.90000E+01    2.08120E-06
 2.00000E+01    1.10555E-06
