# n + Ba133 : (n,p02)   
# endfb8.0   Herman,Oblozinsky,Mughabghab      EVAL-MAR06
# uncertainties: n
# # energies =    85
#   E(MeV)       xs(mb) 
 4.40000E-01    0.00000E+00
 4.50000E-01    2.62710E-07
 4.60000E-01    2.88970E-07
 5.00000E-01    4.15800E-07
 5.20000E-01    8.71170E-07
 5.40000E-01    1.07900E-06
 5.60000E-01    1.32845E-06
 5.77500E-01    1.58788E-06
 5.80000E-01    1.62835E-06
 6.00000E-01    1.93727E-06
 6.20000E-01    2.30864E-06
 6.40000E-01    2.72901E-06
 6.60000E-01    3.15826E-06
 6.76500E-01    3.59233E-06
 7.00000E-01    4.28406E-06
 7.20000E-01    4.97759E-06
 7.50000E-01    6.31135E-06
 7.60000E-01    6.82701E-06
 7.80000E-01    8.00039E-06
 8.00000E-01    9.35597E-06
 8.20000E-01    1.07326E-05
 8.40000E-01    1.23172E-05
 8.50000E-01    1.32205E-05
 8.60000E-01    1.42382E-05
 8.83300E-01    1.66986E-05
 9.02000E-01    1.89016E-05
 1.00000E+00    3.50782E-05
 1.01000E+00    3.74257E-05
 1.02000E+00    3.99355E-05
 1.04000E+00    4.52468E-05
 1.05000E+00    4.80489E-05
 1.06000E+00    5.10173E-05
 1.07000E+00    5.41585E-05
 1.08000E+00    5.74848E-05
 1.09000E+00    6.10021E-05
 1.10000E+00    6.47159E-05
 1.11000E+00    6.86406E-05
 1.13000E+00    7.62554E-05
 1.14000E+00    8.09477E-05
 1.15000E+00    8.58939E-05
 1.16000E+00    9.10933E-05
 1.17000E+00    9.65694E-05
 1.20000E+00    1.14788E-04
 1.30000E+00    1.84488E-04
 1.40000E+00    2.92711E-04
 1.50000E+00    4.45294E-04
 1.60000E+00    6.52197E-04
 1.70000E+00    9.23371E-04
 1.80000E+00    1.26769E-03
 1.90000E+00    2.08407E-03
 2.00000E+00    3.66348E-03
 2.02000E+00    3.89033E-03
 2.04000E+00    4.12530E-03
 2.06000E+00    4.37024E-03
 2.08000E+00    4.43505E-03
 2.10000E+00    4.70267E-03
 2.50000E+00    1.30428E-02
 2.60000E+00    1.54704E-02
 2.64000E+00    1.66278E-02
 2.66000E+00    1.66820E-02
 2.68000E+00    1.72624E-02
 2.70000E+00    1.79766E-02
 2.76000E+00    1.98178E-02
 2.78000E+00    1.98808E-02
 2.88000E+00    2.30157E-02
 2.90000E+00    2.30863E-02
 3.00000E+00    2.62564E-02
 3.50000E+00    3.89788E-02
 4.00000E+00    4.70979E-02
 5.00000E+00    4.16836E-02
 6.00000E+00    2.29483E-02
 7.00000E+00    1.23399E-02
 8.00000E+00    6.06555E-03
 9.00000E+00    2.73201E-03
 1.00000E+01    1.20722E-03
 1.10000E+01    5.39508E-04
 1.20000E+01    2.45292E-04
 1.30000E+01    1.15897E-04
 1.40000E+01    5.63215E-05
 1.50000E+01    2.83416E-05
 1.60000E+01    1.44201E-05
 1.70000E+01    7.50769E-06
 1.80000E+01    3.92029E-06
 1.90000E+01    2.07271E-06
 2.00000E+01    1.10150E-06
