# n + Ba133 : (n,p00)   
# endfb8.0   Herman,Oblozinsky,Mughabghab      EVAL-MAR06
# uncertainties: n
# # energies =   102
#   E(MeV)       xs(mb) 
 3.02400E-01    0.00000E+00
 3.10000E-01    3.59330E-07
 3.20000E-01    3.75680E-07
 3.30000E-01    3.97360E-07
 3.40000E-01    4.23550E-07
 3.50000E-01    4.53390E-07
 3.60000E-01    4.87470E-07
 3.70000E-01    5.25240E-07
 3.80000E-01    7.54760E-07
 3.90000E-01    8.36900E-07
 4.00000E-01    9.27220E-07
 4.10000E-01    1.02591E-06
 4.20000E-01    1.13385E-06
 4.30000E-01    1.25256E-06
 4.40000E-01    1.38308E-06
 4.50000E-01    1.52640E-06
 4.60000E-01    1.68461E-06
 5.00000E-01    2.47147E-06
 5.20000E-01    2.97778E-06
 5.40000E-01    3.57802E-06
 5.60000E-01    4.27677E-06
 5.77500E-01    4.98335E-06
 5.80000E-01    5.09196E-06
 6.00000E-01    5.75150E-06
 6.20000E-01    6.53753E-06
 6.40000E-01    7.38536E-06
 6.60000E-01    8.16160E-06
 6.76500E-01    9.01660E-06
 6.80000E-01    9.21781E-06
 7.00000E-01    1.04554E-05
 7.20000E-01    1.18890E-05
 7.50000E-01    1.46352E-05
 7.60000E-01    1.56818E-05
 7.80000E-01    1.79783E-05
 8.20000E-01    2.31809E-05
 8.40000E-01    2.62794E-05
 8.50000E-01    2.79859E-05
 8.60000E-01    2.98009E-05
 8.70000E-01    3.17065E-05
 8.83300E-01    3.40300E-05
 8.90000E-01    3.53686E-05
 9.02000E-01    3.76146E-05
 1.00000E+00    6.35533E-05
 1.01000E+00    6.73051E-05
 1.02000E+00    7.12562E-05
 1.03000E+00    7.53777E-05
 1.04000E+00    7.93441E-05
 1.05000E+00    8.35326E-05
 1.06000E+00    8.79598E-05
 1.07000E+00    9.26127E-05
 1.08000E+00    9.75130E-05
 1.09000E+00    1.02668E-04
 1.10000E+00    1.08090E-04
 1.11000E+00    1.13771E-04
 1.13000E+00    1.23996E-04
 1.14000E+00    1.30683E-04
 1.15000E+00    1.37692E-04
 1.16000E+00    1.45009E-04
 1.17000E+00    1.52675E-04
 1.20000E+00    1.77896E-04
 1.30000E+00    2.63580E-04
 1.40000E+00    3.92366E-04
 1.50000E+00    5.64445E-04
 1.60000E+00    7.87592E-04
 1.70000E+00    1.07599E-03
 1.80000E+00    1.79823E-03
 1.90000E+00    3.44275E-03
 2.00000E+00    4.44266E-03
 2.02000E+00    4.71132E-03
 2.04000E+00    4.99217E-03
 2.06000E+00    6.28746E-03
 2.08000E+00    6.29105E-03
 2.10000E+00    6.62378E-03
 2.50000E+00    1.60731E-02
 2.60000E+00    1.86795E-02
 2.64000E+00    2.00344E-02
 2.66000E+00    2.00694E-02
 2.74000E+00    2.28456E-02
 2.76000E+00    2.35621E-02
 2.78000E+00    2.36097E-02
 2.86000E+00    2.65053E-02
 2.88000E+00    2.72714E-02
 2.90000E+00    2.73649E-02
 3.00000E+00    3.11888E-02
 3.50000E+00    4.68377E-02
 4.00000E+00    5.58018E-02
 5.00000E+00    4.68660E-02
 6.00000E+00    2.48957E-02
 7.00000E+00    1.32258E-02
 8.00000E+00    6.52104E-03
 9.00000E+00    2.96540E-03
 1.00000E+01    1.32526E-03
 1.10000E+01    5.98869E-04
 1.20000E+01    2.75171E-04
 1.30000E+01    1.31338E-04
 1.40000E+01    6.44404E-05
 1.50000E+01    3.27206E-05
 1.60000E+01    1.67869E-05
 1.70000E+01    8.80565E-06
 1.80000E+01    4.62836E-06
 1.90000E+01    2.46081E-06
 2.00000E+01    1.31390E-06
