# n + Ba133 : (n,tot)   
# endfb8.0   Herman,Oblozinsky,Mughabghab      EVAL-MAR06
# uncertainties: n
# # energies =   171
#   E(MeV)       xs(mb) 
 1.00000E-11    3.43773E+04
 1.00000E-07    3.47075E+03
 4.13990E-07    3.11085E+03
 5.31580E-07    3.03353E+03
 6.82560E-07    2.96497E+03
 8.76420E-07    2.90400E+03
 1.12540E-06    2.84986E+03
 1.44500E-06    2.80140E+03
 1.85540E-06    2.75810E+03
 2.37240E-06    2.71678E+03
 3.05900E-06    2.67745E+03
 3.92790E-06    2.64012E+03
 5.04350E-06    2.60343E+03
 6.47600E-06    2.56365E+03
 8.31530E-06    2.52239E+03
 1.06770E-05    2.47356E+03
 1.37100E-05    2.42045E+03
 1.76030E-05    2.41498E+03
 2.26030E-05    2.22080E+04
 2.92030E-05    2.18598E+03
 3.72670E-05    2.35061E+03
 4.78510E-05    7.61926E+04
 6.14420E-05    1.30690E+05
 7.88930E-05    4.70224E+05
 1.01300E-04    1.71651E+04
 1.30070E-04    5.80415E+03
 1.67020E-04    4.66549E+03
 2.14450E-04    6.01720E+03
 2.75360E-04    2.07895E+04
 3.53580E-04    3.02373E+04
 4.54000E-04    2.71499E+04
 5.82950E-04    2.44234E+04
 7.48520E-04    2.20202E+04
 9.61120E-04    1.99043E+04
 1.23410E-03    1.80383E+04
 1.58460E-03    1.63976E+04
 2.03470E-03    1.53594E+04
 2.24870E-03    1.48100E+04
 2.48520E-03    1.44154E+04
 2.61260E-03    1.41612E+04
 2.74650E-03    1.37929E+04
 3.03540E-03    1.33232E+04
 3.35460E-03    1.28783E+04
 3.70740E-03    1.23519E+04
 4.30740E-03    1.15805E+04
 5.53080E-03    1.07211E+04
 7.10170E-03    9.96795E+03
 9.11880E-03    9.31049E+03
 1.17090E-02    8.79006E+03
 1.50340E-02    8.40193E+03
 1.93050E-02    8.09586E+03
 2.18750E-02    8.01375E+03
 2.35790E-02    7.97289E+03
 2.41760E-02    7.95160E+03
 2.47880E-02    7.91860E+03
 2.60580E-02    7.87955E+03
 2.70000E-02    7.83668E+03
 2.85000E-02    7.75249E+03
 3.18280E-02    7.64968E+03
 3.43070E-02    7.49329E+03
 4.08680E-02    7.28054E+03
 4.63090E-02    7.08678E+03
 5.24750E-02    6.99299E+03
 5.65620E-02    6.89570E+03
 6.73790E-02    6.78951E+03
 7.20000E-02    6.67191E+03
 7.95000E-02    6.56136E+03
 8.25000E-02    6.48835E+03
 8.65170E-02    6.32856E+03
 9.80370E-02    6.10667E+03
 1.11090E-01    5.98667E+03
 1.16790E-01    5.91471E+03
 1.22770E-01    5.85421E+03
 1.29070E-01    5.79853E+03
 1.35690E-01    5.74014E+03
 1.42640E-01    5.69011E+03
 1.49960E-01    5.64547E+03
 1.57640E-01    5.59915E+03
 1.65730E-01    5.56132E+03
 1.74220E-01    5.52561E+03
 1.83160E-01    5.49379E+03
 1.92550E-01    5.46805E+03
 2.02420E-01    5.44532E+03
 2.12800E-01    5.42983E+03
 2.23710E-01    5.41376E+03
 2.35180E-01    5.40307E+03
 2.47240E-01    5.39817E+03
 2.73240E-01    5.40749E+03
 2.87250E-01    5.41429E+03
 2.94520E-01    5.41746E+03
 2.97200E-01    5.41873E+03
 2.98500E-01    5.42086E+03
 3.01970E-01    5.44366E+03
 3.33730E-01    5.48893E+03
 3.68830E-01    5.53772E+03
 3.87740E-01    5.57646E+03
 4.07620E-01    5.64011E+03
 4.50490E-01    5.74484E+03
 4.97870E-01    5.83241E+03
 5.23400E-01    5.89479E+03
 5.50230E-01    5.96037E+03
 5.78440E-01    6.02931E+03
 6.08100E-01    6.10180E+03
 6.39280E-01    6.17800E+03
 6.72060E-01    6.25810E+03
 7.06510E-01    6.33797E+03
 7.42740E-01    6.41170E+03
 7.80820E-01    6.48869E+03
 8.20850E-01    6.56015E+03
 8.62940E-01    6.62851E+03
 9.07180E-01    6.69724E+03
 9.61640E-01    6.75094E+03
 1.00260E+00    6.82291E+03
 1.10800E+00    6.87885E+03
 1.16480E+00    6.90694E+03
 1.22460E+00    6.92012E+03
 1.28730E+00    6.92566E+03
 1.35340E+00    6.91504E+03
 1.42270E+00    6.89778E+03
 1.49570E+00    6.86622E+03
 1.57240E+00    6.82761E+03
 1.65300E+00    6.77011E+03
 1.73770E+00    6.70822E+03
 1.82680E+00    6.63733E+03
 1.92050E+00    6.55342E+03
 2.01900E+00    6.46511E+03
 2.12250E+00    6.37230E+03
 2.23130E+00    6.29145E+03
 2.30690E+00    6.24129E+03
 2.34570E+00    6.21572E+03
 2.36530E+00    6.19845E+03
 2.38520E+00    6.15460E+03
 2.46600E+00    6.06426E+03
 2.59240E+00    5.95090E+03
 2.72530E+00    5.83445E+03
 2.86500E+00    5.72240E+03
 3.01190E+00    5.60719E+03
 3.16640E+00    5.49525E+03
 3.32870E+00    5.31909E+03
 3.67880E+00    5.08389E+03
 4.06570E+00    4.85872E+03
 4.49330E+00    4.68981E+03
 4.72370E+00    4.56947E+03
 4.96590E+00    4.46407E+03
 5.22050E+00    4.38889E+03
 5.48810E+00    4.31040E+03
 5.76950E+00    4.22948E+03
 6.06530E+00    4.19096E+03
 6.37630E+00    4.17539E+03
 6.59240E+00    4.16572E+03
 6.70320E+00    4.15286E+03
 7.04690E+00    4.16479E+03
 7.40820E+00    4.19731E+03
 7.78800E+00    4.23261E+03
 8.18730E+00    4.28537E+03
 8.60710E+00    4.34593E+03
 9.04840E+00    4.40959E+03
 9.51230E+00    4.47651E+03
 1.00000E+01    4.54135E+03
 1.05130E+01    4.60382E+03
 1.10520E+01    4.65990E+03
 1.16180E+01    4.71096E+03
 1.22140E+01    4.75167E+03
 1.28400E+01    4.78553E+03
 1.34990E+01    4.80269E+03
 1.38400E+01    4.81278E+03
 1.41910E+01    4.81614E+03
 1.45500E+01    4.81858E+03
 1.49180E+01    4.81496E+03
 1.56830E+01    4.79779E+03
 1.64870E+01    4.76452E+03
