# n + Sb121 : (n,xa)    
# endfb8.0   Zhao+, Mughabghab                 EVAL-DEC04
# 
# # energies =    70
#   E(MeV)        xs(mb) 
 3.74100E-02    0.00000E+00
 4.00000E-02    0.00000E+00
 5.00000E-02    0.00000E+00
 6.00000E-02    0.00000E+00
 7.00000E-02    0.00000E+00
 8.00000E-02    0.00000E+00
 9.00000E-02    0.00000E+00
 1.00000E-01    0.00000E+00
 2.00000E-01    0.00000E+00
 3.00000E-01    0.00000E+00
 4.00000E-01    0.00000E+00
 5.00000E-01    0.00000E+00
 5.11800E-01    0.00000E+00
 5.77900E-01    0.00000E+00
 6.00000E-01    0.00000E+00
 7.00000E-01    0.00000E+00
 8.00000E-01    0.00000E+00
 9.00000E-01    0.00000E+00
 9.54900E-01    0.00000E+00
 1.03300E+00    0.00000E+00
 1.04400E+00    0.00000E+00
 1.14900E+00    0.00000E+00
 1.15400E+00    0.00000E+00
 1.20000E+00    0.00000E+00
 1.30000E+00    0.00000E+00
 1.40000E+00    0.00000E+00
 1.50000E+00    0.00000E+00
 2.00000E+00    0.00000E+00
 2.50000E+00    0.00000E+00
 3.00000E+00    0.00000E+00
 3.09600E+00    0.00000E+00
 3.58200E+00    0.00000E+00
 4.00000E+00    0.00000E+00
 4.50000E+00    0.00000E+00
 5.00000E+00    0.00000E+00
 5.50000E+00    0.00000E+00
 5.82500E+00    0.00000E+00
 6.00000E+00    0.00000E+00
 6.45500E+00    0.00000E+00
 7.00000E+00    0.00000E+00
 7.50000E+00    0.00000E+00
 8.00000E+00    0.00000E+00
 8.50000E+00    0.00000E+00
 8.79000E+00    1.04500E-03
 9.00000E+00    1.33600E-03
 9.31600E+00    1.87300E-03
 9.50000E+00    2.26000E-03
 1.00000E+01    3.44200E-03
 1.03800E+01    1.21200E-01
 1.05000E+01    1.37800E-01
 1.10000E+01    2.34800E-01
 1.15000E+01    3.79000E-01
 1.20000E+01    5.73100E-01
 1.25000E+01    8.20700E-01
 1.30000E+01    1.11800E+00
 1.35000E+01    1.46100E+00
 1.40000E+01    1.84500E+00
 1.45000E+01    2.25300E+00
 1.50000E+01    2.68400E+00
 1.55000E+01    3.10700E+00
 1.60000E+01    3.51900E+00
 1.63900E+01    3.96390E+00
 1.65000E+01    4.05790E+00
 1.70000E+01    4.47880E+00
 1.75000E+01    4.86400E+00
 1.80000E+01    5.19480E+00
 1.85000E+01    5.47110E+00
 1.90000E+01    5.79090E+00
 1.95200E+01    6.65800E+00
 2.00000E+01    7.21200E+00
