# n + Sb121 : (n,el)    
# endfb8.0   Zhao+, Mughabghab                 EVAL-DEC04
# uncertainties: n
# # energies =   171
#   E(MeV)       xs(mb) 
 1.00000E-11    6.69998E+03
 1.00000E-07    4.01784E+03
 4.13990E-07    4.00222E+03
 5.31580E-07    3.99402E+03
 6.82560E-07    3.98349E+03
 8.76420E-07    3.96895E+03
 1.12540E-06    3.94877E+03
 1.44500E-06    3.91851E+03
 1.85540E-06    3.87734E+03
 2.37240E-06    3.80871E+03
 3.05900E-06    3.68510E+03
 3.92790E-06    3.39097E+03
 5.04350E-06    1.07619E+04
 6.47600E-06    6.28969E+03
 8.31530E-06    4.41282E+03
 1.06770E-05    3.77612E+03
 1.37100E-05    2.48561E+04
 1.76030E-05    5.19653E+03
 2.26030E-05    4.22582E+03
 2.92030E-05    7.57308E+03
 3.72670E-05    4.62793E+03
 4.78510E-05    4.62025E+03
 6.14420E-05    5.29456E+03
 7.88930E-05    5.78150E+03
 1.01300E-04    7.20073E+03
 1.30070E-04    8.48955E+03
 1.67020E-04    5.37915E+03
 2.14450E-04    4.74257E+03
 2.75360E-04    4.79658E+03
 3.53580E-04    8.09683E+03
 4.54000E-04    8.79984E+03
 5.82950E-04    6.32094E+03
 7.48520E-04    7.37629E+03
 9.61120E-04    6.76795E+03
 1.23410E-03    6.10996E+03
 1.58460E-03    6.48821E+03
 2.03470E-03    5.62052E+03
 2.24870E-03    6.22832E+03
 2.48520E-03    7.81109E+03
 2.61260E-03    5.54576E+03
 2.74650E-03    6.50257E+03
 3.03540E-03    5.47835E+03
 3.35460E-03    5.89789E+03
 3.70740E-03    6.18290E+03
 4.30740E-03    5.90481E+03
 5.53080E-03    5.11096E+03
 7.10170E-03    5.14228E+03
 9.11880E-03    5.18350E+03
 1.17090E-02    5.23796E+03
 1.50340E-02    5.30710E+03
 1.93050E-02    5.36750E+03
 2.18750E-02    5.40447E+03
 2.35790E-02    5.42398E+03
 2.41760E-02    5.43413E+03
 2.47880E-02    5.44910E+03
 2.60580E-02    5.46582E+03
 2.70000E-02    5.48396E+03
 2.85000E-02    5.51828E+03
 3.18280E-02    5.55792E+03
 3.43070E-02    5.60892E+03
 4.08680E-02    5.65215E+03
 4.63090E-02    5.66662E+03
 5.24750E-02    5.67610E+03
 5.65620E-02    5.68649E+03
 6.73790E-02    5.69624E+03
 7.20000E-02    5.70295E+03
 7.95000E-02    5.69362E+03
 8.25000E-02    5.65105E+03
 8.65170E-02    5.56373E+03
 9.80370E-02    5.47862E+03
 1.11090E-01    5.46961E+03
 1.16790E-01    5.46499E+03
 1.22770E-01    5.46012E+03
 1.29070E-01    5.45501E+03
 1.35690E-01    5.44963E+03
 1.42640E-01    5.44398E+03
 1.49960E-01    5.43804E+03
 1.57640E-01    5.43179E+03
 1.65730E-01    5.42523E+03
 1.74220E-01    5.41832E+03
 1.83160E-01    5.41106E+03
 1.92550E-01    5.40419E+03
 2.02420E-01    5.41517E+03
 2.12800E-01    5.43452E+03
 2.23710E-01    5.45486E+03
 2.35180E-01    5.47625E+03
 2.47240E-01    5.51055E+03
 2.73240E-01    5.54721E+03
 2.87250E-01    5.56663E+03
 2.94520E-01    5.57570E+03
 2.97200E-01    5.57932E+03
 2.98500E-01    5.58365E+03
 3.01970E-01    5.61521E+03
 3.33730E-01    5.67556E+03
 3.68830E-01    5.72102E+03
 3.87740E-01    5.75217E+03
 4.07620E-01    5.79448E+03
 4.50490E-01    5.84727E+03
 4.97870E-01    5.90818E+03
 5.23400E-01    5.93069E+03
 5.50230E-01    5.94130E+03
 5.78440E-01    5.95247E+03
 6.08100E-01    5.96420E+03
 6.39280E-01    5.97654E+03
 6.72060E-01    5.99215E+03
 7.06510E-01    6.01940E+03
 7.42740E-01    6.04920E+03
 7.80820E-01    6.07495E+03
 8.20850E-01    6.06988E+03
 8.62940E-01    6.05942E+03
 9.07180E-01    6.04748E+03
 9.61640E-01    6.03487E+03
 1.00260E+00    5.95669E+03
 1.10800E+00    5.78056E+03
 1.16480E+00    5.64953E+03
 1.22460E+00    5.52101E+03
 1.28730E+00    5.39633E+03
 1.35340E+00    5.28799E+03
 1.42270E+00    5.17595E+03
 1.49570E+00    5.06706E+03
 1.57240E+00    4.96404E+03
 1.65300E+00    4.85582E+03
 1.73770E+00    4.74203E+03
 1.82680E+00    4.62235E+03
 1.92050E+00    4.49649E+03
 2.01900E+00    4.35216E+03
 2.12250E+00    4.19032E+03
 2.23130E+00    4.04934E+03
 2.30690E+00    3.96187E+03
 2.34570E+00    3.91728E+03
 2.36530E+00    3.88716E+03
 2.38520E+00    3.81069E+03
 2.46600E+00    3.65316E+03
 2.59240E+00    3.45811E+03
 2.72530E+00    3.25548E+03
 2.86500E+00    3.04268E+03
 3.01190E+00    2.86622E+03
 3.16640E+00    2.73774E+03
 3.32870E+00    2.54283E+03
 3.67880E+00    2.33402E+03
 4.06570E+00    2.18264E+03
 4.49330E+00    2.09572E+03
 4.72370E+00    2.05681E+03
 4.96590E+00    2.02686E+03
 5.22050E+00    2.01380E+03
 5.48810E+00    2.01025E+03
 5.76950E+00    2.01881E+03
 6.06530E+00    2.03913E+03
 6.37630E+00    2.06177E+03
 6.59240E+00    2.07929E+03
 6.70320E+00    2.10495E+03
 7.04690E+00    2.14616E+03
 7.40820E+00    2.19282E+03
 7.78800E+00    2.24208E+03
 8.18730E+00    2.29387E+03
 8.60710E+00    2.34467E+03
 9.04840E+00    2.39201E+03
 9.51230E+00    2.43492E+03
 1.00000E+01    2.47083E+03
 1.05130E+01    2.49706E+03
 1.10520E+01    2.51369E+03
 1.16180E+01    2.51821E+03
 1.22140E+01    2.50964E+03
 1.28400E+01    2.48893E+03
 1.34990E+01    2.44800E+03
 1.38400E+01    2.39300E+03
 1.41910E+01    2.33638E+03
 1.45500E+01    2.28247E+03
 1.49180E+01    2.20923E+03
 1.56830E+01    2.12708E+03
 1.64870E+01    2.07446E+03
