# n + Hf174 : (n,tot)   
# jendl4.0   K. Shibata (JAEA)                 EVAL-JUL09
# uncertainties: n
# # energies =   171
#   E(MeV)       xs(mb) 
 1.00000E-11    6.40115E+06
 1.00000E-07    1.62071E+05
 4.13990E-07    7.50401E+04
 5.31580E-07    5.79608E+04
 6.82560E-07    4.40829E+04
 8.76420E-07    3.31403E+04
 1.12540E-06    2.47893E+04
 1.44500E-06    1.86150E+04
 1.85540E-06    1.42099E+04
 2.37240E-06    1.11182E+04
 3.05900E-06    9.80202E+03
 3.92790E-06    2.12897E+04
 5.04350E-06    6.44400E+03
 6.47600E-06    5.72084E+03
 8.31530E-06    5.57762E+03
 1.06770E-05    5.09782E+05
 1.37100E-05    2.33211E+04
 1.76030E-05    5.08346E+03
 2.26030E-05    1.09427E+04
 2.92030E-05    6.80164E+05
 3.72670E-05    7.35691E+03
 4.78510E-05    4.96098E+03
 6.14420E-05    2.14556E+05
 7.88930E-05    1.02105E+04
 1.01300E-04    2.34948E+05
 1.30070E-04    1.58682E+05
 1.67020E-04    7.39166E+04
 2.14450E-04    8.57272E+04
 2.75360E-04    8.23530E+04
 3.53580E-04    7.32462E+04
 4.54000E-04    6.52203E+04
 5.82950E-04    5.81665E+04
 7.48520E-04    5.19821E+04
 9.61120E-04    4.71454E+04
 1.23410E-03    4.32423E+04
 1.58460E-03    3.82808E+04
 2.03470E-03    3.50063E+04
 2.24870E-03    3.37617E+04
 2.48520E-03    3.27475E+04
 2.61260E-03    3.20252E+04
 2.74650E-03    3.08710E+04
 3.03540E-03    2.96134E+04
 3.35460E-03    2.85021E+04
 3.70740E-03    2.70197E+04
 4.30740E-03    2.49904E+04
 5.53080E-03    2.26808E+04
 7.10170E-03    2.06503E+04
 9.11880E-03    1.89716E+04
 1.17090E-02    1.77358E+04
 1.50340E-02    1.62207E+04
 1.93050E-02    1.49698E+04
 2.18750E-02    1.45583E+04
 2.35790E-02    1.43484E+04
 2.41760E-02    1.42390E+04
 2.47880E-02    1.40694E+04
 2.60580E-02    1.38688E+04
 2.70000E-02    1.36485E+04
 2.85000E-02    1.32508E+04
 3.18280E-02    1.29073E+04
 3.43070E-02    1.24250E+04
 4.08680E-02    1.18710E+04
 4.63090E-02    1.14235E+04
 5.24750E-02    1.11039E+04
 5.65620E-02    1.07322E+04
 6.73790E-02    1.04240E+04
 7.20000E-02    1.02109E+04
 7.95000E-02    1.00319E+04
 8.25000E-02    9.93151E+03
 8.65170E-02    9.69415E+03
 9.80370E-02    9.36444E+03
 1.11090E-01    9.23274E+03
 1.16790E-01    9.15381E+03
 1.22770E-01    9.07083E+03
 1.29070E-01    8.98352E+03
 1.35690E-01    8.89181E+03
 1.42640E-01    8.79538E+03
 1.49960E-01    8.69401E+03
 1.57640E-01    8.58744E+03
 1.65730E-01    8.47539E+03
 1.74220E-01    8.35761E+03
 1.83160E-01    8.23374E+03
 1.92550E-01    8.10607E+03
 2.02420E-01    8.03157E+03
 2.12800E-01    7.97889E+03
 2.23710E-01    7.92351E+03
 2.35180E-01    7.86528E+03
 2.47240E-01    7.77190E+03
 2.73240E-01    7.67209E+03
 2.87250E-01    7.61921E+03
 2.94520E-01    7.59451E+03
 2.97200E-01    7.58466E+03
 2.98500E-01    7.57286E+03
 3.01970E-01    7.53191E+03
 3.33730E-01    7.46361E+03
 3.68830E-01    7.40796E+03
 3.87740E-01    7.36843E+03
 4.07620E-01    7.33264E+03
 4.50490E-01    7.29505E+03
 4.97870E-01    7.26471E+03
 5.23400E-01    7.25184E+03
 5.50230E-01    7.24238E+03
 5.78440E-01    7.23243E+03
 6.08100E-01    7.22197E+03
 6.39280E-01    7.21098E+03
 6.72060E-01    7.20083E+03
 7.06510E-01    7.19530E+03
 7.42740E-01    7.18997E+03
 7.80820E-01    7.18435E+03
 8.20850E-01    7.17846E+03
 8.62940E-01    7.17225E+03
 9.07180E-01    7.16517E+03
 9.61640E-01    7.15830E+03
 1.00260E+00    7.14789E+03
 1.10800E+00    7.13614E+03
 1.16480E+00    7.12777E+03
 1.22460E+00    7.11897E+03
 1.28730E+00    7.10971E+03
 1.35340E+00    7.10035E+03
 1.42270E+00    7.09345E+03
 1.49570E+00    7.08682E+03
 1.57240E+00    7.07986E+03
 1.65300E+00    7.07255E+03
 1.73770E+00    7.06486E+03
 1.82680E+00    7.05677E+03
 1.92050E+00    7.04826E+03
 2.01900E+00    7.03674E+03
 2.12250E+00    7.01489E+03
 2.23130E+00    6.99509E+03
 2.30690E+00    6.98280E+03
 2.34570E+00    6.97654E+03
 2.36530E+00    6.97231E+03
 2.38520E+00    6.96156E+03
 2.46600E+00    6.93734E+03
 2.59240E+00    6.89139E+03
 2.72530E+00    6.83974E+03
 2.86500E+00    6.78544E+03
 3.01190E+00    6.72169E+03
 3.16640E+00    6.64071E+03
 3.32870E+00    6.51018E+03
 3.67880E+00    6.31977E+03
 4.06570E+00    6.10735E+03
 4.49330E+00    5.93665E+03
 4.72370E+00    5.82810E+03
 4.96590E+00    5.71723E+03
 5.22050E+00    5.61270E+03
 5.48810E+00    5.50970E+03
 5.76950E+00    5.41529E+03
 6.06530E+00    5.32427E+03
 6.37630E+00    5.25460E+03
 6.59240E+00    5.21467E+03
 6.70320E+00    5.16815E+03
 7.04690E+00    5.10246E+03
 7.40820E+00    5.04752E+03
 7.78800E+00    5.00499E+03
 8.18730E+00    4.97626E+03
 8.60710E+00    4.95714E+03
 9.04840E+00    4.95677E+03
 9.51230E+00    4.96581E+03
 1.00000E+01    4.98902E+03
 1.05130E+01    5.02220E+03
 1.10520E+01    5.06294E+03
 1.16180E+01    5.11000E+03
 1.22140E+01    5.15948E+03
 1.28400E+01    5.20983E+03
 1.34990E+01    5.24615E+03
 1.38400E+01    5.27044E+03
 1.41910E+01    5.29215E+03
 1.45500E+01    5.31166E+03
 1.49180E+01    5.33594E+03
 1.56830E+01    5.36197E+03
 1.64870E+01    5.37515E+03
