# n + Hf174 : (n,el)    
# jendl4.0   K. Shibata (JAEA)                 EVAL-JUL09
# uncertainties: n
# # energies =   171
#   E(MeV)       xs(mb) 
 1.00000E-11    2.30663E+04
 1.00000E-07    1.28242E+04
 4.13990E-07    1.09194E+04
 5.31580E-07    1.02094E+04
 6.82560E-07    9.47784E+03
 8.76420E-07    8.74692E+03
 1.12540E-06    8.03916E+03
 1.44500E-06    7.37103E+03
 1.85540E-06    6.75818E+03
 2.37240E-06    6.18986E+03
 3.05900E-06    5.62782E+03
 3.92790E-06    5.27522E+03
 5.04350E-06    4.77623E+03
 6.47600E-06    4.24676E+03
 8.31530E-06    3.47137E+03
 1.06770E-05    4.16423E+04
 1.37100E-05    8.73135E+03
 1.76030E-05    3.90065E+03
 2.26030E-05    2.05625E+03
 2.92030E-05    2.51297E+05
 3.72670E-05    6.89988E+03
 4.78510E-05    4.72782E+03
 6.14420E-05    1.04335E+05
 7.88930E-05    8.53874E+03
 1.01300E-04    1.43740E+05
 1.30070E-04    9.10085E+04
 1.67020E-04    5.72900E+04
 2.14450E-04    6.21777E+04
 2.75360E-04    6.10281E+04
 3.53580E-04    5.58339E+04
 4.54000E-04    5.10254E+04
 5.82950E-04    4.65999E+04
 7.48520E-04    4.25524E+04
 9.61120E-04    3.92422E+04
 1.23410E-03    3.64464E+04
 1.58460E-03    3.28887E+04
 2.03470E-03    3.05018E+04
 2.24870E-03    2.95459E+04
 2.48520E-03    2.87671E+04
 2.61260E-03    2.82123E+04
 2.74650E-03    2.73257E+04
 3.03540E-03    2.63408E+04
 3.35460E-03    2.54539E+04
 3.70740E-03    2.42673E+04
 4.30740E-03    2.26097E+04
 5.53080E-03    2.06841E+04
 7.10170E-03    1.89541E+04
 9.11880E-03    1.74938E+04
 1.17090E-02    1.63934E+04
 1.50340E-02    1.50416E+04
 1.93050E-02    1.39215E+04
 2.18750E-02    1.35421E+04
 2.35790E-02    1.33478E+04
 2.41760E-02    1.32466E+04
 2.47880E-02    1.30897E+04
 2.60580E-02    1.29041E+04
 2.70000E-02    1.27002E+04
 2.85000E-02    1.23326E+04
 3.18280E-02    1.20167E+04
 3.43070E-02    1.15737E+04
 4.08680E-02    1.10718E+04
 4.63090E-02    1.06708E+04
 5.24750E-02    1.03746E+04
 5.65620E-02    1.00151E+04
 6.73790E-02    9.69537E+03
 7.20000E-02    9.47898E+03
 7.95000E-02    9.30223E+03
 8.25000E-02    9.21411E+03
 8.65170E-02    9.00505E+03
 9.80370E-02    8.66357E+03
 1.11090E-01    8.49762E+03
 1.16790E-01    8.39733E+03
 1.22770E-01    8.29188E+03
 1.29070E-01    8.18094E+03
 1.35690E-01    8.06441E+03
 1.42640E-01    7.94188E+03
 1.49960E-01    7.81307E+03
 1.57640E-01    7.67766E+03
 1.65730E-01    7.53529E+03
 1.74220E-01    7.38562E+03
 1.83160E-01    7.22822E+03
 1.92550E-01    7.06526E+03
 2.02420E-01    6.95222E+03
 2.12800E-01    6.85841E+03
 2.23710E-01    6.75978E+03
 2.35180E-01    6.65610E+03
 2.47240E-01    6.48981E+03
 2.73240E-01    6.31207E+03
 2.87250E-01    6.21789E+03
 2.94520E-01    6.17392E+03
 2.97200E-01    6.15637E+03
 2.98500E-01    6.13751E+03
 3.01970E-01    6.04986E+03
 3.33730E-01    5.88357E+03
 3.68830E-01    5.74806E+03
 3.87740E-01    5.65249E+03
 4.07620E-01    5.54114E+03
 4.50490E-01    5.39414E+03
 4.97870E-01    5.28152E+03
 5.23400E-01    5.22016E+03
 5.50230E-01    5.15629E+03
 5.78440E-01    5.08930E+03
 6.08100E-01    5.03170E+03
 6.39280E-01    4.97926E+03
 6.72060E-01    4.92415E+03
 7.06510E-01    4.87244E+03
 7.42740E-01    4.82716E+03
 7.80820E-01    4.78173E+03
 8.20850E-01    4.73975E+03
 8.62940E-01    4.65532E+03
 9.07180E-01    4.57368E+03
 9.61640E-01    4.48519E+03
 1.00260E+00    4.42534E+03
 1.10800E+00    4.37873E+03
 1.16480E+00    4.34096E+03
 1.22460E+00    4.27374E+03
 1.28730E+00    4.31471E+03
 1.35340E+00    4.24700E+03
 1.42270E+00    4.12103E+03
 1.49570E+00    4.02897E+03
 1.57240E+00    4.01044E+03
 1.65300E+00    3.97902E+03
 1.73770E+00    3.92596E+03
 1.82680E+00    3.84934E+03
 1.92050E+00    3.72309E+03
 2.01900E+00    3.66928E+03
 2.12250E+00    3.65408E+03
 2.23130E+00    3.64084E+03
 2.30690E+00    3.63263E+03
 2.34570E+00    3.62844E+03
 2.36530E+00    3.62561E+03
 2.38520E+00    3.61843E+03
 2.46600E+00    3.60118E+03
 2.59240E+00    3.56923E+03
 2.72530E+00    3.53436E+03
 2.86500E+00    3.49770E+03
 3.01190E+00    3.45236E+03
 3.16640E+00    3.39598E+03
 3.32870E+00    3.30422E+03
 3.67880E+00    3.15648E+03
 4.06570E+00    2.98877E+03
 4.49330E+00    2.85524E+03
 4.72370E+00    2.76383E+03
 4.96590E+00    2.67091E+03
 5.22050E+00    2.58190E+03
 5.48810E+00    2.49432E+03
 5.76950E+00    2.41338E+03
 6.06530E+00    2.34004E+03
 6.37630E+00    2.28276E+03
 6.59240E+00    2.25406E+03
 6.70320E+00    2.21755E+03
 7.04690E+00    2.17216E+03
 7.40820E+00    2.13669E+03
 7.78800E+00    2.11352E+03
 8.18730E+00    2.10469E+03
 8.60710E+00    2.10807E+03
 9.04840E+00    2.11961E+03
 9.51230E+00    2.14481E+03
 1.00000E+01    2.18377E+03
 1.05130E+01    2.23163E+03
 1.10520E+01    2.28707E+03
 1.16180E+01    2.34908E+03
 1.22140E+01    2.41465E+03
 1.28400E+01    2.48177E+03
 1.34990E+01    2.53072E+03
 1.38400E+01    2.56350E+03
 1.41910E+01    2.59293E+03
 1.45500E+01    2.62039E+03
 1.49180E+01    2.65633E+03
 1.56830E+01    2.69726E+03
 1.64870E+01    2.72492E+03
