# n + Hf174 : (n,non)   
# jendl4.0   K. Shibata (JAEA)                 EVAL-JUL09
# uncertainties: n
# # energies =   110
#   E(MeV)       xs(mb) 
 2.20000E-04    0.00000E+00
 2.20000E-04    2.82840E+04
 3.00000E-04    2.17400E+04
 4.00000E-04    1.72700E+04
 5.00000E-04    1.44300E+04
 6.00000E-04    1.24500E+04
 7.00000E-04    1.09900E+04
 8.00000E-04    9.85500E+03
 9.00000E-04    8.95300E+03
 1.00000E-03    8.21600E+03
 2.00000E-03    4.68400E+03
 3.00000E-03    3.40100E+03
 4.00000E-03    2.73300E+03
 5.00000E-03    2.32300E+03
 6.00000E-03    2.04700E+03
 7.00000E-03    1.84800E+03
 8.00000E-03    1.69700E+03
 9.00000E-03    1.57900E+03
 1.00000E-02    1.48500E+03
 2.00000E-02    1.05300E+03
 3.00000E-02    9.17700E+02
 4.00000E-02    8.29000E+02
 5.00000E-02    7.44700E+02
 6.00000E-02    7.10500E+02
 7.00000E-02    7.30000E+02
 8.00000E-02    7.33400E+02
 9.00000E-02    6.97800E+02
 9.15126E-02    6.78620E+02
 1.00000E-01    6.84200E+02
 2.00000E-01    1.05010E+03
 2.99105E-01    1.42719E+03
 3.00000E-01    1.43060E+03
 4.00000E-01    1.72220E+03
 5.00000E-01    1.96054E+03
 6.00000E-01    2.15250E+03
 6.11787E-01    2.16921E+03
 7.00000E-01    2.29438E+03
 8.00000E-01    2.40375E+03
 8.32932E-01    2.41477E+03
 9.00000E-01    2.54331E+03
 9.05460E-01    2.53857E+03
 1.00000E+00    2.70331E+03
 1.01546E+00    2.70728E+03
 1.06833E+00    2.72085E+03
 1.23388E+00    2.80026E+03
 1.25000E+00    2.87758E+03
 1.31092E+00    2.78386E+03
 1.31498E+00    2.77963E+03
 1.31628E+00    2.77829E+03
 1.32705E+00    2.77436E+03
 1.32866E+00    2.77505E+03
 1.34423E+00    2.78910E+03
 1.40269E+00    2.87206E+03
 1.43350E+00    2.92024E+03
 1.45103E+00    2.95356E+03
 1.45725E+00    2.96553E+03
 1.49452E+00    3.04302E+03
 1.50000E+00    3.05442E+03
 1.50504E+00    3.05293E+03
 1.51201E+00    3.05284E+03
 1.51695E+00    3.05329E+03
 1.55828E+00    3.05896E+03
 1.63543E+00    3.07011E+03
 1.63996E+00    3.07121E+03
 1.64388E+00    3.07216E+03
 1.65789E+00    3.07572E+03
 1.66017E+00    3.07677E+03
 1.66803E+00    3.08040E+03
 1.72344E+00    3.10835E+03
 1.74748E+00    3.12074E+03
 1.79022E+00    3.14286E+03
 1.80792E+00    3.15357E+03
 1.80843E+00    3.15387E+03
 1.83800E+00    3.17180E+03
 1.84806E+00    3.17790E+03
 2.00000E+00    3.37266E+03
 2.50000E+00    3.34135E+03
 3.00000E+00    3.28319E+03
 3.46623E+00    3.21379E+03
 3.50000E+00    3.20877E+03
 4.00000E+00    3.14043E+03
 4.04859E+00    3.13540E+03
 4.50000E+00    3.08868E+03
 5.00000E+00    3.05014E+03
 5.50000E+00    3.02109E+03
 6.00000E+00    2.99443E+03
 6.01848E+00    2.99345E+03
 6.28606E+00    2.97929E+03
 6.50000E+00    2.96798E+03
 7.00000E+00    2.94114E+03
 7.50000E+00    2.91377E+03
 8.00000E+00    2.88820E+03
 8.50000E+00    2.86527E+03
 8.55549E+00    2.85508E+03
 9.00000E+00    2.84498E+03
 9.50000E+00    2.82768E+03
 1.00000E+01    2.81236E+03
 1.10000E+01    2.78443E+03
 1.20000E+01    2.75872E+03
 1.23120E+01    2.75045E+03
 1.30000E+01    2.73222E+03
 1.40000E+01    2.70712E+03
 1.45000E+01    2.69644E+03
 1.50000E+01    2.68535E+03
 1.56761E+01    2.67228E+03
 1.60000E+01    2.66602E+03
 1.70000E+01    2.64855E+03
 1.80000E+01    2.63186E+03
 1.90000E+01    2.61678E+03
 2.00000E+01    2.60181E+03
