# n + Hf174 : (n,xd)    
# jendl4.0   K. Shibata (JAEA)                 EVAL-JUL09
# 
# # energies =    76
#   E(MeV)        xs(mb) 
 9.15126E-02    0.00000E+00
 1.00000E-01    0.00000E+00
 2.00000E-01    0.00000E+00
 2.99105E-01    0.00000E+00
 3.00000E-01    0.00000E+00
 4.00000E-01    0.00000E+00
 5.00000E-01    0.00000E+00
 6.00000E-01    0.00000E+00
 6.11787E-01    0.00000E+00
 7.00000E-01    0.00000E+00
 8.00000E-01    0.00000E+00
 8.32932E-01    0.00000E+00
 9.00000E-01    0.00000E+00
 9.05460E-01    0.00000E+00
 1.00000E+00    0.00000E+00
 1.01546E+00    0.00000E+00
 1.06833E+00    0.00000E+00
 1.23388E+00    0.00000E+00
 1.25000E+00    0.00000E+00
 1.31092E+00    0.00000E+00
 1.31498E+00    0.00000E+00
 1.31628E+00    0.00000E+00
 1.32705E+00    0.00000E+00
 1.32866E+00    0.00000E+00
 1.34423E+00    0.00000E+00
 1.40269E+00    0.00000E+00
 1.43350E+00    0.00000E+00
 1.45103E+00    0.00000E+00
 1.45725E+00    0.00000E+00
 1.49452E+00    0.00000E+00
 1.50000E+00    0.00000E+00
 1.50504E+00    0.00000E+00
 1.51201E+00    0.00000E+00
 1.51695E+00    0.00000E+00
 1.55828E+00    0.00000E+00
 1.63543E+00    0.00000E+00
 1.63996E+00    0.00000E+00
 1.64388E+00    0.00000E+00
 1.65789E+00    0.00000E+00
 1.66017E+00    0.00000E+00
 1.66803E+00    0.00000E+00
 1.72344E+00    0.00000E+00
 1.74748E+00    0.00000E+00
 1.79022E+00    0.00000E+00
 1.80792E+00    0.00000E+00
 1.80843E+00    0.00000E+00
 1.83800E+00    0.00000E+00
 1.84806E+00    0.00000E+00
 2.00000E+00    0.00000E+00
 2.50000E+00    0.00000E+00
 3.00000E+00    0.00000E+00
 3.50000E+00    0.00000E+00
 4.00000E+00    0.00000E+00
 4.50000E+00    0.00000E+00
 5.00000E+00    0.00000E+00
 5.50000E+00    0.00000E+00
 6.00000E+00    0.00000E+00
 6.50000E+00    0.00000E+00
 7.00000E+00    0.00000E+00
 7.50000E+00    0.00000E+00
 8.00000E+00    0.00000E+00
 8.50000E+00    8.32900E-07
 9.00000E+00    3.74700E-06
 9.50000E+00    2.46700E-03
 1.00000E+01    7.82400E-03
 1.10000E+01    6.26400E-02
 1.20000E+01    2.98300E-01
 1.30000E+01    6.18300E-01
 1.40000E+01    1.39500E+00
 1.45000E+01    2.23100E+00
 1.50000E+01    2.54700E+00
 1.60000E+01    4.00700E+00
 1.70000E+01    5.66904E+00
 1.80000E+01    7.44399E+00
 1.90000E+01    9.26304E+00
 2.00000E+01    1.10783E+01
