# n + Mo100 : (n,n'01)  
# endfb8.0   Chong-Hai Cai and Qi-Chang Liang  EVAL-AUG00
# uncertainties: n
# # energies =    84
#   E(MeV)       xs(mb) 
 5.41010E-01    0.00000E+00
 6.00000E-01    3.53610E+02
 6.50000E-01    5.10200E+02
 7.02120E-01    6.18630E+02
 7.50000E-01    6.72960E+02
 8.00000E-01    7.08960E+02
 8.50000E-01    7.37190E+02
 9.00000E-01    7.57550E+02
 9.50000E-01    7.75260E+02
 1.00000E+00    7.91220E+02
 1.07450E+00    8.12800E+02
 1.14760E+00    7.62500E+02
 1.20000E+00    7.29750E+02
 1.30000E+00    6.93090E+02
 1.40000E+00    6.74140E+02
 1.47870E+00    6.64680E+02
 1.51980E+00    6.43000E+02
 1.62360E+00    6.00620E+02
 1.70000E+00    5.64820E+02
 1.80000E+00    5.33240E+02
 1.90000E+00    5.12780E+02
 2.00000E+00    4.97140E+02
 2.25000E+00    4.38380E+02
 2.50000E+00    2.60450E+02
 2.75000E+00    1.87000E+02
 3.00000E+00    1.56040E+02
 3.20120E+00    1.41530E+02
 3.50000E+00    1.28470E+02
 3.75000E+00    1.20000E+02
 4.00000E+00    1.13310E+02
 4.25000E+00    1.07510E+02
 4.50000E+00    1.02290E+02
 4.75000E+00    9.81500E+01
 5.00000E+00    9.41630E+01
 5.25000E+00    9.10180E+01
 5.52970E+00    8.76520E+01
 5.75000E+00    8.55100E+01
 6.00000E+00    8.31050E+01
 6.25000E+00    8.12120E+01
 6.50000E+00    7.93260E+01
 6.75000E+00    7.76600E+01
 7.00000E+00    7.60090E+01
 7.25000E+00    7.45870E+01
 7.50000E+00    7.31720E+01
 7.75000E+00    7.19140E+01
 8.00000E+00    7.06630E+01
 8.37420E+00    6.89640E+01
 8.65000E+00    6.77760E+01
 9.01290E+00    6.62870E+01
 9.30000E+00    6.51980E+01
 9.63340E+00    6.39730E+01
 1.00000E+01    6.26850E+01
 1.02500E+01    6.18580E+01
 1.05000E+01    6.10330E+01
 1.07500E+01    6.02100E+01
 1.10000E+01    5.93870E+01
 1.12600E+01    5.85060E+01
 1.16000E+01    5.73570E+01
 1.18820E+01    5.64050E+01
 1.20000E+01    5.60070E+01
 1.22500E+01    5.50940E+01
 1.25000E+01    5.41820E+01
 1.27500E+01    5.32710E+01
 1.30000E+01    5.23610E+01
 1.32500E+01    5.14290E+01
 1.35000E+01    5.04990E+01
 1.37500E+01    4.95690E+01
 1.40000E+01    4.86390E+01
 1.43600E+01    4.74210E+01
 1.46500E+01    4.64390E+01
 1.50000E+01    4.52560E+01
 1.53000E+01    4.44330E+01
 1.56500E+01    4.34730E+01
 1.60000E+01    4.25140E+01
 1.63000E+01    4.19200E+01
 1.66500E+01    4.12270E+01
 1.70000E+01    4.05340E+01
 1.73000E+01    4.01270E+01
 1.76500E+01    3.96520E+01
 1.80000E+01    3.91770E+01
 1.85000E+01    3.87100E+01
 1.90000E+01    3.82430E+01
 1.95000E+01    3.77770E+01
 2.00000E+01    3.73120E+01
