# n + Mo100 : (n,xa)    
# endfb8.0   Chong-Hai Cai and Qi-Chang Liang  EVAL-AUG00
# 
# # energies =    84
#   E(MeV)        xs(mb) 
 5.41010E-01    0.00000E+00
 6.00000E-01    0.00000E+00
 6.50000E-01    0.00000E+00
 7.02120E-01    0.00000E+00
 7.50000E-01    0.00000E+00
 8.00000E-01    0.00000E+00
 8.50000E-01    0.00000E+00
 9.00000E-01    0.00000E+00
 9.50000E-01    0.00000E+00
 1.00000E+00    0.00000E+00
 1.07450E+00    0.00000E+00
 1.14760E+00    0.00000E+00
 1.20000E+00    0.00000E+00
 1.30000E+00    0.00000E+00
 1.40000E+00    0.00000E+00
 1.47870E+00    0.00000E+00
 1.51980E+00    0.00000E+00
 1.62360E+00    0.00000E+00
 1.70000E+00    0.00000E+00
 1.80000E+00    0.00000E+00
 1.90000E+00    0.00000E+00
 2.00000E+00    0.00000E+00
 2.25000E+00    0.00000E+00
 2.50000E+00    0.00000E+00
 2.75000E+00    0.00000E+00
 3.00000E+00    0.00000E+00
 3.20120E+00    0.00000E+00
 3.50000E+00    0.00000E+00
 3.75000E+00    0.00000E+00
 4.00000E+00    0.00000E+00
 4.25000E+00    0.00000E+00
 4.50000E+00    0.00000E+00
 4.75000E+00    1.07760E-04
 5.00000E+00    1.85620E-04
 5.25000E+00    3.42650E-04
 5.52970E+00    5.81210E-04
 5.75000E+00    9.17190E-04
 6.00000E+00    1.41100E-03
 6.25000E+00    2.15930E-03
 6.50000E+00    3.29490E-03
 6.75000E+00    4.79740E-03
 7.00000E+00    6.94800E-03
 7.25000E+00    9.99540E-03
 7.50000E+00    1.42780E-02
 7.75000E+00    2.01570E-02
 8.00000E+00    2.82120E-02
 8.37420E+00    4.63100E-02
 8.65000E+00    6.50160E-02
 9.01290E+00    9.88010E-02
 9.30000E+00    1.35590E-01
 9.63340E+00    1.91340E-01
 1.00000E+01    2.69410E-01
 1.02500E+01    3.34250E-01
 1.05000E+01    4.08850E-01
 1.07500E+01    4.93068E-01
 1.10000E+01    5.87314E-01
 1.12600E+01    6.94859E-01
 1.16000E+01    8.50189E-01
 1.18820E+01    9.90442E-01
 1.20000E+01    1.05130E+00
 1.22500E+01    1.18535E+00
 1.25000E+01    1.32517E+00
 1.27500E+01    1.46998E+00
 1.30000E+01    1.61882E+00
 1.32500E+01    1.77162E+00
 1.35000E+01    1.92709E+00
 1.37500E+01    2.08456E+00
 1.40000E+01    2.24402E+00
 1.43600E+01    2.47516E+00
 1.46500E+01    2.66120E+00
 1.50000E+01    2.88580E+00
 1.53000E+01    3.07517E+00
 1.56500E+01    3.29429E+00
 1.60000E+01    3.51042E+00
 1.63000E+01    3.69124E+00
 1.66500E+01    3.89765E+00
 1.70000E+01    4.09970E+00
 1.73000E+01    4.26710E+00
 1.76500E+01    4.45790E+00
 1.80000E+01    4.64270E+00
 1.85000E+01    4.89750E+00
 1.90000E+01    5.14110E+00
 1.95000E+01    5.37580E+00
 2.00000E+01    5.60310E+00
