# n + Mo100 : (n,xp)    
# endfb8.0   Chong-Hai Cai and Qi-Chang Liang  EVAL-AUG00
# 
# # energies =    84
#   E(MeV)        xs(mb) 
 5.41010E-01    0.00000E+00
 6.00000E-01    0.00000E+00
 6.50000E-01    0.00000E+00
 7.02120E-01    0.00000E+00
 7.50000E-01    0.00000E+00
 8.00000E-01    0.00000E+00
 8.50000E-01    0.00000E+00
 9.00000E-01    0.00000E+00
 9.50000E-01    0.00000E+00
 1.00000E+00    0.00000E+00
 1.07450E+00    0.00000E+00
 1.14760E+00    0.00000E+00
 1.20000E+00    0.00000E+00
 1.30000E+00    0.00000E+00
 1.40000E+00    0.00000E+00
 1.47870E+00    0.00000E+00
 1.51980E+00    0.00000E+00
 1.62360E+00    0.00000E+00
 1.70000E+00    0.00000E+00
 1.80000E+00    0.00000E+00
 1.90000E+00    0.00000E+00
 2.00000E+00    0.00000E+00
 2.25000E+00    0.00000E+00
 2.50000E+00    0.00000E+00
 2.75000E+00    0.00000E+00
 3.00000E+00    0.00000E+00
 3.20120E+00    0.00000E+00
 3.50000E+00    0.00000E+00
 3.75000E+00    0.00000E+00
 4.00000E+00    0.00000E+00
 4.25000E+00    0.00000E+00
 4.50000E+00    0.00000E+00
 4.75000E+00    0.00000E+00
 5.00000E+00    0.00000E+00
 5.25000E+00    0.00000E+00
 5.52970E+00    0.00000E+00
 5.75000E+00    0.00000E+00
 6.00000E+00    0.00000E+00
 6.25000E+00    0.00000E+00
 6.50000E+00    0.00000E+00
 6.75000E+00    0.00000E+00
 7.00000E+00    0.00000E+00
 7.25000E+00    0.00000E+00
 7.50000E+00    0.00000E+00
 7.75000E+00    0.00000E+00
 8.00000E+00    0.00000E+00
 8.37420E+00    5.12750E-05
 8.65000E+00    2.02260E-04
 9.01290E+00    8.82650E-04
 9.30000E+00    2.34790E-03
 9.63340E+00    6.22850E-03
 1.00000E+01    1.54560E-02
 1.02500E+01    2.66940E-02
 1.05000E+01    4.34360E-02
 1.07500E+01    6.77950E-02
 1.10000E+01    1.01170E-01
 1.12600E+01    1.47020E-01
 1.16000E+01    2.28470E-01
 1.18820E+01    3.15520E-01
 1.20000E+01    3.56330E-01
 1.22500E+01    4.56620E-01
 1.25000E+01    5.73700E-01
 1.27500E+01    7.06700E-01
 1.30000E+01    8.55650E-01
 1.32500E+01    1.02030E+00
 1.35000E+01    1.19990E+00
 1.37500E+01    1.39510E+00
 1.40000E+01    1.60444E+00
 1.43600E+01    1.92804E+00
 1.46500E+01    2.20864E+00
 1.50000E+01    2.57237E+00
 1.53000E+01    2.90298E+00
 1.56500E+01    3.30932E+00
 1.60000E+01    3.74461E+00
 1.63000E+01    4.13443E+00
 1.66500E+01    4.61777E+00
 1.70000E+01    5.12550E+00
 1.73000E+01    5.58459E+00
 1.76500E+01    6.14754E+00
 1.80000E+01    6.74550E+00
 1.85000E+01    7.82760E+00
 1.90000E+01    8.84500E+00
 1.95000E+01    9.90930E+00
 2.00000E+01    1.10216E+01
