# n + Cf249 :  n        
# jendl4.0   O.Iwamoto,T.Nakagawa,+            EVAL-JAN10
# uncertainties: n
# # energies =    62
#   E(MeV)       xs(mb) 
 2.10000E+00    0.00000E+00
 2.16071E+00    5.79760E-07
 2.30000E+00    1.90944E-06
 2.40225E+00    4.50604E-06
 2.50000E+00    6.94891E-06
 2.67079E+00    1.67915E-05
 2.70000E+00    1.84441E-05
 2.96933E+00    6.66120E-05
 3.00000E+00    7.19783E-05
 3.30126E+00    4.61784E-04
 3.50000E+00    7.13125E-04
 3.67029E+00    3.01187E-03
 4.00000E+00    7.41164E-03
 4.08057E+00    1.97168E-02
 4.50000E+00    8.39340E-02
 4.53672E+00    1.52318E-01
 5.00000E+00    1.02918E+00
 5.04385E+00    2.05873E+00
 5.50000E+00    1.30815E+01
 5.60768E+00    3.10408E+01
 5.75000E+00    5.52613E+01
 6.00000E+00    9.72597E+01
 6.23452E+00    1.67351E+02
 6.25000E+00    1.72085E+02
 6.50000E+00    2.44955E+02
 6.93145E+00    3.72842E+02
 7.00000E+00    3.93654E+02
 7.50000E+00    4.97150E+02
 7.70629E+00    5.25809E+02
 8.00000E+00    5.65134E+02
 8.50000E+00    6.08693E+02
 8.56772E+00    6.13229E+02
 9.00000E+00    6.38153E+02
 9.50000E+00    6.61749E+02
 9.52546E+00    6.62738E+02
 1.00000E+01    6.78617E+02
 1.05000E+01    6.90052E+02
 1.05902E+01    6.91217E+02
 1.10000E+01    6.95474E+02
 1.15000E+01    6.96145E+02
 1.17741E+01    6.93831E+02
 1.20000E+01    6.91592E+02
 1.25000E+01    6.78909E+02
 1.30000E+01    6.61514E+02
 1.30903E+01    6.58205E+02
 1.35000E+01    6.42990E+02
 1.40000E+01    6.27716E+02
 1.45000E+01    6.14211E+02
 1.45535E+01    6.13244E+02
 1.50000E+01    6.05180E+02
 1.55000E+01    5.96382E+02
 1.60000E+01    5.91869E+02
 1.61804E+01    5.90232E+02
 1.65000E+01    5.87285E+02
 1.70000E+01    5.84577E+02
 1.75000E+01    5.80136E+02
 1.79891E+01    5.77734E+02
 1.80000E+01    5.77679E+02
 1.85000E+01    5.75400E+02
 1.90000E+01    5.74242E+02
 1.95000E+01    5.72409E+02
 2.00000E+01    5.70726E+02
