# n + Yb171 : (n,xa)    
# jeff3.3    A.J. Koning and D. Rochman        EVAL-DEC15
# 
# # energies =   134
#   E(MeV)        xs(mb) 
 6.71258E-02    4.14408E-03
 7.63298E-02    3.81884E-03
 9.58442E-02    3.12925E-03
 1.00000E-01    2.98239E-03
 1.23138E-01    2.69748E-03
 1.68651E-01    2.13706E-03
 2.00000E-01    1.75105E-03
 2.09246E-01    1.72342E-03
 2.31992E-01    1.65546E-03
 2.48072E-01    1.60742E-03
 2.60599E-01    1.56999E-03
 3.00000E-01    1.45226E-03
 3.19181E-01    1.44624E-03
 3.71087E-01    1.42995E-03
 4.00000E-01    1.42087E-03
 4.52252E-01    1.45751E-03
 4.90165E-01    1.48409E-03
 5.00000E-01    1.49099E-03
 5.04329E-01    1.49683E-03
 5.12325E-01    1.50760E-03
 6.00000E-01    1.62578E-03
 6.07946E-01    1.63982E-03
 6.52045E-01    1.71774E-03
 7.00000E-01    1.80250E-03
 7.70822E-01    1.97846E-03
 7.84925E-01    2.01350E-03
 8.00000E-01    2.05096E-03
 8.30985E-01    2.12794E-03
 8.37996E-01    2.14536E-03
 8.40010E-01    2.15037E-03
 8.65236E-01    2.21187E-03
 8.72116E-01    2.22864E-03
 8.81169E-01    2.25071E-03
 9.00000E-01    2.29662E-03
 9.07574E-01    2.30192E-03
 9.12553E-01    2.30540E-03
 9.40780E-01    2.32513E-03
 9.49922E-01    2.33152E-03
 9.53967E-01    2.33435E-03
 1.00000E+00    2.36653E-03
 1.20000E+00    2.30828E-03
 1.40000E+00    2.25058E-03
 1.60000E+00    2.18442E-03
 1.80000E+00    2.11978E-03
 2.00000E+00    2.11877E-03
 2.20000E+00    2.12749E-03
 2.40000E+00    2.19625E-03
 2.60000E+00    2.29516E-03
 2.80000E+00    2.42143E-03
 3.00000E+00    2.60826E-03
 3.20000E+00    2.81381E-03
 3.40000E+00    3.06955E-03
 3.60000E+00    3.37020E-03
 3.80000E+00    3.68723E-03
 4.00000E+00    4.08922E-03
 4.20000E+00    4.48346E-03
 4.40000E+00    5.00152E-03
 4.60000E+00    5.63274E-03
 4.80000E+00    6.28738E-03
 5.00000E+00    7.14177E-03
 5.20000E+00    7.99654E-03
 5.40000E+00    9.03624E-03
 5.60000E+00    1.04565E-02
 5.80000E+00    1.18668E-02
 6.00000E+00    1.37972E-02
 6.20000E+00    1.56354E-02
 6.40000E+00    1.79485E-02
 6.60000E+00    2.12985E-02
 6.80000E+00    2.48052E-02
 7.00000E+00    2.80534E-02
 7.20000E+00    3.38089E-02
 7.40000E+00    3.91948E-02
 7.60000E+00    4.70764E-02
 7.80000E+00    5.54322E-02
 8.00000E+00    6.24683E-02
 8.50000E+00    9.41136E-02
 9.00000E+00    1.41817E-01
 9.50000E+00    2.12368E-01
 1.00000E+01    3.13778E-01
 1.05000E+01    4.55035E-01
 1.10000E+01    6.42206E-01
 1.15000E+01    8.93487E-01
 1.20000E+01    1.22690E+00
 1.25000E+01    1.65339E+00
 1.30000E+01    2.08646E+00
 1.35000E+01    2.66305E+00
 1.40000E+01    3.26448E+00
 1.45000E+01    4.04297E+00
 1.50000E+01    4.84480E+00
 1.60000E+01    6.97364E+00
 1.70000E+01    9.96758E+00
 1.80000E+01    1.43199E+01
 1.90000E+01    1.95068E+01
 2.00000E+01    2.26787E+01
 2.10000E+01    2.55177E+01
 2.20000E+01    2.41583E+01
 2.30000E+01    2.42214E+01
 2.40000E+01    2.46228E+01
 2.50000E+01    2.52770E+01
 2.60000E+01    2.60632E+01
 2.70000E+01    2.69274E+01
 2.80000E+01    2.78287E+01
 2.90000E+01    2.87460E+01
 3.00000E+01    2.95004E+01
 3.00000E+01    2.95016E+01
 3.20000E+01    3.13508E+01
 3.40000E+01    3.31717E+01
 3.60000E+01    3.48805E+01
 3.80000E+01    3.65546E+01
 4.00000E+01    3.81680E+01
 4.20000E+01    3.97489E+01
 4.40000E+01    4.12862E+01
 4.60000E+01    4.27322E+01
 4.80000E+01    4.41812E+01
 5.00000E+01    4.56143E+01
 5.20000E+01    4.69276E+01
 5.40000E+01    4.81210E+01
 5.60000E+01    4.93816E+01
 5.80000E+01    5.06867E+01
 6.00000E+01    5.18567E+01
 6.50000E+01    5.35884E+01
 7.00000E+01    5.55876E+01
 7.50000E+01    5.77269E+01
 8.00000E+01    5.73097E+01
 9.00000E+01    5.82874E+01
 1.00000E+02    6.11866E+01
 1.10000E+02    6.08308E+01
 1.20000E+02    6.51573E+01
 1.30000E+02    7.45069E+01
 1.40000E+02    8.97872E+01
 1.50000E+02    1.09153E+02
 1.60000E+02    1.15092E+02
 1.80000E+02    1.29282E+02
 2.00000E+02    3.10447E+02
