# n + Yb171 : (n,n'12)  
# jeff3.3    A.J. Koning and D. Rochman        EVAL-DEC15
# uncertainties: n
# # energies =    89
#   E(MeV)       xs(mb) 
 4.52252E-01    0.00000E+00
 4.90165E-01    3.69998E-01
 5.00000E-01    4.65979E-01
 5.04329E-01    5.60256E-01
 5.12325E-01    7.34390E-01
 6.00000E-01    2.64376E+00
 6.07946E-01    2.92310E+00
 6.52045E-01    4.47340E+00
 7.00000E-01    6.15925E+00
 7.70822E-01    9.33161E+00
 7.84925E-01    9.96334E+00
 8.00000E-01    1.06386E+01
 8.30985E-01    1.20980E+01
 8.37996E-01    1.24282E+01
 8.40010E-01    1.25230E+01
 8.65236E-01    1.37112E+01
 8.72116E-01    1.40352E+01
 8.81169E-01    1.44616E+01
 9.00000E-01    1.53485E+01
 9.07574E-01    1.56339E+01
 9.12553E-01    1.58215E+01
 9.40780E-01    1.68852E+01
 9.49922E-01    1.72297E+01
 9.53967E-01    1.73821E+01
 1.00000E+00    1.91167E+01
 1.20000E+00    2.12224E+01
 1.40000E+00    1.87788E+01
 1.60000E+00    1.48391E+01
 1.80000E+00    1.10691E+01
 2.00000E+00    8.06508E+00
 2.20000E+00    5.83386E+00
 2.40000E+00    4.22193E+00
 2.60000E+00    3.06676E+00
 2.80000E+00    2.23942E+00
 3.00000E+00    1.64554E+00
 3.20000E+00    1.23080E+00
 3.40000E+00    9.17488E-01
 3.60000E+00    6.84818E-01
 3.80000E+00    5.06913E-01
 4.00000E+00    3.76060E-01
 4.20000E+00    2.79293E-01
 4.40000E+00    2.07815E-01
 4.60000E+00    1.55082E-01
 4.80000E+00    1.16168E-01
 5.00000E+00    8.73799E-02
 5.20000E+00    6.60085E-02
 5.40000E+00    5.01670E-02
 5.60000E+00    3.82612E-02
 5.80000E+00    2.91104E-02
 6.00000E+00    2.23346E-02
 6.20000E+00    1.71608E-02
 6.40000E+00    1.32674E-02
 6.60000E+00    1.02936E-02
 6.80000E+00    8.00916E-03
 7.00000E+00    6.25725E-03
 7.20000E+00    4.88485E-03
 7.40000E+00    3.82371E-03
 7.60000E+00    2.99268E-03
 7.80000E+00    2.34169E-03
 8.00000E+00    1.83591E-03
 8.50000E+00    9.99292E-04
 9.00000E+00    5.46958E-04
 9.50000E+00    3.01637E-04
 1.00000E+01    1.67807E-04
 1.05000E+01    9.42561E-05
 1.10000E+01    5.34895E-05
 1.15000E+01    3.06639E-05
 1.20000E+01    1.77628E-05
 1.25000E+01    1.03889E-05
 1.30000E+01    6.13638E-06
 1.35000E+01    3.65687E-06
 1.40000E+01    2.19660E-06
 1.45000E+01    1.32976E-06
 1.50000E+01    8.10490E-07
 1.60000E+01    3.06440E-07
 1.70000E+01    1.18400E-07
 1.80000E+01    4.62790E-08
 1.90000E+01    1.85500E-08
 2.00000E+01    7.61130E-09
 2.10000E+01    3.19320E-09
 2.20000E+01    1.37090E-09
 2.30000E+01    5.99160E-10
 2.40000E+01    2.66190E-10
 2.50000E+01    1.20190E-10
 2.60000E+01    5.49970E-11
 2.70000E+01    2.54590E-11
 2.80000E+01    1.19160E-11
 2.90000E+01    5.63920E-12
 3.00000E+01    2.70010E-12
