# n + Yb171 : (n,n'05)  
# jeff3.3    A.J. Koning and D. Rochman        EVAL-DEC15
# uncertainties: n
# # energies =    99
#   E(MeV)       xs(mb) 
 1.68651E-01    0.00000E+00
 2.00000E-01    3.05493E+00
 2.09246E-01    4.21536E+00
 2.31992E-01    7.07014E+00
 2.48072E-01    9.08829E+00
 2.60599E-01    1.06605E+01
 3.00000E-01    1.56056E+01
 3.19181E-01    1.86098E+01
 3.71087E-01    2.67394E+01
 4.00000E-01    3.12678E+01
 4.52252E-01    3.95657E+01
 4.90165E-01    4.55865E+01
 5.00000E-01    4.71483E+01
 5.04329E-01    4.77996E+01
 5.12325E-01    4.90026E+01
 6.00000E-01    6.21934E+01
 6.07946E-01    6.33256E+01
 6.52045E-01    6.96092E+01
 7.00000E-01    7.64422E+01
 7.70822E-01    8.54815E+01
 7.84925E-01    8.72815E+01
 8.00000E-01    8.92056E+01
 8.30985E-01    9.18140E+01
 8.37996E-01    9.24042E+01
 8.40010E-01    9.25738E+01
 8.65236E-01    9.46974E+01
 8.72116E-01    9.52766E+01
 8.81169E-01    9.60387E+01
 9.00000E-01    9.76240E+01
 9.07574E-01    9.77169E+01
 9.12553E-01    9.77779E+01
 9.40780E-01    9.81240E+01
 9.49922E-01    9.82360E+01
 9.53967E-01    9.82857E+01
 1.00000E+00    9.88500E+01
 1.20000E+00    8.32062E+01
 1.40000E+00    6.13509E+01
 1.60000E+00    4.24659E+01
 1.80000E+00    2.85268E+01
 2.00000E+00    1.90094E+01
 2.20000E+00    1.27067E+01
 2.40000E+00    8.57423E+00
 2.60000E+00    5.85686E+00
 2.80000E+00    4.05420E+00
 3.00000E+00    2.84394E+00
 3.20000E+00    2.01885E+00
 3.40000E+00    1.44206E+00
 3.60000E+00    1.03664E+00
 3.80000E+00    7.49047E-01
 4.00000E+00    5.43737E-01
 4.20000E+00    3.96447E-01
 4.40000E+00    2.90399E-01
 4.60000E+00    2.13690E-01
 4.80000E+00    1.58021E-01
 5.00000E+00    1.17464E-01
 5.20000E+00    8.76578E-02
 5.40000E+00    6.58514E-02
 5.60000E+00    4.96411E-02
 5.80000E+00    3.73262E-02
 6.00000E+00    2.83080E-02
 6.20000E+00    2.15032E-02
 6.40000E+00    1.64374E-02
 6.60000E+00    1.26145E-02
 6.80000E+00    9.71208E-03
 7.00000E+00    7.50952E-03
 7.20000E+00    5.80662E-03
 7.40000E+00    4.50272E-03
 7.60000E+00    3.49297E-03
 7.80000E+00    2.71059E-03
 8.00000E+00    2.10819E-03
 8.50000E+00    1.12724E-03
 9.00000E+00    6.07511E-04
 9.50000E+00    3.30471E-04
 1.00000E+01    1.81586E-04
 1.05000E+01    1.00841E-04
 1.10000E+01    5.66234E-05
 1.15000E+01    3.21396E-05
 1.20000E+01    1.84439E-05
 1.25000E+01    1.06921E-05
 1.30000E+01    6.26293E-06
 1.35000E+01    3.70303E-06
 1.40000E+01    2.20801E-06
 1.45000E+01    1.32754E-06
 1.50000E+01    8.04020E-07
 1.60000E+01    3.00580E-07
 1.70000E+01    1.15040E-07
 1.80000E+01    4.46170E-08
 1.90000E+01    1.77700E-08
 2.00000E+01    7.25160E-09
 2.10000E+01    3.02750E-09
 2.20000E+01    1.29380E-09
 2.30000E+01    5.63040E-10
 2.40000E+01    2.49110E-10
 2.50000E+01    1.12040E-10
 2.60000E+01    5.10850E-11
 2.70000E+01    2.35720E-11
 2.80000E+01    1.10030E-11
 2.90000E+01    5.19410E-12
 3.00000E+01    2.48150E-12
