# n + Yb171 : (n,n'08)  
# jeff3.3    A.J. Koning and D. Rochman        EVAL-DEC15
# uncertainties: n
# # energies =    95
#   E(MeV)       xs(mb) 
 2.48072E-01    0.00000E+00
 2.60599E-01    2.55946E-01
 3.00000E-01    1.06097E+00
 3.19181E-01    2.06736E+00
 3.71087E-01    4.79076E+00
 4.00000E-01    6.30776E+00
 4.52252E-01    1.13198E+01
 4.90165E-01    1.49565E+01
 5.00000E-01    1.58999E+01
 5.04329E-01    1.64834E+01
 5.12325E-01    1.75612E+01
 6.00000E-01    2.93788E+01
 6.07946E-01    3.06874E+01
 6.52045E-01    3.79500E+01
 7.00000E-01    4.58477E+01
 7.70822E-01    5.83605E+01
 7.84925E-01    6.08522E+01
 8.00000E-01    6.35157E+01
 8.30985E-01    6.81856E+01
 8.37996E-01    6.92422E+01
 8.40010E-01    6.95457E+01
 8.65236E-01    7.33476E+01
 8.72116E-01    7.43845E+01
 8.81169E-01    7.57489E+01
 9.00000E-01    7.85870E+01
 9.07574E-01    7.91289E+01
 9.12553E-01    7.94852E+01
 9.40780E-01    8.15049E+01
 9.49922E-01    8.21590E+01
 9.53967E-01    8.24484E+01
 1.00000E+00    8.57421E+01
 1.20000E+00    7.85371E+01
 1.40000E+00    5.98651E+01
 1.60000E+00    4.18351E+01
 1.80000E+00    2.81462E+01
 2.00000E+00    1.87735E+01
 2.20000E+00    1.25833E+01
 2.40000E+00    8.53006E+00
 2.60000E+00    5.85984E+00
 2.80000E+00    4.08103E+00
 3.00000E+00    2.87979E+00
 3.20000E+00    2.09242E+00
 3.40000E+00    1.50811E+00
 3.60000E+00    1.08311E+00
 3.80000E+00    7.81348E-01
 4.00000E+00    5.65238E-01
 4.20000E+00    4.10139E-01
 4.40000E+00    2.98720E-01
 4.60000E+00    2.18525E-01
 4.80000E+00    1.60625E-01
 5.00000E+00    1.18768E-01
 5.20000E+00    8.82097E-02
 5.40000E+00    6.59821E-02
 5.60000E+00    4.95680E-02
 5.80000E+00    3.71634E-02
 6.00000E+00    2.81198E-02
 6.20000E+00    2.13207E-02
 6.40000E+00    1.62755E-02
 6.60000E+00    1.24764E-02
 6.80000E+00    9.59885E-03
 7.00000E+00    7.41779E-03
 7.20000E+00    5.73342E-03
 7.40000E+00    4.44559E-03
 7.60000E+00    3.44844E-03
 7.80000E+00    2.67635E-03
 8.00000E+00    2.08190E-03
 8.50000E+00    1.11398E-03
 9.00000E+00    6.00935E-04
 9.50000E+00    3.27240E-04
 1.00000E+01    1.80002E-04
 1.05000E+01    1.00061E-04
 1.10000E+01    5.62348E-05
 1.15000E+01    3.19430E-05
 1.20000E+01    1.83426E-05
 1.25000E+01    1.06388E-05
 1.30000E+01    6.23425E-06
 1.35000E+01    3.68724E-06
 1.40000E+01    2.19909E-06
 1.45000E+01    1.32239E-06
 1.50000E+01    8.00990E-07
 1.60000E+01    2.99510E-07
 1.70000E+01    1.14660E-07
 1.80000E+01    4.44810E-08
 1.90000E+01    1.77200E-08
 2.00000E+01    7.23260E-09
 2.10000E+01    3.02010E-09
 2.20000E+01    1.29090E-09
 2.30000E+01    5.61840E-10
 2.40000E+01    2.48610E-10
 2.50000E+01    1.11840E-10
 2.60000E+01    5.09990E-11
 2.70000E+01    2.35370E-11
 2.80000E+01    1.09880E-11
 2.90000E+01    5.18770E-12
 3.00000E+01    2.47870E-12
