# n + Yb171 : (n,n'15)  
# jeff3.3    A.J. Koning and D. Rochman        EVAL-DEC15
# uncertainties: n
# # energies =    85
#   E(MeV)       xs(mb) 
 5.12325E-01    0.00000E+00
 6.00000E-01    7.15324E-03
 6.07946E-01    1.08456E-02
 6.52045E-01    3.13376E-02
 7.00000E-01    5.36213E-02
 7.70822E-01    1.55860E-01
 7.84925E-01    1.76220E-01
 8.00000E-01    1.97982E-01
 8.30985E-01    2.95817E-01
 8.37996E-01    3.17954E-01
 8.40010E-01    3.24313E-01
 8.65236E-01    4.03963E-01
 8.72116E-01    4.25687E-01
 8.81169E-01    4.54272E-01
 9.00000E-01    5.13730E-01
 9.07574E-01    5.52532E-01
 9.12553E-01    5.78040E-01
 9.40780E-01    7.22650E-01
 9.49922E-01    7.69486E-01
 9.53967E-01    7.90208E-01
 1.00000E+00    1.02604E+00
 1.20000E+00    2.24774E+00
 1.40000E+00    3.18187E+00
 1.60000E+00    3.53588E+00
 1.80000E+00    3.39104E+00
 2.00000E+00    2.98724E+00
 2.20000E+00    2.51710E+00
 2.40000E+00    2.08513E+00
 2.60000E+00    1.72904E+00
 2.80000E+00    1.45278E+00
 3.00000E+00    1.24660E+00
 3.20000E+00    1.10173E+00
 3.40000E+00    9.92902E-01
 3.60000E+00    9.18729E-01
 3.80000E+00    8.62642E-01
 4.00000E+00    8.26513E-01
 4.20000E+00    8.05806E-01
 4.40000E+00    7.97670E-01
 4.60000E+00    7.99930E-01
 4.80000E+00    8.10739E-01
 5.00000E+00    8.28267E-01
 5.20000E+00    8.50617E-01
 5.40000E+00    8.75776E-01
 5.60000E+00    9.01448E-01
 5.80000E+00    9.25469E-01
 6.00000E+00    9.46323E-01
 6.20000E+00    9.62560E-01
 6.40000E+00    9.73517E-01
 6.60000E+00    9.78951E-01
 6.80000E+00    9.79051E-01
 7.00000E+00    9.74285E-01
 7.20000E+00    9.65258E-01
 7.40000E+00    9.52675E-01
 7.60000E+00    9.37216E-01
 7.80000E+00    9.19548E-01
 8.00000E+00    9.00310E-01
 8.50000E+00    8.48906E-01
 9.00000E+00    7.98062E-01
 9.50000E+00    7.51933E-01
 1.00000E+01    7.12063E-01
 1.05000E+01    6.78122E-01
 1.10000E+01    6.48827E-01
 1.15000E+01    6.22730E-01
 1.20000E+01    5.98758E-01
 1.25000E+01    5.76307E-01
 1.30000E+01    5.55159E-01
 1.35000E+01    5.35327E-01
 1.40000E+01    5.16938E-01
 1.45000E+01    5.00124E-01
 1.50000E+01    4.84994E-01
 1.60000E+01    4.59820E-01
 1.70000E+01    4.40681E-01
 1.80000E+01    4.25803E-01
 1.90000E+01    4.13202E-01
 2.00000E+01    4.01320E-01
 2.10000E+01    3.89061E-01
 2.20000E+01    3.75920E-01
 2.30000E+01    3.62303E-01
 2.40000E+01    3.49214E-01
 2.50000E+01    3.37539E-01
 2.60000E+01    3.27662E-01
 2.70000E+01    3.19465E-01
 2.80000E+01    3.12465E-01
 2.90000E+01    3.05970E-01
 3.00000E+01    2.99300E-01
