# n + Yb171 : (n,n'23)  
# jeff3.3    A.J. Koning and D. Rochman        EVAL-DEC15
# uncertainties: n
# # energies =    74
#   E(MeV)       xs(mb) 
 8.65236E-01    0.00000E+00
 8.72116E-01    3.58840E-07
 8.81169E-01    8.31020E-07
 9.00000E-01    1.81318E-06
 9.07574E-01    5.06265E-06
 9.12553E-01    7.19879E-06
 9.40780E-01    1.93090E-05
 9.49922E-01    2.32311E-05
 9.53967E-01    2.49665E-05
 1.00000E+00    4.47160E-05
 1.20000E+00    9.08641E-04
 1.40000E+00    4.76504E-03
 1.60000E+00    1.33556E-02
 1.80000E+00    2.60706E-02
 2.00000E+00    4.03969E-02
 2.20000E+00    5.34936E-02
 2.40000E+00    6.33611E-02
 2.60000E+00    6.89972E-02
 2.80000E+00    7.03058E-02
 3.00000E+00    6.79424E-02
 3.20000E+00    6.18901E-02
 3.40000E+00    5.56361E-02
 3.60000E+00    4.88259E-02
 3.80000E+00    4.23593E-02
 4.00000E+00    3.62461E-02
 4.20000E+00    3.04777E-02
 4.40000E+00    2.54811E-02
 4.60000E+00    2.12011E-02
 4.80000E+00    1.75815E-02
 5.00000E+00    1.45504E-02
 5.20000E+00    1.20134E-02
 5.40000E+00    9.91924E-03
 5.60000E+00    8.17791E-03
 5.80000E+00    6.68691E-03
 6.00000E+00    5.48598E-03
 6.20000E+00    4.48580E-03
 6.40000E+00    3.67367E-03
 6.60000E+00    3.00605E-03
 6.80000E+00    2.45716E-03
 7.00000E+00    2.00893E-03
 7.20000E+00    1.63587E-03
 7.40000E+00    1.33175E-03
 7.60000E+00    1.08049E-03
 7.80000E+00    8.74406E-04
 8.00000E+00    7.07292E-04
 8.50000E+00    4.12529E-04
 9.00000E+00    2.39469E-04
 9.50000E+00    1.39031E-04
 1.00000E+01    8.10250E-05
 1.05000E+01    4.75233E-05
 1.10000E+01    2.81014E-05
 1.15000E+01    1.67603E-05
 1.20000E+01    1.00883E-05
 1.25000E+01    6.12388E-06
 1.30000E+01    3.74978E-06
 1.35000E+01    2.31355E-06
 1.40000E+01    1.43676E-06
 1.45000E+01    8.97840E-07
 1.50000E+01    5.63940E-07
 1.60000E+01    2.25180E-07
 1.70000E+01    9.11760E-08
 1.80000E+01    3.70670E-08
 1.90000E+01    1.53570E-08
 2.00000E+01    6.48430E-09
 2.10000E+01    2.79190E-09
 2.20000E+01    1.22820E-09
 2.30000E+01    5.49380E-10
 2.40000E+01    2.49460E-10
 2.50000E+01    1.14930E-10
 2.60000E+01    5.35480E-11
 2.70000E+01    2.51860E-11
 2.80000E+01    1.19540E-11
 2.90000E+01    5.72650E-12
 3.00000E+01    2.77230E-12
