# n + Yb171 : (n,n'27)  
# jeff3.3    A.J. Koning and D. Rochman        EVAL-DEC15
# uncertainties: n
# # energies =    69
#   E(MeV)       xs(mb) 
 9.12553E-01    0.00000E+00
 9.40780E-01    1.51164E+01
 9.49922E-01    2.00122E+01
 9.53967E-01    2.21784E+01
 1.00000E+00    4.68305E+01
 1.20000E+00    6.67603E+01
 1.40000E+00    5.26040E+01
 1.60000E+00    3.71097E+01
 1.80000E+00    2.53950E+01
 2.00000E+00    1.70673E+01
 2.20000E+00    1.13056E+01
 2.40000E+00    7.43274E+00
 2.60000E+00    4.88059E+00
 2.80000E+00    3.21595E+00
 3.00000E+00    2.13413E+00
 3.20000E+00    1.43324E+00
 3.40000E+00    9.68361E-01
 3.60000E+00    6.61282E-01
 3.80000E+00    4.57161E-01
 4.00000E+00    3.20540E-01
 4.20000E+00    2.24862E-01
 4.40000E+00    1.58996E-01
 4.60000E+00    1.13121E-01
 4.80000E+00    8.09496E-02
 5.00000E+00    5.82640E-02
 5.20000E+00    4.21492E-02
 5.40000E+00    3.07103E-02
 5.60000E+00    2.24856E-02
 5.80000E+00    1.64441E-02
 6.00000E+00    1.21450E-02
 6.20000E+00    9.00028E-03
 6.40000E+00    6.72317E-03
 6.60000E+00    5.05033E-03
 6.80000E+00    3.81267E-03
 7.00000E+00    2.89584E-03
 7.20000E+00    2.20281E-03
 7.40000E+00    1.68346E-03
 7.60000E+00    1.28881E-03
 7.80000E+00    9.88308E-04
 8.00000E+00    7.60555E-04
 8.50000E+00    3.97533E-04
 9.00000E+00    2.10238E-04
 9.50000E+00    1.12467E-04
 1.00000E+01    6.08466E-05
 1.05000E+01    3.32920E-05
 1.10000E+01    1.84239E-05
 1.15000E+01    1.03076E-05
 1.20000E+01    5.83118E-06
 1.25000E+01    3.33324E-06
 1.30000E+01    1.92616E-06
 1.35000E+01    1.12432E-06
 1.40000E+01    6.62400E-07
 1.45000E+01    3.93870E-07
 1.50000E+01    2.36140E-07
 1.60000E+01    8.67620E-08
 1.70000E+01    3.27530E-08
 1.80000E+01    1.25640E-08
 1.90000E+01    4.95600E-09
 2.00000E+01    2.00410E-09
 2.10000E+01    8.29130E-10
 2.20000E+01    3.51160E-10
 2.30000E+01    1.51490E-10
 2.40000E+01    6.64940E-11
 2.50000E+01    2.97050E-11
 2.60000E+01    1.34700E-11
 2.70000E+01    6.18830E-12
 2.80000E+01    2.87700E-12
 2.90000E+01    1.35270E-12
 3.00000E+01    6.43430E-13
