# n + Yb171 : (n,n'13)  
# jeff3.3    A.J. Koning and D. Rochman        EVAL-DEC15
# uncertainties: n
# # energies =    88
#   E(MeV)       xs(mb) 
 4.90165E-01    0.00000E+00
 5.00000E-01    7.24889E-02
 5.04329E-01    1.43604E-01
 5.12325E-01    2.74957E-01
 6.00000E-01    1.71523E+00
 6.07946E-01    1.96130E+00
 6.52045E-01    3.32697E+00
 7.00000E-01    4.81204E+00
 7.70822E-01    7.72671E+00
 7.84925E-01    8.30711E+00
 8.00000E-01    8.92752E+00
 8.30985E-01    1.03102E+01
 8.37996E-01    1.06230E+01
 8.40010E-01    1.07129E+01
 8.65236E-01    1.18386E+01
 8.72116E-01    1.21456E+01
 8.81169E-01    1.25496E+01
 9.00000E-01    1.33899E+01
 9.07574E-01    1.36701E+01
 9.12553E-01    1.38544E+01
 9.40780E-01    1.48988E+01
 9.49922E-01    1.52371E+01
 9.53967E-01    1.53868E+01
 1.00000E+00    1.70901E+01
 1.20000E+00    1.95936E+01
 1.40000E+00    1.77650E+01
 1.60000E+00    1.43223E+01
 1.80000E+00    1.08692E+01
 2.00000E+00    8.05602E+00
 2.20000E+00    5.94646E+00
 2.40000E+00    4.41944E+00
 2.60000E+00    3.32855E+00
 2.80000E+00    2.55300E+00
 3.00000E+00    2.00300E+00
 3.20000E+00    1.62672E+00
 3.40000E+00    1.34588E+00
 3.60000E+00    1.14812E+00
 3.80000E+00    1.00020E+00
 4.00000E+00    8.97862E-01
 4.20000E+00    8.28814E-01
 4.40000E+00    7.85011E-01
 4.60000E+00    7.60542E-01
 4.80000E+00    7.50881E-01
 5.00000E+00    7.52305E-01
 5.20000E+00    7.61640E-01
 5.40000E+00    7.76074E-01
 5.60000E+00    7.92778E-01
 5.80000E+00    8.09286E-01
 6.00000E+00    8.24065E-01
 6.20000E+00    8.35529E-01
 6.40000E+00    8.42979E-01
 6.60000E+00    8.46066E-01
 6.80000E+00    8.44875E-01
 7.00000E+00    8.39753E-01
 7.20000E+00    8.31163E-01
 7.40000E+00    8.19680E-01
 7.60000E+00    8.05860E-01
 7.80000E+00    7.90251E-01
 8.00000E+00    7.73385E-01
 8.50000E+00    7.28682E-01
 9.00000E+00    6.84759E-01
 9.50000E+00    6.45060E-01
 1.00000E+01    6.10819E-01
 1.05000E+01    5.81696E-01
 1.10000E+01    5.56556E-01
 1.15000E+01    5.34149E-01
 1.20000E+01    5.13556E-01
 1.25000E+01    4.94267E-01
 1.30000E+01    4.76101E-01
 1.35000E+01    4.59073E-01
 1.40000E+01    4.43290E-01
 1.45000E+01    4.28867E-01
 1.50000E+01    4.15896E-01
 1.60000E+01    3.94328E-01
 1.70000E+01    3.77934E-01
 1.80000E+01    3.65184E-01
 1.90000E+01    3.54371E-01
 2.00000E+01    3.44163E-01
 2.10000E+01    3.33625E-01
 2.20000E+01    3.22330E-01
 2.30000E+01    3.10635E-01
 2.40000E+01    2.99406E-01
 2.50000E+01    2.89400E-01
 2.60000E+01    2.80940E-01
 2.70000E+01    2.73921E-01
 2.80000E+01    2.67922E-01
 2.90000E+01    2.62351E-01
 3.00000E+01    2.56622E-01
