# n + Yb171 : (n,n'25)  
# jeff3.3    A.J. Koning and D. Rochman        EVAL-DEC15
# uncertainties: n
# # energies =    72
#   E(MeV)       xs(mb) 
 8.81169E-01    0.00000E+00
 9.00000E-01    2.89107E+01
 9.07574E-01    3.30762E+01
 9.12553E-01    3.58145E+01
 9.40780E-01    5.13384E+01
 9.49922E-01    5.63662E+01
 9.53967E-01    5.85908E+01
 1.00000E+00    8.39074E+01
 1.20000E+00    1.06978E+02
 1.40000E+00    8.42895E+01
 1.60000E+00    5.91760E+01
 1.80000E+00    4.00041E+01
 2.00000E+00    2.65769E+01
 2.20000E+00    1.74872E+01
 2.40000E+00    1.14794E+01
 2.60000E+00    7.55761E+00
 2.80000E+00    5.00786E+00
 3.00000E+00    3.34829E+00
 3.20000E+00    2.26538E+00
 3.40000E+00    1.54356E+00
 3.60000E+00    1.06221E+00
 3.80000E+00    7.38624E-01
 4.00000E+00    5.18632E-01
 4.20000E+00    3.66334E-01
 4.40000E+00    2.60646E-01
 4.60000E+00    1.86615E-01
 4.80000E+00    1.34407E-01
 5.00000E+00    9.73703E-02
 5.20000E+00    7.08870E-02
 5.40000E+00    5.19659E-02
 5.60000E+00    3.82732E-02
 5.80000E+00    2.81423E-02
 6.00000E+00    2.08919E-02
 6.20000E+00    1.55556E-02
 6.40000E+00    1.16707E-02
 6.60000E+00    8.80278E-03
 6.80000E+00    6.67059E-03
 7.00000E+00    5.08407E-03
 7.20000E+00    3.87981E-03
 7.40000E+00    2.97387E-03
 7.60000E+00    2.28283E-03
 7.80000E+00    1.75495E-03
 8.00000E+00    1.35361E-03
 8.50000E+00    7.11112E-04
 9.00000E+00    3.77742E-04
 9.50000E+00    2.02896E-04
 1.00000E+01    1.10195E-04
 1.05000E+01    6.05194E-05
 1.10000E+01    3.36141E-05
 1.15000E+01    1.88726E-05
 1.20000E+01    1.07126E-05
 1.25000E+01    6.14304E-06
 1.30000E+01    3.56024E-06
 1.35000E+01    2.08367E-06
 1.40000E+01    1.23052E-06
 1.45000E+01    7.33220E-07
 1.50000E+01    4.40400E-07
 1.60000E+01    1.62270E-07
 1.70000E+01    6.13790E-08
 1.80000E+01    2.35780E-08
 1.90000E+01    9.31330E-09
 2.00000E+01    3.77170E-09
 2.10000E+01    1.56290E-09
 2.20000E+01    6.63010E-10
 2.30000E+01    2.86440E-10
 2.40000E+01    1.25870E-10
 2.50000E+01    5.62740E-11
 2.60000E+01    2.55310E-11
 2.70000E+01    1.17340E-11
 2.80000E+01    5.45850E-12
 2.90000E+01    2.56880E-12
 3.00000E+01    1.22340E-12
