# n + Yb171 : (n,n'14)  
# jeff3.3    A.J. Koning and D. Rochman        EVAL-DEC15
# uncertainties: n
# # energies =    86
#   E(MeV)       xs(mb) 
 5.04329E-01    0.00000E+00
 5.12325E-01    1.62905E-05
 6.00000E-01    1.94914E-04
 6.07946E-01    3.35276E-04
 6.52045E-01    1.11427E-03
 7.00000E-01    1.96137E-03
 7.70822E-01    7.06052E-03
 7.84925E-01    8.07594E-03
 8.00000E-01    9.16133E-03
 8.30985E-01    1.52557E-02
 8.37996E-01    1.66346E-02
 8.40010E-01    1.70308E-02
 8.65236E-01    2.19924E-02
 8.72116E-01    2.33456E-02
 8.81169E-01    2.51262E-02
 9.00000E-01    2.88300E-02
 9.07574E-01    3.18315E-02
 9.12553E-01    3.38046E-02
 9.40780E-01    4.49907E-02
 9.49922E-01    4.86136E-02
 9.53967E-01    5.02166E-02
 1.00000E+00    6.84590E-02
 1.20000E+00    2.03511E-01
 1.40000E+00    3.76518E-01
 1.60000E+00    5.31177E-01
 1.80000E+00    6.24333E-01
 2.00000E+00    6.46547E-01
 2.20000E+00    6.12710E-01
 2.40000E+00    5.46459E-01
 2.60000E+00    4.67978E-01
 2.80000E+00    3.90510E-01
 3.00000E+00    3.20889E-01
 3.20000E+00    2.58317E-01
 3.40000E+00    2.08286E-01
 3.60000E+00    1.67066E-01
 3.80000E+00    1.34008E-01
 4.00000E+00    1.07138E-01
 4.20000E+00    8.54204E-02
 4.40000E+00    6.79493E-02
 4.60000E+00    5.39662E-02
 4.80000E+00    4.28294E-02
 5.00000E+00    3.39765E-02
 5.20000E+00    2.69460E-02
 5.40000E+00    2.14169E-02
 5.60000E+00    1.70166E-02
 5.80000E+00    1.34427E-02
 6.00000E+00    1.06771E-02
 6.20000E+00    8.46897E-03
 6.40000E+00    6.74277E-03
 6.60000E+00    5.37571E-03
 6.80000E+00    4.28873E-03
 7.00000E+00    3.42934E-03
 7.20000E+00    2.73546E-03
 7.40000E+00    2.18420E-03
 7.60000E+00    1.74154E-03
 7.80000E+00    1.38624E-03
 8.00000E+00    1.10434E-03
 8.50000E+00    6.22973E-04
 9.00000E+00    3.51774E-04
 9.50000E+00    1.99538E-04
 1.00000E+01    1.13970E-04
 1.05000E+01    6.56568E-05
 1.10000E+01    3.81912E-05
 1.15000E+01    2.24315E-05
 1.20000E+01    1.33071E-05
 1.25000E+01    7.96601E-06
 1.30000E+01    4.81252E-06
 1.35000E+01    2.93074E-06
 1.40000E+01    1.79715E-06
 1.45000E+01    1.10940E-06
 1.50000E+01    6.88660E-07
 1.60000E+01    2.69010E-07
 1.70000E+01    1.06800E-07
 1.80000E+01    4.26920E-08
 1.90000E+01    1.74350E-08
 2.00000E+01    7.27170E-09
 2.10000E+01    3.09660E-09
 2.20000E+01    1.34810E-09
 2.30000E+01    5.97040E-10
 2.40000E+01    2.68520E-10
 2.50000E+01    1.22600E-10
 2.60000E+01    5.66540E-11
 2.70000E+01    2.64510E-11
 2.80000E+01    1.24730E-11
 2.90000E+01    5.94190E-12
 3.00000E+01    2.86240E-12
