# n + Yb171 : (n,n'10)  
# jeff3.3    A.J. Koning and D. Rochman        EVAL-DEC15
# uncertainties: n
# # energies =    92
#   E(MeV)       xs(mb) 
 3.19181E-01    0.00000E+00
 3.71087E-01    1.50116E+00
 4.00000E-01    2.33734E+00
 4.52252E-01    5.95946E+00
 4.90165E-01    8.58761E+00
 5.00000E-01    9.26937E+00
 5.04329E-01    9.74413E+00
 5.12325E-01    1.06210E+01
 6.00000E-01    2.02363E+01
 6.07946E-01    2.13680E+01
 6.52045E-01    2.76487E+01
 7.00000E-01    3.44786E+01
 7.70822E-01    4.58571E+01
 7.84925E-01    4.81230E+01
 8.00000E-01    5.05450E+01
 8.30985E-01    5.50781E+01
 8.37996E-01    5.61039E+01
 8.40010E-01    5.63985E+01
 8.65236E-01    6.00891E+01
 8.72116E-01    6.10956E+01
 8.81169E-01    6.24201E+01
 9.00000E-01    6.51751E+01
 9.07574E-01    6.58018E+01
 9.12553E-01    6.62137E+01
 9.40780E-01    6.85493E+01
 9.49922E-01    6.93056E+01
 9.53967E-01    6.96403E+01
 1.00000E+00    7.34491E+01
 1.20000E+00    7.04839E+01
 1.40000E+00    5.55060E+01
 1.60000E+00    3.96405E+01
 1.80000E+00    2.70334E+01
 2.00000E+00    1.81812E+01
 2.20000E+00    1.22496E+01
 2.40000E+00    8.33150E+00
 2.60000E+00    5.73579E+00
 2.80000E+00    4.00003E+00
 3.00000E+00    2.82509E+00
 3.20000E+00    2.04555E+00
 3.40000E+00    1.48264E+00
 3.60000E+00    1.06619E+00
 3.80000E+00    7.70175E-01
 4.00000E+00    5.57885E-01
 4.20000E+00    4.05269E-01
 4.40000E+00    2.95427E-01
 4.60000E+00    2.16280E-01
 4.80000E+00    1.59065E-01
 5.00000E+00    1.17642E-01
 5.20000E+00    8.74063E-02
 5.40000E+00    6.53859E-02
 5.60000E+00    4.91289E-02
 5.80000E+00    3.68398E-02
 6.00000E+00    2.78775E-02
 6.20000E+00    2.11396E-02
 6.40000E+00    1.61400E-02
 6.60000E+00    1.23744E-02
 6.80000E+00    9.52181E-03
 7.00000E+00    7.36025E-03
 7.20000E+00    5.69003E-03
 7.40000E+00    4.41333E-03
 7.60000E+00    3.42425E-03
 7.80000E+00    2.65822E-03
 8.00000E+00    2.06845E-03
 8.50000E+00    1.10749E-03
 9.00000E+00    5.97764E-04
 9.50000E+00    3.25662E-04
 1.00000E+01    1.79202E-04
 1.05000E+01    9.96473E-05
 1.10000E+01    5.60167E-05
 1.15000E+01    3.18255E-05
 1.20000E+01    1.82781E-05
 1.25000E+01    1.06028E-05
 1.30000E+01    6.21389E-06
 1.35000E+01    3.67563E-06
 1.40000E+01    2.19244E-06
 1.45000E+01    1.31857E-06
 1.50000E+01    7.98780E-07
 1.60000E+01    2.98770E-07
 1.70000E+01    1.14410E-07
 1.80000E+01    4.43960E-08
 1.90000E+01    1.76890E-08
 2.00000E+01    7.22070E-09
 2.10000E+01    3.01530E-09
 2.20000E+01    1.28880E-09
 2.30000E+01    5.60960E-10
 2.40000E+01    2.48230E-10
 2.50000E+01    1.11670E-10
 2.60000E+01    5.09300E-11
 2.70000E+01    2.35080E-11
 2.80000E+01    1.09750E-11
 2.90000E+01    5.18210E-12
 3.00000E+01    2.47610E-12
