# n + Yb171 : (n,xn)    
# jeff3.3    A.J. Koning and D. Rochman        EVAL-DEC15
# 
# # energies =   134
#   E(MeV)        xs(mb) 
 6.71258E-02    2.00000E-17
 7.63298E-02    1.24302E+02
 9.58442E-02    4.76226E+02
 1.00000E-01    5.51864E+02
 1.23138E-01    7.05222E+02
 1.68651E-01    1.12443E+03
 2.00000E-01    1.41624E+03
 2.09246E-01    1.45641E+03
 2.31992E-01    1.57021E+03
 2.48072E-01    1.66111E+03
 2.60599E-01    1.73218E+03
 3.00000E-01    1.95573E+03
 3.19181E-01    2.02049E+03
 3.71087E-01    2.19727E+03
 4.00000E-01    2.29574E+03
 4.52252E-01    2.42266E+03
 4.90165E-01    2.51511E+03
 5.00000E-01    2.53917E+03
 5.04329E-01    2.54784E+03
 5.12325E-01    2.56386E+03
 6.00000E-01    2.73952E+03
 6.07946E-01    2.75356E+03
 6.52045E-01    2.83153E+03
 7.00000E-01    2.91631E+03
 7.70822E-01    3.00491E+03
 7.84925E-01    3.04585E+03
 8.00000E-01    3.08961E+03
 8.30985E-01    3.12123E+03
 8.37996E-01    3.12839E+03
 8.40010E-01    3.13044E+03
 8.65236E-01    3.16490E+03
 8.72116E-01    3.17429E+03
 8.81169E-01    3.19334E+03
 9.00000E-01    3.26186E+03
 9.07574E-01    3.26161E+03
 9.12553E-01    3.26496E+03
 9.40780E-01    3.29903E+03
 9.49922E-01    3.31097E+03
 9.53967E-01    3.31894E+03
 1.00000E+00    3.46506E+03
 1.20000E+00    3.75096E+03
 1.40000E+00    3.87704E+03
 1.60000E+00    3.89027E+03
 1.80000E+00    3.84156E+03
 2.00000E+00    3.76029E+03
 2.20000E+00    3.66828E+03
 2.40000E+00    3.57601E+03
 2.60000E+00    3.49194E+03
 2.80000E+00    3.41840E+03
 3.00000E+00    3.35707E+03
 3.20000E+00    3.31599E+03
 3.40000E+00    3.26730E+03
 3.60000E+00    3.22279E+03
 3.80000E+00    3.18127E+03
 4.00000E+00    3.14288E+03
 4.20000E+00    3.10777E+03
 4.40000E+00    3.07636E+03
 4.60000E+00    3.04911E+03
 4.80000E+00    3.02599E+03
 5.00000E+00    3.00639E+03
 5.20000E+00    2.99078E+03
 5.40000E+00    2.97830E+03
 5.60000E+00    2.96825E+03
 5.80000E+00    2.96084E+03
 6.00000E+00    2.95503E+03
 6.20000E+00    2.95062E+03
 6.40000E+00    2.94696E+03
 6.60000E+00    2.94368E+03
 6.80000E+00    2.96012E+03
 7.00000E+00    3.01712E+03
 7.20000E+00    3.10293E+03
 7.40000E+00    3.24476E+03
 7.60000E+00    3.42167E+03
 7.80000E+00    3.58047E+03
 8.00000E+00    3.71500E+03
 8.50000E+00    4.07387E+03
 9.00000E+00    4.29693E+03
 9.50000E+00    4.45324E+03
 1.00000E+01    4.54714E+03
 1.05000E+01    4.59731E+03
 1.10000E+01    4.62154E+03
 1.15000E+01    4.63263E+03
 1.20000E+01    4.63639E+03
 1.25000E+01    4.64104E+03
 1.30000E+01    4.64334E+03
 1.35000E+01    4.64403E+03
 1.40000E+01    4.64748E+03
 1.45000E+01    4.64808E+03
 1.50000E+01    4.64717E+03
 1.60000E+01    4.67782E+03
 1.70000E+01    4.86838E+03
 1.80000E+01    5.15144E+03
 1.90000E+01    5.40692E+03
 2.00000E+01    5.56604E+03
 2.10000E+01    5.66388E+03
 2.20000E+01    5.72766E+03
 2.30000E+01    5.76668E+03
 2.40000E+01    5.81138E+03
 2.50000E+01    5.89261E+03
 2.60000E+01    6.00605E+03
 2.70000E+01    6.14041E+03
 2.80000E+01    6.26851E+03
 2.90000E+01    6.37784E+03
 3.00000E+01    6.46556E+03
 3.00000E+01    6.46862E+03
 3.20000E+01    6.58281E+03
 3.40000E+01    6.67030E+03
 3.60000E+01    6.80558E+03
 3.80000E+01    6.98374E+03
 4.00000E+01    7.13797E+03
 4.20000E+01    7.26041E+03
 4.40000E+01    7.36809E+03
 4.60000E+01    7.47583E+03
 4.80000E+01    7.58699E+03
 5.00000E+01    7.68395E+03
 5.20000E+01    7.77140E+03
 5.40000E+01    7.85337E+03
 5.60000E+01    7.95029E+03
 5.80000E+01    8.04560E+03
 6.00000E+01    8.13078E+03
 6.50000E+01    8.33143E+03
 7.00000E+01    8.49270E+03
 7.50000E+01    8.67668E+03
 8.00000E+01    8.85329E+03
 9.00000E+01    9.24290E+03
 1.00000E+02    9.59055E+03
 1.10000E+02    9.97987E+03
 1.20000E+02    1.03996E+04
 1.30000E+02    1.09726E+04
 1.40000E+02    1.18390E+04
 1.50000E+02    1.28305E+04
 1.60000E+02    1.38786E+04
 1.80000E+02    1.61312E+04
 2.00000E+02    1.79635E+04
