# n + Yb171 : (n,n'26)  
# jeff3.3    A.J. Koning and D. Rochman        EVAL-DEC15
# uncertainties: n
# # energies =    70
#   E(MeV)       xs(mb) 
 9.07574E-01    0.00000E+00
 9.12553E-01    3.50674E+00
 9.40780E-01    2.33872E+01
 9.49922E-01    2.98259E+01
 9.53967E-01    3.26748E+01
 1.00000E+00    6.50961E+01
 1.20000E+00    9.45322E+01
 1.40000E+00    7.69025E+01
 1.60000E+00    5.57850E+01
 1.80000E+00    3.90047E+01
 2.00000E+00    2.66507E+01
 2.20000E+00    1.78909E+01
 2.40000E+00    1.18992E+01
 2.60000E+00    7.89836E+00
 2.80000E+00    5.25985E+00
 3.00000E+00    3.52730E+00
 3.20000E+00    2.39803E+00
 3.40000E+00    1.63473E+00
 3.60000E+00    1.12505E+00
 3.80000E+00    7.83164E-01
 4.00000E+00    5.52290E-01
 4.20000E+00    3.89113E-01
 4.40000E+00    2.76173E-01
 4.60000E+00    1.97142E-01
 4.80000E+00    1.41503E-01
 5.00000E+00    1.02136E-01
 5.20000E+00    7.40826E-02
 5.40000E+00    5.41125E-02
 5.60000E+00    3.97145E-02
 5.80000E+00    2.91085E-02
 6.00000E+00    2.15433E-02
 6.20000E+00    1.59961E-02
 6.40000E+00    1.19706E-02
 6.60000E+00    9.00726E-03
 6.80000E+00    6.81052E-03
 7.00000E+00    5.18025E-03
 7.20000E+00    3.94588E-03
 7.40000E+00    3.01940E-03
 7.60000E+00    2.31436E-03
 7.80000E+00    1.77682E-03
 8.00000E+00    1.36891E-03
 8.50000E+00    7.17546E-04
 9.00000E+00    3.80588E-04
 9.50000E+00    2.04207E-04
 1.00000E+01    1.10810E-04
 1.05000E+01    6.08076E-05
 1.10000E+01    3.37469E-05
 1.15000E+01    1.89325E-05
 1.20000E+01    1.07390E-05
 1.25000E+01    6.15439E-06
 1.30000E+01    3.56508E-06
 1.35000E+01    2.08575E-06
 1.40000E+01    1.23145E-06
 1.45000E+01    7.33670E-07
 1.50000E+01    4.40650E-07
 1.60000E+01    1.62390E-07
 1.70000E+01    6.14490E-08
 1.80000E+01    2.36140E-08
 1.90000E+01    9.32920E-09
 2.00000E+01    3.77790E-09
 2.10000E+01    1.56510E-09
 2.20000E+01    6.63650E-10
 2.30000E+01    2.86590E-10
 2.40000E+01    1.25890E-10
 2.50000E+01    5.62630E-11
 2.60000E+01    2.55210E-11
 2.70000E+01    1.17290E-11
 2.80000E+01    5.45550E-12
 2.90000E+01    2.56690E-12
 3.00000E+01    1.22210E-12
