# n + Yb171 : (n,n'17)  
# jeff3.3    A.J. Koning and D. Rochman        EVAL-DEC15
# uncertainties: n
# # energies =    82
#   E(MeV)       xs(mb) 
 6.52045E-01    0.00000E+00
 7.00000E-01    1.93920E-05
 7.70822E-01    3.37112E-04
 7.84925E-01    4.00380E-04
 8.00000E-01    4.68009E-04
 8.30985E-01    1.12523E-03
 8.37996E-01    1.27394E-03
 8.40010E-01    1.31666E-03
 8.65236E-01    1.85172E-03
 8.72116E-01    1.99766E-03
 8.81169E-01    2.18968E-03
 9.00000E-01    2.58910E-03
 9.07574E-01    3.04056E-03
 9.12553E-01    3.33734E-03
 9.40780E-01    5.01983E-03
 9.49922E-01    5.56475E-03
 9.53967E-01    5.80586E-03
 1.00000E+00    8.54970E-03
 1.20000E+00    3.70073E-02
 1.40000E+00    8.32635E-02
 1.60000E+00    1.30907E-01
 1.80000E+00    1.62839E-01
 2.00000E+00    1.73126E-01
 2.20000E+00    1.66274E-01
 2.40000E+00    1.50224E-01
 2.60000E+00    1.31099E-01
 2.80000E+00    1.12354E-01
 3.00000E+00    9.55502E-02
 3.20000E+00    7.88250E-02
 3.40000E+00    6.68470E-02
 3.60000E+00    5.64499E-02
 3.80000E+00    4.77560E-02
 4.00000E+00    4.04250E-02
 4.20000E+00    3.40375E-02
 4.40000E+00    2.84969E-02
 4.60000E+00    2.37258E-02
 4.80000E+00    1.96596E-02
 5.00000E+00    1.62271E-02
 5.20000E+00    1.33351E-02
 5.40000E+00    1.09554E-02
 5.60000E+00    8.97242E-03
 5.80000E+00    7.28697E-03
 6.00000E+00    5.93882E-03
 6.20000E+00    4.82424E-03
 6.40000E+00    3.92639E-03
 6.60000E+00    3.19506E-03
 6.80000E+00    2.59806E-03
 7.00000E+00    2.11404E-03
 7.20000E+00    1.71463E-03
 7.40000E+00    1.38989E-03
 7.60000E+00    1.12395E-03
 7.80000E+00    9.06673E-04
 8.00000E+00    7.31118E-04
 8.50000E+00    4.23849E-04
 9.00000E+00    2.44964E-04
 9.50000E+00    1.41800E-04
 1.00000E+01    8.24855E-05
 1.05000E+01    4.83271E-05
 1.10000E+01    2.85600E-05
 1.15000E+01    1.70291E-05
 1.20000E+01    1.02486E-05
 1.25000E+01    6.22042E-06
 1.30000E+01    3.80821E-06
 1.35000E+01    2.34898E-06
 1.40000E+01    1.45825E-06
 1.45000E+01    9.10890E-07
 1.50000E+01    5.71860E-07
 1.60000E+01    2.28080E-07
 1.70000E+01    9.22210E-08
 1.80000E+01    3.74400E-08
 1.90000E+01    1.54940E-08
 2.00000E+01    6.53700E-09
 2.10000E+01    2.81330E-09
 2.20000E+01    1.23710E-09
 2.30000E+01    5.53220E-10
 2.40000E+01    2.51120E-10
 2.50000E+01    1.15650E-10
 2.60000E+01    5.38560E-11
 2.70000E+01    2.53170E-11
 2.80000E+01    1.20100E-11
 2.90000E+01    5.75130E-12
 3.00000E+01    2.78370E-12
