# n + Cl 36 : (n,n'08)  
# jeff3.3    A.J. Koning and D. Rochman        EVAL-DEC15
# uncertainties: n
# # energies =    80
#   E(MeV)       xs(mb) 
 2.58902E+00    0.00000E+00
 2.60000E+00    8.85583E+00
 2.75150E+00    3.74733E+01
 2.80000E+00    4.66347E+01
 2.88939E+00    5.25407E+01
 2.94424E+00    5.61646E+01
 2.97754E+00    5.83648E+01
 3.00000E+00    5.98487E+01
 3.07865E+00    6.08630E+01
 3.18765E+00    6.22687E+01
 3.20000E+00    6.24280E+01
 3.20749E+00    6.23814E+01
 3.29729E+00    6.18226E+01
 3.40000E+00    6.11834E+01
 3.42574E+00    6.11569E+01
 3.56733E+00    6.10111E+01
 3.60000E+00    6.09774E+01
 3.66600E+00    6.10196E+01
 3.70047E+00    6.10416E+01
 3.73693E+00    6.10649E+01
 3.76298E+00    6.10816E+01
 3.79554E+00    6.11024E+01
 3.80000E+00    6.11052E+01
 3.82782E+00    6.08624E+01
 3.87778E+00    6.04265E+01
 3.93317E+00    5.99431E+01
 4.00000E+00    5.93599E+01
 4.05185E+00    5.82133E+01
 4.07403E+00    5.77228E+01
 4.10401E+00    5.70598E+01
 4.14497E+00    5.61540E+01
 4.20000E+00    5.49371E+01
 4.40000E+00    5.26143E+01
 4.60000E+00    4.99355E+01
 4.80000E+00    4.67867E+01
 5.00000E+00    4.34874E+01
 5.20000E+00    4.04801E+01
 5.40000E+00    3.72247E+01
 5.60000E+00    3.44468E+01
 5.80000E+00    3.17392E+01
 6.00000E+00    2.91499E+01
 6.20000E+00    2.67692E+01
 6.40000E+00    2.44128E+01
 6.60000E+00    2.23187E+01
 6.80000E+00    2.03571E+01
 7.00000E+00    1.85770E+01
 7.20000E+00    1.68966E+01
 7.40000E+00    1.53504E+01
 7.60000E+00    1.39081E+01
 7.80000E+00    1.25966E+01
 8.00000E+00    1.14325E+01
 8.50000E+00    8.89076E+00
 9.00000E+00    6.93218E+00
 9.50000E+00    5.34461E+00
 1.00000E+01    4.08925E+00
 1.05000E+01    3.12513E+00
 1.10000E+01    2.37948E+00
 1.15000E+01    1.80744E+00
 1.20000E+01    1.36980E+00
 1.25000E+01    1.03825E+00
 1.30000E+01    7.89413E-01
 1.35000E+01    6.03415E-01
 1.40000E+01    4.65371E-01
 1.45000E+01    3.61960E-01
 1.50000E+01    2.85152E-01
 1.60000E+01    1.87235E-01
 1.70000E+01    1.33809E-01
 1.80000E+01    1.05086E-01
 1.90000E+01    8.96835E-02
 2.00000E+01    8.13307E-02
 2.10000E+01    7.67768E-02
 2.20000E+01    7.42634E-02
 2.30000E+01    7.27620E-02
 2.40000E+01    7.17550E-02
 2.50000E+01    7.09797E-02
 2.60000E+01    7.02765E-02
 2.70000E+01    6.95859E-02
 2.80000E+01    6.88775E-02
 2.90000E+01    6.81361E-02
 3.00000E+01    6.73547E-02
