# n + Cl 36 : (n,n'09)  
# jeff3.3    A.J. Koning and D. Rochman        EVAL-DEC15
# uncertainties: n
# # energies =    78
#   E(MeV)       xs(mb) 
 2.75150E+00    0.00000E+00
 2.80000E+00    6.82510E+00
 2.88939E+00    1.29889E+01
 2.94424E+00    1.67710E+01
 2.97754E+00    1.90672E+01
 3.00000E+00    2.06159E+01
 3.07865E+00    2.32026E+01
 3.18765E+00    2.67874E+01
 3.20000E+00    2.71936E+01
 3.20749E+00    2.72992E+01
 3.29729E+00    2.85650E+01
 3.40000E+00    3.00128E+01
 3.42574E+00    3.01118E+01
 3.56733E+00    3.06564E+01
 3.60000E+00    3.07821E+01
 3.66600E+00    3.05128E+01
 3.70047E+00    3.03722E+01
 3.73693E+00    3.02234E+01
 3.76298E+00    3.01171E+01
 3.79554E+00    2.99843E+01
 3.80000E+00    2.99661E+01
 3.82782E+00    2.97804E+01
 3.87778E+00    2.94469E+01
 3.93317E+00    2.90771E+01
 4.00000E+00    2.86310E+01
 4.05185E+00    2.78311E+01
 4.07403E+00    2.74890E+01
 4.10401E+00    2.70265E+01
 4.14497E+00    2.63946E+01
 4.20000E+00    2.55457E+01
 4.40000E+00    2.38301E+01
 4.60000E+00    2.24117E+01
 4.80000E+00    2.09912E+01
 5.00000E+00    1.95561E+01
 5.20000E+00    1.82546E+01
 5.40000E+00    1.68192E+01
 5.60000E+00    1.55634E+01
 5.80000E+00    1.43070E+01
 6.00000E+00    1.30839E+01
 6.20000E+00    1.19411E+01
 6.40000E+00    1.08062E+01
 6.60000E+00    9.79381E+00
 6.80000E+00    8.84874E+00
 7.00000E+00    7.99712E+00
 7.20000E+00    7.20479E+00
 7.40000E+00    6.48273E+00
 7.60000E+00    5.82245E+00
 7.80000E+00    5.22974E+00
 8.00000E+00    4.70957E+00
 8.50000E+00    3.60532E+00
 9.00000E+00    2.77338E+00
 9.50000E+00    2.12487E+00
 1.00000E+01    1.61870E+00
 1.05000E+01    1.23108E+00
 1.10000E+01    9.29892E-01
 1.15000E+01    6.97012E-01
 1.20000E+01    5.17931E-01
 1.25000E+01    3.82148E-01
 1.30000E+01    2.80827E-01
 1.35000E+01    2.05586E-01
 1.40000E+01    1.50434E-01
 1.45000E+01    1.09741E-01
 1.50000E+01    7.99868E-02
 1.60000E+01    4.28658E-02
 1.70000E+01    2.31153E-02
 1.80000E+01    1.26111E-02
 1.90000E+01    6.96107E-03
 2.00000E+01    3.85552E-03
 2.10000E+01    2.14347E-03
 2.20000E+01    1.20354E-03
 2.30000E+01    6.78859E-04
 2.40000E+01    3.84914E-04
 2.50000E+01    2.21825E-04
 2.60000E+01    1.27050E-04
 2.70000E+01    7.23619E-05
 2.80000E+01    4.13797E-05
 2.90000E+01    2.36809E-05
 3.00000E+01    1.28388E-05
