# n + Cl 36 : (n,n'11)  
# jeff3.3    A.J. Koning and D. Rochman        EVAL-DEC15
# uncertainties: n
# # energies =    75
#   E(MeV)       xs(mb) 
 2.94424E+00    0.00000E+00
 2.97754E+00    9.28571E+00
 3.00000E+00    1.55487E+01
 3.07865E+00    2.51526E+01
 3.18765E+00    3.84625E+01
 3.20000E+00    3.99706E+01
 3.20749E+00    4.03232E+01
 3.29729E+00    4.45502E+01
 3.40000E+00    4.93850E+01
 3.42574E+00    4.98511E+01
 3.56733E+00    5.24150E+01
 3.60000E+00    5.30066E+01
 3.66600E+00    5.31323E+01
 3.70047E+00    5.31980E+01
 3.73693E+00    5.32675E+01
 3.76298E+00    5.33171E+01
 3.79554E+00    5.33791E+01
 3.80000E+00    5.33876E+01
 3.82782E+00    5.31023E+01
 3.87778E+00    5.25898E+01
 3.93317E+00    5.20217E+01
 4.00000E+00    5.13363E+01
 4.05185E+00    5.01770E+01
 4.07403E+00    4.96810E+01
 4.10401E+00    4.90107E+01
 4.14497E+00    4.80948E+01
 4.20000E+00    4.68644E+01
 4.40000E+00    4.44630E+01
 4.60000E+00    4.20888E+01
 4.80000E+00    3.95282E+01
 5.00000E+00    3.69101E+01
 5.20000E+00    3.45554E+01
 5.40000E+00    3.19568E+01
 5.60000E+00    2.97067E+01
 5.80000E+00    2.74566E+01
 6.00000E+00    2.52575E+01
 6.20000E+00    2.31954E+01
 6.40000E+00    2.11275E+01
 6.60000E+00    1.92737E+01
 6.80000E+00    1.75273E+01
 7.00000E+00    1.59407E+01
 7.20000E+00    1.44500E+01
 7.40000E+00    1.30805E+01
 7.60000E+00    1.18098E+01
 7.80000E+00    1.06648E+01
 8.00000E+00    9.64965E+00
 8.50000E+00    7.46124E+00
 9.00000E+00    5.78527E+00
 9.50000E+00    4.45436E+00
 1.00000E+01    3.40458E+00
 1.05000E+01    2.59544E+00
 1.10000E+01    1.96447E+00
 1.15000E+01    1.47565E+00
 1.20000E+01    1.09907E+00
 1.25000E+01    8.12941E-01
 1.30000E+01    5.98843E-01
 1.35000E+01    4.39532E-01
 1.40000E+01    3.22431E-01
 1.45000E+01    2.35786E-01
 1.50000E+01    1.72265E-01
 1.60000E+01    9.27349E-02
 1.70000E+01    5.01901E-02
 1.80000E+01    2.74628E-02
 1.90000E+01    1.51925E-02
 2.00000E+01    8.43065E-03
 2.10000E+01    4.69252E-03
 2.20000E+01    2.63844E-03
 2.30000E+01    1.49049E-03
 2.40000E+01    8.46323E-04
 2.50000E+01    4.88436E-04
 2.60000E+01    2.80038E-04
 2.70000E+01    1.59699E-04
 2.80000E+01    9.14409E-05
 2.90000E+01    5.23936E-05
 3.00000E+01    2.84342E-05
