# n + Ti 46 : (n,xp)    
# jendl4.0   K.KOBAYASHI(KUR),H.HASHIKURA(TOK) EVAL-SEP88
# 
# # energies =   150
#   E(MeV)        xs(mb) 
 9.08820E-01    0.00000E+00
 9.09159E-01    0.00000E+00
 9.09836E-01    0.00000E+00
 9.10508E-01    0.00000E+00
 9.11175E-01    0.00000E+00
 9.12501E-01    0.00000E+00
 9.13807E-01    0.00000E+00
 9.15095E-01    0.00000E+00
 9.16364E-01    0.00000E+00
 9.18869E-01    0.00000E+00
 9.21302E-01    0.00000E+00
 9.23665E-01    0.00000E+00
 9.25960E-01    0.00000E+00
 9.28188E-01    0.00000E+00
 9.30352E-01    0.00000E+00
 9.34559E-01    0.00000E+00
 9.38521E-01    0.00000E+00
 9.42250E-01    0.00000E+00
 9.45760E-01    0.00000E+00
 9.49062E-01    0.00000E+00
 9.52168E-01    0.00000E+00
 9.58020E-01    0.00000E+00
 9.63169E-01    0.00000E+00
 9.67698E-01    0.00000E+00
 9.71678E-01    0.00000E+00
 9.78682E-01    0.00000E+00
 9.83969E-01    0.00000E+00
 9.91952E-01    0.00000E+00
 1.00000E+00    0.00000E+00
 1.01404E+00    0.00000E+00
 1.02739E+00    0.00000E+00
 1.04006E+00    0.00000E+00
 1.05208E+00    0.00000E+00
 1.06348E+00    0.00000E+00
 1.08518E+00    0.00000E+00
 1.10453E+00    0.00000E+00
 1.12174E+00    0.00000E+00
 1.13703E+00    0.00000E+00
 1.15057E+00    0.00000E+00
 1.17466E+00    0.00000E+00
 1.19306E+00    0.00000E+00
 1.22120E+00    0.00000E+00
 1.25000E+00    0.00000E+00
 1.27881E+00    0.00000E+00
 1.30457E+00    0.00000E+00
 1.32754E+00    0.00000E+00
 1.34796E+00    0.00000E+00
 1.38446E+00    0.00000E+00
 1.41248E+00    0.00000E+00
 1.43387E+00    0.00000E+00
 1.46656E+00    0.00000E+00
 1.50000E+00    0.00000E+00
 1.52918E+00    0.00000E+00
 1.55518E+00    0.00000E+00
 1.60175E+00    0.00000E+00
 1.63759E+00    8.13111E-08
 1.66500E+00    2.05977E-07
 1.70697E+00    3.96898E-07
 1.75000E+00    5.92632E-07
 1.80941E+00    8.62865E-07
 1.85528E+00    1.07154E-06
 1.89045E+00    1.23152E-06
 1.94445E+00    1.47718E-06
 2.00000E+00    1.72986E-06
 2.05390E+00    1.03654E-03
 2.05391E+00    1.03674E-03
 2.10127E+00    1.94598E-03
 2.17436E+00    3.34929E-03
 2.25000E+00    4.80143E-03
 2.31005E+00    5.95436E-03
 2.40315E+00    7.74173E-03
 2.50000E+00    9.60112E-03
 2.58289E+00    2.10154E-01
 2.66852E+00    4.17355E-01
 2.74779E+00    6.09152E-01
 2.87113E+00    9.07583E-01
 3.00000E+00    1.21941E+00
 3.02700E+00    1.65117E+00
 3.02702E+00    1.65149E+00
 3.07592E+00    2.43338E+00
 3.12560E+00    3.22790E+00
 3.12563E+00    3.22838E+00
 3.23774E+00    5.02115E+00
 3.28383E+00    5.75819E+00
 3.30680E+00    6.12550E+00
 3.30683E+00    6.12598E+00
 3.37141E+00    7.15869E+00
 3.43836E+00    8.22933E+00
 3.54129E+00    1.09455E+01
 3.64730E+00    1.53883E+01
 3.78423E+00    2.11271E+01
 3.92630E+00    2.70812E+01
 4.00000E+00    3.01700E+01
 4.47214E+00    5.63396E+01
 5.00000E+00    9.04700E+01
 5.23318E+00    1.05750E+02
 5.41517E+00    1.17676E+02
 5.70009E+00    1.36347E+02
 6.00000E+00    1.56000E+02
 6.23574E+00    1.64887E+02
 6.60683E+00    1.78877E+02
 7.00000E+00    1.93700E+02
 7.48331E+00    2.04526E+02
 8.00000E+00    2.16100E+02
 8.48528E+00    2.23185E+02
 9.00000E+00    2.30700E+02
 9.48683E+00    2.37613E+02
 1.00000E+01    2.44900E+02
 1.04881E+01    2.53100E+02
 1.10000E+01    2.61700E+02
 1.14891E+01    2.70566E+02
 1.20000E+01    2.79827E+02
 1.22425E+01    3.05998E+02
 1.24277E+01    3.25973E+02
 1.27106E+01    3.56504E+02
 1.30000E+01    3.87729E+02
 1.31210E+01    4.06938E+02
 1.33354E+01    4.40985E+02
 1.34986E+01    4.66885E+02
 1.36222E+01    4.86517E+02
 1.38098E+01    5.16303E+02
 1.40000E+01    5.46500E+02
 1.41213E+01    5.56720E+02
 1.43360E+01    5.74819E+02
 1.44992E+01    5.88573E+02
 1.46228E+01    5.99139E+02
 1.48102E+01    6.15158E+02
 1.50000E+01    6.31383E+02
 1.51215E+01    6.34687E+02
 1.53365E+01    6.40535E+02
 1.54997E+01    6.44975E+02
 1.56233E+01    6.48336E+02
 1.58105E+01    6.53427E+02
 1.60000E+01    6.58580E+02
 1.62443E+01    6.59810E+02
 1.64300E+01    6.60744E+02
 1.65707E+01    6.61452E+02
 1.67840E+01    6.62525E+02
 1.70000E+01    6.63612E+02
 1.72447E+01    6.65503E+02
 1.74305E+01    6.66938E+02
 1.77129E+01    6.69121E+02
 1.80000E+01    6.71338E+02
 1.82450E+01    6.73407E+02
 1.84309E+01    6.74977E+02
 1.87133E+01    6.77362E+02
 1.90000E+01    6.79783E+02
 1.92452E+01    6.80810E+02
 1.96190E+01    6.82375E+02
 2.00000E+01    6.83971E+02
