# n + Ti 46 : (n,xn)    
# jendl4.0   K.KOBAYASHI(KUR),H.HASHIKURA(TOK) EVAL-SEP88
# 
# # energies =   150
#   E(MeV)        xs(mb) 
 9.08820E-01    0.00000E+00
 9.09159E-01    1.62969E+00
 9.09836E-01    4.87633E+00
 9.10508E-01    8.09760E+00
 9.11175E-01    1.12937E+01
 9.12501E-01    1.76360E+01
 9.13807E-01    2.38792E+01
 9.15095E-01    3.00248E+01
 9.16364E-01    3.60744E+01
 9.18869E-01    4.79845E+01
 9.21302E-01    5.95225E+01
 9.23665E-01    7.06999E+01
 9.25960E-01    8.15280E+01
 9.28188E-01    9.20177E+01
 9.30352E-01    1.02180E+02
 9.34559E-01    1.21868E+02
 9.38521E-01    1.40327E+02
 9.42250E-01    1.57631E+02
 9.45760E-01    1.73854E+02
 9.49062E-01    1.89063E+02
 9.52168E-01    2.03322E+02
 9.58020E-01    2.30056E+02
 9.63169E-01    2.53449E+02
 9.67698E-01    2.73918E+02
 9.71678E-01    2.91828E+02
 9.78682E-01    3.23171E+02
 9.83969E-01    3.46678E+02
 9.91952E-01    3.81938E+02
 1.00000E+00    4.17199E+02
 1.01404E+00    4.28781E+02
 1.02739E+00    4.39640E+02
 1.04006E+00    4.49820E+02
 1.05208E+00    4.59364E+02
 1.06348E+00    4.68311E+02
 1.08518E+00    4.85087E+02
 1.10453E+00    4.99766E+02
 1.12174E+00    5.12610E+02
 1.13703E+00    5.23848E+02
 1.15057E+00    5.33682E+02
 1.17466E+00    5.50891E+02
 1.19306E+00    5.63798E+02
 1.22120E+00    5.83158E+02
 1.25000E+00    6.02518E+02
 1.27881E+00    6.18111E+02
 1.30457E+00    6.31754E+02
 1.32754E+00    6.43692E+02
 1.34796E+00    6.54138E+02
 1.38446E+00    6.72418E+02
 1.41248E+00    6.86128E+02
 1.43387E+00    6.96411E+02
 1.46656E+00    7.11835E+02
 1.50000E+00    7.27259E+02
 1.52918E+00    7.39426E+02
 1.55518E+00    7.50071E+02
 1.60175E+00    7.68702E+02
 1.63759E+00    7.82674E+02
 1.66500E+00    7.93154E+02
 1.70697E+00    8.08873E+02
 1.75000E+00    8.24592E+02
 1.80941E+00    8.42398E+02
 1.85528E+00    8.55753E+02
 1.89045E+00    8.65768E+02
 1.94445E+00    8.80792E+02
 2.00000E+00    8.95816E+02
 2.05390E+00    9.06423E+02
 2.05391E+00    9.06424E+02
 2.10127E+00    9.16505E+02
 2.17436E+00    9.31625E+02
 2.25000E+00    9.46746E+02
 2.31005E+00    9.56752E+02
 2.40315E+00    9.71760E+02
 2.50000E+00    9.86768E+02
 2.58289E+00    9.93994E+02
 2.66852E+00    1.00122E+03
 2.74779E+00    1.01363E+03
 2.87113E+00    1.03225E+03
 3.00000E+00    1.05087E+03
 3.02700E+00    1.05164E+03
 3.02702E+00    1.05164E+03
 3.07592E+00    1.07649E+03
 3.12560E+00    1.10135E+03
 3.12563E+00    1.10137E+03
 3.23774E+00    1.12220E+03
 3.28383E+00    1.14879E+03
 3.30680E+00    1.15913E+03
 3.30683E+00    1.15914E+03
 3.37141E+00    1.19374E+03
 3.43836E+00    1.20715E+03
 3.54129E+00    1.22727E+03
 3.64730E+00    1.24739E+03
 3.78423E+00    1.27352E+03
 3.92630E+00    1.29965E+03
 4.00000E+00    1.31534E+03
 4.47214E+00    1.31096E+03
 5.00000E+00    1.30659E+03
 5.23318E+00    1.29229E+03
 5.41517E+00    1.28156E+03
 5.70009E+00    1.26547E+03
 6.00000E+00    1.24938E+03
 6.23574E+00    1.24249E+03
 6.60683E+00    1.23215E+03
 7.00000E+00    1.22182E+03
 7.48331E+00    1.21693E+03
 8.00000E+00    1.21204E+03
 8.48528E+00    1.20171E+03
 9.00000E+00    1.19138E+03
 9.48683E+00    1.17860E+03
 1.00000E+01    1.16583E+03
 1.04881E+01    1.15348E+03
 1.10000E+01    1.14113E+03
 1.14891E+01    1.12949E+03
 1.20000E+01    1.11809E+03
 1.22425E+01    1.11249E+03
 1.24277E+01    1.10863E+03
 1.27106E+01    1.10340E+03
 1.30000E+01    1.09885E+03
 1.31210E+01    1.09561E+03
 1.33354E+01    1.09041E+03
 1.34986E+01    1.08736E+03
 1.36222E+01    1.09110E+03
 1.38098E+01    1.09718E+03
 1.40000E+01    1.10384E+03
 1.41213E+01    1.10684E+03
 1.43360E+01    1.11260E+03
 1.44992E+01    1.11736E+03
 1.46228E+01    1.12469E+03
 1.48102E+01    1.13617E+03
 1.50000E+01    1.14822E+03
 1.51215E+01    1.15394E+03
 1.53365E+01    1.16437E+03
 1.54997E+01    1.17255E+03
 1.56233E+01    1.17791E+03
 1.58105E+01    1.18626E+03
 1.60000E+01    1.19498E+03
 1.62443E+01    1.20550E+03
 1.64300E+01    1.21371E+03
 1.65707E+01    1.21981E+03
 1.67840E+01    1.22891E+03
 1.70000E+01    1.23834E+03
 1.72447E+01    1.25034E+03
 1.74305E+01    1.25958E+03
 1.77129E+01    1.27138E+03
 1.80000E+01    1.28281E+03
 1.82450E+01    1.29443E+03
 1.84309E+01    1.30333E+03
 1.87133E+01    1.31415E+03
 1.90000E+01    1.32437E+03
 1.92452E+01    1.33324E+03
 1.96190E+01    1.34609E+03
 2.00000E+01    1.35760E+03
