# n + Ti 46 : (n,el)    
# jendl4.0   K.KOBAYASHI(KUR),H.HASHIKURA(TOK) EVAL-SEP88
# uncertainties: n
# # energies =   171
#   E(MeV)       xs(mb) 
 1.00000E-11    6.12215E+03
 1.00000E-07    2.70702E+03
 4.13990E-07    2.70443E+03
 5.31580E-07    2.70417E+03
 6.82560E-07    2.70390E+03
 8.76420E-07    2.70356E+03
 1.12540E-06    2.70316E+03
 1.44500E-06    2.70301E+03
 1.85540E-06    2.70288E+03
 2.37240E-06    2.70272E+03
 3.05900E-06    2.70251E+03
 3.92790E-06    2.70224E+03
 5.04350E-06    2.70189E+03
 6.47600E-06    2.70145E+03
 8.31530E-06    2.70088E+03
 1.06770E-05    2.70015E+03
 1.37100E-05    2.69921E+03
 1.76030E-05    2.69800E+03
 2.26030E-05    2.69643E+03
 2.92030E-05    2.69444E+03
 3.72670E-05    2.69191E+03
 4.78510E-05    2.68863E+03
 6.14420E-05    2.68442E+03
 7.88930E-05    2.67901E+03
 1.01300E-04    2.67207E+03
 1.30070E-04    2.66316E+03
 1.67020E-04    2.65171E+03
 2.14450E-04    2.63702E+03
 2.75360E-04    2.61814E+03
 3.53580E-04    2.59391E+03
 4.54000E-04    2.56280E+03
 5.82950E-04    2.52303E+03
 7.48520E-04    2.47550E+03
 9.61120E-04    2.41591E+03
 1.23410E-03    2.33969E+03
 1.58460E-03    2.24824E+03
 2.03470E-03    2.17202E+03
 2.24870E-03    2.12250E+03
 2.48520E-03    2.08460E+03
 2.61260E-03    2.05779E+03
 2.74650E-03    2.01479E+03
 3.03540E-03    1.95259E+03
 3.35460E-03    1.88700E+03
 3.70740E-03    1.79721E+03
 4.30740E-03    1.63362E+03
 5.53080E-03    1.37879E+03
 7.10170E-03    9.99903E+02
 9.11880E-03    1.25784E+04
 1.17090E-02    4.22845E+03
 1.50340E-02    1.07626E+03
 1.93050E-02    1.58277E+03
 2.18750E-02    6.17429E+02
 2.35790E-02    5.45956E+02
 2.41760E-02    5.08069E+02
 2.47880E-02    4.54748E+02
 2.60580E-02    3.93928E+02
 2.70000E-02    3.30270E+02
 2.85000E-02    2.14617E+02
 3.18280E-02    1.82431E+02
 3.43070E-02    4.45085E+03
 4.08680E-02    6.15161E+03
 4.63090E-02    2.19970E+04
 5.24750E-02    1.16348E+03
 5.65620E-02    1.66525E+04
 6.73790E-02    8.60566E+03
 7.20000E-02    4.82874E+03
 7.95000E-02    6.08495E+03
 8.25000E-02    1.15361E+03
 8.65170E-02    3.03243E+03
 9.80370E-02    1.61206E+04
 1.11090E-01    5.74808E+03
 1.16790E-01    4.82453E+03
 1.22770E-01    2.69754E+03
 1.29070E-01    3.87828E+03
 1.35690E-01    1.12896E+03
 1.42640E-01    1.95135E+03
 1.49960E-01    2.20946E+03
 1.57640E-01    1.90586E+03
 1.65730E-01    3.39075E+03
 1.74220E-01    1.32942E+04
 1.83160E-01    2.72509E+04
 1.92550E-01    1.02988E+04
 2.02420E-01    7.48260E+03
 2.12800E-01    5.75712E+03
 2.23710E-01    5.94911E+03
 2.35180E-01    5.18667E+03
 2.47240E-01    3.63226E+03
 2.73240E-01    3.11281E+03
 2.87250E-01    3.14916E+03
 2.94520E-01    2.44001E+03
 2.97200E-01    1.82402E+03
 2.98500E-01    3.15157E+03
 3.01970E-01    4.12924E+03
 3.33730E-01    4.31630E+03
 3.68830E-01    2.80509E+03
 3.87740E-01    2.76292E+03
 4.07620E-01    2.71664E+03
 4.50490E-01    2.65567E+03
 4.97870E-01    2.61587E+03
 5.23400E-01    2.59887E+03
 5.50230E-01    2.58135E+03
 5.78440E-01    2.56304E+03
 6.08100E-01    2.55185E+03
 6.39280E-01    2.54520E+03
 6.72060E-01    2.53841E+03
 7.06510E-01    2.53930E+03
 7.42740E-01    2.54439E+03
 7.80820E-01    2.55000E+03
 8.20850E-01    2.56221E+03
 8.62940E-01    2.57782E+03
 9.07180E-01    2.49627E+03
 9.61640E-01    2.32759E+03
 1.00260E+00    2.28678E+03
 1.10800E+00    2.31866E+03
 1.16480E+00    2.34140E+03
 1.22460E+00    2.36536E+03
 1.28730E+00    2.39417E+03
 1.35340E+00    2.42643E+03
 1.42270E+00    2.46033E+03
 1.49570E+00    2.50072E+03
 1.57240E+00    2.55300E+03
 1.65300E+00    2.60822E+03
 1.73770E+00    2.66630E+03
 1.82680E+00    2.72766E+03
 1.92050E+00    2.79231E+03
 2.01900E+00    2.85209E+03
 2.12250E+00    2.89979E+03
 2.23130E+00    2.93924E+03
 2.30690E+00    2.96372E+03
 2.34570E+00    2.97620E+03
 2.36530E+00    2.98463E+03
 2.38520E+00    3.00603E+03
 2.46600E+00    3.04738E+03
 2.59240E+00    3.08688E+03
 2.72530E+00    3.11148E+03
 2.86500E+00    3.13146E+03
 3.01190E+00    3.10838E+03
 3.16640E+00    3.05020E+03
 3.32870E+00    2.93841E+03
 3.67880E+00    2.80639E+03
 4.06570E+00    2.67018E+03
 4.49330E+00    2.56695E+03
 4.72370E+00    2.48891E+03
 4.96590E+00    2.41333E+03
 5.22050E+00    2.33781E+03
 5.48810E+00    2.26066E+03
 5.76950E+00    2.18224E+03
 6.06530E+00    2.10043E+03
 6.37630E+00    2.03120E+03
 6.59240E+00    1.98962E+03
 6.70320E+00    1.93228E+03
 7.04690E+00    1.84669E+03
 7.40820E+00    1.76073E+03
 7.78800E+00    1.67337E+03
 8.18730E+00    1.59350E+03
 8.60710E+00    1.51481E+03
 9.04840E+00    1.43829E+03
 9.51230E+00    1.36698E+03
 1.00000E+01    1.29874E+03
 1.05130E+01    1.23266E+03
 1.10520E+01    1.17232E+03
 1.16180E+01    1.11639E+03
 1.22140E+01    1.06359E+03
 1.28400E+01    1.01000E+03
 1.34990E+01    9.73909E+02
 1.38400E+01    9.54246E+02
 1.41910E+01    9.37332E+02
 1.45500E+01    9.21877E+02
 1.49180E+01    9.01330E+02
 1.56830E+01    8.80523E+02
 1.64870E+01    8.61810E+02
