# n + Ti 46 : (n,tot)   
# jendl4.0   K.KOBAYASHI(KUR),H.HASHIKURA(TOK) EVAL-SEP88
# uncertainties: n
# # energies =   171
#   E(MeV)       xs(mb) 
 1.00000E-11    1.24983E+04
 1.00000E-07    2.91933E+03
 4.13990E-07    2.84155E+03
 5.31580E-07    2.82508E+03
 6.82560E-07    2.81051E+03
 8.76420E-07    2.79780E+03
 1.12540E-06    2.78675E+03
 1.44500E-06    2.77784E+03
 1.85540E-06    2.76819E+03
 2.37240E-06    2.76185E+03
 3.05900E-06    2.75488E+03
 3.92790E-06    2.74701E+03
 5.04350E-06    2.74273E+03
 6.47600E-06    2.73814E+03
 8.31530E-06    2.73224E+03
 1.06770E-05    2.72731E+03
 1.37100E-05    2.72449E+03
 1.76030E-05    2.72088E+03
 2.26030E-05    2.71617E+03
 2.92030E-05    2.71039E+03
 3.72670E-05    2.70628E+03
 4.78510E-05    2.70213E+03
 6.14420E-05    2.69679E+03
 7.88930E-05    2.68995E+03
 1.01300E-04    2.68116E+03
 1.30070E-04    2.66987E+03
 1.67020E-04    2.65658E+03
 2.14450E-04    2.64179E+03
 2.75360E-04    2.62283E+03
 3.53580E-04    2.59850E+03
 4.54000E-04    2.56725E+03
 5.82950E-04    2.52713E+03
 7.48520E-04    2.47794E+03
 9.61120E-04    2.41847E+03
 1.23410E-03    2.34219E+03
 1.58460E-03    2.24988E+03
 2.03470E-03    2.17396E+03
 2.24870E-03    2.12409E+03
 2.48520E-03    2.08586E+03
 2.61260E-03    2.05911E+03
 2.74650E-03    2.01620E+03
 3.03540E-03    1.95403E+03
 3.35460E-03    1.88843E+03
 3.70740E-03    1.80846E+03
 4.30740E-03    1.63420E+03
 5.53080E-03    1.37973E+03
 7.10170E-03    1.00189E+03
 9.11880E-03    1.26439E+04
 1.17090E-02    4.30949E+03
 1.50340E-02    1.07883E+03
 1.93050E-02    1.67435E+03
 2.18750E-02    6.17877E+02
 2.35790E-02    5.63749E+02
 2.41760E-02    5.08424E+02
 2.47880E-02    4.55079E+02
 2.60580E-02    3.94259E+02
 2.70000E-02    3.30619E+02
 2.85000E-02    2.20171E+02
 3.18280E-02    2.07481E+02
 3.43070E-02    4.47445E+03
 4.08680E-02    6.18500E+03
 4.63090E-02    2.20257E+04
 5.24750E-02    1.17444E+03
 5.65620E-02    1.66697E+04
 6.73790E-02    8.63517E+03
 7.20000E-02    4.84211E+03
 7.95000E-02    6.12176E+03
 8.25000E-02    1.16521E+03
 8.65170E-02    3.06175E+03
 9.80370E-02    1.61495E+04
 1.11090E-01    5.76522E+03
 1.16790E-01    4.83917E+03
 1.22770E-01    2.71145E+03
 1.29070E-01    3.88897E+03
 1.35690E-01    1.12938E+03
 1.42640E-01    1.96365E+03
 1.49960E-01    2.23271E+03
 1.57640E-01    1.91576E+03
 1.65730E-01    3.39856E+03
 1.74220E-01    1.33060E+04
 1.83160E-01    2.72538E+04
 1.92550E-01    1.02992E+04
 2.02420E-01    7.48548E+03
 2.12800E-01    5.76112E+03
 2.23710E-01    5.95346E+03
 2.35180E-01    5.19052E+03
 2.47240E-01    3.63488E+03
 2.73240E-01    3.11516E+03
 2.87250E-01    3.15193E+03
 2.94520E-01    2.44035E+03
 2.97200E-01    1.82466E+03
 2.98500E-01    3.15601E+03
 3.01970E-01    4.13095E+03
 3.33730E-01    4.31924E+03
 3.68830E-01    2.81422E+03
 3.87740E-01    2.77192E+03
 4.07620E-01    2.72549E+03
 4.50490E-01    2.66434E+03
 4.97870E-01    2.62442E+03
 5.23400E-01    2.60737E+03
 5.50230E-01    2.58980E+03
 5.78440E-01    2.57144E+03
 6.08100E-01    2.56025E+03
 6.39280E-01    2.55363E+03
 6.72060E-01    2.54687E+03
 7.06510E-01    2.54779E+03
 7.42740E-01    2.55292E+03
 7.80820E-01    2.55857E+03
 8.20850E-01    2.57135E+03
 8.62940E-01    2.58778E+03
 9.07180E-01    2.62147E+03
 9.61640E-01    2.67071E+03
 1.00260E+00    2.74954E+03
 1.10800E+00    2.84198E+03
 1.16480E+00    2.90761E+03
 1.22460E+00    2.97059E+03
 1.28730E+00    3.03458E+03
 1.35340E+00    3.10186E+03
 1.42270E+00    3.17133E+03
 1.49570E+00    3.24467E+03
 1.57240E+00    3.32585E+03
 1.65300E+00    3.41148E+03
 1.73770E+00    3.50139E+03
 1.82680E+00    3.59112E+03
 1.92050E+00    3.68298E+03
 2.01900E+00    3.76473E+03
 2.12250E+00    3.83390E+03
 2.23130E+00    3.88983E+03
 2.30690E+00    3.92453E+03
 2.34570E+00    3.94222E+03
 2.36530E+00    3.95417E+03
 2.38520E+00    3.98450E+03
 2.46600E+00    4.03981E+03
 2.59240E+00    4.09116E+03
 2.72530E+00    4.13465E+03
 2.86500E+00    4.17467E+03
 3.01190E+00    4.19370E+03
 3.16640E+00    4.18804E+03
 3.32870E+00    4.16823E+03
 3.67880E+00    4.11929E+03
 4.06570E+00    4.02943E+03
 4.49330E+00    3.94121E+03
 4.72370E+00    3.87835E+03
 4.96590E+00    3.81235E+03
 5.22050E+00    3.74372E+03
 5.48810E+00    3.67176E+03
 5.76950E+00    3.59610E+03
 6.06530E+00    3.52008E+03
 6.37630E+00    3.45961E+03
 6.59240E+00    3.42222E+03
 6.70320E+00    3.37066E+03
 7.04690E+00    3.29407E+03
 7.40820E+00    3.22025E+03
 7.78800E+00    3.14275E+03
 8.18730E+00    3.06682E+03
 8.60710E+00    2.99271E+03
 9.04840E+00    2.91590E+03
 9.51230E+00    2.84426E+03
 1.00000E+01    2.77437E+03
 1.05130E+01    2.70807E+03
 1.10520E+01    2.64520E+03
 1.16180E+01    2.58456E+03
 1.22140E+01    2.52611E+03
 1.28400E+01    2.46368E+03
 1.34990E+01    2.41822E+03
 1.38400E+01    2.39691E+03
 1.41910E+01    2.36696E+03
 1.45500E+01    2.34145E+03
 1.49180E+01    2.30503E+03
 1.56830E+01    2.25662E+03
 1.64870E+01    2.21198E+03
