# n + Zr 90 : (n,el)    
# jendl4.0   JNDC FP NUCLEAR DATA W.G.         EVAL-AUG89
# uncertainties: n
# # energies =   171
#   E(MeV)       xs(mb) 
 1.00000E-11    9.51636E+03
 1.00000E-07    5.25140E+03
 4.13990E-07    5.24908E+03
 5.31580E-07    5.24842E+03
 6.82560E-07    5.24820E+03
 8.76420E-07    5.24817E+03
 1.12540E-06    5.24814E+03
 1.44500E-06    5.24810E+03
 1.85540E-06    5.24805E+03
 2.37240E-06    5.24798E+03
 3.05900E-06    5.24790E+03
 3.92790E-06    5.24779E+03
 5.04350E-06    5.24765E+03
 6.47600E-06    5.24747E+03
 8.31530E-06    5.24723E+03
 1.06770E-05    5.24694E+03
 1.37100E-05    5.24656E+03
 1.76030E-05    5.24607E+03
 2.26030E-05    5.24543E+03
 2.92030E-05    5.24462E+03
 3.72670E-05    5.24359E+03
 4.78510E-05    5.24226E+03
 6.14420E-05    5.24055E+03
 7.88930E-05    5.23836E+03
 1.01300E-04    5.23554E+03
 1.30070E-04    5.23192E+03
 1.67020E-04    5.22727E+03
 2.14450E-04    5.22130E+03
 2.75360E-04    5.21364E+03
 3.53580E-04    5.20380E+03
 4.54000E-04    5.19117E+03
 5.82950E-04    5.17495E+03
 7.48520E-04    5.15412E+03
 9.61120E-04    5.12481E+03
 1.23410E-03    5.07598E+03
 1.58460E-03    5.00473E+03
 2.03470E-03    4.92638E+03
 2.24870E-03    4.85687E+03
 2.48520E-03    4.78899E+03
 2.61260E-03    4.72894E+03
 2.74650E-03    4.60036E+03
 3.03540E-03    4.29202E+03
 3.35460E-03    3.30158E+03
 3.70740E-03    2.56387E+04
 4.30740E-03    5.83250E+03
 5.53080E-03    5.23362E+03
 7.10170E-03    8.00508E+03
 9.11880E-03    4.16044E+03
 1.17090E-02    1.25476E+04
 1.50340E-02    1.76591E+04
 1.93050E-02    9.86397E+03
 2.18750E-02    7.37614E+03
 2.35790E-02    7.01765E+03
 2.41760E-02    6.87472E+03
 2.47880E-02    6.69446E+03
 2.60580E-02    8.77681E+03
 2.70000E-02    6.31599E+03
 2.85000E-02    6.06204E+03
 3.18280E-02    5.42273E+03
 3.43070E-02    6.69642E+03
 4.08680E-02    2.52508E+04
 4.63090E-02    7.44465E+03
 5.24750E-02    8.31650E+03
 5.65620E-02    8.23289E+03
 6.73790E-02    7.01252E+03
 7.20000E-02    1.11073E+04
 7.95000E-02    9.74480E+03
 8.25000E-02    6.93434E+03
 8.65170E-02    6.69192E+03
 9.80370E-02    8.08335E+03
 1.11090E-01    7.95016E+03
 1.16790E-01    6.92529E+03
 1.22770E-01    7.64707E+03
 1.29070E-01    9.41761E+03
 1.35690E-01    5.37311E+03
 1.42640E-01    6.54087E+03
 1.49960E-01    1.41061E+04
 1.57640E-01    9.62321E+03
 1.65730E-01    1.04867E+04
 1.74220E-01    9.38264E+03
 1.83160E-01    9.36987E+03
 1.92550E-01    9.35611E+03
 2.02420E-01    9.33361E+03
 2.12800E-01    9.30651E+03
 2.23710E-01    9.27802E+03
 2.35180E-01    9.24807E+03
 2.47240E-01    9.20001E+03
 2.73240E-01    9.14863E+03
 2.87250E-01    9.12140E+03
 2.94520E-01    9.10869E+03
 2.97200E-01    9.10361E+03
 2.98500E-01    9.09754E+03
 3.01970E-01    9.05333E+03
 3.33730E-01    8.96822E+03
 3.68830E-01    8.89886E+03
 3.87740E-01    8.84852E+03
 4.07620E-01    8.75241E+03
 4.50490E-01    8.60974E+03
 4.97870E-01    8.48316E+03
 5.23400E-01    8.36590E+03
 5.50230E-01    8.24174E+03
 5.78440E-01    8.11118E+03
 6.08100E-01    7.97393E+03
 6.39280E-01    7.82964E+03
 6.72060E-01    7.67797E+03
 7.06510E-01    7.51852E+03
 7.42740E-01    7.35088E+03
 7.80820E-01    7.17664E+03
 8.20850E-01    7.01449E+03
 8.62940E-01    6.84973E+03
 9.07180E-01    6.66162E+03
 9.61640E-01    6.47901E+03
 1.00260E+00    6.24127E+03
 1.10800E+00    5.99601E+03
 1.16480E+00    5.82118E+03
 1.22460E+00    5.64727E+03
 1.28730E+00    5.50708E+03
 1.35340E+00    5.36463E+03
 1.42270E+00    5.21493E+03
 1.49570E+00    5.07764E+03
 1.57240E+00    4.96733E+03
 1.65300E+00    4.85194E+03
 1.73770E+00    4.73696E+03
 1.82680E+00    4.58228E+03
 1.92050E+00    4.41155E+03
 2.01900E+00    4.29209E+03
 2.12250E+00    4.19174E+03
 2.23130E+00    3.95791E+03
 2.30690E+00    3.79713E+03
 2.34570E+00    3.72500E+03
 2.36530E+00    3.69110E+03
 2.38520E+00    3.60532E+03
 2.46600E+00    3.45518E+03
 2.59240E+00    3.33935E+03
 2.72530E+00    3.21194E+03
 2.86500E+00    3.04841E+03
 3.01190E+00    2.92250E+03
 3.16640E+00    2.81055E+03
 3.32870E+00    2.59366E+03
 3.67880E+00    2.29250E+03
 4.06570E+00    2.16516E+03
 4.49330E+00    2.15546E+03
 4.72370E+00    2.16460E+03
 4.96590E+00    2.18129E+03
 5.22050E+00    2.21346E+03
 5.48810E+00    2.24816E+03
 5.76950E+00    2.28729E+03
 6.06530E+00    2.32213E+03
 6.37630E+00    2.34822E+03
 6.59240E+00    2.36410E+03
 6.70320E+00    2.38160E+03
 7.04690E+00    2.40458E+03
 7.40820E+00    2.42116E+03
 7.78800E+00    2.43215E+03
 8.18730E+00    2.44251E+03
 8.60710E+00    2.44866E+03
 9.04840E+00    2.44387E+03
 9.51230E+00    2.43327E+03
 1.00000E+01    2.42072E+03
 1.05130E+01    2.41020E+03
 1.10520E+01    2.39015E+03
 1.16180E+01    2.35844E+03
 1.22140E+01    2.31998E+03
 1.28400E+01    2.25617E+03
 1.34990E+01    2.21193E+03
 1.38400E+01    2.17970E+03
 1.41910E+01    2.13660E+03
 1.45500E+01    2.10027E+03
 1.49180E+01    2.03899E+03
 1.56830E+01    1.93516E+03
 1.64870E+01    1.81860E+03
