# n + Kr 78 : (n,non)   
# jendl4.0   K.Shibata, A.Ichihara, S.Kunieda  EVAL-AUG09
# uncertainties: n
# # energies =    79
#   E(MeV)       xs(mb) 
 8.00000E-04    0.00000E+00
 8.00000E-04    3.33000E+03
 9.00000E-04    3.04100E+03
 1.00000E-03    2.80800E+03
 2.00000E-03    1.73500E+03
 3.00000E-03    1.36700E+03
 4.00000E-03    1.17600E+03
 5.00000E-03    1.05500E+03
 6.00000E-03    9.69000E+02
 7.00000E-03    9.02800E+02
 8.00000E-03    8.49100E+02
 9.00000E-03    8.04100E+02
 1.00000E-02    7.65400E+02
 2.00000E-02    5.40200E+02
 3.00000E-02    4.28900E+02
 4.00000E-02    3.61200E+02
 5.00000E-02    3.15800E+02
 6.00000E-02    2.83500E+02
 7.00000E-02    2.59600E+02
 8.00000E-02    2.41400E+02
 9.00000E-02    2.27100E+02
 1.00000E-01    2.16400E+02
 2.00000E-01    1.70700E+02
 3.00000E-01    1.61100E+02
 4.00000E-01    1.60800E+02
 4.60930E-01    1.30274E+02
 5.00000E-01    4.21300E+02
 6.00000E-01    8.33890E+02
 7.00000E-01    1.05198E+03
 8.00000E-01    1.17252E+03
 9.00000E-01    1.24290E+03
 1.00000E+00    1.28756E+03
 1.03035E+00    1.26913E+03
 1.13396E+00    1.25977E+03
 1.16278E+00    1.26594E+03
 1.50000E+00    1.75742E+03
 1.58502E+00    1.69889E+03
 1.67531E+00    1.67460E+03
 1.77859E+00    1.66621E+03
 1.79588E+00    1.67768E+03
 1.89714E+00    1.82142E+03
 2.00000E+00    1.98569E+03
 2.00342E+00    1.98459E+03
 2.03341E+00    1.97505E+03
 2.04353E+00    1.97523E+03
 2.50000E+00    2.28856E+03
 3.00000E+00    2.28813E+03
 3.50000E+00    2.26582E+03
 4.00000E+00    2.22617E+03
 4.44876E+00    2.18815E+03
 4.50000E+00    2.18381E+03
 5.00000E+00    2.14421E+03
 5.50000E+00    2.11110E+03
 5.86249E+00    2.09153E+03
 6.00000E+00    2.08411E+03
 6.08701E+00    2.08017E+03
 6.50000E+00    2.06150E+03
 7.00000E+00    2.04189E+03
 7.50000E+00    2.02393E+03
 8.00000E+00    2.00706E+03
 8.34037E+00    1.99591E+03
 8.50000E+00    1.99068E+03
 9.00000E+00    1.97492E+03
 9.50000E+00    1.95990E+03
 1.00000E+01    1.94571E+03
 1.09085E+01    1.92267E+03
 1.10000E+01    1.92035E+03
 1.20000E+01    1.89887E+03
 1.22380E+01    1.87632E+03
 1.30000E+01    1.87957E+03
 1.40000E+01    1.86127E+03
 1.45000E+01    1.85202E+03
 1.50000E+01    1.84266E+03
 1.60000E+01    1.82367E+03
 1.70000E+01    1.80442E+03
 1.72467E+01    1.79973E+03
 1.80000E+01    1.78543E+03
 1.90000E+01    1.76671E+03
 2.00000E+01    1.74857E+03
