# n + Kr 78 : (n,el)    
# jendl4.0   K.Shibata, A.Ichihara, S.Kunieda  EVAL-AUG09
# uncertainties: n
# # energies =   171
#   E(MeV)       xs(mb) 
 1.00000E-11    1.48434E+04
 1.00000E-07    7.83043E+03
 4.13990E-07    7.81889E+03
 5.31580E-07    7.81469E+03
 6.82560E-07    7.80931E+03
 8.76420E-07    7.80240E+03
 1.12540E-06    7.79353E+03
 1.44500E-06    7.78332E+03
 1.85540E-06    7.77110E+03
 2.37240E-06    7.75528E+03
 3.05900E-06    7.73480E+03
 3.92790E-06    7.70868E+03
 5.04350E-06    7.67514E+03
 6.47600E-06    7.63208E+03
 8.31530E-06    7.57679E+03
 1.06770E-05    7.50579E+03
 1.37100E-05    7.42119E+03
 1.76030E-05    7.32257E+03
 2.26030E-05    7.19414E+03
 2.92030E-05    7.03863E+03
 3.72670E-05    6.85439E+03
 4.78510E-05    6.61550E+03
 6.14420E-05    6.28479E+03
 7.88930E-05    5.44890E+03
 1.01300E-04    1.91673E+04
 1.30070E-04    6.70485E+03
 1.67020E-04    6.16329E+03
 2.14450E-04    5.78303E+03
 2.75360E-04    5.35239E+03
 3.53580E-04    1.33704E+04
 4.54000E-04    5.60396E+03
 5.82950E-04    5.92335E+04
 7.48520E-04    2.26738E+04
 9.61120E-04    2.60441E+04
 1.23410E-03    2.41286E+04
 1.58460E-03    2.16926E+04
 2.03470E-03    2.00744E+04
 2.24870E-03    1.94460E+04
 2.48520E-03    1.89340E+04
 2.61260E-03    1.85693E+04
 2.74650E-03    1.79865E+04
 3.03540E-03    1.73501E+04
 3.35460E-03    1.67864E+04
 3.70740E-03    1.60339E+04
 4.30740E-03    1.50004E+04
 5.53080E-03    1.38435E+04
 7.10170E-03    1.28420E+04
 9.11880E-03    1.20373E+04
 1.17090E-02    1.14753E+04
 1.50340E-02    1.07896E+04
 1.93050E-02    1.02305E+04
 2.18750E-02    1.00659E+04
 2.35790E-02    9.98315E+03
 2.41760E-02    9.94001E+03
 2.47880E-02    9.87314E+03
 2.60580E-02    9.79402E+03
 2.70000E-02    9.70717E+03
 2.85000E-02    9.55240E+03
 3.18280E-02    9.42790E+03
 3.43070E-02    9.25671E+03
 4.08680E-02    9.07312E+03
 4.63090E-02    8.93606E+03
 5.24750E-02    8.84085E+03
 5.65620E-02    8.72879E+03
 6.73790E-02    8.63069E+03
 7.20000E-02    8.57091E+03
 7.95000E-02    8.52198E+03
 8.25000E-02    8.49469E+03
 8.65170E-02    8.43823E+03
 9.80370E-02    8.36659E+03
 1.11090E-01    8.32474E+03
 1.16790E-01    8.29921E+03
 1.22770E-01    8.27237E+03
 1.29070E-01    8.24412E+03
 1.35690E-01    8.21446E+03
 1.42640E-01    8.18326E+03
 1.49960E-01    8.15047E+03
 1.57640E-01    8.11600E+03
 1.65730E-01    8.07975E+03
 1.74220E-01    8.04165E+03
 1.83160E-01    8.00158E+03
 1.92550E-01    7.95965E+03
 2.02420E-01    7.91974E+03
 2.12800E-01    7.87958E+03
 2.23710E-01    7.83735E+03
 2.35180E-01    7.79296E+03
 2.47240E-01    7.72177E+03
 2.73240E-01    7.64568E+03
 2.87250E-01    7.60536E+03
 2.94520E-01    7.58653E+03
 2.97200E-01    7.57902E+03
 2.98500E-01    7.57005E+03
 3.01970E-01    7.50536E+03
 3.33730E-01    7.38087E+03
 3.68830E-01    7.27943E+03
 3.87740E-01    7.20813E+03
 4.07620E-01    7.11070E+03
 4.50490E-01    6.86149E+03
 4.97870E-01    6.50261E+03
 5.23400E-01    6.30244E+03
 5.50230E-01    6.09234E+03
 5.78440E-01    5.87390E+03
 6.08100E-01    5.69257E+03
 6.39280E-01    5.52085E+03
 6.72060E-01    5.34116E+03
 7.06510E-01    5.18399E+03
 7.42740E-01    5.03520E+03
 7.80820E-01    4.88335E+03
 8.20850E-01    4.74990E+03
 8.62940E-01    4.61412E+03
 9.07180E-01    4.47744E+03
 9.61640E-01    4.35337E+03
 1.00260E+00    4.24279E+03
 1.10800E+00    4.12766E+03
 1.16480E+00    3.99177E+03
 1.22460E+00    3.81116E+03
 1.28730E+00    3.62127E+03
 1.35340E+00    3.42164E+03
 1.42270E+00    3.21184E+03
 1.49570E+00    3.08644E+03
 1.57240E+00    3.06306E+03
 1.65300E+00    3.01355E+03
 1.73770E+00    2.93670E+03
 1.82680E+00    2.75198E+03
 1.92050E+00    2.52946E+03
 2.01900E+00    2.40681E+03
 2.12250E+00    2.28513E+03
 2.23130E+00    2.17694E+03
 2.30690E+00    2.10981E+03
 2.34570E+00    2.07559E+03
 2.36530E+00    2.05247E+03
 2.38520E+00    1.99379E+03
 2.46600E+00    1.90207E+03
 2.59240E+00    1.85973E+03
 2.72530E+00    1.81951E+03
 2.86500E+00    1.77729E+03
 3.01190E+00    1.74653E+03
 3.16640E+00    1.72446E+03
 3.32870E+00    1.69386E+03
 3.67880E+00    1.67815E+03
 4.06570E+00    1.68064E+03
 4.49330E+00    1.69150E+03
 4.72370E+00    1.70525E+03
 4.96590E+00    1.71982E+03
 5.22050E+00    1.73588E+03
 5.48810E+00    1.75345E+03
 5.76950E+00    1.77193E+03
 6.06530E+00    1.79136E+03
 6.37630E+00    1.80828E+03
 6.59240E+00    1.81782E+03
 6.70320E+00    1.82843E+03
 7.04690E+00    1.84448E+03
 7.40820E+00    1.85738E+03
 7.78800E+00    1.86690E+03
 8.18730E+00    1.87358E+03
 8.60710E+00    1.87330E+03
 9.04840E+00    1.86882E+03
 9.51230E+00    1.85865E+03
 1.00000E+01    1.84170E+03
 1.05130E+01    1.81976E+03
 1.10520E+01    1.79152E+03
 1.16180E+01    1.76064E+03
 1.22140E+01    1.72984E+03
 1.28400E+01    1.67601E+03
 1.34990E+01    1.64015E+03
 1.38400E+01    1.61564E+03
 1.41910E+01    1.59029E+03
 1.45500E+01    1.56435E+03
 1.49180E+01    1.52483E+03
 1.56830E+01    1.47117E+03
 1.64870E+01    1.41716E+03
