# n + Kr 78 : (n,n'09)  
# jendl4.0   K.Shibata, A.Ichihara, S.Kunieda  EVAL-AUG09
# uncertainties: n
# # energies =    29
#   E(MeV)       xs(mb) 
 1.89714E+00    0.00000E+00
 2.00000E+00    1.82700E+01
 2.50000E+00    7.16700E+01
 3.00000E+00    7.64000E+01
 3.50000E+00    6.50400E+01
 4.00000E+00    4.90300E+01
 4.50000E+00    3.13500E+01
 5.00000E+00    1.85500E+01
 5.50000E+00    1.10400E+01
 6.00000E+00    6.42900E+00
 6.50000E+00    3.77200E+00
 7.00000E+00    2.18600E+00
 7.50000E+00    1.27900E+00
 8.00000E+00    7.42400E-01
 8.50000E+00    4.32700E-01
 9.00000E+00    2.50400E-01
 9.50000E+00    1.44800E-01
 1.00000E+01    8.33700E-02
 1.10000E+01    2.74700E-02
 1.20000E+01    9.29600E-03
 1.30000E+01    3.30500E-03
 1.40000E+01    1.22100E-03
 1.45000E+01    7.51900E-04
 1.50000E+01    4.68300E-04
 1.60000E+01    1.85400E-04
 1.70000E+01    7.54300E-05
 1.80000E+01    3.14900E-05
 1.90000E+01    1.34700E-05
 2.00000E+01    5.88400E-06
