# n + Kr 78 : (n,xn)    
# jendl4.0   K.Shibata, A.Ichihara, S.Kunieda  EVAL-AUG09
# 
# # energies =    47
#   E(MeV)        xs(mb) 
 4.60930E-01    0.00000E+00
 5.00000E-01    3.10600E+02
 6.00000E-01    7.46500E+02
 7.00000E-01    9.73100E+02
 8.00000E-01    1.09700E+03
 9.00000E-01    1.16800E+03
 1.00000E+00    1.21100E+03
 1.03035E+00    1.19376E+03
 1.13396E+00    1.18848E+03
 1.16278E+00    1.19578E+03
 1.50000E+00    1.70050E+03
 1.58502E+00    1.64351E+03
 1.67531E+00    1.62085E+03
 1.77859E+00    1.61433E+03
 1.79588E+00    1.62611E+03
 1.89714E+00    1.77169E+03
 2.00000E+00    1.93782E+03
 2.00342E+00    1.93674E+03
 2.03341E+00    1.92743E+03
 2.04353E+00    1.92769E+03
 2.50000E+00    2.24453E+03
 3.00000E+00    2.23239E+03
 3.50000E+00    2.18941E+03
 4.00000E+00    2.12170E+03
 4.50000E+00    2.05300E+03
 5.00000E+00    1.99648E+03
 5.50000E+00    1.94476E+03
 6.00000E+00    1.90753E+03
 6.50000E+00    1.87160E+03
 7.00000E+00    1.84564E+03
 7.50000E+00    1.81920E+03
 8.00000E+00    1.79658E+03
 8.50000E+00    1.77686E+03
 9.00000E+00    1.75620E+03
 9.50000E+00    1.73513E+03
 1.00000E+01    1.71603E+03
 1.10000E+01    1.68105E+03
 1.20000E+01    1.65777E+03
 1.30000E+01    1.72750E+03
 1.40000E+01    1.93013E+03
 1.45000E+01    2.00687E+03
 1.50000E+01    2.06317E+03
 1.60000E+01    2.12832E+03
 1.70000E+01    2.16828E+03
 1.80000E+01    2.20108E+03
 1.90000E+01    2.22181E+03
 2.00000E+01    2.23390E+03
