# n + Kr 78 : (n,n'02)  
# jendl4.0   K.Shibata, A.Ichihara, S.Kunieda  EVAL-AUG09
# uncertainties: n
# # energies =    30
#   E(MeV)       xs(mb) 
 1.03035E+00    0.00000E+00
 1.50000E+00    2.42800E+02
 2.00000E+00    1.75600E+02
 2.50000E+00    1.11500E+02
 3.00000E+00    6.99800E+01
 3.50000E+00    4.16100E+01
 4.00000E+00    2.51800E+01
 4.50000E+00    1.40400E+01
 5.00000E+00    7.71300E+00
 5.50000E+00    4.17500E+00
 6.00000E+00    2.25600E+00
 6.50000E+00    1.22600E+00
 7.00000E+00    6.67400E-01
 7.50000E+00    3.67100E-01
 8.00000E+00    2.01700E-01
 8.50000E+00    1.11800E-01
 9.00000E+00    6.18000E-02
 9.50000E+00    3.42700E-02
 1.00000E+01    1.89900E-02
 1.10000E+01    5.85600E-03
 1.20000E+01    1.87900E-03
 1.30000E+01    6.41200E-04
 1.40000E+01    2.29600E-04
 1.45000E+01    1.39600E-04
 1.50000E+01    8.59100E-05
 1.60000E+01    3.33300E-05
 1.70000E+01    1.33200E-05
 1.80000E+01    5.47400E-06
 1.90000E+01    2.30900E-06
 2.00000E+01    9.97300E-07
