# n + Kr 78 : (n,xp)    
# jendl4.0   K.Shibata, A.Ichihara, S.Kunieda  EVAL-AUG09
# 
# # energies =    47
#   E(MeV)        xs(mb) 
 4.60930E-01    0.00000E+00
 5.00000E-01    0.00000E+00
 6.00000E-01    0.00000E+00
 7.00000E-01    0.00000E+00
 8.00000E-01    0.00000E+00
 9.00000E-01    0.00000E+00
 1.00000E+00    0.00000E+00
 1.03035E+00    0.00000E+00
 1.13396E+00    0.00000E+00
 1.16278E+00    0.00000E+00
 1.50000E+00    0.00000E+00
 1.58502E+00    3.46525E-02
 1.67531E+00    7.14559E-02
 1.77859E+00    1.13553E-01
 1.79588E+00    1.20601E-01
 1.89714E+00    1.61876E-01
 2.00000E+00    2.03800E-01
 2.00342E+00    2.26550E-01
 2.03341E+00    4.25830E-01
 2.04353E+00    4.93151E-01
 2.50000E+00    3.52700E+00
 3.00000E+00    1.46800E+01
 3.50000E+00    3.76700E+01
 4.00000E+00    6.87000E+01
 4.50000E+00    1.00100E+02
 5.00000E+00    1.21700E+02
 5.50000E+00    1.42400E+02
 6.00000E+00    1.53700E+02
 6.50000E+00    1.67000E+02
 7.00000E+00    1.73900E+02
 7.50000E+00    1.82700E+02
 8.00000E+00    1.89700E+02
 8.50000E+00    1.94400E+02
 9.00000E+00    2.00000E+02
 9.50000E+00    2.06700E+02
 1.00000E+01    2.11900E+02
 1.10000E+01    2.33360E+02
 1.20000E+01    3.75400E+02
 1.30000E+01    5.35200E+02
 1.40000E+01    5.49200E+02
 1.45000E+01    5.47000E+02
 1.50000E+01    5.50500E+02
 1.60000E+01    5.57500E+02
 1.70000E+01    5.57600E+02
 1.80000E+01    5.47700E+02
 1.90000E+01    5.39200E+02
 2.00000E+01    5.31900E+02
