# n + Kr 78 : (n,n'06)  
# jendl4.0   K.Shibata, A.Ichihara, S.Kunieda  EVAL-AUG09
# uncertainties: n
# # energies =    29
#   E(MeV)       xs(mb) 
 1.67531E+00    0.00000E+00
 2.00000E+00    6.09500E+01
 2.50000E+00    8.54700E+01
 3.00000E+00    8.61500E+01
 3.50000E+00    7.18400E+01
 4.00000E+00    5.31200E+01
 4.50000E+00    3.33800E+01
 5.00000E+00    1.94900E+01
 5.50000E+00    1.14800E+01
 6.00000E+00    6.64600E+00
 6.50000E+00    3.88400E+00
 7.00000E+00    2.24500E+00
 7.50000E+00    1.31100E+00
 8.00000E+00    7.59600E-01
 8.50000E+00    4.42000E-01
 9.00000E+00    2.55400E-01
 9.50000E+00    1.47400E-01
 1.00000E+01    8.47800E-02
 1.10000E+01    2.78800E-02
 1.20000E+01    9.41600E-03
 1.30000E+01    3.34300E-03
 1.40000E+01    1.23400E-03
 1.45000E+01    7.59500E-04
 1.50000E+01    4.72800E-04
 1.60000E+01    1.87000E-04
 1.70000E+01    7.60200E-05
 1.80000E+01    3.17200E-05
 1.90000E+01    1.35500E-05
 2.00000E+01    5.92000E-06
