# n + U 236 : (n,tot)   
# jeff3.3    P. Romain, B. Morillon, H. Duarte EVAL-JUL08
# uncertainties: n
# # energies =   171
#   E(MeV)       xs(mb) 
 1.00000E-11    6.95090E+04
 1.00000E-07    1.02746E+04
 4.13990E-07    9.57219E+03
 5.31580E-07    9.41454E+03
 6.82560E-07    9.27080E+03
 8.76420E-07    9.13832E+03
 1.12540E-06    9.01683E+03
 1.44500E-06    8.90597E+03
 1.85540E-06    8.81394E+03
 2.37240E-06    8.77673E+03
 3.05900E-06    9.05860E+03
 3.92790E-06    1.54635E+04
 5.04350E-06    1.19240E+06
 6.47600E-06    1.35880E+04
 8.31530E-06    1.02625E+04
 1.06770E-05    9.41959E+03
 1.37100E-05    8.96971E+03
 1.76030E-05    8.58120E+03
 2.26030E-05    8.05749E+03
 2.92030E-05    5.36195E+04
 3.72670E-05    1.57228E+05
 4.78510E-05    9.48267E+03
 6.14420E-05    8.53427E+04
 7.88930E-05    8.90216E+04
 1.01300E-04    9.25035E+04
 1.30070E-04    1.38713E+04
 1.67020E-04    7.24057E+04
 2.14450E-04    2.12282E+04
 2.75360E-04    2.97534E+04
 3.53580E-04    3.83382E+04
 4.54000E-04    2.99623E+04
 5.82950E-04    2.90711E+04
 7.48520E-04    3.04038E+04
 9.61120E-04    3.32625E+04
 1.23410E-03    2.42494E+04
 1.58460E-03    2.06352E+04
 2.03470E-03    1.98766E+04
 2.24870E-03    1.94906E+04
 2.48520E-03    1.91867E+04
 2.61260E-03    1.90180E+04
 2.74650E-03    1.87549E+04
 3.03540E-03    1.84109E+04
 3.35460E-03    1.80888E+04
 3.70740E-03    1.77115E+04
 4.30740E-03    1.71550E+04
 5.53080E-03    1.65240E+04
 7.10170E-03    1.59667E+04
 9.11880E-03    1.54680E+04
 1.17090E-02    1.50159E+04
 1.50340E-02    1.46047E+04
 1.93050E-02    1.43152E+04
 2.18750E-02    1.41725E+04
 2.35790E-02    1.40958E+04
 2.41760E-02    1.40559E+04
 2.47880E-02    1.40033E+04
 2.60580E-02    1.39480E+04
 2.70000E-02    1.38873E+04
 2.85000E-02    1.37681E+04
 3.18280E-02    1.36357E+04
 3.43070E-02    1.34693E+04
 4.08680E-02    1.32567E+04
 4.63090E-02    1.30863E+04
 5.24750E-02    1.29364E+04
 5.65620E-02    1.27628E+04
 6.73790E-02    1.25839E+04
 7.20000E-02    1.24506E+04
 7.95000E-02    1.23478E+04
 8.25000E-02    1.22824E+04
 8.65170E-02    1.21391E+04
 9.80370E-02    1.19221E+04
 1.11090E-01    1.17733E+04
 1.16790E-01    1.16823E+04
 1.22770E-01    1.15866E+04
 1.29070E-01    1.14860E+04
 1.35690E-01    1.13885E+04
 1.42640E-01    1.12939E+04
 1.49960E-01    1.11945E+04
 1.57640E-01    1.10900E+04
 1.65730E-01    1.09801E+04
 1.74220E-01    1.08667E+04
 1.83160E-01    1.07598E+04
 1.92550E-01    1.06494E+04
 2.02420E-01    1.05333E+04
 2.12800E-01    1.04113E+04
 2.23710E-01    1.02886E+04
 2.35180E-01    1.01714E+04
 2.47240E-01    9.98405E+03
 2.73240E-01    9.78506E+03
 2.87250E-01    9.68944E+03
 2.94520E-01    9.64650E+03
 2.97200E-01    9.62935E+03
 2.98500E-01    9.60885E+03
 3.01970E-01    9.45946E+03
 3.33730E-01    9.18548E+03
 3.68830E-01    8.98240E+03
 3.87740E-01    8.83856E+03
 4.07620E-01    8.63347E+03
 4.50490E-01    8.35442E+03
 4.97870E-01    8.15262E+03
 5.23400E-01    8.01441E+03
 5.50230E-01    7.88733E+03
 5.78440E-01    7.75721E+03
 6.08100E-01    7.63179E+03
 6.39280E-01    7.51464E+03
 6.72060E-01    7.39681E+03
 7.06510E-01    7.29305E+03
 7.42740E-01    7.18978E+03
 7.80820E-01    7.10128E+03
 8.20850E-01    7.01503E+03
 8.62940E-01    6.94483E+03
 9.07180E-01    6.87440E+03
 9.61640E-01    6.82623E+03
 1.00260E+00    6.77537E+03
 1.10800E+00    6.74330E+03
 1.16480E+00    6.74397E+03
 1.22460E+00    6.75643E+03
 1.28730E+00    6.77746E+03
 1.35340E+00    6.81578E+03
 1.42270E+00    6.85767E+03
 1.49570E+00    6.91574E+03
 1.57240E+00    6.98093E+03
 1.65300E+00    7.04944E+03
 1.73770E+00    7.12147E+03
 1.82680E+00    7.19645E+03
 1.92050E+00    7.27400E+03
 2.01900E+00    7.35550E+03
 2.12250E+00    7.44115E+03
 2.23130E+00    7.51198E+03
 2.30690E+00    7.54939E+03
 2.34570E+00    7.56833E+03
 2.36530E+00    7.58113E+03
 2.38520E+00    7.61361E+03
 2.46600E+00    7.68022E+03
 2.59240E+00    7.74928E+03
 2.72530E+00    7.81379E+03
 2.86500E+00    7.87394E+03
 3.01190E+00    7.90451E+03
 3.16640E+00    7.93307E+03
 3.32870E+00    7.97699E+03
 3.67880E+00    7.97729E+03
 4.06570E+00    7.90504E+03
 4.49330E+00    7.80194E+03
 4.72370E+00    7.70983E+03
 4.96590E+00    7.59718E+03
 5.22050E+00    7.46874E+03
 5.48810E+00    7.33363E+03
 5.76950E+00    7.18967E+03
 6.06530E+00    7.03752E+03
 6.37630E+00    6.90497E+03
 6.59240E+00    6.82276E+03
 6.70320E+00    6.72135E+03
 7.04690E+00    6.56880E+03
 7.40820E+00    6.42244E+03
 7.78800E+00    6.28318E+03
 8.18730E+00    6.15718E+03
 8.60710E+00    6.03999E+03
 9.04840E+00    5.93843E+03
 9.51230E+00    5.85462E+03
 1.00000E+01    5.78547E+03
 1.05130E+01    5.74163E+03
 1.10520E+01    5.72041E+03
 1.16180E+01    5.72146E+03
 1.22140E+01    5.74295E+03
 1.28400E+01    5.78199E+03
 1.34990E+01    5.82012E+03
 1.38400E+01    5.84925E+03
 1.41910E+01    5.88064E+03
 1.45500E+01    5.91348E+03
 1.49180E+01    5.96427E+03
 1.56830E+01    6.03147E+03
 1.64870E+01    6.09473E+03
