# n + Sn116 : (n,n'08)  
# jeff3.3    N.Iwamoto,K.Shibata               EVAL-Dec09
# uncertainties: n
# # energies =    70
#   E(MeV)       xs(mb) 
 2.41169E+00    0.00000E+00
 2.50000E+00    4.21851E+01
 2.55121E+00    5.71235E+01
 2.56786E+00    6.03971E+01
 2.60806E+00    6.84026E+01
 2.67351E+00    7.78742E+01
 2.75000E+00    8.58210E+01
 2.79747E+00    9.01703E+01
 2.81484E+00    9.16175E+01
 2.82566E+00    9.24484E+01
 2.86857E+00    9.43119E+01
 2.93416E+00    9.69329E+01
 2.98579E+00    9.91899E+01
 3.00000E+00    9.96242E+01
 3.02235E+00    1.00306E+02
 3.04269E+00    1.00461E+02
 3.05909E+00    1.00622E+02
 3.07291E+00    1.00779E+02
 3.11551E+00    1.00489E+02
 3.12388E+00    1.00335E+02
 3.13220E+00    9.99628E+01
 3.18521E+00    9.86354E+01
 3.20735E+00    9.78748E+01
 3.21171E+00    9.76464E+01
 3.22212E+00    9.69267E+01
 3.23794E+00    9.61473E+01
 3.25554E+00    9.54154E+01
 3.25604E+00    9.53741E+01
 3.25615E+00    9.53675E+01
 3.26418E+00    9.48982E+01
 3.28602E+00    9.39172E+01
 3.30612E+00    9.29204E+01
 3.31761E+00    9.24120E+01
 3.33780E+00    9.15392E+01
 3.34384E+00    9.12862E+01
 3.36279E+00    9.03338E+01
 3.50000E+00    8.35732E+01
 4.00000E+00    5.70652E+01
 4.50000E+00    3.52903E+01
 5.00000E+00    2.08253E+01
 5.50000E+00    1.21655E+01
 6.00000E+00    7.31032E+00
 6.50000E+00    4.66203E+00
 7.00000E+00    3.22244E+00
 7.50000E+00    2.42795E+00
 8.00000E+00    1.97217E+00
 8.50000E+00    1.69303E+00
 9.00000E+00    1.50833E+00
 9.50000E+00    1.37569E+00
 1.00000E+01    1.27346E+00
 1.05000E+01    1.19126E+00
 1.10000E+01    1.12104E+00
 1.15000E+01    1.06142E+00
 1.20000E+01    1.00757E+00
 1.25000E+01    9.59401E-01
 1.30000E+01    9.14569E-01
 1.35000E+01    8.72955E-01
 1.40000E+01    8.34555E-01
 1.45000E+01    7.97900E-01
 1.50000E+01    7.64388E-01
 1.55000E+01    7.31769E-01
 1.60000E+01    7.01696E-01
 1.65000E+01    6.72045E-01
 1.70000E+01    6.44395E-01
 1.75000E+01    6.17132E-01
 1.80000E+01    5.91599E-01
 1.85000E+01    5.66635E-01
 1.90000E+01    5.43218E-01
 1.95000E+01    5.20639E-01
 2.00000E+01    4.99500E-01
