# n + Sn116 : (n,n'01)  
# jeff3.3    N.Iwamoto,K.Shibata               EVAL-Dec09
# uncertainties: n
# # energies =    85
#   E(MeV)       xs(mb) 
 1.30482E+00    0.00000E+00
 1.40000E+00    3.55813E+02
 1.50000E+00    5.14686E+02
 1.60000E+00    6.12774E+02
 1.70000E+00    6.86598E+02
 1.77215E+00    7.31689E+02
 1.80000E+00    7.43741E+02
 1.90000E+00    7.83843E+02
 2.00000E+00    8.22171E+02
 2.04512E+00    8.32761E+02
 2.13070E+00    8.42974E+02
 2.24475E+00    7.98249E+02
 2.25000E+00    7.91452E+02
 2.28588E+00    7.69942E+02
 2.38657E+00    6.87624E+02
 2.41169E+00    6.72696E+02
 2.50000E+00    6.21370E+02
 2.55121E+00    5.98169E+02
 2.56786E+00    5.89779E+02
 2.60806E+00    5.70521E+02
 2.67351E+00    5.38732E+02
 2.75000E+00    5.02020E+02
 2.79747E+00    4.85553E+02
 2.81484E+00    4.79620E+02
 2.82566E+00    4.75399E+02
 2.86857E+00    4.58921E+02
 2.93416E+00    4.32719E+02
 2.98579E+00    4.16772E+02
 3.00000E+00    4.13359E+02
 3.02235E+00    4.05859E+02
 3.04269E+00    3.98166E+02
 3.05909E+00    3.92731E+02
 3.07291E+00    3.88380E+02
 3.11551E+00    3.75259E+02
 3.12388E+00    3.72045E+02
 3.13220E+00    3.69084E+02
 3.18521E+00    3.53177E+02
 3.20735E+00    3.46555E+02
 3.21171E+00    3.44950E+02
 3.22212E+00    3.41315E+02
 3.23794E+00    3.36011E+02
 3.25554E+00    3.30589E+02
 3.25604E+00    3.30294E+02
 3.25615E+00    3.30246E+02
 3.26418E+00    3.26861E+02
 3.28602E+00    3.19234E+02
 3.30612E+00    3.12824E+02
 3.31761E+00    3.09233E+02
 3.33780E+00    3.02859E+02
 3.34384E+00    3.01038E+02
 3.36279E+00    2.95010E+02
 3.50000E+00    2.58494E+02
 4.00000E+00    1.71940E+02
 4.50000E+00    1.28138E+02
 5.00000E+00    1.06878E+02
 5.50000E+00    9.74192E+01
 6.00000E+00    9.29390E+01
 6.50000E+00    8.95827E+01
 7.00000E+00    8.58210E+01
 7.50000E+00    8.14566E+01
 8.00000E+00    7.68017E+01
 8.50000E+00    7.22374E+01
 9.00000E+00    6.80432E+01
 9.50000E+00    6.43585E+01
 1.00000E+01    6.12004E+01
 1.05000E+01    5.86640E+01
 1.10000E+01    5.61483E+01
 1.15000E+01    5.41034E+01
 1.20000E+01    5.20715E+01
 1.25000E+01    5.02954E+01
 1.30000E+01    4.85301E+01
 1.35000E+01    4.70497E+01
 1.40000E+01    4.55792E+01
 1.45000E+01    4.44151E+01
 1.50000E+01    4.32591E+01
 1.55000E+01    4.23204E+01
 1.60000E+01    4.13884E+01
 1.65000E+01    4.05587E+01
 1.70000E+01    3.97349E+01
 1.75000E+01    3.89513E+01
 1.80000E+01    3.81732E+01
 1.85000E+01    3.74235E+01
 1.90000E+01    3.66789E+01
 1.95000E+01    3.59780E+01
 2.00000E+01    3.52820E+01
