# n + Ru101 : (n,el)    
# jendl4.0   JNDC FP NUCLEAR DATA W.G.         EVAL-MAR90
# uncertainties: n
# # energies =   171
#   E(MeV)       xs(mb) 
 1.00000E-11    1.04634E+04
 1.00000E-07    5.96944E+03
 4.13990E-07    5.95938E+03
 5.31580E-07    5.95488E+03
 6.82560E-07    5.94910E+03
 8.76420E-07    5.94168E+03
 1.12540E-06    5.93212E+03
 1.44500E-06    5.91903E+03
 1.85540E-06    5.90198E+03
 2.37240E-06    5.87989E+03
 3.05900E-06    5.85129E+03
 3.92790E-06    5.81483E+03
 5.04350E-06    5.76623E+03
 6.47600E-06    5.68701E+03
 8.31530E-06    5.55863E+03
 1.06770E-05    5.23978E+03
 1.37100E-05    7.72284E+03
 1.76030E-05    6.30259E+03
 2.26030E-05    5.70161E+03
 2.92030E-05    5.18023E+03
 3.72670E-05    1.08566E+04
 4.78510E-05    5.63326E+03
 6.14420E-05    1.33948E+04
 7.88930E-05    6.00638E+03
 1.01300E-04    6.05811E+03
 1.30070E-04    5.55651E+03
 1.67020E-04    8.36024E+03
 2.14450E-04    5.41098E+03
 2.75360E-04    1.30927E+04
 3.53580E-04    2.34096E+04
 4.54000E-04    1.19237E+04
 5.82950E-04    8.37327E+03
 7.48520E-04    9.79921E+03
 9.61120E-04    1.15291E+04
 1.23410E-03    6.97307E+03
 1.58460E-03    6.69872E+03
 2.03470E-03    6.52409E+03
 2.24870E-03    6.42599E+03
 2.48520E-03    6.35242E+03
 2.61260E-03    6.31224E+03
 2.74650E-03    6.24816E+03
 3.03540E-03    6.17342E+03
 3.35460E-03    6.10299E+03
 3.70740E-03    6.01028E+03
 4.30740E-03    5.89509E+03
 5.53080E-03    5.77420E+03
 7.10170E-03    5.69858E+03
 9.11880E-03    5.66672E+03
 1.17090E-02    5.67346E+03
 1.50340E-02    5.73594E+03
 1.93050E-02    5.80597E+03
 2.18750E-02    5.86658E+03
 2.35790E-02    5.89979E+03
 2.41760E-02    5.91710E+03
 2.47880E-02    5.94238E+03
 2.60580E-02    5.97023E+03
 2.70000E-02    6.00074E+03
 2.85000E-02    6.06032E+03
 3.18280E-02    6.13170E+03
 3.43070E-02    6.23976E+03
 4.08680E-02    6.37789E+03
 4.63090E-02    6.50277E+03
 5.24750E-02    6.60452E+03
 5.65620E-02    6.73837E+03
 6.73790E-02    6.86934E+03
 7.20000E-02    6.95937E+03
 7.95000E-02    7.03464E+03
 8.25000E-02    7.07703E+03
 8.65170E-02    7.16956E+03
 9.80370E-02    7.27687E+03
 1.11090E-01    7.30846E+03
 1.16790E-01    7.32705E+03
 1.22770E-01    7.34645E+03
 1.29070E-01    7.34515E+03
 1.35690E-01    7.32796E+03
 1.42640E-01    7.30990E+03
 1.49960E-01    7.29090E+03
 1.57640E-01    7.27093E+03
 1.65730E-01    7.24994E+03
 1.74220E-01    7.22786E+03
 1.83160E-01    7.20465E+03
 1.92550E-01    7.18026E+03
 2.02420E-01    7.15462E+03
 2.12800E-01    7.12766E+03
 2.23710E-01    7.09939E+03
 2.35180E-01    7.07271E+03
 2.47240E-01    7.03245E+03
 2.73240E-01    6.98942E+03
 2.87250E-01    6.96662E+03
 2.94520E-01    6.95597E+03
 2.97200E-01    6.95172E+03
 2.98500E-01    6.94664E+03
 3.01970E-01    6.88032E+03
 3.33730E-01    6.67987E+03
 3.68830E-01    6.52502E+03
 3.87740E-01    6.42322E+03
 4.07620E-01    6.27553E+03
 4.50490E-01    6.10596E+03
 4.97870E-01    5.98289E+03
 5.23400E-01    5.90806E+03
 5.50230E-01    5.82336E+03
 5.78440E-01    5.72743E+03
 6.08100E-01    5.62658E+03
 6.39280E-01    5.52125E+03
 6.72060E-01    5.42322E+03
 7.06510E-01    5.32668E+03
 7.42740E-01    5.23793E+03
 7.80820E-01    5.14768E+03
 8.20850E-01    5.06358E+03
 8.62940E-01    4.97989E+03
 9.07180E-01    4.88434E+03
 9.61640E-01    4.79158E+03
 1.00260E+00    4.65771E+03
 1.10800E+00    4.51354E+03
 1.16480E+00    4.41729E+03
 1.22460E+00    4.32051E+03
 1.28730E+00    4.21876E+03
 1.35340E+00    4.11413E+03
 1.42270E+00    4.01285E+03
 1.49570E+00    3.90727E+03
 1.57240E+00    3.79714E+03
 1.65300E+00    3.68435E+03
 1.73770E+00    3.57300E+03
 1.82680E+00    3.45626E+03
 1.92050E+00    3.33936E+03
 2.01900E+00    3.22138E+03
 2.12250E+00    3.09988E+03
 2.23130E+00    3.00361E+03
 2.30690E+00    2.94483E+03
 2.34570E+00    2.91672E+03
 2.36530E+00    2.89898E+03
 2.38520E+00    2.85394E+03
 2.46600E+00    2.76343E+03
 2.59240E+00    2.66034E+03
 2.72530E+00    2.55922E+03
 2.86500E+00    2.45895E+03
 3.01190E+00    2.37015E+03
 3.16640E+00    2.29060E+03
 3.32870E+00    2.17795E+03
 3.67880E+00    2.03567E+03
 4.06570E+00    1.95432E+03
 4.49330E+00    1.91471E+03
 4.72370E+00    1.88918E+03
 4.96590E+00    1.87877E+03
 5.22050E+00    1.89434E+03
 5.48810E+00    1.91112E+03
 5.76950E+00    1.92930E+03
 6.06530E+00    1.96421E+03
 6.37630E+00    2.00072E+03
 6.59240E+00    2.02337E+03
 6.70320E+00    2.05432E+03
 7.04690E+00    2.13423E+03
 7.40820E+00    2.22168E+03
 7.78800E+00    2.23121E+03
 8.18730E+00    2.26468E+03
 8.60710E+00    2.34604E+03
 9.04840E+00    2.40792E+03
 9.51230E+00    2.47929E+03
 1.00000E+01    2.54166E+03
 1.05130E+01    2.58802E+03
 1.10520E+01    2.64818E+03
 1.16180E+01    2.71619E+03
 1.22140E+01    2.75025E+03
 1.28400E+01    2.77700E+03
 1.34990E+01    2.80202E+03
 1.38400E+01    2.81643E+03
 1.41910E+01    2.81716E+03
 1.45500E+01    2.81642E+03
 1.49180E+01    2.80873E+03
 1.56830E+01    2.78740E+03
 1.64870E+01    2.75350E+03
