# n + Cu 63 : (n,g)     
# jendl.ad   nakayama                          EVAL-Dec16
# uncertainties: n
# # energies =    69
#   E(MeV)       xs(mb) 
 1.00000E-10    3.14621E+04
 5.00000E-09    8.56632E+03
 1.00000E-08    6.48781E+03
 1.50000E-08    5.45168E+03
 2.00000E-08    4.79670E+03
 2.50000E-08    4.33354E+03
 3.00000E-08    3.98353E+03
 3.50000E-08    3.66243E+03
 4.20000E-08    3.34976E+03
 5.00000E-08    3.08966E+03
 5.80000E-08    2.87153E+03
 6.70000E-08    2.64982E+03
 8.00000E-08    2.39764E+03
 1.00000E-07    2.08566E+03
 1.40000E-07    1.79931E+03
 1.80000E-07    1.60631E+03
 2.20000E-07    1.47904E+03
 2.50000E-07    1.39218E+03
 2.80000E-07    1.32993E+03
 3.00000E-07    1.28612E+03
 3.20000E-07    1.23733E+03
 3.50000E-07    1.17008E+03
 4.00000E-07    1.07020E+03
 5.00000E-07    9.56666E+02
 6.25000E-07    8.55357E+02
 7.80000E-07    7.91227E+02
 8.50000E-07    7.60991E+02
 9.10000E-07    7.39926E+02
 9.50000E-07    7.27780E+02
 9.72000E-07    7.19153E+02
 9.96000E-07    7.10403E+02
 1.02000E-06    7.01825E+02
 1.04500E-06    6.93274E+02
 1.07100E-06    6.84759E+02
 1.09700E-06    6.76622E+02
 1.12300E-06    6.68576E+02
 1.15000E-06    6.44370E+02
 1.30000E-06    6.02446E+02
 1.50000E-06    5.33994E+02
 2.10000E-06    4.63634E+02
 2.60000E-06    4.12934E+02
 3.30000E-06    3.69313E+02
 4.00000E-06    2.79203E+02
 9.87700E-06    1.90179E+02
 1.59680E-05    1.41146E+02
 2.77000E-05    9.99213E+01
 4.80520E-05    7.05120E+01
 7.55014E-05    4.58428E+01
 1.48728E-04    2.46264E+01
 3.67262E-04    2.41519E+03
 9.06898E-04    8.10092E+01
 1.42510E-03    4.04703E+02
 2.23945E-03    4.62200E+02
 3.51910E-03    3.21588E+02
 5.53000E-03    2.48024E+02
 9.11800E-03    1.52366E+02
 1.50300E-02    1.02933E+02
 2.47800E-02    6.12294E+01
 4.08500E-02    4.57892E+01
 6.73400E-02    3.91140E+01
 1.11000E-01    2.97009E+01
 1.83000E-01    2.27817E+01
 3.02000E-01    1.85590E+01
 5.00000E-01    1.66662E+01
 8.21000E-01    1.32576E+01
 1.35300E+00    7.21639E+00
 2.23100E+00    3.74749E+00
 3.67900E+00    1.70527E+00
 6.06500E+00    9.02471E-01
