# n + Cu 63 : (n,t)     
# jendl.ad   nakayama                          EVAL-Dec16
# uncertainties: n
# # energies =    53
#   E(MeV)       xs(mb) 
 8.36848E+00    0.00000E+00
 8.43698E+00    8.34400E-27
 8.50000E+00    8.19300E-19
 8.65598E+00    6.09280E-17
 9.00000E+00    1.93510E-16
 9.03501E+00    2.68750E-11
 9.29167E+00    2.23880E-10
 9.39988E+00    3.06950E-10
 9.48573E+00    3.72850E-10
 9.50000E+00    3.83800E-10
 9.51896E+00    1.47000E-08
 9.57273E+00    5.52980E-08
 9.84660E+00    2.62070E-07
 1.00000E+01    3.77890E-07
 1.00039E+01    5.31390E-07
 1.01257E+01    5.27414E-06
 1.02051E+01    8.37013E-06
 1.03782E+01    1.51110E-05
 1.03883E+01    1.55065E-05
 1.03981E+01    1.58871E-05
 1.04189E+01    1.66982E-05
 1.04310E+01    1.71696E-05
 1.05000E+01    1.98569E-05
 1.05241E+01    3.08418E-05
 1.05265E+01    3.19457E-05
 1.05318E+01    3.43635E-05
 1.08168E+01    1.64375E-04
 1.08212E+01    1.66369E-04
 1.08771E+01    1.91860E-04
 1.09380E+01    2.19669E-04
 1.10000E+01    2.47948E-04
 1.10030E+01    2.54559E-04
 1.10505E+01    3.57772E-04
 1.11087E+01    4.84363E-04
 1.11209E+01    5.10873E-04
 1.11463E+01    5.66112E-04
 1.11779E+01    6.34833E-04
 1.11991E+01    6.81003E-04
 1.12144E+01    7.14146E-04
 1.12672E+01    8.29059E-04
 1.12779E+01    8.52219E-04
 1.13200E+01    9.43950E-04
 1.14572E+01    1.24224E-03
 1.15000E+01    1.33532E-03
 1.20000E+01    4.15475E-03
 1.30000E+01    1.43779E-02
 1.40000E+01    2.79990E-02
 1.50000E+01    5.68502E-02
 1.60000E+01    1.26316E-01
 1.70000E+01    2.47736E-01
 1.80000E+01    4.17177E-01
 1.90000E+01    6.20001E-01
 2.00000E+01    8.52387E-01
