# n + Os184 : (n,n'17)  
# jendl4.0   N.Iwamoto                         EVAL-Jan10
# uncertainties: n
# # energies =    47
#   E(MeV)       xs(mb) 
 1.64050E+00    0.00000E+00
 1.64668E+00    1.22186E+01
 1.70000E+00    2.83096E+01
 1.70729E+00    2.95765E+01
 1.71693E+00    3.11073E+01
 1.72759E+00    3.17640E+01
 1.80000E+00    3.89461E+01
 1.90000E+00    4.44603E+01
 2.00000E+00    4.58758E+01
 2.25000E+00    3.98634E+01
 2.50000E+00    3.05225E+01
 2.75000E+00    2.09684E+01
 3.00000E+00    1.41878E+01
 3.50000E+00    6.00425E+00
 4.00000E+00    2.52843E+00
 4.50000E+00    1.09908E+00
 5.00000E+00    5.19786E-01
 5.50000E+00    2.85096E-01
 6.00000E+00    1.87961E-01
 6.50000E+00    1.45298E-01
 7.00000E+00    1.24492E-01
 7.50000E+00    1.12465E-01
 8.00000E+00    1.04213E-01
 8.50000E+00    9.78039E-02
 9.00000E+00    9.24648E-02
 9.50000E+00    8.78138E-02
 1.00000E+01    8.36281E-02
 1.05000E+01    7.97510E-02
 1.10000E+01    7.60841E-02
 1.15000E+01    7.25747E-02
 1.20000E+01    6.92047E-02
 1.25000E+01    6.59894E-02
 1.30000E+01    6.29308E-02
 1.35000E+01    6.00451E-02
 1.40000E+01    5.73377E-02
 1.45000E+01    5.48071E-02
 1.50000E+01    5.24448E-02
 1.55000E+01    5.02387E-02
 1.60000E+01    4.81739E-02
 1.65000E+01    4.62339E-02
 1.70000E+01    4.44042E-02
 1.75000E+01    4.26715E-02
 1.80000E+01    4.10258E-02
 1.85000E+01    3.94594E-02
 1.90000E+01    3.79683E-02
 1.95000E+01    3.65502E-02
 2.00000E+01    3.52038E-02
