# n + Os184 : (n,n'03)  
# jendl4.0   N.Iwamoto                         EVAL-Jan10
# uncertainties: n
# # energies =    70
#   E(MeV)       xs(mb) 
 7.78385E-01    0.00000E+00
 8.00000E-01    1.37365E-02
 9.00000E-01    2.66676E-01
 9.47950E-01    5.42331E-01
 1.00000E+00    9.93339E-01
 1.04771E+00    1.57100E+00
 1.08695E+00    2.16379E+00
 1.10000E+00    2.35232E+00
 1.20000E+00    4.40441E+00
 1.21462E+00    4.75021E+00
 1.23176E+00    5.04725E+00
 1.28185E+00    5.83481E+00
 1.30000E+00    6.23706E+00
 1.40000E+00    8.90659E+00
 1.41441E+00    9.33145E+00
 1.43613E+00    9.73567E+00
 1.45365E+00    9.94449E+00
 1.50000E+00    1.09429E+01
 1.50886E+00    1.11588E+01
 1.55241E+00    1.21462E+01
 1.60000E+00    1.30481E+01
 1.62203E+00    1.35783E+01
 1.62961E+00    1.37623E+01
 1.64050E+00    1.39235E+01
 1.64668E+00    1.40538E+01
 1.70000E+00    1.52963E+01
 1.70729E+00    1.54778E+01
 1.71693E+00    1.57083E+01
 1.72759E+00    1.59775E+01
 1.80000E+00    1.75461E+01
 1.90000E+00    1.93522E+01
 2.00000E+00    2.05449E+01
 2.25000E+00    2.08772E+01
 2.50000E+00    2.04010E+01
 2.75000E+00    1.76736E+01
 3.00000E+00    1.55765E+01
 3.50000E+00    1.07292E+01
 4.00000E+00    7.59190E+00
 4.50000E+00    5.84215E+00
 5.00000E+00    4.92936E+00
 5.50000E+00    4.43955E+00
 6.00000E+00    4.11947E+00
 6.50000E+00    3.81509E+00
 7.00000E+00    3.49658E+00
 7.50000E+00    3.18076E+00
 8.00000E+00    2.89732E+00
 8.50000E+00    2.66461E+00
 9.00000E+00    2.48100E+00
 9.50000E+00    2.34213E+00
 1.00000E+01    2.23285E+00
 1.05000E+01    2.14233E+00
 1.10000E+01    2.05988E+00
 1.15000E+01    1.97927E+00
 1.20000E+01    1.89780E+00
 1.25000E+01    1.81532E+00
 1.30000E+01    1.73411E+00
 1.35000E+01    1.65450E+00
 1.40000E+01    1.57746E+00
 1.45000E+01    1.50374E+00
 1.50000E+01    1.43379E+00
 1.55000E+01    1.36786E+00
 1.60000E+01    1.30613E+00
 1.65000E+01    1.24872E+00
 1.70000E+01    1.19564E+00
 1.75000E+01    1.14686E+00
 1.80000E+01    1.10214E+00
 1.85000E+01    1.06116E+00
 1.90000E+01    1.02340E+00
 1.95000E+01    9.88281E-01
 2.00000E+01    9.55187E-01
