# n + Os184 : (n,t)     
# jendl4.0   N.Iwamoto                         EVAL-Jan10
# uncertainties: n
# # energies =    33
#   E(MeV)       xs(mb) 
 5.71830E+00    0.00000E+00
 5.87330E+00    5.86790E-29
 6.05961E+00    1.31210E-28
 6.16388E+00    2.79580E-25
 6.27334E+00    5.81790E-25
 6.34672E+00    7.84500E-25
 7.00000E+00    2.58910E-24
 7.50000E+00    3.41450E-21
 8.00000E+00    8.04590E-17
 8.50000E+00    9.78260E-14
 9.00000E+00    1.92080E-11
 9.50000E+00    1.11720E-09
 1.00000E+01    2.77000E-08
 1.05000E+01    3.69910E-07
 1.10000E+01    3.11548E-06
 1.15000E+01    1.84870E-05
 1.20000E+01    8.37270E-05
 1.25000E+01    3.06673E-04
 1.30000E+01    9.32603E-04
 1.35000E+01    2.50932E-03
 1.40000E+01    5.97685E-03
 1.45000E+01    1.27754E-02
 1.50000E+01    2.47525E-02
 1.55000E+01    4.38751E-02
 1.60000E+01    7.18535E-02
 1.65000E+01    1.09857E-01
 1.70000E+01    1.58412E-01
 1.75000E+01    2.15953E-01
 1.80000E+01    2.84872E-01
 1.85000E+01    3.62914E-01
 1.90000E+01    4.49001E-01
 1.95000E+01    5.41893E-01
 2.00000E+01    6.40179E-01
