# n + Os184 : (n,n'16)  
# jendl4.0   N.Iwamoto                         EVAL-Jan10
# uncertainties: n
# # energies =    48
#   E(MeV)       xs(mb) 
 1.62961E+00    0.00000E+00
 1.64050E+00    9.47825E+00
 1.64668E+00    1.15051E+01
 1.70000E+00    2.13924E+01
 1.70729E+00    2.24078E+01
 1.71693E+00    2.36674E+01
 1.72759E+00    2.50658E+01
 1.80000E+00    3.35146E+01
 1.90000E+00    4.31045E+01
 2.00000E+00    4.98587E+01
 2.25000E+00    5.37721E+01
 2.50000E+00    4.82615E+01
 2.75000E+00    3.78228E+01
 3.00000E+00    2.86047E+01
 3.50000E+00    1.45539E+01
 4.00000E+00    6.97374E+00
 4.50000E+00    3.23645E+00
 5.00000E+00    1.49758E+00
 5.50000E+00    7.18267E-01
 6.00000E+00    3.77381E-01
 6.50000E+00    2.29147E-01
 7.00000E+00    1.64013E-01
 7.50000E+00    1.33408E-01
 8.00000E+00    1.17174E-01
 8.50000E+00    1.07161E-01
 9.00000E+00    1.00072E-01
 9.50000E+00    9.44798E-02
 1.00000E+01    8.97184E-02
 1.05000E+01    8.54359E-02
 1.10000E+01    8.14464E-02
 1.15000E+01    7.76574E-02
 1.20000E+01    7.40336E-02
 1.25000E+01    7.05832E-02
 1.30000E+01    6.73076E-02
 1.35000E+01    6.42194E-02
 1.40000E+01    6.13229E-02
 1.45000E+01    5.86162E-02
 1.50000E+01    5.60879E-02
 1.55000E+01    5.37268E-02
 1.60000E+01    5.15174E-02
 1.65000E+01    4.94414E-02
 1.70000E+01    4.74836E-02
 1.75000E+01    4.56296E-02
 1.80000E+01    4.38687E-02
 1.85000E+01    4.21926E-02
 1.90000E+01    4.05972E-02
 1.95000E+01    3.90800E-02
 2.00000E+01    3.76396E-02
