# n + Br 79 : (n,el)    
# jendl4.0   K.Shibata, A.Ichihara, S.Kunieda  EVAL-AUG09
# uncertainties: n
# # energies =   171
#   E(MeV)       xs(mb) 
 1.00000E-11    6.17325E+03
 1.00000E-07    3.26665E+03
 4.13990E-07    3.25832E+03
 5.31580E-07    3.25472E+03
 6.82560E-07    3.25009E+03
 8.76420E-07    3.24414E+03
 1.12540E-06    3.23650E+03
 1.44500E-06    3.22683E+03
 1.85540E-06    3.21462E+03
 2.37240E-06    3.19881E+03
 3.05900E-06    3.17834E+03
 3.92790E-06    3.15225E+03
 5.04350E-06    3.11873E+03
 6.47600E-06    3.07571E+03
 8.31530E-06    3.02038E+03
 1.06770E-05    2.94152E+03
 1.37100E-05    2.82803E+03
 1.76030E-05    2.64182E+03
 2.26030E-05    2.24873E+03
 2.92030E-05    4.37807E+04
 3.72670E-05    6.45014E+03
 4.78510E-05    9.63443E+03
 6.14420E-05    3.93297E+03
 7.88930E-05    3.42791E+03
 1.01300E-04    3.10055E+03
 1.30070E-04    2.67255E+03
 1.67020E-04    5.70270E+03
 2.14450E-04    6.55046E+04
 2.75360E-04    4.18567E+04
 3.53580E-04    6.19664E+03
 4.54000E-04    1.42968E+04
 5.82950E-04    1.38180E+04
 7.48520E-04    1.53678E+04
 9.61120E-04    1.60635E+04
 1.23410E-03    1.70188E+04
 1.58460E-03    2.50600E+04
 2.03470E-03    1.90857E+04
 2.24870E-03    9.99622E+03
 2.48520E-03    3.46136E+04
 2.61260E-03    8.66160E+03
 2.74650E-03    9.86086E+03
 3.03540E-03    1.98006E+04
 3.35460E-03    6.95733E+03
 3.70740E-03    1.38187E+04
 4.30740E-03    1.07612E+04
 5.53080E-03    1.34777E+04
 7.10170E-03    1.26911E+04
 9.11880E-03    1.20207E+04
 1.17090E-02    1.15078E+04
 1.50340E-02    1.08771E+04
 1.93050E-02    1.03551E+04
 2.18750E-02    1.01799E+04
 2.35790E-02    1.00903E+04
 2.41760E-02    1.00436E+04
 2.47880E-02    9.97117E+03
 2.60580E-02    9.88552E+03
 2.70000E-02    9.79148E+03
 2.85000E-02    9.62149E+03
 3.18280E-02    9.47384E+03
 3.43070E-02    9.26616E+03
 4.08680E-02    9.03041E+03
 4.63090E-02    8.84174E+03
 5.24750E-02    8.70251E+03
 5.65620E-02    8.53014E+03
 6.73790E-02    8.36992E+03
 7.20000E-02    8.26586E+03
 7.95000E-02    8.17905E+03
 8.25000E-02    8.12855E+03
 8.65170E-02    8.02314E+03
 9.80370E-02    7.88833E+03
 1.11090E-01    7.81094E+03
 1.16790E-01    7.76376E+03
 1.22770E-01    7.71415E+03
 1.29070E-01    7.66196E+03
 1.35690E-01    7.60714E+03
 1.42640E-01    7.54950E+03
 1.49960E-01    7.48890E+03
 1.57640E-01    7.42520E+03
 1.65730E-01    7.35822E+03
 1.74220E-01    7.28781E+03
 1.83160E-01    7.21376E+03
 1.92550E-01    7.13706E+03
 2.02420E-01    7.08291E+03
 2.12800E-01    7.03319E+03
 2.23710E-01    6.95097E+03
 2.35180E-01    6.85577E+03
 2.47240E-01    6.69578E+03
 2.73240E-01    6.45618E+03
 2.87250E-01    6.31203E+03
 2.94520E-01    6.24473E+03
 2.97200E-01    6.21786E+03
 2.98500E-01    6.18975E+03
 3.01970E-01    6.06686E+03
 3.33730E-01    5.79827E+03
 3.68830E-01    5.57605E+03
 3.87740E-01    5.35170E+03
 4.07620E-01    5.11105E+03
 4.50490E-01    4.80932E+03
 4.97870E-01    4.58991E+03
 5.23400E-01    4.47495E+03
 5.50230E-01    4.33528E+03
 5.78440E-01    4.18830E+03
 6.08100E-01    4.06477E+03
 6.39280E-01    3.93435E+03
 6.72060E-01    3.79682E+03
 7.06510E-01    3.67685E+03
 7.42740E-01    3.56337E+03
 7.80820E-01    3.43646E+03
 8.20850E-01    3.32045E+03
 8.62940E-01    3.19604E+03
 9.07180E-01    3.08663E+03
 9.61640E-01    2.96302E+03
 1.00260E+00    2.86300E+03
 1.10800E+00    2.78811E+03
 1.16480E+00    2.71130E+03
 1.22460E+00    2.61236E+03
 1.28730E+00    2.48910E+03
 1.35340E+00    2.33753E+03
 1.42270E+00    2.15542E+03
 1.49570E+00    2.03184E+03
 1.57240E+00    1.97058E+03
 1.65300E+00    1.89949E+03
 1.73770E+00    1.82474E+03
 1.82680E+00    1.74613E+03
 1.92050E+00    1.66461E+03
 2.01900E+00    1.62165E+03
 2.12250E+00    1.59835E+03
 2.23130E+00    1.57805E+03
 2.30690E+00    1.56546E+03
 2.34570E+00    1.55904E+03
 2.36530E+00    1.55470E+03
 2.38520E+00    1.54369E+03
 2.46600E+00    1.52919E+03
 2.59240E+00    1.53139E+03
 2.72530E+00    1.53491E+03
 2.86500E+00    1.53868E+03
 3.01190E+00    1.55534E+03
 3.16640E+00    1.58240E+03
 3.32870E+00    1.62773E+03
 3.67880E+00    1.70906E+03
 4.06570E+00    1.80322E+03
 4.49330E+00    1.88079E+03
 4.72370E+00    1.93327E+03
 4.96590E+00    1.98616E+03
 5.22050E+00    2.03642E+03
 5.48810E+00    2.08486E+03
 5.76950E+00    2.12899E+03
 6.06530E+00    2.16851E+03
 6.37630E+00    2.19849E+03
 6.59240E+00    2.21372E+03
 6.70320E+00    2.23139E+03
 7.04690E+00    2.25341E+03
 7.40820E+00    2.26892E+03
 7.78800E+00    2.27660E+03
 8.18730E+00    2.27442E+03
 8.60710E+00    2.26537E+03
 9.04840E+00    2.24829E+03
 9.51230E+00    2.22340E+03
 1.00000E+01    2.18837E+03
 1.05130E+01    2.14628E+03
 1.10520E+01    2.09648E+03
 1.16180E+01    2.03978E+03
 1.22140E+01    1.97605E+03
 1.28400E+01    1.90760E+03
 1.34990E+01    1.85366E+03
 1.38400E+01    1.81650E+03
 1.41910E+01    1.77852E+03
 1.45500E+01    1.74044E+03
 1.49180E+01    1.68300E+03
 1.56830E+01    1.60537E+03
 1.64870E+01    1.52900E+03
