# n + In115 : (n,na)g   
# jendl.ad   kunieda                           EVAL-Mar14
# uncertainties: n
# # energies =    23
#   E(MeV)       xs(mb) 
 3.77365E+00    0.00000E+00
 3.83400E+00    1.77110E-12
 1.00000E+01    1.82730E-10
 1.05000E+01    1.14060E-08
 1.10000E+01    1.45030E-07
 1.15000E+01    2.75427E-06
 1.20000E+01    8.24866E-05
 1.25000E+01    3.56450E-04
 1.30000E+01    7.09964E-04
 1.35000E+01    1.37835E-03
 1.40000E+01    2.89601E-03
 1.45000E+01    6.04501E-03
 1.50000E+01    1.48519E-02
 1.55000E+01    2.99829E-02
 1.60000E+01    5.86409E-02
 1.65000E+01    1.06936E-01
 1.70000E+01    1.74528E-01
 1.75000E+01    2.87103E-01
 1.80000E+01    4.02505E-01
 1.85000E+01    5.60389E-01
 1.90000E+01    7.35334E-01
 1.95000E+01    9.14340E-01
 2.00000E+01    1.12692E+00
