# n + In115 : (n,n')    
# jendl.ad   kunieda                           EVAL-Mar14
# uncertainties: n
# # energies =    58
#   E(MeV)       xs(mb) 
 1.50000E-01    0.00000E+00
 2.00000E-01    6.57959E-03
 3.00000E-01    4.51161E-02
 3.39192E-01    1.41125E-01
 4.00000E-01    3.22969E+00
 5.00000E-01    6.64647E+00
 6.00000E-01    1.10292E+01
 6.02382E-01    1.11379E+01
 7.00000E-01    3.21336E+01
 8.00000E-01    4.65382E+01
 8.35854E-01    5.22056E+01
 8.71716E-01    6.54593E+01
 9.00000E-01    7.58063E+01
 9.41977E-01    8.96894E+01
 1.00000E+00    1.82158E+02
 1.20000E+00    5.97814E+02
 1.40000E+00    1.00189E+03
 1.60000E+00    1.27221E+03
 1.80000E+00    1.44245E+03
 2.00000E+00    1.54833E+03
 2.20000E+00    1.61449E+03
 2.40000E+00    1.65711E+03
 2.70000E+00    1.69883E+03
 3.00000E+00    1.73264E+03
 3.50000E+00    1.79582E+03
 4.00000E+00    1.87915E+03
 4.50000E+00    1.96747E+03
 5.00000E+00    2.03588E+03
 5.50000E+00    2.07079E+03
 6.00000E+00    2.07379E+03
 6.50000E+00    2.05657E+03
 7.00000E+00    2.02996E+03
 7.50000E+00    2.00231E+03
 8.00000E+00    1.97833E+03
 8.50000E+00    1.96069E+03
 9.00000E+00    1.94983E+03
 9.50000E+00    1.93567E+03
 1.00000E+01    1.69502E+03
 1.05000E+01    1.38305E+03
 1.10000E+01    1.10507E+03
 1.15000E+01    8.80701E+02
 1.20000E+01    7.30332E+02
 1.25000E+01    5.89082E+02
 1.30000E+01    4.94306E+02
 1.35000E+01    4.20663E+02
 1.40000E+01    3.62452E+02
 1.45000E+01    3.23886E+02
 1.50000E+01    2.92784E+02
 1.55000E+01    2.66943E+02
 1.60000E+01    2.45629E+02
 1.65000E+01    2.28227E+02
 1.70000E+01    2.14818E+02
 1.75000E+01    2.02667E+02
 1.80000E+01    1.94001E+02
 1.85000E+01    1.85253E+02
 1.90000E+01    1.77112E+02
 1.95000E+01    1.70934E+02
 2.00000E+01    1.64938E+02
