# n + In115 : (n,2n)m   
# jendl.ad   kunieda                           EVAL-Mar14
# uncertainties: n
# # energies =    23
#   E(MeV)       xs(mb) 
 9.30706E+00    0.00000E+00
 9.50000E+00    9.14244E-01
 1.00000E+01    1.96204E+02
 1.05000E+01    4.49466E+02
 1.10000E+01    6.64485E+02
 1.15000E+01    8.36730E+02
 1.20000E+01    9.45630E+02
 1.25000E+01    1.05466E+03
 1.30000E+01    1.12761E+03
 1.35000E+01    1.17999E+03
 1.40000E+01    1.22531E+03
 1.45000E+01    1.24761E+03
 1.50000E+01    1.26362E+03
 1.55000E+01    1.27300E+03
 1.60000E+01    1.27927E+03
 1.65000E+01    1.28261E+03
 1.70000E+01    1.28407E+03
 1.75000E+01    1.27669E+03
 1.80000E+01    1.23741E+03
 1.85000E+01    1.18429E+03
 1.90000E+01    1.13514E+03
 1.95000E+01    1.07227E+03
 2.00000E+01    9.88384E+02
