# n + In115 : (n,na)m   
# jendl.ad   kunieda                           EVAL-Mar14
# uncertainties: n
# # energies =    22
#   E(MeV)       xs(mb) 
 3.83400E+00    0.00000E+00
 1.00000E+01    1.14310E-09
 1.05000E+01    3.19580E-08
 1.10000E+01    5.31660E-07
 1.15000E+01    1.56820E-05
 1.20000E+01    4.90032E-04
 1.25000E+01    9.95629E-04
 1.30000E+01    1.82526E-03
 1.35000E+01    3.53241E-03
 1.40000E+01    6.64810E-03
 1.45000E+01    1.67530E-02
 1.50000E+01    3.73255E-02
 1.55000E+01    6.54634E-02
 1.60000E+01    1.39592E-01
 1.65000E+01    2.02813E-01
 1.70000E+01    3.75796E-01
 1.75000E+01    5.41822E-01
 1.80000E+01    7.94678E-01
 1.85000E+01    9.72674E-01
 1.90000E+01    1.37621E+00
 1.95000E+01    1.60745E+00
 2.00000E+01    2.04562E+00
