# n + In115 : (n,np)    
# jendl.ad   kunieda                           EVAL-Mar14
# uncertainties: n
# # energies =    26
#   E(MeV)       xs(mb) 
 6.86438E+00    0.00000E+00
 8.00000E+00    2.19930E-12
 8.50000E+00    6.34540E-07
 9.00000E+00    5.38102E-05
 9.50000E+00    6.23348E-04
 1.00000E+01    1.95726E-03
 1.05000E+01    6.09097E-03
 1.10000E+01    1.79723E-02
 1.15000E+01    4.66342E-02
 1.20000E+01    1.14876E-01
 1.25000E+01    2.50649E-01
 1.30000E+01    4.84269E-01
 1.35000E+01    8.84985E-01
 1.40000E+01    1.49182E+00
 1.45000E+01    2.37572E+00
 1.50000E+01    3.57952E+00
 1.55000E+01    5.12500E+00
 1.60000E+01    6.98400E+00
 1.65000E+01    8.88430E+00
 1.70000E+01    1.12959E+01
 1.75000E+01    1.42043E+01
 1.80000E+01    1.69838E+01
 1.85000E+01    1.97468E+01
 1.90000E+01    2.32653E+01
 1.95000E+01    2.68965E+01
 2.00000E+01    3.02325E+01
