# n + In115 : (n,n')m   
# jendl.ad   kunieda                           EVAL-Mar14
# uncertainties: n
# # energies =    55
#   E(MeV)       xs(mb) 
 3.39192E-01    0.00000E+00
 4.00000E-01    3.07835E+00
 5.00000E-01    6.27585E+00
 6.00000E-01    1.02726E+01
 6.02382E-01    1.03800E+01
 7.00000E-01    3.07921E+01
 8.00000E-01    4.43183E+01
 8.35854E-01    4.90836E+01
 8.71716E-01    6.21247E+01
 9.00000E-01    7.23732E+01
 9.41977E-01    8.50217E+01
 1.00000E+00    9.25143E+01
 1.20000E+00    1.46406E+02
 1.40000E+00    1.98437E+02
 1.60000E+00    2.35904E+02
 1.80000E+00    2.62835E+02
 2.00000E+00    2.82948E+02
 2.20000E+00    2.98627E+02
 2.40000E+00    3.11488E+02
 2.70000E+00    3.27999E+02
 3.00000E+00    3.49001E+02
 3.50000E+00    3.78756E+02
 4.00000E+00    4.13074E+02
 4.50000E+00    4.47790E+02
 5.00000E+00    4.76482E+02
 5.50000E+00    4.97667E+02
 6.00000E+00    5.13551E+02
 6.50000E+00    5.18695E+02
 7.00000E+00    5.25004E+02
 7.50000E+00    5.25131E+02
 8.00000E+00    5.30927E+02
 8.50000E+00    5.31387E+02
 9.00000E+00    5.40099E+02
 9.50000E+00    5.44857E+02
 1.00000E+01    4.97481E+02
 1.05000E+01    4.17202E+02
 1.10000E+01    3.48643E+02
 1.15000E+01    2.89843E+02
 1.20000E+01    2.49003E+02
 1.25000E+01    2.06612E+02
 1.30000E+01    1.76922E+02
 1.35000E+01    1.51744E+02
 1.40000E+01    1.32241E+02
 1.45000E+01    1.19543E+02
 1.50000E+01    1.09012E+02
 1.55000E+01    9.99436E+01
 1.60000E+01    9.23273E+01
 1.65000E+01    8.61558E+01
 1.70000E+01    8.15840E+01
 1.75000E+01    7.69060E+01
 1.80000E+01    7.32549E+01
 1.85000E+01    6.89409E+01
 1.90000E+01    6.62754E+01
 1.95000E+01    6.35488E+01
 2.00000E+01    6.19150E+01
