# n + In115 : (n,na)    
# jendl.ad   kunieda                           EVAL-Mar14
# uncertainties: n
# # energies =    23
#   E(MeV)       xs(mb) 
 3.77365E+00    0.00000E+00
 3.83400E+00    1.77110E-12
 1.00000E+01    1.32580E-09
 1.05000E+01    4.33640E-08
 1.10000E+01    6.76690E-07
 1.15000E+01    1.84363E-05
 1.20000E+01    5.72519E-04
 1.25000E+01    1.35208E-03
 1.30000E+01    2.53522E-03
 1.35000E+01    4.91076E-03
 1.40000E+01    9.54411E-03
 1.45000E+01    2.27980E-02
 1.50000E+01    5.21774E-02
 1.55000E+01    9.54463E-02
 1.60000E+01    1.98233E-01
 1.65000E+01    3.09749E-01
 1.70000E+01    5.50324E-01
 1.75000E+01    8.28925E-01
 1.80000E+01    1.19718E+00
 1.85000E+01    1.53306E+00
 1.90000E+01    2.11154E+00
 1.95000E+01    2.52179E+00
 2.00000E+01    3.17254E+00
