# n + In115 : (n,p)g    
# jendl.ad   kunieda                           EVAL-Mar14
# uncertainties: n
# # energies =    42
#   E(MeV)       xs(mb) 
 6.69611E-01    0.00000E+00
 8.52200E-01    8.61230E-12
 1.80000E+00    5.33180E-11
 2.00000E+00    1.28910E-09
 2.20000E+00    1.69730E-08
 2.40000E+00    1.45030E-07
 2.70000E+00    2.03387E-06
 3.00000E+00    1.62576E-05
 3.50000E+00    2.14563E-04
 4.00000E+00    1.31021E-03
 4.50000E+00    4.79643E-03
 5.00000E+00    1.22629E-02
 5.50000E+00    2.41875E-02
 6.00000E+00    3.73092E-02
 6.50000E+00    5.66211E-02
 7.00000E+00    7.58257E-02
 7.50000E+00    1.02270E-01
 8.00000E+00    1.43327E-01
 8.50000E+00    2.10348E-01
 9.00000E+00    3.23335E-01
 9.50000E+00    4.95840E-01
 1.00000E+01    7.49639E-01
 1.05000E+01    1.08243E+00
 1.10000E+01    1.51821E+00
 1.15000E+01    2.03278E+00
 1.20000E+01    2.64520E+00
 1.25000E+01    3.28576E+00
 1.30000E+01    4.01684E+00
 1.35000E+01    4.78372E+00
 1.40000E+01    5.51444E+00
 1.45000E+01    6.10008E+00
 1.50000E+01    6.73585E+00
 1.55000E+01    7.25995E+00
 1.60000E+01    7.70878E+00
 1.65000E+01    8.09783E+00
 1.70000E+01    8.45404E+00
 1.75000E+01    8.61009E+00
 1.80000E+01    8.99838E+00
 1.85000E+01    9.24162E+00
 1.90000E+01    9.32416E+00
 1.95000E+01    9.13513E+00
 2.00000E+01    9.33402E+00
