# n + Cf252 : (n,n'11)  
# tendl.2019 A.J. Koning and D. Rochman        EVAL-NOV19
# uncertainties: n
# # energies =    85
#   E(MeV)       xs(mb) 
 9.78206E-01    0.00000E+00
 9.79295E-01    5.76393E-01
 9.80470E-01    1.19828E+00
 9.83435E-01    2.76755E+00
 9.85396E-01    3.80547E+00
 9.88314E-01    5.34985E+00
 9.91451E-01    7.01019E+00
 9.92615E-01    7.62624E+00
 1.00000E+00    1.15349E+01
 1.00400E+00    1.29566E+01
 1.00501E+00    1.33156E+01
 1.00601E+00    1.36711E+01
 1.00701E+00    1.40265E+01
 1.00802E+00    1.43855E+01
 1.00902E+00    1.47409E+01
 1.01003E+00    1.50999E+01
 1.01103E+00    1.54553E+01
 1.01203E+00    1.58107E+01
 1.01304E+00    1.61697E+01
 1.01448E+00    1.66815E+01
 1.01721E+00    1.76518E+01
 1.20000E+00    8.26209E+01
 1.40000E+00    7.77744E+01
 1.60000E+00    5.98601E+01
 1.80000E+00    4.54993E+01
 2.00000E+00    3.47004E+01
 2.20000E+00    2.54594E+01
 2.40000E+00    1.75835E+01
 2.60000E+00    1.13868E+01
 2.80000E+00    6.97532E+00
 3.00000E+00    4.10924E+00
 3.20000E+00    2.36614E+00
 3.40000E+00    1.34520E+00
 3.60000E+00    7.61092E-01
 3.80000E+00    4.30069E-01
 4.00000E+00    2.43642E-01
 4.20000E+00    1.38784E-01
 4.40000E+00    7.96499E-02
 4.60000E+00    4.61574E-02
 4.80000E+00    2.70305E-02
 5.00000E+00    1.60181E-02
 5.20000E+00    9.57756E-03
 5.40000E+00    5.82205E-03
 5.60000E+00    3.58882E-03
 5.80000E+00    2.23707E-03
 6.00000E+00    1.41807E-03
 6.20000E+00    9.07464E-04
 6.40000E+00    5.88557E-04
 6.60000E+00    3.86097E-04
 6.80000E+00    2.55213E-04
 7.00000E+00    1.70953E-04
 7.20000E+00    1.14955E-04
 7.40000E+00    7.79563E-05
 7.60000E+00    5.32198E-05
 7.80000E+00    3.64177E-05
 8.00000E+00    2.51595E-05
 8.50000E+00    1.01324E-05
 9.00000E+00    4.19991E-06
 9.50000E+00    1.79160E-06
 1.00000E+01    7.86840E-07
 1.05000E+01    3.56350E-07
 1.10000E+01    1.66490E-07
 1.15000E+01    8.01200E-08
 1.20000E+01    3.96310E-08
 1.25000E+01    2.00940E-08
 1.30000E+01    1.04200E-08
 1.35000E+01    5.51530E-09
 1.40000E+01    2.97540E-09
 1.45000E+01    1.63470E-09
 1.50000E+01    9.14060E-10
 1.60000E+01    2.99340E-10
 1.70000E+01    1.04960E-10
 1.80000E+01    3.89560E-11
 1.90000E+01    1.51930E-11
 2.00000E+01    6.18900E-12
 2.10000E+01    2.62230E-12
 2.20000E+01    1.15180E-12
 2.30000E+01    5.23190E-13
 2.40000E+01    2.45480E-13
 2.50000E+01    1.18850E-13
 2.60000E+01    5.91890E-14
 2.70000E+01    3.02950E-14
 2.80000E+01    1.58470E-14
 2.90000E+01    8.46570E-15
 3.00000E+01    4.61510E-15
