# n + Cf252 : (n,n'16)  
# tendl.2019 A.J. Koning and D. Rochman        EVAL-NOV19
# uncertainties: n
# # energies =    80
#   E(MeV)       xs(mb) 
 9.88314E-01    0.00000E+00
 9.91451E-01    8.19712E-05
 9.92615E-01    1.12386E-04
 1.00000E+00    3.05356E-04
 1.00400E+00    6.13265E-04
 1.00501E+00    6.91018E-04
 1.00601E+00    7.67999E-04
 1.00701E+00    8.44972E-04
 1.00802E+00    9.22725E-04
 1.00902E+00    9.99697E-04
 1.01003E+00    1.07745E-03
 1.01103E+00    1.15442E-03
 1.01203E+00    1.23140E-03
 1.01304E+00    1.30915E-03
 1.01448E+00    1.42000E-03
 1.01721E+00    1.63015E-03
 1.20000E+00    1.57010E-02
 1.40000E+00    7.80952E-02
 1.60000E+00    2.54853E-01
 1.80000E+00    5.46048E-01
 2.00000E+00    8.01862E-01
 2.20000E+00    8.80897E-01
 2.40000E+00    8.13441E-01
 2.60000E+00    6.86724E-01
 2.80000E+00    5.52608E-01
 3.00000E+00    4.31484E-01
 3.20000E+00    3.29347E-01
 3.40000E+00    2.45883E-01
 3.60000E+00    1.79767E-01
 3.80000E+00    1.28751E-01
 4.00000E+00    9.06329E-02
 4.20000E+00    6.29864E-02
 4.40000E+00    4.33863E-02
 4.60000E+00    2.97507E-02
 4.80000E+00    2.03654E-02
 5.00000E+00    1.39528E-02
 5.20000E+00    9.55102E-03
 5.40000E+00    6.57792E-03
 5.60000E+00    4.54694E-03
 5.80000E+00    3.14630E-03
 6.00000E+00    2.18878E-03
 6.20000E+00    1.52162E-03
 6.40000E+00    1.06131E-03
 6.60000E+00    7.41824E-04
 6.80000E+00    5.18229E-04
 7.00000E+00    3.64517E-04
 7.20000E+00    2.55891E-04
 7.40000E+00    1.80389E-04
 7.60000E+00    1.27607E-04
 7.80000E+00    9.02453E-05
 8.00000E+00    6.43257E-05
 8.50000E+00    2.79146E-05
 9.00000E+00    1.24652E-05
 9.50000E+00    5.74026E-06
 1.00000E+01    2.72378E-06
 1.05000E+01    1.32992E-06
 1.10000E+01    6.66480E-07
 1.15000E+01    3.41630E-07
 1.20000E+01    1.78680E-07
 1.25000E+01    9.51720E-08
 1.30000E+01    5.15710E-08
 1.35000E+01    2.84150E-08
 1.40000E+01    1.59140E-08
 1.45000E+01    9.05940E-09
 1.50000E+01    5.24080E-09
 1.60000E+01    1.82870E-09
 1.70000E+01    6.78470E-10
 1.80000E+01    2.64460E-10
 1.90000E+01    1.07550E-10
 2.00000E+01    4.54230E-11
 2.10000E+01    1.98720E-11
 2.20000E+01    8.98370E-12
 2.30000E+01    4.18960E-12
 2.40000E+01    2.01290E-12
 2.50000E+01    9.95340E-13
 2.60000E+01    5.04900E-13
 2.70000E+01    2.62670E-13
 2.80000E+01    1.39470E-13
 2.90000E+01    7.55810E-14
 3.00000E+01    4.17800E-14
