# n + Eu153 : (n,xp)    
# jendl.ad   N.Iwamoto                         EVAL-Apr14
# 
# # energies =   113
#   E(MeV)        xs(mb) 
 8.39169E-02    5.69169E-16
 9.00000E-02    6.44914E-16
 9.80736E-02    7.50342E-16
 9.80737E-02    7.50343E-16
 1.00000E-01    7.75730E-16
 1.01930E-01    8.01166E-16
 1.03861E-01    8.26615E-16
 1.10000E-01    9.07523E-16
 1.20000E-01    1.05350E-15
 1.30000E-01    1.23816E-15
 1.40000E-01    1.42974E-15
 1.50000E-01    1.63622E-15
 1.52624E-01    1.69040E-15
 1.60000E-01    1.85550E-15
 1.70000E-01    2.08117E-15
 1.73993E-01    2.17128E-15
 1.80000E-01    2.30684E-15
 1.90000E-01    2.53251E-15
 1.94338E-01    2.63041E-15
 2.00000E-01    2.75818E-15
 2.25000E-01    3.55675E-15
 2.36833E-01    4.02102E-15
 2.50000E-01    4.53764E-15
 2.71515E-01    5.38928E-15
 2.75000E-01    5.52978E-15
 3.00000E-01    6.56869E-15
 3.23982E-01    7.72790E-15
 3.27210E-01    7.88610E-15
 3.99018E-01    1.14953E-14
 4.00000E-01    1.15523E-14
 4.05949E-01    1.18973E-14
 4.45542E-01    1.42157E-14
 4.51094E-01    1.45579E-14
 4.81079E-01    1.64186E-14
 4.84224E-01    1.66176E-14
 5.00000E-01    1.76153E-14
 5.41489E-01    2.02393E-14
 5.56117E-01    2.11645E-14
 5.63431E-01    2.16271E-14
 5.73065E-01    2.22364E-14
 5.88879E-01    2.32366E-14
 5.93227E-01    2.35116E-14
 6.00000E-01    2.39399E-14
 6.21251E-01    2.52840E-14
 6.38806E-01    2.63943E-14
 6.40714E-01    2.65149E-14
 6.45819E-01    2.68378E-14
 6.59018E-01    2.76726E-14
 6.62018E-01    2.78623E-14
 6.86398E-01    2.94043E-14
 6.98764E-01    3.01864E-14
 7.00000E-01    3.02645E-14
 7.06016E-01    3.06450E-14
 7.11290E-01    3.09786E-14
 7.15790E-01    3.12632E-14
 7.17814E-01    3.13912E-14
 7.20897E-01    3.15862E-14
 7.23430E-01    3.17464E-14
 7.37352E-01    3.26269E-14
 7.40855E-01    3.28485E-14
 7.65406E-01    3.44012E-14
 7.68838E-01    3.46183E-14
 8.00000E-01    3.65892E-14
 9.00000E-01    4.29138E-14
 1.00000E+00    4.92384E-14
 1.10000E+00    5.55630E-14
 1.20000E+00    1.98260E-13
 1.30000E+00    1.35720E-12
 1.40000E+00    8.58450E-12
 1.50000E+00    4.47660E-11
 1.60000E+00    1.96520E-10
 1.70000E+00    7.45100E-10
 1.80000E+00    2.49350E-09
 1.90000E+00    7.48510E-09
 2.00000E+00    2.04380E-08
 2.25000E+00    1.81780E-07
 2.50000E+00    1.06231E-06
 2.75000E+00    4.66155E-06
 3.00000E+00    1.60398E-05
 3.50000E+00    1.13436E-04
 4.00000E+00    4.38899E-04
 4.50000E+00    1.26549E-03
 5.00000E+00    2.83854E-03
 5.50000E+00    5.29716E-03
 6.00000E+00    8.65055E-03
 6.50000E+00    1.28884E-02
 7.00000E+00    1.82531E-02
 7.50000E+00    2.58197E-02
 8.00000E+00    3.79798E-02
 8.50000E+00    5.88751E-02
 9.00000E+00    9.49135E-02
 9.50000E+00    1.55220E-01
 1.00000E+01    2.52117E-01
 1.05000E+01    4.01067E-01
 1.10000E+01    6.19663E-01
 1.15000E+01    9.25959E-01
 1.20000E+01    1.33639E+00
 1.25000E+01    1.86408E+00
 1.30000E+01    2.51791E+00
 1.35000E+01    3.30315E+00
 1.40000E+01    4.22160E+00
 1.45000E+01    5.27294E+00
 1.50000E+01    6.45557E+00
 1.55000E+01    7.76659E+00
 1.60000E+01    9.20708E+00
 1.65000E+01    1.07728E+01
 1.70000E+01    1.24612E+01
 1.75000E+01    1.42733E+01
 1.80000E+01    1.61988E+01
 1.85000E+01    1.82400E+01
 1.90000E+01    2.03822E+01
 1.95000E+01    2.26276E+01
 2.00000E+01    2.49595E+01
