# n + Eu153 : (n,tot)   
# jendl.ad   N.Iwamoto                         EVAL-Apr14
# uncertainties: n
# # energies =   171
#   E(MeV)       xs(mb) 
 1.00000E-11    3.48038E+06
 1.00000E-07    9.47682E+04
 4.13990E-07    5.09415E+04
 5.31580E-07    4.28846E+04
 6.82560E-07    3.70950E+04
 8.76420E-07    3.43526E+04
 1.12540E-06    3.87058E+04
 1.44500E-06    1.64985E+05
 1.85540E-06    3.14386E+05
 2.37240E-06    1.36553E+06
 3.05900E-06    8.81088E+05
 3.92790E-06    3.32402E+05
 5.04350E-06    1.33409E+05
 6.47600E-06    1.93242E+04
 8.31530E-06    3.97451E+05
 1.06770E-05    2.60272E+05
 1.37100E-05    6.68205E+04
 1.76030E-05    4.53696E+05
 2.26030E-05    7.23026E+04
 2.92030E-05    9.17151E+04
 3.72670E-05    1.24468E+05
 4.78510E-05    1.97879E+05
 6.14420E-05    1.27369E+05
 7.88930E-05    9.25522E+04
 1.01300E-04    7.25626E+04
 1.30070E-04    5.33243E+04
 1.67020E-04    6.49415E+04
 2.14450E-04    5.54766E+04
 2.75360E-04    4.74016E+04
 3.53580E-04    4.04582E+04
 4.54000E-04    3.43227E+04
 5.82950E-04    2.90733E+04
 7.48520E-04    2.45632E+04
 9.61120E-04    2.06952E+04
 1.23410E-03    1.73922E+04
 1.58460E-03    1.46131E+04
 2.03470E-03    1.29272E+04
 2.24870E-03    1.20581E+04
 2.48520E-03    1.14411E+04
 2.61260E-03    1.10493E+04
 2.74650E-03    1.04909E+04
 3.03540E-03    9.78703E+03
 3.35460E-03    9.12766E+03
 3.70740E-03    8.37067E+03
 4.30740E-03    7.30446E+03
 5.53080E-03    6.15547E+03
 7.10170E-03    5.20246E+03
 9.11880E-03    4.42131E+03
 1.17090E-02    3.80109E+03
 1.50340E-02    3.27031E+03
 1.93050E-02    2.92637E+03
 2.18750E-02    2.77433E+03
 2.35790E-02    2.70082E+03
 2.41760E-02    2.66518E+03
 2.47880E-02    2.61307E+03
 2.60580E-02    2.55532E+03
 2.70000E-02    2.49415E+03
 2.85000E-02    2.38905E+03
 3.18280E-02    2.28217E+03
 3.43070E-02    2.14798E+03
 4.08680E-02    2.00162E+03
 4.63090E-02    1.89180E+03
 5.24750E-02    1.80843E+03
 5.65620E-02    1.71222E+03
 6.73790E-02    1.62666E+03
 7.20000E-02    1.57261E+03
 7.95000E-02    1.52941E+03
 8.25000E-02    1.49276E+03
 8.65170E-02    1.37973E+03
 9.80370E-02    1.20046E+03
 1.11090E-01    1.08830E+03
 1.16790E-01    1.04829E+03
 1.22770E-01    1.01478E+03
 1.29070E-01    9.83726E+02
 1.35690E-01    9.56130E+02
 1.42640E-01    9.32278E+02
 1.49960E-01    8.99305E+02
 1.57640E-01    8.43023E+02
 1.65730E-01    8.13953E+02
 1.74220E-01    7.69543E+02
 1.83160E-01    7.32302E+02
 1.92550E-01    7.00775E+02
 2.02420E-01    6.73175E+02
 2.12800E-01    6.51809E+02
 2.23710E-01    6.32585E+02
 2.35180E-01    6.13374E+02
 2.47240E-01    5.87154E+02
 2.73240E-01    5.62126E+02
 2.87250E-01    5.51923E+02
 2.94520E-01    5.47269E+02
 2.97200E-01    5.45411E+02
 2.98500E-01    5.43241E+02
 3.01970E-01    5.28762E+02
 3.33730E-01    5.05134E+02
 3.68830E-01    4.88776E+02
 3.87740E-01    4.77251E+02
 4.07620E-01    4.62924E+02
 4.50490E-01    4.37413E+02
 4.97870E-01    4.24018E+02
 5.23400E-01    4.18984E+02
 5.50230E-01    4.13559E+02
 5.78440E-01    4.05228E+02
 6.08100E-01    3.97839E+02
 6.39280E-01    3.85559E+02
 6.72060E-01    3.72763E+02
 7.06510E-01    3.51014E+02
 7.42740E-01    3.28683E+02
 7.80820E-01    3.11699E+02
 8.20850E-01    2.98982E+02
 8.62940E-01    2.87135E+02
 9.07180E-01    2.74086E+02
 9.61640E-01    2.62191E+02
 1.00260E+00    2.46888E+02
 1.10800E+00    2.31992E+02
 1.16480E+00    2.22785E+02
 1.22460E+00    2.14020E+02
 1.28730E+00    2.05734E+02
 1.35340E+00    1.97794E+02
 1.42270E+00    1.90227E+02
 1.49570E+00    1.82839E+02
 1.57240E+00    1.75639E+02
 1.65300E+00    1.68659E+02
 1.73770E+00    1.61897E+02
 1.82680E+00    1.55271E+02
 1.92050E+00    1.48714E+02
 2.01900E+00    1.41217E+02
 2.12250E+00    1.33621E+02
 2.23130E+00    1.26884E+02
 2.30690E+00    1.22035E+02
 2.34570E+00    1.19687E+02
 2.36530E+00    1.18103E+02
 2.38520E+00    1.14269E+02
 2.46600E+00    1.06958E+02
 2.59240E+00    9.87723E+01
 2.72530E+00    9.03081E+01
 2.86500E+00    8.09874E+01
 3.01190E+00    7.19410E+01
 3.16640E+00    6.35007E+01
 3.32870E+00    5.30110E+01
 3.67880E+00    4.27215E+01
 4.06570E+00    3.41881E+01
 4.49330E+00    2.84759E+01
 4.72370E+00    2.49007E+01
 4.96590E+00    2.16371E+01
 5.22050E+00    1.85755E+01
 5.48810E+00    1.58734E+01
 5.76950E+00    1.34691E+01
 6.06530E+00    1.12238E+01
 6.37630E+00    1.05904E+03
 6.59240E+00    2.71229E+03
 6.70320E+00    2.69985E+03
 7.04690E+00    2.67951E+03
 7.40820E+00    2.65717E+03
 7.78800E+00    2.63259E+03
 8.18730E+00    2.60421E+03
 8.60710E+00    2.57486E+03
 9.04840E+00    2.57276E+03
 9.51230E+00    2.56326E+03
 1.00000E+01    2.54619E+03
 1.05130E+01    2.52142E+03
 1.10520E+01    2.49142E+03
 1.16180E+01    2.45804E+03
 1.22140E+01    2.42199E+03
 1.28400E+01    2.38371E+03
 1.34990E+01    2.35391E+03
 1.38400E+01    2.33326E+03
 1.41910E+01    2.31234E+03
 1.45500E+01    2.29138E+03
 1.49180E+01    2.25864E+03
 1.56830E+01    2.22353E+03
 1.64870E+01    2.18171E+03
