# n + Mo 94 : (n,p)m    
# jendl.ad   K.Shibata, A.Ichihara, S.Kunieda  EVAL-APR13
# uncertainties: n
# # energies =    27
#   E(MeV)       xs(mb) 
 1.31776E+00    0.00000E+00
 3.00000E+00    0.00000E+00
 3.50000E+00    2.19700E-03
 4.00000E+00    4.71700E-02
 4.50000E+00    2.56300E-01
 5.00000E+00    8.08200E-01
 5.50000E+00    1.83500E+00
 6.00000E+00    3.42400E+00
 6.50000E+00    5.28700E+00
 7.00000E+00    7.69800E+00
 7.50000E+00    9.66400E+00
 8.00000E+00    1.16500E+01
 8.50000E+00    1.38100E+01
 9.00000E+00    1.62800E+01
 9.50000E+00    1.87200E+01
 1.00000E+01    2.21800E+01
 1.10000E+01    2.94800E+01
 1.20000E+01    3.75300E+01
 1.30000E+01    4.34900E+01
 1.40000E+01    4.40500E+01
 1.45000E+01    4.12200E+01
 1.50000E+01    3.92700E+01
 1.60000E+01    3.25400E+01
 1.70000E+01    2.68400E+01
 1.80000E+01    2.32600E+01
 1.90000E+01    2.09700E+01
 2.00000E+01    1.94200E+01
