# n + Be  9 :  n        
# jeff3.3    VIENNA, OBNINSK                   EVAL-JAN97
# uncertainties: y
# # energies =    40
#   E(MeV)       xs(mb)       xslow(mb)      xsupp(mb)
 1.85180E+00    0.00000E+00    0.00000E+00    0.00000E+00
 2.00000E+00    2.27000E+00    2.27000E+00    2.27000E+00
 2.20000E+00    8.46000E+00    8.46000E+00    8.46000E+00
 2.40000E+00    1.76200E+01    1.76200E+01    1.76200E+01
 2.60000E+00    2.75400E+01    2.75400E+01    2.75400E+01
 2.70000E+00    3.15000E+01    3.15000E+01    3.15000E+01
 2.80000E+00    3.40000E+01    3.40000E+01    3.40000E+01
 3.00000E+00    3.52000E+01    3.52000E+01    3.52000E+01
 3.20000E+00    3.40000E+01    3.40000E+01    3.40000E+01
 3.40000E+00    3.30000E+01    3.30000E+01    3.30000E+01
 3.60000E+00    3.25000E+01    3.25000E+01    3.25000E+01
 3.80000E+00    3.20000E+01    3.20000E+01    3.20000E+01
 4.00000E+00    3.20000E+01    3.20000E+01    3.20000E+01
 4.50000E+00    3.22500E+01    3.22500E+01    3.22500E+01
 5.00000E+00    3.25000E+01    3.25000E+01    3.25000E+01
 5.50000E+00    3.28000E+01    3.28000E+01    3.28000E+01
 6.00000E+00    3.30000E+01    3.30000E+01    3.30000E+01
 6.50000E+00    3.27000E+01    3.27000E+01    3.27000E+01
 7.00000E+00    3.23000E+01    3.23000E+01    3.23000E+01
 7.50000E+00    3.28000E+01    3.28000E+01    3.28000E+01
 8.00000E+00    3.33000E+01    3.33000E+01    3.33000E+01
 8.50000E+00    3.27000E+01    3.27000E+01    3.27000E+01
 9.00000E+00    3.20000E+01    3.20000E+01    3.20000E+01
 9.50000E+00    3.33000E+01    3.33000E+01    3.33000E+01
 1.00000E+01    3.46000E+01    3.46000E+01    3.46000E+01
 1.05000E+01    3.60000E+01    3.60000E+01    3.60000E+01
 1.10000E+01    3.74000E+01    3.74000E+01    3.74000E+01
 1.15000E+01    3.72000E+01    3.72000E+01    3.72000E+01
 1.20000E+01    3.70000E+01    3.70000E+01    3.70000E+01
 1.25000E+01    3.77000E+01    3.77000E+01    3.77000E+01
 1.30000E+01    3.84000E+01    3.84000E+01    3.84000E+01
 1.35000E+01    3.93000E+01    3.93000E+01    3.93000E+01
 1.40000E+01    4.01000E+01    4.01000E+01    4.01000E+01
 1.45000E+01    3.76000E+01    3.76000E+01    3.76000E+01
 1.50000E+01    4.17000E+01    4.17000E+01    4.17000E+01
 1.60000E+01    3.93000E+01    3.93000E+01    3.93000E+01
 1.70000E+01    3.46000E+01    3.46000E+01    3.46000E+01
 1.80000E+01    3.49000E+01    3.49000E+01    3.49000E+01
 1.90000E+01    3.32000E+01    3.32000E+01    3.32000E+01
 2.00000E+01    3.27000E+01    3.27000E+01    3.27000E+01
