# n + Zn 64 : (n,n'08)  
# jeff3.3    A.J. Koning and D. Rochman        EVAL-JAN16
# uncertainties: n
# # energies =    77
#   E(MeV)       xs(mb) 
 3.02681E+00    0.00000E+00
 3.04590E+00    4.70191E+00
 3.05313E+00    6.48261E+00
 3.11966E+00    2.28689E+01
 3.12633E+00    2.45118E+01
 3.14342E+00    2.87210E+01
 3.20000E+00    4.26567E+01
 3.23707E+00    4.54025E+01
 3.24724E+00    4.61558E+01
 3.25651E+00    4.68424E+01
 3.29112E+00    4.94060E+01
 3.31346E+00    5.10607E+01
 3.33683E+00    5.27918E+01
 3.34921E+00    5.37088E+01
 3.35906E+00    5.44384E+01
 3.37421E+00    5.55605E+01
 3.40000E+00    5.74708E+01
 3.41907E+00    5.77035E+01
 3.42300E+00    5.77515E+01
 3.46888E+00    5.83114E+01
 3.47919E+00    5.84372E+01
 3.50677E+00    5.87738E+01
 3.51320E+00    5.88522E+01
 3.51967E+00    5.89312E+01
 3.55522E+00    5.93650E+01
 3.60000E+00    5.99115E+01
 3.80000E+00    5.54731E+01
 4.00000E+00    4.89558E+01
 4.20000E+00    4.19036E+01
 4.40000E+00    3.51673E+01
 4.60000E+00    2.92937E+01
 4.80000E+00    2.43779E+01
 5.00000E+00    2.02415E+01
 5.20000E+00    1.68159E+01
 5.40000E+00    1.40254E+01
 5.60000E+00    1.17513E+01
 5.80000E+00    9.87217E+00
 6.00000E+00    8.32569E+00
 6.20000E+00    7.03696E+00
 6.40000E+00    5.94960E+00
 6.60000E+00    5.04620E+00
 6.80000E+00    4.27786E+00
 7.00000E+00    3.62971E+00
 7.20000E+00    3.08395E+00
 7.40000E+00    2.61453E+00
 7.60000E+00    2.22246E+00
 7.80000E+00    1.88790E+00
 8.00000E+00    1.60106E+00
 8.50000E+00    1.06467E+00
 9.00000E+00    7.10214E-01
 9.50000E+00    4.75640E-01
 1.00000E+01    3.19920E-01
 1.05000E+01    2.16104E-01
 1.10000E+01    1.46587E-01
 1.15000E+01    9.97144E-02
 1.20000E+01    6.80527E-02
 1.25000E+01    4.65527E-02
 1.30000E+01    3.19205E-02
 1.35000E+01    2.18970E-02
 1.40000E+01    1.50489E-02
 1.45000E+01    1.03672E-02
 1.50000E+01    7.15479E-03
 1.60000E+01    3.44107E-03
 1.70000E+01    1.67168E-03
 1.80000E+01    8.20693E-04
 1.90000E+01    4.07106E-04
 2.00000E+01    2.03655E-04
 2.10000E+01    1.02900E-04
 2.20000E+01    5.21675E-05
 2.30000E+01    2.66761E-05
 2.40000E+01    1.37975E-05
 2.50000E+01    7.01589E-06
 2.60000E+01    3.65389E-06
 2.70000E+01    1.90932E-06
 2.80000E+01    9.99180E-07
 2.90000E+01    5.23450E-07
 3.00000E+01    2.73880E-07
