# n + Zn 64 : (n,n'05)  
# jeff3.3    A.J. Koning and D. Rochman        EVAL-JAN16
# uncertainties: n
# # energies =    82
#   E(MeV)       xs(mb) 
 2.65063E+00    0.00000E+00
 2.77971E+00    2.53804E+01
 2.80000E+00    2.93699E+01
 2.83778E+00    3.19702E+01
 3.00000E+00    4.31356E+01
 3.02681E+00    4.38500E+01
 3.04590E+00    4.43587E+01
 3.05313E+00    4.45513E+01
 3.11966E+00    4.63241E+01
 3.12633E+00    4.65019E+01
 3.14342E+00    4.69572E+01
 3.20000E+00    4.84649E+01
 3.23707E+00    4.70988E+01
 3.24724E+00    4.67240E+01
 3.25651E+00    4.63824E+01
 3.29112E+00    4.51069E+01
 3.31346E+00    4.42836E+01
 3.33683E+00    4.34224E+01
 3.34921E+00    4.29661E+01
 3.35906E+00    4.26031E+01
 3.37421E+00    4.20448E+01
 3.40000E+00    4.10944E+01
 3.41907E+00    4.03323E+01
 3.42300E+00    4.01753E+01
 3.46888E+00    3.83419E+01
 3.47919E+00    3.79298E+01
 3.50677E+00    3.68277E+01
 3.51320E+00    3.65708E+01
 3.51967E+00    3.63122E+01
 3.55522E+00    3.48916E+01
 3.60000E+00    3.31021E+01
 3.80000E+00    2.58744E+01
 4.00000E+00    2.00240E+01
 4.20000E+00    1.55607E+01
 4.40000E+00    1.22212E+01
 4.60000E+00    9.68475E+00
 4.80000E+00    7.72228E+00
 5.00000E+00    6.23212E+00
 5.20000E+00    5.07356E+00
 5.40000E+00    4.15961E+00
 5.60000E+00    3.43244E+00
 5.80000E+00    2.84105E+00
 6.00000E+00    2.35975E+00
 6.20000E+00    1.96321E+00
 6.40000E+00    1.63302E+00
 6.60000E+00    1.36227E+00
 6.80000E+00    1.13580E+00
 7.00000E+00    9.47940E-01
 7.20000E+00    7.92440E-01
 7.40000E+00    6.61307E-01
 7.60000E+00    5.53583E-01
 7.80000E+00    4.63318E-01
 8.00000E+00    3.87420E-01
 8.50000E+00    2.49439E-01
 9.00000E+00    1.61881E-01
 9.50000E+00    1.05982E-01
 1.00000E+01    6.99936E-02
 1.05000E+01    4.65950E-02
 1.10000E+01    3.12374E-02
 1.15000E+01    2.10456E-02
 1.20000E+01    1.42470E-02
 1.25000E+01    9.67672E-03
 1.30000E+01    6.59207E-03
 1.35000E+01    4.49468E-03
 1.40000E+01    3.07160E-03
 1.45000E+01    2.10519E-03
 1.50000E+01    1.44635E-03
 1.60000E+01    6.90895E-04
 1.70000E+01    3.34248E-04
 1.80000E+01    1.63626E-04
 1.90000E+01    8.08994E-05
 2.00000E+01    4.02722E-05
 2.10000E+01    2.02110E-05
 2.20000E+01    1.01637E-05
 2.30000E+01    5.15327E-06
 2.40000E+01    2.64422E-06
 2.50000E+01    1.33542E-06
 2.60000E+01    6.91670E-07
 2.70000E+01    3.59830E-07
 2.80000E+01    1.87600E-07
 2.90000E+01    9.79320E-08
 3.00000E+01    5.10520E-08
