# n + Zn 64 : (n,xa)    
# jeff3.3    A.J. Koning and D. Rochman        EVAL-JAN16
# 
# # energies =   124
#   E(MeV)        xs(mb) 
 1.00720E+00    1.53611E+00
 1.20000E+00    1.39153E+00
 1.40000E+00    2.45630E+00
 1.60000E+00    3.82618E+00
 1.80000E+00    6.46374E+00
 1.82775E+00    6.82917E+00
 1.94046E+00    8.29039E+00
 2.00000E+00    9.06229E+00
 2.20000E+00    1.25301E+01
 2.34315E+00    1.71707E+01
 2.40000E+00    1.90137E+01
 2.60000E+00    2.67056E+01
 2.65063E+00    2.92797E+01
 2.77971E+00    3.58421E+01
 2.80000E+00    3.68737E+01
 2.83778E+00    3.91050E+01
 3.00000E+00    4.86859E+01
 3.02681E+00    4.94751E+01
 3.04590E+00    5.00370E+01
 3.05313E+00    5.02499E+01
 3.11966E+00    5.22082E+01
 3.12633E+00    5.24046E+01
 3.14342E+00    5.29077E+01
 3.20000E+00    5.45732E+01
 3.23707E+00    5.52064E+01
 3.24724E+00    5.53801E+01
 3.25651E+00    5.55384E+01
 3.29112E+00    5.61296E+01
 3.31346E+00    5.65112E+01
 3.33683E+00    5.69104E+01
 3.34921E+00    5.71219E+01
 3.35906E+00    5.72901E+01
 3.37421E+00    5.75489E+01
 3.40000E+00    5.79894E+01
 3.41907E+00    5.81661E+01
 3.42300E+00    5.82025E+01
 3.46888E+00    5.86275E+01
 3.47919E+00    5.87230E+01
 3.50677E+00    5.89785E+01
 3.51320E+00    5.90380E+01
 3.51967E+00    5.90980E+01
 3.55522E+00    5.94273E+01
 3.60000E+00    5.98421E+01
 3.80000E+00    6.05576E+01
 4.00000E+00    6.18993E+01
 4.20000E+00    6.32410E+01
 4.40000E+00    6.43036E+01
 4.60000E+00    6.53663E+01
 4.80000E+00    6.71036E+01
 5.00000E+00    6.71477E+01
 5.20000E+00    6.78470E+01
 5.40000E+00    6.82989E+01
 5.60000E+00    6.82032E+01
 5.80000E+00    6.97123E+01
 6.00000E+00    6.85772E+01
 6.20000E+00    6.87391E+01
 6.40000E+00    7.02045E+01
 6.60000E+00    6.91691E+01
 6.80000E+00    7.07173E+01
 7.00000E+00    7.05631E+01
 7.20000E+00    7.04783E+01
 7.40000E+00    7.31911E+01
 7.60000E+00    7.35648E+01
 7.80000E+00    7.57442E+01
 8.00000E+00    7.67967E+01
 8.50000E+00    8.18341E+01
 9.00000E+00    8.95251E+01
 9.50000E+00    1.02601E+02
 1.00000E+01    1.22338E+02
 1.05000E+01    1.47212E+02
 1.10000E+01    1.73260E+02
 1.15000E+01    1.97428E+02
 1.20000E+01    2.17137E+02
 1.25000E+01    2.31635E+02
 1.30000E+01    2.38705E+02
 1.35000E+01    2.41604E+02
 1.40000E+01    2.42220E+02
 1.45000E+01    2.41571E+02
 1.50000E+01    2.39856E+02
 1.60000E+01    2.36274E+02
 1.70000E+01    2.34537E+02
 1.80000E+01    2.32867E+02
 1.90000E+01    2.30673E+02
 2.00000E+01    2.26439E+02
 2.10000E+01    2.22455E+02
 2.20000E+01    2.18508E+02
 2.30000E+01    2.14878E+02
 2.40000E+01    2.11396E+02
 2.50000E+01    2.07652E+02
 2.60000E+01    2.04675E+02
 2.70000E+01    2.01882E+02
 2.80000E+01    1.99169E+02
 2.90000E+01    1.96193E+02
 3.00000E+01    1.93054E+02
 3.00000E+01    1.92092E+02
 3.20000E+01    1.86249E+02
 3.40000E+01    1.80081E+02
 3.60000E+01    1.74380E+02
 3.80000E+01    1.69713E+02
 4.00000E+01    1.65590E+02
 4.20000E+01    1.63081E+02
 4.40000E+01    1.61422E+02
 4.60000E+01    1.60183E+02
 4.80000E+01    1.61674E+02
 5.00000E+01    1.60906E+02
 5.20000E+01    1.61542E+02
 5.40000E+01    1.61783E+02
 5.60000E+01    1.62323E+02
 5.80000E+01    1.62836E+02
 6.00000E+01    1.63502E+02
 6.50000E+01    1.64422E+02
 7.00000E+01    1.66659E+02
 7.50000E+01    1.69054E+02
 8.00000E+01    1.71839E+02
 9.00000E+01    1.78259E+02
 1.00000E+02    1.85466E+02
 1.10000E+02    1.89462E+02
 1.20000E+02    1.93754E+02
 1.30000E+02    1.97175E+02
 1.40000E+02    2.00898E+02
 1.50000E+02    2.06505E+02
 1.60000E+02    2.14112E+02
 1.80000E+02    2.24567E+02
 2.00000E+02    2.44600E+02
