# n + Zn 64 : (n,xp)    
# jeff3.3    A.J. Koning and D. Rochman        EVAL-JAN16
# 
# # energies =   124
#   E(MeV)        xs(mb) 
 1.00720E+00    7.30807E-02
 1.20000E+00    2.18220E-01
 1.40000E+00    5.69066E-01
 1.60000E+00    1.41509E+00
 1.80000E+00    3.27105E+00
 1.82775E+00    3.78282E+00
 1.94046E+00    5.86146E+00
 2.00000E+00    6.95952E+00
 2.20000E+00    1.36245E+01
 2.34315E+00    2.14003E+01
 2.40000E+00    2.44884E+01
 2.60000E+00    4.01671E+01
 2.65063E+00    4.51318E+01
 2.77971E+00    5.77893E+01
 2.80000E+00    5.97789E+01
 2.83778E+00    6.37514E+01
 3.00000E+00    8.08083E+01
 3.02681E+00    8.34254E+01
 3.04590E+00    8.52889E+01
 3.05313E+00    8.59946E+01
 3.11966E+00    9.24891E+01
 3.12633E+00    9.31402E+01
 3.14342E+00    9.48085E+01
 3.20000E+00    1.00332E+02
 3.23707E+00    1.03337E+02
 3.24724E+00    1.04161E+02
 3.25651E+00    1.04913E+02
 3.29112E+00    1.07719E+02
 3.31346E+00    1.09530E+02
 3.33683E+00    1.11424E+02
 3.34921E+00    1.12428E+02
 3.35906E+00    1.13227E+02
 3.37421E+00    1.14455E+02
 3.40000E+00    1.16546E+02
 3.41907E+00    1.17749E+02
 3.42300E+00    1.17997E+02
 3.46888E+00    1.20892E+02
 3.47919E+00    1.21542E+02
 3.50677E+00    1.23282E+02
 3.51320E+00    1.23688E+02
 3.51967E+00    1.24096E+02
 3.55522E+00    1.26339E+02
 3.60000E+00    1.29165E+02
 3.80000E+00    1.38839E+02
 4.00000E+00    1.46458E+02
 4.20000E+00    1.52693E+02
 4.40000E+00    1.58222E+02
 4.60000E+00    1.63532E+02
 4.80000E+00    1.68490E+02
 5.00000E+00    1.73447E+02
 5.20000E+00    1.78404E+02
 5.40000E+00    1.83362E+02
 5.60000E+00    1.88319E+02
 5.80000E+00    1.93277E+02
 6.00000E+00    1.98234E+02
 6.20000E+00    2.02785E+02
 6.40000E+00    2.07335E+02
 6.60000E+00    2.11886E+02
 6.80000E+00    2.15803E+02
 7.00000E+00    2.19721E+02
 7.20000E+00    2.23307E+02
 7.40000E+00    2.26569E+02
 7.60000E+00    2.29682E+02
 7.80000E+00    2.32320E+02
 8.00000E+00    2.34958E+02
 8.50000E+00    2.39985E+02
 9.00000E+00    2.44659E+02
 9.50000E+00    2.52830E+02
 1.00000E+01    2.78441E+02
 1.05000E+01    3.28029E+02
 1.10000E+01    3.94604E+02
 1.15000E+01    4.71223E+02
 1.20000E+01    5.45792E+02
 1.25000E+01    6.07589E+02
 1.30000E+01    6.48488E+02
 1.35000E+01    6.73318E+02
 1.40000E+01    6.83697E+02
 1.45000E+01    6.81877E+02
 1.50000E+01    6.77686E+02
 1.60000E+01    6.60938E+02
 1.70000E+01    6.42914E+02
 1.80000E+01    6.25975E+02
 1.90000E+01    6.10809E+02
 2.00000E+01    5.99383E+02
 2.10000E+01    5.97712E+02
 2.20000E+01    6.02799E+02
 2.30000E+01    6.17105E+02
 2.40000E+01    6.37263E+02
 2.50000E+01    6.52783E+02
 2.60000E+01    6.66525E+02
 2.70000E+01    6.75812E+02
 2.80000E+01    6.81078E+02
 2.90000E+01    6.82916E+02
 3.00000E+01    6.82390E+02
 3.00000E+01    6.82231E+02
 3.20000E+01    6.83352E+02
 3.40000E+01    6.84313E+02
 3.60000E+01    6.89307E+02
 3.80000E+01    6.95173E+02
 4.00000E+01    7.10788E+02
 4.20000E+01    7.30309E+02
 4.40000E+01    7.48191E+02
 4.60000E+01    7.63567E+02
 4.80000E+01    7.68950E+02
 5.00000E+01    7.81579E+02
 5.20000E+01    7.92601E+02
 5.40000E+01    8.03007E+02
 5.60000E+01    8.14289E+02
 5.80000E+01    8.23046E+02
 6.00000E+01    8.29770E+02
 6.50000E+01    8.50472E+02
 7.00000E+01    8.72938E+02
 7.50000E+01    8.91541E+02
 8.00000E+01    9.12620E+02
 9.00000E+01    9.57273E+02
 1.00000E+02    1.00145E+03
 1.10000E+02    1.05199E+03
 1.20000E+02    1.10791E+03
 1.30000E+02    1.16563E+03
 1.40000E+02    1.22838E+03
 1.50000E+02    1.30285E+03
 1.60000E+02    1.38483E+03
 1.80000E+02    1.54371E+03
 2.00000E+02    1.70140E+03
