# n + Zn 64 : (n,n'06)  
# jeff3.3    A.J. Koning and D. Rochman        EVAL-JAN16
# uncertainties: n
# # energies =    81
#   E(MeV)       xs(mb) 
 2.77971E+00    0.00000E+00
 2.80000E+00    6.37742E+00
 2.83778E+00    1.21268E+01
 3.00000E+00    3.68137E+01
 3.02681E+00    3.89073E+01
 3.04590E+00    4.03981E+01
 3.05313E+00    4.09626E+01
 3.11966E+00    4.61580E+01
 3.12633E+00    4.66789E+01
 3.14342E+00    4.80134E+01
 3.20000E+00    5.24318E+01
 3.23707E+00    5.36026E+01
 3.24724E+00    5.39238E+01
 3.25651E+00    5.42166E+01
 3.29112E+00    5.53097E+01
 3.31346E+00    5.60152E+01
 3.33683E+00    5.67533E+01
 3.34921E+00    5.71443E+01
 3.35906E+00    5.74554E+01
 3.37421E+00    5.79339E+01
 3.40000E+00    5.87484E+01
 3.41907E+00    5.84796E+01
 3.42300E+00    5.84242E+01
 3.46888E+00    5.77776E+01
 3.47919E+00    5.76323E+01
 3.50677E+00    5.72436E+01
 3.51320E+00    5.71530E+01
 3.51967E+00    5.70618E+01
 3.55522E+00    5.65608E+01
 3.60000E+00    5.59297E+01
 3.80000E+00    4.98316E+01
 4.00000E+00    4.29307E+01
 4.20000E+00    3.63005E+01
 4.40000E+00    3.05141E+01
 4.60000E+00    2.56986E+01
 4.80000E+00    2.14927E+01
 5.00000E+00    1.80699E+01
 5.20000E+00    1.52590E+01
 5.40000E+00    1.29381E+01
 5.60000E+00    1.10224E+01
 5.80000E+00    9.41383E+00
 6.00000E+00    8.06892E+00
 6.20000E+00    6.93181E+00
 6.40000E+00    5.95985E+00
 6.60000E+00    5.14451E+00
 6.80000E+00    4.44462E+00
 7.00000E+00    3.84973E+00
 7.20000E+00    3.34532E+00
 7.40000E+00    2.90809E+00
 7.60000E+00    2.54060E+00
 7.80000E+00    2.22431E+00
 8.00000E+00    1.95113E+00
 8.50000E+00    1.43310E+00
 9.00000E+00    1.08297E+00
 9.50000E+00    8.45364E-01
 1.00000E+01    6.83095E-01
 1.05000E+01    5.71339E-01
 1.10000E+01    4.93586E-01
 1.15000E+01    4.38684E-01
 1.20000E+01    3.99415E-01
 1.25000E+01    3.70747E-01
 1.30000E+01    3.49359E-01
 1.35000E+01    3.32919E-01
 1.40000E+01    3.19944E-01
 1.45000E+01    3.09393E-01
 1.50000E+01    3.00577E-01
 1.60000E+01    2.86578E-01
 1.70000E+01    2.75980E-01
 1.80000E+01    2.67750E-01
 1.90000E+01    2.60985E-01
 2.00000E+01    2.54859E-01
 2.10000E+01    2.48813E-01
 2.20000E+01    2.42649E-01
 2.30000E+01    2.36474E-01
 2.40000E+01    2.30499E-01
 2.50000E+01    2.24933E-01
 2.60000E+01    2.19883E-01
 2.70000E+01    2.15352E-01
 2.80000E+01    2.11256E-01
 2.90000E+01    2.07466E-01
 3.00000E+01    2.03844E-01
