# n + Pu237 : (n,xn)    
# jendl4.0   O.Iwamoto,T.Nakagawa+             EVAL-FEB10
# 
# # energies =    97
#   E(MeV)        xs(mb) 
 4.79130E-02    0.00000E+00
 5.00000E-02    7.19317E+00
 7.00000E-02    2.80047E+01
 1.00000E-01    5.57992E+01
 1.04106E-01    5.93113E+01
 1.06451E-01    6.13174E+01
 1.20000E-01    7.55873E+01
 1.40000E-01    9.78705E+01
 1.46163E-01    1.04781E+02
 1.56111E-01    1.15419E+02
 1.56112E-01    1.15421E+02
 1.70000E-01    1.33024E+02
 1.75745E-01    1.39840E+02
 2.00000E-01    1.69775E+02
 2.02036E-01    1.71741E+02
 2.25204E-01    2.07384E+02
 2.50000E-01    2.55513E+02
 2.58094E-01    2.67375E+02
 2.81412E-01    2.99187E+02
 3.00000E-01    3.32079E+02
 3.05294E-01    3.37840E+02
 3.22336E-01    3.63916E+02
 3.71976E-01    4.34029E+02
 3.72579E-01    4.34994E+02
 4.00000E-01    4.74856E+02
 4.05910E-01    4.82014E+02
 4.09565E-01    4.88488E+02
 4.40275E-01    5.33906E+02
 4.40276E-01    5.33908E+02
 4.55128E-01    5.58297E+02
 4.75515E-01    5.92649E+02
 4.88068E-01    6.15210E+02
 5.00000E-01    6.37407E+02
 5.15183E-01    6.53808E+02
 5.47319E-01    6.87847E+02
 5.84476E-01    7.16214E+02
 5.93515E-01    7.23153E+02
 6.00000E-01    7.28075E+02
 6.57787E-01    7.62917E+02
 6.58088E-01    7.63442E+02
 6.93940E-01    7.86586E+02
 6.99162E-01    7.90297E+02
 7.00000E-01    7.91167E+02
 7.19047E-01    7.98837E+02
 7.44153E-01    8.06995E+02
 7.60221E-01    8.11913E+02
 8.00000E-01    8.19390E+02
 9.00000E-01    8.35281E+02
 1.00000E+00    8.63533E+02
 1.10000E+00    8.86531E+02
 1.20000E+00    9.12848E+02
 1.30000E+00    9.40887E+02
 1.40000E+00    9.70401E+02
 1.50000E+00    9.99737E+02
 1.60000E+00    1.02868E+03
 1.70000E+00    1.05528E+03
 1.80000E+00    1.08090E+03
 1.90000E+00    1.10289E+03
 2.00000E+00    1.12373E+03
 2.30000E+00    1.16953E+03
 2.50000E+00    1.18964E+03
 2.70000E+00    1.20572E+03
 3.00000E+00    1.22322E+03
 3.50000E+00    1.23233E+03
 4.00000E+00    1.21596E+03
 4.50000E+00    1.19213E+03
 5.00000E+00    1.17168E+03
 5.50000E+00    1.14699E+03
 6.00000E+00    1.06401E+03
 6.50000E+00    9.24339E+02
 7.00000E+00    8.54199E+02
 7.50000E+00    8.03091E+02
 8.00000E+00    7.73283E+02
 8.50000E+00    7.42639E+02
 9.00000E+00    7.22950E+02
 9.50000E+00    7.07971E+02
 1.00000E+01    7.00871E+02
 1.05000E+01    6.99655E+02
 1.10000E+01    6.99072E+02
 1.15000E+01    7.02500E+02
 1.20000E+01    7.09062E+02
 1.25000E+01    7.02206E+02
 1.30000E+01    6.84151E+02
 1.35000E+01    6.60637E+02
 1.40000E+01    6.33993E+02
 1.45000E+01    6.02687E+02
 1.50000E+01    5.78012E+02
 1.55000E+01    5.57222E+02
 1.60000E+01    5.32569E+02
 1.65000E+01    5.16822E+02
 1.70000E+01    5.03066E+02
 1.75000E+01    4.86502E+02
 1.80000E+01    4.79311E+02
 1.85000E+01    4.67219E+02
 1.90000E+01    4.60201E+02
 1.95000E+01    4.52421E+02
 2.00000E+01    4.50924E+02
