# n + Yb173 : (n,n'10)  
# jeff3.3    A.J. Koning and D. Rochman        EVAL-DEC15
# uncertainties: n
# # energies =    90
#   E(MeV)       xs(mb) 
 5.34097E-01    0.00000E+00
 5.67290E-01    5.48621E+01
 6.00000E-01    1.08926E+02
 6.06618E-01    1.11863E+02
 6.14161E-01    1.15210E+02
 6.30355E-01    1.22396E+02
 6.39838E-01    1.26604E+02
 6.63246E-01    1.36991E+02
 7.00000E-01    1.53300E+02
 7.11124E-01    1.54056E+02
 7.53469E-01    1.56934E+02
 8.00000E-01    1.60097E+02
 8.00844E-01    1.60097E+02
 8.87345E-01    1.60078E+02
 9.00000E-01    1.60075E+02
 9.31401E-01    1.58050E+02
 1.00000E+00    1.53627E+02
 1.00774E+00    1.52758E+02
 1.03852E+00    1.49304E+02
 1.06447E+00    1.46392E+02
 1.08077E+00    1.44563E+02
 1.12814E+00    1.39247E+02
 1.14916E+00    1.36888E+02
 1.16576E+00    1.35025E+02
 1.17934E+00    1.33501E+02
 1.20000E+00    1.31183E+02
 1.20247E+00    1.30615E+02
 1.40000E+00    8.52082E+01
 1.60000E+00    5.01199E+01
 1.80000E+00    3.01772E+01
 2.00000E+00    1.87225E+01
 2.20000E+00    1.19538E+01
 2.40000E+00    7.83096E+00
 2.60000E+00    5.24704E+00
 2.80000E+00    3.58337E+00
 3.00000E+00    2.48574E+00
 3.20000E+00    1.76796E+00
 3.40000E+00    1.25688E+00
 3.60000E+00    9.10354E-01
 3.80000E+00    6.53863E-01
 4.00000E+00    4.73165E-01
 4.20000E+00    3.44246E-01
 4.40000E+00    2.51662E-01
 4.60000E+00    1.84729E-01
 4.80000E+00    1.36212E-01
 5.00000E+00    1.00861E-01
 5.20000E+00    7.49650E-02
 5.40000E+00    5.59274E-02
 5.60000E+00    4.18823E-02
 5.80000E+00    3.12823E-02
 6.00000E+00    2.34426E-02
 6.20000E+00    1.77037E-02
 6.40000E+00    1.33875E-02
 6.60000E+00    1.01732E-02
 6.80000E+00    7.76349E-03
 7.00000E+00    5.91896E-03
 7.20000E+00    4.53957E-03
 7.40000E+00    3.47805E-03
 7.60000E+00    2.67018E-03
 7.80000E+00    2.05657E-03
 8.00000E+00    1.58154E-03
 8.50000E+00    8.31229E-04
 9.00000E+00    4.41888E-04
 9.50000E+00    2.37628E-04
 1.00000E+01    1.29227E-04
 1.05000E+01    7.10382E-05
 1.10000E+01    3.94744E-05
 1.15000E+01    2.21613E-05
 1.20000E+01    1.25651E-05
 1.25000E+01    7.19678E-06
 1.30000E+01    4.16081E-06
 1.35000E+01    2.42777E-06
 1.40000E+01    1.42971E-06
 1.45000E+01    8.48090E-07
 1.50000E+01    5.06950E-07
 1.60000E+01    1.85110E-07
 1.70000E+01    6.92060E-08
 1.80000E+01    2.62870E-08
 1.90000E+01    1.02960E-08
 2.00000E+01    4.11040E-09
 2.10000E+01    1.68650E-09
 2.20000E+01    7.02600E-10
 2.30000E+01    3.00170E-10
 2.40000E+01    1.30090E-10
 2.50000E+01    5.71240E-11
 2.60000E+01    2.54610E-11
 2.70000E+01    1.15210E-11
 2.80000E+01    5.27740E-12
 2.90000E+01    2.44720E-12
 3.00000E+01    1.14830E-12
