# n + Yb173 : (n,xn)    
# jeff3.3    A.J. Koning and D. Rochman        EVAL-DEC15
# 
# # energies =   134
#   E(MeV)        xs(mb) 
 7.91057E-02    2.00000E-17
 1.00000E-01    5.29601E+02
 1.80410E-01    8.66466E+02
 2.00000E-01    1.05431E+03
 3.00000E-01    1.31604E+03
 3.03620E-01    1.31568E+03
 3.52810E-01    1.34872E+03
 4.00000E-01    1.60898E+03
 4.01227E-01    1.60939E+03
 4.15376E-01    1.62749E+03
 4.48300E-01    1.71549E+03
 4.64192E-01    1.75896E+03
 4.84811E-01    1.88128E+03
 5.00000E-01    2.07466E+03
 5.34097E-01    2.15122E+03
 5.67290E-01    2.28060E+03
 6.00000E-01    2.40824E+03
 6.06618E-01    2.40557E+03
 6.14161E-01    2.40345E+03
 6.30355E-01    2.39918E+03
 6.39838E-01    2.41085E+03
 6.63246E-01    2.47625E+03
 7.00000E-01    2.62536E+03
 7.11124E-01    2.62679E+03
 7.53469E-01    2.68039E+03
 8.00000E-01    2.78132E+03
 8.00844E-01    2.78197E+03
 8.87345E-01    2.84855E+03
 9.00000E-01    2.86634E+03
 9.31401E-01    2.87366E+03
 1.00000E+00    2.92976E+03
 1.00774E+00    2.92530E+03
 1.03852E+00    2.90759E+03
 1.06447E+00    2.89648E+03
 1.08077E+00    2.89671E+03
 1.12814E+00    2.91340E+03
 1.14916E+00    2.93257E+03
 1.16576E+00    2.95708E+03
 1.17934E+00    2.98033E+03
 1.20000E+00    3.02987E+03
 1.20247E+00    3.02135E+03
 1.40000E+00    3.16717E+03
 1.60000E+00    3.22951E+03
 1.80000E+00    3.23232E+03
 2.00000E+00    3.21208E+03
 2.20000E+00    3.18568E+03
 2.40000E+00    3.15981E+03
 2.60000E+00    3.13604E+03
 2.80000E+00    3.11399E+03
 3.00000E+00    3.09324E+03
 3.20000E+00    3.14216E+03
 3.40000E+00    3.11787E+03
 3.60000E+00    3.09462E+03
 3.80000E+00    3.07268E+03
 4.00000E+00    3.05199E+03
 4.20000E+00    3.03252E+03
 4.40000E+00    3.01440E+03
 4.60000E+00    2.99749E+03
 4.80000E+00    2.98169E+03
 5.00000E+00    2.96715E+03
 5.20000E+00    2.95334E+03
 5.40000E+00    2.94015E+03
 5.60000E+00    2.92751E+03
 5.80000E+00    2.91526E+03
 6.00000E+00    2.90312E+03
 6.20000E+00    2.89115E+03
 6.40000E+00    2.87931E+03
 6.60000E+00    2.89649E+03
 6.80000E+00    2.96757E+03
 7.00000E+00    3.08526E+03
 7.20000E+00    3.23376E+03
 7.40000E+00    3.39083E+03
 7.60000E+00    3.53870E+03
 7.80000E+00    3.66732E+03
 8.00000E+00    3.81144E+03
 8.50000E+00    4.08524E+03
 9.00000E+00    4.25469E+03
 9.50000E+00    4.37938E+03
 1.00000E+01    4.45625E+03
 1.05000E+01    4.50063E+03
 1.10000E+01    4.52719E+03
 1.15000E+01    4.54264E+03
 1.20000E+01    4.55028E+03
 1.25000E+01    4.55272E+03
 1.30000E+01    4.55491E+03
 1.35000E+01    4.55653E+03
 1.40000E+01    4.55280E+03
 1.45000E+01    4.54953E+03
 1.50000E+01    4.55576E+03
 1.60000E+01    4.68612E+03
 1.70000E+01    4.93229E+03
 1.80000E+01    5.16134E+03
 1.90000E+01    5.33510E+03
 2.00000E+01    5.42705E+03
 2.10000E+01    5.48649E+03
 2.20000E+01    5.52748E+03
 2.30000E+01    5.58233E+03
 2.40000E+01    5.65927E+03
 2.50000E+01    5.76741E+03
 2.60000E+01    5.87398E+03
 2.70000E+01    5.98045E+03
 2.80000E+01    6.06967E+03
 2.90000E+01    6.13662E+03
 3.00000E+01            NaN
 3.00000E+01    6.19749E+03
 3.20000E+01    6.28755E+03
 3.40000E+01    6.39646E+03
 3.60000E+01    6.51555E+03
 3.80000E+01    6.63765E+03
 4.00000E+01    6.74620E+03
 4.20000E+01    6.85732E+03
 4.40000E+01    6.95144E+03
 4.60000E+01    7.03315E+03
 4.80000E+01    7.10916E+03
 5.00000E+01    7.18588E+03
 5.20000E+01    7.25995E+03
 5.40000E+01    7.32480E+03
 5.60000E+01    7.40325E+03
 5.80000E+01    7.47213E+03
 6.00000E+01    7.53953E+03
 6.50000E+01    7.68771E+03
 7.00000E+01    7.85197E+03
 7.50000E+01    7.98112E+03
 8.00000E+01    8.11222E+03
 9.00000E+01    8.55519E+03
 1.00000E+02    9.05806E+03
 1.10000E+02    9.57190E+03
 1.20000E+02    1.01698E+04
 1.30000E+02    1.08896E+04
 1.40000E+02    1.16987E+04
 1.50000E+02    1.25675E+04
 1.60000E+02    1.35138E+04
 1.80000E+02    1.54365E+04
 2.00000E+02    1.72672E+04
