# n + Yb173 : (n,n'14)  
# jeff3.3    A.J. Koning and D. Rochman        EVAL-DEC15
# uncertainties: n
# # energies =    85
#   E(MeV)       xs(mb) 
 6.30355E-01    0.00000E+00
 6.39838E-01    1.41630E+01
 6.63246E-01    4.91232E+01
 7.00000E-01    1.04016E+02
 7.11124E-01    1.08290E+02
 7.53469E-01    1.24560E+02
 8.00000E-01    1.42438E+02
 8.00844E-01    1.42556E+02
 8.87345E-01    1.54642E+02
 9.00000E-01    1.56410E+02
 9.31401E-01    1.58189E+02
 1.00000E+00    1.62077E+02
 1.00774E+00    1.61876E+02
 1.03852E+00    1.61074E+02
 1.06447E+00    1.60398E+02
 1.08077E+00    1.59974E+02
 1.12814E+00    1.58740E+02
 1.14916E+00    1.58193E+02
 1.16576E+00    1.57761E+02
 1.17934E+00    1.57407E+02
 1.20000E+00    1.56869E+02
 1.20247E+00    1.56258E+02
 1.40000E+00    1.07361E+02
 1.60000E+00    6.46989E+01
 1.80000E+00    3.95298E+01
 2.00000E+00    2.47723E+01
 2.20000E+00    1.59511E+01
 2.40000E+00    1.05421E+01
 2.60000E+00    7.13687E+00
 2.80000E+00    4.93690E+00
 3.00000E+00    3.48018E+00
 3.20000E+00    2.53714E+00
 3.40000E+00    1.84541E+00
 3.60000E+00    1.37791E+00
 3.80000E+00    1.03942E+00
 4.00000E+00    7.91656E-01
 4.20000E+00    6.16479E-01
 4.40000E+00    4.91691E-01
 4.60000E+00    4.02861E-01
 4.80000E+00    3.40161E-01
 5.00000E+00    2.96313E-01
 5.20000E+00    2.66019E-01
 5.40000E+00    2.45448E-01
 5.60000E+00    2.31677E-01
 5.80000E+00    2.22199E-01
 6.00000E+00    2.15791E-01
 6.20000E+00    2.11314E-01
 6.40000E+00    2.07691E-01
 6.60000E+00    2.04454E-01
 6.80000E+00    2.01240E-01
 7.00000E+00    1.97812E-01
 7.20000E+00    1.94167E-01
 7.40000E+00    1.90241E-01
 7.60000E+00    1.86086E-01
 7.80000E+00    1.81759E-01
 8.00000E+00    1.77308E-01
 8.50000E+00    1.66135E-01
 9.00000E+00    1.55589E-01
 9.50000E+00    1.46255E-01
 1.00000E+01    1.38303E-01
 1.05000E+01    1.31594E-01
 1.10000E+01    1.25831E-01
 1.15000E+01    1.20718E-01
 1.20000E+01    1.16033E-01
 1.25000E+01    1.11655E-01
 1.30000E+01    1.07541E-01
 1.35000E+01    1.03696E-01
 1.40000E+01    1.00143E-01
 1.45000E+01    9.69102E-02
 1.50000E+01    9.40142E-02
 1.60000E+01    8.92283E-02
 1.70000E+01    8.56105E-02
 1.80000E+01    8.27843E-02
 1.90000E+01    8.03465E-02
 2.00000E+01    7.79901E-02
 2.10000E+01    7.55140E-02
 2.20000E+01    7.28596E-02
 2.30000E+01    7.01497E-02
 2.40000E+01    6.75975E-02
 2.50000E+01    6.53632E-02
 2.60000E+01    6.34967E-02
 2.70000E+01    6.19526E-02
 2.80000E+01    6.06182E-02
 2.90000E+01    5.93481E-02
 3.00000E+01    5.80124E-02
