# n + Yb173 : (n,xa)    
# jeff3.3    A.J. Koning and D. Rochman        EVAL-DEC15
# 
# # energies =   134
#   E(MeV)        xs(mb) 
 7.91057E-02    1.36950E-04
 1.00000E-01    1.11498E-04
 1.80410E-01    8.26659E-05
 2.00000E-01    7.56416E-05
 3.00000E-01    6.69913E-05
 3.03620E-01    6.69268E-05
 3.52810E-01    6.60508E-05
 4.00000E-01    6.52104E-05
 4.01227E-01    6.51241E-05
 4.15376E-01    6.41284E-05
 4.48300E-01    6.18114E-05
 4.64192E-01    6.06931E-05
 4.84811E-01    5.92421E-05
 5.00000E-01    5.81732E-05
 5.34097E-01    5.71122E-05
 5.67290E-01    5.60794E-05
 6.00000E-01    5.50616E-05
 6.06618E-01    5.50934E-05
 6.14161E-01    5.51296E-05
 6.30355E-01    5.52073E-05
 6.39838E-01    5.52528E-05
 6.63246E-01    5.53651E-05
 7.00000E-01    5.55415E-05
 7.11124E-01    5.56369E-05
 7.53469E-01    5.61263E-05
 8.00000E-01    5.66641E-05
 8.00844E-01    5.67284E-05
 8.87345E-01    6.33213E-05
 9.00000E-01    6.42858E-05
 9.31401E-01    6.82669E-05
 1.00000E+00    7.69641E-05
 1.00774E+00    7.79501E-05
 1.03852E+00    8.20666E-05
 1.06447E+00    8.55372E-05
 1.08077E+00    8.77172E-05
 1.12814E+00    9.40524E-05
 1.14916E+00    9.68637E-05
 1.16576E+00    9.90837E-05
 1.17934E+00    1.00900E-04
 1.20000E+00    1.03663E-04
 1.20247E+00    1.03646E-04
 1.40000E+00    1.02250E-04
 1.60000E+00    9.86353E-05
 1.80000E+00    9.54406E-05
 2.00000E+00    9.90631E-05
 2.20000E+00    1.06178E-04
 2.40000E+00    1.14776E-04
 2.60000E+00    1.30401E-04
 2.80000E+00    1.47713E-04
 3.00000E+00    1.71418E-04
 3.20000E+00    2.03318E-04
 3.40000E+00    2.35612E-04
 3.60000E+00    2.77735E-04
 3.80000E+00    3.26159E-04
 4.00000E+00    3.88688E-04
 4.20000E+00    4.61012E-04
 4.40000E+00    5.42976E-04
 4.60000E+00    6.42671E-04
 4.80000E+00    7.64699E-04
 5.00000E+00    9.23840E-04
 5.20000E+00    1.10670E-03
 5.40000E+00    1.26719E-03
 5.60000E+00    1.54232E-03
 5.80000E+00    1.84499E-03
 6.00000E+00    2.23417E-03
 6.20000E+00    2.69599E-03
 6.40000E+00    3.01112E-03
 6.60000E+00    3.71074E-03
 6.80000E+00    4.49471E-03
 7.00000E+00    5.50202E-03
 7.20000E+00    6.66073E-03
 7.40000E+00    7.29937E-03
 7.60000E+00    9.05326E-03
 7.80000E+00    1.10067E-02
 8.00000E+00    1.35941E-02
 8.50000E+00    2.14193E-02
 9.00000E+00    3.37028E-02
 9.50000E+00    5.28734E-02
 1.00000E+01    7.84891E-02
 1.05000E+01    1.20808E-01
 1.10000E+01    1.82815E-01
 1.15000E+01    2.70684E-01
 1.20000E+01    3.88512E-01
 1.25000E+01    5.51516E-01
 1.30000E+01    7.63453E-01
 1.35000E+01    1.06814E+00
 1.40000E+01    1.34531E+00
 1.45000E+01    1.77483E+00
 1.50000E+01    2.18402E+00
 1.60000E+01    3.37470E+00
 1.70000E+01    5.02495E+00
 1.80000E+01    7.42682E+00
 1.90000E+01    1.09908E+01
 2.00000E+01    1.52326E+01
 2.10000E+01    1.80819E+01
 2.20000E+01    2.06865E+01
 2.30000E+01    1.88195E+01
 2.40000E+01    1.91085E+01
 2.50000E+01    1.97078E+01
 2.60000E+01    2.04910E+01
 2.70000E+01    2.14048E+01
 2.80000E+01    2.24045E+01
 2.90000E+01    2.34549E+01
 3.00000E+01            NaN
 3.00000E+01    2.45381E+01
 3.20000E+01    2.64223E+01
 3.40000E+01    2.87517E+01
 3.60000E+01    3.12323E+01
 3.80000E+01    3.33149E+01
 4.00000E+01    3.53778E+01
 4.20000E+01    3.76371E+01
 4.40000E+01    3.95392E+01
 4.60000E+01    4.13287E+01
 4.80000E+01    4.30377E+01
 5.00000E+01    4.45763E+01
 5.20000E+01    4.59083E+01
 5.40000E+01    4.69065E+01
 5.60000E+01    4.76827E+01
 5.80000E+01    4.83132E+01
 6.00000E+01    4.87717E+01
 6.50000E+01    4.74746E+01
 7.00000E+01    4.54359E+01
 7.50000E+01    4.09921E+01
 8.00000E+01    3.56556E+01
 9.00000E+01    3.94752E+01
 1.00000E+02    4.56496E+01
 1.10000E+02    4.77224E+01
 1.20000E+02    5.23092E+01
 1.30000E+02    6.05721E+01
 1.40000E+02    7.40154E+01
 1.50000E+02    8.93092E+01
 1.60000E+02    1.03871E+02
 1.80000E+02    1.29230E+02
 2.00000E+02    2.20327E+02
