# n + Yb173 : (n,n'23)  
# jeff3.3    A.J. Koning and D. Rochman        EVAL-DEC15
# uncertainties: n
# # energies =    72
#   E(MeV)       xs(mb) 
 1.03852E+00    0.00000E+00
 1.06447E+00    3.82440E+00
 1.08077E+00    6.22662E+00
 1.12814E+00    1.32078E+01
 1.14916E+00    1.63056E+01
 1.16576E+00    1.87521E+01
 1.17934E+00    2.07534E+01
 1.20000E+00    2.37982E+01
 1.20247E+00    2.37838E+01
 1.40000E+00    2.26289E+01
 1.60000E+00    1.65612E+01
 1.80000E+00    1.15619E+01
 2.00000E+00    7.94351E+00
 2.20000E+00    5.43909E+00
 2.40000E+00    3.73618E+00
 2.60000E+00    2.58629E+00
 2.80000E+00    1.80973E+00
 3.00000E+00    1.28255E+00
 3.20000E+00    9.33844E-01
 3.40000E+00    6.80206E-01
 3.60000E+00    5.02990E-01
 3.80000E+00    3.78220E-01
 4.00000E+00    2.92349E-01
 4.20000E+00    2.29825E-01
 4.40000E+00    1.83536E-01
 4.60000E+00    1.50732E-01
 4.80000E+00    1.27414E-01
 5.00000E+00    1.10857E-01
 5.20000E+00    9.90932E-02
 5.40000E+00    9.07365E-02
 5.60000E+00    8.47849E-02
 5.80000E+00    8.04117E-02
 6.00000E+00    7.72536E-02
 6.20000E+00    7.49720E-02
 6.40000E+00    7.32238E-02
 6.60000E+00    7.18594E-02
 6.80000E+00    7.07475E-02
 7.00000E+00    6.97900E-02
 7.20000E+00    6.89657E-02
 7.40000E+00    6.82293E-02
 7.60000E+00    6.75758E-02
 7.80000E+00    6.70010E-02
 8.00000E+00    6.64971E-02
 8.50000E+00    6.55573E-02
 9.00000E+00    6.50290E-02
 9.50000E+00    6.48249E-02
 1.00000E+01    6.48194E-02
 1.05000E+01    6.48772E-02
 1.10000E+01    6.48792E-02
 1.15000E+01    6.47409E-02
 1.20000E+01    6.44200E-02
 1.25000E+01    6.39131E-02
 1.30000E+01    6.32462E-02
 1.35000E+01    6.24623E-02
 1.40000E+01    6.16077E-02
 1.45000E+01    6.07255E-02
 1.50000E+01    5.98501E-02
 1.60000E+01    5.82040E-02
 1.70000E+01    5.67568E-02
 1.80000E+01    5.54999E-02
 1.90000E+01    5.43767E-02
 2.00000E+01    5.33026E-02
 2.10000E+01    5.21917E-02
 2.20000E+01    5.09987E-02
 2.30000E+01    4.97402E-02
 2.40000E+01    4.84731E-02
 2.50000E+01    4.72535E-02
 2.60000E+01    4.61120E-02
 2.70000E+01    4.50496E-02
 2.80000E+01    4.40437E-02
 2.90000E+01    4.30611E-02
 3.00000E+01    4.20712E-02
