# n + Yb173 : (n,xp)    
# jeff3.3    A.J. Koning and D. Rochman        EVAL-DEC15
# 
# # energies =   134
#   E(MeV)        xs(mb) 
 7.91057E-02    0.00000E+00
 1.00000E-01    0.00000E+00
 1.80410E-01    0.00000E+00
 2.00000E-01    0.00000E+00
 3.00000E-01    0.00000E+00
 3.03620E-01    0.00000E+00
 3.52810E-01    0.00000E+00
 4.00000E-01    1.27282E-21
 4.01227E-01    4.50619E-21
 4.15376E-01    4.17917E-20
 4.48300E-01    1.28553E-19
 4.64192E-01    1.70432E-19
 4.84811E-01    2.24767E-19
 5.00000E-01    2.64793E-19
 5.34097E-01    1.25852E-18
 5.67290E-01    3.26246E-18
 6.00000E-01    5.23724E-18
 6.06618E-01    5.63678E-18
 6.14161E-01    6.09217E-18
 6.30355E-01    7.06984E-18
 6.39838E-01    7.64234E-18
 6.63246E-01    9.05554E-18
 7.00000E-01    1.12745E-17
 7.11124E-01    1.19460E-17
 7.53469E-01    1.45025E-17
 8.00000E-01    1.73117E-17
 8.00844E-01    1.73626E-17
 8.87345E-01    2.25849E-17
 9.00000E-01    2.33489E-17
 9.31401E-01    2.52447E-17
 1.00000E+00    2.93861E-17
 1.00774E+00    2.98534E-17
 1.03852E+00    3.17117E-17
 1.06447E+00    3.32783E-17
 1.08077E+00    3.42624E-17
 1.12814E+00    3.71222E-17
 1.14916E+00    3.83913E-17
 1.16576E+00    3.93935E-17
 1.17934E+00    4.02133E-17
 1.20000E+00    4.14606E-17
 1.20247E+00    4.16097E-17
 1.40000E+00    5.35351E-17
 1.60000E+00    6.56095E-17
 1.80000E+00    5.84849E-15
 2.00000E+00    1.89074E-13
 2.20000E+00    1.08090E-11
 2.40000E+00    1.12200E-10
 2.60000E+00    8.95840E-10
 2.80000E+00    4.80920E-09
 3.00000E+00    1.94470E-08
 3.20000E+00    6.59700E-08
 3.40000E+00    1.89720E-07
 3.60000E+00    4.82030E-07
 3.80000E+00    1.10591E-06
 4.00000E+00    2.33510E-06
 4.20000E+00    4.61787E-06
 4.40000E+00    8.69314E-06
 4.60000E+00    1.59856E-05
 4.80000E+00    2.95454E-05
 5.00000E+00    6.13744E-05
 5.20000E+00    9.43803E-05
 5.40000E+00    1.25156E-04
 5.60000E+00    2.90440E-04
 5.80000E+00    4.00580E-04
 6.00000E+00    8.67943E-04
 6.20000E+00    1.25161E-03
 6.40000E+00    1.69309E-03
 6.60000E+00    3.71739E-03
 6.80000E+00    4.67595E-03
 7.00000E+00    8.98376E-03
 7.20000E+00    1.20869E-02
 7.40000E+00    1.56301E-02
 7.60000E+00    2.92492E-02
 7.80000E+00    3.46021E-02
 8.00000E+00    5.74796E-02
 8.50000E+00    1.24617E-01
 9.00000E+00    2.46828E-01
 9.50000E+00    4.50541E-01
 1.00000E+01    7.64008E-01
 1.05000E+01    1.21388E+00
 1.10000E+01    1.82336E+00
 1.15000E+01    2.61295E+00
 1.20000E+01    3.59767E+00
 1.25000E+01    4.78702E+00
 1.30000E+01    6.19419E+00
 1.35000E+01    7.82487E+00
 1.40000E+01    9.67509E+00
 1.45000E+01    1.17494E+01
 1.50000E+01    1.40406E+01
 1.60000E+01    1.92468E+01
 1.70000E+01    2.51991E+01
 1.80000E+01    3.24780E+01
 1.90000E+01    3.96985E+01
 2.00000E+01    4.82771E+01
 2.10000E+01    5.69666E+01
 2.20000E+01    6.68596E+01
 2.30000E+01    7.65317E+01
 2.40000E+01    8.65320E+01
 2.50000E+01    9.66650E+01
 2.60000E+01    1.06924E+02
 2.70000E+01    1.17317E+02
 2.80000E+01    1.27627E+02
 2.90000E+01    1.37906E+02
 3.00000E+01            NaN
 3.00000E+01    1.47882E+02
 3.20000E+01    1.68490E+02
 3.40000E+01    1.88887E+02
 3.60000E+01    2.10069E+02
 3.80000E+01    2.29861E+02
 4.00000E+01    2.49156E+02
 4.20000E+01    2.67932E+02
 4.40000E+01    2.87393E+02
 4.60000E+01    3.06204E+02
 4.80000E+01    3.25192E+02
 5.00000E+01    3.43578E+02
 5.20000E+01    3.61429E+02
 5.40000E+01    3.78654E+02
 5.60000E+01    3.95053E+02
 5.80000E+01    4.11354E+02
 6.00000E+01    4.26551E+02
 6.50000E+01    4.61576E+02
 7.00000E+01    4.91883E+02
 7.50000E+01    5.18458E+02
 8.00000E+01    5.41183E+02
 9.00000E+01    5.80079E+02
 1.00000E+02    6.06564E+02
 1.10000E+02    6.30618E+02
 1.20000E+02    6.56055E+02
 1.30000E+02    6.89091E+02
 1.40000E+02    7.35650E+02
 1.50000E+02    8.02171E+02
 1.60000E+02    9.02583E+02
 1.80000E+02    1.27422E+03
 2.00000E+02    1.80781E+03
