# n + Zr 92 : (n,xa)    
# jendl4.0   JNDC FP NUCLEAR DATA W.G.         EVAL-AUG89
# 
# # energies =    47
#   E(MeV)        xs(mb) 
 9.44756E-01    1.04024E-06
 9.45670E-01    1.04599E-06
 1.00000E+00    1.45256E-06
 1.25000E+00    4.83995E-06
 1.39798E+00    9.86761E-06
 1.39800E+00    9.86857E-06
 1.50000E+00    1.61246E-05
 1.51181E+00    1.70677E-05
 1.75000E+00    5.37250E-05
 1.86757E+00    9.46173E-05
 1.86760E+00    9.46309E-05
 2.00000E+00    1.78991E-04
 2.08938E+00    2.39568E-04
 2.17360E+00    3.15269E-04
 2.25000E+00    4.04467E-04
 2.36538E+00    5.89210E-04
 2.36540E+00    5.89249E-04
 2.42462E+00    7.14793E-04
 2.50000E+00    9.13943E-04
 2.51318E+00    9.54094E-04
 2.77361E+00    2.23054E-03
 2.85060E+00    2.86711E-03
 2.85065E+00    2.86758E-03
 2.89543E+00    3.28981E-03
 2.93547E+00    3.64654E-03
 2.94143E+00    3.70296E-03
 2.99026E+00    4.19830E-03
 3.00000E+00    4.30472E-03
 3.07306E+00    5.05820E-03
 3.07310E+00    5.05865E-03
 3.09136E+00    5.26667E-03
 3.09156E+00    5.26900E-03
 3.50000E+00    1.29799E-02
 4.00000E+00    3.91374E-02
 5.00000E+00    1.89951E-01
 6.00000E+00    5.73906E-01
 7.00000E+00    1.17639E+00
 8.00000E+00    1.84730E+00
 9.00000E+00    2.55733E+00
 1.00000E+01    3.43852E+00
 1.10000E+01    4.78498E+00
 1.20000E+01    6.50853E+00
 1.30000E+01    8.62550E+00
 1.40000E+01    1.07775E+01
 1.60000E+01    1.39357E+01
 1.80000E+01    1.59079E+01
 2.00000E+01    1.77287E+01
