# n + Ge 70 : (n,tot)   
# jendl4.0   Iwamoto,Herman,Mughabghab+        EVAL-AUG04
# uncertainties: n
# # energies =   171
#   E(MeV)       xs(mb) 
 1.00000E-11    6.00785E+04
 1.00000E-07    1.49015E+04
 4.13990E-07    1.44965E+04
 5.31580E-07    1.44079E+04
 6.82560E-07    1.43286E+04
 8.76420E-07    1.42570E+04
 1.12540E-06    1.41924E+04
 1.44500E-06    1.41374E+04
 1.85540E-06    1.40790E+04
 2.37240E-06    1.40212E+04
 3.05900E-06    1.39716E+04
 3.92790E-06    1.39084E+04
 5.04350E-06    1.38439E+04
 6.47600E-06    1.37831E+04
 8.31530E-06    1.37052E+04
 1.06770E-05    1.36075E+04
 1.37100E-05    1.35063E+04
 1.76030E-05    1.33832E+04
 2.26030E-05    1.32228E+04
 2.92030E-05    1.30311E+04
 3.72670E-05    1.28134E+04
 4.78510E-05    1.25327E+04
 6.14420E-05    1.22070E+04
 7.88930E-05    1.18123E+04
 1.01300E-04    1.13572E+04
 1.30070E-04    1.08331E+04
 1.67020E-04    1.02419E+04
 2.14450E-04    9.59163E+03
 2.75360E-04    8.88814E+03
 3.53580E-04    8.13430E+03
 4.54000E-04    7.32283E+03
 5.82950E-04    6.37580E+03
 7.48520E-04    4.90643E+03
 9.61120E-04    6.61592E+04
 1.23410E-03    1.36892E+04
 1.58460E-03    6.81769E+03
 2.03470E-03    5.83057E+03
 2.24870E-03    5.49305E+03
 2.48520E-03    5.25785E+03
 2.61260E-03    5.10619E+03
 2.74650E-03    4.87607E+03
 3.03540E-03    4.74885E+03
 3.35460E-03    4.17613E+03
 3.70740E-03    3.33910E+03
 4.30740E-03    7.44740E+03
 5.53080E-03    2.51135E+04
 7.10170E-03    1.26364E+04
 9.11880E-03    2.22535E+04
 1.17090E-02    1.94825E+04
 1.50340E-02    1.18394E+04
 1.93050E-02    1.11982E+04
 2.18750E-02    1.08787E+04
 2.35790E-02    1.07237E+04
 2.41760E-02    1.06485E+04
 2.47880E-02    1.05360E+04
 2.60580E-02    1.04100E+04
 2.70000E-02    1.02816E+04
 2.85000E-02    1.00513E+04
 3.18280E-02    9.79841E+03
 3.43070E-02    9.47374E+03
 4.08680E-02    9.10265E+03
 4.63090E-02    8.80929E+03
 5.24750E-02    8.58335E+03
 5.65620E-02    8.31257E+03
 6.73790E-02    8.06064E+03
 7.20000E-02    7.89360E+03
 7.95000E-02    7.75784E+03
 8.25000E-02    7.67608E+03
 8.65170E-02    7.51051E+03
 9.80370E-02    7.27727E+03
 1.11090E-01    7.11876E+03
 1.16790E-01    7.03087E+03
 1.22770E-01    6.94102E+03
 1.29070E-01    6.85463E+03
 1.35690E-01    6.76724E+03
 1.42640E-01    6.68221E+03
 1.49960E-01    6.59756E+03
 1.57640E-01    6.51374E+03
 1.65730E-01    6.43148E+03
 1.74220E-01    6.34948E+03
 1.83160E-01    6.26843E+03
 1.92550E-01    6.18849E+03
 2.02420E-01    6.10933E+03
 2.12800E-01    6.03090E+03
 2.23710E-01    5.95425E+03
 2.35180E-01    5.87839E+03
 2.47240E-01    5.76449E+03
 2.73240E-01    5.65287E+03
 2.87250E-01    5.59858E+03
 2.94520E-01    5.57326E+03
 2.97200E-01    5.56315E+03
 2.98500E-01    5.55135E+03
 3.01970E-01    5.47251E+03
 3.33730E-01    5.33274E+03
 3.68830E-01    5.23046E+03
 3.87740E-01    5.16399E+03
 4.07620E-01    5.06670E+03
 4.50490E-01    4.94123E+03
 4.97870E-01    4.85059E+03
 5.23400E-01    4.79213E+03
 5.50230E-01    4.73524E+03
 5.78440E-01    4.68002E+03
 6.08100E-01    4.62759E+03
 6.39280E-01    4.57557E+03
 6.72060E-01    4.52592E+03
 7.06510E-01    4.47815E+03
 7.42740E-01    4.43184E+03
 7.80820E-01    4.38744E+03
 8.20850E-01    4.34492E+03
 8.62940E-01    4.30476E+03
 9.07180E-01    4.26319E+03
 9.61640E-01    4.22684E+03
 1.00260E+00    4.09369E+03
 1.10800E+00    3.91879E+03
 1.16480E+00    3.84150E+03
 1.22460E+00    3.77547E+03
 1.28730E+00    3.71204E+03
 1.35340E+00    3.64565E+03
 1.42270E+00    3.58915E+03
 1.49570E+00    3.53709E+03
 1.57240E+00    3.48495E+03
 1.65300E+00    3.44523E+03
 1.73770E+00    3.40612E+03
 1.82680E+00    3.37702E+03
 1.92050E+00    3.35333E+03
 2.01900E+00    3.33675E+03
 2.12250E+00    3.32784E+03
 2.23130E+00    3.32933E+03
 2.30690E+00    3.33291E+03
 2.34570E+00    3.33474E+03
 2.36530E+00    3.33597E+03
 2.38520E+00    3.33979E+03
 2.46600E+00    3.35590E+03
 2.59240E+00    3.37959E+03
 2.72530E+00    3.41253E+03
 2.86500E+00    3.45032E+03
 3.01190E+00    3.49352E+03
 3.16640E+00    3.53899E+03
 3.32870E+00    3.61191E+03
 3.67880E+00    3.71312E+03
 4.06570E+00    3.80133E+03
 4.49330E+00    3.86060E+03
 4.72370E+00    3.89114E+03
 4.96590E+00    3.91785E+03
 5.22050E+00    3.93319E+03
 5.48810E+00    3.94860E+03
 5.76950E+00    3.96429E+03
 6.06530E+00    3.96596E+03
 6.37630E+00    3.96168E+03
 6.59240E+00    3.95903E+03
 6.70320E+00    3.95537E+03
 7.04690E+00    3.94154E+03
 7.40820E+00    3.91851E+03
 7.78800E+00    3.89410E+03
 8.18730E+00    3.86078E+03
 8.60710E+00    3.82174E+03
 9.04840E+00    3.78028E+03
 9.51230E+00    3.73280E+03
 1.00000E+01    3.67924E+03
 1.05130E+01    3.62019E+03
 1.10520E+01    3.55815E+03
 1.16180E+01    3.49252E+03
 1.22140E+01    3.41879E+03
 1.28400E+01    3.33753E+03
 1.34990E+01    3.26979E+03
 1.38400E+01    3.22293E+03
 1.41910E+01    3.17486E+03
 1.45500E+01    3.12564E+03
 1.49180E+01    3.04891E+03
 1.56830E+01    2.94342E+03
 1.64870E+01    2.84028E+03
