# n + Nb 92 : (n,n'09)  
# jeff3.3    A.J. Koning and D. Rochman        EVAL-DEC15
# uncertainties: n
# # energies =    86
#   E(MeV)       xs(mb) 
 1.10136E+00    0.00000E+00
 1.16262E+00    5.06804E-04
 1.20000E+00    8.16050E-04
 1.32519E+00    1.07354E-02
 1.33833E+00    1.17766E-02
 1.36027E+00    1.35150E-02
 1.38908E+00    1.57978E-02
 1.40000E+00    1.66630E-02
 1.40541E+00    1.81227E-02
 1.42163E+00    2.24992E-02
 1.42578E+00    2.36190E-02
 1.43053E+00    2.49006E-02
 1.43831E+00    2.69998E-02
 1.48401E+00    3.93305E-02
 1.48896E+00    4.06661E-02
 1.49756E+00    4.29866E-02
 1.54073E+00    5.46346E-02
 1.57095E+00    6.27886E-02
 1.58288E+00    6.60075E-02
 1.60000E+00    7.06268E-02
 1.62464E+00    8.05787E-02
 1.65062E+00    9.10718E-02
 1.66002E+00    9.48683E-02
 1.66841E+00    9.82570E-02
 1.68489E+00    1.04913E-01
 1.80000E+00    1.51405E-01
 2.00000E+00    2.69482E-01
 2.20000E+00    4.18081E-01
 2.40000E+00    5.61050E-01
 2.60000E+00    6.63729E-01
 2.80000E+00    7.08530E-01
 3.00000E+00    6.99459E-01
 3.20000E+00    6.51239E-01
 3.40000E+00    5.80894E-01
 3.60000E+00    5.03464E-01
 3.80000E+00    4.27359E-01
 4.00000E+00    3.58783E-01
 4.20000E+00    2.99510E-01
 4.40000E+00    2.49463E-01
 4.60000E+00    2.08256E-01
 4.80000E+00    1.74305E-01
 5.00000E+00    1.46736E-01
 5.20000E+00    1.24148E-01
 5.40000E+00    1.05345E-01
 5.60000E+00    8.97162E-02
 5.80000E+00    7.66229E-02
 6.00000E+00    6.54066E-02
 6.20000E+00    5.60767E-02
 6.40000E+00    4.78802E-02
 6.60000E+00    4.09175E-02
 6.80000E+00    3.49089E-02
 7.00000E+00    2.96800E-02
 7.20000E+00    2.51855E-02
 7.40000E+00    2.12902E-02
 7.60000E+00    1.80016E-02
 7.80000E+00    1.52080E-02
 8.00000E+00    1.28141E-02
 8.50000E+00    8.35138E-03
 9.00000E+00    5.42226E-03
 9.50000E+00    3.51535E-03
 1.00000E+01    2.27942E-03
 1.05000E+01    1.47989E-03
 1.10000E+01    9.62316E-04
 1.15000E+01    6.26639E-04
 1.20000E+01    4.08879E-04
 1.25000E+01    2.67332E-04
 1.30000E+01    1.75364E-04
 1.35000E+01    1.15385E-04
 1.40000E+01    7.61788E-05
 1.45000E+01    5.04620E-05
 1.50000E+01    3.35238E-05
 1.60000E+01    1.50100E-05
 1.70000E+01    6.83205E-06
 1.80000E+01    3.15366E-06
 1.90000E+01    1.47324E-06
 2.00000E+01    6.96040E-07
 2.10000E+01    3.31790E-07
 2.20000E+01    1.57280E-07
 2.30000E+01    7.63260E-08
 2.40000E+01    3.73140E-08
 2.50000E+01    1.84440E-08
 2.60000E+01    9.19910E-09
 2.70000E+01    4.65730E-09
 2.80000E+01    2.38010E-09
 2.90000E+01    1.22860E-09
 3.00000E+01    6.40080E-10
