# n + Nb 92 : (n,n'14)  
# jeff3.3    A.J. Koning and D. Rochman        EVAL-DEC15
# uncertainties: n
# # energies =    80
#   E(MeV)       xs(mb) 
 1.38908E+00    0.00000E+00
 1.40000E+00    7.04906E-01
 1.40541E+00    9.85857E-01
 1.42163E+00    1.82818E+00
 1.42578E+00    2.04369E+00
 1.43053E+00    2.29036E+00
 1.43831E+00    2.69438E+00
 1.48401E+00    5.06763E+00
 1.48896E+00    5.32469E+00
 1.49756E+00    5.77129E+00
 1.54073E+00    8.01315E+00
 1.57095E+00    9.58251E+00
 1.58288E+00    1.02020E+01
 1.60000E+00    1.10911E+01
 1.62464E+00    1.14281E+01
 1.65062E+00    1.17833E+01
 1.66002E+00    1.19119E+01
 1.66841E+00    1.20266E+01
 1.68489E+00    1.22520E+01
 1.80000E+00    1.38261E+01
 2.00000E+00    1.50545E+01
 2.20000E+00    1.59854E+01
 2.40000E+00    1.64995E+01
 2.60000E+00    1.62437E+01
 2.80000E+00    1.51446E+01
 3.00000E+00    1.34734E+01
 3.20000E+00    1.15463E+01
 3.40000E+00    9.62535E+00
 3.60000E+00    7.87676E+00
 3.80000E+00    6.36438E+00
 4.00000E+00    5.11622E+00
 4.20000E+00    4.09926E+00
 4.40000E+00    3.27632E+00
 4.60000E+00    2.61967E+00
 4.80000E+00    2.09476E+00
 5.00000E+00    1.68044E+00
 5.20000E+00    1.35192E+00
 5.40000E+00    1.08899E+00
 5.60000E+00    8.80466E-01
 5.80000E+00    7.13886E-01
 6.00000E+00    5.78977E-01
 6.20000E+00    4.72446E-01
 6.40000E+00    3.84798E-01
 6.60000E+00    3.14257E-01
 6.80000E+00    2.56944E-01
 7.00000E+00    2.09927E-01
 7.20000E+00    1.71463E-01
 7.40000E+00    1.39950E-01
 7.60000E+00    1.14436E-01
 7.80000E+00    9.36731E-02
 8.00000E+00    7.66300E-02
 8.50000E+00    4.66412E-02
 9.00000E+00    2.84837E-02
 9.50000E+00    1.74707E-02
 1.00000E+01    1.07736E-02
 1.05000E+01    6.68513E-03
 1.10000E+01    4.17455E-03
 1.15000E+01    2.62214E-03
 1.20000E+01    1.65721E-03
 1.25000E+01    1.05347E-03
 1.30000E+01    6.74235E-04
 1.35000E+01    4.34216E-04
 1.40000E+01    2.81413E-04
 1.45000E+01    1.83470E-04
 1.50000E+01    1.20232E-04
 1.60000E+01    5.26492E-05
 1.70000E+01    2.35309E-05
 1.80000E+01    1.06816E-05
 1.90000E+01    4.91027E-06
 2.00000E+01    2.28504E-06
 2.10000E+01    1.07461E-06
 2.20000E+01    5.03550E-07
 2.30000E+01    2.42020E-07
 2.40000E+01    1.17370E-07
 2.50000E+01    5.76120E-08
 2.60000E+01    2.85590E-08
 2.70000E+01    1.43780E-08
 2.80000E+01    7.30950E-09
 2.90000E+01    3.75530E-09
 3.00000E+01    1.94810E-09
