# n + Nb 92 : (n,n'22)  
# jeff3.3    A.J. Koning and D. Rochman        EVAL-DEC15
# uncertainties: n
# # energies =    71
#   E(MeV)       xs(mb) 
 1.49756E+00    0.00000E+00
 1.54073E+00    5.44117E-04
 1.57095E+00    9.25012E-04
 1.58288E+00    1.07538E-03
 1.60000E+00    1.29116E-03
 1.62464E+00    2.58819E-03
 1.65062E+00    3.95576E-03
 1.66002E+00    4.45057E-03
 1.66841E+00    4.89221E-03
 1.68489E+00    5.75970E-03
 1.80000E+00    1.18190E-02
 2.00000E+00    4.31347E-02
 2.20000E+00    1.05407E-01
 2.40000E+00    1.94923E-01
 2.60000E+00    2.92787E-01
 2.80000E+00    3.74743E-01
 3.00000E+00    4.24712E-01
 3.20000E+00    4.38961E-01
 3.40000E+00    4.23383E-01
 3.60000E+00    3.88815E-01
 3.80000E+00    3.44296E-01
 4.00000E+00    2.97817E-01
 4.20000E+00    2.53649E-01
 4.40000E+00    2.13904E-01
 4.60000E+00    1.79780E-01
 4.80000E+00    1.50888E-01
 5.00000E+00    1.27054E-01
 5.20000E+00    1.07374E-01
 5.40000E+00    9.09511E-02
 5.60000E+00    7.73824E-02
 5.80000E+00    6.60785E-02
 6.00000E+00    5.64248E-02
 6.20000E+00    4.84517E-02
 6.40000E+00    4.14867E-02
 6.60000E+00    3.55744E-02
 6.80000E+00    3.04796E-02
 7.00000E+00    2.60498E-02
 7.20000E+00    2.22158E-02
 7.40000E+00    1.88872E-02
 7.60000E+00    1.60628E-02
 7.80000E+00    1.36418E-02
 8.00000E+00    1.15570E-02
 8.50000E+00    7.62179E-03
 9.00000E+00    4.99644E-03
 9.50000E+00    3.26428E-03
 1.00000E+01    2.12999E-03
 1.05000E+01    1.39035E-03
 1.10000E+01    9.08427E-04
 1.15000E+01    5.94073E-04
 1.20000E+01    3.89079E-04
 1.25000E+01    2.55207E-04
 1.30000E+01    1.67872E-04
 1.35000E+01    1.10718E-04
 1.40000E+01    7.32495E-05
 1.45000E+01    4.86106E-05
 1.50000E+01    3.23460E-05
 1.60000E+01    1.45206E-05
 1.70000E+01    6.62239E-06
 1.80000E+01    3.06242E-06
 1.90000E+01    1.43370E-06
 2.00000E+01    6.79130E-07
 2.10000E+01    3.24620E-07
 2.20000E+01    1.54260E-07
 2.30000E+01    7.50030E-08
 2.40000E+01    3.67150E-08
 2.50000E+01    1.81630E-08
 2.60000E+01    9.06480E-09
 2.70000E+01    4.59180E-09
 2.80000E+01    2.34790E-09
 2.90000E+01    1.21280E-09
 3.00000E+01    6.32310E-10
