# n + Nb 92 : (n,n'11)  
# jeff3.3    A.J. Koning and D. Rochman        EVAL-DEC15
# uncertainties: n
# # energies =    83
#   E(MeV)       xs(mb) 
 1.32519E+00    0.00000E+00
 1.33833E+00    2.96252E-03
 1.36027E+00    7.90903E-03
 1.38908E+00    1.44044E-02
 1.40000E+00    1.68664E-02
 1.40541E+00    1.96566E-02
 1.42163E+00    2.80217E-02
 1.42578E+00    3.01620E-02
 1.43053E+00    3.26117E-02
 1.43831E+00    3.66242E-02
 1.48401E+00    6.01931E-02
 1.48896E+00    6.27460E-02
 1.49756E+00    6.71813E-02
 1.54073E+00    8.94455E-02
 1.57095E+00    1.05031E-01
 1.58288E+00    1.11184E-01
 1.60000E+00    1.20013E-01
 1.62464E+00    1.39519E-01
 1.65062E+00    1.60085E-01
 1.66002E+00    1.67526E-01
 1.66841E+00    1.74168E-01
 1.68489E+00    1.87214E-01
 1.80000E+00    2.78337E-01
 2.00000E+00    5.04421E-01
 2.20000E+00    7.63057E-01
 2.40000E+00    9.93160E-01
 2.60000E+00    1.15255E+00
 2.80000E+00    1.22635E+00
 3.00000E+00    1.22532E+00
 3.20000E+00    1.16897E+00
 3.40000E+00    1.07770E+00
 3.60000E+00    9.70316E-01
 3.80000E+00    8.57377E-01
 4.00000E+00    7.48710E-01
 4.20000E+00    6.47925E-01
 4.40000E+00    5.56455E-01
 4.60000E+00    4.75892E-01
 4.80000E+00    4.05201E-01
 5.00000E+00    3.44645E-01
 5.20000E+00    2.92750E-01
 5.40000E+00    2.48002E-01
 5.60000E+00    2.10074E-01
 5.80000E+00    1.77783E-01
 6.00000E+00    1.50005E-01
 6.20000E+00    1.26946E-01
 6.40000E+00    1.06923E-01
 6.60000E+00    9.00548E-02
 6.80000E+00    7.57703E-02
 7.00000E+00    6.35488E-02
 7.20000E+00    5.31939E-02
 7.40000E+00    4.44232E-02
 7.60000E+00    3.70984E-02
 7.80000E+00    3.09814E-02
 8.00000E+00    2.58222E-02
 8.50000E+00    1.64040E-02
 9.00000E+00    1.04067E-02
 9.50000E+00    6.60659E-03
 1.00000E+01    4.20359E-03
 1.05000E+01    2.68373E-03
 1.10000E+01    1.71976E-03
 1.15000E+01    1.10586E-03
 1.20000E+01    7.13933E-04
 1.25000E+01    4.62694E-04
 1.30000E+01    3.01391E-04
 1.35000E+01    1.97251E-04
 1.40000E+01    1.29740E-04
 1.45000E+01    8.57435E-05
 1.50000E+01    5.68999E-05
 1.60000E+01    2.54815E-05
 1.70000E+01    1.16117E-05
 1.80000E+01    5.36005E-06
 1.90000E+01    2.49949E-06
 2.00000E+01    1.17727E-06
 2.10000E+01    5.59270E-07
 2.20000E+01    2.64310E-07
 2.30000E+01    1.27960E-07
 2.40000E+01    6.24470E-08
 2.50000E+01    3.08240E-08
 2.60000E+01    1.53560E-08
 2.70000E+01    7.76550E-09
 2.80000E+01    3.96380E-09
 2.90000E+01    2.04380E-09
 3.00000E+01    1.06370E-09
