# n + Ag107 : (n,h)     
# jendl4.0   N.Iwamoto,K.Shibata               EVAL-Dec09
# uncertainties: n
# # energies =    46
#   E(MeV)       xs(mb) 
 7.48597E+00    0.00000E+00
 7.61698E+00    1.80070E-21
 7.63651E+00    2.08030E-21
 7.88223E+00    5.81030E-21
 7.94614E+00    6.78080E-21
 7.95980E+00    6.98820E-21
 7.96444E+00    7.05870E-21
 7.99004E+00    7.44740E-21
 8.01492E+00    7.98120E-21
 8.09441E+00    9.94550E-21
 8.13070E+00    1.08730E-20
 8.21716E+00    1.31280E-20
 8.22715E+00    1.33900E-20
 8.25524E+00    1.41270E-20
 8.27636E+00    1.46830E-20
 8.27931E+00    1.47600E-20
 8.28841E+00    1.50000E-20
 8.29956E+00    1.52940E-20
 8.31068E+00    1.55870E-20
 8.32380E+00    1.59330E-20
 8.32750E+00    1.60300E-20
 8.33658E+00    1.62700E-20
 8.36014E+00    1.68920E-20
 8.36349E+00    1.69800E-20
 8.38884E+00    1.76500E-20
 1.00000E+01    6.02020E-20
 1.05000E+01    3.87210E-17
 1.10000E+01    6.31080E-15
 1.15000E+01    3.01650E-13
 1.20000E+01    6.10520E-12
 1.25000E+01    6.76590E-11
 1.30000E+01    5.07540E-10
 1.35000E+01    3.19570E-09
 1.40000E+01    1.92010E-08
 1.45000E+01    1.07110E-07
 1.50000E+01    5.15530E-07
 1.55000E+01    1.97346E-06
 1.60000E+01    6.66907E-06
 1.65000E+01    1.99680E-05
 1.70000E+01    5.36273E-05
 1.75000E+01    1.32057E-04
 1.80000E+01    2.80067E-04
 1.85000E+01    5.60482E-04
 1.90000E+01    1.06153E-03
 1.95000E+01    1.90470E-03
 2.00000E+01    3.14155E-03
