# n + Ag107 : (n,n'01)  
# jendl4.0   N.Iwamoto,K.Shibata               EVAL-Dec09
# uncertainties: n
# # energies =    88
#   E(MeV)       xs(mb) 
 9.40036E-02    0.00000E+00
 1.00000E-01    1.06858E+00
 1.10000E-01    3.38470E+00
 1.20000E-01    5.88573E+00
 1.26775E-01    7.60852E+00
 1.30000E-01    8.39355E+00
 1.40000E-01    1.08775E+01
 1.50000E-01    1.34093E+01
 1.60000E-01    1.60413E+01
 1.70000E-01    1.88041E+01
 1.80000E-01    2.16589E+01
 1.90000E-01    2.46158E+01
 2.00000E-01    2.77179E+01
 2.25000E-01    3.60084E+01
 2.50000E-01    4.48586E+01
 2.75000E-01    5.44099E+01
 3.00000E-01    6.44202E+01
 3.27875E-01    7.60470E+01
 4.00000E-01    9.52941E+01
 4.27142E-01    1.03690E+02
 5.00000E-01    1.15021E+02
 6.00000E-01    1.36874E+02
 7.00000E-01    1.59358E+02
 7.80606E-01    1.77077E+02
 7.94012E-01    1.79926E+02
 8.00000E-01    1.79799E+02
 9.00000E-01    1.93319E+02
 9.30760E-01    1.97531E+02
 9.58661E-01    1.98582E+02
 9.82483E-01    1.96022E+02
 1.00000E+00    1.93732E+02
 1.00035E+00    1.93692E+02
 1.07121E+00    1.87824E+02
 1.10000E+00    1.84927E+02
 1.15278E+00    1.80802E+02
 1.15384E+00    1.80698E+02
 1.15772E+00    1.79842E+02
 1.20000E+00    1.74286E+02
 1.23353E+00    1.70441E+02
 1.23455E+00    1.70342E+02
 1.27077E+00    1.65610E+02
 1.30000E+00    1.61262E+02
 1.33831E+00    1.55974E+02
 1.40000E+00    1.48475E+02
 1.50000E+00    1.39983E+02
 1.60000E+00    1.30700E+02
 1.70000E+00    1.21011E+02
 1.80000E+00    1.12144E+02
 1.90000E+00    1.03985E+02
 2.00000E+00    9.61118E+01
 2.25000E+00    7.26187E+01
 2.50000E+00    5.75322E+01
 2.75000E+00    4.32798E+01
 3.00000E+00    3.14387E+01
 3.50000E+00    1.65080E+01
 4.00000E+00    8.46498E+00
 4.50000E+00    4.27085E+00
 5.00000E+00    2.12869E+00
 5.50000E+00    1.05329E+00
 6.00000E+00    5.22107E-01
 6.50000E+00    2.65554E-01
 7.00000E+00    1.43151E-01
 7.50000E+00    8.42940E-02
 8.00000E+00    5.53000E-02
 8.50000E+00    4.04581E-02
 9.00000E+00    3.24657E-02
 9.50000E+00    2.78828E-02
 1.00000E+01    2.50397E-02
 1.05000E+01    2.31106E-02
 1.10000E+01    2.16716E-02
 1.15000E+01    2.04440E-02
 1.20000E+01    1.93973E-02
 1.25000E+01    1.84590E-02
 1.30000E+01    1.76143E-02
 1.35000E+01    1.68437E-02
 1.40000E+01    1.61405E-02
 1.45000E+01    1.54748E-02
 1.50000E+01    1.48652E-02
 1.55000E+01    1.42502E-02
 1.60000E+01    1.36925E-02
 1.65000E+01    1.31235E-02
 1.70000E+01    1.25883E-02
 1.75000E+01    1.20437E-02
 1.80000E+01    1.15551E-02
 1.85000E+01    1.10719E-02
 1.90000E+01    1.06223E-02
 1.95000E+01    1.01798E-02
 2.00000E+01    9.77317E-03
