# n + Ag107 : (n,n'13)  
# jendl4.0   N.Iwamoto,K.Shibata               EVAL-Dec09
# uncertainties: n
# # energies =    53
#   E(MeV)       xs(mb) 
 1.15384E+00    0.00000E+00
 1.15772E+00    2.70564E+00
 1.20000E+00    2.40279E+01
 1.23353E+00    4.18537E+01
 1.23455E+00    4.23702E+01
 1.27077E+00    5.93704E+01
 1.30000E+00    7.06991E+01
 1.33831E+00    8.38278E+01
 1.40000E+00    9.92105E+01
 1.50000E+00    1.15599E+02
 1.60000E+00    1.20477E+02
 1.70000E+00    1.18605E+02
 1.80000E+00    1.12662E+02
 1.90000E+00    1.04905E+02
 2.00000E+00    9.62193E+01
 2.25000E+00    7.13835E+01
 2.50000E+00    5.55579E+01
 2.75000E+00    4.14962E+01
 3.00000E+00    2.99207E+01
 3.50000E+00    1.54648E+01
 4.00000E+00    7.71527E+00
 4.50000E+00    3.78992E+00
 5.00000E+00    1.85705E+00
 5.50000E+00    9.11760E-01
 6.00000E+00    4.48985E-01
 6.50000E+00    2.24528E-01
 7.00000E+00    1.16550E-01
 7.50000E+00    6.44320E-02
 8.00000E+00    3.89297E-02
 8.50000E+00    2.61392E-02
 9.00000E+00    1.94912E-02
 9.50000E+00    1.58691E-02
 1.00000E+01    1.37723E-02
 1.05000E+01    1.24682E-02
 1.10000E+01    1.15705E-02
 1.15000E+01    1.08998E-02
 1.20000E+01    1.03543E-02
 1.25000E+01    9.87883E-03
 1.30000E+01    9.45688E-03
 1.35000E+01    9.07056E-03
 1.40000E+01    8.71773E-03
 1.45000E+01    8.38528E-03
 1.50000E+01    8.08124E-03
 1.55000E+01    7.77630E-03
 1.60000E+01    7.50290E-03
 1.65000E+01    7.22218E-03
 1.70000E+01    6.95676E-03
 1.75000E+01    6.68486E-03
 1.80000E+01    6.43961E-03
 1.85000E+01    6.19172E-03
 1.90000E+01    5.95978E-03
 1.95000E+01    5.72951E-03
 2.00000E+01    5.51697E-03
