# n + Ag107 : (n,xh)    
# jendl4.0   N.Iwamoto,K.Shibata               EVAL-Dec09
# 
# # energies =    90
#   E(MeV)        xs(mb) 
 9.40036E-02    0.00000E+00
 1.00000E-01    0.00000E+00
 1.05000E-01    0.00000E+00
 1.10000E-01    0.00000E+00
 1.20000E-01    0.00000E+00
 1.26775E-01    0.00000E+00
 1.30000E-01    0.00000E+00
 1.40000E-01    0.00000E+00
 1.50000E-01    0.00000E+00
 1.60000E-01    0.00000E+00
 1.70000E-01    0.00000E+00
 1.80000E-01    0.00000E+00
 1.90000E-01    0.00000E+00
 2.00000E-01    0.00000E+00
 2.25000E-01    0.00000E+00
 2.50000E-01    0.00000E+00
 2.75000E-01    0.00000E+00
 3.00000E-01    0.00000E+00
 3.27875E-01    0.00000E+00
 4.00000E-01    0.00000E+00
 4.27142E-01    0.00000E+00
 5.00000E-01    0.00000E+00
 6.00000E-01    0.00000E+00
 7.00000E-01    0.00000E+00
 7.80606E-01    0.00000E+00
 7.94012E-01    0.00000E+00
 8.00000E-01    0.00000E+00
 9.00000E-01    0.00000E+00
 9.30760E-01    0.00000E+00
 9.58661E-01    0.00000E+00
 9.82483E-01    0.00000E+00
 1.00000E+00    0.00000E+00
 1.00035E+00    0.00000E+00
 1.07121E+00    0.00000E+00
 1.10000E+00    0.00000E+00
 1.15277E+00    0.00000E+00
 1.15278E+00    0.00000E+00
 1.15384E+00    0.00000E+00
 1.15772E+00    0.00000E+00
 1.20000E+00    0.00000E+00
 1.23353E+00    0.00000E+00
 1.23455E+00    0.00000E+00
 1.27077E+00    0.00000E+00
 1.30000E+00    0.00000E+00
 1.33831E+00    0.00000E+00
 1.40000E+00    0.00000E+00
 1.50000E+00    0.00000E+00
 1.60000E+00    0.00000E+00
 1.70000E+00    0.00000E+00
 1.80000E+00    0.00000E+00
 1.90000E+00    0.00000E+00
 2.00000E+00    0.00000E+00
 2.25000E+00    0.00000E+00
 2.50000E+00    0.00000E+00
 2.75000E+00    0.00000E+00
 3.00000E+00    0.00000E+00
 3.50000E+00    0.00000E+00
 4.00000E+00    0.00000E+00
 4.50000E+00    0.00000E+00
 5.00000E+00    0.00000E+00
 5.50000E+00    0.00000E+00
 6.00000E+00    0.00000E+00
 6.50000E+00    0.00000E+00
 7.00000E+00    0.00000E+00
 7.50000E+00    1.92839E-22
 8.00000E+00    7.66109E-21
 8.50000E+00    2.05858E-20
 9.00000E+00    3.37912E-20
 9.50000E+00    4.69966E-20
 1.00000E+01    6.02020E-20
 1.05000E+01    3.87210E-17
 1.10000E+01    6.31080E-15
 1.15000E+01    3.01650E-13
 1.20000E+01    6.10520E-12
 1.25000E+01    6.76590E-11
 1.30000E+01    5.07540E-10
 1.35000E+01    3.19570E-09
 1.40000E+01    1.92010E-08
 1.45000E+01    1.07110E-07
 1.50000E+01    5.15530E-07
 1.55000E+01    1.97346E-06
 1.60000E+01    6.66907E-06
 1.65000E+01    1.99680E-05
 1.70000E+01    5.36273E-05
 1.75000E+01    1.32057E-04
 1.80000E+01    2.80067E-04
 1.85000E+01    5.60482E-04
 1.90000E+01    1.06153E-03
 1.95000E+01    1.90470E-03
 2.00000E+01    3.14155E-03
