# n + Ag107 : (n,n'05)  
# jendl4.0   N.Iwamoto,K.Shibata               EVAL-Dec09
# uncertainties: n
# # energies =    65
#   E(MeV)       xs(mb) 
 7.80606E-01    0.00000E+00
 7.94012E-01    1.35550E-02
 8.00000E-01    2.07120E-02
 9.00000E-01    2.95580E-01
 9.30760E-01    4.44704E-01
 9.58661E-01    6.09808E-01
 9.82483E-01    7.71610E-01
 1.00000E+00    8.90419E-01
 1.00035E+00    8.92882E-01
 1.07121E+00    1.45501E+00
 1.10000E+00    1.69660E+00
 1.15278E+00    2.21797E+00
 1.15384E+00    2.22953E+00
 1.15772E+00    2.26930E+00
 1.20000E+00    2.68525E+00
 1.23353E+00    3.03299E+00
 1.23455E+00    3.04245E+00
 1.27077E+00    3.41850E+00
 1.30000E+00    3.73715E+00
 1.33831E+00    4.18309E+00
 1.40000E+00    4.98066E+00
 1.50000E+00    6.36631E+00
 1.60000E+00    7.58160E+00
 1.70000E+00    8.68899E+00
 1.80000E+00    9.64278E+00
 1.90000E+00    1.04225E+01
 2.00000E+00    1.19131E+01
 2.25000E+00    1.19300E+01
 2.50000E+00    1.17447E+01
 2.75000E+00    1.07601E+01
 3.00000E+00    9.15562E+00
 3.50000E+00    6.36403E+00
 4.00000E+00    4.21896E+00
 4.50000E+00    2.79401E+00
 5.00000E+00    1.91997E+00
 5.50000E+00    1.40688E+00
 6.00000E+00    1.10830E+00
 6.50000E+00    9.29937E-01
 7.00000E+00    8.15227E-01
 7.50000E+00    7.34120E-01
 8.00000E+00    6.72364E-01
 8.50000E+00    6.23266E-01
 9.00000E+00    5.83349E-01
 9.50000E+00    5.50467E-01
 1.00000E+01    5.22768E-01
 1.05000E+01    4.98825E-01
 1.10000E+01    4.76909E-01
 1.15000E+01    4.56542E-01
 1.20000E+01    4.37246E-01
 1.25000E+01    4.18816E-01
 1.30000E+01    4.01549E-01
 1.35000E+01    3.85213E-01
 1.40000E+01    3.70070E-01
 1.45000E+01    3.55606E-01
 1.50000E+01    3.42259E-01
 1.55000E+01    3.28895E-01
 1.60000E+01    3.16626E-01
 1.65000E+01    3.04195E-01
 1.70000E+01    2.92389E-01
 1.75000E+01    2.80342E-01
 1.80000E+01    2.69394E-01
 1.85000E+01    2.58474E-01
 1.90000E+01    2.48272E-01
 1.95000E+01    2.38157E-01
 2.00000E+01    2.28852E-01
