# n + Ag107 : (n,n'08)  
# jendl4.0   N.Iwamoto,K.Shibata               EVAL-Dec09
# uncertainties: n
# # energies =    60
#   E(MeV)       xs(mb) 
 9.58661E-01    0.00000E+00
 9.82483E-01    1.79247E+01
 1.00000E+00    3.13337E+01
 1.00035E+00    3.16096E+01
 1.07121E+00    8.27215E+01
 1.10000E+00    9.88289E+01
 1.15278E+00    1.23513E+02
 1.15384E+00    1.23897E+02
 1.15772E+00    1.25337E+02
 1.20000E+00    1.36671E+02
 1.23353E+00    1.44005E+02
 1.23455E+00    1.44216E+02
 1.27077E+00    1.49460E+02
 1.30000E+00    1.51471E+02
 1.33831E+00    1.54616E+02
 1.40000E+00    1.56611E+02
 1.50000E+00    1.56674E+02
 1.60000E+00    1.49485E+02
 1.70000E+00    1.39668E+02
 1.80000E+00    1.28706E+02
 1.90000E+00    1.17706E+02
 2.00000E+00    1.06830E+02
 2.25000E+00    7.83137E+01
 2.50000E+00    6.07099E+01
 2.75000E+00    4.48689E+01
 3.00000E+00    3.23452E+01
 3.50000E+00    1.64735E+01
 4.00000E+00    8.18539E+00
 4.50000E+00    4.06232E+00
 5.00000E+00    2.04865E+00
 5.50000E+00    1.06539E+00
 6.00000E+00    5.82971E-01
 6.50000E+00    3.46471E-01
 7.00000E+00    2.29659E-01
 7.50000E+00    1.70085E-01
 8.00000E+00    1.37939E-01
 8.50000E+00    1.19221E-01
 9.00000E+00    1.07364E-01
 9.50000E+00    9.92216E-02
 1.00000E+01    9.31805E-02
 1.05000E+01    8.83833E-02
 1.10000E+01    8.42264E-02
 1.15000E+01    8.04855E-02
 1.20000E+01    7.69861E-02
 1.25000E+01    7.36365E-02
 1.30000E+01    7.04899E-02
 1.35000E+01    6.74878E-02
 1.40000E+01    6.46735E-02
 1.45000E+01    6.19747E-02
 1.50000E+01    5.94536E-02
 1.55000E+01    5.81683E-02
 1.60000E+01    5.59329E-02
 1.65000E+01    5.27129E-02
 1.70000E+01    5.15256E-02
 1.75000E+01    4.99420E-02
 1.80000E+01    4.78993E-02
 1.85000E+01    4.52922E-02
 1.90000E+01    4.35032E-02
 1.95000E+01    4.24515E-02
 2.00000E+01    4.10926E-02
