# n + Pt195 : (n,n'08)  
# endfb8.0   A.J. Koning and D. Rochman        EVAL-DEC15
# uncertainties: n
# # energies =    94
#   E(MeV)       xs(mb) 
 3.91173E-01    0.00000E+00
 4.00000E-01    2.12656E+01
 4.21874E-01    3.56749E+01
 4.34235E-01    4.38175E+01
 4.43211E-01    4.97304E+01
 4.51986E-01    5.55108E+01
 4.57555E-01    5.91793E+01
 5.00000E-01    8.71395E+01
 5.10709E-01    9.04632E+01
 5.27563E-01    9.56941E+01
 5.41789E-01    1.00109E+02
 5.47015E-01    1.01731E+02
 5.50101E-01    1.02689E+02
 5.65722E-01    1.07537E+02
 5.93953E-01    1.16299E+02
 6.00000E-01    1.18176E+02
 6.15890E-01    1.21371E+02
 6.33398E-01    1.24891E+02
 6.35370E-01    1.25287E+02
 6.67636E-01    1.31774E+02
 6.70551E-01    1.32360E+02
 6.81508E-01    1.34563E+02
 6.98897E-01    1.38059E+02
 7.00000E-01    1.38281E+02
 7.43372E-01    1.44364E+02
 7.69762E-01    1.48065E+02
 7.97103E-01    1.51900E+02
 8.00000E-01    1.52306E+02
 9.00000E-01    1.60256E+02
 1.00000E+00    1.63941E+02
 1.20000E+00    1.65731E+02
 1.40000E+00    1.66034E+02
 1.60000E+00    1.68275E+02
 1.80000E+00    1.73618E+02
 2.00000E+00    1.81929E+02
 2.20000E+00    1.92309E+02
 2.40000E+00    2.03401E+02
 2.60000E+00    2.13814E+02
 2.80000E+00    2.22506E+02
 3.00000E+00    2.28948E+02
 3.20000E+00    2.33091E+02
 3.40000E+00    2.35185E+02
 3.60000E+00    2.35567E+02
 3.80000E+00    2.34545E+02
 4.00000E+00    2.32323E+02
 4.20000E+00    2.29087E+02
 4.40000E+00    2.25011E+02
 4.60000E+00    2.20286E+02
 4.80000E+00    2.15091E+02
 5.00000E+00    2.09572E+02
 5.20000E+00    2.03809E+02
 5.40000E+00    1.97833E+02
 5.60000E+00    1.91640E+02
 5.80000E+00    1.85240E+02
 6.00000E+00    1.78661E+02
 6.20000E+00    1.71969E+02
 6.40000E+00    1.65257E+02
 6.60000E+00    1.58630E+02
 6.80000E+00    1.52194E+02
 7.00000E+00    1.46037E+02
 7.20000E+00    1.40230E+02
 7.40000E+00    1.34822E+02
 7.60000E+00    1.29839E+02
 7.80000E+00    1.25289E+02
 8.00000E+00    1.21165E+02
 8.50000E+00    1.12543E+02
 9.00000E+00    1.05861E+02
 9.50000E+00    1.00448E+02
 1.00000E+01    9.57307E+01
 1.05000E+01    9.13544E+01
 1.10000E+01    8.71746E+01
 1.15000E+01    8.31849E+01
 1.20000E+01    7.94349E+01
 1.25000E+01    7.59771E+01
 1.30000E+01    7.28408E+01
 1.35000E+01    7.00229E+01
 1.40000E+01    6.74896E+01
 1.45000E+01    6.51840E+01
 1.50000E+01    6.30393E+01
 1.60000E+01    5.89897E+01
 1.70000E+01    5.50327E+01
 1.80000E+01    5.11711E+01
 1.90000E+01    4.75900E+01
 2.00000E+01    4.44703E+01
 2.10000E+01    4.18790E+01
 2.20000E+01    3.97619E+01
 2.30000E+01    3.79993E+01
 2.40000E+01    3.64590E+01
 2.50000E+01    3.50260E+01
 2.60000E+01    3.36223E+01
 2.70000E+01    3.22263E+01
 2.80000E+01    3.08702E+01
 2.90000E+01    2.96107E+01
 3.00000E+01    2.84936E+01
