# n + Pt195 : (n,n'25)  
# endfb8.0   A.J. Koning and D. Rochman        EVAL-DEC15
# uncertainties: n
# # energies =    74
#   E(MeV)       xs(mb) 
 6.70551E-01    0.00000E+00
 6.81508E-01    1.58914E-01
 6.98897E-01    4.11115E-01
 7.00000E-01    4.27112E-01
 7.43372E-01    1.17161E+00
 7.69762E-01    1.62461E+00
 7.97103E-01    2.09393E+00
 8.00000E-01    2.14366E+00
 9.00000E-01    4.17768E+00
 1.00000E+00    5.83168E+00
 1.20000E+00    7.56297E+00
 1.40000E+00    7.85771E+00
 1.60000E+00    7.51176E+00
 1.80000E+00    6.93988E+00
 2.00000E+00    6.30643E+00
 2.20000E+00    5.67005E+00
 2.40000E+00    5.04567E+00
 2.60000E+00    4.43727E+00
 2.80000E+00    3.85627E+00
 3.00000E+00    3.31303E+00
 3.20000E+00    2.81532E+00
 3.40000E+00    2.36885E+00
 3.60000E+00    1.97558E+00
 3.80000E+00    1.63474E+00
 4.00000E+00    1.34313E+00
 4.20000E+00    1.09653E+00
 4.40000E+00    8.90208E-01
 4.60000E+00    7.19157E-01
 4.80000E+00    5.78352E-01
 5.00000E+00    4.63139E-01
 5.20000E+00    3.69584E-01
 5.40000E+00    2.93906E-01
 5.60000E+00    2.31707E-01
 5.80000E+00    1.82780E-01
 6.00000E+00    1.43717E-01
 6.20000E+00    1.12893E-01
 6.40000E+00    8.85231E-02
 6.60000E+00    6.92150E-02
 6.80000E+00    5.41147E-02
 7.00000E+00    4.22167E-02
 7.20000E+00    3.29120E-02
 7.40000E+00    2.56822E-02
 7.60000E+00    2.00263E-02
 7.80000E+00    1.56557E-02
 8.00000E+00    1.22486E-02
 8.50000E+00    6.68474E-03
 9.00000E+00    3.69292E-03
 9.50000E+00    2.06370E-03
 1.00000E+01    1.16480E-03
 1.05000E+01    6.63017E-04
 1.10000E+01    3.80279E-04
 1.15000E+01    2.19680E-04
 1.20000E+01    1.27811E-04
 1.25000E+01    7.49309E-05
 1.30000E+01    4.42682E-05
 1.35000E+01    2.63611E-05
 1.40000E+01    1.58190E-05
 1.45000E+01    9.56275E-06
 1.50000E+01    5.81897E-06
 1.60000E+01    2.19236E-06
 1.70000E+01    8.38150E-07
 1.80000E+01    3.27350E-07
 1.90000E+01    1.29880E-07
 2.00000E+01    5.23730E-08
 2.10000E+01    2.14950E-08
 2.20000E+01    8.97760E-09
 2.30000E+01    3.81600E-09
 2.40000E+01    1.64970E-09
 2.50000E+01    7.24790E-10
 2.60000E+01    3.22030E-10
 2.70000E+01    1.44640E-10
 2.80000E+01    6.56320E-11
 2.90000E+01    3.00740E-11
 3.00000E+01    1.39220E-11
