# n + Zn 64 : (n,n'13)  
# endfb8.0   N.Iwamoto                         EVAL-Dec09
# uncertainties: n
# # energies =    62
#   E(MeV)       xs(mb) 
 3.14341E+00    0.00000E+00
 3.23706E+00    1.34364E+01
 3.24724E+00    1.40508E+01
 3.25649E+00    1.42603E+01
 3.29112E+00    1.57801E+01
 3.31346E+00    1.64063E+01
 3.33683E+00    1.69619E+01
 3.34920E+00    1.71279E+01
 3.35902E+00    1.73379E+01
 3.37421E+00    1.77025E+01
 3.41906E+00    1.84525E+01
 3.42299E+00    1.84289E+01
 3.46888E+00    1.90135E+01
 3.47919E+00    1.90148E+01
 3.50000E+00    1.90210E+01
 3.50677E+00    1.90707E+01
 3.51309E+00    1.90349E+01
 3.51967E+00    1.89761E+01
 3.55522E+00    1.89278E+01
 3.59453E+00    1.89574E+01
 3.60296E+00    1.89056E+01
 3.60835E+00    1.88479E+01
 3.64360E+00    1.88050E+01
 3.65396E+00    1.87246E+01
 3.65883E+00    1.86653E+01
 3.66340E+00    1.85977E+01
 3.67783E+00    1.84407E+01
 3.68423E+00    1.83607E+01
 3.68565E+00    1.83298E+01
 4.00000E+00    1.57390E+01
 4.50000E+00    1.13540E+01
 5.00000E+00    8.08774E+00
 5.50000E+00    5.72236E+00
 6.00000E+00    4.28174E+00
 6.50000E+00    3.32704E+00
 7.00000E+00    2.67132E+00
 7.50000E+00    2.20489E+00
 8.00000E+00    1.86439E+00
 8.50000E+00    1.60921E+00
 9.00000E+00    1.41721E+00
 9.50000E+00    1.27032E+00
 1.00000E+01    1.15501E+00
 1.05000E+01    1.06057E+00
 1.10000E+01    9.85329E-01
 1.15000E+01    9.19280E-01
 1.20000E+01    8.64309E-01
 1.25000E+01    8.14135E-01
 1.30000E+01    7.70555E-01
 1.35000E+01    7.29342E-01
 1.40000E+01    6.92667E-01
 1.45000E+01    6.57667E-01
 1.50000E+01    6.26147E-01
 1.55000E+01    5.95974E-01
 1.60000E+01    5.68557E-01
 1.65000E+01    5.42375E-01
 1.70000E+01    5.18491E-01
 1.75000E+01    4.95570E-01
 1.80000E+01    4.74518E-01
 1.85000E+01    4.54098E-01
 1.90000E+01    4.35277E-01
 1.95000E+01    4.16975E-01
 2.00000E+01    3.99858E-01
