# n + Zn 64 : (n,n'10)  
# endfb8.0   N.Iwamoto                         EVAL-Dec09
# uncertainties: n
# # energies =    65
#   E(MeV)       xs(mb) 
 3.05311E+00    0.00000E+00
 3.11966E+00    4.22826E+01
 3.12633E+00    4.42304E+01
 3.14341E+00    4.85048E+01
 3.23706E+00    6.66153E+01
 3.24724E+00    6.78206E+01
 3.25649E+00    6.90799E+01
 3.29112E+00    7.24089E+01
 3.31346E+00    7.47301E+01
 3.33683E+00    7.64915E+01
 3.34920E+00    7.75680E+01
 3.35902E+00    7.75419E+01
 3.37421E+00    7.81803E+01
 3.41906E+00    7.97263E+01
 3.42299E+00    7.96955E+01
 3.46888E+00    8.01776E+01
 3.47919E+00    8.02981E+01
 3.50000E+00    8.02214E+01
 3.50677E+00    8.02745E+01
 3.51309E+00    8.03116E+01
 3.51967E+00    8.03450E+01
 3.55522E+00    8.05441E+01
 3.59453E+00    7.95882E+01
 3.60296E+00    7.94715E+01
 3.60835E+00    7.93923E+01
 3.64360E+00    7.88953E+01
 3.65396E+00    7.87573E+01
 3.65883E+00    7.86535E+01
 3.66340E+00    7.85532E+01
 3.67783E+00    7.82406E+01
 3.68423E+00    7.80961E+01
 3.68565E+00    7.80600E+01
 4.00000E+00    6.37362E+01
 4.50000E+00    4.00586E+01
 5.00000E+00    2.61013E+01
 5.50000E+00    1.68579E+01
 6.00000E+00    1.14888E+01
 6.50000E+00    8.02304E+00
 7.00000E+00    5.73475E+00
 7.50000E+00    4.16817E+00
 8.00000E+00    3.08780E+00
 8.50000E+00    2.32824E+00
 9.00000E+00    1.79659E+00
 9.50000E+00    1.42250E+00
 1.00000E+01    1.15651E+00
 1.05000E+01    9.63829E-01
 1.10000E+01    8.25412E-01
 1.15000E+01    7.20988E-01
 1.20000E+01    6.43266E-01
 1.25000E+01    5.81895E-01
 1.30000E+01    5.34000E-01
 1.35000E+01    4.93871E-01
 1.40000E+01    4.61211E-01
 1.45000E+01    4.32437E-01
 1.50000E+01    4.08049E-01
 1.55000E+01    3.85855E-01
 1.60000E+01    3.66387E-01
 1.65000E+01    3.48366E-01
 1.70000E+01    3.32212E-01
 1.75000E+01    3.16994E-01
 1.80000E+01    3.03131E-01
 1.85000E+01    2.89813E-01
 1.90000E+01    2.77598E-01
 1.95000E+01    2.65747E-01
 2.00000E+01    2.54725E-01
