# n + Zn 64 : (n,t)     
# endfb8.0   N.Iwamoto                         EVAL-Dec09
# uncertainties: n
# # energies =    59
#   E(MeV)       xs(mb) 
 1.02434E+01    0.00000E+00
 1.02848E+01    1.61680E-10
 1.04906E+01    1.55500E-09
 1.05357E+01    5.93370E-09
 1.06397E+01    2.16800E-08
 1.06762E+01    2.78660E-08
 1.08003E+01    5.02000E-08
 1.08909E+01    6.66010E-08
 1.08980E+01    6.78880E-08
 1.09291E+01    7.35330E-08
 1.09527E+01    7.78210E-08
 1.09826E+01    8.32570E-08
 1.10111E+01    8.84390E-08
 1.11732E+01    1.26370E-07
 1.12416E+01    1.42910E-07
 1.12825E+01    1.52920E-07
 1.13117E+01    1.60110E-07
 1.13376E+01    1.66510E-07
 1.14031E+01    1.82730E-07
 1.14056E+01    1.83350E-07
 1.14318E+01    1.89850E-07
 1.14841E+01    2.02830E-07
 1.15000E+01    2.06780E-07
 1.15111E+01    2.62910E-07
 1.15488E+01    4.55060E-07
 1.16110E+01    7.73670E-07
 1.16189E+01    8.14230E-07
 1.16319E+01    8.81100E-07
 1.16354E+01    8.99140E-07
 1.16389E+01    9.17190E-07
 1.16604E+01    1.02829E-06
 1.16689E+01    1.07226E-06
 1.16758E+01    1.10799E-06
 1.16818E+01    1.13907E-06
 1.16935E+01    1.19973E-06
 1.16955E+01    1.21011E-06
 1.16990E+01    1.22827E-06
 1.17518E+01    1.50240E-06
 1.17720E+01    1.60732E-06
 1.17745E+01    1.62031E-06
 1.17784E+01    1.64057E-06
 1.17933E+01    1.71800E-06
 1.20000E+01    2.79232E-06
 1.25000E+01    8.66477E-05
 1.30000E+01    8.83538E-04
 1.35000E+01    4.50672E-03
 1.40000E+01    1.44866E-02
 1.45000E+01    3.40535E-02
 1.50000E+01    6.49954E-02
 1.55000E+01    1.07821E-01
 1.60000E+01    1.62124E-01
 1.65000E+01    2.27953E-01
 1.70000E+01    3.06500E-01
 1.75000E+01    3.98684E-01
 1.80000E+01    5.04492E-01
 1.85000E+01    6.24517E-01
 1.90000E+01    7.57264E-01
 1.95000E+01    9.01008E-01
 2.00000E+01    1.05325E+00
