# n + Zn 64 : (n,n'02)  
# endfb8.0   N.Iwamoto                         EVAL-Dec09
# uncertainties: n
# # energies =    79
#   E(MeV)       xs(mb) 
 1.82774E+00    0.00000E+00
 1.90000E+00    1.55545E+02
 1.94045E+00    1.87516E+02
 2.00000E+00    2.24659E+02
 2.25000E+00    3.30625E+02
 2.34310E+00    3.56894E+02
 2.50000E+00    3.78915E+02
 2.65060E+00    3.96321E+02
 2.75000E+00    3.98654E+02
 2.77971E+00    3.99024E+02
 2.83788E+00    3.96370E+02
 3.00000E+00    3.64568E+02
 3.02680E+00    3.61508E+02
 3.04569E+00    3.54531E+02
 3.05311E+00    3.48048E+02
 3.11966E+00    3.21137E+02
 3.12633E+00    3.18671E+02
 3.14341E+00    3.13190E+02
 3.23706E+00    2.88453E+02
 3.24724E+00    2.84439E+02
 3.25649E+00    2.81436E+02
 3.29112E+00    2.69897E+02
 3.31346E+00    2.63459E+02
 3.33683E+00    2.55489E+02
 3.34920E+00    2.51595E+02
 3.35902E+00    2.47004E+02
 3.37421E+00    2.41665E+02
 3.41906E+00    2.26946E+02
 3.42299E+00    2.25324E+02
 3.46888E+00    2.10697E+02
 3.47919E+00    2.07797E+02
 3.50000E+00    2.01627E+02
 3.50677E+00    1.99889E+02
 3.51309E+00    1.98199E+02
 3.51967E+00    1.96444E+02
 3.55522E+00    1.87858E+02
 3.59453E+00    1.78057E+02
 3.60296E+00    1.76174E+02
 3.60835E+00    1.74967E+02
 3.64360E+00    1.67539E+02
 3.65396E+00    1.65493E+02
 3.65883E+00    1.64529E+02
 3.66340E+00    1.63621E+02
 3.67783E+00    1.60868E+02
 3.68423E+00    1.59656E+02
 3.68565E+00    1.59374E+02
 4.00000E+00    1.06438E+02
 4.50000E+00    5.99277E+01
 5.00000E+00    3.89418E+01
 5.50000E+00    2.54840E+01
 6.00000E+00    1.76180E+01
 6.50000E+00    1.26866E+01
 7.00000E+00    9.46608E+00
 7.50000E+00    7.30263E+00
 8.00000E+00    5.82827E+00
 8.50000E+00    4.78741E+00
 9.00000E+00    4.04107E+00
 9.50000E+00    3.49428E+00
 1.00000E+01    3.08317E+00
 1.05000E+01    2.76118E+00
 1.10000E+01    2.51182E+00
 1.15000E+01    2.30106E+00
 1.20000E+01    2.12853E+00
 1.25000E+01    1.97640E+00
 1.30000E+01    1.84805E+00
 1.35000E+01    1.73125E+00
 1.40000E+01    1.63019E+00
 1.45000E+01    1.53762E+00
 1.50000E+01    1.45639E+00
 1.55000E+01    1.38082E+00
 1.60000E+01    1.31327E+00
 1.65000E+01    1.24953E+00
 1.70000E+01    1.19168E+00
 1.75000E+01    1.13621E+00
 1.80000E+01    1.08517E+00
 1.85000E+01    1.03564E+00
 1.90000E+01    9.89900E-01
 1.95000E+01    9.45523E-01
 2.00000E+01    9.03969E-01
