# n + Nb 91 : (n,d)     
# jendl.ad   K.Shibata (JAEA)                  EVAL-Jan14
# uncertainties: n
# # energies =    64
#   E(MeV)       xs(mb) 
 2.96209E+00    0.00000E+00
 4.00000E+00    4.20830E-12
 4.50000E+00    2.55460E-08
 4.74233E+00    1.64130E-06
 5.00000E+00    3.36117E-06
 5.17261E+00    2.70318E-05
 5.30682E+00    4.54366E-05
 5.50000E+00    7.19282E-05
 5.73178E+00    2.93992E-04
 5.74046E+00    3.02309E-04
 6.00000E+00    5.50969E-04
 6.07316E+00    7.92545E-04
 6.30760E+00    1.56667E-03
 6.44858E+00    2.03219E-03
 6.50000E+00    2.20198E-03
 6.55855E+00    2.60324E-03
 6.59133E+00    2.82790E-03
 6.84692E+00    4.57954E-03
 6.96501E+00    5.38884E-03
 7.00000E+00    5.62864E-03
 7.06916E+00    6.32048E-03
 7.13387E+00    6.96781E-03
 7.23194E+00    7.94885E-03
 7.23700E+00    7.99947E-03
 7.24127E+00    8.04218E-03
 7.24701E+00    8.09960E-03
 7.28958E+00    8.52545E-03
 7.31485E+00    8.77824E-03
 7.34417E+00    9.07154E-03
 7.38570E+00    9.48699E-03
 7.43517E+00    9.98186E-03
 7.47359E+00    1.03662E-02
 7.48269E+00    1.04572E-02
 7.48674E+00    1.04977E-02
 7.50000E+00    1.06304E-02
 7.50696E+00    1.07330E-02
 7.51202E+00    1.08076E-02
 7.55246E+00    1.14038E-02
 7.55385E+00    1.14243E-02
 7.59301E+00    1.20016E-02
 7.61110E+00    1.22683E-02
 7.65453E+00    1.29085E-02
 7.66671E+00    1.30881E-02
 7.69502E+00    1.35054E-02
 7.72435E+00    1.39378E-02
 7.79816E+00    1.50260E-02
 7.83253E+00    1.55326E-02
 7.84366E+00    1.56967E-02
 8.00000E+00    1.80015E-02
 8.50000E+00    3.51884E-02
 9.00000E+00    8.22429E-02
 9.50000E+00    1.91387E-01
 1.00000E+01    3.98436E-01
 1.10000E+01    1.21713E+00
 1.20000E+01    2.57456E+00
 1.30000E+01    4.24228E+00
 1.40000E+01    6.35919E+00
 1.45000E+01    7.19807E+00
 1.50000E+01    8.35844E+00
 1.60000E+01    1.06329E+01
 1.70000E+01    1.28907E+01
 1.80000E+01    1.53157E+01
 1.90000E+01    1.72179E+01
 2.00000E+01    1.94172E+01
