# n + Nb 91 : (n,xt)    
# jendl.ad   K.Shibata (JAEA)                  EVAL-Jan14
# 
# # energies =    66
#   E(MeV)        xs(mb) 
 1.05761E-01    0.00000E+00
 2.00000E-01    0.00000E+00
 3.00000E-01    0.00000E+00
 4.00000E-01    0.00000E+00
 5.00000E-01    0.00000E+00
 6.00000E-01    0.00000E+00
 7.00000E-01    0.00000E+00
 8.00000E-01    0.00000E+00
 9.00000E-01    0.00000E+00
 1.00000E+00    0.00000E+00
 1.05154E+00    0.00000E+00
 1.20005E+00    0.00000E+00
 1.32728E+00    0.00000E+00
 1.50000E+00    0.00000E+00
 1.59852E+00    0.00000E+00
 1.63055E+00    0.00000E+00
 1.65517E+00    0.00000E+00
 1.81049E+00    0.00000E+00
 1.86539E+00    0.00000E+00
 1.90592E+00    0.00000E+00
 1.98489E+00    0.00000E+00
 2.00000E+00    0.00000E+00
 2.00626E+00    0.00000E+00
 2.05692E+00    0.00000E+00
 2.08791E+00    0.00000E+00
 2.14437E+00    0.00000E+00
 2.19408E+00    0.00000E+00
 2.30024E+00    0.00000E+00
 2.31621E+00    0.00000E+00
 2.35033E+00    0.00000E+00
 2.35588E+00    0.00000E+00
 2.37138E+00    0.00000E+00
 2.41653E+00    0.00000E+00
 2.44026E+00    0.00000E+00
 2.50000E+00    0.00000E+00
 2.55928E+00    0.00000E+00
 2.60817E+00    0.00000E+00
 2.64159E+00    0.00000E+00
 2.66117E+00    0.00000E+00
 2.68971E+00    0.00000E+00
 3.00000E+00    0.00000E+00
 3.50000E+00    0.00000E+00
 4.00000E+00    0.00000E+00
 4.50000E+00    0.00000E+00
 5.00000E+00    0.00000E+00
 5.50000E+00    0.00000E+00
 6.00000E+00    0.00000E+00
 6.50000E+00    0.00000E+00
 7.00000E+00    0.00000E+00
 7.50000E+00    0.00000E+00
 8.00000E+00    0.00000E+00
 8.50000E+00    0.00000E+00
 9.00000E+00    6.51557E-14
 9.50000E+00    2.72017E-12
 1.00000E+01    1.03890E-11
 1.10000E+01    7.39200E-08
 1.20000E+01    1.01494E-05
 1.30000E+01    1.08913E-04
 1.40000E+01    5.47850E-04
 1.45000E+01    1.64063E-03
 1.50000E+01    5.17533E-03
 1.60000E+01    2.63125E-02
 1.70000E+01    8.58564E-02
 1.80000E+01    2.00887E-01
 1.90000E+01    3.57949E-01
 2.00000E+01    5.60733E-01
