# n + Nb 91 : (n,g)     
# jendl.ad   K.Shibata (JAEA)                  EVAL-Jan14
# uncertainties: n
# # energies =    69
#   E(MeV)       xs(mb) 
 1.00000E-10    1.25569E+04
 5.00000E-09    3.41912E+03
 1.00000E-08    2.59003E+03
 1.50000E-08    2.17641E+03
 2.00000E-08    1.91487E+03
 2.50000E-08    1.72993E+03
 3.00000E-08    1.59021E+03
 3.50000E-08    1.46207E+03
 4.20000E-08    1.33732E+03
 5.00000E-08    1.23352E+03
 5.80000E-08    1.14646E+03
 6.70000E-08    1.05806E+03
 8.00000E-08    9.57430E+02
 1.00000E-07    8.32960E+02
 1.40000E-07    7.18765E+02
 1.80000E-07    6.41838E+02
 2.20000E-07    5.91016E+02
 2.50000E-07    5.56465E+02
 2.80000E-07    5.31687E+02
 3.00000E-07    5.14139E+02
 3.20000E-07    4.94713E+02
 3.50000E-07    4.67960E+02
 4.00000E-07    4.28165E+02
 5.00000E-07    3.82958E+02
 6.25000E-07    3.42687E+02
 7.80000E-07    3.17138E+02
 8.50000E-07    3.05196E+02
 9.10000E-07    2.96810E+02
 9.50000E-07    2.91985E+02
 9.72000E-07    2.88526E+02
 9.96000E-07    2.85063E+02
 1.02000E-06    2.81684E+02
 1.04500E-06    2.78282E+02
 1.07100E-06    2.74886E+02
 1.09700E-06    2.71645E+02
 1.12300E-06    2.68480E+02
 1.15000E-06    2.58855E+02
 1.30000E-06    2.42304E+02
 1.50000E-06    2.15160E+02
 2.10000E-06    1.87399E+02
 2.60000E-06    1.67402E+02
 3.30000E-06    1.50287E+02
 4.00000E-06    1.15182E+02
 9.87700E-06    8.09864E+01
 1.59680E-05    6.26307E+01
 2.77000E-05    4.75530E+01
 4.80520E-05    3.69715E+01
 7.55014E-05    7.99861E+03
 1.48728E-04    4.97816E+03
 3.67262E-04    2.52495E+03
 9.06898E-04    1.56898E+03
 1.42510E-03    1.21411E+03
 2.23945E-03    9.43020E+02
 3.51910E-03    7.28592E+02
 5.53000E-03    5.54996E+02
 9.11800E-03    3.97799E+02
 1.50300E-02    2.80679E+02
 2.47800E-02    1.92555E+02
 4.08500E-02    1.32267E+02
 6.73400E-02    9.28988E+01
 1.11000E-01    6.93837E+01
 1.83000E-01    5.43989E+01
 3.02000E-01    4.57385E+01
 5.00000E-01    4.30388E+01
 8.21000E-01    4.50372E+01
 1.35300E+00    4.72394E+01
 2.23100E+00    2.12976E+01
 3.67900E+00    9.16255E+00
 6.06500E+00    3.05573E+00
