# n + Nb 91 : (n,n')m   
# jendl.ad   K.Shibata (JAEA)                  EVAL-Jan14
# uncertainties: n
# # energies =    66
#   E(MeV)       xs(mb) 
 1.05761E-01    0.00000E+00
 2.00000E-01    2.55325E+00
 3.00000E-01    6.40884E+00
 4.00000E-01    1.07775E+01
 5.00000E-01    1.64807E+01
 6.00000E-01    2.28000E+01
 7.00000E-01    2.91532E+01
 8.00000E-01    3.73649E+01
 9.00000E-01    4.43301E+01
 1.00000E+00    4.89495E+01
 1.05154E+00    5.18932E+01
 1.20005E+00    4.92954E+01
 1.32728E+00    9.90490E+01
 1.50000E+00    1.39176E+02
 1.59852E+00    1.54921E+02
 1.63055E+00    1.56375E+02
 1.65517E+00    1.59451E+02
 1.81049E+00    1.68773E+02
 1.86539E+00    1.71384E+02
 1.90592E+00    1.77652E+02
 1.98489E+00    1.84315E+02
 2.00000E+00    1.85028E+02
 2.00626E+00    1.85390E+02
 2.05692E+00    1.87783E+02
 2.08791E+00    1.89336E+02
 2.14437E+00    1.90844E+02
 2.19408E+00    1.95803E+02
 2.30024E+00    2.02893E+02
 2.31621E+00    2.03519E+02
 2.35033E+00    2.04772E+02
 2.35588E+00    2.05605E+02
 2.37138E+00    2.06624E+02
 2.41653E+00    2.10320E+02
 2.44026E+00    2.12631E+02
 2.50000E+00    2.18565E+02
 2.55928E+00    2.24009E+02
 2.60817E+00    2.28024E+02
 2.64159E+00    2.31340E+02
 2.66117E+00    2.33050E+02
 2.68971E+00    2.34627E+02
 3.00000E+00    2.57455E+02
 3.50000E+00    2.75658E+02
 4.00000E+00    2.82508E+02
 4.50000E+00    2.82896E+02
 5.00000E+00    2.80747E+02
 5.50000E+00    2.79144E+02
 6.00000E+00    2.77292E+02
 6.50000E+00    2.76304E+02
 7.00000E+00    2.75893E+02
 7.50000E+00    2.74858E+02
 8.00000E+00    2.71124E+02
 8.50000E+00    2.62762E+02
 9.00000E+00    2.50572E+02
 9.50000E+00    2.36548E+02
 1.00000E+01    2.22132E+02
 1.10000E+01    1.93841E+02
 1.20000E+01    1.65322E+02
 1.30000E+01    1.39003E+02
 1.40000E+01    1.17100E+02
 1.45000E+01    1.08383E+02
 1.50000E+01    1.01170E+02
 1.60000E+01    9.00118E+01
 1.70000E+01    8.13588E+01
 1.80000E+01    7.42692E+01
 1.90000E+01    6.84091E+01
 2.00000E+01    6.29314E+01
