# n + Ni 61 : (n,tot)   
# jendl4.0   S.IIJIMA                          EVAL-MAR87
# uncertainties: n
# # energies =   171
#   E(MeV)       xs(mb) 
 1.00000E-11    4.50619E+04
 1.00000E-07    9.64323E+03
 4.13990E-07    9.31571E+03
 5.31580E-07    9.24567E+03
 6.82560E-07    9.18370E+03
 8.76420E-07    9.12906E+03
 1.12540E-06    9.08141E+03
 1.44500E-06    9.03879E+03
 1.85540E-06    9.00275E+03
 2.37240E-06    8.96909E+03
 3.05900E-06    8.93165E+03
 3.92790E-06    8.90664E+03
 5.04350E-06    8.87654E+03
 6.47600E-06    8.84556E+03
 8.31530E-06    8.82319E+03
 1.06770E-05    8.79504E+03
 1.37100E-05    8.76007E+03
 1.76030E-05    8.73012E+03
 2.26030E-05    8.69587E+03
 2.92030E-05    8.65243E+03
 3.72670E-05    8.59754E+03
 4.78510E-05    8.53729E+03
 6.14420E-05    8.46685E+03
 7.88930E-05    8.37640E+03
 1.01300E-04    8.26068E+03
 1.30070E-04    8.12727E+03
 1.67020E-04    7.96407E+03
 2.14450E-04    7.76189E+03
 2.75360E-04    7.52756E+03
 3.53580E-04    7.24939E+03
 4.54000E-04    6.92887E+03
 5.82950E-04    6.56778E+03
 7.48520E-04    6.16876E+03
 9.61120E-04    5.74389E+03
 1.23410E-03    9.46337E+03
 1.58460E-03    4.81445E+03
 2.03470E-03    4.47647E+03
 2.24870E-03    4.28784E+03
 2.48520E-03    4.15436E+03
 2.61260E-03    4.08070E+03
 2.74650E-03    4.08713E+03
 3.03540E-03    4.56591E+04
 3.35460E-03    5.63177E+03
 3.70740E-03    3.17856E+03
 4.30740E-03    2.32799E+03
 5.53080E-03    5.11572E+03
 7.10170E-03    4.31259E+04
 9.11880E-03    4.38119E+03
 1.17090E-02    1.21823E+04
 1.50340E-02    2.52656E+04
 1.93050E-02    8.25890E+03
 2.18750E-02    4.76047E+03
 2.35790E-02    3.64384E+03
 2.41760E-02    1.32504E+04
 2.47880E-02    5.69462E+03
 2.60580E-02    3.40831E+03
 2.70000E-02    3.32090E+03
 2.85000E-02    1.62473E+04
 3.18280E-02    1.92671E+04
 3.43070E-02    7.81235E+03
 4.08680E-02    7.31739E+03
 4.63090E-02    4.87551E+03
 5.24750E-02    6.65014E+03
 5.65620E-02    7.20751E+03
 6.73790E-02    8.80489E+03
 7.20000E-02    8.55044E+03
 7.95000E-02    8.37416E+03
 8.25000E-02    8.26043E+03
 8.65170E-02    8.04207E+03
 9.80370E-02    7.72947E+03
 1.11090E-01    7.51205E+03
 1.16790E-01    7.39634E+03
 1.22770E-01    7.27642E+03
 1.29070E-01    7.15873E+03
 1.35690E-01    7.04745E+03
 1.42640E-01    6.93114E+03
 1.49960E-01    6.82257E+03
 1.57640E-01    6.71420E+03
 1.65730E-01    6.60332E+03
 1.74220E-01    6.50151E+03
 1.83160E-01    6.39638E+03
 1.92550E-01    6.29150E+03
 2.02420E-01    6.19108E+03
 2.12800E-01    6.08568E+03
 2.23710E-01    5.98373E+03
 2.35180E-01    5.88615E+03
 2.47240E-01    5.73722E+03
 2.73240E-01    5.59513E+03
 2.87250E-01    5.52096E+03
 2.94520E-01    5.48844E+03
 2.97200E-01    5.47667E+03
 2.98500E-01    5.46260E+03
 3.01970E-01    5.36007E+03
 3.33730E-01    5.17753E+03
 3.68830E-01    5.04327E+03
 3.87740E-01    4.95924E+03
 4.07620E-01    4.83096E+03
 4.50490E-01    4.66720E+03
 4.97870E-01    4.54946E+03
 5.23400E-01    4.47175E+03
 5.50230E-01    4.39567E+03
 5.78440E-01    4.32340E+03
 6.08100E-01    4.24977E+03
 6.39280E-01    4.18204E+03
 6.72060E-01    4.11214E+03
 7.06510E-01    4.04774E+03
 7.42740E-01    3.98472E+03
 7.80820E-01    3.92030E+03
 8.20850E-01    3.86300E+03
 8.62940E-01    3.80443E+03
 9.07180E-01    3.74350E+03
 9.61640E-01    3.69157E+03
 1.00260E+00    3.61925E+03
 1.10800E+00    3.54869E+03
 1.16480E+00    3.50465E+03
 1.22460E+00    3.46518E+03
 1.28730E+00    3.42888E+03
 1.35340E+00    3.39358E+03
 1.42270E+00    3.35647E+03
 1.49570E+00    3.28201E+03
 1.57240E+00    3.14797E+03
 1.65300E+00    3.35911E+03
 1.73770E+00    3.25491E+03
 1.82680E+00    2.94424E+03
 1.92050E+00    2.93089E+03
 2.01900E+00    3.12714E+03
 2.12250E+00    3.18824E+03
 2.23130E+00    3.21244E+03
 2.30690E+00    3.33392E+03
 2.34570E+00    3.60493E+03
 2.36530E+00    2.97666E+03
 2.38520E+00    3.31597E+03
 2.46600E+00    3.24122E+03
 2.59240E+00    3.17653E+03
 2.72530E+00    3.35661E+03
 2.86500E+00    3.40564E+03
 3.01190E+00    3.24458E+03
 3.16640E+00    3.37402E+03
 3.32870E+00    3.52809E+03
 3.67880E+00    3.50044E+03
 4.06570E+00    3.59084E+03
 4.49330E+00    3.64692E+03
 4.72370E+00    3.64858E+03
 4.96590E+00    3.74861E+03
 5.22050E+00    3.75896E+03
 5.48810E+00    3.77214E+03
 5.76950E+00    3.78401E+03
 6.06530E+00    3.78073E+03
 6.37630E+00    3.71845E+03
 6.59240E+00    3.74621E+03
 6.70320E+00    3.68935E+03
 7.04690E+00    3.66835E+03
 7.40820E+00    3.61008E+03
 7.78800E+00    3.56776E+03
 8.18730E+00    3.49292E+03
 8.60710E+00    3.44537E+03
 9.04840E+00    3.36804E+03
 9.51230E+00    3.33072E+03
 1.00000E+01    3.27028E+03
 1.05130E+01    3.19755E+03
 1.10520E+01    3.11863E+03
 1.16180E+01    3.02516E+03
 1.22140E+01    2.93722E+03
 1.28400E+01    2.87336E+03
 1.34990E+01    2.79557E+03
 1.38400E+01    2.75971E+03
 1.41910E+01    2.72179E+03
 1.45500E+01    2.68213E+03
 1.49180E+01    2.61823E+03
 1.56830E+01    2.55559E+03
 1.64870E+01    2.49518E+03
