# n + Ni 61 : (n,non)   
# jendl4.0   S.IIJIMA                          EVAL-MAR87
# uncertainties: n
# # energies =    91
#   E(MeV)       xs(mb) 
 4.00000E-02    0.00000E+00
 4.10000E-02    1.70000E+01
 5.70000E-02    2.00520E+01
 5.70000E-02    5.33278E+01
 6.85158E-02    4.83946E+01
 7.00000E-02    5.95462E+01
 1.00000E-01    4.14386E+02
 2.00000E-01    5.00974E+02
 2.87685E-01    5.47847E+02
 3.00000E-01    5.64476E+02
 5.00000E-01    8.42634E+02
 5.48573E-01    8.48457E+02
 6.66860E-01    8.62637E+02
 7.00000E-01    8.77362E+02
 9.23641E-01    9.78056E+02
 9.23844E-01    9.78476E+02
 1.00000E+00    1.13576E+03
 1.03180E+00    1.11950E+03
 1.03201E+00    1.11939E+03
 1.11780E+00    1.10525E+03
 1.11821E+00    1.10531E+03
 1.15104E+00    1.11004E+03
 1.20482E+00    1.13739E+03
 1.20533E+00    1.13782E+03
 1.25000E+00    1.17529E+03
 1.47868E+00    1.36781E+03
 1.48214E+00    1.37551E+03
 1.50000E+00    1.41520E+03
 1.63625E+00    1.39631E+03
 1.63665E+00    1.39633E+03
 1.75000E+00    1.40142E+03
 1.75813E+00    1.40179E+03
 1.75844E+00    1.40186E+03
 1.83762E+00    1.41979E+03
 1.83793E+00    1.41990E+03
 2.00000E+00    1.48059E+03
 2.01074E+00    1.47527E+03
 2.02091E+00    1.47016E+03
 2.03006E+00    1.46593E+03
 2.03067E+00    1.46565E+03
 2.03616E+00    1.46346E+03
 2.05141E+00    1.45736E+03
 2.05242E+00    1.45702E+03
 2.14900E+00    1.42387E+03
 2.15672E+00    1.42118E+03
 2.15814E+00    1.42075E+03
 2.15865E+00    1.42060E+03
 2.16445E+00    1.41906E+03
 2.44959E+00    1.35024E+03
 2.44990E+00    1.35033E+03
 2.50682E+00    1.36627E+03
 2.56985E+00    1.38392E+03
 3.00000E+00    1.50437E+03
 4.00000E+00    1.56947E+03
 5.00000E+00    1.60016E+03
 6.00000E+00    1.57618E+03
 6.57217E+00    1.56040E+03
 7.00000E+00    1.54862E+03
 7.76344E+00    1.52656E+03
 7.94997E+00    1.52117E+03
 8.00000E+00    1.52639E+03
 8.50000E+00    1.51510E+03
 9.00000E+00    1.50804E+03
 9.01819E+00    1.50784E+03
 9.44712E+00    1.50299E+03
 9.50000E+00    1.50239E+03
 1.00000E+01    1.49569E+03
 1.00250E+01    1.49525E+03
 1.00295E+01    1.49518E+03
 1.05000E+01    1.48700E+03
 1.05859E+01    1.48578E+03
 1.05903E+01    1.48571E+03
 1.10000E+01    1.47990E+03
 1.15000E+01    1.47574E+03
 1.20000E+01    1.47672E+03
 1.25000E+01    1.48189E+03
 1.30000E+01    1.48529E+03
 1.35000E+01    1.48628E+03
 1.40000E+01    1.48489E+03
 1.45000E+01    1.48000E+03
 1.50000E+01    1.47511E+03
 1.53015E+01    1.47080E+03
 1.53792E+01    1.46968E+03
 1.60000E+01    1.46081E+03
 1.70000E+01    1.45223E+03
 1.80000E+01    1.44751E+03
 1.90000E+01    1.44478E+03
 1.95275E+01    1.44348E+03
 1.95366E+01    1.44347E+03
 1.96456E+01    1.44324E+03
 2.00000E+01    1.44251E+03
