# n + Cd113 : (n,xa)    
# endfb8.0      Mughabghab, J.W.Zhao+,         EVAL-MAR05
# 
# # energies =    89
#   E(MeV)        xs(mb) 
 2.65950E-01    0.00000E+00
 3.01170E-01    0.00000E+00
 3.19020E-01    0.00000E+00
 4.62500E-01    0.00000E+00
 5.26970E-01    0.00000E+00
 5.34730E-01    0.00000E+00
 5.89320E-01    0.00000E+00
 6.43800E-01    0.00000E+00
 6.86680E-01    0.00000E+00
 7.14730E-01    0.00000E+00
 7.40000E-01    0.00000E+00
 7.66790E-01    0.00000E+00
 8.27330E-01    0.00000E+00
 8.62940E-01    0.00000E+00
 8.91490E-01    0.00000E+00
 9.08040E-01    0.00000E+00
 9.67570E-01    0.00000E+00
 9.97230E-01    0.00000E+00
 1.01620E+00    0.00000E+00
 1.05690E+00    0.00000E+00
 1.05930E+00    0.00000E+00
 1.13620E+00    0.00000E+00
 1.23780E+00    0.00000E+00
 1.50000E+00    0.00000E+00
 1.75000E+00    0.00000E+00
 2.00000E+00    0.00000E+00
 2.25000E+00    0.00000E+00
 2.50000E+00    0.00000E+00
 2.75000E+00    0.00000E+00
 3.00000E+00    0.00000E+00
 3.25000E+00    1.99600E-03
 3.50000E+00    2.69770E-03
 3.75000E+00    3.41750E-03
 3.90420E+00    3.93690E-03
 4.25000E+00    5.11440E-03
 4.50000E+00    7.00660E-03
 4.75000E+00    8.06880E-03
 5.00000E+00    1.03950E-02
 5.25000E+00    1.18120E-02
 5.50000E+00    1.32830E-02
 5.75000E+00    1.77500E-02
 6.05000E+00    2.04390E-02
 6.25000E+00    2.21370E-02
 6.59820E+00    2.66410E-02
 6.75000E+00    2.88170E-02
 7.00000E+00    3.29410E-02
 7.25000E+00    3.78420E-02
 7.55680E+00    4.51500E-02
 7.78000E+00    5.10830E-02
 8.00000E+00    5.73580E-02
 8.25000E+00    6.56210E-02
 8.50000E+00    7.40900E-02
 8.75000E+00    8.22620E-02
 9.00000E+00    9.00920E-02
 9.30510E+00    9.85610E-02
 9.50000E+00    1.03070E-01
 9.80120E+00    1.08500E-01
 9.96790E+00    1.10760E-01
 1.02500E+01    1.13320E-01
 1.05000E+01    2.20630E-01
 1.10000E+01    3.10760E-01
 1.12500E+01    3.74990E-01
 1.15000E+01    4.54320E-01
 1.17500E+01    5.51550E-01
 1.20100E+01    6.70660E-01
 1.22500E+01    7.99600E-01
 1.25000E+01    9.51150E-01
 1.27500E+01    1.11900E+00
 1.30000E+01    1.30550E+00
 1.32500E+01    1.51140E+00
 1.35000E+01    1.72590E+00
 1.37500E+01    1.95650E+00
 1.40000E+01    2.20180E+00
 1.42500E+01    2.44910E+00
 1.45000E+01    2.70800E+00
 1.47500E+01    2.97250E+00
 1.50000E+01    3.23320E+00
 1.52500E+01    3.49700E+00
 1.55000E+01    3.75620E+00
 1.57500E+01    4.00440E+00
 1.60810E+01    4.31800E+00
 1.65000E+01    4.67200E+00
 1.70000E+01    5.45389E+00
 1.75000E+01    6.21511E+00
 1.80000E+01    6.76660E+00
 1.85000E+01    7.31890E+00
 1.90000E+01    7.85930E+00
 1.95000E+01    8.76340E+00
 2.00000E+01    9.46450E+00
