# n + Cd113 : (n,xp)    
# endfb8.0      Mughabghab, J.W.Zhao+,         EVAL-MAR05
# 
# # energies =    89
#   E(MeV)        xs(mb) 
 2.65950E-01    0.00000E+00
 3.01170E-01    0.00000E+00
 3.19020E-01    0.00000E+00
 4.62500E-01    0.00000E+00
 5.26970E-01    0.00000E+00
 5.34730E-01    0.00000E+00
 5.89320E-01    0.00000E+00
 6.43800E-01    0.00000E+00
 6.86680E-01    0.00000E+00
 7.14730E-01    0.00000E+00
 7.40000E-01    0.00000E+00
 7.66790E-01    0.00000E+00
 8.27330E-01    0.00000E+00
 8.62940E-01    0.00000E+00
 8.91490E-01    0.00000E+00
 9.08040E-01    0.00000E+00
 9.67570E-01    0.00000E+00
 9.97230E-01    0.00000E+00
 1.01620E+00    0.00000E+00
 1.05690E+00    0.00000E+00
 1.05930E+00    0.00000E+00
 1.13620E+00    0.00000E+00
 1.23780E+00    0.00000E+00
 1.50000E+00    0.00000E+00
 1.75000E+00    0.00000E+00
 2.00000E+00    0.00000E+00
 2.25000E+00    0.00000E+00
 2.50000E+00    0.00000E+00
 2.75000E+00    0.00000E+00
 3.00000E+00    0.00000E+00
 3.25000E+00    0.00000E+00
 3.50000E+00    0.00000E+00
 3.75000E+00    0.00000E+00
 3.90420E+00    0.00000E+00
 4.25000E+00    0.00000E+00
 4.50000E+00    0.00000E+00
 4.75000E+00    2.67780E-03
 5.00000E+00    6.56990E-03
 5.25000E+00    9.66690E-03
 5.50000E+00    1.28150E-02
 5.75000E+00    1.60720E-02
 6.05000E+00    2.06100E-02
 6.25000E+00    2.34070E-02
 6.59820E+00    3.11830E-02
 6.75000E+00    3.49240E-02
 7.00000E+00    4.16970E-02
 7.25000E+00    4.95020E-02
 7.55680E+00    6.04340E-02
 7.78000E+00    1.81870E-01
 8.00000E+00    2.24790E-01
 8.25000E+00    2.83930E-01
 8.50000E+00    3.56070E-01
 8.75000E+00    4.43570E-01
 9.00000E+00    5.47390E-01
 9.30510E+00    6.99800E-01
 9.50000E+00    8.14750E-01
 9.80120E+00    1.01730E+00
 9.96790E+00    1.14090E+00
 1.02500E+01    1.38310E+00
 1.05000E+01    1.62420E+00
 1.10000E+01    2.18500E+00
 1.12500E+01    2.50820E+00
 1.15000E+01    2.85890E+00
 1.17500E+01    3.23900E+00
 1.20100E+01    3.66270E+00
 1.22500E+01    4.08550E+00
 1.25000E+01    4.55020E+00
 1.27500E+01    5.04090E+00
 1.30000E+01    5.56040E+00
 1.32500E+01    6.10460E+00
 1.35000E+01    6.66820E+00
 1.37500E+01    7.25750E+00
 1.40000E+01    7.86750E+00
 1.42500E+01    8.49650E+00
 1.45000E+01    9.14270E+00
 1.47500E+01    9.80100E+00
 1.50000E+01    1.04680E+01
 1.52500E+01    1.11410E+01
 1.55000E+01    1.18260E+01
 1.57500E+01    1.26338E+01
 1.60810E+01    1.36003E+01
 1.65000E+01    1.48484E+01
 1.70000E+01    1.63604E+01
 1.75000E+01    1.78938E+01
 1.80000E+01    1.94388E+01
 1.85000E+01    2.10996E+01
 1.90000E+01    2.26883E+01
 1.95000E+01    2.42717E+01
 2.00000E+01    2.58681E+01
