# n + Cm248 : (n,n'21)  
# tendl.2019 A.J. Koning and D. Rochman        EVAL-NOV19
# uncertainties: n
# # energies =    72
#   E(MeV)       xs(mb) 
 1.44083E+00    0.00000E+00
 1.46995E+00    6.19388E-01
 1.48803E+00    1.00395E+00
 1.51514E+00    1.58059E+00
 1.55329E+00    2.39205E+00
 1.60000E+00    3.38558E+00
 1.65570E+00    4.28326E+00
 1.68683E+00    4.78496E+00
 1.78684E+00    6.39674E+00
 1.80000E+00    6.60883E+00
 1.89066E+00    7.37536E+00
 1.94588E+00    7.84225E+00
 2.00000E+00    8.29983E+00
 2.20000E+00    8.12924E+00
 2.40000E+00    7.03475E+00
 2.60000E+00    5.76118E+00
 2.80000E+00    4.57601E+00
 3.00000E+00    3.54615E+00
 3.20000E+00    2.70465E+00
 3.40000E+00    1.99570E+00
 3.60000E+00    1.43853E+00
 3.80000E+00    1.01850E+00
 4.00000E+00    7.11329E-01
 4.20000E+00    4.91405E-01
 4.40000E+00    3.37928E-01
 4.60000E+00    2.30484E-01
 4.80000E+00    1.55722E-01
 5.00000E+00    1.04565E-01
 5.20000E+00    6.97093E-02
 5.40000E+00    4.64718E-02
 5.60000E+00    3.09865E-02
 5.80000E+00    2.06775E-02
 6.00000E+00    1.38360E-02
 6.20000E+00    9.27226E-03
 6.40000E+00    6.25760E-03
 6.60000E+00    4.22476E-03
 6.80000E+00    2.85908E-03
 7.00000E+00    1.93772E-03
 7.20000E+00    1.32309E-03
 7.40000E+00    9.17694E-04
 7.60000E+00    6.42803E-04
 7.80000E+00    4.51892E-04
 8.00000E+00    3.20386E-04
 8.50000E+00    1.36355E-04
 9.00000E+00    5.82756E-05
 9.50000E+00    2.51018E-05
 1.00000E+01    1.09397E-05
 1.05000E+01    4.84394E-06
 1.10000E+01    2.18143E-06
 1.15000E+01    9.99800E-07
 1.20000E+01    4.66150E-07
 1.25000E+01    2.21070E-07
 1.30000E+01    1.06580E-07
 1.35000E+01    5.22070E-08
 1.40000E+01    2.59630E-08
 1.45000E+01    1.31020E-08
 1.50000E+01    6.70360E-09
 1.60000E+01    1.81720E-09
 1.70000E+01    5.20390E-10
 1.80000E+01    1.56440E-10
 1.90000E+01    4.92890E-11
 2.00000E+01    1.62760E-11
 2.10000E+01    5.63410E-12
 2.20000E+01    2.04210E-12
 2.30000E+01    7.76120E-13
 2.40000E+01    3.09340E-13
 2.50000E+01    1.29560E-13
 2.60000E+01    5.70450E-14
 2.70000E+01    2.64320E-14
 2.80000E+01    1.28830E-14
 2.90000E+01    6.59090E-15
 3.00000E+01    3.53780E-15
