# n + Ni 63 : (n,a)     
# jendl.ad   T.ASAMI                           EVAL-APR92
# uncertainties: n
# # energies =   315
#   E(MeV)       xs(mb) 
 1.00000E-11    3.87310E-11
 1.03005E-11    3.82030E-11
 1.06099E-11    3.76830E-11
 1.09287E-11    3.71720E-11
 1.12571E-11    3.66680E-11
 1.15953E-11    3.61730E-11
 1.19437E-11    3.56860E-11
 1.23026E-11    3.52060E-11
 1.26722E-11    3.47340E-11
 1.30530E-11    3.42700E-11
 1.34452E-11    3.38130E-11
 1.38491E-11    3.33640E-11
 1.42652E-11    3.29220E-11
 1.46938E-11    3.24880E-11
 1.51995E-11    3.20000E-11
 1.57225E-11    3.15210E-11
 1.62635E-11    3.10510E-11
 1.68232E-11    3.05900E-11
 1.74021E-11    3.01380E-11
 1.80009E-11    2.96950E-11
 1.86203E-11    2.92600E-11
 1.92611E-11    2.88330E-11
 1.99239E-11    2.84150E-11
 2.06095E-11    2.80050E-11
 2.13187E-11    2.76040E-11
 2.20523E-11    2.72100E-11
 2.28111E-11    2.68240E-11
 2.35961E-11    2.64450E-11
 2.44081E-11    2.60750E-11
 2.52480E-11    2.57110E-11
 2.61168E-11    2.53560E-11
 2.70155E-11    2.50070E-11
 2.79451E-11    2.46660E-11
 2.89068E-11    2.43320E-11
 2.99015E-11    2.40050E-11
 3.09304E-11    2.36850E-11
 3.19948E-11    2.33720E-11
 3.30957E-11    2.30660E-11
 3.42346E-11    2.27660E-11
 3.54127E-11    2.24730E-11
 3.66313E-11    2.21870E-11
 3.78918E-11    2.19070E-11
 3.91957E-11    2.16340E-11
 4.05445E-11    2.13660E-11
 4.19396E-11    2.11060E-11
 4.33828E-11    2.08510E-11
 4.48757E-11    2.06020E-11
 4.64199E-11    2.03600E-11
 4.80173E-11    2.01230E-11
 4.96696E-11    1.98930E-11
 5.13788E-11    1.96680E-11
 5.31468E-11    1.94490E-11
 5.49756E-11    1.92360E-11
 5.68674E-11    1.90290E-11
 5.88243E-11    1.88280E-11
 6.08485E-11    1.86320E-11
 6.29424E-11    1.84410E-11
 6.51083E-11    1.82570E-11
 6.76342E-11    1.80560E-11
 7.02580E-11    1.78610E-11
 7.29837E-11    1.76740E-11
 7.58151E-11    1.74940E-11
 7.87564E-11    1.73200E-11
 8.18117E-11    1.71530E-11
 8.49856E-11    1.69930E-11
 8.82826E-11    1.68400E-11
 9.17076E-11    1.66940E-11
 9.52653E-11    1.65540E-11
 9.89612E-11    1.64210E-11
 1.02800E-10    1.62940E-11
 1.06789E-10    1.61740E-11
 1.10931E-10    1.60610E-11
 1.15235E-10    1.59550E-11
 1.19705E-10    1.58550E-11
 1.24350E-10    1.57620E-11
 1.29721E-10    1.56670E-11
 1.35325E-10    1.55800E-11
 1.41170E-10    1.55020E-11
 1.47268E-10    1.54320E-11
 1.53630E-10    1.53700E-11
 1.60267E-10    1.53180E-11
 1.67190E-10    1.52740E-11
 1.74412E-10    1.52390E-11
 1.82717E-10    1.52110E-11
 1.91418E-10    1.51930E-11
 2.00533E-10    1.51870E-11
 2.10082E-10    1.51930E-11
 2.20086E-10    1.52100E-11
 2.30566E-10    1.52400E-11
 2.41545E-10    1.52810E-11
 2.54120E-10    1.53410E-11
 2.67349E-10    1.54160E-11
 2.81266E-10    1.55070E-11
 2.95908E-10    1.56140E-11
 3.11313E-10    1.57390E-11
 3.28907E-10    1.58940E-11
 3.47496E-10    1.60700E-11
 3.67136E-10    1.62700E-11
 3.87885E-10    1.64930E-11
 4.09807E-10    1.67410E-11
 4.32968E-10    1.70150E-11
 4.59377E-10    1.73420E-11
 4.87396E-10    1.77020E-11
 5.17125E-10    1.80990E-11
 5.48666E-10    1.85340E-11
 5.82132E-10    1.90100E-11
 6.17639E-10    1.95300E-11
 6.55311E-10    2.00970E-11
 6.95282E-10    2.07150E-11
 7.37690E-10    2.13860E-11
 7.82685E-10    2.21160E-11
 8.26920E-10    2.28490E-11
 8.73655E-10    2.36410E-11
 9.23031E-10    2.44950E-11
 9.75198E-10    2.54160E-11
 1.03031E-09    2.64080E-11
 1.08395E-09    2.73930E-11
 1.14038E-09    2.84490E-11
 1.19974E-09    2.95810E-11
 1.26220E-09    3.07950E-11
 1.32791E-09    3.20970E-11
 1.39114E-09    3.33720E-11
 1.45739E-09    3.47320E-11
 1.52679E-09    3.61830E-11
 1.59949E-09    3.77310E-11
 1.67565E-09    3.93830E-11
 1.74804E-09    4.09810E-11
 1.82355E-09    4.26760E-11
 1.90232E-09    4.44760E-11
 1.98450E-09    4.63880E-11
 2.07022E-09    4.84170E-11
 2.15965E-09    5.05730E-11
 2.24343E-09    5.26280E-11
 2.33047E-09    5.47990E-11
 2.42088E-09    5.70920E-11
 2.51480E-09    5.95160E-11
 2.61236E-09    6.20770E-11
 2.71370E-09    6.47850E-11
 2.81898E-09    6.76480E-11
 2.92834E-09    7.06760E-11
 3.04195E-09    7.38790E-11
 3.14663E-09    7.68810E-11
 3.25491E-09    8.00380E-11
 3.36691E-09    8.33590E-11
 3.48277E-09    8.68510E-11
 3.60262E-09    9.05260E-11
 3.72659E-09    9.43920E-11
 3.85482E-09    9.84610E-11
 3.98747E-09    1.02740E-10
 4.12469E-09    1.07250E-10
 4.26662E-09    1.12000E-10
 4.41344E-09    1.17000E-10
 4.56531E-09    1.22260E-10
 4.70248E-09    1.27090E-10
 4.84377E-09    1.32150E-10
 4.98931E-09    1.37450E-10
 5.13921E-09    1.43000E-10
 5.29363E-09    1.48800E-10
 5.45268E-09    1.54880E-10
 5.61651E-09    1.61240E-10
 5.78526E-09    1.67910E-10
 5.95908E-09    1.74890E-10
 6.13813E-09    1.82200E-10
 6.32255E-09    1.89870E-10
 6.51252E-09    1.97890E-10
 6.70820E-09    2.06310E-10
 6.90975E-09    2.15120E-10
 7.11736E-09    2.24360E-10
 7.33121E-09    2.34050E-10
 7.55148E-09    2.44200E-10
 7.77837E-09    2.54850E-10
 8.01208E-09    2.66020E-10
 8.25281E-09    2.77740E-10
 8.50077E-09    2.90030E-10
 8.75618E-09    3.02930E-10
 8.98121E-09    3.14490E-10
 9.21201E-09    3.26550E-10
 9.44875E-09    3.39120E-10
 9.69157E-09    3.52240E-10
 9.94064E-09    3.65910E-10
 1.01961E-08    3.80190E-10
 1.04581E-08    3.95080E-10
 1.07269E-08    4.10620E-10
 1.10026E-08    4.26850E-10
 1.12853E-08    4.43780E-10
 1.15753E-08    4.61470E-10
 1.18728E-08    4.79930E-10
 1.21779E-08    4.99200E-10
 1.24909E-08    5.19320E-10
 1.28119E-08    5.40320E-10
 1.31411E-08    5.62230E-10
 1.34789E-08    5.85080E-10
 1.38253E-08    6.08890E-10
 1.42406E-08    6.37920E-10
 1.46685E-08    6.68320E-10
 1.51092E-08    7.00090E-10
 1.56292E-08    7.38070E-10
 1.63043E-08    7.87980E-10
 1.77433E-08    8.95020E-10
 1.83539E-08    9.39940E-10
 1.89054E-08    9.79850E-10
 1.93912E-08    1.01430E-09
 1.98056E-08    1.04300E-09
 2.02289E-08    1.07160E-09
 2.05740E-08    1.09420E-09
 2.09250E-08    1.11660E-09
 2.12820E-08    1.13870E-09
 2.16450E-08    1.16040E-09
 2.20143E-08    1.18160E-09
 2.22954E-08    1.19710E-09
 2.25800E-08    1.21220E-09
 2.28683E-08    1.22700E-09
 2.31603E-08    1.24130E-09
 2.34560E-08    1.25520E-09
 2.37555E-08    1.26860E-09
 2.40588E-08    1.28150E-09
 2.43660E-08    1.29390E-09
 2.46771E-08    1.30570E-09
 2.49922E-08    1.31700E-09
 2.52045E-08    1.32420E-09
 2.53000E-08    1.32730E-09
 2.56230E-08    1.33740E-09
 2.59502E-08    1.34700E-09
 2.62815E-08    1.35590E-09
 2.66171E-08    1.36420E-09
 2.69569E-08    1.37200E-09
 2.73011E-08    1.37920E-09
 2.76497E-08    1.38580E-09
 2.81214E-08    1.39370E-09
 2.86011E-08    1.40070E-09
 2.90891E-08    1.40680E-09
 2.95853E-08    1.41210E-09
 3.00901E-08    1.41660E-09
 3.07331E-08    1.42120E-09
 3.13899E-08    1.42490E-09
 3.20607E-08    1.42780E-09
 3.28846E-08    1.43040E-09
 3.38727E-08    1.43250E-09
 3.51868E-08    1.43400E-09
 3.70185E-08    1.43470E-09
 3.82924E-08    1.43490E-09
 5.99511E-08    1.43250E-09
 8.73493E-08    1.43100E-09
 1.39088E-07    1.42980E-09
 2.55722E-07    1.42880E-09
 6.16300E-07    1.42820E-09
 3.45352E-06    1.42790E-09
 9.90543E-01    2.53050E-08
 1.00000E+00    2.57280E-08
 1.00617E+00    1.32410E-07
 1.99995E+00    1.73474E-05
 2.00000E+00    1.74020E-05
 2.00006E+00    1.75576E-05
 3.00000E+00    3.83482E-03
 4.00000E+00    3.72034E-02
 5.00000E+00    1.42574E-01
 6.00000E+00    4.32427E-01
 7.00000E+00    8.05936E-01
 8.00000E+00    1.08830E+00
 9.00000E+00    1.41501E+00
 1.00000E+01    1.77601E+00
 1.01411E+01    1.85403E+00
 1.02842E+01    1.93317E+00
 1.04292E+01    2.01342E+00
 1.05764E+01    2.09481E+00
 1.07256E+01    2.17734E+00
 1.08769E+01    2.26104E+00
 1.10000E+01    2.32912E+00
 1.11552E+01    2.45628E+00
 1.13126E+01    2.58523E+00
 1.14722E+01    2.71600E+00
 1.16340E+01    2.84862E+00
 1.17982E+01    2.98311E+00
 1.19646E+01    3.11949E+00
 1.20000E+01    3.14849E+00
 1.21693E+01    3.33058E+00
 1.23410E+01    3.51523E+00
 1.25151E+01    3.70249E+00
 1.26917E+01    3.89239E+00
 1.28707E+01    4.08497E+00
 1.30000E+01    4.22402E+00
 1.31834E+01    4.44357E+00
 1.33694E+01    4.66622E+00
 1.35580E+01    4.89201E+00
 1.37493E+01    5.12098E+00
 1.39433E+01    5.35319E+00
 1.40000E+01    5.42109E+00
 1.41975E+01    5.63142E+00
 1.43978E+01    5.84471E+00
 1.46009E+01    6.06101E+00
 1.48069E+01    6.28036E+00
 1.50000E+01    6.48595E+00
 1.52116E+01    6.51642E+00
 1.54262E+01    6.54732E+00
 1.56439E+01    6.57865E+00
 1.58646E+01    6.61043E+00
 1.60000E+01    6.62993E+00
 1.62257E+01    6.44361E+00
 1.64546E+01    6.25467E+00
 1.66868E+01    6.06306E+00
 1.69222E+01    5.86874E+00
 1.70000E+01    5.80454E+00
 1.72398E+01    5.51586E+00
 1.74831E+01    5.22311E+00
 1.77297E+01    4.92622E+00
 1.79799E+01    4.62515E+00
 1.80000E+01    4.60090E+00
 1.82539E+01    4.33354E+00
 1.85115E+01    4.06242E+00
 1.87726E+01    3.78746E+00
 1.90000E+01    3.54810E+00
 1.92681E+01    3.34328E+00
 1.95399E+01    3.13557E+00
 1.98156E+01    2.92493E+00
 2.00000E+01    2.78400E+00
