# n + Pa231 : (n,f)     
# jendl.ad   O.Iwamoto, T.Nakagawa, et al.     EVAL-JAN10
# uncertainties: n
# # energies =    69
#   E(MeV)       xs(mb) 
 1.00000E-10    1.85284E+02
 5.00000E-09    4.88406E+01
 1.00000E-08    3.60687E+01
 1.50000E-08    2.96069E+01
 2.00000E-08    2.54810E+01
 2.50000E-08    2.25505E+01
 3.00000E-08    2.03287E+01
 3.50000E-08    1.82941E+01
 4.20000E-08    1.63234E+01
 5.00000E-08    1.47051E+01
 5.80000E-08    1.33775E+01
 6.70000E-08    1.20684E+01
 8.00000E-08    1.06714E+01
 1.00000E-07    9.20925E+00
 1.40000E-07    8.40950E+00
 1.80000E-07    8.69537E+00
 2.20000E-07    9.93022E+00
 2.50000E-07    1.22067E+01
 2.80000E-07    1.56726E+01
 3.00000E-07    2.06282E+01
 3.20000E-07    3.37465E+01
 3.50000E-07    1.11088E+02
 4.00000E-07    1.53605E+02
 5.00000E-07    7.29503E+01
 6.25000E-07    2.42717E+01
 7.80000E-07    9.14060E+00
 8.50000E-07    3.12234E+00
 9.10000E-07    2.24077E+00
 9.50000E-07    2.02356E+00
 9.72000E-07    1.96053E+00
 9.96000E-07    1.96828E+00
 1.02000E-06    2.06221E+00
 1.04500E-06    2.27995E+00
 1.07100E-06    2.69673E+00
 1.09700E-06    3.47234E+00
 1.12300E-06    5.07397E+00
 1.15000E-06    3.47477E+01
 1.30000E-06    3.01937E+00
 1.50000E-06    2.02099E+00
 2.10000E-06    4.00963E-01
 2.60000E-06    3.74717E+00
 3.30000E-06    1.26790E+01
 4.00000E-06    9.37034E+00
 9.87700E-06    2.33743E+01
 1.59680E-05    1.49098E+01
 2.77000E-05    7.75992E+00
 4.80520E-05    7.97302E+00
 7.55014E-05    2.86573E+00
 1.48728E-04    2.51418E+00
 3.67262E-04    1.60417E+00
 9.06898E-04    1.16302E+00
 1.42510E-03    1.03393E+00
 2.23945E-03    9.45131E-01
 3.51910E-03    8.67315E-01
 5.53000E-03    8.72633E-01
 9.11800E-03    8.32405E-01
 1.50300E-02    8.17111E-01
 2.47800E-02    8.84707E-01
 4.08500E-02    1.09821E+00
 6.73400E-02    1.56328E+00
 1.11000E-01    7.25861E+00
 1.83000E-01    1.67390E+01
 3.02000E-01    9.39073E+01
 5.00000E-01    4.69851E+02
 8.21000E-01    8.72125E+02
 1.35300E+00    1.09595E+03
 2.23100E+00    1.08213E+03
 3.67900E+00    9.38544E+02
 6.06500E+00    1.75029E+03
