# n + Sn115 : (n,el)    
# endfb8.0   JNDC FPND W.G., Mughabghab        EVAL-DEC04
# uncertainties: n
# # energies =   171
#   E(MeV)       xs(mb) 
 1.00000E-11    1.52883E+04
 1.00000E-07    8.93707E+03
 4.13990E-07    8.79413E+03
 5.31580E-07    8.72333E+03
 6.82560E-07    8.63581E+03
 8.76420E-07    8.52942E+03
 1.12540E-06    8.40271E+03
 1.44500E-06    8.25144E+03
 1.85540E-06    8.08029E+03
 2.37240E-06    7.87635E+03
 3.05900E-06    7.65079E+03
 3.92790E-06    7.40786E+03
 5.04350E-06    7.15212E+03
 6.47600E-06    6.89129E+03
 8.31530E-06    6.63368E+03
 1.06770E-05    6.38656E+03
 1.37100E-05    6.15632E+03
 1.76030E-05    5.94913E+03
 2.26030E-05    5.76412E+03
 2.92030E-05    5.60574E+03
 3.72670E-05    5.47282E+03
 4.78510E-05    5.36013E+03
 6.14420E-05    5.26633E+03
 7.88930E-05    5.18816E+03
 1.01300E-04    5.12165E+03
 1.30070E-04    5.06337E+03
 1.67020E-04    5.00019E+03
 2.14450E-04    4.90367E+03
 2.75360E-04    5.46848E+03
 3.53580E-04    5.95464E+03
 4.54000E-04    7.97410E+03
 5.82950E-04    5.04781E+03
 7.48520E-04    7.07074E+03
 9.61120E-04    5.93583E+03
 1.23410E-03    5.89785E+03
 1.58460E-03    5.84588E+03
 2.03470E-03    5.80341E+03
 2.24870E-03    5.77732E+03
 2.48520E-03    5.75765E+03
 2.61260E-03    5.74456E+03
 2.74650E-03    5.72518E+03
 3.03540E-03    5.69935E+03
 3.35460E-03    5.67416E+03
 3.70740E-03    5.64449E+03
 4.30740E-03    5.60366E+03
 5.53080E-03    5.56326E+03
 7.10170E-03    5.53899E+03
 9.11880E-03    5.53281E+03
 1.17090E-02    5.54616E+03
 1.50340E-02    5.57885E+03
 1.93050E-02    5.61449E+03
 2.18750E-02    5.63813E+03
 2.35790E-02    5.65101E+03
 2.41760E-02    5.65773E+03
 2.47880E-02    5.66787E+03
 2.60580E-02    5.67949E+03
 2.70000E-02    5.69218E+03
 2.85000E-02    5.71662E+03
 3.18280E-02    5.74533E+03
 3.43070E-02    5.78675E+03
 4.08680E-02    5.83890E+03
 4.63090E-02    5.88411E+03
 5.24750E-02    5.92068E+03
 5.65620E-02    5.96676E+03
 6.73790E-02    6.01131E+03
 7.20000E-02    6.04142E+03
 7.95000E-02    6.06591E+03
 8.25000E-02    6.08075E+03
 8.65170E-02    6.11036E+03
 9.80370E-02    6.14516E+03
 1.11090E-01    6.14902E+03
 1.16790E-01    6.15031E+03
 1.22770E-01    6.15166E+03
 1.29070E-01    6.15309E+03
 1.35690E-01    6.15459E+03
 1.42640E-01    6.15616E+03
 1.49960E-01    6.15782E+03
 1.57640E-01    6.15956E+03
 1.65730E-01    6.16139E+03
 1.74220E-01    6.16331E+03
 1.83160E-01    6.16533E+03
 1.92550E-01    6.16746E+03
 2.02420E-01    6.16969E+03
 2.12800E-01    6.17204E+03
 2.23710E-01    6.17451E+03
 2.35180E-01    6.17711E+03
 2.47240E-01    6.18127E+03
 2.73240E-01    6.18572E+03
 2.87250E-01    6.18808E+03
 2.94520E-01    6.18918E+03
 2.97200E-01    6.18962E+03
 2.98500E-01    6.19015E+03
 3.01970E-01    6.19426E+03
 3.33730E-01    6.20222E+03
 3.68830E-01    6.20871E+03
 3.87740E-01    6.21334E+03
 4.07620E-01    6.22075E+03
 4.50490E-01    6.23150E+03
 4.97870E-01    6.21602E+03
 5.23400E-01    6.15369E+03
 5.50230E-01    6.08736E+03
 5.78440E-01    6.01896E+03
 6.08100E-01    5.95904E+03
 6.39280E-01    5.90144E+03
 6.72060E-01    5.85054E+03
 7.06510E-01    5.80429E+03
 7.42740E-01    5.77053E+03
 7.80820E-01    5.73564E+03
 8.20850E-01    5.69896E+03
 8.62940E-01    5.66041E+03
 9.07180E-01    5.61639E+03
 9.61640E-01    5.57170E+03
 1.00260E+00    5.47416E+03
 1.10800E+00    5.35841E+03
 1.16480E+00    5.28446E+03
 1.22460E+00    5.20717E+03
 1.28730E+00    5.11806E+03
 1.35340E+00    5.00777E+03
 1.42270E+00    4.89134E+03
 1.49570E+00    4.76892E+03
 1.57240E+00    4.64645E+03
 1.65300E+00    4.51848E+03
 1.73770E+00    4.37606E+03
 1.82680E+00    4.22595E+03
 1.92050E+00    4.07089E+03
 2.01900E+00    3.90969E+03
 2.12250E+00    3.74030E+03
 2.23130E+00    3.60015E+03
 2.30690E+00    3.51860E+03
 2.34570E+00    3.47702E+03
 2.36530E+00    3.44939E+03
 2.38520E+00    3.38551E+03
 2.46600E+00    3.25459E+03
 2.59240E+00    3.09237E+03
 2.72530E+00    2.93704E+03
 2.86500E+00    2.78959E+03
 3.01190E+00    2.65661E+03
 3.16640E+00    2.53201E+03
 3.32870E+00    2.34381E+03
 3.67880E+00    2.11229E+03
 4.06570E+00    1.97089E+03
 4.49330E+00    1.89860E+03
 4.72370E+00    1.85083E+03
 4.96590E+00    1.82836E+03
 5.22050E+00    1.84722E+03
 5.48810E+00    1.86769E+03
 5.76950E+00    1.88943E+03
 6.06530E+00    1.93980E+03
 6.37630E+00    1.99482E+03
 6.59240E+00    2.02894E+03
 6.70320E+00    2.07419E+03
 7.04690E+00    2.16199E+03
 7.40820E+00    2.26406E+03
 7.78800E+00    2.35061E+03
 8.18730E+00    2.45360E+03
 8.60710E+00    2.56028E+03
 9.04840E+00    2.64157E+03
 9.51230E+00    2.73478E+03
 1.00000E+01    2.79625E+03
 1.05130E+01    2.82318E+03
 1.10520E+01    2.88334E+03
 1.16180E+01    2.96134E+03
 1.22140E+01    2.95491E+03
 1.28400E+01    2.92972E+03
 1.34990E+01    2.92128E+03
 1.38400E+01    2.91194E+03
 1.41910E+01    2.87565E+03
 1.45500E+01    2.83717E+03
 1.49180E+01    2.76731E+03
 1.56830E+01    2.65327E+03
 1.64870E+01    2.51517E+03
