# n + Mo 92 : (n,g)     
# jeff3.3    K.Shibata, A.Ichihara, S.Kunieda+ EVAL-MAR09
# uncertainties: n
# # energies =    69
#   E(MeV)       xs(mb) 
 1.00000E-10    4.28200E+02
 5.00000E-09    1.16592E+02
 1.00000E-08    8.83019E+01
 1.50000E-08    7.41901E+01
 2.00000E-08    6.52728E+01
 2.50000E-08    5.89704E+01
 3.00000E-08    5.42081E+01
 3.50000E-08    4.98400E+01
 4.20000E-08    4.55864E+01
 5.00000E-08    4.20484E+01
 5.80000E-08    3.90815E+01
 6.70000E-08    3.60669E+01
 8.00000E-08    3.26368E+01
 1.00000E-07    2.83944E+01
 1.40000E-07    2.45016E+01
 1.80000E-07    2.18782E+01
 2.20000E-07    2.01481E+01
 2.50000E-07    1.89690E+01
 2.80000E-07    1.81224E+01
 3.00000E-07    1.75272E+01
 3.20000E-07    1.68653E+01
 3.50000E-07    1.59516E+01
 4.00000E-07    1.45956E+01
 5.00000E-07    1.30551E+01
 6.25000E-07    1.16814E+01
 7.80000E-07    1.08123E+01
 8.50000E-07    1.04032E+01
 9.10000E-07    1.01176E+01
 9.50000E-07    9.95220E+00
 9.72000E-07    9.83536E+00
 9.96000E-07    9.71751E+00
 1.02000E-06    9.60171E+00
 1.04500E-06    9.48570E+00
 1.07100E-06    9.37144E+00
 1.09700E-06    9.26084E+00
 1.12300E-06    9.15273E+00
 1.15000E-06    8.82641E+00
 1.30000E-06    8.26035E+00
 1.50000E-06    7.33702E+00
 2.10000E-06    6.38998E+00
 2.60000E-06    5.70943E+00
 3.30000E-06    5.12514E+00
 4.00000E-06    3.92874E+00
 9.87700E-06    2.76412E+00
 1.59680E-05    2.13962E+00
 2.77000E-05    1.62927E+00
 4.80520E-05    1.27626E+00
 7.55014E-05    9.96619E-01
 1.48728E-04    2.95727E+02
 3.67262E-04    8.94846E-01
 9.06898E-04    2.83947E-01
 1.42510E-03    1.20898E+02
 2.23945E-03    3.37973E+02
 3.51910E-03    1.61481E+02
 5.53000E-03    2.72967E+02
 9.11800E-03    9.14662E+01
 1.50300E-02    7.27140E+01
 2.47800E-02    8.94227E+01
 4.08500E-02    4.08746E+01
 6.73400E-02    3.36707E+01
 1.11000E-01    2.89477E+01
 1.83000E-01    2.54002E+01
 3.02000E-01    2.50460E+01
 5.00000E-01    2.65628E+01
 8.21000E-01    3.18024E+01
 1.35300E+00    3.25572E+01
 2.23100E+00    1.99730E+01
 3.67900E+00    9.52978E+00
 6.06500E+00    4.12342E+00
