# n + Nd145 : (n,xn)    
# endfb8.0   Mughabghab,Kim,Herman,Oblozinsky  EVAL-FEB06
# 
# # energies =    72
#   E(MeV)        xs(mb) 
 6.76879E-02    0.00000E+00
 7.00000E-02    7.99965E+00
 7.30046E-02    1.15285E+01
 8.00000E-02    1.57477E+02
 9.00000E-02    2.65523E+02
 1.00000E-01    3.35671E+02
 1.50000E-01    4.86188E+02
 2.00000E-01    5.08538E+02
 2.50000E-01    5.36921E+02
 3.00000E-01    5.72708E+02
 4.00000E-01    6.53985E+02
 4.95000E-01    7.44139E+02
 5.00000E-01    7.48989E+02
 6.00000E-01    8.38460E+02
 6.62248E-01    8.79815E+02
 7.00000E-01    1.05252E+03
 7.53488E-01    1.10733E+03
 7.85882E-01    1.25265E+03
 8.00000E-01    1.32414E+03
 9.00000E-01    1.48598E+03
 9.26233E-01    1.48570E+03
 9.27129E-01    1.48578E+03
 9.43573E-01    1.51617E+03
 1.00000E+00    1.67391E+03
 1.01826E+00    1.68368E+03
 1.05873E+00    1.73187E+03
 1.09280E+00    1.79896E+03
 1.10000E+00    1.81524E+03
 1.11893E+00    1.82103E+03
 1.15827E+00    1.84353E+03
 1.16913E+00    1.86123E+03
 1.17041E+00    1.86366E+03
 1.20000E+00    1.95695E+03
 1.22215E+00    1.97665E+03
 1.25843E+00    2.01111E+03
 1.29455E+00    2.06349E+03
 1.30000E+00    2.07418E+03
 1.32597E+00    2.08495E+03
 1.33553E+00    2.09055E+03
 1.34792E+00    2.09816E+03
 1.40000E+00    2.16430E+03
 1.41065E+00    2.16442E+03
 1.41105E+00    2.16447E+03
 1.41369E+00    2.16518E+03
 1.43754E+00    2.17835E+03
 1.50000E+00    2.23924E+03
 1.60000E+00    2.31217E+03
 1.70000E+00    2.35958E+03
 1.80000E+00    2.39720E+03
 1.90000E+00    2.42693E+03
 2.00000E+00    2.45054E+03
 2.50000E+00    2.53179E+03
 3.00000E+00    2.55907E+03
 3.50000E+00    2.54639E+03
 4.00000E+00    2.50330E+03
 5.00000E+00    2.40427E+03
 6.00000E+00    2.36779E+03
 7.00000E+00    2.59973E+03
 8.00000E+00    3.14755E+03
 9.00000E+00    3.64287E+03
 1.00000E+01    3.82633E+03
 1.10000E+01    3.88825E+03
 1.20000E+01    3.92189E+03
 1.30000E+01    3.96244E+03
 1.40000E+01    3.99284E+03
 1.45000E+01    4.00749E+03
 1.50000E+01    4.05714E+03
 1.60000E+01    4.23072E+03
 1.70000E+01    4.47003E+03
 1.80000E+01    4.67930E+03
 1.90000E+01    4.87778E+03
 2.00000E+01    4.99071E+03
