# n + Nd145 : (n,xa)    
# endfb8.0   Mughabghab,Kim,Herman,Oblozinsky  EVAL-FEB06
# 
# # energies =    72
#   E(MeV)        xs(mb) 
 6.76879E-02    1.62884E-02
 7.00000E-02    1.60573E-02
 7.30046E-02    1.57570E-02
 8.00000E-02    1.50579E-02
 9.00000E-02    1.42376E-02
 1.00000E-01    1.37067E-02
 1.50000E-01    1.17324E-02
 2.00000E-01    1.07544E-02
 2.50000E-01    1.03486E-02
 3.00000E-01    1.01421E-02
 4.00000E-01    1.00557E-02
 4.95000E-01    1.15249E-02
 5.00000E-01    1.16594E-02
 6.00000E-01    1.43484E-02
 6.62248E-01    1.60222E-02
 7.00000E-01    1.70373E-02
 7.53488E-01    1.84756E-02
 7.85882E-01    1.93467E-02
 8.00000E-01    1.97263E-02
 9.00000E-01    2.24153E-02
 9.26233E-01    2.31207E-02
 9.27129E-01    2.31447E-02
 9.43573E-01    2.35869E-02
 1.00000E+00    2.51042E-02
 1.01826E+00    2.55952E-02
 1.05873E+00    2.66835E-02
 1.09280E+00    2.75996E-02
 1.10000E+00    2.77932E-02
 1.11893E+00    2.83022E-02
 1.15827E+00    2.93601E-02
 1.16913E+00    2.96521E-02
 1.17041E+00    2.96865E-02
 1.20000E+00    3.04822E-02
 1.22215E+00    3.10778E-02
 1.25843E+00    3.20533E-02
 1.29455E+00    3.30246E-02
 1.30000E+00    3.31711E-02
 1.32597E+00    3.38695E-02
 1.33553E+00    3.41265E-02
 1.34792E+00    3.44597E-02
 1.40000E+00    3.58601E-02
 1.41065E+00    3.61465E-02
 1.41105E+00    3.61572E-02
 1.41369E+00    3.62282E-02
 1.43754E+00    3.68695E-02
 1.50000E+00    3.85491E-02
 1.60000E+00    4.12380E-02
 1.70000E+00    4.39270E-02
 1.80000E+00    4.66160E-02
 1.90000E+00    4.93050E-02
 2.00000E+00    5.19939E-02
 2.50000E+00    6.54388E-02
 3.00000E+00    7.88836E-02
 3.50000E+00    9.23285E-02
 4.00000E+00    1.05773E-01
 5.00000E+00    1.32721E-01
 6.00000E+00    1.66261E-01
 7.00000E+00    2.12773E-01
 8.00000E+00    3.18379E-01
 9.00000E+00    4.49161E-01
 1.00000E+01    6.72109E-01
 1.10000E+01    1.00280E+00
 1.20000E+01    1.48253E+00
 1.30000E+01    2.13871E+00
 1.40000E+01    3.13173E+00
 1.45000E+01    3.68731E+00
 1.50000E+01    4.18477E+00
 1.60000E+01    5.28976E+00
 1.70000E+01    6.15500E+00
 1.80000E+01    7.15998E+00
 1.90000E+01    8.01907E+00
 2.00000E+01    9.07129E+00
