# n + Dy154 : (n,n'21)  
# tendl.2019 A.J. Koning and D. Rochman        EVAL-NOV19
# uncertainties: n
# # energies =    70
#   E(MeV)       xs(mb) 
 1.83081E+00    0.00000E+00
 1.84461E+00    5.27000E-01
 1.85669E+00    9.88319E-01
 1.88940E+00    2.23746E+00
 1.89754E+00    2.54831E+00
 1.91607E+00    3.25594E+00
 1.97093E+00    5.35095E+00
 1.97713E+00    5.58773E+00
 2.00000E+00    6.46109E+00
 2.00385E+00    6.51630E+00
 2.05136E+00    7.19759E+00
 2.20000E+00    9.32909E+00
 2.40000E+00    1.14059E+01
 2.60000E+00    1.14180E+01
 2.80000E+00    1.00523E+01
 3.00000E+00    8.26199E+00
 3.20000E+00    6.56398E+00
 3.40000E+00    5.13409E+00
 3.60000E+00    3.98979E+00
 3.80000E+00    3.09121E+00
 4.00000E+00    2.38938E+00
 4.20000E+00    1.84176E+00
 4.40000E+00    1.41306E+00
 4.60000E+00    1.07816E+00
 4.80000E+00    8.17482E-01
 5.00000E+00    6.15469E-01
 5.20000E+00    4.60438E-01
 5.40000E+00    3.42282E-01
 5.60000E+00    2.52965E-01
 5.80000E+00    1.85979E-01
 6.00000E+00    1.35442E-01
 6.20000E+00    9.84509E-02
 6.40000E+00    7.11868E-02
 6.60000E+00    5.14353E-02
 6.80000E+00    3.70336E-02
 7.00000E+00    2.67500E-02
 7.20000E+00    1.93255E-02
 7.40000E+00    1.39913E-02
 7.60000E+00    1.01711E-02
 7.80000E+00    7.40055E-03
 8.00000E+00    5.41334E-03
 8.50000E+00    2.50461E-03
 9.00000E+00    1.17901E-03
 9.50000E+00    5.64960E-04
 1.00000E+01    2.75616E-04
 1.05000E+01    1.36876E-04
 1.10000E+01    6.91812E-05
 1.15000E+01    3.55558E-05
 1.20000E+01    1.85715E-05
 1.25000E+01    9.85397E-06
 1.30000E+01    5.30139E-06
 1.35000E+01    2.88852E-06
 1.40000E+01    1.59214E-06
 1.45000E+01    8.87040E-07
 1.50000E+01    4.98950E-07
 1.60000E+01    1.62130E-07
 1.70000E+01    5.43890E-08
 1.80000E+01    1.87890E-08
 1.90000E+01    6.65950E-09
 2.00000E+01    2.44390E-09
 2.10000E+01    9.25040E-10
 2.20000E+01    3.59260E-10
 2.30000E+01    1.42590E-10
 2.40000E+01    5.76420E-11
 2.50000E+01    2.36700E-11
 2.60000E+01    9.87530E-12
 2.70000E+01    4.18560E-12
 2.80000E+01    1.80040E-12
 2.90000E+01    7.86490E-13
 3.00000E+01    3.48780E-13
