# n + Dy154 : (n,n'18)  
# tendl.2019 A.J. Koning and D. Rochman        EVAL-NOV19
# uncertainties: n
# # energies =    74
#   E(MeV)       xs(mb) 
 1.75100E+00    0.00000E+00
 1.75866E+00    5.02380E-01
 1.79338E+00    2.77952E+00
 1.80000E+00    3.21369E+00
 1.83081E+00    3.67650E+00
 1.84461E+00    3.88380E+00
 1.85669E+00    4.06526E+00
 1.88940E+00    4.55661E+00
 1.89754E+00    4.67888E+00
 1.91607E+00    4.95723E+00
 1.97093E+00    5.78131E+00
 1.97713E+00    5.87444E+00
 2.00000E+00    6.21798E+00
 2.00385E+00    6.31322E+00
 2.05136E+00    7.48858E+00
 2.20000E+00    1.11658E+01
 2.40000E+00    1.44845E+01
 2.60000E+00    1.44729E+01
 2.80000E+00    1.23333E+01
 3.00000E+00    9.67075E+00
 3.20000E+00    7.30362E+00
 3.40000E+00    5.44344E+00
 3.60000E+00    4.05165E+00
 3.80000E+00    3.02389E+00
 4.00000E+00    2.26278E+00
 4.20000E+00    1.69501E+00
 4.40000E+00    1.26731E+00
 4.60000E+00    9.44534E-01
 4.80000E+00    7.01312E-01
 5.00000E+00    5.18556E-01
 5.20000E+00    3.82252E-01
 5.40000E+00    2.81007E-01
 5.60000E+00    2.06141E-01
 5.80000E+00    1.50990E-01
 6.00000E+00    1.09949E-01
 6.20000E+00    8.01537E-02
 6.40000E+00    5.83131E-02
 6.60000E+00    4.24905E-02
 6.80000E+00    3.09153E-02
 7.00000E+00    2.26057E-02
 7.20000E+00    1.65503E-02
 7.40000E+00    1.21494E-02
 7.60000E+00    8.95808E-03
 7.80000E+00    6.61139E-03
 8.00000E+00    4.90067E-03
 8.50000E+00    2.33763E-03
 9.00000E+00    1.12782E-03
 9.50000E+00    5.50779E-04
 1.00000E+01    2.72633E-04
 1.05000E+01    1.36949E-04
 1.10000E+01    6.98658E-05
 1.15000E+01    3.61913E-05
 1.20000E+01    1.90318E-05
 1.25000E+01    1.01572E-05
 1.30000E+01    5.49166E-06
 1.35000E+01    3.00464E-06
 1.40000E+01    1.66192E-06
 1.45000E+01    9.28680E-07
 1.50000E+01    5.23780E-07
 1.60000E+01    1.71090E-07
 1.70000E+01    5.77190E-08
 1.80000E+01    2.00590E-08
 1.90000E+01    7.15210E-09
 2.00000E+01    2.63870E-09
 2.10000E+01    1.00320E-09
 2.20000E+01    3.91060E-10
 2.30000E+01    1.55720E-10
 2.40000E+01    6.31610E-11
 2.50000E+01    2.60230E-11
 2.60000E+01    1.08920E-11
 2.70000E+01    4.63010E-12
 2.80000E+01    1.99660E-12
 2.90000E+01    8.74070E-13
 3.00000E+01    3.88380E-13
