# n + Dy154 : (n,xp)    
# tendl.2019 A.J. Koning and D. Rochman        EVAL-NOV19
# 
# # energies =   131
#   E(MeV)        xs(mb) 
 3.36531E-01    6.14198E-16
 4.00000E-01    1.64730E-15
 5.00000E-01    2.27250E-14
 6.00000E-01    2.43280E-13
 6.64879E-01    1.26586E-12
 7.00000E-01    1.82192E-12
 7.51674E-01    6.76975E-12
 8.00000E-01    1.13970E-11
 9.00000E-01    5.92780E-11
 9.11011E-01    7.97400E-11
 1.00000E+00    2.45110E-10
 1.03377E+00    7.02522E-10
 1.06481E+00    1.12296E-09
 1.20000E+00    2.95410E-09
 1.21563E+00    4.73560E-09
 1.23172E+00    6.56952E-09
 1.25972E+00    9.76095E-09
 1.34293E+00    1.92452E-08
 1.39938E+00    2.56793E-08
 1.40000E+00    2.57500E-08
 1.42958E+00    4.52255E-08
 1.45173E+00    5.98090E-08
 1.51737E+00    1.03026E-07
 1.55591E+00    1.28401E-07
 1.60000E+00    1.57430E-07
 1.64566E+00    3.03572E-07
 1.66923E+00    3.79011E-07
 1.75100E+00    6.40728E-07
 1.75866E+00    6.65245E-07
 1.79338E+00    7.76372E-07
 1.80000E+00    7.97560E-07
 1.83081E+00    1.16143E-06
 1.84461E+00    1.32441E-06
 1.85669E+00    1.46708E-06
 1.88940E+00    1.85338E-06
 1.89754E+00    1.94952E-06
 1.91607E+00    2.16836E-06
 1.97093E+00    2.81626E-06
 1.97713E+00    2.88948E-06
 2.00000E+00    3.15958E-06
 2.00385E+00    3.31091E-06
 2.05136E+00    5.17841E-06
 2.20000E+00    1.10211E-05
 2.40000E+00    3.36353E-05
 2.60000E+00    9.05751E-05
 2.80000E+00    2.17672E-04
 3.00000E+00    4.76303E-04
 3.20000E+00    9.64531E-04
 3.40000E+00    1.82699E-03
 3.60000E+00    3.27089E-03
 3.80000E+00    5.57327E-03
 4.00000E+00    8.91517E-03
 4.20000E+00    1.38639E-02
 4.40000E+00    2.05912E-02
 4.60000E+00    2.91310E-02
 4.80000E+00    4.01937E-02
 5.00000E+00    5.38909E-02
 5.20000E+00    7.00324E-02
 5.40000E+00    8.90768E-02
 5.60000E+00    1.10531E-01
 5.80000E+00    1.34758E-01
 6.00000E+00    1.63311E-01
 6.20000E+00    1.94559E-01
 6.40000E+00    2.28776E-01
 6.60000E+00    2.65206E-01
 6.80000E+00    3.06075E-01
 7.00000E+00    3.59680E-01
 7.20000E+00    4.17089E-01
 7.40000E+00    4.67188E-01
 7.60000E+00    5.50634E-01
 7.80000E+00    6.34469E-01
 8.00000E+00    7.43397E-01
 8.50000E+00    1.06296E+00
 9.00000E+00    1.50616E+00
 9.50000E+00    2.10509E+00
 1.00000E+01    2.88828E+00
 1.05000E+01    3.89459E+00
 1.10000E+01    5.13625E+00
 1.15000E+01    6.65308E+00
 1.20000E+01    8.45406E+00
 1.25000E+01    1.05505E+01
 1.30000E+01    1.28848E+01
 1.35000E+01    1.54594E+01
 1.40000E+01    1.81917E+01
 1.45000E+01    2.10827E+01
 1.50000E+01    2.41260E+01
 1.60000E+01    3.06083E+01
 1.70000E+01    3.76136E+01
 1.80000E+01    4.51582E+01
 1.90000E+01    5.40822E+01
 2.00000E+01    6.40198E+01
 2.10000E+01    7.38913E+01
 2.20000E+01    8.43867E+01
 2.30000E+01    9.51294E+01
 2.40000E+01    1.06106E+02
 2.50000E+01    1.17130E+02
 2.60000E+01    1.28022E+02
 2.70000E+01    1.38838E+02
 2.80000E+01    1.49726E+02
 2.90000E+01    1.60731E+02
 3.00000E+01    1.71731E+02
 3.00000E+01    1.72169E+02
 3.20000E+01    1.94496E+02
 3.40000E+01    2.16777E+02
 3.60000E+01    2.39450E+02
 3.80000E+01    2.60899E+02
 4.00000E+01    2.82273E+02
 4.20000E+01    3.03697E+02
 4.40000E+01    3.26691E+02
 4.60000E+01    3.48681E+02
 4.80000E+01    3.71242E+02
 5.00000E+01    3.93818E+02
 5.20000E+01    4.15789E+02
 5.40000E+01    4.36653E+02
 5.60000E+01    4.57380E+02
 5.80000E+01    4.77473E+02
 6.00000E+01    4.97796E+02
 6.50000E+01    5.48112E+02
 7.00000E+01    5.98020E+02
 7.50000E+01    6.47785E+02
 8.00000E+01    6.88507E+02
 9.00000E+01    7.54993E+02
 1.00000E+02    7.95287E+02
 1.10000E+02    8.46837E+02
 1.20000E+02    9.27641E+02
 1.30000E+02    1.03198E+03
 1.40000E+02    1.15861E+03
 1.50000E+02    1.31475E+03
 1.60000E+02    1.51899E+03
 1.80000E+02    2.20740E+03
 2.00000E+02    3.60521E+03
