# n + Dy154 : (n,n'16)  
# tendl.2019 A.J. Koning and D. Rochman        EVAL-NOV19
# uncertainties: n
# # energies =    76
#   E(MeV)       xs(mb) 
 1.64566E+00    0.00000E+00
 1.66923E+00    3.18671E+00
 1.75100E+00    1.42422E+01
 1.75866E+00    1.52778E+01
 1.79338E+00    1.99721E+01
 1.80000E+00    2.08671E+01
 1.83081E+00    2.15296E+01
 1.84461E+00    2.18263E+01
 1.85669E+00    2.20861E+01
 1.88940E+00    2.27895E+01
 1.89754E+00    2.29645E+01
 1.91607E+00    2.33630E+01
 1.97093E+00    2.45426E+01
 1.97713E+00    2.46759E+01
 2.00000E+00    2.51677E+01
 2.00385E+00    2.52297E+01
 2.05136E+00    2.59952E+01
 2.20000E+00    2.83899E+01
 2.40000E+00    2.73185E+01
 2.60000E+00    2.32344E+01
 2.80000E+00    1.83337E+01
 3.00000E+00    1.39129E+01
 3.20000E+00    1.03761E+01
 3.40000E+00    7.68916E+00
 3.60000E+00    5.69081E+00
 3.80000E+00    4.21187E+00
 4.00000E+00    3.11622E+00
 4.20000E+00    2.30344E+00
 4.40000E+00    1.69814E+00
 4.60000E+00    1.24792E+00
 4.80000E+00    9.13700E-01
 5.00000E+00    6.66058E-01
 5.20000E+00    4.83704E-01
 5.40000E+00    3.49904E-01
 5.60000E+00    2.52207E-01
 5.80000E+00    1.81229E-01
 6.00000E+00    1.29240E-01
 6.20000E+00    9.21321E-02
 6.40000E+00    6.54711E-02
 6.60000E+00    4.65354E-02
 6.80000E+00    3.30109E-02
 7.00000E+00    2.35213E-02
 7.20000E+00    1.67792E-02
 7.40000E+00    1.20059E-02
 7.60000E+00    8.63527E-03
 7.80000E+00    6.21997E-03
 8.00000E+00    4.50756E-03
 8.50000E+00    2.04336E-03
 9.00000E+00    9.45634E-04
 9.50000E+00    4.46607E-04
 1.00000E+01    2.15110E-04
 1.05000E+01    1.05585E-04
 1.10000E+01    5.27807E-05
 1.15000E+01    2.68429E-05
 1.20000E+01    1.38802E-05
 1.25000E+01    7.29459E-06
 1.30000E+01    3.88910E-06
 1.35000E+01    2.10110E-06
 1.40000E+01    1.14899E-06
 1.45000E+01    6.35470E-07
 1.50000E+01    3.55030E-07
 1.60000E+01    1.13990E-07
 1.70000E+01    3.78540E-08
 1.80000E+01    1.29610E-08
 1.90000E+01    4.55750E-09
 2.00000E+01    1.66020E-09
 2.10000E+01    6.24120E-10
 2.20000E+01    2.40850E-10
 2.30000E+01    9.50460E-11
 2.40000E+01    3.82310E-11
 2.50000E+01    1.56320E-11
 2.60000E+01    6.49830E-12
 2.70000E+01    2.74580E-12
 2.80000E+01    1.17790E-12
 2.90000E+01    5.13270E-13
 3.00000E+01    2.27060E-13
