# n + Am241 : (n,el)    
# irdff2.0   T.NAKAGAWA                        EVAL-MAR88
# uncertainties: n
# # energies =   171
#   E(MeV)       xs(mb) 
 1.00000E-11    1.60989E+04
 1.00000E-07    1.00301E+04
 4.13990E-07    9.28657E+03
 5.31580E-07    1.36655E+04
 6.82560E-07    1.07848E+04
 8.76420E-07    8.33426E+03
 1.12540E-06    1.86098E+04
 1.44500E-06    1.16292E+04
 1.85540E-06    1.12262E+04
 2.37240E-06    1.17349E+04
 3.05900E-06    9.55275E+03
 3.92790E-06    1.01126E+04
 5.04350E-06    1.39228E+04
 6.47600E-06    1.02047E+04
 8.31530E-06    1.04828E+04
 1.06770E-05    1.01958E+04
 1.37100E-05    1.64073E+04
 1.76030E-05    1.07190E+04
 2.26030E-05    1.13579E+04
 2.92030E-05    1.12679E+04
 3.72670E-05    1.21141E+04
 4.78510E-05    1.11885E+04
 6.14420E-05    1.24226E+04
 7.88930E-05    1.21991E+04
 1.01300E-04    1.44985E+04
 1.30070E-04    1.59558E+04
 1.67020E-04    1.38543E+04
 2.14450E-04    1.39095E+04
 2.75360E-04    1.39947E+04
 3.53580E-04    1.39935E+04
 4.54000E-04    1.38433E+04
 5.82950E-04    1.36319E+04
 7.48520E-04    1.34557E+04
 9.61120E-04    1.33768E+04
 1.23410E-03    1.33299E+04
 1.58460E-03    1.32037E+04
 2.03470E-03    1.31558E+04
 2.24870E-03    1.31984E+04
 2.48520E-03    1.32057E+04
 2.61260E-03    1.31581E+04
 2.74650E-03    1.30845E+04
 3.03540E-03    1.29831E+04
 3.35460E-03    1.28768E+04
 3.70740E-03    1.27300E+04
 4.30740E-03    1.25669E+04
 5.53080E-03    1.24750E+04
 7.10170E-03    1.23220E+04
 9.11880E-03    1.21545E+04
 1.17090E-02    1.20197E+04
 1.50340E-02    1.18999E+04
 1.93050E-02    1.18127E+04
 2.18750E-02    1.17423E+04
 2.35790E-02    1.17061E+04
 2.41760E-02    1.16874E+04
 2.47880E-02    1.16627E+04
 2.60580E-02    1.16391E+04
 2.70000E-02    1.16138E+04
 2.85000E-02    1.15936E+04
 3.18280E-02    1.15954E+04
 3.43070E-02    1.15824E+04
 4.08680E-02    1.15424E+04
 4.63090E-02    1.14672E+04
 5.24750E-02    1.14000E+04
 5.65620E-02    1.13047E+04
 6.73790E-02    1.12040E+04
 7.20000E-02    1.11344E+04
 7.95000E-02    1.10736E+04
 8.25000E-02    1.10334E+04
 8.65170E-02    1.09455E+04
 9.80370E-02    1.08009E+04
 1.11090E-01    1.06769E+04
 1.16790E-01    1.05992E+04
 1.22770E-01    1.05182E+04
 1.29070E-01    1.04421E+04
 1.35690E-01    1.03647E+04
 1.42640E-01    1.02834E+04
 1.49960E-01    1.01979E+04
 1.57640E-01    1.01074E+04
 1.65730E-01    1.00080E+04
 1.74220E-01    9.90258E+03
 1.83160E-01    9.79256E+03
 1.92550E-01    9.68071E+03
 2.02420E-01    9.56336E+03
 2.12800E-01    9.42861E+03
 2.23710E-01    9.28044E+03
 2.35180E-01    9.12466E+03
 2.47240E-01    8.88343E+03
 2.73240E-01    8.64857E+03
 2.87250E-01    8.52595E+03
 2.94520E-01    8.46870E+03
 2.97200E-01    8.44584E+03
 2.98500E-01    8.41850E+03
 3.01970E-01    8.23558E+03
 3.33730E-01    7.90022E+03
 3.68830E-01    7.64776E+03
 3.87740E-01    7.47799E+03
 4.07620E-01    7.21824E+03
 4.50490E-01    6.86261E+03
 4.97870E-01    6.57887E+03
 5.23400E-01    6.37675E+03
 5.50230E-01    6.16428E+03
 5.78440E-01    5.94982E+03
 6.08100E-01    5.74305E+03
 6.39280E-01    5.53195E+03
 6.72060E-01    5.31120E+03
 7.06510E-01    5.10927E+03
 7.42740E-01    4.91291E+03
 7.80820E-01    4.71596E+03
 8.20850E-01    4.53522E+03
 8.62940E-01    4.35207E+03
 9.07180E-01    4.17456E+03
 9.61640E-01    4.01690E+03
 1.00260E+00    3.81789E+03
 1.10800E+00    3.65224E+03
 1.16480E+00    3.57485E+03
 1.22460E+00    3.52358E+03
 1.28730E+00    3.47697E+03
 1.35340E+00    3.43108E+03
 1.42270E+00    3.42656E+03
 1.49570E+00    3.42830E+03
 1.57240E+00    3.43350E+03
 1.65300E+00    3.48475E+03
 1.73770E+00    3.54252E+03
 1.82680E+00    3.60015E+03
 1.92050E+00    3.65634E+03
 2.01900E+00    3.73962E+03
 2.12250E+00    3.83959E+03
 2.23130E+00    3.92667E+03
 2.30690E+00    3.98070E+03
 2.34570E+00    4.00824E+03
 2.36530E+00    4.02677E+03
 2.38520E+00    4.07374E+03
 2.46600E+00    4.16993E+03
 2.59240E+00    4.28181E+03
 2.72530E+00    4.39636E+03
 2.86500E+00    4.51665E+03
 3.01190E+00    4.61876E+03
 3.16640E+00    4.70772E+03
 3.32870E+00    4.83705E+03
 3.67880E+00    4.94391E+03
 4.06570E+00    4.95133E+03
 4.49330E+00    4.91701E+03
 4.72370E+00    4.89256E+03
 4.96590E+00    4.84558E+03
 5.22050E+00    4.76030E+03
 5.48810E+00    4.66729E+03
 5.76950E+00    4.53989E+03
 6.06530E+00    4.42638E+03
 6.37630E+00    4.27133E+03
 6.59240E+00    4.18720E+03
 6.70320E+00    4.07947E+03
 7.04690E+00    3.89681E+03
 7.40820E+00    3.71538E+03
 7.78800E+00    3.56639E+03
 8.18730E+00    3.41763E+03
 8.60710E+00    3.25370E+03
 9.04840E+00    3.11449E+03
 9.51230E+00    2.99293E+03
 1.00000E+01    2.88891E+03
 1.05130E+01    2.81105E+03
 1.10520E+01    2.75588E+03
 1.16180E+01    2.71863E+03
 1.22140E+01    2.70086E+03
 1.28400E+01    2.69955E+03
 1.34990E+01    2.71300E+03
 1.38400E+01    2.72554E+03
 1.41910E+01    2.75320E+03
 1.45500E+01    2.78509E+03
 1.49180E+01    2.83682E+03
 1.56830E+01    2.91013E+03
 1.64870E+01    2.98532E+03
