# n + Tc 97 : (n,n'25)  
# tendl.2019 A.J. Koning and D. Rochman        EVAL-NOV19
# uncertainties: n
# # energies =    70
#   E(MeV)       xs(mb) 
 1.15311E+00    0.00000E+00
 1.17733E+00    8.11429E+00
 1.17935E+00    8.79104E+00
 1.20000E+00    1.57093E+01
 1.21211E+00    1.81277E+01
 1.23257E+00    2.22137E+01
 1.25293E+00    2.62797E+01
 1.40000E+00    5.56502E+01
 1.60000E+00    5.19445E+01
 1.80000E+00    4.23145E+01
 2.00000E+00    3.39564E+01
 2.20000E+00    2.75460E+01
 2.40000E+00    2.26120E+01
 2.60000E+00    1.86848E+01
 2.80000E+00    1.54552E+01
 3.00000E+00    1.27261E+01
 3.20000E+00    1.03974E+01
 3.40000E+00    8.43573E+00
 3.60000E+00    6.80129E+00
 3.80000E+00    5.46154E+00
 4.00000E+00    4.37770E+00
 4.20000E+00    3.50939E+00
 4.40000E+00    2.81844E+00
 4.60000E+00    2.26972E+00
 4.80000E+00    1.83454E+00
 5.00000E+00    1.48898E+00
 5.20000E+00    1.21324E+00
 5.40000E+00    9.92952E-01
 5.60000E+00    8.14144E-01
 5.80000E+00    6.70176E-01
 6.00000E+00    5.51674E-01
 6.20000E+00    4.55533E-01
 6.40000E+00    3.75816E-01
 6.60000E+00    3.09858E-01
 6.80000E+00    2.55740E-01
 7.00000E+00    2.09643E-01
 7.20000E+00    1.71987E-01
 7.40000E+00    1.40999E-01
 7.60000E+00    1.15413E-01
 7.80000E+00    9.45392E-02
 8.00000E+00    7.72228E-02
 8.50000E+00    4.63625E-02
 9.00000E+00    2.76305E-02
 9.50000E+00    1.63844E-02
 1.00000E+01    9.71248E-03
 1.05000E+01    5.77365E-03
 1.10000E+01    3.45171E-03
 1.15000E+01    2.07942E-03
 1.20000E+01    1.26292E-03
 1.25000E+01    7.73488E-04
 1.30000E+01    4.77384E-04
 1.35000E+01    2.96857E-04
 1.40000E+01    1.85916E-04
 1.45000E+01    1.17228E-04
 1.50000E+01    7.43875E-05
 1.60000E+01    3.04874E-05
 1.70000E+01    1.28285E-05
 1.80000E+01    5.52350E-06
 1.90000E+01    2.43323E-06
 2.00000E+01    1.08897E-06
 2.10000E+01    4.93890E-07
 2.20000E+01    2.24830E-07
 2.30000E+01    1.04970E-07
 2.40000E+01    4.98140E-08
 2.50000E+01    2.40090E-08
 2.60000E+01    1.17410E-08
 2.70000E+01    5.81280E-09
 2.80000E+01    2.91600E-09
 2.90000E+01    1.47860E-09
 3.00000E+01    7.57430E-10
