# n + Lu  0 : (n,xa)
# jendl.ad   N.Iwamoto                         EVAL-Apr14
#
# # energies =   112
#   E(MeV)          xs(mb) 
 1.05000E-01    2.21020E-05
 1.10000E-01    2.20121E-05
 1.20000E-01    2.06537E-05
 1.23549E-01    2.03013E-05
 1.30000E-01    1.96609E-05
 1.40000E-01    1.88838E-05
 1.50000E-01    1.82326E-05
 1.60000E-01    1.76313E-05
 1.70000E-01    1.74129E-05
 1.80000E-01    1.71974E-05
 1.85186E-01    1.75043E-05
 1.90000E-01    1.77054E-05
 1.95472E-01    1.75801E-05
 2.00000E-01    1.74765E-05
 2.25000E-01    1.71774E-05
 2.34436E-01    1.70377E-05
 2.37119E-01    1.69979E-05
 2.38266E-01    1.69810E-05
 2.50000E-01    1.68107E-05
 2.75000E-01    1.65372E-05
 3.00000E-01    1.73469E-05
 3.01065E-01    1.73512E-05
 3.07010E-01    1.73702E-05
 3.40787E-01    1.76778E-05
 3.74627E-01    1.60635E-05
 3.74628E-01    1.60635E-05
 3.83528E-01    1.60240E-05
 3.88787E-01    1.60007E-05
 3.91106E-01    1.59904E-05
 4.00000E-01    1.58291E-05
 4.27327E-01    1.52437E-05
 4.35520E-01    1.49469E-05
 4.39831E-01    1.48943E-05
 4.52688E-01    1.46573E-05
 4.66422E-01    1.44581E-05
 4.90431E-01    1.41100E-05
 4.90637E-01    1.40990E-05
 5.00000E-01    1.39128E-05
 5.07755E-01    1.38113E-05
 5.36141E-01    1.36519E-05
 5.67161E-01    1.33119E-05
 5.81314E-01    1.34558E-05
 5.95166E-01    1.36324E-05
 5.99160E-01    1.36523E-05
 6.00000E-01    1.36434E-05
 6.16967E-01    1.37620E-05
 6.18626E-01    1.37576E-05
 6.38838E-01    1.37150E-05
 6.41416E-01    1.37234E-05
 6.53902E-01    1.37639E-05
 6.60897E-01    1.37829E-05
 6.62209E-01    1.37857E-05
 6.86513E-01    1.44733E-05
 6.91797E-01    1.45762E-05
 6.92145E-01    1.45762E-05
 6.97771E-01    1.45768E-05
 6.97772E-01    1.45768E-05
 6.99688E-01    1.45771E-05
 7.00000E-01    1.45771E-05
 7.13292E-01    1.48305E-05
 7.13568E-01    1.48321E-05
 8.00000E-01    1.61599E-05
 9.00000E-01    1.86280E-05
 1.00000E+00    2.13880E-05
 1.10000E+00    2.44321E-05
 1.20000E+00    2.79539E-05
 1.30000E+00    3.19846E-05
 1.40000E+00    3.67230E-05
 1.50000E+00    4.21776E-05
 1.60000E+00    4.84031E-05
 1.70000E+00    5.56149E-05
 1.80000E+00    6.38301E-05
 1.90000E+00    7.31153E-05
 2.00000E+00    8.38164E-05
 2.25000E+00    1.15341E-04
 2.50000E+00    1.66885E-04
 2.75000E+00    2.17559E-04
 3.00000E+00    3.62612E-04
 3.50000E+00    6.15211E-04
 4.00000E+00    9.80956E-04
 4.50000E+00    1.58218E-03
 5.00000E+00    2.47247E-03
 5.50000E+00    3.75218E-03
 6.00000E+00    5.55998E-03
 6.50000E+00    8.14355E-03
 7.00000E+00    1.19835E-02
 7.50000E+00    1.78584E-02
 8.00000E+00    2.68790E-02
 8.50000E+00    3.96967E-02
 9.00000E+00    5.82834E-02
 9.50000E+00    8.50885E-02
 1.00000E+01    1.23013E-01
 1.05000E+01    1.74739E-01
 1.10000E+01    2.42635E-01
 1.15000E+01    3.28366E-01
 1.20000E+01    4.32666E-01
 1.25000E+01    5.55281E-01
 1.30000E+01    6.95115E-01
 1.35000E+01    8.50456E-01
 1.40000E+01    1.01920E+00
 1.45000E+01    1.19909E+00
 1.50000E+01    1.38772E+00
 1.55000E+01    1.58322E+00
 1.60000E+01    1.78356E+00
 1.65000E+01    1.98679E+00
 1.70000E+01    2.19147E+00
 1.75000E+01    2.39639E+00
 1.80000E+01    2.60047E+00
 1.85000E+01    2.80288E+00
 1.90000E+01    3.00293E+00
 1.95000E+01    3.20010E+00
 2.00000E+01    3.39411E+00
