# n + Lu  0 : (n,xn)
# jendl.ad   N.Iwamoto                         EVAL-Apr14
#
# # energies =   112
#   E(MeV)          xs(mb) 
 1.05000E-01    0.00000E+00
 1.10000E-01    1.09231E-02
 1.20000E-01    1.61743E+02
 1.23549E-01    2.02390E+02
 1.30000E-01    2.76272E+02
 1.40000E-01    3.67461E+02
 1.50000E-01    4.43421E+02
 1.60000E-01    5.25775E+02
 1.70000E-01    5.88413E+02
 1.80000E-01    6.41409E+02
 1.85186E-01    6.65252E+02
 1.90000E-01    6.90135E+02
 1.95472E-01    7.13057E+02
 2.00000E-01    7.31884E+02
 2.25000E-01    8.10739E+02
 2.34436E-01    8.31272E+02
 2.37119E-01    8.37077E+02
 2.38266E-01    8.39554E+02
 2.50000E-01    8.64780E+02
 2.75000E-01    9.78247E+02
 3.00000E-01    1.05011E+03
 3.01065E-01    1.05224E+03
 3.07010E-01    1.06413E+03
 3.40787E-01    1.13138E+03
 3.74627E-01    1.38257E+03
 3.74628E-01    1.38258E+03
 3.83528E-01    1.42854E+03
 3.88787E-01    1.45570E+03
 3.91106E-01    1.46768E+03
 4.00000E-01    1.52828E+03
 4.27327E-01    1.72015E+03
 4.35520E-01    1.78232E+03
 4.39831E-01    1.80670E+03
 4.52688E-01    1.87990E+03
 4.66422E-01    1.95761E+03
 4.90431E-01    2.09319E+03
 4.90637E-01    2.09442E+03
 5.00000E-01    2.14817E+03
 5.07755E-01    2.17228E+03
 5.36141E-01    2.25659E+03
 5.67161E-01    2.34692E+03
 5.81314E-01    2.37794E+03
 5.95166E-01    2.40776E+03
 5.99160E-01    2.41646E+03
 6.00000E-01    2.41793E+03
 6.16967E-01    2.44228E+03
 6.18626E-01    2.44469E+03
 6.38838E-01    2.47866E+03
 6.41416E-01    2.48337E+03
 6.53902E-01    2.50607E+03
 6.60897E-01    2.51880E+03
 6.62209E-01    2.52120E+03
 6.86513E-01    2.56881E+03
 6.91797E-01    2.58021E+03
 6.92145E-01    2.58088E+03
 6.97771E-01    2.59166E+03
 6.97772E-01    2.59166E+03
 6.99688E-01    2.59535E+03
 7.00000E-01    2.59595E+03
 7.13292E-01    2.61513E+03
 7.13568E-01    2.61558E+03
 8.00000E-01    2.74209E+03
 9.00000E-01    2.83787E+03
 1.00000E+00    2.92001E+03
 1.10000E+00    3.00815E+03
 1.20000E+00    3.07960E+03
 1.30000E+00    3.13411E+03
 1.40000E+00    3.17257E+03
 1.50000E+00    3.19677E+03
 1.60000E+00    3.20903E+03
 1.70000E+00    3.21159E+03
 1.80000E+00    3.20683E+03
 1.90000E+00    3.19694E+03
 2.00000E+00    3.18378E+03
 2.25000E+00    3.14394E+03
 2.50000E+00    3.10553E+03
 2.75000E+00    3.07379E+03
 3.00000E+00    3.04262E+03
 3.50000E+00    2.98314E+03
 4.00000E+00    2.93569E+03
 4.50000E+00    2.90435E+03
 5.00000E+00    2.88038E+03
 5.50000E+00    2.85533E+03
 6.00000E+00    2.82644E+03
 6.50000E+00    2.79567E+03
 7.00000E+00    2.77025E+03
 7.50000E+00    2.75214E+03
 8.00000E+00    2.76121E+03
 8.50000E+00    3.10273E+03
 9.00000E+00    3.56829E+03
 9.50000E+00    3.94108E+03
 1.00000E+01    4.19225E+03
 1.05000E+01    4.34729E+03
 1.10000E+01    4.43921E+03
 1.15000E+01    4.49192E+03
 1.20000E+01    4.52068E+03
 1.25000E+01    4.53511E+03
 1.30000E+01    4.54108E+03
 1.35000E+01    4.54205E+03
 1.40000E+01    4.53989E+03
 1.45000E+01    4.53576E+03
 1.50000E+01    4.53249E+03
 1.55000E+01    4.55738E+03
 1.60000E+01    4.64217E+03
 1.65000E+01    4.77996E+03
 1.70000E+01    4.94370E+03
 1.75000E+01    5.10865E+03
 1.80000E+01    5.25966E+03
 1.85000E+01    5.39018E+03
 1.90000E+01    5.49877E+03
 1.95000E+01    5.58706E+03
 2.00000E+01    5.65682E+03
