# n + Lu  0 : (n,t)
# jendl.ad   N.Iwamoto                         EVAL-Apr14
# uncertainties: n
# # energies =    71
#   E(MeV)          xs(mb) 
 3.33526E+00    0.00000E+00
 3.41217E+00    2.32067E-31
 3.58983E+00    8.82517E-31
 3.86431E+00    1.05641E-25
 4.23029E+00    2.46501E-25
 4.50000E+00    3.50945E-25
 4.66118E+00    5.72215E-23
 4.67892E+00    6.40410E-23
 4.69099E+00    6.86825E-23
 4.72519E+00    8.18459E-23
 4.81187E+00    1.15218E-22
 4.83091E+00    1.22550E-22
 4.86212E+00    1.34565E-22
 4.90523E+00    1.51163E-22
 4.91640E+00    1.55464E-22
 4.95083E+00    1.68719E-22
 4.96897E+00    1.75705E-22
 4.97860E+00    1.79411E-22
 5.00000E+00    1.87650E-22
 5.01606E+00    7.44092E-20
 5.01968E+00    9.11392E-20
 5.04670E+00    2.16012E-19
 5.05448E+00    2.51966E-19
 5.05593E+00    2.58667E-19
 5.06055E+00    2.80015E-19
 5.07884E+00    3.64559E-19
 5.10535E+00    4.87076E-19
 5.13140E+00    6.07442E-19
 5.15101E+00    6.98073E-19
 5.16551E+00    7.65082E-19
 5.19729E+00    9.11973E-19
 5.20515E+00    9.48287E-19
 5.20693E+00    9.56524E-19
 5.22202E+00    1.02625E-18
 5.23074E+00    1.06656E-18
 5.23207E+00    1.07269E-18
 5.25923E+00    1.19822E-18
 5.27230E+00    1.25862E-18
 5.28030E+00    1.29561E-18
 5.29614E+00    1.36881E-18
 5.30501E+00    1.40981E-18
 5.50000E+00    2.31094E-18
 6.00000E+00    1.80300E-15
 6.50000E+00    1.85800E-13
 7.00000E+00    5.28416E-12
 7.50000E+00    6.90883E-11
 8.00000E+00    6.79972E-10
 8.50000E+00    5.85122E-09
 9.00000E+00    3.94488E-08
 9.50000E+00    2.27282E-07
 1.00000E+01    1.33806E-06
 1.05000E+01    7.78017E-06
 1.10000E+01    3.91794E-05
 1.15000E+01    1.63456E-04
 1.20000E+01    5.58220E-04
 1.25000E+01    1.66440E-03
 1.30000E+01    4.32237E-03
 1.35000E+01    9.93294E-03
 1.40000E+01    2.04356E-02
 1.45000E+01    3.80315E-02
 1.50000E+01    6.47336E-02
 1.55000E+01    1.01978E-01
 1.60000E+01    1.50448E-01
 1.65000E+01    2.10097E-01
 1.70000E+01    2.80243E-01
 1.75000E+01    3.59634E-01
 1.80000E+01    4.46386E-01
 1.85000E+01    5.37852E-01
 1.90000E+01    6.30533E-01
 1.95000E+01    7.20318E-01
 2.00000E+01    8.03157E-01
