# n + Cm246 : (n,n'30)  
# jendl4.0   O.Iwamoto,T.Nakagawa,T.Ohsawa,+   EVAL-JAN10
# uncertainties: y
# # energies =    41
#   E(MeV)       xs(mb)       xslow(mb)      xsupp(mb)
 1.40273E+00    0.00000E+00    0.00000E+00    0.00000E+00
 1.60000E+00    4.36732E+00    2.70774E+00    6.02690E+00
 1.80000E+00    8.32727E+00    5.16291E+00    1.14916E+01
 2.00000E+00    9.76835E+00    5.21630E+00    1.43204E+01
 2.30000E+00    8.68108E+00    4.63570E+00    1.27265E+01
 2.50000E+00    7.04846E+00    5.25110E+00    8.84582E+00
 2.70000E+00    5.39492E+00    4.01922E+00    6.77062E+00
 3.00000E+00    3.56776E+00    2.94697E+00    4.18855E+00
 3.50000E+00    1.54917E+00    1.31679E+00    1.78155E+00
 4.00000E+00    7.28246E-01    6.10270E-01    8.46222E-01
 4.50000E+00    4.31588E-01    3.61671E-01    5.01505E-01
 5.00000E+00    3.15426E-01    2.44455E-01    3.86397E-01
 5.50000E+00    2.64081E-01    2.04663E-01    3.23499E-01
 6.00000E+00    2.34025E-01    1.75753E-01    2.92297E-01
 6.50000E+00    2.15490E-01    1.61833E-01    2.69147E-01
 7.00000E+00    2.02017E-01    1.50099E-01    2.53935E-01
 7.50000E+00    1.88299E-01    1.39906E-01    2.36692E-01
 8.00000E+00    1.78955E-01    1.33143E-01    2.24767E-01
 8.50000E+00    1.70322E-01    1.26720E-01    2.13924E-01
 9.00000E+00    1.62439E-01    1.21992E-01    2.02886E-01
 9.50000E+00    1.53115E-01    1.14989E-01    1.91241E-01
 1.00000E+01    1.44901E-01    1.10125E-01    1.79677E-01
 1.05000E+01    1.37143E-01    1.04229E-01    1.70057E-01
 1.10000E+01    1.29777E-01    9.86305E-02    1.60923E-01
 1.15000E+01    1.22862E-01    9.33751E-02    1.52349E-01
 1.20000E+01    1.16660E-01    9.01782E-02    1.43142E-01
 1.25000E+01    1.10955E-01    8.57682E-02    1.36142E-01
 1.30000E+01    1.05910E-01    8.18684E-02    1.29952E-01
 1.35000E+01    1.01824E-01    7.87100E-02    1.24938E-01
 1.40000E+01    9.80226E-02    7.65557E-02    1.19490E-01
 1.45000E+01    9.37751E-02    7.32384E-02    1.14312E-01
 1.50000E+01    8.95001E-02    7.02576E-02    1.08743E-01
 1.55000E+01    8.50896E-02    6.67953E-02    1.03384E-01
 1.60000E+01    8.10682E-02    6.39628E-02    9.81736E-02
 1.65000E+01    7.75006E-02    6.11480E-02    9.38532E-02
 1.70000E+01    7.42225E-02    5.85616E-02    8.98835E-02
 1.75000E+01    7.12447E-02    5.62121E-02    8.62773E-02
 1.80000E+01    6.84986E-02    5.45934E-02    8.24038E-02
 1.85000E+01    6.59551E-02    5.25662E-02    7.93440E-02
 1.95000E+01    6.11458E-02    4.87332E-02    7.35584E-02
 2.00000E+01    5.89925E-02    4.70170E-02    7.09680E-02
