# n + Ba138 : (n,xa)    
# jendl4.0   JNDC FP NUCLEAR DATA W.G.         EVAL-MAR90
# 
# # energies =   173
#   E(MeV)        xs(mb) 
 1.44640E+00    1.18809E-08
 1.44681E+00    1.18914E-08
 1.44763E+00    1.19122E-08
 1.44843E+00    1.19327E-08
 1.45002E+00    1.19730E-08
 1.45155E+00    1.20121E-08
 1.45304E+00    1.20500E-08
 1.45593E+00    1.21236E-08
 1.45865E+00    1.21928E-08
 1.46120E+00    1.22577E-08
 1.46360E+00    1.23187E-08
 1.46810E+00    1.24333E-08
 1.47205E+00    1.25339E-08
 1.47551E+00    1.26221E-08
 1.48160E+00    1.27770E-08
 1.48618E+00    1.28935E-08
 1.49307E+00    1.30691E-08
 1.50000E+00    1.32454E-08
 1.50724E+00    1.34298E-08
 1.52138E+00    1.37896E-08
 1.53475E+00    1.41300E-08
 1.54739E+00    1.44518E-08
 1.55933E+00    1.47559E-08
 1.57062E+00    1.50432E-08
 1.58127E+00    1.53143E-08
 1.59132E+00    1.55702E-08
 1.60080E+00    1.58116E-08
 1.61873E+00    1.62681E-08
 1.63459E+00    1.66717E-08
 1.64859E+00    1.70281E-08
 1.66094E+00    1.73424E-08
 1.68277E+00    1.78982E-08
 1.69933E+00    1.83198E-08
 1.71186E+00    1.86387E-08
 1.73082E+00    1.91216E-08
 1.75000E+00    1.96097E-08
 1.76954E+00    2.01072E-08
 1.78682E+00    2.05471E-08
 1.80208E+00    2.09355E-08
 1.82909E+00    2.16232E-08
 1.84962E+00    2.21457E-08
 1.86516E+00    2.25415E-08
 1.88873E+00    2.31413E-08
 1.91259E+00    2.37488E-08
 1.93408E+00    2.42958E-08
 1.95035E+00    2.47101E-08
 1.96265E+00    2.50231E-08
 1.98124E+00    2.54963E-08
 2.00000E+00    2.59740E-08
 2.02599E+00    3.04556E-08
 2.04570E+00    3.38550E-08
 2.07563E+00    3.90161E-08
 2.10599E+00    4.42528E-08
 2.13047E+00    4.84741E-08
 2.16772E+00    5.48982E-08
 2.20562E+00    6.14347E-08
 2.21931E+00    6.37957E-08
 2.23422E+00    6.63670E-08
 2.25648E+00    7.02051E-08
 2.27331E+00    7.31087E-08
 2.29880E+00    7.80842E-08
 2.32458E+00    8.58797E-08
 2.35129E+00    9.47806E-08
 2.37152E+00    1.01944E-07
 2.40220E+00    1.14127E-07
 2.43327E+00    1.27956E-07
 2.46359E+00    1.43059E-07
 2.49751E+00    1.62084E-07
 2.52325E+00    1.78185E-07
 2.56237E+00    2.05789E-07
 2.60209E+00    2.37750E-07
 2.60290E+00    2.38440E-07
 2.63076E+00    2.63225E-07
 2.65891E+00    2.90888E-07
 2.69346E+00    3.28854E-07
 2.74613E+00    3.96472E-07
 2.79983E+00    4.79753E-07
 2.83596E+00    5.45409E-07
 2.87256E+00    6.21074E-07
 2.90207E+00    6.89677E-07
 2.95294E+00    8.26165E-07
 3.00000E+00    9.76390E-07
 3.01308E+00    1.02256E-06
 3.07231E+00    1.26010E-06
 3.12524E+00    1.51860E-06
 3.17908E+00    1.83616E-06
 3.18674E+00    1.88649E-06
 3.27858E+00    2.60800E-06
 3.36111E+00    3.48893E-06
 3.43502E+00    4.52794E-06
 3.50103E+00    5.71510E-06
 3.61961E+00    8.68212E-06
 3.71118E+00    1.19906E-05
 3.78137E+00    1.53588E-05
 3.88915E+00    2.24606E-05
 4.00000E+00    3.32042E-05
 4.22949E+00    6.39205E-05
 4.41020E+00    1.07052E-04
 4.69585E+00    2.41886E-04
 5.00000E+00    4.79314E-04
 5.47723E+00    1.08498E-03
 6.00000E+00    2.65498E-03
 6.23574E+00    3.59882E-03
 6.60683E+00    5.80940E-03
 7.00000E+00    9.22931E-03
 8.00000E+00    2.41110E-02
 8.48528E+00    3.56328E-02
 9.00000E+00    5.28058E-02
 9.11932E+00    5.77173E-02
 9.22501E+00    6.23750E-02
 9.31850E+00    6.68071E-02
 9.48439E+00    7.54658E-02
 9.61075E+00    8.27997E-02
 9.70662E+00    8.88452E-02
 9.85222E+00    9.88691E-02
 1.00000E+01    1.10204E-01
 1.01146E+01    1.20267E-01
 1.02232E+01    1.30648E-01
 1.03261E+01    1.41318E-01
 1.04235E+01    1.52223E-01
 1.05157E+01    1.63313E-01
 1.06028E+01    1.74548E-01
 1.06852E+01    1.85890E-01
 1.07630E+01    1.97292E-01
 1.09103E+01    2.20863E-01
 1.10409E+01    2.43987E-01
 1.11565E+01    2.66124E-01
 1.12586E+01    2.87377E-01
 1.13487E+01    3.07565E-01
 1.14282E+01    3.26574E-01
 1.14981E+01    3.44294E-01
 1.16216E+01    3.78015E-01
 1.17151E+01    4.05823E-01
 1.17857E+01    4.28197E-01
 1.18923E+01    4.64496E-01
 1.20000E+01    5.04374E-01
 1.21162E+01    5.45997E-01
 1.23370E+01    6.35284E-01
 1.25336E+01    7.27636E-01
 1.27081E+01    8.21112E-01
 1.28629E+01    9.13263E-01
 1.29998E+01    1.00374E+00
 1.31208E+01    1.07654E+00
 1.33353E+01    1.21974E+00
 1.34984E+01    1.34232E+00
 1.36221E+01    1.44417E+00
 1.38098E+01    1.61500E+00
 1.40000E+01    1.81103E+00
 1.42436E+01    2.04583E+00
 1.46169E+01    2.45726E+00
 1.48072E+01    2.68027E+00
 1.50000E+01    2.93125E+00
 1.52440E+01    3.22870E+00
 1.56174E+01    3.77547E+00
 1.60000E+01    4.37630E+00
 1.62373E+01    4.71873E+00
 1.64478E+01    5.05620E+00
 1.66343E+01    5.38503E+00
 1.69657E+01    6.05083E+00
 1.72186E+01    6.49723E+00
 1.74107E+01    6.85433E+00
 1.77029E+01    7.46180E+00
 1.80000E+01    8.17050E+00
 1.82386E+01    8.64844E+00
 1.84500E+01    9.11330E+00
 1.86370E+01    9.55988E+00
 1.88022E+01    9.98558E+00
 1.89479E+01    1.03858E+01
 1.92056E+01    1.10100E+01
 1.94012E+01    1.14955E+01
 1.95492E+01    1.18874E+01
 1.97733E+01    1.25224E+01
 2.00000E+01    1.32203E+01
