# n + Ce136 : (n,g)     
# jendl.ad   K.Shibata (JAEA)                  EVAL-Jul14
# uncertainties: n
# # energies =    69
#   E(MeV)       xs(mb) 
 1.00000E-10    2.97026E+04
 5.00000E-09    8.08888E+03
 1.00000E-08    6.12741E+03
 1.50000E-08    5.14819E+03
 2.00000E-08    4.52952E+03
 2.50000E-08    4.09204E+03
 3.00000E-08    3.76152E+03
 3.50000E-08    3.45844E+03
 4.20000E-08    3.16334E+03
 5.00000E-08    2.91781E+03
 5.80000E-08    2.71183E+03
 6.70000E-08    2.50280E+03
 8.00000E-08    2.26473E+03
 1.00000E-07    1.97031E+03
 1.40000E-07    1.70019E+03
 1.80000E-07    1.51823E+03
 2.20000E-07    1.39801E+03
 2.50000E-07    1.31628E+03
 2.80000E-07    1.25769E+03
 3.00000E-07    1.21615E+03
 3.20000E-07    1.17020E+03
 3.50000E-07    1.10693E+03
 4.00000E-07    1.01279E+03
 5.00000E-07    9.05863E+02
 6.25000E-07    8.10607E+02
 7.80000E-07    7.50157E+02
 8.50000E-07    7.21931E+02
 9.10000E-07    7.02072E+02
 9.50000E-07    6.90685E+02
 9.72000E-07    6.82475E+02
 9.96000E-07    6.74278E+02
 1.02000E-06    6.66331E+02
 1.04500E-06    6.58272E+02
 1.07100E-06    6.50210E+02
 1.09700E-06    6.42602E+02
 1.12300E-06    6.35040E+02
 1.15000E-06    6.12301E+02
 1.30000E-06    5.73175E+02
 1.50000E-06    5.08942E+02
 2.10000E-06    4.43284E+02
 2.60000E-06    3.95981E+02
 3.30000E-06    3.55490E+02
 4.00000E-06    2.72449E+02
 9.87700E-06    1.91568E+02
 1.59680E-05    1.48141E+02
 2.77000E-05    1.26804E+04
 4.80520E-05    2.93527E+04
 7.55014E-05    1.82293E+04
 1.48728E-04    9.41696E+03
 3.67262E-04    4.30101E+03
 9.06898E-04    2.39871E+03
 1.42510E-03    1.72627E+03
 2.23945E-03    1.26761E+03
 3.51910E-03    9.59491E+02
 5.53000E-03    7.59547E+02
 9.11800E-03    5.94395E+02
 1.50300E-02    4.78517E+02
 2.47800E-02    3.71866E+02
 4.08500E-02    2.91450E+02
 6.73400E-02    2.39451E+02
 1.11000E-01    2.14203E+02
 1.83000E-01    2.03925E+02
 3.02000E-01    2.05185E+02
 5.00000E-01    1.72463E+02
 8.21000E-01    1.54467E+02
 1.35300E+00    1.61425E+02
 2.23100E+00    2.29586E+02
 3.67900E+00    1.29702E+02
 6.06500E+00    1.52770E+01
