# n + Zr 96 : (n,g)     
# jendl.ad   A.Ichihara, S.Kunieda, K.Shibata  EVAL-AUG13
# uncertainties: n
# # energies =    69
#   E(MeV)       xs(mb) 
 1.00000E-10    1.41783E+02
 5.00000E-09    3.86094E+01
 1.00000E-08    2.92479E+01
 1.50000E-08    2.45790E+01
 2.00000E-08    2.16258E+01
 2.50000E-08    1.95394E+01
 3.00000E-08    1.79633E+01
 3.50000E-08    1.65160E+01
 4.20000E-08    1.51073E+01
 5.00000E-08    1.39382E+01
 5.80000E-08    1.29570E+01
 6.70000E-08    1.19579E+01
 8.00000E-08    1.08221E+01
 1.00000E-07    9.42106E+00
 1.40000E-07    8.13240E+00
 1.80000E-07    7.26498E+00
 2.20000E-07    6.69521E+00
 2.50000E-07    6.30592E+00
 2.80000E-07    6.02603E+00
 3.00000E-07    5.82946E+00
 3.20000E-07    5.61095E+00
 3.50000E-07    5.30960E+00
 4.00000E-07    4.86421E+00
 5.00000E-07    4.35705E+00
 6.25000E-07    3.90540E+00
 7.80000E-07    3.62073E+00
 8.50000E-07    3.48815E+00
 9.10000E-07    3.39412E+00
 9.50000E-07    3.34042E+00
 9.72000E-07    3.30181E+00
 9.96000E-07    3.26298E+00
 1.02000E-06    3.22528E+00
 1.04500E-06    3.18764E+00
 1.07100E-06    3.14978E+00
 1.09700E-06    3.11381E+00
 1.12300E-06    3.07847E+00
 1.15000E-06    2.97181E+00
 1.30000E-06    2.78762E+00
 1.50000E-06    2.48880E+00
 2.10000E-06    2.18421E+00
 2.60000E-06    1.96652E+00
 3.30000E-06    1.78273E+00
 4.00000E-06    1.41665E+00
 9.87700E-06    1.08487E+00
 1.59680E-05    9.42278E-01
 2.77000E-05    8.86076E-01
 4.80520E-05    9.61969E-01
 7.55014E-05    1.50410E+00
 1.48728E-04    4.47030E+03
 3.67262E-04    2.62882E+01
 9.06898E-04    3.28869E-01
 1.42510E-03    1.80819E-01
 2.23945E-03    3.21378E-01
 3.51910E-03    1.49072E+02
 5.53000E-03    6.17972E+01
 9.11800E-03    3.89910E+00
 1.50300E-02    2.79823E+01
 2.47800E-02    1.47576E+01
 4.08500E-02    3.92118E+00
 6.73400E-02    3.80575E+00
 1.11000E-01    7.26470E+00
 1.83000E-01    6.77645E+00
 3.02000E-01    6.54391E+00
 5.00000E-01    7.14115E+00
 8.21000E-01    1.02429E+01
 1.35300E+00    1.36176E+01
 2.23100E+00    5.70002E+00
 3.67900E+00    1.98000E+00
 6.06500E+00    3.83270E-01
