# n + Cr 54 : (n,g)     
# jendl4.0   N.Iwamoto                         EVAL-Dec09
# uncertainties: n
# # energies =    69
#   E(MeV)       xs(mb) 
 1.00000E-10    2.82591E+03
 5.00000E-09    7.69445E+02
 1.00000E-08    5.82733E+02
 1.50000E-08    4.89606E+02
 2.00000E-08    4.30764E+02
 2.50000E-08    3.89173E+02
 3.00000E-08    3.57743E+02
 3.50000E-08    3.28916E+02
 4.20000E-08    3.00846E+02
 5.00000E-08    2.77497E+02
 5.80000E-08    2.57915E+02
 6.70000E-08    2.38019E+02
 8.00000E-08    2.15384E+02
 1.00000E-07    1.87385E+02
 1.40000E-07    1.61694E+02
 1.80000E-07    1.44380E+02
 2.20000E-07    1.32962E+02
 2.50000E-07    1.25178E+02
 2.80000E-07    1.19591E+02
 3.00000E-07    1.15665E+02
 3.20000E-07    1.11296E+02
 3.50000E-07    1.05266E+02
 4.00000E-07    9.63158E+01
 5.00000E-07    8.61469E+01
 6.25000E-07    7.70813E+01
 7.80000E-07    7.13451E+01
 8.50000E-07    6.86445E+01
 9.10000E-07    6.67591E+01
 9.50000E-07    6.56675E+01
 9.72000E-07    6.48962E+01
 9.96000E-07    6.41182E+01
 1.02000E-06    6.33537E+01
 1.04500E-06    6.25882E+01
 1.07100E-06    6.18342E+01
 1.09700E-06    6.11043E+01
 1.12300E-06    6.03927E+01
 1.15000E-06    5.82311E+01
 1.30000E-06    5.45000E+01
 1.50000E-06    4.84068E+01
 2.10000E-06    4.21538E+01
 2.60000E-06    3.76535E+01
 3.30000E-06    3.38017E+01
 4.00000E-06    2.58948E+01
 9.87700E-06    1.81898E+01
 1.59680E-05    1.40477E+01
 2.77000E-05    1.06397E+01
 4.80520E-05    8.24147E+00
 7.55014E-05    6.18540E+00
 1.48728E-04    4.09866E+00
 3.67262E-04    2.47726E+00
 9.06898E-04    1.61742E+00
 1.42510E-03    1.18175E+00
 2.23945E-03    8.30659E-01
 3.51910E-03    5.56925E-01
 5.53000E-03    3.49725E-01
 9.11800E-03    2.69696E+01
 1.50300E-02    7.36739E+00
 2.47800E-02    1.77653E-01
 4.08500E-02    1.48226E+00
 6.73400E-02    2.90910E+00
 1.11000E-01    3.93761E+00
 1.83000E-01    2.69294E+00
 3.02000E-01    1.11171E+00
 5.00000E-01    8.41763E-01
 8.21000E-01    5.77689E-01
 1.35300E+00    3.83583E-01
 2.23100E+00    4.30220E-01
 3.67900E+00    2.60911E-01
 6.06500E+00    2.56815E-01
