# n + Cr 54 : (n,t)     
# jendl4.0   N.Iwamoto                         EVAL-Dec09
# uncertainties: n
# # energies =    45
#   E(MeV)       xs(mb) 
 1.26010E+01    0.00000E+00
 1.26185E+01    4.81190E-08
 1.26242E+01    7.51720E-08
 1.27453E+01    9.43770E-07
 1.27517E+01    9.92190E-07
 1.30458E+01    3.39825E-06
 1.34094E+01    7.52806E-06
 1.34628E+01    8.13756E-06
 1.34985E+01    8.54588E-06
 1.39150E+01    1.44847E-05
 1.40000E+01    1.56995E-05
 1.40464E+01    5.96902E-05
 1.41220E+01    1.31506E-04
 1.41890E+01    1.95182E-04
 1.42097E+01    2.14864E-04
 1.42962E+01    2.97136E-04
 1.43660E+01    3.63531E-04
 1.43936E+01    3.89786E-04
 1.44043E+01    3.99965E-04
 1.44297E+01    4.24128E-04
 1.44785E+01    4.70554E-04
 1.45000E+01    4.91007E-04
 1.47412E+01    2.45000E-03
 1.47933E+01    2.87316E-03
 1.48102E+01    3.01043E-03
 1.49624E+01    4.24664E-03
 1.49919E+01    4.48625E-03
 1.50000E+01    4.55205E-03
 1.50418E+01    5.67669E-03
 1.50741E+01    6.54576E-03
 1.51203E+01    7.78885E-03
 1.51873E+01    9.59163E-03
 1.51916E+01    9.70733E-03
 1.52083E+01    1.01567E-02
 1.52405E+01    1.10231E-02
 1.55000E+01    1.80057E-02
 1.60000E+01    4.13493E-02
 1.65000E+01    6.90298E-02
 1.70000E+01    9.72664E-02
 1.75000E+01    1.32779E-01
 1.80000E+01    1.76883E-01
 1.85000E+01    2.29376E-01
 1.90000E+01    2.94150E-01
 1.95000E+01    3.70565E-01
 2.00000E+01    4.56225E-01
