# n + Cr 54 : (n,a)     
# jendl4.0   N.Iwamoto                         EVAL-Dec09
# uncertainties: n
# # energies =    76
#   E(MeV)       xs(mb) 
 1.58744E+00    0.00000E+00
 2.77595E+00    4.73310E-08
 3.05161E+00    5.88220E-08
 3.18425E+00    8.49490E-08
 3.72358E+00    2.11320E-07
 3.77153E+00    2.87040E-07
 3.78960E+00    3.16350E-07
 3.82664E+00    4.19650E-07
 3.85650E+00    5.03130E-07
 3.86957E+00    5.54900E-07
 3.93322E+00    9.12030E-07
 3.94278E+00    9.70500E-07
 3.97588E+00    1.27768E-06
 3.99896E+00    1.49646E-06
 4.00000E+00    1.50295E-06
 4.00114E+00    1.51477E-06
 4.06198E+00    2.40941E-06
 4.08794E+00    2.82317E-06
 4.11891E+00    3.56801E-06
 4.15961E+00    4.88927E-06
 4.20316E+00    6.71564E-06
 4.20423E+00    6.73749E-06
 4.26917E+00    1.04413E-05
 4.29638E+00    1.25677E-05
 4.31837E+00    1.45437E-05
 4.32916E+00    1.56201E-05
 4.33600E+00    1.63025E-05
 4.36971E+00    2.21518E-05
 4.39314E+00    2.62174E-05
 4.46287E+00    3.83170E-05
 4.50000E+00    4.74179E-05
 4.53423E+00    5.90009E-05
 4.54177E+00    6.18406E-05
 4.54757E+00    6.49833E-05
 4.56133E+00    7.24396E-05
 4.65628E+00    1.23898E-04
 4.66870E+00    1.30977E-04
 4.70436E+00    1.59933E-04
 4.70700E+00    1.61980E-04
 4.72025E+00    1.72254E-04
 4.76904E+00    2.24257E-04
 4.77465E+00    2.31360E-04
 4.82059E+00    2.94569E-04
 4.82864E+00    3.05646E-04
 4.88538E+00    4.45853E-04
 5.00000E+00    7.29085E-04
 5.50000E+00    6.14191E-03
 6.00000E+00    3.32172E-02
 6.50000E+00    1.27257E-01
 7.00000E+00    3.66613E-01
 7.50000E+00    8.22736E-01
 8.00000E+00    1.47214E+00
 8.50000E+00    2.18744E+00
 9.00000E+00    2.90481E+00
 9.50000E+00    3.61038E+00
 1.00000E+01    4.36259E+00
 1.05000E+01    5.17146E+00
 1.10000E+01    6.04623E+00
 1.15000E+01    6.84061E+00
 1.20000E+01    7.78536E+00
 1.25000E+01    8.79488E+00
 1.30000E+01    9.79293E+00
 1.35000E+01    1.08653E+01
 1.40000E+01    1.18604E+01
 1.45000E+01    1.26734E+01
 1.50000E+01    1.32571E+01
 1.55000E+01    1.34563E+01
 1.60000E+01    1.33722E+01
 1.65000E+01    1.30734E+01
 1.70000E+01    1.25846E+01
 1.75000E+01    1.20082E+01
 1.80000E+01    1.13420E+01
 1.85000E+01    1.06034E+01
 1.90000E+01    9.87203E+00
 1.95000E+01    9.15643E+00
 2.00000E+01    8.48856E+00
