# n + Cr 54 : (n,n')    
# jendl4.0   N.Iwamoto                         EVAL-Dec09
# uncertainties: n
# # energies =   111
#   E(MeV)       xs(mb) 
 1.05000E-01    0.00000E+00
 1.10000E-01    8.69690E-06
 1.20000E-01    8.75608E-06
 1.30000E-01    8.49240E-06
 1.40000E-01    8.19475E-06
 1.50000E-01    7.91300E-06
 1.60000E-01    7.64069E-06
 1.70000E-01    7.41312E-06
 1.80000E-01    7.21092E-06
 1.90000E-01    7.03118E-06
 2.00000E-01    6.87091E-06
 2.25000E-01    5.16506E-05
 2.50000E-01    5.11098E-05
 2.75000E-01    4.97877E-05
 3.00000E-01    4.86498E-05
 4.00000E-01    1.66846E-04
 5.00000E-01    4.17751E-04
 6.00000E-01    8.65968E-04
 7.00000E-01    1.59520E-03
 8.00000E-01    2.70506E-03
 8.50467E-01    4.10880E-03
 9.00000E-01    7.95819E+02
 1.00000E+00    8.85324E+02
 1.10000E+00    9.30746E+02
 1.20000E+00    9.76047E+02
 1.30000E+00    1.02467E+03
 1.40000E+00    1.07237E+03
 1.50000E+00    1.11379E+03
 1.60000E+00    1.14517E+03
 1.70000E+00    1.16519E+03
 1.80000E+00    1.17449E+03
 1.85804E+00    1.17565E+03
 1.90000E+00    1.18119E+03
 2.00000E+00    1.17808E+03
 2.25000E+00    1.15770E+03
 2.50000E+00    1.13177E+03
 2.66867E+00    1.11086E+03
 2.75000E+00    1.15036E+03
 2.88253E+00    1.13519E+03
 3.00000E+00    1.14737E+03
 3.13156E+00    1.13699E+03
 3.21865E+00    1.15603E+03
 3.28271E+00    1.15386E+03
 3.45687E+00    1.14907E+03
 3.50000E+00    1.16513E+03
 3.50115E+00    1.16516E+03
 3.53285E+00    1.17709E+03
 3.57971E+00    1.18763E+03
 3.72358E+00    1.19501E+03
 3.78960E+00    1.19686E+03
 3.85650E+00    1.20548E+03
 3.86957E+00    1.20620E+03
 3.93322E+00    1.20944E+03
 3.94278E+00    1.21381E+03
 3.99896E+00    1.22235E+03
 4.00000E+00    1.22343E+03
 4.00114E+00    1.22384E+03
 4.06198E+00    1.23316E+03
 4.06199E+00    1.23316E+03
 4.08794E+00    1.24021E+03
 4.11891E+00    1.24326E+03
 4.15961E+00    1.24535E+03
 4.20316E+00    1.24996E+03
 4.20423E+00    1.25076E+03
 4.26917E+00    1.25857E+03
 4.29638E+00    1.26148E+03
 4.31837E+00    1.26399E+03
 4.33600E+00    1.26614E+03
 4.46287E+00    1.27296E+03
 4.50000E+00    1.27631E+03
 4.53423E+00    1.27778E+03
 4.54177E+00    1.27816E+03
 4.65627E+00    1.28402E+03
 4.65628E+00    1.28403E+03
 4.66870E+00    1.28530E+03
 4.70436E+00    1.28746E+03
 4.72025E+00    1.28885E+03
 4.76904E+00    1.29188E+03
 4.77465E+00    1.29214E+03
 4.82864E+00    1.29571E+03
 5.00000E+00    1.30501E+03
 5.50000E+00    1.33271E+03
 6.00000E+00    1.35719E+03
 6.50000E+00    1.37513E+03
 7.00000E+00    1.38537E+03
 7.50000E+00    1.38920E+03
 8.00000E+00    1.38937E+03
 8.50000E+00    1.39099E+03
 9.00000E+00    1.38960E+03
 9.50000E+00    1.38907E+03
 1.00000E+01    1.38876E+03
 1.05000E+01    1.30872E+03
 1.10000E+01    1.18102E+03
 1.15000E+01    1.02740E+03
 1.20000E+01    8.80451E+02
 1.25000E+01    7.53264E+02
 1.30000E+01    6.47995E+02
 1.35000E+01    5.62730E+02
 1.40000E+01    4.94546E+02
 1.45000E+01    4.39784E+02
 1.50000E+01    3.96670E+02
 1.55000E+01    3.64158E+02
 1.60000E+01    3.34492E+02
 1.65000E+01    3.09766E+02
 1.70000E+01    2.88914E+02
 1.75000E+01    2.71128E+02
 1.80000E+01    2.55769E+02
 1.85000E+01    2.42360E+02
 1.90000E+01    2.30553E+02
 1.95000E+01    2.19934E+02
 2.00000E+01    2.10297E+02
