# n + Cr 54 : (n,n'18)  
# jendl4.0   N.Iwamoto                         EVAL-Dec09
# uncertainties: n
# # energies =    55
#   E(MeV)       xs(mb) 
 3.99896E+00    0.00000E+00
 4.00000E+00    6.91842E+00
 4.00114E+00    9.28076E+00
 4.06198E+00    2.19503E+01
 4.08794E+00    2.27023E+01
 4.11891E+00    2.25881E+01
 4.15961E+00    2.28576E+01
 4.20316E+00    2.25516E+01
 4.20423E+00    2.23920E+01
 4.26917E+00    2.23813E+01
 4.29638E+00    2.21674E+01
 4.31837E+00    2.19516E+01
 4.33600E+00    2.17393E+01
 4.46287E+00    2.26735E+01
 4.50000E+00    2.28743E+01
 4.53423E+00    2.33180E+01
 4.54177E+00    2.34011E+01
 4.65628E+00    2.42410E+01
 4.66870E+00    2.42441E+01
 4.70436E+00    2.43457E+01
 4.72025E+00    2.43709E+01
 4.76904E+00    2.44413E+01
 4.77465E+00    2.44819E+01
 4.82864E+00    2.48318E+01
 5.00000E+00    2.53597E+01
 5.50000E+00    2.27767E+01
 6.00000E+00    1.86800E+01
 6.50000E+00    1.45106E+01
 7.00000E+00    1.09772E+01
 7.50000E+00    8.24571E+00
 8.00000E+00    6.22506E+00
 8.50000E+00    4.76764E+00
 9.00000E+00    3.71671E+00
 9.50000E+00    2.92096E+00
 1.00000E+01    2.33162E+00
 1.05000E+01    1.88922E+00
 1.10000E+01    1.55434E+00
 1.15000E+01    1.30006E+00
 1.20000E+01    1.10661E+00
 1.25000E+01    9.59145E-01
 1.30000E+01    8.46003E-01
 1.35000E+01    7.58078E-01
 1.40000E+01    6.88381E-01
 1.45000E+01    6.31719E-01
 1.50000E+01    5.84335E-01
 1.55000E+01    5.43698E-01
 1.60000E+01    5.08163E-01
 1.65000E+01    4.76722E-01
 1.70000E+01    4.48530E-01
 1.75000E+01    4.23146E-01
 1.80000E+01    4.00084E-01
 1.85000E+01    3.79078E-01
 1.90000E+01    3.59866E-01
 1.95000E+01    3.42222E-01
 2.00000E+01    3.25956E-01
