# n + Cr 54 : (n,tot)   
# jendl4.0   N.Iwamoto                         EVAL-Dec09
# uncertainties: n
# # energies =   171
#   E(MeV)       xs(mb) 
 1.00000E-11    9.81589E+03
 1.00000E-07    2.68944E+03
 4.13990E-07    2.63578E+03
 5.31580E-07    2.62447E+03
 6.82560E-07    2.61445E+03
 8.76420E-07    2.60564E+03
 1.12540E-06    2.59849E+03
 1.44500E-06    2.59145E+03
 1.85540E-06    2.58695E+03
 2.37240E-06    2.58188E+03
 3.05900E-06    2.57557E+03
 3.92790E-06    2.57204E+03
 5.04350E-06    2.56925E+03
 6.47600E-06    2.56567E+03
 8.31530E-06    2.56118E+03
 1.06770E-05    2.55876E+03
 1.37100E-05    2.55725E+03
 1.76030E-05    2.55531E+03
 2.26030E-05    2.55279E+03
 2.92030E-05    2.54958E+03
 3.72670E-05    2.54643E+03
 4.78510E-05    2.54488E+03
 6.14420E-05    2.54304E+03
 7.88930E-05    2.54066E+03
 1.01300E-04    2.53762E+03
 1.30070E-04    2.53370E+03
 1.67020E-04    2.52868E+03
 2.14450E-04    2.52223E+03
 2.75360E-04    2.51422E+03
 3.53580E-04    2.50599E+03
 4.54000E-04    2.49583E+03
 5.82950E-04    2.48278E+03
 7.48520E-04    2.46603E+03
 9.61120E-04    2.44452E+03
 1.23410E-03    2.41691E+03
 1.58460E-03    2.38428E+03
 2.03470E-03    2.35829E+03
 2.24870E-03    2.34108E+03
 2.48520E-03    2.32705E+03
 2.61260E-03    2.31705E+03
 2.74650E-03    2.30102E+03
 3.03540E-03    2.27779E+03
 3.35460E-03    2.25369E+03
 3.70740E-03    2.22167E+03
 4.30740E-03    2.16102E+03
 5.53080E-03    2.06685E+03
 7.10170E-03    1.94675E+03
 9.11880E-03    1.84908E+03
 1.17090E-02    1.66411E+03
 1.50340E-02    1.00576E+03
 1.93050E-02    2.45553E+02
 2.18750E-02    4.44534E+04
 2.35790E-02    2.76912E+04
 2.41760E-02    1.38639E+04
 2.47880E-02    8.30059E+03
 2.60580E-02    5.86500E+03
 2.70000E-02    4.75483E+03
 2.85000E-02    3.78090E+03
 3.18280E-02    3.21491E+03
 3.43070E-02    2.82029E+03
 4.08680E-02    2.51843E+03
 4.63090E-02    2.34210E+03
 5.24750E-02    3.30626E+03
 5.65620E-02    2.06174E+03
 6.73790E-02    1.93051E+03
 7.20000E-02    1.81971E+03
 7.95000E-02    1.64934E+03
 8.25000E-02    1.55935E+03
 8.65170E-02    1.72514E+03
 9.80370E-02    7.35429E+02
 1.11090E-01    4.37142E+02
 1.16790E-01    1.47395E+04
 1.22770E-01    7.38457E+03
 1.29070E-01    5.42105E+03
 1.35690E-01    4.19416E+03
 1.42640E-01    2.90515E+03
 1.49960E-01    2.65648E+03
 1.57640E-01    2.00744E+03
 1.65730E-01    1.49280E+03
 1.74220E-01    6.50372E+03
 1.83160E-01    3.54979E+03
 1.92550E-01    2.52889E+03
 2.02420E-01    2.54606E+03
 2.12800E-01    1.92047E+03
 2.23710E-01    1.69839E+03
 2.35180E-01    1.31619E+03
 2.47240E-01    1.06876E+03
 2.73240E-01    3.57957E+03
 2.87250E-01    7.31492E+03
 2.94520E-01    4.77542E+03
 2.97200E-01    4.10291E+03
 2.98500E-01    3.45215E+03
 3.01970E-01    2.47908E+03
 3.33730E-01    5.46231E+03
 3.68830E-01    3.57831E+03
 3.87740E-01    3.75108E+03
 4.07620E-01    3.07629E+03
 4.50490E-01    2.97745E+03
 4.97870E-01    2.06828E+03
 5.23400E-01    1.23465E+03
 5.50230E-01    1.05558E+03
 5.78440E-01    2.07472E+03
 6.08100E-01    5.60316E+03
 6.39280E-01    5.08925E+03
 6.72060E-01    4.90251E+03
 7.06510E-01    4.53760E+03
 7.42740E-01    4.21015E+03
 7.80820E-01    3.82709E+03
 8.20850E-01    3.81490E+03
 8.62940E-01    3.80654E+03
 9.07180E-01    3.80045E+03
 9.61640E-01    3.79873E+03
 1.00260E+00    3.80354E+03
 1.10800E+00    3.81173E+03
 1.16480E+00    3.81758E+03
 1.22460E+00    3.82513E+03
 1.28730E+00    3.83560E+03
 1.35340E+00    3.84666E+03
 1.42270E+00    3.85828E+03
 1.49570E+00    3.87050E+03
 1.57240E+00    3.88334E+03
 1.65300E+00    3.89684E+03
 1.73770E+00    3.91094E+03
 1.82680E+00    3.92062E+03
 1.92050E+00    3.92784E+03
 2.01900E+00    3.93534E+03
 2.12250E+00    3.94055E+03
 2.23130E+00    3.94265E+03
 2.30690E+00    3.94122E+03
 2.34570E+00    3.94041E+03
 2.36530E+00    3.93987E+03
 2.38520E+00    3.93848E+03
 2.46600E+00    3.93563E+03
 2.59240E+00    3.93206E+03
 2.72530E+00    3.92634E+03
 2.86500E+00    3.91648E+03
 3.01190E+00    3.90602E+03
 3.16640E+00    3.89502E+03
 3.32870E+00    3.87738E+03
 3.67880E+00    3.85180E+03
 4.06570E+00    3.82353E+03
 4.49330E+00    3.80050E+03
 4.72370E+00    3.78409E+03
 4.96590E+00    3.76684E+03
 5.22050E+00    3.74681E+03
 5.48810E+00    3.72133E+03
 5.76950E+00    3.69434E+03
 6.06530E+00    3.65972E+03
 6.37630E+00    3.62562E+03
 6.59240E+00    3.60414E+03
 6.70320E+00    3.56959E+03
 7.04690E+00    3.51446E+03
 7.40820E+00    3.45173E+03
 7.78800E+00    3.38483E+03
 8.18730E+00    3.31451E+03
 8.60710E+00    3.24058E+03
 9.04840E+00    3.16294E+03
 9.51230E+00    3.08558E+03
 1.00000E+01    3.00823E+03
 1.05130E+01    2.93111E+03
 1.10520E+01    2.85333E+03
 1.16180E+01    2.77488E+03
 1.22140E+01    2.69625E+03
 1.28400E+01    2.61884E+03
 1.34990E+01    2.56245E+03
 1.38400E+01    2.52597E+03
 1.41910E+01    2.49074E+03
 1.45500E+01    2.45702E+03
 1.49180E+01    2.40954E+03
 1.56830E+01    2.35276E+03
 1.64870E+01    2.30450E+03
