# n + Yb172 : (n,n'14)  
# jeff3.3    A.J. Koning and D. Rochman        EVAL-DEC15
# uncertainties: n
# # energies =    80
#   E(MeV)       xs(mb) 
 1.36089E+00    0.00000E+00
 1.37811E+00    6.42077E-01
 1.38389E+00    8.57594E-01
 1.40000E+00    1.45828E+00
 1.41325E+00    2.04897E+00
 1.47447E+00    4.77820E+00
 1.48545E+00    5.26769E+00
 1.50488E+00    6.13389E+00
 1.51904E+00    6.76516E+00
 1.54652E+00    7.99023E+00
 1.54965E+00    8.12977E+00
 1.55824E+00    8.51272E+00
 1.55953E+00    8.57022E+00
 1.56331E+00    8.73874E+00
 1.56672E+00    8.89076E+00
 1.60000E+00    1.03744E+01
 1.60926E+00    1.06372E+01
 1.61793E+00    1.08832E+01
 1.64272E+00    1.15866E+01
 1.80000E+00    1.60495E+01
 2.00000E+00    1.70446E+01
 2.20000E+00    1.56340E+01
 2.40000E+00    1.33008E+01
 2.60000E+00    1.07970E+01
 2.80000E+00    8.51636E+00
 3.00000E+00    6.62246E+00
 3.20000E+00    5.26342E+00
 3.40000E+00    4.09914E+00
 3.60000E+00    3.23449E+00
 3.80000E+00    2.60134E+00
 4.00000E+00    2.14243E+00
 4.20000E+00    1.81616E+00
 4.40000E+00    1.60441E+00
 4.60000E+00    1.44121E+00
 4.80000E+00    1.33366E+00
 5.00000E+00    1.26514E+00
 5.20000E+00    1.22354E+00
 5.40000E+00    1.19976E+00
 5.60000E+00    1.18725E+00
 5.80000E+00    1.18089E+00
 6.00000E+00    1.17884E+00
 6.20000E+00    1.17878E+00
 6.40000E+00    1.17939E+00
 6.60000E+00    1.17987E+00
 6.80000E+00    1.17952E+00
 7.00000E+00    1.17806E+00
 7.20000E+00    1.17537E+00
 7.40000E+00    1.17158E+00
 7.60000E+00    1.16696E+00
 7.80000E+00    1.16183E+00
 8.00000E+00    1.15654E+00
 8.50000E+00    1.14457E+00
 9.00000E+00    1.13666E+00
 9.50000E+00    1.13343E+00
 1.00000E+01    1.13363E+00
 1.05000E+01    1.13519E+00
 1.10000E+01    1.13596E+00
 1.15000E+01    1.13420E+00
 1.20000E+01    1.12886E+00
 1.25000E+01    1.11963E+00
 1.30000E+01    1.10677E+00
 1.35000E+01    1.09096E+00
 1.40000E+01    1.07308E+00
 1.45000E+01    1.05403E+00
 1.50000E+01    1.03458E+00
 1.60000E+01    9.96526E-01
 1.70000E+01    9.61305E-01
 1.80000E+01    9.29122E-01
 1.90000E+01    8.99218E-01
 2.00000E+01    8.70557E-01
 2.10000E+01    8.42207E-01
 2.20000E+01    8.13700E-01
 2.30000E+01    7.85191E-01
 2.40000E+01    7.57310E-01
 2.50000E+01    7.30774E-01
 2.60000E+01    7.06044E-01
 2.70000E+01    6.83214E-01
 2.80000E+01    6.62092E-01
 2.90000E+01    6.42301E-01
 3.00000E+01    6.23449E-01
