# n + Yb172 : (n,n'23)  
# jeff3.3    A.J. Koning and D. Rochman        EVAL-DEC15
# uncertainties: n
# # energies =    70
#   E(MeV)       xs(mb) 
 1.54965E+00    0.00000E+00
 1.55824E+00    1.11369E-01
 1.55953E+00    1.28093E-01
 1.56331E+00    1.77100E-01
 1.56672E+00    2.21310E-01
 1.60000E+00    6.52778E-01
 1.60926E+00    7.71922E-01
 1.61793E+00    8.83476E-01
 1.64272E+00    1.20244E+00
 1.80000E+00    3.22609E+00
 2.00000E+00    4.64785E+00
 2.20000E+00    4.84225E+00
 2.40000E+00    4.46586E+00
 2.60000E+00    3.88348E+00
 2.80000E+00    3.24445E+00
 3.00000E+00    2.63449E+00
 3.20000E+00    2.14223E+00
 3.40000E+00    1.68804E+00
 3.60000E+00    1.32168E+00
 3.80000E+00    1.03073E+00
 4.00000E+00    8.00845E-01
 4.20000E+00    6.19907E-01
 4.40000E+00    4.79485E-01
 4.60000E+00    3.77613E-01
 4.80000E+00    2.88815E-01
 5.00000E+00    2.20806E-01
 5.20000E+00    1.68620E-01
 5.40000E+00    1.28693E-01
 5.60000E+00    9.82084E-02
 5.80000E+00    7.44942E-02
 6.00000E+00    5.66518E-02
 6.20000E+00    4.31124E-02
 6.40000E+00    3.28242E-02
 6.60000E+00    2.50829E-02
 6.80000E+00    1.91961E-02
 7.00000E+00    1.47201E-02
 7.20000E+00    1.13193E-02
 7.40000E+00    8.71316E-03
 7.60000E+00    6.72884E-03
 7.80000E+00    5.20530E-03
 8.00000E+00    4.03417E-03
 8.50000E+00    2.15227E-03
 9.00000E+00    1.15795E-03
 9.50000E+00    6.28107E-04
 1.00000E+01    3.43744E-04
 1.05000E+01    1.89893E-04
 1.10000E+01    1.05893E-04
 1.15000E+01    5.95920E-05
 1.20000E+01    3.38432E-05
 1.25000E+01    1.93787E-05
 1.30000E+01    1.11871E-05
 1.35000E+01    6.51136E-06
 1.40000E+01    3.82045E-06
 1.45000E+01    2.25738E-06
 1.50000E+01    1.34511E-06
 1.60000E+01    4.87320E-07
 1.70000E+01    1.81550E-07
 1.80000E+01    6.88480E-08
 1.90000E+01    2.68930E-08
 2.00000E+01    1.07490E-08
 2.10000E+01    4.38180E-09
 2.20000E+01    1.82100E-09
 2.30000E+01    7.72450E-10
 2.40000E+01    3.34310E-10
 2.50000E+01    1.46760E-10
 2.60000E+01    6.54020E-11
 2.70000E+01    2.94810E-11
 2.80000E+01    1.34850E-11
 2.90000E+01    6.26630E-12
 3.00000E+01    2.94770E-12
