# n + Yb172 : (n,n'17)  
# jeff3.3    A.J. Koning and D. Rochman        EVAL-DEC15
# uncertainties: n
# # energies =    76
#   E(MeV)       xs(mb) 
 1.41325E+00    0.00000E+00
 1.47447E+00    1.58692E+01
 1.48545E+00    1.87154E+01
 1.50488E+00    2.37520E+01
 1.51904E+00    2.74225E+01
 1.54652E+00    3.45457E+01
 1.54965E+00    3.53571E+01
 1.55824E+00    3.75837E+01
 1.55953E+00    3.79181E+01
 1.56331E+00    3.88980E+01
 1.56672E+00    3.97819E+01
 1.60000E+00    4.84086E+01
 1.60926E+00    4.82678E+01
 1.61793E+00    4.81360E+01
 1.64272E+00    4.77590E+01
 1.80000E+00    4.53674E+01
 2.00000E+00    3.43748E+01
 2.20000E+00    2.40666E+01
 2.40000E+00    1.62897E+01
 2.60000E+00    1.08501E+01
 2.80000E+00    7.17556E+00
 3.00000E+00    4.74120E+00
 3.20000E+00    3.18227E+00
 3.40000E+00    2.12486E+00
 3.60000E+00    1.43113E+00
 3.80000E+00    9.72848E-01
 4.00000E+00    6.66950E-01
 4.20000E+00    4.60734E-01
 4.40000E+00    3.24889E-01
 4.60000E+00    2.28332E-01
 4.80000E+00    1.60442E-01
 5.00000E+00    1.13497E-01
 5.20000E+00    8.07422E-02
 5.40000E+00    5.77536E-02
 5.60000E+00    4.15369E-02
 5.80000E+00    2.98456E-02
 6.00000E+00    2.16004E-02
 6.20000E+00    1.57084E-02
 6.40000E+00    1.14742E-02
 6.60000E+00    8.43829E-03
 6.80000E+00    6.23331E-03
 7.00000E+00    4.62462E-03
 7.20000E+00    3.44780E-03
 7.40000E+00    2.57749E-03
 7.60000E+00    1.93609E-03
 7.80000E+00    1.45848E-03
 8.00000E+00    1.10194E-03
 8.50000E+00    5.53713E-04
 9.00000E+00    2.81705E-04
 9.50000E+00    1.44978E-04
 1.00000E+01    7.55255E-05
 1.05000E+01    3.98543E-05
 1.10000E+01    2.13076E-05
 1.15000E+01    1.15383E-05
 1.20000E+01    6.32692E-06
 1.25000E+01    3.50850E-06
 1.30000E+01    1.96665E-06
 1.35000E+01    1.11398E-06
 1.40000E+01    6.37370E-07
 1.45000E+01    3.67930E-07
 1.50000E+01    2.14570E-07
 1.60000E+01    7.48220E-08
 1.70000E+01    2.69830E-08
 1.80000E+01    9.95000E-09
 1.90000E+01    3.79200E-09
 2.00000E+01    1.48240E-09
 2.10000E+01    5.92430E-10
 2.20000E+01    2.41870E-10
 2.30000E+01    1.01000E-10
 2.40000E+01    4.31110E-11
 2.50000E+01    1.86980E-11
 2.60000E+01    8.24310E-12
 2.70000E+01    3.67920E-12
 2.80000E+01    1.66720E-12
 2.90000E+01    7.67730E-13
 3.00000E+01    3.57980E-13
