# n + Yb172 : (n,xa)    
# jeff3.3    A.J. Koning and D. Rochman        EVAL-DEC15
# 
# # energies =   134
#   E(MeV)        xs(mb) 
 7.92049E-02    1.37236E-05
 1.00000E-01    1.05427E-05
 2.00000E-01    7.42898E-06
 2.61795E-01    7.92503E-06
 3.00000E-01    8.23172E-06
 4.00000E-01    1.02733E-05
 5.00000E-01    1.31804E-05
 5.43145E-01    1.47082E-05
 6.00000E-01    1.67215E-05
 7.00000E-01    2.09054E-05
 8.00000E-01    2.79342E-05
 9.00000E-01    3.91004E-05
 9.17471E-01    4.17856E-05
 1.00000E+00    5.44701E-05
 1.04903E+00    6.06390E-05
 1.12443E+00    7.01259E-05
 1.16171E+00    7.48164E-05
 1.17926E+00    7.70246E-05
 1.20000E+00    7.96341E-05
 1.20550E+00    8.00935E-05
 1.22889E+00    8.20472E-05
 1.27044E+00    8.55177E-05
 1.29409E+00    8.74931E-05
 1.33850E+00    9.12025E-05
 1.36089E+00    9.30727E-05
 1.37811E+00    9.45110E-05
 1.38389E+00    9.49938E-05
 1.40000E+00    9.63394E-05
 1.41325E+00    9.84414E-05
 1.47447E+00    1.08154E-04
 1.48545E+00    1.09895E-04
 1.50488E+00    1.12978E-04
 1.51904E+00    1.15224E-04
 1.54652E+00    1.19584E-04
 1.54965E+00    1.20080E-04
 1.55824E+00    1.21443E-04
 1.55953E+00    1.21648E-04
 1.56331E+00    1.22247E-04
 1.56672E+00    1.22788E-04
 1.60000E+00    1.28068E-04
 1.60926E+00    1.29097E-04
 1.61793E+00    1.30060E-04
 1.64272E+00    1.32814E-04
 1.80000E+00    1.50285E-04
 2.00000E+00    1.82738E-04
 2.20000E+00    2.10599E-04
 2.40000E+00    2.44030E-04
 2.60000E+00    2.85934E-04
 2.80000E+00    3.23658E-04
 3.00000E+00    3.76710E-04
 3.20000E+00    4.41659E-04
 3.40000E+00    5.04678E-04
 3.60000E+00    5.83533E-04
 3.80000E+00    6.62388E-04
 4.00000E+00    7.62374E-04
 4.20000E+00    8.75394E-04
 4.40000E+00    9.99707E-04
 4.60000E+00    1.15477E-03
 4.80000E+00    1.31515E-03
 5.00000E+00    1.51334E-03
 5.20000E+00    1.74969E-03
 5.40000E+00    2.00640E-03
 5.60000E+00    2.33697E-03
 5.80000E+00    2.66931E-03
 6.00000E+00    3.08780E-03
 6.20000E+00    3.63922E-03
 6.40000E+00    4.19781E-03
 6.60000E+00    4.97824E-03
 6.80000E+00    5.77245E-03
 7.00000E+00    6.82990E-03
 7.20000E+00    8.31729E-03
 7.40000E+00    9.75022E-03
 7.60000E+00    1.18042E-02
 7.80000E+00    1.39513E-02
 8.00000E+00    1.67793E-02
 8.50000E+00    2.58427E-02
 9.00000E+00    3.86633E-02
 9.50000E+00    5.85219E-02
 1.00000E+01    8.92939E-02
 1.05000E+01    1.35750E-01
 1.10000E+01    2.03677E-01
 1.15000E+01    2.99629E-01
 1.20000E+01    4.30765E-01
 1.25000E+01    6.02742E-01
 1.30000E+01    8.14631E-01
 1.35000E+01    1.09930E+00
 1.40000E+01    1.44079E+00
 1.45000E+01    1.81782E+00
 1.50000E+01    2.28971E+00
 1.60000E+01    3.42642E+00
 1.70000E+01    4.93062E+00
 1.80000E+01    6.97806E+00
 1.90000E+01    9.88253E+00
 2.00000E+01    1.39422E+01
 2.10000E+01    1.84123E+01
 2.20000E+01    2.12490E+01
 2.30000E+01    2.36370E+01
 2.40000E+01    2.12589E+01
 2.50000E+01    2.10908E+01
 2.60000E+01    2.12102E+01
 2.70000E+01    2.15256E+01
 2.80000E+01    2.19698E+01
 2.90000E+01    2.24867E+01
 3.00000E+01    2.30528E+01
 3.00000E+01    2.29818E+01
 3.20000E+01    2.40088E+01
 3.40000E+01    2.52259E+01
 3.60000E+01    2.64118E+01
 3.80000E+01    2.75958E+01
 4.00000E+01    2.87749E+01
 4.20000E+01    2.99974E+01
 4.40000E+01    3.12414E+01
 4.60000E+01    3.25115E+01
 4.80000E+01    3.38422E+01
 5.00000E+01    3.52228E+01
 5.20000E+01    3.66573E+01
 5.40000E+01    3.81075E+01
 5.60000E+01    3.95466E+01
 5.80000E+01    4.09929E+01
 6.00000E+01    4.25107E+01
 6.50000E+01    4.62528E+01
 7.00000E+01    4.90265E+01
 7.50000E+01    5.23774E+01
 8.00000E+01    5.48733E+01
 9.00000E+01    5.74532E+01
 1.00000E+02    6.44110E+01
 1.10000E+02    6.52913E+01
 1.20000E+02    6.61034E+01
 1.30000E+02    7.64491E+01
 1.40000E+02    9.31903E+01
 1.50000E+02    1.14792E+02
 1.60000E+02    1.36565E+02
 1.80000E+02    1.45351E+02
 2.00000E+02    2.79489E+02
