# n + Yb172 : (n,n'09)  
# jeff3.3    A.J. Koning and D. Rochman        EVAL-DEC15
# uncertainties: n
# # energies =    85
#   E(MeV)       xs(mb) 
 1.20550E+00    0.00000E+00
 1.22889E+00    2.20070E+01
 1.27044E+00    6.11003E+01
 1.29409E+00    8.33521E+01
 1.33850E+00    1.25136E+02
 1.36089E+00    1.46202E+02
 1.37811E+00    1.62404E+02
 1.38389E+00    1.67843E+02
 1.40000E+00    1.83000E+02
 1.41325E+00    1.83338E+02
 1.47447E+00    1.84901E+02
 1.48545E+00    1.85181E+02
 1.50488E+00    1.85677E+02
 1.51904E+00    1.86038E+02
 1.54652E+00    1.86740E+02
 1.54965E+00    1.86820E+02
 1.55824E+00    1.87039E+02
 1.55953E+00    1.87072E+02
 1.56331E+00    1.87168E+02
 1.56672E+00    1.87256E+02
 1.60000E+00    1.88105E+02
 1.60926E+00    1.86224E+02
 1.61793E+00    1.84464E+02
 1.64272E+00    1.79429E+02
 1.80000E+00    1.47487E+02
 2.00000E+00    1.06333E+02
 2.20000E+00    7.37191E+01
 2.40000E+00    5.01728E+01
 2.60000E+00    3.38685E+01
 2.80000E+00    2.28148E+01
 3.00000E+00    1.53994E+01
 3.20000E+00    1.06370E+01
 3.40000E+00    7.25366E+00
 3.60000E+00    4.97989E+00
 3.80000E+00    3.44223E+00
 4.00000E+00    2.39366E+00
 4.20000E+00    1.70090E+00
 4.40000E+00    1.19977E+00
 4.60000E+00    8.46234E-01
 4.80000E+00    6.00531E-01
 5.00000E+00    4.28263E-01
 5.20000E+00    3.06905E-01
 5.40000E+00    2.20949E-01
 5.60000E+00    1.59805E-01
 5.80000E+00    1.15378E-01
 6.00000E+00    8.38357E-02
 6.20000E+00    6.11659E-02
 6.40000E+00    4.48022E-02
 6.60000E+00    3.30245E-02
 6.80000E+00    2.44433E-02
 7.00000E+00    1.81714E-02
 7.20000E+00    1.35725E-02
 7.40000E+00    1.01673E-02
 7.60000E+00    7.65370E-03
 7.80000E+00    5.77891E-03
 8.00000E+00    4.37764E-03
 8.50000E+00    2.21556E-03
 9.00000E+00    1.13620E-03
 9.50000E+00    5.89558E-04
 1.00000E+01    3.09576E-04
 1.05000E+01    1.64566E-04
 1.10000E+01    8.85638E-05
 1.15000E+01    4.82375E-05
 1.20000E+01    2.65870E-05
 1.25000E+01    1.48125E-05
 1.30000E+01    8.33944E-06
 1.35000E+01    4.74372E-06
 1.40000E+01    2.72527E-06
 1.45000E+01    1.57936E-06
 1.50000E+01    9.24420E-07
 1.60000E+01    3.24390E-07
 1.70000E+01    1.17550E-07
 1.80000E+01    4.35120E-08
 1.90000E+01    1.66390E-08
 2.00000E+01    6.52530E-09
 2.10000E+01    2.61520E-09
 2.20000E+01    1.07030E-09
 2.30000E+01    4.47750E-10
 2.40000E+01    1.91380E-10
 2.50000E+01    8.30780E-11
 2.60000E+01    3.66490E-11
 2.70000E+01    1.63700E-11
 2.80000E+01    7.42500E-12
 2.90000E+01    3.42340E-12
 3.00000E+01    1.59850E-12
