# n + Yb172 : (n,n'07)  
# jeff3.3    A.J. Koning and D. Rochman        EVAL-DEC15
# uncertainties: n
# # energies =    88
#   E(MeV)       xs(mb) 
 1.16171E+00    0.00000E+00
 1.17926E+00    4.23086E+01
 1.20000E+00    9.23076E+01
 1.20550E+00    9.54616E+01
 1.22889E+00    1.08875E+02
 1.27044E+00    1.32702E+02
 1.29409E+00    1.46265E+02
 1.33850E+00    1.71732E+02
 1.36089E+00    1.84572E+02
 1.37811E+00    1.94447E+02
 1.38389E+00    1.97762E+02
 1.40000E+00    2.07000E+02
 1.41325E+00    2.05921E+02
 1.47447E+00    2.00933E+02
 1.48545E+00    2.00038E+02
 1.50488E+00    1.98455E+02
 1.51904E+00    1.97302E+02
 1.54652E+00    1.95063E+02
 1.54965E+00    1.94808E+02
 1.55824E+00    1.94108E+02
 1.55953E+00    1.94003E+02
 1.56331E+00    1.93695E+02
 1.56672E+00    1.93417E+02
 1.60000E+00    1.90706E+02
 1.60926E+00    1.88427E+02
 1.61793E+00    1.86294E+02
 1.64272E+00    1.80194E+02
 1.80000E+00    1.41491E+02
 2.00000E+00    9.78850E+01
 2.20000E+00    6.56699E+01
 2.40000E+00    4.35808E+01
 2.60000E+00    2.89132E+01
 2.80000E+00    1.93026E+01
 3.00000E+00    1.30314E+01
 3.20000E+00    9.05328E+00
 3.40000E+00    6.32038E+00
 3.60000E+00    4.51226E+00
 3.80000E+00    3.30554E+00
 4.00000E+00    2.49388E+00
 4.20000E+00    1.96194E+00
 4.40000E+00    1.57527E+00
 4.60000E+00    1.31006E+00
 4.80000E+00    1.12702E+00
 5.00000E+00    1.00034E+00
 5.20000E+00    9.12665E-01
 5.40000E+00    8.52123E-01
 5.60000E+00    8.10616E-01
 5.80000E+00    7.82104E-01
 6.00000E+00    7.63683E-01
 6.20000E+00    7.52392E-01
 6.40000E+00    7.46294E-01
 6.60000E+00    7.44006E-01
 6.80000E+00    7.44359E-01
 7.00000E+00    7.46511E-01
 7.20000E+00    7.49812E-01
 7.40000E+00    7.53768E-01
 7.60000E+00    7.58047E-01
 7.80000E+00    7.62403E-01
 8.00000E+00    7.66687E-01
 8.50000E+00    7.76634E-01
 9.00000E+00    7.85179E-01
 9.50000E+00    7.92345E-01
 1.00000E+01    7.98314E-01
 1.05000E+01    8.03292E-01
 1.10000E+01    8.07424E-01
 1.15000E+01    8.10712E-01
 1.20000E+01    8.13005E-01
 1.25000E+01    8.14089E-01
 1.30000E+01    8.13768E-01
 1.35000E+01    8.11953E-01
 1.40000E+01    8.08685E-01
 1.45000E+01    8.04096E-01
 1.50000E+01    7.98414E-01
 1.60000E+01    7.85007E-01
 1.70000E+01    7.71466E-01
 1.80000E+01    7.61040E-01
 1.90000E+01    7.56268E-01
 2.00000E+01    7.58148E-01
 2.10000E+01    7.65877E-01
 2.20000E+01    7.77219E-01
 2.30000E+01    7.89460E-01
 2.40000E+01    8.00588E-01
 2.50000E+01    8.09936E-01
 2.60000E+01    8.17916E-01
 2.70000E+01    8.25364E-01
 2.80000E+01    8.32987E-01
 2.90000E+01    8.41039E-01
 3.00000E+01    8.49296E-01
