# n + Yb172 : (n,n'08)  
# jeff3.3    A.J. Koning and D. Rochman        EVAL-DEC15
# uncertainties: n
# # energies =    87
#   E(MeV)       xs(mb) 
 1.17926E+00    0.00000E+00
 1.20000E+00    4.37654E+01
 1.20550E+00    4.64431E+01
 1.22889E+00    5.78304E+01
 1.27044E+00    7.80590E+01
 1.29409E+00    8.95729E+01
 1.33850E+00    1.11194E+02
 1.36089E+00    1.22094E+02
 1.37811E+00    1.30478E+02
 1.38389E+00    1.33292E+02
 1.40000E+00    1.41135E+02
 1.41325E+00    1.41631E+02
 1.47447E+00    1.43921E+02
 1.48545E+00    1.44332E+02
 1.50488E+00    1.45059E+02
 1.51904E+00    1.45588E+02
 1.54652E+00    1.46616E+02
 1.54965E+00    1.46733E+02
 1.55824E+00    1.47055E+02
 1.55953E+00    1.47103E+02
 1.56331E+00    1.47244E+02
 1.56672E+00    1.47372E+02
 1.60000E+00    1.48617E+02
 1.60926E+00    1.47480E+02
 1.61793E+00    1.46416E+02
 1.64272E+00    1.43373E+02
 1.80000E+00    1.24064E+02
 2.00000E+00    9.38433E+01
 2.20000E+00    6.76339E+01
 2.40000E+00    4.74980E+01
 2.60000E+00    3.28802E+01
 2.80000E+00    2.26093E+01
 3.00000E+00    1.55308E+01
 3.20000E+00    1.09470E+01
 3.40000E+00    7.56933E+00
 3.60000E+00    5.26540E+00
 3.80000E+00    3.68466E+00
 4.00000E+00    2.59195E+00
 4.20000E+00    1.86901E+00
 4.40000E+00    1.32412E+00
 4.60000E+00    9.42250E-01
 4.80000E+00    6.73450E-01
 5.00000E+00    4.83369E-01
 5.20000E+00    3.48420E-01
 5.40000E+00    2.52168E-01
 5.60000E+00    1.83274E-01
 5.80000E+00    1.32927E-01
 6.00000E+00    9.70001E-02
 6.20000E+00    7.10614E-02
 6.40000E+00    5.22551E-02
 6.60000E+00    3.86636E-02
 6.80000E+00    2.87229E-02
 7.00000E+00    2.14276E-02
 7.20000E+00    1.60585E-02
 7.40000E+00    1.20686E-02
 7.60000E+00    9.11274E-03
 7.80000E+00    6.90074E-03
 8.00000E+00    5.24184E-03
 8.50000E+00    2.66962E-03
 9.00000E+00    1.37659E-03
 9.50000E+00    7.17759E-04
 1.00000E+01    3.78538E-04
 1.05000E+01    2.02034E-04
 1.10000E+01    1.09138E-04
 1.15000E+01    5.96569E-05
 1.20000E+01    3.29930E-05
 1.25000E+01    1.84410E-05
 1.30000E+01    1.04141E-05
 1.35000E+01    5.94100E-06
 1.40000E+01    3.42249E-06
 1.45000E+01    1.98860E-06
 1.50000E+01    1.16684E-06
 1.60000E+01    4.11340E-07
 1.70000E+01    1.49680E-07
 1.80000E+01    5.56010E-08
 1.90000E+01    2.13250E-08
 2.00000E+01    8.38420E-09
 2.10000E+01    3.36790E-09
 2.20000E+01    1.38120E-09
 2.30000E+01    5.78970E-10
 2.40000E+01    2.47900E-10
 2.50000E+01    1.07790E-10
 2.60000E+01    4.76210E-11
 2.70000E+01    2.13000E-11
 2.80000E+01    9.67420E-12
 2.90000E+01    4.46610E-12
 3.00000E+01    2.08800E-12
