# n + V   0 : (n,xn)
# jendl4.0   N.Iwamoto                         EVAL-Mar10
#
# # energies =   111
#   E(MeV)          xs(mb) 
 1.05000E-01    0.00000E+00
 1.10000E-01    6.78719E-07
 1.20000E-01    7.87826E-07
 1.30000E-01    7.98691E-07
 1.40000E-01    8.25270E-07
 1.50000E-01    8.23858E-07
 1.60000E-01    8.20680E-07
 1.70000E-01    8.03438E-07
 1.80000E-01    7.79109E-07
 1.90000E-01    7.49532E-07
 2.00000E-01    7.16967E-07
 2.25000E-01    8.14979E-06
 2.30768E-01    8.33520E-06
 2.50000E-01    6.90121E-01
 2.75000E-01    7.84654E-01
 3.00000E-01    8.04099E-01
 3.26626E-01    1.57620E+00
 3.62577E-01    1.32012E+02
 3.96244E-01    2.54126E+02
 4.00000E-01    2.67748E+02
 5.00000E-01    2.86267E+02
 6.00000E-01    3.02826E+02
 7.00000E-01    3.23777E+02
 8.00000E-01    3.48693E+02
 8.53189E-01    3.63156E+02
 9.00000E-01    3.76007E+02
 9.28377E-01    3.83837E+02
 9.28479E-01    3.83914E+02
 1.00000E+00    4.34857E+02
 1.10000E+00    4.70369E+02
 1.20000E+00    5.02758E+02
 1.30000E+00    5.30727E+02
 1.32768E+00    5.38004E+02
 1.35839E+00    5.46079E+02
 1.40000E+00    5.57018E+02
 1.43021E+00    5.64336E+02
 1.50000E+00    5.81244E+02
 1.52550E+00    5.85826E+02
 1.54906E+00    5.90059E+02
 1.59324E+00    5.97996E+02
 1.60000E+00    5.99211E+02
 1.70000E+00    7.57576E+02
 1.71107E+00    7.61596E+02
 1.73453E+00    7.70116E+02
 1.73454E+00    7.70120E+02
 1.73749E+00    7.71194E+02
 1.75361E+00    7.77069E+02
 1.75943E+00    7.79185E+02
 1.76004E+00    7.79436E+02
 1.78687E+00    7.89270E+02
 1.79707E+00    7.92984E+02
 1.79789E+00    7.93296E+02
 1.80000E+00    7.94075E+02
 1.84737E+00    8.04726E+02
 1.90000E+00    8.94692E+02
 1.92041E+00    9.00747E+02
 1.97510E+00    9.16987E+02
 1.99346E+00    9.22433E+02
 2.00000E+00    9.24372E+02
 2.07916E+00    9.35795E+02
 2.07917E+00    9.35797E+02
 2.15363E+00    9.46535E+02
 2.17608E+00    9.49772E+02
 2.20566E+00    9.54036E+02
 2.25000E+00    9.60427E+02
 2.35461E+00    9.69281E+02
 2.35930E+00    9.69678E+02
 2.39134E+00    9.72421E+02
 2.44745E+00    9.77174E+02
 2.47295E+00    9.80923E+02
 2.47397E+00    9.81121E+02
 2.50000E+00    9.86183E+02
 2.50458E+00    9.86611E+02
 2.52835E+00    9.88835E+02
 2.53314E+00    9.89292E+02
 2.75000E+00    1.00727E+03
 3.00000E+00    1.04199E+03
 3.50000E+00    1.12911E+03
 4.00000E+00    1.21517E+03
 4.50000E+00    1.25622E+03
 5.00000E+00    1.27710E+03
 5.50000E+00    1.29074E+03
 6.00000E+00    1.30113E+03
 6.50000E+00    1.30770E+03
 7.00000E+00    1.30950E+03
 7.50000E+00    1.30693E+03
 8.00000E+00    1.30136E+03
 8.50000E+00    1.29604E+03
 9.00000E+00    1.28879E+03
 9.50000E+00    1.28187E+03
 1.00000E+01    1.27689E+03
 1.05000E+01    1.27395E+03
 1.10000E+01    1.27064E+03
 1.15000E+01    1.28494E+03
 1.20000E+01    1.36132E+03
 1.25000E+01    1.46921E+03
 1.30000E+01    1.58854E+03
 1.35000E+01    1.70556E+03
 1.40000E+01    1.80199E+03
 1.45000E+01    1.87066E+03
 1.50000E+01    1.91811E+03
 1.55000E+01    1.94788E+03
 1.60000E+01    1.96347E+03
 1.65000E+01    1.97061E+03
 1.70000E+01    1.97109E+03
 1.75000E+01    1.96939E+03
 1.80000E+01    1.96220E+03
 1.85000E+01    1.95661E+03
 1.90000E+01    1.94747E+03
 1.95000E+01    1.93944E+03
 2.00000E+01    1.92944E+03
