# n + V   0 : (n,xp)
# jendl4.0   N.Iwamoto                         EVAL-Mar10
#
# # energies =   111
#   E(MeV)          xs(mb) 
 1.05000E-01    1.75750E-03
 1.10000E-01    1.80316E-03
 1.20000E-01    1.84305E-03
 1.30000E-01    1.84690E-03
 1.40000E-01    1.91357E-03
 1.50000E-01    1.98023E-03
 1.60000E-01    2.05541E-03
 1.70000E-01    2.07761E-03
 1.80000E-01    2.08797E-03
 1.90000E-01    2.08242E-03
 2.00000E-01    2.06570E-03
 2.25000E-01    2.23733E-03
 2.30768E-01    2.26743E-03
 2.50000E-01    1.38068E-03
 2.75000E-01    1.36336E-03
 3.00000E-01    1.34072E-03
 3.26626E-01    1.41142E-03
 3.62577E-01    5.16350E-04
 3.96244E-01    3.67545E-04
 4.00000E-01    3.61827E-04
 5.00000E-01    4.16530E-04
 6.00000E-01    5.60253E-04
 7.00000E-01    7.59330E-04
 8.00000E-01    1.03776E-03
 8.53189E-01    1.25096E-03
 9.00000E-01    1.31763E-03
 9.28377E-01    1.42001E-03
 9.28479E-01    1.41984E-03
 1.00000E+00    1.50610E-03
 1.10000E+00    1.93938E-03
 1.20000E+00    2.48253E-03
 1.30000E+00    3.18060E-03
 1.32768E+00    3.41560E-03
 1.35839E+00    3.67980E-03
 1.40000E+00    4.07745E-03
 1.43021E+00    4.39442E-03
 1.50000E+00    5.07910E-03
 1.52550E+00    5.40838E-03
 1.54906E+00    5.72230E-03
 1.59324E+00    6.34795E-03
 1.60000E+00    6.44768E-03
 1.70000E+00    8.12688E-03
 1.71107E+00    8.35803E-03
 1.73453E+00    8.77410E-03
 1.73454E+00    8.77428E-03
 1.73749E+00    8.74053E-03
 1.75361E+00    8.72627E-03
 1.75943E+00    8.75259E-03
 1.76004E+00    8.75533E-03
 1.78687E+00    9.01972E-03
 1.79707E+00    9.14803E-03
 1.79789E+00    9.14091E-03
 1.80000E+00    9.12259E-03
 1.84737E+00    9.91843E-03
 1.90000E+00    1.10741E-02
 1.92041E+00    1.15637E-02
 1.97510E+00    1.26902E-02
 1.99346E+00    1.31644E-02
 2.00000E+00    1.33334E-02
 2.07916E+00    1.55176E-02
 2.07917E+00    1.55179E-02
 2.15363E+00    1.76342E-02
 2.17608E+00    1.82779E-02
 2.20566E+00    1.91626E-02
 2.25000E+00    2.04988E-02
 2.35461E+00    2.41979E-02
 2.35930E+00    2.43693E-02
 2.39134E+00    2.53542E-02
 2.44745E+00    2.73449E-02
 2.47295E+00    2.80424E-02
 2.47397E+00    2.80702E-02
 2.50000E+00    2.90038E-02
 2.50458E+00    2.91679E-02
 2.52835E+00    2.99027E-02
 2.53314E+00    3.00507E-02
 2.75000E+00    3.71388E-02
 3.00000E+00    6.50845E-02
 3.50000E+00    2.89264E-01
 4.00000E+00    8.29018E-01
 4.50000E+00    1.63616E+00
 5.00000E+00    2.50532E+00
 5.50000E+00    3.67526E+00
 6.00000E+00    5.34614E+00
 6.50000E+00    7.39623E+00
 7.00000E+00    9.66523E+00
 7.50000E+00    1.18050E+01
 8.00000E+00    1.34309E+01
 8.50000E+00    1.49336E+01
 9.00000E+00    1.64262E+01
 9.50000E+00    1.82052E+01
 1.00000E+01    2.64776E+01
 1.05000E+01    4.42689E+01
 1.10000E+01    7.23671E+01
 1.15000E+01    1.09943E+02
 1.20000E+01    1.38691E+02
 1.25000E+01    1.52515E+02
 1.30000E+01    1.54367E+02
 1.35000E+01    1.49113E+02
 1.40000E+01    1.40638E+02
 1.45000E+01    1.33190E+02
 1.50000E+01    1.28140E+02
 1.55000E+01    1.25624E+02
 1.60000E+01    1.24159E+02
 1.65000E+01    1.24250E+02
 1.70000E+01    1.26115E+02
 1.75000E+01    1.28037E+02
 1.80000E+01    1.31387E+02
 1.85000E+01    1.34582E+02
 1.90000E+01    1.38458E+02
 1.95000E+01    1.42657E+02
 2.00000E+01    1.46693E+02
