# n + V   0 : (n,xa)
# jendl4.0   N.Iwamoto                         EVAL-Mar10
#
# # energies =   111
#   E(MeV)          xs(mb) 
 1.05000E-01    1.83213E-13
 1.10000E-01    1.95860E-13
 1.20000E-01    2.21154E-13
 1.30000E-01    2.46449E-13
 1.40000E-01    2.71743E-13
 1.50000E-01    2.97037E-13
 1.60000E-01    3.22332E-13
 1.70000E-01    3.47627E-13
 1.80000E-01    3.72920E-13
 1.90000E-01    3.98215E-13
 2.00000E-01    4.23510E-13
 2.25000E-01    4.86748E-13
 2.30768E-01    5.01338E-13
 2.50000E-01    5.49982E-13
 2.75000E-01    6.13220E-13
 3.00000E-01    6.76455E-13
 3.26626E-01    7.43805E-13
 3.62577E-01    8.34740E-13
 3.96244E-01    9.79695E-13
 4.00000E-01    1.04639E-12
 5.00000E-01    3.80150E-12
 6.00000E-01    6.95855E-12
 7.00000E-01    1.06476E-11
 8.00000E-01    1.44719E-11
 8.53189E-01    1.65060E-11
 9.00000E-01    1.82983E-11
 9.28377E-01    1.97644E-11
 9.28479E-01    1.97697E-11
 1.00000E+00    3.88552E-11
 1.10000E+00    1.67545E-10
 1.20000E+00    3.45520E-10
 1.30000E+00    5.93700E-10
 1.32768E+00    6.69375E-10
 1.35839E+00    7.61675E-10
 1.40000E+00    9.06250E-10
 1.43021E+00    1.03097E-09
 1.50000E+00    1.41950E-09
 1.52550E+00    1.62000E-09
 1.54906E+00    1.83825E-09
 1.59324E+00    2.35618E-09
 1.60000E+00    2.45077E-09
 1.70000E+00    4.56942E-09
 1.71107E+00    4.91637E-09
 1.73453E+00    5.73315E-09
 1.73454E+00    5.73350E-09
 1.73749E+00    5.81815E-09
 1.75361E+00    6.19992E-09
 1.75943E+00    6.40168E-09
 1.76004E+00    6.41670E-09
 1.78687E+00    7.45113E-09
 1.79707E+00    7.93400E-09
 1.79789E+00    7.94875E-09
 1.80000E+00    8.02598E-09
 1.84737E+00    1.07874E-08
 1.90000E+00    1.52879E-08
 1.92041E+00    1.75275E-08
 1.97510E+00    2.48509E-08
 1.99346E+00    2.80457E-08
 2.00000E+00    2.92797E-08
 2.07916E+00    6.50486E-08
 2.07917E+00    6.50469E-08
 2.15363E+00    1.09195E-07
 2.17608E+00    1.25251E-07
 2.20566E+00    1.48841E-07
 2.25000E+00    1.89295E-07
 2.35461E+00    3.50427E-07
 2.35930E+00    3.59307E-07
 2.39134E+00    4.21977E-07
 2.44745E+00    5.55641E-07
 2.47295E+00    6.17258E-07
 2.47397E+00    6.19891E-07
 2.50000E+00    6.98399E-07
 2.50458E+00    7.15357E-07
 2.52835E+00    8.03492E-07
 2.53314E+00    8.22329E-07
 2.75000E+00    2.08691E-06
 3.00000E+00    5.22303E-06
 3.50000E+00    2.58931E-05
 4.00000E+00    9.72721E-05
 4.50000E+00    2.92784E-04
 5.00000E+00    7.76977E-04
 5.50000E+00    2.32451E-03
 6.00000E+00    9.31759E-03
 6.50000E+00    3.85416E-02
 7.00000E+00    1.33890E-01
 7.50000E+00    3.73906E-01
 8.00000E+00    8.53152E-01
 8.50000E+00    1.63831E+00
 9.00000E+00    2.66687E+00
 9.50000E+00    3.83251E+00
 1.00000E+01    5.04159E+00
 1.05000E+01    6.08520E+00
 1.10000E+01    7.27148E+00
 1.15000E+01    8.52758E+00
 1.20000E+01    9.83597E+00
 1.25000E+01    1.11889E+01
 1.30000E+01    1.26148E+01
 1.35000E+01    1.40962E+01
 1.40000E+01    1.56534E+01
 1.45000E+01    1.72678E+01
 1.50000E+01    1.89602E+01
 1.55000E+01    2.06737E+01
 1.60000E+01    2.24844E+01
 1.65000E+01    2.43176E+01
 1.70000E+01    2.62219E+01
 1.75000E+01    2.81552E+01
 1.80000E+01    3.01474E+01
 1.85000E+01    3.22099E+01
 1.90000E+01    3.43465E+01
 1.95000E+01    3.65755E+01
 2.00000E+01    3.88460E+01
