# n + Pu242 : (n,n'15)  
# jendl4.0   O.Iwamoto, T.Nakagawa, Murata, +  EVAL-JAN10
# uncertainties: y
# # energies =    40
#   E(MeV)       xs(mb)       xslow(mb)      xsupp(mb)
 1.60000E+00    0.00000E+00   -0.00000E+00    0.00000E+00
 1.80000E+00    2.33370E-07    0.00000E+00    5.01745E-07
 2.00000E+00    9.18900E-07    1.02917E-07    1.73488E-06
 2.30000E+00    8.57831E-06    9.60771E-07    1.61958E-05
 2.50000E+00    1.83795E-05    5.16464E-06    3.15944E-05
 2.70000E+00    4.60288E-05    1.29341E-05    7.91235E-05
 3.00000E+00    3.81478E-01    2.58642E-01    5.04314E-01
 3.50000E+00    3.70666E-01    2.65026E-01    4.76306E-01
 4.00000E+00    3.45448E-01    2.57359E-01    4.33537E-01
 4.50000E+00    3.15647E-01    2.35157E-01    3.96137E-01
 5.00000E+00    2.88395E-01    2.17738E-01    3.59052E-01
 5.50000E+00    2.64037E-01    1.99348E-01    3.28726E-01
 6.00000E+00    2.39391E-01    1.80261E-01    2.98521E-01
 6.50000E+00    2.20718E-01    1.66201E-01    2.75235E-01
 7.00000E+00    2.06741E-01    1.54849E-01    2.58633E-01
 7.50000E+00    1.89910E-01    1.42243E-01    2.37577E-01
 8.00000E+00    1.78628E-01    1.33614E-01    2.23642E-01
 8.50000E+00    1.67295E-01    1.25137E-01    2.09453E-01
 9.00000E+00    1.59176E-01    1.19700E-01    1.98652E-01
 9.50000E+00    1.51041E-01    1.13583E-01    1.88499E-01
 1.00000E+01    1.42399E-01    1.08366E-01    1.76432E-01
 1.05000E+01    1.33399E-01    1.01517E-01    1.65281E-01
 1.10000E+01    1.25417E-01    9.54423E-02    1.55392E-01
 1.15000E+01    1.18218E-01    8.99639E-02    1.46472E-01
 1.20000E+01    1.11825E-01    8.66644E-02    1.36986E-01
 1.25000E+01    1.06452E-01    8.25003E-02    1.30404E-01
 1.30000E+01    1.01917E-01    7.89857E-02    1.24848E-01
 1.35000E+01    9.83456E-02    7.62178E-02    1.20473E-01
 1.40000E+01    9.51500E-02    7.45976E-02    1.15702E-01
 1.45000E+01    9.12136E-02    7.15115E-02    1.10916E-01
 1.50000E+01    8.61936E-02    6.79206E-02    1.04467E-01
 1.55000E+01    8.15362E-02    6.42505E-02    9.88219E-02
 1.60000E+01    7.72100E-02    6.11503E-02    9.32697E-02
 1.65000E+01    7.35736E-02    5.82703E-02    8.88769E-02
 1.70000E+01    7.02816E-02    5.56630E-02    8.49002E-02
 1.75000E+01    6.73467E-02    5.33386E-02    8.13548E-02
 1.80000E+01    6.46982E-02    5.16939E-02    7.77025E-02
 1.85000E+01    6.23296E-02    4.98014E-02    7.48579E-02
 1.95000E+01    5.82283E-02    4.65244E-02    6.99322E-02
 2.00000E+01    5.63036E-02    4.49866E-02    6.76206E-02
