# n + Pu242 :  n        
# jendl4.0   O.Iwamoto, T.Nakagawa, Murata, +  EVAL-JAN10
# uncertainties: y
# # energies =    72
#   E(MeV)       xs(mb)       xslow(mb)      xsupp(mb)
 1.15960E-01    0.00000E+00    0.00000E+00    0.00000E+00
 1.30000E-01    1.61724E-02    1.25336E-02    1.98112E-02
 1.47914E-01    2.95699E-02    2.29167E-02    3.62231E-02
 1.70000E-01    3.71133E-02    2.87628E-02    4.54638E-02
 2.00000E-01    3.86525E-02    2.99557E-02    4.73493E-02
 3.00000E-01    2.51219E-01    1.92183E-01    3.10255E-01
 3.07677E-01    3.42878E-01    2.62302E-01    4.23454E-01
 4.00000E-01    7.76320E-01    5.77582E-01    9.75058E-01
 5.00000E-01    1.80654E+00    1.34407E+00    2.26901E+00
 5.20259E-01    2.20144E+00    1.63787E+00    2.76501E+00
 6.00000E-01    3.32912E+00    2.42693E+00    4.23131E+00
 7.00000E-01    5.53318E+00    4.03369E+00    7.03267E+00
 7.81844E-01    8.20398E+00    5.98070E+00    1.04273E+01
 7.83702E-01    8.22438E+00    5.99557E+00    1.04532E+01
 8.00000E-01    8.19676E+00    5.85249E+00    1.05410E+01
 8.35768E-01    9.02864E+00    6.44645E+00    1.16108E+01
 8.68604E-01    1.07705E+01    7.69014E+00    1.38509E+01
 9.00000E-01    1.09643E+01    7.82851E+00    1.41001E+01
 9.30863E-01    1.17839E+01    8.41370E+00    1.51541E+01
 9.59984E-01    1.35626E+01    9.68370E+00    1.74415E+01
 9.96636E-01    1.41049E+01    1.00709E+01    1.81389E+01
 1.00000E+00    1.40824E+01    9.98442E+00    1.81804E+01
 1.02375E+00    1.47474E+01    1.04559E+01    1.90389E+01
 1.04353E+00    1.47695E+01    1.04716E+01    1.90674E+01
 1.06843E+00    1.66563E+01    1.18093E+01    2.15033E+01
 1.08892E+00    1.67913E+01    1.19050E+01    2.16776E+01
 1.09665E+00    1.67779E+01    1.18955E+01    2.16603E+01
 1.10659E+00    1.70460E+01    1.20856E+01    2.20064E+01
 1.12668E+00    1.73234E+01    1.22823E+01    2.23645E+01
 1.15580E+00    1.88190E+01    1.33427E+01    2.42953E+01
 1.15931E+00    1.90096E+01    1.34778E+01    2.45414E+01
 1.30000E+00    6.68820E+01    4.78206E+01    8.59434E+01
 1.60000E+00    4.93985E+02    3.74935E+02    6.13035E+02
 1.80000E+00    8.12750E+02    6.16877E+02    1.00862E+03
 2.00000E+00    1.08611E+03    7.90688E+02    1.38153E+03
 2.30000E+00    1.38258E+03    1.00652E+03    1.75864E+03
 2.50000E+00    1.51307E+03    1.14085E+03    1.88529E+03
 2.70000E+00    1.60068E+03    1.20691E+03    1.99445E+03
 3.00000E+00    1.70081E+03    1.34704E+03    2.05458E+03
 3.50000E+00    1.75214E+03    1.41923E+03    2.08505E+03
 4.00000E+00    1.76901E+03    1.46120E+03    2.07682E+03
 4.50000E+00    1.79314E+03    1.48113E+03    2.10515E+03
 5.00000E+00    1.81715E+03    1.52095E+03    2.11335E+03
 5.50000E+00    1.77093E+03    1.48227E+03    2.05959E+03
 6.00000E+00    1.59294E+03    1.28391E+03    1.90197E+03
 6.50000E+00    1.27032E+03    1.02388E+03    1.51676E+03
 7.00000E+00    9.48601E+02    7.19040E+02    1.17816E+03
 7.50000E+00    7.00019E+02    5.30614E+02    8.69424E+02
 8.00000E+00    5.39510E+02    4.11646E+02    6.67374E+02
 8.50000E+00    4.34242E+02    3.31327E+02    5.37157E+02
 9.00000E+00    3.65133E+02    2.80057E+02    4.50209E+02
 9.50000E+00    3.17899E+02    2.43829E+02    3.91969E+02
 1.00000E+01    2.85296E+02    2.18251E+02    3.52341E+02
 1.05000E+01    2.61306E+02    1.99899E+02    3.22713E+02
 1.10000E+01    2.42559E+02    1.85558E+02    2.99560E+02
 1.15000E+01    2.27884E+02    1.74331E+02    2.81437E+02
 1.20000E+01    2.15729E+02    1.64170E+02    2.67288E+02
 1.25000E+01    2.05173E+02    1.56137E+02    2.54209E+02
 1.30000E+01    1.95870E+02    1.49057E+02    2.42683E+02
 1.35000E+01    1.87539E+02    1.42717E+02    2.32361E+02
 1.40000E+01    1.79663E+02    1.37622E+02    2.21704E+02
 1.45000E+01    1.72494E+02    1.32130E+02    2.12858E+02
 1.50000E+01    1.65691E+02    1.27582E+02    2.03800E+02
 1.55000E+01    1.59369E+02    1.22714E+02    1.96024E+02
 1.60000E+01    1.53128E+02    1.18521E+02    1.87735E+02
 1.65000E+01    1.47276E+02    1.13992E+02    1.80560E+02
 1.70000E+01    1.41847E+02    1.09790E+02    1.73904E+02
 1.75000E+01    1.36559E+02    1.05697E+02    1.67421E+02
 1.80000E+01    1.31674E+02    1.02706E+02    1.60642E+02
 1.85000E+01    1.26864E+02    9.89539E+01    1.54774E+02
 1.95000E+01    1.18141E+02    9.21500E+01    1.44132E+02
 2.00000E+01    1.14161E+02    8.90456E+01    1.39276E+02
