# n + Pu242 : (n,n'05)  
# jendl4.0   O.Iwamoto, T.Nakagawa, Murata, +  EVAL-JAN10
# uncertainties: y
# # energies =    48
#   E(MeV)       xs(mb)       xslow(mb)      xsupp(mb)
 1.06843E+00    0.00000E+00    0.00000E+00    0.00000E+00
 1.08892E+00    3.61881E-06    1.44752E-07    7.09287E-06
 1.09665E+00    4.10709E-06    1.64284E-07    8.04990E-06
 1.10659E+00    4.75864E-06    1.90346E-07    9.32693E-06
 1.12668E+00    6.42486E-06    2.56995E-07    1.25927E-05
 1.15580E+00    9.66330E-06    3.86532E-07    1.89401E-05
 1.15931E+00    1.01306E-05    4.05224E-07    1.98560E-05
 1.30000E+00    8.28841E-05    6.63074E-07    1.65105E-04
 1.60000E+00    7.40819E-04    1.14827E-04    1.36681E-03
 1.80000E+00    2.38991E-03    3.70436E-04    4.40938E-03
 2.00000E+00    4.79014E-03    1.99749E-03    7.58279E-03
 2.30000E+00    9.89721E-03    4.12714E-03    1.56673E-02
 2.50000E+00    1.36835E-02    7.63539E-03    1.97316E-02
 2.70000E+00    1.72862E-02    9.64570E-03    2.49267E-02
 3.00000E+00    1.37000E+00    9.49410E-01    1.79059E+00
 3.50000E+00    1.27802E+00    9.34233E-01    1.62181E+00
 4.00000E+00    1.15552E+00    8.68951E-01    1.44209E+00
 4.50000E+00    1.03417E+00    7.77696E-01    1.29064E+00
 5.00000E+00    9.30181E-01    7.03217E-01    1.15715E+00
 5.50000E+00    8.39861E-01    6.34935E-01    1.04479E+00
 6.00000E+00    7.82876E-01    5.89506E-01    9.76246E-01
 6.50000E+00    6.94930E-01    5.23282E-01    8.66578E-01
 7.00000E+00    6.74685E-01    5.06014E-01    8.43356E-01
 7.50000E+00    6.10503E-01    4.57877E-01    7.63129E-01
 8.00000E+00    5.56993E-01    4.17745E-01    6.96241E-01
 8.50000E+00    5.47461E-01    4.10596E-01    6.84326E-01
 9.00000E+00    5.25267E-01    3.96051E-01    6.54483E-01
 9.50000E+00    4.78909E-01    3.61097E-01    5.96721E-01
 1.00000E+01    4.38256E-01    3.34828E-01    5.41684E-01
 1.05000E+01    4.24100E-01    3.24012E-01    5.24188E-01
 1.10000E+01    4.15414E-01    3.17376E-01    5.13452E-01
 1.15000E+01    3.97358E-01    3.03582E-01    4.91135E-01
 1.20000E+01    3.73597E-01    2.90285E-01    4.56909E-01
 1.25000E+01    3.46094E-01    2.68915E-01    4.23273E-01
 1.30000E+01    3.16012E-01    2.45541E-01    3.86483E-01
 1.35000E+01    2.97624E-01    2.31254E-01    3.63994E-01
 1.40000E+01    2.91233E-01    2.29492E-01    3.52974E-01
 1.45000E+01    2.99526E-01    2.36026E-01    3.63026E-01
 1.50000E+01    2.95289E-01    2.33574E-01    3.57004E-01
 1.55000E+01    2.84514E-01    2.25051E-01    3.43977E-01
 1.60000E+01    2.70167E-01    2.14513E-01    3.25821E-01
 1.65000E+01    2.59770E-01    2.06257E-01    3.13283E-01
 1.70000E+01    2.48451E-01    1.97270E-01    2.99632E-01
 1.75000E+01    2.36693E-01    1.87934E-01    2.85452E-01
 1.80000E+01    2.24577E-01    1.79886E-01    2.69268E-01
 1.85000E+01    2.12347E-01    1.70090E-01    2.54604E-01
 1.95000E+01    1.87618E-01    1.50282E-01    2.24954E-01
 2.00000E+01    1.75042E-01    1.40209E-01    2.09875E-01
