# n + Cu 65 : (n,xg)    
# jendl4.0   N.Yamamuro,T.Kawakit              EVAL-MAR87
# 
# # energies =   154
#   E(MeV)        xs(mb) 
 7.82571E-01    0.00000E+00
 7.82840E-01    0.00000E+00
 7.83371E-01    0.00000E+00
 7.83885E-01    0.00000E+00
 7.84883E-01    0.00000E+00
 7.85819E-01    0.00000E+00
 7.86698E-01    0.00000E+00
 7.88349E-01    0.00000E+00
 7.89796E-01    0.00000E+00
 7.91064E-01    0.00000E+00
 7.93289E-01    0.00000E+00
 7.94961E-01    0.00000E+00
 7.97477E-01    0.00000E+00
 8.00000E-01    0.00000E+00
 8.02794E-01    0.00000E+00
 8.05554E-01    0.00000E+00
 8.08280E-01    0.00000E+00
 8.10973E-01    0.00000E+00
 8.13632E-01    0.00000E+00
 8.16258E-01    0.00000E+00
 8.18852E-01    0.00000E+00
 8.21413E-01    0.00000E+00
 8.26478E-01    0.00000E+00
 8.31415E-01    0.00000E+00
 8.36226E-01    0.00000E+00
 8.40913E-01    0.00000E+00
 8.45479E-01    0.00000E+00
 8.49925E-01    0.00000E+00
 8.54255E-01    0.00000E+00
 8.58471E-01    0.00000E+00
 8.62574E-01    0.00000E+00
 8.66568E-01    0.00000E+00
 8.74360E-01    0.00000E+00
 8.81728E-01    0.00000E+00
 8.88692E-01    0.00000E+00
 8.95270E-01    0.00000E+00
 9.01482E-01    0.00000E+00
 9.07345E-01    0.00000E+00
 9.12875E-01    0.00000E+00
 9.18091E-01    0.00000E+00
 9.27951E-01    0.00000E+00
 9.36665E-01    0.00000E+00
 9.44357E-01    0.00000E+00
 9.51140E-01    0.00000E+00
 9.63126E-01    0.00000E+00
 9.72215E-01    0.00000E+00
 9.79088E-01    0.00000E+00
 9.89489E-01    0.00000E+00
 1.00000E+00    0.00000E+00
 1.01576E+00    0.00000E+00
 1.02976E+00    0.00000E+00
 1.04217E+00    0.00000E+00
 1.05315E+00    0.00000E+00
 1.07264E+00    0.00000E+00
 1.08749E+00    0.00000E+00
 1.09877E+00    0.00000E+00
 1.11590E+00    0.00000E+00
 1.13330E+00    0.00000E+00
 1.13334E+00    0.00000E+00
 1.14030E+00    0.00000E+00
 1.14687E+00    0.00000E+00
 1.15306E+00    0.00000E+00
 1.15889E+00    0.00000E+00
 1.16990E+00    0.00000E+00
 1.17963E+00    0.00000E+00
 1.18820E+00    0.00000E+00
 1.19576E+00    0.00000E+00
 1.20241E+00    0.00000E+00
 1.21413E+00    0.00000E+00
 1.22300E+00    0.00000E+00
 1.23643E+00    0.00000E+00
 1.25000E+00    0.00000E+00
 1.26433E+00    0.00000E+00
 1.27790E+00    0.00000E+00
 1.29077E+00    0.00000E+00
 1.31524E+00    0.00000E+00
 1.33702E+00    0.00000E+00
 1.35639E+00    0.00000E+00
 1.37356E+00    0.00000E+00
 1.38876E+00    0.00000E+00
 1.41577E+00    0.00000E+00
 1.43638E+00    0.00000E+00
 1.46784E+00    0.00000E+00
 1.50000E+00    0.00000E+00
 1.50502E+00    0.00000E+00
 1.52222E+00    0.00000E+00
 1.53742E+00    0.00000E+00
 1.55085E+00    0.00000E+00
 1.57464E+00    0.00000E+00
 1.59272E+00    0.00000E+00
 1.62023E+00    0.00000E+00
 1.64821E+00    0.00000E+00
 1.67352E+00    0.00000E+00
 1.69275E+00    0.00000E+00
 1.72202E+00    0.00000E+00
 1.75180E+00    0.00000E+00
 1.78106E+00    0.00000E+00
 1.80706E+00    0.00000E+00
 1.83012E+00    0.00000E+00
 1.87119E+00    0.00000E+00
 1.90259E+00    0.00000E+00
 1.92649E+00    0.00000E+00
 1.96290E+00    0.00000E+00
 2.00000E+00    0.00000E+00
 2.03091E+00    0.00000E+00
 2.07817E+00    0.00000E+00
 2.12653E+00    0.00000E+00
 2.13973E+00    0.00000E+00
 2.19289E+00    0.00000E+00
 2.24738E+00    0.00000E+00
 2.28015E+00    0.00000E+00
 2.31339E+00    0.00000E+00
 2.36518E+00    0.00000E+00
 2.40446E+00    0.00000E+00
 2.44439E+00    0.00000E+00
 2.50000E+00    0.00000E+00
 2.56524E+00    0.00000E+00
 2.57235E+00    0.00000E+00
 2.57337E+00    0.00000E+00
 2.63328E+00    0.00000E+00
 2.68508E+00    0.00000E+00
 2.69117E+00    0.00000E+00
 2.69625E+00    0.00000E+00
 2.71046E+00    0.00000E+00
 2.75000E+00    0.00000E+00
 2.79577E+00    0.00000E+00
 2.84350E+00    0.00000E+00
 2.92070E+00    0.00000E+00
 3.00000E+00    0.00000E+00
 3.05837E+00    0.00000E+00
 3.16325E+00    0.00000E+00
 3.24428E+00    0.00000E+00
 3.36971E+00    0.00000E+00
 3.50000E+00    0.00000E+00
 3.62284E+00    0.00000E+00
 3.75000E+00    0.00000E+00
 3.87298E+00    0.00000E+00
 4.00000E+00    0.00000E+00
 5.00000E+00    0.00000E+00
 6.00000E+00    0.00000E+00
 7.00000E+00    0.00000E+00
 8.00000E+00    0.00000E+00
 9.00000E+00    0.00000E+00
 1.00000E+01    0.00000E+00
 1.10000E+01    0.00000E+00
 1.20000E+01    0.00000E+00
 1.30000E+01    0.00000E+00
 1.40000E+01    0.00000E+00
 1.50000E+01    0.00000E+00
 1.60000E+01    0.00000E+00
 1.70000E+01    0.00000E+00
 1.80000E+01    0.00000E+00
 1.90000E+01    0.00000E+00
 2.00000E+01    0.00000E+00
