# n + Cu 65 : (n,tot)   
# jendl4.0   N.Yamamuro,T.Kawakit              EVAL-MAR87
# uncertainties: n
# # energies =   171
#   E(MeV)       xs(mb) 
 1.00000E-11    5.17498E+04
 1.00000E-07    1.48679E+04
 4.13990E-07    1.45803E+04
 5.31580E-07    1.45185E+04
 6.82560E-07    1.44639E+04
 8.76420E-07    1.44158E+04
 1.12540E-06    1.43733E+04
 1.44500E-06    1.43396E+04
 1.85540E-06    1.43098E+04
 2.37240E-06    1.42712E+04
 3.05900E-06    1.42376E+04
 3.92790E-06    1.42154E+04
 5.04350E-06    1.41868E+04
 6.47600E-06    1.41502E+04
 8.31530E-06    1.41182E+04
 1.06770E-05    1.40910E+04
 1.37100E-05    1.40561E+04
 1.76030E-05    1.40113E+04
 2.26030E-05    1.39529E+04
 2.92030E-05    1.38889E+04
 3.72670E-05    1.38206E+04
 4.78510E-05    1.37320E+04
 6.14420E-05    1.36182E+04
 7.88930E-05    1.34721E+04
 1.01300E-04    1.32855E+04
 1.30070E-04    1.30507E+04
 1.67020E-04    1.27258E+04
 2.14450E-04    1.61571E+04
 2.75360E-04    1.22594E+04
 3.53580E-04    1.17841E+04
 4.54000E-04    1.12555E+04
 5.82950E-04    1.06508E+04
 7.48520E-04    9.95647E+03
 9.61120E-04    9.15370E+03
 1.23410E-03    8.28860E+03
 1.58460E-03    6.84682E+03
 2.03470E-03    5.13457E+03
 2.24870E-03    2.81058E+03
 2.48520E-03    1.42152E+05
 2.61260E-03    1.77870E+04
 2.74650E-03    1.03486E+04
 3.03540E-03    7.92079E+03
 3.35460E-03    6.62279E+03
 3.70740E-03    2.20027E+04
 4.30740E-03    1.08212E+04
 5.53080E-03    1.05168E+04
 7.10170E-03    2.54519E+04
 9.11880E-03    6.62159E+03
 1.17090E-02    9.07305E+03
 1.50340E-02    1.25712E+04
 1.93050E-02    1.15558E+04
 2.18750E-02    5.73160E+03
 2.35790E-02    7.32718E+03
 2.41760E-02    1.42537E+04
 2.47880E-02    1.38281E+04
 2.60580E-02    7.08901E+03
 2.70000E-02    5.95791E+03
 2.85000E-02    5.43682E+03
 3.18280E-02    5.43971E+03
 3.43070E-02    1.05610E+04
 4.08680E-02    7.22119E+03
 4.63090E-02    5.79741E+03
 5.24750E-02    6.42566E+03
 5.65620E-02    7.33864E+03
 6.73790E-02    8.14805E+03
 7.20000E-02    9.38070E+03
 7.95000E-02    6.59583E+03
 8.25000E-02    8.51121E+03
 8.65170E-02    6.34434E+03
 9.80370E-02    7.57361E+03
 1.11090E-01    5.84917E+03
 1.16790E-01    6.58562E+03
 1.22770E-01    8.31315E+03
 1.29070E-01    6.04849E+03
 1.35690E-01    7.82543E+03
 1.42640E-01    5.87160E+03
 1.49960E-01    6.39325E+03
 1.57640E-01    5.72030E+03
 1.65730E-01    6.16065E+03
 1.74220E-01    6.68841E+03
 1.83160E-01    6.08304E+03
 1.92550E-01    5.53045E+03
 2.02420E-01    5.50772E+03
 2.12800E-01    5.59974E+03
 2.23710E-01    5.39262E+03
 2.35180E-01    6.37417E+03
 2.47240E-01    5.35694E+03
 2.73240E-01    5.37130E+03
 2.87250E-01    5.96247E+03
 2.94520E-01    4.91357E+03
 2.97200E-01    4.17085E+03
 2.98500E-01    6.60399E+03
 3.01970E-01    5.28132E+03
 3.33730E-01    5.17723E+03
 3.68830E-01    5.21655E+03
 3.87740E-01    5.13974E+03
 4.07620E-01    4.89870E+03
 4.50490E-01    4.60321E+03
 4.97870E-01    4.53832E+03
 5.23400E-01    4.46412E+03
 5.50230E-01    4.20229E+03
 5.78440E-01    4.38855E+03
 6.08100E-01    4.17735E+03
 6.39280E-01    4.19619E+03
 6.72060E-01    4.04272E+03
 7.06510E-01    4.14537E+03
 7.42740E-01    3.91082E+03
 7.80820E-01    4.03313E+03
 8.20850E-01    3.81854E+03
 8.62940E-01    3.57940E+03
 9.07180E-01    3.91757E+03
 9.61640E-01    3.96491E+03
 1.00260E+00    3.56459E+03
 1.10800E+00    3.30505E+03
 1.16480E+00    3.26808E+03
 1.22460E+00    3.22924E+03
 1.28730E+00    3.18840E+03
 1.35340E+00    3.14722E+03
 1.42270E+00    3.12864E+03
 1.49570E+00    3.11711E+03
 1.57240E+00    3.10500E+03
 1.65300E+00    3.09227E+03
 1.73770E+00    3.07981E+03
 1.82680E+00    3.08179E+03
 1.92050E+00    3.08925E+03
 2.01900E+00    3.09709E+03
 2.12250E+00    3.10533E+03
 2.23130E+00    3.11377E+03
 2.30690E+00    3.12390E+03
 2.34570E+00    3.12954E+03
 2.36530E+00    3.13335E+03
 2.38520E+00    3.14301E+03
 2.46600E+00    3.16292E+03
 2.59240E+00    3.18791E+03
 2.72530E+00    3.21858E+03
 2.86500E+00    3.26479E+03
 3.01190E+00    3.31440E+03
 3.16640E+00    3.36655E+03
 3.32870E+00    3.44992E+03
 3.67880E+00    3.56127E+03
 4.06570E+00    3.66496E+03
 4.49330E+00    3.72663E+03
 4.72370E+00    3.76692E+03
 4.96590E+00    3.80927E+03
 5.22050E+00    3.83615E+03
 5.48810E+00    3.83705E+03
 5.76950E+00    3.83732E+03
 6.06530E+00    3.82619E+03
 6.37630E+00    3.81208E+03
 6.59240E+00    3.80334E+03
 6.70320E+00    3.79128E+03
 7.04690E+00    3.76504E+03
 7.40820E+00    3.72968E+03
 7.78800E+00    3.69250E+03
 8.18730E+00    3.65344E+03
 8.60710E+00    3.61309E+03
 9.04840E+00    3.56402E+03
 9.51230E+00    3.50431E+03
 1.00000E+01    3.44270E+03
 1.05130E+01    3.37970E+03
 1.10520E+01    3.30251E+03
 1.16180E+01    3.21436E+03
 1.22140E+01    3.13229E+03
 1.28400E+01    3.05039E+03
 1.34990E+01    2.98871E+03
 1.38400E+01    2.94652E+03
 1.41910E+01    2.90443E+03
 1.45500E+01    2.86151E+03
 1.49180E+01    2.79848E+03
 1.56830E+01    2.71963E+03
 1.64870E+01    2.65601E+03
