# n + Cu 65 : (n,g)     
# jendl4.0   N.Yamamuro,T.Kawakit              EVAL-MAR87
# uncertainties: n
# # energies =    69
#   E(MeV)       xs(mb) 
 1.00000E-10    1.51396E+04
 5.00000E-09    4.12222E+03
 1.00000E-08    3.12193E+03
 1.50000E-08    2.62300E+03
 2.00000E-08    2.30774E+03
 2.50000E-08    2.08491E+03
 3.00000E-08    1.91651E+03
 3.50000E-08    1.76207E+03
 4.20000E-08    1.61168E+03
 5.00000E-08    1.48658E+03
 5.80000E-08    1.38166E+03
 6.70000E-08    1.27506E+03
 8.00000E-08    1.15379E+03
 1.00000E-07    1.00376E+03
 1.40000E-07    8.66105E+02
 1.80000E-07    7.73331E+02
 2.20000E-07    7.12141E+02
 2.50000E-07    6.70423E+02
 2.80000E-07    6.40479E+02
 3.00000E-07    6.19441E+02
 3.20000E-07    5.96030E+02
 3.50000E-07    5.63711E+02
 4.00000E-07    5.15738E+02
 5.00000E-07    4.61223E+02
 6.25000E-07    4.12623E+02
 7.80000E-07    3.81864E+02
 8.50000E-07    3.67382E+02
 9.10000E-07    3.57270E+02
 9.50000E-07    3.51416E+02
 9.72000E-07    3.47278E+02
 9.96000E-07    3.43106E+02
 1.02000E-06    3.39006E+02
 1.04500E-06    3.34900E+02
 1.07100E-06    3.30856E+02
 1.09700E-06    3.26940E+02
 1.12300E-06    3.23123E+02
 1.15000E-06    3.11532E+02
 1.30000E-06    2.91513E+02
 1.50000E-06    2.58786E+02
 2.10000E-06    2.25223E+02
 2.60000E-06    2.01033E+02
 3.30000E-06    1.80330E+02
 4.00000E-06    1.37723E+02
 9.87700E-06    9.60582E+01
 1.59680E-05    7.34887E+01
 2.77000E-05    5.47498E+01
 4.80520E-05    4.14270E+01
 7.55014E-05    3.00925E+01
 1.48728E-04    9.29751E+02
 3.67262E-04    8.59698E+00
 9.06898E-04    5.83375E+01
 1.42510E-03    6.07468E+00
 2.23945E-03    3.23883E+02
 3.51910E-03    2.20589E+02
 5.53000E-03    1.29958E+02
 9.11800E-03    5.70510E+01
 1.50300E-02    3.48261E+01
 2.47800E-02    3.77927E+01
 4.08500E-02    2.73320E+01
 6.73400E-02    1.93047E+01
 1.11000E-01    1.44598E+01
 1.83000E-01    1.12271E+01
 3.02000E-01    9.35589E+00
 5.00000E-01    8.52191E+00
 8.21000E-01    8.30288E+00
 1.35300E+00    6.24593E+00
 2.23100E+00    4.22830E+00
 3.67900E+00    2.21003E+00
 6.06500E+00    1.12531E+00
