# n + Cu 65 :  n        
# jendl4.0   N.Yamamuro,T.Kawakit              EVAL-MAR87
# uncertainties: n
# # energies =    79
#   E(MeV)       xs(mb) 
 2.84350E+00    0.00000E+00
 2.84410E+00    2.20688E-01
 2.84528E+00    6.60335E-01
 2.84764E+00    1.53276E+00
 2.84996E+00    2.39155E+00
 2.85224E+00    3.23692E+00
 2.85675E+00    4.90124E+00
 2.86112E+00    6.51355E+00
 2.86536E+00    8.07548E+00
 2.86947E+00    9.58860E+00
 2.87746E+00    1.25203E+01
 2.88497E+00    1.52687E+01
 2.89203E+00    1.78453E+01
 2.89866E+00    2.02610E+01
 2.90490E+00    2.25256E+01
 2.91662E+00    2.67718E+01
 2.92691E+00    3.04872E+01
 2.93595E+00    3.37382E+01
 2.94388E+00    3.65828E+01
 2.95781E+00    4.15609E+01
 2.96830E+00    4.52944E+01
 2.98411E+00    5.08948E+01
 3.00000E+00    5.64951E+01
 3.00675E+00    6.25548E+01
 3.02019E+00    7.45796E+01
 3.03348E+00    8.64165E+01
 3.04662E+00    9.80684E+01
 3.05960E+00    1.09538E+02
 3.07244E+00    1.20829E+02
 3.08514E+00    1.31943E+02
 3.09768E+00    1.42884E+02
 3.11008E+00    1.53653E+02
 3.12233E+00    1.64255E+02
 3.13444E+00    1.74691E+02
 3.14640E+00    1.84963E+02
 3.17009E+00    2.05187E+02
 3.19321E+00    2.24780E+02
 3.21577E+00    2.43760E+02
 3.23778E+00    2.62147E+02
 3.25924E+00    2.79959E+02
 3.28016E+00    2.97215E+02
 3.30057E+00    3.13931E+02
 3.32045E+00    3.30125E+02
 3.33983E+00    3.45813E+02
 3.35870E+00    3.61011E+02
 3.37710E+00    3.75734E+02
 3.41301E+00    4.04259E+02
 3.44704E+00    4.31002E+02
 3.47924E+00    4.56073E+02
 3.50970E+00    4.79577E+02
 3.53850E+00    5.01612E+02
 3.56572E+00    5.22270E+02
 3.59142E+00    5.41637E+02
 3.61569E+00    5.59793E+02
 3.66163E+00    5.93837E+02
 3.70231E+00    6.23625E+02
 3.73828E+00    6.49689E+02
 3.77003E+00    6.72495E+02
 3.79804E+00    6.92451E+02
 3.84755E+00    7.27373E+02
 3.88511E+00    7.53565E+02
 3.94214E+00    7.92852E+02
 4.00000E+00    8.32140E+02
 5.00000E+00    1.25796E+03
 6.00000E+00    1.42922E+03
 7.00000E+00    1.45864E+03
 8.00000E+00    1.45528E+03
 9.00000E+00    1.42769E+03
 1.00000E+01    1.40724E+03
 1.10000E+01    1.23625E+03
 1.20000E+01    9.03788E+02
 1.30000E+01    6.53756E+02
 1.40000E+01    4.93777E+02
 1.50000E+01    3.83409E+02
 1.60000E+01    3.11287E+02
 1.70000E+01    2.65357E+02
 1.80000E+01    2.30517E+02
 1.90000E+01    2.06010E+02
 2.00000E+01    1.86021E+02
