# n + Cu 65 : (n,n'07)  
# jendl4.0   N.Yamamuro,T.Kawakit              EVAL-MAR87
# uncertainties: n
# # energies =    82
#   E(MeV)       xs(mb) 
 2.13973E+00    0.00000E+00
 2.14055E+00    3.62768E-01
 2.14218E+00    1.08263E+00
 2.14379E+00    1.79124E+00
 2.14537E+00    2.48879E+00
 2.14848E+00    3.86207E+00
 2.15151E+00    5.19244E+00
 2.15444E+00    6.48123E+00
 2.15729E+00    7.72975E+00
 2.16281E+00    1.01488E+01
 2.16800E+00    1.24166E+01
 2.17288E+00    1.45426E+01
 2.17746E+00    1.65358E+01
 2.18177E+00    1.84045E+01
 2.18986E+00    2.19081E+01
 2.19697E+00    2.49738E+01
 2.20321E+00    2.76563E+01
 2.21417E+00    3.23507E+01
 2.22243E+00    3.58714E+01
 2.23487E+00    4.11526E+01
 2.24738E+00    4.64337E+01
 2.26370E+00    4.95966E+01
 2.27602E+00    5.19688E+01
 2.29463E+00    5.55271E+01
 2.31339E+00    5.90854E+01
 2.33914E+00    6.29257E+01
 2.36518E+00    6.67660E+01
 2.38474E+00    6.91945E+01
 2.41438E+00    7.28371E+01
 2.44439E+00    7.64798E+01
 2.47204E+00    7.93724E+01
 2.50000E+00    8.22650E+01
 2.53241E+00    8.54870E+01
 2.56524E+00    8.87090E+01
 2.57235E+00    8.91110E+01
 2.57337E+00    8.89549E+01
 2.63328E+00    9.10176E+01
 2.68508E+00    9.34973E+01
 2.69117E+00    9.36652E+01
 2.69625E+00    9.34349E+01
 2.71046E+00    9.29848E+01
 2.79577E+00    9.28445E+01
 2.84350E+00    9.29848E+01
 2.92070E+00    9.17894E+01
 3.00000E+00    9.05940E+01
 3.05443E+00    8.78829E+01
 3.10635E+00    8.53413E+01
 3.15583E+00    8.29586E+01
 3.20293E+00    8.07247E+01
 3.24773E+00    7.86305E+01
 3.29029E+00    7.66672E+01
 3.33071E+00    7.48266E+01
 3.36904E+00    7.31010E+01
 3.40539E+00    7.14832E+01
 3.43981E+00    6.99666E+01
 3.50530E+00    6.71229E+01
 3.56363E+00    6.46347E+01
 3.61546E+00    6.24575E+01
 3.66143E+00    6.05525E+01
 3.70213E+00    5.88856E+01
 3.73811E+00    5.74270E+01
 3.80193E+00    5.48746E+01
 3.85051E+00    5.29602E+01
 3.88735E+00    5.15245E+01
 3.94327E+00    4.93708E+01
 4.00000E+00    4.72172E+01
 5.00000E+00    2.29265E+01
 6.00000E+00    1.11097E+01
 7.00000E+00    5.51364E+00
 8.00000E+00    2.73142E+00
 9.00000E+00    2.40999E+00
 1.00000E+01    1.99774E+00
 1.10000E+01    1.04654E+00
 1.20000E+01    7.83112E-01
 1.30000E+01    1.16644E+00
 1.40000E+01    9.34251E-01
 1.50000E+01    6.27944E-01
 1.60000E+01    6.87049E-01
 1.70000E+01    7.90539E-01
 1.80000E+01    6.52055E-01
 1.90000E+01    3.62949E-01
 2.00000E+01    5.57414E-01
