# n + Cu 65 : (n,el)    
# jendl4.0   N.Yamamuro,T.Kawakit              EVAL-MAR87
# uncertainties: n
# # energies =   171
#   E(MeV)       xs(mb) 
 1.00000E-11    2.83016E+04
 1.00000E-07    1.40873E+04
 4.13990E-07    1.40767E+04
 5.31580E-07    1.40736E+04
 6.82560E-07    1.40718E+04
 8.76420E-07    1.40699E+04
 1.12540E-06    1.40674E+04
 1.44500E-06    1.40643E+04
 1.85540E-06    1.40603E+04
 2.37240E-06    1.40551E+04
 3.05900E-06    1.40484E+04
 3.92790E-06    1.40404E+04
 5.04350E-06    1.40314E+04
 6.47600E-06    1.40200E+04
 8.31530E-06    1.40052E+04
 1.06770E-05    1.39863E+04
 1.37100E-05    1.39620E+04
 1.76030E-05    1.39309E+04
 2.26030E-05    1.38903E+04
 2.92030E-05    1.38388E+04
 3.72670E-05    1.37735E+04
 4.78510E-05    1.36888E+04
 6.14420E-05    1.35800E+04
 7.88930E-05    1.34403E+04
 1.01300E-04    1.32609E+04
 1.30070E-04    1.30275E+04
 1.67020E-04    1.26973E+04
 2.14450E-04    1.28505E+04
 2.75360E-04    1.22446E+04
 3.53580E-04    1.17717E+04
 4.54000E-04    1.12461E+04
 5.82950E-04    1.06434E+04
 7.48520E-04    9.95042E+03
 9.61120E-04    9.14836E+03
 1.23410E-03    8.18589E+03
 1.58460E-03    6.84149E+03
 2.03470E-03    5.12412E+03
 2.24870E-03    2.72458E+03
 2.48520E-03    1.39528E+05
 2.61260E-03    1.77281E+04
 2.74650E-03    1.03369E+04
 3.03540E-03    7.89924E+03
 3.35460E-03    6.54034E+03
 3.70740E-03    2.15967E+04
 4.30740E-03    1.06977E+04
 5.53080E-03    1.03683E+04
 7.10170E-03    2.53404E+04
 9.11880E-03    6.57959E+03
 1.17090E-02    9.00097E+03
 1.50340E-02    1.25471E+04
 1.93050E-02    1.15117E+04
 2.18750E-02    5.68528E+03
 2.35790E-02    7.25628E+03
 2.41760E-02    1.42287E+04
 2.47880E-02    1.37763E+04
 2.60580E-02    7.08816E+03
 2.70000E-02    5.92645E+03
 2.85000E-02    5.40058E+03
 3.18280E-02    5.39084E+03
 3.43070E-02    1.05217E+04
 4.08680E-02    7.18812E+03
 4.63090E-02    5.76899E+03
 5.24750E-02    6.40039E+03
 5.65620E-02    7.31512E+03
 6.73790E-02    8.12622E+03
 7.20000E-02    9.35986E+03
 7.95000E-02    6.57578E+03
 8.25000E-02    8.49163E+03
 8.65170E-02    6.32574E+03
 9.80370E-02    7.55635E+03
 1.11090E-01    5.83272E+03
 1.16790E-01    6.56961E+03
 1.22770E-01    8.29761E+03
 1.29070E-01    6.03342E+03
 1.35690E-01    7.81081E+03
 1.42640E-01    5.85739E+03
 1.49960E-01    6.37941E+03
 1.57640E-01    5.70696E+03
 1.65730E-01    6.14756E+03
 1.74220E-01    6.67570E+03
 1.83160E-01    6.07071E+03
 1.92550E-01    5.51850E+03
 2.02420E-01    5.49602E+03
 2.12800E-01    5.58823E+03
 2.23710E-01    5.38131E+03
 2.35180E-01    6.36305E+03
 2.47240E-01    5.34612E+03
 2.73240E-01    5.36077E+03
 2.87250E-01    5.95209E+03
 2.94520E-01    4.90326E+03
 2.97200E-01    4.16056E+03
 2.98500E-01    6.59373E+03
 3.01970E-01    5.27127E+03
 3.33730E-01    5.16751E+03
 3.68830E-01    5.20710E+03
 3.87740E-01    5.13041E+03
 4.07620E-01    4.88966E+03
 4.50490E-01    4.59450E+03
 4.97870E-01    4.52980E+03
 5.23400E-01    4.45560E+03
 5.50230E-01    4.19376E+03
 5.78440E-01    4.38002E+03
 6.08100E-01    4.16883E+03
 6.39280E-01    4.18766E+03
 6.72060E-01    4.03416E+03
 7.06510E-01    4.13685E+03
 7.42740E-01    3.90230E+03
 7.80820E-01    4.01219E+03
 8.20850E-01    3.77053E+03
 8.62940E-01    3.50439E+03
 9.07180E-01    3.81326E+03
 9.61640E-01    3.83359E+03
 1.00260E+00    3.40594E+03
 1.10800E+00    3.10948E+03
 1.16480E+00    2.98143E+03
 1.22460E+00    2.84999E+03
 1.28730E+00    2.76233E+03
 1.35340E+00    2.67797E+03
 1.42270E+00    2.61692E+03
 1.49570E+00    2.54903E+03
 1.57240E+00    2.45731E+03
 1.65300E+00    2.36066E+03
 1.73770E+00    2.26812E+03
 1.82680E+00    2.20351E+03
 1.92050E+00    2.14287E+03
 2.01900E+00    2.09976E+03
 2.12250E+00    2.05047E+03
 2.23130E+00    2.00411E+03
 2.30690E+00    1.98361E+03
 2.34570E+00    1.97338E+03
 2.36530E+00    1.96647E+03
 2.38520E+00    1.94894E+03
 2.46600E+00    1.91773E+03
 2.59240E+00    1.87331E+03
 2.72530E+00    1.83701E+03
 2.86500E+00    1.82378E+03
 3.01190E+00    1.82742E+03
 3.16640E+00    1.84057E+03
 3.32870E+00    1.86166E+03
 3.67880E+00    1.89137E+03
 4.06570E+00    1.95073E+03
 4.49330E+00    1.99203E+03
 4.72370E+00    2.01856E+03
 4.96590E+00    2.05662E+03
 5.22050E+00    2.09606E+03
 5.48810E+00    2.11028E+03
 5.76950E+00    2.12491E+03
 6.06530E+00    2.13271E+03
 6.37630E+00    2.13472E+03
 6.59240E+00    2.13597E+03
 6.70320E+00    2.13751E+03
 7.04690E+00    2.12745E+03
 7.40820E+00    2.10910E+03
 7.78800E+00    2.08981E+03
 8.18730E+00    2.06952E+03
 8.60710E+00    2.04808E+03
 9.04840E+00    2.01296E+03
 9.51230E+00    1.96748E+03
 1.00000E+01    1.92423E+03
 1.05130E+01    1.87016E+03
 1.10520E+01    1.79897E+03
 1.16180E+01    1.71569E+03
 1.22140E+01    1.63392E+03
 1.28400E+01    1.55218E+03
 1.34990E+01    1.49288E+03
 1.38400E+01    1.45264E+03
 1.41910E+01    1.41366E+03
 1.45500E+01    1.37407E+03
 1.49180E+01    1.31629E+03
 1.56830E+01    1.24555E+03
 1.64870E+01    1.19388E+03
