# n + Np237 : (n,n'06)  
# endfb8.0   P.Young,E.Arthur,F.Mann,T.Kawano  EVAL-MAR06
# uncertainties: n
# # energies =    74
#   E(MeV)       xs(mb) 
 1.59180E-01    0.00000E+00
 1.60000E-01    7.13130E+00
 1.80000E-01    3.38150E+01
 1.92310E-01    4.28325E+01
 2.00000E-01    4.78430E+01
 2.20000E-01    5.90190E+01
 2.26920E-01    6.23926E+01
 2.40000E-01    6.83030E+01
 2.60000E-01    7.61550E+01
 2.68680E-01    7.91640E+01
 2.71050E-01    7.99509E+01
 2.80000E-01    8.27700E+01
 2.82550E-01    8.35267E+01
 3.00000E-01    8.83070E+01
 3.06360E-01    8.99537E+01
 3.18150E-01    9.25612E+01
 3.20000E-01    9.28680E+01
 3.25800E-01    9.36824E+01
 3.33770E-01    9.45957E+01
 3.40000E-01    9.52440E+01
 3.49980E-01    9.63083E+01
 3.60000E-01    9.71200E+01
 3.61230E-01    9.71808E+01
 3.70160E-01    9.73998E+01
 3.72510E-01    9.74096E+01
 3.80000E-01    9.73790E+01
 3.97200E-01    9.72066E+01
 4.00000E-01    9.71450E+01
 4.20000E-01    9.64850E+01
 4.35970E-01    9.57790E+01
 4.40000E-01    9.54430E+01
 4.54460E-01    9.39342E+01
 4.56330E-01    9.37263E+01
 4.60000E-01    9.33112E+01
 4.61640E-01    9.31228E+01
 4.80000E-01    9.09229E+01
 4.88070E-01    8.99229E+01
 4.99110E-01    8.85484E+01
 5.00000E-01    8.84380E+01
 5.16390E-01    8.64144E+01
 5.47920E-01    8.24644E+01
 5.49230E-01    8.22955E+01
 5.50000E-01    8.21960E+01
 6.00000E-01    7.55770E+01
 6.50000E-01    6.92300E+01
 7.00000E-01    6.33670E+01
 7.50000E-01    5.80420E+01
 8.00000E-01    5.32280E+01
 9.00000E-01    4.48720E+01
 9.88190E-01    3.86759E+01
 1.00000E+00    3.79320E+01
 1.01731E+00    3.68656E+01
 1.10000E+00    3.21193E+01
 1.20000E+00    2.70740E+01
 1.40000E+00    1.93150E+01
 1.60000E+00    1.36110E+01
 1.80000E+00    9.43200E+00
 2.00000E+00    6.40650E+00
 2.25000E+00    3.85737E+00
 2.50000E+00    2.22360E+00
 2.75000E+00    1.27070E+00
 3.00000E+00    7.01610E-01
 3.25000E+00    4.02402E-01
 3.50000E+00    2.11000E-01
 3.75000E+00    1.22140E-01
 4.00000E+00    6.45680E-02
 4.25000E+00    3.80185E-02
 4.50000E+00    2.05170E-02
 4.75000E+00    1.23253E-02
 5.00000E+00    6.85670E-03
 5.25000E+00    4.24574E-03
 5.50000E+00    2.39420E-03
 5.75000E+00    1.35948E-03
 6.00000E+00    8.69870E-04
