# n + Be  9 : (n,tot)   
# jendl4.0   K.Shibata                         Eval-Feb09
# uncertainties: n
# # energies =   171
#   E(MeV)       xs(mb) 
 1.00000E-11    2.70865E+04
 1.00000E-07    6.20091E+03
 4.13990E-07    6.17195E+03
 5.31580E-07    6.16754E+03
 6.82560E-07    6.16436E+03
 8.76420E-07    6.16153E+03
 1.12540E-06    6.16098E+03
 1.44500E-06    6.16083E+03
 1.85540E-06    6.16063E+03
 2.37240E-06    6.16039E+03
 3.05900E-06    6.16006E+03
 3.92790E-06    6.15965E+03
 5.04350E-06    6.15913E+03
 6.47600E-06    6.15845E+03
 8.31530E-06    6.15758E+03
 1.06770E-05    6.15647E+03
 1.37100E-05    6.15503E+03
 1.76030E-05    6.15320E+03
 2.26030E-05    6.15142E+03
 2.92030E-05    6.15122E+03
 3.72670E-05    6.15112E+03
 4.78510E-05    6.15100E+03
 6.14420E-05    6.15084E+03
 7.88930E-05    6.15064E+03
 1.01300E-04    6.15038E+03
 1.30070E-04    6.15005E+03
 1.67020E-04    6.14962E+03
 2.14450E-04    6.14907E+03
 2.75360E-04    6.14836E+03
 3.53580E-04    6.14745E+03
 4.54000E-04    6.14629E+03
 5.82950E-04    6.14479E+03
 7.48520E-04    6.14287E+03
 9.61120E-04    6.14041E+03
 1.23410E-03    6.13724E+03
 1.58460E-03    6.13317E+03
 2.03470E-03    6.12971E+03
 2.24870E-03    6.12741E+03
 2.48520E-03    6.12554E+03
 2.61260E-03    6.12420E+03
 2.74650E-03    6.12206E+03
 3.03540E-03    6.11896E+03
 3.35460E-03    6.11553E+03
 3.70740E-03    6.11072E+03
 4.30740E-03    6.10159E+03
 5.53080E-03    6.08740E+03
 7.10170E-03    6.06918E+03
 9.11880E-03    6.04578E+03
 1.17090E-02    6.01574E+03
 1.50340E-02    5.97716E+03
 1.93050E-02    5.94161E+03
 2.18750E-02    5.91962E+03
 2.35790E-02    5.90778E+03
 2.41760E-02    5.90161E+03
 2.47880E-02    5.89204E+03
 2.60580E-02    5.88073E+03
 2.70000E-02    5.86830E+03
 2.85000E-02    5.84390E+03
 3.18280E-02    5.81519E+03
 3.43070E-02    5.77575E+03
 4.08680E-02    5.72219E+03
 4.63090E-02    5.67079E+03
 5.24750E-02    5.62498E+03
 5.65620E-02    5.56009E+03
 6.73790E-02    5.49302E+03
 7.20000E-02    5.44476E+03
 7.95000E-02    5.40228E+03
 8.25000E-02    5.37422E+03
 8.65170E-02    5.31706E+03
 9.80370E-02    5.23251E+03
 1.11090E-01    5.16732E+03
 1.16790E-01    5.12720E+03
 1.22770E-01    5.08502E+03
 1.29070E-01    5.04296E+03
 1.35690E-01    5.00110E+03
 1.42640E-01    4.95707E+03
 1.49960E-01    4.91080E+03
 1.57640E-01    4.86214E+03
 1.65730E-01    4.81099E+03
 1.74220E-01    4.75722E+03
 1.83160E-01    4.70067E+03
 1.92550E-01    4.64189E+03
 2.02420E-01    4.58147E+03
 2.12800E-01    4.51800E+03
 2.23710E-01    4.45168E+03
 2.35180E-01    4.38789E+03
 2.47240E-01    4.28927E+03
 2.73240E-01    4.19553E+03
 2.87250E-01    4.15018E+03
 2.94520E-01    4.12901E+03
 2.97200E-01    4.12055E+03
 2.98500E-01    4.11044E+03
 3.01970E-01    4.03680E+03
 3.33730E-01    3.90180E+03
 3.68830E-01    3.80184E+03
 3.87740E-01    3.74112E+03
 4.07620E-01    3.64383E+03
 4.50490E-01    3.51495E+03
 4.97870E-01    3.45082E+03
 5.23400E-01    3.45998E+03
 5.50230E-01    3.56162E+03
 5.78440E-01    4.45984E+03
 6.08100E-01    6.54468E+03
 6.39280E-01    4.03751E+03
 6.72060E-01    3.49852E+03
 7.06510E-01    3.40611E+03
 7.42740E-01    3.42455E+03
 7.80820E-01    4.17119E+03
 8.20850E-01    3.53387E+03
 8.62940E-01    3.43304E+03
 9.07180E-01    3.40560E+03
 9.61640E-01    3.36608E+03
 1.00260E+00    3.21720E+03
 1.10800E+00    2.99682E+03
 1.16480E+00    2.83843E+03
 1.22460E+00    2.67514E+03
 1.28730E+00    2.51194E+03
 1.35340E+00    2.35402E+03
 1.42270E+00    2.20574E+03
 1.49570E+00    2.06363E+03
 1.57240E+00    1.93629E+03
 1.65300E+00    1.81986E+03
 1.73770E+00    1.73222E+03
 1.82680E+00    1.67513E+03
 1.92050E+00    1.65593E+03
 2.01900E+00    1.69281E+03
 2.12250E+00    1.79294E+03
 2.23130E+00    1.92865E+03
 2.30690E+00    2.03573E+03
 2.34570E+00    2.09866E+03
 2.36530E+00    2.14648E+03
 2.38520E+00    2.27751E+03
 2.46600E+00    2.61683E+03
 2.59240E+00    3.48142E+03
 2.72530E+00    3.85493E+03
 2.86500E+00    3.33290E+03
 3.01190E+00    2.90117E+03
 3.16640E+00    2.62258E+03
 3.32870E+00    2.34160E+03
 3.67880E+00    2.04424E+03
 4.06570E+00    1.93383E+03
 4.49330E+00    1.92721E+03
 4.72370E+00    1.89000E+03
 4.96590E+00    1.87056E+03
 5.22050E+00    1.86653E+03
 5.48810E+00    1.86043E+03
 5.76950E+00    1.84339E+03
 6.06530E+00    1.81908E+03
 6.37630E+00    1.79783E+03
 6.59240E+00    1.78576E+03
 6.70320E+00    1.77266E+03
 7.04690E+00    1.75818E+03
 7.40820E+00    1.75468E+03
 7.78800E+00    1.74433E+03
 8.18730E+00    1.72836E+03
 8.60710E+00    1.71573E+03
 9.04840E+00    1.70128E+03
 9.51230E+00    1.68658E+03
 1.00000E+01    1.66893E+03
 1.05130E+01    1.64601E+03
 1.10520E+01    1.61369E+03
 1.16180E+01    1.58300E+03
 1.22140E+01    1.55916E+03
 1.28400E+01    1.53519E+03
 1.34990E+01    1.51214E+03
 1.38400E+01    1.49324E+03
 1.41910E+01    1.47544E+03
 1.45500E+01    1.46262E+03
 1.49180E+01    1.45114E+03
 1.56830E+01    1.43858E+03
 1.64870E+01    1.41878E+03
