# n + Be  9 : (n,g)     
# jendl4.0   K.Shibata                         Eval-Feb09
# uncertainties: n
# # energies =    69
#   E(MeV)       xs(mb) 
 1.00000E-10    5.92795E+01
 5.00000E-09    1.61408E+01
 1.00000E-08    1.22241E+01
 1.50000E-08    1.02705E+01
 2.00000E-08    9.03604E+00
 2.50000E-08    8.16356E+00
 3.00000E-08    7.50422E+00
 3.50000E-08    6.89949E+00
 4.20000E-08    6.31071E+00
 5.00000E-08    5.82097E+00
 5.80000E-08    5.41022E+00
 6.70000E-08    4.99283E+00
 8.00000E-08    4.51806E+00
 1.00000E-07    3.93085E+00
 1.40000E-07    3.39193E+00
 1.80000E-07    3.02879E+00
 2.20000E-07    2.78930E+00
 2.50000E-07    2.62602E+00
 2.80000E-07    2.50878E+00
 3.00000E-07    2.42640E+00
 3.20000E-07    2.33477E+00
 3.50000E-07    2.20831E+00
 4.00000E-07    2.02060E+00
 5.00000E-07    1.80728E+00
 6.25000E-07    1.61712E+00
 7.80000E-07    1.49682E+00
 8.50000E-07    1.44019E+00
 9.10000E-07    1.40065E+00
 9.50000E-07    1.37775E+00
 9.72000E-07    1.36156E+00
 9.96000E-07    1.34523E+00
 1.02000E-06    1.32917E+00
 1.04500E-06    1.31310E+00
 1.07100E-06    1.29728E+00
 1.09700E-06    1.28197E+00
 1.12300E-06    1.26705E+00
 1.15000E-06    1.22171E+00
 1.30000E-06    1.14336E+00
 1.50000E-06    1.01540E+00
 2.10000E-06    8.84377E-01
 2.60000E-06    7.90025E-01
 3.30000E-06    7.09199E-01
 4.00000E-06    5.43584E-01
 9.87700E-06    3.82223E-01
 1.59680E-05    2.95583E-01
 2.77000E-05    2.24429E-01
 4.80520E-05    1.74481E-01
 7.55014E-05    1.31898E-01
 1.48728E-04    8.91450E-02
 3.67262E-04    5.67290E-02
 9.06898E-04    4.01611E-02
 1.42510E-03    3.20394E-02
 2.23945E-03    2.55575E-02
 3.51910E-03    2.03891E-02
 5.53000E-03    1.60777E-02
 9.11800E-03    1.25219E-02
 1.50300E-02    9.75265E-03
 2.47800E-02    7.59548E-03
 4.08500E-02    5.91570E-03
 6.73400E-02    4.60769E-03
 1.11000E-01    3.58871E-03
 1.83000E-01    2.79432E-03
 3.02000E-01    2.17349E-03
 5.00000E-01    1.69252E-03
 8.21000E-01    1.31965E-03
 1.35300E+00    1.02786E-03
 2.23100E+00    8.00420E-04
 3.67900E+00    6.23356E-04
 6.06500E+00    4.85474E-04
