# n + Be  9 : (n,el)    
# jendl4.0   K.Shibata                         Eval-Feb09
# uncertainties: n
# # energies =   171
#   E(MeV)       xs(mb) 
 1.00000E-11    2.69943E+04
 1.00000E-07    6.19784E+03
 4.13990E-07    6.16992E+03
 5.31580E-07    6.16588E+03
 6.82560E-07    6.16274E+03
 8.76420E-07    6.16012E+03
 1.12540E-06    6.15884E+03
 1.44500E-06    6.15879E+03
 1.85540E-06    6.15873E+03
 2.37240E-06    6.15866E+03
 3.05900E-06    6.15856E+03
 3.92790E-06    6.15843E+03
 5.04350E-06    6.15827E+03
 6.47600E-06    6.15806E+03
 8.31530E-06    6.15780E+03
 1.06770E-05    6.15745E+03
 1.37100E-05    6.15701E+03
 1.76030E-05    6.15645E+03
 2.26030E-05    6.15571E+03
 2.92030E-05    6.15478E+03
 3.72670E-05    6.15360E+03
 4.78510E-05    6.15206E+03
 6.14420E-05    6.15057E+03
 7.88930E-05    6.15027E+03
 1.01300E-04    6.15001E+03
 1.30070E-04    6.14967E+03
 1.67020E-04    6.14925E+03
 2.14450E-04    6.14870E+03
 2.75360E-04    6.14799E+03
 3.53580E-04    6.14709E+03
 4.54000E-04    6.14592E+03
 5.82950E-04    6.14443E+03
 7.48520E-04    6.14252E+03
 9.61120E-04    6.14006E+03
 1.23410E-03    6.13690E+03
 1.58460E-03    6.13284E+03
 2.03470E-03    6.12938E+03
 2.24870E-03    6.12709E+03
 2.48520E-03    6.12522E+03
 2.61260E-03    6.12389E+03
 2.74650E-03    6.12175E+03
 3.03540E-03    6.11866E+03
 3.35460E-03    6.11524E+03
 3.70740E-03    6.11043E+03
 4.30740E-03    6.10133E+03
 5.53080E-03    6.08717E+03
 7.10170E-03    6.06898E+03
 9.11880E-03    6.04564E+03
 1.17090E-02    6.01566E+03
 1.50340E-02    5.97717E+03
 1.93050E-02    5.94169E+03
 2.18750E-02    5.91975E+03
 2.35790E-02    5.90794E+03
 2.41760E-02    5.90178E+03
 2.47880E-02    5.89223E+03
 2.60580E-02    5.88094E+03
 2.70000E-02    5.86854E+03
 2.85000E-02    5.84419E+03
 3.18280E-02    5.81511E+03
 3.43070E-02    5.77558E+03
 4.08680E-02    5.72210E+03
 4.63090E-02    5.67079E+03
 5.24750E-02    5.62505E+03
 5.65620E-02    5.56025E+03
 6.73790E-02    5.49289E+03
 7.20000E-02    5.44467E+03
 7.95000E-02    5.40222E+03
 8.25000E-02    5.37419E+03
 8.65170E-02    5.31706E+03
 9.80370E-02    5.23251E+03
 1.11090E-01    5.16731E+03
 1.16790E-01    5.12719E+03
 1.22770E-01    5.08501E+03
 1.29070E-01    5.04296E+03
 1.35690E-01    5.00109E+03
 1.42640E-01    4.95707E+03
 1.49960E-01    4.91079E+03
 1.57640E-01    4.86214E+03
 1.65730E-01    4.81099E+03
 1.74220E-01    4.75722E+03
 1.83160E-01    4.70067E+03
 1.92550E-01    4.64188E+03
 2.02420E-01    4.58147E+03
 2.12800E-01    4.51800E+03
 2.23710E-01    4.45168E+03
 2.35180E-01    4.38789E+03
 2.47240E-01    4.28927E+03
 2.73240E-01    4.19552E+03
 2.87250E-01    4.15018E+03
 2.94520E-01    4.12900E+03
 2.97200E-01    4.12055E+03
 2.98500E-01    4.11044E+03
 3.01970E-01    4.03680E+03
 3.33730E-01    3.90179E+03
 3.68830E-01    3.80184E+03
 3.87740E-01    3.74112E+03
 4.07620E-01    3.64383E+03
 4.50490E-01    3.51495E+03
 4.97870E-01    3.45081E+03
 5.23400E-01    3.45997E+03
 5.50230E-01    3.56162E+03
 5.78440E-01    4.45984E+03
 6.08100E-01    6.54468E+03
 6.39280E-01    4.03750E+03
 6.72060E-01    3.49852E+03
 7.06510E-01    3.40609E+03
 7.42740E-01    3.42452E+03
 7.80820E-01    4.17114E+03
 8.20850E-01    3.53381E+03
 8.62940E-01    3.43295E+03
 9.07180E-01    3.40541E+03
 9.61640E-01    3.36573E+03
 1.00260E+00    3.21599E+03
 1.10800E+00    2.99423E+03
 1.16480E+00    2.83485E+03
 1.22460E+00    2.67021E+03
 1.28730E+00    2.50486E+03
 1.35340E+00    2.34427E+03
 1.42270E+00    2.19275E+03
 1.49570E+00    2.04692E+03
 1.57240E+00    1.91518E+03
 1.65300E+00    1.79385E+03
 1.73770E+00    1.70092E+03
 1.82680E+00    1.63773E+03
 1.92050E+00    1.61128E+03
 2.01900E+00    1.63894E+03
 2.12250E+00    1.72818E+03
 2.23130E+00    1.85402E+03
 2.30690E+00    1.95471E+03
 2.34570E+00    2.01437E+03
 2.36530E+00    2.05998E+03
 2.38520E+00    2.18521E+03
 2.46600E+00    2.51190E+03
 2.59240E+00    3.35544E+03
 2.72530E+00    3.57853E+03
 2.86500E+00    2.94293E+03
 3.01190E+00    2.43791E+03
 3.16640E+00    2.10962E+03
 3.32870E+00    1.79129E+03
 3.67880E+00    1.46091E+03
 4.06570E+00    1.33940E+03
 4.49330E+00    1.32709E+03
 4.72370E+00    1.28226E+03
 4.96590E+00    1.25701E+03
 5.22050E+00    1.25197E+03
 5.48810E+00    1.24427E+03
 5.76950E+00    1.22726E+03
 6.06530E+00    1.20456E+03
 6.37630E+00    1.18698E+03
 6.59240E+00    1.17733E+03
 6.70320E+00    1.16450E+03
 7.04690E+00    1.15196E+03
 7.40820E+00    1.14960E+03
 7.78800E+00    1.14121E+03
 8.18730E+00    1.13007E+03
 8.60710E+00    1.12520E+03
 9.04840E+00    1.12065E+03
 9.51230E+00    1.11380E+03
 1.00000E+01    1.10626E+03
 1.05130E+01    1.09424E+03
 1.10520E+01    1.07391E+03
 1.16180E+01    1.05473E+03
 1.22140E+01    1.03658E+03
 1.28400E+01    1.01524E+03
 1.34990E+01    9.98261E+02
 1.38400E+01    9.82759E+02
 1.41910E+01    9.68293E+02
 1.45500E+01    9.59100E+02
 1.49180E+01    9.53023E+02
 1.56830E+01    9.48520E+02
 1.64870E+01    9.35952E+02
