# n + Be  9 : (n,el)    
# jendl4.0   K.Shibata                         Eval-Feb09
# uncertainties: n
# # energies =    69
#   E(MeV)       xs(mb) 
 1.00000E-10    1.74708E+04
 5.00000E-09    7.39656E+03
 1.00000E-08    6.86590E+03
 1.50000E-08    6.65519E+03
 2.00000E-08    6.54106E+03
 2.50000E-08    6.46937E+03
 3.00000E-08    6.42003E+03
 3.50000E-08    6.37851E+03
 4.20000E-08    6.34147E+03
 5.00000E-08    6.31302E+03
 5.80000E-08    6.29100E+03
 6.70000E-08    6.27032E+03
 8.00000E-08    6.24888E+03
 1.00000E-07    6.22524E+03
 1.40000E-07    6.20636E+03
 1.80000E-07    6.19516E+03
 2.20000E-07    6.18844E+03
 2.50000E-07    6.18433E+03
 2.80000E-07    6.18159E+03
 3.00000E-07    6.17940E+03
 3.20000E-07    6.17720E+03
 3.50000E-07    6.17482E+03
 4.00000E-07    6.17079E+03
 5.00000E-07    6.16713E+03
 6.25000E-07    6.16375E+03
 7.80000E-07    6.16227E+03
 8.50000E-07    6.16149E+03
 9.10000E-07    6.16089E+03
 9.50000E-07    6.16052E+03
 9.72000E-07    6.16025E+03
 9.96000E-07    6.15996E+03
 1.02000E-06    6.15967E+03
 1.04500E-06    6.15936E+03
 1.07100E-06    6.15905E+03
 1.09700E-06    6.15886E+03
 1.12300E-06    6.15886E+03
 1.15000E-06    6.15885E+03
 1.30000E-06    6.15882E+03
 1.50000E-06    6.15877E+03
 2.10000E-06    6.15870E+03
 2.60000E-06    6.15863E+03
 3.30000E-06    6.15854E+03
 4.00000E-06    6.15817E+03
 9.87700E-06    6.15738E+03
 1.59680E-05    6.15628E+03
 2.77000E-05    6.15429E+03
 4.80520E-05    6.15139E+03
 7.55014E-05    6.15008E+03
 1.48728E-04    6.14872E+03
 3.67262E-04    6.14510E+03
 9.06898E-04    6.13950E+03
 1.42510E-03    6.13282E+03
 2.23945E-03    6.12234E+03
 3.51910E-03    6.10585E+03
 5.53000E-03    6.07808E+03
 9.11800E-03    6.03067E+03
 1.50300E-02    5.95252E+03
 2.47800E-02    5.82598E+03
 4.08500E-02    5.63831E+03
 6.73400E-02    5.35673E+03
 1.11000E-01    4.97294E+03
 1.83000E-01    4.41951E+03
 3.02000E-01    3.77105E+03
 5.00000E-01    4.00608E+03
 8.21000E-01    3.11817E+03
 1.35300E+00    1.86131E+03
 2.23100E+00    2.45393E+03
 3.67900E+00    1.31903E+03
 6.06500E+00    1.14854E+03
