# n + Tb158 : (n,n'20)  
# tendl.2019 A.J. Koning and D. Rochman        EVAL-NOV19
# uncertainties: n
# # energies =    81
#   E(MeV)       xs(mb) 
 4.08593E-01    0.00000E+00
 4.10707E-01    7.74818E-01
 4.21978E-01    4.90584E+00
 4.41804E-01    1.21724E+01
 4.47238E-01    1.41641E+01
 4.63844E-01    2.02505E+01
 4.72700E-01    2.34964E+01
 4.87091E-01    2.87709E+01
 4.90412E-01    2.99881E+01
 4.98564E-01    3.29760E+01
 5.00000E-01    3.35023E+01
 5.09131E-01    3.32414E+01
 6.00000E-01    3.06448E+01
 7.00000E-01    2.70040E+01
 8.00000E-01    2.35365E+01
 9.00000E-01    2.02851E+01
 1.00000E+00    1.72372E+01
 1.20000E+00    1.24024E+01
 1.40000E+00    8.90749E+00
 1.60000E+00    6.41463E+00
 1.80000E+00    4.63585E+00
 2.00000E+00    3.35940E+00
 2.20000E+00    2.43894E+00
 2.40000E+00    1.77272E+00
 2.60000E+00    1.28661E+00
 2.80000E+00    9.30044E-01
 3.00000E+00    6.68631E-01
 3.20000E+00    4.77405E-01
 3.40000E+00    3.38213E-01
 3.60000E+00    2.37921E-01
 3.80000E+00    1.66716E-01
 4.00000E+00    1.16639E-01
 4.20000E+00    8.15964E-02
 4.40000E+00    5.72310E-02
 4.60000E+00    4.03218E-02
 4.80000E+00    2.85296E-02
 5.00000E+00    2.03228E-02
 5.20000E+00    1.45466E-02
 5.40000E+00    1.04598E-02
 5.60000E+00    7.56179E-03
 5.80000E+00    5.48607E-03
 6.00000E+00    3.98055E-03
 6.20000E+00    2.90325E-03
 6.40000E+00    2.12474E-03
 6.60000E+00    1.55964E-03
 6.80000E+00    1.14753E-03
 7.00000E+00    8.48314E-04
 7.20000E+00    6.28192E-04
 7.40000E+00    4.66436E-04
 7.60000E+00    3.47295E-04
 7.80000E+00    2.58982E-04
 8.00000E+00    1.93917E-04
 8.50000E+00    9.49357E-05
 9.00000E+00    4.72052E-05
 9.50000E+00    2.38684E-05
 1.00000E+01    1.22782E-05
 1.05000E+01    6.42613E-06
 1.10000E+01    3.41826E-06
 1.15000E+01    1.84571E-06
 1.20000E+01    1.01007E-06
 1.25000E+01    5.59120E-07
 1.30000E+01    3.12640E-07
 1.35000E+01    1.76360E-07
 1.40000E+01    1.00290E-07
 1.45000E+01    5.74320E-08
 1.50000E+01    3.31310E-08
 1.60000E+01    1.12630E-08
 1.70000E+01    3.93020E-09
 1.80000E+01    1.40850E-09
 1.90000E+01    5.15400E-10
 2.00000E+01    1.95070E-10
 2.10000E+01    7.57690E-11
 2.20000E+01    3.01810E-11
 2.30000E+01    1.22450E-11
 2.40000E+01    5.05890E-12
 2.50000E+01    2.12500E-12
 2.60000E+01    9.07770E-13
 2.70000E+01    3.94080E-13
 2.80000E+01    1.73940E-13
 2.90000E+01    7.80120E-14
 3.00000E+01    3.55380E-14
