# n + Tb158 : (n,n'25)  
# tendl.2019 A.J. Koning and D. Rochman        EVAL-NOV19
# uncertainties: n
# # energies =    76
#   E(MeV)       xs(mb) 
 4.63844E-01    0.00000E+00
 4.72700E-01    2.25065E+00
 4.87091E-01    5.90796E+00
 4.90412E-01    6.75195E+00
 4.98564E-01    8.82369E+00
 5.00000E-01    9.18863E+00
 5.09131E-01    9.49754E+00
 6.00000E-01    1.25717E+01
 7.00000E-01    1.38178E+01
 8.00000E-01    1.37589E+01
 9.00000E-01    1.29227E+01
 1.00000E+00    1.16558E+01
 1.20000E+00    9.05481E+00
 1.40000E+00    6.82301E+00
 1.60000E+00    5.08492E+00
 1.80000E+00    3.77454E+00
 2.00000E+00    2.79643E+00
 2.20000E+00    2.06868E+00
 2.40000E+00    1.52787E+00
 2.60000E+00    1.12408E+00
 2.80000E+00    8.22059E-01
 3.00000E+00    5.97033E-01
 3.20000E+00    4.30188E-01
 3.40000E+00    3.07411E-01
 3.60000E+00    2.18112E-01
 3.80000E+00    1.54186E-01
 4.00000E+00    1.08873E-01
 4.20000E+00    7.69002E-02
 4.40000E+00    5.44847E-02
 4.60000E+00    3.87898E-02
 4.80000E+00    2.77482E-02
 5.00000E+00    1.99798E-02
 5.20000E+00    1.44593E-02
 5.40000E+00    1.05092E-02
 5.60000E+00    7.67559E-03
 5.80000E+00    5.62297E-03
 6.00000E+00    4.11749E-03
 6.20000E+00    3.02804E-03
 6.40000E+00    2.23269E-03
 6.60000E+00    1.65033E-03
 6.80000E+00    1.22158E-03
 7.00000E+00    9.08070E-04
 7.20000E+00    6.75729E-04
 7.40000E+00    5.03931E-04
 7.60000E+00    3.76758E-04
 7.80000E+00    2.82010E-04
 8.00000E+00    2.11910E-04
 8.50000E+00    1.04624E-04
 9.00000E+00    5.24617E-05
 9.50000E+00    2.67606E-05
 1.00000E+01    1.38947E-05
 1.05000E+01    7.34327E-06
 1.10000E+01    3.94513E-06
 1.15000E+01    2.15139E-06
 1.20000E+01    1.18876E-06
 1.25000E+01    6.64130E-07
 1.30000E+01    3.74620E-07
 1.35000E+01    2.13060E-07
 1.40000E+01    1.22090E-07
 1.45000E+01    7.04100E-08
 1.50000E+01    4.08810E-08
 1.60000E+01    1.40580E-08
 1.70000E+01    4.95490E-09
 1.80000E+01    1.79200E-09
 1.90000E+01    6.61490E-10
 2.00000E+01    2.52480E-10
 2.10000E+01    9.88640E-11
 2.20000E+01    3.96770E-11
 2.30000E+01    1.62060E-11
 2.40000E+01    6.73360E-12
 2.50000E+01    2.84210E-12
 2.60000E+01    1.21920E-12
 2.70000E+01    5.31240E-13
 2.80000E+01    2.35310E-13
 2.90000E+01    1.05900E-13
 3.00000E+01    4.84010E-14
