# n + Tb158 : (n,n'18)  
# tendl.2019 A.J. Koning and D. Rochman        EVAL-NOV19
# uncertainties: n
# # energies =    84
#   E(MeV)       xs(mb) 
 3.83534E-01    0.00000E+00
 3.90881E-01    2.03773E+00
 4.00000E-01    4.56693E+00
 4.08593E-01    4.87131E+00
 4.10707E-01    4.94620E+00
 4.21978E-01    5.34544E+00
 4.41804E-01    6.04772E+00
 4.47238E-01    6.24020E+00
 4.63844E-01    6.82842E+00
 4.72700E-01    7.14212E+00
 4.87091E-01    7.65188E+00
 4.90412E-01    7.76951E+00
 4.98564E-01    8.05828E+00
 5.00000E-01    8.10914E+00
 5.09131E-01    8.27310E+00
 6.00000E-01    9.90479E+00
 7.00000E-01    1.03542E+01
 8.00000E-01    9.94482E+00
 9.00000E-01    9.04296E+00
 1.00000E+00    7.90697E+00
 1.20000E+00    5.83087E+00
 1.40000E+00    4.24655E+00
 1.60000E+00    3.10697E+00
 1.80000E+00    2.28811E+00
 2.00000E+00    1.69180E+00
 2.20000E+00    1.25247E+00
 2.40000E+00    9.26395E-01
 2.60000E+00    6.82283E-01
 2.80000E+00    4.98945E-01
 3.00000E+00    3.61838E-01
 3.20000E+00    2.59973E-01
 3.40000E+00    1.84948E-01
 3.60000E+00    1.30427E-01
 3.80000E+00    9.14899E-02
 4.00000E+00    6.40009E-02
 4.20000E+00    4.47232E-02
 4.40000E+00    3.13081E-02
 4.60000E+00    2.20002E-02
 4.80000E+00    1.55146E-02
 5.00000E+00    1.10119E-02
 5.20000E+00    7.85007E-03
 5.40000E+00    5.62042E-03
 5.60000E+00    4.04571E-03
 5.80000E+00    2.92243E-03
 6.00000E+00    2.11137E-03
 6.20000E+00    1.53378E-03
 6.40000E+00    1.11828E-03
 6.60000E+00    8.17929E-04
 6.80000E+00    5.99897E-04
 7.00000E+00    4.42157E-04
 7.20000E+00    3.26566E-04
 7.40000E+00    2.41899E-04
 7.60000E+00    1.79710E-04
 7.80000E+00    1.33741E-04
 8.00000E+00    9.99516E-05
 8.50000E+00    4.87198E-05
 9.00000E+00    2.41233E-05
 9.50000E+00    1.21443E-05
 1.00000E+01    6.21787E-06
 1.05000E+01    3.23782E-06
 1.10000E+01    1.71307E-06
 1.15000E+01    9.19900E-07
 1.20000E+01    5.00690E-07
 1.25000E+01    2.75710E-07
 1.30000E+01    1.53430E-07
 1.35000E+01    8.61750E-08
 1.40000E+01    4.88130E-08
 1.45000E+01    2.78580E-08
 1.50000E+01    1.60210E-08
 1.60000E+01    5.41750E-09
 1.70000E+01    1.88180E-09
 1.80000E+01    6.71610E-10
 1.90000E+01    2.44820E-10
 2.00000E+01    9.23360E-11
 2.10000E+01    3.57520E-11
 2.20000E+01    1.42000E-11
 2.30000E+01    5.74700E-12
 2.40000E+01    2.36880E-12
 2.50000E+01    9.92930E-13
 2.60000E+01    4.23370E-13
 2.70000E+01    1.83470E-13
 2.80000E+01    8.08470E-14
 2.90000E+01    3.62050E-14
 3.00000E+01    1.64690E-14
