# n + Tb158 : (n,n'22)  
# tendl.2019 A.J. Koning and D. Rochman        EVAL-NOV19
# uncertainties: n
# # energies =    79
#   E(MeV)       xs(mb) 
 4.21978E-01    0.00000E+00
 4.41804E-01    1.54707E+00
 4.47238E-01    1.97110E+00
 4.63844E-01    3.26691E+00
 4.72700E-01    3.95796E+00
 4.87091E-01    5.08093E+00
 4.90412E-01    5.34008E+00
 4.98564E-01    5.97620E+00
 5.00000E-01    6.08825E+00
 5.09131E-01    6.27356E+00
 6.00000E-01    8.11768E+00
 7.00000E-01    8.87871E+00
 8.00000E-01    8.81046E+00
 9.00000E-01    8.23054E+00
 1.00000E+00    7.35619E+00
 1.20000E+00    5.58435E+00
 1.40000E+00    4.12797E+00
 1.60000E+00    3.04196E+00
 1.80000E+00    2.24745E+00
 2.00000E+00    1.66393E+00
 2.20000E+00    1.23249E+00
 2.40000E+00    9.11950E-01
 2.60000E+00    6.71975E-01
 2.80000E+00    4.91782E-01
 3.00000E+00    3.57013E-01
 3.20000E+00    2.56806E-01
 3.40000E+00    1.82903E-01
 3.60000E+00    1.29119E-01
 3.80000E+00    9.06512E-02
 4.00000E+00    6.34597E-02
 4.20000E+00    4.43703E-02
 4.40000E+00    3.10748E-02
 4.60000E+00    2.18428E-02
 4.80000E+00    1.54084E-02
 5.00000E+00    1.09381E-02
 5.20000E+00    7.79899E-03
 5.40000E+00    5.58489E-03
 5.60000E+00    4.02056E-03
 5.80000E+00    2.90466E-03
 6.00000E+00    2.09900E-03
 6.20000E+00    1.52505E-03
 6.40000E+00    1.11208E-03
 6.60000E+00    8.13680E-04
 6.80000E+00    5.96905E-04
 7.00000E+00    4.40097E-04
 7.20000E+00    3.25126E-04
 7.40000E+00    2.40887E-04
 7.60000E+00    1.79011E-04
 7.80000E+00    1.33251E-04
 8.00000E+00    9.96071E-05
 8.50000E+00    4.85735E-05
 9.00000E+00    2.40587E-05
 9.50000E+00    1.21144E-05
 1.00000E+01    6.20342E-06
 1.05000E+01    3.23056E-06
 1.10000E+01    1.70932E-06
 1.15000E+01    9.17930E-07
 1.20000E+01    4.99650E-07
 1.25000E+01    2.75160E-07
 1.30000E+01    1.53140E-07
 1.35000E+01    8.60210E-08
 1.40000E+01    4.87320E-08
 1.45000E+01    2.78150E-08
 1.50000E+01    1.59980E-08
 1.60000E+01    5.41060E-09
 1.70000E+01    1.87960E-09
 1.80000E+01    6.70860E-10
 1.90000E+01    2.44550E-10
 2.00000E+01    9.22360E-11
 2.10000E+01    3.57140E-11
 2.20000E+01    1.41860E-11
 2.30000E+01    5.74160E-12
 2.40000E+01    2.36680E-12
 2.50000E+01    9.92150E-13
 2.60000E+01    4.23060E-13
 2.70000E+01    1.83340E-13
 2.80000E+01    8.07930E-14
 2.90000E+01    3.61820E-14
 3.00000E+01    1.64590E-14
