# n + Tb158 : (n,n'26)  
# tendl.2019 A.J. Koning and D. Rochman        EVAL-NOV19
# uncertainties: n
# # energies =    75
#   E(MeV)       xs(mb) 
 4.72700E-01    0.00000E+00
 4.87091E-01    5.57738E+01
 4.90412E-01    6.86447E+01
 4.98564E-01    1.00239E+02
 5.00000E-01    1.05804E+02
 5.09131E-01    1.04764E+02
 6.00000E-01    9.44183E+01
 7.00000E-01    8.10255E+01
 8.00000E-01    7.24007E+01
 9.00000E-01    6.53548E+01
 1.00000E+00    5.76311E+01
 1.20000E+00    4.18417E+01
 1.40000E+00    2.83004E+01
 1.60000E+00    1.85441E+01
 1.80000E+00    1.20651E+01
 2.00000E+00    7.89123E+00
 2.20000E+00    5.21572E+00
 2.40000E+00    3.48749E+00
 2.60000E+00    2.35161E+00
 2.80000E+00    1.59249E+00
 3.00000E+00    1.07970E+00
 3.20000E+00    7.30783E-01
 3.40000E+00    4.92861E-01
 3.60000E+00    3.31319E-01
 3.80000E+00    2.22657E-01
 4.00000E+00    1.49936E-01
 4.20000E+00    1.01314E-01
 4.40000E+00    6.88846E-02
 4.60000E+00    4.72131E-02
 4.80000E+00    3.26242E-02
 5.00000E+00    2.27766E-02
 5.20000E+00    1.60432E-02
 5.40000E+00    1.13965E-02
 5.60000E+00    8.16983E-03
 5.80000E+00    5.89917E-03
 6.00000E+00    4.27474E-03
 6.20000E+00    3.12229E-03
 6.40000E+00    2.29351E-03
 6.60000E+00    1.69320E-03
 6.80000E+00    1.25397E-03
 7.00000E+00    9.33881E-04
 7.20000E+00    6.96706E-04
 7.40000E+00    5.21046E-04
 7.60000E+00    3.90654E-04
 7.80000E+00    2.93134E-04
 8.00000E+00    2.20715E-04
 8.50000E+00    1.09234E-04
 9.00000E+00    5.46895E-05
 9.50000E+00    2.77609E-05
 1.00000E+01    1.43088E-05
 1.05000E+01    7.49556E-06
 1.10000E+01    3.98840E-06
 1.15000E+01    2.15358E-06
 1.20000E+01    1.17832E-06
 1.25000E+01    6.52000E-07
 1.30000E+01    3.64400E-07
 1.35000E+01    2.05470E-07
 1.40000E+01    1.16810E-07
 1.45000E+01    6.69030E-08
 1.50000E+01    3.86130E-08
 1.60000E+01    1.31550E-08
 1.70000E+01    4.60550E-09
 1.80000E+01    1.65660E-09
 1.90000E+01    6.08280E-10
 2.00000E+01    2.30900E-10
 2.10000E+01    8.99040E-11
 2.20000E+01    3.58970E-11
 2.30000E+01    1.46020E-11
 2.40000E+01    6.04890E-12
 2.50000E+01    2.54710E-12
 2.60000E+01    1.09020E-12
 2.70000E+01    4.73930E-13
 2.80000E+01    2.09390E-13
 2.90000E+01    9.40040E-14
 3.00000E+01    4.28680E-14
