# n + Tb158 : (n,n'23)  
# tendl.2019 A.J. Koning and D. Rochman        EVAL-NOV19
# uncertainties: n
# # energies =    78
#   E(MeV)       xs(mb) 
 4.41804E-01    0.00000E+00
 4.47238E-01    8.43060E+00
 4.63844E-01    3.41940E+01
 4.72700E-01    4.79337E+01
 4.87091E-01    7.02606E+01
 4.90412E-01    7.54130E+01
 4.98564E-01    8.80604E+01
 5.00000E-01    9.02883E+01
 5.09131E-01    8.89480E+01
 6.00000E-01    7.56094E+01
 7.00000E-01    6.43661E+01
 8.00000E-01    5.83581E+01
 9.00000E-01    5.31676E+01
 1.00000E+00    4.68921E+01
 1.20000E+00    3.36549E+01
 1.40000E+00    2.25140E+01
 1.60000E+00    1.46740E+01
 1.80000E+00    9.54026E+00
 2.00000E+00    6.25245E+00
 2.20000E+00    4.14683E+00
 2.40000E+00    2.78394E+00
 2.60000E+00    1.88473E+00
 2.80000E+00    1.28087E+00
 3.00000E+00    8.70894E-01
 3.20000E+00    5.90685E-01
 3.40000E+00    3.98870E-01
 3.60000E+00    2.68246E-01
 3.80000E+00    1.80190E-01
 4.00000E+00    1.21185E-01
 4.20000E+00    8.17182E-02
 4.40000E+00    5.54034E-02
 4.60000E+00    3.78364E-02
 4.80000E+00    2.60274E-02
 5.00000E+00    1.80805E-02
 5.20000E+00    1.26621E-02
 5.40000E+00    8.93851E-03
 5.60000E+00    6.36594E-03
 5.80000E+00    4.56558E-03
 6.00000E+00    3.28577E-03
 6.20000E+00    2.38403E-03
 6.40000E+00    1.74013E-03
 6.60000E+00    1.27679E-03
 6.80000E+00    9.40346E-04
 7.00000E+00    6.96699E-04
 7.20000E+00    5.17294E-04
 7.40000E+00    3.85221E-04
 7.60000E+00    2.87671E-04
 7.80000E+00    2.15080E-04
 8.00000E+00    1.61402E-04
 8.50000E+00    7.92722E-05
 9.00000E+00    3.94110E-05
 9.50000E+00    1.98674E-05
 1.00000E+01    1.01679E-05
 1.05000E+01    5.28747E-06
 1.10000E+01    2.79248E-06
 1.15000E+01    1.49660E-06
 1.20000E+01    8.12910E-07
 1.25000E+01    4.46700E-07
 1.30000E+01    2.48050E-07
 1.35000E+01    1.39030E-07
 1.40000E+01    7.86120E-08
 1.45000E+01    4.47990E-08
 1.50000E+01    2.57380E-08
 1.60000E+01    8.69790E-09
 1.70000E+01    3.02340E-09
 1.80000E+01    1.08030E-09
 1.90000E+01    3.94180E-10
 2.00000E+01    1.48710E-10
 2.10000E+01    5.75690E-11
 2.20000E+01    2.28630E-11
 2.30000E+01    9.25680E-12
 2.40000E+01    3.81910E-12
 2.50000E+01    1.60260E-12
 2.60000E+01    6.83830E-13
 2.70000E+01    2.96440E-13
 2.80000E+01    1.30620E-13
 2.90000E+01    5.84880E-14
 3.00000E+01    2.66060E-14
