# n + Sm151 : (n,t)     
# jendl4.0   N.Iwamoto,A.Zukeran,K.Shibata     EVAL-Nov09
# uncertainties: n
# # energies =    64
#   E(MeV)       xs(mb) 
 5.42575E+00    0.00000E+00
 5.54082E+00    7.60810E-27
 5.61564E+00    8.18960E-22
 5.63847E+00    1.09210E-21
 5.66757E+00    1.46010E-21
 5.69772E+00    1.84880E-21
 5.71588E+00    2.08510E-21
 5.78820E+00    3.03030E-21
 5.81590E+00    3.39250E-21
 5.82517E+00    3.51370E-21
 5.84397E+00    3.75960E-21
 5.85386E+00    3.88890E-21
 5.89103E+00    4.37510E-21
 5.92666E+00    4.84110E-21
 5.93924E+00    5.00560E-21
 5.94484E+00    5.07880E-21
 5.96720E+00    5.37130E-21
 5.97654E+00    5.49340E-21
 5.98144E+00    5.55750E-21
 5.98778E+00    5.64040E-21
 6.06650E+00    6.67000E-21
 6.08112E+00    6.87400E-21
 6.08497E+00    6.93330E-21
 6.09675E+00    7.13150E-21
 6.14726E+00    8.03240E-21
 6.15157E+00    8.11000E-21
 6.17530E+00    8.54170E-21
 6.18114E+00    8.64850E-21
 6.18227E+00    8.66930E-21
 6.18947E+00    8.80180E-21
 6.19907E+00    8.97920E-21
 6.20225E+00    9.03800E-21
 6.20983E+00    9.17860E-21
 6.21772E+00    9.32510E-21
 6.22204E+00    9.40540E-21
 6.23979E+00    9.73550E-21
 6.50000E+00    1.45790E-20
 7.00000E+00    3.66990E-19
 7.50000E+00    2.80420E-15
 8.00000E+00    9.18820E-13
 8.50000E+00    5.07430E-11
 9.00000E+00    1.00050E-09
 9.50000E+00    1.45650E-08
 1.00000E+01    2.14640E-07
 1.05000E+01    2.38003E-06
 1.10000E+01    1.79456E-05
 1.15000E+01    9.72230E-05
 1.20000E+01    4.05115E-04
 1.25000E+01    1.36819E-03
 1.30000E+01    3.83015E-03
 1.35000E+01    9.39710E-03
 1.40000E+01    2.01929E-02
 1.45000E+01    3.86096E-02
 1.50000E+01    6.67480E-02
 1.55000E+01    1.05867E-01
 1.60000E+01    1.57274E-01
 1.65000E+01    2.18626E-01
 1.70000E+01    2.91290E-01
 1.75000E+01    3.74193E-01
 1.80000E+01    4.66012E-01
 1.85000E+01    5.62518E-01
 1.90000E+01    6.66498E-01
 1.95000E+01    7.70012E-01
 2.00000E+01    8.72221E-01
