# n + Sm151 : (n,n'07)  
# jendl4.0   N.Iwamoto,A.Zukeran,K.Shibata     EVAL-Nov09
# uncertainties: n
# # energies =    97
#   E(MeV)       xs(mb) 
 1.68871E-01    0.00000E+00
 1.69528E-01    5.63138E+01
 1.70000E-01    6.99096E+01
 1.76552E-01    1.37308E+02
 1.80000E-01    1.53602E+02
 1.90000E-01    1.83599E+02
 2.00000E-01    2.02445E+02
 2.10388E-01    2.16716E+02
 2.21470E-01    2.25349E+02
 2.25000E-01    2.15986E+02
 2.50000E-01    2.18845E+02
 2.62875E-01    2.22727E+02
 2.75000E-01    2.25744E+02
 2.86854E-01    2.27908E+02
 2.96790E-01    2.27561E+02
 3.00000E-01    2.27460E+02
 3.04642E-01    2.27618E+02
 3.08840E-01    2.25965E+02
 3.15948E-01    2.21757E+02
 3.17387E-01    2.20682E+02
 3.26109E-01    2.16895E+02
 3.47214E-01    2.05419E+02
 3.58027E-01    1.99801E+02
 3.60393E-01    1.98978E+02
 3.85761E-01    1.89109E+02
 3.98225E-01    1.86360E+02
 4.00000E-01    1.84047E+02
 4.08210E-01    1.80900E+02
 4.18418E-01    1.78489E+02
 4.21901E-01    1.76650E+02
 4.26008E-01    1.75262E+02
 4.40424E-01    1.71506E+02
 4.48176E-01    1.67124E+02
 4.48659E-01    1.66962E+02
 4.51578E-01    1.64433E+02
 4.73554E-01    1.56425E+02
 4.93617E-01    1.50371E+02
 5.00000E-01    1.48136E+02
 5.05627E-01    1.46833E+02
 5.05687E-01    1.46819E+02
 5.08677E-01    1.46117E+02
 5.24633E-01    1.41200E+02
 5.33744E-01    1.38737E+02
 5.35364E-01    1.38268E+02
 6.00000E-01    1.27128E+02
 7.00000E-01    1.09949E+02
 8.00000E-01    9.26634E+01
 9.00000E-01    7.57266E+01
 1.00000E+00    6.23252E+01
 1.10000E+00    5.18592E+01
 1.20000E+00    4.33298E+01
 1.30000E+00    3.59929E+01
 1.40000E+00    2.99960E+01
 1.50000E+00    2.50841E+01
 1.60000E+00    2.10399E+01
 1.70000E+00    1.76904E+01
 1.80000E+00    1.49125E+01
 1.90000E+00    1.26001E+01
 2.00000E+00    1.06680E+01
 2.25000E+00    7.00211E+00
 2.50000E+00    4.74167E+00
 2.75000E+00    3.20382E+00
 3.00000E+00    2.13580E+00
 3.50000E+00    9.72017E-01
 4.00000E+00    4.45799E-01
 4.50000E+00    2.09734E-01
 5.00000E+00    1.04955E-01
 5.50000E+00    5.84592E-02
 6.00000E+00    3.75985E-02
 6.50000E+00    2.78578E-02
 7.00000E+00    2.29421E-02
 7.50000E+00    2.00960E-02
 8.00000E+00    1.81412E-02
 8.50000E+00    1.66051E-02
 9.00000E+00    1.53087E-02
 9.50000E+00    1.41862E-02
 1.00000E+01    1.32050E-02
 1.05000E+01    1.23476E-02
 1.10000E+01    1.15917E-02
 1.15000E+01    1.09200E-02
 1.20000E+01    1.03157E-02
 1.25000E+01    9.76520E-03
 1.30000E+01    9.25866E-03
 1.35000E+01    8.78959E-03
 1.40000E+01    8.35343E-03
 1.45000E+01    7.94475E-03
 1.50000E+01    7.55850E-03
 1.55000E+01    7.20324E-03
 1.60000E+01    6.86955E-03
 1.65000E+01    6.55575E-03
 1.70000E+01    6.26058E-03
 1.75000E+01    5.98306E-03
 1.80000E+01    5.72246E-03
 1.85000E+01    5.47798E-03
 1.90000E+01    5.24895E-03
 1.95000E+01    5.03471E-03
 2.00000E+01    4.83463E-03
