# n + Sm151 : (n,n'24)  
# jendl4.0   N.Iwamoto,A.Zukeran,K.Shibata     EVAL-Nov09
# uncertainties: n
# # energies =    72
#   E(MeV)       xs(mb) 
 3.98225E-01    0.00000E+00
 4.00000E-01    1.68784E+01
 4.08210E-01    3.48538E+01
 4.18418E-01    4.54550E+01
 4.21901E-01    4.81320E+01
 4.26008E-01    5.09064E+01
 4.40424E-01    5.87264E+01
 4.48176E-01    6.04098E+01
 4.48659E-01    6.05635E+01
 4.51578E-01    6.05369E+01
 4.73554E-01    6.52476E+01
 4.93617E-01    6.83253E+01
 5.00000E-01    6.90719E+01
 5.05627E-01    6.97022E+01
 5.05687E-01    6.97091E+01
 5.08677E-01    7.00438E+01
 5.24633E-01    7.05009E+01
 5.33744E-01    7.08450E+01
 5.35364E-01    7.09420E+01
 6.00000E-01    7.41622E+01
 7.00000E-01    7.25202E+01
 8.00000E-01    6.57771E+01
 9.00000E-01    5.70186E+01
 1.00000E+00    4.94456E+01
 1.10000E+00    4.20831E+01
 1.20000E+00    3.56764E+01
 1.30000E+00    3.03818E+01
 1.40000E+00    2.60148E+01
 1.50000E+00    2.20425E+01
 1.60000E+00    1.86849E+01
 1.70000E+00    1.58458E+01
 1.80000E+00    1.34523E+01
 1.90000E+00    1.14337E+01
 2.00000E+00    9.72906E+00
 2.25000E+00    6.44728E+00
 2.50000E+00    4.40028E+00
 2.75000E+00    2.99161E+00
 3.00000E+00    2.05564E+00
 3.50000E+00    9.70072E-01
 4.00000E+00    4.72073E-01
 4.50000E+00    2.44748E-01
 5.00000E+00    1.41528E-01
 5.50000E+00    9.41057E-02
 6.00000E+00    7.16197E-02
 6.50000E+00    6.00712E-02
 7.00000E+00    5.32973E-02
 7.50000E+00    4.85630E-02
 8.00000E+00    4.47266E-02
 8.50000E+00    4.13639E-02
 9.00000E+00    3.83440E-02
 9.50000E+00    3.56389E-02
 1.00000E+01    3.32293E-02
 1.05000E+01    3.11015E-02
 1.10000E+01    2.92177E-02
 1.15000E+01    2.75410E-02
 1.20000E+01    2.60326E-02
 1.25000E+01    2.46589E-02
 1.30000E+01    2.33949E-02
 1.35000E+01    2.22237E-02
 1.40000E+01    2.11336E-02
 1.45000E+01    2.01110E-02
 1.50000E+01    1.91437E-02
 1.55000E+01    1.82525E-02
 1.60000E+01    1.74153E-02
 1.65000E+01    1.66276E-02
 1.70000E+01    1.58862E-02
 1.75000E+01    1.51885E-02
 1.80000E+01    1.45329E-02
 1.85000E+01    1.39173E-02
 1.90000E+01    1.33401E-02
 1.95000E+01    1.27998E-02
 2.00000E+01    1.22930E-02
