# n + Sm151 : (n,n'11)  
# jendl4.0   N.Iwamoto,A.Zukeran,K.Shibata     EVAL-Nov09
# uncertainties: n
# # energies =    89
#   E(MeV)       xs(mb) 
 2.21470E-01    0.00000E+00
 2.25000E-01    6.57515E+01
 2.50000E-01    1.31641E+02
 2.62875E-01    1.46383E+02
 2.75000E-01    1.56733E+02
 2.86854E-01    1.65282E+02
 2.96790E-01    1.69583E+02
 3.00000E-01    1.70826E+02
 3.04642E-01    1.72693E+02
 3.08840E-01    1.73210E+02
 3.15948E-01    1.72116E+02
 3.17387E-01    1.71828E+02
 3.26109E-01    1.71164E+02
 3.47214E-01    1.66515E+02
 3.58027E-01    1.63923E+02
 3.60393E-01    1.63715E+02
 3.85761E-01    1.59504E+02
 3.98225E-01    1.57974E+02
 4.00000E-01    1.55980E+02
 4.08210E-01    1.53637E+02
 4.18418E-01    1.52063E+02
 4.21901E-01    1.50825E+02
 4.26008E-01    1.50109E+02
 4.40424E-01    1.48426E+02
 4.48176E-01    1.45267E+02
 4.48659E-01    1.45171E+02
 4.51578E-01    1.43155E+02
 4.73554E-01    1.37992E+02
 4.93617E-01    1.33099E+02
 5.00000E-01    1.31265E+02
 5.05627E-01    1.30227E+02
 5.05687E-01    1.30216E+02
 5.08677E-01    1.29668E+02
 5.24633E-01    1.25545E+02
 5.33744E-01    1.23504E+02
 5.35364E-01    1.23136E+02
 6.00000E-01    1.15640E+02
 7.00000E-01    1.01574E+02
 8.00000E-01    8.60994E+01
 9.00000E-01    7.19679E+01
 1.00000E+00    5.94036E+01
 1.10000E+00    4.95387E+01
 1.20000E+00    4.16737E+01
 1.30000E+00    3.48296E+01
 1.40000E+00    2.91151E+01
 1.50000E+00    2.44071E+01
 1.60000E+00    2.05126E+01
 1.70000E+00    1.72753E+01
 1.80000E+00    1.45825E+01
 1.90000E+00    1.23355E+01
 2.00000E+00    1.04544E+01
 2.25000E+00    6.87528E+00
 2.50000E+00    4.66364E+00
 2.75000E+00    3.15534E+00
 3.00000E+00    2.18503E+00
 3.50000E+00    1.03616E+00
 4.00000E+00    5.12632E-01
 4.50000E+00    2.74423E-01
 5.00000E+00    1.66029E-01
 5.50000E+00    1.15749E-01
 6.00000E+00    9.13603E-02
 6.50000E+00    7.83079E-02
 7.00000E+00    7.01890E-02
 7.50000E+00    6.41869E-02
 8.00000E+00    5.91535E-02
 8.50000E+00    5.46812E-02
 9.00000E+00    5.06546E-02
 9.50000E+00    4.70538E-02
 1.00000E+01    4.38546E-02
 1.05000E+01    4.10371E-02
 1.10000E+01    3.85427E-02
 1.15000E+01    3.63213E-02
 1.20000E+01    3.43209E-02
 1.25000E+01    3.24908E-02
 1.30000E+01    3.08061E-02
 1.35000E+01    2.92459E-02
 1.40000E+01    2.77951E-02
 1.45000E+01    2.64356E-02
 1.50000E+01    2.51508E-02
 1.55000E+01    2.39766E-02
 1.60000E+01    2.28734E-02
 1.65000E+01    2.18350E-02
 1.70000E+01    2.08510E-02
 1.75000E+01    1.99259E-02
 1.80000E+01    1.90571E-02
 1.85000E+01    1.82420E-02
 1.90000E+01    1.74783E-02
 1.95000E+01    1.67639E-02
 2.00000E+01    1.60966E-02
