# n + Sm151 : (n,n'13)  
# jendl4.0   N.Iwamoto,A.Zukeran,K.Shibata     EVAL-Nov09
# uncertainties: n
# # energies =    84
#   E(MeV)       xs(mb) 
 2.86854E-01    0.00000E+00
 2.96790E-01    5.13637E+01
 3.00000E-01    5.68351E+01
 3.04642E-01    6.32104E+01
 3.08840E-01    6.79031E+01
 3.15948E-01    7.39247E+01
 3.17387E-01    7.34193E+01
 3.26109E-01    7.41137E+01
 3.47214E-01    8.00270E+01
 3.58027E-01    8.16167E+01
 3.60393E-01    8.18248E+01
 3.85761E-01    8.25621E+01
 3.98225E-01    8.32930E+01
 4.00000E-01    8.31252E+01
 4.08210E-01    8.34247E+01
 4.18418E-01    8.33939E+01
 4.21901E-01    8.34761E+01
 4.26008E-01    8.36527E+01
 4.40424E-01    8.43709E+01
 4.48176E-01    8.41212E+01
 4.48659E-01    8.41138E+01
 4.51578E-01    8.37559E+01
 4.73554E-01    8.11888E+01
 4.93617E-01    8.06182E+01
 5.00000E-01    8.04218E+01
 5.05627E-01    8.03521E+01
 5.05687E-01    8.03516E+01
 5.08677E-01    8.01990E+01
 5.24633E-01    7.95327E+01
 5.33744E-01    7.90216E+01
 5.35364E-01    7.89771E+01
 6.00000E-01    7.71057E+01
 7.00000E-01    7.35078E+01
 8.00000E-01    6.60061E+01
 9.00000E-01    5.93677E+01
 1.00000E+00    5.14839E+01
 1.10000E+00    4.43250E+01
 1.20000E+00    3.82453E+01
 1.30000E+00    3.29141E+01
 1.40000E+00    2.78388E+01
 1.50000E+00    2.34767E+01
 1.60000E+00    1.97571E+01
 1.70000E+00    1.66050E+01
 1.80000E+00    1.39543E+01
 1.90000E+00    1.17319E+01
 2.00000E+00    9.87134E+00
 2.25000E+00    6.36163E+00
 2.50000E+00    4.23216E+00
 2.75000E+00    2.81391E+00
 3.00000E+00    1.91302E+00
 3.50000E+00    8.84450E-01
 4.00000E+00    4.28400E-01
 4.50000E+00    2.25481E-01
 5.00000E+00    1.35165E-01
 5.50000E+00    9.42817E-02
 6.00000E+00    7.48182E-02
 6.50000E+00    6.44964E-02
 7.00000E+00    5.80429E-02
 7.50000E+00    5.32136E-02
 8.00000E+00    4.91162E-02
 8.50000E+00    4.54460E-02
 9.00000E+00    4.21239E-02
 9.50000E+00    3.91428E-02
 1.00000E+01    3.64882E-02
 1.05000E+01    3.41469E-02
 1.10000E+01    3.20731E-02
 1.15000E+01    3.02263E-02
 1.20000E+01    2.85639E-02
 1.25000E+01    2.70490E-02
 1.30000E+01    2.56549E-02
 1.35000E+01    2.43633E-02
 1.40000E+01    2.31615E-02
 1.45000E+01    2.20349E-02
 1.50000E+01    2.09695E-02
 1.55000E+01    1.99886E-02
 1.60000E+01    1.90671E-02
 1.65000E+01    1.82004E-02
 1.70000E+01    1.73849E-02
 1.75000E+01    1.66178E-02
 1.80000E+01    1.58972E-02
 1.85000E+01    1.52209E-02
 1.90000E+01    1.45871E-02
 1.95000E+01    1.39940E-02
 2.00000E+01    1.34399E-02
