# n + Sm151 : (n,tot)   
# jendl4.0   N.Iwamoto,A.Zukeran,K.Shibata     EVAL-Nov09
# uncertainties: n
# # energies =   171
#   E(MeV)       xs(mb) 
 1.00000E-11    2.25071E+08
 1.00000E-07    1.62016E+06
 4.13990E-07    9.18892E+05
 5.31580E-07    4.23684E+05
 6.82560E-07    4.89785E+05
 8.76420E-07    3.37671E+06
 1.12540E-06    1.53889E+06
 1.44500E-06    1.10889E+06
 1.85540E-06    1.19674E+06
 2.37240E-06    6.19665E+04
 3.05900E-06    5.94880E+04
 3.92790E-06    4.80129E+05
 5.04350E-06    8.81119E+05
 6.47600E-06    2.51741E+05
 8.31530E-06    9.07672E+05
 1.06770E-05    3.98645E+05
 1.37100E-05    7.64857E+05
 1.76030E-05    4.41867E+05
 2.26030E-05    1.40547E+05
 2.92030E-05    1.54854E+05
 3.72670E-05    2.06005E+05
 4.78510E-05    2.09693E+05
 6.14420E-05    1.41862E+05
 7.88930E-05    1.70639E+05
 1.01300E-04    6.40858E+04
 1.30070E-04    1.52246E+05
 1.67020E-04    1.17571E+05
 2.14450E-04    1.32567E+05
 2.75360E-04    1.24658E+05
 3.53580E-04    1.10476E+05
 4.54000E-04    9.80719E+04
 5.82950E-04    8.70897E+04
 7.48520E-04    7.73973E+04
 9.61120E-04    6.88922E+04
 1.23410E-03    6.14682E+04
 1.58460E-03    5.48468E+04
 2.03470E-03    5.06165E+04
 2.24870E-03    4.83620E+04
 2.48520E-03    4.67331E+04
 2.61260E-03    4.56797E+04
 2.74650E-03    4.41465E+04
 3.03540E-03    4.21799E+04
 3.35460E-03    4.02995E+04
 3.70740E-03    3.80844E+04
 4.30740E-03    3.48980E+04
 5.53080E-03    3.13080E+04
 7.10170E-03    2.81211E+04
 9.11880E-03    2.53022E+04
 1.17090E-02    2.28356E+04
 1.50340E-02    2.06156E+04
 1.93050E-02    1.90954E+04
 2.18750E-02    1.83536E+04
 2.35790E-02    1.79940E+04
 2.41760E-02    1.78171E+04
 2.47880E-02    1.75554E+04
 2.60580E-02    1.72620E+04
 2.70000E-02    1.69590E+04
 2.85000E-02    1.64201E+04
 3.18280E-02    1.58382E+04
 3.43070E-02    1.50923E+04
 4.08680E-02    1.42545E+04
 4.63090E-02    1.36033E+04
 5.24750E-02    1.31033E+04
 5.65620E-02    1.25108E+04
 6.73790E-02    1.19733E+04
 7.20000E-02    1.16259E+04
 7.95000E-02    1.13465E+04
 8.25000E-02    1.11768E+04
 8.65170E-02    1.08389E+04
 9.80370E-02    1.03872E+04
 1.11090E-01    1.00922E+04
 1.16790E-01    9.93349E+03
 1.22770E-01    9.77319E+03
 1.29070E-01    9.61162E+03
 1.35690E-01    9.46167E+03
 1.42640E-01    9.30521E+03
 1.49960E-01    9.15778E+03
 1.57640E-01    9.01963E+03
 1.65730E-01    8.90371E+03
 1.74220E-01    8.78851E+03
 1.83160E-01    8.66910E+03
 1.92550E-01    8.56019E+03
 2.02420E-01    8.44982E+03
 2.12800E-01    8.33478E+03
 2.23710E-01    8.22808E+03
 2.35180E-01    8.12060E+03
 2.47240E-01    7.99515E+03
 2.73240E-01    7.90314E+03
 2.87250E-01    7.85477E+03
 2.94520E-01    7.83218E+03
 2.97200E-01    7.82317E+03
 2.98500E-01    7.81294E+03
 3.01970E-01    7.75140E+03
 3.33730E-01    7.63359E+03
 3.68830E-01    7.54155E+03
 3.87740E-01    7.48948E+03
 4.07620E-01    7.46394E+03
 4.50490E-01    7.43971E+03
 4.97870E-01    7.41996E+03
 5.23400E-01    7.40590E+03
 5.50230E-01    7.39111E+03
 5.78440E-01    7.37559E+03
 6.08100E-01    7.36753E+03
 6.39280E-01    7.36566E+03
 6.72060E-01    7.36370E+03
 7.06510E-01    7.36163E+03
 7.42740E-01    7.35946E+03
 7.80820E-01    7.35718E+03
 8.20850E-01    7.35501E+03
 8.62940E-01    7.35320E+03
 9.07180E-01    7.35115E+03
 9.61640E-01    7.34916E+03
 1.00260E+00    7.33960E+03
 1.10800E+00    7.31465E+03
 1.16480E+00    7.29565E+03
 1.22460E+00    7.27567E+03
 1.28730E+00    7.24724E+03
 1.35340E+00    7.21117E+03
 1.42270E+00    7.17325E+03
 1.49570E+00    7.13337E+03
 1.57240E+00    7.08820E+03
 1.65300E+00    7.03226E+03
 1.73770E+00    6.97301E+03
 1.82680E+00    6.91069E+03
 1.92050E+00    6.84517E+03
 2.01900E+00    6.77384E+03
 2.12250E+00    6.69535E+03
 2.23130E+00    6.62695E+03
 2.30690E+00    6.58452E+03
 2.34570E+00    6.56288E+03
 2.36530E+00    6.54827E+03
 2.38520E+00    6.51118E+03
 2.46600E+00    6.43475E+03
 2.59240E+00    6.33885E+03
 2.72530E+00    6.23803E+03
 2.86500E+00    6.13203E+03
 3.01190E+00    6.02056E+03
 3.16640E+00    5.90357E+03
 3.32870E+00    5.73362E+03
 3.67880E+00    5.49982E+03
 4.06570E+00    5.27309E+03
 4.49330E+00    5.11238E+03
 4.72370E+00    5.01734E+03
 4.96590E+00    4.92846E+03
 5.22050E+00    4.85678E+03
 5.48810E+00    4.79255E+03
 5.76950E+00    4.74532E+03
 6.06530E+00    4.71324E+03
 6.37630E+00    4.69521E+03
 6.59240E+00    4.68941E+03
 6.70320E+00    4.68689E+03
 7.04690E+00    4.69488E+03
 7.40820E+00    4.71091E+03
 7.78800E+00    4.73631E+03
 8.18730E+00    4.76785E+03
 8.60710E+00    4.80452E+03
 9.04840E+00    4.84973E+03
 9.51230E+00    4.89741E+03
 1.00000E+01    4.94932E+03
 1.05130E+01    5.00489E+03
 1.10520E+01    5.06088E+03
 1.16180E+01    5.11450E+03
 1.22140E+01    5.16255E+03
 1.28400E+01    5.20187E+03
 1.34990E+01    5.22396E+03
 1.38400E+01    5.23446E+03
 1.41910E+01    5.24094E+03
 1.45500E+01    5.24341E+03
 1.49180E+01    5.23912E+03
 1.56830E+01    5.21816E+03
 1.64870E+01    5.17913E+03
