# n + Sm151 : (n,n'17)  
# jendl4.0   N.Iwamoto,A.Zukeran,K.Shibata     EVAL-Nov09
# uncertainties: n
# # energies =    79
#   E(MeV)       xs(mb) 
 3.15948E-01    0.00000E+00
 3.17387E-01    1.93769E+01
 3.26109E-01    4.12463E+01
 3.47214E-01    5.92830E+01
 3.58027E-01    6.40967E+01
 3.60393E-01    6.48651E+01
 3.85761E-01    6.94074E+01
 3.98225E-01    7.13978E+01
 4.00000E-01    7.14794E+01
 4.08210E-01    7.25556E+01
 4.18418E-01    7.32838E+01
 4.21901E-01    7.35101E+01
 4.26008E-01    7.38205E+01
 4.40424E-01    7.49147E+01
 4.48176E-01    7.50424E+01
 4.48659E-01    7.50659E+01
 4.51578E-01    7.49487E+01
 4.73554E-01    7.37415E+01
 4.93617E-01    7.34834E+01
 5.00000E-01    7.33916E+01
 5.05627E-01    7.33847E+01
 5.05687E-01    7.33849E+01
 5.08677E-01    7.32776E+01
 5.24633E-01    7.28141E+01
 5.33744E-01    7.24186E+01
 5.35364E-01    7.23887E+01
 6.00000E-01    7.17426E+01
 7.00000E-01    6.90815E+01
 8.00000E-01    6.26162E+01
 9.00000E-01    5.64902E+01
 1.00000E+00    4.97916E+01
 1.10000E+00    4.29620E+01
 1.20000E+00    3.71376E+01
 1.30000E+00    3.21050E+01
 1.40000E+00    2.73032E+01
 1.50000E+00    2.30822E+01
 1.60000E+00    1.94630E+01
 1.70000E+00    1.63829E+01
 1.80000E+00    1.37843E+01
 1.90000E+00    1.16001E+01
 2.00000E+00    9.76788E+00
 2.25000E+00    6.30350E+00
 2.50000E+00    4.19694E+00
 2.75000E+00    2.79236E+00
 3.00000E+00    1.83288E+00
 3.50000E+00    8.15191E-01
 4.00000E+00    3.65758E-01
 4.50000E+00    1.67949E-01
 5.00000E+00    8.19299E-02
 5.50000E+00    4.47386E-02
 6.00000E+00    2.84794E-02
 6.50000E+00    2.10695E-02
 7.00000E+00    1.73923E-02
 7.50000E+00    1.52815E-02
 8.00000E+00    1.38304E-02
 8.50000E+00    1.26837E-02
 9.00000E+00    1.17093E-02
 9.50000E+00    1.08607E-02
 1.00000E+01    1.01157E-02
 1.05000E+01    9.46313E-03
 1.10000E+01    8.88716E-03
 1.15000E+01    8.37524E-03
 1.20000E+01    7.91491E-03
 1.25000E+01    7.49567E-03
 1.30000E+01    7.10989E-03
 1.35000E+01    6.75158E-03
 1.40000E+01    6.41827E-03
 1.45000E+01    6.10584E-03
 1.50000E+01    5.81044E-03
 1.55000E+01    5.54061E-03
 1.60000E+01    5.28574E-03
 1.65000E+01    5.04533E-03
 1.70000E+01    4.81913E-03
 1.75000E+01    4.60635E-03
 1.80000E+01    4.40647E-03
 1.85000E+01    4.21886E-03
 1.90000E+01    4.04303E-03
 1.95000E+01    3.87847E-03
 2.00000E+01    3.72474E-03
