# n + Sm151 : (n,n'20)  
# jendl4.0   N.Iwamoto,A.Zukeran,K.Shibata     EVAL-Nov09
# uncertainties: n
# # energies =    76
#   E(MeV)       xs(mb) 
 3.47214E-01    0.00000E+00
 3.58027E-01    2.99405E+01
 3.60393E-01    3.16731E+01
 3.85761E-01    4.47346E+01
 3.98225E-01    4.86608E+01
 4.00000E-01    4.86683E+01
 4.08210E-01    5.04680E+01
 4.18418E-01    5.23052E+01
 4.21901E-01    5.28337E+01
 4.26008E-01    5.35380E+01
 4.40424E-01    5.59458E+01
 4.48176E-01    5.63577E+01
 4.48659E-01    5.63974E+01
 4.51578E-01    5.61718E+01
 4.73554E-01    5.70959E+01
 4.93617E-01    5.85038E+01
 5.00000E-01    5.87757E+01
 5.05627E-01    5.91156E+01
 5.05687E-01    5.91193E+01
 5.08677E-01    5.89313E+01
 5.24633E-01    5.84823E+01
 5.33744E-01    5.77826E+01
 5.35364E-01    5.77416E+01
 6.00000E-01    5.84575E+01
 7.00000E-01    5.59676E+01
 8.00000E-01    5.03642E+01
 9.00000E-01    4.42621E+01
 1.00000E+00    3.85515E+01
 1.10000E+00    3.27936E+01
 1.20000E+00    2.80403E+01
 1.30000E+00    2.40556E+01
 1.40000E+00    2.05478E+01
 1.50000E+00    1.74516E+01
 1.60000E+00    1.48222E+01
 1.70000E+00    1.25897E+01
 1.80000E+00    1.07012E+01
 1.90000E+00    9.10354E+00
 2.00000E+00    7.75107E+00
 2.25000E+00    5.13993E+00
 2.50000E+00    3.50418E+00
 2.75000E+00    2.37924E+00
 3.00000E+00    1.66847E+00
 3.50000E+00    8.01939E-01
 4.00000E+00    4.05276E-01
 4.50000E+00    2.23990E-01
 5.00000E+00    1.40935E-01
 5.50000E+00    1.02010E-01
 6.00000E+00    8.27817E-02
 6.50000E+00    7.21969E-02
 7.00000E+00    6.53564E-02
 7.50000E+00    6.01052E-02
 8.00000E+00    5.55767E-02
 8.50000E+00    5.14766E-02
 9.00000E+00    4.77392E-02
 9.50000E+00    4.43744E-02
 1.00000E+01    4.13722E-02
 1.05000E+01    3.87203E-02
 1.10000E+01    3.63706E-02
 1.15000E+01    3.42783E-02
 1.20000E+01    3.23954E-02
 1.25000E+01    3.06801E-02
 1.30000E+01    2.91017E-02
 1.35000E+01    2.76395E-02
 1.40000E+01    2.62789E-02
 1.45000E+01    2.50031E-02
 1.50000E+01    2.37965E-02
 1.55000E+01    2.26903E-02
 1.60000E+01    2.16509E-02
 1.65000E+01    2.06729E-02
 1.70000E+01    1.97523E-02
 1.75000E+01    1.88825E-02
 1.80000E+01    1.80627E-02
 1.85000E+01    1.72931E-02
 1.90000E+01    1.65718E-02
 1.95000E+01    1.58967E-02
 2.00000E+01    1.52660E-02
