# n + Sm151 : (n,xn)    
# jendl4.0   N.Iwamoto,A.Zukeran,K.Shibata     EVAL-Nov09
# 
# # energies =   125
#   E(MeV)        xs(mb) 
 4.85322E-03    0.00000E+00
 7.00000E-03    1.37359E+03
 1.00000E-02    1.38666E+03
 2.00000E-02    1.13262E+03
 3.00000E-02    9.68035E+02
 4.00000E-02    8.64627E+02
 5.00000E-02    7.95584E+02
 6.00000E-02    7.47278E+02
 6.62659E-02    7.24423E+02
 7.00000E-02    1.07691E+03
 7.01689E-02    1.08135E+03
 8.00000E-02    1.69910E+03
 9.00000E-02    1.78041E+03
 9.21437E-02    1.78836E+03
 9.21438E-02    1.78836E+03
 1.00000E-01    1.87754E+03
 1.02766E-01    1.88399E+03
 1.05532E-01    1.89045E+03
 1.10000E-01    1.97099E+03
 1.20000E-01    2.00329E+03
 1.30000E-01    2.01353E+03
 1.40000E-01    2.01331E+03
 1.48898E-01    2.01114E+03
 1.48899E-01    2.01114E+03
 1.50000E-01    2.01090E+03
 1.60000E-01    2.00887E+03
 1.68871E-01    2.00653E+03
 1.69528E-01    2.04178E+03
 1.70000E-01    2.08681E+03
 1.76552E-01    2.19612E+03
 1.80000E-01    2.23544E+03
 1.90000E-01    2.28078E+03
 2.00000E-01    2.30368E+03
 2.10388E-01    2.31799E+03
 2.21470E-01    2.38140E+03
 2.25000E-01    2.41686E+03
 2.50000E-01    2.46406E+03
 2.62875E-01    2.48032E+03
 2.75000E-01    2.49920E+03
 2.86854E-01    2.50882E+03
 2.96790E-01    2.53293E+03
 3.00000E-01    2.54268E+03
 3.04642E-01    2.54992E+03
 3.04643E-01    2.54991E+03
 3.08840E-01    2.57214E+03
 3.15948E-01    2.59872E+03
 3.17387E-01    2.60778E+03
 3.26109E-01    2.64030E+03
 3.47214E-01    2.69302E+03
 3.58027E-01    2.71238E+03
 3.60393E-01    2.71639E+03
 3.85761E-01    2.76174E+03
 3.98225E-01    2.76983E+03
 4.00000E-01    2.77575E+03
 4.08210E-01    2.78909E+03
 4.18418E-01    2.80382E+03
 4.21901E-01    2.81452E+03
 4.26008E-01    2.82146E+03
 4.40424E-01    2.84207E+03
 4.48175E-01    2.85467E+03
 4.48176E-01    2.85467E+03
 4.48659E-01    2.85525E+03
 4.51578E-01    2.86134E+03
 4.73554E-01    2.88912E+03
 4.93617E-01    2.90985E+03
 5.00000E-01    2.91974E+03
 5.05627E-01    2.92473E+03
 5.05687E-01    2.92499E+03
 5.08677E-01    2.92880E+03
 5.24633E-01    2.94358E+03
 5.33744E-01    2.95051E+03
 5.35364E-01    2.95244E+03
 6.00000E-01    2.97729E+03
 7.00000E-01    3.01344E+03
 8.00000E-01    3.04691E+03
 9.00000E-01    3.06336E+03
 1.00000E+00    3.06745E+03
 1.10000E+00    3.05461E+03
 1.20000E+00    3.03383E+03
 1.30000E+00    3.00885E+03
 1.40000E+00    2.98203E+03
 1.50000E+00    2.95512E+03
 1.60000E+00    2.92941E+03
 1.70000E+00    2.90568E+03
 1.80000E+00    2.88438E+03
 1.90000E+00    2.86566E+03
 2.00000E+00    2.84951E+03
 2.25000E+00    2.81999E+03
 2.50000E+00    2.80022E+03
 2.75000E+00    2.78730E+03
 3.00000E+00    2.77890E+03
 3.50000E+00    2.75874E+03
 4.00000E+00    2.73044E+03
 4.50000E+00    2.69606E+03
 5.00000E+00    2.66543E+03
 5.50000E+00    2.64151E+03
 6.00000E+00    2.66395E+03
 6.50000E+00    2.89761E+03
 7.00000E+00    3.27582E+03
 7.50000E+00    3.64684E+03
 8.00000E+00    3.93278E+03
 8.50000E+00    4.12683E+03
 9.00000E+00    4.23625E+03
 9.50000E+00    4.30749E+03
 1.00000E+01    4.34699E+03
 1.05000E+01    4.36856E+03
 1.10000E+01    4.38009E+03
 1.15000E+01    4.38563E+03
 1.20000E+01    4.38703E+03
 1.25000E+01    4.38491E+03
 1.30000E+01    4.37971E+03
 1.35000E+01    4.37174E+03
 1.40000E+01    4.36268E+03
 1.45000E+01    4.37593E+03
 1.50000E+01    4.43914E+03
 1.55000E+01    4.55236E+03
 1.60000E+01    4.69774E+03
 1.65000E+01    4.85690E+03
 1.70000E+01    5.01362E+03
 1.75000E+01    5.15767E+03
 1.80000E+01    5.27153E+03
 1.85000E+01    5.37728E+03
 1.90000E+01    5.45316E+03
 1.95000E+01    5.51441E+03
 2.00000E+01    5.56016E+03
