# n + Sm151 : (n,xa)    
# jendl4.0   N.Iwamoto,A.Zukeran,K.Shibata     EVAL-Nov09
# 
# # energies =   125
#   E(MeV)        xs(mb) 
 4.85322E-03    7.30521E-03
 7.00000E-03    5.37814E-03
 1.00000E-02    4.16690E-03
 2.00000E-02    2.65728E-03
 3.00000E-02    2.10670E-03
 4.00000E-02    1.81338E-03
 5.00000E-02    1.62849E-03
 6.00000E-02    1.50097E-03
 6.62659E-02    1.43663E-03
 7.00000E-02    1.29910E-03
 7.01689E-02    1.29503E-03
 8.00000E-02    1.07344E-03
 9.00000E-02    9.88921E-04
 9.21437E-02    9.73868E-04
 9.21438E-02    9.73867E-04
 1.00000E-01    8.98349E-04
 1.02766E-01    8.82643E-04
 1.05532E-01    8.66937E-04
 1.10000E-01    8.31198E-04
 1.20000E-01    7.85647E-04
 1.30000E-01    7.48856E-04
 1.40000E-01    7.20049E-04
 1.48898E-01    6.99788E-04
 1.48899E-01    6.99785E-04
 1.50000E-01    6.97278E-04
 1.60000E-01    6.78480E-04
 1.68871E-01    6.63427E-04
 1.69528E-01    6.46140E-04
 1.70000E-01    6.33721E-04
 1.76552E-01    5.91054E-04
 1.80000E-01    5.73977E-04
 1.90000E-01    5.47386E-04
 2.00000E-01    5.29770E-04
 2.10388E-01    5.14877E-04
 2.21470E-01    4.88338E-04
 2.25000E-01    4.71266E-04
 2.50000E-01    4.39804E-04
 2.62875E-01    4.32339E-04
 2.75000E-01    4.25035E-04
 2.86854E-01    4.21342E-04
 2.96790E-01    4.12834E-04
 3.00000E-01    4.09788E-04
 3.04642E-01    4.07272E-04
 3.04643E-01    4.07270E-04
 3.08840E-01    4.00194E-04
 3.15948E-01    3.89383E-04
 3.17387E-01    3.86123E-04
 3.26109E-01    3.74545E-04
 3.47214E-01    3.55227E-04
 3.58027E-01    3.46749E-04
 3.60393E-01    3.44894E-04
 3.85761E-01    3.29221E-04
 3.98225E-01    3.26617E-04
 4.00000E-01    3.24624E-04
 4.08210E-01    3.22270E-04
 4.18418E-01    3.21098E-04
 4.21901E-01    3.18142E-04
 4.26008E-01    3.17172E-04
 4.40424E-01    3.13769E-04
 4.48175E-01    3.10851E-04
 4.48176E-01    3.10851E-04
 4.48659E-01    3.10669E-04
 4.51578E-01    3.08722E-04
 4.73554E-01    3.04054E-04
 4.93617E-01    3.00878E-04
 5.00000E-01    2.98468E-04
 5.05627E-01    2.97637E-04
 5.05687E-01    2.97628E-04
 5.08677E-01    2.97219E-04
 5.24633E-01    2.95195E-04
 5.33744E-01    2.94039E-04
 5.35364E-01    2.93607E-04
 6.00000E-01    2.99725E-04
 7.00000E-01    3.12532E-04
 8.00000E-01    3.19934E-04
 9.00000E-01    3.30836E-04
 1.00000E+00    3.45440E-04
 1.10000E+00    3.63358E-04
 1.20000E+00    3.84960E-04
 1.30000E+00    4.09719E-04
 1.40000E+00    4.38119E-04
 1.50000E+00    4.70354E-04
 1.60000E+00    5.06419E-04
 1.70000E+00    5.46377E-04
 1.80000E+00    5.90553E-04
 1.90000E+00    6.39180E-04
 2.00000E+00    6.92559E-04
 2.25000E+00    8.43370E-04
 2.50000E+00    1.03477E-03
 2.75000E+00    1.27912E-03
 3.00000E+00    1.57772E-03
 3.50000E+00    2.25431E-03
 4.00000E+00    3.11694E-03
 4.50000E+00    4.21142E-03
 5.00000E+00    5.61833E-03
 5.50000E+00    7.52320E-03
 6.00000E+00    1.02493E-02
 6.50000E+00    1.42581E-02
 7.00000E+00    2.04174E-02
 7.50000E+00    3.01030E-02
 8.00000E+00    4.51724E-02
 8.50000E+00    6.81475E-02
 9.00000E+00    1.01972E-01
 9.50000E+00    1.50138E-01
 1.00000E+01    2.15451E-01
 1.05000E+01    3.00729E-01
 1.10000E+01    4.07304E-01
 1.15000E+01    5.35349E-01
 1.20000E+01    6.83809E-01
 1.25000E+01    8.50634E-01
 1.30000E+01    1.03314E+00
 1.35000E+01    1.22838E+00
 1.40000E+01    1.43341E+00
 1.45000E+01    1.64528E+00
 1.50000E+01    1.86182E+00
 1.55000E+01    2.08055E+00
 1.60000E+01    2.30015E+00
 1.65000E+01    2.51830E+00
 1.70000E+01    2.73513E+00
 1.75000E+01    2.94953E+00
 1.80000E+01    3.16113E+00
 1.85000E+01    3.36942E+00
 1.90000E+01    3.57508E+00
 1.95000E+01    3.77811E+00
 2.00000E+01    3.97913E+00
