# n + Sm151 : (n,g)     
# jendl4.0   N.Iwamoto,A.Zukeran,K.Shibata     EVAL-Nov09
# uncertainties: n
# # energies =    69
#   E(MeV)       xs(mb) 
 1.00000E-10    1.45415E+08
 5.00000E-09    3.63098E+07
 1.00000E-08    2.56892E+07
 1.50000E-08    2.02313E+07
 2.00000E-08    1.67225E+07
 2.50000E-08    1.42220E+07
 3.00000E-08    1.23287E+07
 3.50000E-08    1.05996E+07
 4.20000E-08    8.93487E+06
 5.00000E-08    7.57708E+06
 5.80000E-08    6.46895E+06
 6.70000E-08    5.38470E+06
 8.00000E-08    4.22137E+06
 1.00000E-07    2.92903E+06
 1.40000E-07    1.91959E+06
 1.80000E-07    1.36853E+06
 2.20000E-07    1.07090E+06
 2.50000E-07    9.04490E+05
 2.80000E-07    8.06157E+05
 3.00000E-07    7.51940E+05
 3.20000E-07    7.13441E+05
 3.50000E-07    7.38178E+05
 4.00000E-07    9.73680E+05
 5.00000E-07    4.97413E+05
 6.25000E-07    3.92090E+05
 7.80000E-07    5.31298E+05
 8.50000E-07    7.71367E+05
 9.10000E-07    1.15934E+06
 9.50000E-07    1.60043E+06
 9.72000E-07    2.13471E+06
 9.96000E-07    2.99283E+06
 1.02000E-06    4.30403E+06
 1.04500E-06    5.98391E+06
 1.07100E-06    7.16403E+06
 1.09700E-06    6.80668E+06
 1.12300E-06    5.19558E+06
 1.15000E-06    1.79591E+06
 1.30000E-06    4.48141E+05
 1.50000E-06    1.47034E+06
 2.10000E-06    3.05368E+05
 2.60000E-06    3.99247E+04
 3.30000E-06    9.29545E+04
 4.00000E-06    4.27908E+05
 9.87700E-06    6.16018E+05
 1.59680E-05    5.19075E+05
 2.77000E-05    1.65924E+05
 4.80520E-05    1.52450E+05
 7.55014E-05    9.51486E+04
 1.48728E-04    7.84064E+04
 3.67262E-04    4.86886E+04
 9.06898E-04    2.99437E+04
 1.42510E-03    2.16169E+04
 2.23945E-03    1.56018E+04
 3.51910E-03    1.12278E+04
 5.53000E-03    7.56237E+03
 9.11800E-03    5.22234E+03
 1.50300E-02    3.74191E+03
 2.47800E-02    2.76567E+03
 4.08500E-02    2.11127E+03
 6.73400E-02    1.35357E+03
 1.11000E-01    8.61986E+02
 1.83000E-01    5.05696E+02
 3.02000E-01    2.91811E+02
 5.00000E-01    1.83863E+02
 8.21000E-01    1.16249E+02
 1.35300E+00    6.67874E+01
 2.23100E+00    3.18362E+01
 3.67900E+00    8.62496E+00
 6.06500E+00    1.48513E+00
