# n + Sm151 : (n,n'04)  
# jendl4.0   N.Iwamoto,A.Zukeran,K.Shibata     EVAL-Nov09
# uncertainties: n
# # energies =   107
#   E(MeV)       xs(mb) 
 9.21437E-02    0.00000E+00
 1.00000E-01    8.11456E+01
 1.05532E-01    9.45395E+01
 1.10000E-01    1.02728E+02
 1.20000E-01    1.17148E+02
 1.30000E-01    1.28726E+02
 1.40000E-01    1.38594E+02
 1.48898E-01    1.46650E+02
 1.50000E-01    1.47617E+02
 1.60000E-01    1.55651E+02
 1.68871E-01    1.61715E+02
 1.69528E-01    1.61913E+02
 1.70000E-01    1.61315E+02
 1.76552E-01    1.63381E+02
 1.80000E-01    1.61627E+02
 1.90000E-01    1.63675E+02
 2.00000E-01    1.65635E+02
 2.10388E-01    1.67583E+02
 2.21470E-01    1.65078E+02
 2.25000E-01    1.64595E+02
 2.50000E-01    1.65881E+02
 2.62875E-01    1.66464E+02
 2.75000E-01    1.64508E+02
 2.86854E-01    1.64541E+02
 2.96790E-01    1.64729E+02
 3.00000E-01    1.62704E+02
 3.04642E-01    1.61898E+02
 3.08840E-01    1.59375E+02
 3.15948E-01    1.57598E+02
 3.17387E-01    1.57339E+02
 3.26109E-01    1.56129E+02
 3.47214E-01    1.46434E+02
 3.58027E-01    1.44327E+02
 3.60393E-01    1.43959E+02
 3.85761E-01    1.39525E+02
 3.98225E-01    1.38343E+02
 4.00000E-01    1.37924E+02
 4.08210E-01    1.37194E+02
 4.18418E-01    1.36576E+02
 4.21901E-01    1.35304E+02
 4.26008E-01    1.34558E+02
 4.40424E-01    1.31773E+02
 4.48176E-01    1.30438E+02
 4.48659E-01    1.30377E+02
 4.51578E-01    1.29715E+02
 4.73554E-01    1.27355E+02
 4.93617E-01    1.22852E+02
 5.00000E-01    1.20937E+02
 5.05627E-01    1.19909E+02
 5.05687E-01    1.19817E+02
 5.08677E-01    1.18900E+02
 5.24633E-01    1.15666E+02
 5.33744E-01    1.14243E+02
 5.35364E-01    1.13337E+02
 6.00000E-01    1.04961E+02
 7.00000E-01    9.27557E+01
 8.00000E-01    7.67976E+01
 9.00000E-01    6.34771E+01
 1.00000E+00    5.29170E+01
 1.10000E+00    4.43672E+01
 1.20000E+00    3.69730E+01
 1.30000E+00    3.08935E+01
 1.40000E+00    2.59118E+01
 1.50000E+00    2.18180E+01
 1.60000E+00    1.84340E+01
 1.70000E+00    1.56173E+01
 1.80000E+00    1.32678E+01
 1.90000E+00    1.12989E+01
 2.00000E+00    9.64213E+00
 2.25000E+00    6.45445E+00
 2.50000E+00    4.44989E+00
 2.75000E+00    3.05554E+00
 3.00000E+00    2.06860E+00
 3.50000E+00    9.64840E-01
 4.00000E+00    4.50843E-01
 4.50000E+00    2.14842E-01
 5.00000E+00    1.07946E-01
 5.50000E+00    5.96862E-02
 6.00000E+00    3.76803E-02
 6.50000E+00    2.73165E-02
 7.00000E+00    2.21043E-02
 7.50000E+00    1.91487E-02
 8.00000E+00    1.71784E-02
 8.50000E+00    1.56712E-02
 9.00000E+00    1.44221E-02
 9.50000E+00    1.33522E-02
 1.00000E+01    1.24229E-02
 1.05000E+01    1.16133E-02
 1.10000E+01    1.09012E-02
 1.15000E+01    1.02688E-02
 1.20000E+01    9.70000E-03
 1.25000E+01    9.18169E-03
 1.30000E+01    8.70478E-03
 1.35000E+01    8.26317E-03
 1.40000E+01    7.85261E-03
 1.45000E+01    7.46798E-03
 1.50000E+01    7.10449E-03
 1.55000E+01    6.76871E-03
 1.60000E+01    6.45336E-03
 1.65000E+01    6.15690E-03
 1.70000E+01    5.87812E-03
 1.75000E+01    5.61613E-03
 1.80000E+01    5.37018E-03
 1.85000E+01    5.13953E-03
 1.90000E+01    4.92353E-03
 1.95000E+01    4.72150E-03
 2.00000E+01    4.53289E-03
