# n + Sm151 : (n,n'14)  
# jendl4.0   N.Iwamoto,A.Zukeran,K.Shibata     EVAL-Nov09
# uncertainties: n
# # energies =    83
#   E(MeV)       xs(mb) 
 2.96790E-01    0.00000E+00
 3.00000E-01    1.94880E+01
 3.04642E-01    2.79128E+01
 3.08840E-01    3.22183E+01
 3.15948E-01    3.83739E+01
 3.17387E-01    3.94648E+01
 3.26109E-01    4.53891E+01
 3.47214E-01    5.58954E+01
 3.58027E-01    6.05543E+01
 3.60393E-01    6.15109E+01
 3.85761E-01    7.02067E+01
 3.98225E-01    7.40242E+01
 4.00000E-01    7.43690E+01
 4.08210E-01    7.63401E+01
 4.18418E-01    7.87556E+01
 4.21901E-01    7.86821E+01
 4.26008E-01    7.92355E+01
 4.40424E-01    7.99038E+01
 4.48176E-01    8.07719E+01
 4.48659E-01    8.08357E+01
 4.51578E-01    8.10969E+01
 4.73554E-01    8.33847E+01
 4.93617E-01    8.45432E+01
 5.00000E-01    8.42075E+01
 5.05627E-01    8.44624E+01
 5.05687E-01    8.43498E+01
 5.08677E-01    8.39148E+01
 5.24633E-01    8.40745E+01
 5.33744E-01    8.45284E+01
 5.35364E-01    8.43988E+01
 6.00000E-01    8.62521E+01
 7.00000E-01    8.43026E+01
 8.00000E-01    7.53539E+01
 9.00000E-01    6.73427E+01
 1.00000E+00    5.84211E+01
 1.10000E+00    4.98682E+01
 1.20000E+00    4.27450E+01
 1.30000E+00    3.67112E+01
 1.40000E+00    3.09990E+01
 1.50000E+00    2.61400E+01
 1.60000E+00    2.20354E+01
 1.70000E+00    1.85794E+01
 1.80000E+00    1.56846E+01
 1.90000E+00    1.32616E+01
 2.00000E+00    1.12326E+01
 2.25000E+00    7.38406E+00
 2.50000E+00    5.01369E+00
 2.75000E+00    3.40078E+00
 3.00000E+00    2.29397E+00
 3.50000E+00    1.06056E+00
 4.00000E+00    4.94817E-01
 4.50000E+00    2.38370E-01
 5.00000E+00    1.23982E-01
 5.50000E+00    7.31302E-02
 6.00000E+00    5.00886E-02
 6.50000E+00    3.90620E-02
 7.00000E+00    3.32193E-02
 7.50000E+00    2.96037E-02
 8.00000E+00    2.69579E-02
 8.50000E+00    2.47863E-02
 9.00000E+00    2.29061E-02
 9.50000E+00    2.12549E-02
 1.00000E+01    1.98000E-02
 1.05000E+01    1.85235E-02
 1.10000E+01    1.73959E-02
 1.15000E+01    1.63932E-02
 1.20000E+01    1.54914E-02
 1.25000E+01    1.46700E-02
 1.30000E+01    1.39142E-02
 1.35000E+01    1.32140E-02
 1.40000E+01    1.25626E-02
 1.45000E+01    1.19519E-02
 1.50000E+01    1.13743E-02
 1.55000E+01    1.08421E-02
 1.60000E+01    1.03422E-02
 1.65000E+01    9.87200E-03
 1.70000E+01    9.42956E-03
 1.75000E+01    9.01339E-03
 1.80000E+01    8.62245E-03
 1.85000E+01    8.25552E-03
 1.90000E+01    7.91163E-03
 1.95000E+01    7.58982E-03
 2.00000E+01    7.28919E-03
