# n + Sm151 : (n,n'06)  
# jendl4.0   N.Iwamoto,A.Zukeran,K.Shibata     EVAL-Nov09
# uncertainties: n
# # energies =   100
#   E(MeV)       xs(mb) 
 1.48899E-01    0.00000E+00
 1.50000E-01    7.20195E-02
 1.60000E-01    4.97361E-01
 1.68871E-01    1.03382E+00
 1.69528E-01    1.07809E+00
 1.70000E-01    1.11033E+00
 1.76552E-01    1.58269E+00
 1.80000E-01    1.57207E+00
 1.90000E-01    2.10494E+00
 2.00000E-01    2.71507E+00
 2.10388E-01    3.41350E+00
 2.21470E-01    4.17310E+00
 2.25000E-01    4.42221E+00
 2.50000E-01    6.28633E+00
 2.62875E-01    7.25490E+00
 2.75000E-01    7.30200E+00
 2.86854E-01    7.96668E+00
 2.96790E-01    8.58107E+00
 3.00000E-01    8.35461E+00
 3.04642E-01    8.47772E+00
 3.08840E-01    8.63635E+00
 3.15948E-01    8.92413E+00
 3.17387E-01    8.98644E+00
 3.26109E-01    9.38356E+00
 3.47214E-01    1.01322E+01
 3.58027E-01    1.06272E+01
 3.60393E-01    1.07369E+01
 3.85761E-01    1.19408E+01
 3.98225E-01    1.25330E+01
 4.00000E-01    1.26195E+01
 4.08210E-01    1.29640E+01
 4.18418E-01    1.33862E+01
 4.21901E-01    1.35250E+01
 4.26008E-01    1.35736E+01
 4.40424E-01    1.34557E+01
 4.48176E-01    1.36238E+01
 4.48659E-01    1.36280E+01
 4.51578E-01    1.36884E+01
 4.73554E-01    1.42539E+01
 4.93617E-01    1.45656E+01
 5.00000E-01    1.47132E+01
 5.05627E-01    1.48474E+01
 5.05687E-01    1.48112E+01
 5.08677E-01    1.46860E+01
 5.24633E-01    1.48294E+01
 5.33744E-01    1.49878E+01
 5.35364E-01    1.49346E+01
 6.00000E-01    1.55194E+01
 7.00000E-01    1.55511E+01
 8.00000E-01    1.44891E+01
 9.00000E-01    1.30170E+01
 1.00000E+00    1.17431E+01
 1.10000E+00    1.06085E+01
 1.20000E+00    9.55180E+00
 1.30000E+00    8.53228E+00
 1.40000E+00    7.61688E+00
 1.50000E+00    6.79848E+00
 1.60000E+00    6.06562E+00
 1.70000E+00    5.40703E+00
 1.80000E+00    4.81669E+00
 1.90000E+00    4.28716E+00
 2.00000E+00    3.81189E+00
 2.25000E+00    2.79541E+00
 2.50000E+00    2.07445E+00
 2.75000E+00    1.51464E+00
 3.00000E+00    1.15589E+00
 3.50000E+00    6.16954E-01
 4.00000E+00    3.37198E-01
 4.50000E+00    1.96746E-01
 5.00000E+00    1.27362E-01
 5.50000E+00    9.26414E-02
 6.00000E+00    7.45711E-02
 6.50000E+00    6.43096E-02
 7.00000E+00    5.76670E-02
 7.50000E+00    5.26711E-02
 8.00000E+00    4.84686E-02
 8.50000E+00    4.47382E-02
 9.00000E+00    4.13994E-02
 9.50000E+00    3.84272E-02
 1.00000E+01    3.57951E-02
 1.05000E+01    3.34803E-02
 1.10000E+01    3.14337E-02
 1.15000E+01    2.96118E-02
 1.20000E+01    2.79713E-02
 1.25000E+01    2.64760E-02
 1.30000E+01    2.51000E-02
 1.35000E+01    2.38259E-02
 1.40000E+01    2.26413E-02
 1.45000E+01    2.15315E-02
 1.50000E+01    2.04829E-02
 1.55000E+01    1.95207E-02
 1.60000E+01    1.86168E-02
 1.65000E+01    1.77668E-02
 1.70000E+01    1.69673E-02
 1.75000E+01    1.62156E-02
 1.80000E+01    1.55097E-02
 1.85000E+01    1.48475E-02
 1.90000E+01    1.42272E-02
 1.95000E+01    1.36469E-02
 2.00000E+01    1.31051E-02
