# n + Sm151 : (n,n'08)  
# jendl4.0   N.Iwamoto,A.Zukeran,K.Shibata     EVAL-Nov09
# uncertainties: n
# # energies =    96
#   E(MeV)       xs(mb) 
 1.69528E-01    0.00000E+00
 1.70000E-01    6.64496E+01
 1.76552E-01    1.99173E+02
 1.80000E-01    2.27164E+02
 1.90000E-01    2.74511E+02
 2.00000E-01    3.00302E+02
 2.10388E-01    3.16925E+02
 2.21470E-01    3.15235E+02
 2.25000E-01    3.14424E+02
 2.50000E-01    3.15280E+02
 2.62875E-01    3.15687E+02
 2.75000E-01    3.14867E+02
 2.86854E-01    3.12990E+02
 2.96790E-01    3.06053E+02
 3.00000E-01    3.04820E+02
 3.04642E-01    3.03290E+02
 3.08840E-01    2.97346E+02
 3.15948E-01    2.91264E+02
 3.17387E-01    2.88587E+02
 3.26109E-01    2.78724E+02
 3.47214E-01    2.62566E+02
 3.58027E-01    2.55454E+02
 3.60393E-01    2.53999E+02
 3.85761E-01    2.33865E+02
 3.98225E-01    2.28619E+02
 4.00000E-01    2.27181E+02
 4.08210E-01    2.23888E+02
 4.18418E-01    2.20444E+02
 4.21901E-01    2.17347E+02
 4.26008E-01    2.15188E+02
 4.40424E-01    2.09267E+02
 4.48176E-01    2.05371E+02
 4.48659E-01    2.05184E+02
 4.51578E-01    2.03340E+02
 4.73554E-01    1.93509E+02
 4.93617E-01    1.86519E+02
 5.00000E-01    1.83107E+02
 5.05627E-01    1.81238E+02
 5.05687E-01    1.81205E+02
 5.08677E-01    1.80152E+02
 5.24633E-01    1.74882E+02
 5.33744E-01    1.72186E+02
 5.35364E-01    1.71633E+02
 6.00000E-01    1.57538E+02
 7.00000E-01    1.36855E+02
 8.00000E-01    1.17250E+02
 9.00000E-01    9.72604E+01
 1.00000E+00    8.13760E+01
 1.10000E+00    6.84839E+01
 1.20000E+00    5.76188E+01
 1.30000E+00    4.78712E+01
 1.40000E+00    3.97668E+01
 1.50000E+00    3.30515E+01
 1.60000E+00    2.74910E+01
 1.70000E+00    2.28874E+01
 1.80000E+00    1.90869E+01
 1.90000E+00    1.59479E+01
 2.00000E+00    1.33518E+01
 2.25000E+00    8.53347E+00
 2.50000E+00    5.64688E+00
 2.75000E+00    3.74380E+00
 3.00000E+00    2.43102E+00
 3.50000E+00    1.06731E+00
 4.00000E+00    4.67850E-01
 4.50000E+00    2.05426E-01
 5.00000E+00    9.22750E-02
 5.50000E+00    4.39065E-02
 6.00000E+00    2.32313E-02
 6.50000E+00    1.42247E-02
 7.00000E+00    1.01590E-02
 7.50000E+00    8.17634E-03
 8.00000E+00    7.06473E-03
 8.50000E+00    6.33028E-03
 9.00000E+00    5.77703E-03
 9.50000E+00    5.32742E-03
 1.00000E+01    4.94724E-03
 1.05000E+01    4.62064E-03
 1.10000E+01    4.33529E-03
 1.15000E+01    4.08289E-03
 1.20000E+01    3.85638E-03
 1.25000E+01    3.65029E-03
 1.30000E+01    3.46081E-03
 1.35000E+01    3.28541E-03
 1.40000E+01    3.12235E-03
 1.45000E+01    2.96958E-03
 1.50000E+01    2.82521E-03
 1.55000E+01    2.69241E-03
 1.60000E+01    2.56768E-03
 1.65000E+01    2.45039E-03
 1.70000E+01    2.34006E-03
 1.75000E+01    2.23632E-03
 1.80000E+01    2.13892E-03
 1.85000E+01    2.04753E-03
 1.90000E+01    1.96193E-03
 1.95000E+01    1.88184E-03
 2.00000E+01    1.80706E-03
