# n + Sm151 : (n,n'23)  
# jendl4.0   N.Iwamoto,A.Zukeran,K.Shibata     EVAL-Nov09
# uncertainties: n
# # energies =    73
#   E(MeV)       xs(mb) 
 3.85761E-01    0.00000E+00
 3.98225E-01    1.30040E-03
 4.00000E-01    1.56399E-03
 4.08210E-01    3.02967E-03
 4.18418E-01    5.39085E-03
 4.21901E-01    6.33747E-03
 4.26008E-01    7.44267E-03
 4.40424E-01    1.20733E-02
 4.48176E-01    1.50316E-02
 4.48659E-01    1.46347E-02
 4.51578E-01    1.50390E-02
 4.73554E-01    2.29350E-02
 4.93617E-01    3.26302E-02
 5.00000E-01    3.61113E-02
 5.05627E-01    3.93658E-02
 5.05687E-01    3.93949E-02
 5.08677E-01    4.11534E-02
 5.24633E-01    5.15335E-02
 5.33744E-01    5.81422E-02
 5.35364E-01    5.93673E-02
 6.00000E-01    1.09985E-01
 7.00000E-01    2.20358E-01
 8.00000E-01    3.35582E-01
 9.00000E-01    4.36035E-01
 1.00000E+00    5.29193E-01
 1.10000E+00    5.85403E-01
 1.20000E+00    6.25700E-01
 1.30000E+00    6.55473E-01
 1.40000E+00    6.74172E-01
 1.50000E+00    6.72383E-01
 1.60000E+00    6.61885E-01
 1.70000E+00    6.44764E-01
 1.80000E+00    6.22946E-01
 1.90000E+00    5.97697E-01
 2.00000E+00    5.69947E-01
 2.25000E+00    4.88865E-01
 2.50000E+00    4.14778E-01
 2.75000E+00    3.39667E-01
 3.00000E+00    3.97813E-01
 3.50000E+00    2.83565E-01
 4.00000E+00    2.07058E-01
 4.50000E+00    1.59112E-01
 5.00000E+00    1.29823E-01
 5.50000E+00    1.11552E-01
 6.00000E+00    9.96293E-02
 6.50000E+00    9.10930E-02
 7.00000E+00    8.42578E-02
 7.50000E+00    7.82213E-02
 8.00000E+00    7.26297E-02
 8.50000E+00    6.74055E-02
 9.00000E+00    6.25796E-02
 9.50000E+00    5.82033E-02
 1.00000E+01    5.42838E-02
 1.05000E+01    5.08142E-02
 1.10000E+01    4.77384E-02
 1.15000E+01    4.49988E-02
 1.20000E+01    4.25334E-02
 1.25000E+01    4.02876E-02
 1.30000E+01    3.82210E-02
 1.35000E+01    3.63061E-02
 1.40000E+01    3.45238E-02
 1.45000E+01    3.28522E-02
 1.50000E+01    3.12708E-02
 1.55000E+01    2.98156E-02
 1.60000E+01    2.84484E-02
 1.65000E+01    2.71621E-02
 1.70000E+01    2.59513E-02
 1.75000E+01    2.48119E-02
 1.80000E+01    2.37412E-02
 1.85000E+01    2.27359E-02
 1.90000E+01    2.17934E-02
 1.95000E+01    2.09065E-02
 2.00000E+01    2.00761E-02
