# n + Sm151 : (n,n'18)  
# jendl4.0   N.Iwamoto,A.Zukeran,K.Shibata     EVAL-Nov09
# uncertainties: n
# # energies =    78
#   E(MeV)       xs(mb) 
 3.17387E-01    0.00000E+00
 3.26109E-01    3.85925E+01
 3.47214E-01    5.80749E+01
 3.58027E-01    6.31419E+01
 3.60393E-01    6.39404E+01
 3.85761E-01    6.87434E+01
 3.98225E-01    7.07804E+01
 4.00000E-01    7.08717E+01
 4.08210E-01    7.19735E+01
 4.18418E-01    7.27863E+01
 4.21901E-01    7.30205E+01
 4.26008E-01    7.33386E+01
 4.40424E-01    7.44543E+01
 4.48176E-01    7.45962E+01
 4.48659E-01    7.46203E+01
 4.51578E-01    7.45099E+01
 4.73554E-01    7.33324E+01
 4.93617E-01    7.31403E+01
 5.00000E-01    7.30537E+01
 5.05627E-01    7.30500E+01
 5.05687E-01    7.30502E+01
 5.08677E-01    7.29453E+01
 5.24633E-01    7.24921E+01
 5.33744E-01    7.21024E+01
 5.35364E-01    7.20733E+01
 6.00000E-01    7.14855E+01
 7.00000E-01    6.88456E+01
 8.00000E-01    6.24517E+01
 9.00000E-01    5.63503E+01
 1.00000E+00    4.97085E+01
 1.10000E+00    4.28950E+01
 1.20000E+00    3.70832E+01
 1.30000E+00    3.20604E+01
 1.40000E+00    2.72757E+01
 1.50000E+00    2.30620E+01
 1.60000E+00    1.94479E+01
 1.70000E+00    1.63716E+01
 1.80000E+00    1.37757E+01
 1.90000E+00    1.15934E+01
 2.00000E+00    9.76264E+00
 2.25000E+00    6.30064E+00
 2.50000E+00    4.19516E+00
 2.75000E+00    2.79130E+00
 3.00000E+00    1.83714E+00
 3.50000E+00    8.19685E-01
 4.00000E+00    3.70160E-01
 4.50000E+00    1.72121E-01
 5.00000E+00    8.58394E-02
 5.50000E+00    4.83949E-02
 6.00000E+00    3.19074E-02
 6.50000E+00    2.42866E-02
 7.00000E+00    2.04070E-02
 7.50000E+00    1.80971E-02
 8.00000E+00    1.64516E-02
 8.50000E+00    1.51188E-02
 9.00000E+00    1.39709E-02
 9.50000E+00    1.29644E-02
 1.00000E+01    1.20779E-02
 1.05000E+01    1.13000E-02
 1.10000E+01    1.06128E-02
 1.15000E+01    1.00018E-02
 1.20000E+01    9.45224E-03
 1.25000E+01    8.95168E-03
 1.30000E+01    8.49049E-03
 1.35000E+01    8.06268E-03
 1.40000E+01    7.66471E-03
 1.45000E+01    7.29166E-03
 1.50000E+01    6.93893E-03
 1.55000E+01    6.61669E-03
 1.60000E+01    6.31264E-03
 1.65000E+01    6.02553E-03
 1.70000E+01    5.75537E-03
 1.75000E+01    5.50125E-03
 1.80000E+01    5.26253E-03
 1.85000E+01    5.03847E-03
 1.90000E+01    4.82846E-03
 1.95000E+01    4.63193E-03
 2.00000E+01    4.44832E-03
