# n + Sm151 : (n,el)    
# jendl4.0   N.Iwamoto,A.Zukeran,K.Shibata     EVAL-Nov09
# uncertainties: n
# # energies =   171
#   E(MeV)       xs(mb) 
 1.00000E-11    9.76707E+04
 1.00000E-07    1.65702E+04
 4.13990E-07    8.66435E+03
 5.31580E-07    7.66672E+03
 6.82560E-07    7.35613E+03
 8.76420E-07    2.94201E+04
 1.12540E-06    1.52217E+04
 1.44500E-06    7.34915E+03
 1.85540E-06    1.34522E+04
 2.37240E-06    4.20354E+03
 3.05900E-06    2.50213E+03
 3.92790E-06    8.27664E+03
 5.04350E-06    4.86762E+04
 6.47600E-06    1.89710E+04
 8.31530E-06    1.03350E+05
 1.06770E-05    2.93069E+04
 1.37100E-05    6.93564E+04
 1.76030E-05    3.44360E+04
 2.26030E-05    1.34597E+04
 2.92030E-05    1.33003E+04
 3.72670E-05    2.43794E+04
 4.78510E-05    3.89834E+04
 6.14420E-05    2.42481E+04
 7.88930E-05    3.55119E+04
 1.01300E-04    1.43568E+04
 1.30070E-04    4.77529E+04
 1.67020E-04    3.56118E+04
 2.14450E-04    5.61100E+04
 2.75360E-04    5.20267E+04
 3.53580E-04    4.88363E+04
 4.54000E-04    4.59563E+04
 5.82950E-04    4.32571E+04
 7.48520E-04    4.05832E+04
 9.61120E-04    3.80111E+04
 1.23410E-03    3.55746E+04
 1.58460E-03    3.32926E+04
 2.03470E-03    3.16757E+04
 2.24870E-03    3.06947E+04
 2.48520E-03    2.99782E+04
 2.61260E-03    2.95107E+04
 2.74650E-03    2.88246E+04
 3.03540E-03    2.79322E+04
 3.35460E-03    2.70682E+04
 3.70740E-03    2.60281E+04
 4.30740E-03    2.43944E+04
 5.53080E-03    2.20415E+04
 7.10170E-03    1.99355E+04
 9.11880E-03    1.82649E+04
 1.17090E-02    1.67545E+04
 1.50340E-02    1.53709E+04
 1.93050E-02    1.44040E+04
 2.18750E-02    1.39126E+04
 2.35790E-02    1.36727E+04
 2.41760E-02    1.35545E+04
 2.47880E-02    1.33796E+04
 2.60580E-02    1.31827E+04
 2.70000E-02    1.29793E+04
 2.85000E-02    1.26141E+04
 3.18280E-02    1.22106E+04
 3.43070E-02    1.16889E+04
 4.08680E-02    1.10970E+04
 4.63090E-02    1.06317E+04
 5.24750E-02    1.02667E+04
 5.65620E-02    9.82552E+03
 6.73790E-02    9.21403E+03
 7.20000E-02    8.65115E+03
 7.95000E-02    8.24548E+03
 8.25000E-02    8.08930E+03
 8.65170E-02    7.78549E+03
 9.80370E-02    7.37410E+03
 1.11090E-01    7.09351E+03
 1.16790E-01    6.95330E+03
 1.22770E-01    6.82040E+03
 1.29070E-01    6.69243E+03
 1.35690E-01    6.56752E+03
 1.42640E-01    6.44685E+03
 1.49960E-01    6.32355E+03
 1.57640E-01    6.21234E+03
 1.65730E-01    6.07652E+03
 1.74220E-01    5.89082E+03
 1.83160E-01    5.76710E+03
 1.92550E-01    5.65677E+03
 2.02420E-01    5.54995E+03
 2.12800E-01    5.42708E+03
 2.23710E-01    5.29890E+03
 2.35180E-01    5.19318E+03
 2.47240E-01    5.06713E+03
 2.73240E-01    4.96958E+03
 2.87250E-01    4.91855E+03
 2.94520E-01    4.89467E+03
 2.97200E-01    4.88479E+03
 2.98500E-01    4.87287E+03
 3.01970E-01    4.77645E+03
 3.33730E-01    4.61425E+03
 3.68830E-01    4.50291E+03
 3.87740E-01    4.43800E+03
 4.07620E-01    4.38005E+03
 4.50490E-01    4.31306E+03
 4.97870E-01    4.26924E+03
 5.23400E-01    4.24303E+03
 5.50230E-01    4.22544E+03
 5.78440E-01    4.20727E+03
 6.08100E-01    4.19299E+03
 6.39280E-01    4.18455E+03
 6.72060E-01    4.17572E+03
 7.06510E-01    4.16699E+03
 7.42740E-01    4.16146E+03
 7.80820E-01    4.15708E+03
 8.20850E-01    4.15688E+03
 8.62940E-01    4.15679E+03
 9.07180E-01    4.15872E+03
 9.61640E-01    4.16158E+03
 1.00260E+00    4.16587E+03
 1.10800E+00    4.16663E+03
 1.16480E+00    4.16340E+03
 1.22460E+00    4.16001E+03
 1.28730E+00    4.15519E+03
 1.35340E+00    4.14317E+03
 1.42270E+00    4.12947E+03
 1.49570E+00    4.11267E+03
 1.57240E+00    4.08699E+03
 1.65300E+00    4.05936E+03
 1.73770E+00    4.02431E+03
 1.82680E+00    3.98176E+03
 1.92050E+00    3.93595E+03
 2.01900E+00    3.87869E+03
 2.12250E+00    3.81643E+03
 2.23130E+00    3.76192E+03
 2.30690E+00    3.72551E+03
 2.34570E+00    3.70636E+03
 2.36530E+00    3.69343E+03
 2.38520E+00    3.66059E+03
 2.46600E+00    3.59283E+03
 2.59240E+00    3.50544E+03
 2.72530E+00    3.41257E+03
 2.86500E+00    3.31493E+03
 3.01190E+00    3.21265E+03
 3.16640E+00    3.10871E+03
 3.32870E+00    2.95286E+03
 3.67880E+00    2.74446E+03
 4.06570E+00    2.54856E+03
 4.49330E+00    2.41336E+03
 4.72370E+00    2.33261E+03
 4.96590E+00    2.26039E+03
 5.22050E+00    2.20071E+03
 5.48810E+00    2.15623E+03
 5.76950E+00    2.11541E+03
 6.06530E+00    2.09171E+03
 6.37630E+00    2.08148E+03
 6.59240E+00    2.08286E+03
 6.70320E+00    2.08824E+03
 7.04690E+00    2.10944E+03
 7.40820E+00    2.14191E+03
 7.78800E+00    2.18634E+03
 8.18730E+00    2.24196E+03
 8.60710E+00    2.30421E+03
 9.04840E+00    2.37349E+03
 9.51230E+00    2.44658E+03
 1.00000E+01    2.52233E+03
 1.05130E+01    2.59816E+03
 1.10520E+01    2.67186E+03
 1.16180E+01    2.74117E+03
 1.22140E+01    2.80375E+03
 1.28400E+01    2.85720E+03
 1.34990E+01    2.89020E+03
 1.38400E+01    2.90767E+03
 1.41910E+01    2.92144E+03
 1.45500E+01    2.93138E+03
 1.49180E+01    2.93875E+03
 1.56830E+01    2.93416E+03
 1.64870E+01    2.91251E+03
