# n + Mo 96 : (n,g)     
# jeff3.3    K.Shibata, A.Ichihara, S.Kunieda+ EVAL-MAR09
# uncertainties: n
# # energies =    69
#   E(MeV)       xs(mb) 
 1.00000E-10    3.11922E+03
 5.00000E-09    8.49391E+02
 1.00000E-08    6.43343E+02
 1.50000E-08    5.40568E+02
 2.00000E-08    4.75631E+02
 2.50000E-08    4.29742E+02
 3.00000E-08    3.95062E+02
 3.50000E-08    3.63253E+02
 4.20000E-08    3.32289E+02
 5.00000E-08    3.06542E+02
 5.80000E-08    2.84947E+02
 6.70000E-08    2.63002E+02
 8.00000E-08    2.38046E+02
 1.00000E-07    2.07194E+02
 1.40000E-07    1.78888E+02
 1.80000E-07    1.59830E+02
 2.20000E-07    1.47271E+02
 2.50000E-07    1.38709E+02
 2.80000E-07    1.32564E+02
 3.00000E-07    1.28248E+02
 3.20000E-07    1.23449E+02
 3.50000E-07    1.16829E+02
 4.00000E-07    1.07014E+02
 5.00000E-07    9.58717E+01
 6.25000E-07    8.59571E+01
 7.80000E-07    7.96992E+01
 8.50000E-07    7.67579E+01
 9.10000E-07    7.47049E+01
 9.50000E-07    7.35169E+01
 9.72000E-07    7.26777E+01
 9.96000E-07    7.18311E+01
 1.02000E-06    7.09991E+01
 1.04500E-06    7.01668E+01
 1.07100E-06    6.93489E+01
 1.09700E-06    6.85591E+01
 1.12300E-06    6.77886E+01
 1.15000E-06    6.54454E+01
 1.30000E-06    6.14080E+01
 1.50000E-06    5.48462E+01
 2.10000E-06    4.81758E+01
 2.60000E-06    4.34063E+01
 3.30000E-06    3.93798E+01
 4.00000E-06    3.14350E+01
 9.87700E-06    2.43959E+01
 1.59680E-05    2.18015E+01
 2.77000E-05    2.23819E+01
 4.80520E-05    3.14671E+01
 7.55014E-05    2.38656E+04
 1.48728E-04    3.08615E+01
 3.67262E-04    1.52468E+02
 9.06898E-04    3.95430E+01
 1.42510E-03    5.54850E+01
 2.23945E-03    5.13573E+02
 3.51910E-03    2.85358E+02
 5.53000E-03    3.23505E+02
 9.11800E-03    1.75048E+02
 1.50300E-02    1.60374E+02
 2.47800E-02    1.02136E+02
 4.08500E-02    7.17818E+01
 6.73400E-02    5.47380E+01
 1.11000E-01    4.74570E+01
 1.83000E-01    4.27444E+01
 3.02000E-01    4.25098E+01
 5.00000E-01    4.41404E+01
 8.21000E-01    2.49710E+01
 1.35300E+00    2.00124E+01
 2.23100E+00    9.56524E+00
 3.67900E+00    4.53073E+00
 6.06500E+00    1.25664E+00
