# n + Rb 85 : (n,n'25)  
# jendl4.0   K.Shibata, A.Ichihara, S.Kunieda  EVAL-AUG09
# uncertainties: n
# # energies =    29
#   E(MeV)       xs(mb) 
 1.91346E+00    0.00000E+00
 2.00000E+00    1.18600E+01
 2.50000E+00    3.84000E+01
 3.00000E+00    3.32900E+01
 3.50000E+00    2.60100E+01
 4.00000E+00    1.83700E+01
 4.50000E+00    1.30000E+01
 5.00000E+00    8.63600E+00
 5.50000E+00    5.74600E+00
 6.00000E+00    3.78900E+00
 6.50000E+00    2.62300E+00
 7.00000E+00    1.86800E+00
 7.50000E+00    1.45500E+00
 8.00000E+00    1.16000E+00
 8.50000E+00    1.01600E+00
 9.00000E+00    8.82500E-01
 9.50000E+00    8.27000E-01
 1.00000E+01    7.46300E-01
 1.10000E+01    6.55500E-01
 1.20000E+01    5.83200E-01
 1.30000E+01    5.25900E-01
 1.40000E+01    4.79300E-01
 1.45000E+01    4.43100E-01
 1.50000E+01    4.36900E-01
 1.60000E+01    3.98600E-01
 1.70000E+01    3.64500E-01
 1.80000E+01    3.34500E-01
 1.90000E+01    2.89400E-01
 2.00000E+01    2.68000E-01
