# n + Rb 85 : (n,n'22)  
# jendl4.0   K.Shibata, A.Ichihara, S.Kunieda  EVAL-AUG09
# uncertainties: n
# # energies =    29
#   E(MeV)       xs(mb) 
 1.81357E+00    0.00000E+00
 2.00000E+00    7.83500E+00
 2.50000E+00    1.62800E+01
 3.00000E+00    1.51300E+01
 3.50000E+00    1.31200E+01
 4.00000E+00    1.00500E+01
 4.50000E+00    7.26100E+00
 5.00000E+00    4.73100E+00
 5.50000E+00    3.02900E+00
 6.00000E+00    1.90300E+00
 6.50000E+00    1.25600E+00
 7.00000E+00    8.56100E-01
 7.50000E+00    6.41800E-01
 8.00000E+00    4.95200E-01
 8.50000E+00    4.22600E-01
 9.00000E+00    3.59300E-01
 9.50000E+00    3.31000E-01
 1.00000E+01    2.94700E-01
 1.10000E+01    2.53900E-01
 1.20000E+01    2.23500E-01
 1.30000E+01    2.00700E-01
 1.40000E+01    1.82600E-01
 1.45000E+01    1.68800E-01
 1.50000E+01    1.66200E-01
 1.60000E+01    1.51100E-01
 1.70000E+01    1.37300E-01
 1.80000E+01    1.25000E-01
 1.90000E+01    1.07200E-01
 2.00000E+01    9.85900E-02
