# n + Rb 85 : (n,n'13)  
# jendl4.0   K.Shibata, A.Ichihara, S.Kunieda  EVAL-AUG09
# uncertainties: n
# # energies =    30
#   E(MeV)       xs(mb) 
 1.31133E+00    0.00000E+00
 1.50000E+00    3.65300E+01
 2.00000E+00    6.13300E+01
 2.50000E+00    5.35600E+01
 3.00000E+00    4.26800E+01
 3.50000E+00    3.42500E+01
 4.00000E+00    2.37600E+01
 4.50000E+00    1.58400E+01
 5.00000E+00    9.75200E+00
 5.50000E+00    6.02600E+00
 6.00000E+00    3.72100E+00
 6.50000E+00    2.44300E+00
 7.00000E+00    1.66800E+00
 7.50000E+00    1.25600E+00
 8.00000E+00    9.74100E-01
 8.50000E+00    8.34300E-01
 9.00000E+00    7.10700E-01
 9.50000E+00    6.55100E-01
 1.00000E+01    5.82800E-01
 1.10000E+01    5.01300E-01
 1.20000E+01    4.40900E-01
 1.30000E+01    3.95800E-01
 1.40000E+01    3.60200E-01
 1.45000E+01    3.32700E-01
 1.50000E+01    3.27700E-01
 1.60000E+01    2.97600E-01
 1.70000E+01    2.70200E-01
 1.80000E+01    2.45900E-01
 1.90000E+01    2.11000E-01
 2.00000E+01    1.94200E-01
