# n + Rb 85 : (n,n'04)  
# jendl4.0   K.Shibata, A.Ichihara, S.Kunieda  EVAL-AUG09
# uncertainties: n
# # energies =    33
#   E(MeV)       xs(mb) 
 7.40515E-01    0.00000E+00
 8.00000E-01    4.70200E+01
 9.00000E-01    1.11400E+02
 1.00000E+00    1.40300E+02
 1.50000E+00    1.26900E+02
 2.00000E+00    9.26000E+01
 2.50000E+00    7.60600E+01
 3.00000E+00    5.85400E+01
 3.50000E+00    4.34100E+01
 4.00000E+00    2.79300E+01
 4.50000E+00    1.76200E+01
 5.00000E+00    1.04800E+01
 5.50000E+00    6.36400E+00
 6.00000E+00    3.90500E+00
 6.50000E+00    2.56300E+00
 7.00000E+00    1.75300E+00
 7.50000E+00    1.32300E+00
 8.00000E+00    1.02600E+00
 8.50000E+00    8.77900E-01
 9.00000E+00    7.46100E-01
 9.50000E+00    6.85700E-01
 1.00000E+01    6.08200E-01
 1.10000E+01    5.20600E-01
 1.20000E+01    4.56400E-01
 1.30000E+01    4.08600E-01
 1.40000E+01    3.70700E-01
 1.45000E+01    3.41900E-01
 1.50000E+01    3.36200E-01
 1.60000E+01    3.04400E-01
 1.70000E+01    2.75700E-01
 1.80000E+01    2.50600E-01
 1.90000E+01    2.14900E-01
 2.00000E+01    1.97700E-01
