# n + Rb 85 : (n,n'30)  
# jendl4.0   K.Shibata, A.Ichihara, S.Kunieda  EVAL-AUG09
# uncertainties: n
# # energies =    28
#   E(MeV)       xs(mb) 
 2.06373E+00    0.00000E+00
 2.50000E+00    1.12700E+01
 3.00000E+00    1.28300E+01
 3.50000E+00    1.13600E+01
 4.00000E+00    8.85900E+00
 4.50000E+00    6.61000E+00
 5.00000E+00    4.43400E+00
 5.50000E+00    2.90000E+00
 6.00000E+00    1.84500E+00
 6.50000E+00    1.22600E+00
 7.00000E+00    8.37300E-01
 7.50000E+00    6.27700E-01
 8.00000E+00    4.83900E-01
 8.50000E+00    4.12700E-01
 9.00000E+00    3.51000E-01
 9.50000E+00    3.23600E-01
 1.00000E+01    2.88400E-01
 1.10000E+01    2.49100E-01
 1.20000E+01    2.19700E-01
 1.30000E+01    1.97600E-01
 1.40000E+01    1.80100E-01
 1.45000E+01    1.66500E-01
 1.50000E+01    1.64100E-01
 1.60000E+01    1.49400E-01
 1.70000E+01    1.35900E-01
 1.80000E+01    1.23800E-01
 1.90000E+01    1.06300E-01
 2.00000E+01    9.77800E-02
