# n + Rb 85 : (n,n'12)  
# jendl4.0   K.Shibata, A.Ichihara, S.Kunieda  EVAL-AUG09
# uncertainties: n
# # energies =    30
#   E(MeV)       xs(mb) 
 1.30873E+00    0.00000E+00
 1.50000E+00    2.38100E+01
 2.00000E+00    4.20700E+01
 2.50000E+00    5.19700E+01
 3.00000E+00    3.70200E+01
 3.50000E+00    2.47500E+01
 4.00000E+00    1.53100E+01
 4.50000E+00    9.72900E+00
 5.00000E+00    6.32100E+00
 5.50000E+00    4.20400E+00
 6.00000E+00    2.86500E+00
 6.50000E+00    2.07400E+00
 7.00000E+00    1.56000E+00
 7.50000E+00    1.28100E+00
 8.00000E+00    1.07400E+00
 8.50000E+00    9.84500E-01
 9.00000E+00    8.87300E-01
 9.50000E+00    8.59000E-01
 1.00000E+01    7.97600E-01
 1.10000E+01    7.36800E-01
 1.20000E+01    6.84200E-01
 1.30000E+01    6.39200E-01
 1.40000E+01    5.99700E-01
 1.45000E+01    5.61600E-01
 1.50000E+01    5.60300E-01
 1.60000E+01    5.22800E-01
 1.70000E+01    4.88700E-01
 1.80000E+01    4.58600E-01
 1.90000E+01    4.05600E-01
 2.00000E+01    3.83500E-01
