# n + Rb 85 : (n,n'32)  
# jendl4.0   K.Shibata, A.Ichihara, S.Kunieda  EVAL-AUG09
# uncertainties: n
# # energies =    28
#   E(MeV)       xs(mb) 
 2.11240E+00    0.00000E+00
 2.50000E+00    2.30000E+01
 3.00000E+00    2.63900E+01
 3.50000E+00    2.22600E+01
 4.00000E+00    1.67000E+01
 4.50000E+00    1.22700E+01
 5.00000E+00    8.19900E+00
 5.50000E+00    5.35600E+00
 6.00000E+00    3.41200E+00
 6.50000E+00    2.27000E+00
 7.00000E+00    1.55400E+00
 7.50000E+00    1.16800E+00
 8.00000E+00    9.03700E-01
 8.50000E+00    7.73200E-01
 9.00000E+00    6.59500E-01
 9.50000E+00    6.09800E-01
 1.00000E+01    5.44800E-01
 1.10000E+01    4.72600E-01
 1.20000E+01    4.18300E-01
 1.30000E+01    3.77200E-01
 1.40000E+01    3.44700E-01
 1.45000E+01    3.19100E-01
 1.50000E+01    3.14900E-01
 1.60000E+01    2.87300E-01
 1.70000E+01    2.61900E-01
 1.80000E+01    2.39000E-01
 1.90000E+01    2.05400E-01
 2.00000E+01    1.89200E-01
