# n + Rb 85 : (n,n'29)  
# jendl4.0   K.Shibata, A.Ichihara, S.Kunieda  EVAL-AUG09
# uncertainties: n
# # energies =    28
#   E(MeV)       xs(mb) 
 2.05220E+00    0.00000E+00
 2.50000E+00    2.62400E+01
 3.00000E+00    2.75300E+01
 3.50000E+00    2.29900E+01
 4.00000E+00    1.72200E+01
 4.50000E+00    1.25700E+01
 5.00000E+00    8.34100E+00
 5.50000E+00    5.41800E+00
 6.00000E+00    3.43900E+00
 6.50000E+00    2.28400E+00
 7.00000E+00    1.56300E+00
 7.50000E+00    1.17500E+00
 8.00000E+00    9.08800E-01
 8.50000E+00    7.77700E-01
 9.00000E+00    6.63400E-01
 9.50000E+00    6.13300E-01
 1.00000E+01    5.47700E-01
 1.10000E+01    4.74800E-01
 1.20000E+01    4.20000E-01
 1.30000E+01    3.78600E-01
 1.40000E+01    3.45900E-01
 1.45000E+01    3.20200E-01
 1.50000E+01    3.15900E-01
 1.60000E+01    2.88100E-01
 1.70000E+01    2.62500E-01
 1.80000E+01    2.39500E-01
 1.90000E+01    2.05900E-01
 2.00000E+01    1.89600E-01
