# n + Rb 85 : (n,n'18)  
# jendl4.0   K.Shibata, A.Ichihara, S.Kunieda  EVAL-AUG09
# uncertainties: n
# # energies =    29
#   E(MeV)       xs(mb) 
 1.65084E+00    0.00000E+00
 2.00000E+00    5.85600E+01
 2.50000E+00    7.08600E+01
 3.00000E+00    5.43600E+01
 3.50000E+00    4.17300E+01
 4.00000E+00    2.88800E+01
 4.50000E+00    1.95300E+01
 5.00000E+00    1.22500E+01
 5.50000E+00    7.65700E+00
 6.00000E+00    4.76900E+00
 6.50000E+00    3.14500E+00
 7.00000E+00    2.15600E+00
 7.50000E+00    1.62900E+00
 8.00000E+00    1.26900E+00
 8.50000E+00    1.09300E+00
 9.00000E+00    9.36000E-01
 9.50000E+00    8.67600E-01
 1.00000E+01    7.76100E-01
 1.10000E+01    6.74200E-01
 1.20000E+01    5.97700E-01
 1.30000E+01    5.40100E-01
 1.40000E+01    4.94200E-01
 1.45000E+01    4.57700E-01
 1.50000E+01    4.51800E-01
 1.60000E+01    4.12200E-01
 1.70000E+01    3.75800E-01
 1.80000E+01    3.43300E-01
 1.90000E+01    2.95600E-01
 2.00000E+01    2.72800E-01
