# n + Rb 85 : (n,n'23)  
# jendl4.0   K.Shibata, A.Ichihara, S.Kunieda  EVAL-AUG09
# uncertainties: n
# # energies =    29
#   E(MeV)       xs(mb) 
 1.82361E+00    0.00000E+00
 2.00000E+00    2.69100E+01
 2.50000E+00    5.45600E+01
 3.00000E+00    4.39000E+01
 3.50000E+00    3.16100E+01
 4.00000E+00    2.08000E+01
 4.50000E+00    1.41000E+01
 5.00000E+00    9.26100E+00
 5.50000E+00    6.14300E+00
 6.00000E+00    4.09200E+00
 6.50000E+00    2.87300E+00
 7.00000E+00    2.08400E+00
 7.50000E+00    1.65200E+00
 8.00000E+00    1.34000E+00
 8.50000E+00    1.19300E+00
 9.00000E+00    1.05000E+00
 9.50000E+00    9.95900E-01
 1.00000E+01    9.08600E-01
 1.10000E+01    8.14700E-01
 1.20000E+01    7.38200E-01
 1.30000E+01    6.75800E-01
 1.40000E+01    6.23600E-01
 1.45000E+01    5.79500E-01
 1.50000E+01    5.74200E-01
 1.60000E+01    5.28600E-01
 1.70000E+01    4.87700E-01
 1.80000E+01    4.51700E-01
 1.90000E+01    3.94300E-01
 2.00000E+01    3.68300E-01
