# n + Rb 85 : (n,n'17)  
# jendl4.0   K.Shibata, A.Ichihara, S.Kunieda  EVAL-AUG09
# uncertainties: n
# # energies =    29
#   E(MeV)       xs(mb) 
 1.51406E+00    0.00000E+00
 2.00000E+00    2.06300E+01
 2.50000E+00    2.11100E+01
 3.00000E+00    1.81700E+01
 3.50000E+00    1.55700E+01
 4.00000E+00    1.14700E+01
 4.50000E+00    7.97200E+00
 5.00000E+00    5.03500E+00
 5.50000E+00    3.15900E+00
 6.00000E+00    1.96300E+00
 6.50000E+00    1.29000E+00
 7.00000E+00    8.78600E-01
 7.50000E+00    6.59100E-01
 8.00000E+00    5.09000E-01
 8.50000E+00    4.34500E-01
 9.00000E+00    3.69300E-01
 9.50000E+00    3.39800E-01
 1.00000E+01    3.02000E-01
 1.10000E+01    2.59400E-01
 1.20000E+01    2.27900E-01
 1.30000E+01    2.04300E-01
 1.40000E+01    1.85600E-01
 1.45000E+01    1.71400E-01
 1.50000E+01    1.68700E-01
 1.60000E+01    1.53100E-01
 1.70000E+01    1.38900E-01
 1.80000E+01    1.26300E-01
 1.90000E+01    1.08300E-01
 2.00000E+01    9.95600E-02
