# n + Rb 85 : (n,n'14)  
# jendl4.0   K.Shibata, A.Ichihara, S.Kunieda  EVAL-AUG09
# uncertainties: n
# # energies =    30
#   E(MeV)       xs(mb) 
 1.40065E+00    0.00000E+00
 1.50000E+00    3.75300E+01
 2.00000E+00    1.15300E+02
 2.50000E+00    1.11900E+02
 3.00000E+00    7.81900E+01
 3.50000E+00    5.59600E+01
 4.00000E+00    3.60500E+01
 4.50000E+00    2.31400E+01
 5.00000E+00    1.40700E+01
 5.50000E+00    8.63900E+00
 6.00000E+00    5.35700E+00
 6.50000E+00    3.54300E+00
 7.00000E+00    2.44800E+00
 7.50000E+00    1.86600E+00
 8.00000E+00    1.46700E+00
 8.50000E+00    1.27200E+00
 9.00000E+00    1.09500E+00
 9.50000E+00    1.02000E+00
 1.00000E+01    9.15400E-01
 1.10000E+01    8.00600E-01
 1.20000E+01    7.14500E-01
 1.30000E+01    6.49300E-01
 1.40000E+01    5.96900E-01
 1.45000E+01    5.53800E-01
 1.50000E+01    5.47600E-01
 1.60000E+01    5.01000E-01
 1.70000E+01    4.58100E-01
 1.80000E+01    4.19800E-01
 1.90000E+01    3.62600E-01
 2.00000E+01    3.35700E-01
