# n + Rb 85 : (n,n'20)  
# jendl4.0   K.Shibata, A.Ichihara, S.Kunieda  EVAL-AUG09
# uncertainties: n
# # energies =    29
#   E(MeV)       xs(mb) 
 1.76856E+00    0.00000E+00
 2.00000E+00    3.20800E+01
 2.50000E+00    5.44800E+01
 3.00000E+00    4.09800E+01
 3.50000E+00    2.81300E+01
 4.00000E+00    1.79800E+01
 4.50000E+00    1.19300E+01
 5.00000E+00    7.85600E+00
 5.50000E+00    5.23700E+00
 6.00000E+00    3.53000E+00
 6.50000E+00    2.51300E+00
 7.00000E+00    1.85100E+00
 7.50000E+00    1.49100E+00
 8.00000E+00    1.22700E+00
 8.50000E+00    1.10800E+00
 9.00000E+00    9.86200E-01
 9.50000E+00    9.45100E-01
 1.00000E+01    8.70000E-01
 1.10000E+01    7.92200E-01
 1.20000E+01    7.26900E-01
 1.30000E+01    6.72400E-01
 1.40000E+01    6.25700E-01
 1.45000E+01    5.83700E-01
 1.50000E+01    5.80400E-01
 1.60000E+01    5.37900E-01
 1.70000E+01    4.99400E-01
 1.80000E+01    4.65400E-01
 1.90000E+01    4.08800E-01
 2.00000E+01    3.84100E-01
