# n + Rb 85 : (n,n'15)  
# jendl4.0   K.Shibata, A.Ichihara, S.Kunieda  EVAL-AUG09
# uncertainties: n
# # energies =    30
#   E(MeV)       xs(mb) 
 1.46223E+00    0.00000E+00
 1.50000E+00    1.37700E+01
 2.00000E+00    1.06600E+02
 2.50000E+00    1.08100E+02
 3.00000E+00    7.57300E+01
 3.50000E+00    5.43400E+01
 4.00000E+00    3.52500E+01
 4.50000E+00    2.27800E+01
 5.00000E+00    1.39200E+01
 5.50000E+00    8.57500E+00
 6.00000E+00    5.32500E+00
 6.50000E+00    3.52300E+00
 7.00000E+00    2.43400E+00
 7.50000E+00    1.85500E+00
 8.00000E+00    1.45800E+00
 8.50000E+00    1.26400E+00
 9.00000E+00    1.08900E+00
 9.50000E+00    1.01400E+00
 1.00000E+01    9.10700E-01
 1.10000E+01    7.97000E-01
 1.20000E+01    7.11600E-01
 1.30000E+01    6.46900E-01
 1.40000E+01    5.94900E-01
 1.45000E+01    5.52000E-01
 1.50000E+01    5.45900E-01
 1.60000E+01    4.99700E-01
 1.70000E+01    4.57100E-01
 1.80000E+01    4.18800E-01
 1.90000E+01    3.61800E-01
 2.00000E+01    3.35000E-01
