# n + Rb 85 : (n,n'03)  
# jendl4.0   K.Shibata, A.Ichihara, S.Kunieda  EVAL-AUG09
# uncertainties: n
# # energies =    35
#   E(MeV)       xs(mb) 
 5.20114E-01    0.00000E+00
 6.00000E-01    1.38600E+02
 7.00000E-01    2.06400E+02
 8.00000E-01    2.50000E+02
 9.00000E-01    2.72600E+02
 1.00000E+00    2.68000E+02
 1.50000E+00    2.02700E+02
 2.00000E+00    1.52500E+02
 2.50000E+00    1.28500E+02
 3.00000E+00    8.23600E+01
 3.50000E+00    5.28200E+01
 4.00000E+00    3.12500E+01
 4.50000E+00    1.92900E+01
 5.00000E+00    1.18500E+01
 5.50000E+00    7.52800E+00
 6.00000E+00    4.89600E+00
 6.50000E+00    3.39600E+00
 7.00000E+00    2.44700E+00
 7.50000E+00    1.92900E+00
 8.00000E+00    1.55500E+00
 8.50000E+00    1.37200E+00
 9.00000E+00    1.19600E+00
 9.50000E+00    1.12300E+00
 1.00000E+01    1.01500E+00
 1.10000E+01    8.94600E-01
 1.20000E+01    8.00500E-01
 1.30000E+01    7.26100E-01
 1.40000E+01    6.65200E-01
 1.45000E+01    6.16300E-01
 1.50000E+01    6.08900E-01
 1.60000E+01    5.57900E-01
 1.70000E+01    5.12800E-01
 1.80000E+01    4.73500E-01
 1.90000E+01    4.12400E-01
 2.00000E+01    3.84200E-01
