# n + Rb 85 : (n,n'21)  
# jendl4.0   K.Shibata, A.Ichihara, S.Kunieda  EVAL-AUG09
# uncertainties: n
# # energies =    29
#   E(MeV)       xs(mb) 
 1.80816E+00    0.00000E+00
 2.00000E+00    2.52700E+01
 2.50000E+00    4.36200E+01
 3.00000E+00    3.55200E+01
 3.50000E+00    2.74300E+01
 4.00000E+00    1.92100E+01
 4.50000E+00    1.34600E+01
 5.00000E+00    8.86500E+00
 5.50000E+00    5.86100E+00
 6.00000E+00    3.84900E+00
 6.50000E+00    2.65900E+00
 7.00000E+00    1.89300E+00
 7.50000E+00    1.47300E+00
 8.00000E+00    1.17400E+00
 8.50000E+00    1.02800E+00
 9.00000E+00    8.92500E-01
 9.50000E+00    8.35800E-01
 1.00000E+01    7.53600E-01
 1.10000E+01    6.60800E-01
 1.20000E+01    5.87200E-01
 1.30000E+01    5.29100E-01
 1.40000E+01    4.81900E-01
 1.45000E+01    4.45400E-01
 1.50000E+01    4.39000E-01
 1.60000E+01    4.00400E-01
 1.70000E+01    3.66000E-01
 1.80000E+01    3.35800E-01
 1.90000E+01    2.90500E-01
 2.00000E+01    2.69000E-01
