# n + Rb 85 : (n,n'24)  
# jendl4.0   K.Shibata, A.Ichihara, S.Kunieda  EVAL-AUG09
# uncertainties: n
# # energies =    29
#   E(MeV)       xs(mb) 
 1.87463E+00    0.00000E+00
 2.00000E+00    1.05500E+01
 2.50000E+00    2.62700E+01
 3.00000E+00    2.31800E+01
 3.50000E+00    1.88800E+01
 4.00000E+00    1.38000E+01
 4.50000E+00    9.93100E+00
 5.00000E+00    6.62400E+00
 5.50000E+00    4.40900E+00
 6.00000E+00    2.89700E+00
 6.50000E+00    1.99600E+00
 7.00000E+00    1.41400E+00
 7.50000E+00    1.09500E+00
 8.00000E+00    8.67000E-01
 8.50000E+00    7.55400E-01
 9.00000E+00    6.52700E-01
 9.50000E+00    6.09000E-01
 1.00000E+01    5.47400E-01
 1.10000E+01    4.77600E-01
 1.20000E+01    4.22700E-01
 1.30000E+01    3.79600E-01
 1.40000E+01    3.44600E-01
 1.45000E+01    3.18000E-01
 1.50000E+01    3.13100E-01
 1.60000E+01    2.84700E-01
 1.70000E+01    2.59600E-01
 1.80000E+01    2.37600E-01
 1.90000E+01    2.05100E-01
 2.00000E+01    1.89500E-01
