# n + Rb 85 : (n,n'01)  
# jendl4.0   K.Shibata, A.Ichihara, S.Kunieda  EVAL-AUG09
# uncertainties: n
# # energies =    39
#   E(MeV)       xs(mb) 
 1.52957E-01    0.00000E+00
 2.00000E-01    1.81800E+02
 3.00000E-01    3.70900E+02
 4.00000E-01    4.53200E+02
 5.00000E-01    4.90300E+02
 6.00000E-01    4.98400E+02
 7.00000E-01    4.93300E+02
 8.00000E-01    4.69500E+02
 9.00000E-01    4.35600E+02
 1.00000E+00    3.64700E+02
 1.50000E+00    1.89400E+02
 2.00000E+00    1.31300E+02
 2.50000E+00    1.05900E+02
 3.00000E+00    7.45400E+01
 3.50000E+00    5.10000E+01
 4.00000E+00    3.10000E+01
 4.50000E+00    1.89100E+01
 5.00000E+00    1.10600E+01
 5.50000E+00    6.67300E+00
 6.00000E+00    4.09500E+00
 6.50000E+00    2.69300E+00
 7.00000E+00    1.84600E+00
 7.50000E+00    1.39300E+00
 8.00000E+00    1.07900E+00
 8.50000E+00    9.21300E-01
 9.00000E+00    7.80700E-01
 9.50000E+00    7.15300E-01
 1.00000E+01    6.32800E-01
 1.10000E+01    5.39500E-01
 1.20000E+01    4.71700E-01
 1.30000E+01    4.21200E-01
 1.40000E+01    3.81000E-01
 1.45000E+01    3.50900E-01
 1.50000E+01    3.44400E-01
 1.60000E+01    3.11000E-01
 1.70000E+01    2.81200E-01
 1.80000E+01    2.55300E-01
 1.90000E+01    2.18800E-01
 2.00000E+01    2.01200E-01
