# n + Rb 85 : (n,n'27)  
# jendl4.0   K.Shibata, A.Ichihara, S.Kunieda  EVAL-AUG09
# uncertainties: n
# # energies =    29
#   E(MeV)       xs(mb) 
 1.97319E+00    0.00000E+00
 2.00000E+00    1.02700E+00
 2.50000E+00    1.32500E+01
 3.00000E+00    1.36600E+01
 3.50000E+00    1.19600E+01
 4.00000E+00    9.28300E+00
 4.50000E+00    6.85000E+00
 5.00000E+00    4.54600E+00
 5.50000E+00    2.94900E+00
 6.00000E+00    1.86700E+00
 6.50000E+00    1.23700E+00
 7.00000E+00    8.44100E-01
 7.50000E+00    6.32700E-01
 8.00000E+00    4.88000E-01
 8.50000E+00    4.16300E-01
 9.00000E+00    3.54000E-01
 9.50000E+00    3.26300E-01
 1.00000E+01    2.90700E-01
 1.10000E+01    2.50800E-01
 1.20000E+01    2.21100E-01
 1.30000E+01    1.98700E-01
 1.40000E+01    1.81000E-01
 1.45000E+01    1.67300E-01
 1.50000E+01    1.64900E-01
 1.60000E+01    1.50000E-01
 1.70000E+01    1.36400E-01
 1.80000E+01    1.24200E-01
 1.90000E+01    1.06600E-01
 2.00000E+01    9.80700E-02
