# n + Rb 85 : (n,n'26)  
# jendl4.0   K.Shibata, A.Ichihara, S.Kunieda  EVAL-AUG09
# uncertainties: n
# # energies =    29
#   E(MeV)       xs(mb) 
 1.95262E+00    0.00000E+00
 2.00000E+00    7.01300E+00
 2.50000E+00    5.19900E+01
 3.00000E+00    4.58500E+01
 3.50000E+00    3.54500E+01
 4.00000E+00    2.51600E+01
 4.50000E+00    1.76500E+01
 5.00000E+00    1.14300E+01
 5.50000E+00    7.30800E+00
 6.00000E+00    4.60900E+00
 6.50000E+00    3.05700E+00
 7.00000E+00    2.09800E+00
 7.50000E+00    1.58500E+00
 8.00000E+00    1.23300E+00
 8.50000E+00    1.06100E+00
 9.00000E+00    9.09200E-01
 9.50000E+00    8.43700E-01
 1.00000E+01    7.56000E-01
 1.10000E+01    6.58900E-01
 1.20000E+01    5.85600E-01
 1.30000E+01    5.30100E-01
 1.40000E+01    4.85800E-01
 1.45000E+01    4.50300E-01
 1.50000E+01    4.44900E-01
 1.60000E+01    4.06600E-01
 1.70000E+01    3.71300E-01
 1.80000E+01    3.39600E-01
 1.90000E+01    2.92500E-01
 2.00000E+01    2.70100E-01
