# n + Rb 85 : (n,n'05)  
# jendl4.0   K.Shibata, A.Ichihara, S.Kunieda  EVAL-AUG09
# uncertainties: n
# # energies =    32
#   E(MeV)       xs(mb) 
 8.79303E-01    0.00000E+00
 9.00000E-01    3.25300E+01
 1.00000E+00    1.38200E+02
 1.50000E+00    2.61000E+02
 2.00000E+00    2.12900E+02
 2.50000E+00    1.91800E+02
 3.00000E+00    1.52600E+02
 3.50000E+00    1.23500E+02
 4.00000E+00    9.60800E+01
 4.50000E+00    7.66500E+01
 5.00000E+00    6.19200E+01
 5.50000E+00    5.15200E+01
 6.00000E+00    4.42100E+01
 6.50000E+00    3.91100E+01
 7.00000E+00    3.55300E+01
 7.50000E+00    3.29800E+01
 8.00000E+00    3.10700E+01
 8.50000E+00    2.95500E+01
 9.00000E+00    2.82400E+01
 9.50000E+00    2.70400E+01
 1.00000E+01    2.59200E+01
 1.10000E+01    2.38900E+01
 1.20000E+01    2.21700E+01
 1.30000E+01    2.07100E+01
 1.40000E+01    1.94500E+01
 1.45000E+01    1.88900E+01
 1.50000E+01    1.83500E+01
 1.60000E+01    1.73900E+01
 1.70000E+01    1.65400E+01
 1.80000E+01    1.58000E+01
 1.90000E+01    1.51600E+01
 2.00000E+01    1.46100E+01
