# n + Nb 94 : (n,el)    
# jeff3.3    A.Ichihara, K.Shibata, S.Kunieda+ EVAL-NOV09
# uncertainties: n
# # energies =   171
#   E(MeV)       xs(mb) 
 1.00000E-11    1.15527E+04
 1.00000E-07    6.44036E+03
 4.13990E-07    6.41613E+03
 5.31580E-07    6.40399E+03
 6.82560E-07    6.38938E+03
 8.76420E-07    6.37108E+03
 1.12540E-06    6.34759E+03
 1.44500E-06    6.31731E+03
 1.85540E-06    6.27809E+03
 2.37240E-06    6.22718E+03
 3.05900E-06    6.16125E+03
 3.92790E-06    6.07540E+03
 5.04350E-06    5.93861E+03
 6.47600E-06    5.68646E+03
 8.31530E-06    4.90184E+03
 1.06770E-05    2.01799E+04
 1.37100E-05    7.48437E+03
 1.76030E-05    6.79241E+03
 2.26030E-05    6.61847E+03
 2.92030E-05    6.47548E+03
 3.72670E-05    1.41608E+04
 4.78510E-05    1.66531E+04
 6.14420E-05    1.60060E+04
 7.88930E-05    1.53707E+04
 1.01300E-04    1.47327E+04
 1.30070E-04    1.41085E+04
 1.67020E-04    1.35102E+04
 2.14450E-04    1.29216E+04
 2.75360E-04    1.23532E+04
 3.53580E-04    1.18101E+04
 4.54000E-04    1.12962E+04
 5.82950E-04    1.08057E+04
 7.48520E-04    1.03508E+04
 9.61120E-04    9.92308E+03
 1.23410E-03    9.52775E+03
 1.58460E-03    9.17960E+03
 2.03470E-03    8.95900E+03
 2.24870E-03    8.83837E+03
 2.48520E-03    8.74815E+03
 2.61260E-03    8.69942E+03
 2.74650E-03    8.62165E+03
 3.03540E-03    8.52614E+03
 3.35460E-03    8.43628E+03
 3.70740E-03    8.33997E+03
 4.30740E-03    8.21221E+03
 5.53080E-03    8.09111E+03
 7.10170E-03    8.02462E+03
 9.11880E-03    8.00554E+03
 1.17090E-02    8.03260E+03
 1.50340E-02    8.10360E+03
 1.93050E-02    8.18221E+03
 2.18750E-02    8.23374E+03
 2.35790E-02    8.26155E+03
 2.41760E-02    8.27605E+03
 2.47880E-02    8.29835E+03
 2.60580E-02    8.32452E+03
 2.70000E-02    8.35324E+03
 2.85000E-02    8.40929E+03
 3.18280E-02    8.47627E+03
 3.43070E-02    8.57489E+03
 4.08680E-02    8.69602E+03
 4.63090E-02    8.79929E+03
 5.24750E-02    8.88186E+03
 5.65620E-02    8.97822E+03
 6.73790E-02    9.04951E+03
 7.20000E-02    9.09246E+03
 7.95000E-02    9.09541E+03
 8.25000E-02    9.08185E+03
 8.65170E-02    9.05601E+03
 9.80370E-02    9.01541E+03
 1.11090E-01    8.98430E+03
 1.16790E-01    8.94233E+03
 1.22770E-01    8.88856E+03
 1.29070E-01    8.83970E+03
 1.35690E-01    8.79224E+03
 1.42640E-01    8.74233E+03
 1.49960E-01    8.68987E+03
 1.57640E-01    8.63698E+03
 1.65730E-01    8.59228E+03
 1.74220E-01    8.54671E+03
 1.83160E-01    8.49879E+03
 1.92550E-01    8.44843E+03
 2.02420E-01    8.39556E+03
 2.12800E-01    8.34575E+03
 2.23710E-01    8.29715E+03
 2.35180E-01    8.24606E+03
 2.47240E-01    8.16412E+03
 2.73240E-01    8.07654E+03
 2.87250E-01    8.03048E+03
 2.94520E-01    8.00978E+03
 2.97200E-01    8.00155E+03
 2.98500E-01    7.99170E+03
 3.01970E-01    7.91997E+03
 3.33730E-01    7.78161E+03
 3.68830E-01    7.66830E+03
 3.87740E-01    7.58755E+03
 4.07620E-01    7.45804E+03
 4.50490E-01    7.27029E+03
 4.97870E-01    7.12104E+03
 5.23400E-01    7.02127E+03
 5.50230E-01    6.91642E+03
 5.78440E-01    6.80618E+03
 6.08100E-01    6.69867E+03
 6.39280E-01    6.58338E+03
 6.72060E-01    6.43310E+03
 7.06510E-01    6.28244E+03
 7.42740E-01    6.13692E+03
 7.80820E-01    5.98446E+03
 8.20850E-01    5.83646E+03
 8.62940E-01    5.68680E+03
 9.07180E-01    5.53296E+03
 9.61640E-01    5.34240E+03
 1.00260E+00    5.12984E+03
 1.10800E+00    4.88536E+03
 1.16480E+00    4.68815E+03
 1.22460E+00    4.48095E+03
 1.28730E+00    4.26310E+03
 1.35340E+00    4.03407E+03
 1.42270E+00    3.79339E+03
 1.49570E+00    3.59623E+03
 1.57240E+00    3.46016E+03
 1.65300E+00    3.31737E+03
 1.73770E+00    3.16725E+03
 1.82680E+00    3.00935E+03
 1.92050E+00    2.84439E+03
 2.01900E+00    2.71029E+03
 2.12250E+00    2.58944E+03
 2.23130E+00    2.48417E+03
 2.30690E+00    2.41886E+03
 2.34570E+00    2.38556E+03
 2.36530E+00    2.36307E+03
 2.38520E+00    2.30598E+03
 2.46600E+00    2.20601E+03
 2.59240E+00    2.12459E+03
 2.72530E+00    2.04158E+03
 2.86500E+00    1.95448E+03
 3.01190E+00    1.89205E+03
 3.16640E+00    1.84836E+03
 3.32870E+00    1.78666E+03
 3.67880E+00    1.74729E+03
 4.06570E+00    1.75367E+03
 4.49330E+00    1.77602E+03
 4.72370E+00    1.79194E+03
 4.96590E+00    1.81765E+03
 5.22050E+00    1.85982E+03
 5.48810E+00    1.90439E+03
 5.76950E+00    1.95125E+03
 6.06530E+00    2.00162E+03
 6.37630E+00    2.04747E+03
 6.59240E+00    2.07595E+03
 6.70320E+00    2.11522E+03
 7.04690E+00    2.17488E+03
 7.40820E+00    2.22853E+03
 7.78800E+00    2.27912E+03
 8.18730E+00    2.32067E+03
 8.60710E+00    2.36043E+03
 9.04840E+00    2.38794E+03
 9.51230E+00    2.40714E+03
 1.00000E+01    2.41585E+03
 1.05130E+01    2.41326E+03
 1.10520E+01    2.39896E+03
 1.16180E+01    2.37464E+03
 1.22140E+01    2.33679E+03
 1.28400E+01    2.28976E+03
 1.34990E+01    2.24642E+03
 1.38400E+01    2.21579E+03
 1.41910E+01    2.18172E+03
 1.45500E+01    2.14647E+03
 1.49180E+01    2.09054E+03
 1.56830E+01    2.01177E+03
 1.64870E+01    1.92666E+03
