# n + Yb170 : (n,p)     
# jendl.ad   kunieda                           EVAL-Mar14
# uncertainties: n
# # energies =    77
#   E(MeV)       xs(mb) 
 1.87100E-01    0.00000E+00
 2.26043E-01    6.43870E-18
 3.02323E-01    2.90950E-17
 3.37707E-01    4.27020E-17
 3.71378E-01    5.72240E-17
 3.71385E-01    5.72280E-17
 3.92763E-01    7.00140E-17
 4.08110E-01    8.04460E-17
 4.25748E-01    9.38170E-17
 4.35715E-01    1.02060E-16
 4.59253E-01    1.22010E-16
 5.08322E-01    2.54040E-16
 5.16142E-01    2.75720E-16
 5.38909E-01    3.40290E-16
 5.44257E-01    3.56460E-16
 5.47342E-01    3.65980E-16
 5.70790E-01    4.40080E-16
 5.92219E-01    5.08600E-16
 5.98930E-01    5.30180E-16
 6.08789E-01    5.66410E-16
 6.16132E-01    6.23890E-16
 1.20000E+00    5.26710E-15
 1.23263E+00    5.81280E-15
 1.23617E+00    5.90020E-15
 1.26596E+00    6.98950E-15
 1.30118E+00    9.80940E-15
 1.31414E+00    1.16280E-14
 1.33769E+00    1.64530E-14
 1.35324E+00    2.16870E-14
 1.37263E+00    3.16450E-14
 1.40000E+00    5.22090E-14
 1.40535E+00    5.84300E-14
 1.40630E+00    5.88710E-14
 1.41673E+00    7.19910E-14
 1.43371E+00    1.02910E-13
 1.44629E+00    1.32240E-13
 1.60000E+00    2.78190E-12
 1.80000E+00    7.11160E-11
 2.00000E+00    1.04000E-09
 2.20000E+00    9.85360E-09
 2.40000E+00    6.60950E-08
 2.70000E+00    6.93900E-07
 3.00000E+00    4.52318E-06
 3.50000E+00    4.95375E-05
 4.00000E+00    2.81414E-04
 4.50000E+00    1.02451E-03
 5.00000E+00    2.75398E-03
 5.50000E+00    6.27687E-03
 6.00000E+00    1.18245E-02
 6.50000E+00    2.11128E-02
 7.00000E+00    3.70504E-02
 7.50000E+00    6.40883E-02
 8.00000E+00    1.13485E-01
 8.50000E+00    1.98740E-01
 9.00000E+00    3.36603E-01
 9.50000E+00    5.56816E-01
 1.00000E+01    8.81626E-01
 1.05000E+01    1.34925E+00
 1.10000E+01    1.98810E+00
 1.15000E+01    2.81469E+00
 1.20000E+01    3.84023E+00
 1.25000E+01    5.09078E+00
 1.30000E+01    6.53812E+00
 1.35000E+01    8.16140E+00
 1.40000E+01    9.94036E+00
 1.45000E+01    1.18357E+01
 1.50000E+01    1.38232E+01
 1.55000E+01    1.58259E+01
 1.60000E+01    1.79017E+01
 1.65000E+01    1.98220E+01
 1.70000E+01    2.16083E+01
 1.75000E+01    2.30430E+01
 1.80000E+01    2.47419E+01
 1.85000E+01    2.58495E+01
 1.90000E+01    2.71803E+01
 1.95000E+01    2.80536E+01
 2.00000E+01    2.83472E+01
