# n + Yb170 : (n,n')    
# jendl.ad   kunieda                           EVAL-Mar14
# uncertainties: n
# # energies =    76
#   E(MeV)       xs(mb) 
 8.47551E-02    0.00000E+00
 9.00000E-02    2.75920E+02
 1.00000E-01    3.56223E+02
 1.50000E-01    6.94297E+02
 2.00000E-01    1.03238E+03
 2.79087E-01    1.47824E+03
 3.00000E-01    1.57781E+03
 4.00000E-01    1.96232E+03
 5.00000E-01    2.21478E+03
 5.76814E-01    2.32557E+03
 6.00000E-01    2.34606E+03
 7.00000E-01    2.37582E+03
 8.00000E-01    2.33433E+03
 9.00000E-01    2.25197E+03
 9.69249E-01    2.18364E+03
 1.00000E+00    2.15232E+03
 1.07570E+00    2.07499E+03
 1.14533E+00    2.06318E+03
 1.15252E+00    2.11728E+03
 1.20000E+00    2.18863E+03
 1.23263E+00    2.17678E+03
 1.23617E+00    2.18918E+03
 1.26596E+00    2.21385E+03
 1.30118E+00    2.21450E+03
 1.31414E+00    2.21252E+03
 1.33769E+00    2.24045E+03
 1.35323E+00    2.24118E+03
 1.35324E+00    2.24118E+03
 1.37263E+00    2.23983E+03
 1.40000E+00    2.28270E+03
 1.40535E+00    2.28316E+03
 1.40630E+00    2.29043E+03
 1.41673E+00    2.30396E+03
 1.43371E+00    2.30765E+03
 1.44629E+00    2.31695E+03
 1.60000E+00    2.32998E+03
 1.80000E+00    2.35218E+03
 2.00000E+00    2.35146E+03
 2.20000E+00    2.34491E+03
 2.40000E+00    2.33506E+03
 2.70000E+00    2.31427E+03
 3.00000E+00    2.28968E+03
 3.50000E+00    2.25104E+03
 4.00000E+00    2.23287E+03
 4.50000E+00    2.24661E+03
 5.00000E+00    2.29268E+03
 5.50000E+00    2.35794E+03
 6.00000E+00    2.41981E+03
 6.50000E+00    2.46060E+03
 7.00000E+00    2.47527E+03
 7.50000E+00    2.46912E+03
 8.00000E+00    2.45111E+03
 8.50000E+00    2.42906E+03
 9.00000E+00    2.16290E+03
 9.50000E+00    1.55611E+03
 1.00000E+01    1.01879E+03
 1.05000E+01    7.22225E+02
 1.10000E+01    5.46120E+02
 1.15000E+01    4.55164E+02
 1.20000E+01    3.74409E+02
 1.25000E+01    3.34361E+02
 1.30000E+01    2.94203E+02
 1.35000E+01    2.71134E+02
 1.40000E+01    2.52462E+02
 1.45000E+01    2.36637E+02
 1.50000E+01    2.22862E+02
 1.55000E+01    2.10522E+02
 1.60000E+01    2.00111E+02
 1.65000E+01    1.91517E+02
 1.70000E+01    1.81654E+02
 1.75000E+01    1.75749E+02
 1.80000E+01    1.68820E+02
 1.85000E+01    1.62243E+02
 1.90000E+01    1.57226E+02
 1.95000E+01    1.53573E+02
 2.00000E+01    1.47828E+02
