# n + Yb170 : (n,d)     
# jendl.ad   kunieda                           EVAL-Mar14
# uncertainties: n
# # energies =    42
#   E(MeV)       xs(mb) 
 4.58043E+00    0.00000E+00
 4.58889E+00    8.65860E-22
 4.69932E+00    2.78000E-20
 4.72018E+00    3.30450E-20
 4.89845E+00    7.87060E-20
 4.91452E+00    8.28230E-20
 4.92439E+00    8.53510E-20
 4.92750E+00    8.61480E-20
 4.95028E+00    9.19830E-20
 4.96195E+00    9.49730E-20
 5.01310E+00    1.08080E-19
 5.01652E+00    1.11900E-19
 5.05612E+00    1.84440E-19
 6.00000E+00    2.21360E-18
 6.50000E+00    8.94960E-15
 7.00000E+00    6.57980E-12
 7.50000E+00    4.94090E-10
 8.00000E+00    3.43000E-08
 8.50000E+00    7.74980E-07
 9.00000E+00    5.48612E-06
 9.50000E+00    7.23863E-05
 1.00000E+01    3.68033E-04
 1.05000E+01    1.65493E-03
 1.10000E+01    4.34908E-03
 1.15000E+01    1.63951E-02
 1.20000E+01    3.39618E-02
 1.25000E+01    1.04014E-01
 1.30000E+01    1.90269E-01
 1.35000E+01    3.30687E-01
 1.40000E+01    6.50936E-01
 1.45000E+01    1.00756E+00
 1.50000E+01    1.48336E+00
 1.55000E+01    1.81393E+00
 1.60000E+01    2.48327E+00
 1.65000E+01    3.07615E+00
 1.70000E+01    3.97936E+00
 1.75000E+01    5.01026E+00
 1.80000E+01    5.33058E+00
 1.85000E+01    6.51197E+00
 1.90000E+01    7.51791E+00
 1.95000E+01    8.17238E+00
 2.00000E+01    9.27011E+00
