# n + Yb170 : (n,np)    
# jendl.ad   kunieda                           EVAL-Mar14
# uncertainties: n
# # energies =    26
#   E(MeV)       xs(mb) 
 6.81820E+00    0.00000E+00
 8.00000E+00    5.41320E-15
 8.50000E+00    8.77000E-11
 9.00000E+00    2.28210E-08
 9.50000E+00    9.61220E-07
 1.00000E+01    1.99283E-05
 1.05000E+01    1.92730E-04
 1.10000E+01    1.18999E-03
 1.15000E+01    4.42971E-03
 1.20000E+01    1.35736E-02
 1.25000E+01    3.21716E-02
 1.30000E+01    6.73125E-02
 1.35000E+01    1.34367E-01
 1.40000E+01    2.37826E-01
 1.45000E+01    4.07295E-01
 1.50000E+01    6.80377E-01
 1.55000E+01    1.10583E+00
 1.60000E+01    1.61020E+00
 1.65000E+01    2.42927E+00
 1.70000E+01    3.52934E+00
 1.75000E+01    5.12820E+00
 1.80000E+01    6.61885E+00
 1.85000E+01    8.83394E+00
 1.90000E+01    1.09945E+01
 1.95000E+01    1.37462E+01
 2.00000E+01    1.71927E+01
