# n + W 186 : (n,n'06)  
# jendl4.0   N.Iwamoto                         EVAL-Feb10
# uncertainties: n
# # energies =    58
#   E(MeV)       xs(mb) 
 8.88386E-01    0.00000E+00
 9.00000E-01    5.23127E+01
 9.57904E-01    9.71926E+01
 1.00000E+00    1.10315E+02
 1.01219E+00    1.13496E+02
 1.02048E+00    1.15518E+02
 1.03582E+00    1.18643E+02
 1.05107E+00    1.21037E+02
 1.10000E+00    1.26169E+02
 1.15624E+00    1.29635E+02
 1.17798E+00    1.25012E+02
 1.20000E+00    1.23980E+02
 1.30000E+00    1.20152E+02
 1.40000E+00    1.11737E+02
 1.50000E+00    1.03901E+02
 1.60000E+00    9.33734E+01
 1.70000E+00    8.32091E+01
 1.80000E+00    7.41259E+01
 1.90000E+00    6.56594E+01
 2.00000E+00    5.70603E+01
 2.25000E+00    4.01652E+01
 2.50000E+00    2.62274E+01
 2.75000E+00    1.74150E+01
 3.00000E+00    1.12340E+01
 3.50000E+00    4.71209E+00
 4.00000E+00    2.03449E+00
 4.50000E+00    9.64383E-01
 5.00000E+00    5.36166E-01
 5.50000E+00    3.57070E-01
 6.00000E+00    2.74199E-01
 6.50000E+00    2.29310E-01
 7.00000E+00    2.00440E-01
 7.50000E+00    1.79120E-01
 8.00000E+00    1.62133E-01
 8.50000E+00    1.48005E-01
 9.00000E+00    1.35969E-01
 9.50000E+00    1.25515E-01
 1.00000E+01    1.16267E-01
 1.05000E+01    1.08105E-01
 1.10000E+01    1.00927E-01
 1.15000E+01    9.43192E-02
 1.20000E+01    8.81419E-02
 1.25000E+01    8.24638E-02
 1.30000E+01    7.72741E-02
 1.35000E+01    7.25566E-02
 1.40000E+01    6.82834E-02
 1.45000E+01    6.44140E-02
 1.50000E+01    6.08983E-02
 1.55000E+01    5.76844E-02
 1.60000E+01    5.47207E-02
 1.65000E+01    5.19615E-02
 1.70000E+01    4.93592E-02
 1.75000E+01    4.68784E-02
 1.80000E+01    4.45067E-02
 1.85000E+01    4.22302E-02
 1.90000E+01    4.00453E-02
 1.95000E+01    3.79566E-02
 2.00000E+01    3.59728E-02
