# n + W 186 : (n,n'10)  
# jendl4.0   N.Iwamoto                         EVAL-Feb10
# uncertainties: n
# # energies =    52
#   E(MeV)       xs(mb) 
 1.03582E+00    0.00000E+00
 1.05107E+00    7.12114E+01
 1.10000E+00    1.22553E+02
 1.15624E+00    1.53326E+02
 1.17798E+00    1.62458E+02
 1.20000E+00    1.70441E+02
 1.30000E+00    1.95017E+02
 1.40000E+00    2.04903E+02
 1.50000E+00    2.05385E+02
 1.60000E+00    2.00031E+02
 1.70000E+00    1.90168E+02
 1.80000E+00    1.74758E+02
 1.90000E+00    1.59481E+02
 2.00000E+00    1.44735E+02
 2.25000E+00    1.09299E+02
 2.50000E+00    7.48401E+01
 2.75000E+00    5.17103E+01
 3.00000E+00    3.35260E+01
 3.50000E+00    1.43432E+01
 4.00000E+00    5.99409E+00
 4.50000E+00    2.51998E+00
 5.00000E+00    1.10557E+00
 5.50000E+00    5.31328E-01
 6.00000E+00    2.95050E-01
 6.50000E+00    1.93980E-01
 7.00000E+00    1.47370E-01
 7.50000E+00    1.22989E-01
 8.00000E+00    1.08031E-01
 8.50000E+00    9.74081E-02
 9.00000E+00    8.90756E-02
 9.50000E+00    8.21264E-02
 1.00000E+01    7.60977E-02
 1.05000E+01    7.07317E-02
 1.10000E+01    6.58767E-02
 1.15000E+01    6.14395E-02
 1.20000E+01    5.73177E-02
 1.25000E+01    5.35464E-02
 1.30000E+01    5.01122E-02
 1.35000E+01    4.69974E-02
 1.40000E+01    4.41876E-02
 1.45000E+01    4.16551E-02
 1.50000E+01    3.93664E-02
 1.55000E+01    3.72871E-02
 1.60000E+01    3.53823E-02
 1.65000E+01    3.36212E-02
 1.70000E+01    3.19715E-02
 1.75000E+01    3.04090E-02
 1.80000E+01    2.89243E-02
 1.85000E+01    2.75064E-02
 1.90000E+01    2.61511E-02
 1.95000E+01    2.48597E-02
 2.00000E+01    2.36365E-02
