# n + W 186 : (n,n'04)  
# jendl4.0   N.Iwamoto                         EVAL-Feb10
# uncertainties: n
# # energies =    60
#   E(MeV)       xs(mb) 
 8.13640E-01    0.00000E+00
 8.66955E-01    1.03467E-01
 8.88386E-01    1.83737E-01
 9.00000E-01    2.39461E-01
 9.57904E-01    6.53928E-01
 1.00000E+00    1.10147E+00
 1.01219E+00    1.25398E+00
 1.02048E+00    1.26881E+00
 1.03582E+00    1.42637E+00
 1.05107E+00    1.61289E+00
 1.10000E+00    2.25073E+00
 1.15624E+00    3.14945E+00
 1.17798E+00    3.54441E+00
 1.20000E+00    3.92105E+00
 1.30000E+00    5.58396E+00
 1.40000E+00    7.22086E+00
 1.50000E+00    8.71866E+00
 1.60000E+00    9.98359E+00
 1.70000E+00    1.11827E+01
 1.80000E+00    1.22906E+01
 1.90000E+00    1.30059E+01
 2.00000E+00    1.34510E+01
 2.25000E+00    1.40044E+01
 2.50000E+00    1.27597E+01
 2.75000E+00    1.13628E+01
 3.00000E+00    9.58932E+00
 3.50000E+00    6.37920E+00
 4.00000E+00    4.28520E+00
 4.50000E+00    3.16502E+00
 5.00000E+00    2.64633E+00
 5.50000E+00    2.43131E+00
 6.00000E+00    2.34490E+00
 6.50000E+00    2.28134E+00
 7.00000E+00    2.19852E+00
 7.50000E+00    2.08754E+00
 8.00000E+00    1.96834E+00
 8.50000E+00    1.85912E+00
 9.00000E+00    1.76895E+00
 9.50000E+00    1.69994E+00
 1.00000E+01    1.64681E+00
 1.05000E+01    1.60561E+00
 1.10000E+01    1.57193E+00
 1.15000E+01    1.54208E+00
 1.20000E+01    1.51361E+00
 1.25000E+01    1.48527E+00
 1.30000E+01    1.45692E+00
 1.35000E+01    1.42948E+00
 1.40000E+01    1.40443E+00
 1.45000E+01    1.38331E+00
 1.50000E+01    1.36744E+00
 1.55000E+01    1.35790E+00
 1.60000E+01    1.35551E+00
 1.65000E+01    1.36051E+00
 1.70000E+01    1.37251E+00
 1.75000E+01    1.39021E+00
 1.80000E+01    1.41148E+00
 1.85000E+01    1.43433E+00
 1.90000E+01    1.45699E+00
 1.95000E+01    1.47805E+00
 2.00000E+01    1.49620E+00
