# n + W 186 : (n,t)     
# jendl4.0   N.Iwamoto                         EVAL-Feb10
# uncertainties: n
# # energies =    30
#   E(MeV)       xs(mb) 
 6.58224E+00    0.00000E+00
 6.63040E+00    4.29030E-27
 6.67202E+00    8.81130E-27
 6.81188E+00    2.50800E-26
 6.85602E+00    3.02190E-26
 8.00000E+00    1.63410E-25
 8.50000E+00    1.02850E-19
 9.00000E+00    7.55410E-16
 9.50000E+00    4.84150E-13
 1.00000E+01    6.34980E-11
 1.05000E+01    2.78260E-09
 1.10000E+01    5.58830E-08
 1.15000E+01    6.35010E-07
 1.20000E+01    4.71925E-06
 1.25000E+01    2.54057E-05
 1.30000E+01    1.06624E-04
 1.35000E+01    3.67639E-04
 1.40000E+01    1.07104E-03
 1.45000E+01    2.75789E-03
 1.50000E+01    6.30821E-03
 1.55000E+01    1.29636E-02
 1.60000E+01    2.41662E-02
 1.65000E+01    4.12843E-02
 1.70000E+01    6.53596E-02
 1.75000E+01    9.69760E-02
 1.80000E+01    1.36266E-01
 1.85000E+01    1.82915E-01
 1.90000E+01    2.36226E-01
 1.95000E+01    2.95090E-01
 2.00000E+01    3.57941E-01
