# n + W 186 : (n,d)     
# jendl4.0   N.Iwamoto                         EVAL-Feb10
# uncertainties: n
# # energies =    33
#   E(MeV)       xs(mb) 
 6.21128E+00    0.00000E+00
 6.37667E+00    7.51630E-24
 6.54910E+00    1.54990E-23
 6.62250E+00    1.08820E-20
 6.74114E+00    2.98190E-20
 6.80448E+00    3.99550E-20
 6.90402E+00    5.58850E-20
 7.50000E+00    1.51260E-19
 8.00000E+00    1.59320E-17
 8.50000E+00    1.06800E-13
 9.00000E+00    6.12400E-11
 9.50000E+00    7.87930E-09
 1.00000E+01    2.59230E-07
 1.05000E+01    4.02267E-06
 1.10000E+01    3.65575E-05
 1.15000E+01    2.23978E-04
 1.20000E+01    1.01695E-03
 1.25000E+01    3.65702E-03
 1.30000E+01    1.09025E-02
 1.35000E+01    2.78301E-02
 1.40000E+01    6.22377E-02
 1.45000E+01    1.24038E-01
 1.50000E+01    2.23453E-01
 1.55000E+01    3.68676E-01
 1.60000E+01    5.64177E-01
 1.65000E+01    8.10361E-01
 1.70000E+01    1.10427E+00
 1.75000E+01    1.44080E+00
 1.80000E+01    1.71858E+00
 1.85000E+01    2.11268E+00
 1.90000E+01    2.53127E+00
 1.95000E+01    2.96755E+00
 2.00000E+01    3.41401E+00
