# n + W 186 : (n,h)     
# jendl4.0   N.Iwamoto                         EVAL-Feb10
# uncertainties: n
# # energies =    20
#   E(MeV)       xs(mb) 
 1.05000E+01    0.00000E+00
 1.10000E+01    5.00010E-32
 1.15000E+01    3.11450E-28
 1.20000E+01    2.87610E-25
 1.25000E+01    6.72270E-23
 1.30000E+01    5.64670E-21
 1.35000E+01    2.16520E-19
 1.40000E+01    4.49240E-18
 1.45000E+01    5.78810E-17
 1.50000E+01    5.69630E-16
 1.55000E+01    6.44410E-15
 1.60000E+01    1.08330E-13
 1.65000E+01    1.62850E-12
 1.70000E+01    1.83360E-11
 1.75000E+01    1.54740E-10
 1.80000E+01    1.03570E-09
 1.85000E+01    5.41760E-09
 1.90000E+01    2.34760E-08
 1.95000E+01    8.64670E-08
 2.00000E+01    2.76710E-07
