# n + W 186 : (n,p)     
# jendl4.0   N.Iwamoto                         EVAL-Feb10
# uncertainties: n
# # energies =    33
#   E(MeV)       xs(mb) 
 3.13557E+00    0.00000E+00
 4.50000E+00    8.44010E-17
 5.00000E+00    3.37280E-13
 5.50000E+00    6.68000E-11
 6.00000E+00    2.69520E-09
 6.50000E+00    4.60250E-08
 7.00000E+00    5.09770E-07
 7.50000E+00    4.33885E-06
 8.00000E+00    2.88735E-05
 8.50000E+00    1.51156E-04
 9.00000E+00    6.38401E-04
 9.50000E+00    2.24429E-03
 1.00000E+01    6.75297E-03
 1.05000E+01    1.77854E-02
 1.10000E+01    4.17204E-02
 1.15000E+01    8.83664E-02
 1.20000E+01    1.70936E-01
 1.25000E+01    3.05143E-01
 1.30000E+01    5.07740E-01
 1.35000E+01    7.95048E-01
 1.40000E+01    1.18179E+00
 1.45000E+01    1.67993E+00
 1.50000E+01    2.29724E+00
 1.55000E+01    3.03531E+00
 1.60000E+01    3.88734E+00
 1.65000E+01    4.83699E+00
 1.70000E+01    5.85898E+00
 1.75000E+01    6.92295E+00
 1.80000E+01    8.00097E+00
 1.85000E+01    9.05566E+00
 1.90000E+01    1.00604E+01
 1.95000E+01    1.10025E+01
 2.00000E+01    1.18695E+01
