# n + W 186 : (n,xh)    
# jendl4.0   N.Iwamoto                         EVAL-Feb10
# 
# # energies =    84
#   E(MeV)        xs(mb) 
 1.05000E-01    0.00000E+00
 1.10000E-01    0.00000E+00
 1.20000E-01    0.00000E+00
 1.23295E-01    0.00000E+00
 1.30000E-01    0.00000E+00
 1.40000E-01    0.00000E+00
 1.50000E-01    0.00000E+00
 1.60000E-01    0.00000E+00
 1.70000E-01    0.00000E+00
 1.80000E-01    0.00000E+00
 1.90000E-01    0.00000E+00
 2.00000E-01    0.00000E+00
 2.25000E-01    0.00000E+00
 2.50000E-01    0.00000E+00
 2.75000E-01    0.00000E+00
 3.00000E-01    0.00000E+00
 3.98698E-01    0.00000E+00
 4.00000E-01    0.00000E+00
 5.00000E-01    0.00000E+00
 6.00000E-01    0.00000E+00
 7.00000E-01    0.00000E+00
 7.41963E-01    0.00000E+00
 8.00000E-01    0.00000E+00
 8.13640E-01    0.00000E+00
 8.66955E-01    0.00000E+00
 8.88386E-01    0.00000E+00
 9.00000E-01    0.00000E+00
 9.57904E-01    0.00000E+00
 1.00000E+00    0.00000E+00
 1.01219E+00    0.00000E+00
 1.02048E+00    0.00000E+00
 1.03582E+00    0.00000E+00
 1.05107E+00    0.00000E+00
 1.10000E+00    0.00000E+00
 1.15624E+00    0.00000E+00
 1.17798E+00    0.00000E+00
 1.17799E+00    0.00000E+00
 1.20000E+00    0.00000E+00
 1.30000E+00    0.00000E+00
 1.40000E+00    0.00000E+00
 1.50000E+00    0.00000E+00
 1.60000E+00    0.00000E+00
 1.70000E+00    0.00000E+00
 1.80000E+00    0.00000E+00
 1.90000E+00    0.00000E+00
 2.00000E+00    0.00000E+00
 2.25000E+00    0.00000E+00
 2.50000E+00    0.00000E+00
 2.75000E+00    0.00000E+00
 3.00000E+00    0.00000E+00
 3.50000E+00    0.00000E+00
 4.00000E+00    0.00000E+00
 4.50000E+00    0.00000E+00
 5.00000E+00    0.00000E+00
 5.50000E+00    0.00000E+00
 6.00000E+00    0.00000E+00
 6.50000E+00    0.00000E+00
 7.00000E+00    0.00000E+00
 7.50000E+00    0.00000E+00
 8.00000E+00    0.00000E+00
 8.50000E+00    0.00000E+00
 9.00000E+00    0.00000E+00
 9.50000E+00    0.00000E+00
 1.00000E+01    0.00000E+00
 1.05000E+01    0.00000E+00
 1.10000E+01    5.00010E-32
 1.15000E+01    3.11450E-28
 1.20000E+01    2.87610E-25
 1.25000E+01    6.72270E-23
 1.30000E+01    5.64670E-21
 1.35000E+01    2.16520E-19
 1.40000E+01    4.49240E-18
 1.45000E+01    5.78810E-17
 1.50000E+01    5.69630E-16
 1.55000E+01    6.44410E-15
 1.60000E+01    1.08330E-13
 1.65000E+01    1.62850E-12
 1.70000E+01    1.83360E-11
 1.75000E+01    1.54740E-10
 1.80000E+01    1.03570E-09
 1.85000E+01    5.41760E-09
 1.90000E+01    2.34760E-08
 1.95000E+01    8.64670E-08
 2.00000E+01    2.76710E-07
