# n + W 186 : (n,n'08)  
# jendl4.0   N.Iwamoto                         EVAL-Feb10
# uncertainties: n
# # energies =    54
#   E(MeV)       xs(mb) 
 1.01219E+00    0.00000E+00
 1.02048E+00    2.79910E+00
 1.03582E+00    5.09519E+00
 1.05107E+00    7.29778E+00
 1.10000E+00    1.38442E+01
 1.15624E+00    2.29016E+01
 1.17798E+00    2.67226E+01
 1.20000E+00    2.97201E+01
 1.30000E+00    4.58708E+01
 1.40000E+00    5.97601E+01
 1.50000E+00    6.89548E+01
 1.60000E+00    7.55490E+01
 1.70000E+00    7.77959E+01
 1.80000E+00    7.68625E+01
 1.90000E+00    7.47637E+01
 2.00000E+00    7.18223E+01
 2.25000E+00    6.04890E+01
 2.50000E+00    4.54676E+01
 2.75000E+00    3.41187E+01
 3.00000E+00    2.40921E+01
 3.50000E+00    1.17529E+01
 4.00000E+00    5.50966E+00
 4.50000E+00    2.59117E+00
 5.00000E+00    1.28359E+00
 5.50000E+00    7.05107E-01
 6.00000E+00    4.46701E-01
 6.50000E+00    3.25532E-01
 7.00000E+00    2.63323E-01
 7.50000E+00    2.26712E-01
 8.00000E+00    2.01908E-01
 8.50000E+00    1.83114E-01
 9.00000E+00    1.67847E-01
 9.50000E+00    1.54893E-01
 1.00000E+01    1.43564E-01
 1.05000E+01    1.33443E-01
 1.10000E+01    1.24271E-01
 1.15000E+01    1.15883E-01
 1.20000E+01    1.08092E-01
 1.25000E+01    1.00965E-01
 1.30000E+01    9.44785E-02
 1.35000E+01    8.86060E-02
 1.40000E+01    8.33091E-02
 1.45000E+01    7.85356E-02
 1.50000E+01    7.42220E-02
 1.55000E+01    7.03030E-02
 1.60000E+01    6.67129E-02
 1.65000E+01    6.33930E-02
 1.70000E+01    6.02829E-02
 1.75000E+01    5.73337E-02
 1.80000E+01    5.45281E-02
 1.85000E+01    5.18487E-02
 1.90000E+01    4.92881E-02
 1.95000E+01    4.68488E-02
 2.00000E+01    4.45392E-02
