# n + W 186 : (n,n'13)  
# jendl4.0   N.Iwamoto                         EVAL-Feb10
# uncertainties: n
# # energies =    48
#   E(MeV)       xs(mb) 
 1.17799E+00    0.00000E+00
 1.20000E+00    1.43649E+01
 1.30000E+00    3.09550E+01
 1.40000E+00    4.28610E+01
 1.50000E+00    5.23961E+01
 1.60000E+00    5.95323E+01
 1.70000E+00    6.33196E+01
 1.80000E+00    6.58454E+01
 1.90000E+00    6.44516E+01
 2.00000E+00    6.20718E+01
 2.25000E+00    5.51332E+01
 2.50000E+00    4.23499E+01
 2.75000E+00    3.22792E+01
 3.00000E+00    2.28353E+01
 3.50000E+00    1.11714E+01
 4.00000E+00    5.15372E+00
 4.50000E+00    2.33137E+00
 5.00000E+00    1.07835E+00
 5.50000E+00    5.36532E-01
 6.00000E+00    3.03699E-01
 6.50000E+00    2.01040E-01
 7.00000E+00    1.52812E-01
 7.50000E+00    1.27359E-01
 8.00000E+00    1.11743E-01
 8.50000E+00    1.00696E-01
 9.00000E+00    9.20720E-02
 9.50000E+00    8.49101E-02
 1.00000E+01    7.87165E-02
 1.05000E+01    7.32167E-02
 1.10000E+01    6.82466E-02
 1.15000E+01    6.37023E-02
 1.20000E+01    5.94791E-02
 1.25000E+01    5.56092E-02
 1.30000E+01    5.20788E-02
 1.35000E+01    4.88741E-02
 1.40000E+01    4.59765E-02
 1.45000E+01    4.33600E-02
 1.50000E+01    4.09925E-02
 1.55000E+01    3.88401E-02
 1.60000E+01    3.68684E-02
 1.65000E+01    3.50458E-02
 1.70000E+01    3.33391E-02
 1.75000E+01    3.17229E-02
 1.80000E+01    3.01878E-02
 1.85000E+01    2.87218E-02
 1.90000E+01    2.73200E-02
 1.95000E+01    2.59831E-02
 2.00000E+01    2.47149E-02
