# n + W 186 : (n,n'05)  
# jendl4.0   N.Iwamoto                         EVAL-Feb10
# uncertainties: n
# # energies =    59
#   E(MeV)       xs(mb) 
 8.66955E-01    0.00000E+00
 8.88386E-01    7.12417E+01
 9.00000E-01    8.47326E+01
 9.57904E-01    1.29516E+02
 1.00000E+00    1.50190E+02
 1.01219E+00    1.56198E+02
 1.02048E+00    1.60005E+02
 1.03582E+00    1.61107E+02
 1.05107E+00    1.60627E+02
 1.10000E+00    1.68463E+02
 1.15624E+00    1.80614E+02
 1.17798E+00    1.84355E+02
 1.20000E+00    1.87062E+02
 1.30000E+00    1.98167E+02
 1.40000E+00    1.98698E+02
 1.50000E+00    1.97304E+02
 1.60000E+00    1.85520E+02
 1.70000E+00    1.73469E+02
 1.80000E+00    1.61533E+02
 1.90000E+00    1.48439E+02
 2.00000E+00    1.33663E+02
 2.25000E+00    1.02077E+02
 2.50000E+00    7.14157E+01
 2.75000E+00    5.04944E+01
 3.00000E+00    3.35041E+01
 3.50000E+00    1.48909E+01
 4.00000E+00    6.42834E+00
 4.50000E+00    2.77937E+00
 5.00000E+00    1.24642E+00
 5.50000E+00    6.06501E-01
 6.00000E+00    3.36632E-01
 6.50000E+00    2.18950E-01
 7.00000E+00    1.63884E-01
 7.50000E+00    1.35570E-01
 8.00000E+00    1.18372E-01
 8.50000E+00    1.06303E-01
 9.00000E+00    9.69217E-02
 9.50000E+00    8.91414E-02
 1.00000E+01    8.24134E-02
 1.05000E+01    7.65960E-02
 1.10000E+01    7.16127E-02
 1.15000E+01    6.70304E-02
 1.20000E+01    6.27433E-02
 1.25000E+01    5.87994E-02
 1.30000E+01    5.51913E-02
 1.35000E+01    5.19083E-02
 1.40000E+01    4.89317E-02
 1.45000E+01    4.62338E-02
 1.50000E+01    4.37798E-02
 1.55000E+01    4.15337E-02
 1.60000E+01    3.94593E-02
 1.65000E+01    3.75248E-02
 1.70000E+01    3.56965E-02
 1.75000E+01    3.39494E-02
 1.80000E+01    3.22754E-02
 1.85000E+01    3.06648E-02
 1.90000E+01    2.91155E-02
 1.95000E+01    2.76314E-02
 2.00000E+01    2.62194E-02
