# n + W 186 : (n,2na)   
# jendl4.0   N.Iwamoto                         EVAL-Feb10
# uncertainties: n
# # energies =    25
#   E(MeV)       xs(mb) 
 8.00000E+00    0.00000E+00
 8.50000E+00    8.52540E-29
 9.00000E+00    2.60420E-24
 9.50000E+00    1.60280E-20
 1.00000E+01    1.79460E-17
 1.05000E+01    5.44340E-15
 1.10000E+01    5.99990E-13
 1.15000E+01    2.98390E-11
 1.20000E+01    7.80630E-10
 1.25000E+01    1.23300E-08
 1.30000E+01    1.25590E-07
 1.35000E+01    8.30180E-07
 1.40000E+01    2.78193E-06
 1.45000E+01    6.14102E-06
 1.50000E+01    1.19583E-05
 1.55000E+01    2.31448E-05
 1.60000E+01    4.58037E-05
 1.65000E+01    8.97990E-05
 1.70000E+01    1.77203E-04
 1.75000E+01    3.37869E-04
 1.80000E+01    6.24724E-04
 1.85000E+01    1.09157E-03
 1.90000E+01    1.83661E-03
 1.95000E+01    2.99714E-03
 2.00000E+01    4.78092E-03
