# n + Sn112 : (n,d)m    
# jendl.ad   N.Iwamoto                         EVAL-Apr14
# uncertainties: n
# # energies =    28
#   E(MeV)       xs(mb) 
 5.91982E+00    0.00000E+00
 7.00000E+00    8.33420E-13
 7.50000E+00    1.74780E-09
 8.00000E+00    2.59970E-07
 8.50000E+00    8.86881E-06
 9.00000E+00    1.34669E-04
 9.50000E+00    9.72761E-04
 1.00000E+01    4.60992E-03
 1.05000E+01    1.26623E-02
 1.10000E+01    3.61411E-02
 1.15000E+01    8.42890E-02
 1.20000E+01    1.66186E-01
 1.25000E+01    2.85954E-01
 1.30000E+01    4.40602E-01
 1.35000E+01    6.23796E-01
 1.40000E+01    8.23360E-01
 1.45000E+01    1.03035E+00
 1.50000E+01    1.23862E+00
 1.55000E+01    1.44291E+00
 1.60000E+01    1.64328E+00
 1.65000E+01    1.83677E+00
 1.70000E+01    2.02665E+00
 1.75000E+01    2.15762E+00
 1.80000E+01    2.33877E+00
 1.85000E+01    2.51718E+00
 1.90000E+01    2.69714E+00
 1.95000E+01    2.87704E+00
 2.00000E+01    3.05980E+00
