# n + Sn112 : (n,xt)    
# jendl.ad   N.Iwamoto                         EVAL-Apr14
# 
# # energies =    95
#   E(MeV)        xs(mb) 
 1.05000E-01    0.00000E+00
 1.10000E-01    0.00000E+00
 1.20000E-01    0.00000E+00
 1.30000E-01    0.00000E+00
 1.40000E-01    0.00000E+00
 1.50000E-01    0.00000E+00
 1.60000E-01    0.00000E+00
 1.70000E-01    0.00000E+00
 1.80000E-01    0.00000E+00
 1.90000E-01    0.00000E+00
 2.00000E-01    0.00000E+00
 2.25000E-01    0.00000E+00
 2.50000E-01    0.00000E+00
 2.75000E-01    0.00000E+00
 3.00000E-01    0.00000E+00
 4.00000E-01    0.00000E+00
 5.00000E-01    0.00000E+00
 6.00000E-01    0.00000E+00
 7.00000E-01    0.00000E+00
 8.00000E-01    0.00000E+00
 9.00000E-01    0.00000E+00
 1.00000E+00    0.00000E+00
 1.10000E+00    0.00000E+00
 1.20000E+00    0.00000E+00
 1.26818E+00    0.00000E+00
 1.30000E+00    0.00000E+00
 1.40000E+00    0.00000E+00
 1.50000E+00    0.00000E+00
 1.60000E+00    0.00000E+00
 1.70000E+00    0.00000E+00
 1.80000E+00    0.00000E+00
 1.90000E+00    0.00000E+00
 2.00000E+00    0.00000E+00
 2.17048E+00    0.00000E+00
 2.21065E+00    0.00000E+00
 2.25000E+00    0.00000E+00
 2.26788E+00    0.00000E+00
 2.37575E+00    0.00000E+00
 2.49852E+00    0.00000E+00
 2.50000E+00    0.00000E+00
 2.54377E+00    0.00000E+00
 2.57228E+00    0.00000E+00
 2.57964E+00    0.00000E+00
 2.64160E+00    0.00000E+00
 2.74609E+00    0.00000E+00
 2.75000E+00    0.00000E+00
 2.78103E+00    0.00000E+00
 2.80901E+00    0.00000E+00
 2.88578E+00    0.00000E+00
 2.93966E+00    0.00000E+00
 2.94401E+00    0.00000E+00
 2.95316E+00    0.00000E+00
 2.97251E+00    0.00000E+00
 2.99374E+00    0.00000E+00
 3.00000E+00    0.00000E+00
 3.01594E+00    0.00000E+00
 3.10662E+00    0.00000E+00
 3.12095E+00    0.00000E+00
 3.14610E+00    0.00000E+00
 3.16528E+00    0.00000E+00
 3.17780E+00    0.00000E+00
 3.50000E+00    0.00000E+00
 4.00000E+00    0.00000E+00
 4.50000E+00    0.00000E+00
 5.00000E+00    0.00000E+00
 5.50000E+00    0.00000E+00
 6.00000E+00    0.00000E+00
 6.50000E+00    0.00000E+00
 7.00000E+00    0.00000E+00
 7.50000E+00    0.00000E+00
 8.00000E+00    0.00000E+00
 8.50000E+00    0.00000E+00
 9.00000E+00    0.00000E+00
 9.50000E+00    2.87212E-15
 1.00000E+01    7.08006E-15
 1.05000E+01    1.12880E-14
 1.10000E+01    1.04350E-10
 1.15000E+01    3.22230E-08
 1.20000E+01    1.77097E-06
 1.25000E+01    3.57855E-05
 1.30000E+01    3.81888E-04
 1.35000E+01    2.61763E-03
 1.40000E+01    1.28928E-02
 1.45000E+01    4.89819E-02
 1.50000E+01    1.50397E-01
 1.55000E+01    3.85512E-01
 1.60000E+01    8.46844E-01
 1.65000E+01    1.62399E+00
 1.70000E+01    2.81636E+00
 1.75000E+01    4.47664E+00
 1.80000E+01    6.63309E+00
 1.85000E+01    9.28260E+00
 1.90000E+01    1.24023E+01
 1.95000E+01    1.59620E+01
 2.00000E+01    1.99028E+01
