# n + Sn112 : (n,pa)m   
# jendl.ad   N.Iwamoto                         EVAL-Apr14
# uncertainties: n
# # energies =    30
#   E(MeV)       xs(mb) 
 2.83678E+00    0.00000E+00
 6.00000E+00    4.12760E-33
 6.50000E+00    8.48020E-28
 7.00000E+00    6.76860E-24
 7.50000E+00    8.54990E-21
 8.00000E+00    3.83090E-18
 8.50000E+00    7.97020E-16
 9.00000E+00    7.23250E-14
 9.50000E+00    3.14910E-12
 1.00000E+01    5.73660E-11
 1.05000E+01    5.98930E-10
 1.10000E+01    4.69700E-09
 1.15000E+01    3.02350E-08
 1.20000E+01    1.64020E-07
 1.25000E+01    7.56530E-07
 1.30000E+01    3.01724E-06
 1.35000E+01    1.06800E-05
 1.40000E+01    3.33337E-05
 1.45000E+01    9.36956E-05
 1.50000E+01    2.41971E-04
 1.55000E+01    5.78675E-04
 1.60000E+01    1.20903E-03
 1.65000E+01    2.55678E-03
 1.70000E+01    5.13541E-03
 1.75000E+01    9.76542E-03
 1.80000E+01    1.77892E-02
 1.85000E+01    3.09345E-02
 1.90000E+01    5.16568E-02
 1.95000E+01    8.27734E-02
 2.00000E+01    1.27875E-01
