# n + Es252 : (n,n'05)  
# jendl4.0   O.Iwamoto, T.Nakagawa, et al.     EVAL-FEB10
# uncertainties: y
# # energies =    60
#   E(MeV)       xs(mb)       xslow(mb)      xsupp(mb)
 2.10840E-01    0.00000E+00    0.00000E+00    0.00000E+00
 2.34936E-01    2.01936E+00    5.04840E-02    3.98824E+00
 2.50000E-01    3.25959E+00    8.14897E-02    6.43769E+00
 3.00000E-01    7.62853E+00    1.90713E-01    1.50663E+01
 4.00000E-01    1.39093E+01    2.69840E+00    2.51202E+01
 5.00000E-01    1.75682E+01    3.40823E+00    3.17282E+01
 6.00000E-01    2.00083E+01    9.04375E+00    3.09728E+01
 7.00000E-01    2.23145E+01    1.00862E+01    3.45428E+01
 8.00000E-01    2.42182E+01    1.41676E+01    3.42688E+01
 9.00000E-01    2.62408E+01    1.53509E+01    3.71307E+01
 1.00000E+00    2.84204E+01    1.76775E+01    3.91633E+01
 1.10000E+00    3.02299E+01    1.88030E+01    4.16568E+01
 1.20000E+00    3.19123E+01    1.92431E+01    4.45815E+01
 1.30000E+00    3.30402E+01    1.99232E+01    4.61572E+01
 1.40000E+00    3.42819E+01    2.06720E+01    4.78918E+01
 1.50000E+00    3.47030E+01    1.86008E+01    5.08052E+01
 1.60000E+00    3.52824E+01    1.89114E+01    5.16534E+01
 1.70000E+00    3.52007E+01    1.88676E+01    5.15338E+01
 1.80000E+00    3.52488E+01    1.88934E+01    5.16042E+01
 1.90000E+00    3.49600E+01    1.87386E+01    5.11814E+01
 2.00000E+00    3.47664E+01    1.70355E+01    5.24973E+01
 2.10000E+00    3.44824E+01    1.68964E+01    5.20684E+01
 2.30000E+00    3.40609E+01    1.66898E+01    5.14320E+01
 2.50000E+00    3.37759E+01    1.80701E+01    4.94817E+01
 2.70000E+00    3.35918E+01    1.79716E+01    4.92120E+01
 3.00000E+00    3.33275E+01    1.86967E+01    4.79583E+01
 3.50000E+00    3.26920E+01    1.86344E+01    4.67496E+01
 4.00000E+00    3.16153E+01    1.79575E+01    4.52731E+01
 4.50000E+00    3.03812E+01    1.72565E+01    4.35059E+01
 5.00000E+00    2.91948E+01    1.58820E+01    4.25076E+01
 5.50000E+00    2.80598E+01    1.52645E+01    4.08551E+01
 6.00000E+00    2.68445E+01    1.37444E+01    3.99446E+01
 6.50000E+00    2.54324E+01    1.30214E+01    3.78434E+01
 7.00000E+00    2.38214E+01    1.17678E+01    3.58750E+01
 7.50000E+00    2.21228E+01    1.09287E+01    3.33169E+01
 8.00000E+00    2.04754E+01    1.01148E+01    3.08360E+01
 8.50000E+00    1.89698E+01    9.37108E+00    2.85685E+01
 9.00000E+00    1.76324E+01    8.78094E+00    2.64839E+01
 9.50000E+00    1.64454E+01    8.18981E+00    2.47010E+01
 1.00000E+01    1.53734E+01    7.73282E+00    2.30140E+01
 1.05000E+01    1.43826E+01    7.23445E+00    2.15308E+01
 1.10000E+01    1.34512E+01    6.76595E+00    2.01364E+01
 1.15000E+01    1.25705E+01    6.32296E+00    1.88180E+01
 1.20000E+01    1.17411E+01    6.10537E+00    1.73768E+01
 1.25000E+01    1.09675E+01    5.70310E+00    1.62319E+01
 1.30000E+01    1.02536E+01    5.33187E+00    1.51753E+01
 1.35000E+01    9.60079E+00    4.99241E+00    1.42092E+01
 1.40000E+01    9.00704E+00    4.88182E+00    1.31323E+01
 1.45000E+01    8.46804E+00    4.58968E+00    1.23464E+01
 1.50000E+01    7.97807E+00    4.39592E+00    1.15602E+01
 1.55000E+01    7.54993E+00    4.16001E+00    1.09398E+01
 1.60000E+01    7.12188E+00    3.98113E+00    1.02626E+01
 1.65000E+01    6.76077E+00    3.77927E+00    9.74227E+00
 1.70000E+01    6.39980E+00    3.57749E+00    9.22211E+00
 1.75000E+01    6.09394E+00    3.40651E+00    8.78137E+00
 1.80000E+01    5.78819E+00    3.31663E+00    8.25975E+00
 1.85000E+01    5.53067E+00    3.16907E+00    7.89227E+00
 1.90000E+01    5.27325E+00    3.02157E+00    7.52493E+00
 1.95000E+01    5.05794E+00    2.89820E+00    7.21768E+00
 2.00000E+01    4.84271E+00    2.77487E+00    6.91055E+00
