# n + Es252 : (n,f)     
# jendl4.0   O.Iwamoto, T.Nakagawa, et al.     EVAL-FEB10
# uncertainties: y
# # energies =    69
#   E(MeV)       xs(mb)       xslow(mb)      xsupp(mb)
 1.00000E-10    1.39226E+07    1.39226E+07    1.39226E+07
 5.00000E-09    3.79872E+06    3.79872E+06    3.79872E+06
 1.00000E-08    2.87815E+06    2.87815E+06    2.87815E+06
 1.50000E-08    2.41882E+06    2.41882E+06    2.41882E+06
 2.00000E-08    2.12849E+06    2.12849E+06    2.12849E+06
 2.50000E-08    1.92298E+06    1.92298E+06    1.92298E+06
 3.00000E-08    1.76744E+06    1.76744E+06    1.76744E+06
 3.50000E-08    1.62474E+06    1.62474E+06    1.62474E+06
 4.20000E-08    1.48585E+06    1.48585E+06    1.48585E+06
 5.00000E-08    1.37032E+06    1.37032E+06    1.37032E+06
 5.80000E-08    1.27346E+06    1.27346E+06    1.27346E+06
 6.70000E-08    1.17503E+06    1.17503E+06    1.17503E+06
 8.00000E-08    1.06309E+06    1.06309E+06    1.06309E+06
 1.00000E-07    9.25605E+05    9.25605E+05    9.25605E+05
 1.40000E-07    1.21690E+06    1.21690E+06    1.21690E+06
 1.80000E-07    1.23818E+06    5.65846E+05    1.91050E+06
 2.20000E-07    1.14281E+06    5.22262E+05    1.76335E+06
 2.50000E-07    1.07766E+06    4.92490E+05    1.66283E+06
 2.80000E-07    1.03082E+06    4.71086E+05    1.59056E+06
 3.00000E-07    9.97860E+05    4.56022E+05    1.53970E+06
 3.20000E-07    9.61164E+05    4.39252E+05    1.48308E+06
 3.50000E-07    9.10491E+05    4.16094E+05    1.40489E+06
 4.00000E-07    8.35076E+05    3.81630E+05    1.28852E+06
 5.00000E-07    7.49169E+05    3.42370E+05    1.15597E+06
 6.25000E-07    6.72347E+05    3.07262E+05    1.03743E+06
 7.80000E-07    6.23639E+05    2.85003E+05    9.62274E+05
 8.50000E-07    6.00671E+05    2.74506E+05    9.26835E+05
 9.10000E-07    5.84617E+05    2.67170E+05    9.02064E+05
 9.50000E-07    5.75312E+05    2.62918E+05    8.87706E+05
 9.72000E-07    5.68715E+05    2.59903E+05    8.77527E+05
 9.96000E-07    5.62026E+05    2.56846E+05    8.67206E+05
 1.02000E-06    5.55318E+05    2.53780E+05    8.56855E+05
 1.04500E-06    5.48582E+05    2.50702E+05    8.46462E+05
 1.07100E-06    5.41995E+05    2.47692E+05    8.36299E+05
 1.09700E-06    5.35564E+05    2.44753E+05    8.26375E+05
 1.12300E-06    5.29313E+05    2.41896E+05    8.16730E+05
 1.15000E-06    5.10376E+05    2.33242E+05    7.87510E+05
 1.30000E-06    4.77621E+05    2.18273E+05    7.36969E+05
 1.50000E-06    4.24100E+05    1.93814E+05    6.54387E+05
 2.10000E-06    3.69331E+05    1.68784E+05    5.69878E+05
 2.60000E-06    3.29875E+05    1.50753E+05    5.08997E+05
 3.30000E-06    2.96064E+05    1.35301E+05    4.56826E+05
 4.00000E-06    2.26819E+05    1.03656E+05    3.49982E+05
 9.87700E-06    1.59350E+05    7.28229E+04    2.45877E+05
 1.59680E-05    1.23132E+05    5.62715E+04    1.89993E+05
 2.77000E-05    9.33942E+04    4.26812E+04    1.44107E+05
 4.80520E-05    7.25268E+04    3.31447E+04    1.11909E+05
 7.55014E-05    5.47486E+04    2.50201E+04    8.44771E+04
 1.48728E-04    3.69278E+04    1.68760E+04    5.69796E+04
 3.67262E-04    2.34721E+04    1.07267E+04    3.62174E+04
 9.06898E-04    1.66586E+04    7.61298E+03    2.57042E+04
 1.42510E-03    1.33575E+04    6.10437E+03    2.06106E+04
 2.23945E-03    1.07644E+04    5.02698E+03    1.65018E+04
 3.51910E-03    8.75488E+03    4.08853E+03    1.34212E+04
 5.53000E-03    7.14353E+03    3.47890E+03    1.08082E+04
 9.11800E-03    5.93317E+03    2.98439E+03    8.88196E+03
 1.50300E-02    5.07449E+03    2.58799E+03    7.56099E+03
 2.47800E-02    4.52800E+03    2.42701E+03    6.62898E+03
 4.08500E-02    4.21303E+03    2.35508E+03    6.07098E+03
 6.73400E-02    4.02312E+03    2.29318E+03    5.75306E+03
 1.11000E-01    3.81577E+03    2.25512E+03    5.37641E+03
 1.83000E-01    3.65030E+03    2.15733E+03    5.14327E+03
 3.02000E-01    3.29940E+03    2.44156E+03    4.15725E+03
 5.00000E-01    2.75882E+03    2.17119E+03    3.34644E+03
 8.21000E-01    2.25642E+03    1.77580E+03    2.73704E+03
 1.35300E+00    1.91583E+03    1.40047E+03    2.43119E+03
 2.23100E+00    1.64749E+03    1.13347E+03    2.16150E+03
 3.67900E+00    1.55463E+03    1.04782E+03    2.06144E+03
 6.06500E+00    2.02118E+03    1.41685E+03    2.62551E+03
