# n + Es252 : (n,n'03)  
# jendl4.0   O.Iwamoto, T.Nakagawa, et al.     EVAL-FEB10
# uncertainties: y
# # energies =    65
#   E(MeV)       xs(mb)       xslow(mb)      xsupp(mb)
 1.30520E-01    0.00000E+00    0.00000E+00    0.00000E+00
 1.40000E-01    2.51973E+00    1.48664E-01    4.89080E+00
 1.57628E-01    8.80561E+00    5.19531E-01    1.70917E+01
 1.70000E-01    1.36637E+01    8.06159E-01    2.65212E+01
 2.00000E-01    2.56668E+01    1.51434E+00    4.98193E+01
 2.10840E-01    2.93277E+01    1.73033E+00    5.69251E+01
 2.34936E-01    3.67200E+01    2.16648E+00    7.12735E+01
 2.50000E-01    4.04701E+01    2.38774E+00    7.85525E+01
 3.00000E-01    5.13699E+01    1.09932E+01    9.17467E+01
 4.00000E-01    6.04604E+01    2.01938E+01    1.00727E+02
 5.00000E-01    6.22915E+01    2.08054E+01    1.03778E+02
 6.00000E-01    6.19376E+01    3.25172E+01    9.13580E+01
 7.00000E-01    6.20719E+01    3.25877E+01    9.15561E+01
 8.00000E-01    6.22632E+01    3.81673E+01    8.63591E+01
 9.00000E-01    6.34783E+01    3.89122E+01    8.80444E+01
 1.00000E+00    6.58378E+01    4.25971E+01    8.90785E+01
 1.10000E+00    6.78562E+01    4.39030E+01    9.18094E+01
 1.20000E+00    6.98654E+01    4.58317E+01    9.38991E+01
 1.30000E+00    7.15904E+01    4.69633E+01    9.62175E+01
 1.40000E+00    7.36806E+01    4.83345E+01    9.90267E+01
 1.50000E+00    7.51969E+01    4.88780E+01    1.01516E+02
 1.60000E+00    7.69819E+01    5.00382E+01    1.03926E+02
 1.70000E+00    7.81220E+01    5.07793E+01    1.05465E+02
 1.80000E+00    7.94601E+01    5.16491E+01    1.07271E+02
 1.90000E+00    8.02105E+01    5.21368E+01    1.08284E+02
 2.00000E+00    8.10972E+01    5.19022E+01    1.10292E+02
 2.10000E+00    8.15084E+01    5.21654E+01    1.10851E+02
 2.30000E+00    8.21260E+01    5.25606E+01    1.11691E+02
 2.50000E+00    8.21550E+01    5.18398E+01    1.12470E+02
 2.70000E+00    8.16633E+01    5.15295E+01    1.11797E+02
 3.00000E+00    7.99443E+01    4.97254E+01    1.10163E+02
 3.50000E+00    7.58744E+01    4.68904E+01    1.04858E+02
 4.00000E+00    7.09398E+01    4.42664E+01    9.76132E+01
 4.50000E+00    6.66229E+01    4.15727E+01    9.16731E+01
 5.00000E+00    6.32127E+01    3.98872E+01    8.65382E+01
 5.50000E+00    6.06612E+01    3.82772E+01    8.30452E+01
 6.00000E+00    5.84863E+01    3.57936E+01    8.11790E+01
 6.50000E+00    5.64189E+01    3.45284E+01    7.83094E+01
 7.00000E+00    5.43352E+01    3.22751E+01    7.63953E+01
 7.50000E+00    5.21993E+01    3.10064E+01    7.33922E+01
 8.00000E+00    5.00380E+01    2.93723E+01    7.07037E+01
 8.50000E+00    4.78991E+01    2.81168E+01    6.76814E+01
 9.00000E+00    4.58120E+01    2.69833E+01    6.46407E+01
 9.50000E+00    4.37807E+01    2.57868E+01    6.17746E+01
 1.00000E+01    4.17987E+01    2.49120E+01    5.86854E+01
 1.05000E+01    3.98615E+01    2.37575E+01    5.59655E+01
 1.10000E+01    3.79732E+01    2.26320E+01    5.33144E+01
 1.15000E+01    3.61456E+01    2.15428E+01    5.07484E+01
 1.20000E+01    3.43945E+01    2.11870E+01    4.76020E+01
 1.25000E+01    3.27348E+01    2.01646E+01    4.53050E+01
 1.30000E+01    3.11767E+01    1.92048E+01    4.31486E+01
 1.35000E+01    2.97252E+01    1.83107E+01    4.11397E+01
 1.40000E+01    2.83794E+01    1.80209E+01    3.87379E+01
 1.45000E+01    2.71347E+01    1.72305E+01    3.70389E+01
 1.50000E+01    2.59846E+01    1.67081E+01    3.52611E+01
 1.55000E+01    2.49620E+01    1.60506E+01    3.38734E+01
 1.60000E+01    2.39395E+01    1.55367E+01    3.23423E+01
 1.65000E+01    2.30665E+01    1.49702E+01    3.11628E+01
 1.70000E+01    2.21935E+01    1.44036E+01    2.99834E+01
 1.75000E+01    2.14505E+01    1.39214E+01    2.89796E+01
 1.80000E+01    2.07074E+01    1.36462E+01    2.77686E+01
 1.85000E+01    2.00769E+01    1.32307E+01    2.69231E+01
 1.90000E+01    1.94465E+01    1.28152E+01    2.60778E+01
 1.95000E+01    1.89115E+01    1.24627E+01    2.53603E+01
 2.00000E+01    1.83766E+01    1.21102E+01    2.46430E+01
