# n + Lu173 : (n,t)     
# jendl.ad   N.Iwamoto                         EVAL-Apr14
# uncertainties: n
# # energies =    71
#   E(MeV)       xs(mb) 
 4.47810E+00    0.00000E+00
 4.54522E+00    2.10510E-30
 4.55442E+00    5.18930E-25
 4.57393E+00    2.76140E-24
 4.60123E+00    6.90260E-24
 4.64674E+00    1.43840E-23
 4.68733E+00    2.11870E-23
 4.71007E+00    2.50150E-23
 4.72615E+00    2.77270E-23
 4.73868E+00    2.98420E-23
 4.79726E+00    3.97370E-23
 4.84916E+00    4.85030E-23
 4.93032E+00    6.22130E-23
 4.96823E+00    6.86160E-23
 4.98239E+00    7.10080E-23
 4.99039E+00    7.23590E-23
 5.08600E+00    8.85100E-23
 5.13010E+00    9.63480E-23
 5.24887E+00    1.17590E-22
 5.26297E+00    1.20110E-22
 5.30903E+00    1.28350E-22
 5.31604E+00    1.29610E-22
 5.31805E+00    1.29970E-22
 5.34327E+00    1.34480E-22
 5.35015E+00    1.35710E-22
 5.35921E+00    1.37330E-22
 5.38561E+00    1.42050E-22
 5.39059E+00    1.42940E-22
 5.41881E+00    1.47990E-22
 5.42795E+00    1.49620E-22
 5.43200E+00    1.50350E-22
 5.43666E+00    1.51180E-22
 5.44200E+00    1.52140E-22
 5.45476E+00    1.54420E-22
 5.46017E+00    1.55390E-22
 5.46473E+00    1.56200E-22
 5.46787E+00    1.56770E-22
 5.47206E+00    1.57520E-22
 5.47558E+00    1.58140E-22
 5.48873E+00    1.60500E-22
 5.50000E+00    1.62510E-22
 5.50870E+00    1.70060E-22
 6.00000E+00    6.21180E-22
 6.50000E+00    6.35340E-17
 7.00000E+00    1.10760E-13
 7.50000E+00    1.81880E-11
 8.00000E+00    6.78180E-10
 8.50000E+00    9.42970E-09
 9.00000E+00    6.68840E-08
 9.50000E+00    3.09490E-07
 1.00000E+01    1.23180E-06
 1.05000E+01    5.39994E-06
 1.10000E+01    2.53063E-05
 1.15000E+01    1.08306E-04
 1.20000E+01    3.97011E-04
 1.25000E+01    1.23851E-03
 1.30000E+01    3.35136E-03
 1.35000E+01    7.99183E-03
 1.40000E+01    1.70014E-02
 1.45000E+01    3.26006E-02
 1.50000E+01    5.69521E-02
 1.55000E+01    9.17186E-02
 1.60000E+01    1.37819E-01
 1.65000E+01    1.95409E-01
 1.70000E+01    2.63990E-01
 1.75000E+01    3.42498E-01
 1.80000E+01    4.29324E-01
 1.85000E+01    5.22254E-01
 1.90000E+01    6.18240E-01
 1.95000E+01    7.13547E-01
 2.00000E+01    8.04151E-01
