# n + Lu173 : (n,xt)    
# jendl.ad   N.Iwamoto                         EVAL-Apr14
# 
# # energies =    97
#   E(MeV)        xs(mb) 
 1.05000E-01    0.00000E+00
 1.10000E-01    0.00000E+00
 1.17864E-01    0.00000E+00
 1.20000E-01    0.00000E+00
 1.24393E-01    0.00000E+00
 1.29092E-01    0.00000E+00
 1.30000E-01    0.00000E+00
 1.40000E-01    0.00000E+00
 1.50000E-01    0.00000E+00
 1.60000E-01    0.00000E+00
 1.70000E-01    0.00000E+00
 1.80000E-01    0.00000E+00
 1.90000E-01    0.00000E+00
 1.99628E-01    0.00000E+00
 2.00000E-01    0.00000E+00
 2.25000E-01    0.00000E+00
 2.50000E-01    0.00000E+00
 2.60068E-01    0.00000E+00
 2.64842E-01    0.00000E+00
 2.75000E-01    0.00000E+00
 3.00000E-01    0.00000E+00
 3.59078E-01    0.00000E+00
 3.60792E-01    0.00000E+00
 4.00000E-01    0.00000E+00
 4.26091E-01    0.00000E+00
 4.27798E-01    0.00000E+00
 4.30597E-01    0.00000E+00
 4.37449E-01    0.00000E+00
 4.51599E-01    0.00000E+00
 4.53731E-01    0.00000E+00
 5.00000E-01    0.00000E+00
 5.55313E-01    0.00000E+00
 5.74129E-01    0.00000E+00
 5.79681E-01    0.00000E+00
 5.83463E-01    0.00000E+00
 6.00000E-01    0.00000E+00
 6.10228E-01    0.00000E+00
 6.10229E-01    0.00000E+00
 6.14966E-01    0.00000E+00
 6.58176E-01    0.00000E+00
 6.58177E-01    0.00000E+00
 7.00000E-01    0.00000E+00
 7.19472E-01    0.00000E+00
 7.25748E-01    0.00000E+00
 7.38925E-01    0.00000E+00
 7.38995E-01    0.00000E+00
 8.00000E-01    0.00000E+00
 9.00000E-01    0.00000E+00
 1.00000E+00    0.00000E+00
 1.10000E+00    0.00000E+00
 1.20000E+00    0.00000E+00
 1.30000E+00    0.00000E+00
 1.40000E+00    0.00000E+00
 1.50000E+00    0.00000E+00
 1.60000E+00    0.00000E+00
 1.70000E+00    0.00000E+00
 1.80000E+00    0.00000E+00
 1.90000E+00    0.00000E+00
 2.00000E+00    0.00000E+00
 2.25000E+00    0.00000E+00
 2.50000E+00    0.00000E+00
 2.75000E+00    0.00000E+00
 3.00000E+00    0.00000E+00
 3.50000E+00    0.00000E+00
 4.00000E+00    0.00000E+00
 4.50000E+00    6.86860E-31
 5.00000E+00    7.39824E-23
 5.50000E+00    1.62510E-22
 6.00000E+00    6.21180E-22
 6.50000E+00    6.35340E-17
 7.00000E+00    1.10760E-13
 7.50000E+00    1.81880E-11
 8.00000E+00    6.78180E-10
 8.50000E+00    9.42970E-09
 9.00000E+00    6.68840E-08
 9.50000E+00    3.09490E-07
 1.00000E+01    1.23180E-06
 1.05000E+01    5.39994E-06
 1.10000E+01    2.53063E-05
 1.15000E+01    1.08306E-04
 1.20000E+01    3.97011E-04
 1.25000E+01    1.23851E-03
 1.30000E+01    3.35136E-03
 1.35000E+01    7.99183E-03
 1.40000E+01    1.70014E-02
 1.45000E+01    3.26006E-02
 1.50000E+01    5.69521E-02
 1.55000E+01    9.17190E-02
 1.60000E+01    1.37823E-01
 1.65000E+01    1.95436E-01
 1.70000E+01    2.64124E-01
 1.75000E+01    3.43015E-01
 1.80000E+01    4.30979E-01
 1.85000E+01    5.26793E-01
 1.90000E+01    6.29136E-01
 1.95000E+01    7.36757E-01
 2.00000E+01    8.48481E-01
