# n + Lu173 : (n,tot)   
# jendl.ad   N.Iwamoto                         EVAL-Apr14
# uncertainties: n
# # energies =   171
#   E(MeV)       xs(mb) 
 1.00000E-11    8.10295E+05
 1.00000E-07    2.69833E+04
 4.13990E-07    2.09924E+04
 5.31580E-07    9.31455E+05
 6.82560E-07    9.57773E+05
 8.76420E-07    8.43583E+05
 1.12540E-06    7.41043E+05
 1.44500E-06    6.50818E+05
 1.85540E-06    5.72199E+05
 2.37240E-06    5.02469E+05
 3.05900E-06    4.40797E+05
 3.92790E-06    3.87062E+05
 5.04350E-06    3.39913E+05
 6.47600E-06    2.98581E+05
 8.31530E-06    2.62155E+05
 1.06770E-05    2.29223E+05
 1.37100E-05    2.00160E+05
 1.76030E-05    1.74779E+05
 2.26030E-05    1.52374E+05
 2.92030E-05    1.33021E+05
 3.72670E-05    1.16216E+05
 4.78510E-05    1.01059E+05
 6.14420E-05    8.78024E+04
 7.88930E-05    7.60966E+04
 1.01300E-04    6.57422E+04
 1.30070E-04    5.66468E+04
 1.67020E-04    4.87994E+04
 2.14450E-04    4.20477E+04
 2.75360E-04    3.62295E+04
 3.53580E-04    3.11886E+04
 4.54000E-04    2.67347E+04
 5.82950E-04    2.28880E+04
 7.48520E-04    1.95567E+04
 9.61120E-04    1.66969E+04
 1.23410E-03    1.42710E+04
 1.58460E-03    1.21992E+04
 2.03470E-03    1.09223E+04
 2.24870E-03    1.02570E+04
 2.48520E-03    9.78207E+03
 2.61260E-03    9.47995E+03
 2.74650E-03    9.04748E+03
 3.03540E-03    8.49573E+03
 3.35460E-03    7.98085E+03
 3.70740E-03    7.38627E+03
 4.30740E-03    6.58505E+03
 5.53080E-03    5.70854E+03
 7.10170E-03    4.97940E+03
 9.11880E-03    4.38028E+03
 1.17090E-02    3.91352E+03
 1.50340E-02    3.49961E+03
 1.93050E-02    3.22324E+03
 2.18750E-02    3.09527E+03
 2.35790E-02    3.03338E+03
 2.41760E-02    3.00449E+03
 2.47880E-02    2.96113E+03
 2.60580E-02    2.91140E+03
 2.70000E-02    2.85846E+03
 2.85000E-02    2.76546E+03
 3.18280E-02    2.66736E+03
 3.43070E-02    2.54232E+03
 4.08680E-02    2.39843E+03
 4.63090E-02    2.28543E+03
 5.24750E-02    2.19714E+03
 5.65620E-02    2.09146E+03
 6.73790E-02    1.99342E+03
 7.20000E-02    1.92980E+03
 7.95000E-02    1.87924E+03
 8.25000E-02    1.84995E+03
 8.65170E-02    1.78982E+03
 9.80370E-02    1.70751E+03
 1.11090E-01    1.65214E+03
 1.16790E-01    1.59711E+03
 1.22770E-01    1.51673E+03
 1.29070E-01    1.43222E+03
 1.35690E-01    1.37251E+03
 1.42640E-01    1.31792E+03
 1.49960E-01    1.26493E+03
 1.57640E-01    1.21422E+03
 1.65730E-01    1.16798E+03
 1.74220E-01    1.12500E+03
 1.83160E-01    1.08570E+03
 1.92550E-01    1.04624E+03
 2.02420E-01    9.89190E+02
 2.12800E-01    9.36826E+02
 2.23710E-01    8.91922E+02
 2.35180E-01    9.64838E+02
 2.47240E-01    2.16859E+03
 2.73240E-01    2.25202E+03
 2.87250E-01    2.27256E+03
 2.94520E-01    2.28268E+03
 2.97200E-01    2.28672E+03
 2.98500E-01    2.29106E+03
 3.01970E-01    2.31224E+03
 3.33730E-01    2.35911E+03
 3.68830E-01    2.40567E+03
 3.87740E-01    2.43816E+03
 4.07620E-01    2.48464E+03
 4.50490E-01    2.59187E+03
 4.97870E-01    2.67237E+03
 5.23400E-01    2.70468E+03
 5.50230E-01    2.73883E+03
 5.78440E-01    2.78369E+03
 6.08100E-01    2.82165E+03
 6.39280E-01    2.85342E+03
 6.72060E-01    2.88300E+03
 7.06510E-01    2.90920E+03
 7.42740E-01    2.93440E+03
 7.80820E-01    2.96005E+03
 8.20850E-01    2.98450E+03
 8.62940E-01    3.01027E+03
 9.07180E-01    3.04048E+03
 9.61640E-01    3.07059E+03
 1.00260E+00    3.11495E+03
 1.10800E+00    3.16095E+03
 1.16480E+00    3.18994E+03
 1.22460E+00    3.21503E+03
 1.28730E+00    3.23763E+03
 1.35340E+00    3.25595E+03
 1.42270E+00    3.26942E+03
 1.49570E+00    3.27846E+03
 1.57240E+00    3.28236E+03
 1.65300E+00    3.28102E+03
 1.73770E+00    3.27486E+03
 1.82680E+00    3.26442E+03
 1.92050E+00    3.25039E+03
 2.01900E+00    3.23322E+03
 2.12250E+00    3.21503E+03
 2.23130E+00    3.19962E+03
 2.30690E+00    3.19003E+03
 2.34570E+00    3.18513E+03
 2.36530E+00    3.18184E+03
 2.38520E+00    3.17368E+03
 2.46600E+00    3.15750E+03
 2.59240E+00    3.13897E+03
 2.72530E+00    3.12064E+03
 2.86500E+00    3.10299E+03
 3.01190E+00    3.08471E+03
 3.16640E+00    3.06591E+03
 3.32870E+00    3.03742E+03
 3.67880E+00    2.99909E+03
 4.06570E+00    2.96371E+03
 4.49330E+00    2.93973E+03
 4.72370E+00    2.92554E+03
 4.96590E+00    2.91100E+03
 5.22050E+00    2.89559E+03
 5.48810E+00    2.87922E+03
 5.76950E+00    2.86146E+03
 6.06530E+00    2.84181E+03
 6.37630E+00    2.82457E+03
 6.59240E+00    2.81401E+03
 6.70320E+00    2.79969E+03
 7.04690E+00    2.77836E+03
 7.40820E+00    2.75724E+03
 7.78800E+00    2.73510E+03
 8.18730E+00    2.71245E+03
 8.60710E+00    2.69895E+03
 9.04840E+00    2.68133E+03
 9.51230E+00    2.66442E+03
 1.00000E+01    2.64793E+03
 1.05130E+01    2.63154E+03
 1.10520E+01    2.61494E+03
 1.16180E+01    2.59808E+03
 1.22140E+01    2.58119E+03
 1.28400E+01    2.56466E+03
 1.34990E+01    2.55270E+03
 1.38400E+01    2.54498E+03
 1.41910E+01    2.53750E+03
 1.45500E+01    2.53022E+03
 1.49180E+01    2.51983E+03
 1.56830E+01    2.50605E+03
 1.64870E+01    2.49260E+03
