# n + Lu173 : (n,xd)    
# jendl.ad   N.Iwamoto                         EVAL-Apr14
# 
# # energies =    97
#   E(MeV)        xs(mb) 
 1.05000E-01    0.00000E+00
 1.10000E-01    0.00000E+00
 1.17864E-01    0.00000E+00
 1.20000E-01    0.00000E+00
 1.24393E-01    0.00000E+00
 1.29092E-01    0.00000E+00
 1.30000E-01    0.00000E+00
 1.40000E-01    0.00000E+00
 1.50000E-01    0.00000E+00
 1.60000E-01    0.00000E+00
 1.70000E-01    0.00000E+00
 1.80000E-01    0.00000E+00
 1.90000E-01    0.00000E+00
 1.99628E-01    0.00000E+00
 2.00000E-01    0.00000E+00
 2.25000E-01    0.00000E+00
 2.50000E-01    0.00000E+00
 2.60068E-01    0.00000E+00
 2.64842E-01    0.00000E+00
 2.75000E-01    0.00000E+00
 3.00000E-01    0.00000E+00
 3.59078E-01    0.00000E+00
 3.60792E-01    0.00000E+00
 4.00000E-01    0.00000E+00
 4.26091E-01    0.00000E+00
 4.27798E-01    0.00000E+00
 4.30597E-01    0.00000E+00
 4.37449E-01    0.00000E+00
 4.51599E-01    0.00000E+00
 4.53731E-01    0.00000E+00
 5.00000E-01    0.00000E+00
 5.55313E-01    0.00000E+00
 5.74129E-01    0.00000E+00
 5.79681E-01    0.00000E+00
 5.83463E-01    0.00000E+00
 6.00000E-01    0.00000E+00
 6.10228E-01    0.00000E+00
 6.10229E-01    0.00000E+00
 6.14966E-01    0.00000E+00
 6.58176E-01    0.00000E+00
 6.58177E-01    0.00000E+00
 7.00000E-01    0.00000E+00
 7.19472E-01    0.00000E+00
 7.25748E-01    0.00000E+00
 7.38925E-01    0.00000E+00
 7.38995E-01    0.00000E+00
 8.00000E-01    0.00000E+00
 9.00000E-01    0.00000E+00
 1.00000E+00    0.00000E+00
 1.10000E+00    0.00000E+00
 1.20000E+00    0.00000E+00
 1.30000E+00    0.00000E+00
 1.40000E+00    0.00000E+00
 1.50000E+00    0.00000E+00
 1.60000E+00    0.00000E+00
 1.70000E+00    0.00000E+00
 1.80000E+00    0.00000E+00
 1.90000E+00    0.00000E+00
 2.00000E+00    0.00000E+00
 2.25000E+00    0.00000E+00
 2.50000E+00    0.00000E+00
 2.75000E+00    6.77533E-22
 3.00000E+00    5.64959E-21
 3.50000E+00    1.83269E-20
 4.00000E+00    7.77340E-20
 4.50000E+00    3.59660E-15
 5.00000E+00    5.02040E-12
 5.50000E+00    6.08440E-10
 6.00000E+00    1.68150E-08
 6.50000E+00    1.76430E-07
 7.00000E+00    9.97890E-07
 7.50000E+00    4.45802E-06
 8.00000E+00    2.28207E-05
 8.50000E+00    1.25552E-04
 9.00000E+00    5.93110E-04
 9.50000E+00    2.26581E-03
 1.00000E+01    7.11174E-03
 1.05000E+01    1.88687E-02
 1.10000E+01    4.33462E-02
 1.15000E+01    8.78245E-02
 1.20000E+01    1.59433E-01
 1.25000E+01    2.63185E-01
 1.30000E+01    4.00992E-01
 1.35000E+01    5.71928E-01
 1.40000E+01    7.73236E-01
 1.45000E+01    1.00128E+00
 1.50000E+01    1.25227E+00
 1.55000E+01    1.52258E+00
 1.60000E+01    1.80896E+00
 1.65000E+01    2.10859E+00
 1.70000E+01    2.41906E+00
 1.75000E+01    2.73836E+00
 1.80000E+01    3.06470E+00
 1.85000E+01    3.31237E+00
 1.90000E+01    3.64762E+00
 1.95000E+01    3.98625E+00
 2.00000E+01    4.32725E+00
