# n + Hg199 : (n,tot)   
# jendl4.0   K.SHIBATA, T.FUKAHORI, S.CHIBA,+  EVAL-SEP97
# uncertainties: n
# # energies =   171
#   E(MeV)       xs(mb) 
 1.00000E-11    2.38796E+07
 1.00000E-07    7.21331E+05
 4.13990E-07    3.94443E+05
 5.31580E-07    3.22062E+05
 6.82560E-07    2.58664E+05
 8.76420E-07    2.04082E+05
 1.12540E-06    1.58143E+05
 1.44500E-06    1.20464E+05
 1.85540E-06    9.06755E+04
 2.37240E-06    6.74546E+04
 3.05900E-06    4.99568E+04
 3.92790E-06    3.74058E+04
 5.04350E-06    2.85287E+04
 6.47600E-06    2.23844E+04
 8.31530E-06    1.81816E+04
 1.06770E-05    1.53147E+04
 1.37100E-05    1.33596E+04
 1.76030E-05    1.21108E+04
 2.26030E-05    1.29681E+04
 2.92030E-05    5.24221E+05
 3.72670E-05    1.83661E+04
 4.78510E-05    1.17159E+04
 6.14420E-05    1.00884E+04
 7.88930E-05    8.79304E+03
 1.01300E-04    4.08281E+04
 1.30070E-04    1.84075E+04
 1.67020E-04    3.70882E+05
 2.14450E-04    1.88695E+04
 2.75360E-04    1.42467E+05
 3.53580E-04    1.58912E+04
 4.54000E-04    5.79106E+04
 5.82950E-04    2.33985E+04
 7.48520E-04    7.12821E+04
 9.61120E-04    3.12767E+04
 1.23410E-03    2.96233E+04
 1.58460E-03    2.77978E+04
 2.03470E-03    2.65831E+04
 2.24870E-03    2.59155E+04
 2.48520E-03    2.54251E+04
 2.61260E-03    2.51042E+04
 2.74650E-03    2.46299E+04
 3.03540E-03    2.40114E+04
 3.35460E-03    2.34081E+04
 3.70740E-03    2.26762E+04
 4.30740E-03    2.15536E+04
 5.53080E-03    2.02253E+04
 7.10170E-03    1.89790E+04
 9.11880E-03    1.78730E+04
 1.17090E-02    1.70583E+04
 1.50340E-02    1.63009E+04
 1.93050E-02    1.57542E+04
 2.18750E-02    1.54704E+04
 2.35790E-02    1.53301E+04
 2.41760E-02    1.52608E+04
 2.47880E-02    1.51575E+04
 2.60580E-02    1.50403E+04
 2.70000E-02    1.49184E+04
 2.85000E-02    1.46975E+04
 3.18280E-02    1.44517E+04
 3.43070E-02    1.41279E+04
 4.08680E-02    1.37481E+04
 4.63090E-02    1.34393E+04
 5.24750E-02    1.31974E+04
 5.65620E-02    1.29016E+04
 6.73790E-02    1.26213E+04
 7.20000E-02    1.24334E+04
 7.95000E-02    1.22806E+04
 8.25000E-02    1.21866E+04
 8.65170E-02    1.19972E+04
 9.80370E-02    1.16993E+04
 1.11090E-01    1.14595E+04
 1.16790E-01    1.13247E+04
 1.22770E-01    1.11914E+04
 1.29070E-01    1.10598E+04
 1.35690E-01    1.09295E+04
 1.42640E-01    1.08005E+04
 1.49960E-01    1.06734E+04
 1.57640E-01    1.05435E+04
 1.65730E-01    1.04021E+04
 1.74220E-01    1.02611E+04
 1.83160E-01    1.01164E+04
 1.92550E-01    9.97162E+03
 2.02420E-01    9.82120E+03
 2.12800E-01    9.66235E+03
 2.23710E-01    9.49914E+03
 2.35180E-01    9.34829E+03
 2.47240E-01    9.11790E+03
 2.73240E-01    8.89993E+03
 2.87250E-01    8.78812E+03
 2.94520E-01    8.73592E+03
 2.97200E-01    8.71507E+03
 2.98500E-01    8.68950E+03
 3.01970E-01    8.50204E+03
 3.33730E-01    8.16497E+03
 3.68830E-01    7.91898E+03
 3.87740E-01    7.76568E+03
 4.07620E-01    7.53595E+03
 4.50490E-01    7.23582E+03
 4.97870E-01    7.01435E+03
 5.23400E-01    6.86567E+03
 5.50230E-01    6.71321E+03
 5.78440E-01    6.57120E+03
 6.08100E-01    6.43817E+03
 6.39280E-01    6.31313E+03
 6.72060E-01    6.18711E+03
 7.06510E-01    6.06711E+03
 7.42740E-01    5.94159E+03
 7.80820E-01    5.82952E+03
 8.20850E-01    5.74870E+03
 8.62940E-01    5.67050E+03
 9.07180E-01    5.58313E+03
 9.61640E-01    5.50627E+03
 1.00260E+00    5.48333E+03
 1.10800E+00    5.49196E+03
 1.16480E+00    5.49812E+03
 1.22460E+00    5.50459E+03
 1.28730E+00    5.51139E+03
 1.35340E+00    5.51854E+03
 1.42270E+00    5.52605E+03
 1.49570E+00    5.57308E+03
 1.57240E+00    5.67213E+03
 1.65300E+00    5.77637E+03
 1.73770E+00    5.88306E+03
 1.82680E+00    5.99028E+03
 1.92050E+00    6.10294E+03
 2.01900E+00    6.22271E+03
 2.12250E+00    6.35178E+03
 2.23130E+00    6.46431E+03
 2.30690E+00    6.53413E+03
 2.34570E+00    6.56863E+03
 2.36530E+00    6.59025E+03
 2.38520E+00    6.64512E+03
 2.46600E+00    6.75169E+03
 2.59240E+00    6.85817E+03
 2.72530E+00    6.96676E+03
 2.86500E+00    7.08021E+03
 3.01190E+00    7.14803E+03
 3.16640E+00    7.18303E+03
 3.32870E+00    7.23915E+03
 3.67880E+00    7.31617E+03
 4.06570E+00    7.25840E+03
 4.49330E+00    7.15416E+03
 4.72370E+00    7.08258E+03
 4.96590E+00    6.98093E+03
 5.22050E+00    6.81850E+03
 5.48810E+00    6.65251E+03
 5.76950E+00    6.49221E+03
 6.06530E+00    6.30659E+03
 6.37630E+00    6.13367E+03
 6.59240E+00    6.02815E+03
 6.70320E+00    5.89908E+03
 7.04690E+00    5.71327E+03
 7.40820E+00    5.53551E+03
 7.78800E+00    5.37861E+03
 8.18730E+00    5.27664E+03
 8.60710E+00    5.18840E+03
 9.04840E+00    5.10567E+03
 9.51230E+00    5.02282E+03
 1.00000E+01    4.98619E+03
 1.05130E+01    4.99019E+03
 1.10520E+01    4.99379E+03
 1.16180E+01    5.00266E+03
 1.22140E+01    5.06160E+03
 1.28400E+01    5.13733E+03
 1.34990E+01    5.19641E+03
 1.38400E+01    5.23877E+03
 1.41910E+01    5.29086E+03
 1.45500E+01    5.34520E+03
 1.49180E+01    5.42821E+03
 1.56830E+01    5.53271E+03
 1.64870E+01    5.60421E+03
