# n + Hg199 : (n,n')    
# jendl4.0   K.SHIBATA, T.FUKAHORI, S.CHIBA,+  EVAL-SEP97
# uncertainties: n
# # energies =   132
#   E(MeV)       xs(mb) 
 1.59180E-01    0.00000E+00
 1.59203E-01    4.41291E-03
 1.60000E-01    4.98232E+01
 1.70000E-01    9.86448E+01
 1.80000E-01    1.44710E+02
 2.00000E-01    2.08385E+02
 2.09255E-01    2.24736E+02
 2.09270E-01    2.24837E+02
 2.14940E-01    2.62607E+02
 2.20611E-01    2.99670E+02
 2.31952E-01    3.71787E+02
 2.50000E-01    4.80867E+02
 2.54635E-01    5.07460E+02
 2.77317E-01    6.29418E+02
 3.00000E-01    7.44490E+02
 4.00000E-01    8.26533E+02
 4.05546E-01    8.30594E+02
 4.15998E-01    8.60039E+02
 4.17353E-01    8.66207E+02
 4.29160E-01    9.18946E+02
 4.40967E-01    9.70489E+02
 4.52773E-01    1.02089E+03
 4.57809E-01    1.04172E+03
 4.76387E-01    1.15629E+03
 4.94796E-01    1.26517E+03
 5.00000E-01    1.33056E+03
 5.25000E-01    1.38667E+03
 5.35200E-01    1.40903E+03
 5.50000E-01    1.44154E+03
 5.75000E-01    1.49179E+03
 6.00000E-01    1.54096E+03
 6.41234E-01    1.53265E+03
 6.72291E-01    1.53762E+03
 6.75000E-01    1.53986E+03
 6.99428E-01    1.55795E+03
 7.12500E-01    1.57657E+03
 7.16514E-01    1.58205E+03
 7.41138E-01    1.61822E+03
 7.50000E-01    1.63801E+03
 7.53802E-01    1.64611E+03
 7.54204E-01    1.64708E+03
 8.00000E-01    1.80213E+03
 8.50000E-01    1.82982E+03
 9.00000E-01    1.85397E+03
 9.50000E-01    1.87496E+03
 1.00000E+00    1.89311E+03
 1.03125E+00    1.91429E+03
 1.06250E+00    1.93409E+03
 1.09375E+00    1.95345E+03
 1.12500E+00    1.97160E+03
 1.18750E+00    2.00601E+03
 1.25000E+00    2.03764E+03
 1.31250E+00    2.07130E+03
 1.37500E+00    2.10268E+03
 1.43750E+00    2.13246E+03
 1.50000E+00    2.15941E+03
 1.56250E+00    2.19553E+03
 1.62500E+00    2.22825E+03
 1.68750E+00    2.26090E+03
 1.75000E+00    2.29065E+03
 1.81250E+00    2.32133E+03
 1.87500E+00    2.34950E+03
 1.93750E+00    2.37760E+03
 2.00000E+00    2.40351E+03
 2.06250E+00    2.42353E+03
 2.12500E+00    2.44176E+03
 2.18750E+00    2.46023E+03
 2.25000E+00    2.47709E+03
 2.37500E+00    2.50982E+03
 2.50000E+00    2.54021E+03
 2.62500E+00    2.55706E+03
 2.75000E+00    2.57285E+03
 2.87500E+00    2.58767E+03
 3.00000E+00    2.60160E+03
 3.25000E+00    2.61142E+03
 3.50000E+00    2.61982E+03
 3.75000E+00    2.62699E+03
 4.00000E+00    2.63311E+03
 4.50000E+00    2.61992E+03
 5.00000E+00    2.60731E+03
 5.50000E+00    2.54860E+03
 6.00000E+00    2.49416E+03
 6.25000E+00    2.41869E+03
 6.50000E+00    2.34581E+03
 6.75000E+00    2.27532E+03
 7.00000E+00    2.20706E+03
 7.25000E+00    2.14086E+03
 7.50000E+00    2.07659E+03
 7.75000E+00    2.01411E+03
 8.00000E+00    1.95332E+03
 8.12500E+00    1.87472E+03
 8.25000E+00    1.79728E+03
 8.37500E+00    1.72098E+03
 8.50000E+00    1.64576E+03
 8.62500E+00    1.57161E+03
 8.75000E+00    1.49849E+03
 8.87500E+00    1.42637E+03
 9.00000E+00    1.35522E+03
 9.12500E+00    1.28503E+03
 9.25000E+00    1.21575E+03
 9.37500E+00    1.14738E+03
 9.50000E+00    1.07987E+03
 9.62500E+00    1.01322E+03
 9.75000E+00    9.47393E+02
 9.87500E+00    8.82375E+02
 1.00000E+01    8.18144E+02
 1.02500E+01    7.60769E+02
 1.05000E+01    7.04695E+02
 1.07500E+01    6.49863E+02
 1.10000E+01    5.96214E+02
 1.12500E+01    5.43695E+02
 1.15000E+01    4.92258E+02
 1.17500E+01    4.41855E+02
 1.20000E+01    3.92442E+02
 1.22500E+01    3.77645E+02
 1.25000E+01    3.63103E+02
 1.27500E+01    3.48805E+02
 1.30000E+01    3.34742E+02
 1.32500E+01    3.20906E+02
 1.35000E+01    3.07286E+02
 1.37500E+01    2.93877E+02
 1.40000E+01    2.80669E+02
 1.45000E+01    2.69233E+02
 1.50000E+01    2.58086E+02
 1.55000E+01    2.47210E+02
 1.60000E+01    2.36588E+02
 1.65000E+01    2.27543E+02
 1.70000E+01    2.18677E+02
 1.75000E+01    2.09980E+02
 1.80000E+01    2.01443E+02
 1.90000E+01    1.92151E+02
 2.00000E+01    1.83071E+02
