# n + Hg199 : (n,xp)    
# jendl4.0   K.SHIBATA, T.FUKAHORI, S.CHIBA,+  EVAL-SEP97
# 
# # energies =   132
#   E(MeV)        xs(mb) 
 1.59180E-01    0.00000E+00
 1.59203E-01    0.00000E+00
 1.60000E-01    0.00000E+00
 1.70000E-01    0.00000E+00
 1.80000E-01    0.00000E+00
 2.00000E-01    0.00000E+00
 2.09255E-01    0.00000E+00
 2.09270E-01    0.00000E+00
 2.14940E-01    0.00000E+00
 2.20611E-01    0.00000E+00
 2.31952E-01    0.00000E+00
 2.50000E-01    0.00000E+00
 2.54635E-01    0.00000E+00
 2.77317E-01    0.00000E+00
 3.00000E-01    0.00000E+00
 4.00000E-01    0.00000E+00
 4.05546E-01    0.00000E+00
 4.15998E-01    0.00000E+00
 4.17353E-01    0.00000E+00
 4.29160E-01    0.00000E+00
 4.40967E-01    0.00000E+00
 4.52773E-01    0.00000E+00
 4.57809E-01    0.00000E+00
 4.76387E-01    0.00000E+00
 4.94796E-01    0.00000E+00
 5.00000E-01    0.00000E+00
 5.25000E-01    0.00000E+00
 5.35200E-01    0.00000E+00
 5.50000E-01    0.00000E+00
 5.75000E-01    0.00000E+00
 6.00000E-01    0.00000E+00
 6.41234E-01    0.00000E+00
 6.72291E-01    0.00000E+00
 6.75000E-01    0.00000E+00
 6.99428E-01    0.00000E+00
 7.12500E-01    0.00000E+00
 7.16514E-01    0.00000E+00
 7.41138E-01    0.00000E+00
 7.50000E-01    0.00000E+00
 7.53802E-01    0.00000E+00
 7.54204E-01    0.00000E+00
 8.00000E-01    0.00000E+00
 8.50000E-01    0.00000E+00
 9.00000E-01    0.00000E+00
 9.50000E-01    0.00000E+00
 1.00000E+00    0.00000E+00
 1.03125E+00    3.09188E-12
 1.06250E+00    6.18375E-12
 1.09375E+00    9.27563E-12
 1.12500E+00    1.23675E-11
 1.18750E+00    1.85513E-11
 1.25000E+00    2.47350E-11
 1.31250E+00    3.09188E-11
 1.37500E+00    3.71025E-11
 1.43750E+00    4.32862E-11
 1.50000E+00    4.94700E-11
 1.56250E+00    1.09219E-09
 1.62500E+00    2.13490E-09
 1.68750E+00    3.17762E-09
 1.75000E+00    4.22034E-09
 1.81250E+00    5.26305E-09
 1.87500E+00    6.30577E-09
 1.93750E+00    7.34848E-09
 2.00000E+00    8.39120E-09
 2.06250E+00    3.73273E-08
 2.12500E+00    6.62634E-08
 2.18750E+00    9.51995E-08
 2.25000E+00    1.24136E-07
 2.37500E+00    1.82008E-07
 2.50000E+00    2.39880E-07
 2.62500E+00    9.18673E-07
 2.75000E+00    1.59747E-06
 2.87500E+00    2.27626E-06
 3.00000E+00    2.95505E-06
 3.25000E+00    3.30948E-05
 3.50000E+00    6.32345E-05
 3.75000E+00    9.33743E-05
 4.00000E+00    1.23514E-04
 4.50000E+00    4.99731E-04
 5.00000E+00    8.75948E-04
 5.50000E+00    1.97536E-03
 6.00000E+00    3.07478E-03
 6.25000E+00    7.17391E-03
 6.50000E+00    1.12730E-02
 6.75000E+00    1.53722E-02
 7.00000E+00    1.94713E-02
 7.25000E+00    2.35704E-02
 7.50000E+00    2.76695E-02
 7.75000E+00    3.17687E-02
 8.00000E+00    3.58678E-02
 8.12500E+00    5.31121E-02
 8.25000E+00    7.03563E-02
 8.37500E+00    8.76006E-02
 8.50000E+00    1.04845E-01
 8.62500E+00    1.22089E-01
 8.75000E+00    1.39333E-01
 8.87500E+00    1.56578E-01
 9.00000E+00    1.73822E-01
 9.12500E+00    1.91066E-01
 9.25000E+00    2.08310E-01
 9.37500E+00    2.25555E-01
 9.50000E+00    2.42799E-01
 9.62500E+00    2.60043E-01
 9.75000E+00    2.77288E-01
 9.87500E+00    2.94532E-01
 1.00000E+01    3.11776E-01
 1.02500E+01    4.36283E-01
 1.05000E+01    5.60790E-01
 1.07500E+01    6.85297E-01
 1.10000E+01    8.09803E-01
 1.12500E+01    9.34310E-01
 1.15000E+01    1.05882E+00
 1.17500E+01    1.18332E+00
 1.20000E+01    1.30783E+00
 1.22500E+01    1.59434E+00
 1.25000E+01    1.88085E+00
 1.27500E+01    2.16736E+00
 1.30000E+01    2.45386E+00
 1.32500E+01    2.74037E+00
 1.35000E+01    3.02688E+00
 1.37500E+01    3.31339E+00
 1.40000E+01    3.59990E+00
 1.45000E+01    4.63401E+00
 1.50000E+01    5.66813E+00
 1.55000E+01    6.70225E+00
 1.60000E+01    7.73636E+00
 1.65000E+01    9.19295E+00
 1.70000E+01    1.06495E+01
 1.75000E+01    1.21061E+01
 1.80000E+01    1.35627E+01
 1.90000E+01    1.71464E+01
 2.00000E+01    2.07301E+01
