# n + Hg199 : (n,xa)    
# jendl4.0   K.SHIBATA, T.FUKAHORI, S.CHIBA,+  EVAL-SEP97
# 
# # energies =   132
#   E(MeV)        xs(mb) 
 1.59180E-01    0.00000E+00
 1.59203E-01    0.00000E+00
 1.60000E-01    0.00000E+00
 1.70000E-01    0.00000E+00
 1.80000E-01    0.00000E+00
 2.00000E-01    0.00000E+00
 2.09255E-01    0.00000E+00
 2.09270E-01    0.00000E+00
 2.14940E-01    0.00000E+00
 2.20611E-01    0.00000E+00
 2.31952E-01    0.00000E+00
 2.50000E-01    0.00000E+00
 2.54635E-01    0.00000E+00
 2.77317E-01    0.00000E+00
 3.00000E-01    0.00000E+00
 4.00000E-01    0.00000E+00
 4.05546E-01    0.00000E+00
 4.15998E-01    0.00000E+00
 4.17353E-01    0.00000E+00
 4.29160E-01    0.00000E+00
 4.40967E-01    0.00000E+00
 4.52773E-01    0.00000E+00
 4.57809E-01    0.00000E+00
 4.76387E-01    0.00000E+00
 4.94796E-01    0.00000E+00
 5.00000E-01    0.00000E+00
 5.25000E-01    0.00000E+00
 5.35200E-01    0.00000E+00
 5.50000E-01    0.00000E+00
 5.75000E-01    0.00000E+00
 6.00000E-01    0.00000E+00
 6.41234E-01    8.10404E-07
 6.72291E-01    1.42079E-06
 6.75000E-01    1.47403E-06
 6.99428E-01    1.95414E-06
 7.12500E-01    2.21105E-06
 7.16514E-01    2.28994E-06
 7.41138E-01    2.77390E-06
 7.50000E-01    2.94807E-06
 7.53802E-01    3.02279E-06
 7.54204E-01    3.03069E-06
 8.00000E-01    3.93076E-06
 8.50000E-01    4.16814E-06
 9.00000E-01    4.40551E-06
 9.50000E-01    4.64289E-06
 1.00000E+00    4.88026E-06
 1.03125E+00    5.02518E-06
 1.06250E+00    5.17010E-06
 1.09375E+00    5.31501E-06
 1.12500E+00    5.45993E-06
 1.18750E+00    5.74977E-06
 1.25000E+00    6.03961E-06
 1.31250E+00    6.32944E-06
 1.37500E+00    6.61928E-06
 1.43750E+00    6.90911E-06
 1.50000E+00    7.19895E-06
 1.56250E+00    1.15695E-05
 1.62500E+00    1.59401E-05
 1.68750E+00    2.03107E-05
 1.75000E+00    2.46813E-05
 1.81250E+00    2.90519E-05
 1.87500E+00    3.34225E-05
 1.93750E+00    3.77931E-05
 2.00000E+00    4.21637E-05
 2.06250E+00    4.67713E-05
 2.12500E+00    5.13790E-05
 2.18750E+00    5.59866E-05
 2.25000E+00    6.05942E-05
 2.37500E+00    6.98095E-05
 2.50000E+00    7.90248E-05
 2.62500E+00    9.40801E-05
 2.75000E+00    1.09135E-04
 2.87500E+00    1.24191E-04
 3.00000E+00    1.39246E-04
 3.25000E+00    1.98377E-04
 3.50000E+00    2.57509E-04
 3.75000E+00    3.16640E-04
 4.00000E+00    3.75771E-04
 4.50000E+00    6.43455E-04
 5.00000E+00    9.11139E-04
 5.50000E+00    1.15611E-03
 6.00000E+00    1.40109E-03
 6.25000E+00    2.08914E-03
 6.50000E+00    2.77719E-03
 6.75000E+00    3.46524E-03
 7.00000E+00    4.15329E-03
 7.25000E+00    4.84134E-03
 7.50000E+00    5.52939E-03
 7.75000E+00    6.21744E-03
 8.00000E+00    6.90549E-03
 8.12500E+00    1.08455E-02
 8.25000E+00    1.47854E-02
 8.37500E+00    1.87254E-02
 8.50000E+00    2.26654E-02
 8.62500E+00    2.66053E-02
 8.75000E+00    3.05453E-02
 8.87500E+00    3.44853E-02
 9.00000E+00    3.84252E-02
 9.12500E+00    4.23652E-02
 9.25000E+00    4.63052E-02
 9.37500E+00    5.02451E-02
 9.50000E+00    5.41851E-02
 9.62500E+00    5.81251E-02
 9.75000E+00    6.20650E-02
 9.87500E+00    6.60050E-02
 1.00000E+01    6.99450E-02
 1.02500E+01    9.01126E-02
 1.05000E+01    1.10280E-01
 1.07500E+01    1.30448E-01
 1.10000E+01    1.50615E-01
 1.12500E+01    1.70783E-01
 1.15000E+01    1.90950E-01
 1.17500E+01    2.11118E-01
 1.20000E+01    2.31286E-01
 1.22500E+01    2.62174E-01
 1.25000E+01    2.93063E-01
 1.27500E+01    3.23951E-01
 1.30000E+01    3.54840E-01
 1.32500E+01    3.85729E-01
 1.35000E+01    4.16617E-01
 1.37500E+01    4.47506E-01
 1.40000E+01    4.78394E-01
 1.45000E+01    5.71956E-01
 1.50000E+01    6.65518E-01
 1.55000E+01    7.59079E-01
 1.60000E+01    8.52641E-01
 1.65000E+01    9.71857E-01
 1.70000E+01    1.09107E+00
 1.75000E+01    1.21029E+00
 1.80000E+01    1.32950E+00
 1.90000E+01    1.59830E+00
 2.00000E+01    1.86710E+00
