# n + Hg199 : (n,el)    
# jendl4.0   K.SHIBATA, T.FUKAHORI, S.CHIBA,+  EVAL-SEP97
# uncertainties: n
# # energies =   171
#   E(MeV)       xs(mb) 
 1.00000E-11    9.86819E+04
 1.00000E-07    5.89829E+04
 4.13990E-07    5.12494E+04
 5.31580E-07    4.79642E+04
 6.82560E-07    4.43450E+04
 8.76420E-07    4.04782E+04
 1.12540E-06    3.64892E+04
 1.44500E-06    3.25146E+04
 1.85540E-06    2.87315E+04
 2.37240E-06    2.51926E+04
 3.05900E-06    2.20085E+04
 3.92790E-06    1.92791E+04
 5.04350E-06    1.69750E+04
 6.47600E-06    1.50665E+04
 8.31530E-06    1.34916E+04
 1.06770E-05    1.21675E+04
 1.37100E-05    1.09875E+04
 1.76030E-05    9.75060E+03
 2.26030E-05    7.74692E+03
 2.92030E-05    7.94058E+04
 3.72670E-05    1.44893E+04
 4.78510E-05    1.10916E+04
 6.14420E-05    9.77212E+03
 7.88930E-05    8.50076E+03
 1.01300E-04    2.01016E+04
 1.30070E-04    1.14650E+04
 1.67020E-04    2.79334E+05
 2.14450E-04    1.34123E+04
 2.75360E-04    1.10586E+05
 3.53580E-04    1.57318E+04
 4.54000E-04    5.44751E+04
 5.82950E-04    2.15511E+04
 7.48520E-04    6.19388E+04
 9.61120E-04    2.86573E+04
 1.23410E-03    2.73467E+04
 1.58460E-03    2.58782E+04
 2.03470E-03    2.48817E+04
 2.24870E-03    2.43242E+04
 2.48520E-03    2.39141E+04
 2.61260E-03    2.36445E+04
 2.74650E-03    2.32420E+04
 3.03540E-03    2.27153E+04
 3.35460E-03    2.21973E+04
 3.70740E-03    2.15646E+04
 4.30740E-03    2.05821E+04
 5.53080E-03    1.94064E+04
 7.10170E-03    1.82879E+04
 9.11880E-03    1.72828E+04
 1.17090E-02    1.65280E+04
 1.50340E-02    1.58220E+04
 1.93050E-02    1.53109E+04
 2.18750E-02    1.50449E+04
 2.35790E-02    1.49132E+04
 2.41760E-02    1.48481E+04
 2.47880E-02    1.47511E+04
 2.60580E-02    1.46409E+04
 2.70000E-02    1.45263E+04
 2.85000E-02    1.43183E+04
 3.18280E-02    1.40867E+04
 3.43070E-02    1.37809E+04
 4.08680E-02    1.34218E+04
 4.63090E-02    1.31292E+04
 5.24750E-02    1.28997E+04
 5.65620E-02    1.26186E+04
 6.73790E-02    1.23520E+04
 7.20000E-02    1.21731E+04
 7.95000E-02    1.20275E+04
 8.25000E-02    1.19377E+04
 8.65170E-02    1.17570E+04
 9.80370E-02    1.14720E+04
 1.11090E-01    1.12419E+04
 1.16790E-01    1.11126E+04
 1.22770E-01    1.09846E+04
 1.29070E-01    1.08581E+04
 1.35690E-01    1.07328E+04
 1.42640E-01    1.06087E+04
 1.49960E-01    1.04864E+04
 1.57640E-01    1.03160E+04
 1.65730E-01    1.01371E+04
 1.74220E-01    9.96888E+03
 1.83160E-01    9.79951E+03
 1.92550E-01    9.63145E+03
 2.02420E-01    9.45623E+03
 2.12800E-01    9.25377E+03
 2.23710E-01    9.03230E+03
 2.35180E-01    8.80848E+03
 2.47240E-01    8.48439E+03
 2.73240E-01    8.16384E+03
 2.87250E-01    8.00292E+03
 2.94520E-01    7.92779E+03
 2.97200E-01    7.89902E+03
 2.98500E-01    7.87032E+03
 3.01970E-01    7.66451E+03
 3.33730E-01    7.30781E+03
 3.68830E-01    7.04815E+03
 3.87740E-01    6.87218E+03
 4.07620E-01    6.55713E+03
 4.50490E-01    6.04166E+03
 4.97870E-01    5.61189E+03
 5.23400E-01    5.40653E+03
 5.50230E-01    5.20008E+03
 5.78440E-01    5.00103E+03
 6.08100E-01    4.85917E+03
 6.39280E-01    4.73408E+03
 6.72060E-01    4.59751E+03
 7.06510E-01    4.43507E+03
 7.42740E-01    4.23685E+03
 7.80820E-01    4.01138E+03
 8.20850E-01    3.89613E+03
 8.62940E-01    3.79580E+03
 9.07180E-01    3.69355E+03
 9.61640E-01    3.59751E+03
 1.00260E+00    3.53873E+03
 1.10800E+00    3.50167E+03
 1.16480E+00    3.47524E+03
 1.22460E+00    3.44840E+03
 1.28730E+00    3.42333E+03
 1.35340E+00    3.39725E+03
 1.42270E+00    3.36983E+03
 1.49570E+00    3.37886E+03
 1.57240E+00    3.43637E+03
 1.65300E+00    3.49695E+03
 1.73770E+00    3.56065E+03
 1.82680E+00    3.62715E+03
 1.92050E+00    3.69446E+03
 2.01900E+00    3.78217E+03
 2.12250E+00    3.88330E+03
 2.23130E+00    3.97140E+03
 2.30690E+00    4.02498E+03
 2.34570E+00    4.05047E+03
 2.36530E+00    4.06765E+03
 2.38520E+00    4.11126E+03
 2.46600E+00    4.19704E+03
 2.59240E+00    4.28754E+03
 2.72530E+00    4.38056E+03
 2.86500E+00    4.47688E+03
 3.01190E+00    4.53462E+03
 3.16640E+00    4.56538E+03
 3.32870E+00    4.61470E+03
 3.67880E+00    4.68158E+03
 4.06570E+00    4.62607E+03
 4.49330E+00    4.52999E+03
 4.72370E+00    4.46882E+03
 4.96590E+00    4.38101E+03
 5.22050E+00    4.24705E+03
 5.48810E+00    4.11862E+03
 5.76950E+00    3.99333E+03
 6.06530E+00    3.87542E+03
 6.37630E+00    3.77942E+03
 6.59240E+00    3.72227E+03
 6.70320E+00    3.58666E+03
 7.04690E+00    3.36887E+03
 7.40820E+00    3.15349E+03
 7.78800E+00    2.95988E+03
 8.18730E+00    2.86203E+03
 8.60710E+00    2.78030E+03
 9.04840E+00    2.68569E+03
 9.51230E+00    2.57906E+03
 1.00000E+01    2.53464E+03
 1.05130E+01    2.54967E+03
 1.10520E+01    2.55919E+03
 1.16180E+01    2.56838E+03
 1.22140E+01    2.61861E+03
 1.28400E+01    2.68186E+03
 1.34990E+01    2.73021E+03
 1.38400E+01    2.76483E+03
 1.41910E+01    2.80892E+03
 1.45500E+01    2.85493E+03
 1.49180E+01    2.91568E+03
 1.56830E+01    2.98236E+03
 1.64870E+01    3.03964E+03
