# n + Dy158 : (n,g)     
# jendl.ad   N.Iwamoto                         EVAL-Apr14
# uncertainties: n
# # energies =   171
#   E(MeV)       xs(mb) 
 1.00000E-11    4.75018E+05
 1.00000E-07    1.32547E+04
 4.13990E-07    6.90378E+03
 5.31580E-07    5.53579E+03
 6.82560E-07    4.35703E+03
 8.76420E-07    3.35948E+03
 1.12540E-06    2.53685E+03
 1.44500E-06    1.87859E+03
 1.85540E-06    1.37118E+03
 2.37240E-06    9.87464E+02
 3.05900E-06    7.07985E+02
 3.92790E-06    5.15209E+02
 5.04350E-06    3.86015E+02
 6.47600E-06    3.03415E+02
 8.31530E-06    2.55182E+02
 1.06770E-05    2.34049E+02
 1.37100E-05    2.40106E+02
 1.76030E-05    2.89403E+02
 2.26030E-05    4.81296E+02
 2.92030E-05    5.31061E+03
 3.72670E-05    4.06097E+05
 4.78510E-05    1.57493E+03
 6.14420E-05    4.16597E+02
 7.88930E-05    1.05090E+05
 1.01300E-04    4.08464E+04
 1.30070E-04    3.36415E+04
 1.67020E-04    2.77101E+04
 2.14450E-04    2.28301E+04
 2.75360E-04    1.88021E+04
 3.53580E-04    1.54692E+04
 4.54000E-04    1.26198E+04
 5.82950E-04    1.02793E+04
 7.48520E-04    8.35026E+03
 9.61120E-04    6.81668E+03
 1.23410E-03    5.62881E+03
 1.58460E-03    4.65057E+03
 2.03470E-03    4.06219E+03
 2.24870E-03    3.76429E+03
 2.48520E-03    3.55307E+03
 2.61260E-03    3.41961E+03
 2.74650E-03    3.22936E+03
 3.03540E-03    2.99239E+03
 3.35460E-03    2.77251E+03
 3.70740E-03    2.52585E+03
 4.30740E-03    2.21599E+03
 5.53080E-03    1.88598E+03
 7.10170E-03    1.62548E+03
 9.11880E-03    1.42209E+03
 1.17090E-02    1.26604E+03
 1.50340E-02    1.12902E+03
 1.93050E-02    1.03679E+03
 2.18750E-02    9.92858E+02
 2.35790E-02    9.71632E+02
 2.41760E-02    9.61741E+02
 2.47880E-02    9.46692E+02
 2.60580E-02    9.28956E+02
 2.70000E-02    9.11698E+02
 2.85000E-02    8.80091E+02
 3.18280E-02    8.46791E+02
 3.43070E-02    8.04203E+02
 4.08680E-02    7.55735E+02
 4.63090E-02    7.17698E+02
 5.24750E-02    6.89463E+02
 5.65620E-02    6.56899E+02
 6.73790E-02    6.27588E+02
 7.20000E-02    6.09310E+02
 7.95000E-02    5.94963E+02
 8.25000E-02    5.86880E+02
 8.65170E-02    5.70539E+02
 9.80370E-02    5.13958E+02
 1.11090E-01    4.68730E+02
 1.16790E-01    4.48438E+02
 1.22770E-01    4.29704E+02
 1.29070E-01    4.12154E+02
 1.35690E-01    3.95948E+02
 1.42640E-01    3.81004E+02
 1.49960E-01    3.67124E+02
 1.57640E-01    3.54465E+02
 1.65730E-01    3.42803E+02
 1.74220E-01    3.32173E+02
 1.83160E-01    3.22498E+02
 1.92550E-01    3.13660E+02
 2.02420E-01    3.06115E+02
 2.12800E-01    2.98834E+02
 2.23710E-01    2.92198E+02
 2.35180E-01    2.86449E+02
 2.47240E-01    2.78351E+02
 2.73240E-01    2.71300E+02
 2.87250E-01    2.68336E+02
 2.94520E-01    2.66974E+02
 2.97200E-01    2.66430E+02
 2.98500E-01    2.65779E+02
 3.01970E-01    2.62881E+02
 3.33730E-01    2.57736E+02
 3.68830E-01    2.53574E+02
 3.87740E-01    2.50951E+02
 4.07620E-01    2.49488E+02
 4.50490E-01    2.47967E+02
 4.97870E-01    2.47468E+02
 5.23400E-01    2.48403E+02
 5.50230E-01    2.49393E+02
 5.78440E-01    2.50445E+02
 6.08100E-01    2.52449E+02
 6.39280E-01    2.55123E+02
 6.72060E-01    2.57935E+02
 7.06510E-01    2.61627E+02
 7.42740E-01    2.66136E+02
 7.80820E-01    2.70971E+02
 8.20850E-01    2.77079E+02
 8.62940E-01    2.83777E+02
 9.07180E-01    2.91345E+02
 9.61640E-01    2.87239E+02
 1.00260E+00    2.74967E+02
 1.10800E+00    2.58008E+02
 1.16480E+00    2.50966E+02
 1.22460E+00    2.48407E+02
 1.28730E+00    2.45007E+02
 1.35340E+00    2.38963E+02
 1.42270E+00    2.25313E+02
 1.49570E+00    2.14811E+02
 1.57240E+00    2.06340E+02
 1.65300E+00    1.98396E+02
 1.73770E+00    1.88379E+02
 1.82680E+00    1.77533E+02
 1.92050E+00    1.66710E+02
 2.01900E+00    1.56453E+02
 2.12250E+00    1.46975E+02
 2.23130E+00    1.38654E+02
 2.30690E+00    1.32274E+02
 2.34570E+00    1.29199E+02
 2.36530E+00    1.27154E+02
 2.38520E+00    1.22199E+02
 2.46600E+00    1.13213E+02
 2.59240E+00    1.04114E+02
 2.72530E+00    9.48629E+01
 2.86500E+00    8.49456E+01
 3.01190E+00    7.61432E+01
 3.16640E+00    6.83198E+01
 3.32870E+00    5.78586E+01
 3.67880E+00    4.48563E+01
 4.06570E+00    3.28973E+01
 4.49330E+00    2.50343E+01
 4.72370E+00    2.04572E+01
 4.96590E+00    1.66506E+01
 5.22050E+00    1.34654E+01
 5.48810E+00    1.08333E+01
 5.76950E+00    8.65681E+00
 6.06530E+00    6.91124E+00
 6.37630E+00    5.71379E+00
 6.59240E+00    5.06887E+00
 6.70320E+00    4.32164E+00
 7.04690E+00    3.40910E+00
 7.40820E+00    2.72212E+00
 7.78800E+00    2.23335E+00
 8.18730E+00    1.89422E+00
 8.60710E+00    1.69494E+00
 9.04840E+00    1.59136E+00
 9.51230E+00    1.54688E+00
 1.00000E+01    1.53638E+00
 1.05130E+01    1.53903E+00
 1.10520E+01    1.54087E+00
 1.16180E+01    1.53045E+00
 1.22140E+01    1.50367E+00
 1.28400E+01    1.46265E+00
 1.34990E+01    1.42424E+00
 1.38400E+01    1.39354E+00
 1.41910E+01    1.35753E+00
 1.45500E+01    1.31458E+00
 1.49180E+01    1.23662E+00
 1.56830E+01    1.10418E+00
 1.64870E+01    9.57211E-01
