# n + Dy158 : (n,np)    
# jendl.ad   N.Iwamoto                         EVAL-Apr14
# uncertainties: n
# # energies =    26
#   E(MeV)       xs(mb) 
 6.97472E+00    0.00000E+00
 8.00000E+00    3.19400E-16
 8.50000E+00    1.03280E-10
 9.00000E+00    8.24520E-08
 9.50000E+00    4.92536E-06
 1.00000E+01    7.68034E-05
 1.05000E+01    6.77876E-04
 1.10000E+01    3.67070E-03
 1.15000E+01    1.40068E-02
 1.20000E+01    4.05119E-02
 1.25000E+01    9.54981E-02
 1.30000E+01    1.93502E-01
 1.35000E+01    3.51587E-01
 1.40000E+01    5.88812E-01
 1.45000E+01    9.30876E-01
 1.50000E+01    1.40909E+00
 1.55000E+01    2.06197E+00
 1.60000E+01    2.93983E+00
 1.65000E+01    4.04786E+00
 1.70000E+01    5.47113E+00
 1.75000E+01    7.16464E+00
 1.80000E+01    9.15087E+00
 1.85000E+01    1.14486E+01
 1.90000E+01    1.40119E+01
 1.95000E+01    1.67877E+01
 2.00000E+01    1.98674E+01
