# n + Dy158 : (n,t)n    
# jendl.ad   N.Iwamoto                         EVAL-Apr14
# uncertainties: n
# # energies =    25
#   E(MeV)       xs(mb) 
 7.32798E+00    0.00000E+00
 8.50000E+00    3.50330E-26
 9.00000E+00    1.05090E-19
 9.50000E+00    8.73570E-16
 1.00000E+01    3.80840E-13
 1.05000E+01    1.19540E-11
 1.10000E+01    4.05710E-10
 1.15000E+01    6.72340E-09
 1.20000E+01    6.55830E-08
 1.25000E+01    4.29940E-07
 1.30000E+01    2.08176E-06
 1.35000E+01    7.95918E-06
 1.40000E+01    2.34813E-05
 1.45000E+01    6.52450E-05
 1.50000E+01    1.54785E-04
 1.55000E+01    3.42080E-04
 1.60000E+01    6.32206E-04
 1.65000E+01    1.07179E-03
 1.70000E+01    1.65231E-03
 1.75000E+01    2.42229E-03
 1.80000E+01    3.36951E-03
 1.85000E+01    4.52292E-03
 1.90000E+01    5.91143E-03
 1.95000E+01    7.18515E-03
 2.00000E+01    8.65190E-03
