# n + Dy158 : (n,t)g    
# jendl.ad   N.Iwamoto                         EVAL-Apr14
# uncertainties: n
# # energies =    27
#   E(MeV)       xs(mb) 
 7.23902E+00    0.00000E+00
 7.28904E+00    8.68210E-26
 7.32798E+00    1.54410E-25
 8.50000E+00    2.18870E-24
 9.00000E+00    2.93150E-18
 9.50000E+00    2.08650E-14
 1.00000E+01    9.54620E-12
 1.05000E+01    4.91770E-10
 1.10000E+01    1.71160E-08
 1.15000E+01    2.82710E-07
 1.20000E+01    2.72100E-06
 1.25000E+01    1.75761E-05
 1.30000E+01    8.40389E-05
 1.35000E+01    3.18204E-04
 1.40000E+01    9.88657E-04
 1.45000E+01    2.67526E-03
 1.50000E+01    6.29045E-03
 1.55000E+01    1.35871E-02
 1.60000E+01    2.53570E-02
 1.65000E+01    4.32448E-02
 1.70000E+01    6.63006E-02
 1.75000E+01    9.86676E-02
 1.80000E+01    1.38155E-01
 1.85000E+01    1.83922E-01
 1.90000E+01    2.42687E-01
 1.95000E+01    2.96220E-01
 2.00000E+01    3.63200E-01
