# n + Sb123 : (n,tot)   
# jeff3.3    JNDC FP NUCLEAR DATA W.G.         EVAL-AUG89
# uncertainties: n
# # energies =   171
#   E(MeV)       xs(mb) 
 1.00000E-11    5.17288E+04
 1.00000E-07    5.40374E+03
 4.13990E-07    4.86070E+03
 5.31580E-07    4.74244E+03
 6.82560E-07    4.63665E+03
 8.76420E-07    4.54150E+03
 1.12540E-06    4.45609E+03
 1.44500E-06    4.37804E+03
 1.85540E-06    4.30646E+03
 2.37240E-06    4.23690E+03
 3.05900E-06    4.16992E+03
 3.92790E-06    4.10522E+03
 5.04350E-06    4.03763E+03
 6.47600E-06    3.96778E+03
 8.31530E-06    3.89672E+03
 1.06770E-05    3.84631E+03
 1.37100E-05    4.16142E+03
 1.76030E-05    5.39441E+05
 2.26030E-05    1.27024E+04
 2.92030E-05    5.50785E+03
 3.72670E-05    4.75127E+03
 4.78510E-05    1.42094E+04
 6.14420E-05    1.22140E+04
 7.88930E-05    4.14281E+03
 1.01300E-04    3.87287E+04
 1.30070E-04    5.00906E+03
 1.67020E-04    8.87945E+03
 2.14450E-04    8.04506E+03
 2.75360E-04    1.02238E+04
 3.53580E-04    6.07181E+03
 4.54000E-04    6.11648E+03
 5.82950E-04    7.76231E+03
 7.48520E-04    9.52408E+03
 9.61120E-04    7.07987E+03
 1.23410E-03    6.66767E+03
 1.58460E-03    8.60326E+03
 2.03470E-03    7.39231E+03
 2.24870E-03    6.30516E+03
 2.48520E-03    6.51586E+03
 2.61260E-03    6.68970E+03
 2.74650E-03    6.63023E+03
 3.03540E-03    6.55484E+03
 3.35460E-03    6.48492E+03
 3.70740E-03    6.40516E+03
 4.30740E-03    6.29472E+03
 5.53080E-03    6.18218E+03
 7.10170E-03    6.09704E+03
 9.11880E-03    6.03797E+03
 1.17090E-02    6.00273E+03
 1.50340E-02    5.98958E+03
 1.93050E-02    5.99277E+03
 2.18750E-02    5.99918E+03
 2.35790E-02    6.00349E+03
 2.41760E-02    6.00598E+03
 2.47880E-02    6.01001E+03
 2.60580E-02    6.01507E+03
 2.70000E-02    6.02097E+03
 2.85000E-02    6.03320E+03
 3.18280E-02    6.04880E+03
 3.43070E-02    6.07335E+03
 4.08680E-02    6.10673E+03
 4.63090E-02    6.13775E+03
 5.24750E-02    6.16416E+03
 5.65620E-02    6.19890E+03
 6.73790E-02    6.23346E+03
 7.20000E-02    6.25758E+03
 7.95000E-02    6.27750E+03
 8.25000E-02    6.28982E+03
 8.65170E-02    6.31428E+03
 9.80370E-02    6.32982E+03
 1.11090E-01    6.32432E+03
 1.16790E-01    6.32070E+03
 1.22770E-01    6.31728E+03
 1.29070E-01    6.31402E+03
 1.35690E-01    6.31059E+03
 1.42640E-01    6.30699E+03
 1.49960E-01    6.30445E+03
 1.57640E-01    6.30324E+03
 1.65730E-01    6.30292E+03
 1.74220E-01    6.30274E+03
 1.83160E-01    6.30255E+03
 1.92550E-01    6.30240E+03
 2.02420E-01    6.30346E+03
 2.12800E-01    6.30509E+03
 2.23710E-01    6.30681E+03
 2.35180E-01    6.30861E+03
 2.47240E-01    6.31248E+03
 2.73240E-01    6.31747E+03
 2.87250E-01    6.32013E+03
 2.94520E-01    6.32137E+03
 2.97200E-01    6.32187E+03
 2.98500E-01    6.32254E+03
 3.01970E-01    6.33008E+03
 3.33730E-01    6.34475E+03
 3.68830E-01    6.35670E+03
 3.87740E-01    6.36521E+03
 4.07620E-01    6.37887E+03
 4.50490E-01    6.39867E+03
 4.97870E-01    6.41520E+03
 5.23400E-01    6.43174E+03
 5.50230E-01    6.45047E+03
 5.78440E-01    6.47017E+03
 6.08100E-01    6.49088E+03
 6.39280E-01    6.51265E+03
 6.72060E-01    6.53553E+03
 7.06510E-01    6.55527E+03
 7.42740E-01    6.56652E+03
 7.80820E-01    6.57788E+03
 8.20850E-01    6.58625E+03
 8.62940E-01    6.59348E+03
 9.07180E-01    6.60174E+03
 9.61640E-01    6.60973E+03
 1.00260E+00    6.60032E+03
 1.10800E+00    6.58157E+03
 1.16480E+00    6.55980E+03
 1.22460E+00    6.53038E+03
 1.28730E+00    6.49798E+03
 1.35340E+00    6.45079E+03
 1.42270E+00    6.39808E+03
 1.49570E+00    6.33966E+03
 1.57240E+00    6.26753E+03
 1.65300E+00    6.19077E+03
 1.73770E+00    6.10796E+03
 1.82680E+00    6.01137E+03
 1.92050E+00    5.90866E+03
 2.01900E+00    5.80077E+03
 2.12250E+00    5.68762E+03
 2.23130E+00    5.58909E+03
 2.30690E+00    5.52795E+03
 2.34570E+00    5.49678E+03
 2.36530E+00    5.47573E+03
 2.38520E+00    5.42228E+03
 2.46600E+00    5.31771E+03
 2.59240E+00    5.19360E+03
 2.72530E+00    5.06910E+03
 2.86500E+00    4.95060E+03
 3.01190E+00    4.84649E+03
 3.16640E+00    4.75771E+03
 3.32870E+00    4.62407E+03
 3.67880E+00    4.45273E+03
 4.06570E+00    4.33299E+03
 4.49330E+00    4.25933E+03
 4.72370E+00    4.21125E+03
 4.96590E+00    4.17087E+03
 5.22050E+00    4.14369E+03
 5.48810E+00    4.11596E+03
 5.76950E+00    4.08765E+03
 6.06530E+00    4.08225E+03
 6.37630E+00    4.08695E+03
 6.59240E+00    4.08986E+03
 6.70320E+00    4.09424E+03
 7.04690E+00    4.12582E+03
 7.40820E+00    4.17448E+03
 7.78800E+00    4.22688E+03
 8.18730E+00    4.29965E+03
 8.60710E+00    4.38189E+03
 9.04840E+00    4.46834E+03
 9.51230E+00    4.55922E+03
 1.00000E+01    4.63913E+03
 1.05130E+01    4.70543E+03
 1.10520E+01    4.75173E+03
 1.16180E+01    4.78149E+03
 1.22140E+01    4.78705E+03
 1.28400E+01    4.77791E+03
 1.34990E+01    4.75747E+03
 1.38400E+01    4.74163E+03
 1.41910E+01    4.71863E+03
 1.45500E+01    4.69475E+03
 1.49180E+01    4.65376E+03
 1.56830E+01    4.59162E+03
 1.64870E+01    4.52199E+03
