# n + Ho163 : (n,np)    
# jendl.ad   N.Iwamoto                         EVAL-Apr14
# uncertainties: n
# # energies =    28
#   E(MeV)       xs(mb) 
 5.52007E+00    0.00000E+00
 7.00000E+00    4.92560E-12
 7.50000E+00    8.80600E-09
 8.00000E+00    1.08384E-06
 8.50000E+00    3.03387E-05
 9.00000E+00    2.20570E-04
 9.50000E+00    8.17784E-04
 1.00000E+01    2.36599E-03
 1.05000E+01    6.24231E-03
 1.10000E+01    1.50281E-02
 1.15000E+01    3.33244E-02
 1.20000E+01    6.80706E-02
 1.25000E+01    1.31038E-01
 1.30000E+01    2.39664E-01
 1.35000E+01    4.18130E-01
 1.40000E+01    6.97151E-01
 1.45000E+01    1.11227E+00
 1.50000E+01    1.70040E+00
 1.55000E+01    2.49728E+00
 1.60000E+01    3.53276E+00
 1.65000E+01    4.82712E+00
 1.70000E+01    6.39108E+00
 1.75000E+01    8.22742E+00
 1.80000E+01    1.03313E+01
 1.85000E+01    1.26905E+01
 1.90000E+01    1.52927E+01
 1.95000E+01    1.81237E+01
 2.00000E+01    2.11554E+01
