# n + Ho163 : (n,xt)    
# jendl.ad   N.Iwamoto                         EVAL-Apr14
# 
# # energies =   101
#   E(MeV)        xs(mb) 
 1.00325E-01    0.00000E+00
 1.00649E-01    0.00000E+00
 1.10000E-01    0.00000E+00
 1.20000E-01    0.00000E+00
 1.30000E-01    0.00000E+00
 1.40000E-01    0.00000E+00
 1.50000E-01    0.00000E+00
 1.60000E-01    0.00000E+00
 1.70000E-01    0.00000E+00
 1.80000E-01    0.00000E+00
 1.90000E-01    0.00000E+00
 2.00000E-01    0.00000E+00
 2.23596E-01    0.00000E+00
 2.25000E-01    0.00000E+00
 2.50000E-01    0.00000E+00
 2.75000E-01    0.00000E+00
 2.99724E-01    0.00000E+00
 3.00000E-01    0.00000E+00
 3.09544E-01    0.00000E+00
 3.09545E-01    0.00000E+00
 3.62591E-01    0.00000E+00
 3.68920E-01    0.00000E+00
 3.94497E-01    0.00000E+00
 4.00000E-01    0.00000E+00
 4.21594E-01    0.00000E+00
 4.33849E-01    0.00000E+00
 4.42664E-01    0.00000E+00
 4.43237E-01    0.00000E+00
 4.74167E-01    0.00000E+00
 5.00000E-01    0.00000E+00
 5.03478E-01    0.00000E+00
 5.31510E-01    0.00000E+00
 5.35082E-01    0.00000E+00
 5.55468E-01    0.00000E+00
 5.63467E-01    0.00000E+00
 5.81810E-01    0.00000E+00
 5.91197E-01    0.00000E+00
 5.91198E-01    0.00000E+00
 5.97677E-01    0.00000E+00
 6.00000E-01    0.00000E+00
 6.16594E-01    0.00000E+00
 6.18093E-01    0.00000E+00
 6.56097E-01    0.00000E+00
 6.68121E-01    0.00000E+00
 6.92340E-01    0.00000E+00
 6.99303E-01    0.00000E+00
 7.00000E-01    0.00000E+00
 7.14395E-01    0.00000E+00
 7.14396E-01    0.00000E+00
 7.24015E-01    0.00000E+00
 8.00000E-01    0.00000E+00
 9.00000E-01    0.00000E+00
 1.00000E+00    0.00000E+00
 1.10000E+00    0.00000E+00
 1.20000E+00    0.00000E+00
 1.30000E+00    0.00000E+00
 1.40000E+00    0.00000E+00
 1.50000E+00    0.00000E+00
 1.60000E+00    0.00000E+00
 1.70000E+00    0.00000E+00
 1.80000E+00    0.00000E+00
 1.90000E+00    0.00000E+00
 2.00000E+00    0.00000E+00
 2.25000E+00    0.00000E+00
 2.50000E+00    0.00000E+00
 2.75000E+00    0.00000E+00
 3.00000E+00    0.00000E+00
 3.50000E+00    0.00000E+00
 4.00000E+00    0.00000E+00
 4.50000E+00    0.00000E+00
 5.00000E+00    0.00000E+00
 5.50000E+00    1.14049E-24
 6.00000E+00    1.53617E-21
 6.50000E+00    3.14870E-21
 7.00000E+00    6.41980E-18
 7.50000E+00    3.06920E-14
 8.00000E+00    8.39990E-12
 8.50000E+00    4.21030E-10
 9.00000E+00    7.15790E-09
 9.50000E+00    5.95380E-08
 1.00000E+01    3.24100E-07
 1.05000E+01    1.53940E-06
 1.10000E+01    7.62963E-06
 1.15000E+01    3.65926E-05
 1.20000E+01    1.55680E-04
 1.25000E+01    5.50473E-04
 1.30000E+01    1.68268E-03
 1.35000E+01    4.45051E-03
 1.40000E+01    1.03365E-02
 1.45000E+01    2.13532E-02
 1.50000E+01    3.96959E-02
 1.55000E+01    6.72828E-02
 1.60000E+01    1.05407E-01
 1.65000E+01    1.54623E-01
 1.70000E+01    2.14831E-01
 1.75000E+01    2.85432E-01
 1.80000E+01    3.65508E-01
 1.85000E+01    4.53956E-01
 1.90000E+01    5.49646E-01
 1.95000E+01    6.51385E-01
 2.00000E+01    7.58068E-01
