# n + Ho163 : (n,2na)   
# jendl.ad   N.Iwamoto                         EVAL-Apr14
# uncertainties: n
# # energies =    23
#   E(MeV)       xs(mb) 
 7.44879E+00    0.00000E+00
 7.55977E+00    1.21240E-31
 1.00000E+01    2.79510E-30
 1.05000E+01    4.87860E-25
 1.10000E+01    4.99290E-21
 1.15000E+01    7.45040E-18
 1.20000E+01    2.44810E-15
 1.25000E+01    2.64570E-13
 1.30000E+01    1.23500E-11
 1.35000E+01    3.02560E-10
 1.40000E+01    4.40930E-09
 1.45000E+01    4.31200E-08
 1.50000E+01    3.04510E-07
 1.55000E+01    1.65043E-06
 1.60000E+01    6.77179E-06
 1.65000E+01    1.89864E-05
 1.70000E+01    4.35589E-05
 1.75000E+01    9.66102E-05
 1.80000E+01    2.17701E-04
 1.85000E+01    4.90685E-04
 1.90000E+01    1.07983E-03
 1.95000E+01    2.28631E-03
 2.00000E+01    4.63335E-03
