# n + Ho163 : (n,tot)   
# jendl.ad   N.Iwamoto                         EVAL-Apr14
# uncertainties: n
# # energies =   171
#   E(MeV)       xs(mb) 
 1.00000E-11    6.89129E+05
 1.00000E-07    2.29484E+04
 4.13990E-07    1.48127E+04
 5.31580E-07    1.80146E+04
 6.82560E-07    8.20772E+05
 8.76420E-07    8.11011E+05
 1.12540E-06    7.11327E+05
 1.44500E-06    6.23634E+05
 1.85540E-06    5.47431E+05
 2.37240E-06    4.79985E+05
 3.05900E-06    4.20295E+05
 3.92790E-06    3.68537E+05
 5.04350E-06    3.23123E+05
 6.47600E-06    2.83315E+05
 8.31530E-06    2.48387E+05
 1.06770E-05    2.16600E+05
 1.37100E-05    1.88547E+05
 1.76030E-05    1.64124E+05
 2.26030E-05    1.42633E+05
 2.92030E-05    1.24127E+05
 3.72670E-05    1.08084E+05
 4.78510E-05    9.35941E+04
 6.14420E-05    8.10004E+04
 7.88930E-05    6.98666E+04
 1.01300E-04    6.00499E+04
 1.30070E-04    5.14462E+04
 1.67020E-04    4.40770E+04
 2.14450E-04    3.77662E+04
 2.75360E-04    3.23547E+04
 3.53580E-04    2.76971E+04
 4.54000E-04    2.35873E+04
 5.82950E-04    2.00584E+04
 7.48520E-04    1.70173E+04
 9.61120E-04    1.44174E+04
 1.23410E-03    1.22177E+04
 1.58460E-03    1.03499E+04
 2.03470E-03    9.20721E+03
 2.24870E-03    8.61954E+03
 2.48520E-03    8.20030E+03
 2.61260E-03    7.93173E+03
 2.74650E-03    7.54924E+03
 3.03540E-03    7.06299E+03
 3.35460E-03    6.60972E+03
 3.70740E-03    6.09213E+03
 4.30740E-03    5.38230E+03
 5.53080E-03    4.61257E+03
 7.10170E-03    3.97461E+03
 9.11880E-03    3.45338E+03
 1.17090E-02    3.04565E+03
 1.50340E-02    2.68990E+03
 1.93050E-02    2.45413E+03
 2.18750E-02    2.34681E+03
 2.35790E-02    2.29504E+03
 2.41760E-02    2.27013E+03
 2.47880E-02    2.23294E+03
 2.60580E-02    2.19186E+03
 2.70000E-02    2.14847E+03
 2.85000E-02    2.07263E+03
 3.18280E-02    1.99212E+03
 3.43070E-02    1.88903E+03
 4.08680E-02    1.77456E+03
 4.63090E-02    1.68622E+03
 5.24750E-02    1.61763E+03
 5.65620E-02    1.53675E+03
 6.73790E-02    1.46282E+03
 7.20000E-02    1.41528E+03
 7.95000E-02    1.37762E+03
 8.25000E-02    1.35581E+03
 8.65170E-02    1.31158E+03
 9.80370E-02    1.29878E+03
 1.11090E-01    1.33888E+03
 1.16790E-01    1.34150E+03
 1.22770E-01    1.34298E+03
 1.29070E-01    1.34442E+03
 1.35690E-01    1.34616E+03
 1.42640E-01    1.34820E+03
 1.49960E-01    1.35439E+03
 1.57640E-01    1.36356E+03
 1.65730E-01    1.36896E+03
 1.74220E-01    1.37456E+03
 1.83160E-01    1.38099E+03
 1.92550E-01    1.38904E+03
 2.02420E-01    1.39662E+03
 2.12800E-01    1.40403E+03
 2.23710E-01    1.41732E+03
 2.35180E-01    1.43469E+03
 2.47240E-01    1.46451E+03
 2.73240E-01    1.49582E+03
 2.87250E-01    1.51137E+03
 2.94520E-01    1.51862E+03
 2.97200E-01    1.52152E+03
 2.98500E-01    1.52497E+03
 3.01970E-01    1.55630E+03
 3.33730E-01    1.63033E+03
 3.68830E-01    1.69763E+03
 3.87740E-01    1.75533E+03
 4.07620E-01    1.87665E+03
 4.50490E-01    2.12301E+03
 4.97870E-01    2.27225E+03
 5.23400E-01    2.36521E+03
 5.50230E-01    2.45712E+03
 5.78440E-01    2.54169E+03
 6.08100E-01    2.62178E+03
 6.39280E-01    2.69674E+03
 6.72060E-01    2.76309E+03
 7.06510E-01    2.82312E+03
 7.42740E-01    2.86604E+03
 7.80820E-01    2.90728E+03
 8.20850E-01    2.93944E+03
 8.62940E-01    2.97210E+03
 9.07180E-01    3.00522E+03
 9.61640E-01    3.03593E+03
 1.00260E+00    3.06596E+03
 1.10800E+00    3.08853E+03
 1.16480E+00    3.09946E+03
 1.22460E+00    3.10636E+03
 1.28730E+00    3.11139E+03
 1.35340E+00    3.11369E+03
 1.42270E+00    3.11406E+03
 1.49570E+00    3.11305E+03
 1.57240E+00    3.11071E+03
 1.65300E+00    3.10714E+03
 1.73770E+00    3.10260E+03
 1.82680E+00    3.09715E+03
 1.92050E+00    3.09079E+03
 2.01900E+00    3.08312E+03
 2.12250E+00    3.07503E+03
 2.23130E+00    3.06801E+03
 2.30690E+00    3.06317E+03
 2.34570E+00    3.06069E+03
 2.36530E+00    3.05903E+03
 2.38520E+00    3.05489E+03
 2.46600E+00    3.04640E+03
 2.59240E+00    3.03593E+03
 2.72530E+00    3.02566E+03
 2.86500E+00    3.01588E+03
 3.01190E+00    3.00684E+03
 3.16640E+00    2.99841E+03
 3.32870E+00    2.98569E+03
 3.67880E+00    2.96858E+03
 4.06570E+00    2.94758E+03
 4.49330E+00    2.92917E+03
 4.72370E+00    2.91544E+03
 4.96590E+00    2.90105E+03
 5.22050E+00    2.88564E+03
 5.48810E+00    2.86975E+03
 5.76950E+00    2.85329E+03
 6.06530E+00    2.83563E+03
 6.37630E+00    2.82029E+03
 6.59240E+00    2.81064E+03
 6.70320E+00    2.79743E+03
 7.04690E+00    2.77700E+03
 7.40820E+00    2.75600E+03
 7.78800E+00    2.73490E+03
 8.18730E+00    2.71412E+03
 8.60710E+00    2.69237E+03
 9.04840E+00    2.67434E+03
 9.51230E+00    2.65539E+03
 1.00000E+01    2.63702E+03
 1.05130E+01    2.61931E+03
 1.10520E+01    2.60234E+03
 1.16180E+01    2.58610E+03
 1.22140E+01    2.57052E+03
 1.28400E+01    2.55541E+03
 1.34990E+01    2.54424E+03
 1.38400E+01    2.53685E+03
 1.41910E+01    2.52948E+03
 1.45500E+01    2.52216E+03
 1.49180E+01    2.51131E+03
 1.56830E+01    2.49679E+03
 1.64870E+01    2.48248E+03
