# n + Ho163 : (n,g)     
# jendl.ad   N.Iwamoto                         EVAL-Apr14
# uncertainties: n
# # energies =   171
#   E(MeV)       xs(mb) 
 1.00000E-11    6.88846E+05
 1.00000E-07    2.29481E+04
 4.13990E-07    1.48086E+04
 5.31580E-07    1.80084E+04
 6.82560E-07    8.20782E+05
 8.76420E-07    8.10799E+05
 1.12540E-06    7.11230E+05
 1.44500E-06    6.23741E+05
 1.85540E-06    5.47609E+05
 2.37240E-06    4.80099E+05
 3.05900E-06    4.20450E+05
 3.92790E-06    3.68684E+05
 5.04350E-06    3.23211E+05
 6.47600E-06    2.83379E+05
 8.31530E-06    2.48456E+05
 1.06770E-05    2.16668E+05
 1.37100E-05    1.88604E+05
 1.76030E-05    1.64188E+05
 2.26030E-05    1.42665E+05
 2.92030E-05    1.24193E+05
 3.72670E-05    1.08129E+05
 4.78510E-05    9.36219E+04
 6.14420E-05    8.10117E+04
 7.88930E-05    6.98938E+04
 1.01300E-04    6.00683E+04
 1.30070E-04    5.14639E+04
 1.67020E-04    4.40934E+04
 2.14450E-04    3.77761E+04
 2.75360E-04    3.23695E+04
 3.53580E-04    2.77069E+04
 4.54000E-04    2.35901E+04
 5.82950E-04    2.00627E+04
 7.48520E-04    1.70190E+04
 9.61120E-04    1.44208E+04
 1.23410E-03    1.22192E+04
 1.58460E-03    1.03524E+04
 2.03470E-03    9.21144E+03
 2.24870E-03    8.61891E+03
 2.48520E-03    8.20077E+03
 2.61260E-03    7.93209E+03
 2.74650E-03    7.55126E+03
 3.03540E-03    7.06534E+03
 3.35460E-03    6.61172E+03
 3.70740E-03    6.09220E+03
 4.30740E-03    5.38298E+03
 5.53080E-03    4.61316E+03
 7.10170E-03    3.97575E+03
 9.11880E-03    3.45468E+03
 1.17090E-02    3.04710E+03
 1.50340E-02    2.69104E+03
 1.93050E-02    2.45522E+03
 2.18750E-02    2.34792E+03
 2.35790E-02    2.29683E+03
 2.41760E-02    2.27077E+03
 2.47880E-02    2.23462E+03
 2.60580E-02    2.19375E+03
 2.70000E-02    2.14942E+03
 2.85000E-02    2.07345E+03
 3.18280E-02    1.99280E+03
 3.43070E-02    1.88967E+03
 4.08680E-02    1.77522E+03
 4.63090E-02    1.68697E+03
 5.24750E-02    1.61839E+03
 5.65620E-02    1.53748E+03
 6.73790E-02    1.46358E+03
 7.20000E-02    1.41613E+03
 7.95000E-02    1.37785E+03
 8.25000E-02    1.35612E+03
 8.65170E-02    1.31184E+03
 9.80370E-02    1.22663E+03
 1.11090E-01    1.14506E+03
 1.16790E-01    1.10989E+03
 1.22770E-01    1.07750E+03
 1.29070E-01    1.04626E+03
 1.35690E-01    1.01728E+03
 1.42640E-01    9.90415E+02
 1.49960E-01    9.63671E+02
 1.57640E-01    9.37275E+02
 1.65730E-01    9.14604E+02
 1.74220E-01    8.93447E+02
 1.83160E-01    8.73298E+02
 1.92550E-01    8.55476E+02
 2.02420E-01    8.39138E+02
 2.12800E-01    8.22893E+02
 2.23710E-01    7.96851E+02
 2.35180E-01    7.73607E+02
 2.47240E-01    7.44464E+02
 2.73240E-01    7.20169E+02
 2.87250E-01    7.09822E+02
 2.94520E-01    7.05062E+02
 2.97200E-01    7.03161E+02
 2.98500E-01    7.00888E+02
 3.01970E-01    6.81714E+02
 3.33730E-01    6.41781E+02
 3.68830E-01    6.09262E+02
 3.87740E-01    5.84105E+02
 4.07620E-01    5.40916E+02
 4.50490E-01    4.59150E+02
 4.97870E-01    4.14539E+02
 5.23400E-01    3.87651E+02
 5.50230E-01    3.61204E+02
 5.78440E-01    3.36395E+02
 6.08100E-01    3.12089E+02
 6.39280E-01    2.89739E+02
 6.72060E-01    2.69103E+02
 7.06510E-01    2.49714E+02
 7.42740E-01    2.36271E+02
 7.80820E-01    2.24405E+02
 8.20850E-01    2.14608E+02
 8.62940E-01    2.05194E+02
 9.07180E-01    1.94770E+02
 9.61640E-01    1.85253E+02
 1.00260E+00    1.71808E+02
 1.10800E+00    1.58449E+02
 1.16480E+00    1.50155E+02
 1.22460E+00    1.42302E+02
 1.28730E+00    1.34943E+02
 1.35340E+00    1.28122E+02
 1.42270E+00    1.21665E+02
 1.49570E+00    1.15638E+02
 1.57240E+00    1.10018E+02
 1.65300E+00    1.04833E+02
 1.73770E+00    9.99239E+01
 1.82680E+00    9.52628E+01
 1.92050E+00    9.07576E+01
 2.01900E+00    8.60614E+01
 2.12250E+00    8.12892E+01
 2.23130E+00    7.77414E+01
 2.30690E+00    7.62262E+01
 2.34570E+00    7.54726E+01
 2.36530E+00    7.49636E+01
 2.38520E+00    7.37136E+01
 2.46600E+00    7.09649E+01
 2.59240E+00    6.69136E+01
 2.72530E+00    6.30922E+01
 2.86500E+00    5.95625E+01
 3.01190E+00    5.59818E+01
 3.16640E+00    5.23766E+01
 3.32870E+00    4.72147E+01
 3.67880E+00    4.01254E+01
 4.06570E+00    3.29733E+01
 4.49330E+00    2.76653E+01
 4.72370E+00    2.41251E+01
 4.96590E+00    2.07440E+01
 5.22050E+00    1.74268E+01
 5.48810E+00    1.43705E+01
 5.76950E+00    1.15830E+01
 6.06530E+00    9.16155E+00
 6.37630E+00    7.46054E+00
 6.59240E+00    6.57348E+00
 6.70320E+00    5.56640E+00
 7.04690E+00    4.35379E+00
 7.40820E+00    3.44633E+00
 7.78800E+00    2.79314E+00
 8.18730E+00    2.33034E+00
 8.60710E+00    2.00609E+00
 9.04840E+00    1.78119E+00
 9.51230E+00    1.62293E+00
 1.00000E+01    1.50762E+00
 1.05130E+01    1.41558E+00
 1.10520E+01    1.33130E+00
 1.16180E+01    1.24211E+00
 1.22140E+01    1.14357E+00
 1.28400E+01    1.04510E+00
 1.34990E+01    9.76669E-01
 1.38400E+01    9.32216E-01
 1.41910E+01    8.89179E-01
 1.45500E+01    8.46078E-01
 1.49180E+01    7.78727E-01
 1.56830E+01    6.81432E-01
 1.64870E+01    5.89391E-01
