# n + Ge 72 : (n,el)    
# tendl.2019 A.J. Koning and D. Rochman        EVAL-NOV19
# uncertainties: y
# # energies =    69
#   E(MeV)       xs(mb)       xslow(mb)      xsupp(mb)
 1.00000E-10    8.29847E+03    7.70488E+03    8.89207E+03
 5.00000E-09    6.13456E+03    5.69575E+03    6.57338E+03
 1.00000E-08    6.06877E+03    5.63466E+03    6.50287E+03
 1.50000E-08    6.04300E+03    5.61074E+03    6.47527E+03
 2.00000E-08    6.02897E+03    5.59771E+03    6.46022E+03
 2.50000E-08    6.02034E+03    5.58969E+03    6.45098E+03
 3.00000E-08    6.01416E+03    5.58396E+03    6.44436E+03
 3.50000E-08    6.00931E+03    5.57945E+03    6.43916E+03
 4.20000E-08    6.00453E+03    5.57502E+03    6.43404E+03
 5.00000E-08    6.00125E+03    5.57197E+03    6.43053E+03
 5.80000E-08    5.99820E+03    5.56914E+03    6.42726E+03
 6.70000E-08    5.99596E+03    5.56706E+03    6.42487E+03
 8.00000E-08    5.99297E+03    5.56428E+03    6.42166E+03
 1.00000E-07    5.99017E+03    5.56168E+03    6.41867E+03
 1.40000E-07    5.98735E+03    5.55905E+03    6.41564E+03
 1.80000E-07    5.98608E+03    5.55788E+03    6.41428E+03
 2.20000E-07    5.98512E+03    5.55697E+03    6.41326E+03
 2.50000E-07    5.98430E+03    5.55621E+03    6.41238E+03
 2.80000E-07    5.98361E+03    5.55557E+03    6.41165E+03
 3.00000E-07    5.98308E+03    5.55507E+03    6.41109E+03
 3.20000E-07    5.98276E+03    5.55478E+03    6.41075E+03
 3.50000E-07    5.98240E+03    5.55444E+03    6.41036E+03
 4.00000E-07    5.98172E+03    5.55380E+03    6.40964E+03
 5.00000E-07    5.98069E+03    5.55283E+03    6.40855E+03
 6.25000E-07    5.97941E+03    5.55164E+03    6.40718E+03
 7.80000E-07    5.97835E+03    5.55063E+03    6.40607E+03
 8.50000E-07    5.97775E+03    5.55008E+03    6.40543E+03
 9.10000E-07    5.97731E+03    5.54966E+03    6.40495E+03
 9.50000E-07    5.97711E+03    5.54948E+03    6.40474E+03
 9.72000E-07    5.97699E+03    5.54937E+03    6.40462E+03
 9.96000E-07    5.97687E+03    5.54926E+03    6.40448E+03
 1.02000E-06    5.97674E+03    5.54908E+03    6.40441E+03
 1.04500E-06    5.97661E+03    5.54895E+03    6.40427E+03
 1.07100E-06    5.97647E+03    5.54883E+03    6.40412E+03
 1.09700E-06    5.97634E+03    5.54870E+03    6.40398E+03
 1.12300E-06    5.97620E+03    5.54857E+03    6.40383E+03
 1.15000E-06    5.97575E+03    5.54815E+03    6.40335E+03
 1.30000E-06    5.97485E+03    5.54731E+03    6.40238E+03
 1.50000E-06    5.97284E+03    5.54546E+03    6.40023E+03
 2.10000E-06    5.96995E+03    5.54267E+03    6.39722E+03
 2.60000E-06    5.96686E+03    5.53980E+03    6.39391E+03
 3.30000E-06    5.96321E+03    5.53632E+03    6.39010E+03
 4.00000E-06    5.94835E+03    5.52243E+03    6.37427E+03
 9.87700E-06    5.91628E+03    5.49218E+03    6.34038E+03
 1.59680E-05    5.87154E+03    5.44988E+03    6.29319E+03
 2.77000E-05    5.79030E+03    5.37378E+03    6.20683E+03
 4.80520E-05    5.67172E+03    5.26188E+03    6.08157E+03
 7.55014E-05    5.46429E+03    5.06676E+03    5.86181E+03
 1.48728E-04    4.98658E+03    4.61763E+03    5.35552E+03
 3.67262E-04    4.14627E+03    3.82555E+03    4.46698E+03
 9.06898E-04    3.28900E+03    3.00293E+03    3.57508E+03
 1.42510E-03    2.38947E+03    2.16423E+03    2.61471E+03
 2.23945E-03    1.27578E+04    1.16378E+04    1.38779E+04
 3.51910E-03    5.59912E+04    5.16355E+04    6.03468E+04
 5.53000E-03    9.72094E+03    8.95645E+03    1.04854E+04
 9.11800E-03    1.70819E+04    1.60651E+04    1.80988E+04
 1.50300E-02    1.27921E+04    1.21729E+04    1.34113E+04
 2.47800E-02    9.62518E+03    9.15066E+03    1.00997E+04
 4.08500E-02    8.69072E+03    7.85009E+03    9.53135E+03
 6.73400E-02    8.14057E+03    7.35315E+03    8.92798E+03
 1.11000E-01    7.70528E+03    6.95997E+03    8.45059E+03
 1.83000E-01    7.23989E+03    6.53959E+03    7.94018E+03
 3.02000E-01    6.66971E+03    5.78433E+03    7.55509E+03
 5.00000E-01    5.81994E+03    5.04736E+03    6.59252E+03
 8.21000E-01    3.96702E+03    3.58467E+03    4.34938E+03
 1.35300E+00    2.40135E+03    2.15219E+03    2.65050E+03
 2.23100E+00    1.66745E+03    1.47633E+03    1.85856E+03
 3.67900E+00    1.83374E+03    1.64771E+03    2.01977E+03
 6.06500E+00    2.13815E+03    1.97303E+03    2.30327E+03
