# n + Pu238 : (n,n'08)  
# endfb8.0   YOUNG,TALOU,KAWANO,KAHLER,CHADWIC EVAL-SEP10
# uncertainties: n
# # energies =    89
#   E(MeV)       xs(mb) 
 9.00000E-01    0.00000E+00
 9.45489E-01    1.39820E-12
 9.66880E-01    4.67030E-09
 9.72202E-01    2.63660E-08
 9.87266E-01    1.05548E-06
 9.89676E-01    1.54897E-06
 1.00000E+00    3.62427E-06
 1.03296E+00    5.82803E-06
 1.07443E+00    1.00856E-05
 1.08307E+00    1.12321E-05
 1.08719E+00    1.18145E-05
 1.10000E+00    1.37844E-05
 1.13057E+00    1.95500E-05
 1.13881E+00    2.13872E-05
 1.17496E+00    3.10762E-05
 1.20000E+00    3.95014E-05
 1.25000E+00    6.26395E-05
 1.25530E+00    6.57396E-05
 1.30000E+00    9.81997E-05
 1.40000E+00    2.27343E-04
 1.44610E+00    3.23279E-04
 1.50000E+00    4.72217E-04
 1.59674E+00    8.58751E-04
 1.60000E+00    8.74789E-04
 1.70000E+00    1.46621E-03
 1.75000E+00    1.83188E-03
 1.75741E+00    1.88985E-03
 1.80000E+00    2.24580E-03
 1.85784E+00    2.79078E-03
 1.90000E+00    3.23010E-03
 1.95826E+00    3.88857E-03
 2.00000E+00    4.39052E-03
 2.10000E+00    5.72331E-03
 2.15911E+00    6.60063E-03
 2.20000E+00    7.23918E-03
 2.25000E+00    8.04703E-03
 2.30000E+00    8.88433E-03
 2.30975E+00    9.05118E-03
 2.40000E+00    1.06307E-02
 2.40013E+00    1.06329E-02
 2.50000E+00    1.23805E-02
 2.50336E+00    1.24379E-02
 2.60000E+00    1.40255E-02
 2.70000E+00    1.55385E-02
 2.75000E+00    1.62482E-02
 2.80000E+00    1.69244E-02
 2.90000E+00    1.81350E-02
 2.95246E+00    1.86761E-02
 3.00000E+00    1.91010E-02
 3.10000E+00    1.97388E-02
 3.20000E+00    2.00438E-02
 3.20251E+00    2.00477E-02
 3.25000E+00    2.00920E-02
 3.30000E+00    2.00739E-02
 3.40000E+00    1.98267E-02
 3.40236E+00    1.98176E-02
 3.50000E+00    1.93141E-02
 3.55299E+00    1.89431E-02
 3.60000E+00    1.85611E-02
 3.65241E+00    1.80824E-02
 3.70000E+00    1.76050E-02
 3.75000E+00    1.70652E-02
 3.75283E+00    1.70336E-02
 3.80000E+00    1.64972E-02
 3.85326E+00    1.58712E-02
 3.90000E+00    1.53067E-02
 3.92556E+00    1.49931E-02
 4.00000E+00    1.40646E-02
 4.10000E+00    1.28172E-02
 4.20000E+00    1.15991E-02
 4.25000E+00    1.10040E-02
 4.30000E+00    1.04229E-02
 4.40000E+00    9.31152E-03
 4.50000E+00    8.26532E-03
 4.60000E+00    7.30164E-03
 4.70000E+00    6.41593E-03
 4.75000E+00    5.99508E-03
 4.80000E+00    5.59298E-03
 4.90000E+00    4.86662E-03
 5.00000E+00    4.24655E-03
 5.50000E+00    2.28744E-03
 6.00000E+00    9.11375E-04
 6.50000E+00    2.83088E-04
 7.00000E+00    8.08099E-05
 7.50000E+00    3.16820E-05
 8.00000E+00    1.38447E-05
 8.50000E+00    5.56880E-06
 9.00000E+00    2.21195E-06
 9.50000E+00    1.24870E-06
