# p + Cd  0 : Production of In111
# IAEA-MED for     2.100 MeV <     44.300 MeV, extended with TENDL-2019   EVAL-2019
# uncertainties: y
# # energies =   442
#   E(MeV)          xs(mb) 
 1.65748E+00    0.00000E+00
 2.00000E+00    1.22232E-04
 2.10000E+00    4.00000E-02
 2.20000E+00    9.00000E-02
 2.30000E+00    1.40000E-01
 2.40000E+00    1.90000E-01
 2.50000E+00    2.40000E-01
 2.60000E+00    2.80000E-01
 2.70000E+00    3.10000E-01
 2.80000E+00    3.40000E-01
 2.90000E+00    3.70000E-01
 3.00000E+00    3.80000E-01
 3.10000E+00    4.00000E-01
 3.20000E+00    5.30000E-01
 3.30000E+00    8.90000E-01
 3.40000E+00    1.55000E+00
 3.50000E+00    2.27000E+00
 3.60000E+00    3.07000E+00
 3.70000E+00    4.07000E+00
 3.80000E+00    5.37000E+00
 3.90000E+00    6.91000E+00
 4.00000E+00    8.19000E+00
 4.10000E+00    8.53000E+00
 4.20000E+00    7.75000E+00
 4.30000E+00    7.49000E+00
 4.40000E+00    9.41000E+00
 4.50000E+00    1.31000E+01
 4.60000E+00    1.77000E+01
 4.70000E+00    2.28000E+01
 4.80000E+00    2.82000E+01
 4.90000E+00    3.38000E+01
 5.00000E+00    3.94000E+01
 5.10000E+00    4.50000E+01
 5.20000E+00    5.08000E+01
 5.30000E+00    5.68000E+01
 5.40000E+00    6.29000E+01
 5.50000E+00    6.93000E+01
 5.60000E+00    7.59000E+01
 5.70000E+00    8.28000E+01
 5.80000E+00    9.00000E+01
 5.90000E+00    9.74000E+01
 6.00000E+00    1.05200E+02
 6.10000E+00    1.13400E+02
 6.20000E+00    1.21800E+02
 6.30000E+00    1.30500E+02
 6.40000E+00    1.39300E+02
 6.50000E+00    1.48100E+02
 6.60000E+00    1.56900E+02
 6.70000E+00    1.65600E+02
 6.80000E+00    1.74200E+02
 6.90000E+00    1.82700E+02
 7.00000E+00    1.91200E+02
 7.10000E+00    1.99700E+02
 7.20000E+00    2.08200E+02
 7.30000E+00    2.16900E+02
 7.40000E+00    2.25800E+02
 7.50000E+00    2.34900E+02
 7.60000E+00    2.44300E+02
 7.70000E+00    2.54000E+02
 7.80000E+00    2.64000E+02
 7.90000E+00    2.74400E+02
 8.00000E+00    2.85400E+02
 8.10000E+00    2.96800E+02
 8.20000E+00    3.08600E+02
 8.30000E+00    3.21000E+02
 8.40000E+00    3.33600E+02
 8.50000E+00    3.46600E+02
 8.60000E+00    3.59900E+02
 8.70000E+00    3.73500E+02
 8.80000E+00    3.87200E+02
 8.90000E+00    4.01100E+02
 9.00000E+00    4.15200E+02
 9.10000E+00    4.29300E+02
 9.20000E+00    4.43600E+02
 9.30000E+00    4.57900E+02
 9.40000E+00    4.72100E+02
 9.50000E+00    4.86400E+02
 9.60000E+00    5.00600E+02
 9.70000E+00    5.14800E+02
 9.80000E+00    5.28800E+02
 9.90000E+00    5.42800E+02
 1.00000E+01    5.56600E+02
 1.01000E+01    5.70200E+02
 1.02000E+01    5.83600E+02
 1.03000E+01    5.96900E+02
 1.04000E+01    6.09800E+02
 1.05000E+01    6.22500E+02
 1.06000E+01    6.34900E+02
 1.07000E+01    6.46900E+02
 1.08000E+01    6.58600E+02
 1.09000E+01    6.69800E+02
 1.10000E+01    6.80500E+02
 1.11000E+01    6.90500E+02
 1.12000E+01    6.99700E+02
 1.13000E+01    7.08200E+02
 1.14000E+01    7.15700E+02
 1.15000E+01    7.22200E+02
 1.16000E+01    7.27700E+02
 1.17000E+01    7.31900E+02
 1.18000E+01    7.34900E+02
 1.19000E+01    7.36400E+02
 1.20000E+01    7.36500E+02
 1.21000E+01    7.35000E+02
 1.22000E+01    7.32100E+02
 1.23000E+01    7.27900E+02
 1.24000E+01    7.22400E+02
 1.25000E+01    7.15600E+02
 1.26000E+01    7.07800E+02
 1.27000E+01    6.99000E+02
 1.28000E+01    6.89100E+02
 1.29000E+01    6.78400E+02
 1.30000E+01    6.66900E+02
 1.31000E+01    6.54600E+02
 1.32000E+01    6.41700E+02
 1.33000E+01    6.28200E+02
 1.34000E+01    6.14100E+02
 1.35000E+01    5.99500E+02
 1.36000E+01    5.84500E+02
 1.37000E+01    5.69000E+02
 1.38000E+01    5.53300E+02
 1.39000E+01    5.37200E+02
 1.40000E+01    5.21000E+02
 1.41000E+01    5.04500E+02
 1.42000E+01    4.87900E+02
 1.43000E+01    4.71300E+02
 1.44000E+01    4.54600E+02
 1.45000E+01    4.38000E+02
 1.46000E+01    4.21500E+02
 1.47000E+01    4.05100E+02
 1.48000E+01    3.89000E+02
 1.49000E+01    3.73000E+02
 1.50000E+01    3.57400E+02
 1.51000E+01    3.42100E+02
 1.52000E+01    3.27300E+02
 1.53000E+01    3.12900E+02
 1.54000E+01    2.99000E+02
 1.55000E+01    2.85600E+02
 1.56000E+01    2.72700E+02
 1.57000E+01    2.60400E+02
 1.58000E+01    2.48600E+02
 1.59000E+01    2.37300E+02
 1.60000E+01    2.26600E+02
 1.61000E+01    2.16400E+02
 1.62000E+01    2.06800E+02
 1.63000E+01    1.97600E+02
 1.64000E+01    1.88900E+02
 1.65000E+01    1.80700E+02
 1.66000E+01    1.72900E+02
 1.67000E+01    1.65600E+02
 1.68000E+01    1.58700E+02
 1.69000E+01    1.52200E+02
 1.70000E+01    1.46200E+02
 1.71000E+01    1.40500E+02
 1.72000E+01    1.35200E+02
 1.73000E+01    1.30200E+02
 1.74000E+01    1.25500E+02
 1.75000E+01    1.21000E+02
 1.76000E+01    1.16700E+02
 1.77000E+01    1.12600E+02
 1.78000E+01    1.08700E+02
 1.79000E+01    1.05000E+02
 1.80000E+01    1.01500E+02
 1.81000E+01    9.82000E+01
 1.82000E+01    9.51000E+01
 1.83000E+01    9.23000E+01
 1.84000E+01    8.98000E+01
 1.85000E+01    8.75000E+01
 1.86000E+01    8.54000E+01
 1.87000E+01    8.35000E+01
 1.88000E+01    8.17000E+01
 1.89000E+01    8.01000E+01
 1.90000E+01    7.85000E+01
 1.91000E+01    7.71000E+01
 1.92000E+01    7.58000E+01
 1.93000E+01    7.45000E+01
 1.94000E+01    7.33000E+01
 1.95000E+01    7.21000E+01
 1.96000E+01    7.09000E+01
 1.97000E+01    6.96000E+01
 1.98000E+01    6.84000E+01
 1.99000E+01    6.72000E+01
 2.00000E+01    6.59000E+01
 2.01000E+01    6.47000E+01
 2.02000E+01    6.35000E+01
 2.03000E+01    6.24000E+01
 2.04000E+01    6.13000E+01
 2.05000E+01    6.02000E+01
 2.06000E+01    5.92000E+01
 2.07000E+01    5.82000E+01
 2.08000E+01    5.73000E+01
 2.09000E+01    5.64000E+01
 2.10000E+01    5.55000E+01
 2.11000E+01    5.47000E+01
 2.12000E+01    5.39000E+01
 2.13000E+01    5.32000E+01
 2.14000E+01    5.26000E+01
 2.15000E+01    5.20000E+01
 2.16000E+01    5.14000E+01
 2.17000E+01    5.10000E+01
 2.18000E+01    5.06000E+01
 2.19000E+01    5.02000E+01
 2.20000E+01    5.00000E+01
 2.21000E+01    4.97000E+01
 2.22000E+01    4.96000E+01
 2.23000E+01    4.94000E+01
 2.24000E+01    4.93000E+01
 2.25000E+01    4.93000E+01
 2.26000E+01    4.92000E+01
 2.27000E+01    4.91000E+01
 2.28000E+01    4.91000E+01
 2.29000E+01    4.90000E+01
 2.30000E+01    4.89000E+01
 2.31000E+01    4.88000E+01
 2.32000E+01    4.87000E+01
 2.33000E+01    4.86000E+01
 2.34000E+01    4.84000E+01
 2.35000E+01    4.83000E+01
 2.36000E+01    4.81000E+01
 2.37000E+01    4.80000E+01
 2.38000E+01    4.78000E+01
 2.39000E+01    4.76000E+01
 2.40000E+01    4.74000E+01
 2.41000E+01    4.72000E+01
 2.42000E+01    4.70000E+01
 2.43000E+01    4.68000E+01
 2.44000E+01    4.66000E+01
 2.45000E+01    4.63000E+01
 2.46000E+01    4.61000E+01
 2.47000E+01    4.58000E+01
 2.48000E+01    4.55000E+01
 2.49000E+01    4.52000E+01
 2.50000E+01    4.49000E+01
 2.51000E+01    4.46000E+01
 2.52000E+01    4.43000E+01
 2.53000E+01    4.39000E+01
 2.54000E+01    4.36000E+01
 2.55000E+01    4.32000E+01
 2.56000E+01    4.28000E+01
 2.57000E+01    4.24000E+01
 2.58000E+01    4.20000E+01
 2.59000E+01    4.16000E+01
 2.60000E+01    4.12000E+01
 2.61000E+01    4.08000E+01
 2.62000E+01    4.05000E+01
 2.63000E+01    4.01000E+01
 2.64000E+01    3.98000E+01
 2.65000E+01    3.95000E+01
 2.66000E+01    3.91000E+01
 2.67000E+01    3.88000E+01
 2.68000E+01    3.85000E+01
 2.69000E+01    3.83000E+01
 2.70000E+01    3.80000E+01
 2.71000E+01    3.77000E+01
 2.72000E+01    3.75000E+01
 2.73000E+01    3.73000E+01
 2.74000E+01    3.70000E+01
 2.75000E+01    3.68000E+01
 2.76000E+01    3.66000E+01
 2.77000E+01    3.64000E+01
 2.78000E+01    3.62000E+01
 2.79000E+01    3.60000E+01
 2.80000E+01    3.58000E+01
 2.81000E+01    3.56000E+01
 2.82000E+01    3.54000E+01
 2.83000E+01    3.53000E+01
 2.84000E+01    3.51000E+01
 2.85000E+01    3.50000E+01
 2.86000E+01    3.48000E+01
 2.87000E+01    3.47000E+01
 2.88000E+01    3.47000E+01
 2.89000E+01    3.46000E+01
 2.90000E+01    3.46000E+01
 2.91000E+01    3.46000E+01
 2.92000E+01    3.46000E+01
 2.93000E+01    3.47000E+01
 2.94000E+01    3.49000E+01
 2.95000E+01    3.50000E+01
 2.96000E+01    3.52000E+01
 2.97000E+01    3.53000E+01
 2.98000E+01    3.54000E+01
 2.99000E+01    3.56000E+01
 3.00000E+01    3.56000E+01
 3.01000E+01    3.57000E+01
 3.02000E+01    3.58000E+01
 3.03000E+01    3.58000E+01
 3.04000E+01    3.58000E+01
 3.05000E+01    3.59000E+01
 3.06000E+01    3.59000E+01
 3.07000E+01    3.58000E+01
 3.08000E+01    3.58000E+01
 3.09000E+01    3.58000E+01
 3.10000E+01    3.57000E+01
 3.11000E+01    3.57000E+01
 3.12000E+01    3.56000E+01
 3.13000E+01    3.55000E+01
 3.14000E+01    3.54000E+01
 3.15000E+01    3.53000E+01
 3.16000E+01    3.52000E+01
 3.17000E+01    3.51000E+01
 3.18000E+01    3.50000E+01
 3.19000E+01    3.49000E+01
 3.20000E+01    3.48000E+01
 3.21000E+01    3.46000E+01
 3.22000E+01    3.45000E+01
 3.23000E+01    3.44000E+01
 3.24000E+01    3.42000E+01
 3.25000E+01    3.41000E+01
 3.26000E+01    3.40000E+01
 3.27000E+01    3.39000E+01
 3.28000E+01    3.37000E+01
 3.29000E+01    3.36000E+01
 3.30000E+01    3.35000E+01
 3.31000E+01    3.33000E+01
 3.32000E+01    3.32000E+01
 3.33000E+01    3.31000E+01
 3.34000E+01    3.29000E+01
 3.35000E+01    3.28000E+01
 3.36000E+01    3.27000E+01
 3.37000E+01    3.25000E+01
 3.38000E+01    3.24000E+01
 3.39000E+01    3.23000E+01
 3.40000E+01    3.21000E+01
 3.41000E+01    3.20000E+01
 3.42000E+01    3.18000E+01
 3.43000E+01    3.17000E+01
 3.44000E+01    3.15000E+01
 3.45000E+01    3.14000E+01
 3.46000E+01    3.12000E+01
 3.47000E+01    3.10000E+01
 3.48000E+01    3.09000E+01
 3.49000E+01    3.07000E+01
 3.50000E+01    3.05000E+01
 3.51000E+01    3.03000E+01
 3.52000E+01    3.01000E+01
 3.53000E+01    2.99000E+01
 3.54000E+01    2.97000E+01
 3.55000E+01    2.95000E+01
 3.56000E+01    2.93000E+01
 3.57000E+01    2.91000E+01
 3.58000E+01    2.89000E+01
 3.59000E+01    2.86000E+01
 3.60000E+01    2.84000E+01
 3.61000E+01    2.81000E+01
 3.62000E+01    2.79000E+01
 3.63000E+01    2.77000E+01
 3.64000E+01    2.74000E+01
 3.65000E+01    2.71000E+01
 3.66000E+01    2.69000E+01
 3.67000E+01    2.66000E+01
 3.68000E+01    2.64000E+01
 3.69000E+01    2.61000E+01
 3.70000E+01    2.59000E+01
 3.71000E+01    2.57000E+01
 3.72000E+01    2.54000E+01
 3.73000E+01    2.52000E+01
 3.74000E+01    2.50000E+01
 3.75000E+01    2.48000E+01
 3.76000E+01    2.45000E+01
 3.77000E+01    2.43000E+01
 3.78000E+01    2.41000E+01
 3.79000E+01    2.40000E+01
 3.80000E+01    2.38000E+01
 3.81000E+01    2.36000E+01
 3.82000E+01    2.35000E+01
 3.83000E+01    2.34000E+01
 3.84000E+01    2.32000E+01
 3.85000E+01    2.31000E+01
 3.86000E+01    2.30000E+01
 3.87000E+01    2.30000E+01
 3.88000E+01    2.29000E+01
 3.89000E+01    2.29000E+01
 3.90000E+01    2.28000E+01
 3.91000E+01    2.28000E+01
 3.92000E+01    2.28000E+01
 3.93000E+01    2.28000E+01
 3.94000E+01    2.28000E+01
 3.95000E+01    2.29000E+01
 3.96000E+01    2.29000E+01
 3.97000E+01    2.30000E+01
 3.98000E+01    2.30000E+01
 3.99000E+01    2.31000E+01
 4.00000E+01    2.31000E+01
 4.01000E+01    2.32000E+01
 4.02000E+01    2.33000E+01
 4.03000E+01    2.34000E+01
 4.04000E+01    2.34000E+01
 4.05000E+01    2.35000E+01
 4.06000E+01    2.36000E+01
 4.07000E+01    2.37000E+01
 4.08000E+01    2.38000E+01
 4.09000E+01    2.38000E+01
 4.10000E+01    2.39000E+01
 4.11000E+01    2.40000E+01
 4.12000E+01    2.40000E+01
 4.13000E+01    2.41000E+01
 4.14000E+01    2.41000E+01
 4.15000E+01    2.42000E+01
 4.16000E+01    2.42000E+01
 4.17000E+01    2.42000E+01
 4.18000E+01    2.43000E+01
 4.19000E+01    2.43000E+01
 4.20000E+01    2.43000E+01
 4.21000E+01    2.43000E+01
 4.22000E+01    2.43000E+01
 4.23000E+01    2.42000E+01
 4.24000E+01    2.42000E+01
 4.25000E+01    2.42000E+01
 4.26000E+01    2.41000E+01
 4.27000E+01    2.41000E+01
 4.28000E+01    2.41000E+01
 4.29000E+01    2.40000E+01
 4.30000E+01    2.39000E+01
 4.31000E+01    2.39000E+01
 4.32000E+01    2.38000E+01
 4.33000E+01    2.37000E+01
 4.34000E+01    2.37000E+01
 4.35000E+01    2.36000E+01
 4.36000E+01    2.35000E+01
 4.37000E+01    2.34000E+01
 4.38000E+01    2.34000E+01
 4.39000E+01    2.33000E+01
 4.40000E+01    2.32000E+01
 4.41000E+01    2.31000E+01
 4.42000E+01    2.30000E+01
 4.43000E+01    2.29000E+01
 5.00000E+01    1.91958E+01
 5.50000E+01    1.65906E+01
 6.00000E+01    1.42211E+01
 6.50000E+01    1.25933E+01
 7.00000E+01    1.09197E+01
 7.50000E+01    9.76021E+00
 8.00000E+01    8.44019E+00
 9.00000E+01    6.67829E+00
 1.00000E+02    5.47293E+00
 1.10000E+02    4.58131E+00
 1.20000E+02    3.87276E+00
 1.30000E+02    3.35615E+00
 1.40000E+02    2.89610E+00
 1.50000E+02    2.53816E+00
 1.60000E+02    2.31262E+00
 1.80000E+02    1.83056E+00
 2.00000E+02    1.55476E+00
