# n + Se 82 : (n,el)    
# jendl4.0   S.Kamada, K.Shibata, A.Ichihara+  EVAL-MAY09
# uncertainties: n
# # energies =   171
#   E(MeV)       xs(mb) 
 1.00000E-11    9.33170E+03
 1.00000E-07    5.00436E+03
 4.13990E-07    5.00142E+03
 5.31580E-07    5.00115E+03
 6.82560E-07    5.00087E+03
 8.76420E-07    5.00051E+03
 1.12540E-06    5.00005E+03
 1.44500E-06    4.99945E+03
 1.85540E-06    4.99874E+03
 2.37240E-06    4.99816E+03
 3.05900E-06    4.99748E+03
 3.92790E-06    4.99661E+03
 5.04350E-06    4.99549E+03
 6.47600E-06    4.99406E+03
 8.31530E-06    4.99222E+03
 1.06770E-05    4.98986E+03
 1.37100E-05    4.98683E+03
 1.76030E-05    4.98294E+03
 2.26030E-05    4.97788E+03
 2.92030E-05    4.97145E+03
 3.72670E-05    4.96330E+03
 4.78510E-05    4.95273E+03
 6.14420E-05    4.93915E+03
 7.88930E-05    4.92171E+03
 1.01300E-04    4.89933E+03
 1.30070E-04    4.87058E+03
 1.67020E-04    4.82585E+03
 2.14450E-04    4.75832E+03
 2.75360E-04    4.64181E+03
 3.53580E-04    4.38203E+03
 4.54000E-04    3.79794E+04
 5.82950E-04    9.40065E+03
 7.48520E-04    5.36215E+03
 9.61120E-04    5.64086E+03
 1.23410E-03    4.84454E+03
 1.58460E-03    4.52026E+03
 2.03470E-03    4.23266E+03
 2.24870E-03    4.00036E+03
 2.48520E-03    3.77305E+03
 2.61260E-03    3.57640E+03
 2.74650E-03    3.15639E+03
 3.03540E-03    2.09460E+03
 3.35460E-03    6.33535E+04
 3.70740E-03    9.99100E+03
 4.30740E-03    3.90611E+03
 5.53080E-03    2.09491E+04
 7.10170E-03    5.25050E+04
 9.11880E-03    1.62068E+04
 1.17090E-02    9.49495E+03
 1.50340E-02    9.00058E+03
 1.93050E-02    9.66459E+03
 2.18750E-02    9.55811E+03
 2.35790E-02    9.50394E+03
 2.41760E-02    9.47570E+03
 2.47880E-02    9.43194E+03
 2.60580E-02    9.38017E+03
 2.70000E-02    9.32332E+03
 2.85000E-02    9.22089E+03
 3.18280E-02    9.13330E+03
 3.43070E-02    9.01067E+03
 4.08680E-02    8.87360E+03
 4.63090E-02    8.76586E+03
 5.24750E-02    8.68735E+03
 5.65620E-02    8.59091E+03
 6.73790E-02    8.50188E+03
 7.20000E-02    8.44517E+03
 7.95000E-02    8.39799E+03
 8.25000E-02    8.37041E+03
 8.65170E-02    8.31287E+03
 9.80370E-02    8.23867E+03
 1.11090E-01    8.19513E+03
 1.16790E-01    8.16855E+03
 1.22770E-01    8.14061E+03
 1.29070E-01    8.11122E+03
 1.35690E-01    8.08034E+03
 1.42640E-01    8.04788E+03
 1.49960E-01    8.01375E+03
 1.57640E-01    7.97787E+03
 1.65730E-01    7.94015E+03
 1.74220E-01    7.90049E+03
 1.83160E-01    7.85879E+03
 1.92550E-01    7.81528E+03
 2.02420E-01    7.77710E+03
 2.12800E-01    7.74020E+03
 2.23710E-01    7.70142E+03
 2.35180E-01    7.66063E+03
 2.47240E-01    7.59523E+03
 2.73240E-01    7.52533E+03
 2.87250E-01    7.48829E+03
 2.94520E-01    7.47100E+03
 2.97200E-01    7.46409E+03
 2.98500E-01    7.45586E+03
 3.01970E-01    7.39670E+03
 3.33730E-01    7.28285E+03
 3.68830E-01    7.19009E+03
 3.87740E-01    7.12399E+03
 4.07620E-01    7.01797E+03
 4.50490E-01    6.86425E+03
 4.97870E-01    6.73948E+03
 5.23400E-01    6.65147E+03
 5.50230E-01    6.55896E+03
 5.78440E-01    6.46186E+03
 6.08100E-01    6.36289E+03
 6.39280E-01    6.25367E+03
 6.72060E-01    6.02299E+03
 7.06510E-01    5.78358E+03
 7.42740E-01    5.55638E+03
 7.80820E-01    5.32210E+03
 8.20850E-01    5.10188E+03
 8.62940E-01    4.87503E+03
 9.07180E-01    4.64500E+03
 9.61640E-01    4.43522E+03
 1.00260E+00    4.21608E+03
 1.10800E+00    4.00602E+03
 1.16480E+00    3.85623E+03
 1.22460E+00    3.69885E+03
 1.28730E+00    3.53339E+03
 1.35340E+00    3.35945E+03
 1.42270E+00    3.15760E+03
 1.49570E+00    3.00075E+03
 1.57240E+00    2.93761E+03
 1.65300E+00    2.87155E+03
 1.73770E+00    2.76526E+03
 1.82680E+00    2.57820E+03
 1.92050E+00    2.38210E+03
 2.01900E+00    2.27747E+03
 2.12250E+00    2.21944E+03
 2.23130E+00    2.16890E+03
 2.30690E+00    2.13754E+03
 2.34570E+00    2.12155E+03
 2.36530E+00    2.11075E+03
 2.38520E+00    2.08334E+03
 2.46600E+00    2.05733E+03
 2.59240E+00    2.07435E+03
 2.72530E+00    2.04512E+03
 2.86500E+00    2.00851E+03
 3.01190E+00    2.02238E+03
 3.16640E+00    2.04131E+03
 3.32870E+00    2.02248E+03
 3.67880E+00    1.95566E+03
 4.06570E+00    1.96226E+03
 4.49330E+00    2.02014E+03
 4.72370E+00    2.06124E+03
 4.96590E+00    2.10381E+03
 5.22050E+00    2.14497E+03
 5.48810E+00    2.18609E+03
 5.76950E+00    2.22459E+03
 6.06530E+00    2.25821E+03
 6.37630E+00    2.28357E+03
 6.59240E+00    2.29720E+03
 6.70320E+00    2.31282E+03
 7.04690E+00    2.33129E+03
 7.40820E+00    2.34373E+03
 7.78800E+00    2.35007E+03
 8.18730E+00    2.34747E+03
 8.60710E+00    2.33891E+03
 9.04840E+00    2.32212E+03
 9.51230E+00    2.29699E+03
 1.00000E+01    2.26043E+03
 1.05130E+01    2.21616E+03
 1.10520E+01    2.16377E+03
 1.16180E+01    2.10414E+03
 1.22140E+01    2.03719E+03
 1.28400E+01    1.96513E+03
 1.34990E+01    1.90807E+03
 1.38400E+01    1.86996E+03
 1.41910E+01    1.83721E+03
 1.45500E+01    1.79727E+03
 1.49180E+01    1.72811E+03
 1.56830E+01    1.64683E+03
 1.64870E+01    1.56721E+03
