# n + Se 82 : (n,tot)   
# jendl4.0   S.Kamada, K.Shibata, A.Ichihara+  EVAL-MAY09
# uncertainties: n
# # energies =   171
#   E(MeV)       xs(mb) 
 1.00000E-11    9.80969E+03
 1.00000E-07    5.02026E+03
 4.13990E-07    5.01206E+03
 5.31580E-07    5.01011E+03
 6.82560E-07    5.00875E+03
 8.76420E-07    5.00753E+03
 1.12540E-06    5.00601E+03
 1.44500E-06    5.00528E+03
 1.85540E-06    5.00485E+03
 2.37240E-06    5.00429E+03
 3.05900E-06    5.00358E+03
 3.92790E-06    5.00266E+03
 5.04350E-06    5.00149E+03
 6.47600E-06    4.99998E+03
 8.31530E-06    4.99804E+03
 1.06770E-05    4.99555E+03
 1.37100E-05    4.99236E+03
 1.76030E-05    4.98825E+03
 2.26030E-05    4.98291E+03
 2.92030E-05    4.97613E+03
 3.72670E-05    4.96754E+03
 4.78510E-05    4.95639E+03
 6.14420E-05    4.94207E+03
 7.88930E-05    4.92369E+03
 1.01300E-04    4.90009E+03
 1.30070E-04    4.86977E+03
 1.67020E-04    4.82762E+03
 2.14450E-04    4.75880E+03
 2.75360E-04    4.64275E+03
 3.53580E-04    4.38397E+03
 4.54000E-04    4.00985E+04
 5.82950E-04    9.48235E+03
 7.48520E-04    5.36272E+03
 9.61120E-04    6.01243E+03
 1.23410E-03    4.84351E+03
 1.58460E-03    4.51942E+03
 2.03470E-03    4.23273E+03
 2.24870E-03    4.00034E+03
 2.48520E-03    3.77332E+03
 2.61260E-03    3.57672E+03
 2.74650E-03    3.15687E+03
 3.03540E-03    2.09588E+03
 3.35460E-03    6.34930E+04
 3.70740E-03    9.99472E+03
 4.30740E-03    3.90644E+03
 5.53080E-03    2.09567E+04
 7.10170E-03    5.25125E+04
 9.11880E-03    1.62154E+04
 1.17090E-02    9.49918E+03
 1.50340E-02    9.00733E+03
 1.93050E-02    9.67748E+03
 2.18750E-02    9.57033E+03
 2.35790E-02    9.51582E+03
 2.41760E-02    9.48741E+03
 2.47880E-02    9.44337E+03
 2.60580E-02    9.39127E+03
 2.70000E-02    9.33407E+03
 2.85000E-02    9.23099E+03
 3.18280E-02    9.14285E+03
 3.43070E-02    9.01944E+03
 4.08680E-02    8.88154E+03
 4.63090E-02    8.77316E+03
 5.24750E-02    8.69420E+03
 5.65620E-02    8.59721E+03
 6.73790E-02    8.50768E+03
 7.20000E-02    8.45067E+03
 7.95000E-02    8.40323E+03
 8.25000E-02    8.37551E+03
 8.65170E-02    8.31767E+03
 9.80370E-02    8.24318E+03
 1.11090E-01    8.19954E+03
 1.16790E-01    8.17292E+03
 1.22770E-01    8.14492E+03
 1.29070E-01    8.11547E+03
 1.35690E-01    8.08454E+03
 1.42640E-01    8.05201E+03
 1.49960E-01    8.01782E+03
 1.57640E-01    7.98187E+03
 1.65730E-01    7.94408E+03
 1.74220E-01    7.90434E+03
 1.83160E-01    7.86256E+03
 1.92550E-01    7.81897E+03
 2.02420E-01    7.78074E+03
 2.12800E-01    7.74381E+03
 2.23710E-01    7.70499E+03
 2.35180E-01    7.66418E+03
 2.47240E-01    7.59872E+03
 2.73240E-01    7.52875E+03
 2.87250E-01    7.49168E+03
 2.94520E-01    7.47437E+03
 2.97200E-01    7.46746E+03
 2.98500E-01    7.45923E+03
 3.01970E-01    7.40003E+03
 3.33730E-01    7.28613E+03
 3.68830E-01    7.19332E+03
 3.87740E-01    7.12719E+03
 4.07620E-01    7.02114E+03
 4.50490E-01    6.86739E+03
 4.97870E-01    6.74263E+03
 5.23400E-01    6.65468E+03
 5.50230E-01    6.56223E+03
 5.78440E-01    6.46517E+03
 6.08100E-01    6.36590E+03
 6.39280E-01    6.26263E+03
 6.72060E-01    6.15401E+03
 7.06510E-01    6.03750E+03
 7.42740E-01    5.91380E+03
 7.80820E-01    5.78394E+03
 8.20850E-01    5.64833E+03
 8.62940E-01    5.50604E+03
 9.07180E-01    5.35083E+03
 9.61640E-01    5.20358E+03
 1.00260E+00    5.03030E+03
 1.10800E+00    4.85358E+03
 1.16480E+00    4.72758E+03
 1.22460E+00    4.59518E+03
 1.28730E+00    4.45599E+03
 1.35340E+00    4.30966E+03
 1.42270E+00    4.15588E+03
 1.49570E+00    4.03647E+03
 1.57240E+00    3.96476E+03
 1.65300E+00    3.88957E+03
 1.73770E+00    3.81050E+03
 1.82680E+00    3.72735E+03
 1.92050E+00    3.64133E+03
 2.01900E+00    3.60343E+03
 2.12250E+00    3.59048E+03
 2.23130E+00    3.57920E+03
 2.30690E+00    3.57221E+03
 2.34570E+00    3.56864E+03
 2.36530E+00    3.56623E+03
 2.38520E+00    3.56011E+03
 2.46600E+00    3.55913E+03
 2.59240E+00    3.58687E+03
 2.72530E+00    3.61774E+03
 2.86500E+00    3.65020E+03
 3.01190E+00    3.68454E+03
 3.16640E+00    3.72304E+03
 3.32870E+00    3.78418E+03
 3.67880E+00    3.85343E+03
 4.06570E+00    3.91155E+03
 4.49330E+00    3.94942E+03
 4.72370E+00    3.96963E+03
 4.96590E+00    3.98932E+03
 5.22050E+00    4.01002E+03
 5.48810E+00    4.03006E+03
 5.76950E+00    4.04564E+03
 6.06530E+00    4.06161E+03
 6.37630E+00    4.07552E+03
 6.59240E+00    4.08415E+03
 6.70320E+00    4.09180E+03
 7.04690E+00    4.10135E+03
 7.40820E+00    4.10974E+03
 7.78800E+00    4.11075E+03
 8.18730E+00    4.10269E+03
 8.60710E+00    4.09050E+03
 9.04840E+00    4.06737E+03
 9.51230E+00    4.04003E+03
 1.00000E+01    3.99934E+03
 1.05130E+01    3.95039E+03
 1.10520E+01    3.89308E+03
 1.16180E+01    3.82819E+03
 1.22140E+01    3.75502E+03
 1.28400E+01    3.67554E+03
 1.34990E+01    3.61139E+03
 1.38400E+01    3.56830E+03
 1.41910E+01    3.53018E+03
 1.45500E+01    3.48449E+03
 1.49180E+01    3.40560E+03
 1.56830E+01    3.31026E+03
 1.64870E+01    3.21637E+03
