# p + H   0 : (p,g)
# endfb8.0   P.G.YOUNG,G.M.HALE,M.B.CHADWICK   EVAL-FEB97
# uncertainties: n
# # energies =   134
#   E(MeV)          xs(mb) 
 1.00000E-01    3.00000E-04
 2.00000E-01    1.00000E-03
 3.00000E-01    1.57000E-03
 4.00000E-01    2.08000E-03
 5.00000E-01    2.50000E-03
 6.00000E-01    2.87000E-03
 7.00000E-01    3.22000E-03
 8.00000E-01    3.56000E-03
 9.00000E-01    3.87000E-03
 1.00000E+00    4.15000E-03
 1.20000E+00    4.66000E-03
 1.40000E+00    5.12000E-03
 1.60000E+00    5.56000E-03
 1.80000E+00    5.96000E-03
 2.00000E+00    6.37258E-03
 2.25000E+00    6.91979E-03
 2.50000E+00    7.47003E-03
 2.75000E+00    7.99890E-03
 3.00000E+00    8.48887E-03
 3.25000E+00    8.92747E-03
 3.50000E+00    9.30624E-03
 3.75000E+00    9.62003E-03
 4.00000E+00    9.86642E-03
 4.25000E+00    1.00477E-02
 4.50000E+00    1.02180E-02
 4.75000E+00    1.03784E-02
 5.00000E+00    1.05297E-02
 5.25000E+00    1.06728E-02
 5.50000E+00    1.08089E-02
 5.75000E+00    1.09379E-02
 6.00000E+00    1.10611E-02
 6.50000E+00    1.12903E-02
 7.00000E+00    1.15000E-02
 7.50000E+00    1.16310E-02
 8.00000E+00    1.16516E-02
 8.50000E+00    1.15986E-02
 9.00000E+00    1.15000E-02
 9.50000E+00    1.13691E-02
 1.00000E+01    1.12065E-02
 1.05000E+01    1.10156E-02
 1.10000E+01    1.08000E-02
 1.15000E+01    1.05619E-02
 1.20000E+01    1.03149E-02
 1.25000E+01    1.00753E-02
 1.30000E+01    9.85477E-03
 1.35000E+01    9.66120E-03
 1.40000E+01    9.50000E-03
 1.45000E+01    9.36230E-03
 1.50000E+01    9.23535E-03
 1.55000E+01    9.11751E-03
 1.60000E+01    9.00744E-03
 1.65000E+01    8.90399E-03
 1.70000E+01    8.80619E-03
 1.75000E+01    8.71325E-03
 1.80000E+01    8.62446E-03
 1.85000E+01    8.53924E-03
 1.90000E+01    8.45708E-03
 1.95000E+01    8.37755E-03
 2.00000E+01    8.30029E-03
 2.10000E+01    8.15133E-03
 2.20000E+01    8.00814E-03
 2.30000E+01    7.86922E-03
 2.40000E+01    7.73345E-03
 2.50000E+01    7.60000E-03
 2.60000E+01    7.47105E-03
 2.70000E+01    7.34879E-03
 2.80000E+01    7.23262E-03
 2.90000E+01    7.12204E-03
 3.00000E+01    7.01659E-03
 3.10000E+01    6.91587E-03
 3.20000E+01    6.81951E-03
 3.30000E+01    6.72720E-03
 3.40000E+01    6.63865E-03
 3.50000E+01    6.55359E-03
 3.60000E+01    6.47179E-03
 3.70000E+01    6.39305E-03
 3.80000E+01    6.31715E-03
 3.90000E+01    6.24393E-03
 4.00000E+01    6.17323E-03
 4.20000E+01    6.03880E-03
 4.40000E+01    5.91281E-03
 4.60000E+01    5.79438E-03
 4.80000E+01    5.68274E-03
 5.00000E+01    5.57724E-03
 5.20000E+01    5.47731E-03
 5.40000E+01    5.38246E-03
 5.60000E+01    5.29226E-03
 5.80000E+01    5.20631E-03
 6.00000E+01    5.12429E-03
 6.20000E+01    5.04588E-03
 6.40000E+01    4.97083E-03
 6.60000E+01    4.89888E-03
 6.80000E+01    4.82982E-03
 7.00000E+01    4.76345E-03
 7.20000E+01    4.69960E-03
 7.40000E+01    4.63810E-03
 7.60000E+01    4.57881E-03
 7.80000E+01    4.52159E-03
 8.00000E+01    4.46632E-03
 8.20000E+01    4.41289E-03
 8.40000E+01    4.36120E-03
 8.60000E+01    4.31114E-03
 8.80000E+01    4.26264E-03
 9.00000E+01    4.21560E-03
 9.20000E+01    4.16996E-03
 9.40000E+01    4.12564E-03
 9.60000E+01    4.08258E-03
 9.80000E+01    4.04072E-03
 1.00000E+02    4.00000E-03
 1.02000E+02    3.96343E-03
 1.04000E+02    3.93315E-03
 1.06000E+02    3.90845E-03
 1.08000E+02    3.88871E-03
 1.10000E+02    3.87336E-03
 1.12000E+02    3.86193E-03
 1.14000E+02    3.85398E-03
 1.16000E+02    3.84912E-03
 1.18000E+02    3.84701E-03
 1.20000E+02    3.84734E-03
 1.22000E+02    3.84983E-03
 1.24000E+02    3.85421E-03
 1.26000E+02    3.86026E-03
 1.28000E+02    3.86776E-03
 1.30000E+02    3.87653E-03
 1.32000E+02    3.88638E-03
 1.34000E+02    3.89714E-03
 1.36000E+02    3.90866E-03
 1.38000E+02    3.92081E-03
 1.40000E+02    3.93344E-03
 1.42000E+02    3.94645E-03
 1.44000E+02    3.95971E-03
 1.46000E+02    3.97312E-03
 1.48000E+02    3.98658E-03
 1.50000E+02    4.00000E-03
