# n + Tm169 : (n,n'22)  
# jeff3.3    A.J. Koning and D. Rochman        EVAL-DEC15
# uncertainties: n
# # energies =    76
#   E(MeV)       xs(mb) 
 7.23078E-01    0.00000E+00
 7.29771E-01    2.60104E+00
 7.45676E-01    8.78204E+00
 7.86464E-01    2.46331E+01
 8.00000E-01    2.98935E+01
 8.37390E-01    3.69724E+01
 8.71070E-01    4.33490E+01
 8.83594E-01    4.57201E+01
 8.89027E-01    4.67487E+01
 8.97638E-01    4.83790E+01
 9.00000E-01    4.88262E+01
 1.00000E+00    5.14428E+01
 1.20000E+00    4.19646E+01
 1.40000E+00    3.26118E+01
 1.60000E+00    2.47650E+01
 1.80000E+00    1.81996E+01
 2.00000E+00    1.29904E+01
 2.20000E+00    9.08104E+00
 2.40000E+00    6.29314E+00
 2.60000E+00    4.35385E+00
 2.80000E+00    3.02217E+00
 3.00000E+00    2.11008E+00
 3.20000E+00    1.52835E+00
 3.40000E+00    1.08077E+00
 3.60000E+00    7.72097E-01
 3.80000E+00    5.63520E-01
 4.00000E+00    4.02459E-01
 4.20000E+00    2.88867E-01
 4.40000E+00    2.07887E-01
 4.60000E+00    1.49933E-01
 4.80000E+00    1.08322E-01
 5.00000E+00    7.84750E-02
 5.20000E+00    5.69102E-02
 5.40000E+00    4.15069E-02
 5.60000E+00    3.03219E-02
 5.80000E+00    2.21149E-02
 6.00000E+00    1.62542E-02
 6.20000E+00    1.19638E-02
 6.40000E+00    8.87182E-03
 6.60000E+00    6.59887E-03
 6.80000E+00    4.93598E-03
 7.00000E+00    3.70986E-03
 7.20000E+00    2.79446E-03
 7.40000E+00    2.11776E-03
 7.60000E+00    1.60757E-03
 7.80000E+00    1.22456E-03
 8.00000E+00    9.35958E-04
 8.50000E+00    4.82270E-04
 9.00000E+00    2.51147E-04
 9.50000E+00    1.32031E-04
 1.00000E+01    7.01057E-05
 1.05000E+01    3.75959E-05
 1.10000E+01    2.03793E-05
 1.15000E+01    1.11733E-05
 1.20000E+01    6.19629E-06
 1.25000E+01    3.47387E-06
 1.30000E+01    1.97057E-06
 1.35000E+01    1.12856E-06
 1.40000E+01    6.52190E-07
 1.45000E+01    3.80340E-07
 1.50000E+01    2.23540E-07
 1.60000E+01    7.88530E-08
 1.70000E+01    2.86290E-08
 1.80000E+01    1.05600E-08
 1.90000E+01    4.00550E-09
 2.00000E+01    1.55790E-09
 2.10000E+01    6.20550E-10
 2.20000E+01    2.52460E-10
 2.30000E+01    1.04810E-10
 2.40000E+01    4.43770E-11
 2.50000E+01    1.91200E-11
 2.60000E+01    8.36930E-12
 2.70000E+01    3.71400E-12
 2.80000E+01    1.66910E-12
 2.90000E+01    7.59520E-13
 3.00000E+01    3.49990E-13
