# n + Tm169 : (n,n'19)  
# jeff3.3    A.J. Koning and D. Rochman        EVAL-DEC15
# uncertainties: n
# # energies =    80
#   E(MeV)       xs(mb) 
 6.40884E-01    0.00000E+00
 6.50620E-01    2.05494E-03
 6.95367E-01    1.14995E-02
 7.00000E-01    1.24774E-02
 7.23078E-01    2.64033E-02
 7.29771E-01    3.04420E-02
 7.45676E-01    4.00394E-02
 7.86464E-01    6.46519E-02
 8.00000E-01    7.28199E-02
 8.37390E-01    1.25187E-01
 8.71070E-01    1.72357E-01
 8.83594E-01    1.89898E-01
 8.89027E-01    1.97507E-01
 8.97638E-01    2.09567E-01
 9.00000E-01    2.12875E-01
 1.00000E+00    4.24414E-01
 1.20000E+00    8.97277E-01
 1.40000E+00    1.26481E+00
 1.60000E+00    1.44860E+00
 1.80000E+00    1.46331E+00
 2.00000E+00    1.36170E+00
 2.20000E+00    1.19429E+00
 2.40000E+00    1.00438E+00
 2.60000E+00    8.18548E-01
 2.80000E+00    6.52309E-01
 3.00000E+00    5.11723E-01
 3.20000E+00    4.15610E-01
 3.40000E+00    3.19980E-01
 3.60000E+00    2.50792E-01
 3.80000E+00    1.94591E-01
 4.00000E+00    1.47344E-01
 4.20000E+00    1.11596E-01
 4.40000E+00    8.43937E-02
 4.60000E+00    6.37550E-02
 4.80000E+00    4.81280E-02
 5.00000E+00    3.63673E-02
 5.20000E+00    2.74691E-02
 5.40000E+00    2.08472E-02
 5.60000E+00    1.58253E-02
 5.80000E+00    1.19845E-02
 6.00000E+00    9.13175E-03
 6.20000E+00    6.95764E-03
 6.40000E+00    5.33236E-03
 6.60000E+00    4.09133E-03
 6.80000E+00    3.15092E-03
 7.00000E+00    2.43349E-03
 7.20000E+00    1.88030E-03
 7.40000E+00    1.45888E-03
 7.60000E+00    1.13203E-03
 7.80000E+00    8.80169E-04
 8.00000E+00    6.85720E-04
 8.50000E+00    3.68891E-04
 9.00000E+00    1.99540E-04
 9.50000E+00    1.08561E-04
 1.00000E+01    5.94933E-05
 1.05000E+01    3.28614E-05
 1.10000E+01    1.83183E-05
 1.15000E+01    1.03153E-05
 1.20000E+01    5.86874E-06
 1.25000E+01    3.37164E-06
 1.30000E+01    1.95746E-06
 1.35000E+01    1.14579E-06
 1.40000E+01    6.75770E-07
 1.45000E+01    4.01590E-07
 1.50000E+01    2.40160E-07
 1.60000E+01    8.73230E-08
 1.70000E+01    3.25100E-08
 1.80000E+01    1.22420E-08
 1.90000E+01    4.72620E-09
 2.00000E+01    1.86690E-09
 2.10000E+01    7.54280E-10
 2.20000E+01    3.11000E-10
 2.30000E+01    1.30750E-10
 2.40000E+01    5.60140E-11
 2.50000E+01    2.43920E-11
 2.60000E+01    1.07770E-11
 2.70000E+01    4.82190E-12
 2.80000E+01    2.18280E-12
 2.90000E+01    9.99830E-13
 3.00000E+01    4.63570E-13
