# n + Cd106 : (n,tot)   
# jendl4.0   S.Kunieda, A.Ichihara, K.Shibata+ EVAL-FEB22
# uncertainties: n
# # energies =   171
#   E(MeV)       xs(mb) 
 1.00000E-11    1.91850E+04
 1.00000E-07    5.38437E+03
 4.13990E-07    5.25674E+03
 5.31580E-07    5.22911E+03
 6.82560E-07    5.20439E+03
 8.76420E-07    5.18228E+03
 1.12540E-06    5.16308E+03
 1.44500E-06    5.14603E+03
 1.85540E-06    5.13183E+03
 2.37240E-06    5.11356E+03
 3.05900E-06    5.09858E+03
 3.92790E-06    5.08596E+03
 5.04350E-06    5.06976E+03
 6.47600E-06    5.05252E+03
 8.31530E-06    5.03923E+03
 1.06770E-05    5.02255E+03
 1.37100E-05    5.00114E+03
 1.76030E-05    4.98013E+03
 2.26030E-05    4.95881E+03
 2.92030E-05    4.93177E+03
 3.72670E-05    4.90100E+03
 4.78510E-05    4.87178E+03
 6.14420E-05    4.83497E+03
 7.88930E-05    4.79631E+03
 1.01300E-04    4.75537E+03
 1.30070E-04    4.70402E+03
 1.67020E-04    4.64712E+03
 2.14450E-04    4.72144E+03
 2.75360E-04    4.43639E+03
 3.53580E-04    3.95268E+03
 4.54000E-04    1.32675E+04
 5.82950E-04    4.20375E+04
 7.48520E-04    1.28731E+04
 9.61120E-04    1.19884E+04
 1.23410E-03    1.12482E+04
 1.58460E-03    1.05676E+04
 2.03470E-03    1.01388E+04
 2.24870E-03    9.92321E+03
 2.48520E-03    9.76418E+03
 2.61260E-03    9.66031E+03
 2.74650E-03    9.50722E+03
 3.03540E-03    9.31369E+03
 3.35460E-03    9.12887E+03
 3.70740E-03    8.90661E+03
 4.30740E-03    8.59226E+03
 5.53080E-03    8.27295E+03
 7.10170E-03    8.03801E+03
 9.11880E-03    7.87396E+03
 1.17090E-02    7.76929E+03
 1.50340E-02    7.67794E+03
 1.93050E-02    7.62221E+03
 2.18750E-02    7.61575E+03
 2.35790E-02    7.61313E+03
 2.41760E-02    7.61176E+03
 2.47880E-02    7.61038E+03
 2.60580E-02    7.60971E+03
 2.70000E-02    7.60900E+03
 2.85000E-02    7.61065E+03
 3.18280E-02    7.62500E+03
 3.43070E-02    7.64817E+03
 4.08680E-02    7.68606E+03
 4.63090E-02    7.72549E+03
 5.24750E-02    7.76178E+03
 5.65620E-02    7.81048E+03
 6.73790E-02    7.86032E+03
 7.20000E-02    7.89670E+03
 7.95000E-02    7.92687E+03
 8.25000E-02    7.94524E+03
 8.65170E-02    7.98367E+03
 9.80370E-02    8.03608E+03
 1.11090E-01    8.06955E+03
 1.16790E-01    8.08857E+03
 1.22770E-01    8.10487E+03
 1.29070E-01    8.12077E+03
 1.35690E-01    8.13650E+03
 1.42640E-01    8.15025E+03
 1.49960E-01    8.16393E+03
 1.57640E-01    8.17720E+03
 1.65730E-01    8.18788E+03
 1.74220E-01    8.19867E+03
 1.83160E-01    8.20717E+03
 1.92550E-01    8.21506E+03
 2.02420E-01    8.21849E+03
 2.12800E-01    8.22000E+03
 2.23710E-01    8.22158E+03
 2.35180E-01    8.22326E+03
 2.47240E-01    8.21739E+03
 2.73240E-01    8.20344E+03
 2.87250E-01    8.19599E+03
 2.94520E-01    8.19250E+03
 2.97200E-01    8.19111E+03
 2.98500E-01    8.18900E+03
 3.01970E-01    8.16438E+03
 3.33730E-01    8.11660E+03
 3.68830E-01    8.07755E+03
 3.87740E-01    8.04391E+03
 4.07620E-01    7.98483E+03
 4.50490E-01    7.89917E+03
 4.97870E-01    7.82850E+03
 5.23400E-01    7.77241E+03
 5.50230E-01    7.71251E+03
 5.78440E-01    7.64913E+03
 6.08100E-01    7.55254E+03
 6.39280E-01    7.52162E+03
 6.72060E-01    7.47352E+03
 7.06510E-01    7.41204E+03
 7.42740E-01    7.34721E+03
 7.80820E-01    7.26963E+03
 8.20850E-01    7.18273E+03
 8.62940E-01    7.09137E+03
 9.07180E-01    6.98707E+03
 9.61640E-01    6.88599E+03
 1.00260E+00    6.73333E+03
 1.10800E+00    6.56369E+03
 1.16480E+00    6.45412E+03
 1.22460E+00    6.34011E+03
 1.28730E+00    6.22024E+03
 1.35340E+00    6.09696E+03
 1.42270E+00    5.95612E+03
 1.49570E+00    5.82419E+03
 1.57240E+00    5.71344E+03
 1.65300E+00    5.54042E+03
 1.73770E+00    5.43708E+03
 1.82680E+00    5.32478E+03
 1.92050E+00    5.19196E+03
 2.01900E+00    5.04492E+03
 2.12250E+00    4.91115E+03
 2.23130E+00    4.76307E+03
 2.30690E+00    4.68933E+03
 2.34570E+00    4.66407E+03
 2.36530E+00    4.65774E+03
 2.38520E+00    4.63198E+03
 2.46600E+00    4.52123E+03
 2.59240E+00    4.44801E+03
 2.72530E+00    4.33801E+03
 2.86500E+00    4.23226E+03
 3.01190E+00    4.13175E+03
 3.16640E+00    4.03910E+03
 3.32870E+00    3.91621E+03
 3.67880E+00    3.78958E+03
 4.06570E+00    3.71628E+03
 4.49330E+00    3.69851E+03
 4.72370E+00    3.70479E+03
 4.96590E+00    3.72445E+03
 5.22050E+00    3.75567E+03
 5.48810E+00    3.79089E+03
 5.76950E+00    3.83472E+03
 6.06530E+00    3.88179E+03
 6.37630E+00    3.92279E+03
 6.59240E+00    3.94823E+03
 6.70320E+00    3.98329E+03
 7.04690E+00    4.03625E+03
 7.40820E+00    4.08397E+03
 7.78800E+00    4.13294E+03
 8.18730E+00    4.17657E+03
 8.60710E+00    4.21825E+03
 9.04840E+00    4.25366E+03
 9.51230E+00    4.28518E+03
 1.00000E+01    4.31111E+03
 1.05130E+01    4.33096E+03
 1.10520E+01    4.34149E+03
 1.16180E+01    4.34411E+03
 1.22140E+01    4.33341E+03
 1.28400E+01    4.31365E+03
 1.34990E+01    4.29029E+03
 1.38400E+01    4.27309E+03
 1.41910E+01    4.24920E+03
 1.45500E+01    4.22453E+03
 1.49180E+01    4.18050E+03
 1.56830E+01    4.11174E+03
 1.64870E+01    4.03193E+03
