# n + Cd106 : (n,non)   
# jendl4.0   S.Kunieda, A.Ichihara, K.Shibata+ EVAL-FEB22
# uncertainties: n
# # energies =   114
#   E(MeV)       xs(mb) 
 7.00000E-04    0.00000E+00
 7.00000E-04    2.90000E+03
 8.00000E-04    2.65900E+03
 9.00000E-04    2.46800E+03
 1.00000E-03    2.31200E+03
 1.25000E-03    2.04907E+03
 1.50000E-03    1.85660E+03
 2.00000E-03    1.58900E+03
 2.50000E-03    1.44376E+03
 3.00000E-03    1.33500E+03
 4.00000E-03    1.19900E+03
 5.00000E-03    1.11000E+03
 6.00000E-03    1.04300E+03
 7.00000E-03    9.89700E+02
 8.00000E-03    9.44500E+02
 9.00000E-03    9.05200E+02
 1.00000E-02    8.70200E+02
 1.25000E-02    7.89393E+02
 1.50000E-02    7.28972E+02
 2.00000E-02    6.42900E+02
 2.50000E-02    5.71264E+02
 3.00000E-02    5.18700E+02
 4.00000E-02    4.39400E+02
 5.00000E-02    3.84600E+02
 6.00000E-02    3.44600E+02
 7.00000E-02    3.14400E+02
 8.00000E-02    2.90700E+02
 9.00000E-02    2.72100E+02
 1.00000E-01    2.57100E+02
 1.20000E-01    2.34902E+02
 1.40000E-01    2.19804E+02
 1.60000E-01    2.09306E+02
 1.80000E-01    2.01608E+02
 2.00000E-01    1.96410E+02
 2.50000E-01    1.89512E+02
 3.00000E-01    1.87613E+02
 3.50000E-01    1.89016E+02
 4.00000E-01    1.92218E+02
 4.50000E-01    1.97222E+02
 5.00000E-01    2.02926E+02
 5.50000E-01    2.09831E+02
 6.00000E-01    2.16736E+02
 6.38665E-01    2.03433E+02
 6.50000E-01    2.86666E+02
 7.00000E-01    5.47731E+02
 7.50000E-01    7.43730E+02
 8.00000E-01    8.79232E+02
 8.50000E-01    9.75234E+02
 9.00000E-01    1.04354E+03
 9.50000E-01    1.09254E+03
 1.00000E+00    1.12865E+03
 1.20000E+00    1.21068E+03
 1.40000E+00    1.25083E+03
 1.50801E+00    1.24010E+03
 1.60000E+00    1.29573E+03
 1.64789E+00    1.29298E+03
 1.73288E+00    1.28812E+03
 1.80000E+00    1.39200E+03
 1.81235E+00    1.39614E+03
 2.00000E+00    1.53770E+03
 2.12457E+00    1.55572E+03
 2.16448E+00    1.57593E+03
 2.20000E+00    1.60546E+03
 2.27365E+00    1.57379E+03
 2.27547E+00    1.57351E+03
 2.32687E+00    1.59387E+03
 2.35276E+00    1.61076E+03
 2.36082E+00    1.61684E+03
 2.36991E+00    1.62576E+03
 2.39320E+00    1.66563E+03
 2.40000E+00    1.68408E+03
 2.40115E+00    1.68464E+03
 2.49193E+00    1.77605E+03
 2.50939E+00    1.79670E+03
 2.51539E+00    1.80672E+03
 2.52549E+00    1.82364E+03
 2.60000E+00    1.96431E+03
 2.80000E+00    2.00188E+03
 3.00000E+00    2.02064E+03
 3.25000E+00    2.02937E+03
 3.50000E+00    2.02754E+03
 3.75000E+00    2.02857E+03
 4.00000E+00    2.03144E+03
 4.25000E+00    2.03839E+03
 4.50000E+00    2.04787E+03
 4.64618E+00    2.05423E+03
 4.75000E+00    2.05875E+03
 5.00000E+00    2.06945E+03
 5.17776E+00    2.07537E+03
 5.50000E+00    2.08610E+03
 6.00000E+00    2.09158E+03
 6.50000E+00    2.08496E+03
 7.00000E+00    2.06909E+03
 7.42351E+00    2.05080E+03
 7.50000E+00    2.04757E+03
 8.00000E+00    2.02405E+03
 8.50000E+00    2.00170E+03
 8.98436E+00    1.98283E+03
 9.00000E+00    1.98222E+03
 9.50000E+00    1.96692E+03
 1.00000E+01    1.95546E+03
 1.09773E+01    1.94263E+03
 1.10000E+01    1.94234E+03
 1.20000E+01    1.93580E+03
 1.30000E+01    1.93118E+03
 1.40000E+01    1.92699E+03
 1.50000E+01    1.92170E+03
 1.53012E+01    1.91932E+03
 1.60000E+01    1.91384E+03
 1.70000E+01    1.90276E+03
 1.80000E+01    1.88866E+03
 1.90000E+01    1.87389E+03
 1.94843E+01    1.86694E+03
 2.00000E+01    1.85969E+03
