# n + Cd106 : (n,xd)    
# jendl4.0   S.Kunieda, A.Ichihara, K.Shibata+ EVAL-FEB22
# 
# # energies =    64
#   E(MeV)        xs(mb) 
 6.38665E-01    0.00000E+00
 6.50000E-01    0.00000E+00
 7.00000E-01    0.00000E+00
 7.50000E-01    0.00000E+00
 8.00000E-01    0.00000E+00
 8.50000E-01    0.00000E+00
 9.00000E-01    0.00000E+00
 9.50000E-01    0.00000E+00
 1.00000E+00    0.00000E+00
 1.20000E+00    0.00000E+00
 1.40000E+00    0.00000E+00
 1.50801E+00    0.00000E+00
 1.60000E+00    0.00000E+00
 1.73288E+00    0.00000E+00
 1.80000E+00    0.00000E+00
 1.81235E+00    0.00000E+00
 2.00000E+00    0.00000E+00
 2.12457E+00    0.00000E+00
 2.16448E+00    0.00000E+00
 2.20000E+00    0.00000E+00
 2.27365E+00    0.00000E+00
 2.27547E+00    0.00000E+00
 2.32687E+00    0.00000E+00
 2.35276E+00    0.00000E+00
 2.36082E+00    0.00000E+00
 2.36991E+00    0.00000E+00
 2.39320E+00    0.00000E+00
 2.40000E+00    0.00000E+00
 2.40115E+00    0.00000E+00
 2.49193E+00    0.00000E+00
 2.50939E+00    0.00000E+00
 2.51539E+00    0.00000E+00
 2.52549E+00    0.00000E+00
 2.60000E+00    0.00000E+00
 2.80000E+00    0.00000E+00
 3.00000E+00    0.00000E+00
 3.25000E+00    0.00000E+00
 3.50000E+00    0.00000E+00
 3.75000E+00    0.00000E+00
 4.00000E+00    0.00000E+00
 4.25000E+00    0.00000E+00
 4.50000E+00    0.00000E+00
 4.75000E+00    0.00000E+00
 5.00000E+00    0.00000E+00
 5.50000E+00    1.76200E-22
 6.00000E+00    2.18000E-15
 6.50000E+00    1.63600E-11
 7.00000E+00    2.36800E-08
 7.50000E+00    2.75600E-06
 8.00000E+00    5.19600E-05
 8.50000E+00    5.16700E-04
 9.00000E+00    3.28000E-03
 9.50000E+00    1.33400E-02
 1.00000E+01    4.14400E-02
 1.10000E+01    2.59100E-01
 1.20000E+01    1.09900E+00
 1.30000E+01    3.49100E+00
 1.40000E+01    8.47100E+00
 1.50000E+01    1.62300E+01
 1.60000E+01    2.61600E+01
 1.70000E+01    3.75100E+01
 1.80000E+01    4.73200E+01
 1.90000E+01    5.96324E+01
 2.00000E+01    7.20200E+01
