# n + Cd106 : (n,el)    
# jendl4.0   S.Kunieda, A.Ichihara, K.Shibata+ EVAL-FEB22
# uncertainties: n
# # energies =   171
#   E(MeV)       xs(mb) 
 1.00000E-11    8.69648E+03
 1.00000E-07    5.03636E+03
 4.13990E-07    5.03328E+03
 5.31580E-07    5.03249E+03
 6.82560E-07    5.03146E+03
 8.76420E-07    5.03015E+03
 1.12540E-06    5.02847E+03
 1.44500E-06    5.02671E+03
 1.85540E-06    5.02495E+03
 2.37240E-06    5.02266E+03
 3.05900E-06    5.01970E+03
 3.92790E-06    5.01592E+03
 5.04350E-06    5.01108E+03
 6.47600E-06    5.00485E+03
 8.31530E-06    4.99686E+03
 1.06770E-05    4.98660E+03
 1.37100E-05    4.97342E+03
 1.76030E-05    4.95650E+03
 2.26030E-05    4.93501E+03
 2.92030E-05    4.91468E+03
 3.72670E-05    4.89115E+03
 4.78510E-05    4.86060E+03
 6.14420E-05    4.82630E+03
 7.88930E-05    4.79217E+03
 1.01300E-04    4.74868E+03
 1.30070E-04    4.69992E+03
 1.67020E-04    4.64188E+03
 2.14450E-04    4.56357E+03
 2.75360E-04    4.43238E+03
 3.53580E-04    3.83334E+03
 4.54000E-04    7.97482E+03
 5.82950E-04    3.58765E+04
 7.48520E-04    1.03068E+04
 9.61120E-04    9.77741E+03
 1.23410E-03    9.31775E+03
 1.58460E-03    8.88042E+03
 2.03470E-03    8.59448E+03
 2.24870E-03    8.44356E+03
 2.48520E-03    8.33193E+03
 2.61260E-03    8.25832E+03
 2.74650E-03    8.14957E+03
 3.03540E-03    8.00863E+03
 3.35460E-03    7.87173E+03
 3.70740E-03    7.70624E+03
 4.30740E-03    7.47249E+03
 5.53080E-03    7.24494E+03
 7.10170E-03    7.09528E+03
 9.11880E-03    7.01608E+03
 1.17090E-02    6.99939E+03
 1.50340E-02    6.98713E+03
 1.93050E-02    6.98776E+03
 2.18750E-02    7.01317E+03
 2.35790E-02    7.02677E+03
 2.41760E-02    7.03334E+03
 2.47880E-02    7.04340E+03
 2.60580E-02    7.05527E+03
 2.70000E-02    7.06728E+03
 2.85000E-02    7.09272E+03
 3.18280E-02    7.13270E+03
 3.43070E-02    7.19027E+03
 4.08680E-02    7.26719E+03
 4.63090E-02    7.33704E+03
 5.24750E-02    7.39577E+03
 5.65620E-02    7.47106E+03
 6.73790E-02    7.54473E+03
 7.20000E-02    7.59599E+03
 7.95000E-02    7.63820E+03
 8.25000E-02    7.66366E+03
 8.65170E-02    7.71471E+03
 9.80370E-02    7.78404E+03
 1.11090E-01    7.82816E+03
 1.16790E-01    7.85323E+03
 1.22770E-01    7.87458E+03
 1.29070E-01    7.89538E+03
 1.35690E-01    7.91597E+03
 1.42640E-01    7.93373E+03
 1.49960E-01    7.95135E+03
 1.57640E-01    7.96848E+03
 1.65730E-01    7.98240E+03
 1.74220E-01    7.99648E+03
 1.83160E-01    8.00760E+03
 1.92550E-01    8.01795E+03
 2.02420E-01    8.02312E+03
 2.12800E-01    8.02610E+03
 2.23710E-01    8.02923E+03
 2.35180E-01    8.03252E+03
 2.47240E-01    8.02824E+03
 2.73240E-01    8.01508E+03
 2.87250E-01    8.00803E+03
 2.94520E-01    8.00473E+03
 2.97200E-01    8.00342E+03
 2.98500E-01    8.00136E+03
 3.01970E-01    7.97631E+03
 3.33730E-01    7.92766E+03
 3.68830E-01    7.88648E+03
 3.87740E-01    7.84953E+03
 4.07620E-01    7.78892E+03
 4.50490E-01    7.70091E+03
 4.97870E-01    7.62320E+03
 5.23400E-01    7.56371E+03
 5.50230E-01    7.50118E+03
 5.78440E-01    7.43515E+03
 6.08100E-01    7.34467E+03
 6.39280E-01    7.21111E+03
 6.72060E-01    6.98879E+03
 7.06510E-01    6.77696E+03
 7.42740E-01    6.57798E+03
 7.80820E-01    6.39966E+03
 8.20850E-01    6.23410E+03
 8.62940E-01    6.07569E+03
 9.07180E-01    5.91542E+03
 9.61640E-01    5.77293E+03
 1.00260E+00    5.57784E+03
 1.10800E+00    5.37885E+03
 1.16480E+00    5.24599E+03
 1.22460E+00    5.11580E+03
 1.28730E+00    4.98084E+03
 1.35340E+00    4.84819E+03
 1.42270E+00    4.71136E+03
 1.49570E+00    4.56929E+03
 1.57240E+00    4.41950E+03
 1.65300E+00    4.24945E+03
 1.73770E+00    4.07671E+03
 1.82680E+00    3.87944E+03
 1.92050E+00    3.67757E+03
 2.01900E+00    3.49792E+03
 2.12250E+00    3.32578E+03
 2.23130E+00    3.18259E+03
 2.30690E+00    3.09494E+03
 2.34570E+00    3.05027E+03
 2.36530E+00    3.02107E+03
 2.38520E+00    2.92259E+03
 2.46600E+00    2.68377E+03
 2.59240E+00    2.47121E+03
 2.72530E+00    2.33645E+03
 2.86500E+00    2.21515E+03
 3.01190E+00    2.10705E+03
 3.16640E+00    2.00846E+03
 3.32870E+00    1.88726E+03
 3.67880E+00    1.75827E+03
 4.06570E+00    1.67576E+03
 4.49330E+00    1.64471E+03
 4.72370E+00    1.64058E+03
 4.96590E+00    1.65071E+03
 5.22050E+00    1.67196E+03
 5.48810E+00    1.70249E+03
 5.76950E+00    1.74428E+03
 6.06530E+00    1.79435E+03
 6.37630E+00    1.84183E+03
 6.59240E+00    1.87129E+03
 6.70320E+00    1.91243E+03
 7.04690E+00    1.97677E+03
 7.40820E+00    2.04363E+03
 7.78800E+00    2.10869E+03
 8.18730E+00    2.17180E+03
 8.60710E+00    2.23006E+03
 9.04840E+00    2.28084E+03
 9.51230E+00    2.32558E+03
 1.00000E+01    2.35922E+03
 1.05130E+01    2.38590E+03
 1.10520E+01    2.40132E+03
 1.16180E+01    2.40767E+03
 1.22140E+01    2.40004E+03
 1.28400E+01    2.38317E+03
 1.34990E+01    2.36192E+03
 1.38400E+01    2.34622E+03
 1.41910E+01    2.32415E+03
 1.45500E+01    2.30141E+03
 1.49180E+01    2.26115E+03
 1.56830E+01    2.19894E+03
 1.64870E+01    2.12819E+03
