# n + Ge 74 : (n,tot)   
# endfb8.0   Iwamoto,Herman,Mughabghab+        EVAL-AUG04
# uncertainties: n
# # energies =   171
#   E(MeV)       xs(mb) 
 1.00000E-11    1.94409E+04
 1.00000E-07    7.36690E+03
 4.13990E-07    7.29596E+03
 5.31580E-07    7.28081E+03
 6.82560E-07    7.26735E+03
 8.76420E-07    7.25540E+03
 1.12540E-06    7.24643E+03
 1.44500E-06    7.23746E+03
 1.85540E-06    7.22647E+03
 2.37240E-06    7.22000E+03
 3.05900E-06    7.21453E+03
 3.92790E-06    7.20754E+03
 5.04350E-06    7.19857E+03
 6.47600E-06    7.18705E+03
 8.31530E-06    7.17522E+03
 1.06770E-05    7.16694E+03
 1.37100E-05    7.15655E+03
 1.76030E-05    7.14322E+03
 2.26030E-05    7.12586E+03
 2.92030E-05    7.10383E+03
 3.72670E-05    7.07590E+03
 4.78510E-05    7.03967E+03
 6.14420E-05    6.99787E+03
 7.88930E-05    6.94938E+03
 1.01300E-04    6.88712E+03
 1.30070E-04    6.80717E+03
 1.67020E-04    6.70599E+03
 2.14450E-04    6.59065E+03
 2.75360E-04    6.44634E+03
 3.53580E-04    6.27535E+03
 4.54000E-04    6.07292E+03
 5.82950E-04    5.83887E+03
 7.48520E-04    5.56554E+03
 9.61120E-04    5.24564E+03
 1.23410E-03    4.85917E+03
 1.58460E-03    4.34982E+03
 2.03470E-03    3.82912E+03
 2.24870E-03    3.31759E+03
 2.48520E-03    2.63468E+03
 2.61260E-03    1.62231E+03
 2.74650E-03    4.44413E+04
 3.03540E-03    1.02854E+04
 3.35460E-03    3.85399E+03
 3.70740E-03    2.45040E+03
 4.30740E-03    5.59027E+04
 5.53080E-03    1.24951E+04
 7.10170E-03    1.11924E+04
 9.11880E-03    1.04405E+04
 1.17090E-02    9.78073E+03
 1.50340E-02    9.20327E+03
 1.93050E-02    8.81427E+03
 2.18750E-02    8.62280E+03
 2.35790E-02    8.53050E+03
 2.41760E-02    8.48592E+03
 2.47880E-02    8.41940E+03
 2.60580E-02    8.34522E+03
 2.70000E-02    8.26944E+03
 2.85000E-02    8.13490E+03
 3.18280E-02    7.99011E+03
 3.43070E-02    7.80567E+03
 4.08680E-02    7.59794E+03
 4.63090E-02    7.43660E+03
 5.24750E-02    7.31419E+03
 5.65620E-02    7.17025E+03
 6.73790E-02    7.03746E+03
 7.20000E-02    6.95069E+03
 7.95000E-02    6.88106E+03
 8.25000E-02    6.83893E+03
 8.65170E-02    6.75518E+03
 9.80370E-02    6.63792E+03
 1.11090E-01    6.55829E+03
 1.16790E-01    6.51378E+03
 1.22770E-01    6.47009E+03
 1.29070E-01    6.42724E+03
 1.35690E-01    6.38378E+03
 1.42640E-01    6.34145E+03
 1.49960E-01    6.29926E+03
 1.57640E-01    6.25740E+03
 1.65730E-01    6.21615E+03
 1.74220E-01    6.17486E+03
 1.83160E-01    6.13382E+03
 1.92550E-01    6.09305E+03
 2.02420E-01    6.05234E+03
 2.12800E-01    6.01163E+03
 2.23710E-01    5.97095E+03
 2.35180E-01    5.93028E+03
 2.47240E-01    5.86918E+03
 2.73240E-01    5.80819E+03
 2.87250E-01    5.77764E+03
 2.94520E-01    5.76339E+03
 2.97200E-01    5.75770E+03
 2.98500E-01    5.75102E+03
 3.01970E-01    5.70547E+03
 3.33730E-01    5.62256E+03
 3.68830E-01    5.55956E+03
 3.87740E-01    5.51717E+03
 4.07620E-01    5.45288E+03
 4.50490E-01    5.36560E+03
 4.97870E-01    5.29900E+03
 5.23400E-01    5.25412E+03
 5.50230E-01    5.20862E+03
 5.78440E-01    5.16399E+03
 6.08100E-01    5.10652E+03
 6.39280E-01    5.02041E+03
 6.72060E-01    4.92990E+03
 7.06510E-01    4.83856E+03
 7.42740E-01    4.75154E+03
 7.80820E-01    4.66050E+03
 8.20850E-01    4.57205E+03
 8.62940E-01    4.48426E+03
 9.07180E-01    4.38830E+03
 9.61640E-01    4.30311E+03
 1.00260E+00    4.18695E+03
 1.10800E+00    4.06638E+03
 1.16480E+00    3.98135E+03
 1.22460E+00    3.90830E+03
 1.28730E+00    3.83793E+03
 1.35340E+00    3.76433E+03
 1.42270E+00    3.70199E+03
 1.49570E+00    3.64428E+03
 1.57240E+00    3.58654E+03
 1.65300E+00    3.54277E+03
 1.73770E+00    3.49974E+03
 1.82680E+00    3.46776E+03
 1.92050E+00    3.44180E+03
 2.01900E+00    3.42417E+03
 2.12250E+00    3.41445E+03
 2.23130E+00    3.41546E+03
 2.30690E+00    3.41879E+03
 2.34570E+00    3.42049E+03
 2.36530E+00    3.42164E+03
 2.38520E+00    3.42522E+03
 2.46600E+00    3.44056E+03
 2.59240E+00    3.46295E+03
 2.72530E+00    3.49313E+03
 2.86500E+00    3.52589E+03
 3.01190E+00    3.56035E+03
 3.16640E+00    3.59656E+03
 3.32870E+00    3.65464E+03
 3.67880E+00    3.73434E+03
 4.06570E+00    3.80327E+03
 4.49330E+00    3.85054E+03
 4.72370E+00    3.87654E+03
 4.96590E+00    3.90116E+03
 5.22050E+00    3.91915E+03
 5.48810E+00    3.93638E+03
 5.76950E+00    3.95450E+03
 6.06530E+00    3.96776E+03
 6.37630E+00    3.97309E+03
 6.59240E+00    3.97638E+03
 6.70320E+00    3.98080E+03
 7.04690E+00    3.97929E+03
 7.40820E+00    3.97246E+03
 7.78800E+00    3.96508E+03
 8.18730E+00    3.94932E+03
 8.60710E+00    3.92856E+03
 9.04840E+00    3.90459E+03
 9.51230E+00    3.87275E+03
 1.00000E+01    3.83333E+03
 1.05130E+01    3.78626E+03
 1.10520E+01    3.72983E+03
 1.16180E+01    3.66472E+03
 1.22140E+01    3.58701E+03
 1.28400E+01    3.49942E+03
 1.34990E+01    3.42525E+03
 1.38400E+01    3.37390E+03
 1.41910E+01    3.32122E+03
 1.45500E+01    3.26727E+03
 1.49180E+01    3.18515E+03
 1.56830E+01    3.07515E+03
 1.64870E+01    2.97040E+03
