# n + Ge 74 : (n,xa)    
# endfb8.0   Iwamoto,Herman,Mughabghab+        EVAL-AUG04
# 
# # energies =    74
#   E(MeV)        xs(mb) 
 6.03930E-01    2.75079E-12
 7.00000E-01    5.89810E-12
 8.00000E-01    1.00390E-11
 9.00000E-01    1.36950E-11
 1.00000E+00    2.45770E-11
 1.20000E+00    4.50210E-11
 1.22063E+00    4.89178E-11
 1.40000E+00    8.27990E-11
 1.48377E+00    1.12127E-10
 1.50303E+00    1.18870E-10
 1.60000E+00    1.52820E-10
 1.72026E+00    2.31079E-10
 1.74844E+00    2.49417E-10
 1.80000E+00    2.82970E-10
 1.93910E+00    4.51636E-10
 2.00000E+00    5.25480E-10
 2.19454E+00    9.65977E-10
 2.19485E+00    9.66679E-10
 2.20000E+00    9.78340E-10
 2.22789E+00    1.09652E-09
 2.25820E+00    1.22495E-09
 2.33138E+00    1.53504E-09
 2.40000E+00    1.82580E-09
 2.52398E+00    2.81057E-09
 2.57091E+00    3.18334E-09
 2.60000E+00    3.41440E-09
 2.60436E+00    3.47944E-09
 2.63578E+00    3.94810E-09
 2.70603E+00    4.99594E-09
 2.73046E+00    5.36034E-09
 2.73370E+00    5.40867E-09
 2.74799E+00    5.62182E-09
 2.78955E+00    6.24173E-09
 2.80000E+00    6.39760E-09
 2.86710E+00    8.27989E-09
 2.87460E+00    8.49028E-09
 2.88078E+00    8.66364E-09
 2.90004E+00    9.20392E-09
 2.91626E+00    9.65893E-09
 2.96542E+00    1.10380E-08
 2.97556E+00    1.13224E-08
 2.97606E+00    1.13364E-08
 2.98012E+00    1.14503E-08
 2.98975E+00    1.17205E-08
 3.00000E+00    1.20080E-08
 3.00343E+00    1.21892E-08
 3.01407E+00    1.27513E-08
 3.04600E+00    1.44382E-08
 3.05817E+00    1.50811E-08
 3.07540E+00    1.59914E-08
 3.09020E+00    1.67733E-08
 3.10186E+00    1.73893E-08
 3.12334E+00    1.85240E-08
 3.20000E+00    2.25740E-08
 3.50000E+00    5.83410E-08
 3.70000E+00    2.19580E-07
 4.00000E+00    1.44993E-06
 4.50000E+00    2.18248E-05
 5.00000E+00    1.98334E-04
 6.00000E+00    4.78400E-03
 7.00000E+00    4.33218E-02
 8.00000E+00    1.98394E-01
 9.00000E+00    5.40523E-01
 1.00000E+01    1.00405E+00
 1.10000E+01    1.51497E+00
 1.20000E+01    2.12812E+00
 1.30000E+01    2.88193E+00
 1.40000E+01    4.02077E+00
 1.50000E+01    5.28500E+00
 1.60000E+01    7.12642E+00
 1.70000E+01    9.35508E+00
 1.80000E+01    1.20173E+01
 1.90000E+01    1.49857E+01
 2.00000E+01    1.82003E+01
