# n + Cr 50 : (n,tot)   
# jendl.ad   N.Iwamoto                         EVAL-Dec09
# uncertainties: n
# # energies =    69
#   E(MeV)       xs(mb) 
 1.00000E-10    1.07391E+05
 5.00000E-09    2.92405E+04
 1.00000E-08    2.21451E+04
 1.50000E-08    1.86058E+04
 2.00000E-08    1.63699E+04
 2.50000E-08    1.47901E+04
 3.00000E-08    1.35947E+04
 3.50000E-08    1.24979E+04
 4.20000E-08    1.14314E+04
 5.00000E-08    1.05452E+04
 5.80000E-08    9.80086E+03
 6.70000E-08    9.04375E+03
 8.00000E-08    8.18361E+03
 1.00000E-07    7.12054E+03
 1.40000E-07    6.14283E+03
 1.80000E-07    5.48607E+03
 2.20000E-07    5.05217E+03
 2.50000E-07    4.75560E+03
 2.80000E-07    4.54285E+03
 3.00000E-07    4.39332E+03
 3.20000E-07    4.22712E+03
 3.50000E-07    3.99807E+03
 4.00000E-07    3.65934E+03
 5.00000E-07    3.27265E+03
 6.25000E-07    2.92709E+03
 7.80000E-07    2.71116E+03
 8.50000E-07    2.60743E+03
 9.10000E-07    2.53509E+03
 9.50000E-07    2.49411E+03
 9.72000E-07    2.46426E+03
 9.96000E-07    2.43429E+03
 1.02000E-06    2.40598E+03
 1.04500E-06    2.37657E+03
 1.07100E-06    2.34691E+03
 1.09700E-06    2.31975E+03
 1.12300E-06    2.29259E+03
 1.15000E-06    2.20974E+03
 1.30000E-06    2.06714E+03
 1.50000E-06    1.83486E+03
 2.10000E-06    1.59673E+03
 2.60000E-06    1.42490E+03
 3.30000E-06    1.27871E+03
 4.00000E-06    9.76494E+02
 9.87700E-06    6.81299E+02
 1.59680E-05    5.21542E+02
 2.77000E-05    3.89259E+02
 4.80520E-05    2.95489E+02
 7.55014E-05    2.15150E+02
 1.48728E-04    1.36781E+02
 3.67262E-04    8.61101E+01
 9.06898E-04    7.08281E+01
 1.42510E-03    7.49879E+01
 2.23945E-03    1.10137E+02
 3.51910E-03    4.47313E+02
 5.53000E-03    3.36906E+02
 9.11800E-03    1.63635E+01
 1.50300E-02    2.90225E+01
 2.47800E-02    4.45396E+01
 4.08500E-02    1.84742E+01
 6.73400E-02    1.19010E+01
 1.11000E-01    1.23062E+01
 1.83000E-01    6.95462E+00
 3.02000E-01    1.39294E+00
 5.00000E-01    5.89403E+00
 8.21000E-01    4.04817E+00
 1.35300E+00    3.53240E+00
 2.23100E+00    3.63324E+00
 3.67900E+00    2.07681E+00
 6.06500E+00    3.03752E+02
