# n + Cr 50 : (n,p)     
# jendl.ad   N.Iwamoto                         EVAL-Dec09
# uncertainties: n
# # energies =   126
#   E(MeV)       xs(mb) 
 2.60760E-01    0.00000E+00
 4.91528E-01    1.45139E-04
 5.87386E-01    1.07266E-03
 6.23338E-01    1.97875E-03
 6.57004E-01    3.54587E-03
 1.11395E+00    3.43882E-02
 1.18914E+00    3.97455E-02
 1.18924E+00    3.97527E-02
 1.30000E+00    4.81401E-02
 1.40000E+00    5.67653E-02
 1.50000E+00    6.66392E-02
 1.58844E+00    7.70925E-02
 1.60000E+00    7.87898E-02
 1.61915E+00    8.44050E-02
 1.69097E+00    1.06805E-01
 1.70000E+00    1.09697E-01
 1.78626E+00    2.19041E-01
 1.80000E+00    2.36841E-01
 1.80982E+00    2.59652E-01
 1.85400E+00    3.63496E-01
 1.90000E+00    4.72507E-01
 1.91928E+00    5.34639E-01
 1.97183E+00    6.47290E-01
 1.99530E+00    6.97724E-01
 1.99825E+00    7.04095E-01
 2.00000E+00    7.07878E-01
 2.01437E+00    8.00979E-01
 2.02019E+00    8.38804E-01
 2.02080E+00    8.42768E-01
 2.04763E+00    1.01742E+00
 2.05783E+00    1.08397E+00
 2.05865E+00    1.08932E+00
 2.10813E+00    1.41292E+00
 2.18118E+00    1.89165E+00
 2.23586E+00    2.25005E+00
 2.25000E+00    2.34292E+00
 2.25422E+00    2.40961E+00
 2.33992E+00    3.76488E+00
 2.33993E+00    3.76503E+00
 2.41439E+00    4.94322E+00
 2.43684E+00    5.29858E+00
 2.46642E+00    5.76693E+00
 2.50000E+00    6.29868E+00
 2.61537E+00    9.85779E+00
 2.62006E+00    1.00025E+01
 2.65210E+00    1.09911E+01
 2.70821E+00    1.27225E+01
 2.73371E+00    1.35093E+01
 2.73473E+00    1.35408E+01
 2.75000E+00    1.40121E+01
 2.76534E+00    1.48074E+01
 2.78911E+00    1.60397E+01
 2.79390E+00    1.62881E+01
 2.98356E+00    2.61212E+01
 3.00000E+00    2.58002E+01
 3.22494E+00    4.05333E+01
 3.22758E+00    4.00402E+01
 3.39171E+00    5.19640E+01
 3.50000E+00    6.08066E+01
 3.66714E+00    7.83710E+01
 3.67474E+00    7.87427E+01
 3.68423E+00    7.93885E+01
 3.70280E+00    8.06632E+01
 3.76656E+00    8.57835E+01
 3.76860E+00    8.57874E+01
 3.77238E+00    8.59452E+01
 3.86889E+00    9.16157E+01
 3.90265E+00    9.44508E+01
 3.90429E+00    9.45105E+01
 3.92194E+00    9.58476E+01
 3.92775E+00    9.61201E+01
 3.95315E+00    9.80592E+01
 3.97397E+00    9.98790E+01
 3.97672E+00    9.91715E+01
 4.00000E+00    9.96364E+01
 4.01722E+00    1.00739E+02
 4.12159E+00    1.06238E+02
 4.13352E+00    1.07072E+02
 4.15260E+00    1.05625E+02
 4.21310E+00    1.07244E+02
 4.27758E+00    1.11141E+02
 4.29196E+00    1.10975E+02
 4.36848E+00    1.14346E+02
 4.43785E+00    1.17615E+02
 4.45111E+00    1.18472E+02
 4.50000E+00    1.22024E+02
 4.61526E+00    1.31613E+02
 4.63801E+00    1.33843E+02
 4.74748E+00    1.40862E+02
 4.77043E+00    1.42726E+02
 4.82348E+00    1.45669E+02
 4.83572E+00    1.46770E+02
 4.84083E+00    1.47008E+02
 4.86837E+00    1.48907E+02
 4.89796E+00    1.50053E+02
 5.00000E+00    1.56588E+02
 5.50000E+00    1.92595E+02
 6.00000E+00    2.27123E+02
 6.50000E+00    2.58905E+02
 7.00000E+00    2.86875E+02
 7.50000E+00    3.10942E+02
 8.00000E+00    3.31335E+02
 8.50000E+00    3.44296E+02
 9.00000E+00    3.60081E+02
 9.50000E+00    3.74664E+02
 1.00000E+01    3.88718E+02
 1.05000E+01    4.04147E+02
 1.10000E+01    4.17458E+02
 1.15000E+01    4.30079E+02
 1.20000E+01    4.40033E+02
 1.25000E+01    4.43821E+02
 1.30000E+01    4.35885E+02
 1.35000E+01    4.14253E+02
 1.40000E+01    3.81738E+02
 1.45000E+01    3.42090E+02
 1.50000E+01    2.99681E+02
 1.55000E+01    2.58698E+02
 1.60000E+01    2.21100E+02
 1.65000E+01    1.86912E+02
 1.70000E+01    1.58069E+02
 1.75000E+01    1.34539E+02
 1.80000E+01    1.15674E+02
 1.85000E+01    1.00475E+02
 1.90000E+01    8.84605E+01
 1.95000E+01    7.89366E+01
 2.00000E+01    7.13002E+01
