# n + Gd160 : (n,n'05)  
# jendl4.0   N.Iwamoto,A.Zukeran,K.Shibata     EVAL-Dec09
# uncertainties: n
# # energies =    72
#   E(MeV)       xs(mb) 
 9.18758E-01    0.00000E+00
 9.51966E-01    1.01041E+02
 9.94634E-01    1.61742E+02
 1.00000E+00    1.65872E+02
 1.02241E+00    1.87764E+02
 1.06421E+00    2.21117E+02
 1.07717E+00    2.28020E+02
 1.10000E+00    2.39523E+02
 1.15502E+00    2.64902E+02
 1.20000E+00    2.80469E+02
 1.20021E+00    2.80531E+02
 1.23200E+00    2.89374E+02
 1.26902E+00    2.90070E+02
 1.29824E+00    2.94148E+02
 1.30000E+00    2.93852E+02
 1.30374E+00    2.93967E+02
 1.30890E+00    2.94259E+02
 1.33409E+00    2.94610E+02
 1.33950E+00    2.93356E+02
 1.35961E+00    2.92000E+02
 1.38574E+00    2.85635E+02
 1.38826E+00    2.83793E+02
 1.39740E+00    2.79965E+02
 1.40000E+00    2.77847E+02
 1.40158E+00    2.77080E+02
 1.43687E+00    2.66695E+02
 1.44505E+00    2.64896E+02
 1.46951E+00    2.56977E+02
 1.50000E+00    2.49410E+02
 1.60000E+00    2.24852E+02
 1.70000E+00    1.98244E+02
 1.80000E+00    1.75172E+02
 1.90000E+00    1.54872E+02
 2.00000E+00    1.35106E+02
 2.25000E+00    9.85605E+01
 2.50000E+00    6.61610E+01
 2.75000E+00    4.71833E+01
 3.00000E+00    3.16779E+01
 3.50000E+00    1.52123E+01
 4.00000E+00    7.26332E+00
 4.50000E+00    3.45651E+00
 5.00000E+00    1.66007E+00
 5.50000E+00    8.24140E-01
 6.00000E+00    4.36835E-01
 6.50000E+00    2.56244E-01
 7.00000E+00    1.69680E-01
 7.50000E+00    1.26061E-01
 8.00000E+00    1.02159E-01
 8.50000E+00    8.76094E-02
 9.00000E+00    7.76287E-02
 9.50000E+00    7.00773E-02
 1.00000E+01    6.39468E-02
 1.05000E+01    5.87566E-02
 1.10000E+01    5.42389E-02
 1.15000E+01    5.02346E-02
 1.20000E+01    4.66636E-02
 1.25000E+01    4.34105E-02
 1.30000E+01    4.04251E-02
 1.35000E+01    3.78478E-02
 1.40000E+01    3.58085E-02
 1.45000E+01    3.42030E-02
 1.50000E+01    3.27037E-02
 1.55000E+01    3.19049E-02
 1.60000E+01    3.14756E-02
 1.65000E+01    2.94445E-02
 1.70000E+01    2.61723E-02
 1.75000E+01    2.66111E-02
 1.80000E+01    2.62381E-02
 1.85000E+01    2.51386E-02
 1.90000E+01    2.31878E-02
 1.95000E+01    2.10937E-02
 2.00000E+01    2.15916E-02
