# n + Gd160 : (n,xa)    
# jendl4.0   N.Iwamoto,A.Zukeran,K.Shibata     EVAL-Dec09
# 
# # energies =   103
#   E(MeV)        xs(mb) 
 7.57347E-02    1.25210E-12
 8.00000E-02    1.02560E-12
 9.00000E-02    9.41070E-13
 1.00000E-01    9.02410E-13
 1.05000E-01    8.95220E-13
 1.10000E-01    8.88030E-13
 1.20000E-01    8.88960E-13
 1.30000E-01    9.01280E-13
 1.40000E-01    9.22050E-13
 1.50000E-01    9.51310E-13
 1.60000E-01    9.87800E-13
 1.70000E-01    1.03280E-12
 1.80000E-01    1.08440E-12
 1.90000E-01    1.14320E-12
 2.00000E-01    1.21230E-12
 2.25000E-01    1.40160E-12
 2.50000E-01    1.64007E-12
 2.50087E-01    1.64090E-12
 2.75000E-01    1.93030E-12
 3.00000E-01    2.29680E-12
 4.00000E-01    4.66070E-12
 5.00000E-01    9.87100E-12
 5.17996E-01    1.12820E-11
 5.17997E-01    1.12821E-11
 6.00000E-01    2.07230E-11
 7.00000E-01    4.32315E-11
 8.00000E-01    8.92460E-11
 8.73374E-01    1.50900E-10
 9.00000E-01    1.81600E-10
 9.18758E-01    2.09030E-10
 9.51966E-01    2.47250E-10
 9.94634E-01    3.19920E-10
 1.00000E+00    3.24370E-10
 1.02241E+00    3.68370E-10
 1.06421E+00    4.56725E-10
 1.07717E+00    4.84120E-10
 1.10000E+00    5.44700E-10
 1.15502E+00    7.39690E-10
 1.20000E+00    9.43121E-10
 1.20021E+00    9.44070E-10
 1.23200E+00    1.13800E-09
 1.26902E+00    1.33280E-09
 1.29824E+00    1.54100E-09
 1.30000E+00    1.55160E-09
 1.30374E+00    1.60890E-09
 1.30890E+00    1.64780E-09
 1.33409E+00    1.85940E-09
 1.33950E+00    1.89580E-09
 1.33951E+00    1.89589E-09
 1.35961E+00    2.07642E-09
 1.38574E+00    2.31040E-09
 1.38575E+00    2.31045E-09
 1.38826E+00    2.32400E-09
 1.39740E+00    2.39180E-09
 1.40000E+00    2.40370E-09
 1.40158E+00    2.41550E-09
 1.43687E+00    2.81573E-09
 1.44505E+00    2.90850E-09
 1.46951E+00    3.17880E-09
 1.50000E+00    3.58350E-09
 1.60000E+00    5.45600E-09
 1.70000E+00    8.18340E-09
 1.80000E+00    1.21590E-08
 1.90000E+00    1.78580E-08
 2.00000E+00    2.59400E-08
 2.25000E+00    6.73490E-08
 2.50000E+00    1.46420E-07
 2.75000E+00    3.34822E-07
 3.00000E+00    6.45612E-07
 3.50000E+00    2.29931E-06
 4.00000E+00    6.76911E-06
 4.50000E+00    1.70084E-05
 5.00000E+00    3.77382E-05
 5.50000E+00    7.61166E-05
 6.00000E+00    1.43922E-04
 6.50000E+00    2.62803E-04
 7.00000E+00    4.76357E-04
 7.50000E+00    8.73442E-04
 8.00000E+00    1.63588E-03
 8.50000E+00    3.12295E-03
 9.00000E+00    6.00386E-03
 9.50000E+00    1.12400E-02
 1.00000E+01    2.12274E-02
 1.05000E+01    3.92206E-02
 1.10000E+01    7.07032E-02
 1.15000E+01    1.23935E-01
 1.20000E+01    2.10754E-01
 1.25000E+01    3.46869E-01
 1.30000E+01    5.51291E-01
 1.35000E+01    8.44657E-01
 1.40000E+01    1.24673E+00
 1.45000E+01    1.77389E+00
 1.50000E+01    2.43728E+00
 1.55000E+01    3.24360E+00
 1.60000E+01    4.18558E+00
 1.65000E+01    5.26646E+00
 1.70000E+01    6.46704E+00
 1.75000E+01    7.78196E+00
 1.80000E+01    9.19484E+00
 1.85000E+01    1.06879E+01
 1.90000E+01    1.22460E+01
 1.95000E+01    1.38535E+01
 2.00000E+01    1.55011E+01
