# n + Gd160 : (n,el)    
# jendl4.0   N.Iwamoto,A.Zukeran,K.Shibata     EVAL-Dec09
# uncertainties: n
# # energies =   171
#   E(MeV)       xs(mb) 
 1.00000E-11    6.34072E+03
 1.00000E-07    4.10471E+03
 4.13990E-07    4.10200E+03
 5.31580E-07    4.10101E+03
 6.82560E-07    4.09974E+03
 8.76420E-07    4.09810E+03
 1.12540E-06    4.09601E+03
 1.44500E-06    4.09335E+03
 1.85540E-06    4.09060E+03
 2.37240E-06    4.08733E+03
 3.05900E-06    4.08310E+03
 3.92790E-06    4.07770E+03
 5.04350E-06    4.07077E+03
 6.47600E-06    4.06186E+03
 8.31530E-06    4.05043E+03
 1.06770E-05    4.03575E+03
 1.37100E-05    4.01697E+03
 1.76030E-05    3.99769E+03
 2.26030E-05    3.97591E+03
 2.92030E-05    3.94829E+03
 3.72670E-05    3.91517E+03
 4.78510E-05    3.88078E+03
 6.14420E-05    3.83765E+03
 7.88930E-05    3.78222E+03
 1.01300E-04    3.71030E+03
 1.30070E-04    3.60766E+03
 1.67020E-04    3.28070E+03
 2.14450E-04    1.03183E+04
 2.75360E-04    3.66907E+03
 3.53580E-04    6.99690E+04
 4.54000E-04    1.29389E+05
 5.82950E-04    4.12572E+04
 7.48520E-04    6.23807E+04
 9.61120E-04    1.38082E+04
 1.23410E-03    5.08758E+04
 1.58460E-03    4.73972E+04
 2.03470E-03    5.16648E+03
 2.24870E-03    1.84915E+04
 2.48520E-03    7.87100E+04
 2.61260E-03    4.71761E+04
 2.74650E-03    2.06270E+04
 3.03540E-03    1.45965E+04
 3.35460E-03    2.33267E+04
 3.70740E-03    1.37585E+04
 4.30740E-03    1.81101E+04
 5.53080E-03    1.66402E+04
 7.10170E-03    1.53357E+04
 9.11880E-03    1.41949E+04
 1.17090E-02    1.32317E+04
 1.50340E-02    1.23422E+04
 1.93050E-02    1.17246E+04
 2.18750E-02    1.14358E+04
 2.35790E-02    1.12950E+04
 2.41760E-02    1.12253E+04
 2.47880E-02    1.11222E+04
 2.60580E-02    1.10050E+04
 2.70000E-02    1.08838E+04
 2.85000E-02    1.06675E+04
 3.18280E-02    1.04384E+04
 3.43070E-02    1.01407E+04
 4.08680E-02    9.81310E+03
 4.63090E-02    9.56149E+03
 5.24750E-02    9.36439E+03
 5.65620E-02    9.13003E+03
 6.73790E-02    8.91999E+03
 7.20000E-02    8.77690E+03
 7.95000E-02    8.63258E+03
 8.25000E-02    8.53997E+03
 8.65170E-02    8.35244E+03
 9.80370E-02    8.09511E+03
 1.11090E-01    7.93155E+03
 1.16790E-01    7.84023E+03
 1.22770E-01    7.74995E+03
 1.29070E-01    7.66037E+03
 1.35690E-01    7.57168E+03
 1.42640E-01    7.48417E+03
 1.49960E-01    7.39852E+03
 1.57640E-01    7.31765E+03
 1.65730E-01    7.24653E+03
 1.74220E-01    7.17668E+03
 1.83160E-01    7.10753E+03
 1.92550E-01    7.03854E+03
 2.02420E-01    6.96900E+03
 2.12800E-01    6.89985E+03
 2.23710E-01    6.83129E+03
 2.35180E-01    6.76300E+03
 2.47240E-01    6.67839E+03
 2.73240E-01    6.60654E+03
 2.87250E-01    6.56864E+03
 2.94520E-01    6.55095E+03
 2.97200E-01    6.54388E+03
 2.98500E-01    6.53543E+03
 3.01970E-01    6.47861E+03
 3.33730E-01    6.38311E+03
 3.68830E-01    6.30669E+03
 3.87740E-01    6.26145E+03
 4.07620E-01    6.20430E+03
 4.50490E-01    6.13672E+03
 4.97870E-01    6.08219E+03
 5.23400E-01    6.04701E+03
 5.50230E-01    6.01492E+03
 5.78440E-01    5.98121E+03
 6.08100E-01    5.94577E+03
 6.39280E-01    5.90851E+03
 6.72060E-01    5.86934E+03
 7.06510E-01    5.83127E+03
 7.42740E-01    5.79859E+03
 7.80820E-01    5.76455E+03
 8.20850E-01    5.72875E+03
 8.62940E-01    5.69112E+03
 9.07180E-01    5.63054E+03
 9.61640E-01    5.55254E+03
 1.00260E+00    5.40481E+03
 1.10800E+00    5.25778E+03
 1.16480E+00    5.16630E+03
 1.22460E+00    5.06341E+03
 1.28730E+00    4.94915E+03
 1.35340E+00    4.82275E+03
 1.42270E+00    4.68778E+03
 1.49570E+00    4.57048E+03
 1.57240E+00    4.46014E+03
 1.65300E+00    4.34880E+03
 1.73770E+00    4.24254E+03
 1.82680E+00    4.13393E+03
 1.92050E+00    4.03043E+03
 2.01900E+00    3.92349E+03
 2.12250E+00    3.82169E+03
 2.23130E+00    3.73589E+03
 2.30690E+00    3.68266E+03
 2.34570E+00    3.65552E+03
 2.36530E+00    3.63719E+03
 2.38520E+00    3.59128E+03
 2.46600E+00    3.50475E+03
 2.59240E+00    3.39896E+03
 2.72530E+00    3.29613E+03
 2.86500E+00    3.19097E+03
 3.01190E+00    3.08935E+03
 3.16640E+00    2.98873E+03
 3.32870E+00    2.84664E+03
 3.67880E+00    2.66922E+03
 4.06570E+00    2.51006E+03
 4.49330E+00    2.40319E+03
 4.72370E+00    2.33987E+03
 4.96590E+00    2.28242E+03
 5.22050E+00    2.23382E+03
 5.48810E+00    2.19122E+03
 5.76950E+00    2.15690E+03
 6.06530E+00    2.13429E+03
 6.37630E+00    2.12001E+03
 6.59240E+00    2.11533E+03
 6.70320E+00    2.11311E+03
 7.04690E+00    2.11914E+03
 7.40820E+00    2.13475E+03
 7.78800E+00    2.16177E+03
 8.18730E+00    2.19874E+03
 8.60710E+00    2.24430E+03
 9.04840E+00    2.29783E+03
 9.51230E+00    2.35854E+03
 1.00000E+01    2.42431E+03
 1.05130E+01    2.49433E+03
 1.10520E+01    2.56547E+03
 1.16180E+01    2.63522E+03
 1.22140E+01    2.70085E+03
 1.28400E+01    2.75969E+03
 1.34990E+01    2.79782E+03
 1.38400E+01    2.81995E+03
 1.41910E+01    2.83864E+03
 1.45500E+01    2.85398E+03
 1.49180E+01    2.87029E+03
 1.56830E+01    2.87899E+03
 1.64870E+01    2.87175E+03
