# n + Gd160 : (n,g)     
# jendl4.0   N.Iwamoto,A.Zukeran,K.Shibata     EVAL-Dec09
# uncertainties: n
# # energies =    69
#   E(MeV)       xs(mb) 
 1.00000E-10    5.48704E+03
 5.00000E-09    1.49378E+03
 1.00000E-08    1.13113E+03
 1.50000E-08    9.50210E+02
 2.00000E-08    8.35872E+02
 2.50000E-08    7.55055E+02
 3.00000E-08    6.93962E+02
 3.50000E-08    6.37922E+02
 4.20000E-08    5.83361E+02
 5.00000E-08    5.37959E+02
 5.80000E-08    4.99865E+02
 6.70000E-08    4.61145E+02
 8.00000E-08    4.17094E+02
 1.00000E-07    3.62561E+02
 1.40000E-07    3.12467E+02
 1.80000E-07    2.78682E+02
 2.20000E-07    2.56368E+02
 2.50000E-07    2.41140E+02
 2.80000E-07    2.30200E+02
 3.00000E-07    2.22506E+02
 3.20000E-07    2.13945E+02
 3.50000E-07    2.02123E+02
 4.00000E-07    1.84537E+02
 5.00000E-07    1.64503E+02
 6.25000E-07    1.46589E+02
 7.80000E-07    1.35221E+02
 8.50000E-07    1.29854E+02
 9.10000E-07    1.26101E+02
 9.50000E-07    1.23926E+02
 9.72000E-07    1.22388E+02
 9.96000E-07    1.20835E+02
 1.02000E-06    1.19307E+02
 1.04500E-06    1.17781E+02
 1.07100E-06    1.16276E+02
 1.09700E-06    1.14818E+02
 1.12300E-06    1.13389E+02
 1.15000E-06    1.09058E+02
 1.30000E-06    1.01561E+02
 1.50000E-06    8.92280E+01
 2.10000E-06    7.64991E+01
 2.60000E-06    6.72050E+01
 3.30000E-06    5.91938E+01
 4.00000E-06    4.24444E+01
 9.87700E-06    2.59268E+01
 1.59680E-05    1.73221E+01
 2.77000E-05    1.10291E+01
 4.80520E-05    7.64057E+00
 7.55014E-05    6.56659E+00
 1.48728E-04    2.86467E+03
 3.67262E-04    6.43076E+03
 9.06898E-04    2.30769E+03
 1.42510E-03    1.28459E+03
 2.23945E-03    9.41532E+02
 3.51910E-03    5.58899E+02
 5.53000E-03    3.99766E+02
 9.11800E-03    3.09359E+02
 1.50300E-02    2.37428E+02
 2.47800E-02    1.82644E+02
 4.08500E-02    1.47134E+02
 6.73400E-02    9.51274E+01
 1.11000E-01    5.25232E+01
 1.83000E-01    3.93304E+01
 3.02000E-01    3.34651E+01
 5.00000E-01    3.44593E+01
 8.21000E-01    3.64037E+01
 1.35300E+00    2.17619E+01
 2.23100E+00    1.12785E+01
 3.67900E+00    3.86128E+00
 6.06500E+00    1.11770E+00
