# n + Gd160 : (n,xn)    
# jendl4.0   N.Iwamoto,A.Zukeran,K.Shibata     EVAL-Dec09
# 
# # energies =   103
#   E(MeV)        xs(mb) 
 7.57347E-02    0.00000E+00
 8.00000E-02    6.59596E+01
 9.00000E-02    1.48801E+02
 1.00000E-01    2.20848E+02
 1.05000E-01    2.51377E+02
 1.10000E-01    2.81907E+02
 1.20000E-01    3.34622E+02
 1.30000E-01    3.80840E+02
 1.40000E-01    4.22816E+02
 1.50000E-01    4.59586E+02
 1.60000E-01    4.94305E+02
 1.70000E-01    5.28022E+02
 1.80000E-01    5.59044E+02
 1.90000E-01    5.87324E+02
 2.00000E-01    6.14448E+02
 2.25000E-01    6.78043E+02
 2.50000E-01    7.33208E+02
 2.50087E-01    7.33387E+02
 2.75000E-01    7.89853E+02
 3.00000E-01    8.43172E+02
 4.00000E-01    1.01653E+03
 5.00000E-01    1.18368E+03
 5.17996E-01    1.20865E+03
 5.17997E-01    1.20865E+03
 6.00000E-01    1.31364E+03
 7.00000E-01    1.43844E+03
 8.00000E-01    1.53919E+03
 8.73374E-01    1.60668E+03
 9.00000E-01    1.62951E+03
 9.18758E-01    1.64501E+03
 9.51966E-01    1.71708E+03
 9.94634E-01    1.77588E+03
 1.00000E+00    1.79949E+03
 1.02241E+00    1.84591E+03
 1.06421E+00    1.91785E+03
 1.07717E+00    1.94671E+03
 1.10000E+00    1.98303E+03
 1.15502E+00    2.05540E+03
 1.20000E+00    2.10615E+03
 1.20021E+00    2.10636E+03
 1.23200E+00    2.13822E+03
 1.26902E+00    2.20053E+03
 1.29824E+00    2.23443E+03
 1.30000E+00    2.23689E+03
 1.30374E+00    2.24117E+03
 1.30890E+00    2.24698E+03
 1.33409E+00    2.27318E+03
 1.33950E+00    2.28421E+03
 1.33951E+00    2.28422E+03
 1.35961E+00    2.30829E+03
 1.38574E+00    2.34567E+03
 1.38575E+00    2.34564E+03
 1.38826E+00    2.35164E+03
 1.39740E+00    2.36990E+03
 1.40000E+00    2.37659E+03
 1.40158E+00    2.37947E+03
 1.43687E+00    2.42639E+03
 1.44505E+00    2.43532E+03
 1.46951E+00    2.46566E+03
 1.50000E+00    2.49608E+03
 1.60000E+00    2.57592E+03
 1.70000E+00    2.64044E+03
 1.80000E+00    2.69126E+03
 1.90000E+00    2.73208E+03
 2.00000E+00    2.76536E+03
 2.25000E+00    2.82107E+03
 2.50000E+00    2.86966E+03
 2.75000E+00    2.90304E+03
 3.00000E+00    2.93350E+03
 3.50000E+00    2.96565E+03
 4.00000E+00    2.96498E+03
 4.50000E+00    2.94200E+03
 5.00000E+00    2.91219E+03
 5.50000E+00    2.88136E+03
 6.00000E+00    2.85351E+03
 6.50000E+00    2.82835E+03
 7.00000E+00    2.80536E+03
 7.50000E+00    2.78500E+03
 8.00000E+00    3.00939E+03
 8.50000E+00    3.50666E+03
 9.00000E+00    3.91726E+03
 9.50000E+00    4.18377E+03
 1.00000E+01    4.34074E+03
 1.05000E+01    4.43067E+03
 1.10000E+01    4.48114E+03
 1.15000E+01    4.50845E+03
 1.20000E+01    4.52151E+03
 1.25000E+01    4.52398E+03
 1.30000E+01    4.52156E+03
 1.35000E+01    4.51494E+03
 1.40000E+01    4.50752E+03
 1.45000E+01    4.53312E+03
 1.50000E+01    4.62952E+03
 1.55000E+01    4.78641E+03
 1.60000E+01    4.97749E+03
 1.65000E+01    5.16277E+03
 1.70000E+01    5.32829E+03
 1.75000E+01    5.46536E+03
 1.80000E+01    5.56996E+03
 1.85000E+01    5.65723E+03
 1.90000E+01    5.71869E+03
 1.95000E+01    5.76155E+03
 2.00000E+01    5.79241E+03
