# n + Gd160 :  n        
# jendl4.0   N.Iwamoto,A.Zukeran,K.Shibata     EVAL-Dec09
# uncertainties: n
# # energies =    96
#   E(MeV)       xs(mb) 
 1.05000E-01    0.00000E+00
 1.10000E-01    1.75723E-03
 1.20000E-01    2.08655E-03
 1.30000E-01    2.18204E-03
 1.40000E-01    2.21376E-03
 1.50000E-01    2.22842E-03
 1.60000E-01    2.24766E-03
 1.70000E-01    2.27354E-03
 1.80000E-01    3.82047E-03
 1.90000E-01    4.03130E-03
 2.00000E-01    4.07398E-03
 2.25000E-01    1.33180E-02
 2.50000E-01    1.44888E-02
 2.50087E-01    1.44918E-02
 2.75000E-01    1.53724E-02
 3.00000E-01    2.59747E-02
 4.00000E-01    8.32809E-02
 5.00000E-01    2.01123E-01
 5.17996E-01    2.61405E-01
 6.00000E-01    4.04436E-01
 7.00000E-01    7.27017E-01
 8.00000E-01    1.22369E+00
 8.73374E-01    1.59933E+00
 9.00000E-01    1.92797E+00
 9.18758E-01    2.16025E+00
 9.51966E-01    2.21532E+00
 9.94634E-01    2.61258E+00
 1.00000E+00    2.59404E+00
 1.02241E+00    2.79458E+00
 1.06421E+00    2.87313E+00
 1.07717E+00    2.85555E+00
 1.10000E+00    3.16144E+00
 1.15502E+00    3.49024E+00
 1.20000E+00    3.94176E+00
 1.20021E+00    3.94300E+00
 1.23200E+00    4.27944E+00
 1.26902E+00    4.31625E+00
 1.29824E+00    4.69814E+00
 1.30000E+00    4.69571E+00
 1.30374E+00    4.70689E+00
 1.30890E+00    4.77618E+00
 1.33409E+00    5.00040E+00
 1.33950E+00    4.99491E+00
 1.35961E+00    5.05820E+00
 1.38574E+00    5.22725E+00
 1.38826E+00    5.23470E+00
 1.39740E+00    5.27115E+00
 1.40000E+00    5.25070E+00
 1.40158E+00    5.24691E+00
 1.43687E+00    5.40848E+00
 1.44505E+00    5.41063E+00
 1.46951E+00    5.38812E+00
 1.50000E+00    5.66104E+00
 1.60000E+00    7.79751E+01
 1.70000E+00    2.35840E+02
 1.80000E+00    4.17972E+02
 1.90000E+00    6.05580E+02
 2.00000E+00    7.88412E+02
 2.25000E+00    1.15473E+03
 2.50000E+00    1.55531E+03
 2.75000E+00    1.81383E+03
 3.00000E+00    2.04711E+03
 3.50000E+00    2.31184E+03
 4.00000E+00    2.42840E+03
 4.50000E+00    2.45971E+03
 5.00000E+00    2.45070E+03
 5.50000E+00    2.42384E+03
 6.00000E+00    2.39196E+03
 6.50000E+00    2.35961E+03
 7.00000E+00    2.32864E+03
 7.50000E+00    2.29948E+03
 8.00000E+00    2.02503E+03
 8.50000E+00    1.48273E+03
 9.00000E+00    1.03084E+03
 9.50000E+00    7.27902E+02
 1.00000E+01    5.38539E+02
 1.05000E+01    4.20253E+02
 1.10000E+01    3.44515E+02
 1.15000E+01    2.94007E+02
 1.20000E+01    2.58686E+02
 1.25000E+01    2.33935E+02
 1.30000E+01    2.13579E+02
 1.35000E+01    1.97143E+02
 1.40000E+01    1.83539E+02
 1.45000E+01    1.72011E+02
 1.50000E+01    1.62052E+02
 1.55000E+01    1.53310E+02
 1.60000E+01    1.45077E+02
 1.65000E+01    1.38434E+02
 1.70000E+01    1.32240E+02
 1.75000E+01    1.26434E+02
 1.80000E+01    1.21450E+02
 1.85000E+01    1.16079E+02
 1.90000E+01    1.11302E+02
 1.95000E+01    1.06902E+02
 2.00000E+01    1.02779E+02
