# n + Gd160 : (n,n'04)  
# jendl4.0   N.Iwamoto,A.Zukeran,K.Shibata     EVAL-Dec09
# uncertainties: n
# # energies =    74
#   E(MeV)       xs(mb) 
 8.73374E-01    0.00000E+00
 9.00000E-01    5.35506E-06
 9.18758E-01    2.29626E-05
 9.51966E-01    1.12385E-04
 9.94634E-01    3.79278E-04
 1.00000E+00    4.34872E-04
 1.02241E+00    9.83959E-04
 1.06421E+00    1.89196E-03
 1.07717E+00    2.27197E-03
 1.10000E+00    3.05468E-03
 1.15502E+00    5.97903E-03
 1.20000E+00    9.38514E-03
 1.20021E+00    9.40561E-03
 1.23200E+00    1.25794E-02
 1.26902E+00    1.72374E-02
 1.29824E+00    2.12412E-02
 1.30000E+00    2.15551E-02
 1.30374E+00    2.21762E-02
 1.30890E+00    2.29899E-02
 1.33409E+00    2.74479E-02
 1.33950E+00    2.84805E-02
 1.35961E+00    3.16767E-02
 1.38574E+00    3.70358E-02
 1.38826E+00    3.75906E-02
 1.39740E+00    3.96596E-02
 1.40000E+00    4.02644E-02
 1.40158E+00    4.06735E-02
 1.43687E+00    4.93709E-02
 1.44505E+00    5.11027E-02
 1.46951E+00    5.80092E-02
 1.50000E+00    6.78427E-02
 1.60000E+00    1.07685E-01
 1.70000E+00    1.60330E-01
 1.80000E+00    2.28714E-01
 1.90000E+00    3.13062E-01
 2.00000E+00    4.11026E-01
 2.25000E+00    7.43536E-01
 2.50000E+00    1.12399E+00
 2.75000E+00    1.61151E+00
 3.00000E+00    2.86542E+00
 3.50000E+00    3.83947E+00
 4.00000E+00    4.64509E+00
 4.50000E+00    5.23191E+00
 5.00000E+00    5.68381E+00
 5.50000E+00    6.10108E+00
 6.00000E+00    6.53782E+00
 6.50000E+00    6.94614E+00
 7.00000E+00    7.24905E+00
 7.50000E+00    7.38698E+00
 8.00000E+00    7.39418E+00
 8.50000E+00    7.32591E+00
 9.00000E+00    7.24548E+00
 9.50000E+00    7.18241E+00
 1.00000E+01    7.13923E+00
 1.05000E+01    7.10835E+00
 1.10000E+01    7.07999E+00
 1.15000E+01    7.04846E+00
 1.20000E+01    7.01087E+00
 1.25000E+01    6.96429E+00
 1.30000E+01    6.90481E+00
 1.35000E+01    6.82886E+00
 1.40000E+01    6.73475E+00
 1.45000E+01    6.62374E+00
 1.50000E+01    6.50119E+00
 1.55000E+01    6.37668E+00
 1.60000E+01    6.24642E+00
 1.65000E+01    6.11535E+00
 1.70000E+01    5.98426E+00
 1.75000E+01    5.85302E+00
 1.80000E+01    5.71225E+00
 1.85000E+01    5.56491E+00
 1.90000E+01    5.42050E+00
 1.95000E+01    5.27863E+00
 2.00000E+01    5.14414E+00
