# n + Os187 : (n,n'31)  
# jendl4.0   N.Iwamoto                         EVAL-Jan10
# uncertainties: n
# # energies =    58
#   E(MeV)       xs(mb) 
 6.88193E-01    0.00000E+00
 7.00000E-01    3.60471E-04
 7.15067E-01    9.69529E-04
 7.29656E-01    1.90946E-03
 7.31023E-01    2.01733E-03
 7.49019E-01    3.70927E-03
 7.61084E-01    5.27915E-03
 8.00000E-01    1.31362E-02
 9.00000E-01    5.77122E-02
 1.00000E+00    1.40239E-01
 1.10000E+00    2.62094E-01
 1.20000E+00    4.03706E-01
 1.30000E+00    5.73916E-01
 1.40000E+00    7.32695E-01
 1.50000E+00    8.89020E-01
 1.60000E+00    1.04438E+00
 1.70000E+00    1.18991E+00
 1.80000E+00    1.29578E+00
 1.90000E+00    1.37370E+00
 2.00000E+00    1.42315E+00
 2.25000E+00    1.45538E+00
 2.50000E+00    1.32266E+00
 2.75000E+00    1.15727E+00
 3.00000E+00    1.06129E+00
 3.50000E+00    7.05569E-01
 4.00000E+00    4.47973E-01
 4.50000E+00    2.85925E-01
 5.00000E+00    1.92412E-01
 5.50000E+00    1.40659E-01
 6.00000E+00    1.12117E-01
 6.50000E+00    9.56517E-02
 7.00000E+00    8.54611E-02
 7.50000E+00    7.84883E-02
 8.00000E+00    7.33203E-02
 8.50000E+00    6.92294E-02
 9.00000E+00    6.57944E-02
 9.50000E+00    6.27230E-02
 1.00000E+01    5.98383E-02
 1.05000E+01    5.70462E-02
 1.10000E+01    5.43187E-02
 1.15000E+01    5.16838E-02
 1.20000E+01    4.91597E-02
 1.25000E+01    4.67694E-02
 1.30000E+01    4.45295E-02
 1.35000E+01    4.24462E-02
 1.40000E+01    4.05183E-02
 1.45000E+01    3.87376E-02
 1.50000E+01    3.70900E-02
 1.55000E+01    3.55598E-02
 1.60000E+01    3.41302E-02
 1.65000E+01    3.27853E-02
 1.70000E+01    3.15085E-02
 1.75000E+01    3.02866E-02
 1.80000E+01    2.91194E-02
 1.85000E+01    2.80040E-02
 1.90000E+01    2.69484E-02
 1.95000E+01    2.59481E-02
 2.00000E+01    2.50022E-02
