# n + Os187 : (n,n'30)  
# jendl4.0   N.Iwamoto                         EVAL-Jan10
# uncertainties: n
# # energies =    59
#   E(MeV)       xs(mb) 
 6.87690E-01    0.00000E+00
 6.88193E-01    1.71607E-02
 7.00000E-01    8.61525E-02
 7.15067E-01    1.52205E-01
 7.29656E-01    2.24992E-01
 7.31023E-01    2.32351E-01
 7.49019E-01    3.40908E-01
 7.61084E-01    4.24407E-01
 8.00000E-01    7.39302E-01
 9.00000E-01    1.83910E+00
 1.00000E+00    2.98275E+00
 1.10000E+00    3.95920E+00
 1.20000E+00    4.53551E+00
 1.30000E+00    4.98807E+00
 1.40000E+00    5.09189E+00
 1.50000E+00    5.09199E+00
 1.60000E+00    5.06509E+00
 1.70000E+00    5.00560E+00
 1.80000E+00    4.83582E+00
 1.90000E+00    4.63332E+00
 2.00000E+00    4.40622E+00
 2.25000E+00    3.82939E+00
 2.50000E+00    3.10224E+00
 2.75000E+00    2.49041E+00
 3.00000E+00    1.95236E+00
 3.50000E+00    1.11941E+00
 4.00000E+00    6.11768E-01
 4.50000E+00    3.30365E-01
 5.00000E+00    1.84346E-01
 5.50000E+00    1.11517E-01
 6.00000E+00    7.57175E-02
 6.50000E+00    5.78063E-02
 7.00000E+00    4.84424E-02
 7.50000E+00    4.30544E-02
 8.00000E+00    3.95863E-02
 8.50000E+00    3.70972E-02
 9.00000E+00    3.51308E-02
 9.50000E+00    3.34334E-02
 1.00000E+01    3.18691E-02
 1.05000E+01    3.03694E-02
 1.10000E+01    2.89114E-02
 1.15000E+01    2.75059E-02
 1.20000E+01    2.61611E-02
 1.25000E+01    2.48883E-02
 1.30000E+01    2.36959E-02
 1.35000E+01    2.25871E-02
 1.40000E+01    2.15611E-02
 1.45000E+01    2.06134E-02
 1.50000E+01    1.97367E-02
 1.55000E+01    1.89224E-02
 1.60000E+01    1.81616E-02
 1.65000E+01    1.74460E-02
 1.70000E+01    1.67665E-02
 1.75000E+01    1.61163E-02
 1.80000E+01    1.54951E-02
 1.85000E+01    1.49016E-02
 1.90000E+01    1.43399E-02
 1.95000E+01    1.38076E-02
 2.00000E+01    1.33042E-02
