# n + Os187 : (n,n'32)  
# jendl4.0   N.Iwamoto                         EVAL-Jan10
# uncertainties: n
# # energies =    56
#   E(MeV)       xs(mb) 
 7.15067E-01    0.00000E+00
 7.29656E-01    2.44589E+01
 7.31023E-01    2.52525E+01
 7.49019E-01    3.33032E+01
 7.61084E-01    3.67751E+01
 8.00000E-01    4.51682E+01
 9.00000E-01    5.72873E+01
 1.00000E+00    6.24716E+01
 1.10000E+00    6.37517E+01
 1.20000E+00    6.10699E+01
 1.30000E+00    5.74712E+01
 1.40000E+00    5.23134E+01
 1.50000E+00    4.64129E+01
 1.60000E+00    4.11127E+01
 1.70000E+00    3.64106E+01
 1.80000E+00    3.17522E+01
 1.90000E+00    2.75236E+01
 2.00000E+00    2.37897E+01
 2.25000E+00    1.66594E+01
 2.50000E+00    1.12099E+01
 2.75000E+00    7.69167E+00
 3.00000E+00    5.27896E+00
 3.50000E+00    2.47269E+00
 4.00000E+00    1.18716E+00
 4.50000E+00    6.09096E-01
 5.00000E+00    3.51008E-01
 5.50000E+00    2.34067E-01
 6.00000E+00    1.78704E-01
 6.50000E+00    1.50136E-01
 7.00000E+00    1.33662E-01
 7.50000E+00    1.22774E-01
 8.00000E+00    1.14788E-01
 8.50000E+00    1.08467E-01
 9.00000E+00    1.03144E-01
 9.50000E+00    9.83722E-02
 1.00000E+01    9.38816E-02
 1.05000E+01    8.95281E-02
 1.10000E+01    8.52688E-02
 1.15000E+01    8.11495E-02
 1.20000E+01    7.71996E-02
 1.25000E+01    7.34559E-02
 1.30000E+01    6.99454E-02
 1.35000E+01    6.66789E-02
 1.40000E+01    6.36548E-02
 1.45000E+01    6.08609E-02
 1.50000E+01    5.82755E-02
 1.55000E+01    5.58743E-02
 1.60000E+01    5.36307E-02
 1.65000E+01    5.15203E-02
 1.70000E+01    4.95147E-02
 1.75000E+01    4.75955E-02
 1.80000E+01    4.57623E-02
 1.85000E+01    4.40104E-02
 1.90000E+01    4.23524E-02
 1.95000E+01    4.07810E-02
 2.00000E+01    3.92948E-02
