# n + Os187 : (n,t)     
# jendl4.0   N.Iwamoto                         EVAL-Jan10
# uncertainties: n
# # energies =    52
#   E(MeV)       xs(mb) 
 4.29758E+00    0.00000E+00
 4.42362E+00    9.44320E-30
 4.58332E+00    2.14300E-29
 4.66787E+00    1.21710E-26
 4.77585E+00    2.83570E-26
 4.84753E+00    3.91050E-26
 4.94720E+00    5.40510E-26
 4.99844E+00    6.17340E-26
 5.01890E+00    7.49850E-26
 5.05917E+00    1.21030E-25
 5.07066E+00    1.35090E-25
 5.12804E+00    2.12550E-25
 5.13809E+00    2.26440E-25
 5.17712E+00    2.81130E-25
 5.18266E+00    2.88930E-25
 5.21953E+00    3.40920E-25
 5.23367E+00    3.60880E-25
 5.25241E+00    3.87330E-25
 5.26879E+00    4.10460E-25
 5.29775E+00    4.51350E-25
 5.31605E+00    4.77190E-25
 5.34822E+00    5.22610E-25
 5.50000E+00    7.36930E-25
 6.00000E+00    1.79970E-21
 6.50000E+00    4.18570E-17
 7.00000E+00    3.15490E-14
 7.50000E+00    3.19060E-12
 8.00000E+00    9.04920E-11
 8.50000E+00    1.19340E-09
 9.00000E+00    1.24820E-08
 9.50000E+00    1.36060E-07
 1.00000E+01    1.25263E-06
 1.05000E+01    8.54192E-06
 1.10000E+01    4.38341E-05
 1.15000E+01    1.77867E-04
 1.20000E+01    5.89731E-04
 1.25000E+01    1.69969E-03
 1.30000E+01    4.29561E-03
 1.35000E+01    9.67964E-03
 1.40000E+01    1.96690E-02
 1.45000E+01    3.63704E-02
 1.50000E+01    6.17758E-02
 1.55000E+01    9.73737E-02
 1.60000E+01    1.43948E-01
 1.65000E+01    2.01586E-01
 1.70000E+01    2.69803E-01
 1.75000E+01    3.47708E-01
 1.80000E+01    4.34166E-01
 1.85000E+01    5.27792E-01
 1.90000E+01    6.27019E-01
 1.95000E+01    7.29948E-01
 2.00000E+01    8.34164E-01
