# n + Os187 : (n,n'17)  
# jendl4.0   N.Iwamoto                         EVAL-Jan10
# uncertainties: n
# # energies =    74
#   E(MeV)       xs(mb) 
 4.66503E-01    0.00000E+00
 5.00000E-01    1.20685E+02
 5.04155E-01    1.25095E+02
 5.10962E-01    1.26766E+02
 5.14360E-01    1.28683E+02
 5.39455E-01    1.41705E+02
 5.59905E-01    1.44167E+02
 5.89473E-01    1.51633E+02
 5.99668E-01    1.52852E+02
 6.00000E-01    1.52132E+02
 6.14296E-01    1.51874E+02
 6.21334E-01    1.50081E+02
 6.45333E-01    1.50713E+02
 6.67713E-01    1.51047E+02
 6.73615E-01    1.49487E+02
 6.87690E-01    1.49331E+02
 6.88193E-01    1.49341E+02
 7.00000E-01    1.49740E+02
 7.15067E-01    1.50664E+02
 7.29656E-01    1.50018E+02
 7.31023E-01    1.49207E+02
 7.49019E-01    1.47468E+02
 7.61084E-01    1.45316E+02
 8.00000E-01    1.43736E+02
 9.00000E-01    1.36854E+02
 1.00000E+00    1.23116E+02
 1.10000E+00    1.10335E+02
 1.20000E+00    9.47542E+01
 1.30000E+00    8.14950E+01
 1.40000E+00    7.02042E+01
 1.50000E+00    6.02027E+01
 1.60000E+00    5.10572E+01
 1.70000E+00    4.32446E+01
 1.80000E+00    3.65970E+01
 1.90000E+00    3.09547E+01
 2.00000E+00    2.61803E+01
 2.25000E+00    1.75227E+01
 2.50000E+00    1.13599E+01
 2.75000E+00    7.55240E+00
 3.00000E+00    4.99417E+00
 3.50000E+00    2.21196E+00
 4.00000E+00    1.00888E+00
 4.50000E+00    4.92109E-01
 5.00000E+00    2.69734E-01
 5.50000E+00    1.72051E-01
 6.00000E+00    1.27183E-01
 6.50000E+00    1.04782E-01
 7.00000E+00    9.23053E-02
 7.50000E+00    8.43295E-02
 8.00000E+00    7.86361E-02
 8.50000E+00    7.41963E-02
 9.00000E+00    7.04678E-02
 9.50000E+00    6.71092E-02
 1.00000E+01    6.39354E-02
 1.05000E+01    6.08583E-02
 1.10000E+01    5.78693E-02
 1.15000E+01    5.49891E-02
 1.20000E+01    5.22442E-02
 1.25000E+01    4.96577E-02
 1.30000E+01    4.72439E-02
 1.35000E+01    4.50068E-02
 1.40000E+01    4.29417E-02
 1.45000E+01    4.10375E-02
 1.50000E+01    3.92773E-02
 1.55000E+01    3.76429E-02
 1.60000E+01    3.61155E-02
 1.65000E+01    3.46782E-02
 1.70000E+01    3.33131E-02
 1.75000E+01    3.20067E-02
 1.80000E+01    3.07593E-02
 1.85000E+01    2.95681E-02
 1.90000E+01    2.84420E-02
 1.95000E+01    2.73767E-02
 2.00000E+01    2.63711E-02
