# n + Os187 : (n,n'27)  
# jendl4.0   N.Iwamoto                         EVAL-Jan10
# uncertainties: n
# # energies =    62
#   E(MeV)       xs(mb) 
 6.45333E-01    0.00000E+00
 6.67713E-01    3.47589E+01
 6.73615E-01    3.75301E+01
 6.87690E-01    4.30886E+01
 6.88193E-01    4.32547E+01
 7.00000E-01    4.68925E+01
 7.15067E-01    5.08647E+01
 7.29656E-01    5.32063E+01
 7.31023E-01    5.32855E+01
 7.49019E-01    5.62542E+01
 7.61084E-01    5.76866E+01
 8.00000E-01    6.31731E+01
 9.00000E-01    7.23537E+01
 1.00000E+00    7.43976E+01
 1.10000E+00    7.23862E+01
 1.20000E+00    6.80653E+01
 1.30000E+00    6.27858E+01
 1.40000E+00    5.56142E+01
 1.50000E+00    4.91778E+01
 1.60000E+00    4.34571E+01
 1.70000E+00    3.80349E+01
 1.80000E+00    3.29621E+01
 1.90000E+00    2.84763E+01
 2.00000E+00    2.45482E+01
 2.25000E+00    1.71178E+01
 2.50000E+00    1.14795E+01
 2.75000E+00    7.86025E+00
 3.00000E+00    5.38519E+00
 3.50000E+00    2.51454E+00
 4.00000E+00    1.20523E+00
 4.50000E+00    6.18259E-01
 5.00000E+00    3.56631E-01
 5.50000E+00    2.38085E-01
 6.00000E+00    1.81935E-01
 6.50000E+00    1.52901E-01
 7.00000E+00    1.36121E-01
 7.50000E+00    1.25012E-01
 8.00000E+00    1.16867E-01
 8.50000E+00    1.10419E-01
 9.00000E+00    1.04983E-01
 9.50000E+00    1.00096E-01
 1.00000E+01    9.54879E-02
 1.05000E+01    9.10172E-02
 1.10000E+01    8.66462E-02
 1.15000E+01    8.24200E-02
 1.20000E+01    7.83753E-02
 1.25000E+01    7.45487E-02
 1.30000E+01    7.09659E-02
 1.35000E+01    6.76362E-02
 1.40000E+01    6.45566E-02
 1.45000E+01    6.17131E-02
 1.50000E+01    5.90828E-02
 1.55000E+01    5.66402E-02
 1.60000E+01    5.43580E-02
 1.65000E+01    5.22111E-02
 1.70000E+01    5.01727E-02
 1.75000E+01    4.82220E-02
 1.80000E+01    4.63588E-02
 1.85000E+01    4.45787E-02
 1.90000E+01    4.28943E-02
 1.95000E+01    4.12988E-02
 2.00000E+01    3.97905E-02
