# n + Os187 : (n,xp)    
# jendl4.0   N.Iwamoto                         EVAL-Jan10
# 
# # energies =   117
#   E(MeV)        xs(mb) 
 9.79858E-03    0.00000E+00
 1.00000E-02    0.00000E+00
 2.00000E-02    0.00000E+00
 3.00000E-02    0.00000E+00
 4.00000E-02    5.75565E-21
 5.00000E-02    2.84372E-20
 6.00000E-02    5.92406E-20
 7.00000E-02    9.05636E-20
 7.47310E-02    1.05663E-19
 7.54449E-02    1.07942E-19
 8.00000E-02    1.22480E-19
 9.00000E-02    1.55878E-19
 1.00000E-01    1.90893E-19
 1.00546E-01    1.94172E-19
 1.01092E-01    1.97831E-19
 1.10000E-01    2.57532E-19
 1.17631E-01    3.08674E-19
 1.20000E-01    3.24551E-19
 1.30000E-01    3.91570E-19
 1.40000E-01    4.58590E-19
 1.50000E-01    5.25609E-19
 1.60000E-01    5.94412E-19
 1.70000E-01    6.65010E-19
 1.80000E-01    7.38340E-19
 1.88411E-01    8.01617E-19
 1.90000E-01    8.13625E-19
 1.91628E-01    8.26166E-19
 2.00000E-01    8.91122E-19
 2.25000E-01    3.57140E-18
 2.50000E-01    6.85700E-18
 2.58557E-01    8.61219E-18
 2.58558E-01    8.61240E-18
 2.64721E-01    1.01680E-17
 2.75000E-01    1.34520E-17
 3.00000E-01    2.68440E-17
 3.35058E-01    7.10490E-17
 3.43342E-01    8.85440E-17
 3.51888E-01    1.11680E-16
 4.00000E-01    4.00810E-16
 4.21261E-01    6.87950E-16
 4.44385E-01    1.22170E-15
 4.47441E-01    1.29660E-15
 4.61979E-01    1.80680E-15
 4.66503E-01    2.00780E-15
 5.00000E-01    4.17140E-15
 5.04155E-01    4.57930E-15
 5.10962E-01    5.22400E-15
 5.14360E-01    5.61610E-15
 5.39455E-01    9.65540E-15
 5.59905E-01    1.45760E-14
 5.89473E-01    2.68270E-14
 5.99668E-01    3.26160E-14
 6.00000E-01    3.27240E-14
 6.14296E-01    4.28800E-14
 6.21334E-01    4.85970E-14
 6.45333E-01    7.63680E-14
 6.67713E-01    1.14270E-13
 6.73615E-01    1.26180E-13
 6.87690E-01    1.61970E-13
 6.88193E-01    1.63430E-13
 7.00000E-01    2.01510E-13
 7.15067E-01    2.63000E-13
 7.29656E-01    3.36350E-13
 7.31023E-01    3.43100E-13
 7.49019E-01    4.63350E-13
 7.61084E-01    5.62890E-13
 8.00000E-01    1.06260E-12
 9.00000E-01    4.89980E-12
 1.00000E+00    1.93530E-11
 1.10000E+00    6.77280E-11
 1.20000E+00    2.13870E-10
 1.30000E+00    6.15700E-10
 1.40000E+00    1.63250E-09
 1.50000E+00    4.02120E-09
 1.60000E+00    9.27550E-09
 1.70000E+00    2.01790E-08
 1.80000E+00    4.16360E-08
 1.90000E+00    8.18800E-08
 2.00000E+00    1.54180E-07
 2.25000E+00    6.46140E-07
 2.50000E+00    2.14571E-06
 2.75000E+00    6.20392E-06
 3.00000E+00    1.51382E-05
 3.50000E+00    6.73452E-05
 4.00000E+00    2.10857E-04
 4.50000E+00    5.06644E-04
 5.00000E+00    1.00934E-03
 5.50000E+00    1.81240E-03
 6.00000E+00    3.23270E-03
 6.50000E+00    6.21205E-03
 7.00000E+00    1.30732E-02
 7.50000E+00    2.84868E-02
 8.00000E+00    6.06360E-02
 8.50000E+00    1.22130E-01
 9.00000E+00    2.30133E-01
 9.50000E+00    4.04824E-01
 1.00000E+01    6.67347E-01
 1.05000E+01    1.03751E+00
 1.10000E+01    1.53259E+00
 1.15000E+01    2.16700E+00
 1.20000E+01    2.95269E+00
 1.25000E+01    3.89942E+00
 1.30000E+01    5.01518E+00
 1.35000E+01    6.30604E+00
 1.40000E+01    7.77612E+00
 1.45000E+01    9.42742E+00
 1.50000E+01    1.12593E+01
 1.55000E+01    1.32687E+01
 1.60000E+01    1.54499E+01
 1.65000E+01    1.77947E+01
 1.70000E+01    2.02937E+01
 1.75000E+01    2.29359E+01
 1.80000E+01    2.57102E+01
 1.85000E+01    2.86072E+01
 1.90000E+01    3.16186E+01
 1.95000E+01    3.47381E+01
 2.00000E+01    3.79619E+01
