# n + Os187 : (n,n'14)  
# jendl4.0   N.Iwamoto                         EVAL-Jan10
# uncertainties: n
# # energies =    77
#   E(MeV)       xs(mb) 
 4.44385E-01    0.00000E+00
 4.47441E-01    5.28995E+01
 4.61979E-01    1.00975E+02
 4.66503E-01    1.08786E+02
 5.00000E-01    1.42454E+02
 5.04155E-01    1.45343E+02
 5.10962E-01    1.48933E+02
 5.14360E-01    1.50644E+02
 5.39455E-01    1.62022E+02
 5.59905E-01    1.67414E+02
 5.89473E-01    1.74370E+02
 5.99668E-01    1.76139E+02
 6.00000E-01    1.75989E+02
 6.14296E-01    1.76891E+02
 6.21334E-01    1.76591E+02
 6.45333E-01    1.77285E+02
 6.67713E-01    1.77278E+02
 6.73615E-01    1.76627E+02
 6.87690E-01    1.76206E+02
 6.88193E-01    1.76195E+02
 7.00000E-01    1.75637E+02
 7.15067E-01    1.74442E+02
 7.29656E-01    1.72953E+02
 7.31023E-01    1.72510E+02
 7.49019E-01    1.70321E+02
 7.61084E-01    1.68430E+02
 8.00000E-01    1.64541E+02
 9.00000E-01    1.49039E+02
 1.00000E+00    1.30277E+02
 1.10000E+00    1.13475E+02
 1.20000E+00    9.64285E+01
 1.30000E+00    8.23533E+01
 1.40000E+00    7.06126E+01
 1.50000E+00    6.01618E+01
 1.60000E+00    5.09138E+01
 1.70000E+00    4.30766E+01
 1.80000E+00    3.64416E+01
 1.90000E+00    3.08278E+01
 2.00000E+00    2.60850E+01
 2.25000E+00    1.74906E+01
 2.50000E+00    1.13531E+01
 2.75000E+00    7.55132E+00
 3.00000E+00    4.93457E+00
 3.50000E+00    2.14841E+00
 4.00000E+00    9.47925E-01
 4.50000E+00    4.36248E-01
 5.00000E+00    2.19198E-01
 5.50000E+00    1.26255E-01
 6.00000E+00    8.53261E-02
 6.50000E+00    6.61753E-02
 7.00000E+00    5.63992E-02
 7.50000E+00    5.07025E-02
 8.00000E+00    4.69260E-02
 8.50000E+00    4.41239E-02
 9.00000E+00    4.18391E-02
 9.50000E+00    3.98133E-02
 1.00000E+01    3.79141E-02
 1.05000E+01    3.60795E-02
 1.10000E+01    3.43005E-02
 1.15000E+01    3.25862E-02
 1.20000E+01    3.09544E-02
 1.25000E+01    2.94181E-02
 1.30000E+01    2.79852E-02
 1.35000E+01    2.66578E-02
 1.40000E+01    2.54329E-02
 1.45000E+01    2.43036E-02
 1.50000E+01    2.32598E-02
 1.55000E+01    2.22906E-02
 1.60000E+01    2.13849E-02
 1.65000E+01    2.05326E-02
 1.70000E+01    1.97231E-02
 1.75000E+01    1.89485E-02
 1.80000E+01    1.82089E-02
 1.85000E+01    1.75028E-02
 1.90000E+01    1.68354E-02
 1.95000E+01    1.62041E-02
 2.00000E+01    1.56083E-02
