# n + Os187 : (n,n'01)  
# jendl4.0   N.Iwamoto                         EVAL-Jan10
# uncertainties: n
# # energies =   115
#   E(MeV)       xs(mb) 
 9.79858E-03    0.00000E+00
 1.00000E-02    9.03234E+02
 2.00000E-02    1.92848E+03
 3.00000E-02    1.70185E+03
 4.00000E-02    1.53022E+03
 5.00000E-02    1.40572E+03
 6.00000E-02    1.31621E+03
 7.00000E-02    1.24958E+03
 7.47310E-02    1.22330E+03
 7.54449E-02    1.16574E+03
 8.00000E-02    1.08083E+03
 9.00000E-02    1.00434E+03
 1.00000E-01    9.60567E+02
 1.01092E-01    9.56142E+02
 1.10000E-01    9.24231E+02
 1.17631E-01    9.01064E+02
 1.20000E-01    8.80900E+02
 1.30000E-01    8.50610E+02
 1.40000E-01    8.30491E+02
 1.50000E-01    8.16423E+02
 1.60000E-01    8.05926E+02
 1.70000E-01    7.95320E+02
 1.80000E-01    7.85476E+02
 1.88411E-01    7.79261E+02
 1.90000E-01    7.74281E+02
 1.91628E-01    7.71860E+02
 2.00000E-01    7.62370E+02
 2.25000E-01    7.46130E+02
 2.50000E-01    7.39408E+02
 2.58558E-01    7.36801E+02
 2.64721E-01    7.34060E+02
 2.75000E-01    7.28954E+02
 3.00000E-01    7.19240E+02
 3.35058E-01    7.11030E+02
 3.43342E-01    7.09282E+02
 3.51888E-01    7.08342E+02
 4.00000E-01    7.06099E+02
 4.21261E-01    6.97906E+02
 4.44385E-01    6.87695E+02
 4.47441E-01    6.77625E+02
 4.61979E-01    6.63172E+02
 4.66503E-01    6.60091E+02
 5.00000E-01    6.19544E+02
 5.04155E-01    6.17219E+02
 5.10962E-01    6.02855E+02
 5.14360E-01    5.99482E+02
 5.39455E-01    5.83768E+02
 5.59905E-01    5.63008E+02
 5.89473E-01    5.50385E+02
 5.99668E-01    5.44241E+02
 6.00000E-01    5.42614E+02
 6.14296E-01    5.31611E+02
 6.21334E-01    5.23438E+02
 6.45333E-01    5.08821E+02
 6.67713E-01    4.91912E+02
 6.73615E-01    4.84935E+02
 6.87690E-01    4.74918E+02
 6.88193E-01    4.74597E+02
 7.00000E-01    4.67540E+02
 7.15067E-01    4.59785E+02
 7.29656E-01    4.51378E+02
 7.31023E-01    4.49441E+02
 7.49019E-01    4.38857E+02
 7.61084E-01    4.30594E+02
 8.00000E-01    4.13973E+02
 9.00000E-01    3.79403E+02
 1.00000E+00    3.50652E+02
 1.10000E+00    3.21560E+02
 1.20000E+00    2.97261E+02
 1.30000E+00    2.76694E+02
 1.40000E+00    2.59143E+02
 1.50000E+00    2.44039E+02
 1.60000E+00    2.30987E+02
 1.70000E+00    2.19688E+02
 1.80000E+00    2.09852E+02
 1.90000E+00    2.01261E+02
 2.00000E+00    1.93750E+02
 2.25000E+00    1.79147E+02
 2.50000E+00    1.68080E+02
 2.75000E+00    1.60441E+02
 3.00000E+00    1.54768E+02
 3.50000E+00    1.48087E+02
 4.00000E+00    1.44247E+02
 4.50000E+00    1.40722E+02
 5.00000E+00    1.36505E+02
 5.50000E+00    1.31455E+02
 6.00000E+00    1.25885E+02
 6.50000E+00    1.20033E+02
 7.00000E+00    1.14223E+02
 7.50000E+00    1.08833E+02
 8.00000E+00    1.04092E+02
 8.50000E+00    1.00136E+02
 9.00000E+00    9.68147E+01
 9.50000E+00    9.39738E+01
 1.00000E+01    9.13777E+01
 1.05000E+01    8.88825E+01
 1.10000E+01    8.63915E+01
 1.15000E+01    8.38734E+01
 1.20000E+01    8.13385E+01
 1.25000E+01    7.88198E+01
 1.30000E+01    7.63559E+01
 1.35000E+01    7.39801E+01
 1.40000E+01    7.17148E+01
 1.45000E+01    6.95707E+01
 1.50000E+01    6.75491E+01
 1.55000E+01    6.56438E+01
 1.60000E+01    6.38439E+01
 1.65000E+01    6.21367E+01
 1.70000E+01    6.05090E+01
 1.75000E+01    5.89498E+01
 1.80000E+01    5.74509E+01
 1.85000E+01    5.60083E+01
 1.90000E+01    5.46223E+01
 1.95000E+01    5.32955E+01
 2.00000E+01    5.20325E+01
