# n + Os187 : (n,el)    
# jendl4.0   N.Iwamoto                         EVAL-Jan10
# uncertainties: n
# # energies =    69
#   E(MeV)       xs(mb) 
 1.00000E-10    9.20904E+03
 5.00000E-09    7.95517E+03
 1.00000E-08    7.89949E+03
 1.50000E-08    7.86476E+03
 2.00000E-08    7.83599E+03
 2.50000E-08    7.81052E+03
 3.00000E-08    7.78669E+03
 3.50000E-08    7.75901E+03
 4.20000E-08    7.72635E+03
 5.00000E-08    7.69164E+03
 5.80000E-08    7.65657E+03
 6.70000E-08    7.61224E+03
 8.00000E-08    7.54798E+03
 1.00000E-07    7.43778E+03
 1.40000E-07    7.29423E+03
 1.80000E-07    7.15984E+03
 2.20000E-07    7.04778E+03
 2.50000E-07    6.95708E+03
 2.80000E-07    6.88379E+03
 3.00000E-07    6.82727E+03
 3.20000E-07    6.75938E+03
 3.50000E-07    6.65532E+03
 4.00000E-07    6.47609E+03
 5.00000E-07    6.23126E+03
 6.25000E-07    5.96627E+03
 7.80000E-07    5.77324E+03
 8.50000E-07    5.67355E+03
 9.10000E-07    5.60063E+03
 9.50000E-07    5.55734E+03
 9.72000E-07    5.52577E+03
 9.96000E-07    5.49380E+03
 1.02000E-06    5.46189E+03
 1.04500E-06    5.42896E+03
 1.07100E-06    5.39688E+03
 1.09700E-06    5.36502E+03
 1.12300E-06    5.33266E+03
 1.15000E-06    5.23407E+03
 1.30000E-06    5.05349E+03
 1.50000E-06    4.72568E+03
 2.10000E-06    4.34963E+03
 2.60000E-06    4.03883E+03
 3.30000E-06    3.73314E+03
 4.00000E-06    3.85102E+03
 9.87700E-06    4.76729E+04
 1.59680E-05    4.89252E+03
 2.77000E-05    2.50848E+04
 4.80520E-05    1.55926E+05
 7.55014E-05    2.99379E+05
 1.48728E-04    6.16899E+04
 3.67262E-04    4.45754E+04
 9.06898E-04    5.23474E+04
 1.42510E-03    4.36949E+04
 2.23945E-03    3.72006E+04
 3.51910E-03    3.16600E+04
 5.53000E-03    2.66869E+04
 9.11800E-03    2.15813E+04
 1.50300E-02    1.72357E+04
 2.47800E-02    1.42031E+04
 4.08500E-02    1.18667E+04
 6.73400E-02    9.66169E+03
 1.11000E-01    7.75414E+03
 1.83000E-01    6.15621E+03
 3.02000E-01    4.76598E+03
 5.00000E-01    3.64946E+03
 8.21000E-01    3.20914E+03
 1.35300E+00    3.45542E+03
 2.23100E+00    3.74194E+03
 3.67900E+00    3.28242E+03
 6.06500E+00    2.35200E+03
