# n + Os187 : (n,h)     
# jendl4.0   N.Iwamoto                         EVAL-Jan10
# uncertainties: n
# # energies =    27
#   E(MeV)       xs(mb) 
 7.00000E+00    0.00000E+00
 7.50000E+00    1.61450E-33
 8.00000E+00    6.10330E-29
 8.50000E+00    1.98420E-25
 9.00000E+00    1.17110E-22
 9.50000E+00    1.98680E-20
 1.00000E+01    1.31140E-18
 1.05000E+01    4.16420E-17
 1.10000E+01    7.52490E-16
 1.15000E+01    9.26890E-15
 1.20000E+01    9.93790E-14
 1.25000E+01    1.10730E-12
 1.30000E+01    1.18250E-11
 1.35000E+01    1.06140E-10
 1.40000E+01    7.60430E-10
 1.45000E+01    4.48930E-09
 1.50000E+01    2.11670E-08
 1.55000E+01    8.40640E-08
 1.60000E+01    2.87450E-07
 1.65000E+01    8.62910E-07
 1.70000E+01    2.31363E-06
 1.75000E+01    5.62472E-06
 1.80000E+01    1.25634E-05
 1.85000E+01    2.60794E-05
 1.90000E+01    5.08116E-05
 1.95000E+01    9.37004E-05
 2.00000E+01    1.64681E-04
