# n + Os187 : (n,n'25)  
# jendl4.0   N.Iwamoto                         EVAL-Jan10
# uncertainties: n
# # energies =    64
#   E(MeV)       xs(mb) 
 6.14296E-01    0.00000E+00
 6.21334E-01    3.69358E+01
 6.45333E-01    6.39038E+01
 6.67713E-01    7.50095E+01
 6.73615E-01    7.60818E+01
 6.87690E-01    7.99505E+01
 6.88193E-01    8.00818E+01
 7.00000E-01    8.30890E+01
 7.15067E-01    8.67619E+01
 7.29656E-01    8.90354E+01
 7.31023E-01    8.86825E+01
 7.49019E-01    9.05916E+01
 7.61084E-01    9.09501E+01
 8.00000E-01    9.47079E+01
 9.00000E-01    9.96820E+01
 1.00000E+00    9.75186E+01
 1.10000E+00    8.99608E+01
 1.20000E+00    8.20491E+01
 1.30000E+00    7.26826E+01
 1.40000E+00    6.30068E+01
 1.50000E+00    5.45995E+01
 1.60000E+00    4.73354E+01
 1.70000E+00    4.04888E+01
 1.80000E+00    3.44776E+01
 1.90000E+00    2.93015E+01
 2.00000E+00    2.48747E+01
 2.25000E+00    1.67538E+01
 2.50000E+00    1.09103E+01
 2.75000E+00    7.27927E+00
 3.00000E+00    4.78664E+00
 3.50000E+00    2.10978E+00
 4.00000E+00    9.44684E-01
 4.50000E+00    4.42934E-01
 5.00000E+00    2.27691E-01
 5.50000E+00    1.34366E-01
 6.00000E+00    9.27123E-02
 6.50000E+00    7.29260E-02
 7.00000E+00    6.26663E-02
 7.50000E+00    5.65844E-02
 8.00000E+00    5.24876E-02
 8.50000E+00    4.94160E-02
 9.00000E+00    4.69037E-02
 9.50000E+00    4.46807E-02
 1.00000E+01    4.26002E-02
 1.05000E+01    4.05902E-02
 1.10000E+01    3.86314E-02
 1.15000E+01    3.67412E-02
 1.20000E+01    3.49338E-02
 1.25000E+01    3.32252E-02
 1.30000E+01    3.16263E-02
 1.35000E+01    3.01410E-02
 1.40000E+01    2.87678E-02
 1.45000E+01    2.75001E-02
 1.50000E+01    2.63276E-02
 1.55000E+01    2.52388E-02
 1.60000E+01    2.42214E-02
 1.65000E+01    2.32641E-02
 1.70000E+01    2.23542E-02
 1.75000E+01    2.14833E-02
 1.80000E+01    2.06515E-02
 1.85000E+01    1.98569E-02
 1.90000E+01    1.91052E-02
 1.95000E+01    1.83934E-02
 2.00000E+01    1.77206E-02
