# n + Os187 : (n,n'18)  
# jendl4.0   N.Iwamoto                         EVAL-Jan10
# uncertainties: n
# # energies =    72
#   E(MeV)       xs(mb) 
 5.04155E-01    0.00000E+00
 5.10962E-01    5.81594E+01
 5.14360E-01    6.80320E+01
 5.39455E-01    1.04045E+02
 5.59905E-01    1.13888E+02
 5.89473E-01    1.26426E+02
 5.99668E-01    1.29002E+02
 6.00000E-01    1.28393E+02
 6.14296E-01    1.29340E+02
 6.21334E-01    1.28090E+02
 6.45333E-01    1.30872E+02
 6.67713E-01    1.32886E+02
 6.73615E-01    1.31601E+02
 6.87690E-01    1.31837E+02
 6.88193E-01    1.31859E+02
 7.00000E-01    1.32525E+02
 7.15067E-01    1.33723E+02
 7.29656E-01    1.34263E+02
 7.31023E-01    1.33622E+02
 7.49019E-01    1.33551E+02
 7.61084E-01    1.32155E+02
 8.00000E-01    1.31311E+02
 9.00000E-01    1.28618E+02
 1.00000E+00    1.16580E+02
 1.10000E+00    1.05087E+02
 1.20000E+00    9.19537E+01
 1.30000E+00    7.92330E+01
 1.40000E+00    6.83479E+01
 1.50000E+00    5.90165E+01
 1.60000E+00    5.01894E+01
 1.70000E+00    4.25823E+01
 1.80000E+00    3.60837E+01
 1.90000E+00    3.05514E+01
 2.00000E+00    2.58599E+01
 2.25000E+00    1.73283E+01
 2.50000E+00    1.12480E+01
 2.75000E+00    7.48337E+00
 3.00000E+00    4.97189E+00
 3.50000E+00    2.21520E+00
 4.00000E+00    1.02053E+00
 4.50000E+00    5.06249E-01
 5.00000E+00    2.84136E-01
 5.50000E+00    1.85986E-01
 6.00000E+00    1.40381E-01
 6.50000E+00    1.17188E-01
 7.00000E+00    1.03964E-01
 7.50000E+00    9.53118E-02
 8.00000E+00    8.90226E-02
 8.50000E+00    8.40662E-02
 9.00000E+00    7.98815E-02
 9.50000E+00    7.61054E-02
 1.00000E+01    7.25334E-02
 1.05000E+01    6.90678E-02
 1.10000E+01    6.56955E-02
 1.15000E+01    6.24425E-02
 1.20000E+01    5.93388E-02
 1.25000E+01    5.64113E-02
 1.30000E+01    5.36771E-02
 1.35000E+01    5.11415E-02
 1.40000E+01    4.87999E-02
 1.45000E+01    4.66402E-02
 1.50000E+01    4.46436E-02
 1.55000E+01    4.27896E-02
 1.60000E+01    4.10571E-02
 1.65000E+01    3.94267E-02
 1.70000E+01    3.78783E-02
 1.75000E+01    3.63962E-02
 1.80000E+01    3.49809E-02
 1.85000E+01    3.36286E-02
 1.90000E+01    3.23486E-02
 1.95000E+01    3.11374E-02
 2.00000E+01    2.99939E-02
