# n + Os187 : (n,n'34)  
# jendl4.0   N.Iwamoto                         EVAL-Jan10
# uncertainties: n
# # energies =    54
#   E(MeV)       xs(mb) 
 7.31023E-01    0.00000E+00
 7.49019E-01    2.20612E-02
 7.61084E-01    3.47920E-02
 8.00000E-01    1.05374E-01
 9.00000E-01    5.65365E-01
 1.00000E+00    1.38111E+00
 1.10000E+00    2.35541E+00
 1.20000E+00    3.23524E+00
 1.30000E+00    3.98400E+00
 1.40000E+00    4.51769E+00
 1.50000E+00    4.74329E+00
 1.60000E+00    4.87947E+00
 1.70000E+00    4.94159E+00
 1.80000E+00    4.86324E+00
 1.90000E+00    4.69056E+00
 2.00000E+00    4.46981E+00
 2.25000E+00    3.86498E+00
 2.50000E+00    3.09626E+00
 2.75000E+00    2.46050E+00
 3.00000E+00    1.93880E+00
 3.50000E+00    1.11168E+00
 4.00000E+00    6.15385E-01
 4.50000E+00    3.42024E-01
 5.00000E+00    2.00497E-01
 5.50000E+00    1.29613E-01
 6.00000E+00    9.42426E-02
 6.50000E+00    7.59093E-02
 7.00000E+00    6.57616E-02
 7.50000E+00    5.94891E-02
 8.00000E+00    5.51745E-02
 8.50000E+00    5.19219E-02
 9.00000E+00    4.92713E-02
 9.50000E+00    4.69445E-02
 1.00000E+01    4.47810E-02
 1.05000E+01    4.26969E-02
 1.10000E+01    4.06638E-02
 1.15000E+01    3.87001E-02
 1.20000E+01    3.68180E-02
 1.25000E+01    3.50342E-02
 1.30000E+01    3.33614E-02
 1.35000E+01    3.18046E-02
 1.40000E+01    3.03621E-02
 1.45000E+01    2.90289E-02
 1.50000E+01    2.77954E-02
 1.55000E+01    2.66497E-02
 1.60000E+01    2.55794E-02
 1.65000E+01    2.45727E-02
 1.70000E+01    2.36170E-02
 1.75000E+01    2.27026E-02
 1.80000E+01    2.18290E-02
 1.85000E+01    2.09942E-02
 1.90000E+01    2.02041E-02
 1.95000E+01    1.94551E-02
 2.00000E+01    1.87466E-02
