# n + Os187 : (n,n'33)  
# jendl4.0   N.Iwamoto                         EVAL-Jan10
# uncertainties: n
# # energies =    55
#   E(MeV)       xs(mb) 
 7.29656E-01    0.00000E+00
 7.31023E-01    1.18888E+01
 7.49019E-01    3.66909E+01
 7.61084E-01    4.29138E+01
 8.00000E-01    5.55794E+01
 9.00000E-01    7.02371E+01
 1.00000E+00    7.46131E+01
 1.10000E+00    7.39420E+01
 1.20000E+00    6.96260E+01
 1.30000E+00    6.40413E+01
 1.40000E+00    5.75122E+01
 1.50000E+00    5.00993E+01
 1.60000E+00    4.35991E+01
 1.70000E+00    3.79594E+01
 1.80000E+00    3.26646E+01
 1.90000E+00    2.79075E+01
 2.00000E+00    2.37876E+01
 2.25000E+00    1.61330E+01
 2.50000E+00    1.05478E+01
 2.75000E+00    7.06004E+00
 3.00000E+00    4.64343E+00
 3.50000E+00    2.05121E+00
 4.00000E+00    9.16238E-01
 4.50000E+00    4.25478E-01
 5.00000E+00    2.14652E-01
 5.50000E+00    1.23489E-01
 6.00000E+00    8.30727E-02
 6.50000E+00    6.41574E-02
 7.00000E+00    5.45680E-02
 7.50000E+00    4.90328E-02
 8.00000E+00    4.53837E-02
 8.50000E+00    4.26901E-02
 9.00000E+00    4.05122E-02
 9.50000E+00    3.86037E-02
 1.00000E+01    3.68282E-02
 1.05000E+01    3.51164E-02
 1.10000E+01    3.34454E-02
 1.15000E+01    3.18309E-02
 1.20000E+01    3.02831E-02
 1.25000E+01    2.88160E-02
 1.30000E+01    2.74401E-02
 1.35000E+01    2.61596E-02
 1.40000E+01    2.49737E-02
 1.45000E+01    2.38771E-02
 1.50000E+01    2.28624E-02
 1.55000E+01    2.19200E-02
 1.60000E+01    2.10396E-02
 1.65000E+01    2.02115E-02
 1.70000E+01    1.94253E-02
 1.75000E+01    1.86731E-02
 1.80000E+01    1.79546E-02
 1.85000E+01    1.72679E-02
 1.90000E+01    1.66179E-02
 1.95000E+01    1.60019E-02
 2.00000E+01    1.54191E-02
