# n + Os192 : (n,n'21)  
# jeff3.3    A.J. Koning and D. Rochman        EVAL-DEC15
# uncertainties: n
# # energies =    71
#   E(MeV)       xs(mb) 
 1.65384E+00    0.00000E+00
 1.67384E+00    5.07252E-02
 1.71737E+00    1.61128E-01
 1.72191E+00    1.72643E-01
 1.74290E+00    2.25878E-01
 1.78969E+00    3.44550E-01
 1.80000E+00    3.70698E-01
 1.81721E+00    4.66040E-01
 1.83611E+00    5.70744E-01
 1.84705E+00    6.31351E-01
 2.00000E+00    1.47868E+00
 2.02599E+00    1.59951E+00
 2.20000E+00    2.40852E+00
 2.40000E+00    2.58628E+00
 2.60000E+00    2.44129E+00
 2.80000E+00    2.26721E+00
 3.00000E+00    2.13547E+00
 3.20000E+00    2.04490E+00
 3.40000E+00    1.98187E+00
 3.60000E+00    1.93408E+00
 3.80000E+00    1.89342E+00
 4.00000E+00    1.85671E+00
 4.20000E+00    1.82383E+00
 4.40000E+00    1.79564E+00
 4.60000E+00    1.77356E+00
 4.80000E+00    1.75803E+00
 5.00000E+00    1.74858E+00
 5.20000E+00    1.74383E+00
 5.40000E+00    1.74186E+00
 5.60000E+00    1.73973E+00
 5.80000E+00    1.73650E+00
 6.00000E+00    1.73004E+00
 6.20000E+00    1.71926E+00
 6.40000E+00    1.70347E+00
 6.60000E+00    1.68279E+00
 6.80000E+00    1.65750E+00
 7.00000E+00    1.62819E+00
 7.20000E+00    1.59545E+00
 7.40000E+00    1.56004E+00
 7.60000E+00    1.52272E+00
 7.80000E+00    1.48429E+00
 8.00000E+00    1.44553E+00
 8.50000E+00    1.35178E+00
 9.00000E+00    1.26900E+00
 9.50000E+00    1.20087E+00
 1.00000E+01    1.14669E+00
 1.05000E+01    1.10340E+00
 1.10000E+01    1.06727E+00
 1.15000E+01    1.03531E+00
 1.20000E+01    1.00565E+00
 1.25000E+01    9.77530E-01
 1.30000E+01    9.50852E-01
 1.35000E+01    9.25815E-01
 1.40000E+01    9.02628E-01
 1.45000E+01    8.81343E-01
 1.50000E+01    8.61856E-01
 1.60000E+01    8.27052E-01
 1.70000E+01    7.95200E-01
 1.80000E+01    7.63923E-01
 1.90000E+01    7.32764E-01
 2.00000E+01    7.02783E-01
 2.10000E+01    6.75461E-01
 2.20000E+01    6.51778E-01
 2.30000E+01    6.31845E-01
 2.40000E+01    6.15016E-01
 2.50000E+01    6.00215E-01
 2.60000E+01    5.86253E-01
 2.70000E+01    5.72119E-01
 2.80000E+01    5.57338E-01
 2.90000E+01    5.42064E-01
 3.00000E+01    5.26900E-01
