# n + Os192 : (n,n'06)  
# jeff3.3    A.J. Koning and D. Rochman        EVAL-DEC15
# uncertainties: n
# # energies =    90
#   E(MeV)       xs(mb) 
 9.61566E-01    0.00000E+00
 1.00000E+00    2.70481E+01
 1.07516E+00    3.75953E+01
 1.09495E+00    4.03724E+01
 1.13343E+00    4.57723E+01
 1.14953E+00    4.80316E+01
 1.20000E+00    5.51140E+01
 1.21263E+00    5.55031E+01
 1.34821E+00    5.96798E+01
 1.36917E+00    6.03255E+01
 1.40000E+00    6.12753E+01
 1.41727E+00    6.09519E+01
 1.45793E+00    6.01903E+01
 1.46425E+00    6.00719E+01
 1.47304E+00    5.99073E+01
 1.56880E+00    5.81138E+01
 1.60000E+00    5.75294E+01
 1.60011E+00    5.75242E+01
 1.62134E+00    5.65129E+01
 1.65384E+00    5.49648E+01
 1.67384E+00    5.40121E+01
 1.71737E+00    5.19386E+01
 1.72191E+00    5.17224E+01
 1.74290E+00    5.07226E+01
 1.78969E+00    4.84938E+01
 1.80000E+00    4.80027E+01
 1.81721E+00    4.70936E+01
 1.83611E+00    4.60951E+01
 1.84705E+00    4.55172E+01
 2.00000E+00    3.74374E+01
 2.02599E+00    3.61908E+01
 2.20000E+00    2.78441E+01
 2.40000E+00    1.84923E+01
 2.60000E+00    1.18095E+01
 2.80000E+00    7.58928E+00
 3.00000E+00    4.97995E+00
 3.20000E+00    3.33552E+00
 3.40000E+00    2.27068E+00
 3.60000E+00    1.56425E+00
 3.80000E+00    1.08731E+00
 4.00000E+00    7.61503E-01
 4.20000E+00    5.37226E-01
 4.40000E+00    3.81571E-01
 4.60000E+00    2.72753E-01
 4.80000E+00    1.96021E-01
 5.00000E+00    1.41483E-01
 5.20000E+00    1.02454E-01
 5.40000E+00    7.44461E-02
 5.60000E+00    5.39829E-02
 5.80000E+00    3.93393E-02
 6.00000E+00    2.87616E-02
 6.20000E+00    2.10885E-02
 6.40000E+00    1.55028E-02
 6.60000E+00    1.14259E-02
 6.80000E+00    8.42154E-03
 7.00000E+00    6.22756E-03
 7.20000E+00    4.60597E-03
 7.40000E+00    3.41163E-03
 7.60000E+00    2.53298E-03
 7.80000E+00    1.88182E-03
 8.00000E+00    1.40207E-03
 8.50000E+00    6.75553E-04
 9.00000E+00    3.29828E-04
 9.50000E+00    1.63709E-04
 1.00000E+01    8.25971E-05
 1.05000E+01    4.22836E-05
 1.10000E+01    2.19121E-05
 1.15000E+01    1.14741E-05
 1.20000E+01    6.06538E-06
 1.25000E+01    3.23751E-06
 1.30000E+01    1.74520E-06
 1.35000E+01    9.50470E-07
 1.40000E+01    5.23180E-07
 1.45000E+01    2.91150E-07
 1.50000E+01    1.63780E-07
 1.60000E+01    5.34210E-08
 1.70000E+01    1.80390E-08
 1.80000E+01    6.23980E-09
 1.90000E+01    2.21560E-09
 2.00000E+01    8.02900E-10
 2.10000E+01    2.97020E-10
 2.20000E+01    1.12370E-10
 2.30000E+01    4.35070E-11
 2.40000E+01    1.72200E-11
 2.50000E+01    6.96240E-12
 2.60000E+01    2.86690E-12
 2.70000E+01    1.19970E-12
 2.80000E+01    5.08860E-13
 2.90000E+01    2.18220E-13
 3.00000E+01    9.46810E-14
