# n + Os192 : (n,n'08)  
# jeff3.3    A.J. Koning and D. Rochman        EVAL-DEC15
# uncertainties: n
# # energies =    87
#   E(MeV)       xs(mb) 
 1.09495E+00    0.00000E+00
 1.13343E+00    8.46971E-02
 1.14953E+00    1.20134E-01
 1.20000E+00    2.31222E-01
 1.21263E+00    2.96875E-01
 1.34821E+00    1.00165E+00
 1.36917E+00    1.11060E+00
 1.40000E+00    1.27086E+00
 1.41727E+00    1.38863E+00
 1.45793E+00    1.66591E+00
 1.46425E+00    1.70901E+00
 1.47304E+00    1.76895E+00
 1.56880E+00    2.42198E+00
 1.60000E+00    2.63475E+00
 1.60011E+00    2.63561E+00
 1.62134E+00    2.80151E+00
 1.65384E+00    3.05547E+00
 1.67384E+00    3.21176E+00
 1.71737E+00    3.55192E+00
 1.72191E+00    3.58740E+00
 1.74290E+00    3.75142E+00
 1.78969E+00    4.11705E+00
 1.80000E+00    4.19762E+00
 1.81721E+00    4.36351E+00
 1.83611E+00    4.54570E+00
 1.84705E+00    4.65115E+00
 2.00000E+00    6.12549E+00
 2.02599E+00    6.25650E+00
 2.20000E+00    7.13366E+00
 2.40000E+00    6.59453E+00
 2.60000E+00    5.69758E+00
 2.80000E+00    4.93199E+00
 3.00000E+00    4.34163E+00
 3.20000E+00    3.88177E+00
 3.40000E+00    3.51446E+00
 3.60000E+00    3.21408E+00
 3.80000E+00    2.96566E+00
 4.00000E+00    2.76106E+00
 4.20000E+00    2.59562E+00
 4.40000E+00    2.46468E+00
 4.60000E+00    2.36347E+00
 4.80000E+00    2.28614E+00
 5.00000E+00    2.22655E+00
 5.20000E+00    2.17879E+00
 5.40000E+00    2.13781E+00
 5.60000E+00    2.09896E+00
 5.80000E+00    2.06063E+00
 6.00000E+00    2.02067E+00
 6.20000E+00    1.97803E+00
 6.40000E+00    1.93224E+00
 6.60000E+00    1.88344E+00
 6.80000E+00    1.83199E+00
 7.00000E+00    1.77867E+00
 7.20000E+00    1.72427E+00
 7.40000E+00    1.66982E+00
 7.60000E+00    1.61623E+00
 7.80000E+00    1.56435E+00
 8.00000E+00    1.51488E+00
 8.50000E+00    1.40469E+00
 9.00000E+00    1.31579E+00
 9.50000E+00    1.24636E+00
 1.00000E+01    1.19175E+00
 1.05000E+01    1.14688E+00
 1.10000E+01    1.10766E+00
 1.15000E+01    1.07163E+00
 1.20000E+01    1.03772E+00
 1.25000E+01    1.00579E+00
 1.30000E+01    9.76032E-01
 1.35000E+01    9.48693E-01
 1.40000E+01    9.23869E-01
 1.45000E+01    9.01423E-01
 1.50000E+01    8.81032E-01
 1.60000E+01    8.44479E-01
 1.70000E+01    8.10406E-01
 1.80000E+01    7.76636E-01
 1.90000E+01    7.43274E-01
 2.00000E+01    7.11783E-01
 2.10000E+01    6.83748E-01
 2.20000E+01    6.59957E-01
 2.30000E+01    6.40191E-01
 2.40000E+01    6.23516E-01
 2.50000E+01    6.08660E-01
 2.60000E+01    5.94314E-01
 2.70000E+01    5.79481E-01
 2.80000E+01    5.63865E-01
 2.90000E+01    5.47860E-01
 3.00000E+01    5.32231E-01
