# n + Os192 : (n,n'10)  
# jeff3.3    A.J. Koning and D. Rochman        EVAL-DEC15
# uncertainties: n
# # energies =    85
#   E(MeV)       xs(mb) 
 1.14953E+00    0.00000E+00
 1.20000E+00    1.35413E+00
 1.21263E+00    1.78500E+00
 1.34821E+00    6.41031E+00
 1.36917E+00    7.12536E+00
 1.40000E+00    8.17713E+00
 1.41727E+00    8.69099E+00
 1.45793E+00    9.90080E+00
 1.46425E+00    1.00889E+01
 1.47304E+00    1.03504E+01
 1.56880E+00    1.31997E+01
 1.60000E+00    1.41280E+01
 1.60011E+00    1.41300E+01
 1.62134E+00    1.45234E+01
 1.65384E+00    1.51255E+01
 1.67384E+00    1.54960E+01
 1.71737E+00    1.63025E+01
 1.72191E+00    1.63866E+01
 1.74290E+00    1.67754E+01
 1.78969E+00    1.76423E+01
 1.80000E+00    1.78333E+01
 1.81721E+00    1.80985E+01
 1.83611E+00    1.83898E+01
 1.84705E+00    1.85584E+01
 2.00000E+00    2.09155E+01
 2.02599E+00    2.08359E+01
 2.20000E+00    2.03027E+01
 2.40000E+00    1.60084E+01
 2.60000E+00    1.18380E+01
 2.80000E+00    8.78110E+00
 3.00000E+00    6.63173E+00
 3.20000E+00    5.08351E+00
 3.40000E+00    3.93026E+00
 3.60000E+00    3.04695E+00
 3.80000E+00    2.35854E+00
 4.00000E+00    1.81861E+00
 4.20000E+00    1.39637E+00
 4.40000E+00    1.06790E+00
 4.60000E+00    8.14331E-01
 4.80000E+00    6.19511E-01
 5.00000E+00    4.70277E-01
 5.20000E+00    3.56148E-01
 5.40000E+00    2.68975E-01
 5.60000E+00    2.01726E-01
 5.80000E+00    1.51305E-01
 6.00000E+00    1.13320E-01
 6.20000E+00    8.48600E-02
 6.40000E+00    6.35127E-02
 6.60000E+00    4.75753E-02
 6.80000E+00    3.56032E-02
 7.00000E+00    2.67058E-02
 7.20000E+00    2.00295E-02
 7.40000E+00    1.50443E-02
 7.60000E+00    1.13227E-02
 7.80000E+00    8.52621E-03
 8.00000E+00    6.44096E-03
 8.50000E+00    3.20622E-03
 9.00000E+00    1.61299E-03
 9.50000E+00    8.22073E-04
 1.00000E+01    4.24526E-04
 1.05000E+01    2.21975E-04
 1.10000E+01    1.17393E-04
 1.15000E+01    6.27353E-05
 1.20000E+01    3.38578E-05
 1.25000E+01    1.84581E-05
 1.30000E+01    1.01638E-05
 1.35000E+01    5.65293E-06
 1.40000E+01    3.17531E-06
 1.45000E+01    1.80095E-06
 1.50000E+01    1.03082E-06
 1.60000E+01    3.46170E-07
 1.70000E+01    1.19580E-07
 1.80000E+01    4.21470E-08
 1.90000E+01    1.52260E-08
 2.00000E+01    5.61160E-09
 2.10000E+01    2.10990E-09
 2.20000E+01    8.09980E-10
 2.30000E+01    3.17450E-10
 2.40000E+01    1.26830E-10
 2.50000E+01    5.16260E-11
 2.60000E+01    2.13660E-11
 2.70000E+01    8.98310E-12
 2.80000E+01    3.83130E-12
 2.90000E+01    1.65430E-12
 3.00000E+01    7.23220E-13
