# n + Os192 : (n,n'18)  
# jeff3.3    A.J. Koning and D. Rochman        EVAL-DEC15
# uncertainties: n
# # energies =    75
#   E(MeV)       xs(mb) 
 1.56880E+00    0.00000E+00
 1.60000E+00    8.53473E+00
 1.60011E+00    8.54287E+00
 1.62134E+00    1.01128E+01
 1.65384E+00    1.25162E+01
 1.67384E+00    1.39953E+01
 1.71737E+00    1.72143E+01
 1.72191E+00    1.75501E+01
 1.74290E+00    1.91023E+01
 1.78969E+00    2.25625E+01
 1.80000E+00    2.33249E+01
 1.81721E+00    2.42957E+01
 1.83611E+00    2.53619E+01
 1.84705E+00    2.59790E+01
 2.00000E+00    3.46071E+01
 2.02599E+00    3.46629E+01
 2.20000E+00    3.50364E+01
 2.40000E+00    2.66544E+01
 2.60000E+00    1.85160E+01
 2.80000E+00    1.27693E+01
 3.00000E+00    8.94364E+00
 3.20000E+00    6.37749E+00
 3.40000E+00    4.61646E+00
 3.60000E+00    3.37733E+00
 3.80000E+00    2.48657E+00
 4.00000E+00    1.83648E+00
 4.20000E+00    1.35840E+00
 4.40000E+00    1.00537E+00
 4.60000E+00    7.44764E-01
 4.80000E+00    5.52401E-01
 5.00000E+00    4.10383E-01
 5.20000E+00    3.05430E-01
 5.40000E+00    2.27730E-01
 5.60000E+00    1.69229E-01
 5.80000E+00    1.26229E-01
 6.00000E+00    9.43459E-02
 6.20000E+00    7.06899E-02
 6.40000E+00    5.30825E-02
 6.60000E+00    3.99815E-02
 6.80000E+00    3.01385E-02
 7.00000E+00    2.28120E-02
 7.20000E+00    1.72845E-02
 7.40000E+00    1.31231E-02
 7.60000E+00    9.98863E-03
 7.80000E+00    7.60622E-03
 8.00000E+00    5.80670E-03
 8.50000E+00    2.95885E-03
 9.00000E+00    1.51471E-03
 9.50000E+00    7.80971E-04
 1.00000E+01    4.06033E-04
 1.05000E+01    2.12978E-04
 1.10000E+01    1.12705E-04
 1.15000E+01    6.01605E-05
 1.20000E+01    3.23893E-05
 1.25000E+01    1.75979E-05
 1.30000E+01    9.65071E-06
 1.35000E+01    5.34296E-06
 1.40000E+01    2.98655E-06
 1.45000E+01    1.68547E-06
 1.50000E+01    9.60090E-07
 1.60000E+01    3.19750E-07
 1.70000E+01    1.09820E-07
 1.80000E+01    3.85720E-08
 1.90000E+01    1.38980E-08
 2.00000E+01    5.10820E-09
 2.10000E+01    1.91460E-09
 2.20000E+01    7.32460E-10
 2.30000E+01    2.86090E-10
 2.40000E+01    1.13940E-10
 2.50000E+01    4.62560E-11
 2.60000E+01    1.90970E-11
 2.70000E+01    8.01160E-12
 2.80000E+01    3.41040E-12
 2.90000E+01    1.47000E-12
 3.00000E+01    6.41720E-13
