# n + Os192 : (n,n'22)  
# jeff3.3    A.J. Koning and D. Rochman        EVAL-DEC15
# uncertainties: n
# # energies =    70
#   E(MeV)       xs(mb) 
 1.67384E+00    0.00000E+00
 1.71737E+00    8.76090E+00
 1.72191E+00    9.67462E+00
 1.74290E+00    1.38991E+01
 1.78969E+00    2.33161E+01
 1.80000E+00    2.53911E+01
 1.81721E+00    2.62997E+01
 1.83611E+00    2.72975E+01
 1.84705E+00    2.78750E+01
 2.00000E+00    3.59498E+01
 2.02599E+00    3.58508E+01
 2.20000E+00    3.51881E+01
 2.40000E+00    2.68548E+01
 2.60000E+00    1.84191E+01
 2.80000E+00    1.22792E+01
 3.00000E+00    8.23063E+00
 3.20000E+00    5.61070E+00
 3.40000E+00    3.89704E+00
 3.60000E+00    2.75147E+00
 3.80000E+00    1.96711E+00
 4.00000E+00    1.41904E+00
 4.20000E+00    1.03041E+00
 4.40000E+00    7.51672E-01
 4.60000E+00    5.50537E-01
 4.80000E+00    4.04676E-01
 5.00000E+00    2.98477E-01
 5.20000E+00    2.20867E-01
 5.40000E+00    1.63905E-01
 5.60000E+00    1.21299E-01
 5.80000E+00    9.01169E-02
 6.00000E+00    6.70414E-02
 6.20000E+00    4.99596E-02
 6.40000E+00    3.72553E-02
 6.60000E+00    2.78253E-02
 6.80000E+00    2.07677E-02
 7.00000E+00    1.55343E-02
 7.20000E+00    1.16161E-02
 7.40000E+00    8.68782E-03
 7.60000E+00    6.50572E-03
 7.80000E+00    4.86797E-03
 8.00000E+00    3.64860E-03
 8.50000E+00    1.77166E-03
 9.00000E+00    8.64964E-04
 9.50000E+00    4.27414E-04
 1.00000E+01    2.14533E-04
 1.05000E+01    1.09496E-04
 1.10000E+01    5.67744E-05
 1.15000E+01    2.98506E-05
 1.20000E+01    1.58849E-05
 1.25000E+01    8.54766E-06
 1.30000E+01    4.64671E-06
 1.35000E+01    2.55087E-06
 1.40000E+01    1.41376E-06
 1.45000E+01    7.90980E-07
 1.50000E+01    4.46610E-07
 1.60000E+01    1.46130E-07
 1.70000E+01    4.93420E-08
 1.80000E+01    1.70680E-08
 1.90000E+01    6.07390E-09
 2.00000E+01    2.21140E-09
 2.10000E+01    8.22680E-10
 2.20000E+01    3.12650E-10
 2.30000E+01    1.21300E-10
 2.40000E+01    4.79810E-11
 2.50000E+01    1.93500E-11
 2.60000E+01    7.94430E-12
 2.70000E+01    3.31840E-12
 2.80000E+01    1.40780E-12
 2.90000E+01    6.04920E-13
 3.00000E+01    2.63170E-13
