# n + La138 : (n,g)     
# jendl4.0   JNDC FP NUCLEAR DATA W.G.         EVAL-MAR90
# uncertainties: n
# # energies =    69
#   E(MeV)       xs(mb) 
 1.00000E-10    3.97155E+05
 5.00000E-09    1.08227E+05
 1.00000E-08    8.20211E+04
 1.50000E-08    6.89576E+04
 2.00000E-08    6.07090E+04
 2.50000E-08    5.48834E+04
 3.00000E-08    5.04840E+04
 3.50000E-08    4.64530E+04
 4.20000E-08    4.25318E+04
 5.00000E-08    3.92735E+04
 5.80000E-08    3.65446E+04
 6.70000E-08    3.37768E+04
 8.00000E-08    3.06358E+04
 1.00000E-07    2.67672E+04
 1.40000E-07    2.32415E+04
 1.80000E-07    2.08907E+04
 2.20000E-07    1.93566E+04
 2.50000E-07    1.83222E+04
 2.80000E-07    1.75868E+04
 3.00000E-07    1.70750E+04
 3.20000E-07    1.65114E+04
 3.50000E-07    1.57462E+04
 4.00000E-07    1.46457E+04
 5.00000E-07    1.34738E+04
 6.25000E-07    1.25625E+04
 7.80000E-07    1.20972E+04
 8.50000E-07    1.19345E+04
 9.10000E-07    1.18491E+04
 9.50000E-07    1.18131E+04
 9.72000E-07    1.17948E+04
 9.96000E-07    1.17827E+04
 1.02000E-06    1.17777E+04
 1.04500E-06    1.17810E+04
 1.07100E-06    1.17923E+04
 1.09700E-06    1.18127E+04
 1.12300E-06    1.18406E+04
 1.15000E-06    1.20103E+04
 1.30000E-06    1.26552E+04
 1.50000E-06    1.68982E+04
 2.10000E-06    4.60837E+04
 2.60000E-06    1.14499E+06
 3.30000E-06    4.44318E+04
 4.00000E-06    3.56985E+03
 9.87700E-06    9.13891E+02
 1.59680E-05    3.46827E+04
 2.77000E-05    1.98535E+02
 4.80520E-05    1.38142E+04
 7.55014E-05    1.18799E+04
 1.48728E-04    1.06527E+04
 3.67262E-04    3.51164E+03
 9.06898E-04    2.14656E+03
 1.42510E-03    1.56883E+03
 2.23945E-03    1.16115E+03
 3.51910E-03    8.78237E+02
 5.53000E-03    6.72978E+02
 9.11800E-03    5.19377E+02
 1.50300E-02    4.02922E+02
 2.47800E-02    3.10396E+02
 4.08500E-02    2.34108E+02
 6.73400E-02    1.72488E+02
 1.11000E-01    1.26716E+02
 1.83000E-01    9.45988E+01
 3.02000E-01    7.22178E+01
 5.00000E-01    5.91439E+01
 8.21000E-01    4.02002E+01
 1.35300E+00    1.99185E+01
 2.23100E+00    7.72850E+00
 3.67900E+00    2.08316E+00
 6.06500E+00    1.07385E+00
