# n + Ba134 : (n,el)    
# endfb8.0   JNDC FPND W.G., Mughabghab        EVAL-JAN05
# uncertainties: n
# # energies =   171
#   E(MeV)       xs(mb) 
 1.00000E-11    8.42030E+03
 1.00000E-07    5.20296E+03
 4.13990E-07    5.19699E+03
 5.31580E-07    5.19415E+03
 6.82560E-07    5.19063E+03
 8.76420E-07    5.18651E+03
 1.12540E-06    5.18126E+03
 1.44500E-06    5.17451E+03
 1.85540E-06    5.16593E+03
 2.37240E-06    5.15482E+03
 3.05900E-06    5.14043E+03
 3.92790E-06    5.12209E+03
 5.04350E-06    5.09854E+03
 6.47600E-06    5.06829E+03
 8.31530E-06    5.02946E+03
 1.06770E-05    4.97960E+03
 1.37100E-05    4.91558E+03
 1.76030E-05    4.83338E+03
 2.26030E-05    4.72393E+03
 2.92030E-05    4.57247E+03
 3.72670E-05    4.36406E+03
 4.78510E-05    4.03284E+03
 6.14420E-05    3.38458E+03
 7.88930E-05    1.19055E+04
 1.01300E-04    1.81534E+05
 1.30070E-04    5.97682E+03
 1.67020E-04    5.05301E+03
 2.14450E-04    4.57074E+03
 2.75360E-04    4.21154E+03
 3.53580E-04    3.87599E+03
 4.54000E-04    5.18604E+03
 5.82950E-04    3.47645E+03
 7.48520E-04    3.10797E+03
 9.61120E-04    1.14693E+04
 1.23410E-03    3.58839E+03
 1.58460E-03    6.94271E+03
 2.03470E-03    2.73228E+03
 2.24870E-03    2.21591E+03
 2.48520E-03    1.22122E+03
 2.61260E-03    3.83167E+04
 2.74650E-03    1.11177E+04
 3.03540E-03    3.62043E+03
 3.35460E-03    7.38601E+03
 3.70740E-03    2.03892E+04
 4.30740E-03    1.49486E+04
 5.53080E-03    7.80667E+03
 7.10170E-03    6.29635E+03
 9.11880E-03    1.71555E+04
 1.17090E-02    5.42731E+03
 1.50340E-02    5.22923E+03
 1.93050E-02    5.09938E+03
 2.18750E-02    5.03598E+03
 2.35790E-02    5.00644E+03
 2.41760E-02    4.99135E+03
 2.47880E-02    4.96950E+03
 2.60580E-02    4.94568E+03
 2.70000E-02    4.92058E+03
 2.85000E-02    4.87743E+03
 3.18280E-02    4.83096E+03
 3.43070E-02    4.77306E+03
 4.08680E-02    4.70870E+03
 4.63090E-02    4.65959E+03
 5.24750E-02    4.62204E+03
 5.65620E-02    4.57797E+03
 6.73790E-02    4.53708E+03
 7.20000E-02    4.50955E+03
 7.95000E-02    4.48736E+03
 8.25000E-02    4.47410E+03
 8.65170E-02    4.44650E+03
 9.80370E-02    4.45080E+03
 1.11090E-01    4.47304E+03
 1.16790E-01    4.48486E+03
 1.22770E-01    4.49730E+03
 1.29070E-01    4.51038E+03
 1.35690E-01    4.52412E+03
 1.42640E-01    4.53892E+03
 1.49960E-01    4.55969E+03
 1.57640E-01    4.58327E+03
 1.65730E-01    4.60807E+03
 1.74220E-01    4.63414E+03
 1.83160E-01    4.66155E+03
 1.92550E-01    4.69035E+03
 2.02420E-01    4.72128E+03
 2.12800E-01    4.75718E+03
 2.23710E-01    4.79540E+03
 2.35180E-01    4.83559E+03
 2.47240E-01    4.90003E+03
 2.73240E-01    4.96891E+03
 2.87250E-01    5.00541E+03
 2.94520E-01    5.02245E+03
 2.97200E-01    5.02926E+03
 2.98500E-01    5.03739E+03
 3.01970E-01    5.10094E+03
 3.33730E-01    5.22426E+03
 3.68830E-01    5.32063E+03
 3.87740E-01    5.38188E+03
 4.07620E-01    5.48004E+03
 4.50490E-01    5.61528E+03
 4.97870E-01    5.71825E+03
 5.23400E-01    5.79157E+03
 5.50230E-01    5.86865E+03
 5.78440E-01    5.94901E+03
 6.08100E-01    6.00310E+03
 6.39280E-01    6.02672E+03
 6.72060E-01    6.05091E+03
 7.06510E-01    6.08717E+03
 7.42740E-01    6.13454E+03
 7.80820E-01    6.18433E+03
 8.20850E-01    6.23667E+03
 8.62940E-01    6.28592E+03
 9.07180E-01    6.33338E+03
 9.61640E-01    6.37936E+03
 1.00260E+00    6.42250E+03
 1.10800E+00    6.46120E+03
 1.16480E+00    6.47008E+03
 1.22460E+00    6.43981E+03
 1.28730E+00    6.40673E+03
 1.35340E+00    6.37196E+03
 1.42270E+00    6.32471E+03
 1.49570E+00    6.25810E+03
 1.57240E+00    6.18299E+03
 1.65300E+00    6.08929E+03
 1.73770E+00    5.96826E+03
 1.82680E+00    5.83296E+03
 1.92050E+00    5.68813E+03
 2.01900E+00    5.52168E+03
 2.12250E+00    5.33461E+03
 2.23130E+00    5.17056E+03
 2.30690E+00    5.06854E+03
 2.34570E+00    5.01653E+03
 2.36530E+00    4.98140E+03
 2.38520E+00    4.89221E+03
 2.46600E+00    4.70847E+03
 2.59240E+00    4.47799E+03
 2.72530E+00    4.25168E+03
 2.86500E+00    4.03359E+03
 3.01190E+00    3.81867E+03
 3.16640E+00    3.60673E+03
 3.32870E+00    3.31172E+03
 3.67880E+00    2.95372E+03
 4.06570E+00    2.66663E+03
 4.49330E+00    2.48103E+03
 4.72370E+00    2.36432E+03
 4.96590E+00    2.27453E+03
 5.22050E+00    2.22174E+03
 5.48810E+00    2.16843E+03
 5.76950E+00    2.11860E+03
 6.06530E+00    2.10686E+03
 6.37630E+00    2.11219E+03
 6.59240E+00    2.11550E+03
 6.70320E+00    2.12031E+03
 7.04690E+00    2.14490E+03
 7.40820E+00    2.18143E+03
 7.78800E+00    2.21988E+03
 8.18730E+00    2.26283E+03
 8.60710E+00    2.30941E+03
 9.04840E+00    2.36890E+03
 9.51230E+00    2.42156E+03
 1.00000E+01    2.48709E+03
 1.05130E+01    2.58636E+03
 1.10520E+01    2.63163E+03
 1.16180E+01    2.63807E+03
 1.22140E+01    2.63718E+03
 1.28400E+01    2.66121E+03
 1.34990E+01    2.72879E+03
 1.38400E+01    2.77079E+03
 1.41910E+01    2.78192E+03
 1.45500E+01    2.79456E+03
 1.49180E+01    2.80862E+03
 1.56830E+01    2.81153E+03
 1.64870E+01    2.79887E+03
