# n + Ba132 : (n,g)     
# jendl4.0   JNDC FP NUCLEAR DATA W.G.         EVAL-MAR90
# uncertainties: n
# # energies =   171
#   E(MeV)       xs(mb) 
 1.00000E-11    7.56972E+04
 1.00000E-07    2.52075E+03
 4.13990E-07    1.62674E+03
 5.31580E-07    1.43559E+03
 6.82560E-07    1.26690E+03
 8.76420E-07    1.11803E+03
 1.12540E-06    9.86778E+02
 1.44500E-06    8.71023E+02
 1.85540E-06    7.69563E+02
 2.37240E-06    6.79227E+02
 3.05900E-06    5.98716E+02
 3.92790E-06    5.28407E+02
 5.04350E-06    4.66285E+02
 6.47600E-06    4.11507E+02
 8.31530E-06    3.63151E+02
 1.06770E-05    3.20475E+02
 1.37100E-05    2.82823E+02
 1.76030E-05    2.49579E+02
 2.26030E-05    2.19935E+02
 2.92030E-05    1.94057E+02
 3.72670E-05    1.71539E+02
 4.78510E-05    1.51374E+02
 6.14420E-05    1.02127E+04
 7.88930E-05    1.51530E+04
 1.01300E-04    1.29286E+04
 1.30070E-04    1.09647E+04
 1.67020E-04    9.29990E+03
 2.14450E-04    7.85833E+03
 2.75360E-04    6.63031E+03
 3.53580E-04    5.58039E+03
 4.54000E-04    4.68893E+03
 5.82950E-04    3.93712E+03
 7.48520E-04    3.29959E+03
 9.61120E-04    2.76370E+03
 1.23410E-03    2.31637E+03
 1.58460E-03    1.94541E+03
 2.03470E-03    1.72143E+03
 2.24870E-03    1.60701E+03
 2.48520E-03    1.52705E+03
 2.61260E-03    1.47670E+03
 2.74650E-03    1.40536E+03
 3.03540E-03    1.31645E+03
 3.35460E-03    1.23365E+03
 3.70740E-03    1.14004E+03
 4.30740E-03    1.00940E+03
 5.53080E-03    8.74134E+02
 7.10170E-03    7.64659E+02
 9.11880E-03    6.75903E+02
 1.17090E-02    6.03705E+02
 1.50340E-02    5.43745E+02
 1.93050E-02    5.04265E+02
 2.18750E-02    4.86460E+02
 2.35790E-02    4.78446E+02
 2.41760E-02    4.74347E+02
 2.47880E-02    4.68044E+02
 2.60580E-02    4.60656E+02
 2.70000E-02    4.52901E+02
 2.85000E-02    4.39570E+02
 3.18280E-02    4.24307E+02
 3.43070E-02    4.05470E+02
 4.08680E-02    3.83773E+02
 4.63090E-02    3.66753E+02
 5.24750E-02    3.53305E+02
 5.65620E-02    3.37588E+02
 6.73790E-02    3.23151E+02
 7.20000E-02    3.13713E+02
 7.95000E-02    3.06273E+02
 8.25000E-02    3.01789E+02
 8.65170E-02    2.93335E+02
 9.80370E-02    2.78199E+02
 1.11090E-01    2.70921E+02
 1.16790E-01    2.67314E+02
 1.22770E-01    2.63758E+02
 1.29070E-01    2.60248E+02
 1.35690E-01    2.56791E+02
 1.42640E-01    2.53373E+02
 1.49960E-01    2.50788E+02
 1.57640E-01    2.49062E+02
 1.65730E-01    2.47331E+02
 1.74220E-01    2.45632E+02
 1.83160E-01    2.43925E+02
 1.92550E-01    2.42279E+02
 2.02420E-01    2.41627E+02
 2.12800E-01    2.41403E+02
 2.23710E-01    2.41168E+02
 2.35180E-01    2.40921E+02
 2.47240E-01    2.41430E+02
 2.73240E-01    2.42787E+02
 2.87250E-01    2.43513E+02
 2.94520E-01    2.43852E+02
 2.97200E-01    2.43987E+02
 2.98500E-01    2.44149E+02
 3.01970E-01    2.46637E+02
 3.33730E-01    2.51731E+02
 3.68830E-01    2.55759E+02
 3.87740E-01    2.58277E+02
 4.07620E-01    2.62293E+02
 4.50490E-01    2.58614E+02
 4.97870E-01    2.38444E+02
 5.23400E-01    2.37247E+02
 5.50230E-01    2.36066E+02
 5.78440E-01    2.34823E+02
 6.08100E-01    2.33517E+02
 6.39280E-01    2.32201E+02
 6.72060E-01    2.31064E+02
 7.06510E-01    2.32932E+02
 7.42740E-01    2.36479E+02
 7.80820E-01    2.40298E+02
 8.20850E-01    2.45276E+02
 8.62940E-01    2.50771E+02
 9.07180E-01    2.57773E+02
 9.61640E-01    2.65118E+02
 1.00260E+00    2.72960E+02
 1.10800E+00    2.73504E+02
 1.16480E+00    2.74885E+02
 1.22460E+00    2.77643E+02
 1.28730E+00    2.84930E+02
 1.35340E+00    2.93098E+02
 1.42270E+00    3.01682E+02
 1.49570E+00    3.09784E+02
 1.57240E+00    3.15388E+02
 1.65300E+00    3.20570E+02
 1.73770E+00    3.21873E+02
 1.82680E+00    3.24982E+02
 1.92050E+00    3.28791E+02
 2.01900E+00    3.30498E+02
 2.12250E+00    3.25927E+02
 2.23130E+00    3.21628E+02
 2.30690E+00    3.18960E+02
 2.34570E+00    3.17600E+02
 2.36530E+00    3.16685E+02
 2.38520E+00    3.14681E+02
 2.46600E+00    3.10640E+02
 2.59240E+00    3.05570E+02
 2.72530E+00    3.00637E+02
 2.86500E+00    2.95819E+02
 3.01190E+00    2.89021E+02
 3.16640E+00    2.80643E+02
 3.32870E+00    2.68680E+02
 3.67880E+00    2.53330E+02
 4.06570E+00    2.37616E+02
 4.49330E+00    2.25883E+02
 4.72370E+00    2.18350E+02
 4.96590E+00    2.11227E+02
 5.22050E+00    2.04597E+02
 5.48810E+00    1.98122E+02
 5.76950E+00    1.91681E+02
 6.06530E+00    1.81165E+02
 6.37630E+00    1.71247E+02
 6.59240E+00    1.65580E+02
 6.70320E+00    1.58195E+02
 7.04690E+00    1.42163E+02
 7.40820E+00    1.24620E+02
 7.78800E+00    1.08632E+02
 8.18730E+00    9.08443E+01
 8.60710E+00    7.52875E+01
 9.04840E+00    6.12305E+01
 9.51230E+00    4.90983E+01
 1.00000E+01    3.67737E+01
 1.05130E+01    2.55774E+01
 1.10520E+01    1.78999E+01
 1.16180E+01    1.25596E+01
 1.22140E+01    8.59129E+00
 1.28400E+01    5.88827E+00
 1.34990E+01    4.51125E+00
 1.38400E+01    3.82467E+00
 1.41910E+01    3.40299E+00
 1.45500E+01    3.04987E+00
 1.49180E+01    2.66299E+00
 1.56830E+01    2.31954E+00
 1.64870E+01    2.11478E+00
