# n + Re185 : (n,n'13)  
# jeff3.3    A.J. Koning and D. Rochman        EVAL-DEC15
# uncertainties: n
# # energies =    84
#   E(MeV)       xs(mb) 
 8.79586E-01    0.00000E+00
 8.85132E-01    9.80815E+00
 9.00000E-01    3.61021E+01
 9.22001E-01    4.43858E+01
 9.36141E-01    4.97097E+01
 9.54879E-01    5.67649E+01
 9.71268E-01    6.29356E+01
 1.00000E+00    7.37536E+01
 1.00023E+00    7.37845E+01
 1.01852E+00    7.62386E+01
 1.05070E+00    8.05566E+01
 1.14923E+00    9.37776E+01
 1.19548E+00    9.99835E+01
 1.20000E+00    1.00590E+02
 1.21268E+00    1.00328E+02
 1.22665E+00    1.00039E+02
 1.23460E+00    9.98741E+01
 1.26868E+00    9.91691E+01
 1.28497E+00    9.88320E+01
 1.30508E+00    9.84159E+01
 1.31011E+00    9.83119E+01
 1.40000E+00    9.64521E+01
 1.60000E+00    6.44545E+01
 1.80000E+00    3.73616E+01
 2.00000E+00    2.10419E+01
 2.20000E+00    1.19864E+01
 2.40000E+00    6.98521E+00
 2.60000E+00    4.17759E+00
 2.80000E+00    2.57284E+00
 3.00000E+00    1.64180E+00
 3.20000E+00    1.08783E+00
 3.40000E+00    7.65476E-01
 3.60000E+00    5.72820E-01
 3.80000E+00    4.56193E-01
 4.00000E+00    3.85426E-01
 4.20000E+00    3.43395E-01
 4.40000E+00    3.18143E-01
 4.60000E+00    3.03204E-01
 4.80000E+00    2.94439E-01
 5.00000E+00    2.89249E-01
 5.20000E+00    2.85875E-01
 5.40000E+00    2.83185E-01
 5.60000E+00    2.80387E-01
 5.80000E+00    2.77149E-01
 6.00000E+00    2.73244E-01
 6.20000E+00    2.68627E-01
 6.40000E+00    2.63328E-01
 6.60000E+00    2.57415E-01
 6.80000E+00    2.50979E-01
 7.00000E+00    2.44128E-01
 7.20000E+00    2.36975E-01
 7.40000E+00    2.29650E-01
 7.60000E+00    2.22274E-01
 7.80000E+00    2.14970E-01
 8.00000E+00    2.07842E-01
 8.50000E+00    1.91318E-01
 9.00000E+00    1.77178E-01
 9.50000E+00    1.65489E-01
 1.00000E+01    1.55866E-01
 1.05000E+01    1.47758E-01
 1.10000E+01    1.40652E-01
 1.15000E+01    1.34197E-01
 1.20000E+01    1.28214E-01
 1.25000E+01    1.22642E-01
 1.30000E+01    1.17493E-01
 1.35000E+01    1.12801E-01
 1.40000E+01    1.08586E-01
 1.45000E+01    1.04849E-01
 1.50000E+01    1.01561E-01
 1.60000E+01    9.60676E-02
 1.70000E+01    9.14493E-02
 1.80000E+01    8.71029E-02
 1.90000E+01    8.27468E-02
 2.00000E+01    7.84114E-02
 2.10000E+01    7.43190E-02
 2.20000E+01    7.07235E-02
 2.30000E+01    6.77592E-02
 2.40000E+01    6.54086E-02
 2.50000E+01    6.35514E-02
 2.60000E+01    6.20136E-02
 2.70000E+01    6.05990E-02
 2.80000E+01    5.91414E-02
 2.90000E+01    5.75653E-02
 3.00000E+01    5.59091E-02
