# n + Re185 : (n,n'11)  
# jeff3.3    A.J. Koning and D. Rochman        EVAL-DEC15
# uncertainties: n
# # energies =    86
#   E(MeV)       xs(mb) 
 8.30505E-01    0.00000E+00
 8.40559E-01    1.29208E+01
 8.79586E-01    6.30759E+01
 8.85132E-01    7.02034E+01
 9.00000E-01    8.93108E+01
 9.22001E-01    9.95605E+01
 9.36141E-01    1.06148E+02
 9.54879E-01    1.14877E+02
 9.71268E-01    1.22513E+02
 1.00000E+00    1.35898E+02
 1.00023E+00    1.35940E+02
 1.01852E+00    1.39270E+02
 1.05070E+00    1.45128E+02
 1.14923E+00    1.63065E+02
 1.19548E+00    1.71485E+02
 1.20000E+00    1.72308E+02
 1.21268E+00    1.71142E+02
 1.22665E+00    1.69856E+02
 1.23460E+00    1.69125E+02
 1.26868E+00    1.65989E+02
 1.28497E+00    1.64491E+02
 1.30508E+00    1.62641E+02
 1.31011E+00    1.62178E+02
 1.40000E+00    1.53908E+02
 1.60000E+00    9.92620E+01
 1.80000E+00    5.67582E+01
 2.00000E+00    3.19151E+01
 2.20000E+00    1.81996E+01
 2.40000E+00    1.05917E+01
 2.60000E+00    6.29605E+00
 2.80000E+00    3.82682E+00
 3.00000E+00    2.38504E+00
 3.20000E+00    1.52111E+00
 3.40000E+00    1.01262E+00
 3.60000E+00    7.05901E-01
 3.80000E+00    5.18183E-01
 4.00000E+00    4.04343E-01
 4.20000E+00    3.35757E-01
 4.40000E+00    2.94699E-01
 4.60000E+00    2.70844E-01
 4.80000E+00    2.57593E-01
 5.00000E+00    2.50761E-01
 5.20000E+00    2.47545E-01
 5.40000E+00    2.46091E-01
 5.60000E+00    2.45098E-01
 5.80000E+00    2.43964E-01
 6.00000E+00    2.42217E-01
 6.20000E+00    2.39681E-01
 6.40000E+00    2.36300E-01
 6.60000E+00    2.32106E-01
 6.80000E+00    2.27190E-01
 7.00000E+00    2.21674E-01
 7.20000E+00    2.15705E-01
 7.40000E+00    2.09439E-01
 7.60000E+00    2.03032E-01
 7.80000E+00    1.96629E-01
 8.00000E+00    1.90354E-01
 8.50000E+00    1.75831E-01
 9.00000E+00    1.63576E-01
 9.50000E+00    1.53684E-01
 1.00000E+01    1.45767E-01
 1.05000E+01    1.39271E-01
 1.10000E+01    1.33684E-01
 1.15000E+01    1.28659E-01
 1.20000E+01    1.24007E-01
 1.25000E+01    1.19669E-01
 1.30000E+01    1.15650E-01
 1.35000E+01    1.11986E-01
 1.40000E+01    1.08700E-01
 1.45000E+01    1.05798E-01
 1.50000E+01    1.03259E-01
 1.60000E+01    9.90538E-02
 1.70000E+01    9.55162E-02
 1.80000E+01    9.21014E-02
 1.90000E+01    8.85294E-02
 2.00000E+01    8.48081E-02
 2.10000E+01    8.11600E-02
 2.20000E+01    7.78644E-02
 2.30000E+01    7.50878E-02
 2.40000E+01    7.28382E-02
 2.50000E+01    7.10104E-02
 2.60000E+01    6.94338E-02
 2.70000E+01    6.79089E-02
 2.80000E+01    6.62689E-02
 2.90000E+01    6.44461E-02
 3.00000E+01    6.24941E-02
