# n + Ba137 : (n,n')n   
# jendl.ad   N.Iwamoto                         EVAL-Apr14
# uncertainties: n
# # energies =    81
#   E(MeV)       xs(mb) 
 6.66534E-01    0.00000E+00
 7.00000E-01    1.69992E+01
 8.00000E-01    4.76810E+01
 9.00000E-01    7.35167E+01
 9.13682E-01    7.69466E+01
 1.00000E+00    9.47847E+01
 1.05169E+00    1.06087E+02
 1.10000E+00    1.11046E+02
 1.20000E+00    1.25292E+02
 1.26104E+00    1.34492E+02
 1.30000E+00    1.29986E+02
 1.30343E+00    1.29968E+02
 1.40000E+00    1.28766E+02
 1.47458E+00    1.31147E+02
 1.49272E+00    1.31769E+02
 1.50000E+00    1.31955E+02
 1.60000E+00    1.35492E+02
 1.70000E+00    1.39479E+02
 1.80000E+00    1.43146E+02
 1.81091E+00    1.43490E+02
 1.85114E+00    1.63982E+02
 1.87068E+00    1.71230E+02
 1.90000E+00    1.81123E+02
 1.90594E+00    1.83071E+02
 1.91339E+00    1.85401E+02
 1.92157E+00    1.87671E+02
 2.00000E+00    2.05984E+02
 2.05644E+00    2.15965E+02
 2.06248E+00    2.16542E+02
 2.13260E+00    2.42853E+02
 2.19830E+00    2.56627E+02
 2.24532E+00    2.64950E+02
 2.24593E+00    2.64716E+02
 2.25000E+00    2.64843E+02
 2.28773E+00    2.69763E+02
 2.32803E+00    2.73746E+02
 2.35724E+00    2.74780E+02
 2.36127E+00    2.74309E+02
 2.36641E+00    2.74247E+02
 2.37296E+00    2.74368E+02
 2.39048E+00    2.74784E+02
 2.42554E+00    2.75003E+02
 2.44488E+00    2.82668E+02
 2.45677E+00    2.83695E+02
 2.50000E+00    2.90510E+02
 2.75000E+00    3.23575E+02
 3.00000E+00    3.71311E+02
 3.50000E+00    4.55821E+02
 4.00000E+00    5.21646E+02
 4.50000E+00    5.59924E+02
 5.00000E+00    5.79257E+02
 5.50000E+00    5.89835E+02
 6.00000E+00    5.99801E+02
 6.50000E+00    6.11843E+02
 7.00000E+00    6.24671E+02
 7.50000E+00    6.31330E+02
 8.00000E+00    6.22941E+02
 8.50000E+00    5.93839E+02
 9.00000E+00    5.45810E+02
 9.50000E+00    4.70886E+02
 1.00000E+01    3.79846E+02
 1.05000E+01    2.95438E+02
 1.10000E+01    2.29065E+02
 1.15000E+01    1.79778E+02
 1.20000E+01    1.43929E+02
 1.25000E+01    1.18042E+02
 1.30000E+01    9.94759E+01
 1.35000E+01    8.61794E+01
 1.40000E+01    7.66080E+01
 1.45000E+01    6.95955E+01
 1.50000E+01    6.43137E+01
 1.55000E+01    6.00973E+01
 1.60000E+01    5.65033E+01
 1.65000E+01    5.41729E+01
 1.70000E+01    5.16301E+01
 1.75000E+01    4.96198E+01
 1.80000E+01    4.75043E+01
 1.85000E+01    4.54483E+01
 1.90000E+01    4.41373E+01
 1.95000E+01    4.22759E+01
 2.00000E+01    4.12359E+01
