# n + Ba137 : (n,tot)   
# jendl.ad   N.Iwamoto                         EVAL-Apr14
# uncertainties: n
# # energies =    69
#   E(MeV)       xs(mb) 
 1.00000E-10    2.51923E+04
 5.00000E-09    6.85601E+03
 1.00000E-08    5.19020E+03
 1.50000E-08    4.35939E+03
 2.00000E-08    3.83373E+03
 2.50000E-08    3.46238E+03
 3.00000E-08    3.18177E+03
 3.50000E-08    2.92380E+03
 4.20000E-08    2.67263E+03
 5.00000E-08    2.46410E+03
 5.80000E-08    2.28892E+03
 6.70000E-08    2.11034E+03
 8.00000E-08    1.90712E+03
 1.00000E-07    1.65577E+03
 1.40000E-07    1.42439E+03
 1.80000E-07    1.26793E+03
 2.20000E-07    1.16480E+03
 2.50000E-07    1.09424E+03
 2.80000E-07    1.04334E+03
 3.00000E-07    1.00752E+03
 3.20000E-07    9.67643E+02
 3.50000E-07    9.12494E+02
 4.00000E-07    8.30785E+02
 5.00000E-07    7.37021E+02
 6.25000E-07    6.52625E+02
 7.80000E-07    5.98935E+02
 8.50000E-07    5.73512E+02
 9.10000E-07    5.55781E+02
 9.50000E-07    5.45542E+02
 9.72000E-07    5.38283E+02
 9.96000E-07    5.30876E+02
 1.02000E-06    5.23637E+02
 1.04500E-06    5.16245E+02
 1.07100E-06    5.09086E+02
 1.09700E-06    5.02114E+02
 1.12300E-06    4.95518E+02
 1.15000E-06    4.74626E+02
 1.30000E-06    4.38716E+02
 1.50000E-06    3.79226E+02
 2.10000E-06    3.17644E+02
 2.60000E-06    2.72487E+02
 3.30000E-06    2.33473E+02
 4.00000E-06    1.52617E+02
 9.87700E-06    7.61812E+01
 1.59680E-05    4.08657E+01
 2.77000E-05    1.87673E+01
 4.80520E-05    8.63942E+00
 7.55014E-05    5.37874E+01
 1.48728E-04    4.84284E+00
 3.67262E-04    2.08296E+03
 9.06898E-04    1.18454E+03
 1.42510E-03    1.72740E+02
 2.23945E-03    3.81010E+02
 3.51910E-03    1.83332E+02
 5.53000E-03    1.49003E+02
 9.11800E-03    1.35726E+02
 1.50300E-02    1.13853E+02
 2.47800E-02    8.14912E+01
 4.08500E-02    5.92287E+01
 6.73400E-02    4.45258E+01
 1.11000E-01    3.40428E+01
 1.83000E-01    2.74807E+01
 3.02000E-01    2.32619E+01
 5.00000E-01    2.11787E+01
 8.21000E-01    1.60181E+01
 1.35300E+00    1.13261E+01
 2.23100E+00    8.13127E+00
 3.67900E+00    3.30740E+00
 6.06500E+00    1.99228E+03
