# n + Ba134 : (n,tot)   
# jeff3.3    JNDC FP NUCLEAR DATA W.G.         EVAL-MAR90
# uncertainties: n
# # energies =   171
#   E(MeV)       xs(mb) 
 1.00000E-11    2.10363E+04
 1.00000E-07    3.50876E+03
 4.13990E-07    3.31254E+03
 5.31580E-07    3.26949E+03
 6.82560E-07    3.23085E+03
 8.76420E-07    3.19585E+03
 1.12540E-06    3.16429E+03
 1.44500E-06    3.13480E+03
 1.85540E-06    3.10846E+03
 2.37240E-06    3.07980E+03
 3.05900E-06    3.05368E+03
 3.92790E-06    3.02442E+03
 5.04350E-06    2.99639E+03
 6.47600E-06    2.96249E+03
 8.31530E-06    2.92768E+03
 1.06770E-05    2.88451E+03
 1.37100E-05    2.83442E+03
 1.76030E-05    2.77397E+03
 2.26030E-05    2.69522E+03
 2.92030E-05    2.59535E+03
 3.72670E-05    2.46256E+03
 4.78510E-05    2.25587E+03
 6.14420E-05    1.86293E+03
 7.88930E-05    1.09345E+04
 1.01300E-04    2.52085E+05
 1.30070E-04    4.01123E+03
 1.67020E-04    3.33719E+03
 2.14450E-04    3.04915E+03
 2.75360E-04    3.18028E+03
 3.53580E-04    3.45949E+03
 4.54000E-04    6.08883E+03
 5.82950E-04    2.59949E+03
 7.48520E-04    2.60796E+03
 9.61120E-04    1.22770E+04
 1.23410E-03    3.27984E+03
 1.58460E-03    7.34856E+03
 2.03470E-03    2.53643E+03
 2.24870E-03    1.95690E+03
 2.48520E-03    9.77768E+02
 2.61260E-03    3.86775E+04
 2.74650E-03    1.10912E+04
 3.03540E-03    3.77672E+03
 3.35460E-03    7.42577E+03
 3.70740E-03    2.06265E+04
 4.30740E-03    1.50226E+04
 5.53080E-03    7.73782E+03
 7.10170E-03    6.27864E+03
 9.11880E-03    1.67046E+04
 1.17090E-02    5.76024E+03
 1.50340E-02    5.52481E+03
 1.93050E-02    5.36792E+03
 2.18750E-02    5.29548E+03
 2.35790E-02    5.26188E+03
 2.41760E-02    5.24613E+03
 2.47880E-02    5.22177E+03
 2.60580E-02    5.19289E+03
 2.70000E-02    5.16265E+03
 2.85000E-02    5.11119E+03
 3.18280E-02    5.05296E+03
 3.43070E-02    4.98335E+03
 4.08680E-02    4.90492E+03
 4.63090E-02    4.84537E+03
 5.24750E-02    4.79929E+03
 5.65620E-02    4.74606E+03
 6.73790E-02    4.69692E+03
 7.20000E-02    4.66424E+03
 7.95000E-02    4.63871E+03
 8.25000E-02    4.62245E+03
 8.65170E-02    4.59127E+03
 9.80370E-02    4.59263E+03
 1.11090E-01    4.61452E+03
 1.16790E-01    4.62534E+03
 1.22770E-01    4.63597E+03
 1.29070E-01    4.64701E+03
 1.35690E-01    4.65776E+03
 1.42640E-01    4.66874E+03
 1.49960E-01    4.68652E+03
 1.57640E-01    4.71147E+03
 1.65730E-01    4.73646E+03
 1.74220E-01    4.76142E+03
 1.83160E-01    4.78677E+03
 1.92550E-01    4.81247E+03
 2.02420E-01    4.84501E+03
 2.12800E-01    4.88165E+03
 2.23710E-01    4.92015E+03
 2.35180E-01    4.96064E+03
 2.47240E-01    5.02557E+03
 2.73240E-01    5.09497E+03
 2.87250E-01    5.13174E+03
 2.94520E-01    5.14891E+03
 2.97200E-01    5.15577E+03
 2.98500E-01    5.16397E+03
 3.01970E-01    5.22864E+03
 3.33730E-01    5.35429E+03
 3.68830E-01    5.45249E+03
 3.87740E-01    5.51488E+03
 4.07620E-01    5.61487E+03
 4.50490E-01    5.75305E+03
 4.97870E-01    5.85872E+03
 5.23400E-01    5.93397E+03
 5.50230E-01    6.01306E+03
 5.78440E-01    6.09623E+03
 6.08100E-01    6.17820E+03
 6.39280E-01    6.25795E+03
 6.72060E-01    6.34177E+03
 7.06510E-01    6.42951E+03
 7.42740E-01    6.51262E+03
 7.80820E-01    6.59601E+03
 8.20850E-01    6.68340E+03
 8.62940E-01    6.76545E+03
 9.07180E-01    6.85381E+03
 9.61640E-01    6.93594E+03
 1.00260E+00    7.03672E+03
 1.10800E+00    7.14387E+03
 1.16480E+00    7.20902E+03
 1.22460E+00    7.26162E+03
 1.28730E+00    7.30441E+03
 1.35340E+00    7.34033E+03
 1.42270E+00    7.37014E+03
 1.49570E+00    7.37837E+03
 1.57240E+00    7.37310E+03
 1.65300E+00    7.36101E+03
 1.73770E+00    7.32715E+03
 1.82680E+00    7.27326E+03
 1.92050E+00    7.21080E+03
 2.01900E+00    7.12626E+03
 2.12250E+00    7.02088E+03
 2.23130E+00    6.91693E+03
 2.30690E+00    6.84807E+03
 2.34570E+00    6.81297E+03
 2.36530E+00    6.78926E+03
 2.38520E+00    6.72894E+03
 2.46600E+00    6.59741E+03
 2.59240E+00    6.42896E+03
 2.72530E+00    6.25209E+03
 2.86500E+00    6.08118E+03
 3.01190E+00    5.91067E+03
 3.16640E+00    5.73883E+03
 3.32870E+00    5.49482E+03
 3.67880E+00    5.18368E+03
 4.06570E+00    4.90877E+03
 4.49330E+00    4.71993E+03
 4.72370E+00    4.59664E+03
 4.96590E+00    4.50009E+03
 5.22050E+00    4.44626E+03
 5.48810E+00    4.39036E+03
 5.76950E+00    4.33499E+03
 6.06530E+00    4.33001E+03
 6.37630E+00    4.34479E+03
 6.59240E+00    4.35396E+03
 6.70320E+00    4.36660E+03
 7.04690E+00    4.39134E+03
 7.40820E+00    4.42609E+03
 7.78800E+00    4.46277E+03
 8.18730E+00    4.50134E+03
 8.60710E+00    4.54189E+03
 9.04840E+00    4.58544E+03
 9.51230E+00    4.63597E+03
 1.00000E+01    4.69369E+03
 1.05130E+01    4.76301E+03
 1.10520E+01    4.83141E+03
 1.16180E+01    4.90313E+03
 1.22140E+01    4.95847E+03
 1.28400E+01    5.01302E+03
 1.34990E+01    5.05270E+03
 1.38400E+01    5.07681E+03
 1.41910E+01    5.08821E+03
 1.45500E+01    5.09780E+03
 1.49180E+01    5.10515E+03
 1.56830E+01    5.10352E+03
 1.64870E+01    5.08887E+03
