# n + Sn119 : (n,xa)    
# jeff3.3    N.Iwamoto,K.Shibata               EVAL-Dec09
# 
# # energies =   102
#   E(MeV)        xs(mb) 
 2.40735E-02    1.17080E-08
 3.00000E-02    9.84200E-09
 4.00000E-02    7.79270E-09
 5.00000E-02    6.59700E-09
 6.00000E-02    5.94188E-09
 7.00000E-02    5.50283E-09
 8.00000E-02    5.22410E-09
 9.00000E-02    5.05521E-09
 9.02905E-02    5.05030E-09
 1.00000E-01    4.94730E-09
 1.05000E-01    4.93700E-09
 1.10000E-01    4.92670E-09
 1.20000E-01    4.94457E-09
 1.30000E-01    4.98905E-09
 1.40000E-01    5.06367E-09
 1.50000E-01    5.16093E-09
 1.60000E-01    5.27982E-09
 1.70000E-01    5.41500E-09
 1.80000E-01    5.56631E-09
 1.90000E-01    5.73506E-09
 2.00000E-01    5.91590E-09
 2.25000E-01    6.52820E-09
 2.50000E-01    7.27890E-09
 2.75000E-01    8.14920E-09
 3.00000E-01    9.14980E-09
 4.00000E-01    1.53130E-08
 5.00000E-01    2.63550E-08
 6.00000E-01    4.57280E-08
 7.00000E-01    7.92272E-08
 7.93686E-01    1.31856E-07
 8.00000E-01    1.36020E-07
 9.00000E-01    2.24498E-07
 9.28319E-01    2.59280E-07
 9.29206E-01    2.57550E-07
 1.00000E+00    3.29340E-07
 1.06899E+00    4.38740E-07
 1.07141E+00    4.40770E-07
 1.09868E+00    4.83960E-07
 1.10000E+00    4.84580E-07
 1.19781E+00    6.81591E-07
 1.20000E+00    6.86323E-07
 1.22026E+00    7.34967E-07
 1.26031E+00    8.47090E-07
 1.30000E+00    9.43940E-07
 1.31546E+00    9.94744E-07
 1.31547E+00    9.94776E-07
 1.32041E+00    1.01101E-06
 1.36629E+00    1.18661E-06
 1.39050E+00    1.28302E-06
 1.40000E+00    1.32636E-06
 1.40179E+00    1.33453E-06
 1.50000E+00    1.88768E-06
 1.52281E+00    2.04391E-06
 1.56759E+00    2.35870E-06
 1.57525E+00    2.41183E-06
 1.58513E+00    2.47763E-06
 1.60000E+00    2.56547E-06
 1.60349E+00    2.58806E-06
 1.63082E+00    2.78040E-06
 1.64685E+00    2.90770E-06
 1.70000E+00    3.35107E-06
 1.80000E+00    4.46863E-06
 1.90000E+00    5.96983E-06
 2.00000E+00    8.01331E-06
 2.25000E+00    1.60261E-05
 2.50000E+00    2.92862E-05
 2.75000E+00    5.29317E-05
 3.00000E+00    8.67098E-05
 3.50000E+00    2.14191E-04
 4.00000E+00    4.54002E-04
 4.50000E+00    8.44079E-04
 5.00000E+00    1.40539E-03
 5.50000E+00    2.13943E-03
 6.00000E+00    3.06246E-03
 6.50000E+00    4.23772E-03
 7.00000E+00    5.83186E-03
 7.50000E+00    8.11995E-03
 8.00000E+00    1.15581E-02
 8.50000E+00    1.68602E-02
 9.00000E+00    2.50238E-02
 9.50000E+00    3.70699E-02
 1.00000E+01    5.52177E-02
 1.05000E+01    8.10350E-02
 1.10000E+01    1.16314E-01
 1.15000E+01    1.62523E-01
 1.20000E+01    2.20722E-01
 1.25000E+01    2.92047E-01
 1.30000E+01    3.77144E-01
 1.35000E+01    4.76456E-01
 1.40000E+01    5.89947E-01
 1.45000E+01    7.16665E-01
 1.50000E+01    8.55971E-01
 1.55000E+01    1.00573E+00
 1.60000E+01    1.16524E+00
 1.65000E+01    1.33182E+00
 1.70000E+01    1.50512E+00
 1.75000E+01    1.68254E+00
 1.80000E+01    1.86423E+00
 1.85000E+01    2.04780E+00
 1.90000E+01    2.23440E+00
 1.95000E+01    2.42232E+00
 2.00000E+01    2.61260E+00
