# n + Sn119 : (n,tot)   
# jeff3.3    N.Iwamoto,K.Shibata               EVAL-Dec09
# uncertainties: n
# # energies =   171
#   E(MeV)       xs(mb) 
 1.00000E-11    3.14527E+04
 1.00000E-07    5.42968E+03
 4.13990E-07    5.13043E+03
 5.31580E-07    5.06298E+03
 6.82560E-07    5.00174E+03
 8.76420E-07    4.94586E+03
 1.12540E-06    4.89525E+03
 1.44500E-06    4.84872E+03
 1.85540E-06    4.80582E+03
 2.37240E-06    4.76631E+03
 3.05900E-06    4.72752E+03
 3.92790E-06    4.69720E+03
 5.04350E-06    5.40017E+03
 6.47600E-06    4.66946E+03
 8.31530E-06    4.60645E+03
 1.06770E-05    4.58334E+03
 1.37100E-05    4.56062E+03
 1.76030E-05    4.54511E+03
 2.26030E-05    4.52699E+03
 2.92030E-05    4.51562E+03
 3.72670E-05    4.50416E+03
 4.78510E-05    4.48995E+03
 6.14420E-05    4.57043E+03
 7.88930E-05    4.46502E+03
 1.01300E-04    4.79150E+03
 1.30070E-04    6.79614E+03
 1.67020E-04    4.43805E+03
 2.14450E-04    6.68428E+03
 2.75360E-04    4.59877E+03
 3.53580E-04    4.37753E+03
 4.54000E-04    6.04208E+03
 5.82950E-04    5.25307E+03
 7.48520E-04    8.95661E+03
 9.61120E-04    4.99208E+03
 1.23410E-03    1.15195E+04
 1.58460E-03    1.20431E+04
 2.03470E-03    1.14938E+04
 2.24870E-03    1.11923E+04
 2.48520E-03    1.09711E+04
 2.61260E-03    1.08261E+04
 2.74650E-03    1.06130E+04
 3.03540E-03    1.03344E+04
 3.35460E-03    1.00634E+04
 3.70740E-03    9.73477E+03
 4.30740E-03    9.23176E+03
 5.53080E-03    8.63820E+03
 7.10170E-03    8.08272E+03
 9.11880E-03    7.61388E+03
 1.17090E-02    7.35519E+03
 1.50340E-02    7.12213E+03
 1.93050E-02    6.95192E+03
 2.18750E-02    6.86299E+03
 2.35790E-02    6.81887E+03
 2.41760E-02    6.80299E+03
 2.47880E-02    6.78421E+03
 2.60580E-02    6.76311E+03
 2.70000E-02    6.74060E+03
 2.85000E-02    6.70107E+03
 3.18280E-02    6.66143E+03
 3.43070E-02    6.60969E+03
 4.08680E-02    6.54816E+03
 4.63090E-02    6.49956E+03
 5.24750E-02    6.47746E+03
 5.65620E-02    6.45735E+03
 6.73790E-02    6.43804E+03
 7.20000E-02    6.42905E+03
 7.95000E-02    6.42284E+03
 8.25000E-02    6.42130E+03
 8.65170E-02    6.41812E+03
 9.80370E-02    6.42032E+03
 1.11090E-01    6.43027E+03
 1.16790E-01    6.43619E+03
 1.22770E-01    6.44204E+03
 1.29070E-01    6.44795E+03
 1.35690E-01    6.45385E+03
 1.42640E-01    6.45973E+03
 1.49960E-01    6.46564E+03
 1.57640E-01    6.47156E+03
 1.65730E-01    6.47747E+03
 1.74220E-01    6.48339E+03
 1.83160E-01    6.48932E+03
 1.92550E-01    6.49539E+03
 2.02420E-01    6.50512E+03
 2.12800E-01    6.51688E+03
 2.23710E-01    6.52924E+03
 2.35180E-01    6.54224E+03
 2.47240E-01    6.56308E+03
 2.73240E-01    6.58536E+03
 2.87250E-01    6.59717E+03
 2.94520E-01    6.60268E+03
 2.97200E-01    6.60488E+03
 2.98500E-01    6.60751E+03
 3.01970E-01    6.62669E+03
 3.33730E-01    6.66190E+03
 3.68830E-01    6.68502E+03
 3.87740E-01    6.70086E+03
 4.07620E-01    6.72625E+03
 4.50490E-01    6.76307E+03
 4.97870E-01    6.79196E+03
 5.23400E-01    6.80523E+03
 5.50230E-01    6.81798E+03
 5.78440E-01    6.83138E+03
 6.08100E-01    6.84547E+03
 6.39280E-01    6.85693E+03
 6.72060E-01    6.86339E+03
 7.06510E-01    6.87010E+03
 7.42740E-01    6.87689E+03
 7.80820E-01    6.87973E+03
 8.20850E-01    6.87410E+03
 8.62940E-01    6.86694E+03
 9.07180E-01    6.85793E+03
 9.61640E-01    6.84096E+03
 1.00260E+00    6.77437E+03
 1.10800E+00    6.67759E+03
 1.16480E+00    6.60902E+03
 1.22460E+00    6.54692E+03
 1.28730E+00    6.48558E+03
 1.35340E+00    6.42108E+03
 1.42270E+00    6.35323E+03
 1.49570E+00    6.27073E+03
 1.57240E+00    6.16144E+03
 1.65300E+00    6.04673E+03
 1.73770E+00    5.93960E+03
 1.82680E+00    5.83168E+03
 1.92050E+00    5.72026E+03
 2.01900E+00    5.59799E+03
 2.12250E+00    5.46202E+03
 2.23130E+00    5.34978E+03
 2.30690E+00    5.28685E+03
 2.34570E+00    5.25477E+03
 2.36530E+00    5.23311E+03
 2.38520E+00    5.17811E+03
 2.46600E+00    5.07069E+03
 2.59240E+00    4.94355E+03
 2.72530E+00    4.81602E+03
 2.86500E+00    4.69395E+03
 3.01190E+00    4.59039E+03
 3.16640E+00    4.49996E+03
 3.32870E+00    4.37413E+03
 3.67880E+00    4.27372E+03
 4.06570E+00    4.22511E+03
 4.49330E+00    4.20922E+03
 4.72370E+00    4.20841E+03
 4.96590E+00    4.21104E+03
 5.22050E+00    4.21858E+03
 5.48810E+00    4.22659E+03
 5.76950E+00    4.23542E+03
 6.06530E+00    4.25257E+03
 6.37630E+00    4.27000E+03
 6.59240E+00    4.28081E+03
 6.70320E+00    4.29940E+03
 7.04690E+00    4.33434E+03
 7.40820E+00    4.37241E+03
 7.78800E+00    4.41985E+03
 8.18730E+00    4.47112E+03
 8.60710E+00    4.52501E+03
 9.04840E+00    4.58167E+03
 9.51230E+00    4.63827E+03
 1.00000E+01    4.68410E+03
 1.05130E+01    4.72380E+03
 1.10520E+01    4.75270E+03
 1.16180E+01    4.77275E+03
 1.22140E+01    4.77867E+03
 1.28400E+01    4.77437E+03
 1.34990E+01    4.76018E+03
 1.38400E+01    4.74854E+03
 1.41910E+01    4.72801E+03
 1.45500E+01    4.70643E+03
 1.49180E+01    4.66457E+03
 1.56830E+01    4.59421E+03
 1.64870E+01    4.50706E+03
