# n + Sn119 : (n,n'01)  
# jeff3.3    N.Iwamoto,K.Shibata               EVAL-Dec09
# uncertainties: n
# # energies =   100
#   E(MeV)       xs(mb) 
 2.40735E-02    0.00000E+00
 3.00000E-02    2.88601E+02
 4.00000E-02    4.33883E+02
 5.00000E-02    5.17341E+02
 6.00000E-02    5.78395E+02
 7.00000E-02    6.24978E+02
 8.00000E-02    6.61837E+02
 9.00000E-02    6.92530E+02
 9.02905E-02    6.93349E+02
 1.00000E-01    7.18528E+02
 1.10000E-01    7.42239E+02
 1.20000E-01    7.63149E+02
 1.30000E-01    7.79397E+02
 1.40000E-01    7.92618E+02
 1.50000E-01    8.04431E+02
 1.60000E-01    8.15053E+02
 1.70000E-01    8.24650E+02
 1.80000E-01    8.33355E+02
 1.90000E-01    8.41274E+02
 2.00000E-01    8.48492E+02
 2.25000E-01    8.70630E+02
 2.50000E-01    8.82459E+02
 2.75000E-01    8.91574E+02
 3.00000E-01    8.98377E+02
 4.00000E-01    9.21596E+02
 5.00000E-01    9.34634E+02
 6.00000E-01    9.42332E+02
 7.00000E-01    9.45685E+02
 7.93686E-01    9.44906E+02
 8.00000E-01    9.40659E+02
 9.00000E-01    9.05208E+02
 9.28319E-01    8.97262E+02
 9.29206E-01    8.89477E+02
 1.00000E+00    7.89120E+02
 1.06899E+00    7.23169E+02
 1.07141E+00    7.18753E+02
 1.09868E+00    6.85751E+02
 1.10000E+00    6.82845E+02
 1.19781E+00    5.81097E+02
 1.20000E+00    5.78167E+02
 1.22026E+00    5.59595E+02
 1.26031E+00    5.28562E+02
 1.30000E+00    4.96180E+02
 1.31546E+00    4.85870E+02
 1.32041E+00    4.82714E+02
 1.36629E+00    4.56471E+02
 1.39050E+00    4.41648E+02
 1.40000E+00    4.36555E+02
 1.40179E+00    4.35635E+02
 1.50000E+00    3.93771E+02
 1.52281E+00    3.85222E+02
 1.56759E+00    3.64217E+02
 1.57525E+00    3.60051E+02
 1.58513E+00    3.53689E+02
 1.60000E+00    3.44406E+02
 1.60349E+00    3.42517E+02
 1.63082E+00    3.27130E+02
 1.64685E+00    3.18543E+02
 1.70000E+00    2.90918E+02
 1.80000E+00    2.52111E+02
 1.90000E+00    2.21436E+02
 2.00000E+00    1.96277E+02
 2.25000E+00    1.43068E+02
 2.50000E+00    1.00649E+02
 2.75000E+00    7.31880E+01
 3.00000E+00    5.07493E+01
 3.50000E+00    2.57504E+01
 4.00000E+00    1.31523E+01
 4.50000E+00    6.60157E+00
 5.00000E+00    3.18903E+00
 5.50000E+00    1.48374E+00
 6.00000E+00    6.77737E-01
 6.50000E+00    3.11860E-01
 7.00000E+00    1.47724E-01
 7.50000E+00    7.33547E-02
 8.00000E+00    3.87772E-02
 8.50000E+00    2.20362E-02
 9.00000E+00    1.34550E-02
 9.50000E+00    9.38348E-03
 1.00000E+01    7.23475E-03
 1.05000E+01    6.00631E-03
 1.10000E+01    5.24765E-03
 1.15000E+01    4.74752E-03
 1.20000E+01    4.51077E-03
 1.25000E+01    4.72959E-03
 1.30000E+01    4.89681E-03
 1.35000E+01    5.00504E-03
 1.40000E+01    5.05719E-03
 1.45000E+01    5.04327E-03
 1.50000E+01    4.98237E-03
 1.55000E+01    4.86092E-03
 1.60000E+01    4.70474E-03
 1.65000E+01    4.50097E-03
 1.70000E+01    4.27366E-03
 1.75000E+01    4.01491E-03
 1.80000E+01    3.74232E-03
 1.85000E+01    3.45176E-03
 1.90000E+01    3.15310E-03
 1.95000E+01    2.84450E-03
 2.00000E+01    2.53053E-03
