# n + Mg 25 : (n,el)    
# jeff3.3    M.HATCHYA(DEC),T.ASAMI(NEDAC)     EVAL-MAR87
# uncertainties: y
# # energies =    69
#   E(MeV)       xs(mb)       xslow(mb)      xsupp(mb)
 1.00000E-10    4.92411E+03    4.38627E+03    5.46195E+03
 5.00000E-09    2.78578E+03    2.48150E+03    3.09006E+03
 1.00000E-08    2.70367E+03    2.40836E+03    2.99899E+03
 1.50000E-08    2.67154E+03    2.37974E+03    2.96334E+03
 2.00000E-08    2.65419E+03    2.36429E+03    2.94410E+03
 2.50000E-08    2.64325E+03    2.35454E+03    2.93196E+03
 3.00000E-08    2.63577E+03    2.34788E+03    2.92367E+03
 3.50000E-08    2.62945E+03    2.34225E+03    2.91665E+03
 4.20000E-08    2.62381E+03    2.33722E+03    2.91040E+03
 5.00000E-08    2.61953E+03    2.33341E+03    2.90565E+03
 5.80000E-08    2.61611E+03    2.33036E+03    2.90185E+03
 6.70000E-08    2.61297E+03    2.32757E+03    2.89838E+03
 8.00000E-08    2.60973E+03    2.32468E+03    2.89478E+03
 1.00000E-07    2.60612E+03    2.32146E+03    2.89077E+03
 1.40000E-07    2.60329E+03    2.31894E+03    2.88764E+03
 1.80000E-07    2.60150E+03    2.31735E+03    2.88565E+03
 2.20000E-07    2.60061E+03    2.31656E+03    2.88467E+03
 2.50000E-07    2.59989E+03    2.31592E+03    2.88387E+03
 2.80000E-07    2.59932E+03    2.31540E+03    2.88323E+03
 3.00000E-07    2.59909E+03    2.31520E+03    2.88298E+03
 3.20000E-07    2.59886E+03    2.31500E+03    2.88273E+03
 3.50000E-07    2.59850E+03    2.31468E+03    2.88233E+03
 4.00000E-07    2.59783E+03    2.31408E+03    2.88158E+03
 5.00000E-07    2.59720E+03    2.31352E+03    2.88088E+03
 6.25000E-07    2.59685E+03    2.31320E+03    2.88049E+03
 7.80000E-07    2.59656E+03    2.31295E+03    2.88017E+03
 8.50000E-07    2.59640E+03    2.31280E+03    2.87999E+03
 9.10000E-07    2.59627E+03    2.31269E+03    2.87985E+03
 9.50000E-07    2.59619E+03    2.31262E+03    2.87976E+03
 9.72000E-07    2.59614E+03    2.31257E+03    2.87970E+03
 9.96000E-07    2.59608E+03    2.31252E+03    2.87963E+03
 1.02000E-06    2.59601E+03    2.31246E+03    2.87957E+03
 1.04500E-06    2.59595E+03    2.31241E+03    2.87950E+03
 1.07100E-06    2.59593E+03    2.31239E+03    2.87948E+03
 1.09700E-06    2.59593E+03    2.31239E+03    2.87948E+03
 1.12300E-06    2.59593E+03    2.31239E+03    2.87947E+03
 1.15000E-06    2.59593E+03    2.31239E+03    2.87947E+03
 1.30000E-06    2.59592E+03    2.31238E+03    2.87947E+03
 1.50000E-06    2.59591E+03    2.31237E+03    2.87945E+03
 2.10000E-06    2.59590E+03    2.31236E+03    2.87943E+03
 2.60000E-06    2.59588E+03    2.31234E+03    2.87942E+03
 3.30000E-06    2.59586E+03    2.31232E+03    2.87939E+03
 4.00000E-06    2.59578E+03    2.31225E+03    2.87930E+03
 9.87700E-06    2.59560E+03    2.31209E+03    2.87910E+03
 1.59680E-05    2.59535E+03    2.31187E+03    2.87882E+03
 2.77000E-05    2.59490E+03    2.31147E+03    2.87832E+03
 4.80520E-05    2.59421E+03    2.31086E+03    2.87756E+03
 7.55014E-05    2.59284E+03    2.30965E+03    2.87604E+03
 1.48728E-04    2.58898E+03    2.30623E+03    2.87173E+03
 3.67262E-04    2.57872E+03    2.29717E+03    2.86026E+03
 9.06898E-04    2.56284E+03    2.28335E+03    2.84233E+03
 1.42510E-03    2.54392E+03    2.26719E+03    2.82064E+03
 2.23945E-03    2.51591E+03    2.24373E+03    2.78809E+03
 3.51910E-03    2.48038E+03    2.21687E+03    2.74389E+03
 5.53000E-03    2.44646E+03    2.21558E+03    2.67735E+03
 9.11800E-03    2.68851E+03    2.53982E+03    2.83720E+03
 1.50300E-02    1.77070E+04    1.59845E+04    1.94294E+04
 2.47800E-02    3.02050E+03    2.67002E+03    3.37098E+03
 4.08500E-02    1.76867E+03    1.38908E+03    2.14826E+03
 6.73400E-02    7.77212E+03    6.81971E+03    8.72454E+03
 1.11000E-01    2.88158E+03    2.75867E+03    3.00448E+03
 1.83000E-01    3.57282E+03    3.40506E+03    3.74057E+03
 3.02000E-01    4.08760E+03    3.49942E+03    4.67579E+03
 5.00000E-01    3.80933E+03    3.16802E+03    4.45064E+03
 8.21000E-01    3.35357E+03    2.86090E+03    3.84624E+03
 1.35300E+00    2.68097E+03    2.31398E+03    3.04796E+03
 2.23100E+00    1.88085E+03    1.58880E+03    2.17289E+03
 3.67900E+00    1.22172E+03    1.01175E+03    1.43168E+03
 6.06500E+00    8.50013E+02    7.49226E+02    9.50799E+02
