# n + Ce142 : (n,xd)    
# jendl.ad   kunieda                           EVAL-Mar14
# 
# # energies =    66
#   E(MeV)        xs(mb) 
 1.50000E-01    0.00000E+00
 2.00000E-01    0.00000E+00
 3.00000E-01    0.00000E+00
 4.00000E-01    0.00000E+00
 5.00000E-01    0.00000E+00
 6.00000E-01    0.00000E+00
 6.45844E-01    0.00000E+00
 7.00000E-01    0.00000E+00
 8.00000E-01    0.00000E+00
 9.00000E-01    0.00000E+00
 1.00000E+00    0.00000E+00
 1.20000E+00    0.00000E+00
 1.22805E+00    0.00000E+00
 1.40000E+00    0.00000E+00
 1.54702E+00    0.00000E+00
 1.60000E+00    0.00000E+00
 1.66435E+00    0.00000E+00
 1.75438E+00    0.00000E+00
 1.80000E+00    0.00000E+00
 2.00000E+00    0.00000E+00
 2.01855E+00    0.00000E+00
 2.02852E+00    0.00000E+00
 2.04503E+00    0.00000E+00
 2.05802E+00    0.00000E+00
 2.12903E+00    0.00000E+00
 2.14010E+00    0.00000E+00
 2.19711E+00    0.00000E+00
 2.20000E+00    0.00000E+00
 2.20275E+00    0.00000E+00
 2.40000E+00    0.00000E+00
 2.70000E+00    0.00000E+00
 3.00000E+00    0.00000E+00
 3.50000E+00    0.00000E+00
 4.00000E+00    0.00000E+00
 4.50000E+00    0.00000E+00
 5.00000E+00    0.00000E+00
 5.50000E+00    0.00000E+00
 6.00000E+00    0.00000E+00
 6.50000E+00    0.00000E+00
 7.00000E+00    1.62232E-17
 7.50000E+00    5.38208E-15
 8.00000E+00    1.55010E-14
 8.50000E+00    7.72870E-13
 9.00000E+00    3.70860E-10
 9.50000E+00    2.38270E-08
 1.00000E+01    8.08270E-07
 1.05000E+01    8.33065E-06
 1.10000E+01    1.58914E-04
 1.15000E+01    9.07934E-04
 1.20000E+01    2.29389E-03
 1.25000E+01    1.02209E-02
 1.30000E+01    3.82475E-02
 1.35000E+01    7.42479E-02
 1.40000E+01    1.60930E-01
 1.45000E+01    3.58916E-01
 1.50000E+01    5.74110E-01
 1.55000E+01    8.74263E-01
 1.60000E+01    1.27177E+00
 1.65000E+01    1.77492E+00
 1.70000E+01    2.38807E+00
 1.75000E+01    3.11186E+00
 1.80000E+01    3.63980E+00
 1.85000E+01    4.54769E+00
 1.90000E+01    5.55822E+00
 1.95000E+01    5.78692E+00
 2.00000E+01    6.90808E+00
