# n + Ce142 : (n,xa)    
# jendl.ad   kunieda                           EVAL-Mar14
# 
# # energies =    66
#   E(MeV)        xs(mb) 
 1.50000E-01    0.00000E+00
 2.00000E-01    0.00000E+00
 3.00000E-01    0.00000E+00
 4.00000E-01    0.00000E+00
 5.00000E-01    0.00000E+00
 6.00000E-01    0.00000E+00
 6.45844E-01    0.00000E+00
 7.00000E-01    0.00000E+00
 8.00000E-01    0.00000E+00
 9.00000E-01    0.00000E+00
 1.00000E+00    0.00000E+00
 1.20000E+00    0.00000E+00
 1.22805E+00    0.00000E+00
 1.40000E+00    0.00000E+00
 1.54702E+00    0.00000E+00
 1.60000E+00    0.00000E+00
 1.66435E+00    0.00000E+00
 1.75438E+00    0.00000E+00
 1.80000E+00    0.00000E+00
 2.00000E+00    0.00000E+00
 2.01855E+00    0.00000E+00
 2.02852E+00    0.00000E+00
 2.04503E+00    0.00000E+00
 2.05802E+00    0.00000E+00
 2.12903E+00    0.00000E+00
 2.14010E+00    0.00000E+00
 2.19711E+00    0.00000E+00
 2.20000E+00    0.00000E+00
 2.20275E+00    0.00000E+00
 2.40000E+00    0.00000E+00
 2.70000E+00    0.00000E+00
 3.00000E+00    0.00000E+00
 3.50000E+00    2.11082E-05
 4.00000E+00    1.21630E-04
 4.50000E+00    8.21490E-04
 5.00000E+00    2.27877E-03
 5.50000E+00    5.06906E-03
 6.00000E+00    1.13413E-02
 6.50000E+00    1.57953E-02
 7.00000E+00    2.10338E-02
 7.50000E+00    2.67797E-02
 8.00000E+00    3.56561E-02
 8.50000E+00    4.77955E-02
 9.00000E+00    6.86060E-02
 9.50000E+00    9.50378E-02
 1.00000E+01    1.35380E-01
 1.05000E+01    1.97387E-01
 1.10000E+01    2.85564E-01
 1.15000E+01    3.97715E-01
 1.20000E+01    5.46823E-01
 1.25000E+01    7.21322E-01
 1.30000E+01    9.29173E-01
 1.35000E+01    1.15966E+00
 1.40000E+01    1.42282E+00
 1.45000E+01    1.69865E+00
 1.50000E+01    2.00014E+00
 1.55000E+01    2.30751E+00
 1.60000E+01    2.61613E+00
 1.65000E+01    2.94478E+00
 1.70000E+01    3.26003E+00
 1.75000E+01    3.57212E+00
 1.80000E+01    3.87537E+00
 1.85000E+01    4.18784E+00
 1.90000E+01    4.47396E+00
 1.95000E+01    4.75349E+00
 2.00000E+01    5.02180E+00
