# n + Ce142 : (n,p)     
# jendl.ad   kunieda                           EVAL-Mar14
# uncertainties: n
# # energies =    45
#   E(MeV)       xs(mb) 
 3.74781E+00    0.00000E+00
 3.82595E+00    1.26560E-13
 3.89466E+00    2.60750E-13
 3.89609E+00    2.63640E-13
 3.98075E+00    4.39530E-13
 4.00493E+00    4.89830E-13
 4.05032E+00    2.02600E-12
 4.05922E+00    2.50890E-12
 4.08521E+00    4.38140E-12
 4.11178E+00    6.54410E-12
 4.11433E+00    6.77310E-12
 4.16858E+00    1.20470E-11
 4.17582E+00    1.27680E-11
 4.18318E+00    1.35150E-11
 5.00000E+00    9.79520E-11
 5.50000E+00    3.41840E-09
 6.00000E+00    2.85540E-07
 6.50000E+00    5.69749E-06
 7.00000E+00    4.44124E-05
 7.50000E+00    2.18015E-04
 8.00000E+00    7.40247E-04
 8.50000E+00    2.20497E-03
 9.00000E+00    6.10583E-03
 9.50000E+00    1.53891E-02
 1.00000E+01    3.62950E-02
 1.05000E+01    8.07869E-02
 1.10000E+01    1.61575E-01
 1.15000E+01    2.96227E-01
 1.20000E+01    5.03314E-01
 1.25000E+01    8.06565E-01
 1.30000E+01    1.22786E+00
 1.35000E+01    1.77973E+00
 1.40000E+01    2.46844E+00
 1.45000E+01    3.33536E+00
 1.50000E+01    4.33475E+00
 1.55000E+01    5.47810E+00
 1.60000E+01    6.71624E+00
 1.65000E+01    8.01992E+00
 1.70000E+01    9.31651E+00
 1.75000E+01    1.05752E+01
 1.80000E+01    1.16979E+01
 1.85000E+01    1.31771E+01
 1.90000E+01    1.42093E+01
 1.95000E+01    1.48200E+01
 2.00000E+01    1.60139E+01
