# n + Ce142 : (n,xp)    
# jendl.ad   kunieda                           EVAL-Mar14
# 
# # energies =    66
#   E(MeV)        xs(mb) 
 1.50000E-01    0.00000E+00
 2.00000E-01    0.00000E+00
 3.00000E-01    0.00000E+00
 4.00000E-01    0.00000E+00
 5.00000E-01    0.00000E+00
 6.00000E-01    0.00000E+00
 6.45844E-01    0.00000E+00
 7.00000E-01    0.00000E+00
 8.00000E-01    0.00000E+00
 9.00000E-01    0.00000E+00
 1.00000E+00    0.00000E+00
 1.20000E+00    0.00000E+00
 1.22805E+00    0.00000E+00
 1.40000E+00    0.00000E+00
 1.54702E+00    0.00000E+00
 1.60000E+00    0.00000E+00
 1.66435E+00    0.00000E+00
 1.75438E+00    0.00000E+00
 1.80000E+00    0.00000E+00
 2.00000E+00    0.00000E+00
 2.01855E+00    0.00000E+00
 2.02852E+00    0.00000E+00
 2.04503E+00    0.00000E+00
 2.05802E+00    0.00000E+00
 2.12903E+00    0.00000E+00
 2.14010E+00    0.00000E+00
 2.19711E+00    0.00000E+00
 2.20000E+00    0.00000E+00
 2.20275E+00    0.00000E+00
 2.40000E+00    0.00000E+00
 2.70000E+00    0.00000E+00
 3.00000E+00    0.00000E+00
 3.50000E+00    0.00000E+00
 4.00000E+00    4.79574E-13
 4.50000E+00    4.62656E-11
 5.00000E+00    9.79520E-11
 5.50000E+00    3.41840E-09
 6.00000E+00    2.85540E-07
 6.50000E+00    5.69749E-06
 7.00000E+00    4.44124E-05
 7.50000E+00    2.18015E-04
 8.00000E+00    7.40247E-04
 8.50000E+00    2.20497E-03
 9.00000E+00    6.10583E-03
 9.50000E+00    1.53891E-02
 1.00000E+01    3.62950E-02
 1.05000E+01    8.07869E-02
 1.10000E+01    1.61575E-01
 1.15000E+01    2.96229E-01
 1.20000E+01    5.03348E-01
 1.25000E+01    8.06915E-01
 1.30000E+01    1.22923E+00
 1.35000E+01    1.78635E+00
 1.40000E+01    2.48917E+00
 1.45000E+01    3.38619E+00
 1.50000E+01    4.45183E+00
 1.55000E+01    5.71943E+00
 1.60000E+01    7.17639E+00
 1.65000E+01    8.83638E+00
 1.70000E+01    1.06706E+01
 1.75000E+01    1.27110E+01
 1.80000E+01    1.48859E+01
 1.85000E+01    1.72431E+01
 1.90000E+01    1.97172E+01
 1.95000E+01    2.22889E+01
 2.00000E+01    2.50039E+01
