# n + Kr 84 : (n,tot)   
# jendl.ad   K.Shibata, A.Ichihara, S.Kunieda  EVAL-APR13
# uncertainties: n
# # energies =    69
#   E(MeV)       xs(mb) 
 1.00000E-10    7.68505E+02
 5.00000E-09    2.09240E+02
 1.00000E-08    1.58459E+02
 1.50000E-08    1.33130E+02
 2.00000E-08    1.17119E+02
 2.50000E-08    1.05808E+02
 3.00000E-08    9.72640E+01
 3.50000E-08    8.94217E+01
 4.20000E-08    8.17814E+01
 5.00000E-08    7.54260E+01
 5.80000E-08    7.01030E+01
 6.70000E-08    6.46944E+01
 8.00000E-08    5.85291E+01
 1.00000E-07    5.09085E+01
 1.40000E-07    4.39175E+01
 1.80000E-07    3.91996E+01
 2.20000E-07    3.60872E+01
 2.50000E-07    3.39736E+01
 2.80000E-07    3.24514E+01
 3.00000E-07    3.13788E+01
 3.20000E-07    3.01861E+01
 3.50000E-07    2.85400E+01
 4.00000E-07    2.61025E+01
 5.00000E-07    2.33330E+01
 6.25000E-07    2.08528E+01
 7.80000E-07    1.92798E+01
 8.50000E-07    1.85396E+01
 9.10000E-07    1.80252E+01
 9.50000E-07    1.77282E+01
 9.72000E-07    1.75204E+01
 9.96000E-07    1.73093E+01
 1.02000E-06    1.71044E+01
 1.04500E-06    1.68915E+01
 1.07100E-06    1.66777E+01
 1.09700E-06    1.64815E+01
 1.12300E-06    1.62843E+01
 1.15000E-06    1.56867E+01
 1.30000E-06    1.46579E+01
 1.50000E-06    1.29766E+01
 2.10000E-06    1.12538E+01
 2.60000E-06    1.00041E+01
 3.30000E-06    8.93137E+00
 4.00000E-06    6.71627E+00
 9.87700E-06    4.52194E+00
 1.59680E-05    3.32254E+00
 2.77000E-05    2.34204E+00
 4.80520E-05    1.69008E+00
 7.55014E-05    1.24714E+00
 1.48728E-04    1.49616E+00
 3.67262E-04    2.23790E+03
 9.06898E-04    1.53935E-01
 1.42510E-03    2.71655E-02
 2.23945E-03    1.27825E+02
 3.51910E-03    1.30432E+02
 5.53000E-03    9.61206E+01
 9.11800E-03    7.04044E+01
 1.50300E-02    5.01719E+01
 2.47800E-02    3.56809E+01
 4.08500E-02    2.70913E+01
 6.73400E-02    2.17873E+01
 1.11000E-01    1.88199E+01
 1.83000E-01    1.66344E+01
 3.02000E-01    1.62168E+01
 5.00000E-01    1.76434E+01
 8.21000E-01    1.27314E+01
 1.35300E+00    1.07281E+01
 2.23100E+00    7.78663E+00
 3.67900E+00    4.19189E+00
 6.06500E+00    1.64008E+00
