# n + Kr 84 : (n,g)     
# jendl.ad   K.Shibata, A.Ichihara, S.Kunieda  EVAL-APR13
# uncertainties: n
# # energies =    69
#   E(MeV)       xs(mb) 
 1.00000E-10    7.68231E+02
 5.00000E-09    2.09168E+02
 1.00000E-08    1.58428E+02
 1.50000E-08    1.33128E+02
 2.00000E-08    1.17120E+02
 2.50000E-08    1.05804E+02
 3.00000E-08    9.72627E+01
 3.50000E-08    8.94229E+01
 4.20000E-08    8.17794E+01
 5.00000E-08    7.54236E+01
 5.80000E-08    7.01029E+01
 6.70000E-08    6.46950E+01
 8.00000E-08    5.85286E+01
 1.00000E-07    5.09077E+01
 1.40000E-07    4.39184E+01
 1.80000E-07    3.91980E+01
 2.20000E-07    3.60866E+01
 2.50000E-07    3.39737E+01
 2.80000E-07    3.24518E+01
 3.00000E-07    3.13793E+01
 3.20000E-07    3.01865E+01
 3.50000E-07    2.85403E+01
 4.00000E-07    2.60983E+01
 5.00000E-07    2.33285E+01
 6.25000E-07    2.08467E+01
 7.80000E-07    1.92764E+01
 8.50000E-07    1.85367E+01
 9.10000E-07    1.80218E+01
 9.50000E-07    1.77265E+01
 9.72000E-07    1.75194E+01
 9.96000E-07    1.73062E+01
 1.02000E-06    1.70937E+01
 1.04500E-06    1.68819E+01
 1.07100E-06    1.66773E+01
 1.09700E-06    1.64767E+01
 1.12300E-06    1.62798E+01
 1.15000E-06    1.56860E+01
 1.30000E-06    1.46582E+01
 1.50000E-06    1.29771E+01
 2.10000E-06    1.12574E+01
 2.60000E-06    1.00084E+01
 3.30000E-06    8.93536E+00
 4.00000E-06    6.71729E+00
 9.87700E-06    4.52275E+00
 1.59680E-05    3.32353E+00
 2.77000E-05    2.34232E+00
 4.80520E-05    1.69037E+00
 7.55014E-05    1.24723E+00
 1.48728E-04    1.49601E+00
 3.67262E-04    2.23799E+03
 9.06898E-04    1.53531E-01
 1.42510E-03    2.71073E-02
 2.23945E-03    1.27823E+02
 3.51910E-03    1.30431E+02
 5.53000E-03    9.61200E+01
 9.11800E-03    7.04039E+01
 1.50300E-02    5.01712E+01
 2.47800E-02    3.56807E+01
 4.08500E-02    2.70912E+01
 6.73400E-02    2.17872E+01
 1.11000E-01    1.88199E+01
 1.83000E-01    1.66344E+01
 3.02000E-01    1.62168E+01
 5.00000E-01    1.76434E+01
 8.21000E-01    1.27312E+01
 1.35300E+00    1.07283E+01
 2.23100E+00    7.78748E+00
 3.67900E+00    4.19136E+00
 6.06500E+00    1.21887E+00
