# n + In  0 : (n,xh)
# jendl4.0   S.Kunieda, A.Ichihara, K.Shibata+ EVAL-FEB22
#
# # energies =    71
#   E(MeV)          xs(mb) 
 3.39192E-01    0.00000E+00
 3.50000E-01    0.00000E+00
 4.00000E-01    0.00000E+00
 4.50000E-01    0.00000E+00
 5.00000E-01    0.00000E+00
 5.50000E-01    0.00000E+00
 6.00000E-01    0.00000E+00
 6.02382E-01    0.00000E+00
 6.50000E-01    0.00000E+00
 7.00000E-01    0.00000E+00
 7.50000E-01    0.00000E+00
 8.00000E-01    0.00000E+00
 8.35854E-01    0.00000E+00
 8.50000E-01    0.00000E+00
 8.71716E-01    0.00000E+00
 9.00000E-01    0.00000E+00
 9.41977E-01    0.00000E+00
 9.49694E-01    0.00000E+00
 9.50000E-01    0.00000E+00
 1.00000E+00    0.00000E+00
 1.05064E+00    0.00000E+00
 1.08766E+00    0.00000E+00
 1.14251E+00    0.00000E+00
 1.20000E+00    0.00000E+00
 1.20297E+00    0.00000E+00
 1.29870E+00    0.00000E+00
 1.30192E+00    0.00000E+00
 1.35933E+00    0.00000E+00
 1.40000E+00    0.00000E+00
 1.43070E+00    0.00000E+00
 1.46150E+00    0.00000E+00
 1.47615E+00    0.00000E+00
 1.48290E+00    0.00000E+00
 1.49148E+00    0.00000E+00
 1.50157E+00    0.00000E+00
 1.60000E+00    0.00000E+00
 1.80000E+00    0.00000E+00
 2.00000E+00    0.00000E+00
 2.20000E+00    0.00000E+00
 2.40000E+00    0.00000E+00
 2.60000E+00    0.00000E+00
 2.80000E+00    0.00000E+00
 3.00000E+00    0.00000E+00
 3.25000E+00    0.00000E+00
 3.50000E+00    0.00000E+00
 3.75000E+00    0.00000E+00
 4.00000E+00    0.00000E+00
 4.25000E+00    0.00000E+00
 4.50000E+00    0.00000E+00
 4.75000E+00    0.00000E+00
 5.00000E+00    0.00000E+00
 5.50000E+00    0.00000E+00
 6.00000E+00    0.00000E+00
 6.50000E+00    0.00000E+00
 7.00000E+00    0.00000E+00
 7.50000E+00    0.00000E+00
 8.00000E+00    0.00000E+00
 8.50000E+00    0.00000E+00
 9.00000E+00    1.15358E-30
 9.50000E+00    5.64135E-26
 1.00000E+01    8.36121E-23
 1.10000E+01    1.47277E-18
 1.20000E+01    1.13825E-15
 1.30000E+01    5.13298E-13
 1.40000E+01    5.29374E-10
 1.50000E+01    1.32714E-08
 1.60000E+01    1.62305E-07
 1.70000E+01    1.32425E-06
 1.80000E+01    8.52981E-06
 1.90000E+01    4.43200E-05
 2.00000E+01    2.06173E-04
