# n + In  0 : (n,non)
# jendl4.0   S.Kunieda, A.Ichihara, K.Shibata+ EVAL-FEB22
# uncertainties: n
# # energies =   110
#   E(MeV)          xs(mb) 
 2.00000E-03    1.18018E+02
 2.00000E-03    1.18018E+02
 2.50000E-03    2.58840E+03
 3.00000E-03    2.34787E+03
 4.00000E-03    2.03459E+03
 5.00000E-03    1.83202E+03
 6.00000E-03    1.69028E+03
 7.00000E-03    1.58341E+03
 8.00000E-03    1.49850E+03
 9.00000E-03    1.42754E+03
 1.00000E-02    1.36754E+03
 1.25000E-02    1.23874E+03
 1.50000E-02    1.14256E+03
 2.00000E-02    1.00577E+03
 2.50000E-02    8.96905E+02
 3.00000E-02    8.16766E+02
 4.00000E-02    6.95566E+02
 5.00000E-02    6.10341E+02
 6.00000E-02    5.47077E+02
 7.00000E-02    4.98179E+02
 8.00000E-02    4.59550E+02
 9.00000E-02    4.28300E+02
 1.00000E-01    4.02625E+02
 1.20000E-01    3.62843E+02
 1.40000E-01    3.34106E+02
 1.60000E-01    3.12727E+02
 1.80000E-01    2.96321E+02
 2.00000E-01    2.83698E+02
 2.50000E-01    2.62435E+02
 3.00000E-01    2.50796E+02
 3.39192E-01    2.45333E+02
 3.50000E-01    2.44515E+02
 4.00000E-01    2.42557E+02
 4.50000E-01    2.42747E+02
 5.00000E-01    2.44955E+02
 5.50000E-01    2.48444E+02
 6.00000E-01    2.53508E+02
 6.02382E-01    2.53548E+02
 6.50000E-01    2.63594E+02
 6.69611E-01    2.67822E+02
 7.00000E-01    2.74414E+02
 7.50000E-01    2.85138E+02
 8.00000E-01    2.96856E+02
 8.35854E-01    3.04423E+02
 8.50000E-01    3.10194E+02
 8.71716E-01    3.18914E+02
 9.00000E-01    3.30943E+02
 9.41977E-01    3.44073E+02
 9.49694E-01    3.58548E+02
 9.50000E-01    3.59656E+02
 1.00000E+00    4.44627E+02
 1.05064E+00    4.77839E+02
 1.08766E+00    5.12581E+02
 1.14251E+00    5.81259E+02
 1.20000E+00    7.50568E+02
 1.20297E+00    7.53270E+02
 1.29870E+00    8.51417E+02
 1.30192E+00    8.54907E+02
 1.35933E+00    9.67001E+02
 1.40000E+00    1.05402E+03
 1.43070E+00    1.07202E+03
 1.46150E+00    1.10677E+03
 1.47615E+00    1.13133E+03
 1.48290E+00    1.14480E+03
 1.49148E+00    1.16215E+03
 1.50157E+00    1.18386E+03
 1.60000E+00    1.49012E+03
 1.80000E+00    1.65138E+03
 2.00000E+00    1.74493E+03
 2.20000E+00    1.80923E+03
 2.40000E+00    1.85319E+03
 2.60000E+00    1.87982E+03
 2.80000E+00    1.90521E+03
 3.00000E+00    1.92796E+03
 3.25000E+00    1.95747E+03
 3.50000E+00    1.98919E+03
 3.75000E+00    2.02385E+03
 3.77365E+00    2.02714E+03
 4.00000E+00    2.05901E+03
 4.25000E+00    2.09183E+03
 4.50000E+00    2.11983E+03
 4.62029E+00    2.13003E+03
 4.75000E+00    2.14103E+03
 5.00000E+00    2.15510E+03
 5.50000E+00    2.16331E+03
 6.00000E+00    2.15047E+03
 6.50000E+00    2.12617E+03
 6.86438E+00    2.10552E+03
 7.00000E+00    2.09795E+03
 7.43049E+00    2.07549E+03
 7.50000E+00    2.07188E+03
 8.00000E+00    2.05090E+03
 8.50000E+00    2.03633E+03
 9.00000E+00    2.02773E+03
 9.11510E+00    2.02282E+03
 9.44604E+00    2.02357E+03
 9.50000E+00    2.02369E+03
 1.00000E+01    2.02255E+03
 1.10000E+01    2.02355E+03
 1.20000E+01    2.02384E+03
 1.30000E+01    2.02136E+03
 1.37427E+01    2.01725E+03
 1.40000E+01    2.01582E+03
 1.50000E+01    2.00719E+03
 1.60000E+01    1.99546E+03
 1.64528E+01    1.98902E+03
 1.70000E+01    1.98291E+03
 1.80000E+01    1.96939E+03
 1.90000E+01    1.95760E+03
 2.00000E+01    1.94885E+03
