# n + Rb 87 : (n,el)    
# endfb8.0   JNDC FP Nuclear Data W.G.         EVAL-MAR90
# uncertainties: n
# # energies =   171
#   E(MeV)       xs(mb) 
 1.00000E-11    7.98790E+03
 1.00000E-07    4.36255E+03
 4.13990E-07    4.36026E+03
 5.31580E-07    4.35967E+03
 6.82560E-07    4.35949E+03
 8.76420E-07    4.35927E+03
 1.12540E-06    4.35899E+03
 1.44500E-06    4.35863E+03
 1.85540E-06    4.35817E+03
 2.37240E-06    4.35757E+03
 3.05900E-06    4.35680E+03
 3.92790E-06    4.35582E+03
 5.04350E-06    4.35456E+03
 6.47600E-06    4.35295E+03
 8.31530E-06    4.35081E+03
 1.06770E-05    4.34796E+03
 1.37100E-05    4.34431E+03
 1.76030E-05    4.33961E+03
 2.26030E-05    4.33350E+03
 2.92030E-05    4.32575E+03
 3.72670E-05    4.31592E+03
 4.78510E-05    4.30317E+03
 6.14420E-05    4.28679E+03
 7.88930E-05    4.26453E+03
 1.01300E-04    4.22638E+03
 1.30070E-04    4.17217E+03
 1.67020E-04    4.07584E+03
 2.14450E-04    4.33388E+03
 2.75360E-04    3.11947E+03
 3.53580E-04    5.92996E+04
 4.54000E-04    5.27851E+03
 5.82950E-04    4.80616E+03
 7.48520E-04    4.61716E+03
 9.61120E-04    4.46875E+03
 1.23410E-03    4.32383E+03
 1.58460E-03    4.13414E+03
 2.03470E-03    3.95496E+03
 2.24870E-03    3.81359E+03
 2.48520E-03    3.67926E+03
 2.61260E-03    3.56737E+03
 2.74650E-03    3.34392E+03
 3.03540E-03    2.86394E+03
 3.35460E-03    1.74116E+03
 3.70740E-03    3.05882E+04
 4.30740E-03    1.77888E+04
 5.53080E-03    3.77716E+03
 7.10170E-03    3.81874E+04
 9.11880E-03    1.35883E+04
 1.17090E-02    1.05666E+04
 1.50340E-02    1.07438E+04
 1.93050E-02    1.03234E+04
 2.18750E-02    1.01169E+04
 2.35790E-02    1.00176E+04
 2.41760E-02    9.96969E+03
 2.47880E-02    9.89825E+03
 2.60580E-02    9.81867E+03
 2.70000E-02    9.73750E+03
 2.85000E-02    9.59371E+03
 3.18280E-02    9.43883E+03
 3.43070E-02    9.24385E+03
 4.08680E-02    9.02445E+03
 4.63090E-02    8.85476E+03
 5.24750E-02    8.72645E+03
 5.65620E-02    8.57601E+03
 6.73790E-02    8.43739E+03
 7.20000E-02    8.34691E+03
 7.95000E-02    8.27431E+03
 8.25000E-02    8.23034E+03
 8.65170E-02    8.14352E+03
 9.80370E-02    8.07066E+03
 1.11090E-01    8.05544E+03
 1.16790E-01    8.04502E+03
 1.22770E-01    8.03405E+03
 1.29070E-01    8.02252E+03
 1.35690E-01    8.01041E+03
 1.42640E-01    7.99767E+03
 1.49960E-01    7.98428E+03
 1.57640E-01    7.97020E+03
 1.65730E-01    7.95360E+03
 1.74220E-01    7.93427E+03
 1.83160E-01    7.91394E+03
 1.92550E-01    7.89258E+03
 2.02420E-01    7.87013E+03
 2.12800E-01    7.84396E+03
 2.23710E-01    7.81369E+03
 2.35180E-01    7.78187E+03
 2.47240E-01    7.73057E+03
 2.73240E-01    7.67120E+03
 2.87250E-01    7.63812E+03
 2.94520E-01    7.62267E+03
 2.97200E-01    7.61650E+03
 2.98500E-01    7.60912E+03
 3.01970E-01    7.55202E+03
 3.33730E-01    7.43734E+03
 3.68830E-01    7.34463E+03
 3.87740E-01    7.28626E+03
 4.07620E-01    7.11110E+03
 4.50490E-01    6.81833E+03
 4.97870E-01    6.60043E+03
 5.23400E-01    6.45473E+03
 5.50230E-01    6.31277E+03
 5.78440E-01    6.16996E+03
 6.08100E-01    6.03530E+03
 6.39280E-01    5.89786E+03
 6.72060E-01    5.76869E+03
 7.06510E-01    5.63468E+03
 7.42740E-01    5.49755E+03
 7.80820E-01    5.36693E+03
 8.20850E-01    5.23082E+03
 8.62940E-01    5.08622E+03
 9.07180E-01    4.91925E+03
 9.61640E-01    4.77062E+03
 1.00260E+00    4.56797E+03
 1.10800E+00    4.36268E+03
 1.16480E+00    4.23276E+03
 1.22460E+00    4.10365E+03
 1.28730E+00    3.98453E+03
 1.35340E+00    3.87073E+03
 1.42270E+00    3.75607E+03
 1.49570E+00    3.63136E+03
 1.57240E+00    3.49934E+03
 1.65300E+00    3.36120E+03
 1.73770E+00    3.22971E+03
 1.82680E+00    3.10297E+03
 1.92050E+00    2.98067E+03
 2.01900E+00    2.88665E+03
 2.12250E+00    2.80362E+03
 2.23130E+00    2.73782E+03
 2.30690E+00    2.69823E+03
 2.34570E+00    2.67805E+03
 2.36530E+00    2.66443E+03
 2.38520E+00    2.63392E+03
 2.46600E+00    2.57819E+03
 2.59240E+00    2.51903E+03
 2.72530E+00    2.46606E+03
 2.86500E+00    2.41460E+03
 3.01190E+00    2.36907E+03
 3.16640E+00    2.32755E+03
 3.32870E+00    2.26332E+03
 3.67880E+00    2.18247E+03
 4.06570E+00    2.19021E+03
 4.49330E+00    2.23560E+03
 4.72370E+00    2.26775E+03
 4.96590E+00    2.31027E+03
 5.22050E+00    2.37200E+03
 5.48810E+00    2.43715E+03
 5.76950E+00    2.50538E+03
 6.06530E+00    2.57278E+03
 6.37630E+00    2.63028E+03
 6.59240E+00    2.66594E+03
 6.70320E+00    2.71493E+03
 7.04690E+00    2.77853E+03
 7.40820E+00    2.83741E+03
 7.78800E+00    2.89574E+03
 8.18730E+00    2.93171E+03
 8.60710E+00    2.96436E+03
 9.04840E+00    2.97744E+03
 9.51230E+00    2.97674E+03
 1.00000E+01    2.97173E+03
 1.05130E+01    2.88524E+03
 1.10520E+01    2.77421E+03
 1.16180E+01    2.64712E+03
 1.22140E+01    2.49278E+03
 1.28400E+01    2.35416E+03
 1.34990E+01    2.28468E+03
 1.38400E+01    2.23756E+03
 1.41910E+01    2.17465E+03
 1.45500E+01    2.11286E+03
 1.49180E+01    2.02195E+03
 1.56830E+01    1.90296E+03
 1.64870E+01    1.78985E+03
