# n + Ru 99 : (n,g)     
# endfb8.0   JNDC FP Nuclear Data W.G.         EVAL-MAR90
# uncertainties: n
# # energies =    69
#   E(MeV)       xs(mb) 
 1.00000E-10    5.08400E+04
 5.00000E-09    1.38565E+04
 1.00000E-08    1.05028E+04
 1.50000E-08    8.83122E+03
 2.00000E-08    7.77582E+03
 2.50000E-08    7.03052E+03
 3.00000E-08    6.46771E+03
 3.50000E-08    5.95199E+03
 4.20000E-08    5.45047E+03
 5.00000E-08    5.03377E+03
 5.80000E-08    4.68471E+03
 6.70000E-08    4.33057E+03
 8.00000E-08    3.92875E+03
 1.00000E-07    3.43356E+03
 1.40000E-07    2.98164E+03
 1.80000E-07    2.67946E+03
 2.20000E-07    2.48151E+03
 2.50000E-07    2.34744E+03
 2.80000E-07    2.25170E+03
 3.00000E-07    2.18476E+03
 3.20000E-07    2.11070E+03
 3.50000E-07    2.00920E+03
 4.00000E-07    1.86038E+03
 5.00000E-07    1.69486E+03
 6.25000E-07    1.55229E+03
 7.80000E-07    1.46539E+03
 8.50000E-07    1.42585E+03
 9.10000E-07    1.39884E+03
 9.50000E-07    1.38346E+03
 9.72000E-07    1.37271E+03
 9.96000E-07    1.36197E+03
 1.02000E-06    1.35158E+03
 1.04500E-06    1.34131E+03
 1.07100E-06    1.33122E+03
 1.09700E-06    1.32177E+03
 1.12300E-06    1.31235E+03
 1.15000E-06    1.28537E+03
 1.30000E-06    1.24207E+03
 1.50000E-06    1.18662E+03
 2.10000E-06    1.15900E+03
 2.60000E-06    1.18325E+03
 3.30000E-06    1.26691E+03
 4.00000E-06    1.85063E+04
 9.87700E-06    1.42797E+05
 1.59680E-05    6.61017E+04
 2.77000E-05    6.49464E+02
 4.80520E-05    1.90090E+04
 7.55014E-05    1.60654E+04
 1.48728E-04    1.41362E+04
 3.67262E-04    7.15919E+03
 9.06898E-04    3.17358E+03
 1.42510E-03    2.58575E+03
 2.23945E-03    2.06376E+03
 3.51910E-03    1.69363E+03
 5.53000E-03    1.40822E+03
 9.11800E-03    1.16562E+03
 1.50300E-02    9.44971E+02
 2.47800E-02    7.35988E+02
 4.08500E-02    5.50595E+02
 6.73400E-02    3.95963E+02
 1.11000E-01    2.68176E+02
 1.83000E-01    1.97088E+02
 3.02000E-01    1.39739E+02
 5.00000E-01    9.03678E+01
 8.21000E-01    6.23727E+01
 1.35300E+00    5.30832E+01
 2.23100E+00    2.70308E+01
 3.67900E+00    7.15594E+00
 6.06500E+00    1.44099E+00
