# n + Ru 99 : (n,tot)   
# endfb8.0   JNDC FP Nuclear Data W.G.         EVAL-MAR90
# uncertainties: n
# # energies =   171
#   E(MeV)       xs(mb) 
 1.00000E-11    8.52414E+04
 1.00000E-07    6.38986E+03
 4.13990E-07    5.49709E+03
 5.31580E-07    5.31443E+03
 6.82560E-07    5.15821E+03
 8.76420E-07    5.02669E+03
 1.12540E-06    4.91965E+03
 1.44500E-06    4.83737E+03
 1.85540E-06    4.78250E+03
 2.37240E-06    4.76104E+03
 3.05900E-06    4.79808E+03
 3.92790E-06    4.95129E+03
 5.04350E-06    5.44410E+03
 6.47600E-06    7.90643E+03
 8.31530E-06    3.29827E+05
 1.06770E-05    1.66266E+04
 1.37100E-05    5.21994E+03
 1.76030E-05    5.31651E+03
 2.26030E-05    1.52008E+05
 2.92030E-05    5.12549E+03
 3.72670E-05    4.23804E+03
 4.78510E-05    4.00202E+04
 6.14420E-05    4.39095E+03
 7.88930E-05    9.80823E+03
 1.01300E-04    5.19407E+04
 1.30070E-04    2.86508E+04
 1.67020E-04    3.29941E+04
 2.14450E-04    1.80054E+04
 2.75360E-04    1.35400E+04
 3.53580E-04    7.46549E+03
 4.54000E-04    2.09365E+04
 5.82950E-04    1.61852E+04
 7.48520E-04    2.29689E+04
 9.61120E-04    1.03636E+04
 1.23410E-03    1.01454E+04
 1.58460E-03    9.61482E+03
 2.03470E-03    9.28524E+03
 2.24870E-03    9.11360E+03
 2.48520E-03    8.99266E+03
 2.61260E-03    8.91520E+03
 2.74650E-03    8.80268E+03
 3.03540E-03    8.66142E+03
 3.35460E-03    8.52945E+03
 3.70740E-03    8.37744E+03
 4.30740E-03    8.16384E+03
 5.53080E-03    7.93848E+03
 7.10170E-03    7.75966E+03
 9.11880E-03    7.62303E+03
 1.17090E-02    7.52577E+03
 1.50340E-02    7.46462E+03
 1.93050E-02    7.44049E+03
 2.18750E-02    7.43479E+03
 2.35790E-02    7.43379E+03
 2.41760E-02    7.43393E+03
 2.47880E-02    7.43474E+03
 2.60580E-02    7.43643E+03
 2.70000E-02    7.43873E+03
 2.85000E-02    7.44580E+03
 3.18280E-02    7.45674E+03
 3.43070E-02    7.47747E+03
 4.08680E-02    7.50913E+03
 4.63090E-02    7.54122E+03
 5.24750E-02    7.56993E+03
 5.65620E-02    7.60942E+03
 6.73790E-02    7.64990E+03
 7.20000E-02    7.67891E+03
 7.95000E-02    7.69790E+03
 8.25000E-02    7.69734E+03
 8.65170E-02    7.72142E+03
 9.80370E-02    7.76917E+03
 1.11090E-01    7.77284E+03
 1.16790E-01    7.77600E+03
 1.22770E-01    7.77933E+03
 1.29070E-01    7.78284E+03
 1.35690E-01    7.78651E+03
 1.42640E-01    7.79038E+03
 1.49960E-01    7.78947E+03
 1.57640E-01    7.78333E+03
 1.65730E-01    7.77687E+03
 1.74220E-01    7.77007E+03
 1.83160E-01    7.76293E+03
 1.92550E-01    7.75543E+03
 2.02420E-01    7.74754E+03
 2.12800E-01    7.73585E+03
 2.23710E-01    7.71981E+03
 2.35180E-01    7.70295E+03
 2.47240E-01    7.67591E+03
 2.73240E-01    7.64701E+03
 2.87250E-01    7.63170E+03
 2.94520E-01    7.62455E+03
 2.97200E-01    7.62169E+03
 2.98500E-01    7.61828E+03
 3.01970E-01    7.58799E+03
 3.33730E-01    7.52842E+03
 3.68830E-01    7.47987E+03
 3.87740E-01    7.44529E+03
 4.07620E-01    7.38982E+03
 4.50490E-01    7.30941E+03
 4.97870E-01    7.24388E+03
 5.23400E-01    7.19719E+03
 5.50230E-01    7.14812E+03
 5.78440E-01    7.09653E+03
 6.08100E-01    7.04229E+03
 6.39280E-01    6.98526E+03
 6.72060E-01    6.92567E+03
 7.06510E-01    6.86723E+03
 7.42740E-01    6.80703E+03
 7.80820E-01    6.74376E+03
 8.20850E-01    6.67724E+03
 8.62940E-01    6.60731E+03
 9.07180E-01    6.52753E+03
 9.61640E-01    6.45435E+03
 1.00260E+00    6.34892E+03
 1.10800E+00    6.22996E+03
 1.16480E+00    6.14513E+03
 1.22460E+00    6.06009E+03
 1.28730E+00    5.97508E+03
 1.35340E+00    5.88571E+03
 1.42270E+00    5.79181E+03
 1.49570E+00    5.69798E+03
 1.57240E+00    5.60319E+03
 1.65300E+00    5.50358E+03
 1.73770E+00    5.39886E+03
 1.82680E+00    5.29592E+03
 1.92050E+00    5.19371E+03
 2.01900E+00    5.08628E+03
 2.12250E+00    4.97396E+03
 2.23130E+00    4.88559E+03
 2.30690E+00    4.83375E+03
 2.34570E+00    4.80733E+03
 2.36530E+00    4.78948E+03
 2.38520E+00    4.74419E+03
 2.46600E+00    4.65968E+03
 2.59240E+00    4.55931E+03
 2.72530E+00    4.45995E+03
 2.86500E+00    4.36369E+03
 3.01190E+00    4.28407E+03
 3.16640E+00    4.21660E+03
 3.32870E+00    4.11459E+03
 3.67880E+00    3.98395E+03
 4.06570E+00    3.91159E+03
 4.49330E+00    3.87998E+03
 4.72370E+00    3.85747E+03
 4.96590E+00    3.84428E+03
 5.22050E+00    3.84809E+03
 5.48810E+00    3.85237E+03
 5.76950E+00    3.85687E+03
 6.06530E+00    3.86820E+03
 6.37630E+00    3.88453E+03
 6.59240E+00    3.89466E+03
 6.70320E+00    3.90863E+03
 7.04690E+00    3.93756E+03
 7.40820E+00    3.97558E+03
 7.78800E+00    4.01579E+03
 8.18730E+00    4.06686E+03
 8.60710E+00    4.12515E+03
 9.04840E+00    4.18802E+03
 9.51230E+00    4.25899E+03
 1.00000E+01    4.32752E+03
 1.05130E+01    4.39179E+03
 1.10520E+01    4.45698E+03
 1.16180E+01    4.51908E+03
 1.22140E+01    4.53423E+03
 1.28400E+01    4.53565E+03
 1.34990E+01    4.53672E+03
 1.38400E+01    4.53454E+03
 1.41910E+01    4.51743E+03
 1.45500E+01    4.49829E+03
 1.49180E+01    4.46682E+03
 1.56830E+01    4.42291E+03
 1.64870E+01    4.38304E+03
