# n + Nd  0 : (n,p)g
# jendl.ad   N.Iwamoto                         EVAL-Apr14
# uncertainties: n
# # energies =    61
#   E(MeV)          xs(mb) 
 1.38993E+00    0.00000E+00
 1.39365E+00    1.59173E-15
 2.40129E+00    9.63753E-13
 2.45449E+00    3.28600E-12
 2.50000E+00    8.98388E-12
 2.53176E+00    1.78779E-11
 2.53288E+00    1.82756E-11
 2.54698E+00    2.45957E-11
 2.56539E+00    3.59224E-11
 2.60145E+00    7.29087E-11
 2.60393E+00    7.56471E-11
 2.67488E+00    2.82721E-10
 2.75000E+00    1.07948E-09
 2.75672E+00    1.21054E-09
 2.79573E+00    2.28667E-09
 2.86609E+00    6.90544E-09
 2.89342E+00    1.01653E-08
 2.90683E+00    1.24656E-08
 2.97902E+00    3.33063E-08
 2.99705E+00    4.21688E-08
 3.00000E+00    4.34776E-08
 3.00430E+00    4.72883E-08
 3.03136E+00    6.61412E-08
 3.06684E+00    1.01165E-07
 3.10296E+00    1.59096E-07
 3.10778E+00    1.67331E-07
 3.15029E+00    2.66200E-07
 3.50000E+00    7.81755E-06
 4.00000E+00    2.60116E-04
 4.50000E+00    3.13797E-03
 5.00000E+00    1.88179E-02
 5.50000E+00    6.91605E-02
 6.00000E+00    1.79860E-01
 6.50000E+00    3.64030E-01
 7.00000E+00    6.11084E-01
 7.50000E+00    8.92488E-01
 8.00000E+00    1.18051E+00
 8.50000E+00    1.46193E+00
 9.00000E+00    1.74131E+00
 9.50000E+00    2.03873E+00
 1.00000E+01    2.38578E+00
 1.05000E+01    2.82401E+00
 1.10000E+01    3.38024E+00
 1.15000E+01    4.09360E+00
 1.20000E+01    4.96435E+00
 1.25000E+01    5.92130E+00
 1.30000E+01    7.08074E+00
 1.35000E+01    8.38759E+00
 1.40000E+01    9.80091E+00
 1.45000E+01    1.13120E+01
 1.50000E+01    1.28694E+01
 1.55000E+01    1.44603E+01
 1.60000E+01    1.60043E+01
 1.65000E+01    1.73839E+01
 1.70000E+01    1.87639E+01
 1.75000E+01    2.00183E+01
 1.80000E+01    2.10278E+01
 1.85000E+01    2.19944E+01
 1.90000E+01    2.21228E+01
 1.95000E+01    2.28723E+01
 2.00000E+01    2.35820E+01
