# n + Nd  0 : (n,p)m
# jendl.ad   N.Iwamoto                         EVAL-Apr14
# uncertainties: n
# # energies =    60
#   E(MeV)          xs(mb) 
 1.39365E+00    0.00000E+00
 2.40129E+00    2.95726E-14
 2.45449E+00    5.09214E-14
 2.50000E+00    8.75870E-14
 2.53176E+00    1.37202E-13
 2.53288E+00    1.37855E-13
 2.54698E+00    1.69054E-13
 2.56539E+00    2.25227E-13
 2.60145E+00    4.09861E-13
 2.60393E+00    4.27533E-13
 2.67488E+00    1.55085E-12
 2.75000E+00    6.03824E-12
 2.75672E+00    6.79025E-12
 2.79573E+00    1.25649E-11
 2.86609E+00    3.92005E-11
 2.89342E+00    5.95686E-11
 2.90683E+00    7.22172E-11
 2.97902E+00    1.99061E-10
 2.99705E+00    2.54964E-10
 3.00000E+00    2.63066E-10
 3.00430E+00    2.85430E-10
 3.03136E+00    4.04631E-10
 3.06684E+00    6.15973E-10
 3.10296E+00    9.84942E-10
 3.10778E+00    1.03086E-09
 3.15029E+00    1.62981E-09
 3.50000E+00    5.37923E-08
 4.00000E+00    1.89657E-06
 4.50000E+00    2.30861E-05
 5.00000E+00    1.39636E-04
 5.50000E+00    5.28277E-04
 6.00000E+00    1.44575E-03
 6.50000E+00    3.13187E-03
 7.00000E+00    5.69711E-03
 7.50000E+00    9.13478E-03
 8.00000E+00    1.35092E-02
 8.50000E+00    1.91967E-02
 9.00000E+00    2.70649E-02
 9.50000E+00    3.85700E-02
 1.00000E+01    5.58011E-02
 1.05000E+01    8.14362E-02
 1.10000E+01    1.18389E-01
 1.15000E+01    1.70080E-01
 1.20000E+01    2.38830E-01
 1.25000E+01    3.34742E-01
 1.30000E+01    4.45851E-01
 1.35000E+01    5.78134E-01
 1.40000E+01    7.28849E-01
 1.45000E+01    8.95402E-01
 1.50000E+01    1.07216E+00
 1.55000E+01    1.25249E+00
 1.60000E+01    1.44134E+00
 1.65000E+01    1.60247E+00
 1.70000E+01    1.75749E+00
 1.75000E+01    1.86994E+00
 1.80000E+01    1.96691E+00
 1.85000E+01    2.03314E+00
 1.90000E+01    2.15238E+00
 1.95000E+01    2.21367E+00
 2.00000E+01    2.20218E+00
