# n + Nd  0 : (n,p)
# jendl.ad   N.Iwamoto                         EVAL-Apr14
# uncertainties: n
# # energies =    61
#   E(MeV)          xs(mb) 
 1.38993E+00    0.00000E+00
 1.39365E+00    1.19030E-15
 2.40129E+00    7.42810E-13
 2.45449E+00    2.49535E-12
 2.50000E+00    6.78329E-12
 2.53176E+00    1.34719E-11
 2.53288E+00    1.37694E-11
 2.54698E+00    1.85193E-11
 2.56539E+00    2.70310E-11
 2.60145E+00    5.48283E-11
 2.60393E+00    5.68884E-11
 2.67488E+00    2.12581E-10
 2.75000E+00    8.11748E-10
 2.75672E+00    9.10315E-10
 2.79573E+00    1.71939E-09
 2.86609E+00    5.19311E-09
 2.89342E+00    7.64637E-09
 2.90683E+00    9.37571E-09
 2.97902E+00    2.50550E-08
 2.99705E+00    3.17246E-08
 3.00000E+00    3.27093E-08
 3.00430E+00    3.55757E-08
 3.03136E+00    4.97636E-08
 3.06684E+00    7.61102E-08
 3.10296E+00    1.19710E-07
 3.10778E+00    1.25904E-07
 3.15029E+00    2.00285E-07
 3.50000E+00    5.88617E-06
 4.00000E+00    1.95933E-04
 4.50000E+00    2.36384E-03
 5.00000E+00    1.41764E-02
 5.50000E+00    5.21130E-02
 6.00000E+00    1.35580E-01
 6.50000E+00    2.74565E-01
 7.00000E+00    4.61240E-01
 7.50000E+00    6.74272E-01
 8.00000E+00    8.93036E-01
 8.50000E+00    1.10807E+00
 9.00000E+00    1.32379E+00
 9.50000E+00    1.55712E+00
 1.00000E+01    1.83476E+00
 1.05000E+01    2.19231E+00
 1.10000E+01    2.65573E+00
 1.15000E+01    3.26208E+00
 1.20000E+01    4.01938E+00
 1.25000E+01    4.88923E+00
 1.30000E+01    5.95596E+00
 1.35000E+01    7.18888E+00
 1.40000E+01    8.55802E+00
 1.45000E+01    1.00560E+01
 1.50000E+01    1.16366E+01
 1.55000E+01    1.32795E+01
 1.60000E+01    1.49165E+01
 1.65000E+01    1.64293E+01
 1.70000E+01    1.79246E+01
 1.75000E+01    1.92843E+01
 1.80000E+01    2.04170E+01
 1.85000E+01    2.14472E+01
 1.90000E+01    2.18702E+01
 1.95000E+01    2.26725E+01
 2.00000E+01    2.33632E+01
