# n + Nd  0 : (n,xa)
# jendl.ad   N.Iwamoto                         EVAL-Apr14
#
# # energies =   113
#   E(MeV)          xs(mb) 
 1.05000E-01    9.45352E-05
 1.10000E-01    9.45534E-05
 1.20000E-01    9.46013E-05
 1.30000E-01    9.46697E-05
 1.40000E-01    9.55436E-05
 1.50000E-01    9.64923E-05
 1.60000E-01    9.74420E-05
 1.70000E-01    9.84065E-05
 1.80000E-01    9.93560E-05
 1.90000E-01    1.00308E-04
 2.00000E-01    1.01259E-04
 2.25000E-01    1.07128E-04
 2.50000E-01    1.13015E-04
 2.75000E-01    1.18768E-04
 3.00000E-01    1.24510E-04
 4.00000E-01    1.62745E-04
 4.56907E-01    1.94378E-04
 5.00000E-01    2.15940E-04
 6.00000E-01    2.91885E-04
 7.00000E-01    3.97264E-04
 8.00000E-01    3.33766E-04
 9.00000E-01    3.96906E-04
 9.21728E-01    4.17730E-04
 1.00000E+00    4.92690E-04
 1.04942E+00    5.56861E-04
 1.10000E+00    6.21335E-04
 1.19784E+00    7.82612E-04
 1.20000E+00    7.85202E-04
 1.30000E+00    1.00534E-03
 1.31211E+00    1.03762E-03
 1.38633E+00    1.11905E-03
 1.40000E+00    1.12908E-03
 1.48076E+00    1.36061E-03
 1.50000E+00    1.41493E-03
 1.52801E+00    1.49937E-03
 1.58287E+00    1.55153E-03
 1.60000E+00    1.51321E-03
 1.61365E+00    1.54122E-03
 1.69967E+00    1.71854E-03
 1.70000E+00    1.71906E-03
 1.70849E+00    1.74714E-03
 1.75702E+00    1.91030E-03
 1.78163E+00    1.99280E-03
 1.78944E+00    2.01863E-03
 1.78945E+00    2.01866E-03
 1.79232E+00    2.02786E-03
 1.79966E+00    2.05222E-03
 1.80000E+00    2.05317E-03
 1.82453E+00    2.15312E-03
 1.84668E+00    2.24487E-03
 1.89773E+00    2.45714E-03
 1.90000E+00    2.46629E-03
 1.91851E+00    2.55777E-03
 1.93206E+00    2.62428E-03
 1.99213E+00    2.92195E-03
 2.00000E+00    2.96063E-03
 2.00267E+00    2.97813E-03
 2.04101E+00    3.23036E-03
 2.04345E+00    3.24624E-03
 2.05967E+00    3.35310E-03
 2.08330E+00    3.50879E-03
 2.08692E+00    3.53264E-03
 2.09792E+00    3.57215E-03
 2.10445E+00    3.57367E-03
 2.11028E+00    3.57492E-03
 2.13410E+00    3.64464E-03
 2.15868E+00    3.73240E-03
 2.16380E+00    3.75038E-03
 2.16381E+00    3.75041E-03
 2.18097E+00    3.81181E-03
 2.21247E+00    3.86666E-03
 2.22363E+00    3.87273E-03
 2.23509E+00    3.89604E-03
 2.23510E+00    3.89608E-03
 2.24038E+00    3.91546E-03
 2.25000E+00    3.95072E-03
 2.50000E+00    4.94479E-03
 2.75000E+00    5.52102E-03
 3.00000E+00    6.94521E-03
 3.50000E+00    1.10279E-02
 4.00000E+00    1.74331E-02
 4.50000E+00    2.63903E-02
 5.00000E+00    3.79948E-02
 5.50000E+00    5.24492E-02
 6.00000E+00    7.03392E-02
 6.50000E+00    9.28913E-02
 7.00000E+00    1.22580E-01
 7.50000E+00    1.64423E-01
 8.00000E+00    2.22895E-01
 8.50000E+00    2.87237E-01
 9.00000E+00    3.68425E-01
 9.50000E+00    4.83953E-01
 1.00000E+01    6.46671E-01
 1.05000E+01    8.64106E-01
 1.10000E+01    1.14333E+00
 1.15000E+01    1.49116E+00
 1.20000E+01    1.90913E+00
 1.25000E+01    2.39776E+00
 1.30000E+01    2.95013E+00
 1.35000E+01    3.56137E+00
 1.40000E+01    4.22117E+00
 1.45000E+01    4.92154E+00
 1.50000E+01    5.65290E+00
 1.55000E+01    6.40881E+00
 1.60000E+01    7.17754E+00
 1.65000E+01    7.95253E+00
 1.70000E+01    8.73196E+00
 1.75000E+01    9.50377E+00
 1.80000E+01    1.02717E+01
 1.85000E+01    1.10242E+01
 1.90000E+01    1.17683E+01
 1.95000E+01    1.24924E+01
 2.00000E+01    1.31755E+01
