# n + Cr 53 : (n,xg)    
# endfb8.0   S.Chiba,M.Chadwick,K.Shibata      EVAL-OCT97
# 
# # energies =    71
#   E(MeV)        xs(mb) 
 5.74746E-01    0.00000E+00
 8.00000E-01    0.00000E+00
 9.00000E-01    0.00000E+00
 1.00000E+00    0.00000E+00
 1.02520E+00    0.00000E+00
 1.25000E+00    0.00000E+00
 1.31460E+00    0.00000E+00
 1.50000E+00    0.00000E+00
 1.56630E+00    0.00000E+00
 1.75000E+00    0.00000E+00
 2.00000E+00    0.00000E+00
 2.01160E+00    0.00000E+00
 2.21340E+00    0.00000E+00
 2.25000E+00    0.00000E+00
 2.27550E+00    0.00000E+00
 2.36520E+00    0.00000E+00
 2.49970E+00    0.00000E+00
 2.50000E+00    0.00000E+00
 2.70660E+00    0.00000E+00
 2.72090E+00    0.00000E+00
 2.75000E+00    0.00000E+00
 2.75760E+00    0.00000E+00
 2.75860E+00    0.00000E+00
 2.82480E+00    0.00000E+00
 3.00000E+00    0.00000E+00
 3.50000E+00    0.00000E+00
 4.00000E+00    0.00000E+00
 4.50000E+00    0.00000E+00
 5.00000E+00    0.00000E+00
 5.50000E+00    0.00000E+00
 6.00000E+00    0.00000E+00
 6.50000E+00    0.00000E+00
 7.00000E+00    0.00000E+00
 7.50000E+00    0.00000E+00
 8.00000E+00    0.00000E+00
 8.50000E+00    0.00000E+00
 9.00000E+00    0.00000E+00
 9.50000E+00    0.00000E+00
 1.00000E+01    0.00000E+00
 1.10000E+01    0.00000E+00
 1.20000E+01    0.00000E+00
 1.30000E+01    0.00000E+00
 1.45000E+01    0.00000E+00
 1.60000E+01    0.00000E+00
 1.75000E+01    0.00000E+00
 2.00000E+01    0.00000E+00
 2.00000E+01    4.03324E+03
 2.20000E+01    4.15653E+03
 2.40000E+01    3.94816E+03
 2.60000E+01    3.50686E+03
 2.80000E+01    3.13072E+03
 3.00000E+01    2.86682E+03
 3.50000E+01    2.71784E+03
 4.00000E+01    2.58035E+03
 4.50000E+01    2.42312E+03
 5.00000E+01    2.32102E+03
 5.50000E+01    2.25902E+03
 6.00000E+01    2.15149E+03
 6.50000E+01    2.09327E+03
 7.00000E+01    1.97999E+03
 7.50000E+01    1.94726E+03
 8.00000E+01    1.91237E+03
 8.50000E+01    1.87899E+03
 9.00000E+01    1.86057E+03
 9.50000E+01    1.85036E+03
 1.00000E+02    1.80424E+03
 1.10000E+02    1.78706E+03
 1.20000E+02    1.75494E+03
 1.30000E+02    1.73231E+03
 1.40000E+02    1.70016E+03
 1.50000E+02    1.68602E+03
