# n + Cr 53 : (n,xn)    
# endfb8.0   S.Chiba,M.Chadwick,K.Shibata      EVAL-OCT97
# 
# # energies =    71
#   E(MeV)        xs(mb) 
 5.74746E-01    0.00000E+00
 8.00000E-01    1.88740E+02
 9.00000E-01    2.20200E+02
 1.00000E+00    2.51520E+02
 1.02520E+00    2.54480E+02
 1.25000E+00    6.11710E+02
 1.31460E+00    6.25710E+02
 1.50000E+00    8.90480E+02
 1.56630E+00    8.98140E+02
 1.75000E+00    1.06130E+03
 2.00000E+00    1.12920E+03
 2.01160E+00    1.12750E+03
 2.21340E+00    1.19430E+03
 2.25000E+00    1.21160E+03
 2.27550E+00    1.20720E+03
 2.36520E+00    1.20750E+03
 2.49970E+00    1.27660E+03
 2.50000E+00    1.27680E+03
 2.70660E+00    1.27640E+03
 2.72090E+00    1.28770E+03
 2.75000E+00    1.32580E+03
 2.75760E+00    1.32410E+03
 2.75860E+00    1.32390E+03
 2.82480E+00    1.32420E+03
 3.00000E+00    1.37370E+03
 3.50000E+00    1.42280E+03
 4.00000E+00    1.44990E+03
 4.50000E+00    1.46730E+03
 5.00000E+00    1.48550E+03
 5.50000E+00    1.48920E+03
 6.00000E+00    1.47940E+03
 6.50000E+00    1.46380E+03
 7.00000E+00    1.44750E+03
 7.50000E+00    1.43300E+03
 8.00000E+00    1.42140E+03
 8.50000E+00    1.43899E+03
 9.00000E+00    1.49283E+03
 9.50000E+00    1.57750E+03
 1.00000E+01    1.67582E+03
 1.10000E+01    1.89302E+03
 1.20000E+01    2.09089E+03
 1.30000E+01    2.20952E+03
 1.45000E+01    2.24543E+03
 1.60000E+01    2.20269E+03
 1.75000E+01    2.14700E+03
 2.00000E+01    2.05690E+03
 2.00000E+01    2.17664E+03
 2.20000E+01    2.13071E+03
 2.40000E+01    2.13755E+03
 2.60000E+01    2.17452E+03
 2.80000E+01    2.19080E+03
 3.00000E+01    2.19484E+03
 3.50000E+01    2.15979E+03
 4.00000E+01    2.12657E+03
 4.50000E+01    2.12949E+03
 5.00000E+01    2.12794E+03
 5.50000E+01    2.12554E+03
 6.00000E+01    2.13427E+03
 6.50000E+01    2.13872E+03
 7.00000E+01    2.13167E+03
 7.50000E+01    2.13527E+03
 8.00000E+01    2.13931E+03
 8.50000E+01    2.14602E+03
 9.00000E+01    2.15553E+03
 9.50000E+01    2.16533E+03
 1.00000E+02    2.17374E+03
 1.10000E+02    2.20457E+03
 1.20000E+02    2.24057E+03
 1.30000E+02    2.28258E+03
 1.40000E+02    2.31343E+03
 1.50000E+02    2.34051E+03
