# n + Sm152 : (n,n'09)  
# jeff3.3    A.J. Koning and D. Rochman        EVAL-DEC15
# uncertainties: n
# # energies =    86
#   E(MeV)       xs(mb) 
 1.09004E+00    0.00000E+00
 1.09309E+00    1.77764E+00
 1.13282E+00    2.49329E+01
 1.20000E+00    6.40866E+01
 1.22959E+00    6.58998E+01
 1.23414E+00    6.61787E+01
 1.24205E+00    6.66634E+01
 1.29850E+00    7.01226E+01
 1.30134E+00    7.02966E+01
 1.31920E+00    7.13911E+01
 1.38085E+00    7.51689E+01
 1.40000E+00    7.63424E+01
 1.51561E+00    7.25179E+01
 1.52082E+00    7.23456E+01
 1.53995E+00    7.17127E+01
 1.56994E+00    7.07206E+01
 1.58992E+00    7.00597E+01
 1.60000E+00    6.97262E+01
 1.61991E+00    6.86844E+01
 1.62349E+00    6.84971E+01
 1.66084E+00    6.65427E+01
 1.66981E+00    6.60733E+01
 1.67745E+00    6.56736E+01
 1.69173E+00    6.49264E+01
 1.69326E+00    6.48463E+01
 1.80000E+00    5.92611E+01
 2.00000E+00    5.23570E+01
 2.20000E+00    4.63525E+01
 2.40000E+00    3.98324E+01
 2.60000E+00    3.28610E+01
 2.80000E+00    2.58716E+01
 3.00000E+00    1.94045E+01
 3.20000E+00    1.40099E+01
 3.40000E+00    9.71353E+00
 3.60000E+00    6.57606E+00
 3.80000E+00    4.38952E+00
 4.00000E+00    2.92893E+00
 4.20000E+00    1.96862E+00
 4.40000E+00    1.31306E+00
 4.60000E+00    8.81200E-01
 4.80000E+00    5.94629E-01
 5.00000E+00    4.03471E-01
 5.20000E+00    2.75235E-01
 5.40000E+00    1.88729E-01
 5.60000E+00    1.30125E-01
 5.80000E+00    9.03482E-02
 6.00000E+00    6.27004E-02
 6.20000E+00    4.39286E-02
 6.40000E+00    3.08822E-02
 6.60000E+00    2.18655E-02
 6.80000E+00    1.55752E-02
 7.00000E+00    1.11490E-02
 7.20000E+00    8.05427E-03
 7.40000E+00    5.84246E-03
 7.60000E+00    4.26898E-03
 7.80000E+00    3.13649E-03
 8.00000E+00    2.31274E-03
 8.50000E+00    1.10494E-03
 9.00000E+00    5.39242E-04
 9.50000E+00    2.67329E-04
 1.00000E+01    1.34412E-04
 1.05000E+01    6.85547E-05
 1.10000E+01    3.54821E-05
 1.15000E+01    1.86260E-05
 1.20000E+01    9.91858E-06
 1.25000E+01    5.35352E-06
 1.30000E+01    2.92827E-06
 1.35000E+01    1.62202E-06
 1.40000E+01    9.10000E-07
 1.45000E+01    5.16230E-07
 1.50000E+01    2.96190E-07
 1.60000E+01    1.00460E-07
 1.70000E+01    3.53200E-08
 1.80000E+01    1.28050E-08
 1.90000E+01    4.71720E-09
 2.00000E+01    1.79870E-09
 2.10000E+01    7.01970E-10
 2.20000E+01    2.80120E-10
 2.30000E+01    1.14580E-10
 2.40000E+01    4.82450E-11
 2.50000E+01    2.06410E-11
 2.60000E+01    8.99560E-12
 2.70000E+01    3.98340E-12
 2.80000E+01    1.78910E-12
 2.90000E+01    8.15700E-13
 3.00000E+01    3.76360E-13
