# n + Sm152 : (n,n'21)  
# jeff3.3    A.J. Koning and D. Rochman        EVAL-DEC15
# uncertainties: n
# # energies =    72
#   E(MeV)       xs(mb) 
 1.53995E+00    0.00000E+00
 1.56994E+00    1.72972E+01
 1.58992E+00    2.88210E+01
 1.60000E+00    3.46348E+01
 1.61991E+00    3.91192E+01
 1.62349E+00    3.99255E+01
 1.66084E+00    4.83380E+01
 1.66981E+00    5.03583E+01
 1.67745E+00    5.20791E+01
 1.69173E+00    5.52954E+01
 1.69326E+00    5.56400E+01
 1.80000E+00    7.96813E+01
 2.00000E+00    8.67020E+01
 2.20000E+00    8.48818E+01
 2.40000E+00    7.88229E+01
 2.60000E+00    6.94330E+01
 2.80000E+00    5.77791E+01
 3.00000E+00    4.54296E+01
 3.20000E+00    3.42855E+01
 3.40000E+00    2.46356E+01
 3.60000E+00    1.72023E+01
 3.80000E+00    1.17950E+01
 4.00000E+00    8.01728E+00
 4.20000E+00    5.43477E+00
 4.40000E+00    3.69351E+00
 4.60000E+00    2.53893E+00
 4.80000E+00    1.74113E+00
 5.00000E+00    1.20162E+00
 5.20000E+00    8.34189E-01
 5.40000E+00    5.82401E-01
 5.60000E+00    4.08957E-01
 5.80000E+00    2.89143E-01
 6.00000E+00    2.04283E-01
 6.20000E+00    1.45637E-01
 6.40000E+00    1.04063E-01
 6.60000E+00    7.48112E-02
 6.80000E+00    5.40481E-02
 7.00000E+00    3.91817E-02
 7.20000E+00    2.86351E-02
 7.40000E+00    2.09877E-02
 7.60000E+00    1.54761E-02
 7.80000E+00    1.14656E-02
 8.00000E+00    8.51714E-03
 8.50000E+00    4.13383E-03
 9.00000E+00    2.04427E-03
 9.50000E+00    1.02560E-03
 1.00000E+01    5.21473E-04
 1.05000E+01    2.68814E-04
 1.10000E+01    1.40531E-04
 1.15000E+01    7.44588E-05
 1.20000E+01    3.99892E-05
 1.25000E+01    2.17511E-05
 1.30000E+01    1.19800E-05
 1.35000E+01    6.67686E-06
 1.40000E+01    3.76639E-06
 1.45000E+01    2.14706E-06
 1.50000E+01    1.23733E-06
 1.60000E+01    4.23010E-07
 1.70000E+01    1.49740E-07
 1.80000E+01    5.45880E-08
 1.90000E+01    2.01960E-08
 2.00000E+01    7.72820E-09
 2.10000E+01    3.02630E-09
 2.20000E+01    1.21170E-09
 2.30000E+01    4.97290E-10
 2.40000E+01    2.10000E-10
 2.50000E+01    9.00470E-11
 2.60000E+01    3.93030E-11
 2.70000E+01    1.74220E-11
 2.80000E+01    7.83150E-12
 2.90000E+01    3.57450E-12
 3.00000E+01    1.65180E-12
