# n + Sm152 : (n,n'06)  
# jeff3.3    A.J. Koning and D. Rochman        EVAL-DEC15
# uncertainties: n
# # energies =    90
#   E(MeV)       xs(mb) 
 9.69750E-01    0.00000E+00
 1.00000E+00    9.85948E+01
 1.02976E+00    1.19583E+02
 1.04803E+00    1.32467E+02
 1.09004E+00    1.62095E+02
 1.09309E+00    1.64246E+02
 1.13282E+00    1.92265E+02
 1.20000E+00    2.39643E+02
 1.22959E+00    2.36425E+02
 1.23414E+00    2.35930E+02
 1.24205E+00    2.35070E+02
 1.29850E+00    2.28931E+02
 1.30134E+00    2.28622E+02
 1.31920E+00    2.26680E+02
 1.38085E+00    2.19976E+02
 1.40000E+00    2.17893E+02
 1.51561E+00    2.00245E+02
 1.52082E+00    1.99450E+02
 1.53995E+00    1.96530E+02
 1.56994E+00    1.91952E+02
 1.58992E+00    1.88902E+02
 1.60000E+00    1.87363E+02
 1.61991E+00    1.83850E+02
 1.62349E+00    1.83219E+02
 1.66084E+00    1.76629E+02
 1.66981E+00    1.75047E+02
 1.67745E+00    1.73699E+02
 1.69173E+00    1.71180E+02
 1.69326E+00    1.70910E+02
 1.80000E+00    1.52078E+02
 2.00000E+00    1.28866E+02
 2.20000E+00    1.09991E+02
 2.40000E+00    9.18749E+01
 2.60000E+00    7.44105E+01
 2.80000E+00    5.80916E+01
 3.00000E+00    4.35886E+01
 3.20000E+00    3.17316E+01
 3.40000E+00    2.22995E+01
 3.60000E+00    1.53790E+01
 3.80000E+00    1.05193E+01
 4.00000E+00    7.25715E+00
 4.20000E+00    5.03080E+00
 4.40000E+00    3.54978E+00
 4.60000E+00    2.56643E+00
 4.80000E+00    1.91372E+00
 5.00000E+00    1.47977E+00
 5.20000E+00    1.19096E+00
 5.40000E+00    9.98874E-01
 5.60000E+00    8.71787E-01
 5.80000E+00    7.88752E-01
 6.00000E+00    7.34167E-01
 6.20000E+00    7.00553E-01
 6.40000E+00    6.80323E-01
 6.60000E+00    6.69469E-01
 6.80000E+00    6.64781E-01
 7.00000E+00    6.64113E-01
 7.20000E+00    6.66117E-01
 7.40000E+00    6.69630E-01
 7.60000E+00    6.74010E-01
 7.80000E+00    6.78732E-01
 8.00000E+00    6.83441E-01
 8.50000E+00    6.93834E-01
 9.00000E+00    7.00937E-01
 9.50000E+00    7.04414E-01
 1.00000E+01    7.04699E-01
 1.05000E+01    7.02520E-01
 1.10000E+01    6.98673E-01
 1.15000E+01    6.93916E-01
 1.20000E+01    6.88966E-01
 1.25000E+01    6.84448E-01
 1.30000E+01    6.80864E-01
 1.35000E+01    6.78537E-01
 1.40000E+01    6.77591E-01
 1.45000E+01    6.77986E-01
 1.50000E+01    6.79548E-01
 1.60000E+01    6.85174E-01
 1.70000E+01    6.92201E-01
 1.80000E+01    6.98634E-01
 1.90000E+01    7.03770E-01
 2.00000E+01    7.08368E-01
 2.10000E+01    7.13913E-01
 2.20000E+01    7.21766E-01
 2.30000E+01    7.32610E-01
 2.40000E+01    7.46185E-01
 2.50000E+01    7.61353E-01
 2.60000E+01    7.76537E-01
 2.70000E+01    7.90336E-01
 2.80000E+01    8.02010E-01
 2.90000E+01    8.11503E-01
 3.00000E+01    8.19175E-01
