# n + Sm152 : (n,xa)    
# jeff3.3    A.J. Koning and D. Rochman        EVAL-DEC15
# 
# # energies =   133
#   E(MeV)        xs(mb) 
 1.22591E-01    1.18415E-08
 2.00000E-01    9.65350E-09
 3.00000E-01    1.29700E-08
 3.68912E-01    1.77835E-08
 4.00000E-01    1.99550E-08
 5.00000E-01    3.33240E-08
 6.00000E-01    5.42510E-08
 6.89247E-01    7.99239E-08
 7.00000E-01    8.30220E-08
 7.11573E-01    8.81509E-08
 8.00000E-01    1.27340E-07
 8.15834E-01    1.35209E-07
 9.00000E-01    1.77040E-07
 9.69750E-01    2.40185E-07
 1.00000E+00    2.67570E-07
 1.02976E+00    3.01383E-07
 1.04803E+00    3.22142E-07
 1.09004E+00    3.69873E-07
 1.09309E+00    3.73339E-07
 1.13282E+00    4.18480E-07
 1.20000E+00    4.94810E-07
 1.22959E+00    5.50531E-07
 1.23414E+00    5.59099E-07
 1.24205E+00    5.73994E-07
 1.29850E+00    6.80295E-07
 1.30134E+00    6.85643E-07
 1.31920E+00    7.19276E-07
 1.38085E+00    8.35369E-07
 1.40000E+00    8.71430E-07
 1.51561E+00    1.38574E-06
 1.52082E+00    1.40892E-06
 1.53995E+00    1.49403E-06
 1.56994E+00    1.62744E-06
 1.58992E+00    1.71633E-06
 1.60000E+00    1.76117E-06
 1.61991E+00    1.90936E-06
 1.62349E+00    1.93601E-06
 1.66084E+00    2.21401E-06
 1.66981E+00    2.28077E-06
 1.67745E+00    2.33763E-06
 1.69173E+00    2.44392E-06
 1.69326E+00    2.45531E-06
 1.80000E+00    3.24978E-06
 2.00000E+00    6.31586E-06
 2.20000E+00    1.22011E-05
 2.40000E+00    2.23724E-05
 2.60000E+00    4.02057E-05
 2.80000E+00    6.71108E-05
 3.00000E+00    1.05630E-04
 3.20000E+00    1.60536E-04
 3.40000E+00    2.24810E-04
 3.60000E+00    3.06072E-04
 3.80000E+00    4.01409E-04
 4.00000E+00    5.13230E-04
 4.20000E+00    6.47643E-04
 4.40000E+00    8.02154E-04
 4.60000E+00    9.89563E-04
 4.80000E+00    1.21194E-03
 5.00000E+00    1.46943E-03
 5.20000E+00    1.77997E-03
 5.40000E+00    2.14331E-03
 5.60000E+00    2.58297E-03
 5.80000E+00    3.11363E-03
 6.00000E+00    3.69798E-03
 6.20000E+00    4.42369E-03
 6.40000E+00    5.29425E-03
 6.60000E+00    6.32827E-03
 6.80000E+00    7.59352E-03
 7.00000E+00    8.99346E-03
 7.20000E+00    1.07590E-02
 7.40000E+00    1.30225E-02
 7.60000E+00    1.56790E-02
 7.80000E+00    1.90628E-02
 8.00000E+00    2.26744E-02
 8.50000E+00    3.64552E-02
 9.00000E+00    5.65563E-02
 9.50000E+00    8.86965E-02
 1.00000E+01    1.40028E-01
 1.05000E+01    2.18618E-01
 1.10000E+01    3.34024E-01
 1.15000E+01    4.95277E-01
 1.20000E+01    7.10625E-01
 1.25000E+01    9.89837E-01
 1.30000E+01    1.32599E+00
 1.35000E+01    1.74141E+00
 1.40000E+01    2.23127E+00
 1.45000E+01    2.80135E+00
 1.50000E+01    3.43476E+00
 1.60000E+01    4.99944E+00
 1.70000E+01    6.99882E+00
 1.80000E+01    9.64271E+00
 1.90000E+01    1.33574E+01
 2.00000E+01    1.86091E+01
 2.10000E+01    2.38183E+01
 2.20000E+01    2.71281E+01
 2.30000E+01    2.91598E+01
 2.40000E+01    2.59656E+01
 2.50000E+01    2.57653E+01
 2.60000E+01    2.59609E+01
 2.70000E+01    2.63957E+01
 2.80000E+01    2.69559E+01
 2.90000E+01    2.75880E+01
 3.00000E+01    2.82551E+01
 3.00000E+01    2.81463E+01
 3.20000E+01    2.94826E+01
 3.40000E+01    3.06579E+01
 3.60000E+01    3.18679E+01
 3.80000E+01    3.30254E+01
 4.00000E+01    3.40561E+01
 4.20000E+01    3.50315E+01
 4.40000E+01    3.59122E+01
 4.60000E+01    3.66791E+01
 4.80000E+01    3.73048E+01
 5.00000E+01    3.79196E+01
 5.20000E+01    3.84844E+01
 5.40000E+01    3.89785E+01
 5.60000E+01    3.94046E+01
 5.80000E+01    3.96981E+01
 6.00000E+01    3.99228E+01
 6.50000E+01    4.03529E+01
 7.00000E+01    4.19032E+01
 7.50000E+01    4.39944E+01
 8.00000E+01    4.65404E+01
 9.00000E+01    5.20728E+01
 1.00000E+02    5.94045E+01
 1.10000E+02    6.58874E+01
 1.20000E+02    7.29099E+01
 1.30000E+02    8.00053E+01
 1.40000E+02    8.91547E+01
 1.50000E+02    1.01179E+02
 1.60000E+02    1.17610E+02
 1.80000E+02    1.87649E+02
 2.00000E+02    3.26485E+02
