# n + Sm152 : (n,n'22)  
# jeff3.3    A.J. Koning and D. Rochman        EVAL-DEC15
# uncertainties: n
# # energies =    71
#   E(MeV)       xs(mb) 
 1.56994E+00    0.00000E+00
 1.58992E+00    2.08886E+00
 1.60000E+00    3.14269E+00
 1.61991E+00    4.03717E+00
 1.62349E+00    4.19800E+00
 1.66084E+00    5.87599E+00
 1.66981E+00    6.27898E+00
 1.67745E+00    6.62221E+00
 1.69173E+00    7.26376E+00
 1.69326E+00    7.33249E+00
 1.80000E+00    1.21279E+01
 2.00000E+00    1.83313E+01
 2.20000E+00    2.37429E+01
 2.40000E+00    2.76664E+01
 2.60000E+00    2.91084E+01
 2.80000E+00    2.77430E+01
 3.00000E+00    2.41900E+01
 3.20000E+00    2.03671E+01
 3.40000E+00    1.56576E+01
 3.60000E+00    1.15870E+01
 3.80000E+00    8.36586E+00
 4.00000E+00    5.96043E+00
 4.20000E+00    4.21744E+00
 4.40000E+00    2.97891E+00
 4.60000E+00    2.14834E+00
 4.80000E+00    1.52173E+00
 5.00000E+00    1.08034E+00
 5.20000E+00    7.68802E-01
 5.40000E+00    5.48524E-01
 5.60000E+00    3.92647E-01
 5.80000E+00    2.82475E-01
 6.00000E+00    2.02775E-01
 6.20000E+00    1.46747E-01
 6.40000E+00    1.06387E-01
 6.60000E+00    7.75475E-02
 6.80000E+00    5.68090E-02
 7.00000E+00    4.17494E-02
 7.20000E+00    3.09216E-02
 7.40000E+00    2.29657E-02
 7.60000E+00    1.71557E-02
 7.80000E+00    1.28716E-02
 8.00000E+00    9.68032E-03
 8.50000E+00    4.83699E-03
 9.00000E+00    2.45645E-03
 9.50000E+00    1.26270E-03
 1.00000E+01    6.56503E-04
 1.05000E+01    3.45477E-04
 1.10000E+01    1.84131E-04
 1.15000E+01    9.93556E-05
 1.20000E+01    5.42917E-05
 1.25000E+01    3.00199E-05
 1.30000E+01    1.67938E-05
 1.35000E+01    9.49847E-06
 1.40000E+01    5.43263E-06
 1.45000E+01    3.13720E-06
 1.50000E+01    1.82980E-06
 1.60000E+01    6.39090E-07
 1.70000E+01    2.30380E-07
 1.80000E+01    8.53050E-08
 1.90000E+01    3.19860E-08
 2.00000E+01    1.23820E-08
 2.10000E+01    4.89720E-09
 2.20000E+01    1.97820E-09
 2.30000E+01    8.18420E-10
 2.40000E+01    3.48250E-10
 2.50000E+01    1.50410E-10
 2.60000E+01    6.61000E-11
 2.70000E+01    2.94860E-11
 2.80000E+01    1.33310E-11
 2.90000E+01    6.11610E-12
 3.00000E+01    2.83950E-12
