# n + Sm152 : (n,n'15)  
# jeff3.3    A.J. Koning and D. Rochman        EVAL-DEC15
# uncertainties: n
# # energies =    79
#   E(MeV)       xs(mb) 
 1.29850E+00    0.00000E+00
 1.30134E+00    2.17026E+00
 1.31920E+00    1.58183E+01
 1.38085E+00    6.29289E+01
 1.40000E+00    7.75626E+01
 1.51561E+00    9.52124E+01
 1.52082E+00    9.60078E+01
 1.53995E+00    9.89283E+01
 1.56994E+00    1.03507E+02
 1.58992E+00    1.06557E+02
 1.60000E+00    1.08096E+02
 1.61991E+00    1.07604E+02
 1.62349E+00    1.07516E+02
 1.66084E+00    1.06593E+02
 1.66981E+00    1.06371E+02
 1.67745E+00    1.06182E+02
 1.69173E+00    1.05829E+02
 1.69326E+00    1.05792E+02
 1.80000E+00    1.03154E+02
 2.00000E+00    9.75918E+01
 2.20000E+00    9.13897E+01
 2.40000E+00    8.24150E+01
 2.60000E+00    7.07734E+01
 2.80000E+00    5.75744E+01
 3.00000E+00    4.43505E+01
 3.20000E+00    3.29201E+01
 3.40000E+00    2.32402E+01
 3.60000E+00    1.59703E+01
 3.80000E+00    1.07937E+01
 4.00000E+00    7.24471E+00
 4.20000E+00    4.87865E+00
 4.40000E+00    3.32147E+00
 4.60000E+00    2.24135E+00
 4.80000E+00    1.52208E+00
 5.00000E+00    1.03881E+00
 5.20000E+00    7.12457E-01
 5.40000E+00    4.90932E-01
 5.60000E+00    3.39977E-01
 5.80000E+00    2.36952E-01
 6.00000E+00    1.65021E-01
 6.20000E+00    1.15962E-01
 6.40000E+00    8.17005E-02
 6.60000E+00    5.79724E-02
 6.80000E+00    4.13450E-02
 7.00000E+00    2.96259E-02
 7.20000E+00    2.14182E-02
 7.40000E+00    1.55400E-02
 7.60000E+00    1.13569E-02
 7.80000E+00    8.34403E-03
 8.00000E+00    6.15222E-03
 8.50000E+00    2.93974E-03
 9.00000E+00    1.43629E-03
 9.50000E+00    7.13797E-04
 1.00000E+01    3.60225E-04
 1.05000E+01    1.84575E-04
 1.10000E+01    9.60165E-05
 1.15000E+01    5.06614E-05
 1.20000E+01    2.71090E-05
 1.25000E+01    1.46962E-05
 1.30000E+01    8.06913E-06
 1.35000E+01    4.48394E-06
 1.40000E+01    2.52220E-06
 1.45000E+01    1.43382E-06
 1.50000E+01    8.24020E-07
 1.60000E+01    2.80140E-07
 1.70000E+01    9.86250E-08
 1.80000E+01    3.57820E-08
 1.90000E+01    1.31880E-08
 2.00000E+01    5.03130E-09
 2.10000E+01    1.96540E-09
 2.20000E+01    7.85230E-10
 2.30000E+01    3.21540E-10
 2.40000E+01    1.35480E-10
 2.50000E+01    5.79600E-11
 2.60000E+01    2.52450E-11
 2.70000E+01    1.11690E-11
 2.80000E+01    5.01260E-12
 2.90000E+01    2.28470E-12
 3.00000E+01    1.05440E-12
