# n + Sm152 : (n,n'14)  
# jeff3.3    A.J. Koning and D. Rochman        EVAL-DEC15
# uncertainties: n
# # energies =    80
#   E(MeV)       xs(mb) 
 1.24205E+00    0.00000E+00
 1.29850E+00    3.02548E+01
 1.30134E+00    3.17769E+01
 1.31920E+00    4.13492E+01
 1.38085E+00    7.43909E+01
 1.40000E+00    8.46545E+01
 1.51561E+00    9.77846E+01
 1.52082E+00    9.83763E+01
 1.53995E+00    1.00549E+02
 1.56994E+00    1.03955E+02
 1.58992E+00    1.06224E+02
 1.60000E+00    1.07369E+02
 1.61991E+00    1.07525E+02
 1.62349E+00    1.07553E+02
 1.66084E+00    1.07845E+02
 1.66981E+00    1.07916E+02
 1.67745E+00    1.07975E+02
 1.69173E+00    1.08087E+02
 1.69326E+00    1.08099E+02
 1.80000E+00    1.08935E+02
 2.00000E+00    1.08958E+02
 2.20000E+00    1.06449E+02
 2.40000E+00    9.94322E+01
 2.60000E+00    8.80881E+01
 2.80000E+00    7.36962E+01
 3.00000E+00    5.82360E+01
 3.20000E+00    4.48259E+01
 3.40000E+00    3.23872E+01
 3.60000E+00    2.27390E+01
 3.80000E+00    1.56715E+01
 4.00000E+00    1.07027E+01
 4.20000E+00    7.35641E+00
 4.40000E+00    5.05463E+00
 4.60000E+00    3.44813E+00
 4.80000E+00    2.36322E+00
 5.00000E+00    1.62598E+00
 5.20000E+00    1.12347E+00
 5.40000E+00    7.79664E-01
 5.60000E+00    5.43764E-01
 5.80000E+00    3.81702E-01
 6.00000E+00    2.67790E-01
 6.20000E+00    1.89577E-01
 6.40000E+00    1.34597E-01
 6.60000E+00    9.62302E-02
 6.80000E+00    6.91472E-02
 7.00000E+00    4.99191E-02
 7.20000E+00    3.63454E-02
 7.40000E+00    2.65511E-02
 7.60000E+00    1.95283E-02
 7.80000E+00    1.44329E-02
 8.00000E+00    1.07005E-02
 8.50000E+00    5.17413E-03
 9.00000E+00    2.55250E-03
 9.50000E+00    1.27893E-03
 1.00000E+01    6.50163E-04
 1.05000E+01    3.35442E-04
 1.10000E+01    1.75673E-04
 1.15000E+01    9.33071E-05
 1.20000E+01    5.02558E-05
 1.25000E+01    2.74190E-05
 1.30000E+01    1.51482E-05
 1.35000E+01    8.46778E-06
 1.40000E+01    4.78996E-06
 1.45000E+01    2.73746E-06
 1.50000E+01    1.58106E-06
 1.60000E+01    5.42390E-07
 1.70000E+01    1.92460E-07
 1.80000E+01    7.02940E-08
 1.90000E+01    2.60510E-08
 2.00000E+01    9.98460E-09
 2.10000E+01    3.91560E-09
 2.20000E+01    1.56990E-09
 2.30000E+01    6.45160E-10
 2.40000E+01    2.72820E-10
 2.50000E+01    1.17150E-10
 2.60000E+01    5.12070E-11
 2.70000E+01    2.27280E-11
 2.80000E+01    1.02290E-11
 2.90000E+01    4.67320E-12
 3.00000E+01    2.16140E-12
