# n + Xe131 : (n,n'07)  
# jeff3.3    A.J. Koning and D. Rochman        EVAL-DEC15
# uncertainties: n
# # energies =    92
#   E(MeV)       xs(mb) 
 6.41898E-01    0.00000E+00
 6.72073E-01    3.13617E+01
 7.00000E-01    6.03870E+01
 7.05293E-01    6.27404E+01
 7.28479E-01    7.30494E+01
 8.00000E-01    1.04849E+02
 8.12140E-01    1.07591E+02
 9.00000E-01    1.27440E+02
 9.20881E-01    1.30096E+02
 9.59628E-01    1.35023E+02
 9.78704E-01    1.37450E+02
 9.80608E-01    1.37692E+02
 1.00000E+00    1.40158E+02
 1.00208E+00    1.40320E+02
 1.04229E+00    1.43454E+02
 1.05361E+00    1.44336E+02
 1.12186E+00    1.49656E+02
 1.16546E+00    1.53054E+02
 1.20000E+00    1.55746E+02
 1.20033E+00    1.55776E+02
 1.25459E+00    1.60701E+02
 1.33042E+00    1.67584E+02
 1.40000E+00    1.73900E+02
 1.40811E+00    1.74546E+02
 1.46751E+00    1.79281E+02
 1.59639E+00    1.89553E+02
 1.60000E+00    1.89841E+02
 1.61293E+00    1.90001E+02
 1.62875E+00    1.90197E+02
 1.63351E+00    1.90256E+02
 1.65407E+00    1.90511E+02
 1.80000E+00    1.92318E+02
 2.00000E+00    1.79425E+02
 2.20000E+00    1.64802E+02
 2.40000E+00    1.52050E+02
 2.60000E+00    1.41825E+02
 2.80000E+00    1.33976E+02
 3.00000E+00    1.28092E+02
 3.20000E+00    1.23715E+02
 3.40000E+00    1.20399E+02
 3.60000E+00    1.17757E+02
 3.80000E+00    1.15459E+02
 4.00000E+00    1.13250E+02
 4.20000E+00    1.10957E+02
 4.40000E+00    1.08480E+02
 4.60000E+00    1.05784E+02
 4.80000E+00    1.02865E+02
 5.00000E+00    9.97546E+01
 5.20000E+00    9.64959E+01
 5.40000E+00    9.31460E+01
 5.60000E+00    8.97667E+01
 5.80000E+00    8.64175E+01
 6.00000E+00    8.31538E+01
 6.20000E+00    8.00220E+01
 6.40000E+00    7.70578E+01
 6.60000E+00    7.42866E+01
 6.80000E+00    7.17231E+01
 7.00000E+00    6.93715E+01
 7.20000E+00    6.72294E+01
 7.40000E+00    6.52875E+01
 7.60000E+00    6.35325E+01
 7.80000E+00    6.19468E+01
 8.00000E+00    6.05117E+01
 8.50000E+00    5.74521E+01
 9.00000E+00    5.49161E+01
 9.50000E+00    5.26749E+01
 1.00000E+01    5.05850E+01
 1.05000E+01    4.85778E+01
 1.10000E+01    4.66371E+01
 1.15000E+01    4.47762E+01
 1.20000E+01    4.30171E+01
 1.25000E+01    4.13836E+01
 1.30000E+01    3.98917E+01
 1.35000E+01    3.85469E+01
 1.40000E+01    3.73437E+01
 1.45000E+01    3.62676E+01
 1.50000E+01    3.52967E+01
 1.60000E+01    3.35768E+01
 1.70000E+01    3.20271E+01
 1.80000E+01    3.05678E+01
 1.90000E+01    2.91700E+01
 2.00000E+01    2.78138E+01
 2.10000E+01    2.64939E+01
 2.20000E+01    2.52374E+01
 2.30000E+01    2.40875E+01
 2.40000E+01    2.30775E+01
 2.50000E+01    2.22181E+01
 2.60000E+01    2.14988E+01
 2.70000E+01    2.08918E+01
 2.80000E+01    2.03586E+01
 2.90000E+01    1.98596E+01
 3.00000E+01    1.93649E+01
