# n + Xe131 : (n,xa)    
# jeff3.3    A.J. Koning and D. Rochman        EVAL-DEC15
# 
# # energies =   134
#   E(MeV)        xs(mb) 
 8.08029E-02    2.82852E-05
 1.00000E-01    2.46660E-05
 1.65193E-01    2.08246E-05
 2.00000E-01    1.87737E-05
 3.00000E-01    1.93471E-05
 3.43773E-01    2.06977E-05
 3.67299E-01    2.14235E-05
 4.00000E-01    2.24325E-05
 4.07934E-01    2.23519E-05
 5.00000E-01    2.14168E-05
 5.69545E-01    2.30446E-05
 6.00000E-01    2.37575E-05
 6.41898E-01    2.41809E-05
 6.72073E-01    2.44858E-05
 7.00000E-01    2.47678E-05
 7.05293E-01    2.47831E-05
 7.28479E-01    2.48504E-05
 8.00000E-01    2.50578E-05
 8.12140E-01    2.59472E-05
 9.00000E-01    3.23844E-05
 9.20881E-01    3.34834E-05
 9.59628E-01    3.55228E-05
 9.78704E-01    3.65268E-05
 9.80608E-01    3.66270E-05
 1.00000E+00    3.76477E-05
 1.00208E+00    3.77699E-05
 1.04229E+00    4.01324E-05
 1.05361E+00    4.07975E-05
 1.12186E+00    4.48074E-05
 1.16546E+00    4.73690E-05
 1.20000E+00    4.93984E-05
 1.20033E+00    4.94404E-05
 1.25459E+00    5.63499E-05
 1.33042E+00    6.60062E-05
 1.40000E+00    7.48666E-05
 1.40811E+00    7.64528E-05
 1.46751E+00    8.80703E-05
 1.59639E+00    1.13277E-04
 1.60000E+00    1.13983E-04
 1.61293E+00    1.16324E-04
 1.62875E+00    1.19188E-04
 1.63351E+00    1.20049E-04
 1.65407E+00    1.23772E-04
 1.80000E+00    1.50190E-04
 2.00000E+00    1.90359E-04
 2.20000E+00    2.18745E-04
 2.40000E+00    2.49044E-04
 2.60000E+00    2.82776E-04
 2.80000E+00    3.11090E-04
 3.00000E+00    3.60201E-04
 3.20000E+00    4.13603E-04
 3.40000E+00    4.72385E-04
 3.60000E+00    5.40866E-04
 3.80000E+00    6.11554E-04
 4.00000E+00    7.01792E-04
 4.20000E+00    8.32680E-04
 4.40000E+00    9.64885E-04
 4.60000E+00    1.10347E-03
 4.80000E+00    1.27741E-03
 5.00000E+00    1.43433E-03
 5.20000E+00    1.81338E-03
 5.40000E+00    2.17861E-03
 5.60000E+00    2.49428E-03
 5.80000E+00    3.01822E-03
 6.00000E+00    3.30192E-03
 6.20000E+00    4.60050E-03
 6.40000E+00    5.66986E-03
 6.60000E+00    6.47335E-03
 6.80000E+00    8.16946E-03
 7.00000E+00    8.69058E-03
 7.20000E+00    1.28004E-02
 7.40000E+00    1.58322E-02
 7.60000E+00    1.78097E-02
 7.80000E+00    2.28616E-02
 8.00000E+00    2.35237E-02
 8.50000E+00    3.84218E-02
 9.00000E+00    6.15091E-02
 9.50000E+00    9.61065E-02
 1.00000E+01    1.46216E-01
 1.05000E+01    2.16905E-01
 1.10000E+01    3.12472E-01
 1.15000E+01    4.38268E-01
 1.20000E+01    5.99310E-01
 1.25000E+01    8.00865E-01
 1.30000E+01    1.04847E+00
 1.35000E+01    1.33966E+00
 1.40000E+01    1.74933E+00
 1.45000E+01    2.19792E+00
 1.50000E+01    2.70596E+00
 1.60000E+01    4.18081E+00
 1.70000E+01    6.39495E+00
 1.80000E+01    8.65612E+00
 1.90000E+01    1.07456E+01
 2.00000E+01    1.19238E+01
 2.10000E+01    1.15523E+01
 2.20000E+01    1.21544E+01
 2.30000E+01    1.28490E+01
 2.40000E+01    1.35946E+01
 2.50000E+01    1.43588E+01
 2.60000E+01    1.51191E+01
 2.70000E+01    1.58594E+01
 2.80000E+01    1.65706E+01
 2.90000E+01    1.72527E+01
 3.00000E+01    1.80714E+01
 3.00000E+01    1.80715E+01
 3.20000E+01    1.92186E+01
 3.40000E+01    2.01940E+01
 3.60000E+01    2.11679E+01
 3.80000E+01    2.20927E+01
 4.00000E+01    2.29859E+01
 4.20000E+01    2.38930E+01
 4.40000E+01    2.48435E+01
 4.60000E+01    2.58484E+01
 4.80000E+01    2.69256E+01
 5.00000E+01    2.81083E+01
 5.20000E+01    2.94335E+01
 5.40000E+01    3.09223E+01
 5.60000E+01    3.25935E+01
 5.80000E+01    3.44953E+01
 6.00000E+01    3.66288E+01
 6.50000E+01    4.31337E+01
 7.00000E+01    5.16166E+01
 7.50000E+01    6.20272E+01
 8.00000E+01    7.37295E+01
 9.00000E+01    1.00726E+02
 1.00000E+02    1.27525E+02
 1.10000E+02    1.48956E+02
 1.20000E+02    1.62299E+02
 1.30000E+02    1.66693E+02
 1.40000E+02    1.66275E+02
 1.50000E+02    1.61211E+02
 1.60000E+02    1.52960E+02
 1.80000E+02    1.40335E+02
 2.00000E+02    1.74351E+02
