# n + Xe131 : (n,n'18)  
# jeff3.3    A.J. Koning and D. Rochman        EVAL-DEC15
# uncertainties: n
# # energies =    77
#   E(MeV)       xs(mb) 
 1.05361E+00    0.00000E+00
 1.12186E+00    3.65948E-01
 1.16546E+00    5.99725E-01
 1.20000E+00    7.84924E-01
 1.20033E+00    7.87006E-01
 1.25459E+00    1.12936E+00
 1.33042E+00    1.60782E+00
 1.40000E+00    2.04684E+00
 1.40811E+00    2.10799E+00
 1.46751E+00    2.55590E+00
 1.59639E+00    3.52773E+00
 1.60000E+00    3.55495E+00
 1.61293E+00    3.63814E+00
 1.62875E+00    3.73993E+00
 1.63351E+00    3.77055E+00
 1.65407E+00    3.90283E+00
 1.80000E+00    4.84173E+00
 2.00000E+00    5.37680E+00
 2.20000E+00    5.30072E+00
 2.40000E+00    4.85664E+00
 2.60000E+00    4.24510E+00
 2.80000E+00    3.59876E+00
 3.00000E+00    2.98998E+00
 3.20000E+00    2.45077E+00
 3.40000E+00    1.98889E+00
 3.60000E+00    1.60382E+00
 3.80000E+00    1.28842E+00
 4.00000E+00    1.03281E+00
 4.20000E+00    8.27208E-01
 4.40000E+00    6.62871E-01
 4.60000E+00    5.32293E-01
 4.80000E+00    4.29211E-01
 5.00000E+00    3.48314E-01
 5.20000E+00    2.85228E-01
 5.40000E+00    2.36317E-01
 5.60000E+00    1.98593E-01
 5.80000E+00    1.69818E-01
 6.00000E+00    1.47808E-01
 6.20000E+00    1.31296E-01
 6.40000E+00    1.18710E-01
 6.60000E+00    1.09637E-01
 6.80000E+00    1.03169E-01
 7.00000E+00    9.86430E-02
 7.20000E+00    9.56536E-02
 7.40000E+00    9.37911E-02
 7.60000E+00    9.28094E-02
 7.80000E+00    9.24644E-02
 8.00000E+00    9.25738E-02
 8.50000E+00    9.40203E-02
 9.00000E+00    9.60402E-02
 9.50000E+00    9.78593E-02
 1.00000E+01    9.91558E-02
 1.05000E+01    9.98727E-02
 1.10000E+01    1.00088E-01
 1.15000E+01    9.99301E-02
 1.20000E+01    9.95264E-02
 1.25000E+01    9.89833E-02
 1.30000E+01    9.83776E-02
 1.35000E+01    9.77582E-02
 1.40000E+01    9.71524E-02
 1.45000E+01    9.65718E-02
 1.50000E+01    9.60165E-02
 1.60000E+01    9.49601E-02
 1.70000E+01    9.39251E-02
 1.80000E+01    9.28397E-02
 1.90000E+01    9.16202E-02
 2.00000E+01    9.01924E-02
 2.10000E+01    8.85361E-02
 2.20000E+01    8.67054E-02
 2.30000E+01    8.47982E-02
 2.40000E+01    8.29126E-02
 2.50000E+01    8.11139E-02
 2.60000E+01    7.94264E-02
 2.70000E+01    7.78396E-02
 2.80000E+01    7.63231E-02
 2.90000E+01    7.48426E-02
 3.00000E+01    7.33709E-02
