# n + Xe131 : (n,n'06)  
# jeff3.3    A.J. Koning and D. Rochman        EVAL-DEC15
# uncertainties: n
# # energies =    94
#   E(MeV)       xs(mb) 
 5.69545E-01    0.00000E+00
 6.00000E-01    2.62501E+01
 6.41898E-01    4.08447E+01
 6.72073E-01    5.13557E+01
 7.00000E-01    6.10837E+01
 7.05293E-01    6.17766E+01
 7.28479E-01    6.48121E+01
 8.00000E-01    7.41753E+01
 8.12140E-01    7.51328E+01
 9.00000E-01    8.20627E+01
 9.20881E-01    8.27681E+01
 9.59628E-01    8.40770E+01
 9.78704E-01    8.47214E+01
 9.80608E-01    8.47857E+01
 1.00000E+00    8.54408E+01
 1.00208E+00    8.54763E+01
 1.04229E+00    8.61620E+01
 1.05361E+00    8.63551E+01
 1.12186E+00    8.75190E+01
 1.16546E+00    8.82626E+01
 1.20000E+00    8.88516E+01
 1.20033E+00    8.88586E+01
 1.25459E+00    9.00057E+01
 1.33042E+00    9.16089E+01
 1.40000E+00    9.30799E+01
 1.40811E+00    9.31776E+01
 1.46751E+00    9.38934E+01
 1.59639E+00    9.54463E+01
 1.60000E+00    9.54898E+01
 1.61293E+00    9.51455E+01
 1.62875E+00    9.47242E+01
 1.63351E+00    9.45974E+01
 1.65407E+00    9.40499E+01
 1.80000E+00    9.01636E+01
 2.00000E+00    7.64501E+01
 2.20000E+00    6.34897E+01
 2.40000E+00    5.33446E+01
 2.60000E+00    4.59283E+01
 2.80000E+00    4.06925E+01
 3.00000E+00    3.70611E+01
 3.20000E+00    3.45484E+01
 3.40000E+00    3.27765E+01
 3.60000E+00    3.14737E+01
 3.80000E+00    3.04455E+01
 4.00000E+00    2.95593E+01
 4.20000E+00    2.87320E+01
 4.40000E+00    2.79150E+01
 4.60000E+00    2.70836E+01
 4.80000E+00    2.62279E+01
 5.00000E+00    2.53485E+01
 5.20000E+00    2.44517E+01
 5.40000E+00    2.35484E+01
 5.60000E+00    2.26513E+01
 5.80000E+00    2.17731E+01
 6.00000E+00    2.09259E+01
 6.20000E+00    2.01197E+01
 6.40000E+00    1.93617E+01
 6.60000E+00    1.86572E+01
 6.80000E+00    1.80085E+01
 7.00000E+00    1.74157E+01
 7.20000E+00    1.68775E+01
 7.40000E+00    1.63907E+01
 7.60000E+00    1.59516E+01
 7.80000E+00    1.55552E+01
 8.00000E+00    1.51965E+01
 8.50000E+00    1.44310E+01
 9.00000E+00    1.37939E+01
 9.50000E+00    1.32281E+01
 1.00000E+01    1.26991E+01
 1.05000E+01    1.21906E+01
 1.10000E+01    1.16994E+01
 1.15000E+01    1.12292E+01
 1.20000E+01    1.07859E+01
 1.25000E+01    1.03749E+01
 1.30000E+01    1.00004E+01
 1.35000E+01    9.66323E+00
 1.40000E+01    9.36185E+00
 1.45000E+01    9.09232E+00
 1.50000E+01    8.84899E+00
 1.60000E+01    8.41713E+00
 1.70000E+01    8.02715E+00
 1.80000E+01    7.65968E+00
 1.90000E+01    7.30765E+00
 2.00000E+01    6.96606E+00
 2.10000E+01    6.63387E+00
 2.20000E+01    6.31823E+00
 2.30000E+01    6.03002E+00
 2.40000E+01    5.77735E+00
 2.50000E+01    5.56265E+00
 2.60000E+01    5.38299E+00
 2.70000E+01    5.23124E+00
 2.80000E+01    5.09763E+00
 2.90000E+01    4.97224E+00
 3.00000E+01    4.84776E+00
