# n + Xe131 : (n,n'05)  
# jeff3.3    A.J. Koning and D. Rochman        EVAL-DEC15
# uncertainties: n
# # energies =    96
#   E(MeV)       xs(mb) 
 4.07934E-01    0.00000E+00
 5.00000E-01    1.64024E+02
 5.69545E-01    1.95365E+02
 6.00000E-01    2.09090E+02
 6.41898E-01    2.14947E+02
 6.72073E-01    2.19166E+02
 7.00000E-01    2.23070E+02
 7.05293E-01    2.22230E+02
 7.28479E-01    2.18551E+02
 8.00000E-01    2.07201E+02
 8.12140E-01    2.06524E+02
 9.00000E-01    2.01626E+02
 9.20881E-01    1.99360E+02
 9.59628E-01    1.95155E+02
 9.78704E-01    1.93085E+02
 9.80608E-01    1.92878E+02
 1.00000E+00    1.90774E+02
 1.00208E+00    1.90575E+02
 1.04229E+00    1.86727E+02
 1.05361E+00    1.85644E+02
 1.12186E+00    1.79113E+02
 1.16546E+00    1.74941E+02
 1.20000E+00    1.71636E+02
 1.20033E+00    1.71622E+02
 1.25459E+00    1.69236E+02
 1.33042E+00    1.65903E+02
 1.40000E+00    1.62844E+02
 1.40811E+00    1.62460E+02
 1.46751E+00    1.59646E+02
 1.59639E+00    1.53540E+02
 1.60000E+00    1.53369E+02
 1.61293E+00    1.51971E+02
 1.62875E+00    1.50261E+02
 1.63351E+00    1.49746E+02
 1.65407E+00    1.47523E+02
 1.80000E+00    1.31747E+02
 2.00000E+00    9.78974E+01
 2.20000E+00    6.91577E+01
 2.40000E+00    4.80612E+01
 2.60000E+00    3.33554E+01
 2.80000E+00    2.33222E+01
 3.00000E+00    1.65115E+01
 3.20000E+00    1.18547E+01
 3.40000E+00    8.61658E+00
 3.60000E+00    6.32696E+00
 3.80000E+00    4.68069E+00
 4.00000E+00    3.47974E+00
 4.20000E+00    2.59457E+00
 4.40000E+00    1.93789E+00
 4.60000E+00    1.44862E+00
 4.80000E+00    1.08361E+00
 5.00000E+00    8.11095E-01
 5.20000E+00    6.07499E-01
 5.40000E+00    4.55439E-01
 5.60000E+00    3.42042E-01
 5.80000E+00    2.57500E-01
 6.00000E+00    1.94142E-01
 6.20000E+00    1.46987E-01
 6.40000E+00    1.11081E-01
 6.60000E+00    8.45151E-02
 6.80000E+00    6.45478E-02
 7.00000E+00    4.94392E-02
 7.20000E+00    3.80354E-02
 7.40000E+00    2.93190E-02
 7.60000E+00    2.26890E-02
 7.80000E+00    1.76039E-02
 8.00000E+00    1.36885E-02
 8.50000E+00    7.38687E-03
 9.00000E+00    4.04420E-03
 9.50000E+00    2.24237E-03
 1.00000E+01    1.25751E-03
 1.05000E+01    7.12764E-04
 1.10000E+01    4.08157E-04
 1.15000E+01    2.36051E-04
 1.20000E+01    1.37857E-04
 1.25000E+01    8.12820E-05
 1.30000E+01    4.83734E-05
 1.35000E+01    2.90493E-05
 1.40000E+01    1.75991E-05
 1.45000E+01    1.07522E-05
 1.50000E+01    6.62115E-06
 1.60000E+01    2.56476E-06
 1.70000E+01    1.01857E-06
 1.80000E+01    4.14170E-07
 1.90000E+01    1.72180E-07
 2.00000E+01    7.27180E-08
 2.10000E+01    3.13980E-08
 2.20000E+01    1.37580E-08
 2.30000E+01    6.11840E-09
 2.40000E+01    2.76180E-09
 2.50000E+01    1.26700E-09
 2.60000E+01    5.89870E-10
 2.70000E+01    2.78750E-10
 2.80000E+01    1.33590E-10
 2.90000E+01    6.48090E-11
 3.00000E+01    3.17840E-11
