# n + Xe131 : (n,n'13)  
# jeff3.3    A.J. Koning and D. Rochman        EVAL-DEC15
# uncertainties: n
# # energies =    83
#   E(MeV)       xs(mb) 
 9.59628E-01    0.00000E+00
 9.78704E-01    1.47156E+01
 9.80608E-01    1.61844E+01
 1.00000E+00    3.11437E+01
 1.00208E+00    3.14885E+01
 1.04229E+00    3.81552E+01
 1.05361E+00    4.00320E+01
 1.12186E+00    5.13476E+01
 1.16546E+00    5.85763E+01
 1.20000E+00    6.43029E+01
 1.20033E+00    6.43229E+01
 1.25459E+00    6.76028E+01
 1.33042E+00    7.21867E+01
 1.40000E+00    7.63927E+01
 1.40811E+00    7.67004E+01
 1.46751E+00    7.89542E+01
 1.59639E+00    8.38441E+01
 1.60000E+00    8.39811E+01
 1.61293E+00    8.38681E+01
 1.62875E+00    8.37298E+01
 1.63351E+00    8.36882E+01
 1.65407E+00    8.35084E+01
 1.80000E+00    8.22328E+01
 2.00000E+00    6.83988E+01
 2.20000E+00    5.32703E+01
 2.40000E+00    4.01616E+01
 2.60000E+00    2.97648E+01
 2.80000E+00    2.19192E+01
 3.00000E+00    1.61675E+01
 3.20000E+00    1.20055E+01
 3.40000E+00    8.99459E+00
 3.60000E+00    6.80864E+00
 3.80000E+00    5.20739E+00
 4.00000E+00    4.02030E+00
 4.20000E+00    3.13023E+00
 4.40000E+00    2.45684E+00
 4.60000E+00    1.94397E+00
 4.80000E+00    1.55179E+00
 5.00000E+00    1.25094E+00
 5.20000E+00    1.01955E+00
 5.40000E+00    8.41291E-01
 5.60000E+00    7.03528E-01
 5.80000E+00    5.96750E-01
 6.00000E+00    5.13255E-01
 6.20000E+00    4.48060E-01
 6.40000E+00    3.95937E-01
 6.60000E+00    3.55038E-01
 6.80000E+00    3.22413E-01
 7.00000E+00    2.96099E-01
 7.20000E+00    2.74839E-01
 7.40000E+00    2.57424E-01
 7.60000E+00    2.43132E-01
 7.80000E+00    2.31290E-01
 8.00000E+00    2.21395E-01
 8.50000E+00    2.02862E-01
 9.00000E+00    1.90015E-01
 9.50000E+00    1.80340E-01
 1.00000E+01    1.72391E-01
 1.05000E+01    1.65391E-01
 1.10000E+01    1.58962E-01
 1.15000E+01    1.52959E-01
 1.20000E+01    1.47345E-01
 1.25000E+01    1.42135E-01
 1.30000E+01    1.37354E-01
 1.35000E+01    1.33013E-01
 1.40000E+01    1.29103E-01
 1.45000E+01    1.25590E-01
 1.50000E+01    1.22425E-01
 1.60000E+01    1.16886E-01
 1.70000E+01    1.12047E-01
 1.80000E+01    1.07663E-01
 1.90000E+01    1.03629E-01
 2.00000E+01    9.98539E-02
 2.10000E+01    9.62528E-02
 2.20000E+01    9.28372E-02
 2.30000E+01    8.97028E-02
 2.40000E+01    8.69550E-02
 2.50000E+01    8.46449E-02
 2.60000E+01    8.27526E-02
 2.70000E+01    8.11943E-02
 2.80000E+01    7.98423E-02
 2.90000E+01    7.85585E-02
 3.00000E+01    7.72347E-02
