# n + Pu236 : (n,n'03)  
# endfb8.0   O.Iwamoto, T.Nakagawa, et al.     EVAL-FEB10
# uncertainties: y
# # energies =    51
#   E(MeV)       xs(mb)       xslow(mb)      xsupp(mb)
 3.07107E-01    0.00000E+00    0.00000E+00    0.00000E+00
 4.00000E-01    4.62522E-03    2.86682E-04    8.96376E-03
 5.00000E-01    6.76621E-02    4.19386E-03    1.31130E-01
 5.17904E-01    1.22790E-01    7.61083E-03    2.37969E-01
 6.00000E-01    3.76757E-01    1.76994E-02    7.35815E-01
 7.00000E-01    9.56281E-01    4.49245E-02    1.86764E+00
 7.76805E-01    1.90652E+00    8.95652E-02    3.72347E+00
 8.00000E-01    2.24411E+00    4.01676E-01    4.08654E+00
 9.00000E-01    3.90509E+00    6.98977E-01    7.11120E+00
 1.00000E+00    5.93574E+00    1.37696E+00    1.04945E+01
 1.30000E+00    1.44434E+01    3.60995E+00    2.52769E+01
 1.60000E+00    2.21559E+01    6.62304E+00    3.76888E+01
 1.80000E+00    2.57024E+01    7.68319E+00    4.37216E+01
 2.00000E+00    2.78279E+01    1.21326E+01    4.35232E+01
 2.30000E+00    2.91552E+01    1.27112E+01    4.55992E+01
 2.50000E+00    2.90536E+01    1.42641E+01    4.38431E+01
 2.70000E+00    2.87779E+01    1.41287E+01    4.34271E+01
 3.00000E+00    2.81369E+01    1.31644E+01    4.31094E+01
 3.50000E+00    2.55963E+01    1.15676E+01    3.96250E+01
 4.00000E+00    2.38677E+01    1.04290E+01    3.73064E+01
 4.50000E+00    2.19732E+01    9.60123E+00    3.43452E+01
 5.00000E+00    2.01890E+01    9.66879E+00    3.07092E+01
 5.50000E+00    1.90477E+01    9.12220E+00    2.89732E+01
 6.00000E+00    1.79216E+01    9.10324E+00    2.67400E+01
 6.50000E+00    1.71825E+01    8.72782E+00    2.56372E+01
 7.00000E+00    1.64456E+01    8.17222E+00    2.47190E+01
 7.50000E+00    1.57332E+01    7.81821E+00    2.36482E+01
 8.00000E+00    1.50213E+01    7.26999E+00    2.27726E+01
 8.50000E+00    1.42235E+01    6.88387E+00    2.15631E+01
 9.00000E+00    1.34258E+01    6.47036E+00    2.03812E+01
 9.50000E+00    1.26176E+01    6.08086E+00    1.91543E+01
 1.00000E+01    1.18094E+01    5.75074E+00    1.78681E+01
 1.05000E+01    1.10725E+01    5.39190E+00    1.67531E+01
 1.10000E+01    1.03356E+01    5.03305E+00    1.56381E+01
 1.15000E+01    9.69861E+00    4.72286E+00    1.46744E+01
 1.20000E+01    9.06161E+00    4.51204E+00    1.36112E+01
 1.25000E+01    8.52534E+00    4.24502E+00    1.28057E+01
 1.30000E+01    7.98907E+00    3.97799E+00    1.20002E+01
 1.35000E+01    7.54273E+00    3.75575E+00    1.13297E+01
 1.40000E+01    7.09638E+00    3.59758E+00    1.05952E+01
 1.45000E+01    6.72409E+00    3.40885E+00    1.00393E+01
 1.50000E+01    6.35180E+00    3.25194E+00    9.45166E+00
 1.55000E+01    6.03760E+00    3.09108E+00    8.98412E+00
 1.60000E+01    5.72341E+00    2.97001E+00    8.47681E+00
 1.65000E+01    5.45528E+00    2.83087E+00    8.07969E+00
 1.70000E+01    5.18790E+00    2.69212E+00    7.68368E+00
 1.75000E+01    4.95630E+00    2.57194E+00    7.34066E+00
 1.80000E+01    4.72400E+00    2.52714E+00    6.92086E+00
 1.85000E+01    4.52277E+00    2.41950E+00    6.62605E+00
 1.95000E+01    4.14742E+00    2.21870E+00    6.07614E+00
 2.00000E+01    3.97514E+00    2.12654E+00    5.82374E+00
