# n + Se 74 : (n,tot)   
# jendl4.0   S.Kamada, K.Shibata, A.Ichihara+  EVAL-MAY09
# uncertainties: n
# # energies =   171
#   E(MeV)       xs(mb) 
 1.00000E-11    5.73443E+05
 1.00000E-07    2.60762E+04
 4.13990E-07    1.95139E+04
 5.31580E-07    1.81135E+04
 6.82560E-07    1.68773E+04
 8.76420E-07    1.57842E+04
 1.12540E-06    1.48177E+04
 1.44500E-06    1.39588E+04
 1.85540E-06    1.31977E+04
 2.37240E-06    1.24986E+04
 3.05900E-06    1.18596E+04
 3.92790E-06    1.12747E+04
 5.04350E-06    1.07298E+04
 6.47600E-06    1.02339E+04
 8.31530E-06    9.82808E+03
 1.06770E-05    9.72431E+03
 1.37100E-05    1.10101E+04
 1.76030E-05    2.44041E+04
 2.26030E-05    3.63384E+06
 2.92030E-05    1.25147E+05
 3.72670E-05    3.05498E+04
 4.78510E-05    1.90491E+04
 6.14420E-05    1.43994E+04
 7.88930E-05    1.14038E+04
 1.01300E-04    8.77704E+03
 1.30070E-04    5.86616E+03
 1.67020E-04    2.37127E+03
 2.14450E-04    7.75779E+05
 2.75360E-04    2.38040E+05
 3.53580E-04    2.77563E+04
 4.54000E-04    1.75898E+04
 5.82950E-04    1.31132E+04
 7.48520E-04    9.22250E+03
 9.61120E-04    4.75469E+04
 1.23410E-03    1.84912E+04
 1.58460E-03    6.51806E+04
 2.03470E-03    1.20044E+04
 2.24870E-03    2.50284E+04
 2.48520E-03    1.29444E+04
 2.61260E-03    2.43266E+04
 2.74650E-03    2.35356E+04
 3.03540E-03    2.26753E+04
 3.35460E-03    2.19166E+04
 3.70740E-03    2.09034E+04
 4.30740E-03    1.95080E+04
 5.53080E-03    1.79275E+04
 7.10170E-03    1.65355E+04
 9.11880E-03    1.53787E+04
 1.17090E-02    1.45253E+04
 1.50340E-02    1.34787E+04
 1.93050E-02    1.26140E+04
 2.18750E-02    1.23277E+04
 2.35790E-02    1.21816E+04
 2.41760E-02    1.21054E+04
 2.47880E-02    1.19874E+04
 2.60580E-02    1.18477E+04
 2.70000E-02    1.16944E+04
 2.85000E-02    1.14165E+04
 3.18280E-02    1.11719E+04
 3.43070E-02    1.08269E+04
 4.08680E-02    1.04393E+04
 4.63090E-02    1.01322E+04
 5.24750E-02    9.90354E+03
 5.65620E-02    9.61991E+03
 6.73790E-02    9.35749E+03
 7.20000E-02    9.18758E+03
 7.95000E-02    9.04589E+03
 8.25000E-02    8.96342E+03
 8.65170E-02    8.79063E+03
 9.80370E-02    8.57126E+03
 1.11090E-01    8.44996E+03
 1.16790E-01    8.37610E+03
 1.22770E-01    8.29844E+03
 1.29070E-01    8.21674E+03
 1.35690E-01    8.13093E+03
 1.42640E-01    8.04069E+03
 1.49960E-01    7.94583E+03
 1.57640E-01    7.84611E+03
 1.65730E-01    7.74126E+03
 1.74220E-01    7.63104E+03
 1.83160E-01    7.51513E+03
 1.92550E-01    7.39493E+03
 2.02420E-01    7.30690E+03
 2.12800E-01    7.23080E+03
 2.23710E-01    7.15081E+03
 2.35180E-01    7.06671E+03
 2.47240E-01    6.93183E+03
 2.73240E-01    6.78767E+03
 2.87250E-01    6.71128E+03
 2.94520E-01    6.67562E+03
 2.97200E-01    6.66138E+03
 2.98500E-01    6.64550E+03
 3.01970E-01    6.55684E+03
 3.33730E-01    6.38749E+03
 3.68830E-01    6.24949E+03
 3.87740E-01    6.15280E+03
 4.07620E-01    6.02593E+03
 4.50490E-01    5.84829E+03
 4.97870E-01    5.71095E+03
 5.23400E-01    5.62608E+03
 5.50230E-01    5.53694E+03
 5.78440E-01    5.44367E+03
 6.08100E-01    5.35480E+03
 6.39280E-01    5.26495E+03
 6.72060E-01    5.17075E+03
 7.06510E-01    5.08102E+03
 7.42740E-01    4.99149E+03
 7.80820E-01    4.89915E+03
 8.20850E-01    4.81222E+03
 8.62940E-01    4.72261E+03
 9.07180E-01    4.62886E+03
 9.61640E-01    4.54185E+03
 1.00260E+00    4.44138E+03
 1.10800E+00    4.33986E+03
 1.16480E+00    4.26747E+03
 1.22460E+00    4.19142E+03
 1.28730E+00    4.11146E+03
 1.35340E+00    4.02740E+03
 1.42270E+00    3.93906E+03
 1.49570E+00    3.86859E+03
 1.57240E+00    3.82306E+03
 1.65300E+00    3.77530E+03
 1.73770E+00    3.72508E+03
 1.82680E+00    3.67226E+03
 1.92050E+00    3.61746E+03
 2.01900E+00    3.58691E+03
 2.12250E+00    3.56866E+03
 2.23130E+00    3.55276E+03
 2.30690E+00    3.54289E+03
 2.34570E+00    3.53786E+03
 2.36530E+00    3.53446E+03
 2.38520E+00    3.52584E+03
 2.46600E+00    3.51484E+03
 2.59240E+00    3.51789E+03
 2.72530E+00    3.52209E+03
 2.86500E+00    3.52652E+03
 3.01190E+00    3.53554E+03
 3.16640E+00    3.55420E+03
 3.32870E+00    3.58458E+03
 3.67880E+00    3.62832E+03
 4.06570E+00    3.67585E+03
 4.49330E+00    3.70965E+03
 4.72370E+00    3.72647E+03
 4.96590E+00    3.74404E+03
 5.22050E+00    3.75743E+03
 5.48810E+00    3.76865E+03
 5.76950E+00    3.77640E+03
 6.06530E+00    3.78000E+03
 6.37630E+00    3.78313E+03
 6.59240E+00    3.78508E+03
 6.70320E+00    3.78667E+03
 7.04690E+00    3.78238E+03
 7.40820E+00    3.77550E+03
 7.78800E+00    3.76774E+03
 8.18730E+00    3.75198E+03
 8.60710E+00    3.73295E+03
 9.04840E+00    3.70985E+03
 9.51230E+00    3.67967E+03
 1.00000E+01    3.64340E+03
 1.05130E+01    3.60078E+03
 1.10520E+01    3.55306E+03
 1.16180E+01    3.50060E+03
 1.22140E+01    3.44318E+03
 1.28400E+01    3.38235E+03
 1.34990E+01    3.33513E+03
 1.38400E+01    3.30272E+03
 1.41910E+01    3.26999E+03
 1.45500E+01    3.23701E+03
 1.49180E+01    3.18715E+03
 1.56830E+01    3.11962E+03
 1.64870E+01    3.05212E+03
