# n + Se 74 : (n,non)   
# jendl4.0   S.Kamada, K.Shibata, A.Ichihara+  EVAL-MAY09
# uncertainties: n
# # energies =    88
#   E(MeV)       xs(mb) 
 2.60000E-03    0.00000E+00
 2.60000E-03    1.09114E+03
 3.00000E-03    9.59900E+02
 4.00000E-03    7.93500E+02
 5.00000E-03    6.92000E+02
 6.00000E-03    6.22800E+02
 7.00000E-03    5.71900E+02
 8.00000E-03    5.32400E+02
 9.00000E-03    5.00500E+02
 1.00000E-02    4.73900E+02
 2.00000E-02    3.34900E+02
 3.00000E-02    2.71500E+02
 4.00000E-02    2.33300E+02
 5.00000E-02    2.08300E+02
 6.00000E-02    1.91200E+02
 7.00000E-02    1.79000E+02
 8.00000E-02    1.69100E+02
 9.00000E-02    1.60400E+02
 1.00000E-01    1.53200E+02
 2.00000E-01    1.28300E+02
 3.00000E-01    1.19600E+02
 4.00000E-01    1.15800E+02
 5.00000E-01    1.15800E+02
 5.78205E-01    1.17599E+02
 6.00000E-01    1.18100E+02
 6.43411E-01    1.01478E+02
 7.00000E-01    3.68710E+02
 8.00000E-01    5.44730E+02
 8.65480E-01    6.18474E+02
 9.00000E-01    7.44750E+02
 1.00000E+00    8.86800E+02
 1.28634E+00    9.53001E+02
 1.38182E+00    1.08466E+03
 1.50000E+00    1.27318E+03
 1.68010E+00    1.28059E+03
 1.86377E+00    1.33223E+03
 1.90998E+00    1.38003E+03
 2.00000E+00    1.51947E+03
 2.13675E+00    1.49288E+03
 2.17528E+00    1.48996E+03
 2.26190E+00    1.51205E+03
 2.34567E+00    1.53385E+03
 2.38169E+00    1.55726E+03
 2.41106E+00    1.58627E+03
 2.50000E+00    1.71488E+03
 2.51587E+00    1.71443E+03
 2.59842E+00    1.72726E+03
 2.69825E+00    1.75689E+03
 2.75509E+00    1.77589E+03
 2.85692E+00    1.81903E+03
 2.87018E+00    1.82708E+03
 2.88145E+00    1.83528E+03
 2.88281E+00    1.83628E+03
 2.94261E+00    1.89248E+03
 2.95275E+00    1.90283E+03
 3.00000E+00    1.96000E+03
 3.50000E+00    2.00210E+03
 4.00000E+00    2.01770E+03
 4.13014E+00    2.01449E+03
 4.50000E+00    2.00538E+03
 5.00000E+00    1.97780E+03
 5.50000E+00    1.94272E+03
 6.00000E+00    1.90820E+03
 6.40668E+00    1.88433E+03
 6.50000E+00    1.87886E+03
 6.57523E+00    1.87534E+03
 7.00000E+00    1.85552E+03
 7.50000E+00    1.83766E+03
 8.00000E+00    1.82382E+03
 8.50000E+00    1.81257E+03
 8.66160E+00    1.80944E+03
 9.00000E+00    1.80289E+03
 9.50000E+00    1.79374E+03
 1.00000E+01    1.78518E+03
 1.10000E+01    1.76928E+03
 1.10096E+01    1.76915E+03
 1.20000E+01    1.75508E+03
 1.22311E+01    1.73170E+03
 1.30000E+01    1.74266E+03
 1.40000E+01    1.73093E+03
 1.45000E+01    1.72512E+03
 1.50000E+01    1.71907E+03
 1.60000E+01    1.70584E+03
 1.70000E+01    1.69125E+03
 1.73522E+01    1.68583E+03
 1.80000E+01    1.67585E+03
 1.90000E+01    1.66057E+03
 2.00000E+01    1.64575E+03
