# n + Ba130 : (n,el)    
# endfb8.0   JNDC FPND W.G., Mughabghab        EVAL-JAN05
# uncertainties: n
# # energies =   171
#   E(MeV)       xs(mb) 
 1.00000E-11    1.61611E+03
 1.00000E-07    9.84276E+02
 4.13990E-07    9.76043E+02
 5.31580E-07    9.71930E+02
 6.82560E-07    9.66678E+02
 8.76420E-07    9.60107E+02
 1.12540E-06    9.52006E+02
 1.44500E-06    9.41615E+02
 1.85540E-06    9.29122E+02
 2.37240E-06    9.13641E+02
 3.05900E-06    8.93594E+02
 3.92790E-06    8.68328E+02
 5.04350E-06    8.37404E+02
 6.47600E-06    7.97908E+02
 8.31530E-06    7.47195E+02
 1.06770E-05    6.81594E+02
 1.37100E-05    5.93044E+02
 1.76030E-05    4.70572E+02
 2.26030E-05    2.94145E+02
 2.92030E-05    7.28157E+01
 3.72670E-05    5.90278E+04
 4.78510E-05    4.55603E+05
 6.14420E-05    1.04279E+04
 7.88930E-05    2.43720E+03
 1.01300E-04    6.95988E+02
 1.30070E-04    2.12815E+05
 1.67020E-04    8.15409E+04
 2.14450E-04    2.99866E+03
 2.75360E-04    1.06444E+04
 3.53580E-04    1.67152E+05
 4.54000E-04    6.40345E+03
 5.82950E-04    9.39504E+03
 7.48520E-04    1.00875E+04
 9.61120E-04    9.53913E+03
 1.23410E-03    9.61529E+03
 1.58460E-03    2.77657E+04
 2.03470E-03    1.10020E+04
 2.24870E-03    9.67066E+03
 2.48520E-03    7.20139E+03
 2.61260E-03    4.66900E+03
 2.74650E-03    9.84021E+03
 3.03540E-03    1.01506E+04
 3.35460E-03    9.81524E+03
 3.70740E-03    9.41560E+03
 4.30740E-03    8.81979E+03
 5.53080E-03    8.14419E+03
 7.10170E-03    7.53678E+03
 9.11880E-03    6.99216E+03
 1.17090E-02    6.50437E+03
 1.50340E-02    6.06785E+03
 1.93050E-02    5.77083E+03
 2.18750E-02    5.62425E+03
 2.35790E-02    5.55471E+03
 2.41760E-02    5.51893E+03
 2.47880E-02    5.46711E+03
 2.60580E-02    5.41059E+03
 2.70000E-02    5.35083E+03
 2.85000E-02    5.24680E+03
 3.18280E-02    5.13355E+03
 3.43070E-02    4.99026E+03
 4.08680E-02    4.83070E+03
 4.63090E-02    4.70606E+03
 5.24750E-02    4.61136E+03
 5.65620E-02    4.50056E+03
 6.73790E-02    4.39919E+03
 7.20000E-02    4.33471E+03
 7.95000E-02    4.28089E+03
 8.25000E-02    4.25011E+03
 8.65170E-02    4.18641E+03
 9.80370E-02    4.12989E+03
 1.11090E-01    4.15294E+03
 1.16790E-01    4.16943E+03
 1.22770E-01    4.18675E+03
 1.29070E-01    4.20498E+03
 1.35690E-01    4.22400E+03
 1.42640E-01    4.24342E+03
 1.49960E-01    4.26423E+03
 1.57640E-01    4.28999E+03
 1.65730E-01    4.31793E+03
 1.74220E-01    4.34729E+03
 1.83160E-01    4.37818E+03
 1.92550E-01    4.41063E+03
 2.02420E-01    4.44475E+03
 2.12800E-01    4.48072E+03
 2.23710E-01    4.51865E+03
 2.35180E-01    4.55853E+03
 2.47240E-01    4.62249E+03
 2.73240E-01    4.69085E+03
 2.87250E-01    4.72707E+03
 2.94520E-01    4.74398E+03
 2.97200E-01    4.75073E+03
 2.98500E-01    4.75881E+03
 3.01970E-01    4.81764E+03
 3.33730E-01    4.92827E+03
 3.68830E-01    5.00167E+03
 3.87740E-01    5.05001E+03
 4.07620E-01    5.12433E+03
 4.50490E-01    5.21952E+03
 4.97870E-01    5.29596E+03
 5.23400E-01    5.34988E+03
 5.50230E-01    5.40081E+03
 5.78440E-01    5.45280E+03
 6.08100E-01    5.50745E+03
 6.39280E-01    5.56491E+03
 6.72060E-01    5.62079E+03
 7.06510E-01    5.67030E+03
 7.42740E-01    5.72195E+03
 7.80820E-01    5.76753E+03
 8.20850E-01    5.81035E+03
 8.62940E-01    5.85490E+03
 9.07180E-01    5.88576E+03
 9.61640E-01    5.90311E+03
 1.00260E+00    5.91150E+03
 1.10800E+00    5.91311E+03
 1.16480E+00    5.91364E+03
 1.22460E+00    5.90860E+03
 1.28730E+00    5.87882E+03
 1.35340E+00    5.84238E+03
 1.42270E+00    5.78705E+03
 1.49570E+00    5.72270E+03
 1.57240E+00    5.63716E+03
 1.65300E+00    5.53211E+03
 1.73770E+00    5.42016E+03
 1.82680E+00    5.29872E+03
 1.92050E+00    5.15712E+03
 2.01900E+00    4.96636E+03
 2.12250E+00    4.75416E+03
 2.23130E+00    4.58404E+03
 2.30690E+00    4.48715E+03
 2.34570E+00    4.43891E+03
 2.36530E+00    4.40632E+03
 2.38520E+00    4.32565E+03
 2.46600E+00    4.17287E+03
 2.59240E+00    3.99597E+03
 2.72530E+00    3.82508E+03
 2.86500E+00    3.66043E+03
 3.01190E+00    3.47641E+03
 3.16640E+00    3.27827E+03
 3.32870E+00    3.00381E+03
 3.67880E+00    2.67196E+03
 4.06570E+00    2.41460E+03
 4.49330E+00    2.24829E+03
 4.72370E+00    2.14236E+03
 4.96590E+00    2.06100E+03
 5.22050E+00    2.02083E+03
 5.48810E+00    1.97969E+03
 5.76950E+00    1.94132E+03
 6.06530E+00    1.93996E+03
 6.37630E+00    1.95353E+03
 6.59240E+00    1.96195E+03
 6.70320E+00    1.97375E+03
 7.04690E+00    2.00617E+03
 7.40820E+00    2.04900E+03
 7.78800E+00    2.09522E+03
 8.18730E+00    2.14540E+03
 8.60710E+00    2.19460E+03
 9.04840E+00    2.24520E+03
 9.51230E+00    2.29840E+03
 1.00000E+01    2.42627E+03
 1.05130E+01    2.58561E+03
 1.10520E+01    2.60921E+03
 1.16180E+01    2.54735E+03
 1.22140E+01    2.53186E+03
 1.28400E+01    2.55713E+03
 1.34990E+01    2.63000E+03
 1.38400E+01    2.67382E+03
 1.41910E+01    2.68474E+03
 1.45500E+01    2.69991E+03
 1.49180E+01    2.72028E+03
 1.56830E+01    2.72676E+03
 1.64870E+01    2.71312E+03
