# n + Cd114 : (n,xd)    
# jendl.ad   kunieda                           EVAL-Mar14
# 
# # energies =    68
#   E(MeV)        xs(mb) 
 1.50000E-01    0.00000E+00
 2.00000E-01    0.00000E+00
 3.00000E-01    0.00000E+00
 4.00000E-01    0.00000E+00
 5.00000E-01    0.00000E+00
 5.63401E-01    0.00000E+00
 6.00000E-01    0.00000E+00
 7.00000E-01    0.00000E+00
 8.00000E-01    0.00000E+00
 9.00000E-01    0.00000E+00
 1.00000E+00    0.00000E+00
 1.14458E+00    0.00000E+00
 1.20000E+00    0.00000E+00
 1.22042E+00    0.00000E+00
 1.29511E+00    0.00000E+00
 1.31717E+00    0.00000E+00
 1.37642E+00    0.00000E+00
 1.40000E+00    0.00000E+00
 1.60000E+00    0.00000E+00
 1.74759E+00    0.00000E+00
 1.79980E+00    0.00000E+00
 1.80000E+00    0.00000E+00
 1.85826E+00    0.00000E+00
 1.87617E+00    0.00000E+00
 1.88077E+00    0.00000E+00
 1.94919E+00    0.00000E+00
 1.97543E+00    0.00000E+00
 2.00000E+00    0.00000E+00
 2.00792E+00    0.00000E+00
 2.06617E+00    0.00000E+00
 2.20000E+00    0.00000E+00
 2.40000E+00    0.00000E+00
 2.70000E+00    0.00000E+00
 3.00000E+00    0.00000E+00
 3.50000E+00    0.00000E+00
 4.00000E+00    0.00000E+00
 4.50000E+00    0.00000E+00
 5.00000E+00    0.00000E+00
 5.50000E+00    0.00000E+00
 6.00000E+00    0.00000E+00
 6.50000E+00    0.00000E+00
 7.00000E+00    0.00000E+00
 7.50000E+00    0.00000E+00
 8.00000E+00    0.00000E+00
 8.50000E+00    1.66942E-14
 9.00000E+00    4.04071E-14
 9.50000E+00    6.41200E-14
 1.00000E+01    1.03640E-10
 1.05000E+01    1.75960E-08
 1.10000E+01    9.57690E-07
 1.15000E+01    1.60703E-05
 1.20000E+01    1.58436E-04
 1.25000E+01    1.13892E-03
 1.30000E+01    6.33083E-03
 1.35000E+01    2.57331E-02
 1.40000E+01    5.58537E-02
 1.45000E+01    1.76376E-01
 1.50000E+01    3.01336E-01
 1.55000E+01    4.87739E-01
 1.60000E+01    8.67255E-01
 1.65000E+01    1.26170E+00
 1.70000E+01    1.75754E+00
 1.75000E+01    2.35809E+00
 1.80000E+01    3.06426E+00
 1.85000E+01    3.87522E+00
 1.90000E+01    4.78936E+00
 1.95000E+01    5.80388E+00
 2.00000E+01    5.97474E+00
