# n + Cd114 : (n,tot)   
# jendl.ad   kunieda                           EVAL-Mar14
# uncertainties: n
# # energies =    69
#   E(MeV)       xs(mb) 
 1.00000E-10    2.37718E+03
 5.00000E-09    6.47297E+02
 1.00000E-08    4.90241E+02
 1.50000E-08    4.11920E+02
 2.00000E-08    3.62407E+02
 2.50000E-08    3.27430E+02
 3.00000E-08    3.01032E+02
 3.50000E-08    2.76797E+02
 4.20000E-08    2.53160E+02
 5.00000E-08    2.33515E+02
 5.80000E-08    2.17058E+02
 6.70000E-08    2.00362E+02
 8.00000E-08    1.81314E+02
 1.00000E-07    1.57771E+02
 1.40000E-07    1.36207E+02
 1.80000E-07    1.21651E+02
 2.20000E-07    1.12054E+02
 2.50000E-07    1.05522E+02
 2.80000E-07    1.00857E+02
 3.00000E-07    9.75591E+01
 3.20000E-07    9.38871E+01
 3.50000E-07    8.88228E+01
 4.00000E-07    8.13259E+01
 5.00000E-07    7.28316E+01
 6.25000E-07    6.52420E+01
 7.80000E-07    6.04375E+01
 8.50000E-07    5.81726E+01
 9.10000E-07    5.66305E+01
 9.50000E-07    5.57283E+01
 9.72000E-07    5.50614E+01
 9.96000E-07    5.43982E+01
 1.02000E-06    5.37839E+01
 1.04500E-06    5.31460E+01
 1.07100E-06    5.25150E+01
 1.09700E-06    5.19107E+01
 1.12300E-06    5.12957E+01
 1.15000E-06    4.94998E+01
 1.30000E-06    4.63854E+01
 1.50000E-06    4.13117E+01
 2.10000E-06    3.61599E+01
 2.60000E-06    3.24600E+01
 3.30000E-06    2.93109E+01
 4.00000E-06    2.30164E+01
 9.87700E-06    1.71884E+01
 1.59680E-05    1.45922E+01
 2.77000E-05    1.38567E+01
 4.80520E-05    2.48117E+02
 7.55014E-05    1.48201E+04
 1.48728E-04    3.04661E+02
 3.67262E-04    4.46911E+03
 9.06898E-04    1.44059E+03
 1.42510E-03    1.04577E+03
 2.23945E-03    6.49460E+02
 3.51910E-03    3.19043E+02
 5.53000E-03    3.50026E+02
 9.11800E-03    2.45402E+02
 1.50300E-02    1.77508E+02
 2.47800E-02    1.26627E+02
 4.08500E-02    9.17436E+01
 6.73400E-02    7.19505E+01
 1.11000E-01    6.23213E+01
 1.83000E-01    5.78511E+01
 3.02000E-01    5.98473E+01
 5.00000E-01    4.24900E+01
 8.21000E-01    2.92420E+01
 1.35300E+00    2.32850E+01
 2.23100E+00    1.48243E+01
 3.67900E+00    6.35872E+00
 6.06500E+00    1.66624E+03
