# n + Cd114 : (n,xa)    
# jendl.ad   kunieda                           EVAL-Mar14
# 
# # energies =    68
#   E(MeV)        xs(mb) 
 1.50000E-01    0.00000E+00
 2.00000E-01    0.00000E+00
 3.00000E-01    0.00000E+00
 4.00000E-01    0.00000E+00
 5.00000E-01    0.00000E+00
 5.63401E-01    0.00000E+00
 6.00000E-01    0.00000E+00
 7.00000E-01    0.00000E+00
 8.00000E-01    0.00000E+00
 9.00000E-01    0.00000E+00
 1.00000E+00    0.00000E+00
 1.14458E+00    0.00000E+00
 1.20000E+00    0.00000E+00
 1.22042E+00    0.00000E+00
 1.29511E+00    0.00000E+00
 1.31717E+00    0.00000E+00
 1.37642E+00    0.00000E+00
 1.40000E+00    0.00000E+00
 1.60000E+00    0.00000E+00
 1.74759E+00    0.00000E+00
 1.79980E+00    0.00000E+00
 1.80000E+00    0.00000E+00
 1.85826E+00    0.00000E+00
 1.87617E+00    0.00000E+00
 1.88077E+00    0.00000E+00
 1.94919E+00    0.00000E+00
 1.97543E+00    0.00000E+00
 2.00000E+00    0.00000E+00
 2.00792E+00    0.00000E+00
 2.06617E+00    0.00000E+00
 2.20000E+00    0.00000E+00
 2.40000E+00    0.00000E+00
 2.70000E+00    0.00000E+00
 3.00000E+00    0.00000E+00
 3.50000E+00    0.00000E+00
 4.00000E+00    0.00000E+00
 4.50000E+00    8.55436E-11
 5.00000E+00    3.09532E-08
 5.50000E+00    3.51563E-07
 6.00000E+00    1.70951E-05
 6.50000E+00    1.69105E-04
 7.00000E+00    2.73830E-04
 7.50000E+00    4.54919E-04
 8.00000E+00    6.67765E-04
 8.50000E+00    1.14217E-03
 9.00000E+00    2.11330E-03
 9.50000E+00    3.42533E-03
 1.00000E+01    5.23394E-03
 1.05000E+01    8.83828E-03
 1.10000E+01    1.30283E-02
 1.15000E+01    1.94062E-02
 1.20000E+01    3.08918E-02
 1.25000E+01    4.77599E-02
 1.30000E+01    7.35216E-02
 1.35000E+01    1.11818E-01
 1.40000E+01    1.68963E-01
 1.45000E+01    2.40632E-01
 1.50000E+01    3.31830E-01
 1.55000E+01    4.43181E-01
 1.60000E+01    5.76369E-01
 1.65000E+01    7.30509E-01
 1.70000E+01    9.08862E-01
 1.75000E+01    1.10008E+00
 1.80000E+01    1.30955E+00
 1.85000E+01    1.53123E+00
 1.90000E+01    1.76959E+00
 1.95000E+01    2.01561E+00
 2.00000E+01    2.27553E+00
