# n + Cd114 : (n,xp)    
# jendl.ad   kunieda                           EVAL-Mar14
# 
# # energies =    68
#   E(MeV)        xs(mb) 
 1.50000E-01    0.00000E+00
 2.00000E-01    0.00000E+00
 3.00000E-01    0.00000E+00
 4.00000E-01    0.00000E+00
 5.00000E-01    0.00000E+00
 5.63401E-01    0.00000E+00
 6.00000E-01    0.00000E+00
 7.00000E-01    0.00000E+00
 8.00000E-01    0.00000E+00
 9.00000E-01    0.00000E+00
 1.00000E+00    0.00000E+00
 1.14458E+00    0.00000E+00
 1.20000E+00    0.00000E+00
 1.22042E+00    0.00000E+00
 1.29511E+00    0.00000E+00
 1.31717E+00    0.00000E+00
 1.37642E+00    0.00000E+00
 1.40000E+00    0.00000E+00
 1.60000E+00    0.00000E+00
 1.74759E+00    0.00000E+00
 1.79980E+00    0.00000E+00
 1.80000E+00    0.00000E+00
 1.85826E+00    0.00000E+00
 1.87617E+00    0.00000E+00
 1.88077E+00    0.00000E+00
 1.94919E+00    0.00000E+00
 1.97543E+00    0.00000E+00
 2.00000E+00    0.00000E+00
 2.00792E+00    0.00000E+00
 2.06617E+00    0.00000E+00
 2.20000E+00    0.00000E+00
 2.40000E+00    0.00000E+00
 2.70000E+00    0.00000E+00
 3.00000E+00    0.00000E+00
 3.50000E+00    0.00000E+00
 4.00000E+00    0.00000E+00
 4.50000E+00    7.49348E-12
 5.00000E+00    3.03947E-11
 5.50000E+00    5.32960E-11
 6.00000E+00    2.91180E-08
 6.50000E+00    1.14867E-06
 7.00000E+00    1.49592E-05
 7.50000E+00    1.12320E-04
 8.00000E+00    4.74340E-04
 8.50000E+00    1.75205E-03
 9.00000E+00    5.80879E-03
 9.50000E+00    1.69832E-02
 1.00000E+01    4.34441E-02
 1.05000E+01    1.00944E-01
 1.10000E+01    2.15148E-01
 1.15000E+01    4.13594E-01
 1.20000E+01    7.26659E-01
 1.25000E+01    1.18071E+00
 1.30000E+01    1.79451E+00
 1.35000E+01    2.58172E+00
 1.40000E+01    3.56726E+00
 1.45000E+01    4.73328E+00
 1.50000E+01    6.06703E+00
 1.55000E+01    7.60915E+00
 1.60000E+01    9.30235E+00
 1.65000E+01    1.11682E+01
 1.70000E+01    1.31814E+01
 1.75000E+01    1.53538E+01
 1.80000E+01    1.76512E+01
 1.85000E+01    2.01170E+01
 1.90000E+01    2.26697E+01
 1.95000E+01    2.53975E+01
 2.00000E+01    2.82491E+01
