# n + Cd114 : (n,xn)    
# jendl.ad   kunieda                           EVAL-Mar14
# 
# # energies =    68
#   E(MeV)        xs(mb) 
 1.50000E-01    0.00000E+00
 2.00000E-01    6.50406E-04
 3.00000E-01    5.02688E-03
 4.00000E-01    1.88149E-02
 5.00000E-01    5.04121E-02
 5.63401E-01    1.01768E-01
 6.00000E-01    2.74153E+02
 7.00000E-01    5.62479E+02
 8.00000E-01    6.70519E+02
 9.00000E-01    7.28554E+02
 1.00000E+00    7.67744E+02
 1.14458E+00    8.10052E+02
 1.20000E+00    8.64279E+02
 1.22042E+00    8.78939E+02
 1.29511E+00    1.00382E+03
 1.31717E+00    1.03533E+03
 1.37642E+00    1.11744E+03
 1.40000E+00    1.15789E+03
 1.60000E+00    1.29887E+03
 1.74759E+00    1.33554E+03
 1.79980E+00    1.34836E+03
 1.80000E+00    1.34890E+03
 1.85826E+00    1.37414E+03
 1.87617E+00    1.38490E+03
 1.88077E+00    1.38816E+03
 1.94919E+00    1.42681E+03
 1.97543E+00    1.43773E+03
 2.00000E+00    1.44947E+03
 2.00792E+00    1.45307E+03
 2.06617E+00    1.47480E+03
 2.20000E+00    1.51770E+03
 2.40000E+00    1.56896E+03
 2.70000E+00    1.62312E+03
 3.00000E+00    1.66465E+03
 3.50000E+00    1.73143E+03
 4.00000E+00    1.81299E+03
 4.50000E+00    1.90123E+03
 5.00000E+00    1.97459E+03
 5.50000E+00    2.01886E+03
 6.00000E+00    2.02961E+03
 6.50000E+00    2.01845E+03
 7.00000E+00    1.99590E+03
 7.50000E+00    1.97043E+03
 8.00000E+00    1.94732E+03
 8.50000E+00    1.92965E+03
 9.00000E+00    1.91853E+03
 9.50000E+00    1.99096E+03
 1.00000E+01    2.27368E+03
 1.05000E+01    2.64926E+03
 1.10000E+01    2.96513E+03
 1.15000E+01    3.14895E+03
 1.20000E+01    3.29092E+03
 1.25000E+01    3.40481E+03
 1.30000E+01    3.45304E+03
 1.35000E+01    3.49611E+03
 1.40000E+01    3.53489E+03
 1.45000E+01    3.55114E+03
 1.50000E+01    3.56012E+03
 1.55000E+01    3.56295E+03
 1.60000E+01    3.56272E+03
 1.65000E+01    3.55482E+03
 1.70000E+01    3.55024E+03
 1.75000E+01    3.56353E+03
 1.80000E+01    3.60371E+03
 1.85000E+01    3.65296E+03
 1.90000E+01    3.70810E+03
 1.95000E+01    3.80232E+03
 2.00000E+01    3.91078E+03
