# n + Cd106 : (n,xa)    
# jendl.ad   kunieda                           EVAL-Mar14
# 
# # energies =    65
#   E(MeV)        xs(mb) 
 1.50000E-01    1.78008E-05
 2.00000E-01    1.87032E-05
 3.00000E-01    2.83785E-05
 4.00000E-01    4.61941E-05
 5.00000E-01    7.50707E-05
 6.00000E-01    1.20058E-04
 6.38665E-01    1.42593E-04
 7.00000E-01    9.65758E-05
 8.00000E-01    1.06614E-04
 9.00000E-01    1.44433E-04
 1.00000E+00    2.09595E-04
 1.20000E+00    4.67219E-04
 1.40000E+00    1.03848E-03
 1.50801E+00    1.57603E-03
 1.60000E+00    2.38156E-03
 1.73288E+00    4.02808E-03
 1.80000E+00    5.20321E-03
 1.81235E+00    5.35261E-03
 2.00000E+00    9.23846E-03
 2.12457E+00    1.47977E-02
 2.16448E+00    1.72169E-02
 2.20000E+00    1.88112E-02
 2.27365E+00    2.38612E-02
 2.27547E+00    2.39537E-02
 2.32687E+00    2.62986E-02
 2.35276E+00    2.75156E-02
 2.36082E+00    2.79003E-02
 2.36991E+00    2.95964E-02
 2.40000E+00    3.05495E-02
 2.70000E+00    4.90572E-02
 3.00000E+00    8.02084E-02
 3.50000E+00    1.87194E-01
 4.00000E+00    4.13263E-01
 4.50000E+00    8.43533E-01
 5.00000E+00    1.53023E+00
 5.50000E+00    2.38445E+00
 6.00000E+00    3.79851E+00
 6.50000E+00    5.37796E+00
 7.00000E+00    6.97543E+00
 7.50000E+00    8.39734E+00
 8.00000E+00    1.00705E+01
 8.50000E+00    1.11195E+01
 9.00000E+00    1.24770E+01
 9.50000E+00    1.37528E+01
 1.00000E+01    1.50835E+01
 1.05000E+01    1.65416E+01
 1.10000E+01    1.84708E+01
 1.15000E+01    2.01946E+01
 1.20000E+01    2.19363E+01
 1.25000E+01    2.38086E+01
 1.30000E+01    2.58113E+01
 1.35000E+01    2.77701E+01
 1.40000E+01    3.02793E+01
 1.45000E+01    3.28050E+01
 1.50000E+01    3.55198E+01
 1.55000E+01    3.87420E+01
 1.60000E+01    4.17039E+01
 1.65000E+01    4.52319E+01
 1.70000E+01    4.81923E+01
 1.75000E+01    5.23027E+01
 1.80000E+01    5.52093E+01
 1.85000E+01    5.94129E+01
 1.90000E+01    6.20254E+01
 1.95000E+01    6.45237E+01
 2.00000E+01    6.79009E+01
