# n + Cd106 : (n,xn)    
# jendl.ad   kunieda                           EVAL-Mar14
# 
# # energies =    65
#   E(MeV)        xs(mb) 
 1.50000E-01    0.00000E+00
 2.00000E-01    6.37536E-04
 3.00000E-01    4.82606E-03
 4.00000E-01    1.76750E-02
 5.00000E-01    4.67168E-02
 6.00000E-01    1.02137E-01
 6.38665E-01    1.72202E-01
 7.00000E-01    4.70051E+02
 8.00000E-01    7.60177E+02
 9.00000E-01    8.71198E+02
 1.00000E+00    9.26733E+02
 1.20000E+00    9.87966E+02
 1.40000E+00    1.02849E+03
 1.50801E+00    1.04620E+03
 1.60000E+00    1.11096E+03
 1.73288E+00    1.16162E+03
 1.80000E+00    1.24786E+03
 1.81235E+00    1.26001E+03
 2.00000E+00    1.40225E+03
 2.12457E+00    1.43284E+03
 2.16448E+00    1.44484E+03
 2.20000E+00    1.46150E+03
 2.27365E+00    1.48588E+03
 2.27547E+00    1.48661E+03
 2.32687E+00    1.51502E+03
 2.35276E+00    1.52795E+03
 2.36082E+00    1.53182E+03
 2.36991E+00    1.53646E+03
 2.40000E+00    1.55909E+03
 2.70000E+00    1.74030E+03
 3.00000E+00    1.82616E+03
 3.50000E+00    1.87514E+03
 4.00000E+00    1.90506E+03
 4.50000E+00    1.93950E+03
 5.00000E+00    1.97373E+03
 5.50000E+00    1.99988E+03
 6.00000E+00    2.00574E+03
 6.50000E+00    1.99416E+03
 7.00000E+00    1.97253E+03
 7.50000E+00    1.94302E+03
 8.00000E+00    1.91259E+03
 8.50000E+00    1.88326E+03
 9.00000E+00    1.85592E+03
 9.50000E+00    1.83123E+03
 1.00000E+01    1.81029E+03
 1.05000E+01    1.79226E+03
 1.10000E+01    1.78879E+03
 1.15000E+01    1.90171E+03
 1.20000E+01    2.11175E+03
 1.25000E+01    2.32378E+03
 1.30000E+01    2.54002E+03
 1.35000E+01    2.71740E+03
 1.40000E+01    2.81448E+03
 1.45000E+01    2.91460E+03
 1.50000E+01    2.96726E+03
 1.55000E+01    2.99734E+03
 1.60000E+01    3.01925E+03
 1.65000E+01    3.03800E+03
 1.70000E+01    3.03306E+03
 1.75000E+01    3.02420E+03
 1.80000E+01    3.00918E+03
 1.85000E+01    2.98355E+03
 1.90000E+01    2.95980E+03
 1.95000E+01    2.93863E+03
 2.00000E+01    2.91518E+03
