# n + Kr 80 : (n,n'05)  
# jeff3.3    A.J. Koning and D. Rochman        EVAL-DEC15
# uncertainties: n
# # energies =    86
#   E(MeV)       xs(mb) 
 1.81056E+00    0.00000E+00
 2.00000E+00    1.13729E+02
 2.17296E+00    1.73855E+02
 2.20000E+00    1.83255E+02
 2.40000E+00    2.19590E+02
 2.42225E+00    2.20861E+02
 2.47000E+00    2.23589E+02
 2.60000E+00    2.31015E+02
 2.69331E+00    2.34437E+02
 2.80000E+00    2.38349E+02
 2.82830E+00    2.38512E+02
 2.89562E+00    2.38899E+02
 3.00000E+00    2.39500E+02
 3.00647E+00    2.39306E+02
 3.03543E+00    2.38437E+02
 3.07793E+00    2.37163E+02
 3.08013E+00    2.37096E+02
 3.14947E+00    2.35017E+02
 3.20000E+00    2.33501E+02
 3.21286E+00    2.33188E+02
 3.38804E+00    2.28929E+02
 3.40000E+00    2.28638E+02
 3.45302E+00    2.27320E+02
 3.53202E+00    2.25355E+02
 3.57487E+00    2.24290E+02
 3.60000E+00    2.23665E+02
 3.60358E+00    2.23570E+02
 3.62690E+00    2.22951E+02
 3.68118E+00    2.21510E+02
 3.74645E+00    2.19777E+02
 3.80000E+00    2.18355E+02
 3.96603E+00    2.13408E+02
 4.00000E+00    2.12396E+02
 4.17831E+00    2.06268E+02
 4.20000E+00    2.05522E+02
 4.20562E+00    2.05303E+02
 4.21575E+00    2.04908E+02
 4.40000E+00    1.97726E+02
 4.43316E+00    1.92566E+02
 4.60000E+00    1.66604E+02
 4.80000E+00    1.13857E+02
 5.00000E+00    7.39501E+01
 5.20000E+00    4.87114E+01
 5.40000E+00    3.29849E+01
 5.60000E+00    2.28882E+01
 5.80000E+00    1.62099E+01
 6.00000E+00    1.16858E+01
 6.20000E+00    8.55076E+00
 6.40000E+00    6.33526E+00
 6.60000E+00    4.74947E+00
 6.80000E+00    3.59355E+00
 7.00000E+00    2.74344E+00
 7.20000E+00    2.11123E+00
 7.40000E+00    1.63419E+00
 7.60000E+00    1.27292E+00
 7.80000E+00    9.97878E-01
 8.00000E+00    7.86936E-01
 8.50000E+00    4.44610E-01
 9.00000E+00    2.57741E-01
 9.50000E+00    1.52406E-01
 1.00000E+01    9.17032E-02
 1.05000E+01    5.60278E-02
 1.10000E+01    3.47114E-02
 1.15000E+01    2.17776E-02
 1.20000E+01    1.38249E-02
 1.25000E+01    8.86464E-03
 1.30000E+01    5.73438E-03
 1.35000E+01    3.73894E-03
 1.40000E+01    2.45589E-03
 1.45000E+01    1.62375E-03
 1.50000E+01    1.07989E-03
 1.60000E+01    4.86185E-04
 1.70000E+01    2.23294E-04
 1.80000E+01    1.04750E-04
 1.90000E+01    5.02477E-05
 2.00000E+01    2.46196E-05
 2.10000E+01    1.22801E-05
 2.20000E+01    6.22409E-06
 2.30000E+01    3.17528E-06
 2.40000E+01    1.65696E-06
 2.50000E+01    8.76910E-07
 2.60000E+01    4.68940E-07
 2.70000E+01    2.53610E-07
 2.80000E+01    1.38410E-07
 2.90000E+01    7.64260E-08
 3.00000E+01    4.26250E-08
