# n + Xe131 : (n,n'04)  
# jendl4.0   S.Kunieda, A.Ichihara, K.Shibata+ EVAL-FEB22
# uncertainties: n
# # energies =    52
#   E(MeV)       xs(mb) 
 3.67299E-01    0.00000E+00
 4.00000E-01    1.67300E+02
 4.50000E-01    2.69100E+02
 5.00000E-01    3.25000E+02
 5.50000E-01    3.58600E+02
 6.00000E-01    3.78900E+02
 6.50000E-01    3.87300E+02
 7.00000E-01    3.77000E+02
 7.50000E-01    4.31300E+02
 8.00000E-01    4.12600E+02
 8.50000E-01    3.78200E+02
 9.00000E-01    3.72400E+02
 9.50000E-01    3.42600E+02
 1.00000E+00    3.41900E+02
 1.20000E+00    2.98400E+02
 1.40000E+00    2.66100E+02
 1.60000E+00    2.38100E+02
 1.80000E+00    2.12800E+02
 2.00000E+00    1.90500E+02
 2.20000E+00    1.71300E+02
 2.40000E+00    1.55500E+02
 2.60000E+00    1.42800E+02
 2.80000E+00    1.32900E+02
 3.00000E+00    1.25600E+02
 3.25000E+00    1.19200E+02
 3.50000E+00    1.15500E+02
 3.75000E+00    1.13200E+02
 4.00000E+00    1.11700E+02
 4.25000E+00    1.10200E+02
 4.50000E+00    1.08300E+02
 4.75000E+00    1.05900E+02
 5.00000E+00    1.02800E+02
 5.50000E+00    9.53700E+01
 6.00000E+00    8.71900E+01
 6.50000E+00    7.93400E+01
 7.00000E+00    7.24800E+01
 7.50000E+00    6.68100E+01
 8.00000E+00    6.22800E+01
 8.50000E+00    5.86600E+01
 9.00000E+00    5.56900E+01
 9.50000E+00    5.31100E+01
 1.00000E+01    5.07600E+01
 1.10000E+01    4.63900E+01
 1.20000E+01    4.24100E+01
 1.30000E+01    3.89400E+01
 1.40000E+01    3.60800E+01
 1.50000E+01    3.38100E+01
 1.60000E+01    3.20300E+01
 1.70000E+01    3.05400E+01
 1.80000E+01    2.92500E+01
 1.90000E+01    2.80700E+01
 2.00000E+01    2.69500E+01
