# n + Xe131 : (n,n'07)  
# jendl4.0   S.Kunieda, A.Ichihara, K.Shibata+ EVAL-FEB22
# uncertainties: n
# # energies =    47
#   E(MeV)       xs(mb) 
 6.41899E-01    0.00000E+00
 6.50000E-01    2.25900E+01
 7.00000E-01    6.82600E+01
 7.50000E-01    1.06800E+02
 8.00000E-01    1.26600E+02
 8.50000E-01    1.29900E+02
 9.00000E-01    1.40100E+02
 9.50000E-01    1.34000E+02
 1.00000E+00    1.40300E+02
 1.20000E+00    1.29200E+02
 1.40000E+00    1.15900E+02
 1.60000E+00    1.02100E+02
 1.80000E+00    8.78000E+01
 2.00000E+00    7.40200E+01
 2.20000E+00    6.14300E+01
 2.40000E+00    5.03800E+01
 2.60000E+00    4.10800E+01
 2.80000E+00    3.34300E+01
 3.00000E+00    2.71700E+01
 3.25000E+00    2.08200E+01
 3.50000E+00    1.61400E+01
 3.75000E+00    1.23300E+01
 4.00000E+00    9.43200E+00
 4.25000E+00    7.10500E+00
 4.50000E+00    5.32100E+00
 4.75000E+00    3.92400E+00
 5.00000E+00    2.87000E+00
 5.50000E+00    1.48700E+00
 6.00000E+00    7.48600E-01
 6.50000E+00    3.71800E-01
 7.00000E+00    1.84000E-01
 7.50000E+00    9.13400E-02
 8.00000E+00    4.58500E-02
 8.50000E+00    2.33800E-02
 9.00000E+00    1.21200E-02
 9.50000E+00    6.38100E-03
 1.00000E+01    3.40800E-03
 1.10000E+01    1.00900E-03
 1.20000E+01    3.12700E-04
 1.30000E+01    1.00900E-04
 1.40000E+01    3.38800E-05
 1.50000E+01    1.17900E-05
 1.60000E+01    4.24000E-06
 1.70000E+01    1.57000E-06
 1.80000E+01    5.96800E-07
 1.90000E+01    2.32600E-07
 2.00000E+01    9.26900E-08
