# n + Xe131 : (n,n'03)  
# jendl4.0   S.Kunieda, A.Ichihara, K.Shibata+ EVAL-FEB22
# uncertainties: n
# # energies =    53
#   E(MeV)       xs(mb) 
 3.43774E-01    0.00000E+00
 3.50000E-01    5.99500E+00
 4.00000E-01    3.47900E+01
 4.50000E-01    5.53400E+01
 5.00000E-01    7.27200E+01
 5.50000E-01    8.85600E+01
 6.00000E-01    1.03300E+02
 6.50000E-01    1.11400E+02
 7.00000E-01    1.12100E+02
 7.50000E-01    1.33200E+02
 8.00000E-01    1.34700E+02
 8.50000E-01    1.26200E+02
 9.00000E-01    1.30000E+02
 9.50000E-01    1.20100E+02
 1.00000E+00    1.23800E+02
 1.20000E+00    1.09700E+02
 1.40000E+00    9.47500E+01
 1.60000E+00    7.98100E+01
 1.80000E+00    6.60300E+01
 2.00000E+00    5.40000E+01
 2.20000E+00    4.40000E+01
 2.40000E+00    3.58400E+01
 2.60000E+00    2.92500E+01
 2.80000E+00    2.39000E+01
 3.00000E+00    1.95300E+01
 3.25000E+00    1.50400E+01
 3.50000E+00    1.16900E+01
 3.75000E+00    8.93000E+00
 4.00000E+00    6.82600E+00
 4.25000E+00    5.14300E+00
 4.50000E+00    3.85900E+00
 4.75000E+00    2.86100E+00
 5.00000E+00    2.11100E+00
 5.50000E+00    1.12600E+00
 6.00000E+00    5.91100E-01
 6.50000E+00    3.08200E-01
 7.00000E+00    1.60200E-01
 7.50000E+00    8.32100E-02
 8.00000E+00    4.34000E-02
 8.50000E+00    2.28200E-02
 9.00000E+00    1.21200E-02
 9.50000E+00    6.49700E-03
 1.00000E+01    3.51800E-03
 1.10000E+01    1.06100E-03
 1.20000E+01    3.32600E-04
 1.30000E+01    1.08200E-04
 1.40000E+01    3.65400E-05
 1.50000E+01    1.28000E-05
 1.60000E+01    4.63400E-06
 1.70000E+01    1.73000E-06
 1.80000E+01    6.63300E-07
 1.90000E+01    2.60400E-07
 2.00000E+01    1.04300E-07
