# n + Xe131 : (n,tot)   
# jendl4.0   S.Kunieda, A.Ichihara, K.Shibata+ EVAL-FEB22
# uncertainties: n
# # energies =    69
#   E(MeV)       xs(mb) 
 1.00000E-10    7.33084E+05
 5.00000E-09    2.21246E+05
 1.00000E-08    1.75234E+05
 1.50000E-08    1.52314E+05
 2.00000E-08    1.37846E+05
 2.50000E-08    1.27628E+05
 3.00000E-08    1.19912E+05
 3.50000E-08    1.12839E+05
 4.20000E-08    1.05959E+05
 5.00000E-08    1.00241E+05
 5.80000E-08    9.54485E+04
 6.70000E-08    9.05840E+04
 8.00000E-08    8.50580E+04
 1.00000E-07    7.82396E+04
 1.40000E-07    7.20009E+04
 1.80000E-07    6.78152E+04
 2.20000E-07    6.50660E+04
 2.50000E-07    6.31978E+04
 2.80000E-07    6.18601E+04
 3.00000E-07    6.09227E+04
 3.20000E-07    5.98828E+04
 3.50000E-07    5.84535E+04
 4.00000E-07    5.63472E+04
 5.00000E-07    5.39805E+04
 6.25000E-07    5.19099E+04
 7.80000E-07    5.06280E+04
 8.50000E-07    5.00362E+04
 9.10000E-07    4.96279E+04
 9.50000E-07    4.93924E+04
 9.72000E-07    4.92295E+04
 9.96000E-07    4.90642E+04
 1.02000E-06    4.89038E+04
 1.04500E-06    4.87464E+04
 1.07100E-06    4.85860E+04
 1.09700E-06    4.84378E+04
 1.12300E-06    4.82960E+04
 1.15000E-06    4.78635E+04
 1.30000E-06    4.71477E+04
 1.50000E-06    4.61352E+04
 2.10000E-06    4.53875E+04
 2.60000E-06    4.55046E+04
 3.30000E-06    4.59009E+04
 4.00000E-06    6.21073E+04
 9.87700E-06    5.97952E+06
 1.59680E-05    1.76493E+05
 2.77000E-05    4.99478E+04
 4.80520E-05    2.00715E+04
 7.55014E-05    2.42210E+04
 1.48728E-04    2.09129E+04
 3.67262E-04    2.33898E+04
 9.06898E-04    9.30967E+03
 1.42510E-03    1.18291E+04
 2.23945E-03    1.35350E+04
 3.51910E-03    1.15235E+04
 5.53000E-03    9.82521E+03
 9.11800E-03    8.60620E+03
 1.50300E-02    7.67507E+03
 2.47800E-02    6.98355E+03
 4.08500E-02    6.53138E+03
 6.73400E-02    6.23999E+03
 1.11000E-01    6.08215E+03
 1.83000E-01    6.05594E+03
 3.02000E-01    6.16780E+03
 5.00000E-01    6.44770E+03
 8.21000E-01    6.71742E+03
 1.35300E+00    6.48148E+03
 2.23100E+00    5.51370E+03
 3.67900E+00    4.61781E+03
 6.06500E+00    4.40042E+03
