# n + Ti 46 : (n,n'24)  
# jeff3.3    A.J. Koning and D. Rochman        EVAL-JAN16
# uncertainties: n
# # energies =    82
#   E(MeV)       xs(mb) 
 3.91042E+00    0.00000E+00
 3.92940E+00    4.17816E-01
 3.93246E+00    4.85180E-01
 3.93700E+00    5.85120E-01
 3.93900E+00    6.29144E-01
 3.94064E+00    6.41481E-01
 3.95699E+00    7.64473E-01
 3.96100E+00    7.94637E-01
 3.97467E+00    9.12299E-01
 4.03400E+00    1.42297E+00
 4.14300E+00    2.34212E+00
 4.25700E+00    3.21952E+00
 4.34500E+00    3.83153E+00
 4.43700E+00    4.41279E+00
 4.50000E+00    4.77935E+00
 4.62100E+00    5.40369E+00
 4.70100E+00    5.76156E+00
 4.80000E+00    6.13984E+00
 4.82200E+00    6.21380E+00
 4.92400E+00    6.51167E+00
 5.00000E+00    6.68453E+00
 5.06000E+00    6.78889E+00
 5.10600E+00    6.85426E+00
 5.18500E+00    6.92893E+00
 5.20000E+00    6.93862E+00
 5.26700E+00    6.96031E+00
 5.31200E+00    6.96182E+00
 5.40000E+00    6.92818E+00
 5.41300E+00    6.91963E+00
 5.50000E+00    6.83961E+00
 5.51000E+00    6.82834E+00
 5.60000E+00    6.70678E+00
 5.67100E+00    6.58600E+00
 5.75200E+00    6.43199E+00
 5.79100E+00    6.35315E+00
 5.84100E+00    6.24437E+00
 5.91300E+00    6.08006E+00
 6.00000E+00    5.87066E+00
 6.20000E+00    5.36810E+00
 6.50000E+00    4.59773E+00
 6.60000E+00    4.35518E+00
 6.84570E+00    3.78913E+00
 7.00000E+00    3.45993E+00
 7.40000E+00    2.72540E+00
 7.50000E+00    2.56733E+00
 7.62220E+00    2.38394E+00
 7.74360E+00    2.21564E+00
 8.00000E+00    1.90097E+00
 8.50000E+00    1.41835E+00
 9.00000E+00    1.05873E+00
 9.50000E+00    7.97727E-01
 1.00000E+01    6.07899E-01
 1.05000E+01    4.69153E-01
 1.10000E+01    3.67293E-01
 1.15000E+01    2.92732E-01
 1.20000E+01    2.38199E-01
 1.25000E+01    1.98305E-01
 1.30000E+01    1.69184E-01
 1.35000E+01    1.47901E-01
 1.40000E+01    1.32485E-01
 1.45000E+01    1.21337E-01
 1.50000E+01    1.13351E-01
 1.55000E+01    1.07681E-01
 1.60000E+01    1.03697E-01
 1.65000E+01    1.00935E-01
 1.70000E+01    9.90582E-02
 1.75000E+01    9.78099E-02
 1.80000E+01    9.70010E-02
 1.85000E+01    9.64947E-02
 1.90000E+01    9.61939E-02
 1.95000E+01    9.60185E-02
 2.00000E+01    9.59320E-02
 2.10000E+01    9.58578E-02
 2.20000E+01    9.57760E-02
 2.30000E+01    9.56155E-02
 2.40000E+01    9.53456E-02
 2.50000E+01    9.49616E-02
 2.60000E+01    9.44684E-02
 2.70000E+01    9.38719E-02
 2.80000E+01    9.31784E-02
 2.90000E+01    9.23936E-02
 3.00000E+01    9.15233E-02
