# n + Ti 46 : (n,n'23)  
# jeff3.3    A.J. Koning and D. Rochman        EVAL-JAN16
# uncertainties: n
# # energies =    86
#   E(MeV)       xs(mb) 
 3.85428E+00    0.00000E+00
 3.85900E+00    4.12518E-01
 3.88600E+00    8.56845E-01
 3.90000E+00    1.01847E+00
 3.91042E+00    1.08274E+00
 3.92940E+00    1.19981E+00
 3.93246E+00    1.21868E+00
 3.93700E+00    1.24669E+00
 3.93900E+00    1.25902E+00
 3.94064E+00    1.26903E+00
 3.95699E+00    1.36885E+00
 3.96100E+00    1.39333E+00
 3.97467E+00    1.51109E+00
 4.03400E+00    2.02219E+00
 4.14300E+00    2.94412E+00
 4.25700E+00    3.82043E+00
 4.34500E+00    4.43233E+00
 4.43700E+00    5.01108E+00
 4.50000E+00    5.37343E+00
 4.62100E+00    5.98400E+00
 4.70100E+00    6.32776E+00
 4.80000E+00    6.68262E+00
 4.82200E+00    6.74986E+00
 4.92400E+00    7.01602E+00
 5.00000E+00    7.16309E+00
 5.06000E+00    7.24448E+00
 5.10600E+00    7.29260E+00
 5.18500E+00    7.33647E+00
 5.20000E+00    7.34001E+00
 5.26700E+00    7.33455E+00
 5.31200E+00    7.31865E+00
 5.40000E+00    7.25142E+00
 5.41300E+00    7.23789E+00
 5.50000E+00    7.12638E+00
 5.51000E+00    7.11158E+00
 5.60000E+00    6.95994E+00
 5.67100E+00    6.81687E+00
 5.75200E+00    6.63974E+00
 5.79100E+00    6.55063E+00
 5.84100E+00    6.42920E+00
 5.91300E+00    6.24808E+00
 6.00000E+00    6.02050E+00
 6.20000E+00    5.48368E+00
 6.50000E+00    4.67690E+00
 6.60000E+00    4.42598E+00
 6.84570E+00    3.84296E+00
 7.00000E+00    3.50582E+00
 7.40000E+00    2.75673E+00
 7.50000E+00    2.59595E+00
 7.62220E+00    2.40972E+00
 7.74360E+00    2.23885E+00
 8.00000E+00    1.91986E+00
 8.50000E+00    1.43114E+00
 9.00000E+00    1.06744E+00
 9.50000E+00    8.03712E-01
 1.00000E+01    6.12021E-01
 1.05000E+01    4.71991E-01
 1.10000E+01    3.69242E-01
 1.15000E+01    2.94071E-01
 1.20000E+01    2.39128E-01
 1.25000E+01    1.98959E-01
 1.30000E+01    1.69659E-01
 1.35000E+01    1.48260E-01
 1.40000E+01    1.32770E-01
 1.45000E+01    1.21575E-01
 1.50000E+01    1.13562E-01
 1.55000E+01    1.07876E-01
 1.60000E+01    1.03882E-01
 1.65000E+01    1.01115E-01
 1.70000E+01    9.92346E-02
 1.75000E+01    9.79829E-02
 1.80000E+01    9.71704E-02
 1.85000E+01    9.66599E-02
 1.90000E+01    9.63541E-02
 1.95000E+01    9.61735E-02
 2.00000E+01    9.60816E-02
 2.10000E+01    9.59972E-02
 2.20000E+01    9.59070E-02
 2.30000E+01    9.57405E-02
 2.40000E+01    9.54662E-02
 2.50000E+01    9.50788E-02
 2.60000E+01    9.45822E-02
 2.70000E+01    9.39822E-02
 2.80000E+01    9.32843E-02
 2.90000E+01    9.24945E-02
 3.00000E+01    9.16188E-02
