# n + Os188 : (n,p)m    
# jendl.ad   N.Iwamoto                         EVAL-Apr14
# uncertainties: n
# # energies =    37
#   E(MeV)       xs(mb) 
 1.51810E+00    0.00000E+00
 2.75000E+00    4.19410E-18
 3.00000E+00    9.60630E-16
 3.50000E+00    1.63060E-12
 4.00000E+00    2.02820E-10
 4.50000E+00    5.87030E-09
 5.00000E+00    6.98840E-08
 5.50000E+00    4.74140E-07
 6.00000E+00    2.29592E-06
 6.50000E+00    9.30248E-06
 7.00000E+00    3.45288E-05
 7.50000E+00    1.18559E-04
 8.00000E+00    3.70301E-04
 8.50000E+00    1.04093E-03
 9.00000E+00    2.63238E-03
 9.50000E+00    6.01972E-03
 1.00000E+01    1.25361E-02
 1.05000E+01    2.39531E-02
 1.10000E+01    4.23356E-02
 1.15000E+01    6.99008E-02
 1.20000E+01    1.08544E-01
 1.25000E+01    1.60108E-01
 1.30000E+01    2.26120E-01
 1.35000E+01    3.07819E-01
 1.40000E+01    4.05972E-01
 1.45000E+01    5.22948E-01
 1.50000E+01    6.35680E-01
 1.55000E+01    7.77060E-01
 1.60000E+01    9.29236E-01
 1.65000E+01    1.08964E+00
 1.70000E+01    1.25205E+00
 1.75000E+01    1.41292E+00
 1.80000E+01    1.56879E+00
 1.85000E+01    1.71683E+00
 1.90000E+01    1.85495E+00
 1.95000E+01    1.98225E+00
 2.00000E+01    2.09665E+00
