# n + Os188 : (n,t)g    
# jendl.ad   N.Iwamoto                         EVAL-Apr14
# uncertainties: n
# # energies =    28
#   E(MeV)       xs(mb) 
 6.11738E+00    0.00000E+00
 6.26718E+00    1.95700E-27
 7.50000E+00    1.80620E-26
 8.00000E+00    2.86940E-20
 8.50000E+00    3.24440E-16
 9.00000E+00    2.46980E-13
 9.50000E+00    3.53080E-11
 1.00000E+01    1.64300E-09
 1.05000E+01    3.45540E-08
 1.10000E+01    4.06310E-07
 1.15000E+01    3.09288E-06
 1.20000E+01    1.69194E-05
 1.25000E+01    7.17712E-05
 1.30000E+01    2.49313E-04
 1.35000E+01    7.25972E-04
 1.40000E+01    1.88491E-03
 1.45000E+01    4.35224E-03
 1.50000E+01    9.03193E-03
 1.55000E+01    1.70480E-02
 1.60000E+01    2.95146E-02
 1.65000E+01    4.73570E-02
 1.70000E+01    7.11782E-02
 1.75000E+01    1.01220E-01
 1.80000E+01    1.37395E-01
 1.85000E+01    1.78091E-01
 1.90000E+01    2.25212E-01
 1.95000E+01    2.76788E-01
 2.00000E+01    3.31840E-01
