# n + Os188 : (n,xp)    
# jendl.ad   N.Iwamoto                         EVAL-Apr14
# 
# # energies =   114
#   E(MeV)        xs(mb) 
 1.05000E-01    0.00000E+00
 1.10000E-01    0.00000E+00
 1.20000E-01    0.00000E+00
 1.30000E-01    0.00000E+00
 1.40000E-01    0.00000E+00
 1.50000E-01    0.00000E+00
 1.55853E-01    0.00000E+00
 1.60000E-01    0.00000E+00
 1.70000E-01    0.00000E+00
 1.80000E-01    0.00000E+00
 1.90000E-01    0.00000E+00
 2.00000E-01    0.00000E+00
 2.25000E-01    0.00000E+00
 2.50000E-01    0.00000E+00
 2.75000E-01    0.00000E+00
 3.00000E-01    0.00000E+00
 4.00000E-01    0.00000E+00
 4.80505E-01    0.00000E+00
 5.00000E-01    0.00000E+00
 6.00000E-01    0.00000E+00
 6.36412E-01    0.00000E+00
 7.00000E-01    0.00000E+00
 7.94219E-01    0.00000E+00
 8.00000E-01    0.00000E+00
 9.00000E-01    0.00000E+00
 9.45356E-01    0.00000E+00
 9.70832E-01    0.00000E+00
 1.00000E+00    0.00000E+00
 1.09219E+00    0.00000E+00
 1.10000E+00    0.00000E+00
 1.18720E+00    0.00000E+00
 1.20000E+00    0.00000E+00
 1.28595E+00    0.00000E+00
 1.30000E+00    0.00000E+00
 1.31182E+00    0.00000E+00
 1.40000E+00    8.79084E-19
 1.42137E+00    1.22133E-18
 1.43249E+00    1.39942E-18
 1.45125E+00    1.69987E-18
 1.46535E+00    1.92569E-18
 1.47036E+00    2.00593E-18
 1.48597E+00    2.25593E-18
 1.50000E+00    2.48062E-18
 1.52283E+00    2.86236E-18
 1.52424E+00    2.88974E-18
 1.57511E+00    3.87763E-18
 1.58546E+00    4.07863E-18
 1.60000E+00    4.36100E-18
 1.62918E+00    4.92767E-18
 1.67761E+00    5.86818E-18
 1.67762E+00    5.86838E-18
 1.69433E+00    6.19289E-18
 1.69454E+00    6.19697E-18
 1.69455E+00    6.19716E-18
 1.70000E+00    6.30300E-18
 1.71342E+00    6.56361E-18
 1.73870E+00    7.05455E-18
 1.75587E+00    7.38799E-18
 1.77487E+00    7.75697E-18
 1.78050E+00    7.86631E-18
 1.80000E+00    8.24500E-18
 1.81731E+00    8.58116E-18
 1.83473E+00    8.91946E-18
 1.85281E+00    9.27057E-18
 1.86495E+00    9.50633E-18
 1.86496E+00    9.50652E-18
 1.88798E+00    9.95357E-18
 1.90000E+00    1.01870E-17
 1.90316E+00    1.02484E-17
 1.94729E+00    1.11054E-17
 1.95144E+00    1.11860E-17
 1.95906E+00    1.13339E-17
 1.96759E+00    1.14996E-17
 1.97552E+00    1.16536E-17
 1.97553E+00    1.16538E-17
 2.00000E+00    1.21290E-17
 2.25000E+00    1.69840E-17
 2.50000E+00    2.18390E-17
 2.75000E+00    8.90270E-15
 3.00000E+00    8.58160E-13
 3.50000E+00    5.47020E-10
 4.00000E+00    3.91860E-08
 4.50000E+00    7.70430E-07
 5.00000E+00    6.59112E-06
 5.50000E+00    3.22305E-05
 6.00000E+00    1.08411E-04
 6.50000E+00    2.91715E-04
 7.00000E+00    7.26095E-04
 7.50000E+00    1.82867E-03
 8.00000E+00    4.68625E-03
 8.50000E+00    1.17395E-02
 9.00000E+00    2.77473E-02
 9.50000E+00    6.08100E-02
 1.00000E+01    1.23016E-01
 1.05000E+01    2.30182E-01
 1.10000E+01    4.00604E-01
 1.15000E+01    6.53093E-01
 1.20000E+01    1.00599E+00
 1.25000E+01    1.47545E+00
 1.30000E+01    2.07566E+00
 1.35000E+01    2.81877E+00
 1.40000E+01    3.71487E+00
 1.45000E+01    4.76737E+00
 1.50000E+01    6.02801E+00
 1.55000E+01    7.42755E+00
 1.60000E+01    8.99706E+00
 1.65000E+01    1.07333E+01
 1.70000E+01    1.26343E+01
 1.75000E+01    1.46916E+01
 1.80000E+01    1.68993E+01
 1.85000E+01    1.92503E+01
 1.90000E+01    2.17374E+01
 1.95000E+01    2.43528E+01
 2.00000E+01    2.70922E+01
