# n + Os188 : (n,2na)   
# jendl.ad   N.Iwamoto                         EVAL-Apr14
# uncertainties: n
# # energies =    26
#   E(MeV)       xs(mb) 
 7.50000E+00    0.00000E+00
 8.00000E+00    6.98740E-34
 8.50000E+00    1.44100E-28
 9.00000E+00    9.66860E-21
 9.50000E+00    1.32800E-17
 1.00000E+01    2.88410E-15
 1.05000E+01    3.82210E-13
 1.10000E+01    2.35640E-11
 1.15000E+01    7.82350E-10
 1.20000E+01    1.55590E-08
 1.25000E+01    2.00460E-07
 1.30000E+01    1.78500E-06
 1.35000E+01    1.15932E-05
 1.40000E+01    5.75224E-05
 1.45000E+01    2.27960E-04
 1.50000E+01    6.99794E-04
 1.55000E+01    1.50258E-03
 1.60000E+01    2.54959E-03
 1.65000E+01    3.81655E-03
 1.70000E+01    5.41621E-03
 1.75000E+01    7.53020E-03
 1.80000E+01    1.04667E-02
 1.85000E+01    1.46532E-02
 1.90000E+01    2.06230E-02
 1.95000E+01    2.90164E-02
 2.00000E+01    4.06369E-02
