# n + Os188 : (n,g)     
# jendl.ad   N.Iwamoto                         EVAL-Apr14
# uncertainties: n
# # energies =   171
#   E(MeV)       xs(mb) 
 1.00000E-11    5.97582E+04
 1.00000E-07    1.93256E+03
 4.13990E-07    1.21741E+03
 5.31580E-07    1.06666E+03
 6.82560E-07    9.35883E+02
 8.76420E-07    8.22291E+02
 1.12540E-06    7.24709E+02
 1.44500E-06    6.41350E+02
 1.85540E-06    5.70799E+02
 2.37240E-06    5.10626E+02
 3.05900E-06    4.60092E+02
 3.92790E-06    4.18814E+02
 5.04350E-06    3.86234E+02
 6.47600E-06    3.62257E+02
 8.31530E-06    3.48167E+02
 1.06770E-05    3.47051E+02
 1.37100E-05    3.67051E+02
 1.76030E-05    4.33612E+02
 2.26030E-05    6.75414E+02
 2.92030E-05    4.62170E+03
 3.72670E-05    2.82407E+05
 4.78510E-05    8.70262E+02
 6.14420E-05    1.41488E+05
 7.88930E-05    3.79137E+04
 1.01300E-04    2.79802E+02
 1.30070E-04    3.83270E+04
 1.67020E-04    2.10678E+04
 2.14450E-04    9.96346E+03
 2.75360E-04    1.47249E+04
 3.53580E-04    8.17395E+03
 4.54000E-04    1.16219E+04
 5.82950E-04    6.97530E+03
 7.48520E-04    6.09571E+03
 9.61120E-04    4.45470E+03
 1.23410E-03    3.09859E+03
 1.58460E-03    2.74320E+03
 2.03470E-03    1.83320E+03
 2.24870E-03    2.44900E+03
 2.48520E-03    2.42955E+03
 2.61260E-03    7.43227E+02
 2.74650E-03    1.14521E+03
 3.03540E-03    2.07332E+03
 3.35460E-03    1.24470E+03
 3.70740E-03    1.10351E+03
 4.30740E-03    9.63083E+02
 5.53080E-03    6.85060E+02
 7.10170E-03    5.88818E+02
 9.11880E-03    5.13680E+02
 1.17090E-02    4.56280E+02
 1.50340E-02    4.06006E+02
 1.93050E-02    3.72706E+02
 2.18750E-02    3.58054E+02
 2.35790E-02    3.51001E+02
 2.41760E-02    3.47705E+02
 2.47880E-02    3.42689E+02
 2.60580E-02    3.36777E+02
 2.70000E-02    3.31008E+02
 2.85000E-02    3.20712E+02
 3.18280E-02    3.10980E+02
 3.43070E-02    2.98744E+02
 4.08680E-02    2.86143E+02
 4.63090E-02    2.77259E+02
 5.24750E-02    2.71556E+02
 5.65620E-02    2.65118E+02
 6.73790E-02    2.59804E+02
 7.20000E-02    2.56755E+02
 7.95000E-02    2.54322E+02
 8.25000E-02    2.53070E+02
 8.65170E-02    2.50584E+02
 9.80370E-02    2.47210E+02
 1.11090E-01    2.45214E+02
 1.16790E-01    2.44499E+02
 1.22770E-01    2.43242E+02
 1.29070E-01    2.41881E+02
 1.35690E-01    2.40573E+02
 1.42640E-01    2.39332E+02
 1.49960E-01    2.33996E+02
 1.57640E-01    1.65335E+02
 1.65730E-01    1.47001E+02
 1.74220E-01    1.37642E+02
 1.83160E-01    1.30388E+02
 1.92550E-01    1.24320E+02
 2.02420E-01    1.19674E+02
 2.12800E-01    1.15466E+02
 2.23710E-01    1.11686E+02
 2.35180E-01    1.08372E+02
 2.47240E-01    1.04109E+02
 2.73240E-01    1.00502E+02
 2.87250E-01    9.89773E+01
 2.94520E-01    9.82762E+01
 2.97200E-01    9.79963E+01
 2.98500E-01    9.77080E+01
 3.01970E-01    9.66931E+01
 3.33730E-01    9.48021E+01
 3.68830E-01    9.33859E+01
 3.87740E-01    9.25179E+01
 4.07620E-01    9.27432E+01
 4.50490E-01    9.32303E+01
 4.97870E-01    9.25128E+01
 5.23400E-01    9.23852E+01
 5.50230E-01    9.22554E+01
 5.78440E-01    9.21546E+01
 6.08100E-01    9.27269E+01
 6.39280E-01    8.98450E+01
 6.72060E-01    8.44386E+01
 7.06510E-01    8.22206E+01
 7.42740E-01    8.15469E+01
 7.80820E-01    7.99527E+01
 8.20850E-01    7.84577E+01
 8.62940E-01    7.75226E+01
 9.07180E-01    7.73755E+01
 9.61640E-01    7.75506E+01
 1.00260E+00    7.81872E+01
 1.10800E+00    7.86764E+01
 1.16480E+00    7.96642E+01
 1.22460E+00    8.14281E+01
 1.28730E+00    8.30060E+01
 1.35340E+00    8.29958E+01
 1.42270E+00    7.97448E+01
 1.49570E+00    7.41869E+01
 1.57240E+00    7.23643E+01
 1.65300E+00    7.02133E+01
 1.73770E+00    6.77187E+01
 1.82680E+00    6.57601E+01
 1.92050E+00    6.52145E+01
 2.01900E+00    6.48683E+01
 2.12250E+00    6.47413E+01
 2.23130E+00    6.39864E+01
 2.30690E+00    6.22488E+01
 2.34570E+00    6.13267E+01
 2.36530E+00    6.07039E+01
 2.38520E+00    5.92353E+01
 2.46600E+00    5.66608E+01
 2.59240E+00    5.43684E+01
 2.72530E+00    5.11269E+01
 2.86500E+00    4.61229E+01
 3.01190E+00    4.17147E+01
 3.16640E+00    3.77975E+01
 3.32870E+00    3.24422E+01
 3.67880E+00    2.53740E+01
 4.06570E+00    1.90105E+01
 4.49330E+00    1.47894E+01
 4.72370E+00    1.22485E+01
 4.96590E+00    1.00003E+01
 5.22050E+00    7.96420E+00
 5.48810E+00    6.23445E+00
 5.76950E+00    4.77694E+00
 6.06530E+00    3.63533E+00
 6.37630E+00    2.88761E+00
 6.59240E+00    2.54696E+00
 6.70320E+00    2.17297E+00
 7.04690E+00    1.75081E+00
 7.40820E+00    1.45938E+00
 7.78800E+00    1.28012E+00
 8.18730E+00    1.18574E+00
 8.60710E+00    1.14904E+00
 9.04840E+00    1.14760E+00
 9.51230E+00    1.16118E+00
 1.00000E+01    1.17063E+00
 1.05130E+01    1.17783E+00
 1.10520E+01    1.18411E+00
 1.16180E+01    1.17327E+00
 1.22140E+01    1.13677E+00
 1.28400E+01    1.07048E+00
 1.34990E+01    1.00334E+00
 1.38400E+01    9.51607E-01
 1.41910E+01    8.93027E-01
 1.45500E+01    8.29301E-01
 1.49180E+01    7.29492E-01
 1.56830E+01    6.02592E-01
 1.64870E+01    4.95821E-01
