# n + Os188 : (n,2na)m  
# jendl.ad   N.Iwamoto                         EVAL-Apr14
# uncertainties: n
# # energies =    26
#   E(MeV)       xs(mb) 
 5.60505E+00    0.00000E+00
 8.00000E+00    0.00000E+00
 8.50000E+00    1.14480E-31
 9.00000E+00    1.16000E-22
 9.50000E+00    1.52250E-19
 1.00000E+01    5.67040E-17
 1.05000E+01    1.16060E-14
 1.10000E+01    9.89940E-13
 1.15000E+01    4.22080E-11
 1.20000E+01    1.01180E-09
 1.25000E+01    1.49750E-08
 1.30000E+01    1.47820E-07
 1.35000E+01    1.03623E-06
 1.40000E+01    5.43600E-06
 1.45000E+01    2.23750E-05
 1.50000E+01    7.29827E-05
 1.55000E+01    1.72255E-04
 1.60000E+01    3.14473E-04
 1.65000E+01    4.92695E-04
 1.70000E+01    7.14496E-04
 1.75000E+01    1.00009E-03
 1.80000E+01    1.38651E-03
 1.85000E+01    1.92662E-03
 1.90000E+01    2.68097E-03
 1.95000E+01    3.71662E-03
 2.00000E+01    5.11159E-03
