# n + Os188 : (n,tot)   
# jendl.ad   N.Iwamoto                         EVAL-Apr14
# uncertainties: n
# # energies =   171
#   E(MeV)       xs(mb) 
 1.00000E-11    5.97790E+04
 1.00000E-07    1.93255E+03
 4.13990E-07    1.21774E+03
 5.31580E-07    1.06678E+03
 6.82560E-07    9.36143E+02
 8.76420E-07    8.22367E+02
 1.12540E-06    7.24698E+02
 1.44500E-06    6.41205E+02
 1.85540E-06    5.70645E+02
 2.37240E-06    5.10399E+02
 3.05900E-06    4.59868E+02
 3.92790E-06    4.18626E+02
 5.04350E-06    3.86167E+02
 6.47600E-06    3.62143E+02
 8.31530E-06    3.47987E+02
 1.06770E-05    3.46928E+02
 1.37100E-05    3.66915E+02
 1.76030E-05    4.33507E+02
 2.26030E-05    6.75358E+02
 2.92030E-05    4.62077E+03
 3.72670E-05    2.82422E+05
 4.78510E-05    8.70190E+02
 6.14420E-05    1.41495E+05
 7.88930E-05    3.79067E+04
 1.01300E-04    2.79777E+02
 1.30070E-04    3.83272E+04
 1.67020E-04    2.10681E+04
 2.14450E-04    9.96418E+03
 2.75360E-04    1.47256E+04
 3.53580E-04    8.17351E+03
 4.54000E-04    1.16221E+04
 5.82950E-04    6.97560E+03
 7.48520E-04    6.09570E+03
 9.61120E-04    4.45495E+03
 1.23410E-03    3.09880E+03
 1.58460E-03    2.74335E+03
 2.03470E-03    1.83335E+03
 2.24870E-03    2.44915E+03
 2.48520E-03    2.42973E+03
 2.61260E-03    7.43267E+02
 2.74650E-03    1.14538E+03
 3.03540E-03    2.07355E+03
 3.35460E-03    1.24480E+03
 3.70740E-03    1.10371E+03
 4.30740E-03    9.63278E+02
 5.53080E-03    6.85184E+02
 7.10170E-03    5.88980E+02
 9.11880E-03    5.13861E+02
 1.17090E-02    4.56469E+02
 1.50340E-02    4.06154E+02
 1.93050E-02    3.72785E+02
 2.18750E-02    3.58119E+02
 2.35790E-02    3.51049E+02
 2.41760E-02    3.47747E+02
 2.47880E-02    3.42791E+02
 2.60580E-02    3.37107E+02
 2.70000E-02    3.31055E+02
 2.85000E-02    3.20732E+02
 3.18280E-02    3.10998E+02
 3.43070E-02    2.98857E+02
 4.08680E-02    2.86170E+02
 4.63090E-02    2.77260E+02
 5.24750E-02    2.71556E+02
 5.65620E-02    2.65118E+02
 6.73790E-02    2.59804E+02
 7.20000E-02    2.56755E+02
 7.95000E-02    2.54322E+02
 8.25000E-02    2.53070E+02
 8.65170E-02    2.50584E+02
 9.80370E-02    2.47210E+02
 1.11090E-01    2.45215E+02
 1.16790E-01    2.44499E+02
 1.22770E-01    2.43242E+02
 1.29070E-01    2.41881E+02
 1.35690E-01    2.40573E+02
 1.42640E-01    2.39333E+02
 1.49960E-01    2.33978E+02
 1.57640E-01    1.65364E+02
 1.65730E-01    1.47003E+02
 1.74220E-01    1.37643E+02
 1.83160E-01    1.30388E+02
 1.92550E-01    1.24318E+02
 2.02420E-01    1.19617E+02
 2.12800E-01    1.15458E+02
 2.23710E-01    1.11648E+02
 2.35180E-01    1.08320E+02
 2.47240E-01    1.04063E+02
 2.73240E-01    1.00485E+02
 2.87250E-01    9.89774E+01
 2.94520E-01    9.82762E+01
 2.97200E-01    9.79963E+01
 2.98500E-01    9.77070E+01
 3.01970E-01    9.66601E+01
 3.33730E-01    9.47658E+01
 3.68830E-01    9.33858E+01
 3.87740E-01    9.25179E+01
 4.07620E-01    9.27432E+01
 4.50490E-01    9.32304E+01
 4.97870E-01    9.25127E+01
 5.23400E-01    9.23850E+01
 5.50230E-01    9.22552E+01
 5.78440E-01    9.21546E+01
 6.08100E-01    9.27267E+01
 6.39280E-01    8.98126E+01
 6.72060E-01    8.44387E+01
 7.06510E-01    8.22206E+01
 7.42740E-01    8.15469E+01
 7.80820E-01    7.99527E+01
 8.20850E-01    7.84571E+01
 8.62940E-01    7.75224E+01
 9.07180E-01    7.73756E+01
 9.61640E-01    7.75506E+01
 1.00260E+00    7.81870E+01
 1.10800E+00    7.86439E+01
 1.16480E+00    7.96495E+01
 1.22460E+00    8.14606E+01
 1.28730E+00    8.30189E+01
 1.35340E+00    8.29959E+01
 1.42270E+00    7.97519E+01
 1.49570E+00    7.41667E+01
 1.57240E+00    7.23549E+01
 1.65300E+00    7.01991E+01
 1.73770E+00    6.76856E+01
 1.82680E+00    6.57521E+01
 1.92050E+00    6.52111E+01
 2.01900E+00    6.48688E+01
 2.12250E+00    6.47420E+01
 2.23130E+00    6.39783E+01
 2.30690E+00    6.22177E+01
 2.34570E+00    6.12833E+01
 2.36530E+00    6.06680E+01
 2.38520E+00    5.92358E+01
 2.46600E+00    5.66503E+01
 2.59240E+00    5.43552E+01
 2.72530E+00    5.11272E+01
 2.86500E+00    4.61258E+01
 3.01190E+00    4.16995E+01
 3.16640E+00    3.77857E+01
 3.32870E+00    3.24389E+01
 3.67880E+00    2.53714E+01
 4.06570E+00    1.90129E+01
 4.49330E+00    1.47933E+01
 4.72370E+00    1.22549E+01
 4.96590E+00    1.00050E+01
 5.22050E+00    7.96898E+00
 5.48810E+00    6.23965E+00
 5.76950E+00    4.78307E+00
 6.06530E+00    3.64312E+00
 6.37630E+00    9.58337E+02
 6.59240E+00    2.71468E+03
 6.70320E+00    2.69948E+03
 7.04690E+00    2.67910E+03
 7.40820E+00    2.66177E+03
 7.78800E+00    2.64427E+03
 8.18730E+00    2.63735E+03
 8.60710E+00    2.63536E+03
 9.04840E+00    2.63109E+03
 9.51230E+00    2.62610E+03
 1.00000E+01    2.61877E+03
 1.05130E+01    2.60825E+03
 1.10520E+01    2.59461E+03
 1.16180E+01    2.57856E+03
 1.22140E+01    2.56120E+03
 1.28400E+01    2.54376E+03
 1.34990E+01    2.53123E+03
 1.38400E+01    2.52330E+03
 1.41910E+01    2.51627E+03
 1.45500E+01    2.50948E+03
 1.49180E+01    2.49877E+03
 1.56830E+01    2.48592E+03
 1.64870E+01    2.47263E+03
