# n + Tl203 : (n,n'07)  
# jeff3.3    A.J. Koning and D. Rochman        EVAL-DEC15
# uncertainties: n
# # energies =    88
#   E(MeV)       xs(mb) 
 1.11934E+00    0.00000E+00
 1.19017E+00    4.22041E+01
 1.20000E+00    4.80613E+01
 1.22163E+00    5.15867E+01
 1.22369E+00    5.19225E+01
 1.23310E+00    5.34562E+01
 1.23848E+00    5.43330E+01
 1.27933E+00    6.09911E+01
 1.30033E+00    6.44138E+01
 1.31227E+00    6.63599E+01
 1.32670E+00    6.87118E+01
 1.34153E+00    7.11289E+01
 1.39289E+00    7.94999E+01
 1.40000E+00    8.06587E+01
 1.41419E+00    8.09989E+01
 1.43952E+00    8.16061E+01
 1.45524E+00    8.19829E+01
 1.45683E+00    8.20211E+01
 1.49567E+00    8.29521E+01
 1.57667E+00    8.48939E+01
 1.60000E+00    8.54532E+01
 1.61906E+00    8.46627E+01
 1.62604E+00    8.43732E+01
 1.64704E+00    8.35022E+01
 1.66523E+00    8.27477E+01
 1.67754E+00    8.22371E+01
 1.69210E+00    8.16332E+01
 1.80000E+00    7.71579E+01
 2.00000E+00    6.53484E+01
 2.20000E+00    5.45958E+01
 2.40000E+00    4.57489E+01
 2.60000E+00    3.86073E+01
 2.80000E+00    3.27426E+01
 3.00000E+00    2.78014E+01
 3.20000E+00    2.35342E+01
 3.40000E+00    1.98296E+01
 3.60000E+00    1.66399E+01
 3.80000E+00    1.39294E+01
 4.00000E+00    1.16757E+01
 4.20000E+00    9.82237E+00
 4.40000E+00    8.31190E+00
 4.60000E+00    7.08551E+00
 4.80000E+00    6.09324E+00
 5.00000E+00    5.28983E+00
 5.20000E+00    4.63779E+00
 5.40000E+00    4.10745E+00
 5.60000E+00    3.66809E+00
 5.80000E+00    3.31070E+00
 6.00000E+00    3.01080E+00
 6.20000E+00    2.76157E+00
 6.40000E+00    2.54766E+00
 6.60000E+00    2.36567E+00
 6.80000E+00    2.20900E+00
 7.00000E+00    2.07298E+00
 7.20000E+00    1.95605E+00
 7.40000E+00    1.85437E+00
 7.60000E+00    1.76660E+00
 7.80000E+00    1.69085E+00
 8.00000E+00    1.62536E+00
 8.50000E+00    1.49867E+00
 9.00000E+00    1.40948E+00
 9.50000E+00    1.34215E+00
 1.00000E+01    1.28524E+00
 1.05000E+01    1.23210E+00
 1.10000E+01    1.18024E+00
 1.15000E+01    1.12966E+00
 1.20000E+01    1.08129E+00
 1.25000E+01    1.03613E+00
 1.30000E+01    9.94705E-01
 1.35000E+01    9.56988E-01
 1.40000E+01    9.22501E-01
 1.45000E+01    8.90473E-01
 1.50000E+01    8.60050E-01
 1.60000E+01    8.01436E-01
 1.70000E+01    7.44356E-01
 1.80000E+01    6.90500E-01
 1.90000E+01    6.42785E-01
 2.00000E+01    6.02885E-01
 2.10000E+01    5.70472E-01
 2.20000E+01    5.43796E-01
 2.30000E+01    5.20647E-01
 2.40000E+01    4.99122E-01
 2.50000E+01    4.77987E-01
 2.60000E+01    4.56917E-01
 2.70000E+01    4.36426E-01
 2.80000E+01    4.17420E-01
 2.90000E+01    4.00637E-01
 3.00000E+01    3.86347E-01
