# n + Tl203 : (n,n'11)  
# jeff3.3    A.J. Koning and D. Rochman        EVAL-DEC15
# uncertainties: n
# # energies =    83
#   E(MeV)       xs(mb) 
 1.23310E+00    0.00000E+00
 1.23848E+00    1.21579E+00
 1.27933E+00    1.04474E+01
 1.30033E+00    1.51931E+01
 1.31227E+00    1.78914E+01
 1.32670E+00    2.11524E+01
 1.34153E+00    2.45037E+01
 1.39289E+00    3.61104E+01
 1.40000E+00    3.77172E+01
 1.41419E+00    3.90753E+01
 1.43952E+00    4.14997E+01
 1.45524E+00    4.30042E+01
 1.45683E+00    4.31564E+01
 1.49567E+00    4.68738E+01
 1.57667E+00    5.46264E+01
 1.60000E+00    5.68593E+01
 1.61906E+00    5.74618E+01
 1.62604E+00    5.76824E+01
 1.64704E+00    5.83462E+01
 1.66523E+00    5.89211E+01
 1.67754E+00    5.93102E+01
 1.69210E+00    5.97705E+01
 1.80000E+00    6.31810E+01
 2.00000E+00    5.94648E+01
 2.20000E+00    5.23630E+01
 2.40000E+00    4.49958E+01
 2.60000E+00    3.84495E+01
 2.80000E+00    3.28565E+01
 3.00000E+00    2.80430E+01
 3.20000E+00    2.37801E+01
 3.40000E+00    1.99412E+01
 3.60000E+00    1.65100E+01
 3.80000E+00    1.34958E+01
 4.00000E+00    1.09240E+01
 4.20000E+00    8.77053E+00
 4.40000E+00    6.99617E+00
 4.60000E+00    5.54875E+00
 4.80000E+00    4.38017E+00
 5.00000E+00    3.44291E+00
 5.20000E+00    2.69579E+00
 5.40000E+00    2.10485E+00
 5.60000E+00    1.63206E+00
 5.80000E+00    1.26845E+00
 6.00000E+00    9.80491E-01
 6.20000E+00    7.60201E-01
 6.40000E+00    5.86175E-01
 6.60000E+00    4.52489E-01
 6.80000E+00    3.49138E-01
 7.00000E+00    2.68572E-01
 7.20000E+00    2.07588E-01
 7.40000E+00    1.60028E-01
 7.60000E+00    1.23767E-01
 7.80000E+00    9.59064E-02
 8.00000E+00    7.42555E-02
 8.50000E+00    3.96330E-02
 9.00000E+00    2.12870E-02
 9.50000E+00    1.14808E-02
 1.00000E+01    6.20844E-03
 1.05000E+01    3.36353E-03
 1.10000E+01    1.82591E-03
 1.15000E+01    9.94044E-04
 1.20000E+01    5.43299E-04
 1.25000E+01    2.98443E-04
 1.30000E+01    1.64868E-04
 1.35000E+01    9.16375E-05
 1.40000E+01    5.12434E-05
 1.45000E+01    2.88179E-05
 1.50000E+01    1.62929E-05
 1.60000E+01    5.27892E-06
 1.70000E+01    1.72300E-06
 1.80000E+01    5.76150E-07
 1.90000E+01    1.95890E-07
 2.00000E+01    6.78000E-08
 2.10000E+01    2.39740E-08
 2.20000E+01    8.62460E-09
 2.30000E+01    3.14870E-09
 2.40000E+01    1.16670E-09
 2.50000E+01    4.38630E-10
 2.60000E+01    1.67280E-10
 2.70000E+01    6.48220E-11
 2.80000E+01    2.54040E-11
 2.90000E+01    1.00820E-11
 3.00000E+01    4.05330E-12
