# n + Tl203 : (n,n'13)  
# jeff3.3    A.J. Koning and D. Rochman        EVAL-DEC15
# uncertainties: n
# # energies =    81
#   E(MeV)       xs(mb) 
 1.27933E+00    0.00000E+00
 1.30033E+00    4.71317E+00
 1.31227E+00    7.39293E+00
 1.32670E+00    1.06315E+01
 1.34153E+00    1.39599E+01
 1.39289E+00    2.54870E+01
 1.40000E+00    2.70827E+01
 1.41419E+00    2.86580E+01
 1.43952E+00    3.14699E+01
 1.45524E+00    3.32150E+01
 1.45683E+00    3.33916E+01
 1.49567E+00    3.77033E+01
 1.57667E+00    4.66953E+01
 1.60000E+00    4.92852E+01
 1.61906E+00    5.01074E+01
 1.62604E+00    5.04085E+01
 1.64704E+00    5.13144E+01
 1.66523E+00    5.20991E+01
 1.67754E+00    5.26302E+01
 1.69210E+00    5.32583E+01
 1.80000E+00    5.79129E+01
 2.00000E+00    5.57875E+01
 2.20000E+00    4.96444E+01
 2.40000E+00    4.28628E+01
 2.60000E+00    3.67179E+01
 2.80000E+00    3.14477E+01
 3.00000E+00    2.69236E+01
 3.20000E+00    2.29244E+01
 3.40000E+00    1.93118E+01
 3.60000E+00    1.60630E+01
 3.80000E+00    1.31851E+01
 4.00000E+00    1.07095E+01
 4.20000E+00    8.62226E+00
 4.40000E+00    6.89314E+00
 4.60000E+00    5.47662E+00
 4.80000E+00    4.32913E+00
 5.00000E+00    3.40634E+00
 5.20000E+00    2.66927E+00
 5.40000E+00    2.08554E+00
 5.60000E+00    1.61806E+00
 5.80000E+00    1.25851E+00
 6.00000E+00    9.73421E-01
 6.20000E+00    7.55145E-01
 6.40000E+00    5.82804E-01
 6.60000E+00    4.50181E-01
 6.80000E+00    3.47555E-01
 7.00000E+00    2.67494E-01
 7.20000E+00    2.06856E-01
 7.40000E+00    1.59481E-01
 7.60000E+00    1.23374E-01
 7.80000E+00    9.56072E-02
 8.00000E+00    7.40230E-02
 8.50000E+00    3.95035E-02
 9.00000E+00    2.12134E-02
 9.50000E+00    1.14401E-02
 1.00000E+01    6.18696E-03
 1.05000E+01    3.35261E-03
 1.10000E+01    1.82047E-03
 1.15000E+01    9.91352E-04
 1.20000E+01    5.41951E-04
 1.25000E+01    2.97755E-04
 1.30000E+01    1.64508E-04
 1.35000E+01    9.14447E-05
 1.40000E+01    5.11384E-05
 1.45000E+01    2.87603E-05
 1.50000E+01    1.62613E-05
 1.60000E+01    5.26953E-06
 1.70000E+01    1.72029E-06
 1.80000E+01    5.75350E-07
 1.90000E+01    1.95650E-07
 2.00000E+01    6.77210E-08
 2.10000E+01    2.39470E-08
 2.20000E+01    8.61480E-09
 2.30000E+01    3.14520E-09
 2.40000E+01    1.16540E-09
 2.50000E+01    4.38180E-10
 2.60000E+01    1.67120E-10
 2.70000E+01    6.47660E-11
 2.80000E+01    2.53840E-11
 2.90000E+01    1.00740E-11
 3.00000E+01    4.05030E-12
