# n + Tl203 : (n,n'06)  
# jeff3.3    A.J. Koning and D. Rochman        EVAL-DEC15
# uncertainties: n
# # energies =    89
#   E(MeV)       xs(mb) 
 1.07929E+00    0.00000E+00
 1.11934E+00    1.64687E+01
 1.19017E+00    4.55943E+01
 1.20000E+00    4.96364E+01
 1.22163E+00    5.23841E+01
 1.22369E+00    5.26459E+01
 1.23310E+00    5.38412E+01
 1.23848E+00    5.45247E+01
 1.27933E+00    5.97141E+01
 1.30033E+00    6.23818E+01
 1.31227E+00    6.38986E+01
 1.32670E+00    6.57317E+01
 1.34153E+00    6.76156E+01
 1.39289E+00    7.41401E+01
 1.40000E+00    7.50433E+01
 1.41419E+00    7.55235E+01
 1.43952E+00    7.63808E+01
 1.45524E+00    7.69128E+01
 1.45683E+00    7.69666E+01
 1.49567E+00    7.82810E+01
 1.57667E+00    8.10223E+01
 1.60000E+00    8.18118E+01
 1.61906E+00    8.16977E+01
 1.62604E+00    8.16560E+01
 1.64704E+00    8.15303E+01
 1.66523E+00    8.14215E+01
 1.67754E+00    8.13479E+01
 1.69210E+00    8.12607E+01
 1.80000E+00    8.06151E+01
 2.00000E+00    7.19986E+01
 2.20000E+00    6.19134E+01
 2.40000E+00    5.26166E+01
 2.60000E+00    4.46360E+01
 2.80000E+00    3.78195E+01
 3.00000E+00    3.18983E+01
 3.20000E+00    2.66495E+01
 3.40000E+00    2.20062E+01
 3.60000E+00    1.79578E+01
 3.80000E+00    1.44956E+01
 4.00000E+00    1.16129E+01
 4.20000E+00    9.24701E+00
 4.40000E+00    7.32802E+00
 4.60000E+00    5.78201E+00
 4.80000E+00    4.54613E+00
 5.00000E+00    3.56250E+00
 5.20000E+00    2.78269E+00
 5.40000E+00    2.16813E+00
 5.60000E+00    1.67790E+00
 5.80000E+00    1.30064E+00
 6.00000E+00    1.00338E+00
 6.20000E+00    7.76028E-01
 6.40000E+00    5.96830E-01
 6.60000E+00    4.59750E-01
 6.80000E+00    3.54114E-01
 7.00000E+00    2.71937E-01
 7.20000E+00    2.09974E-01
 7.40000E+00    1.61773E-01
 7.60000E+00    1.25018E-01
 7.80000E+00    9.69051E-02
 8.00000E+00    7.50192E-02
 8.50000E+00    4.00657E-02
 9.00000E+00    2.15337E-02
 9.50000E+00    1.16164E-02
 1.00000E+01    6.27955E-03
 1.05000E+01    3.39946E-03
 1.10000E+01    1.84370E-03
 1.15000E+01    1.00285E-03
 1.20000E+01    5.47711E-04
 1.25000E+01    3.00704E-04
 1.30000E+01    1.66056E-04
 1.35000E+01    9.22753E-05
 1.40000E+01    5.15912E-05
 1.45000E+01    2.90088E-05
 1.50000E+01    1.63977E-05
 1.60000E+01    5.30985E-06
 1.70000E+01    1.73188E-06
 1.80000E+01    5.78760E-07
 1.90000E+01    1.96690E-07
 2.00000E+01    6.80640E-08
 2.10000E+01    2.40660E-08
 2.20000E+01    8.65710E-09
 2.30000E+01    3.16040E-09
 2.40000E+01    1.17090E-09
 2.50000E+01    4.40110E-10
 2.60000E+01    1.67800E-10
 2.70000E+01    6.50060E-11
 2.80000E+01    2.54710E-11
 2.90000E+01    1.01070E-11
 3.00000E+01    4.06310E-12
