# n + Tl203 : (n,n'18)  
# jeff3.3    A.J. Koning and D. Rochman        EVAL-DEC15
# uncertainties: n
# # energies =    76
#   E(MeV)       xs(mb) 
 1.39289E+00    0.00000E+00
 1.40000E+00    1.06228E+00
 1.41419E+00    1.47811E+00
 1.43952E+00    2.22040E+00
 1.45524E+00    2.68106E+00
 1.45683E+00    2.72766E+00
 1.49567E+00    3.86584E+00
 1.57667E+00    6.23951E+00
 1.60000E+00    6.92318E+00
 1.61906E+00    7.58629E+00
 1.62604E+00    7.82913E+00
 1.64704E+00    8.55973E+00
 1.66523E+00    9.19257E+00
 1.67754E+00    9.62084E+00
 1.69210E+00    1.01274E+01
 1.80000E+00    1.38813E+01
 2.00000E+00    1.72947E+01
 2.20000E+00    1.76612E+01
 2.40000E+00    1.65054E+01
 2.60000E+00    1.48157E+01
 2.80000E+00    1.30367E+01
 3.00000E+00    1.13309E+01
 3.20000E+00    9.73723E+00
 3.40000E+00    8.26987E+00
 3.60000E+00    6.94409E+00
 3.80000E+00    5.77112E+00
 4.00000E+00    4.76294E+00
 4.20000E+00    3.90945E+00
 4.40000E+00    3.19549E+00
 4.60000E+00    2.60145E+00
 4.80000E+00    2.11058E+00
 5.00000E+00    1.70652E+00
 5.20000E+00    1.37554E+00
 5.40000E+00    1.10658E+00
 5.60000E+00    8.84914E-01
 5.80000E+00    7.10195E-01
 6.00000E+00    5.67808E-01
 6.20000E+00    4.55588E-01
 6.40000E+00    3.64147E-01
 6.60000E+00    2.91521E-01
 6.80000E+00    2.33291E-01
 7.00000E+00    1.86084E-01
 7.20000E+00    1.49109E-01
 7.40000E+00    1.18962E-01
 7.60000E+00    9.51331E-02
 7.80000E+00    7.61048E-02
 8.00000E+00    6.06751E-02
 8.50000E+00    3.45565E-02
 9.00000E+00    1.95336E-02
 9.50000E+00    1.09485E-02
 1.00000E+01    6.09101E-03
 1.05000E+01    3.37041E-03
 1.10000E+01    1.85989E-03
 1.15000E+01    1.02634E-03
 1.20000E+01    5.67695E-04
 1.25000E+01    3.15343E-04
 1.30000E+01    1.76092E-04
 1.35000E+01    9.89184E-05
 1.40000E+01    5.58960E-05
 1.45000E+01    3.17590E-05
 1.50000E+01    1.81364E-05
 1.60000E+01    5.98717E-06
 1.70000E+01    1.98597E-06
 1.80000E+01    6.72910E-07
 1.90000E+01    2.31270E-07
 2.00000E+01    8.07860E-08
 2.10000E+01    2.88100E-08
 2.20000E+01    1.04500E-08
 2.30000E+01    3.84560E-09
 2.40000E+01    1.43530E-09
 2.50000E+01    5.42930E-10
 2.60000E+01    2.08120E-10
 2.70000E+01    8.09980E-11
 2.80000E+01    3.18710E-11
 2.90000E+01    1.26980E-11
 3.00000E+01    5.12420E-12
