# n + Tl203 : (n,n'19)  
# jeff3.3    A.J. Koning and D. Rochman        EVAL-DEC15
# uncertainties: n
# # energies =    74
#   E(MeV)       xs(mb) 
 1.41419E+00    0.00000E+00
 1.43952E+00    3.10373E+00
 1.45524E+00    5.02994E+00
 1.45683E+00    5.22477E+00
 1.49567E+00    9.98391E+00
 1.57667E+00    1.99090E+01
 1.60000E+00    2.27677E+01
 1.61906E+00    2.32424E+01
 1.62604E+00    2.34163E+01
 1.64704E+00    2.39394E+01
 1.66523E+00    2.43924E+01
 1.67754E+00    2.46990E+01
 1.69210E+00    2.50617E+01
 1.80000E+00    2.77492E+01
 2.00000E+00    2.61948E+01
 2.20000E+00    2.27464E+01
 2.40000E+00    1.92382E+01
 2.60000E+00    1.62028E+01
 2.80000E+00    1.36748E+01
 3.00000E+00    1.15546E+01
 3.20000E+00    9.72518E+00
 3.40000E+00    8.11246E+00
 3.60000E+00    6.68570E+00
 3.80000E+00    5.43851E+00
 4.00000E+00    4.37691E+00
 4.20000E+00    3.49075E+00
 4.40000E+00    2.76488E+00
 4.60000E+00    2.17792E+00
 4.80000E+00    1.70886E+00
 5.00000E+00    1.33652E+00
 5.20000E+00    1.04254E+00
 5.40000E+00    8.11924E-01
 5.60000E+00    6.28579E-01
 5.80000E+00    4.88197E-01
 6.00000E+00    3.77452E-01
 6.20000E+00    2.92478E-01
 6.40000E+00    2.25532E-01
 6.60000E+00    1.73951E-01
 6.80000E+00    1.33973E-01
 7.00000E+00    1.02780E-01
 7.20000E+00    7.91800E-02
 7.40000E+00    6.07538E-02
 7.60000E+00    4.67492E-02
 7.80000E+00    3.60364E-02
 8.00000E+00    2.77276E-02
 8.50000E+00    1.45883E-02
 9.00000E+00    7.73839E-03
 9.50000E+00    4.13342E-03
 1.00000E+01    2.21876E-03
 1.05000E+01    1.19445E-03
 1.10000E+01    6.44242E-04
 1.15000E+01    3.48187E-04
 1.20000E+01    1.88718E-04
 1.25000E+01    1.02702E-04
 1.30000E+01    5.61710E-05
 1.35000E+01    3.09046E-05
 1.40000E+01    1.71115E-05
 1.45000E+01    9.53477E-06
 1.50000E+01    5.34622E-06
 1.60000E+01    1.70861E-06
 1.70000E+01    5.51740E-07
 1.80000E+01    1.82850E-07
 1.90000E+01    6.16760E-08
 2.00000E+01    2.11930E-08
 2.10000E+01    7.44480E-09
 2.20000E+01    2.66270E-09
 2.30000E+01    9.67280E-10
 2.40000E+01    3.56970E-10
 2.50000E+01    1.33780E-10
 2.60000E+01    5.08750E-11
 2.70000E+01    1.96540E-11
 2.80000E+01    7.67560E-12
 2.90000E+01    3.03430E-12
 3.00000E+01    1.21520E-12
