# n + Br 81 : (n,el)    
# endfb8.0   JNDC FPND W.G., Mughabghab        EVAL-JAN05
# uncertainties: n
# # energies =   171
#   E(MeV)       xs(mb) 
 1.00000E-11    1.07793E+04
 1.00000E-07    5.75692E+03
 4.13990E-07    5.75157E+03
 5.31580E-07    5.75022E+03
 6.82560E-07    5.74853E+03
 8.76420E-07    5.74636E+03
 1.12540E-06    5.74357E+03
 1.44500E-06    5.73999E+03
 1.85540E-06    5.73542E+03
 2.37240E-06    5.72935E+03
 3.05900E-06    5.72146E+03
 3.92790E-06    5.71141E+03
 5.04350E-06    5.69850E+03
 6.47600E-06    5.68192E+03
 8.31530E-06    5.66063E+03
 1.06770E-05    5.63330E+03
 1.37100E-05    5.59820E+03
 1.76030E-05    5.55053E+03
 2.26030E-05    5.47624E+03
 2.92030E-05    5.37641E+03
 3.72670E-05    5.22098E+03
 4.78510E-05    4.95579E+03
 6.14420E-05    4.39671E+03
 7.88930E-05    3.56829E+04
 1.01300E-04    3.71836E+04
 1.30070E-04    9.59783E+04
 1.67020E-04    7.79888E+03
 2.14450E-04    6.78605E+03
 2.75360E-04    6.18698E+03
 3.53580E-04    5.60058E+03
 4.54000E-04    1.18247E+04
 5.82950E-04    3.97498E+04
 7.48520E-04    6.15561E+03
 9.61120E-04    3.82289E+04
 1.23410E-03    4.31485E+04
 1.58460E-03    1.21024E+04
 2.03470E-03    9.09459E+03
 2.24870E-03    7.44618E+03
 2.48520E-03    5.96958E+03
 2.61260E-03    9.60816E+03
 2.74650E-03    1.84485E+04
 3.03540E-03    7.80881E+03
 3.35460E-03    1.10045E+04
 3.70740E-03    1.03999E+04
 4.30740E-03    1.22797E+04
 5.53080E-03    8.90274E+03
 7.10170E-03    8.70156E+03
 9.11880E-03    1.06792E+04
 1.17090E-02    9.07468E+03
 1.50340E-02    8.68988E+03
 1.93050E-02    9.04060E+03
 2.18750E-02    8.95293E+03
 2.35790E-02    8.91099E+03
 2.41760E-02    8.89008E+03
 2.47880E-02    8.85898E+03
 2.60580E-02    8.82454E+03
 2.70000E-02    8.78959E+03
 2.85000E-02    8.72715E+03
 3.18280E-02    8.65904E+03
 3.43070E-02    8.57194E+03
 4.08680E-02    8.47224E+03
 4.63090E-02    8.39292E+03
 5.24750E-02    8.33138E+03
 5.65620E-02    8.25673E+03
 6.73790E-02    8.18624E+03
 7.20000E-02    8.13827E+03
 7.95000E-02    8.09891E+03
 8.25000E-02    8.07455E+03
 8.65170E-02    8.02492E+03
 9.80370E-02    7.96803E+03
 1.11090E-01    7.95278E+03
 1.16790E-01    7.94423E+03
 1.22770E-01    7.93525E+03
 1.29070E-01    7.92579E+03
 1.35690E-01    7.91587E+03
 1.42640E-01    7.90543E+03
 1.49960E-01    7.89445E+03
 1.57640E-01    7.88203E+03
 1.65730E-01    7.86520E+03
 1.74220E-01    7.84708E+03
 1.83160E-01    7.82802E+03
 1.92550E-01    7.80799E+03
 2.02420E-01    7.78689E+03
 2.12800E-01    7.76113E+03
 2.23710E-01    7.73175E+03
 2.35180E-01    7.70087E+03
 2.47240E-01    7.65134E+03
 2.73240E-01    7.58883E+03
 2.87250E-01    7.51937E+03
 2.94520E-01    7.48405E+03
 2.97200E-01    7.46994E+03
 2.98500E-01    7.45307E+03
 3.01970E-01    7.33018E+03
 3.33730E-01    7.10261E+03
 3.68830E-01    6.93961E+03
 3.87740E-01    6.82825E+03
 4.07620E-01    6.67322E+03
 4.50490E-01    6.46238E+03
 4.97870E-01    6.30237E+03
 5.23400E-01    6.18841E+03
 5.50230E-01    6.05266E+03
 5.78440E-01    5.88880E+03
 6.08100E-01    5.71037E+03
 6.39280E-01    5.53232E+03
 6.72060E-01    5.35007E+03
 7.06510E-01    5.16585E+03
 7.42740E-01    4.99022E+03
 7.80820E-01    4.80702E+03
 8.20850E-01    4.61443E+03
 8.62940E-01    4.41259E+03
 9.07180E-01    4.20855E+03
 9.61640E-01    4.03072E+03
 1.00260E+00    3.80759E+03
 1.10800E+00    3.59003E+03
 1.16480E+00    3.45671E+03
 1.22460E+00    3.32509E+03
 1.28730E+00    3.19738E+03
 1.35340E+00    3.06824E+03
 1.42270E+00    2.94062E+03
 1.49570E+00    2.82103E+03
 1.57240E+00    2.71147E+03
 1.65300E+00    2.61088E+03
 1.73770E+00    2.51789E+03
 1.82680E+00    2.43323E+03
 1.92050E+00    2.35319E+03
 2.01900E+00    2.28036E+03
 2.12250E+00    2.21308E+03
 2.23130E+00    2.16544E+03
 2.30690E+00    2.14084E+03
 2.34570E+00    2.12831E+03
 2.36530E+00    2.11984E+03
 2.38520E+00    2.09835E+03
 2.46600E+00    2.05678E+03
 2.59240E+00    2.00885E+03
 2.72530E+00    1.96103E+03
 2.86500E+00    1.91519E+03
 3.01190E+00    1.90195E+03
 3.16640E+00    1.91429E+03
 3.32870E+00    1.93407E+03
 3.67880E+00    1.96250E+03
 4.06570E+00    2.04480E+03
 4.49330E+00    2.13362E+03
 4.72370E+00    2.19297E+03
 4.96590E+00    2.25682E+03
 5.22050E+00    2.32940E+03
 5.48810E+00    2.40597E+03
 5.76950E+00    2.48226E+03
 6.06530E+00    2.55797E+03
 6.37630E+00    2.61942E+03
 6.59240E+00    2.65726E+03
 6.70320E+00    2.70922E+03
 7.04690E+00    2.77483E+03
 7.40820E+00    2.83417E+03
 7.78800E+00    2.89293E+03
 8.18730E+00    2.92887E+03
 8.60710E+00    2.96140E+03
 9.04840E+00    2.97409E+03
 9.51230E+00    2.97282E+03
 1.00000E+01    3.01959E+03
 1.05130E+01    3.01146E+03
 1.10520E+01    2.91901E+03
 1.16180E+01    2.80789E+03
 1.22140E+01    2.67474E+03
 1.28400E+01    2.57480E+03
 1.34990E+01    2.53330E+03
 1.38400E+01    2.50270E+03
 1.41910E+01    2.45007E+03
 1.45500E+01    2.39722E+03
 1.49180E+01    2.31715E+03
 1.56830E+01    2.21046E+03
 1.64870E+01    2.10538E+03
