# n + Br 81 : (n,tot)   
# endfb8.0   JNDC FPND W.G., Mughabghab        EVAL-JAN05
# uncertainties: n
# # energies =   171
#   E(MeV)       xs(mb) 
 1.00000E-11    3.63384E+04
 1.00000E-07    6.61035E+03
 4.13990E-07    6.30458E+03
 5.31580E-07    6.23887E+03
 6.82560E-07    6.18061E+03
 8.76420E-07    6.12887E+03
 1.12540E-06    6.08355E+03
 1.44500E-06    6.04247E+03
 1.85540E-06    6.00821E+03
 2.37240E-06    5.97016E+03
 3.05900E-06    5.94016E+03
 3.92790E-06    5.90564E+03
 5.04350E-06    5.87684E+03
 6.47600E-06    5.84496E+03
 8.31530E-06    5.80741E+03
 1.06770E-05    5.77078E+03
 1.37100E-05    5.72467E+03
 1.76030E-05    5.66545E+03
 2.26030E-05    5.58831E+03
 2.92030E-05    5.49032E+03
 3.72670E-05    5.34702E+03
 4.78510E-05    5.11388E+03
 6.14420E-05    4.67042E+03
 7.88930E-05    9.13139E+04
 1.01300E-04    7.55929E+04
 1.30070E-04    1.54220E+05
 1.67020E-04    1.00569E+04
 2.14450E-04    7.05485E+03
 2.75360E-04    6.51258E+03
 3.53580E-04    5.81282E+03
 4.54000E-04    1.68103E+04
 5.82950E-04    4.48750E+04
 7.48520E-04    6.75966E+03
 9.61120E-04    4.24645E+04
 1.23410E-03    4.56800E+04
 1.58460E-03    1.33909E+04
 2.03470E-03    9.38362E+03
 2.24870E-03    7.93513E+03
 2.48520E-03    6.15542E+03
 2.61260E-03    1.04985E+04
 2.74650E-03    1.96515E+04
 3.03540E-03    8.81980E+03
 3.35460E-03    1.18442E+04
 3.70740E-03    1.13250E+04
 4.30740E-03    1.28739E+04
 5.53080E-03    9.49160E+03
 7.10170E-03    9.12481E+03
 9.11880E-03    1.10661E+04
 1.17090E-02    9.23472E+03
 1.50340E-02    8.96897E+03
 1.93050E-02    9.36545E+03
 2.18750E-02    9.25779E+03
 2.35790E-02    9.20602E+03
 2.41760E-02    9.18021E+03
 2.47880E-02    9.14200E+03
 2.60580E-02    9.09995E+03
 2.70000E-02    9.05726E+03
 2.85000E-02    8.98093E+03
 3.18280E-02    8.89741E+03
 3.43070E-02    8.79077E+03
 4.08680E-02    8.66934E+03
 4.63090E-02    8.57349E+03
 5.24750E-02    8.49970E+03
 5.65620E-02    8.41099E+03
 6.73790E-02    8.32786E+03
 7.20000E-02    8.27215E+03
 7.95000E-02    8.22678E+03
 8.25000E-02    8.19891E+03
 8.65170E-02    8.14254E+03
 9.80370E-02    8.07793E+03
 1.11090E-01    8.05831E+03
 1.16790E-01    8.04706E+03
 1.22770E-01    8.03524E+03
 1.29070E-01    8.02280E+03
 1.35690E-01    8.00973E+03
 1.42640E-01    7.99599E+03
 1.49960E-01    7.98155E+03
 1.57640E-01    7.96637E+03
 1.65730E-01    7.94987E+03
 1.74220E-01    7.93008E+03
 1.83160E-01    7.90897E+03
 1.92550E-01    7.88678E+03
 2.02420E-01    7.86345E+03
 2.12800E-01    7.83720E+03
 2.23710E-01    7.80649E+03
 2.35180E-01    7.77414E+03
 2.47240E-01    7.72226E+03
 2.73240E-01    7.66670E+03
 2.87250E-01    7.63301E+03
 2.94520E-01    7.61529E+03
 2.97200E-01    7.60821E+03
 2.98500E-01    7.59975E+03
 3.01970E-01    7.53191E+03
 3.33730E-01    7.39548E+03
 3.68830E-01    7.29050E+03
 3.87740E-01    7.22689E+03
 4.07620E-01    7.12506E+03
 4.50490E-01    6.98908E+03
 4.97870E-01    6.88127E+03
 5.23400E-01    6.79158E+03
 5.50230E-01    6.69620E+03
 5.78440E-01    6.59592E+03
 6.08100E-01    6.49049E+03
 6.39280E-01    6.38367E+03
 6.72060E-01    6.27694E+03
 7.06510E-01    6.16477E+03
 7.42740E-01    6.04712E+03
 7.80820E-01    5.93187E+03
 8.20850E-01    5.81464E+03
 8.62940E-01    5.69159E+03
 9.07180E-01    5.56173E+03
 9.61640E-01    5.44057E+03
 1.00260E+00    5.27165E+03
 1.10800E+00    5.09365E+03
 1.16480E+00    4.98102E+03
 1.22460E+00    4.86685E+03
 1.28730E+00    4.76067E+03
 1.35340E+00    4.65437E+03
 1.42270E+00    4.55692E+03
 1.49570E+00    4.45907E+03
 1.57240E+00    4.36995E+03
 1.65300E+00    4.28517E+03
 1.73770E+00    4.20508E+03
 1.82680E+00    4.13302E+03
 1.92050E+00    4.06021E+03
 2.01900E+00    3.99609E+03
 2.12250E+00    3.93576E+03
 2.23130E+00    3.89729E+03
 2.30690E+00    3.87831E+03
 2.34570E+00    3.86864E+03
 2.36530E+00    3.86210E+03
 2.38520E+00    3.84551E+03
 2.46600E+00    3.81159E+03
 2.59240E+00    3.77438E+03
 2.72530E+00    3.73749E+03
 2.86500E+00    3.69882E+03
 3.01190E+00    3.68139E+03
 3.16640E+00    3.68054E+03
 3.32870E+00    3.67918E+03
 3.67880E+00    3.67816E+03
 4.06570E+00    3.72403E+03
 4.49330E+00    3.78112E+03
 4.72370E+00    3.82180E+03
 4.96590E+00    3.87028E+03
 5.22050E+00    3.93683E+03
 5.48810E+00    4.00767E+03
 5.76950E+00    4.08215E+03
 6.06530E+00    4.16034E+03
 6.37630E+00    4.22530E+03
 6.59240E+00    4.26426E+03
 6.70320E+00    4.31798E+03
 7.04690E+00    4.38520E+03
 7.40820E+00    4.43856E+03
 7.78800E+00    4.48944E+03
 8.18730E+00    4.50588E+03
 8.60710E+00    4.51565E+03
 9.04840E+00    4.49867E+03
 9.51230E+00    4.46230E+03
 1.00000E+01    4.40172E+03
 1.05130E+01    4.31884E+03
 1.10520E+01    4.23756E+03
 1.16180E+01    4.15635E+03
 1.22140E+01    4.05964E+03
 1.28400E+01    3.96031E+03
 1.34990E+01    3.88740E+03
 1.38400E+01    3.83988E+03
 1.41910E+01    3.79473E+03
 1.45500E+01    3.75071E+03
 1.49180E+01    3.68667E+03
 1.56830E+01    3.60226E+03
 1.64870E+01    3.50865E+03
