# n + Rh101 : (n,n'21)  
# jeff3.3    A.J. Koning and D. Rochman        EVAL-DEC15
# uncertainties: n
# # energies =    72
#   E(MeV)       xs(mb) 
 1.48551E+00    0.00000E+00
 1.54630E+00    2.30152E+01
 1.55640E+00    2.68390E+01
 1.59266E+00    4.05671E+01
 1.60000E+00    4.33461E+01
 1.62003E+00    4.53710E+01
 1.62200E+00    4.55701E+01
 1.62347E+00    4.57188E+01
 1.62508E+00    4.58815E+01
 1.65639E+00    4.90467E+01
 1.71329E+00    5.47989E+01
 1.80000E+00    6.35647E+01
 2.00000E+00    5.65977E+01
 2.20000E+00    4.62039E+01
 2.40000E+00    3.70615E+01
 2.60000E+00    2.96799E+01
 2.80000E+00    2.38696E+01
 3.00000E+00    1.92151E+01
 3.20000E+00    1.54210E+01
 3.40000E+00    1.23083E+01
 3.60000E+00    9.76393E+00
 3.80000E+00    7.70522E+00
 4.00000E+00    6.05418E+00
 4.20000E+00    4.74309E+00
 4.40000E+00    3.71077E+00
 4.60000E+00    2.90246E+00
 4.80000E+00    2.27181E+00
 5.00000E+00    1.78084E+00
 5.20000E+00    1.39846E+00
 5.40000E+00    1.10019E+00
 5.60000E+00    8.67340E-01
 5.80000E+00    6.85404E-01
 6.00000E+00    5.41543E-01
 6.20000E+00    4.28798E-01
 6.40000E+00    3.39116E-01
 6.60000E+00    2.68142E-01
 6.80000E+00    2.11889E-01
 7.00000E+00    1.66109E-01
 7.20000E+00    1.30681E-01
 7.40000E+00    1.02711E-01
 7.60000E+00    8.07000E-02
 7.80000E+00    6.34378E-02
 8.00000E+00    4.98018E-02
 8.50000E+00    2.72830E-02
 9.00000E+00    1.50241E-02
 9.50000E+00    8.34319E-03
 1.00000E+01    4.68159E-03
 1.05000E+01    2.65731E-03
 1.10000E+01    1.52715E-03
 1.15000E+01    8.88339E-04
 1.20000E+01    5.22701E-04
 1.25000E+01    3.10927E-04
 1.30000E+01    1.86787E-04
 1.35000E+01    1.13232E-04
 1.40000E+01    6.92096E-05
 1.45000E+01    4.26123E-05
 1.50000E+01    2.64312E-05
 1.60000E+01    1.03886E-05
 1.70000E+01    4.19405E-06
 1.80000E+01    1.73677E-06
 1.90000E+01    7.34880E-07
 2.00000E+01    3.17620E-07
 2.10000E+01    1.39500E-07
 2.20000E+01    6.17330E-08
 2.30000E+01    2.80540E-08
 2.40000E+01    1.29750E-08
 2.50000E+01    6.10150E-09
 2.60000E+01    2.91490E-09
 2.70000E+01    1.41320E-09
 2.80000E+01    6.92560E-10
 2.90000E+01    3.43180E-10
 3.00000E+01    1.71740E-10
