# n + Rh101 : (n,n'22)  
# jeff3.3    A.J. Koning and D. Rochman        EVAL-DEC15
# uncertainties: n
# # energies =    71
#   E(MeV)       xs(mb) 
 1.54630E+00    0.00000E+00
 1.55640E+00    3.65857E+00
 1.59266E+00    1.67933E+01
 1.60000E+00    1.94522E+01
 1.62003E+00    2.31479E+01
 1.62200E+00    2.35114E+01
 1.62347E+00    2.37826E+01
 1.62508E+00    2.40797E+01
 1.65639E+00    2.98566E+01
 1.71329E+00    4.03552E+01
 1.80000E+00    5.63539E+01
 2.00000E+00    5.40766E+01
 2.20000E+00    4.49113E+01
 2.40000E+00    3.61704E+01
 2.60000E+00    2.89757E+01
 2.80000E+00    2.33043E+01
 3.00000E+00    1.87774E+01
 3.20000E+00    1.50981E+01
 3.40000E+00    1.20796E+01
 3.60000E+00    9.60624E+00
 3.80000E+00    7.59726E+00
 4.00000E+00    5.97997E+00
 4.20000E+00    4.69131E+00
 4.40000E+00    3.67377E+00
 4.60000E+00    2.87527E+00
 4.80000E+00    2.25125E+00
 5.00000E+00    1.76489E+00
 5.20000E+00    1.38586E+00
 5.40000E+00    1.09010E+00
 5.60000E+00    8.59226E-01
 5.80000E+00    6.78872E-01
 6.00000E+00    5.36298E-01
 6.20000E+00    4.24678E-01
 6.40000E+00    3.35856E-01
 6.60000E+00    2.65653E-01
 6.80000E+00    2.09971E-01
 7.00000E+00    1.64645E-01
 7.20000E+00    1.29608E-01
 7.40000E+00    1.01910E-01
 7.60000E+00    8.01125E-02
 7.80000E+00    6.30070E-02
 8.00000E+00    4.94860E-02
 8.50000E+00    2.71401E-02
 9.00000E+00    1.49583E-02
 9.50000E+00    8.31181E-03
 1.00000E+01    4.66590E-03
 1.05000E+01    2.64906E-03
 1.10000E+01    1.52260E-03
 1.15000E+01    8.85745E-04
 1.20000E+01    5.21188E-04
 1.25000E+01    3.10036E-04
 1.30000E+01    1.86263E-04
 1.35000E+01    1.12924E-04
 1.40000E+01    6.90285E-05
 1.45000E+01    4.25056E-05
 1.50000E+01    2.63676E-05
 1.60000E+01    1.03650E-05
 1.70000E+01    4.18492E-06
 1.80000E+01    1.73322E-06
 1.90000E+01    7.33530E-07
 2.00000E+01    3.17100E-07
 2.10000E+01    1.39290E-07
 2.20000E+01    6.16500E-08
 2.30000E+01    2.80170E-08
 2.40000E+01    1.29580E-08
 2.50000E+01    6.09360E-09
 2.60000E+01    2.91120E-09
 2.70000E+01    1.41150E-09
 2.80000E+01    6.91770E-10
 2.90000E+01    3.42820E-10
 3.00000E+01    1.71580E-10
