# n + B  10 : (n,p02)   
# jendl4.0   S.CHIBA                           EVAL-MAR87
# uncertainties: n
# # energies =    23
#   E(MeV)       xs(mb) 
 6.31090E+00    0.00000E+00
 6.40000E+00    6.54725E-01
 6.60000E+00    1.83017E+00
 6.80000E+00    2.56486E+00
 7.00000E+00    3.44931E+00
 7.20000E+00    4.21912E+00
 7.40000E+00    4.60306E+00
 7.60000E+00    5.03495E+00
 7.80000E+00    5.41738E+00
 8.00000E+00    5.80070E+00
 8.50000E+00    6.32249E+00
 9.00000E+00    6.68504E+00
 9.50000E+00    6.88720E+00
 1.00000E+01    6.87365E+00
 1.05000E+01    7.01200E+00
 1.10000E+01    7.03572E+00
 1.20000E+01    7.15770E+00
 1.30000E+01    7.17464E+00
 1.40000E+01    7.12269E+00
 1.50000E+01    1.01337E+01
 1.60000E+01    1.00405E+01
 1.80000E+01    9.51593E+00
 2.00000E+01    8.43846E+00
