# n + B  10 : (n,p03)   
# jendl4.0   S.CHIBA                           EVAL-MAR87
# uncertainties: n
# # energies =    23
#   E(MeV)       xs(mb) 
 6.31270E+00    0.00000E+00
 6.40000E+00    3.73025E-01
 6.60000E+00    1.05629E+00
 6.80000E+00    1.47175E+00
 7.00000E+00    1.98484E+00
 7.20000E+00    2.44220E+00
 7.40000E+00    2.71484E+00
 7.60000E+00    2.95129E+00
 7.80000E+00    3.16949E+00
 8.00000E+00    3.42050E+00
 8.50000E+00    3.71263E+00
 9.00000E+00    3.93479E+00
 9.50000E+00    4.10115E+00
 1.00000E+01    4.13746E+00
 1.05000E+01    4.29682E+00
 1.10000E+01    4.38006E+00
 1.20000E+01    4.57844E+00
 1.30000E+01    4.67715E+00
 1.40000E+01    4.70957E+00
 1.50000E+01    5.45228E+00
 1.60000E+01    5.47594E+00
 1.80000E+01    5.31528E+00
 2.00000E+01    1.96875E+00
