# n + B  10 : (n,n'06)  
# jendl4.0   S.CHIBA                           EVAL-MAR87
# uncertainties: n
# # energies =    23
#   E(MeV)       xs(mb) 
 5.62480E+00    0.00000E+00
 6.00000E+00    2.65160E+00
 6.20000E+00    2.57090E+00
 6.40000E+00    2.79140E+00
 6.60000E+00    3.12020E+00
 6.80000E+00    3.33270E+00
 7.00000E+00    3.39920E+00
 7.50000E+00    3.37010E+00
 8.00000E+00    3.39010E+00
 8.50000E+00    3.50770E+00
 9.00000E+00    3.70820E+00
 1.00000E+01    4.24390E+00
 1.10000E+01    4.68130E+00
 1.20000E+01    4.82480E+00
 1.30000E+01    4.73500E+00
 1.40000E+01    4.53410E+00
 1.41500E+01    4.50000E+00
 1.50000E+01    4.30220E+00
 1.60000E+01    4.07740E+00
 1.70000E+01    3.87220E+00
 1.80000E+01    3.68640E+00
 1.90000E+01    3.51630E+00
 2.00000E+01    3.35910E+00
