# n + B  10 : (n,n'02)  
# jendl4.0   S.CHIBA                           EVAL-MAR87
# uncertainties: n
# # energies =    41
#   E(MeV)       xs(mb) 
 1.91550E+00    0.00000E+00
 2.00000E+00    6.67340E-02
 2.20000E+00    1.44780E+00
 2.40000E+00    6.53810E+00
 2.60000E+00    1.75230E+01
 2.80000E+00    3.21410E+01
 3.00000E+00    4.27900E+01
 3.20000E+00    4.64510E+01
 3.40000E+00    4.59870E+01
 3.60000E+00    4.41650E+01
 3.80000E+00    4.21930E+01
 4.00000E+00    4.04250E+01
 4.20000E+00    3.89020E+01
 4.40000E+00    3.75760E+01
 4.60000E+00    3.63870E+01
 4.80000E+00    3.52850E+01
 5.00000E+00    3.42340E+01
 5.20000E+00    3.32110E+01
 5.60000E+00    3.11880E+01
 6.00000E+00    2.91440E+01
 6.20000E+00    2.81020E+01
 6.40000E+00    2.70450E+01
 6.60000E+00    2.59730E+01
 6.80000E+00    2.48900E+01
 7.00000E+00    2.38030E+01
 7.50000E+00    2.11170E+01
 8.00000E+00    1.85870E+01
 8.50000E+00    1.63250E+01
 9.00000E+00    1.43880E+01
 1.00000E+01    1.15010E+01
 1.10000E+01    9.72690E+00
 1.20000E+01    8.74680E+00
 1.30000E+01    8.26070E+00
 1.40000E+01    8.02520E+00
 1.41500E+01    8.00000E+00
 1.50000E+01    7.87040E+00
 1.60000E+01    7.70210E+00
 1.70000E+01    7.48680E+00
 1.80000E+01    7.22770E+00
 1.90000E+01    6.94270E+00
 2.00000E+01    6.65120E+00
