# n + B  10 : (n,n'09)  
# jendl4.0   S.CHIBA                           EVAL-MAR87
# uncertainties: n
# # energies =    20
#   E(MeV)       xs(mb) 
 6.51640E+00    0.00000E+00
 6.60000E+00    1.49900E+01
 6.80000E+00    5.08530E+01
 7.00000E+00    8.67150E+01
 7.50000E+00    8.70820E+01
 8.00000E+00    7.63770E+01
 8.50000E+00    6.03830E+01
 9.00000E+00    5.00240E+01
 1.00000E+01    4.00810E+01
 1.10000E+01    3.58130E+01
 1.20000E+01    3.17230E+01
 1.30000E+01    2.71490E+01
 1.40000E+01    2.31760E+01
 1.41500E+01    2.26700E+01
 1.50000E+01    2.02620E+01
 1.60000E+01    1.82960E+01
 1.70000E+01    1.69960E+01
 1.80000E+01    1.60950E+01
 1.90000E+01    1.53900E+01
 2.00000E+01    1.47550E+01
