# n + B  10 : (n,p04)   
# jendl4.0   S.CHIBA                           EVAL-MAR87
# uncertainties: n
# # energies =    22
#   E(MeV)       xs(mb) 
 6.55378E+00    0.00000E+00
 6.60000E+00    5.80240E-02
 6.80000E+00    2.56689E-01
 7.00000E+00    4.42360E-01
 7.20000E+00    6.07571E-01
 7.40000E+00    7.26104E-01
 7.60000E+00    7.92796E-01
 7.80000E+00    9.10990E-01
 8.00000E+00    1.00468E+00
 8.50000E+00    1.13179E+00
 9.00000E+00    1.23265E+00
 9.50000E+00    1.29409E+00
 1.00000E+01    1.30634E+00
 1.05000E+01    1.36276E+00
 1.10000E+01    1.39365E+00
 1.20000E+01    1.46023E+00
 1.30000E+01    1.49513E+00
 1.40000E+01    1.50941E+00
 1.50000E+01    1.53336E+00
 1.60000E+01    1.55419E+00
 1.80000E+01    1.53929E+00
 2.00000E+01    1.41889E+00
