# n + B  10 : (n,n'10)  
# jendl4.0   S.CHIBA                           EVAL-MAR87
# uncertainties: n
# # energies =    52
#   E(MeV)       xs(mb) 
 6.60440E+00    0.00000E+00
 7.00000E+00    5.69950E+00
 7.15480E+00    7.58370E+00
 7.50000E+00    8.01800E+00
 7.70520E+00    7.70640E+00
 8.00000E+00    7.22300E+00
 8.25550E+00    6.83930E+00
 8.50000E+00    6.51300E+00
 8.80590E+00    6.15630E+00
 9.00000E+00    5.95580E+00
 9.35630E+00    5.63100E+00
 9.50000E+00    5.51350E+00
 9.90660E+00    5.21610E+00
 1.00000E+01    5.15410E+00
 1.04570E+01    4.87920E+00
 1.05000E+01    4.85550E+00
 1.10000E+01    4.60260E+00
 1.10070E+01    4.59910E+00
 1.15000E+01    4.38500E+00
 1.15580E+01    4.36180E+00
 1.20000E+01    4.19540E+00
 1.21080E+01    4.15750E+00
 1.25000E+01    4.34220E+00
 1.26580E+01    4.44100E+00
 1.30000E+01    4.62360E+00
 1.32090E+01    4.71760E+00
 1.35000E+01    4.82980E+00
 1.37590E+01    4.91380E+00
 1.40000E+01    4.98040E+00
 1.43100E+01    4.69740E+00
 1.45000E+01    4.43610E+00
 1.48600E+01    3.98500E+00
 1.50000E+01    3.82310E+00
 1.54100E+01    3.38750E+00
 1.55000E+01    3.29940E+00
 1.59610E+01    2.88150E+00
 1.60000E+01    2.84840E+00
 1.65000E+01    2.73200E+00
 1.65110E+01    2.73100E+00
 1.70000E+01    2.69080E+00
 1.70610E+01    2.68590E+00
 1.75000E+01    2.65090E+00
 1.76120E+01    2.64220E+00
 1.80000E+01    2.61230E+00
 1.81620E+01    2.60000E+00
 1.85000E+01    2.56530E+00
 1.87130E+01    2.54350E+00
 1.90000E+01    2.51470E+00
 1.92630E+01    2.48930E+00
 1.95000E+01    2.46700E+00
 1.98130E+01    2.43440E+00
 2.00000E+01    2.41550E+00
