# n + B  10 : (n,n'17)  
# jendl4.0   S.CHIBA                           EVAL-MAR87
# uncertainties: n
# # energies =    48
#   E(MeV)       xs(mb) 
 7.70520E+00    0.00000E+00
 8.00000E+00    2.56030E+00
 8.25550E+00    5.77240E+00
 8.50000E+00    7.35460E+00
 8.80590E+00    8.11230E+00
 9.00000E+00    8.32920E+00
 9.35630E+00    8.47660E+00
 9.50000E+00    8.48220E+00
 9.90660E+00    8.40870E+00
 1.00000E+01    8.37980E+00
 1.04570E+01    8.20470E+00
 1.05000E+01    8.18630E+00
 1.10000E+01    7.96250E+00
 1.10070E+01    7.95910E+00
 1.15000E+01    7.73360E+00
 1.15580E+01    7.70750E+00
 1.20000E+01    7.51060E+00
 1.21080E+01    7.46370E+00
 1.25000E+01    7.86700E+00
 1.26580E+01    8.07260E+00
 1.30000E+01    8.45890E+00
 1.32090E+01    8.66180E+00
 1.35000E+01    8.90840E+00
 1.37590E+01    9.09700E+00
 1.40000E+01    9.24970E+00
 1.43100E+01    8.75690E+00
 1.45000E+01    8.28760E+00
 1.48600E+01    7.47280E+00
 1.50000E+01    7.17900E+00
 1.54100E+01    6.38480E+00
 1.55000E+01    6.22330E+00
 1.59610E+01    5.45510E+00
 1.60000E+01    5.39390E+00
 1.65000E+01    5.19170E+00
 1.65110E+01    5.19030E+00
 1.70000E+01    5.12960E+00
 1.70610E+01    5.12200E+00
 1.75000E+01    5.06790E+00
 1.76120E+01    5.05420E+00
 1.80000E+01    5.00690E+00
 1.81620E+01    4.98730E+00
 1.85000E+01    4.92830E+00
 1.87130E+01    4.89080E+00
 1.90000E+01    4.84140E+00
 1.92630E+01    4.79740E+00
 1.95000E+01    4.75880E+00
 1.98130E+01    4.70120E+00
 2.00000E+01    4.66780E+00
