# n + Nd  0 : (n,p)
# jendl4.0   N.Iwamoto,A.Zukeran,K.Shibata     EVAL-Dec09
# uncertainties: n
# # energies =    99
#   E(MeV)          xs(mb) 
 1.52672E-01    0.00000E+00
 2.10433E-01    1.01081E-14
 4.52776E-01    6.78552E-14
 5.05769E-01    8.24683E-14
 6.46495E-01    1.23403E-13
 7.71228E-01    1.70397E-13
 8.79691E-01    2.14086E-13
 8.98157E-01    2.21820E-13
 9.45559E-01    2.41792E-13
 1.00708E+00    2.68327E-13
 1.09711E+00    3.24112E-13
 1.17413E+00    3.80216E-13
 1.20000E+00    3.99117E-13
 1.22037E+00    5.68836E-13
 1.23671E+00    7.05147E-13
 1.30000E+00    2.62797E-12
 1.31508E+00    3.62447E-12
 1.40000E+00    2.09535E-11
 1.41701E+00    2.92904E-11
 1.44133E+00    4.36687E-11
 1.50000E+00    1.20338E-10
 1.51663E+00    1.60179E-10
 1.56652E+00    3.58805E-10
 1.56742E+00    3.61051E-10
 1.56980E+00    3.72278E-10
 1.60000E+00    5.72099E-10
 1.61973E+00    7.65139E-10
 1.70000E+00    2.38818E-09
 1.70193E+00    2.45199E-09
 1.75148E+00    4.68342E-09
 1.78738E+00    7.10846E-09
 1.80000E+00    8.27687E-09
 1.81222E+00    9.58168E-09
 1.86457E+00    1.76308E-08
 1.86564E+00    1.77028E-08
 1.90000E+00    2.51863E-08
 1.91371E+00    2.91367E-08
 1.92430E+00    3.19817E-08
 1.93416E+00    3.49122E-08
 1.97988E+00    5.39870E-08
 2.00000E+00    6.56868E-08
 2.00225E+00    6.71496E-08
 2.01049E+00    7.23492E-08
 2.01882E+00    7.81186E-08
 2.02550E+00    8.31572E-08
 2.03312E+00    8.90754E-08
 2.03345E+00    8.93402E-08
 2.04997E+00    1.02331E-07
 2.07842E+00    1.29465E-07
 2.08143E+00    1.32709E-07
 2.08864E+00    1.41078E-07
 2.08978E+00    1.42369E-07
 2.10536E+00    1.61561E-07
 2.10917E+00    1.66510E-07
 2.11583E+00    1.75260E-07
 2.14082E+00    2.13369E-07
 2.14950E+00    2.28545E-07
 2.15208E+00    2.32121E-07
 2.16306E+00    2.51721E-07
 2.18892E+00    3.08218E-07
 2.19841E+00    3.31447E-07
 2.25000E+00    4.87097E-07
 2.50000E+00    2.64561E-06
 2.75000E+00    9.74768E-06
 3.00000E+00    3.05856E-05
 3.50000E+00    1.70908E-04
 4.00000E+00    6.26775E-04
 4.50000E+00    2.15844E-03
 5.00000E+00    7.67031E-03
 5.50000E+00    2.35758E-02
 6.00000E+00    5.80599E-02
 6.50000E+00    1.16663E-01
 7.00000E+00    1.98735E-01
 7.50000E+00    2.98531E-01
 8.00000E+00    4.10717E-01
 8.50000E+00    5.35192E-01
 9.00000E+00    6.79009E-01
 9.50000E+00    8.56406E-01
 1.00000E+01    1.08787E+00
 1.05000E+01    1.39942E+00
 1.10000E+01    1.81463E+00
 1.15000E+01    2.36307E+00
 1.20000E+01    3.05649E+00
 1.25000E+01    3.91642E+00
 1.30000E+01    4.93709E+00
 1.35000E+01    6.12842E+00
 1.40000E+01    7.46821E+00
 1.45000E+01    8.94357E+00
 1.50000E+01    1.05149E+01
 1.55000E+01    1.21360E+01
 1.60000E+01    1.37922E+01
 1.65000E+01    1.53547E+01
 1.70000E+01    1.68586E+01
 1.75000E+01    1.81487E+01
 1.80000E+01    1.93180E+01
 1.85000E+01    2.03119E+01
 1.90000E+01    2.11339E+01
 1.95000E+01    2.18921E+01
 2.00000E+01    2.23319E+01
