# n + Nd  0 : (n,d)
# jendl4.0   N.Iwamoto,A.Zukeran,K.Shibata     EVAL-Dec09
# uncertainties: n
# # energies =    69
#   E(MeV)          xs(mb) 
 5.03424E+00    0.00000E+00
 5.18071E+00    2.60407E-15
 6.16015E+00    2.12142E-14
 6.16925E+00    2.14039E-14
 6.33613E+00    2.49120E-14
 6.34219E+00    2.50394E-14
 6.48003E+00    2.79385E-14
 6.49702E+00    2.82958E-14
 6.49964E+00    2.83640E-14
 6.50000E+00    2.83748E-14
 6.50184E+00    3.26208E-13
 6.53943E+00    6.41068E-12
 6.55527E+00    8.97475E-12
 6.56632E+00    1.07635E-11
 6.62543E+00    2.03319E-11
 6.65523E+00    2.51557E-11
 6.69703E+00    3.19221E-11
 6.70401E+00    3.30518E-11
 6.81501E+00    5.10213E-11
 6.83342E+00    5.39994E-11
 6.84400E+00    5.57117E-11
 6.85973E+00    5.82597E-11
 6.88939E+00    6.30590E-11
 6.90130E+00    6.49891E-11
 6.95831E+00    7.42175E-11
 6.96134E+00    7.47075E-11
 6.99135E+00    7.95639E-11
 7.00000E+00    8.09659E-11
 7.02417E+00    7.00399E-10
 7.03517E+00    9.82332E-10
 7.04952E+00    1.35011E-09
 7.05429E+00    1.47235E-09
 7.06646E+00    1.78425E-09
 7.09457E+00    2.50467E-09
 7.11860E+00    3.12067E-09
 7.12453E+00    3.27258E-09
 7.12467E+00    3.27613E-09
 7.15158E+00    3.96573E-09
 7.15464E+00    4.04414E-09
 7.15813E+00    4.13376E-09
 7.17320E+00    4.51981E-09
 7.18544E+00    4.83347E-09
 7.20365E+00    5.30012E-09
 7.50000E+00    1.28953E-08
 8.00000E+00    4.12698E-07
 8.50000E+00    4.80075E-06
 9.00000E+00    3.35232E-05
 9.50000E+00    1.75895E-04
 1.00000E+01    7.87656E-04
 1.05000E+01    3.04299E-03
 1.10000E+01    1.00106E-02
 1.15000E+01    2.83022E-02
 1.20000E+01    6.91795E-02
 1.25000E+01    1.47879E-01
 1.30000E+01    2.83125E-01
 1.35000E+01    4.90635E-01
 1.40000E+01    7.82397E-01
 1.45000E+01    1.15866E+00
 1.50000E+01    1.62485E+00
 1.55000E+01    2.20025E+00
 1.60000E+01    2.81381E+00
 1.65000E+01    3.52202E+00
 1.70000E+01    4.30597E+00
 1.75000E+01    5.08467E+00
 1.80000E+01    5.93100E+00
 1.85000E+01    6.83087E+00
 1.90000E+01    7.73484E+00
 1.95000E+01    8.62383E+00
 2.00000E+01    9.53938E+00
