# n + Nd  0 : (n,xa)
# jendl4.0   N.Iwamoto,A.Zukeran,K.Shibata     EVAL-Dec09
#
# # energies =   113
#   E(MeV)          xs(mb) 
 1.05000E-01    2.01743E-03
 1.10000E-01    1.97997E-03
 1.20000E-01    1.91363E-03
 1.30000E-01    1.85403E-03
 1.40000E-01    1.82191E-03
 1.50000E-01    1.79115E-03
 1.60000E-01    1.76171E-03
 1.70000E-01    1.73299E-03
 1.80000E-01    1.70679E-03
 1.90000E-01    1.68303E-03
 2.00000E-01    1.65982E-03
 2.25000E-01    1.65905E-03
 2.50000E-01    1.65599E-03
 2.75000E-01    1.64882E-03
 3.00000E-01    1.64087E-03
 4.00000E-01    1.76176E-03
 5.00000E-01    1.97754E-03
 6.00000E-01    2.28308E-03
 7.00000E-01    2.64192E-03
 7.47287E-01    2.79745E-03
 8.00000E-01    2.62191E-03
 9.00000E-01    2.90981E-03
 1.00000E+00    3.30577E-03
 1.10000E+00    3.80572E-03
 1.20000E+00    4.37574E-03
 1.23671E+00    4.63925E-03
 1.30000E+00    5.02309E-03
 1.31508E+00    5.13624E-03
 1.40000E+00    5.58683E-03
 1.41701E+00    5.71581E-03
 1.44133E+00    5.77214E-03
 1.50000E+00    6.04964E-03
 1.51663E+00    6.16922E-03
 1.56652E+00    6.23872E-03
 1.56742E+00    6.21423E-03
 1.56743E+00    6.21396E-03
 1.56980E+00    6.14946E-03
 1.60000E+00    5.90877E-03
 1.61973E+00    5.94990E-03
 1.70000E+00    6.21068E-03
 1.70193E+00    6.21870E-03
 1.75148E+00    6.42573E-03
 1.75149E+00    6.42577E-03
 1.78738E+00    6.57435E-03
 1.80000E+00    6.62600E-03
 1.81222E+00    6.69809E-03
 1.86457E+00    6.96841E-03
 1.86564E+00    6.95763E-03
 1.90000E+00    7.05520E-03
 1.91371E+00    7.13513E-03
 1.92430E+00    7.14778E-03
 1.93416E+00    7.15951E-03
 1.97988E+00    7.34130E-03
 2.00000E+00    9.10771E-03
 2.00225E+00    9.12102E-03
 2.01049E+00    9.16989E-03
 2.01882E+00    9.20973E-03
 2.02550E+00    9.24169E-03
 2.03312E+00    9.25719E-03
 2.03345E+00    9.25787E-03
 2.04997E+00    9.31660E-03
 2.07842E+00    9.47240E-03
 2.08143E+00    9.48123E-03
 2.08864E+00    9.50321E-03
 2.08978E+00    9.50520E-03
 2.10536E+00    9.51575E-03
 2.10917E+00    9.51381E-03
 2.11583E+00    9.50493E-03
 2.14082E+00    9.57727E-03
 2.14949E+00    9.60632E-03
 2.14950E+00    9.60635E-03
 2.15208E+00    9.61157E-03
 2.16306E+00    9.63361E-03
 2.18892E+00    9.73945E-03
 2.19841E+00    9.76927E-03
 2.25000E+00    9.97633E-03
 2.50000E+00    1.17013E-02
 2.75000E+00    1.29507E-02
 3.00000E+00    1.60586E-02
 3.50000E+00    2.25899E-02
 4.00000E+00    3.17946E-02
 4.50000E+00    4.40276E-02
 5.00000E+00    5.98576E-02
 5.50000E+00    8.01687E-02
 6.00000E+00    1.06374E-01
 6.50000E+00    1.40266E-01
 7.00000E+00    1.84249E-01
 7.50000E+00    2.42370E-01
 8.00000E+00    3.18484E-01
 8.50000E+00    4.06604E-01
 9.00000E+00    5.14847E-01
 9.50000E+00    6.56596E-01
 1.00000E+01    8.40942E-01
 1.05000E+01    1.07365E+00
 1.10000E+01    1.35932E+00
 1.15000E+01    1.70251E+00
 1.20000E+01    2.10346E+00
 1.25000E+01    2.56268E+00
 1.30000E+01    3.07428E+00
 1.35000E+01    3.63513E+00
 1.40000E+01    4.23693E+00
 1.45000E+01    4.87354E+00
 1.50000E+01    5.53725E+00
 1.55000E+01    6.22713E+00
 1.60000E+01    6.92467E+00
 1.65000E+01    7.62431E+00
 1.70000E+01    8.33786E+00
 1.75000E+01    9.04157E+00
 1.80000E+01    9.74177E+00
 1.85000E+01    1.04261E+01
 1.90000E+01    1.11068E+01
 1.95000E+01    1.17715E+01
 2.00000E+01    1.24096E+01
