# n + Nd  0 : (n,t)
# jendl4.0   N.Iwamoto,A.Zukeran,K.Shibata     EVAL-Dec09
# uncertainties: n
# # energies =    70
#   E(MeV)          xs(mb) 
 4.89938E+00    0.00000E+00
 5.04585E+00    2.30458E-24
 6.00000E+00    7.60682E-19
 6.02524E+00    2.61414E-18
 6.03434E+00    3.53739E-18
 6.20121E+00    2.12208E-17
 6.20727E+00    2.18632E-17
 6.34511E+00    3.64822E-17
 6.36209E+00    3.82824E-17
 6.36471E+00    3.85609E-17
 6.36691E+00    3.87942E-17
 6.40450E+00    4.27805E-17
 6.42034E+00    4.44610E-17
 6.43139E+00    4.56322E-17
 6.49049E+00    5.19000E-17
 6.50000E+00    5.29088E-17
 6.52029E+00    6.95694E-15
 6.56210E+00    2.11841E-14
 6.56907E+00    2.35554E-14
 6.68006E+00    6.13226E-14
 6.69847E+00    6.75858E-14
 6.70906E+00    7.11897E-14
 6.72479E+00    7.65425E-14
 6.75444E+00    8.66317E-14
 6.76636E+00    9.06872E-14
 6.82336E+00    1.10083E-13
 6.82639E+00    1.11113E-13
 6.85640E+00    1.21326E-13
 6.88922E+00    1.32489E-13
 6.90022E+00    1.36236E-13
 6.91457E+00    1.41117E-13
 6.91934E+00    1.42741E-13
 6.93151E+00    1.46878E-13
 6.95961E+00    1.56446E-13
 6.98364E+00    1.64623E-13
 6.98957E+00    1.66636E-13
 6.98971E+00    1.66685E-13
 7.00000E+00    1.70188E-13
 7.01662E+00    1.42721E-12
 7.01968E+00    1.65869E-12
 7.02317E+00    1.92270E-12
 7.03824E+00    3.06246E-12
 7.05048E+00    3.98824E-12
 7.06869E+00    5.36559E-12
 7.50000E+00    3.79886E-11
 8.00000E+00    1.49865E-09
 8.50000E+00    1.98683E-08
 9.00000E+00    1.29807E-07
 9.50000E+00    5.61089E-07
 1.00000E+01    2.15369E-06
 1.05000E+01    8.84034E-06
 1.10000E+01    3.67027E-05
 1.15000E+01    1.38042E-04
 1.20000E+01    4.50357E-04
 1.25000E+01    1.26538E-03
 1.30000E+01    3.14896E-03
 1.35000E+01    6.99420E-03
 1.40000E+01    1.40189E-02
 1.45000E+01    2.56550E-02
 1.50000E+01    4.35861E-02
 1.55000E+01    6.86928E-02
 1.60000E+01    1.03630E-01
 1.65000E+01    1.48196E-01
 1.70000E+01    2.02640E-01
 1.75000E+01    2.67064E-01
 1.80000E+01    3.41398E-01
 1.85000E+01    4.23916E-01
 1.90000E+01    5.13760E-01
 1.95000E+01    6.07757E-01
 2.00000E+01    7.03055E-01
