# n + Th230 : (n,n'09)  
# endfb8.0   O.Iwamoto, T.Nakagawa, et al.     EVAL-FEB10
# uncertainties: y
# # energies =    53
#   E(MeV)       xs(mb)       xslow(mb)      xsupp(mb)
 6.89711E-01    0.00000E+00    0.00000E+00    0.00000E+00
 7.00000E-01    1.04283E-01    5.61035E-02    1.52462E-01
 8.00000E-01    2.34330E+00    1.26068E+00    3.42592E+00
 9.00000E-01    5.93474E+00    3.19285E+00    8.67663E+00
 1.00000E+00    1.01280E+01    5.02319E+00    1.52328E+01
 1.10000E+00    1.39246E+01    6.90620E+00    2.09430E+01
 1.20000E+00    1.73918E+01    8.03482E+00    2.67488E+01
 1.30000E+00    1.97423E+01    9.12073E+00    3.03639E+01
 1.40000E+00    2.14659E+01    9.91701E+00    3.30148E+01
 1.50000E+00    2.19244E+01    1.15540E+01    3.22948E+01
 1.60000E+00    2.19326E+01    1.15584E+01    3.23068E+01
 1.70000E+00    2.14608E+01    1.13097E+01    3.16119E+01
 1.80000E+00    2.03479E+01    1.07232E+01    2.99726E+01
 1.90000E+00    1.88872E+01    9.95346E+00    2.78209E+01
 2.00000E+00    1.72395E+01    1.22054E+01    2.22736E+01
 2.30000E+00    1.22679E+01    8.68558E+00    1.58502E+01
 2.50000E+00    9.31072E+00    7.61545E+00    1.10060E+01
 2.70000E+00    6.87212E+00    5.62087E+00    8.12337E+00
 3.00000E+00    4.18319E+00    3.68947E+00    4.67691E+00
 3.50000E+00    1.68224E+00    1.51753E+00    1.84695E+00
 4.00000E+00    6.34459E-01    5.60850E-01    7.08068E-01
 4.50000E+00    2.34360E-01    2.07170E-01    2.61550E-01
 5.00000E+00    8.99068E-02    7.58798E-02    1.03934E-01
 5.50000E+00    3.83584E-02    3.23738E-02    4.43430E-02
 6.00000E+00    1.99714E-02    1.67158E-02    2.32270E-02
 6.50000E+00    1.27604E-02    1.06803E-02    1.48405E-02
 7.00000E+00    9.62572E-03    7.62343E-03    1.16280E-02
 7.50000E+00    7.99948E-03    6.33547E-03    9.66349E-03
 8.00000E+00    7.07245E-03    5.39613E-03    8.74877E-03
 8.50000E+00    6.40800E-03    4.88917E-03    7.92683E-03
 9.00000E+00    5.91131E-03    4.48070E-03    7.34192E-03
 9.50000E+00    5.48061E-03    4.15424E-03    6.80698E-03
 1.00000E+01    5.11235E-03    3.89534E-03    6.32936E-03
 1.05000E+01    5.01909E-03    3.82428E-03    6.21390E-03
 1.10000E+01    4.57434E-03    3.48541E-03    5.66327E-03
 1.15000E+01    4.35716E-03    3.31993E-03    5.39439E-03
 1.20000E+01    4.16175E-03    3.21693E-03    5.10657E-03
 1.25000E+01    4.07983E-03    3.15361E-03    5.00605E-03
 1.30000E+01    3.76569E-03    2.91078E-03    4.62060E-03
 1.35000E+01    3.37885E-03    2.61177E-03    4.14593E-03
 1.40000E+01    3.52073E-03    2.75670E-03    4.28476E-03
 1.45000E+01    3.39725E-03    2.66002E-03    4.13448E-03
 1.50000E+01    3.06885E-03    2.42127E-03    3.71643E-03
 1.55000E+01    3.03577E-03    2.39517E-03    3.67637E-03
 1.60000E+01    3.01909E-03    2.39408E-03    3.64410E-03
 1.65000E+01    2.74599E-03    2.17751E-03    3.31447E-03
 1.70000E+01    2.64246E-03    2.09542E-03    3.18950E-03
 1.75000E+01    2.58047E-03    2.04626E-03    3.11468E-03
 1.80000E+01    2.48297E-03    1.98387E-03    2.98207E-03
 1.85000E+01    2.31769E-03    1.85181E-03    2.78357E-03
 1.90000E+01    2.20005E-03    1.75782E-03    2.64228E-03
 1.95000E+01    2.18683E-03    1.74726E-03    2.62640E-03
 2.00000E+01    2.28363E-03    1.82460E-03    2.74266E-03
