# n + Th230 : (n,n'03)  
# endfb8.0   O.Iwamoto, T.Nakagawa, et al.     EVAL-FEB10
# uncertainties: y
# # energies =    62
#   E(MeV)       xs(mb)       xslow(mb)      xsupp(mb)
 3.58164E-01    0.00000E+00    0.00000E+00    0.00000E+00
 4.00000E-01    1.06229E-02    5.81070E-03    1.54351E-02
 5.00000E-01    1.56464E-01    8.55855E-02    2.27343E-01
 5.10388E-01    1.91627E-01    1.04820E-01    2.78434E-01
 5.74277E-01    5.23209E-01    2.86194E-01    7.60224E-01
 5.96705E-01    6.69719E-01    3.66335E-01    9.73103E-01
 6.00000E-01    6.94710E-01    1.82669E-01    1.20675E+00
 6.37684E-01    1.03500E+00    2.72146E-01    1.79785E+00
 6.80571E-01    1.55507E+00    4.08895E-01    2.70125E+00
 6.89711E-01    1.68352E+00    4.42670E-01    2.92437E+00
 7.00000E-01    1.82120E+00    4.78872E-01    3.16353E+00
 8.00000E-01    3.60893E+00    6.52955E-01    6.56491E+00
 9.00000E-01    5.74891E+00    1.04014E+00    1.04577E+01
 1.00000E+00    8.09418E+00    1.65079E+00    1.45376E+01
 1.10000E+00    1.07172E+01    2.18575E+00    1.92486E+01
 1.20000E+00    1.33522E+01    3.24304E+00    2.34614E+01
 1.30000E+00    1.61924E+01    3.93288E+00    2.84519E+01
 1.40000E+00    1.87265E+01    4.54837E+00    3.29046E+01
 1.50000E+00    2.11158E+01    6.18513E+00    3.60465E+01
 1.60000E+00    2.30662E+01    6.75643E+00    3.93760E+01
 1.70000E+00    2.47861E+01    7.26021E+00    4.23120E+01
 1.80000E+00    2.61931E+01    7.67234E+00    4.47139E+01
 1.90000E+00    2.72481E+01    7.98137E+00    4.65148E+01
 2.00000E+00    2.81240E+01    1.04311E+01    4.58169E+01
 2.30000E+00    2.93457E+01    1.08842E+01    4.78072E+01
 2.50000E+00    2.92765E+01    1.34081E+01    4.51449E+01
 2.70000E+00    2.90297E+01    1.32951E+01    4.47643E+01
 3.00000E+00    2.85181E+01    1.37445E+01    4.32917E+01
 3.50000E+00    2.54642E+01    1.20178E+01    3.89106E+01
 4.00000E+00    2.36052E+01    1.04324E+01    3.67780E+01
 4.50000E+00    2.10287E+01    9.29371E+00    3.27637E+01
 5.00000E+00    1.86611E+01    8.28524E+00    2.90370E+01
 5.50000E+00    1.71157E+01    7.59910E+00    2.66323E+01
 6.00000E+00    1.55978E+01    7.64151E+00    2.35541E+01
 6.50000E+00    1.47087E+01    7.20593E+00    2.22115E+01
 7.00000E+00    1.38229E+01    6.82669E+00    2.08191E+01
 7.50000E+00    1.31215E+01    6.48029E+00    1.97627E+01
 8.00000E+00    1.24206E+01    5.94902E+00    1.88922E+01
 8.50000E+00    1.17367E+01    5.62145E+00    1.78519E+01
 9.00000E+00    1.10528E+01    5.22752E+00    1.68781E+01
 9.50000E+00    1.03937E+01    4.91579E+00    1.58716E+01
 1.00000E+01    9.73457E+00    4.62293E+00    1.48462E+01
 1.05000E+01    9.13045E+00    4.33604E+00    1.39249E+01
 1.10000E+01    8.52633E+00    4.04914E+00    1.30035E+01
 1.15000E+01    7.98569E+00    3.79239E+00    1.21790E+01
 1.20000E+01    7.44505E+00    3.63262E+00    1.12575E+01
 1.25000E+01    6.97342E+00    3.40250E+00    1.05443E+01
 1.30000E+01    6.50178E+00    3.17238E+00    9.83118E+00
 1.35000E+01    6.10302E+00    2.97781E+00    9.22823E+00
 1.40000E+01    5.70427E+00    2.84029E+00    8.56825E+00
 1.45000E+01    5.37436E+00    2.67602E+00    8.07270E+00
 1.50000E+01    5.04446E+00    2.52191E+00    7.56701E+00
 1.55000E+01    4.77212E+00    2.38576E+00    7.15848E+00
 1.60000E+01    4.49977E+00    2.25868E+00    6.74086E+00
 1.65000E+01    4.27139E+00    2.14404E+00    6.39874E+00
 1.70000E+01    4.04301E+00    2.02941E+00    6.05661E+00
 1.75000E+01    3.84739E+00    1.93121E+00    5.76357E+00
 1.80000E+01    3.65177E+00    1.85492E+00    5.44862E+00
 1.85000E+01    3.48209E+00    1.76873E+00    5.19545E+00
 1.90000E+01    3.31240E+00    1.68254E+00    4.94226E+00
 1.95000E+01    3.16515E+00    1.60774E+00    4.72256E+00
 2.00000E+01    3.01790E+00    1.53294E+00    4.50286E+00
