# n + Th230 : (n,n'07)  
# endfb8.0   O.Iwamoto, T.Nakagawa, et al.     EVAL-FEB10
# uncertainties: y
# # energies =    55
#   E(MeV)       xs(mb)       xslow(mb)      xsupp(mb)
 6.37684E-01    0.00000E+00    0.00000E+00    0.00000E+00
 6.80571E-01    5.37664E+01    4.35507E+01    6.39821E+01
 6.89711E-01    6.14605E+01    4.97829E+01    7.31381E+01
 7.00000E-01    6.92681E+01    5.61071E+01    8.24291E+01
 8.00000E-01    1.11933E+02    9.06656E+01    1.33200E+02
 9.00000E-01    1.23114E+02    9.97222E+01    1.46506E+02
 1.00000E+00    1.18642E+02    8.36418E+01    1.53642E+02
 1.10000E+00    1.07701E+02    7.59285E+01    1.39474E+02
 1.20000E+00    9.40106E+01    6.61831E+01    1.21838E+02
 1.30000E+00    8.05984E+01    5.67410E+01    1.04456E+02
 1.40000E+00    6.74299E+01    4.74704E+01    8.73894E+01
 1.50000E+00    5.59911E+01    4.39527E+01    6.80295E+01
 1.60000E+00    4.63288E+01    3.63679E+01    5.62897E+01
 1.70000E+00    3.81694E+01    2.99628E+01    4.63760E+01
 1.80000E+00    3.11702E+01    2.44684E+01    3.78720E+01
 1.90000E+00    2.54280E+01    1.99608E+01    3.08952E+01
 2.00000E+00    2.07147E+01    1.77935E+01    2.36359E+01
 2.30000E+00    1.11401E+01    9.56913E+00    1.27111E+01
 2.50000E+00    7.32118E+00    6.34738E+00    8.29498E+00
 2.70000E+00    4.76670E+00    4.13268E+00    5.40072E+00
 3.00000E+00    2.47081E+00    2.20888E+00    2.73274E+00
 3.50000E+00    8.33256E-01    7.44080E-01    9.22432E-01
 4.00000E+00    2.97218E-01    2.60656E-01    3.33780E-01
 4.50000E+00    1.31897E-01    1.15672E-01    1.48122E-01
 5.00000E+00    7.79318E-02    6.36694E-02    9.21942E-02
 5.50000E+00    5.80496E-02    4.74259E-02    6.86733E-02
 6.00000E+00    4.93658E-02    3.79619E-02    6.07697E-02
 6.50000E+00    4.39306E-02    3.37823E-02    5.40789E-02
 7.00000E+00    3.98711E-02    3.01820E-02    4.95602E-02
 7.50000E+00    3.64311E-02    2.75780E-02    4.52842E-02
 8.00000E+00    3.37823E-02    2.54369E-02    4.21277E-02
 8.50000E+00    3.13472E-02    2.36034E-02    3.90910E-02
 9.00000E+00    2.92740E-02    2.21018E-02    3.64462E-02
 9.50000E+00    2.73102E-02    2.06191E-02    3.40013E-02
 1.00000E+01    2.55431E-02    1.94381E-02    3.16481E-02
 1.05000E+01    2.27640E-02    1.73232E-02    2.82048E-02
 1.10000E+01    1.99714E-02    1.51981E-02    2.47447E-02
 1.15000E+01    2.01989E-02    1.53712E-02    2.50266E-02
 1.20000E+01    2.17335E-02    1.67998E-02    2.66672E-02
 1.25000E+01    2.07560E-02    1.60442E-02    2.54678E-02
 1.30000E+01    1.64051E-02    1.26810E-02    2.01292E-02
 1.35000E+01    1.47671E-02    1.14148E-02    1.81194E-02
 1.40000E+01    1.54376E-02    1.21029E-02    1.87723E-02
 1.45000E+01    1.79680E-02    1.40866E-02    2.18493E-02
 1.50000E+01    1.82918E-02    1.44321E-02    2.21515E-02
 1.55000E+01    1.71171E-02    1.35053E-02    2.07289E-02
 1.60000E+01    1.53905E-02    1.22045E-02    1.85765E-02
 1.65000E+01    1.19775E-02    9.49800E-03    1.44570E-02
 1.70000E+01    1.13557E-02    9.00492E-03    1.37065E-02
 1.75000E+01    1.06062E-02    8.41058E-03    1.28018E-02
 1.80000E+01    1.07133E-02    8.58125E-03    1.28453E-02
 1.85000E+01    1.22572E-02    9.81790E-03    1.46965E-02
 1.90000E+01    1.36559E-02    1.09382E-02    1.63736E-02
 1.95000E+01    1.45026E-02    1.16164E-02    1.73888E-02
 2.00000E+01    1.47166E-02    1.17879E-02    1.76453E-02
