# n + Th230 : (n,f)     
# endfb8.0   O.Iwamoto, T.Nakagawa, et al.     EVAL-FEB10
# uncertainties: y
# # energies =    69
#   E(MeV)       xs(mb)       xslow(mb)      xsupp(mb)
 1.00000E-10    6.63078E+01    6.63078E+01    6.63078E+01
 5.00000E-09    1.80467E+01    1.80467E+01    1.80467E+01
 1.00000E-08    1.36662E+01    1.36662E+01    1.36662E+01
 1.50000E-08    1.14814E+01    1.14814E+01    1.14814E+01
 2.00000E-08    1.01010E+01    1.01010E+01    1.01010E+01
 2.50000E-08    9.12559E+00    9.12559E+00    9.12559E+00
 3.00000E-08    8.38882E+00    8.38882E+00    8.38882E+00
 3.50000E-08    7.71301E+00    7.71301E+00    7.71301E+00
 4.20000E-08    7.05506E+00    7.05506E+00    7.05506E+00
 5.00000E-08    6.50770E+00    6.50770E+00    6.50770E+00
 5.80000E-08    6.04871E+00    6.04871E+00    6.04871E+00
 6.70000E-08    5.58217E+00    5.58217E+00    5.58217E+00
 8.00000E-08    5.05154E+00    5.05154E+00    5.05154E+00
 1.00000E-07    4.39513E+00    4.39513E+00    4.39513E+00
 1.40000E-07    3.79270E+00    3.79270E+00    3.79270E+00
 1.80000E-07    3.38681E+00    3.38681E+00    3.38681E+00
 2.20000E-07    3.11908E+00    3.11908E+00    3.11908E+00
 2.50000E-07    2.93659E+00    2.93659E+00    2.93659E+00
 2.80000E-07    2.80549E+00    2.80549E+00    2.80549E+00
 3.00000E-07    2.71342E+00    2.71342E+00    2.71342E+00
 3.20000E-07    2.61100E+00    2.61100E+00    2.61100E+00
 3.50000E-07    2.46963E+00    2.46963E+00    2.46963E+00
 4.00000E-07    2.25975E+00    2.25975E+00    2.25975E+00
 5.00000E-07    2.02128E+00    2.02128E+00    2.02128E+00
 6.25000E-07    1.80868E+00    1.80868E+00    1.80868E+00
 7.80000E-07    1.67419E+00    1.67419E+00    1.67419E+00
 8.50000E-07    1.61085E+00    1.61085E+00    1.61085E+00
 9.10000E-07    1.56663E+00    1.56663E+00    1.56663E+00
 9.50000E-07    1.54104E+00    1.54104E+00    1.54104E+00
 9.72000E-07    1.52291E+00    1.52291E+00    1.52291E+00
 9.96000E-07    1.50454E+00    1.50454E+00    1.50454E+00
 1.02000E-06    1.48639E+00    1.48639E+00    1.48639E+00
 1.04500E-06    1.46814E+00    1.46814E+00    1.46814E+00
 1.07100E-06    1.45014E+00    1.45014E+00    1.45014E+00
 1.09700E-06    1.43289E+00    1.43289E+00    1.43289E+00
 1.12300E-06    1.41583E+00    1.41583E+00    1.41583E+00
 1.15000E-06    1.36458E+00    1.36458E+00    1.36458E+00
 1.30000E-06    1.27583E+00    1.27583E+00    1.27583E+00
 1.50000E-06    1.13111E+00    1.13111E+00    1.13111E+00
 2.10000E-06    9.83208E-01    9.83208E-01    9.83208E-01
 2.60000E-06    8.76847E-01    8.76847E-01    8.76847E-01
 3.30000E-06    7.85945E-01    7.85945E-01    7.85945E-01
 4.00000E-06    6.00176E-01    6.00176E-01    6.00176E-01
 9.87700E-06    4.19841E-01    4.19841E-01    4.19841E-01
 1.59680E-05    3.23480E-01    3.23480E-01    3.23480E-01
 2.77000E-05    2.44635E-01    2.44635E-01    2.44635E-01
 4.80520E-05    1.89497E-01    1.89497E-01    1.89497E-01
 7.55014E-05    1.42682E-01    1.42682E-01    1.42682E-01
 1.48728E-04    9.87489E-02    9.87489E-02    9.87489E-02
 3.67262E-04    9.00003E-02    9.00003E-02    9.00003E-02
 9.06898E-04    9.00000E-02    9.00000E-03    1.71000E-01
 1.42510E-03    9.00000E-02    9.00000E-03    1.71000E-01
 2.23945E-03    9.00000E-02    9.00000E-03    1.71000E-01
 3.51910E-03    9.00000E-02    9.00000E-03    1.71000E-01
 5.53000E-03    9.00000E-02    9.00000E-03    1.71000E-01
 9.11800E-03    9.00000E-02    9.00000E-03    1.71000E-01
 1.50300E-02    9.00000E-02    9.00000E-03    1.71000E-01
 2.47800E-02    9.00000E-02    9.00000E-03    1.71000E-01
 4.08500E-02    9.00000E-02    9.00000E-03    1.71000E-01
 6.73400E-02    9.04476E-02    9.04476E-03    1.71850E-01
 1.11000E-01    1.12628E-01    1.12628E-02    2.13993E-01
 1.83000E-01    2.33126E-01    2.33126E-02    4.42939E-01
 3.02000E-01    7.98861E-01    1.99715E-01    1.39801E+00
 5.00000E-01    1.48699E+01    1.31606E+01    1.65792E+01
 8.21000E-01    1.64751E+02    1.37394E+02    1.92108E+02
 1.35300E+00    2.88682E+02    2.63255E+02    3.14109E+02
 2.23100E+00    2.85733E+02    2.58907E+02    3.12559E+02
 3.67900E+00    2.59894E+02    2.40379E+02    2.79409E+02
 6.06500E+00    5.46880E+02    5.04830E+02    5.88930E+02
