# n + Th230 :  n        
# endfb8.0   O.Iwamoto, T.Nakagawa, et al.     EVAL-FEB10
# uncertainties: y
# # energies =    70
#   E(MeV)       xs(mb)       xslow(mb)      xsupp(mb)
 1.10967E-01    0.00000E+00    0.00000E+00    0.00000E+00
 1.20000E-01    1.53587E-02    1.16109E-02    1.91065E-02
 1.40000E-01    1.84817E-02    1.39719E-02    2.29915E-02
 1.70000E-01    4.05229E-02    3.06347E-02    5.04111E-02
 1.74863E-01    4.18161E-02    3.16123E-02    5.20199E-02
 2.00000E-01    4.58116E-02    3.46328E-02    5.69904E-02
 2.50000E-01    1.44938E-01    1.09571E-01    1.80305E-01
 3.00000E-01    3.07503E-01    2.31849E-01    3.83157E-01
 3.58164E-01    7.43488E-01    5.60570E-01    9.26406E-01
 4.00000E-01    9.88309E-01    7.35293E-01    1.24132E+00
 5.00000E-01    2.51637E+00    1.87216E+00    3.16058E+00
 5.10388E-01    2.88654E+00    2.14756E+00    3.62552E+00
 5.74277E-01    4.10070E+00    3.05089E+00    5.15051E+00
 5.96705E-01    4.37843E+00    3.25751E+00    5.49935E+00
 6.00000E-01    4.40004E+00    3.19001E+00    5.61007E+00
 6.37684E-01    5.28295E+00    3.83011E+00    6.73579E+00
 6.80571E-01    6.83358E+00    4.95431E+00    8.71285E+00
 6.89711E-01    6.92373E+00    5.01967E+00    8.82779E+00
 7.00000E-01    7.02164E+00    5.09066E+00    8.95262E+00
 8.00000E-01    8.75611E+01    7.26754E+01    1.02447E+02
 9.00000E-01    2.76451E+02    2.29453E+02    3.23449E+02
 1.00000E+00    5.12377E+02    4.04774E+02    6.19980E+02
 1.10000E+00    7.55865E+02    5.97128E+02    9.14602E+02
 1.20000E+00    9.94488E+02    7.48836E+02    1.24014E+03
 1.30000E+00    1.22338E+03    9.21188E+02    1.52557E+03
 1.40000E+00    1.43470E+03    1.08031E+03    1.78909E+03
 1.50000E+00    1.62816E+03    1.19343E+03    2.06289E+03
 1.60000E+00    1.79998E+03    1.31938E+03    2.28058E+03
 1.70000E+00    1.95395E+03    1.43223E+03    2.47567E+03
 1.80000E+00    2.08958E+03    1.53165E+03    2.64751E+03
 1.90000E+00    2.20729E+03    1.61793E+03    2.79665E+03
 2.00000E+00    2.30849E+03    1.75442E+03    2.86256E+03
 2.30000E+00    2.52637E+03    1.92001E+03    3.13273E+03
 2.50000E+00    2.61764E+03    2.11766E+03    3.11762E+03
 2.70000E+00    2.67987E+03    2.16800E+03    3.19174E+03
 3.00000E+00    2.73552E+03    2.32235E+03    3.14869E+03
 3.50000E+00    2.77548E+03    2.42016E+03    3.13080E+03
 4.00000E+00    2.78542E+03    2.48454E+03    3.08630E+03
 4.50000E+00    2.76701E+03    2.46812E+03    3.06590E+03
 5.00000E+00    2.77236E+03    2.50980E+03    3.03492E+03
 5.50000E+00    2.75219E+03    2.49154E+03    3.01284E+03
 6.00000E+00    2.72535E+03    2.46069E+03    2.99001E+03
 6.50000E+00    2.50687E+03    2.26343E+03    2.75031E+03
 7.00000E+00    2.23039E+03    1.93596E+03    2.52482E+03
 7.50000E+00    1.77053E+03    1.53680E+03    2.00426E+03
 8.00000E+00    1.30965E+03    1.11186E+03    1.50743E+03
 8.50000E+00    9.53723E+02    8.09691E+02    1.09776E+03
 9.00000E+00    7.13349E+02    5.96339E+02    8.30359E+02
 9.50000E+00    5.52361E+02    4.61758E+02    6.42964E+02
 1.00000E+01    4.47325E+02    3.66799E+02    5.27851E+02
 1.05000E+01    3.78416E+02    3.10294E+02    4.46538E+02
 1.10000E+01    3.29269E+02    2.69995E+02    3.88543E+02
 1.15000E+01    2.93132E+02    2.40363E+02    3.45901E+02
 1.20000E+01    2.66045E+02    2.10970E+02    3.21120E+02
 1.25000E+01    2.46934E+02    1.95815E+02    2.98053E+02
 1.30000E+01    2.31405E+02    1.83501E+02    2.79309E+02
 1.35000E+01    2.18632E+02    1.73372E+02    2.63892E+02
 1.40000E+01    2.07633E+02    1.62157E+02    2.53109E+02
 1.45000E+01    1.97843E+02    1.54511E+02    2.41175E+02
 1.50000E+01    1.89066E+02    1.47656E+02    2.30476E+02
 1.55000E+01    1.82078E+02    1.42198E+02    2.21958E+02
 1.60000E+01    1.74452E+02    1.36593E+02    2.12311E+02
 1.65000E+01    1.68207E+02    1.31703E+02    2.04711E+02
 1.70000E+01    1.62240E+02    1.27031E+02    1.97449E+02
 1.75000E+01    1.56710E+02    1.22701E+02    1.90719E+02
 1.80000E+01    1.50210E+02    1.18513E+02    1.81907E+02
 1.85000E+01    1.45059E+02    1.14449E+02    1.75669E+02
 1.90000E+01    1.40035E+02    1.10485E+02    1.69585E+02
 1.95000E+01    1.35175E+02    1.06650E+02    1.63700E+02
 2.00000E+01    1.31536E+02    1.03779E+02    1.59293E+02
