# n + Th230 : (n,el)    
# endfb8.0   O.Iwamoto, T.Nakagawa, et al.     EVAL-FEB10
# uncertainties: y
# # energies =    69
#   E(MeV)       xs(mb)       xslow(mb)      xsupp(mb)
 1.00000E-10    1.18059E+04    1.18059E+04    1.18059E+04
 5.00000E-09    1.04718E+04    1.04718E+04    1.04718E+04
 1.00000E-08    1.04306E+04    1.04306E+04    1.04306E+04
 1.50000E-08    1.04115E+04    1.04115E+04    1.04115E+04
 2.00000E-08    1.03979E+04    1.03979E+04    1.03979E+04
 2.50000E-08    1.03882E+04    1.03882E+04    1.03882E+04
 3.00000E-08    1.03800E+04    1.03800E+04    1.03800E+04
 3.50000E-08    1.03703E+04    1.03703E+04    1.03703E+04
 4.20000E-08    1.03597E+04    1.03597E+04    1.03597E+04
 5.00000E-08    1.03494E+04    1.03494E+04    1.03494E+04
 5.80000E-08    1.03385E+04    1.03385E+04    1.03385E+04
 6.70000E-08    1.03246E+04    1.03246E+04    1.03246E+04
 8.00000E-08    1.03038E+04    1.03038E+04    1.03038E+04
 1.00000E-07    1.02673E+04    1.02673E+04    1.02673E+04
 1.40000E-07    1.02170E+04    1.02170E+04    1.02170E+04
 1.80000E-07    1.01649E+04    1.01649E+04    1.01649E+04
 2.20000E-07    1.01170E+04    1.01170E+04    1.01170E+04
 2.50000E-07    1.00746E+04    1.00746E+04    1.00746E+04
 2.80000E-07    1.00375E+04    1.00375E+04    1.00375E+04
 3.00000E-07    1.00078E+04    1.00078E+04    1.00078E+04
 3.20000E-07    9.96842E+03    9.96842E+03    9.96842E+03
 3.50000E-07    9.90345E+03    9.90345E+03    9.90345E+03
 4.00000E-07    9.77026E+03    9.77026E+03    9.77026E+03
 5.00000E-07    9.53230E+03    9.53230E+03    9.53230E+03
 6.25000E-07    9.14821E+03    9.14821E+03    9.14821E+03
 7.80000E-07    8.73036E+03    8.73036E+03    8.73036E+03
 8.50000E-07    8.42229E+03    8.42229E+03    8.42229E+03
 9.10000E-07    8.13844E+03    8.13844E+03    8.13844E+03
 9.50000E-07    7.93633E+03    7.93633E+03    7.93633E+03
 9.72000E-07    7.77015E+03    7.77015E+03    7.77015E+03
 9.96000E-07    7.58033E+03    7.58033E+03    7.58033E+03
 1.02000E-06    7.36612E+03    7.36612E+03    7.36612E+03
 1.04500E-06    7.11758E+03    7.11758E+03    7.11758E+03
 1.07100E-06    6.83264E+03    6.83264E+03    6.83264E+03
 1.09700E-06    6.50952E+03    6.50952E+03    6.50952E+03
 1.12300E-06    6.13232E+03    6.13232E+03    6.13232E+03
 1.15000E-06    4.25362E+03    4.25362E+03    4.25362E+03
 1.30000E-06    7.34615E+04    7.34615E+04    7.34615E+04
 1.50000E-06    2.02629E+04    2.02629E+04    2.02629E+04
 2.10000E-06    1.32610E+04    1.32610E+04    1.32610E+04
 2.60000E-06    1.22964E+04    1.22964E+04    1.22964E+04
 3.30000E-06    1.17629E+04    1.17629E+04    1.17629E+04
 4.00000E-06    1.07413E+04    1.07413E+04    1.07413E+04
 9.87700E-06    7.65284E+03    7.65284E+03    7.65284E+03
 1.59680E-05    1.31252E+05    1.31252E+05    1.31252E+05
 2.77000E-05    2.35173E+04    2.35173E+04    2.35173E+04
 4.80520E-05    2.67271E+04    2.67271E+04    2.67271E+04
 7.55014E-05    3.52800E+04    3.52800E+04    3.52800E+04
 1.48728E-04    5.45487E+04    5.45487E+04    5.45487E+04
 3.67262E-04    3.06485E+04    3.06485E+04    3.06485E+04
 9.06898E-04    2.07420E+04    1.21340E+04    2.93500E+04
 1.42510E-03    1.92831E+04    1.12805E+04    2.72856E+04
 2.23945E-03    1.80052E+04    1.11988E+04    2.48115E+04
 3.51910E-03    1.69116E+04    1.05186E+04    2.33046E+04
 5.53000E-03    1.59330E+04    1.05793E+04    2.12868E+04
 9.11800E-03    1.50986E+04    1.03120E+04    1.98852E+04
 1.50300E-02    1.43997E+04    9.96397E+03    1.88354E+04
 2.47800E-02    1.37827E+04    9.90934E+03    1.76561E+04
 4.08500E-02    1.31456E+04    9.88536E+03    1.64058E+04
 6.73400E-02    1.22057E+04    9.48360E+03    1.49279E+04
 1.11000E-01    1.09429E+04    8.93996E+03    1.29459E+04
 1.83000E-01    9.47067E+03    7.73716E+03    1.12042E+04
 3.02000E-01    7.75944E+03    7.23005E+03    8.28882E+03
 5.00000E-01    5.82248E+03    5.58947E+03    6.05549E+03
 8.21000E-01    4.08344E+03    3.94894E+03    4.21795E+03
 1.35300E+00    3.57494E+03    3.29249E+03    3.85738E+03
 2.23100E+00    4.07794E+03    3.61711E+03    4.53877E+03
 3.67900E+00    4.05234E+03    3.86420E+03    4.24047E+03
 6.06500E+00    2.96891E+03    2.63637E+03    3.30145E+03
