# n + Sn120 : (n,tot)   
# endfb8.0   Mughabghab, Kawano                EVAL-DEC04
# uncertainties: n
# # energies =   171
#   E(MeV)       xs(mb) 
 1.00000E-11    1.08698E+04
 1.00000E-07    5.66584E+03
 4.13990E-07    5.64510E+03
 5.31580E-07    5.64056E+03
 6.82560E-07    5.63641E+03
 8.76420E-07    5.63237E+03
 1.12540E-06    5.62976E+03
 1.44500E-06    5.62781E+03
 1.85540E-06    5.62532E+03
 2.37240E-06    5.62211E+03
 3.05900E-06    5.61794E+03
 3.92790E-06    5.61262E+03
 5.04350E-06    5.60580E+03
 6.47600E-06    5.59704E+03
 8.31530E-06    5.58761E+03
 1.06770E-05    5.57937E+03
 1.37100E-05    5.56890E+03
 1.76030E-05    5.55546E+03
 2.26030E-05    5.53795E+03
 2.92030E-05    5.51574E+03
 3.72670E-05    5.48757E+03
 4.78510E-05    5.45517E+03
 6.14420E-05    5.45668E+03
 7.88930E-05    5.38088E+03
 1.01300E-04    5.33105E+03
 1.30070E-04    5.31178E+03
 1.67020E-04    5.22577E+03
 2.14450E-04    5.16525E+03
 2.75360E-04    5.10775E+03
 3.53580E-04    6.33494E+03
 4.54000E-04    4.98630E+03
 5.82950E-04    4.91084E+03
 7.48520E-04    7.41426E+03
 9.61120E-04    5.06047E+03
 1.23410E-03    5.40818E+03
 1.58460E-03    5.75129E+03
 2.03470E-03    4.77249E+03
 2.24870E-03    4.74232E+03
 2.48520E-03    4.71441E+03
 2.61260E-03    4.68140E+03
 2.74650E-03    4.84256E+03
 3.03540E-03    8.00901E+03
 3.35460E-03    4.86926E+03
 3.70740E-03    5.04767E+03
 4.30740E-03    5.64115E+03
 5.53080E-03    4.81555E+03
 7.10170E-03    6.54733E+03
 9.11880E-03    5.73281E+03
 1.17090E-02    5.10395E+03
 1.50340E-02    6.15295E+03
 1.93050E-02    5.24540E+03
 2.18750E-02    6.27856E+03
 2.35790E-02    6.35714E+03
 2.41760E-02    5.02203E+03
 2.47880E-02    6.49528E+03
 2.60580E-02    6.25454E+03
 2.70000E-02    6.51693E+03
 2.85000E-02    5.89575E+03
 3.18280E-02    5.33618E+03
 3.43070E-02    5.41335E+03
 4.08680E-02    5.38120E+03
 4.63090E-02    5.83658E+03
 5.24750E-02    6.21487E+03
 5.65620E-02    6.24114E+03
 6.73790E-02    6.26665E+03
 7.20000E-02    6.28393E+03
 7.95000E-02    6.29786E+03
 8.25000E-02    6.30608E+03
 8.65170E-02    6.32303E+03
 9.80370E-02    6.28511E+03
 1.11090E-01    6.27936E+03
 1.16790E-01    6.28210E+03
 1.22770E-01    6.28499E+03
 1.29070E-01    6.28802E+03
 1.35690E-01    6.29121E+03
 1.42640E-01    6.29456E+03
 1.49960E-01    6.29809E+03
 1.57640E-01    6.30235E+03
 1.65730E-01    6.31096E+03
 1.74220E-01    6.32084E+03
 1.83160E-01    6.33124E+03
 1.92550E-01    6.34217E+03
 2.02420E-01    6.35366E+03
 2.12800E-01    6.36573E+03
 2.23710E-01    6.37843E+03
 2.35180E-01    6.39178E+03
 2.47240E-01    6.41318E+03
 2.73240E-01    6.43606E+03
 2.87250E-01    6.44819E+03
 2.94520E-01    6.45382E+03
 2.97200E-01    6.45598E+03
 2.98500E-01    6.45853E+03
 3.01970E-01    6.47712E+03
 3.33730E-01    6.51291E+03
 3.68830E-01    6.54207E+03
 3.87740E-01    6.56285E+03
 4.07620E-01    6.59617E+03
 4.50490E-01    6.63514E+03
 4.97870E-01    6.66009E+03
 5.23400E-01    6.67786E+03
 5.50230E-01    6.69648E+03
 5.78440E-01    6.70989E+03
 6.08100E-01    6.71989E+03
 6.39280E-01    6.73040E+03
 6.72060E-01    6.74144E+03
 7.06510E-01    6.75001E+03
 7.42740E-01    6.75185E+03
 7.80820E-01    6.75188E+03
 8.20850E-01    6.74264E+03
 8.62940E-01    6.73145E+03
 9.07180E-01    6.71804E+03
 9.61640E-01    6.69672E+03
 1.00260E+00    6.65904E+03
 1.10800E+00    6.60648E+03
 1.16480E+00    6.55975E+03
 1.22460E+00    6.51066E+03
 1.28730E+00    6.45407E+03
 1.35340E+00    6.38430E+03
 1.42270E+00    6.31067E+03
 1.49570E+00    6.23232E+03
 1.57240E+00    6.14078E+03
 1.65300E+00    6.04216E+03
 1.73770E+00    5.93848E+03
 1.82680E+00    5.82942E+03
 1.92050E+00    5.71485E+03
 2.01900E+00    5.59548E+03
 2.12250E+00    5.47031E+03
 2.23130E+00    5.36128E+03
 2.30690E+00    5.29363E+03
 2.34570E+00    5.25918E+03
 2.36530E+00    5.23752E+03
 2.38520E+00    5.18474E+03
 2.46600E+00    5.07602E+03
 2.59240E+00    4.94477E+03
 2.72530E+00    4.82055E+03
 2.86500E+00    4.70000E+03
 3.01190E+00    4.58771E+03
 3.16640E+00    4.48730E+03
 3.32870E+00    4.35899E+03
 3.67880E+00    4.22937E+03
 4.06570E+00    4.14701E+03
 4.49330E+00    4.10184E+03
 4.72370E+00    4.08485E+03
 4.96590E+00    4.06824E+03
 5.22050E+00    4.05819E+03
 5.48810E+00    4.05470E+03
 5.76950E+00    4.05764E+03
 6.06530E+00    4.06449E+03
 6.37630E+00    4.07700E+03
 6.59240E+00    4.08496E+03
 6.70320E+00    4.10212E+03
 7.04690E+00    4.13278E+03
 7.40820E+00    4.17369E+03
 7.78800E+00    4.22098E+03
 8.18730E+00    4.27807E+03
 8.60710E+00    4.33838E+03
 9.04840E+00    4.40178E+03
 9.51230E+00    4.46843E+03
 1.00000E+01    4.53221E+03
 1.05130E+01    4.58675E+03
 1.10520E+01    4.63048E+03
 1.16180E+01    4.66087E+03
 1.22140E+01    4.67584E+03
 1.28400E+01    4.67376E+03
 1.34990E+01    4.66054E+03
 1.38400E+01    4.64581E+03
 1.41910E+01    4.62610E+03
 1.45500E+01    4.60200E+03
 1.49180E+01    4.55784E+03
 1.56830E+01    4.48623E+03
 1.64870E+01    4.40218E+03
