# n + Sn120 : (n,xa)    
# endfb8.0   Mughabghab, Kawano                EVAL-DEC04
# 
# # energies =    89
#   E(MeV)        xs(mb) 
 1.18112E+00    6.63513E-15
 1.20000E+00    6.74586E-15
 1.30000E+00    7.33246E-15
 1.40000E+00    7.91905E-15
 1.50000E+00    8.50565E-15
 1.60000E+00    9.09225E-15
 1.70000E+00    9.67884E-15
 1.80000E+00    1.02654E-14
 1.89088E+00    1.07986E-14
 1.90000E+00    1.08520E-14
 2.00000E+00    1.14386E-14
 2.10000E+00    1.20252E-14
 2.11485E+00    1.21124E-14
 2.17810E+00    1.24834E-14
 2.19128E+00    1.25607E-14
 2.20000E+00    1.26118E-14
 2.21276E+00    1.26867E-14
 2.30000E+00    1.31984E-14
 2.30349E+00    1.32189E-14
 2.31632E+00    1.32942E-14
 2.37519E+00    1.36395E-14
 2.40000E+00    1.37850E-14
 2.42049E+00    1.39052E-14
 2.44127E+00    1.40271E-14
 2.48637E+00    1.42917E-14
 2.50000E+00    1.43716E-14
 2.50251E+00    1.43863E-14
 2.56137E+00    1.47316E-14
 2.60000E+00    1.49582E-14
 2.60901E+00    1.50111E-14
 2.66559E+00    1.53429E-14
 2.70000E+00    1.55448E-14
 2.70775E+00    1.55903E-14
 2.71364E+00    1.56248E-14
 2.71862E+00    1.56540E-14
 2.75107E+00    1.58444E-14
 2.77284E+00    1.59721E-14
 2.77414E+00    1.59797E-14
 2.80000E+00    1.61314E-14
 2.82361E+00    1.62699E-14
 2.82557E+00    1.62814E-14
 2.85924E+00    1.64789E-14
 2.86038E+00    1.64856E-14
 2.86827E+00    1.65319E-14
 2.88165E+00    1.66104E-14
 2.90000E+00    1.67180E-14
 2.92664E+00    1.55759E-14
 2.92764E+00    1.55327E-14
 3.00000E+00    1.24300E-14
 3.10000E+00    4.82250E-14
 3.20000E+00    1.40610E-13
 3.30000E+00    2.03030E-13
 3.40000E+00    4.28450E-13
 3.50000E+00    1.24660E-12
 3.60000E+00    2.41140E-12
 3.80000E+00    1.01060E-11
 4.00000E+00    3.73190E-11
 4.50000E+00    6.60870E-10
 5.00000E+00    7.25661E-09
 5.50000E+00    5.49171E-08
 6.00000E+00    3.09130E-07
 6.50000E+00    1.36765E-06
 7.00000E+00    4.96858E-06
 7.50000E+00    1.56606E-05
 8.00000E+00    4.45978E-05
 8.50000E+00    1.17815E-04
 9.00000E+00    2.93496E-04
 9.50000E+00    6.85592E-04
 1.00000E+01    1.32251E-03
 1.05000E+01    2.63582E-03
 1.10000E+01    5.27632E-03
 1.15000E+01    1.05662E-02
 1.20000E+01    2.12200E-02
 1.25000E+01    4.19949E-02
 1.30000E+01    8.03206E-02
 1.35000E+01    1.42801E-01
 1.40000E+01    2.47656E-01
 1.45000E+01    4.05404E-01
 1.50000E+01    6.28638E-01
 1.55000E+01    9.28840E-01
 1.60000E+01    1.31531E+00
 1.65000E+01    1.79480E+00
 1.70000E+01    2.37149E+00
 1.75000E+01    3.04721E+00
 1.80000E+01    3.82224E+00
 1.85000E+01    4.69395E+00
 1.90000E+01    5.65976E+00
 1.95000E+01    6.71557E+00
 2.00000E+01    7.85344E+00
