# n + Sn120 : (n,el)    
# endfb8.0   Mughabghab, Kawano                EVAL-DEC04
# uncertainties: n
# # energies =   171
#   E(MeV)       xs(mb) 
 1.00000E-11    9.36084E+03
 1.00000E-07    5.61569E+03
 4.13990E-07    5.61258E+03
 5.31580E-07    5.61195E+03
 6.82560E-07    5.61131E+03
 8.76420E-07    5.61048E+03
 1.12540E-06    5.60942E+03
 1.44500E-06    5.60806E+03
 1.85540E-06    5.60634E+03
 2.37240E-06    5.60410E+03
 3.05900E-06    5.60120E+03
 3.92790E-06    5.59750E+03
 5.04350E-06    5.59308E+03
 6.47600E-06    5.58828E+03
 8.31530E-06    5.58214E+03
 1.06770E-05    5.57427E+03
 1.37100E-05    5.56416E+03
 1.76030E-05    5.55118E+03
 2.26030E-05    5.53426E+03
 2.92030E-05    5.51281E+03
 3.72670E-05    5.48562E+03
 4.78510E-05    5.45335E+03
 6.14420E-05    5.42057E+03
 7.88930E-05    5.37898E+03
 1.01300E-04    5.32882E+03
 1.30070E-04    5.27775E+03
 1.67020E-04    5.22508E+03
 2.14450E-04    5.16477E+03
 2.75360E-04    5.10680E+03
 3.53580E-04    5.08567E+03
 4.54000E-04    4.98506E+03
 5.82950E-04    4.91099E+03
 7.48520E-04    6.45446E+03
 9.61120E-04    5.05916E+03
 1.23410E-03    4.98053E+03
 1.58460E-03    5.42187E+03
 2.03470E-03    4.77483E+03
 2.24870E-03    4.74235E+03
 2.48520E-03    4.71444E+03
 2.61260E-03    4.68093E+03
 2.74650E-03    4.61724E+03
 3.03540E-03    7.87662E+03
 3.35460E-03    4.86924E+03
 3.70740E-03    4.84751E+03
 4.30740E-03    5.46186E+03
 5.53080E-03    4.74466E+03
 7.10170E-03    6.45587E+03
 9.11880E-03    5.64562E+03
 1.17090E-02    5.05709E+03
 1.50340E-02    6.09557E+03
 1.93050E-02    5.22154E+03
 2.18750E-02    6.21159E+03
 2.35790E-02    6.28138E+03
 2.41760E-02    4.99733E+03
 2.47880E-02    6.45034E+03
 2.60580E-02    6.20810E+03
 2.70000E-02    6.47556E+03
 2.85000E-02    5.86236E+03
 3.18280E-02    5.29774E+03
 3.43070E-02    5.38526E+03
 4.08680E-02    5.35615E+03
 4.63090E-02    5.81351E+03
 5.24750E-02    6.18838E+03
 5.65620E-02    6.21617E+03
 6.73790E-02    6.24301E+03
 7.20000E-02    6.26097E+03
 7.95000E-02    6.27540E+03
 8.25000E-02    6.28390E+03
 8.65170E-02    6.30146E+03
 9.80370E-02    6.26404E+03
 1.11090E-01    6.25883E+03
 1.16790E-01    6.26195E+03
 1.22770E-01    6.26523E+03
 1.29070E-01    6.26869E+03
 1.35690E-01    6.27231E+03
 1.42640E-01    6.27613E+03
 1.49960E-01    6.28013E+03
 1.57640E-01    6.28459E+03
 1.65730E-01    6.29289E+03
 1.74220E-01    6.30282E+03
 1.83160E-01    6.31326E+03
 1.92550E-01    6.32423E+03
 2.02420E-01    6.33577E+03
 2.12800E-01    6.34790E+03
 2.23710E-01    6.36065E+03
 2.35180E-01    6.37406E+03
 2.47240E-01    6.39556E+03
 2.73240E-01    6.41854E+03
 2.87250E-01    6.43072E+03
 2.94520E-01    6.43640E+03
 2.97200E-01    6.43867E+03
 2.98500E-01    6.44139E+03
 3.01970E-01    6.46117E+03
 3.33730E-01    6.49924E+03
 3.68830E-01    6.53026E+03
 3.87740E-01    6.55236E+03
 4.07620E-01    6.58484E+03
 4.50490E-01    6.62156E+03
 4.97870E-01    6.65066E+03
 5.23400E-01    6.66974E+03
 5.50230E-01    6.68406E+03
 5.78440E-01    6.69863E+03
 6.08100E-01    6.71385E+03
 6.39280E-01    6.72395E+03
 6.72060E-01    6.73108E+03
 7.06510E-01    6.73856E+03
 7.42740E-01    6.74295E+03
 7.80820E-01    6.74319E+03
 8.20850E-01    6.73414E+03
 8.62940E-01    6.72314E+03
 9.07180E-01    6.70995E+03
 9.61640E-01    6.68882E+03
 1.00260E+00    6.65142E+03
 1.10800E+00    6.60189E+03
 1.16480E+00    6.47754E+03
 1.22460E+00    6.25048E+03
 1.28730E+00    6.06592E+03
 1.35340E+00    5.92450E+03
 1.42270E+00    5.79033E+03
 1.49570E+00    5.66030E+03
 1.57240E+00    5.52387E+03
 1.65300E+00    5.38555E+03
 1.73770E+00    5.24236E+03
 1.82680E+00    5.09108E+03
 1.92050E+00    4.91831E+03
 2.01900E+00    4.73978E+03
 2.12250E+00    4.52327E+03
 2.23130E+00    4.27363E+03
 2.30690E+00    4.14119E+03
 2.34570E+00    4.07865E+03
 2.36530E+00    4.03286E+03
 2.38520E+00    3.91283E+03
 2.46600E+00    3.67461E+03
 2.59240E+00    3.44371E+03
 2.72530E+00    3.23547E+03
 2.86500E+00    3.02959E+03
 3.01190E+00    2.84178E+03
 3.16640E+00    2.66430E+03
 3.32870E+00    2.43118E+03
 3.67880E+00    2.18208E+03
 4.06570E+00    2.01406E+03
 4.49330E+00    1.92129E+03
 4.72370E+00    1.88663E+03
 4.96590E+00    1.86255E+03
 5.22050E+00    1.85803E+03
 5.48810E+00    1.86424E+03
 5.76950E+00    1.88397E+03
 6.06530E+00    1.91572E+03
 6.37630E+00    1.94778E+03
 6.59240E+00    1.97056E+03
 6.70320E+00    2.00484E+03
 7.04690E+00    2.05950E+03
 7.40820E+00    2.12041E+03
 7.78800E+00    2.18465E+03
 8.18730E+00    2.25218E+03
 8.60710E+00    2.32358E+03
 9.04840E+00    2.41114E+03
 9.51230E+00    2.45986E+03
 1.00000E+01    2.52220E+03
 1.05130E+01    2.57758E+03
 1.10520E+01    2.62359E+03
 1.16180E+01    2.65812E+03
 1.22140E+01    2.67937E+03
 1.28400E+01    2.68597E+03
 1.34990E+01    2.68093E+03
 1.38400E+01    2.67245E+03
 1.41910E+01    2.65958E+03
 1.45500E+01    2.64270E+03
 1.49180E+01    2.60981E+03
 1.56830E+01    2.55489E+03
 1.64870E+01    2.50959E+03
