# n + Se 79 : (n,n'18)  
# jeff3.3    A.J. Koning and D. Rochman        EVAL-DEC15
# uncertainties: n
# # energies =    78
#   E(MeV)       xs(mb) 
 9.95463E-01    0.00000E+00
 1.00000E+00    5.04179E+00
 1.02110E+00    1.05132E+01
 1.07405E+00    2.42435E+01
 1.08607E+00    2.73604E+01
 1.09427E+00    2.94867E+01
 1.10256E+00    3.16364E+01
 1.12426E+00    3.72634E+01
 1.14849E+00    4.35464E+01
 1.17077E+00    4.93238E+01
 1.20000E+00    5.69034E+01
 1.24692E+00    6.10136E+01
 1.26952E+00    6.29934E+01
 1.27287E+00    6.32869E+01
 1.32877E+00    6.81838E+01
 1.40000E+00    7.44236E+01
 1.60000E+00    7.26734E+01
 1.80000E+00    6.35320E+01
 2.00000E+00    5.29916E+01
 2.20000E+00    4.34878E+01
 2.40000E+00    3.56728E+01
 2.60000E+00    2.94346E+01
 2.80000E+00    2.44644E+01
 3.00000E+00    2.04441E+01
 3.20000E+00    1.71075E+01
 3.40000E+00    1.42868E+01
 3.60000E+00    1.18774E+01
 3.80000E+00    9.81752E+00
 4.00000E+00    8.07107E+00
 4.20000E+00    6.60311E+00
 4.40000E+00    5.38477E+00
 4.60000E+00    4.38443E+00
 4.80000E+00    3.57090E+00
 5.00000E+00    2.91344E+00
 5.20000E+00    2.38535E+00
 5.40000E+00    1.96253E+00
 5.60000E+00    1.62242E+00
 5.80000E+00    1.35292E+00
 6.00000E+00    1.13543E+00
 6.20000E+00    9.60325E-01
 6.40000E+00    8.20631E-01
 6.60000E+00    7.06500E-01
 6.80000E+00    6.14878E-01
 7.00000E+00    5.39949E-01
 7.20000E+00    4.78218E-01
 7.40000E+00    4.27915E-01
 7.60000E+00    3.85169E-01
 7.80000E+00    3.50191E-01
 8.00000E+00    3.20963E-01
 8.50000E+00    2.66543E-01
 9.00000E+00    2.30321E-01
 9.50000E+00    2.05345E-01
 1.00000E+01    1.87452E-01
 1.05000E+01    1.74123E-01
 1.10000E+01    1.63811E-01
 1.15000E+01    1.55569E-01
 1.20000E+01    1.48791E-01
 1.25000E+01    1.43075E-01
 1.30000E+01    1.38142E-01
 1.35000E+01    1.33783E-01
 1.40000E+01    1.29847E-01
 1.45000E+01    1.26222E-01
 1.50000E+01    1.22838E-01
 1.60000E+01    1.16631E-01
 1.70000E+01    1.11064E-01
 1.80000E+01    1.06093E-01
 1.90000E+01    1.01710E-01
 2.00000E+01    9.79042E-02
 2.10000E+01    9.46269E-02
 2.20000E+01    9.17700E-02
 2.30000E+01    8.91846E-02
 2.40000E+01    8.67292E-02
 2.50000E+01    8.43127E-02
 2.60000E+01    8.19103E-02
 2.70000E+01    7.95480E-02
 2.80000E+01    7.72755E-02
 2.90000E+01    7.51382E-02
 3.00000E+01    7.31652E-02
