# n + La138 : (n,n'16)  
# jeff3.3    A.J. Koning and D. Rochman        EVAL-DEC15
# uncertainties: n
# # energies =    81
#   E(MeV)       xs(mb) 
 8.48954E-01    0.00000E+00
 8.94495E-01    7.74172E+00
 9.00000E-01    8.67753E+00
 9.07187E-01    9.09515E+00
 9.35795E-01    1.07575E+01
 9.43753E-01    1.12199E+01
 9.54722E-01    1.18573E+01
 9.68432E-01    1.26540E+01
 1.00000E+00    1.44883E+01
 1.04056E+00    1.60568E+01
 1.06562E+00    1.70258E+01
 1.07480E+00    1.73808E+01
 1.10402E+00    1.85107E+01
 1.11066E+00    1.87675E+01
 1.15841E+00    2.06140E+01
 1.16345E+00    2.08089E+01
 1.18662E+00    2.17049E+01
 1.20000E+00    2.22223E+01
 1.40000E+00    2.79236E+01
 1.60000E+00    3.10910E+01
 1.80000E+00    3.10210E+01
 2.00000E+00    2.81135E+01
 2.20000E+00    2.37210E+01
 2.40000E+00    1.91391E+01
 2.60000E+00    1.50926E+01
 2.80000E+00    1.17964E+01
 3.00000E+00    9.20602E+00
 3.20000E+00    7.18989E+00
 3.40000E+00    5.61909E+00
 3.60000E+00    4.38627E+00
 3.80000E+00    3.41551E+00
 4.00000E+00    2.65088E+00
 4.20000E+00    2.05001E+00
 4.40000E+00    1.57986E+00
 4.60000E+00    1.21361E+00
 4.80000E+00    9.29909E-01
 5.00000E+00    7.11385E-01
 5.20000E+00    5.43851E-01
 5.40000E+00    4.15785E-01
 5.60000E+00    3.18526E-01
 5.80000E+00    2.44476E-01
 6.00000E+00    1.88121E-01
 6.20000E+00    1.45243E-01
 6.40000E+00    1.12500E-01
 6.60000E+00    8.76887E-02
 6.80000E+00    6.86786E-02
 7.00000E+00    5.39983E-02
 7.20000E+00    4.27084E-02
 7.40000E+00    3.38973E-02
 7.60000E+00    2.70191E-02
 7.80000E+00    2.16150E-02
 8.00000E+00    1.73259E-02
 8.50000E+00    1.00683E-02
 9.00000E+00    5.89519E-03
 9.50000E+00    3.46788E-03
 1.00000E+01    2.04868E-03
 1.05000E+01    1.21594E-03
 1.10000E+01    7.25768E-04
 1.15000E+01    4.35824E-04
 1.20000E+01    2.63576E-04
 1.25000E+01    1.60615E-04
 1.30000E+01    9.86209E-05
 1.35000E+01    6.10092E-05
 1.40000E+01    3.80098E-05
 1.45000E+01    2.38374E-05
 1.50000E+01    1.50343E-05
 1.60000E+01    6.07278E-06
 1.70000E+01    2.49782E-06
 1.80000E+01    1.04464E-06
 1.90000E+01    4.43760E-07
 2.00000E+01    1.89800E-07
 2.10000E+01    8.30770E-08
 2.20000E+01    3.68220E-08
 2.30000E+01    1.65640E-08
 2.40000E+01    7.56220E-09
 2.50000E+01    3.50350E-09
 2.60000E+01    1.64520E-09
 2.70000E+01    7.81590E-10
 2.80000E+01    3.75150E-10
 2.90000E+01    1.81780E-10
 3.00000E+01    8.88340E-11
