# n + La138 : (n,n'12)  
# jeff3.3    A.J. Koning and D. Rochman        EVAL-DEC15
# uncertainties: n
# # energies =    86
#   E(MeV)       xs(mb) 
 7.43086E-01    0.00000E+00
 7.44103E-01    1.99509E-02
 8.00000E-01    1.11647E+00
 8.29392E-01    1.69448E+00
 8.42115E-01    1.94469E+00
 8.48954E-01    2.07919E+00
 8.94495E-01    2.97478E+00
 9.00000E-01    3.08304E+00
 9.07187E-01    3.21205E+00
 9.35795E-01    3.72558E+00
 9.43753E-01    3.86843E+00
 9.54722E-01    4.06533E+00
 9.68432E-01    4.31144E+00
 1.00000E+00    4.87810E+00
 1.04056E+00    5.50730E+00
 1.06562E+00    5.89605E+00
 1.07480E+00    6.03846E+00
 1.10402E+00    6.49175E+00
 1.11066E+00    6.59475E+00
 1.15841E+00    7.33549E+00
 1.16345E+00    7.41368E+00
 1.18662E+00    7.77311E+00
 1.20000E+00    7.98067E+00
 1.40000E+00    9.73085E+00
 1.60000E+00    1.01004E+01
 1.80000E+00    9.47921E+00
 2.00000E+00    8.34273E+00
 2.20000E+00    7.06102E+00
 2.40000E+00    5.84716E+00
 2.60000E+00    4.79059E+00
 2.80000E+00    3.90535E+00
 3.00000E+00    3.17401E+00
 3.20000E+00    2.57218E+00
 3.40000E+00    2.07748E+00
 3.60000E+00    1.67079E+00
 3.80000E+00    1.33818E+00
 4.00000E+00    1.06780E+00
 4.20000E+00    8.49369E-01
 4.40000E+00    6.73964E-01
 4.60000E+00    5.33771E-01
 4.80000E+00    4.22303E-01
 5.00000E+00    3.34084E-01
 5.20000E+00    2.64383E-01
 5.40000E+00    2.09482E-01
 5.60000E+00    1.66300E-01
 5.80000E+00    1.32238E-01
 6.00000E+00    1.05437E-01
 6.20000E+00    8.41848E-02
 6.40000E+00    6.73776E-02
 6.60000E+00    5.41292E-02
 6.80000E+00    4.35989E-02
 7.00000E+00    3.51777E-02
 7.20000E+00    2.84731E-02
 7.40000E+00    2.30668E-02
 7.60000E+00    1.87193E-02
 7.80000E+00    1.52106E-02
 8.00000E+00    1.23513E-02
 8.50000E+00    7.35072E-03
 9.00000E+00    4.36354E-03
 9.50000E+00    2.58460E-03
 1.00000E+01    1.53094E-03
 1.05000E+01    9.08903E-04
 1.10000E+01    5.42017E-04
 1.15000E+01    3.25028E-04
 1.20000E+01    1.96269E-04
 1.25000E+01    1.19424E-04
 1.30000E+01    7.32320E-05
 1.35000E+01    4.52541E-05
 1.40000E+01    2.81728E-05
 1.45000E+01    1.76622E-05
 1.50000E+01    1.11410E-05
 1.60000E+01    4.50703E-06
 1.70000E+01    1.85791E-06
 1.80000E+01    7.78040E-07
 1.90000E+01    3.30410E-07
 2.00000E+01    1.41130E-07
 2.10000E+01    6.16850E-08
 2.20000E+01    2.73140E-08
 2.30000E+01    1.22810E-08
 2.40000E+01    5.60630E-09
 2.50000E+01    2.59670E-09
 2.60000E+01    1.21860E-09
 2.70000E+01    5.78310E-10
 2.80000E+01    2.77200E-10
 2.90000E+01    1.34130E-10
 3.00000E+01    6.54750E-11
