# n + La138 : (n,n'09)  
# jeff3.3    A.J. Koning and D. Rochman        EVAL-DEC15
# uncertainties: n
# # energies =    91
#   E(MeV)       xs(mb) 
 5.14183E-01    0.00000E+00
 5.22474E-01    1.72072E+00
 6.00000E-01    1.78105E+01
 6.47038E-01    2.29761E+01
 7.00000E-01    2.87922E+01
 7.43086E-01    3.24555E+01
 7.44103E-01    3.25419E+01
 8.00000E-01    3.72944E+01
 8.29392E-01    3.94636E+01
 8.42115E-01    4.04026E+01
 8.48954E-01    4.09074E+01
 8.94495E-01    4.42684E+01
 9.00000E-01    4.46747E+01
 9.07187E-01    4.50119E+01
 9.35795E-01    4.63543E+01
 9.43753E-01    4.67277E+01
 9.54722E-01    4.72424E+01
 9.68432E-01    4.78857E+01
 1.00000E+00    4.93670E+01
 1.04056E+00    5.10272E+01
 1.06562E+00    5.20530E+01
 1.07480E+00    5.24287E+01
 1.10402E+00    5.36247E+01
 1.11066E+00    5.38965E+01
 1.15841E+00    5.58510E+01
 1.16345E+00    5.60573E+01
 1.18662E+00    5.70057E+01
 1.20000E+00    5.75534E+01
 1.40000E+00    5.87566E+01
 1.60000E+00    5.45664E+01
 1.80000E+00    4.70829E+01
 2.00000E+00    3.84552E+01
 2.20000E+00    3.03431E+01
 2.40000E+00    2.35388E+01
 2.60000E+00    1.81671E+01
 2.80000E+00    1.40232E+01
 3.00000E+00    1.08392E+01
 3.20000E+00    8.38309E+00
 3.40000E+00    6.47936E+00
 3.60000E+00    4.99710E+00
 3.80000E+00    3.84339E+00
 4.00000E+00    2.94689E+00
 4.20000E+00    2.25220E+00
 4.40000E+00    1.71616E+00
 4.60000E+00    1.30439E+00
 4.80000E+00    9.89929E-01
 5.00000E+00    7.50901E-01
 5.20000E+00    5.70244E-01
 5.40000E+00    4.33707E-01
 5.60000E+00    3.30699E-01
 5.80000E+00    2.53318E-01
 6.00000E+00    1.94618E-01
 6.20000E+00    1.50163E-01
 6.40000E+00    1.16410E-01
 6.60000E+00    9.07557E-02
 6.80000E+00    7.11615E-02
 7.00000E+00    5.60167E-02
 7.20000E+00    4.43446E-02
 7.40000E+00    3.52258E-02
 7.60000E+00    2.80975E-02
 7.80000E+00    2.24807E-02
 8.00000E+00    1.80200E-02
 8.50000E+00    1.04577E-02
 9.00000E+00    6.10761E-03
 9.50000E+00    3.58190E-03
 1.00000E+01    2.10970E-03
 1.05000E+01    1.24889E-03
 1.10000E+01    7.43883E-04
 1.15000E+01    4.46012E-04
 1.20000E+01    2.69449E-04
 1.25000E+01    1.64077E-04
 1.30000E+01    1.00697E-04
 1.35000E+01    6.22682E-05
 1.40000E+01    3.87775E-05
 1.45000E+01    2.43062E-05
 1.50000E+01    1.53204E-05
 1.60000E+01    6.17945E-06
 1.70000E+01    2.53799E-06
 1.80000E+01    1.05989E-06
 1.90000E+01    4.49540E-07
 2.00000E+01    1.92000E-07
 2.10000E+01    8.39430E-08
 2.20000E+01    3.71800E-08
 2.30000E+01    1.67180E-08
 2.40000E+01    7.63090E-09
 2.50000E+01    3.53470E-09
 2.60000E+01    1.65940E-09
 2.70000E+01    7.88060E-10
 2.80000E+01    3.78060E-10
 2.90000E+01    1.83080E-10
 3.00000E+01    8.94210E-11
