# n + La138 : (n,n'22)  
# jeff3.3    A.J. Koning and D. Rochman        EVAL-DEC15
# uncertainties: n
# # energies =    74
#   E(MeV)       xs(mb) 
 9.68432E-01    0.00000E+00
 1.00000E+00    3.78342E+01
 1.04056E+00    4.73975E+01
 1.06562E+00    5.33061E+01
 1.07480E+00    5.54706E+01
 1.10402E+00    6.23601E+01
 1.11066E+00    6.39257E+01
 1.15841E+00    7.51842E+01
 1.16345E+00    7.63725E+01
 1.18662E+00    8.18356E+01
 1.20000E+00    8.49903E+01
 1.40000E+00    8.69458E+01
 1.60000E+00    7.70148E+01
 1.80000E+00    6.41044E+01
 2.00000E+00    5.12043E+01
 2.20000E+00    3.97464E+01
 2.40000E+00    3.02829E+01
 2.60000E+00    2.28356E+01
 2.80000E+00    1.71460E+01
 3.00000E+00    1.28719E+01
 3.20000E+00    9.68649E+00
 3.40000E+00    7.31675E+00
 3.60000E+00    5.54573E+00
 3.80000E+00    4.21744E+00
 4.00000E+00    3.21678E+00
 4.20000E+00    2.45992E+00
 4.40000E+00    1.88591E+00
 4.60000E+00    1.44918E+00
 4.80000E+00    1.11628E+00
 5.00000E+00    8.62077E-01
 5.20000E+00    6.67586E-01
 5.40000E+00    5.18303E-01
 5.60000E+00    4.03670E-01
 5.80000E+00    3.15451E-01
 6.00000E+00    2.46989E-01
 6.20000E+00    1.94024E-01
 6.40000E+00    1.52811E-01
 6.60000E+00    1.20844E-01
 6.80000E+00    9.59356E-02
 7.00000E+00    7.63042E-02
 7.20000E+00    6.09454E-02
 7.40000E+00    4.87665E-02
 7.60000E+00    3.91187E-02
 7.80000E+00    3.14441E-02
 8.00000E+00    2.52950E-02
 8.50000E+00    1.47596E-02
 9.00000E+00    8.63765E-03
 9.50000E+00    5.06557E-03
 1.00000E+01    2.97979E-03
 1.05000E+01    1.76055E-03
 1.10000E+01    1.04637E-03
 1.15000E+01    6.26047E-04
 1.20000E+01    3.77508E-04
 1.25000E+01    2.29550E-04
 1.30000E+01    1.40763E-04
 1.35000E+01    8.70415E-05
 1.40000E+01    5.42562E-05
 1.45000E+01    3.40779E-05
 1.50000E+01    2.15475E-05
 1.60000E+01    8.77059E-06
 1.70000E+01    3.64134E-06
 1.80000E+01    1.53590E-06
 1.90000E+01    6.56610E-07
 2.00000E+01    2.82140E-07
 2.10000E+01    1.23980E-07
 2.20000E+01    5.51800E-08
 2.30000E+01    2.49390E-08
 2.40000E+01    1.14450E-08
 2.50000E+01    5.32970E-09
 2.60000E+01    2.51470E-09
 2.70000E+01    1.19970E-09
 2.80000E+01    5.77880E-10
 2.90000E+01    2.80920E-10
 3.00000E+01    1.37720E-10
