# n + La138 : (n,n'25)  
# jeff3.3    A.J. Koning and D. Rochman        EVAL-DEC15
# uncertainties: n
# # energies =    70
#   E(MeV)       xs(mb) 
 1.07480E+00    0.00000E+00
 1.10402E+00    6.94698E+00
 1.11066E+00    8.52561E+00
 1.15841E+00    1.98781E+01
 1.16345E+00    2.10763E+01
 1.18662E+00    2.65849E+01
 1.20000E+00    2.97660E+01
 1.40000E+00    4.75144E+01
 1.60000E+00    4.97327E+01
 1.80000E+00    4.51315E+01
 2.00000E+00    3.81292E+01
 2.20000E+00    3.09254E+01
 2.40000E+00    2.44303E+01
 2.60000E+00    1.89652E+01
 2.80000E+00    1.45572E+01
 3.00000E+00    1.11040E+01
 3.20000E+00    8.44788E+00
 3.40000E+00    6.42797E+00
 3.60000E+00    4.89493E+00
 3.80000E+00    3.73456E+00
 4.00000E+00    2.85497E+00
 4.20000E+00    2.18700E+00
 4.40000E+00    1.67952E+00
 4.60000E+00    1.29302E+00
 4.80000E+00    9.98299E-01
 5.00000E+00    7.73146E-01
 5.20000E+00    6.00633E-01
 5.40000E+00    4.68029E-01
 5.60000E+00    3.65830E-01
 5.80000E+00    2.87032E-01
 6.00000E+00    2.25695E-01
 6.20000E+00    1.77881E-01
 6.40000E+00    1.40633E-01
 6.60000E+00    1.11565E-01
 6.80000E+00    8.88393E-02
 7.00000E+00    7.08594E-02
 7.20000E+00    5.67198E-02
 7.40000E+00    4.54766E-02
 7.60000E+00    3.65423E-02
 7.80000E+00    2.94154E-02
 8.00000E+00    2.36918E-02
 8.50000E+00    1.38641E-02
 9.00000E+00    8.13654E-03
 9.50000E+00    4.78576E-03
 1.00000E+01    2.82383E-03
 1.05000E+01    1.67377E-03
 1.10000E+01    9.98171E-04
 1.15000E+01    5.99373E-04
 1.20000E+01    3.62827E-04
 1.25000E+01    2.21536E-04
 1.30000E+01    1.36444E-04
 1.35000E+01    8.47581E-05
 1.40000E+01    5.30847E-05
 1.45000E+01    3.35055E-05
 1.50000E+01    2.12916E-05
 1.60000E+01    8.75367E-06
 1.70000E+01    3.66906E-06
 1.80000E+01    1.56049E-06
 1.90000E+01    6.71660E-07
 2.00000E+01    2.90180E-07
 2.10000E+01    1.28100E-07
 2.20000E+01    5.72600E-08
 2.30000E+01    2.59930E-08
 2.40000E+01    1.19830E-08
 2.50000E+01    5.60630E-09
 2.60000E+01    2.65740E-09
 2.70000E+01    1.27320E-09
 2.80000E+01    6.15760E-10
 2.90000E+01    3.00410E-10
 3.00000E+01    1.47760E-10
