# n + La138 : (n,xp)    
# jeff3.3    A.J. Koning and D. Rochman        EVAL-DEC15
# 
# # energies =   134
#   E(MeV)        xs(mb) 
 7.31008E-02    1.08665E-04
 1.00000E-01    9.56174E-05
 1.17020E-01    9.18343E-05
 1.62359E-01    8.17567E-05
 1.93596E-01    7.48136E-05
 2.00000E-01    7.33902E-05
 2.32095E-01    7.08009E-05
 2.95123E-01    6.57161E-05
 3.00000E-01    6.53226E-05
 4.00000E-01    8.58135E-05
 4.16333E-01    8.95447E-05
 4.82846E-01    1.05066E-04
 5.00000E-01    1.09069E-04
 5.14183E-01    1.13971E-04
 5.22474E-01    1.16837E-04
 6.00000E-01    1.43634E-04
 6.47038E-01    1.66257E-04
 7.00000E-01    1.91735E-04
 7.43086E-01    2.20382E-04
 7.44103E-01    2.21058E-04
 8.00000E-01    2.58223E-04
 8.29392E-01    2.80073E-04
 8.42115E-01    2.89531E-04
 8.48954E-01    2.94615E-04
 8.94495E-01    3.28471E-04
 9.00000E-01    3.32563E-04
 9.07187E-01    3.39777E-04
 9.35795E-01    3.68493E-04
 9.43753E-01    3.76481E-04
 9.54722E-01    3.87491E-04
 9.68432E-01    4.01252E-04
 1.00000E+00    4.32939E-04
 1.04056E+00    5.72975E-04
 1.06562E+00    6.59495E-04
 1.07480E+00    6.91190E-04
 1.10402E+00    7.92074E-04
 1.11066E+00    8.14999E-04
 1.15841E+00    9.79858E-04
 1.16345E+00    9.97259E-04
 1.18662E+00    1.07725E-03
 1.20000E+00    1.12345E-03
 1.40000E+00    1.86064E-03
 1.60000E+00    3.02069E-03
 1.80000E+00    3.76810E-03
 2.00000E+00    8.02824E-03
 2.20000E+00    9.59574E-03
 2.40000E+00    1.17352E-02
 2.60000E+00    2.08718E-02
 2.80000E+00    2.88018E-02
 3.00000E+00    4.65054E-02
 3.20000E+00    4.92886E-02
 3.40000E+00    6.62373E-02
 3.60000E+00    9.56430E-02
 3.80000E+00    1.31197E-01
 4.00000E+00    1.32890E-01
 4.20000E+00    1.84605E-01
 4.40000E+00    2.35401E-01
 4.60000E+00    2.94243E-01
 4.80000E+00    3.87768E-01
 5.00000E+00    3.87726E-01
 5.20000E+00    4.93571E-01
 5.40000E+00    5.98576E-01
 5.60000E+00    6.94785E-01
 5.80000E+00    8.83900E-01
 6.00000E+00    8.96109E-01
 6.20000E+00    1.08846E+00
 6.40000E+00    1.26558E+00
 6.60000E+00    1.41717E+00
 6.80000E+00    1.73734E+00
 7.00000E+00    1.79359E+00
 7.20000E+00    2.10818E+00
 7.40000E+00    2.37394E+00
 7.60000E+00    2.59946E+00
 7.80000E+00    3.06767E+00
 8.00000E+00    3.20893E+00
 8.50000E+00    4.13813E+00
 9.00000E+00    5.21595E+00
 9.50000E+00    6.44311E+00
 1.00000E+01    7.81908E+00
 1.05000E+01    9.34565E+00
 1.10000E+01    1.10285E+01
 1.15000E+01    1.28659E+01
 1.20000E+01    1.48636E+01
 1.25000E+01    1.70241E+01
 1.30000E+01    1.93660E+01
 1.35000E+01    2.18497E+01
 1.40000E+01    2.44867E+01
 1.45000E+01    2.72732E+01
 1.50000E+01    3.01965E+01
 1.60000E+01    3.64094E+01
 1.70000E+01    4.30177E+01
 1.80000E+01    4.98789E+01
 1.90000E+01    5.67696E+01
 2.00000E+01    6.62610E+01
 2.10000E+01    7.35462E+01
 2.20000E+01    8.11764E+01
 2.30000E+01    8.89754E+01
 2.40000E+01    9.69746E+01
 2.50000E+01    1.05129E+02
 2.60000E+01    1.13400E+02
 2.70000E+01    1.21707E+02
 2.80000E+01    1.29782E+02
 2.90000E+01    1.37689E+02
 3.00000E+01    1.45326E+02
 3.00000E+01    1.45632E+02
 3.20000E+01    1.60616E+02
 3.40000E+01    1.75338E+02
 3.60000E+01    1.90052E+02
 3.80000E+01    2.05489E+02
 4.00000E+01    2.19418E+02
 4.20000E+01    2.33089E+02
 4.40000E+01    2.46500E+02
 4.60000E+01    2.60345E+02
 4.80000E+01    2.73736E+02
 5.00000E+01    2.86980E+02
 5.20000E+01    3.00361E+02
 5.40000E+01    3.13239E+02
 5.60000E+01    3.25953E+02
 5.80000E+01    3.38609E+02
 6.00000E+01    3.51007E+02
 6.50000E+01    3.80142E+02
 7.00000E+01    4.07423E+02
 7.50000E+01    4.33606E+02
 8.00000E+01    4.57699E+02
 9.00000E+01    5.06554E+02
 1.00000E+02    5.54236E+02
 1.10000E+02    5.99840E+02
 1.20000E+02    6.42547E+02
 1.30000E+02    6.95754E+02
 1.40000E+02    7.64050E+02
 1.50000E+02    8.53520E+02
 1.60000E+02    9.76763E+02
 1.80000E+02    1.34010E+03
 2.00000E+02    1.87927E+03
