# n + La138 : (n,n'06)  
# jeff3.3    A.J. Koning and D. Rochman        EVAL-DEC15
# uncertainties: n
# # energies =    97
#   E(MeV)       xs(mb) 
 2.95123E-01    0.00000E+00
 3.00000E-01    3.90209E-03
 4.00000E-01    2.19069E-01
 4.16333E-01    3.19074E-01
 4.82846E-01    7.26326E-01
 5.00000E-01    8.31358E-01
 5.14183E-01    9.63782E-01
 5.22474E-01    1.04119E+00
 6.00000E-01    1.76504E+00
 6.47038E-01    2.43236E+00
 7.00000E-01    3.18372E+00
 7.43086E-01    3.92646E+00
 7.44103E-01    3.94399E+00
 8.00000E-01    4.90758E+00
 8.29392E-01    5.38945E+00
 8.42115E-01    5.59804E+00
 8.48954E-01    5.71016E+00
 8.94495E-01    6.45679E+00
 9.00000E-01    6.54704E+00
 9.07187E-01    6.65951E+00
 9.35795E-01    7.10719E+00
 9.43753E-01    7.23172E+00
 9.54722E-01    7.40337E+00
 9.68432E-01    7.61791E+00
 1.00000E+00    8.11191E+00
 1.04056E+00    8.55807E+00
 1.06562E+00    8.83373E+00
 1.07480E+00    8.93471E+00
 1.10402E+00    9.25612E+00
 1.11066E+00    9.32916E+00
 1.15841E+00    9.85441E+00
 1.16345E+00    9.90985E+00
 1.18662E+00    1.01647E+01
 1.20000E+00    1.03119E+01
 1.40000E+00    1.10832E+01
 1.60000E+00    1.07381E+01
 1.80000E+00    9.77348E+00
 2.00000E+00    8.57710E+00
 2.20000E+00    7.37161E+00
 2.40000E+00    6.25008E+00
 2.60000E+00    5.23797E+00
 2.80000E+00    4.33806E+00
 3.00000E+00    3.54846E+00
 3.20000E+00    2.86790E+00
 3.40000E+00    2.29303E+00
 3.60000E+00    1.81546E+00
 3.80000E+00    1.42525E+00
 4.00000E+00    1.11071E+00
 4.20000E+00    8.60109E-01
 4.40000E+00    6.62669E-01
 4.60000E+00    5.08617E-01
 4.80000E+00    3.89425E-01
 5.00000E+00    2.98163E-01
 5.20000E+00    2.28412E-01
 5.40000E+00    1.75260E-01
 5.60000E+00    1.35031E-01
 5.80000E+00    1.04381E-01
 6.00000E+00    8.10378E-02
 6.20000E+00    6.31666E-02
 6.40000E+00    4.94482E-02
 6.60000E+00    3.89407E-02
 6.80000E+00    3.08165E-02
 7.00000E+00    2.44712E-02
 7.20000E+00    1.95319E-02
 7.40000E+00    1.56324E-02
 7.60000E+00    1.25506E-02
 7.80000E+00    1.01037E-02
 8.00000E+00    8.14038E-03
 8.50000E+00    4.77215E-03
 9.00000E+00    2.80584E-03
 9.50000E+00    1.65279E-03
 1.00000E+01    9.76395E-04
 1.05000E+01    5.79249E-04
 1.10000E+01    3.45597E-04
 1.15000E+01    2.07488E-04
 1.20000E+01    1.25483E-04
 1.25000E+01    7.64718E-05
 1.30000E+01    4.69547E-05
 1.35000E+01    2.90396E-05
 1.40000E+01    1.80807E-05
 1.45000E+01    1.13271E-05
 1.50000E+01    7.13375E-06
 1.60000E+01    2.87090E-06
 1.70000E+01    1.17587E-06
 1.80000E+01    4.89570E-07
 1.90000E+01    2.07030E-07
 2.00000E+01    8.81810E-08
 2.10000E+01    3.84690E-08
 2.20000E+01    1.70070E-08
 2.30000E+01    7.63420E-09
 2.40000E+01    3.47900E-09
 2.50000E+01    1.60880E-09
 2.60000E+01    7.53950E-10
 2.70000E+01    3.57410E-10
 2.80000E+01    1.71160E-10
 2.90000E+01    8.27560E-11
 3.00000E+01    4.03650E-11
