# n + Na 23 : (n,g)     
# jendl.ad   K.SHIBATA (JAERI)                 EVAL-AUG00
# uncertainties: n
# # energies =    69
#   E(MeV)       xs(mb) 
 1.00000E-10    3.71006E+03
 5.00000E-09    1.01019E+03
 1.00000E-08    7.65062E+02
 1.50000E-08    6.42794E+02
 2.00000E-08    5.65539E+02
 2.50000E-08    5.10939E+02
 3.00000E-08    4.69684E+02
 3.50000E-08    4.31857E+02
 4.20000E-08    3.95038E+02
 5.00000E-08    3.64416E+02
 5.80000E-08    3.38732E+02
 6.70000E-08    3.12615E+02
 8.00000E-08    2.82876E+02
 1.00000E-07    2.46109E+02
 1.40000E-07    2.12386E+02
 1.80000E-07    1.89631E+02
 2.20000E-07    1.74640E+02
 2.50000E-07    1.64441E+02
 2.80000E-07    1.57112E+02
 3.00000E-07    1.51951E+02
 3.20000E-07    1.46207E+02
 3.50000E-07    1.38282E+02
 4.00000E-07    1.26532E+02
 5.00000E-07    1.13206E+02
 6.25000E-07    1.01289E+02
 7.80000E-07    9.37530E+01
 8.50000E-07    9.02086E+01
 9.10000E-07    8.77423E+01
 9.50000E-07    8.63206E+01
 9.72000E-07    8.53169E+01
 9.96000E-07    8.42989E+01
 1.02000E-06    8.32950E+01
 1.04500E-06    8.22879E+01
 1.07100E-06    8.12961E+01
 1.09700E-06    8.03366E+01
 1.12300E-06    7.94010E+01
 1.15000E-06    7.65583E+01
 1.30000E-06    7.16498E+01
 1.50000E-06    6.36416E+01
 2.10000E-06    5.54651E+01
 2.60000E-06    4.95582E+01
 3.30000E-06    4.45056E+01
 4.00000E-06    3.41806E+01
 9.87700E-06    2.41382E+01
 1.59680E-05    1.87790E+01
 2.77000E-05    1.44127E+01
 4.80520E-05    1.13945E+01
 7.55014E-05    8.90228E+00
 1.48728E-04    6.62351E+00
 3.67262E-04    5.63891E+00
 9.06898E-04    7.04812E+00
 1.42510E-03    1.63199E+01
 2.23945E-03    1.23241E+02
 3.51910E-03    6.29009E+00
 5.53000E-03    2.19652E+00
 9.11800E-03    9.80917E-02
 1.50300E-02    2.97403E-02
 2.47800E-02    2.04420E+00
 4.08500E-02    1.84219E+00
 6.73400E-02    2.05501E-02
 1.11000E-01    5.62990E-01
 1.83000E-01    7.84470E-01
 3.02000E-01    4.82883E-01
 5.00000E-01    3.91100E-01
 8.21000E-01    2.41262E-01
 1.35300E+00    2.08483E-01
 2.23100E+00    1.89056E-01
 3.67900E+00    1.70758E-01
 6.06500E+00    1.74965E-01
