# n + Sn126 : (n,el)    
# endfb8.0   JNDC FP Nuclear Data W.G.         EVAL-MAR90
# uncertainties: n
# # energies =   171
#   E(MeV)       xs(mb) 
 1.00000E-11    4.00000E+03
 1.00000E-07    4.00000E+03
 4.13990E-07    4.00000E+03
 5.31580E-07    4.00000E+03
 6.82560E-07    4.00000E+03
 8.76420E-07    4.00000E+03
 1.12540E-06    4.00000E+03
 1.44500E-06    4.00000E+03
 1.85540E-06    4.00000E+03
 2.37240E-06    4.00000E+03
 3.05900E-06    4.00000E+03
 3.92790E-06    4.00000E+03
 5.04350E-06    4.00000E+03
 6.47600E-06    4.00000E+03
 8.31530E-06    4.00000E+03
 1.06770E-05    4.00000E+03
 1.37100E-05    4.00000E+03
 1.76030E-05    4.00000E+03
 2.26030E-05    4.00000E+03
 2.92030E-05    4.00000E+03
 3.72670E-05    4.00000E+03
 4.78510E-05    4.00000E+03
 6.14420E-05    4.00000E+03
 7.88930E-05    4.00000E+03
 1.01300E-04    4.00000E+03
 1.30070E-04    4.00000E+03
 1.67020E-04    4.00000E+03
 2.14450E-04    4.00000E+03
 2.75360E-04    4.00000E+03
 3.53580E-04    4.00000E+03
 4.54000E-04    4.00000E+03
 5.82950E-04    4.00000E+03
 7.48520E-04    4.00000E+03
 9.61120E-04    4.00000E+03
 1.23410E-03    4.00000E+03
 1.58460E-03    3.72480E+03
 2.03470E-03    0.00000E+00
 2.24870E-03    0.00000E+00
 2.48520E-03    0.00000E+00
 2.61260E-03    0.00000E+00
 2.74650E-03    0.00000E+00
 3.03540E-03    0.00000E+00
 3.35460E-03    0.00000E+00
 3.70740E-03    0.00000E+00
 4.30740E-03    0.00000E+00
 5.53080E-03    0.00000E+00
 7.10170E-03    0.00000E+00
 9.11880E-03    0.00000E+00
 1.17090E-02    0.00000E+00
 1.50340E-02    0.00000E+00
 1.93050E-02    0.00000E+00
 2.18750E-02    0.00000E+00
 2.35790E-02    0.00000E+00
 2.41760E-02    0.00000E+00
 2.47880E-02    0.00000E+00
 2.60580E-02    0.00000E+00
 2.70000E-02    0.00000E+00
 2.85000E-02    0.00000E+00
 3.18280E-02    0.00000E+00
 3.43070E-02    0.00000E+00
 4.08680E-02    0.00000E+00
 4.63090E-02    0.00000E+00
 5.24750E-02    0.00000E+00
 5.65620E-02    0.00000E+00
 6.73790E-02    0.00000E+00
 7.20000E-02    0.00000E+00
 7.95000E-02    0.00000E+00
 8.25000E-02    0.00000E+00
 8.65170E-02    0.00000E+00
 9.80370E-02    5.31742E+03
 1.11090E-01    6.31510E+03
 1.16790E-01    6.31188E+03
 1.22770E-01    6.30849E+03
 1.29070E-01    6.30492E+03
 1.35690E-01    6.30117E+03
 1.42640E-01    6.29723E+03
 1.49960E-01    6.29497E+03
 1.57640E-01    6.29456E+03
 1.65730E-01    6.29413E+03
 1.74220E-01    6.29367E+03
 1.83160E-01    6.29320E+03
 1.92550E-01    6.29275E+03
 2.02420E-01    6.29375E+03
 2.12800E-01    6.29543E+03
 2.23710E-01    6.29720E+03
 2.35180E-01    6.29906E+03
 2.47240E-01    6.30301E+03
 2.73240E-01    6.30811E+03
 2.87250E-01    6.31082E+03
 2.94520E-01    6.31209E+03
 2.97200E-01    6.31259E+03
 2.98500E-01    6.31321E+03
 3.01970E-01    6.31811E+03
 3.33730E-01    6.32756E+03
 3.68830E-01    6.33526E+03
 3.87740E-01    6.34075E+03
 4.07620E-01    6.34955E+03
 4.50490E-01    6.36230E+03
 4.97870E-01    6.37079E+03
 5.23400E-01    6.37350E+03
 5.50230E-01    6.37633E+03
 5.78440E-01    6.37931E+03
 6.08100E-01    6.38244E+03
 6.39280E-01    6.38573E+03
 6.72060E-01    6.38907E+03
 7.06510E-01    6.38795E+03
 7.42740E-01    6.38436E+03
 7.80820E-01    6.37985E+03
 8.20850E-01    6.37088E+03
 8.62940E-01    6.36069E+03
 9.07180E-01    6.34465E+03
 9.61640E-01    6.32704E+03
 1.00260E+00    6.29211E+03
 1.10800E+00    6.24349E+03
 1.16480E+00    6.07337E+03
 1.22460E+00    5.87070E+03
 1.28730E+00    5.74552E+03
 1.35340E+00    5.62816E+03
 1.42270E+00    5.51521E+03
 1.49570E+00    5.40043E+03
 1.57240E+00    5.28544E+03
 1.65300E+00    5.17406E+03
 1.73770E+00    5.05615E+03
 1.82680E+00    4.92854E+03
 1.92050E+00    4.80402E+03
 2.01900E+00    4.66586E+03
 2.12250E+00    4.44687E+03
 2.23130E+00    4.24168E+03
 2.30690E+00    4.12000E+03
 2.34570E+00    4.05735E+03
 2.36530E+00    4.01504E+03
 2.38520E+00    3.91458E+03
 2.46600E+00    3.72120E+03
 2.59240E+00    3.50285E+03
 2.72530E+00    3.29402E+03
 2.86500E+00    3.07551E+03
 3.01190E+00    2.88988E+03
 3.16640E+00    2.73241E+03
 3.32870E+00    2.50443E+03
 3.67880E+00    2.20479E+03
 4.06570E+00    2.02647E+03
 4.49330E+00    1.93794E+03
 4.72370E+00    1.88186E+03
 4.96590E+00    1.85095E+03
 5.22050E+00    1.86434E+03
 5.48810E+00    1.87912E+03
 5.76950E+00    1.89574E+03
 6.06530E+00    1.94459E+03
 6.37630E+00    1.99898E+03
 6.59240E+00    2.03145E+03
 6.70320E+00    2.07513E+03
 7.04690E+00    2.15703E+03
 7.40820E+00    2.24983E+03
 7.78800E+00    2.36250E+03
 8.18730E+00    2.53019E+03
 8.60710E+00    2.57235E+03
 9.04840E+00    2.64328E+03
 9.51230E+00    2.73665E+03
 1.00000E+01    2.77861E+03
 1.05130E+01    2.78867E+03
 1.10520E+01    2.86558E+03
 1.16180E+01    2.96100E+03
 1.22140E+01    2.96228E+03
 1.28400E+01    2.94015E+03
 1.34990E+01    2.93353E+03
 1.38400E+01    2.92422E+03
 1.41910E+01    2.88926E+03
 1.45500E+01    2.85190E+03
 1.49180E+01    2.78338E+03
 1.56830E+01    2.67183E+03
 1.64870E+01    2.53642E+03
