# n + Sn126 : (n,el)    
# endfb8.0   JNDC FP Nuclear Data W.G.         EVAL-MAR90
# uncertainties: n
# # energies =    86
#   E(MeV)       xs(mb) 
 1.00000E-11    4.00000E+03
 2.53000E-08    4.00000E+03
 2.00000E-03    4.00000E+03
 2.00000E-03    0.00000E+00
 1.00000E-01    0.00000E+00
 1.00000E-01    6.32279E+03
 1.50000E-01    6.29517E+03
 2.00000E-01    6.29256E+03
 2.50000E-01    6.30045E+03
 3.00000E-01    6.31314E+03
 5.00000E-01    6.36972E+03
 7.00000E-01    6.39031E+03
 8.00000E-01    6.38065E+03
 9.00000E-01    6.35722E+03
 1.00000E+00    6.32042E+03
 1.15024E+00    6.24226E+03
 1.19908E+00    6.05408E+03
 1.25000E+00    5.87158E+03
 1.36931E+00    5.65695E+03
 1.50000E+00    5.45017E+03
 1.62019E+00    5.27290E+03
 1.75000E+00    5.10139E+03
 1.87083E+00    4.93022E+03
 2.00000E+00    4.76480E+03
 2.06612E+00    4.67836E+03
 2.12771E+00    4.56929E+03
 2.14716E+00    4.51610E+03
 2.17882E+00    4.43697E+03
 2.21178E+00    4.36383E+03
 2.23668E+00    4.30752E+03
 2.26803E+00    4.24473E+03
 2.39270E+00    3.97762E+03
 2.49068E+00    3.78837E+03
 2.56679E+00    3.65237E+03
 2.68534E+00    3.45747E+03
 2.80936E+00    3.27297E+03
 2.90312E+00    3.12527E+03
 3.00000E+00    2.98424E+03
 3.10984E+00    2.86590E+03
 3.28220E+00    2.69712E+03
 3.46410E+00    2.53829E+03
 3.59094E+00    2.42266E+03
 3.68910E+00    2.33940E+03
 3.84141E+00    2.21985E+03
 4.00000E+00    2.10641E+03
 4.22949E+00    2.03786E+03
 4.59863E+00    1.93920E+03
 5.00000E+00    1.84532E+03
 6.00000E+00    1.89917E+03
 6.48074E+00    1.99865E+03
 6.73537E+00    2.04869E+03
 7.00000E+00    2.09891E+03
 7.23762E+00    2.16023E+03
 7.40034E+00    2.20136E+03
 7.48331E+00    2.22209E+03
 7.75815E+00    2.28954E+03
 8.00000E+00    2.34747E+03
 8.23907E+00    2.50652E+03
 8.26378E+00    2.52273E+03
 8.48528E+00    2.54214E+03
 9.00000E+00    2.58734E+03
 9.24021E+00    2.63582E+03
 9.48683E+00    2.68481E+03
 1.00000E+01    2.78434E+03
 1.04881E+01    2.77335E+03
 1.05917E+01    2.77115E+03
 1.10000E+01    2.80723E+03
 1.18930E+01    2.96387E+03
 1.20000E+01    2.98697E+03
 1.29203E+01    2.94364E+03
 1.30000E+01    2.94202E+03
 1.34907E+01    2.93569E+03
 1.40000E+01    2.92952E+03
 1.40479E+01    2.92397E+03
 1.45000E+01    2.87517E+03
 1.50000E+01    2.82528E+03
 1.54919E+01    2.75599E+03
 1.60000E+01    2.68808E+03
 1.63135E+01    2.63450E+03
 1.70000E+01    2.52016E+03
 1.76750E+01    2.41493E+03
 1.80000E+01    2.36736E+03
 1.81277E+01    2.34574E+03
 1.90000E+01    2.20148E+03
 1.95875E+01    2.11030E+03
 2.00000E+01    2.05012E+03
