# n + Sn126 : (n,tot)   
# endfb8.0   JNDC FP Nuclear Data W.G.         EVAL-MAR90
# uncertainties: n
# # energies =   171
#   E(MeV)       xs(mb) 
 1.00000E-11    4.97359E+03
 1.00000E-07    4.03242E+03
 4.13990E-07    4.02092E+03
 5.31580E-07    4.01847E+03
 6.82560E-07    4.01630E+03
 8.76420E-07    4.01438E+03
 1.12540E-06    4.01269E+03
 1.44500E-06    4.01120E+03
 1.85540E-06    4.00989E+03
 2.37240E-06    4.00873E+03
 3.05900E-06    4.00770E+03
 3.92790E-06    4.00679E+03
 5.04350E-06    4.00599E+03
 6.47600E-06    4.00529E+03
 8.31530E-06    4.00467E+03
 1.06770E-05    4.00412E+03
 1.37100E-05    4.00364E+03
 1.76030E-05    4.00321E+03
 2.26030E-05    4.00283E+03
 2.92030E-05    4.00249E+03
 3.72670E-05    4.00221E+03
 4.78510E-05    4.00195E+03
 6.14420E-05    4.00172E+03
 7.88930E-05    4.00152E+03
 1.01300E-04    4.00134E+03
 1.30070E-04    4.00118E+03
 1.67020E-04    4.00104E+03
 2.14450E-04    4.00092E+03
 2.75360E-04    4.00081E+03
 3.53580E-04    4.00072E+03
 4.54000E-04    4.00063E+03
 5.82950E-04    4.00056E+03
 7.48520E-04    4.00049E+03
 9.61120E-04    4.00043E+03
 1.23410E-03    4.00038E+03
 1.58460E-03    3.72511E+03
 2.03470E-03    0.00000E+00
 2.24870E-03    0.00000E+00
 2.48520E-03    0.00000E+00
 2.61260E-03    0.00000E+00
 2.74650E-03    0.00000E+00
 3.03540E-03    0.00000E+00
 3.35460E-03    0.00000E+00
 3.70740E-03    0.00000E+00
 4.30740E-03    0.00000E+00
 5.53080E-03    0.00000E+00
 7.10170E-03    0.00000E+00
 9.11880E-03    0.00000E+00
 1.17090E-02    0.00000E+00
 1.50340E-02    0.00000E+00
 1.93050E-02    0.00000E+00
 2.18750E-02    0.00000E+00
 2.35790E-02    0.00000E+00
 2.41760E-02    0.00000E+00
 2.47880E-02    0.00000E+00
 2.60580E-02    0.00000E+00
 2.70000E-02    0.00000E+00
 2.85000E-02    0.00000E+00
 3.18280E-02    0.00000E+00
 3.43070E-02    0.00000E+00
 4.08680E-02    0.00000E+00
 4.63090E-02    0.00000E+00
 5.24750E-02    0.00000E+00
 5.65620E-02    0.00000E+00
 6.73790E-02    0.00000E+00
 7.20000E-02    0.00000E+00
 7.95000E-02    0.00000E+00
 8.25000E-02    0.00000E+00
 8.65170E-02    0.00000E+00
 9.80370E-02    5.32275E+03
 1.11090E-01    6.32133E+03
 1.16790E-01    6.31804E+03
 1.22770E-01    6.31457E+03
 1.29070E-01    6.31094E+03
 1.35690E-01    6.30713E+03
 1.42640E-01    6.30312E+03
 1.49960E-01    6.30080E+03
 1.57640E-01    6.30034E+03
 1.65730E-01    6.29986E+03
 1.74220E-01    6.29936E+03
 1.83160E-01    6.29883E+03
 1.92550E-01    6.29834E+03
 2.02420E-01    6.29930E+03
 2.12800E-01    6.30094E+03
 2.23710E-01    6.30266E+03
 2.35180E-01    6.30447E+03
 2.47240E-01    6.30836E+03
 2.73240E-01    6.31340E+03
 2.87250E-01    6.31608E+03
 2.94520E-01    6.31733E+03
 2.97200E-01    6.31783E+03
 2.98500E-01    6.31844E+03
 3.01970E-01    6.32337E+03
 3.33730E-01    6.33287E+03
 3.68830E-01    6.34061E+03
 3.87740E-01    6.34612E+03
 4.07620E-01    6.35495E+03
 4.50490E-01    6.36776E+03
 4.97870E-01    6.37631E+03
 5.23400E-01    6.37910E+03
 5.50230E-01    6.38202E+03
 5.78440E-01    6.38509E+03
 6.08100E-01    6.38831E+03
 6.39280E-01    6.39169E+03
 6.72060E-01    6.39512E+03
 7.06510E-01    6.39411E+03
 7.42740E-01    6.39066E+03
 7.80820E-01    6.38630E+03
 8.20850E-01    6.37749E+03
 8.62940E-01    6.36748E+03
 9.07180E-01    6.35166E+03
 9.61640E-01    6.33425E+03
 1.00260E+00    6.29965E+03
 1.10800E+00    6.25722E+03
 1.16480E+00    6.21955E+03
 1.22460E+00    6.17935E+03
 1.28730E+00    6.12504E+03
 1.35340E+00    6.06794E+03
 1.42270E+00    6.01537E+03
 1.49570E+00    5.94992E+03
 1.57240E+00    5.87068E+03
 1.65300E+00    5.79474E+03
 1.73770E+00    5.71066E+03
 1.82680E+00    5.61335E+03
 1.92050E+00    5.51899E+03
 2.01900E+00    5.41692E+03
 2.12250E+00    5.30821E+03
 2.23130E+00    5.21344E+03
 2.30690E+00    5.14803E+03
 2.34570E+00    5.11342E+03
 2.36530E+00    5.09009E+03
 2.38520E+00    5.03669E+03
 2.46600E+00    4.93653E+03
 2.59240E+00    4.83052E+03
 2.72530E+00    4.73415E+03
 2.86500E+00    4.62790E+03
 3.01190E+00    4.52890E+03
 3.16640E+00    4.43819E+03
 3.32870E+00    4.30994E+03
 3.67880E+00    4.14216E+03
 4.06570E+00    4.02656E+03
 4.49330E+00    3.95663E+03
 4.72370E+00    3.91254E+03
 4.96590E+00    3.88265E+03
 5.22050E+00    3.87587E+03
 5.48810E+00    3.87030E+03
 5.76950E+00    3.86664E+03
 6.06530E+00    3.89038E+03
 6.37630E+00    3.92142E+03
 6.59240E+00    3.93956E+03
 6.70320E+00    3.96376E+03
 7.04690E+00    4.02141E+03
 7.40820E+00    4.09253E+03
 7.78800E+00    4.16616E+03
 8.18730E+00    4.25224E+03
 8.60710E+00    4.34327E+03
 9.04840E+00    4.43109E+03
 9.51230E+00    4.52341E+03
 1.00000E+01    4.59936E+03
 1.05130E+01    4.64972E+03
 1.10520E+01    4.69837E+03
 1.16180E+01    4.74510E+03
 1.22140E+01    4.72516E+03
 1.28400E+01    4.68580E+03
 1.34990E+01    4.65660E+03
 1.38400E+01    4.63270E+03
 1.41910E+01    4.58622E+03
 1.45500E+01    4.53704E+03
 1.49180E+01    4.45298E+03
 1.56830E+01    4.32542E+03
 1.64870E+01    4.18289E+03
