# n + Kr 83 : (n,tot)   
# jendl4.0   K.Shibata, A.Ichihara, S.Kunieda  EVAL-AUG09
# uncertainties: n
# # energies =   171
#   E(MeV)       xs(mb) 
 1.00000E-11    2.23090E+06
 1.00000E-07    7.57926E+04
 4.13990E-07    4.68471E+04
 5.31580E-07    4.03505E+04
 6.82560E-07    3.45357E+04
 8.76420E-07    2.93667E+04
 1.12540E-06    2.48219E+04
 1.44500E-06    2.08814E+04
 1.85540E-06    1.75534E+04
 2.37240E-06    1.47548E+04
 3.05900E-06    1.24650E+04
 3.92790E-06    1.06760E+04
 5.04350E-06    9.30392E+03
 6.47600E-06    8.27224E+03
 8.31530E-06    7.51380E+03
 1.06770E-05    6.97297E+03
 1.37100E-05    6.64824E+03
 1.76030E-05    7.01082E+03
 2.26030E-05    4.51683E+05
 2.92030E-05    2.45919E+04
 3.72670E-05    8.29801E+03
 4.78510E-05    7.09391E+03
 6.14420E-05    6.65099E+03
 7.88930E-05    6.40299E+03
 1.01300E-04    6.21062E+03
 1.30070E-04    5.99443E+03
 1.67020E-04    5.47308E+03
 2.14450E-04    5.47388E+04
 2.75360E-04    4.39516E+04
 3.53580E-04    3.94814E+04
 4.54000E-04    3.55463E+04
 5.82950E-04    3.20906E+04
 7.48520E-04    2.90650E+04
 9.61120E-04    2.66963E+04
 1.23410E-03    2.47915E+04
 1.58460E-03    2.23703E+04
 2.03470E-03    2.07736E+04
 2.24870E-03    2.01682E+04
 2.48520E-03    1.96749E+04
 2.61260E-03    1.93235E+04
 2.74650E-03    1.87621E+04
 3.03540E-03    1.81523E+04
 3.35460E-03    1.76151E+04
 3.70740E-03    1.68991E+04
 4.30740E-03    1.59244E+04
 5.53080E-03    1.48149E+04
 7.10170E-03    1.38469E+04
 9.11880E-03    1.30579E+04
 1.17090E-02    1.24825E+04
 1.50340E-02    1.17759E+04
 1.93050E-02    1.11949E+04
 2.18750E-02    1.10100E+04
 2.35790E-02    1.09160E+04
 2.41760E-02    1.08671E+04
 2.47880E-02    1.07912E+04
 2.60580E-02    1.07014E+04
 2.70000E-02    1.06028E+04
 2.85000E-02    1.04257E+04
 3.18280E-02    1.02769E+04
 3.43070E-02    1.00694E+04
 4.08680E-02    9.83869E+03
 4.63090E-02    9.65841E+03
 5.24750E-02    9.52831E+03
 5.65620E-02    9.37071E+03
 6.73790E-02    9.22850E+03
 7.20000E-02    9.13909E+03
 7.95000E-02    9.06532E+03
 8.25000E-02    9.02354E+03
 8.65170E-02    8.93721E+03
 9.80370E-02    8.83052E+03
 1.11090E-01    8.77183E+03
 1.16790E-01    8.73610E+03
 1.22770E-01    8.69853E+03
 1.29070E-01    8.65900E+03
 1.35690E-01    8.61749E+03
 1.42640E-01    8.57383E+03
 1.49960E-01    8.52794E+03
 1.57640E-01    8.47969E+03
 1.65730E-01    8.42897E+03
 1.74220E-01    8.37565E+03
 1.83160E-01    8.31957E+03
 1.92550E-01    8.26120E+03
 2.02420E-01    8.21322E+03
 2.12800E-01    8.16852E+03
 2.23710E-01    8.12153E+03
 2.35180E-01    8.07213E+03
 2.47240E-01    7.99349E+03
 2.73240E-01    7.91206E+03
 2.87250E-01    7.86928E+03
 2.94520E-01    7.84931E+03
 2.97200E-01    7.84133E+03
 2.98500E-01    7.83179E+03
 3.01970E-01    7.76230E+03
 3.33730E-01    7.62854E+03
 3.68830E-01    7.51954E+03
 3.87740E-01    7.44189E+03
 4.07620E-01    7.31734E+03
 4.50490E-01    7.14030E+03
 4.97870E-01    7.00319E+03
 5.23400E-01    6.90590E+03
 5.50230E-01    6.80363E+03
 5.78440E-01    6.69610E+03
 6.08100E-01    6.58400E+03
 6.39280E-01    6.47410E+03
 6.72060E-01    6.36036E+03
 7.06510E-01    6.24207E+03
 7.42740E-01    6.12616E+03
 7.80820E-01    6.00584E+03
 8.20850E-01    5.88380E+03
 8.62940E-01    5.76311E+03
 9.07180E-01    5.63057E+03
 9.61640E-01    5.51145E+03
 1.00260E+00    5.36345E+03
 1.10800E+00    5.21527E+03
 1.16480E+00    5.10966E+03
 1.22460E+00    4.99870E+03
 1.28730E+00    4.88203E+03
 1.35340E+00    4.75938E+03
 1.42270E+00    4.63049E+03
 1.49570E+00    4.52570E+03
 1.57240E+00    4.45466E+03
 1.65300E+00    4.38012E+03
 1.73770E+00    4.30175E+03
 1.82680E+00    4.21933E+03
 1.92050E+00    4.13362E+03
 2.01900E+00    4.07899E+03
 2.12250E+00    4.03972E+03
 2.23130E+00    4.00552E+03
 2.30690E+00    3.98429E+03
 2.34570E+00    3.97348E+03
 2.36530E+00    3.96617E+03
 2.38520E+00    3.94762E+03
 2.46600E+00    3.91774E+03
 2.59240E+00    3.90104E+03
 2.72530E+00    3.88472E+03
 2.86500E+00    3.86756E+03
 3.01190E+00    3.85626E+03
 3.16640E+00    3.85306E+03
 3.32870E+00    3.85044E+03
 3.67880E+00    3.86113E+03
 4.06570E+00    3.87801E+03
 4.49330E+00    3.89896E+03
 4.72370E+00    3.91461E+03
 4.96590E+00    3.93117E+03
 5.22050E+00    3.95029E+03
 5.48810E+00    3.97099E+03
 5.76950E+00    3.99276E+03
 6.06530E+00    4.01564E+03
 6.37630E+00    4.03557E+03
 6.59240E+00    4.04793E+03
 6.70320E+00    4.06017E+03
 7.04690E+00    4.07655E+03
 7.40820E+00    4.09068E+03
 7.78800E+00    4.09586E+03
 8.18730E+00    4.09909E+03
 8.60710E+00    4.08953E+03
 9.04840E+00    4.07490E+03
 9.51230E+00    4.05122E+03
 1.00000E+01    4.01765E+03
 1.05130E+01    3.97553E+03
 1.10520E+01    3.92507E+03
 1.16180E+01    3.86711E+03
 1.22140E+01    3.80079E+03
 1.28400E+01    3.72818E+03
 1.34990E+01    3.66908E+03
 1.38400E+01    3.62815E+03
 1.41910E+01    3.58562E+03
 1.45500E+01    3.54155E+03
 1.49180E+01    3.47394E+03
 1.56830E+01    3.38224E+03
 1.64870E+01    3.29018E+03
