# n + Kr 83 : (n,el)    
# jendl4.0   K.Shibata, A.Ichihara, S.Kunieda  EVAL-AUG09
# uncertainties: n
# # energies =   171
#   E(MeV)       xs(mb) 
 1.00000E-11    1.69204E+04
 1.00000E-07    8.87680E+03
 4.13990E-07    8.63212E+03
 5.31580E-07    8.51610E+03
 6.82560E-07    8.37807E+03
 8.76420E-07    8.21712E+03
 1.12540E-06    8.03341E+03
 1.44500E-06    7.82776E+03
 1.85540E-06    7.60335E+03
 2.37240E-06    7.36087E+03
 3.05900E-06    7.10557E+03
 3.92790E-06    6.84668E+03
 5.04350E-06    6.58549E+03
 6.47600E-06    6.32113E+03
 8.31530E-06    6.04621E+03
 1.06770E-05    5.73003E+03
 1.37100E-05    5.31574E+03
 1.76030E-05    4.55162E+03
 2.26030E-05    7.50420E+04
 2.92030E-05    1.34894E+04
 3.72670E-05    7.73005E+03
 4.78510E-05    6.94160E+03
 6.14420E-05    6.59098E+03
 7.88930E-05    6.37173E+03
 1.01300E-04    6.19286E+03
 1.30070E-04    5.97204E+03
 1.67020E-04    5.37226E+03
 2.14450E-04    3.62053E+04
 2.75360E-04    3.62800E+04
 3.53580E-04    3.32467E+04
 4.54000E-04    3.04806E+04
 5.82950E-04    2.79680E+04
 7.48520E-04    2.56978E+04
 9.61120E-04    2.38598E+04
 1.23410E-03    2.23326E+04
 1.58460E-03    2.03899E+04
 2.03470E-03    1.90942E+04
 2.24870E-03    1.85847E+04
 2.48520E-03    1.81695E+04
 2.61260E-03    1.78738E+04
 2.74650E-03    1.74012E+04
 3.03540E-03    1.68821E+04
 3.35460E-03    1.64199E+04
 3.70740E-03    1.58028E+04
 4.30740E-03    1.49547E+04
 5.53080E-03    1.39815E+04
 7.10170E-03    1.31276E+04
 9.11880E-03    1.20765E+04
 1.17090E-02    1.14436E+04
 1.50340E-02    1.08390E+04
 1.93050E-02    1.03398E+04
 2.18750E-02    1.01752E+04
 2.35790E-02    1.00911E+04
 2.41760E-02    1.00474E+04
 2.47880E-02    9.97950E+03
 2.60580E-02    9.89921E+03
 2.70000E-02    9.81106E+03
 2.85000E-02    9.65255E+03
 3.18280E-02    9.51853E+03
 3.43070E-02    9.33146E+03
 4.08680E-02    9.12117E+03
 4.63090E-02    8.95466E+03
 5.24750E-02    8.83222E+03
 5.65620E-02    8.68162E+03
 6.73790E-02    8.54330E+03
 7.20000E-02    8.45444E+03
 7.95000E-02    8.38054E+03
 8.25000E-02    8.33784E+03
 8.65170E-02    8.24892E+03
 9.80370E-02    8.13543E+03
 1.11090E-01    8.06988E+03
 1.16790E-01    8.02990E+03
 1.22770E-01    7.98787E+03
 1.29070E-01    7.94365E+03
 1.35690E-01    7.89720E+03
 1.42640E-01    7.84836E+03
 1.49960E-01    7.79701E+03
 1.57640E-01    7.74304E+03
 1.65730E-01    7.68629E+03
 1.74220E-01    7.62663E+03
 1.83160E-01    7.56389E+03
 1.92550E-01    7.49860E+03
 2.02420E-01    7.44503E+03
 2.12800E-01    7.39518E+03
 2.23710E-01    7.34278E+03
 2.35180E-01    7.28768E+03
 2.47240E-01    7.19983E+03
 2.73240E-01    7.10814E+03
 2.87250E-01    7.05988E+03
 2.94520E-01    7.03734E+03
 2.97200E-01    7.02834E+03
 2.98500E-01    7.01758E+03
 3.01970E-01    6.94044E+03
 3.33730E-01    6.80124E+03
 3.68830E-01    6.68949E+03
 3.87740E-01    6.60987E+03
 4.07620E-01    6.48432E+03
 4.50490E-01    6.31216E+03
 4.97870E-01    6.17305E+03
 5.23400E-01    6.07756E+03
 5.50230E-01    5.97885E+03
 5.78440E-01    5.86672E+03
 6.08100E-01    5.75012E+03
 6.39280E-01    5.63694E+03
 6.72060E-01    5.51814E+03
 7.06510E-01    5.39872E+03
 7.42740E-01    5.27580E+03
 7.80820E-01    5.14703E+03
 8.20850E-01    5.01879E+03
 8.62940E-01    4.88646E+03
 9.07180E-01    4.74226E+03
 9.61640E-01    4.61072E+03
 1.00260E+00    4.46474E+03
 1.10800E+00    4.28707E+03
 1.16480E+00    4.10591E+03
 1.22460E+00    3.89362E+03
 1.28730E+00    3.66676E+03
 1.35340E+00    3.42674E+03
 1.42270E+00    3.17328E+03
 1.49570E+00    3.00851E+03
 1.57240E+00    2.93242E+03
 1.65300E+00    2.83022E+03
 1.73770E+00    2.67889E+03
 1.82680E+00    2.47364E+03
 1.92050E+00    2.24768E+03
 2.01900E+00    2.13442E+03
 2.12250E+00    2.08303E+03
 2.23130E+00    2.03826E+03
 2.30690E+00    2.01048E+03
 2.34570E+00    1.99632E+03
 2.36530E+00    1.98675E+03
 2.38520E+00    1.96247E+03
 2.46600E+00    1.92257E+03
 2.59240E+00    1.89777E+03
 2.72530E+00    1.87318E+03
 2.86500E+00    1.84740E+03
 3.01190E+00    1.83294E+03
 3.16640E+00    1.82725E+03
 3.32870E+00    1.82330E+03
 3.67880E+00    1.84840E+03
 4.06570E+00    1.90151E+03
 4.49330E+00    1.95358E+03
 4.72370E+00    1.99332E+03
 4.96590E+00    2.03544E+03
 5.22050E+00    2.07972E+03
 5.48810E+00    2.12234E+03
 5.76950E+00    2.16245E+03
 6.06530E+00    2.20105E+03
 6.37630E+00    2.23082E+03
 6.59240E+00    2.24712E+03
 6.70320E+00    2.26628E+03
 7.04690E+00    2.29085E+03
 7.40820E+00    2.31024E+03
 7.78800E+00    2.32179E+03
 8.18730E+00    2.32833E+03
 8.60710E+00    2.32399E+03
 9.04840E+00    2.31243E+03
 9.51230E+00    2.29367E+03
 1.00000E+01    2.26536E+03
 1.05130E+01    2.22871E+03
 1.10520E+01    2.18389E+03
 1.16180E+01    2.13178E+03
 1.22140E+01    2.07167E+03
 1.28400E+01    2.00624E+03
 1.34990E+01    1.95390E+03
 1.38400E+01    1.91765E+03
 1.41910E+01    1.87982E+03
 1.45500E+01    1.84151E+03
 1.49180E+01    1.78333E+03
 1.56830E+01    1.70429E+03
 1.64870E+01    1.62565E+03
