# n + Zn 70 : (n,n'08)  
# jeff3.3    A.J. Koning and D. Rochman        EVAL-DEC15
# uncertainties: n
# # energies =    80
#   E(MeV)       xs(mb) 
 2.40926E+00    0.00000E+00
 2.57449E+00    5.00950E+01
 2.60000E+00    5.78292E+01
 2.70344E+00    7.19682E+01
 2.73183E+00    7.58488E+01
 2.80000E+00    8.51668E+01
 2.84546E+00    8.85404E+01
 2.90027E+00    9.26080E+01
 2.93643E+00    9.52914E+01
 2.99177E+00    9.93982E+01
 3.00000E+00    1.00009E+02
 3.02079E+00    1.00653E+02
 3.08143E+00    1.02531E+02
 3.20000E+00    1.06203E+02
 3.26921E+00    1.06170E+02
 3.28166E+00    1.06164E+02
 3.29306E+00    1.06158E+02
 3.37601E+00    1.06118E+02
 3.38980E+00    1.06112E+02
 3.40000E+00    1.06107E+02
 3.46832E+00    1.04566E+02
 3.51397E+00    1.03536E+02
 3.52634E+00    1.03257E+02
 3.55657E+00    1.02576E+02
 3.60000E+00    1.01596E+02
 3.65032E+00    1.00003E+02
 3.68700E+00    9.88423E+01
 3.73308E+00    9.73838E+01
 3.76382E+00    9.64109E+01
 3.80000E+00    9.52657E+01
 4.00000E+00    8.40762E+01
 4.20000E+00    7.13103E+01
 4.40000E+00    5.88344E+01
 4.60000E+00    4.77600E+01
 4.80000E+00    3.84865E+01
 5.00000E+00    3.09642E+01
 5.20000E+00    2.49520E+01
 5.40000E+00    2.01705E+01
 5.60000E+00    1.63647E+01
 5.80000E+00    1.33304E+01
 6.00000E+00    1.09006E+01
 6.20000E+00    8.94518E+00
 6.40000E+00    7.37104E+00
 6.60000E+00    6.10149E+00
 6.80000E+00    5.07639E+00
 7.00000E+00    4.24835E+00
 7.20000E+00    3.57847E+00
 7.40000E+00    3.03570E+00
 7.60000E+00    2.59581E+00
 7.80000E+00    2.23585E+00
 8.00000E+00    1.94417E+00
 8.50000E+00    1.43037E+00
 9.00000E+00    1.11721E+00
 9.50000E+00    9.21878E-01
 1.00000E+01    7.96344E-01
 1.05000E+01    7.13134E-01
 1.10000E+01    6.56160E-01
 1.15000E+01    6.15665E-01
 1.20000E+01    5.85606E-01
 1.25000E+01    5.62205E-01
 1.30000E+01    5.43109E-01
 1.35000E+01    5.26890E-01
 1.40000E+01    5.12706E-01
 1.45000E+01    5.00070E-01
 1.50000E+01    4.88693E-01
 1.60000E+01    4.68940E-01
 1.70000E+01    4.52027E-01
 1.80000E+01    4.36617E-01
 1.90000E+01    4.21742E-01
 2.00000E+01    4.07110E-01
 2.10000E+01    3.92951E-01
 2.20000E+01    3.79684E-01
 2.30000E+01    3.67652E-01
 2.40000E+01    3.56994E-01
 2.50000E+01    3.47633E-01
 2.60000E+01    3.39323E-01
 2.70000E+01    3.31742E-01
 2.80000E+01    3.24584E-01
 2.90000E+01    3.17619E-01
 3.00000E+01    3.10732E-01
