# n + Zn 70 : (n,n'06)  
# jeff3.3    A.J. Koning and D. Rochman        EVAL-DEC15
# uncertainties: n
# # energies =    85
#   E(MeV)       xs(mb) 
 1.98545E+00    0.00000E+00
 2.00000E+00    2.87978E+01
 2.17107E+00    8.91424E+01
 2.20000E+00    9.93474E+01
 2.40000E+00    1.39197E+02
 2.40926E+00    1.40046E+02
 2.57449E+00    1.55190E+02
 2.60000E+00    1.57528E+02
 2.70344E+00    1.60826E+02
 2.73183E+00    1.61731E+02
 2.80000E+00    1.63904E+02
 2.84546E+00    1.62739E+02
 2.90027E+00    1.61335E+02
 2.93643E+00    1.60408E+02
 2.99177E+00    1.58990E+02
 3.00000E+00    1.58779E+02
 3.02079E+00    1.57873E+02
 3.08143E+00    1.55230E+02
 3.20000E+00    1.50063E+02
 3.26921E+00    1.46312E+02
 3.28166E+00    1.45637E+02
 3.29306E+00    1.45019E+02
 3.37601E+00    1.40523E+02
 3.38980E+00    1.39776E+02
 3.40000E+00    1.39223E+02
 3.46832E+00    1.35087E+02
 3.51397E+00    1.32323E+02
 3.52634E+00    1.31574E+02
 3.55657E+00    1.29744E+02
 3.60000E+00    1.27115E+02
 3.65032E+00    1.24248E+02
 3.68700E+00    1.22158E+02
 3.73308E+00    1.19533E+02
 3.76382E+00    1.17781E+02
 3.80000E+00    1.15720E+02
 4.00000E+00    1.00203E+02
 4.20000E+00    8.39511E+01
 4.40000E+00    6.87040E+01
 4.60000E+00    5.54434E+01
 4.80000E+00    4.44499E+01
 5.00000E+00    3.55724E+01
 5.20000E+00    2.84921E+01
 5.40000E+00    2.28719E+01
 5.60000E+00    1.84121E+01
 5.80000E+00    1.48732E+01
 6.00000E+00    1.20584E+01
 6.20000E+00    9.81145E+00
 6.40000E+00    8.01972E+00
 6.60000E+00    6.58944E+00
 6.80000E+00    5.44563E+00
 7.00000E+00    4.52957E+00
 7.20000E+00    3.79533E+00
 7.40000E+00    3.20537E+00
 7.60000E+00    2.73013E+00
 7.80000E+00    2.34419E+00
 8.00000E+00    2.03318E+00
 8.50000E+00    1.48905E+00
 9.00000E+00    1.16013E+00
 9.50000E+00    9.56088E-01
 1.00000E+01    8.25414E-01
 1.05000E+01    7.38920E-01
 1.10000E+01    6.79629E-01
 1.15000E+01    6.37301E-01
 1.20000E+01    6.05643E-01
 1.25000E+01    5.80778E-01
 1.30000E+01    5.60339E-01
 1.35000E+01    5.42924E-01
 1.40000E+01    5.27713E-01
 1.45000E+01    5.14224E-01
 1.50000E+01    5.02141E-01
 1.60000E+01    4.81228E-01
 1.70000E+01    4.63164E-01
 1.80000E+01    4.46432E-01
 1.90000E+01    4.30173E-01
 2.00000E+01    4.14294E-01
 2.10000E+01    3.99156E-01
 2.20000E+01    3.85192E-01
 2.30000E+01    3.72691E-01
 2.40000E+01    3.61710E-01
 2.50000E+01    3.52088E-01
 2.60000E+01    3.43519E-01
 2.70000E+01    3.35646E-01
 2.80000E+01    3.28162E-01
 2.90000E+01    3.20855E-01
 3.00000E+01    3.13633E-01
