# n + Zn 70 : (n,n'07)  
# jeff3.3    A.J. Koning and D. Rochman        EVAL-DEC15
# uncertainties: n
# # energies =    83
#   E(MeV)       xs(mb) 
 2.17107E+00    0.00000E+00
 2.20000E+00    1.31905E+01
 2.40000E+00    3.31373E+01
 2.40926E+00    3.36151E+01
 2.57449E+00    4.21404E+01
 2.60000E+00    4.34566E+01
 2.70344E+00    4.56602E+01
 2.73183E+00    4.62650E+01
 2.80000E+00    4.77172E+01
 2.84546E+00    4.74716E+01
 2.90027E+00    4.71754E+01
 2.93643E+00    4.69800E+01
 2.99177E+00    4.66810E+01
 3.00000E+00    4.66365E+01
 3.02079E+00    4.63748E+01
 3.08143E+00    4.56113E+01
 3.20000E+00    4.41186E+01
 3.26921E+00    4.28538E+01
 3.28166E+00    4.26263E+01
 3.29306E+00    4.24179E+01
 3.37601E+00    4.09020E+01
 3.38980E+00    4.06500E+01
 3.40000E+00    4.04636E+01
 3.46832E+00    3.93214E+01
 3.51397E+00    3.85582E+01
 3.52634E+00    3.83514E+01
 3.55657E+00    3.78460E+01
 3.60000E+00    3.71199E+01
 3.65032E+00    3.62426E+01
 3.68700E+00    3.56031E+01
 3.73308E+00    3.47997E+01
 3.76382E+00    3.42637E+01
 3.80000E+00    3.36329E+01
 4.00000E+00    2.88786E+01
 4.20000E+00    2.39734E+01
 4.40000E+00    1.94432E+01
 4.60000E+00    1.55633E+01
 4.80000E+00    1.23875E+01
 5.00000E+00    9.84642E+00
 5.20000E+00    7.83069E+00
 5.40000E+00    6.23414E+00
 5.60000E+00    4.96725E+00
 5.80000E+00    3.96090E+00
 6.00000E+00    3.15960E+00
 6.20000E+00    2.51994E+00
 6.40000E+00    2.01028E+00
 6.60000E+00    1.60453E+00
 6.80000E+00    1.28169E+00
 7.00000E+00    1.02489E+00
 7.20000E+00    8.20502E-01
 7.40000E+00    6.58020E-01
 7.60000E+00    5.28685E-01
 7.80000E+00    4.24803E-01
 8.00000E+00    3.42461E-01
 8.50000E+00    2.02159E-01
 9.00000E+00    1.21399E-01
 9.50000E+00    7.41975E-02
 1.00000E+01    4.60457E-02
 1.05000E+01    2.89488E-02
 1.10000E+01    1.84119E-02
 1.15000E+01    1.18329E-02
 1.20000E+01    7.67649E-03
 1.25000E+01    5.02232E-03
 1.30000E+01    3.31153E-03
 1.35000E+01    2.19967E-03
 1.40000E+01    1.47197E-03
 1.45000E+01    9.92267E-04
 1.50000E+01    6.73835E-04
 1.60000E+01    3.17358E-04
 1.70000E+01    1.53024E-04
 1.80000E+01    7.51048E-05
 1.90000E+01    3.73829E-05
 2.00000E+01    1.88358E-05
 2.10000E+01    9.61482E-06
 2.20000E+01    4.97535E-06
 2.30000E+01    2.61643E-06
 2.40000E+01    1.38304E-06
 2.50000E+01    7.51250E-07
 2.60000E+01    4.12940E-07
 2.70000E+01    2.29700E-07
 2.80000E+01    1.29060E-07
 2.90000E+01    7.31570E-08
 3.00000E+01    4.17500E-08
