# n + Zn 70 : (n,xa)    
# jeff3.3    A.J. Koning and D. Rochman        EVAL-DEC15
# 
# # energies =   126
#   E(MeV)        xs(mb) 
 8.97665E-01    0.00000E+00
 9.00000E-01    0.00000E+00
 1.00000E+00    0.00000E+00
 1.08568E+00    0.00000E+00
 1.20000E+00    0.00000E+00
 1.40000E+00    0.00000E+00
 1.57642E+00    0.00000E+00
 1.60000E+00    0.00000E+00
 1.78413E+00    2.73083E-16
 1.80000E+00    2.96620E-16
 1.81210E+00    1.61846E-15
 1.98545E+00    2.05555E-14
 2.00000E+00    2.21450E-14
 2.17107E+00    6.15677E-13
 2.20000E+00    7.16050E-13
 2.40000E+00    1.43920E-11
 2.40926E+00    2.22258E-11
 2.57449E+00    1.62009E-10
 2.60000E+00    1.83590E-10
 2.70344E+00    9.47189E-10
 2.73183E+00    1.15677E-09
 2.80000E+00    1.66000E-09
 2.84546E+00    3.79275E-09
 2.90027E+00    6.36417E-09
 2.93643E+00    8.06061E-09
 2.99177E+00    1.06569E-08
 3.00000E+00    1.10430E-08
 3.02079E+00    1.61355E-08
 3.08143E+00    3.09893E-08
 3.20000E+00    6.00330E-08
 3.26921E+00    1.32761E-07
 3.28166E+00    1.45844E-07
 3.29306E+00    1.57824E-07
 3.37601E+00    2.44990E-07
 3.38980E+00    2.59481E-07
 3.40000E+00    2.70200E-07
 3.46832E+00    5.35893E-07
 3.51397E+00    7.13423E-07
 3.52634E+00    7.61530E-07
 3.55657E+00    8.79093E-07
 3.60000E+00    1.04799E-06
 3.65032E+00    1.68081E-06
 3.68700E+00    2.14209E-06
 3.73308E+00    2.72158E-06
 3.76382E+00    3.10817E-06
 3.80000E+00    3.56316E-06
 4.00000E+00    1.02416E-05
 4.20000E+00    2.57623E-05
 4.40000E+00    7.62366E-05
 4.60000E+00    1.42610E-04
 4.80000E+00    2.61240E-04
 5.00000E+00    5.16769E-04
 5.20000E+00    7.66717E-04
 5.40000E+00    1.34253E-03
 5.60000E+00    2.08540E-03
 5.80000E+00    3.03117E-03
 6.00000E+00    4.65040E-03
 6.20000E+00    6.76609E-03
 6.40000E+00    9.35038E-03
 6.60000E+00    1.26648E-02
 6.80000E+00    1.78941E-02
 7.00000E+00    2.31806E-02
 7.20000E+00    3.33493E-02
 7.40000E+00    4.19669E-02
 7.60000E+00    4.98434E-02
 7.80000E+00    6.69613E-02
 8.00000E+00    8.47864E-02
 8.50000E+00    1.51869E-01
 9.00000E+00    2.62813E-01
 9.50000E+00    4.37329E-01
 1.00000E+01    6.92090E-01
 1.05000E+01    1.04223E+00
 1.10000E+01    1.49660E+00
 1.15000E+01    2.06184E+00
 1.20000E+01    2.74112E+00
 1.25000E+01    3.53476E+00
 1.30000E+01    4.44241E+00
 1.35000E+01    5.46084E+00
 1.40000E+01    6.57971E+00
 1.45000E+01    7.79219E+00
 1.50000E+01    9.09720E+00
 1.60000E+01    1.20460E+01
 1.70000E+01    1.52192E+01
 1.80000E+01    1.85853E+01
 1.90000E+01    2.14468E+01
 2.00000E+01    2.36176E+01
 2.10000E+01    2.62117E+01
 2.20000E+01    2.84266E+01
 2.30000E+01    3.06074E+01
 2.40000E+01    3.25200E+01
 2.50000E+01    3.41978E+01
 2.60000E+01    3.58126E+01
 2.70000E+01    3.72477E+01
 2.80000E+01    3.85466E+01
 2.90000E+01    3.97336E+01
 3.00000E+01    4.07903E+01
 3.00000E+01    4.04941E+01
 3.20000E+01    4.24175E+01
 3.40000E+01    4.42674E+01
 3.60000E+01    4.60550E+01
 3.80000E+01    4.78656E+01
 4.00000E+01    4.97282E+01
 4.20000E+01    5.16478E+01
 4.40000E+01    5.35824E+01
 4.60000E+01    5.55059E+01
 4.80000E+01    5.71940E+01
 5.00000E+01    5.88990E+01
 5.20000E+01    6.05251E+01
 5.40000E+01    6.20786E+01
 5.60000E+01    6.34692E+01
 5.80000E+01    6.46777E+01
 6.00000E+01    6.55476E+01
 6.50000E+01    6.78939E+01
 7.00000E+01    6.92407E+01
 7.50000E+01    7.00082E+01
 8.00000E+01    7.17913E+01
 9.00000E+01    7.85748E+01
 1.00000E+02    8.63625E+01
 1.10000E+02    9.17158E+01
 1.20000E+02    9.76379E+01
 1.30000E+02    1.05061E+02
 1.40000E+02    1.11987E+02
 1.50000E+02    1.17924E+02
 1.60000E+02    1.23934E+02
 1.80000E+02    1.39953E+02
 2.00000E+02    1.62169E+02
