# n + Sn124 : (n,xa)    
# jendl.ad   N.Iwamoto                         EVAL-Apr14
# 
# # energies =    97
#   E(MeV)        xs(mb) 
 1.05000E-01    0.00000E+00
 1.10000E-01    0.00000E+00
 1.20000E-01    0.00000E+00
 1.30000E-01    0.00000E+00
 1.40000E-01    0.00000E+00
 1.50000E-01    0.00000E+00
 1.60000E-01    0.00000E+00
 1.70000E-01    0.00000E+00
 1.80000E-01    0.00000E+00
 1.90000E-01    0.00000E+00
 2.00000E-01    0.00000E+00
 2.25000E-01    0.00000E+00
 2.50000E-01    0.00000E+00
 2.75000E-01    0.00000E+00
 3.00000E-01    0.00000E+00
 4.00000E-01    0.00000E+00
 5.00000E-01    0.00000E+00
 6.00000E-01    0.00000E+00
 7.00000E-01    0.00000E+00
 8.00000E-01    0.00000E+00
 9.00000E-01    0.00000E+00
 1.00000E+00    0.00000E+00
 1.10000E+00    0.00000E+00
 1.14095E+00    0.00000E+00
 1.20000E+00    0.00000E+00
 1.30000E+00    0.00000E+00
 1.40000E+00    0.00000E+00
 1.50000E+00    0.00000E+00
 1.60000E+00    6.48174E-24
 1.70000E+00    1.76073E-23
 1.80000E+00    2.87437E-23
 1.90000E+00    3.98944E-23
 2.00000E+00    5.10459E-23
 2.11882E+00    6.42960E-23
 2.12617E+00    6.51156E-23
 2.14663E+00    6.73971E-23
 2.14694E+00    6.74317E-23
 2.21001E+00    7.44648E-23
 2.22257E+00    7.58653E-23
 2.23985E+00    7.77923E-23
 2.25000E+00    7.89241E-23
 2.34394E+00    8.93995E-23
 2.38576E+00    9.40630E-23
 2.44607E+00    1.00788E-22
 2.46793E+00    1.03226E-22
 2.47432E+00    1.03938E-22
 2.50000E+00    1.06802E-22
 2.58906E+00    1.16733E-22
 2.59943E+00    1.17890E-22
 2.62369E+00    1.20595E-22
 2.63573E+00    1.21938E-22
 2.67823E+00    1.26677E-22
 2.71041E+00    1.30265E-22
 2.72377E+00    1.31755E-22
 2.72520E+00    1.31915E-22
 2.72803E+00    1.32230E-22
 2.75000E+00    1.34680E-22
 2.77546E+00    1.37519E-22
 2.85967E+00    1.46910E-22
 2.87837E+00    1.48995E-22
 2.89878E+00    1.51271E-22
 2.90210E+00    1.51641E-22
 3.00000E+00    1.62558E-22
 3.50000E+00    2.18314E-22
 4.00000E+00    2.74070E-22
 4.50000E+00    1.98190E-18
 5.00000E+00    1.38880E-15
 5.50000E+00    2.06080E-13
 6.00000E+00    1.03480E-11
 6.50000E+00    2.37020E-10
 7.00000E+00    3.02520E-09
 7.50000E+00    2.47790E-08
 8.00000E+00    1.37030E-07
 8.50000E+00    6.08720E-07
 9.00000E+00    2.22542E-06
 9.50000E+00    7.03817E-06
 1.00000E+01    1.99950E-05
 1.05000E+01    5.24928E-05
 1.10000E+01    1.29357E-04
 1.15000E+01    3.03725E-04
 1.20000E+01    6.81440E-04
 1.25000E+01    1.46567E-03
 1.30000E+01    3.01532E-03
 1.35000E+01    5.91548E-03
 1.40000E+01    1.10357E-02
 1.45000E+01    1.95404E-02
 1.50000E+01    3.29842E-02
 1.55000E+01    5.34519E-02
 1.60000E+01    8.39795E-02
 1.65000E+01    1.28423E-01
 1.70000E+01    1.91487E-01
 1.75000E+01    2.76832E-01
 1.80000E+01    3.90390E-01
 1.85000E+01    5.34348E-01
 1.90000E+01    7.11066E-01
 1.95000E+01    9.21117E-01
 2.00000E+01    1.16492E+00
