# n + Sn124 : (n,tot)   
# jendl.ad   N.Iwamoto                         EVAL-Apr14
# uncertainties: n
# # energies =    69
#   E(MeV)       xs(mb) 
 1.00000E-10    9.49142E+02
 5.00000E-09    2.58316E+02
 1.00000E-08    1.95558E+02
 1.50000E-08    1.64250E+02
 2.00000E-08    1.44448E+02
 2.50000E-08    1.30454E+02
 3.00000E-08    1.19886E+02
 3.50000E-08    1.10180E+02
 4.20000E-08    1.00714E+02
 5.00000E-08    9.28407E+01
 5.80000E-08    8.62405E+01
 6.70000E-08    7.95361E+01
 8.00000E-08    7.18832E+01
 1.00000E-07    6.24079E+01
 1.40000E-07    5.37050E+01
 1.80000E-07    4.78150E+01
 2.20000E-07    4.39218E+01
 2.50000E-07    4.12709E+01
 2.80000E-07    3.93654E+01
 3.00000E-07    3.80182E+01
 3.20000E-07    3.65180E+01
 3.50000E-07    3.44457E+01
 4.00000E-07    3.13623E+01
 5.00000E-07    2.78530E+01
 6.25000E-07    2.47011E+01
 7.80000E-07    2.26945E+01
 8.50000E-07    2.17495E+01
 9.10000E-07    2.10828E+01
 9.50000E-07    2.07038E+01
 9.72000E-07    2.04282E+01
 9.96000E-07    2.01520E+01
 1.02000E-06    1.98920E+01
 1.04500E-06    1.96219E+01
 1.07100E-06    1.93465E+01
 1.09700E-06    1.90881E+01
 1.12300E-06    1.88413E+01
 1.15000E-06    1.80701E+01
 1.30000E-06    1.67452E+01
 1.50000E-06    1.45701E+01
 2.10000E-06    1.23476E+01
 2.60000E-06    1.07633E+01
 3.30000E-06    9.43133E+00
 4.00000E-06    7.01971E+00
 9.87700E-06    5.74087E+00
 1.59680E-05    7.80024E+00
 2.77000E-05    2.86220E+01
 4.80520E-05    1.65559E+04
 7.55014E-05    2.25693E+01
 1.48728E-04    1.49895E+00
 3.67262E-04    2.06304E+01
 9.06898E-04    5.87281E+01
 1.42510E-03    6.81124E-01
 2.23945E-03    3.15162E+02
 3.51910E-03    3.75320E+01
 5.53000E-03    3.40731E+01
 9.11800E-03    2.47015E+01
 1.50300E-02    4.17902E+01
 2.47800E-02    1.84461E+01
 4.08500E-02    1.10720E+01
 6.73400E-02    6.71502E+00
 1.11000E-01    7.49682E+00
 1.83000E-01    6.88006E+00
 3.02000E-01    6.73815E+00
 5.00000E-01    7.45881E+00
 8.21000E-01    9.17860E+00
 1.35300E+00    7.28130E+00
 2.23100E+00    3.22661E+00
 3.67900E+00    1.44797E+00
 6.06500E+00    1.75023E+03
