# n + Sm144 : (n,n'04)  
# jendl4.0   N.Iwamoto                         EVAL-Nov09
# uncertainties: n
# # energies =    54
#   E(MeV)       xs(mb) 
 2.18219E+00    0.00000E+00
 2.20625E+00    6.39748E+01
 2.25000E+00    1.06462E+02
 2.33989E+00    1.68589E+02
 2.44019E+00    2.16128E+02
 2.49502E+00    2.26868E+02
 2.50000E+00    2.28196E+02
 2.60592E+00    2.53360E+02
 2.66324E+00    2.56272E+02
 2.67934E+00    2.56930E+02
 2.70723E+00    2.55135E+02
 2.72601E+00    2.52029E+02
 2.74813E+00    2.49948E+02
 2.75000E+00    2.49582E+02
 2.81927E+00    2.47788E+02
 2.82365E+00    2.46292E+02
 2.84230E+00    2.41847E+02
 2.84552E+00    2.41395E+02
 2.84681E+00    2.41135E+02
 3.00000E+00    2.20941E+02
 3.50000E+00    1.28514E+02
 4.00000E+00    6.54012E+01
 4.50000E+00    3.37234E+01
 5.00000E+00    1.79600E+01
 5.50000E+00    9.73764E+00
 6.00000E+00    5.30697E+00
 6.50000E+00    2.89490E+00
 7.00000E+00    1.58784E+00
 7.50000E+00    8.84562E-01
 8.00000E+00    5.08841E-01
 8.50000E+00    3.09405E-01
 9.00000E+00    2.03438E-01
 9.50000E+00    1.46201E-01
 1.00000E+01    1.14242E-01
 1.05000E+01    9.54518E-02
 1.10000E+01    8.36455E-02
 1.15000E+01    7.56537E-02
 1.20000E+01    6.98400E-02
 1.25000E+01    6.53380E-02
 1.30000E+01    6.16746E-02
 1.35000E+01    5.85774E-02
 1.40000E+01    5.58832E-02
 1.45000E+01    5.34864E-02
 1.50000E+01    5.13151E-02
 1.55000E+01    4.92988E-02
 1.60000E+01    4.74393E-02
 1.65000E+01    4.56843E-02
 1.70000E+01    4.39917E-02
 1.75000E+01    4.23487E-02
 1.80000E+01    4.08121E-02
 1.85000E+01    3.93232E-02
 1.90000E+01    3.78749E-02
 1.95000E+01    3.64612E-02
 2.00000E+01    3.50925E-02
