# n + Sm144 : (n,el)    
# jendl4.0   N.Iwamoto                         EVAL-Nov09
# uncertainties: n
# # energies =    69
#   E(MeV)       xs(mb) 
 1.00000E-10    9.18503E+02
 5.00000E-09    7.68617E+02
 1.00000E-08    7.64439E+02
 1.50000E-08    7.62806E+02
 2.00000E-08    7.61926E+02
 2.50000E-08    7.61355E+02
 3.00000E-08    7.60987E+02
 3.50000E-08    7.60629E+02
 4.20000E-08    7.60375E+02
 5.00000E-08    7.60112E+02
 5.80000E-08    7.59929E+02
 6.70000E-08    7.59796E+02
 8.00000E-08    7.59596E+02
 1.00000E-07    7.59368E+02
 1.40000E-07    7.59216E+02
 1.80000E-07    7.59067E+02
 2.20000E-07    7.58939E+02
 2.50000E-07    7.58883E+02
 2.80000E-07    7.58851E+02
 3.00000E-07    7.58825E+02
 3.20000E-07    7.58793E+02
 3.50000E-07    7.58742E+02
 4.00000E-07    7.58647E+02
 5.00000E-07    7.58502E+02
 6.25000E-07    7.58322E+02
 7.80000E-07    7.58174E+02
 8.50000E-07    7.58090E+02
 9.10000E-07    7.58025E+02
 9.50000E-07    7.57985E+02
 9.72000E-07    7.57955E+02
 9.96000E-07    7.57924E+02
 1.02000E-06    7.57895E+02
 1.04500E-06    7.57872E+02
 1.07100E-06    7.57849E+02
 1.09700E-06    7.57826E+02
 1.12300E-06    7.57803E+02
 1.15000E-06    7.57726E+02
 1.30000E-06    7.57572E+02
 1.50000E-06    7.57232E+02
 2.10000E-06    7.56740E+02
 2.60000E-06    7.56215E+02
 3.30000E-06    7.55595E+02
 4.00000E-06    7.53069E+02
 9.87700E-06    7.47618E+02
 1.59680E-05    7.40069E+02
 2.77000E-05    7.28691E+02
 4.80520E-05    7.13243E+02
 7.55014E-05    6.88439E+02
 1.48728E-04    6.30830E+02
 3.67262E-04    4.88220E+02
 9.06898E-04    5.63672E+02
 1.42510E-03    2.39844E+04
 2.23945E-03    1.96839E+04
 3.51910E-03    4.12599E+04
 5.53000E-03    1.30020E+04
 9.11800E-03    1.29756E+04
 1.50300E-02    1.27012E+04
 2.47800E-02    1.04722E+04
 4.08500E-02    8.76576E+03
 6.73400E-02    7.48435E+03
 1.11000E-01    6.58400E+03
 1.83000E-01    6.07654E+03
 3.02000E-01    6.01892E+03
 5.00000E-01    6.42724E+03
 8.21000E-01    6.99282E+03
 1.35300E+00    6.46292E+03
 2.23100E+00    3.98829E+03
 3.67900E+00    2.41109E+03
 6.06500E+00    2.14879E+03
