# n + Sm144 : (n,n'11)  
# jendl4.0   N.Iwamoto                         EVAL-Nov09
# uncertainties: n
# # energies =    45
#   E(MeV)       xs(mb) 
 2.67934E+00    0.00000E+00
 2.70723E+00    5.81611E+01
 2.72601E+00    6.94644E+01
 2.74813E+00    7.97614E+01
 2.75000E+00    8.00703E+01
 2.81927E+00    9.88817E+01
 2.82365E+00    9.85566E+01
 2.84230E+00    9.88390E+01
 2.84552E+00    9.91034E+01
 2.84681E+00    9.92204E+01
 3.00000E+00    1.11831E+02
 3.50000E+00    9.91347E+01
 4.00000E+00    6.37838E+01
 4.50000E+00    3.44609E+01
 5.00000E+00    1.79982E+01
 5.50000E+00    9.42239E+00
 6.00000E+00    4.96925E+00
 6.50000E+00    2.62892E+00
 7.00000E+00    1.39775E+00
 7.50000E+00    7.56952E-01
 8.00000E+00    4.24926E-01
 8.50000E+00    2.53903E-01
 9.00000E+00    1.65233E-01
 9.50000E+00    1.18369E-01
 1.00000E+01    9.26501E-02
 1.05000E+01    7.77492E-02
 1.10000E+01    6.84674E-02
 1.15000E+01    6.21990E-02
 1.20000E+01    5.76152E-02
 1.25000E+01    5.40294E-02
 1.30000E+01    5.10790E-02
 1.35000E+01    4.85619E-02
 1.40000E+01    4.63596E-02
 1.45000E+01    4.43978E-02
 1.50000E+01    4.26247E-02
 1.55000E+01    4.09815E-02
 1.60000E+01    3.94826E-02
 1.65000E+01    3.80588E-02
 1.70000E+01    3.66857E-02
 1.75000E+01    3.53579E-02
 1.80000E+01    3.41087E-02
 1.85000E+01    3.29050E-02
 1.90000E+01    3.17333E-02
 1.95000E+01    3.05870E-02
 2.00000E+01    2.94800E-02
