# n + Sm144 : (n,el)    
# jendl4.0   N.Iwamoto                         EVAL-Nov09
# uncertainties: n
# # energies =   171
#   E(MeV)       xs(mb) 
 1.00000E-11    1.20467E+03
 1.00000E-07    7.59060E+02
 4.13990E-07    7.58618E+02
 5.31580E-07    7.58446E+02
 6.82560E-07    7.58224E+02
 8.76420E-07    7.57947E+02
 1.12540E-06    7.57677E+02
 1.44500E-06    7.57357E+02
 1.85540E-06    7.56949E+02
 2.37240E-06    7.56422E+02
 3.05900E-06    7.55739E+02
 3.92790E-06    7.54868E+02
 5.04350E-06    7.53750E+02
 6.47600E-06    7.52314E+02
 8.31530E-06    7.50470E+02
 1.06770E-05    7.48103E+02
 1.37100E-05    7.45063E+02
 1.76030E-05    7.41160E+02
 2.26030E-05    7.36344E+02
 2.92030E-05    7.31311E+02
 3.72670E-05    7.25045E+02
 4.78510E-05    7.16954E+02
 6.14420E-05    7.08060E+02
 7.88930E-05    6.97442E+02
 1.01300E-04    6.84558E+02
 1.30070E-04    6.69927E+02
 1.67020E-04    6.51579E+02
 2.14450E-04    6.29851E+02
 2.75360E-04    6.02207E+02
 3.53580E-04    5.66713E+02
 4.54000E-04    5.20842E+02
 5.82950E-04    4.58446E+02
 7.48520E-04    3.83633E+02
 9.61120E-04    9.01550E+02
 1.23410E-03    1.20658E+02
 1.58460E-03    4.31384E+04
 2.03470E-03    3.63503E+02
 2.24870E-03    1.69340E+02
 2.48520E-03    7.50872E+04
 2.61260E-03    3.01479E+03
 2.74650E-03    7.96302E+03
 3.03540E-03    4.16035E+04
 3.35460E-03    2.06152E+02
 3.70740E-03    2.31920E+04
 4.30740E-03    6.06704E+04
 5.53080E-03    8.56289E+03
 7.10170E-03    1.74470E+04
 9.11880E-03    1.11889E+04
 1.17090E-02    1.47652E+04
 1.50340E-02    1.33334E+04
 1.93050E-02    1.23565E+04
 2.18750E-02    1.18886E+04
 2.35790E-02    1.16618E+04
 2.41760E-02    1.15502E+04
 2.47880E-02    1.13851E+04
 2.60580E-02    1.11999E+04
 2.70000E-02    1.10085E+04
 2.85000E-02    1.06690E+04
 3.18280E-02    1.03060E+04
 3.43070E-02    9.84089E+03
 4.08680E-02    9.33013E+03
 4.63090E-02    8.94024E+03
 5.24750E-02    8.63946E+03
 5.65620E-02    8.28790E+03
 6.73790E-02    7.97680E+03
 7.20000E-02    7.77926E+03
 7.95000E-02    7.62094E+03
 8.25000E-02    7.52474E+03
 8.65170E-02    7.33201E+03
 9.80370E-02    7.07975E+03
 1.11090E-01    6.93094E+03
 1.16790E-01    6.84789E+03
 1.22770E-01    6.76584E+03
 1.29070E-01    6.68459E+03
 1.35690E-01    6.60442E+03
 1.42640E-01    6.52526E+03
 1.49960E-01    6.44934E+03
 1.57640E-01    6.38409E+03
 1.65730E-01    6.34023E+03
 1.74220E-01    6.29568E+03
 1.83160E-01    6.24882E+03
 1.92550E-01    6.20021E+03
 2.02420E-01    6.15737E+03
 2.12800E-01    6.11491E+03
 2.23710E-01    6.07028E+03
 2.35180E-01    6.02335E+03
 2.47240E-01    5.98888E+03
 2.73240E-01    5.98537E+03
 2.87250E-01    5.98441E+03
 2.94520E-01    5.98396E+03
 2.97200E-01    5.98378E+03
 2.98500E-01    5.98356E+03
 3.01970E-01    5.98200E+03
 3.33730E-01    5.97898E+03
 3.68830E-01    5.97653E+03
 3.87740E-01    5.97772E+03
 4.07620E-01    6.03083E+03
 4.50490E-01    6.11924E+03
 4.97870E-01    6.19091E+03
 5.23400E-01    6.23740E+03
 5.50230E-01    6.28497E+03
 5.78440E-01    6.33499E+03
 6.08100E-01    6.38757E+03
 6.39280E-01    6.44285E+03
 6.72060E-01    6.50096E+03
 7.06510E-01    6.56179E+03
 7.42740E-01    6.62249E+03
 7.80820E-01    6.68532E+03
 8.20850E-01    6.75138E+03
 8.62940E-01    6.82066E+03
 9.07180E-01    6.89087E+03
 9.61640E-01    6.95490E+03
 1.00260E+00    7.02841E+03
 1.10800E+00    7.08625E+03
 1.16480E+00    7.11158E+03
 1.22460E+00    7.13045E+03
 1.28730E+00    7.13560E+03
 1.35340E+00    7.12630E+03
 1.42270E+00    7.11016E+03
 1.49570E+00    7.07903E+03
 1.57240E+00    7.03724E+03
 1.65300E+00    6.77739E+03
 1.73770E+00    6.43585E+03
 1.82680E+00    6.14747E+03
 1.92050E+00    5.87653E+03
 2.01900E+00    5.64568E+03
 2.12250E+00    5.38683E+03
 2.23130E+00    5.12528E+03
 2.30690E+00    4.99799E+03
 2.34570E+00    4.93428E+03
 2.36530E+00    4.89418E+03
 2.38520E+00    4.79583E+03
 2.46600E+00    4.56275E+03
 2.59240E+00    4.30953E+03
 2.72530E+00    4.03313E+03
 2.86500E+00    3.79423E+03
 3.01190E+00    3.59230E+03
 3.16640E+00    3.40451E+03
 3.32870E+00    3.13310E+03
 3.67880E+00    2.83189E+03
 4.06570E+00    2.57735E+03
 4.49330E+00    2.41290E+03
 4.72370E+00    2.31757E+03
 4.96590E+00    2.23326E+03
 5.22050E+00    2.16329E+03
 5.48810E+00    2.10517E+03
 5.76950E+00    2.06043E+03
 6.06530E+00    2.03255E+03
 6.37630E+00    2.01797E+03
 6.59240E+00    2.01764E+03
 6.70320E+00    2.02111E+03
 7.04690E+00    2.04045E+03
 7.40820E+00    2.07445E+03
 7.78800E+00    2.12302E+03
 8.18730E+00    2.18359E+03
 8.60710E+00    2.25337E+03
 9.04840E+00    2.33036E+03
 9.51230E+00    2.41130E+03
 1.00000E+01    2.49513E+03
 1.05130E+01    2.58048E+03
 1.10520E+01    2.65672E+03
 1.16180E+01    2.72964E+03
 1.22140E+01    2.79414E+03
 1.28400E+01    2.84792E+03
 1.34990E+01    2.87998E+03
 1.38400E+01    2.89677E+03
 1.41910E+01    2.90926E+03
 1.45500E+01    2.91750E+03
 1.49180E+01    2.92152E+03
 1.56830E+01    2.91113E+03
 1.64870E+01    2.88199E+03
