# n + Sm144 : (n,n')    
# jendl4.0   N.Iwamoto                         EVAL-Nov09
# uncertainties: n
# # energies =    89
#   E(MeV)       xs(mb) 
 1.05000E-01    0.00000E+00
 1.10000E-01    7.54222E-04
 1.20000E-01    9.02255E-04
 1.30000E-01    9.63893E-04
 1.40000E-01    1.00875E-03
 1.50000E-01    1.05278E-03
 1.60000E-01    1.09464E-03
 1.70000E-01    1.13904E-03
 1.80000E-01    1.17574E-03
 1.90000E-01    1.20471E-03
 2.00000E-01    1.22659E-03
 2.25000E-01    6.26832E-03
 2.50000E-01    7.14312E-03
 2.75000E-01    8.11088E-03
 3.00000E-01    8.85003E-03
 4.00000E-01    3.07262E-02
 5.00000E-01    8.05834E-02
 6.00000E-01    1.68977E-01
 7.00000E-01    3.19457E-01
 8.00000E-01    5.55739E-01
 9.00000E-01    8.96672E-01
 1.00000E+00    1.36547E+00
 1.10000E+00    2.02824E+00
 1.20000E+00    2.91744E+00
 1.30000E+00    4.08498E+00
 1.40000E+00    5.58986E+00
 1.50000E+00    7.49840E+00
 1.60000E+00    9.88447E+00
 1.67166E+00    1.20960E+01
 1.70000E+00    3.28554E+02
 1.80000E+00    5.64646E+02
 1.82286E+00    6.00497E+02
 1.90000E+00    8.54778E+02
 2.00000E+00    1.03785E+03
 2.13486E+00    1.22438E+03
 2.18219E+00    1.31891E+03
 2.20625E+00    1.37642E+03
 2.25000E+00    1.49250E+03
 2.33989E+00    1.62408E+03
 2.44019E+00    1.73661E+03
 2.49502E+00    1.83544E+03
 2.50000E+00    1.84714E+03
 2.60592E+00    1.96207E+03
 2.66324E+00    2.02394E+03
 2.67934E+00    2.04954E+03
 2.70723E+00    2.09351E+03
 2.72601E+00    2.12185E+03
 2.74813E+00    2.14949E+03
 2.75000E+00    2.15458E+03
 2.81927E+00    2.22232E+03
 2.82365E+00    2.23012E+03
 2.84230E+00    2.25508E+03
 2.84552E+00    2.25932E+03
 2.84681E+00    2.26079E+03
 3.00000E+00    2.37657E+03
 3.50000E+00    2.58846E+03
 4.00000E+00    2.62919E+03
 4.50000E+00    2.59472E+03
 5.00000E+00    2.53947E+03
 5.50000E+00    2.48729E+03
 6.00000E+00    2.44946E+03
 6.50000E+00    2.42623E+03
 7.00000E+00    2.41177E+03
 7.50000E+00    2.40023E+03
 8.00000E+00    2.38705E+03
 8.50000E+00    2.37011E+03
 9.00000E+00    2.34961E+03
 9.50000E+00    2.32691E+03
 1.00000E+01    2.30329E+03
 1.05000E+01    2.27974E+03
 1.10000E+01    2.22531E+03
 1.15000E+01    2.09614E+03
 1.20000E+01    1.88486E+03
 1.25000E+01    1.64258E+03
 1.30000E+01    1.40392E+03
 1.35000E+01    1.16577E+03
 1.40000E+01    9.34476E+02
 1.45000E+01    7.27560E+02
 1.50000E+01    5.57205E+02
 1.55000E+01    4.24999E+02
 1.60000E+01    3.29640E+02
 1.65000E+01    2.52465E+02
 1.70000E+01    1.99766E+02
 1.75000E+01    1.61077E+02
 1.80000E+01    1.33051E+02
 1.85000E+01    1.12737E+02
 1.90000E+01    9.81895E+01
 1.95000E+01    8.81346E+01
 2.00000E+01    8.05844E+01
