# n + Kr 82 : (n,el)    
# jendl4.0   K.Shibata, A.Ichihara, S.Kunieda  EVAL-AUG09
# uncertainties: n
# # energies =   171
#   E(MeV)       xs(mb) 
 1.00000E-11    3.44659E+04
 1.00000E-07    1.84392E+04
 4.13990E-07    1.83773E+04
 5.31580E-07    1.83481E+04
 6.82560E-07    1.83109E+04
 8.76420E-07    1.82630E+04
 1.12540E-06    1.82015E+04
 1.44500E-06    1.81226E+04
 1.85540E-06    1.80223E+04
 2.37240E-06    1.78924E+04
 3.05900E-06    1.77242E+04
 3.92790E-06    1.75097E+04
 5.04350E-06    1.72343E+04
 6.47600E-06    1.68708E+04
 8.31530E-06    1.63679E+04
 1.06770E-05    1.56941E+04
 1.37100E-05    1.47218E+04
 1.76030E-05    1.32088E+04
 2.26030E-05    1.03647E+04
 2.92030E-05    3.84039E+03
 3.72670E-05    4.84510E+05
 4.78510E-05    2.84852E+04
 6.14420E-05    2.10238E+04
 7.88930E-05    1.79773E+04
 1.01300E-04    1.59649E+04
 1.30070E-04    1.43702E+04
 1.67020E-04    1.30016E+04
 2.14450E-04    1.17888E+04
 2.75360E-04    1.06856E+04
 3.53580E-04    2.49197E+04
 4.54000E-04    3.66421E+04
 5.82950E-04    3.31204E+04
 7.48520E-04    3.00150E+04
 9.61120E-04    2.75715E+04
 1.23410E-03    2.55888E+04
 1.58460E-03    2.30684E+04
 2.03470E-03    2.14038E+04
 2.24870E-03    2.07697E+04
 2.48520E-03    2.02530E+04
 2.61260E-03    1.98849E+04
 2.74650E-03    1.92969E+04
 3.03540E-03    1.86580E+04
 3.35460E-03    1.80950E+04
 3.70740E-03    1.73437E+04
 4.30740E-03    1.63133E+04
 5.53080E-03    1.51489E+04
 7.10170E-03    1.41313E+04
 9.11880E-03    1.33008E+04
 1.17090E-02    1.26895E+04
 1.50340E-02    1.19402E+04
 1.93050E-02    1.13238E+04
 2.18750E-02    1.11271E+04
 2.35790E-02    1.10270E+04
 2.41760E-02    1.09749E+04
 2.47880E-02    1.08941E+04
 2.60580E-02    1.07985E+04
 2.70000E-02    1.06936E+04
 2.85000E-02    1.05043E+04
 3.18280E-02    1.03418E+04
 3.43070E-02    1.01140E+04
 4.08680E-02    9.85861E+03
 4.63090E-02    9.65731E+03
 5.24750E-02    9.51202E+03
 5.65620E-02    9.33551E+03
 6.73790E-02    9.17516E+03
 7.20000E-02    9.07349E+03
 7.95000E-02    8.98936E+03
 8.25000E-02    8.94138E+03
 8.65170E-02    8.84193E+03
 9.80370E-02    8.71896E+03
 1.11090E-01    8.65225E+03
 1.16790E-01    8.61166E+03
 1.22770E-01    8.56899E+03
 1.29070E-01    8.52409E+03
 1.35690E-01    8.47693E+03
 1.42640E-01    8.42733E+03
 1.49960E-01    8.37521E+03
 1.57640E-01    8.32040E+03
 1.65730E-01    8.26278E+03
 1.74220E-01    8.20221E+03
 1.83160E-01    8.13850E+03
 1.92550E-01    8.07232E+03
 2.02420E-01    8.02085E+03
 2.12800E-01    7.97450E+03
 2.23710E-01    7.92578E+03
 2.35180E-01    7.87456E+03
 2.47240E-01    7.79242E+03
 2.73240E-01    7.70461E+03
 2.87250E-01    7.65809E+03
 2.94520E-01    7.63637E+03
 2.97200E-01    7.62769E+03
 2.98500E-01    7.61762E+03
 3.01970E-01    7.55113E+03
 3.33730E-01    7.42349E+03
 3.68830E-01    7.31948E+03
 3.87740E-01    7.24568E+03
 4.07620E-01    7.13251E+03
 4.50490E-01    6.96959E+03
 4.97870E-01    6.83884E+03
 5.23400E-01    6.74921E+03
 5.50230E-01    6.65500E+03
 5.78440E-01    6.55623E+03
 6.08100E-01    6.45773E+03
 6.39280E-01    6.35627E+03
 6.72060E-01    6.24986E+03
 7.06510E-01    6.14685E+03
 7.42740E-01    6.04314E+03
 7.80820E-01    5.82103E+03
 8.20850E-01    5.55020E+03
 8.62940E-01    5.29662E+03
 9.07180E-01    5.04666E+03
 9.61640E-01    4.82246E+03
 1.00260E+00    4.59445E+03
 1.10800E+00    4.37927E+03
 1.16480E+00    4.22584E+03
 1.22460E+00    4.06463E+03
 1.28730E+00    3.89515E+03
 1.35340E+00    3.71696E+03
 1.42270E+00    3.52944E+03
 1.49570E+00    3.33307E+03
 1.57240E+00    3.21945E+03
 1.65300E+00    3.10097E+03
 1.73770E+00    2.97640E+03
 1.82680E+00    2.83025E+03
 1.92050E+00    2.58731E+03
 2.01900E+00    2.43883E+03
 2.12250E+00    2.36395E+03
 2.23130E+00    2.27237E+03
 2.30690E+00    2.21215E+03
 2.34570E+00    2.18144E+03
 2.36530E+00    2.16071E+03
 2.38520E+00    2.10795E+03
 2.46600E+00    2.01854E+03
 2.59240E+00    1.99999E+03
 2.72530E+00    1.93997E+03
 2.86500E+00    1.85581E+03
 3.01190E+00    1.81542E+03
 3.16640E+00    1.80908E+03
 3.32870E+00    1.71162E+03
 3.67880E+00    1.72509E+03
 4.06570E+00    1.78180E+03
 4.49330E+00    1.83431E+03
 4.72370E+00    1.87337E+03
 4.96590E+00    1.91481E+03
 5.22050E+00    1.95810E+03
 5.48810E+00    1.99966E+03
 5.76950E+00    2.04208E+03
 6.06530E+00    2.08221E+03
 6.37630E+00    2.11340E+03
 6.59240E+00    2.12981E+03
 6.70320E+00    2.14953E+03
 7.04690E+00    2.17703E+03
 7.40820E+00    2.19819E+03
 7.78800E+00    2.21202E+03
 8.18730E+00    2.22056E+03
 8.60710E+00    2.21891E+03
 9.04840E+00    2.21020E+03
 9.51230E+00    2.19312E+03
 1.00000E+01    2.16657E+03
 1.05130E+01    2.13379E+03
 1.10520E+01    2.11391E+03
 1.16180E+01    2.04617E+03
 1.22140E+01    1.98526E+03
 1.28400E+01    1.92344E+03
 1.34990E+01    1.87329E+03
 1.38400E+01    1.83942E+03
 1.41910E+01    1.80846E+03
 1.45500E+01    1.77106E+03
 1.49180E+01    1.71227E+03
 1.56830E+01    1.63716E+03
 1.64870E+01    1.56175E+03
