# n + Kr 82 : (n,g)     
# jendl4.0   K.Shibata, A.Ichihara, S.Kunieda  EVAL-AUG09
# uncertainties: n
# # energies =    69
#   E(MeV)       xs(mb) 
 1.00000E-10    1.33064E+05
 5.00000E-09    3.62373E+04
 1.00000E-08    2.74484E+04
 1.50000E-08    2.30650E+04
 2.00000E-08    2.02955E+04
 2.50000E-08    1.83384E+04
 3.00000E-08    1.68597E+04
 3.50000E-08    1.55037E+04
 4.20000E-08    1.41834E+04
 5.00000E-08    1.30855E+04
 5.80000E-08    1.21649E+04
 6.70000E-08    1.12299E+04
 8.00000E-08    1.01664E+04
 1.00000E-07    8.85178E+03
 1.40000E-07    7.64668E+03
 1.80000E-07    6.83545E+03
 2.20000E-07    6.30103E+03
 2.50000E-07    5.93709E+03
 2.80000E-07    5.67610E+03
 3.00000E-07    5.49272E+03
 3.20000E-07    5.28891E+03
 3.50000E-07    5.00796E+03
 4.00000E-07    4.59151E+03
 5.00000E-07    4.11956E+03
 6.25000E-07    3.70065E+03
 7.80000E-07    3.43665E+03
 8.50000E-07    3.31276E+03
 9.10000E-07    3.22644E+03
 9.50000E-07    3.17654E+03
 9.72000E-07    3.14130E+03
 9.96000E-07    3.10578E+03
 1.02000E-06    3.07090E+03
 1.04500E-06    3.03607E+03
 1.07100E-06    3.00181E+03
 1.09700E-06    2.96865E+03
 1.12300E-06    2.93635E+03
 1.15000E-06    2.83842E+03
 1.30000E-06    2.67020E+03
 1.50000E-06    2.39859E+03
 2.10000E-06    2.12588E+03
 2.60000E-06    1.93511E+03
 3.30000E-06    1.77873E+03
 4.00000E-06    1.51128E+03
 9.87700E-06    1.44377E+03
 1.59680E-05    2.30456E+03
 2.77000E-05    3.85207E+05
 4.80520E-05    1.56610E+03
 7.55014E-05    1.31484E+02
 1.48728E-04    2.26391E+01
 3.67262E-04    9.61334E+02
 9.06898E-04    6.78529E+02
 1.42510E-03    5.16248E+02
 2.23945E-03    3.88625E+02
 3.51910E-03    3.01739E+02
 5.53000E-03    2.29934E+02
 9.11800E-03    1.73943E+02
 1.50300E-02    1.25934E+02
 2.47800E-02    8.91190E+01
 4.08500E-02    6.60757E+01
 6.73400E-02    5.29812E+01
 1.11000E-01    4.65670E+01
 1.83000E-01    4.17216E+01
 3.02000E-01    4.10462E+01
 5.00000E-01    4.34719E+01
 8.21000E-01    2.58632E+01
 1.35300E+00    2.18443E+01
 2.23100E+00    1.40531E+01
 3.67900E+00    8.89667E+00
 6.06500E+00    2.32398E+00
