# n + Kr 82 : (n,xp)    
# jendl4.0   K.Shibata, A.Ichihara, S.Kunieda  EVAL-AUG09
# 
# # energies =    58
#   E(MeV)        xs(mb) 
 7.86083E-01    0.00000E+00
 8.00000E-01    0.00000E+00
 9.00000E-01    0.00000E+00
 1.00000E+00    0.00000E+00
 1.49306E+00    0.00000E+00
 1.50000E+00    0.00000E+00
 1.50594E+00    0.00000E+00
 1.84295E+00    0.00000E+00
 1.90821E+00    0.00000E+00
 1.98089E+00    0.00000E+00
 2.00000E+00    0.00000E+00
 2.11980E+00    0.00000E+00
 2.19842E+00    0.00000E+00
 2.45676E+00    0.00000E+00
 2.48026E+00    0.00000E+00
 2.50000E+00    0.00000E+00
 2.51026E+00    0.00000E+00
 2.57912E+00    0.00000E+00
 2.58766E+00    0.00000E+00
 2.68097E+00    0.00000E+00
 2.68856E+00    0.00000E+00
 2.86293E+00    0.00000E+00
 2.88483E+00    0.00000E+00
 2.95566E+00    0.00000E+00
 2.98039E+00    0.00000E+00
 3.00000E+00    0.00000E+00
 3.04814E+00    0.00000E+00
 3.07521E+00    0.00000E+00
 3.11489E+00    0.00000E+00
 3.20655E+00    0.00000E+00
 3.22606E+00    0.00000E+00
 3.22616E+00    0.00000E+00
 3.23629E+00    0.00000E+00
 3.50000E+00    0.00000E+00
 4.00000E+00    7.27800E-04
 4.50000E+00    2.12400E-02
 5.00000E+00    1.40800E-01
 5.50000E+00    4.93600E-01
 6.00000E+00    1.13300E+00
 6.50000E+00    2.03900E+00
 7.00000E+00    2.93500E+00
 7.50000E+00    3.94700E+00
 8.00000E+00    4.63700E+00
 8.50000E+00    5.45700E+00
 9.00000E+00    6.12000E+00
 9.50000E+00    6.96700E+00
 1.00000E+01    8.11100E+00
 1.10000E+01    1.04300E+01
 1.20000E+01    1.40510E+01
 1.30000E+01    1.84282E+01
 1.40000E+01    2.36152E+01
 1.45000E+01    2.69790E+01
 1.50000E+01    3.00270E+01
 1.60000E+01    3.69330E+01
 1.70000E+01    4.35700E+01
 1.80000E+01    4.93300E+01
 1.90000E+01    5.46200E+01
 2.00000E+01    5.95700E+01
