# n + Hf176 : (n,tot)   
# endfb8.0   R.Q. Wright, T. Kawano            EVAL-OCT16
# uncertainties: n
# # energies =   171
#   E(MeV)       xs(mb) 
 1.00000E-11    2.38645E+05
 1.00000E-07    1.34144E+04
 4.13990E-07    1.07597E+04
 5.31580E-07    1.02012E+04
 6.82560E-07    9.71337E+03
 8.76420E-07    9.29034E+03
 1.12540E-06    8.92981E+03
 1.44500E-06    8.63444E+03
 1.85540E-06    8.41993E+03
 2.37240E-06    8.32613E+03
 3.05900E-06    8.51864E+03
 3.92790E-06    9.62594E+03
 5.04350E-06    1.65726E+04
 6.47600E-06    2.60819E+06
 8.31530E-06    7.23734E+04
 1.06770E-05    1.32827E+04
 1.37100E-05    8.77372E+03
 1.76030E-05    7.02095E+03
 2.26030E-05    5.73533E+03
 2.92030E-05    4.23930E+03
 3.72670E-05    3.91031E+04
 4.78510E-05    7.39042E+05
 6.14420E-05    1.05903E+05
 7.88930E-05    8.84974E+03
 1.01300E-04    4.11119E+04
 1.30070E-04    6.60728E+03
 1.67020E-04    6.75650E+04
 2.14450E-04    3.53613E+04
 2.75360E-04    9.22507E+04
 3.53580E-04    3.64240E+04
 4.54000E-04    2.52275E+04
 5.82950E-04    5.41344E+04
 7.48520E-04    3.75432E+04
 9.61120E-04    3.41901E+04
 1.23410E-03    3.12265E+04
 1.58460E-03    2.86119E+04
 2.03470E-03    2.69514E+04
 2.24870E-03    2.60699E+04
 2.48520E-03    2.54355E+04
 2.61260E-03    2.50262E+04
 2.74650E-03    2.44321E+04
 3.03540E-03    2.36756E+04
 3.35460E-03    2.29500E+04
 3.70740E-03    2.20919E+04
 4.30740E-03    2.08256E+04
 5.53080E-03    1.93997E+04
 7.10170E-03    1.81267E+04
 9.11880E-03    1.69913E+04
 1.17090E-02    1.59758E+04
 1.50340E-02    1.50592E+04
 1.93050E-02    1.44262E+04
 2.18750E-02    1.41089E+04
 2.35790E-02    1.39568E+04
 2.41760E-02    1.38784E+04
 2.47880E-02    1.37641E+04
 2.60580E-02    1.36382E+04
 2.70000E-02    1.35046E+04
 2.85000E-02    1.32687E+04
 3.18280E-02    1.30082E+04
 3.43070E-02    1.26697E+04
 4.08680E-02    1.22779E+04
 4.63090E-02    1.12060E+04
 5.24750E-02    9.79922E+03
 5.65620E-02    9.57664E+03
 6.73790E-02    9.38206E+03
 7.20000E-02    9.23893E+03
 7.95000E-02    9.11521E+03
 8.25000E-02    9.05430E+03
 8.65170E-02    8.92812E+03
 9.80370E-02    8.73860E+03
 1.11090E-01    8.61937E+03
 1.16790E-01    8.54775E+03
 1.22770E-01    8.48249E+03
 1.29070E-01    8.42257E+03
 1.35690E-01    8.35962E+03
 1.42640E-01    8.29343E+03
 1.49960E-01    8.22942E+03
 1.57640E-01    8.17775E+03
 1.65730E-01    8.12434E+03
 1.74220E-01    8.06821E+03
 1.83160E-01    8.00917E+03
 1.92550E-01    7.94713E+03
 2.02420E-01    7.89181E+03
 2.12800E-01    7.84538E+03
 2.23710E-01    7.79659E+03
 2.35180E-01    7.74529E+03
 2.47240E-01    7.66877E+03
 2.73240E-01    7.60237E+03
 2.87250E-01    7.56841E+03
 2.94520E-01    7.55255E+03
 2.97200E-01    7.54622E+03
 2.98500E-01    7.53865E+03
 3.01970E-01    7.48855E+03
 3.33730E-01    7.40635E+03
 3.68830E-01    7.34286E+03
 3.87740E-01    7.30647E+03
 4.07620E-01    7.24919E+03
 4.50490E-01    7.17411E+03
 4.97870E-01    7.12532E+03
 5.23400E-01    7.09111E+03
 5.50230E-01    7.06031E+03
 5.78440E-01    7.03019E+03
 6.08100E-01    6.99946E+03
 6.39280E-01    6.97521E+03
 6.72060E-01    6.95158E+03
 7.06510E-01    6.92696E+03
 7.42740E-01    6.90845E+03
 7.80820E-01    6.89259E+03
 8.20850E-01    6.87623E+03
 8.62940E-01    6.86632E+03
 9.07180E-01    6.85826E+03
 9.61640E-01    6.85045E+03
 1.00260E+00    6.85199E+03
 1.10800E+00    6.85875E+03
 1.16480E+00    6.86358E+03
 1.22460E+00    6.86865E+03
 1.28730E+00    6.87483E+03
 1.35340E+00    6.88310E+03
 1.42270E+00    6.89186E+03
 1.49570E+00    6.90107E+03
 1.57240E+00    6.91076E+03
 1.65300E+00    6.92093E+03
 1.73770E+00    6.92873E+03
 1.82680E+00    6.93049E+03
 1.92050E+00    6.92438E+03
 2.01900E+00    6.91431E+03
 2.12250E+00    6.90373E+03
 2.23130E+00    6.88910E+03
 2.30690E+00    6.87517E+03
 2.34570E+00    6.86807E+03
 2.36530E+00    6.86327E+03
 2.38520E+00    6.85110E+03
 2.46600E+00    6.82601E+03
 2.59240E+00    6.78726E+03
 2.72530E+00    6.73725E+03
 2.86500E+00    6.68465E+03
 3.01190E+00    6.62804E+03
 3.16640E+00    6.55967E+03
 3.32870E+00    6.44748E+03
 3.67880E+00    6.28481E+03
 4.06570E+00    6.10504E+03
 4.49330E+00    5.96037E+03
 4.72370E+00    5.86712E+03
 4.96590E+00    5.77037E+03
 5.22050E+00    5.67327E+03
 5.48810E+00    5.57847E+03
 5.76950E+00    5.48467E+03
 6.06530E+00    5.39526E+03
 6.37630E+00    5.32500E+03
 6.59240E+00    5.28497E+03
 6.70320E+00    5.23800E+03
 7.04690E+00    5.17231E+03
 7.40820E+00    5.11875E+03
 7.78800E+00    5.07864E+03
 8.18730E+00    5.05287E+03
 8.60710E+00    5.03709E+03
 9.04840E+00    5.04004E+03
 9.51230E+00    5.05163E+03
 1.00000E+01    5.07375E+03
 1.05130E+01    5.10670E+03
 1.10520E+01    5.14657E+03
 1.16180E+01    5.19099E+03
 1.22140E+01    5.23754E+03
 1.28400E+01    5.28387E+03
 1.34990E+01    5.31705E+03
 1.38400E+01    5.33791E+03
 1.41910E+01    5.35721E+03
 1.45500E+01    5.37468E+03
 1.49180E+01    5.39687E+03
 1.56830E+01    5.41738E+03
 1.64870E+01    5.42506E+03
