# n + Hf176 : (n,xa)    
# endfb8.0   R.Q. Wright, T. Kawano            EVAL-OCT16
# 
# # energies =   114
#   E(MeV)        xs(mb) 
 8.88555E-02    2.26713E-06
 1.00000E-01    2.07224E-06
 1.20000E-01    1.89074E-06
 1.50000E-01    1.80076E-06
 2.00000E-01    1.80446E-06
 2.50000E-01    1.92034E-06
 2.91844E-01    2.07762E-06
 3.00000E-01    2.10828E-06
 3.50000E-01    2.33133E-06
 4.00000E-01    2.61389E-06
 4.50000E-01    2.96286E-06
 5.00000E-01    3.38901E-06
 6.00000E-01    4.53307E-06
 6.00241E-01    4.53710E-06
 7.00000E-01    6.20159E-06
 8.00000E-01    8.62648E-06
 9.00000E-01    1.21348E-05
 1.00000E+00    1.71865E-05
 1.00345E+00    1.74363E-05
 1.10000E+00    2.44260E-05
 1.15653E+00    2.99679E-05
 1.20000E+00    3.42290E-05
 1.23366E+00    3.70438E-05
 1.25485E+00    3.88158E-05
 1.30000E+00    4.25910E-05
 1.30053E+00    4.26286E-05
 1.32084E+00    4.40597E-05
 1.34071E+00    4.54603E-05
 1.34900E+00    4.60445E-05
 1.36981E+00    4.75110E-05
 1.38729E+00    4.87430E-05
 1.39816E+00    4.95092E-05
 1.40000E+00    4.96389E-05
 1.41261E+00    5.07499E-05
 1.42103E+00    5.14914E-05
 1.45408E+00    5.44027E-05
 1.48955E+00    5.75274E-05
 1.50000E+00    5.84478E-05
 1.51444E+00    6.02811E-05
 1.51726E+00    6.06386E-05
 1.54139E+00    6.37011E-05
 1.54913E+00    6.46841E-05
 1.56825E+00    6.71109E-05
 1.58665E+00    6.94471E-05
 1.60000E+00    7.11412E-05
 1.60063E+00    7.12225E-05
 1.61853E+00    7.35160E-05
 1.63789E+00    7.59977E-05
 1.65285E+00    7.79161E-05
 1.66259E+00    7.91640E-05
 1.68193E+00    8.16432E-05
 1.68557E+00    8.21099E-05
 1.70000E+00    8.39599E-05
 1.70170E+00    8.41225E-05
 1.70967E+00    8.48842E-05
 1.71437E+00    8.53343E-05
 1.72025E+00    8.58960E-05
 1.73192E+00    8.70126E-05
 1.73770E+00    8.75656E-05
 1.74239E+00    8.80138E-05
 1.74340E+00    8.81100E-05
 1.80000E+00    9.35228E-05
 1.90000E+00    1.06327E-04
 2.00000E+00    1.18670E-04
 2.10000E+00    1.44035E-04
 2.20000E+00    1.75833E-04
 2.30000E+00    2.08518E-04
 2.40000E+00    2.47371E-04
 2.50000E+00    2.91843E-04
 2.60000E+00    3.41305E-04
 2.70000E+00    3.95790E-04
 2.80000E+00    4.55933E-04
 2.90000E+00    5.22636E-04
 3.00000E+00    5.96681E-04
 3.10000E+00    6.78694E-04
 3.20000E+00    7.69205E-04
 3.30000E+00    8.68639E-04
 3.40000E+00    9.76995E-04
 3.50000E+00    1.08969E-03
 3.60000E+00    1.20714E-03
 3.80000E+00    1.45831E-03
 4.00000E+00    1.72131E-03
 4.50000E+00    2.38632E-03
 5.00000E+00    3.03168E-03
 5.50000E+00    3.65195E-03
 6.00000E+00    4.29903E-03
 6.50000E+00    5.12025E-03
 7.00000E+00    6.50507E-03
 7.50000E+00    9.38810E-03
 8.00000E+00    1.54270E-02
 8.50000E+00    2.74001E-02
 9.00000E+00    4.96521E-02
 9.50000E+00    8.86701E-02
 1.00000E+01    1.53282E-01
 1.05000E+01    2.53719E-01
 1.10000E+01    3.98317E-01
 1.15000E+01    5.99463E-01
 1.20000E+01    8.63650E-01
 1.25000E+01    1.19619E+00
 1.30000E+01    1.59985E+00
 1.35000E+01    2.07482E+00
 1.40000E+01    2.61903E+00
 1.45000E+01    3.22544E+00
 1.50000E+01    3.89525E+00
 1.55000E+01    4.61907E+00
 1.60000E+01    5.39062E+00
 1.65000E+01    6.20411E+00
 1.70000E+01    7.05375E+00
 1.75000E+01    7.93309E+00
 1.80000E+01    8.83817E+00
 1.85000E+01    9.76025E+00
 1.90000E+01    1.07024E+01
 1.95000E+01    1.16558E+01
 2.00000E+01    1.26157E+01
