# n + Tm171 : (n,xn)    
# endfb8.0      G. Nobre, D. Brown, M. Herman  EVAL-Jul17
# 
# # energies =    76
#   E(MeV)        xs(mb) 
 5.06572E-03    0.00000E+00
 7.00000E-03    5.81446E+02
 1.00000E-02    8.70971E+02
 2.00000E-02    1.09272E+03
 5.00000E-02    1.12961E+03
 7.00000E-02    1.12054E+03
 1.00000E-01    1.09425E+03
 1.17345E-01    1.07940E+03
 1.29817E-01    1.10435E+03
 2.00000E-01    1.31833E+03
 3.00000E-01    1.62496E+03
 3.28739E-01    1.69662E+03
 3.50013E-01    1.75113E+03
 4.00000E-01    1.88047E+03
 4.27464E-01    1.92829E+03
 5.00000E-01    2.10335E+03
 5.23389E-01    2.13583E+03
 6.30720E-01    2.31041E+03
 6.39290E-01    2.32435E+03
 6.40900E-01    2.32807E+03
 6.62657E-01    2.37869E+03
 6.79787E-01    2.41855E+03
 6.93000E-01    2.47839E+03
 7.00000E-01    2.51024E+03
 7.41771E-01    2.50873E+03
 7.48157E-01    2.51505E+03
 7.54535E-01    2.52174E+03
 7.59295E-01    2.53331E+03
 7.80448E-01    2.62221E+03
 8.27282E-01    2.81919E+03
 8.28943E-01    2.82706E+03
 8.50000E-01    2.93096E+03
 8.77950E-01    2.93184E+03
 8.89558E-01    2.93245E+03
 9.18333E-01    2.97310E+03
 9.41081E-01    3.02520E+03
 9.90269E-01    3.13788E+03
 1.00000E+00    3.16020E+03
 1.00452E+00    3.16179E+03
 1.01913E+00    3.16963E+03
 1.04237E+00    3.18211E+03
 1.06366E+00    3.19767E+03
 1.30000E+00    3.37046E+03
 1.50000E+00    3.44054E+03
 1.80000E+00    3.46904E+03
 2.00000E+00    3.45222E+03
 2.25000E+00    3.41802E+03
 2.50000E+00    3.37608E+03
 2.75000E+00    3.33198E+03
 3.00000E+00    3.29109E+03
 3.20000E+00    3.25638E+03
 3.40000E+00    3.22402E+03
 3.60000E+00    3.19411E+03
 3.80000E+00    3.16675E+03
 4.00000E+00    3.14184E+03
 4.20000E+00    3.11926E+03
 4.40000E+00    3.09876E+03
 4.60000E+00    3.08010E+03
 4.80000E+00    3.06305E+03
 5.00000E+00    3.04728E+03
 5.50000E+00    3.01207E+03
 6.00000E+00    2.98187E+03
 7.00000E+00    2.93114E+03
 8.00000E+00    3.05018E+03
 9.00000E+00    4.13078E+03
 1.00000E+01    4.65041E+03
 1.10000E+01    4.83654E+03
 1.20000E+01    4.89448E+03
 1.30000E+01    4.89977E+03
 1.40000E+01    4.89161E+03
 1.50000E+01    4.89107E+03
 1.60000E+01    5.07415E+03
 1.70000E+01    5.43795E+03
 1.80000E+01    5.76343E+03
 1.90000E+01    6.00161E+03
 2.00000E+01    6.16417E+03
