# n + Sr 88 : (n,xp)    
# jeff3.3    A.J. Koning and D. Rochman        EVAL-DEC15
# 
# # energies =   120
#   E(MeV)        xs(mb) 
 1.85715E+00    0.00000E+00
 2.00000E+00    0.00000E+00
 2.20000E+00    0.00000E+00
 2.40000E+00    0.00000E+00
 2.60000E+00    0.00000E+00
 2.76551E+00    0.00000E+00
 2.80000E+00    0.00000E+00
 3.00000E+00    0.00000E+00
 3.18817E+00    0.00000E+00
 3.20000E+00    0.00000E+00
 3.25544E+00    0.00000E+00
 3.40000E+00    0.00000E+00
 3.41686E+00    0.00000E+00
 3.52657E+00    0.00000E+00
 3.56336E+00    0.00000E+00
 3.60000E+00    0.00000E+00
 3.62592E+00    0.00000E+00
 3.67683E+00    0.00000E+00
 3.80000E+00    0.00000E+00
 3.99799E+00    0.00000E+00
 4.00000E+00    0.00000E+00
 4.03882E+00    0.00000E+00
 4.06576E+00    0.00000E+00
 4.08191E+00    0.00000E+00
 4.08542E+00    0.00000E+00
 4.20000E+00    0.00000E+00
 4.21828E+00    0.00000E+00
 4.24571E+00    0.00000E+00
 4.27257E+00    0.00000E+00
 4.27510E+00    0.00000E+00
 4.29673E+00    0.00000E+00
 4.31771E+00    0.00000E+00
 4.34899E+00    0.00000E+00
 4.40000E+00    0.00000E+00
 4.40497E+00    0.00000E+00
 4.41801E+00    0.00000E+00
 4.46461E+00    0.00000E+00
 4.49175E+00    0.00000E+00
 4.50310E+00    0.00000E+00
 4.53646E+00    0.00000E+00
 4.56582E+00    0.00000E+00
 4.56981E+00    0.00000E+00
 4.57327E+00    0.00000E+00
 4.60000E+00    9.27734E-17
 4.80000E+00    1.12244E-15
 5.00000E+00    2.15210E-15
 5.20000E+00    7.25180E-12
 5.40000E+00    1.83550E-09
 5.60000E+00    9.11990E-08
 5.80000E+00    1.63026E-06
 6.00000E+00    1.50929E-05
 6.20000E+00    8.94803E-05
 6.40000E+00    3.85627E-04
 6.60000E+00    1.30688E-03
 6.80000E+00    3.69665E-03
 7.00000E+00    8.97488E-03
 7.20000E+00    1.91704E-02
 7.40000E+00    3.69185E-02
 7.60000E+00    6.52838E-02
 7.80000E+00    1.07353E-01
 8.00000E+00    1.65744E-01
 8.50000E+00    3.89864E-01
 9.00000E+00    7.02896E-01
 9.50000E+00    1.07670E+00
 1.00000E+01    1.49126E+00
 1.05000E+01    2.06519E+00
 1.10000E+01    2.83121E+00
 1.15000E+01    3.83106E+00
 1.20000E+01    5.07950E+00
 1.25000E+01    6.58432E+00
 1.30000E+01    8.34940E+00
 1.35000E+01    1.03817E+01
 1.40000E+01    1.27189E+01
 1.45000E+01    1.54784E+01
 1.50000E+01    1.85877E+01
 1.60000E+01    2.60177E+01
 1.70000E+01    3.41775E+01
 1.80000E+01    4.33460E+01
 1.90000E+01    5.32390E+01
 2.00000E+01    6.35350E+01
 2.10000E+01    7.42134E+01
 2.20000E+01    8.48938E+01
 2.30000E+01    9.64476E+01
 2.40000E+01    1.06497E+02
 2.50000E+01    1.16706E+02
 2.60000E+01    1.27255E+02
 2.70000E+01    1.36944E+02
 2.80000E+01    1.46575E+02
 2.90000E+01    1.56062E+02
 3.00000E+01            NaN
 3.00000E+01    1.66245E+02
 3.20000E+01    1.84017E+02
 3.40000E+01    2.00197E+02
 3.60000E+01    2.14942E+02
 3.80000E+01    2.29053E+02
 4.00000E+01    2.42831E+02
 4.20000E+01    2.56002E+02
 4.40000E+01    2.69259E+02
 4.60000E+01    2.81716E+02
 4.80000E+01    2.94034E+02
 5.00000E+01    3.06005E+02
 5.20000E+01    3.18352E+02
 5.40000E+01    3.30315E+02
 5.60000E+01    3.41864E+02
 5.80000E+01    3.53500E+02
 6.00000E+01    3.64875E+02
 6.50000E+01    3.90905E+02
 7.00000E+01    4.13153E+02
 7.50000E+01    4.32732E+02
 8.00000E+01    4.51696E+02
 9.00000E+01    4.86060E+02
 1.00000E+02    5.12943E+02
 1.10000E+02    5.39027E+02
 1.20000E+02    5.65943E+02
 1.30000E+02    5.97218E+02
 1.40000E+02    6.34406E+02
 1.50000E+02    6.84254E+02
 1.60000E+02    7.47305E+02
 1.80000E+02    9.45303E+02
 2.00000E+02    1.21872E+03
