# n + Sr 88 : (n,n'05)  
# jeff3.3    A.J. Koning and D. Rochman        EVAL-DEC15
# uncertainties: n
# # energies =    78
#   E(MeV)       xs(mb) 
 3.41686E+00    0.00000E+00
 3.52657E+00    5.51794E+01
 3.56336E+00    7.36832E+01
 3.60000E+00    9.21115E+01
 3.62592E+00    9.50926E+01
 3.67683E+00    1.00948E+02
 3.80000E+00    1.15114E+02
 3.99799E+00    1.12027E+02
 4.00000E+00    1.11996E+02
 4.03882E+00    1.10474E+02
 4.06576E+00    1.09418E+02
 4.08191E+00    1.08785E+02
 4.08542E+00    1.08648E+02
 4.20000E+00    1.04156E+02
 4.21828E+00    1.02684E+02
 4.24571E+00    1.00476E+02
 4.27257E+00    9.83139E+01
 4.27510E+00    9.81102E+01
 4.29673E+00    9.63689E+01
 4.31771E+00    9.46800E+01
 4.34899E+00    9.21619E+01
 4.40000E+00    8.80554E+01
 4.40497E+00    8.76453E+01
 4.41801E+00    8.65694E+01
 4.46461E+00    8.27244E+01
 4.49175E+00    8.04851E+01
 4.50310E+00    7.95486E+01
 4.53646E+00    7.67960E+01
 4.56582E+00    7.43735E+01
 4.56981E+00    7.40443E+01
 4.57327E+00    7.37588E+01
 4.60000E+00    7.15533E+01
 4.80000E+00    5.93281E+01
 5.00000E+00    5.07138E+01
 5.20000E+00    4.37262E+01
 5.40000E+00    3.75245E+01
 5.60000E+00    3.18548E+01
 5.80000E+00    2.67090E+01
 6.00000E+00    2.21302E+01
 6.20000E+00    1.81471E+01
 6.40000E+00    1.47571E+01
 6.60000E+00    1.19286E+01
 6.80000E+00    9.60580E+00
 7.00000E+00    7.71626E+00
 7.20000E+00    6.17859E+00
 7.40000E+00    4.95128E+00
 7.60000E+00    3.97739E+00
 7.80000E+00    3.20399E+00
 8.00000E+00    2.58799E+00
 8.50000E+00    1.54294E+00
 9.00000E+00    9.28402E-01
 9.50000E+00    5.67482E-01
 1.00000E+01    3.54995E-01
 1.05000E+01    2.25293E-01
 1.10000E+01    1.45108E-01
 1.15000E+01    9.47082E-02
 1.20000E+01    6.21634E-02
 1.25000E+01    4.06653E-02
 1.30000E+01    2.66057E-02
 1.35000E+01    1.74598E-02
 1.40000E+01    1.14917E-02
 1.45000E+01    7.58697E-03
 1.50000E+01    5.02639E-03
 1.60000E+01    2.22649E-03
 1.70000E+01    9.98829E-04
 1.80000E+01    4.53429E-04
 1.90000E+01    2.08749E-04
 2.00000E+01    9.78159E-05
 2.10000E+01    4.66721E-05
 2.20000E+01    2.25403E-05
 2.30000E+01    1.08581E-05
 2.40000E+01    5.30583E-06
 2.50000E+01    2.61785E-06
 2.60000E+01    1.29356E-06
 2.70000E+01    6.43400E-07
 2.80000E+01    3.22350E-07
 2.90000E+01    1.62780E-07
 3.00000E+01    8.27930E-08
