# n + Sr 88 : (n,xa)    
# jeff3.3    A.J. Koning and D. Rochman        EVAL-DEC15
# 
# # energies =   120
#   E(MeV)        xs(mb) 
 1.85715E+00    0.00000E+00
 2.00000E+00    0.00000E+00
 2.20000E+00    0.00000E+00
 2.40000E+00    0.00000E+00
 2.60000E+00    0.00000E+00
 2.76551E+00    0.00000E+00
 2.80000E+00    0.00000E+00
 3.00000E+00    5.47870E-17
 3.18817E+00    1.57041E-14
 3.20000E+00    1.66880E-14
 3.25544E+00    9.31014E-14
 3.40000E+00    2.92350E-13
 3.41686E+00    5.73782E-13
 3.52657E+00    2.40509E-12
 3.56336E+00    3.01920E-12
 3.60000E+00    3.63080E-12
 3.62592E+00    6.66633E-12
 3.67683E+00    1.26285E-11
 3.80000E+00    2.70530E-11
 3.99799E+00    1.91500E-10
 4.00000E+00    1.93170E-10
 4.03882E+00    3.56103E-10
 4.06576E+00    4.69175E-10
 4.08191E+00    5.36959E-10
 4.08542E+00    5.51691E-10
 4.20000E+00    1.03260E-09
 4.21828E+00    1.34888E-09
 4.24571E+00    1.82347E-09
 4.27257E+00    2.28821E-09
 4.27510E+00    2.33198E-09
 4.29673E+00    2.70622E-09
 4.31771E+00    3.06922E-09
 4.34899E+00    3.61042E-09
 4.40000E+00    4.49300E-09
 4.40497E+00    4.79538E-09
 4.41801E+00    5.58871E-09
 4.46461E+00    8.42388E-09
 4.49175E+00    1.00751E-08
 4.50310E+00    1.07656E-08
 4.53646E+00    1.27952E-08
 4.56582E+00    1.45815E-08
 4.56981E+00    1.48242E-08
 4.57327E+00    1.50347E-08
 4.60000E+00    1.66610E-08
 4.80000E+00    5.61550E-08
 5.00000E+00    3.07820E-07
 5.20000E+00    7.38920E-07
 5.40000E+00    1.92182E-06
 5.60000E+00    5.57509E-06
 5.80000E+00    9.84617E-06
 6.00000E+00    2.64064E-05
 6.20000E+00    5.00525E-05
 6.40000E+00    8.91121E-05
 6.60000E+00    1.91889E-04
 6.80000E+00    3.12858E-04
 7.00000E+00    5.82905E-04
 7.20000E+00    9.75604E-04
 7.40000E+00    1.48588E-03
 7.60000E+00    2.55766E-03
 7.80000E+00    3.83631E-03
 8.00000E+00    5.87898E-03
 8.50000E+00    1.50116E-02
 9.00000E+00    3.38384E-02
 9.50000E+00    6.79598E-02
 1.00000E+01    1.24265E-01
 1.05000E+01    2.11426E-01
 1.10000E+01    3.45456E-01
 1.15000E+01    5.53516E-01
 1.20000E+01    8.68847E-01
 1.25000E+01    1.32291E+00
 1.30000E+01    1.94419E+00
 1.35000E+01    2.75360E+00
 1.40000E+01    3.77480E+00
 1.45000E+01    5.02348E+00
 1.50000E+01    6.51220E+00
 1.60000E+01    1.02885E+01
 1.70000E+01    1.52512E+01
 1.80000E+01    2.15700E+01
 1.90000E+01    2.94215E+01
 2.00000E+01    3.83815E+01
 2.10000E+01    4.76401E+01
 2.20000E+01    5.69520E+01
 2.30000E+01    6.45009E+01
 2.40000E+01    7.27967E+01
 2.50000E+01    8.13370E+01
 2.60000E+01    8.95275E+01
 2.70000E+01    9.73830E+01
 2.80000E+01    1.04656E+02
 2.90000E+01    1.11283E+02
 3.00000E+01            NaN
 3.00000E+01    1.16961E+02
 3.20000E+01    1.26243E+02
 3.40000E+01    1.31928E+02
 3.60000E+01    1.33956E+02
 3.80000E+01    1.33637E+02
 4.00000E+01    1.31182E+02
 4.20000E+01    1.27451E+02
 4.40000E+01    1.21099E+02
 4.60000E+01    1.13969E+02
 4.80000E+01    1.07136E+02
 5.00000E+01    9.99302E+01
 5.20000E+01    9.26700E+01
 5.40000E+01    8.48873E+01
 5.60000E+01    7.64346E+01
 5.80000E+01    6.81775E+01
 6.00000E+01    6.00325E+01
 6.50000E+01    5.81783E+01
 7.00000E+01    6.29724E+01
 7.50000E+01    6.82979E+01
 8.00000E+01    7.39765E+01
 9.00000E+01    8.78422E+01
 1.00000E+02    1.05586E+02
 1.10000E+02    1.23652E+02
 1.20000E+02    1.45051E+02
 1.30000E+02    1.67640E+02
 1.40000E+02    1.90587E+02
 1.50000E+02    2.14407E+02
 1.60000E+02    2.37503E+02
 1.80000E+02    2.96395E+02
 2.00000E+02    3.66431E+02
