# n + Cm248 :  n        
# jendl4.0   O.Iwamoto,T.Nakagawa,T.Ohsawa+    EVAL-JAN10
# uncertainties: n
# # energies =    55
#   E(MeV)       xs(mb) 
 1.30000E+00    0.00000E+00
 1.40000E+00    4.55620E-08
 1.60000E+00    1.36050E-07
 1.80000E+00    7.50740E-07
 2.00000E+00    3.52007E-06
 2.15000E+00    1.83929E-05
 2.30000E+00    3.26045E-05
 2.50000E+00    1.42638E-04
 2.70000E+00    6.20332E-04
 2.85000E+00    3.09431E-03
 3.00000E+00    5.56549E-03
 3.12500E+00    4.91176E-02
 3.25000E+00    9.34975E-02
 3.50000E+00    1.84601E-01
 3.62500E+00    8.26463E-01
 3.75000E+00    1.49420E+00
 4.00000E+00    2.90525E+00
 4.12500E+00    6.99751E+00
 4.25000E+00    1.11963E+01
 4.50000E+00    1.99034E+01
 4.75000E+00    5.30076E+01
 5.00000E+00    8.64477E+01
 5.25000E+00    1.76969E+02
 5.50000E+00    2.64942E+02
 5.62500E+00    3.41111E+02
 5.75000E+00    4.13016E+02
 6.00000E+00    5.45248E+02
 6.25000E+00    6.98953E+02
 6.50000E+00    8.37624E+02
 7.00000E+00    1.02082E+03
 7.50000E+00    1.22621E+03
 8.00000E+00    1.44673E+03
 8.50000E+00    1.48493E+03
 9.00000E+00    1.51843E+03
 9.50000E+00    1.54632E+03
 1.00000E+01    1.57060E+03
 1.05000E+01    1.59050E+03
 1.10000E+01    1.61230E+03
 1.15000E+01    1.62515E+03
 1.20000E+01    1.63741E+03
 1.25000E+01    1.65630E+03
 1.30000E+01    1.65605E+03
 1.35000E+01    1.63548E+03
 1.40000E+01    1.60091E+03
 1.45000E+01    1.56689E+03
 1.50000E+01    1.54478E+03
 1.55000E+01    1.52510E+03
 1.60000E+01    1.51025E+03
 1.65000E+01    1.50983E+03
 1.70000E+01    1.50434E+03
 1.75000E+01    1.50256E+03
 1.80000E+01    1.50768E+03
 1.85000E+01    1.51143E+03
 1.95000E+01    1.51771E+03
 2.00000E+01    1.51301E+03
