# n + Cm248 : (n,n'15)  
# jendl4.0   O.Iwamoto,T.Nakagawa,T.Ohsawa+    EVAL-JAN10
# uncertainties: y
# # energies =    42
#   E(MeV)       xs(mb)       xslow(mb)      xsupp(mb)
 1.24002E+00    0.00000E+00    0.00000E+00    0.00000E+00
 1.30000E+00    3.45056E+01    2.51201E+01    4.38911E+01
 1.60000E+00    8.28456E+01    6.03116E+01    1.05380E+02
 1.80000E+00    7.36816E+01    5.36402E+01    9.37230E+01
 2.00000E+00    5.70043E+01    4.66295E+01    6.73791E+01
 2.30000E+00    3.46169E+01    2.83166E+01    4.09172E+01
 2.50000E+00    2.37184E+01    1.87613E+01    2.86755E+01
 2.70000E+00    1.57623E+01    1.24680E+01    1.90566E+01
 3.00000E+00    8.19430E+00    6.71933E+00    9.66928E+00
 3.50000E+00    2.69689E+00    2.29505E+00    3.09873E+00
 4.00000E+00    9.67840E-01    8.30407E-01    1.10527E+00
 4.50000E+00    4.37371E-01    3.75264E-01    4.99478E-01
 5.00000E+00    2.61044E-01    2.07791E-01    3.14297E-01
 5.50000E+00    1.96365E-01    1.56307E-01    2.36423E-01
 6.00000E+00    1.62791E-01    1.22744E-01    2.02838E-01
 6.50000E+00    1.47478E-01    1.11198E-01    1.83758E-01
 7.00000E+00    1.35109E-01    1.00116E-01    1.70102E-01
 7.50000E+00    1.25286E-01    9.28369E-02    1.57735E-01
 8.00000E+00    1.18028E-01    8.76948E-02    1.48361E-01
 8.50000E+00    1.10388E-01    8.20183E-02    1.38758E-01
 9.00000E+00    1.05045E-01    7.90989E-02    1.30991E-01
 9.50000E+00    9.90201E-02    7.45621E-02    1.23478E-01
 1.00000E+01    9.30969E-02    7.09398E-02    1.15254E-01
 1.05000E+01    8.66142E-02    6.60000E-02    1.07228E-01
 1.10000E+01    8.10830E-02    6.17852E-02    1.00381E-01
 1.15000E+01    7.65277E-02    5.83141E-02    9.47413E-02
 1.20000E+01    7.26883E-02    5.62607E-02    8.91159E-02
 1.25000E+01    6.94488E-02    5.37534E-02    8.51442E-02
 1.30000E+01    6.65932E-02    5.15431E-02    8.16433E-02
 1.35000E+01    6.39362E-02    4.94866E-02    7.83858E-02
 1.40000E+01    6.07588E-02    4.75741E-02    7.39435E-02
 1.45000E+01    5.73588E-02    4.49119E-02    6.98057E-02
 1.50000E+01    5.43282E-02    4.27563E-02    6.59001E-02
 1.55000E+01    5.16607E-02    4.06570E-02    6.26644E-02
 1.60000E+01    4.92951E-02    3.89431E-02    5.96471E-02
 1.65000E+01    4.71516E-02    3.72498E-02    5.70534E-02
 1.70000E+01    4.51712E-02    3.56852E-02    5.46572E-02
 1.75000E+01    4.33864E-02    3.42753E-02    5.24975E-02
 1.80000E+01    4.17582E-02    3.33230E-02    5.01934E-02
 1.85000E+01    4.02643E-02    3.21309E-02    4.83977E-02
 1.95000E+01    3.75136E-02    2.99359E-02    4.50913E-02
 2.00000E+01    3.62919E-02    2.89609E-02    4.36229E-02
