# n + Cm248 : (n,el)    
# jendl4.0   O.Iwamoto,T.Nakagawa,T.Ohsawa+    EVAL-JAN10
# uncertainties: y
# # energies =    69
#   E(MeV)       xs(mb)       xslow(mb)      xsupp(mb)
 1.00000E-10    7.85946E+03    7.85946E+03    7.85946E+03
 5.00000E-09    7.02926E+03    7.02926E+03    7.02926E+03
 1.00000E-08    7.00641E+03    7.00641E+03    7.00641E+03
 1.50000E-08    6.99716E+03    6.99716E+03    6.99716E+03
 2.00000E-08    6.99152E+03    6.99152E+03    6.99152E+03
 2.50000E-08    6.98816E+03    6.98816E+03    6.98816E+03
 3.00000E-08    6.98586E+03    6.98586E+03    6.98586E+03
 3.50000E-08    6.98314E+03    6.98314E+03    6.98314E+03
 4.20000E-08    6.98068E+03    6.98068E+03    6.98068E+03
 5.00000E-08    6.97889E+03    6.97889E+03    6.97889E+03
 5.80000E-08    6.97699E+03    6.97699E+03    6.97699E+03
 6.70000E-08    6.97455E+03    6.97455E+03    6.97455E+03
 8.00000E-08    6.97157E+03    6.97157E+03    6.97157E+03
 1.00000E-07    6.96751E+03    6.96751E+03    6.96751E+03
 1.40000E-07    6.96192E+03    6.96192E+03    6.96192E+03
 1.80000E-07    6.95635E+03    6.95635E+03    6.95635E+03
 2.20000E-07    6.95147E+03    6.95147E+03    6.95147E+03
 2.50000E-07    6.94754E+03    6.94754E+03    6.94754E+03
 2.80000E-07    6.94429E+03    6.94429E+03    6.94429E+03
 3.00000E-07    6.94170E+03    6.94170E+03    6.94170E+03
 3.20000E-07    6.93848E+03    6.93848E+03    6.93848E+03
 3.50000E-07    6.93335E+03    6.93335E+03    6.93335E+03
 4.00000E-07    6.92382E+03    6.92382E+03    6.92382E+03
 5.00000E-07    6.90933E+03    6.90933E+03    6.90933E+03
 6.25000E-07    6.89129E+03    6.89129E+03    6.89129E+03
 7.80000E-07    6.87644E+03    6.87644E+03    6.87644E+03
 8.50000E-07    6.86777E+03    6.86777E+03    6.86777E+03
 9.10000E-07    6.86070E+03    6.86070E+03    6.86070E+03
 9.50000E-07    6.85631E+03    6.85631E+03    6.85631E+03
 9.72000E-07    6.85307E+03    6.85307E+03    6.85307E+03
 9.96000E-07    6.84968E+03    6.84968E+03    6.84968E+03
 1.02000E-06    6.84622E+03    6.84622E+03    6.84622E+03
 1.04500E-06    6.84262E+03    6.84262E+03    6.84262E+03
 1.07100E-06    6.83895E+03    6.83895E+03    6.83895E+03
 1.09700E-06    6.83528E+03    6.83528E+03    6.83528E+03
 1.12300E-06    6.83154E+03    6.83154E+03    6.83154E+03
 1.15000E-06    6.81926E+03    6.81926E+03    6.81926E+03
 1.30000E-06    6.79390E+03    6.79390E+03    6.79390E+03
 1.50000E-06    6.72969E+03    6.72969E+03    6.72969E+03
 2.10000E-06    6.63535E+03    6.63535E+03    6.63535E+03
 2.60000E-06    6.51290E+03    6.51290E+03    6.51290E+03
 3.30000E-06    6.33793E+03    6.33793E+03    6.33793E+03
 4.00000E-06    1.86302E+04    1.86302E+04    1.86302E+04
 9.87700E-06    6.96262E+03    6.96262E+03    6.96262E+03
 1.59680E-05    7.72564E+04    7.72564E+04    7.72564E+04
 2.77000E-05    2.97161E+04    2.97161E+04    2.97161E+04
 4.80520E-05    6.19225E+03    6.19225E+03    6.19225E+03
 7.55014E-05    1.63325E+05    1.63325E+05    1.63325E+05
 1.48728E-04    1.37007E+04    1.37007E+04    1.37007E+04
 3.67262E-04    2.66876E+04    2.66876E+04    2.66876E+04
 9.06898E-04    2.10233E+04    2.10233E+04    2.10233E+04
 1.42510E-03    1.97471E+04    1.97471E+04    1.97471E+04
 2.23945E-03    1.91849E+04    6.82984E+03    3.15400E+04
 3.51910E-03    1.75351E+04    6.24248E+03    2.88276E+04
 5.53000E-03    1.61644E+04    8.50246E+03    2.38263E+04
 9.11800E-03    1.51067E+04    9.16974E+03    2.10436E+04
 1.50300E-02    1.42914E+04    9.27513E+03    1.93077E+04
 2.47800E-02    1.36573E+04    1.04205E+04    1.68941E+04
 4.08500E-02    1.29494E+04    1.10329E+04    1.48659E+04
 6.73400E-02    1.19284E+04    1.06640E+04    1.31928E+04
 1.11000E-01    1.08223E+04    1.00464E+04    1.15983E+04
 1.83000E-01    9.47314E+03    8.79392E+03    1.01524E+04
 3.02000E-01    7.91383E+03    7.56958E+03    8.25808E+03
 5.00000E-01    6.01795E+03    5.77543E+03    6.26048E+03
 8.21000E-01    4.07391E+03    3.88284E+03    4.26498E+03
 1.35300E+00    3.44480E+03    3.18851E+03    3.70109E+03
 2.23100E+00    4.16726E+03    3.80013E+03    4.53440E+03
 3.67900E+00    4.26930E+03    3.98923E+03    4.54937E+03
 6.06500E+00    3.08087E+03    2.83655E+03    3.32518E+03
