# n + Xe124 : (n,p)     
# jendl4.0   S.Kunieda, A.Ichihara, K.Shibata+ EVAL-FEB22
# uncertainties: n
# # energies =    56
#   E(MeV)       xs(mb) 
 1.00000E-01    0.00000E+00
 2.00000E-01    1.59000E-14
 2.50000E-01    6.93600E-14
 3.00000E-01    2.84300E-13
 3.50000E-01    1.09200E-12
 4.00000E-01    2.85100E-12
 4.50000E-01    8.10700E-12
 5.00000E-01    2.30100E-11
 5.50000E-01    6.47900E-11
 6.00000E-01    1.78400E-10
 6.50000E-01    4.76500E-10
 7.00000E-01    1.23200E-09
 7.50000E-01    3.08400E-09
 8.00000E-01    7.47500E-09
 8.50000E-01    1.75500E-08
 9.00000E-01    3.66600E-08
 9.50000E-01    7.71000E-08
 1.00000E+00    1.59800E-07
 1.20000E+00    2.51300E-06
 1.40000E+00    2.65600E-05
 1.60000E+00    1.98400E-04
 1.80000E+00    9.72600E-04
 2.00000E+00    3.54800E-03
 2.20000E+00    1.05100E-02
 2.40000E+00    2.67700E-02
 2.60000E+00    6.02700E-02
 2.80000E+00    1.22200E-01
 3.00000E+00    2.26700E-01
 3.25000E+00    4.28900E-01
 3.50000E+00    7.84900E-01
 3.75000E+00    1.24100E+00
 4.00000E+00    1.94400E+00
 4.25000E+00    2.68500E+00
 4.50000E+00    3.53200E+00
 4.75000E+00    4.65100E+00
 5.00000E+00    5.57800E+00
 5.50000E+00    7.62600E+00
 6.00000E+00    9.40000E+00
 6.50000E+00    1.08500E+01
 7.00000E+00    1.21000E+01
 7.50000E+00    1.33300E+01
 8.00000E+00    1.47800E+01
 8.50000E+00    1.67000E+01
 9.00000E+00    1.92200E+01
 9.50000E+00    2.23800E+01
 1.00000E+01    2.61900E+01
 1.10000E+01    3.52600E+01
 1.20000E+01    4.58100E+01
 1.30000E+01    5.56000E+01
 1.40000E+01    6.38200E+01
 1.50000E+01    7.08000E+01
 1.60000E+01    7.64900E+01
 1.70000E+01    8.07800E+01
 1.80000E+01    8.35400E+01
 1.90000E+01    8.48100E+01
 2.00000E+01    8.47400E+01
