# n + Xe124 : (n,tot)   
# jendl4.0   S.Kunieda, A.Ichihara, K.Shibata+ EVAL-FEB22
# uncertainties: n
# # energies =    69
#   E(MeV)       xs(mb) 
 1.00000E-10    1.02831E+06
 5.00000E-09    2.80641E+05
 1.00000E-08    2.12913E+05
 1.50000E-08    1.79186E+05
 2.00000E-08    1.57909E+05
 2.50000E-08    1.42895E+05
 3.00000E-08    1.31566E+05
 3.50000E-08    1.21193E+05
 4.20000E-08    1.11117E+05
 5.00000E-08    1.02756E+05
 5.80000E-08    9.57614E+04
 6.70000E-08    8.86770E+04
 8.00000E-08    8.06561E+04
 1.00000E-07    7.08143E+04
 1.40000E-07    6.18868E+04
 1.80000E-07    5.59700E+04
 2.20000E-07    5.21277E+04
 2.50000E-07    4.95478E+04
 2.80000E-07    4.77197E+04
 3.00000E-07    4.64502E+04
 3.20000E-07    4.50551E+04
 3.50000E-07    4.31661E+04
 4.00000E-07    4.04571E+04
 5.00000E-07    3.75671E+04
 6.25000E-07    3.52707E+04
 7.80000E-07    3.40201E+04
 8.50000E-07    3.35227E+04
 9.10000E-07    3.32164E+04
 9.50000E-07    3.30581E+04
 9.72000E-07    3.29547E+04
 9.96000E-07    3.28596E+04
 1.02000E-06    3.27761E+04
 1.04500E-06    3.26991E+04
 1.07100E-06    3.26360E+04
 1.09700E-06    3.25817E+04
 1.12300E-06    3.25423E+04
 1.15000E-06    3.24983E+04
 1.30000E-06    3.27309E+04
 1.50000E-06    3.48418E+04
 2.10000E-06    4.14583E+04
 2.60000E-06    5.75525E+04
 3.30000E-06    1.10038E+05
 4.00000E-06    2.47262E+06
 9.87700E-06    4.12001E+06
 1.59680E-05    2.11950E+04
 2.77000E-05    1.07684E+04
 4.80520E-05    8.04906E+03
 7.55014E-05    6.47780E+03
 1.48728E-04    3.47048E+04
 3.67262E-04    3.37196E+04
 9.06898E-04    2.49530E+04
 1.42510E-03    2.08219E+04
 2.23945E-03    1.74387E+04
 3.51910E-03    1.45685E+04
 5.53000E-03    1.22393E+04
 9.11800E-03    1.05378E+04
 1.50300E-02    9.21429E+03
 2.47800E-02    8.20192E+03
 4.08500E-02    7.50002E+03
 6.73400E-02    7.00321E+03
 1.11000E-01    6.65080E+03
 1.83000E-01    6.41612E+03
 3.02000E-01    6.30454E+03
 5.00000E-01    6.36112E+03
 8.21000E-01    6.43717E+03
 1.35300E+00    6.15393E+03
 2.23100E+00    5.34120E+03
 3.67900E+00    4.58061E+03
 6.06500E+00    4.41300E+03
