# n + Xe124 : (n,el)    
# jendl4.0   S.Kunieda, A.Ichihara, K.Shibata+ EVAL-FEB22
# uncertainties: n
# # energies =   171
#   E(MeV)       xs(mb) 
 1.00000E-11    2.70948E+02
 1.00000E-07    1.12203E+02
 4.13990E-07    6.02071E+01
 5.31580E-07    3.80732E+01
 6.82560E-07    1.64414E+01
 8.76420E-07    2.38928E+00
 1.12540E-06    1.39193E+01
 1.44500E-06    9.83293E+01
 1.85540E-06    3.88565E+02
 2.37240E-06    1.38444E+03
 3.05900E-06    5.96412E+03
 3.92790E-06    3.24401E+05
 5.04350E-06    6.87292E+05
 6.47600E-06    2.69191E+03
 8.31530E-06    3.06109E+06
 1.06770E-05    1.72892E+05
 1.37100E-05    3.29009E+04
 1.76030E-05    1.88373E+04
 2.26030E-05    1.36322E+04
 2.92030E-05    1.09934E+04
 3.72670E-05    9.40423E+03
 4.78510E-05    8.30176E+03
 6.14420E-05    7.48163E+03
 7.88930E-05    6.82620E+03
 1.01300E-04    6.25936E+03
 1.30070E-04    5.70239E+03
 1.67020E-04    4.91840E+03
 2.14450E-04    5.75228E+04
 2.75360E-04    2.48167E+04
 3.53580E-04    2.72188E+04
 4.54000E-04    2.50047E+04
 5.82950E-04    2.30228E+04
 7.48520E-04    2.12199E+04
 9.61120E-04    1.95703E+04
 1.23410E-03    1.81033E+04
 1.58460E-03    1.67474E+04
 2.03470E-03    1.58395E+04
 2.24870E-03    1.53300E+04
 2.48520E-03    1.49585E+04
 2.61260E-03    1.47157E+04
 2.74650E-03    1.43595E+04
 3.03540E-03    1.38732E+04
 3.35460E-03    1.33881E+04
 3.70740E-03    1.28043E+04
 4.30740E-03    1.19144E+04
 5.53080E-03    1.09445E+04
 7.10170E-03    1.01481E+04
 9.11880E-03    9.47969E+03
 1.17090E-02    8.89915E+03
 1.50340E-02    8.35698E+03
 1.93050E-02    7.98114E+03
 2.18750E-02    7.81160E+03
 2.35790E-02    7.72894E+03
 2.41760E-02    7.68814E+03
 2.47880E-02    7.62737E+03
 2.60580E-02    7.55826E+03
 2.70000E-02    7.48680E+03
 2.85000E-02    7.36285E+03
 3.18280E-02    7.24742E+03
 3.43070E-02    7.10038E+03
 4.08680E-02    6.94285E+03
 4.63090E-02    6.82569E+03
 5.24750E-02    6.74130E+03
 5.65620E-02    6.64336E+03
 6.73790E-02    6.55533E+03
 7.20000E-02    6.50054E+03
 7.95000E-02    6.45688E+03
 8.25000E-02    6.43166E+03
 8.65170E-02    6.38171E+03
 9.80370E-02    6.31426E+03
 1.11090E-01    6.26925E+03
 1.16790E-01    6.24352E+03
 1.22770E-01    6.21956E+03
 1.29070E-01    6.19581E+03
 1.35690E-01    6.17227E+03
 1.42640E-01    6.15015E+03
 1.49960E-01    6.12845E+03
 1.57640E-01    6.10702E+03
 1.65730E-01    6.08655E+03
 1.74220E-01    6.06631E+03
 1.83160E-01    6.04737E+03
 1.92550E-01    6.02823E+03
 2.02420E-01    6.01094E+03
 2.12800E-01    5.99398E+03
 2.23710E-01    5.97718E+03
 2.35180E-01    5.96052E+03
 2.47240E-01    5.93753E+03
 2.73240E-01    5.91691E+03
 2.87250E-01    5.90671E+03
 2.94520E-01    5.90195E+03
 2.97200E-01    5.90005E+03
 2.98500E-01    5.89789E+03
 3.01970E-01    5.88565E+03
 3.33730E-01    5.84675E+03
 3.68830E-01    5.75364E+03
 3.87740E-01    5.67855E+03
 4.07620E-01    5.57779E+03
 4.50490E-01    5.45805E+03
 4.97870E-01    5.38217E+03
 5.23400E-01    5.34079E+03
 5.50230E-01    5.29945E+03
 5.78440E-01    5.26388E+03
 6.08100E-01    5.23130E+03
 6.39280E-01    5.19704E+03
 6.72060E-01    5.16586E+03
 7.06510E-01    5.13867E+03
 7.42740E-01    5.11008E+03
 7.80820E-01    5.08004E+03
 8.20850E-01    5.04709E+03
 8.62940E-01    4.97372E+03
 9.07180E-01    4.89232E+03
 9.61640E-01    4.82674E+03
 1.00260E+00    4.74153E+03
 1.10800E+00    4.65070E+03
 1.16480E+00    4.58607E+03
 1.22460E+00    4.50664E+03
 1.28730E+00    4.41829E+03
 1.35340E+00    4.33095E+03
 1.42270E+00    4.24623E+03
 1.49570E+00    4.15825E+03
 1.57240E+00    4.04537E+03
 1.65300E+00    3.83635E+03
 1.73770E+00    3.63349E+03
 1.82680E+00    3.51494E+03
 1.92050E+00    3.42207E+03
 2.01900E+00    3.32833E+03
 2.12250E+00    3.23140E+03
 2.23130E+00    3.15043E+03
 2.30690E+00    3.10081E+03
 2.34570E+00    3.07551E+03
 2.36530E+00    3.05842E+03
 2.38520E+00    3.01672E+03
 2.46600E+00    2.93373E+03
 2.59240E+00    2.83286E+03
 2.72530E+00    2.73343E+03
 2.86500E+00    2.63465E+03
 3.01190E+00    2.53766E+03
 3.16640E+00    2.44490E+03
 3.32870E+00    2.31317E+03
 3.67880E+00    2.15614E+03
 4.06570E+00    2.02791E+03
 4.49330E+00    1.95226E+03
 4.72370E+00    1.91487E+03
 4.96590E+00    1.88858E+03
 5.22050E+00    1.87138E+03
 5.48810E+00    1.86202E+03
 5.76950E+00    1.86247E+03
 6.06530E+00    1.87386E+03
 6.37630E+00    1.88775E+03
 6.59240E+00    1.89957E+03
 6.70320E+00    1.91901E+03
 7.04690E+00    1.95222E+03
 7.40820E+00    1.99243E+03
 7.78800E+00    2.03802E+03
 8.18730E+00    2.08696E+03
 8.60710E+00    2.13842E+03
 9.04840E+00    2.19251E+03
 9.51230E+00    2.24644E+03
 1.00000E+01    2.29673E+03
 1.05130E+01    2.34499E+03
 1.10520E+01    2.38625E+03
 1.16180E+01    2.42163E+03
 1.22140E+01    2.44655E+03
 1.28400E+01    2.46381E+03
 1.34990E+01    2.46835E+03
 1.38400E+01    2.46983E+03
 1.41910E+01    2.46471E+03
 1.45500E+01    2.45853E+03
 1.49180E+01    2.44272E+03
 1.56830E+01    2.41130E+03
 1.64870E+01    2.36701E+03
