# n + Tc 99 : (n,el)    
# jendl4.0   JNDC FP ND W.G., T.Nakagawa       EVAL-Mar90
# uncertainties: n
# # energies =   171
#   E(MeV)       xs(mb) 
 1.00000E-11    8.16948E+03
 1.00000E-07    4.60879E+03
 4.13990E-07    4.57023E+03
 5.31580E-07    4.54976E+03
 6.82560E-07    4.52257E+03
 8.76420E-07    4.48568E+03
 1.12540E-06    4.43457E+03
 1.44500E-06    4.36065E+03
 1.85540E-06    4.25247E+03
 2.37240E-06    4.07443E+03
 3.05900E-06    3.72827E+03
 3.92790E-06    2.82438E+03
 5.04350E-06    2.72219E+04
 6.47600E-06    7.11973E+03
 8.31530E-06    5.68557E+03
 1.06770E-05    5.17919E+03
 1.37100E-05    4.69143E+03
 1.76030E-05    1.26179E+04
 2.26030E-05    5.72549E+03
 2.92030E-05    5.16651E+03
 3.72670E-05    5.10048E+03
 4.78510E-05    5.16456E+03
 6.14420E-05    4.92220E+03
 7.88930E-05    4.69093E+03
 1.01300E-04    5.16113E+03
 1.30070E-04    9.75043E+03
 1.67020E-04    1.16371E+04
 2.14450E-04    6.05826E+03
 2.75360E-04    5.58936E+03
 3.53580E-04    1.20626E+04
 4.54000E-04    5.96928E+03
 5.82950E-04    6.11366E+03
 7.48520E-04    6.93445E+03
 9.61120E-04    8.28155E+03
 1.23410E-03    7.64714E+03
 1.58460E-03    7.62333E+03
 2.03470E-03    6.36756E+03
 2.24870E-03    7.48141E+03
 2.48520E-03    8.26880E+03
 2.61260E-03    8.87760E+03
 2.74650E-03    7.36533E+03
 3.03540E-03    7.34853E+03
 3.35460E-03    7.39995E+03
 3.70740E-03    7.26729E+03
 4.30740E-03    7.10971E+03
 5.53080E-03    7.23867E+03
 7.10170E-03    6.97609E+03
 9.11880E-03    6.99123E+03
 1.17090E-02    7.03234E+03
 1.50340E-02    7.09094E+03
 1.93050E-02    7.13429E+03
 2.18750E-02    7.15887E+03
 2.35790E-02    7.17458E+03
 2.41760E-02    7.18367E+03
 2.47880E-02    7.19405E+03
 2.60580E-02    7.20144E+03
 2.70000E-02    7.21004E+03
 2.85000E-02    7.25931E+03
 3.18280E-02    7.35558E+03
 3.43070E-02    7.50215E+03
 4.08680E-02    7.65225E+03
 4.63090E-02    7.77053E+03
 5.24750E-02    7.86315E+03
 5.65620E-02    7.95678E+03
 6.73790E-02    8.03487E+03
 7.20000E-02    8.10221E+03
 7.95000E-02    8.16154E+03
 8.25000E-02    8.18706E+03
 8.65170E-02    8.23317E+03
 9.80370E-02    8.27955E+03
 1.11090E-01    8.30727E+03
 1.16790E-01    8.32393E+03
 1.22770E-01    8.34145E+03
 1.29070E-01    8.35988E+03
 1.35690E-01    8.37895E+03
 1.42640E-01    8.36415E+03
 1.49960E-01    8.32425E+03
 1.57640E-01    8.28230E+03
 1.65730E-01    8.23820E+03
 1.74220E-01    8.19184E+03
 1.83160E-01    8.14309E+03
 1.92550E-01    8.09186E+03
 2.02420E-01    8.03974E+03
 2.12800E-01    7.99403E+03
 2.23710E-01    7.94730E+03
 2.35180E-01    7.89816E+03
 2.47240E-01    7.82768E+03
 2.73240E-01    7.76956E+03
 2.87250E-01    7.73973E+03
 2.94520E-01    7.72580E+03
 2.97200E-01    7.72023E+03
 2.98500E-01    7.71358E+03
 3.01970E-01    7.66512E+03
 3.33730E-01    7.57233E+03
 3.68830E-01    7.50658E+03
 3.87740E-01    7.46475E+03
 4.07620E-01    7.40087E+03
 4.50490E-01    7.31683E+03
 4.97870E-01    7.24882E+03
 5.23400E-01    7.20037E+03
 5.50230E-01    7.14534E+03
 5.78440E-01    7.07956E+03
 6.08100E-01    7.00879E+03
 6.39280E-01    6.89908E+03
 6.72060E-01    6.76837E+03
 7.06510E-01    6.63480E+03
 7.42740E-01    6.47202E+03
 7.80820E-01    6.28402E+03
 8.20850E-01    6.12108E+03
 8.62940E-01    5.96261E+03
 9.07180E-01    5.81390E+03
 9.61640E-01    5.68456E+03
 1.00260E+00    5.49220E+03
 1.10800E+00    5.28506E+03
 1.16480E+00    5.14843E+03
 1.22460E+00    5.00834E+03
 1.28730E+00    4.85436E+03
 1.35340E+00    4.69780E+03
 1.42270E+00    4.54360E+03
 1.49570E+00    4.38542E+03
 1.57240E+00    4.21817E+03
 1.65300E+00    4.05384E+03
 1.73770E+00    3.88848E+03
 1.82680E+00    3.71782E+03
 1.92050E+00    3.55383E+03
 2.01900E+00    3.38554E+03
 2.12250E+00    3.22013E+03
 2.23130E+00    3.09003E+03
 2.30690E+00    3.01264E+03
 2.34570E+00    2.97596E+03
 2.36530E+00    2.95168E+03
 2.38520E+00    2.89003E+03
 2.46600E+00    2.76302E+03
 2.59240E+00    2.61213E+03
 2.72530E+00    2.47103E+03
 2.86500E+00    2.33570E+03
 3.01190E+00    2.23120E+03
 3.16640E+00    2.14684E+03
 3.32870E+00    2.02778E+03
 3.67880E+00    1.87896E+03
 4.06570E+00    1.82505E+03
 4.49330E+00    1.82132E+03
 4.72370E+00    1.81866E+03
 4.96590E+00    1.83222E+03
 5.22050E+00    1.87405E+03
 5.48810E+00    1.91845E+03
 5.76950E+00    1.96519E+03
 6.06530E+00    2.01863E+03
 6.37630E+00    2.06741E+03
 6.59240E+00    2.09766E+03
 6.70320E+00    2.13846E+03
 7.04690E+00    2.19584E+03
 7.40820E+00    2.25201E+03
 7.78800E+00    2.30685E+03
 8.18730E+00    2.34811E+03
 8.60710E+00    2.38858E+03
 9.04840E+00    2.43532E+03
 9.51230E+00    2.43745E+03
 1.00000E+01    2.38320E+03
 1.05130E+01    2.31882E+03
 1.10520E+01    2.32309E+03
 1.16180E+01    2.34996E+03
 1.22140E+01    2.29296E+03
 1.28400E+01    2.22428E+03
 1.34990E+01    2.19329E+03
 1.38400E+01    2.17405E+03
 1.41910E+01    2.13590E+03
 1.45500E+01    2.09703E+03
 1.49180E+01    2.03715E+03
 1.56830E+01    1.95503E+03
 1.64870E+01    1.87796E+03
