# n + Tc 99 : (n,g)     
# jendl4.0   JNDC FP ND W.G., T.Nakagawa       EVAL-Mar90
# uncertainties: n
# # energies =   171
#   E(MeV)       xs(mb) 
 1.00000E-11    2.53840E+05
 1.00000E-07    8.84932E+03
 4.13990E-07    6.09402E+03
 5.31580E-07    5.57302E+03
 6.82560E-07    5.16301E+03
 8.76420E-07    4.87413E+03
 1.12540E-06    4.73356E+03
 1.44500E-06    4.80123E+03
 1.85540E-06    5.22282E+03
 2.37240E-06    6.45210E+03
 3.05900E-06    1.04060E+04
 3.92790E-06    3.98832E+04
 5.04350E-06    9.22019E+05
 6.47600E-06    1.30578E+04
 8.31530E-06    2.28970E+03
 1.06770E-05    1.05941E+03
 1.37100E-05    1.87796E+03
 1.76030E-05    1.42611E+05
 2.26030E-05    1.00109E+03
 2.92030E-05    2.01266E+02
 3.72670E-05    6.20611E+03
 4.78510E-05    8.98086E+03
 6.14420E-05    3.21610E+02
 7.88930E-05    3.24477E+02
 1.01300E-04    8.95344E+03
 1.30070E-04    1.42758E+04
 1.67020E-04    1.84440E+04
 2.14450E-04    4.31157E+03
 2.75360E-04    5.43690E+03
 3.53580E-04    1.17178E+04
 4.54000E-04    3.95148E+03
 5.82950E-04    3.76530E+03
 7.48520E-04    3.69736E+03
 9.61120E-04    3.88498E+03
 1.23410E-03    3.60333E+03
 1.58460E-03    3.13352E+03
 2.03470E-03    1.58061E+03
 2.24870E-03    2.44618E+03
 2.48520E-03    3.62220E+03
 2.61260E-03    2.29972E+03
 2.74650E-03    2.06674E+03
 3.03540E-03    1.89075E+03
 3.35460E-03    1.84621E+03
 3.70740E-03    1.57805E+03
 4.30740E-03    1.58774E+03
 5.53080E-03    1.70015E+03
 7.10170E-03    1.58882E+03
 9.11880E-03    1.43298E+03
 1.17090E-02    1.28882E+03
 1.50340E-02    1.14717E+03
 1.93050E-02    1.04678E+03
 2.18750E-02    9.95089E+02
 2.35790E-02    9.69674E+02
 2.41760E-02    9.56945E+02
 2.47880E-02    9.39157E+02
 2.60580E-02    9.20678E+02
 2.70000E-02    9.00478E+02
 2.85000E-02    8.61020E+02
 3.18280E-02    8.13708E+02
 3.43070E-02    7.49874E+02
 4.08680E-02    6.79624E+02
 4.63090E-02    6.24355E+02
 5.24750E-02    5.83457E+02
 5.65620E-02    5.36015E+02
 6.73790E-02    4.92580E+02
 7.20000E-02    4.66657E+02
 7.95000E-02    4.46225E+02
 8.25000E-02    4.33891E+02
 8.65170E-02    4.09639E+02
 9.80370E-02    3.77665E+02
 1.11090E-01    3.58047E+02
 1.16790E-01    3.47290E+02
 1.22770E-01    3.36996E+02
 1.29070E-01    3.26918E+02
 1.35690E-01    3.16942E+02
 1.42640E-01    3.00778E+02
 1.49960E-01    2.85826E+02
 1.57640E-01    2.72640E+02
 1.65730E-01    2.60087E+02
 1.74220E-01    2.48133E+02
 1.83160E-01    2.36831E+02
 1.92550E-01    2.26244E+02
 2.02420E-01    2.17899E+02
 2.12800E-01    2.10376E+02
 2.23710E-01    2.03153E+02
 2.35180E-01    1.96096E+02
 2.47240E-01    1.87694E+02
 2.73240E-01    1.80848E+02
 2.87250E-01    1.77556E+02
 2.94520E-01    1.76032E+02
 2.97200E-01    1.75423E+02
 2.98500E-01    1.74803E+02
 3.01970E-01    1.72796E+02
 3.33730E-01    1.69101E+02
 3.68830E-01    1.66440E+02
 3.87740E-01    1.64641E+02
 4.07620E-01    1.62010E+02
 4.50490E-01    1.58506E+02
 4.97870E-01    1.56462E+02
 5.23400E-01    1.56147E+02
 5.50230E-01    1.55821E+02
 5.78440E-01    1.55479E+02
 6.08100E-01    1.54947E+02
 6.39280E-01    1.50118E+02
 6.72060E-01    1.44356E+02
 7.06510E-01    1.40211E+02
 7.42740E-01    1.28827E+02
 7.80820E-01    1.11264E+02
 8.20850E-01    1.01542E+02
 8.62940E-01    9.37776E+01
 9.07180E-01    8.72033E+01
 9.61640E-01    8.25776E+01
 1.00260E+00    7.86340E+01
 1.10800E+00    7.53368E+01
 1.16480E+00    7.31128E+01
 1.22460E+00    7.09422E+01
 1.28730E+00    6.86734E+01
 1.35340E+00    6.64362E+01
 1.42270E+00    6.42491E+01
 1.49570E+00    6.13227E+01
 1.57240E+00    5.75451E+01
 1.65300E+00    5.39822E+01
 1.73770E+00    5.03543E+01
 1.82680E+00    4.65227E+01
 1.92050E+00    4.29847E+01
 2.01900E+00    4.07687E+01
 2.12250E+00    3.91705E+01
 2.23130E+00    3.78766E+01
 2.30690E+00    3.71468E+01
 2.34570E+00    3.67858E+01
 2.36530E+00    3.65420E+01
 2.38520E+00    3.59230E+01
 2.46600E+00    3.47447E+01
 2.59240E+00    3.33814E+01
 2.72530E+00    3.20693E+01
 2.86500E+00    3.08026E+01
 3.01190E+00    2.90681E+01
 3.16640E+00    2.70521E+01
 3.32870E+00    2.43012E+01
 3.67880E+00    2.10174E+01
 4.06570E+00    1.68050E+01
 4.49330E+00    1.36982E+01
 4.72370E+00    1.19754E+01
 4.96590E+00    1.02148E+01
 5.22050E+00    8.35068E+00
 5.48810E+00    6.82329E+00
 5.76950E+00    5.56972E+00
 6.06530E+00    4.46379E+00
 6.37630E+00    3.68435E+00
 6.59240E+00    3.31305E+00
 6.70320E+00    2.89245E+00
 7.04690E+00    2.45090E+00
 7.40820E+00    2.20877E+00
 7.78800E+00    2.14452E+00
 8.18730E+00    2.47650E+00
 8.60710E+00    2.94674E+00
 9.04840E+00    3.82845E+00
 9.51230E+00    5.08715E+00
 1.00000E+01    6.49181E+00
 1.05130E+01    8.02763E+00
 1.10520E+01    9.08339E+00
 1.16180E+01    9.71478E+00
 1.22140E+01    9.78499E+00
 1.28400E+01    9.62919E+00
 1.34990E+01    9.40612E+00
 1.38400E+01    9.25374E+00
 1.41910E+01    9.12552E+00
 1.45500E+01    8.99822E+00
 1.49180E+01    8.85331E+00
 1.56830E+01    8.73740E+00
 1.64870E+01    8.71996E+00
