# n + Xe134 : (n,g)     
# jendl.ad   kunieda                           EVAL-Mar14
# uncertainties: n
# # energies =   171
#   E(MeV)       xs(mb) 
 1.00000E-11    2.86692E+03
 1.00000E-07    9.51301E+01
 4.13990E-07    6.10737E+01
 5.31580E-07    5.37689E+01
 6.82560E-07    4.72924E+01
 8.76420E-07    4.15531E+01
 1.12540E-06    3.64820E+01
 1.44500E-06    3.19807E+01
 1.85540E-06    2.80070E+01
 2.37240E-06    2.44442E+01
 3.05900E-06    2.12375E+01
 3.92790E-06    1.84000E+01
 5.04350E-06    1.58693E+01
 6.47600E-06    1.35967E+01
 8.31530E-06    1.15614E+01
 1.06770E-05    9.74301E+00
 1.37100E-05    8.11317E+00
 1.76030E-05    6.66508E+00
 2.26030E-05    5.37344E+00
 2.92030E-05    4.26225E+00
 3.72670E-05    3.32159E+00
 4.78510E-05    2.52290E+00
 6.14420E-05    1.87191E+00
 7.88930E-05    1.35725E+00
 1.01300E-04    9.64575E-01
 1.30070E-04    6.75746E-01
 1.67020E-04    4.71768E-01
 2.14450E-04    3.33550E-01
 2.75360E-04    2.45260E-01
 3.53580E-04    1.95387E-01
 4.54000E-04    1.81169E-01
 5.82950E-04    2.33317E-01
 7.48520E-04    1.40444E+00
 9.61120E-04    6.83865E+02
 1.23410E-03    2.02594E-01
 1.58460E-03    5.27902E-01
 2.03470E-03    1.62913E+03
 2.24870E-03    2.36112E+00
 2.48520E-03    3.43616E-01
 2.61260E-03    1.89883E-01
 2.74650E-03    1.04960E-01
 3.03540E-03    6.24984E-02
 3.35460E-03    4.85154E-02
 3.70740E-03    4.76034E-02
 4.30740E-03    1.00026E-01
 5.53080E-03    1.60229E+02
 7.10170E-03    6.34694E+01
 9.11880E-03    9.62438E+01
 1.17090E-02    4.13963E+01
 1.50340E-02    3.46991E+01
 1.93050E-02    3.04042E+01
 2.18750E-02    2.84529E+01
 2.35790E-02    2.75142E+01
 2.41760E-02    2.70691E+01
 2.47880E-02    2.64005E+01
 2.60580E-02    2.56654E+01
 2.70000E-02    2.49191E+01
 2.85000E-02    2.36178E+01
 3.18280E-02    2.22678E+01
 3.43070E-02    2.06059E+01
 4.08680E-02    1.87826E+01
 4.63090E-02    1.74162E+01
 5.24750E-02    1.64041E+01
 5.65620E-02    1.52470E+01
 6.73790E-02    1.42182E+01
 7.20000E-02    1.35736E+01
 7.95000E-02    1.30687E+01
 8.25000E-02    1.27811E+01
 8.65170E-02    1.22262E+01
 9.80370E-02    1.14820E+01
 1.11090E-01    1.09783E+01
 1.16790E-01    1.07033E+01
 1.22770E-01    1.04966E+01
 1.29070E-01    1.03042E+01
 1.35690E-01    1.01187E+01
 1.42640E-01    9.97182E+00
 1.49960E-01    9.83047E+00
 1.57640E-01    9.69399E+00
 1.65730E-01    9.58577E+00
 1.74220E-01    9.47652E+00
 1.83160E-01    9.38939E+00
 1.92550E-01    9.30639E+00
 2.02420E-01    9.22573E+00
 2.12800E-01    9.14378E+00
 2.23710E-01    9.06312E+00
 2.35180E-01    8.98369E+00
 2.47240E-01    8.90354E+00
 2.73240E-01    8.86037E+00
 2.87250E-01    8.83788E+00
 2.94520E-01    8.82738E+00
 2.97200E-01    8.82319E+00
 2.98500E-01    8.81818E+00
 3.01970E-01    8.77868E+00
 3.33730E-01    8.71075E+00
 3.68830E-01    8.73067E+00
 3.87740E-01    8.75389E+00
 4.07620E-01    8.75672E+00
 4.50490E-01    8.83525E+00
 4.97870E-01    8.94549E+00
 5.23400E-01    8.98801E+00
 5.50230E-01    9.07937E+00
 5.78440E-01    9.22201E+00
 6.08100E-01    9.33381E+00
 6.39280E-01    9.45353E+00
 6.72060E-01    9.66462E+00
 7.06510E-01    9.83245E+00
 7.42740E-01    1.00225E+01
 7.80820E-01    1.03002E+01
 8.20850E-01    1.03427E+01
 8.62940E-01    8.07226E+00
 9.07180E-01    6.42359E+00
 9.61640E-01    5.80009E+00
 1.00260E+00    5.45950E+00
 1.10800E+00    5.21083E+00
 1.16480E+00    5.06649E+00
 1.22460E+00    5.08426E+00
 1.28730E+00    5.14349E+00
 1.35340E+00    5.21099E+00
 1.42270E+00    5.35568E+00
 1.49570E+00    5.53188E+00
 1.57240E+00    5.54940E+00
 1.65300E+00    5.02164E+00
 1.73770E+00    4.51227E+00
 1.82680E+00    4.21156E+00
 1.92050E+00    3.98306E+00
 2.01900E+00    3.83785E+00
 2.12250E+00    3.72916E+00
 2.23130E+00    3.63679E+00
 2.30690E+00    3.58002E+00
 2.34570E+00    3.55107E+00
 2.36530E+00    3.53152E+00
 2.38520E+00    3.49633E+00
 2.46600E+00    3.44910E+00
 2.59240E+00    3.37761E+00
 2.72530E+00    3.28462E+00
 2.86500E+00    3.17103E+00
 3.01190E+00    3.00081E+00
 3.16640E+00    2.81484E+00
 3.32870E+00    2.67380E+00
 3.67880E+00    2.39402E+00
 4.06570E+00    2.11679E+00
 4.49330E+00    1.90039E+00
 4.72370E+00    1.73042E+00
 4.96590E+00    1.58792E+00
 5.22050E+00    1.42175E+00
 5.48810E+00    1.26444E+00
 5.76950E+00    1.11586E+00
 6.06530E+00    9.76398E-01
 6.37630E+00    8.69955E-01
 6.59240E+00    8.13562E-01
 6.70320E+00    7.45514E-01
 7.04690E+00    6.58082E-01
 7.40820E+00    5.87602E-01
 7.78800E+00    5.36026E-01
 8.18730E+00    5.04478E-01
 8.60710E+00    4.95548E-01
 9.04840E+00    5.11280E-01
 9.51230E+00    5.51390E-01
 1.00000E+01    6.12224E-01
 1.05130E+01    6.86231E-01
 1.10520E+01    7.56342E-01
 1.16180E+01    8.22371E-01
 1.22140E+01    8.66631E-01
 1.28400E+01    8.95173E-01
 1.34990E+01    8.98643E-01
 1.38400E+01    8.97367E-01
 1.41910E+01    8.81121E-01
 1.45500E+01    8.62365E-01
 1.49180E+01    8.16286E-01
 1.56830E+01    7.30107E-01
 1.64870E+01    6.19936E-01
