# n + Pb206 : (n,n'14)  
# tendl.2019 A.J. Koning and D. Rochman        EVAL-NOV19
# uncertainties: n
# # energies =    75
#   E(MeV)       xs(mb) 
 2.39583E+00    0.00000E+00
 2.40000E+00    3.14039E+00
 2.40305E+00    3.37792E+00
 2.43523E+00    5.88414E+00
 2.60000E+00    1.87166E+01
 2.66077E+00    2.18566E+01
 2.67134E+00    2.24027E+01
 2.79579E+00    2.88330E+01
 2.80000E+00    2.90505E+01
 2.84015E+00    3.01629E+01
 2.87858E+00    3.12276E+01
 2.94343E+00    3.30244E+01
 2.95400E+00    3.33172E+01
 2.96897E+00    3.37320E+01
 2.97450E+00    3.38852E+01
 2.99861E+00    3.45532E+01
 3.00000E+00    3.45917E+01
 3.03120E+00    3.48649E+01
 3.04785E+00    3.50107E+01
 3.13767E+00    3.57971E+01
 3.15437E+00    3.59433E+01
 3.20000E+00    3.63428E+01
 3.40000E+00    3.57666E+01
 3.60000E+00    3.34636E+01
 3.80000E+00    3.05499E+01
 4.00000E+00    2.75141E+01
 4.20000E+00    2.44895E+01
 4.40000E+00    2.15046E+01
 4.60000E+00    1.86065E+01
 4.80000E+00    1.58743E+01
 5.00000E+00    1.33834E+01
 5.20000E+00    1.11830E+01
 5.40000E+00    9.27236E+00
 5.60000E+00    7.65551E+00
 5.80000E+00    6.30570E+00
 6.00000E+00    5.18921E+00
 6.20000E+00    4.27068E+00
 6.40000E+00    3.51685E+00
 6.60000E+00    2.89682E+00
 6.80000E+00    2.38648E+00
 7.00000E+00    1.96461E+00
 7.20000E+00    1.61492E+00
 7.40000E+00    1.32411E+00
 7.60000E+00    1.08427E+00
 7.80000E+00    8.84452E-01
 8.00000E+00    7.19446E-01
 8.50000E+00    4.25447E-01
 9.00000E+00    2.48181E-01
 9.50000E+00    1.43290E-01
 1.00000E+01    8.21780E-02
 1.05000E+01    4.69266E-02
 1.10000E+01    2.67234E-02
 1.15000E+01    1.51951E-02
 1.20000E+01    8.64031E-03
 1.25000E+01    4.92083E-03
 1.30000E+01    2.81039E-03
 1.35000E+01    1.61071E-03
 1.40000E+01    9.26794E-04
 1.45000E+01    5.35400E-04
 1.50000E+01    3.10499E-04
 1.60000E+01    1.05509E-04
 1.70000E+01    3.61472E-05
 1.80000E+01    1.25640E-05
 1.90000E+01    4.41920E-06
 2.00000E+01    1.57607E-06
 2.10000E+01    5.71040E-07
 2.20000E+01    2.10170E-07
 2.30000E+01    7.85250E-08
 2.40000E+01    2.97480E-08
 2.50000E+01    1.14170E-08
 2.60000E+01    4.43150E-09
 2.70000E+01    1.74430E-09
 2.80000E+01    6.93790E-10
 2.90000E+01    2.79220E-10
 3.00000E+01    1.13730E-10
