# n + Os190 : (n,n'28)  
# endfb8.0   N.Iwamoto                         EVAL-Jan10
# uncertainties: n
# # energies =    55
#   E(MeV)       xs(mb) 
 1.68842E+00    0.00000E+00
 1.68952E+00    5.10238E+00
 1.69062E+00    6.98288E+00
 1.69803E+00    1.31290E+01
 1.70000E+00    1.40288E+01
 1.71446E+00    1.90134E+01
 1.71737E+00    1.97545E+01
 1.73396E+00    2.29207E+01
 1.74210E+00    2.42812E+01
 1.78644E+00    3.04444E+01
 1.80000E+00    3.20168E+01
 1.81227E+00    3.34126E+01
 1.82313E+00    3.46239E+01
 1.83328E+00    3.57450E+01
 1.84607E+00    3.71537E+01
 1.90000E+00    4.23567E+01
 2.00000E+00    4.94036E+01
 2.25000E+00    5.17355E+01
 2.50000E+00    4.60025E+01
 2.75000E+00    3.74926E+01
 3.00000E+00    2.67022E+01
 3.50000E+00    1.34042E+01
 4.00000E+00    6.25784E+00
 4.50000E+00    2.80697E+00
 5.00000E+00    1.24065E+00
 5.50000E+00    5.52404E-01
 6.00000E+00    2.56117E-01
 6.50000E+00    1.29811E-01
 7.00000E+00    7.60622E-02
 7.50000E+00    5.28175E-02
 8.00000E+00    4.21116E-02
 8.50000E+00    3.66004E-02
 9.00000E+00    3.33334E-02
 9.50000E+00    3.10923E-02
 1.00000E+01    2.93476E-02
 1.05000E+01    2.78441E-02
 1.10000E+01    2.64613E-02
 1.15000E+01    2.51474E-02
 1.20000E+01    2.38849E-02
 1.25000E+01    2.26842E-02
 1.30000E+01    2.15499E-02
 1.35000E+01    2.04891E-02
 1.40000E+01    1.95031E-02
 1.45000E+01    1.85911E-02
 1.50000E+01    1.77484E-02
 1.55000E+01    1.69686E-02
 1.60000E+01    1.62440E-02
 1.65000E+01    1.55672E-02
 1.70000E+01    1.49309E-02
 1.75000E+01    1.43294E-02
 1.80000E+01    1.37587E-02
 1.85000E+01    1.32160E-02
 1.90000E+01    1.26999E-02
 1.95000E+01    1.22098E-02
 2.00000E+01    1.17457E-02
