# n + Os190 : (n,n'13)  
# endfb8.0   N.Iwamoto                         EVAL-Jan10
# uncertainties: n
# # energies =    73
#   E(MeV)       xs(mb) 
 1.38974E+00    0.00000E+00
 1.39436E+00    3.20712E+01
 1.40000E+00    4.42188E+01
 1.44344E+00    7.93312E+01
 1.45380E+00    8.15624E+01
 1.48203E+00    9.01030E+01
 1.48987E+00    9.23691E+01
 1.50000E+00    9.43216E+01
 1.52214E+00    9.92563E+01
 1.55350E+00    1.05973E+02
 1.55542E+00    1.06265E+02
 1.57737E+00    1.08676E+02
 1.57864E+00    1.08373E+02
 1.59229E+00    1.07342E+02
 1.60000E+00    1.07750E+02
 1.62455E+00    1.10383E+02
 1.67532E+00    1.12122E+02
 1.68458E+00    1.12708E+02
 1.68842E+00    1.12004E+02
 1.68952E+00    1.11664E+02
 1.69062E+00    1.11235E+02
 1.69803E+00    1.10519E+02
 1.70000E+00    1.09815E+02
 1.71446E+00    1.08948E+02
 1.71737E+00    1.08919E+02
 1.73396E+00    1.07697E+02
 1.74210E+00    1.07067E+02
 1.78644E+00    1.07374E+02
 1.80000E+00    1.06884E+02
 1.81227E+00    1.06595E+02
 1.82313E+00    1.06196E+02
 1.83328E+00    1.05793E+02
 1.84607E+00    1.05324E+02
 1.90000E+00    1.04381E+02
 2.00000E+00    1.01482E+02
 2.25000E+00    7.95417E+01
 2.50000E+00    6.32227E+01
 2.75000E+00    4.72691E+01
 3.00000E+00    3.25928E+01
 3.50000E+00    1.53947E+01
 4.00000E+00    7.01817E+00
 4.50000E+00    3.25020E+00
 5.00000E+00    1.61799E+00
 5.50000E+00    9.14986E-01
 6.00000E+00    6.07130E-01
 6.50000E+00    4.64290E-01
 7.00000E+00    3.91393E-01
 7.50000E+00    3.48645E-01
 8.00000E+00    3.19958E-01
 8.50000E+00    2.98491E-01
 9.00000E+00    2.81220E-01
 9.50000E+00    2.66459E-01
 1.00000E+01    2.53168E-01
 1.05000E+01    2.40653E-01
 1.10000E+01    2.28597E-01
 1.15000E+01    2.16903E-01
 1.20000E+01    2.05680E-01
 1.25000E+01    1.95011E-01
 1.30000E+01    1.84990E-01
 1.35000E+01    1.75676E-01
 1.40000E+01    1.67065E-01
 1.45000E+01    1.59135E-01
 1.50000E+01    1.51829E-01
 1.55000E+01    1.45082E-01
 1.60000E+01    1.38818E-01
 1.65000E+01    1.32966E-01
 1.70000E+01    1.27461E-01
 1.75000E+01    1.22254E-01
 1.80000E+01    1.17311E-01
 1.85000E+01    1.12613E-01
 1.90000E+01    1.08148E-01
 1.95000E+01    1.03915E-01
 2.00000E+01    9.99146E-02
