# n + Os190 : (n,n'31)  
# endfb8.0   N.Iwamoto                         EVAL-Jan10
# uncertainties: n
# # energies =    52
#   E(MeV)       xs(mb) 
 1.69803E+00    0.00000E+00
 1.70000E+00    9.88706E+00
 1.71446E+00    2.39113E+01
 1.71737E+00    2.53893E+01
 1.73396E+00    3.10221E+01
 1.74210E+00    3.31294E+01
 1.78644E+00    4.13749E+01
 1.80000E+00    4.33681E+01
 1.81227E+00    4.49317E+01
 1.82313E+00    4.62529E+01
 1.83328E+00    4.74478E+01
 1.84607E+00    4.89178E+01
 1.90000E+00    5.40968E+01
 2.00000E+00    6.02250E+01
 2.25000E+00    5.91392E+01
 2.50000E+00    5.07165E+01
 2.75000E+00    4.02563E+01
 3.00000E+00    2.83025E+01
 3.50000E+00    1.37388E+01
 4.00000E+00    6.29628E+00
 4.50000E+00    2.85307E+00
 5.00000E+00    1.34171E+00
 5.50000E+00    6.91386E-01
 6.00000E+00    4.11373E-01
 6.50000E+00    2.87525E-01
 7.00000E+00    2.29431E-01
 7.50000E+00    1.99027E-01
 8.00000E+00    1.80552E-01
 8.50000E+00    1.67582E-01
 9.00000E+00    1.57513E-01
 9.50000E+00    1.49123E-01
 1.00000E+01    1.41750E-01
 1.05000E+01    1.34947E-01
 1.10000E+01    1.28463E-01
 1.15000E+01    1.22192E-01
 1.20000E+01    1.16113E-01
 1.25000E+01    1.10306E-01
 1.30000E+01    1.04807E-01
 1.35000E+01    9.96583E-02
 1.40000E+01    9.48690E-02
 1.45000E+01    9.04365E-02
 1.50000E+01    8.63400E-02
 1.55000E+01    8.25483E-02
 1.60000E+01    7.90252E-02
 1.65000E+01    7.57342E-02
 1.70000E+01    7.26400E-02
 1.75000E+01    6.97150E-02
 1.80000E+01    6.69398E-02
 1.85000E+01    6.43009E-02
 1.90000E+01    6.17914E-02
 1.95000E+01    5.94078E-02
 2.00000E+01    5.71507E-02
