# n + Os190 : (n,n'27)  
# endfb8.0   N.Iwamoto                         EVAL-Jan10
# uncertainties: n
# # energies =    56
#   E(MeV)       xs(mb) 
 1.68458E+00    0.00000E+00
 1.68842E+00    1.42372E+01
 1.68952E+00    1.58003E+01
 1.69062E+00    1.71219E+01
 1.69803E+00    2.34547E+01
 1.70000E+00    2.44842E+01
 1.71446E+00    3.07019E+01
 1.71737E+00    3.16764E+01
 1.73396E+00    3.55436E+01
 1.74210E+00    3.72190E+01
 1.78644E+00    4.44324E+01
 1.80000E+00    4.61331E+01
 1.81227E+00    4.76508E+01
 1.82313E+00    4.89400E+01
 1.83328E+00    5.01115E+01
 1.84607E+00    5.15011E+01
 1.90000E+00    5.64416E+01
 2.00000E+00    6.21309E+01
 2.25000E+00    6.02590E+01
 2.50000E+00    5.12690E+01
 2.75000E+00    4.05779E+01
 3.00000E+00    2.83581E+01
 3.50000E+00    1.36755E+01
 4.00000E+00    6.19282E+00
 4.50000E+00    2.73952E+00
 5.00000E+00    1.22861E+00
 5.50000E+00    5.82608E-01
 6.00000E+00    3.08307E-01
 6.50000E+00    1.90584E-01
 7.00000E+00    1.38470E-01
 7.50000E+00    1.13705E-01
 8.00000E+00    1.00353E-01
 8.50000E+00    9.19579E-02
 9.00000E+00    8.59290E-02
 9.50000E+00    8.11334E-02
 1.00000E+01    7.70236E-02
 1.05000E+01    7.32785E-02
 1.10000E+01    6.97310E-02
 1.15000E+01    6.63107E-02
 1.20000E+01    6.30006E-02
 1.25000E+01    5.98422E-02
 1.30000E+01    5.68535E-02
 1.35000E+01    5.40564E-02
 1.40000E+01    5.14558E-02
 1.45000E+01    4.90496E-02
 1.50000E+01    4.68262E-02
 1.55000E+01    4.47685E-02
 1.60000E+01    4.28568E-02
 1.65000E+01    4.10710E-02
 1.70000E+01    3.93919E-02
 1.75000E+01    3.78046E-02
 1.80000E+01    3.62987E-02
 1.85000E+01    3.48666E-02
 1.90000E+01    3.35049E-02
 1.95000E+01    3.22115E-02
 2.00000E+01    3.09869E-02
