# n + Os190 : (n,el)    
# endfb8.0   N.Iwamoto                         EVAL-Jan10
# uncertainties: n
# # energies =   171
#   E(MeV)       xs(mb) 
 1.00000E-11    2.42621E+04
 1.00000E-07    1.55923E+04
 4.13990E-07    1.48363E+04
 5.31580E-07    1.45060E+04
 6.82560E-07    1.41346E+04
 8.76420E-07    1.37279E+04
 1.12540E-06    1.32962E+04
 1.44500E-06    1.28508E+04
 1.85540E-06    1.24062E+04
 2.37240E-06    1.19694E+04
 3.05900E-06    1.15541E+04
 3.92790E-06    1.11749E+04
 5.04350E-06    1.08349E+04
 6.47600E-06    1.05361E+04
 8.31530E-06    1.02785E+04
 1.06770E-05    1.00580E+04
 1.37100E-05    9.86892E+03
 1.76030E-05    9.70523E+03
 2.26030E-05    9.55659E+03
 2.92030E-05    9.41074E+03
 3.72670E-05    9.25528E+03
 4.78510E-05    9.05197E+03
 6.14420E-05    8.64449E+03
 7.88930E-05    2.47524E+04
 1.01300E-04    8.92394E+03
 1.30070E-04    5.52078E+04
 1.67020E-04    1.17168E+04
 2.14450E-04    1.13864E+04
 2.75360E-04    1.04699E+04
 3.53580E-04    9.68402E+03
 4.54000E-04    1.28237E+04
 5.82950E-04    2.93148E+04
 7.48520E-04    6.30365E+04
 9.61120E-04    7.35431E+04
 1.23410E-03    6.57127E+04
 1.58460E-03    5.87172E+04
 2.03470E-03    5.42428E+04
 2.24870E-03    5.18561E+04
 2.48520E-03    5.01309E+04
 2.61260E-03    4.90148E+04
 2.74650E-03    4.73897E+04
 3.03540E-03    4.53042E+04
 3.35460E-03    4.33096E+04
 3.70740E-03    4.09518E+04
 4.30740E-03    3.75089E+04
 5.53080E-03    3.36056E+04
 7.10170E-03    3.01281E+04
 9.11880E-03    2.70376E+04
 1.17090E-02    2.43069E+04
 1.50340E-02    2.18557E+04
 1.93050E-02    2.01776E+04
 2.18750E-02    1.93488E+04
 2.35790E-02    1.89472E+04
 2.41760E-02    1.87499E+04
 2.47880E-02    1.84580E+04
 2.60580E-02    1.81311E+04
 2.70000E-02    1.77941E+04
 2.85000E-02    1.71941E+04
 3.18280E-02    1.65413E+04
 3.43070E-02    1.57054E+04
 4.08680E-02    1.47579E+04
 4.63090E-02    1.40173E+04
 5.24750E-02    1.34492E+04
 5.65620E-02    1.27757E+04
 6.73790E-02    1.21563E+04
 7.20000E-02    1.17522E+04
 7.95000E-02    1.14288E+04
 8.25000E-02    1.12327E+04
 8.65170E-02    1.08433E+04
 9.80370E-02    1.03073E+04
 1.11090E-01    9.95467E+03
 1.16790E-01    9.75914E+03
 1.22770E-01    9.56744E+03
 1.29070E-01    9.37890E+03
 1.35690E-01    9.19361E+03
 1.42640E-01    9.01226E+03
 1.49960E-01    8.83587E+03
 1.57640E-01    8.66773E+03
 1.65730E-01    8.51313E+03
 1.74220E-01    8.36174E+03
 1.83160E-01    8.15055E+03
 1.92550E-01    7.85692E+03
 2.02420E-01    7.65919E+03
 2.12800E-01    7.46245E+03
 2.23710E-01    7.27203E+03
 2.35180E-01    7.07964E+03
 2.47240E-01    6.82265E+03
 2.73240E-01    6.58683E+03
 2.87250E-01    6.46793E+03
 2.94520E-01    6.41623E+03
 2.97200E-01    6.39558E+03
 2.98500E-01    6.37089E+03
 3.01970E-01    6.19184E+03
 3.33730E-01    5.87865E+03
 3.68830E-01    5.65505E+03
 3.87740E-01    5.51045E+03
 4.07620E-01    5.33246E+03
 4.50490E-01    5.10930E+03
 4.97870E-01    4.94719E+03
 5.23400E-01    4.83517E+03
 5.50230E-01    4.70890E+03
 5.78440E-01    4.52045E+03
 6.08100E-01    4.39855E+03
 6.39280E-01    4.30270E+03
 6.72060E-01    4.20917E+03
 7.06510E-01    4.12797E+03
 7.42740E-01    4.05020E+03
 7.80820E-01    3.95767E+03
 8.20850E-01    3.88941E+03
 8.62940E-01    3.82294E+03
 9.07180E-01    3.72939E+03
 9.61640E-01    3.63581E+03
 1.00260E+00    3.59467E+03
 1.10800E+00    3.54701E+03
 1.16480E+00    3.49157E+03
 1.22460E+00    3.49759E+03
 1.28730E+00    3.50810E+03
 1.35340E+00    3.50917E+03
 1.42270E+00    3.51761E+03
 1.49570E+00    3.53020E+03
 1.57240E+00    3.54683E+03
 1.65300E+00    3.57367E+03
 1.73770E+00    3.60303E+03
 1.82680E+00    3.64298E+03
 1.92050E+00    3.68783E+03
 2.01900E+00    3.73395E+03
 2.12250E+00    3.77587E+03
 2.23130E+00    3.81143E+03
 2.30690E+00    3.83234E+03
 2.34570E+00    3.84104E+03
 2.36530E+00    3.84689E+03
 2.38520E+00    3.86171E+03
 2.46600E+00    3.89045E+03
 2.59240E+00    3.91397E+03
 2.72530E+00    3.93234E+03
 2.86500E+00    3.93949E+03
 3.01190E+00    3.93242E+03
 3.16640E+00    3.91468E+03
 3.32870E+00    3.87886E+03
 3.67880E+00    3.78322E+03
 4.06570E+00    3.64502E+03
 4.49330E+00    3.51538E+03
 4.72370E+00    3.41441E+03
 4.96590E+00    3.30646E+03
 5.22050E+00    3.19149E+03
 5.48810E+00    3.07269E+03
 5.76950E+00    2.95016E+03
 6.06530E+00    2.82969E+03
 6.37630E+00    2.72955E+03
 6.59240E+00    2.67304E+03
 6.70320E+00    2.59695E+03
 7.04690E+00    2.49196E+03
 7.40820E+00    2.40624E+03
 7.78800E+00    2.32599E+03
 8.18730E+00    2.25472E+03
 8.60710E+00    2.20995E+03
 9.04840E+00    2.18533E+03
 9.51230E+00    2.18111E+03
 1.00000E+01    2.19692E+03
 1.05130E+01    2.23210E+03
 1.10520E+01    2.28452E+03
 1.16180E+01    2.35181E+03
 1.22140E+01    2.43116E+03
 1.28400E+01    2.51923E+03
 1.34990E+01    2.58889E+03
 1.38400E+01    2.63617E+03
 1.41910E+01    2.68356E+03
 1.45500E+01    2.73041E+03
 1.49180E+01    2.79888E+03
 1.56830E+01    2.88390E+03
 1.64870E+01    2.95808E+03
