# n + Os190 : (n,n'10)  
# endfb8.0   N.Iwamoto                         EVAL-Jan10
# uncertainties: n
# # energies =    78
#   E(MeV)       xs(mb) 
 1.16937E+00    0.00000E+00
 1.20000E+00    5.71993E+00
 1.21025E+00    7.12429E+00
 1.30000E+00    2.13248E+01
 1.33395E+00    2.77618E+01
 1.38974E+00    3.84780E+01
 1.39436E+00    3.91440E+01
 1.40000E+00    3.89941E+01
 1.44344E+00    4.54153E+01
 1.45380E+00    4.65325E+01
 1.48203E+00    5.02350E+01
 1.48987E+00    5.13524E+01
 1.50000E+00    5.27999E+01
 1.52214E+00    5.60256E+01
 1.55350E+00    6.03222E+01
 1.55542E+00    6.06009E+01
 1.57737E+00    6.31736E+01
 1.57864E+00    6.30676E+01
 1.59229E+00    6.33457E+01
 1.60000E+00    6.29575E+01
 1.62455E+00    6.42063E+01
 1.67532E+00    6.67453E+01
 1.68458E+00    6.73323E+01
 1.68842E+00    6.72759E+01
 1.68952E+00    6.71402E+01
 1.69062E+00    6.70708E+01
 1.69803E+00    6.70671E+01
 1.70000E+00    6.69110E+01
 1.71446E+00    6.71225E+01
 1.71737E+00    6.72097E+01
 1.73396E+00    6.73269E+01
 1.74210E+00    6.75341E+01
 1.78644E+00    6.91787E+01
 1.80000E+00    6.97500E+01
 1.81227E+00    6.98530E+01
 1.82313E+00    6.99255E+01
 1.83328E+00    6.99911E+01
 1.84607E+00    7.00836E+01
 1.90000E+00    7.06108E+01
 2.00000E+00    6.96591E+01
 2.25000E+00    5.85615E+01
 2.50000E+00    4.81685E+01
 2.75000E+00    3.75038E+01
 3.00000E+00    2.68580E+01
 3.50000E+00    1.36685E+01
 4.00000E+00    6.68809E+00
 4.50000E+00    3.28496E+00
 5.00000E+00    1.70012E+00
 5.50000E+00    9.74585E-01
 6.00000E+00    6.41978E-01
 6.50000E+00    4.83005E-01
 7.00000E+00    4.01119E-01
 7.50000E+00    3.53720E-01
 8.00000E+00    3.22794E-01
 8.50000E+00    3.00292E-01
 9.00000E+00    2.82496E-01
 9.50000E+00    2.67346E-01
 1.00000E+01    2.53640E-01
 1.05000E+01    2.40674E-01
 1.10000E+01    2.28175E-01
 1.15000E+01    2.16089E-01
 1.20000E+01    2.04570E-01
 1.25000E+01    1.93691E-01
 1.30000E+01    1.83534E-01
 1.35000E+01    1.74138E-01
 1.40000E+01    1.65488E-01
 1.45000E+01    1.57543E-01
 1.50000E+01    1.50238E-01
 1.55000E+01    1.43498E-01
 1.60000E+01    1.37242E-01
 1.65000E+01    1.31398E-01
 1.70000E+01    1.25898E-01
 1.75000E+01    1.20693E-01
 1.80000E+01    1.15754E-01
 1.85000E+01    1.11062E-01
 1.90000E+01    1.06610E-01
 1.95000E+01    1.02393E-01
 2.00000E+01    9.84161E-02
