# n + V  50 : (n,n'03)  
# endfb8.0   N.Iwamoto                         EVAL-Mar10
# uncertainties: n
# # energies =    93
#   E(MeV)       xs(mb) 
 3.62577E-01    0.00000E+00
 3.96244E-01    7.23035E+00
 4.00000E-01    7.44623E+00
 5.00000E-01    1.32784E+01
 6.00000E-01    1.90718E+01
 7.00000E-01    2.51607E+01
 8.00000E-01    3.17355E+01
 8.53189E-01    3.52853E+01
 9.00000E-01    3.57615E+01
 9.28377E-01    3.72306E+01
 9.28479E-01    3.72348E+01
 1.00000E+00    3.73328E+01
 1.10000E+00    4.20936E+01
 1.20000E+00    4.69065E+01
 1.30000E+00    5.12632E+01
 1.32768E+00    5.24005E+01
 1.35839E+00    5.35351E+01
 1.40000E+00    5.51188E+01
 1.43021E+00    5.62023E+01
 1.50000E+00    5.69627E+01
 1.52550E+00    5.74792E+01
 1.54906E+00    5.79232E+01
 1.59324E+00    5.86837E+01
 1.60000E+00    5.87912E+01
 1.70000E+00    6.00983E+01
 1.71107E+00    6.02146E+01
 1.73454E+00    5.97640E+01
 1.73749E+00    5.91136E+01
 1.75361E+00    5.78282E+01
 1.75943E+00    5.73046E+01
 1.76004E+00    5.72744E+01
 1.78687E+00    5.60594E+01
 1.79707E+00    5.55768E+01
 1.79789E+00    5.52588E+01
 1.80000E+00    5.48053E+01
 1.84737E+00    5.30504E+01
 1.90000E+00    5.23379E+01
 1.92041E+00    5.21141E+01
 1.97510E+00    4.96737E+01
 1.99346E+00    4.93780E+01
 2.00000E+00    4.92849E+01
 2.07916E+00    4.80906E+01
 2.07917E+00    4.80872E+01
 2.15363E+00    4.65841E+01
 2.17608E+00    4.60379E+01
 2.20566E+00    4.53356E+01
 2.25000E+00    4.43141E+01
 2.35461E+00    4.25768E+01
 2.35930E+00    4.25016E+01
 2.39134E+00    4.18405E+01
 2.44745E+00    4.05670E+01
 2.47295E+00    3.98476E+01
 2.47397E+00    3.98132E+01
 2.50000E+00    3.92197E+01
 2.50458E+00    3.91209E+01
 2.52835E+00    3.82293E+01
 2.53314E+00    3.81099E+01
 2.75000E+00    3.18783E+01
 3.00000E+00    2.62369E+01
 3.50000E+00    1.81087E+01
 4.00000E+00    1.28533E+01
 4.50000E+00    9.40261E+00
 5.00000E+00    7.03819E+00
 5.50000E+00    5.34302E+00
 6.00000E+00    4.13026E+00
 6.50000E+00    3.13488E+00
 7.00000E+00    2.36803E+00
 7.50000E+00    1.77869E+00
 8.00000E+00    1.33099E+00
 8.50000E+00    9.96262E-01
 9.00000E+00    7.48495E-01
 9.50000E+00    5.67353E-01
 1.00000E+01    4.35642E-01
 1.05000E+01    3.40006E-01
 1.10000E+01    2.70012E-01
 1.15000E+01    2.18243E-01
 1.20000E+01    1.79974E-01
 1.25000E+01    1.51077E-01
 1.30000E+01    1.29195E-01
 1.35000E+01    1.12216E-01
 1.40000E+01    9.89793E-02
 1.45000E+01    8.84057E-02
 1.50000E+01    7.98874E-02
 1.55000E+01    7.28732E-02
 1.60000E+01    6.70141E-02
 1.65000E+01    6.20766E-02
 1.70000E+01    5.78388E-02
 1.75000E+01    5.41965E-02
 1.80000E+01    5.09782E-02
 1.85000E+01    4.81489E-02
 1.90000E+01    4.56273E-02
 1.95000E+01    4.33763E-02
 2.00000E+01    4.13353E-02
