# n + V  50 : (n,xn)    
# endfb8.0   N.Iwamoto                         EVAL-Mar10
# 
# # energies =   111
#   E(MeV)        xs(mb) 
 1.05000E-01    0.00000E+00
 1.10000E-01    2.35550E-07
 1.20000E-01    2.67500E-07
 1.30000E-01    2.68570E-07
 1.40000E-01    2.74520E-07
 1.50000E-01    2.72350E-07
 1.60000E-01    2.70000E-07
 1.70000E-01    2.63990E-07
 1.80000E-01    2.56080E-07
 1.90000E-01    2.47450E-07
 2.00000E-01    2.36810E-07
 2.25000E-01    2.75073E-06
 2.30768E-01    2.82308E-06
 2.50000E-01    2.76045E+02
 2.75000E-01    3.13858E+02
 3.00000E-01    3.21636E+02
 3.26626E-01    3.31637E+02
 3.62577E-01    3.52881E+02
 3.96244E-01    3.58868E+02
 4.00000E-01    3.59020E+02
 5.00000E-01    3.85821E+02
 6.00000E-01    4.18082E+02
 7.00000E-01    4.55250E+02
 8.00000E-01    4.95330E+02
 8.53189E-01    5.17297E+02
 9.00000E-01    5.85656E+02
 9.28377E-01    6.02136E+02
 9.28479E-01    6.21837E+02
 1.00000E+00    8.06231E+02
 1.10000E+00    8.74132E+02
 1.20000E+00    9.25901E+02
 1.30000E+00    9.68537E+02
 1.32768E+00    9.79208E+02
 1.35839E+00    9.91717E+02
 1.40000E+00    1.00792E+03
 1.43021E+00    1.01888E+03
 1.50000E+00    1.04578E+03
 1.52550E+00    1.05272E+03
 1.54906E+00    1.05939E+03
 1.59324E+00    1.07133E+03
 1.60000E+00    1.07304E+03
 1.70000E+00    1.09696E+03
 1.71107E+00    1.09934E+03
 1.73453E+00    1.10476E+03
 1.73454E+00    1.10478E+03
 1.73749E+00    1.10642E+03
 1.75361E+00    1.11821E+03
 1.75943E+00    1.12065E+03
 1.76004E+00    1.13245E+03
 1.78687E+00    1.17453E+03
 1.79707E+00    1.18040E+03
 1.79789E+00    1.18617E+03
 1.80000E+00    1.19173E+03
 1.84737E+00    1.22585E+03
 1.90000E+00    1.24350E+03
 1.92041E+00    1.24873E+03
 1.97510E+00    1.26893E+03
 1.99346E+00    1.27310E+03
 2.00000E+00    1.27448E+03
 2.07916E+00    1.28486E+03
 2.07917E+00    1.28486E+03
 2.15363E+00    1.29206E+03
 2.17608E+00    1.29399E+03
 2.20566E+00    1.29622E+03
 2.25000E+00    1.29931E+03
 2.35461E+00    1.30336E+03
 2.35930E+00    1.30345E+03
 2.39134E+00    1.31718E+03
 2.44745E+00    1.32124E+03
 2.47295E+00    1.32388E+03
 2.47397E+00    1.32392E+03
 2.50000E+00    1.32454E+03
 2.50458E+00    1.32468E+03
 2.52835E+00    1.32595E+03
 2.53314E+00    1.33008E+03
 2.75000E+00    1.34897E+03
 3.00000E+00    1.35331E+03
 3.50000E+00    1.34108E+03
 4.00000E+00    1.32350E+03
 4.50000E+00    1.30990E+03
 5.00000E+00    1.30268E+03
 5.50000E+00    1.30029E+03
 6.00000E+00    1.29798E+03
 6.50000E+00    1.29455E+03
 7.00000E+00    1.28718E+03
 7.50000E+00    1.27586E+03
 8.00000E+00    1.26164E+03
 8.50000E+00    1.24726E+03
 9.00000E+00    1.23162E+03
 9.50000E+00    1.21680E+03
 1.00000E+01    1.22817E+03
 1.05000E+01    1.27153E+03
 1.10000E+01    1.34318E+03
 1.15000E+01    1.43531E+03
 1.20000E+01    1.53085E+03
 1.25000E+01    1.62206E+03
 1.30000E+01    1.70315E+03
 1.35000E+01    1.76716E+03
 1.40000E+01    1.81933E+03
 1.45000E+01    1.85440E+03
 1.50000E+01    1.87740E+03
 1.55000E+01    1.88757E+03
 1.60000E+01    1.88980E+03
 1.65000E+01    1.88341E+03
 1.70000E+01    1.87478E+03
 1.75000E+01    1.86175E+03
 1.80000E+01    1.84664E+03
 1.85000E+01    1.83073E+03
 1.90000E+01    1.81342E+03
 1.95000E+01    1.79648E+03
 2.00000E+01    1.77728E+03
