# n + V  50 : (n,n'04)  
# endfb8.0   N.Iwamoto                         EVAL-Mar10
# uncertainties: n
# # energies =    92
#   E(MeV)       xs(mb) 
 3.96244E-01    0.00000E+00
 4.00000E-01    2.94828E-03
 5.00000E-01    1.42620E-01
 6.00000E-01    6.07079E-01
 7.00000E-01    1.53821E+00
 8.00000E-01    2.98603E+00
 8.53189E-01    4.02853E+00
 9.00000E-01    4.46666E+00
 9.28377E-01    5.04965E+00
 9.28479E-01    5.05159E+00
 1.00000E+00    5.48805E+00
 1.10000E+00    7.36240E+00
 1.20000E+00    9.36758E+00
 1.30000E+00    1.13790E+01
 1.32768E+00    1.19377E+01
 1.35839E+00    1.25104E+01
 1.40000E+00    1.32523E+01
 1.43021E+00    1.38145E+01
 1.50000E+00    1.44020E+01
 1.52550E+00    1.47278E+01
 1.54906E+00    1.50163E+01
 1.59324E+00    1.55206E+01
 1.60000E+00    1.55928E+01
 1.70000E+00    1.66030E+01
 1.71107E+00    1.67018E+01
 1.73454E+00    1.65631E+01
 1.73749E+00    1.62551E+01
 1.75361E+00    1.59175E+01
 1.75943E+00    1.56999E+01
 1.76004E+00    1.56910E+01
 1.78687E+00    1.54366E+01
 1.79707E+00    1.52501E+01
 1.79789E+00    1.52425E+01
 1.80000E+00    1.51445E+01
 1.84737E+00    1.49194E+01
 1.90000E+00    1.49732E+01
 1.92041E+00    1.49831E+01
 1.97510E+00    1.46177E+01
 1.99346E+00    1.45989E+01
 2.00000E+00    1.45933E+01
 2.07916E+00    1.44681E+01
 2.07917E+00    1.44658E+01
 2.15363E+00    1.40559E+01
 2.17608E+00    1.38752E+01
 2.20566E+00    1.36440E+01
 2.25000E+00    1.34097E+01
 2.35461E+00    1.30250E+01
 2.35930E+00    1.30065E+01
 2.39134E+00    1.28872E+01
 2.44745E+00    1.25329E+01
 2.47295E+00    1.23426E+01
 2.47397E+00    1.23284E+01
 2.50000E+00    1.21639E+01
 2.50458E+00    1.21382E+01
 2.52835E+00    1.18017E+01
 2.53314E+00    1.17657E+01
 2.75000E+00    1.01161E+01
 3.00000E+00    1.03931E+01
 3.50000E+00    7.91652E+00
 4.00000E+00    6.23503E+00
 4.50000E+00    5.06658E+00
 5.00000E+00    4.21180E+00
 5.50000E+00    3.55164E+00
 6.00000E+00    3.04204E+00
 6.50000E+00    2.58550E+00
 7.00000E+00    2.20320E+00
 7.50000E+00    1.88395E+00
 8.00000E+00    1.62060E+00
 8.50000E+00    1.40675E+00
 9.00000E+00    1.23498E+00
 9.50000E+00    1.09854E+00
 1.00000E+01    9.90558E-01
 1.05000E+01    9.04991E-01
 1.10000E+01    8.35196E-01
 1.15000E+01    7.77160E-01
 1.20000E+01    7.28397E-01
 1.25000E+01    6.85341E-01
 1.30000E+01    6.47085E-01
 1.35000E+01    6.11583E-01
 1.40000E+01    5.78737E-01
 1.45000E+01    5.47702E-01
 1.50000E+01    5.18561E-01
 1.55000E+01    4.90931E-01
 1.60000E+01    4.64892E-01
 1.65000E+01    4.40670E-01
 1.70000E+01    4.18022E-01
 1.75000E+01    3.97179E-01
 1.80000E+01    3.77731E-01
 1.85000E+01    3.59832E-01
 1.90000E+01    3.43281E-01
 1.95000E+01    3.27996E-01
 2.00000E+01    3.13765E-01
