# n + Cm244 : (n,n'11)  
# jendl4.0   O.Iwamoto,T.Nakagawa,T.Ohsawa+    EVAL-JAN10
# uncertainties: y
# # energies =    42
#   E(MeV)       xs(mb)       xslow(mb)      xsupp(mb)
 1.11048E+00    0.00000E+00    0.00000E+00    0.00000E+00
 1.30000E+00    7.00033E+01    4.04619E+01    9.95447E+01
 1.60000E+00    7.52905E+01    5.05952E+01    9.99858E+01
 1.80000E+00    5.96984E+01    4.01173E+01    7.92795E+01
 2.00000E+00    4.30308E+01    3.34780E+01    5.25836E+01
 2.30000E+00    2.42792E+01    1.88892E+01    2.96692E+01
 2.50000E+00    1.59493E+01    1.28073E+01    1.90913E+01
 2.70000E+00    1.02672E+01    8.24456E+00    1.22898E+01
 3.00000E+00    5.27516E+00    4.33091E+00    6.21941E+00
 3.50000E+00    1.73195E+00    1.45311E+00    2.01079E+00
 4.00000E+00    6.62504E-01    5.59153E-01    7.65855E-01
 4.50000E+00    3.35796E-01    2.83412E-01    3.88180E-01
 5.00000E+00    2.25315E-01    1.77548E-01    2.73082E-01
 5.50000E+00    1.82576E-01    1.43870E-01    2.21282E-01
 6.00000E+00    1.58418E-01    1.19922E-01    1.96914E-01
 6.50000E+00    1.45803E-01    1.10373E-01    1.81233E-01
 7.00000E+00    1.36650E-01    1.02078E-01    1.71222E-01
 7.50000E+00    1.26275E-01    9.43274E-02    1.58223E-01
 8.00000E+00    1.19266E-01    8.92110E-02    1.49321E-01
 8.50000E+00    1.14025E-01    8.52907E-02    1.42759E-01
 9.00000E+00    1.10079E-01    8.32197E-02    1.36938E-01
 9.50000E+00    1.02956E-01    7.78347E-02    1.28077E-01
 1.00000E+01    9.68551E-02    7.39973E-02    1.19713E-01
 1.05000E+01    9.12517E-02    6.97163E-02    1.12787E-01
 1.10000E+01    8.64115E-02    6.60184E-02    1.06805E-01
 1.15000E+01    8.20980E-02    6.27229E-02    1.01473E-01
 1.20000E+01    7.78814E-02    6.03581E-02    9.54047E-02
 1.25000E+01    7.39886E-02    5.73412E-02    9.06360E-02
 1.30000E+01    7.03872E-02    5.45501E-02    8.62243E-02
 1.35000E+01    6.86326E-02    5.31903E-02    8.40749E-02
 1.40000E+01    6.73236E-02    5.27817E-02    8.18655E-02
 1.45000E+01    6.45757E-02    5.06274E-02    7.85241E-02
 1.50000E+01    6.15835E-02    4.85278E-02    7.46392E-02
 1.55000E+01    5.85378E-02    4.61278E-02    7.09478E-02
 1.60000E+01    5.55327E-02    4.39819E-02    6.70835E-02
 1.65000E+01    5.29322E-02    4.19223E-02    6.39421E-02
 1.70000E+01    5.05361E-02    4.00246E-02    6.10476E-02
 1.75000E+01    4.82640E-02    3.82251E-02    5.83029E-02
 1.80000E+01    4.60657E-02    3.68065E-02    5.53249E-02
 1.85000E+01    4.40947E-02    3.52317E-02    5.29577E-02
 1.95000E+01    4.05628E-02    3.24097E-02    4.87159E-02
 2.00000E+01    3.89775E-02    3.11430E-02    4.68120E-02
