# n + Cm244 : (n,n'08)  
# jendl4.0   O.Iwamoto,T.Nakagawa,T.Ohsawa+    EVAL-JAN10
# uncertainties: y
# # energies =    45
#   E(MeV)       xs(mb)       xslow(mb)      xsupp(mb)
 1.04229E+00    0.00000E+00    0.00000E+00    0.00000E+00
 1.04449E+00    4.31010E+00    2.56451E+00    6.05569E+00
 1.08866E+00    3.65810E+01    2.17657E+01    5.13963E+01
 1.11048E+00    5.02365E+01    2.98907E+01    7.05823E+01
 1.30000E+00    1.08167E+02    6.43594E+01    1.51975E+02
 1.60000E+00    9.75879E+01    6.47008E+01    1.30475E+02
 1.80000E+00    7.45216E+01    4.94078E+01    9.96354E+01
 2.00000E+00    5.32154E+01    3.75169E+01    6.89139E+01
 2.30000E+00    2.98328E+01    2.10321E+01    3.86335E+01
 2.50000E+00    1.94633E+01    1.50646E+01    2.38620E+01
 2.70000E+00    1.23828E+01    9.58429E+00    1.51813E+01
 3.00000E+00    6.12274E+00    5.10024E+00    7.14524E+00
 3.50000E+00    1.87326E+00    1.59414E+00    2.15238E+00
 4.00000E+00    6.55056E-01    5.53522E-01    7.56590E-01
 4.50000E+00    3.00876E-01    2.54240E-01    3.47512E-01
 5.00000E+00    1.87331E-01    1.48928E-01    2.25734E-01
 5.50000E+00    1.45784E-01    1.15898E-01    1.75670E-01
 6.00000E+00    1.24311E-01    9.42277E-02    1.54394E-01
 6.50000E+00    1.13569E-01    8.60853E-02    1.41053E-01
 7.00000E+00    1.05905E-01    7.91110E-02    1.32699E-01
 7.50000E+00    9.79231E-02    7.31486E-02    1.22698E-01
 8.00000E+00    9.21847E-02    6.89542E-02    1.15415E-01
 8.50000E+00    8.81161E-02    6.59108E-02    1.10321E-01
 9.00000E+00    8.51749E-02    6.43922E-02    1.05958E-01
 9.50000E+00    7.92947E-02    5.99468E-02    9.86426E-02
 1.00000E+01    7.46471E-02    5.70304E-02    9.22638E-02
 1.05000E+01    7.03983E-02    5.37843E-02    8.70123E-02
 1.10000E+01    6.66340E-02    5.09084E-02    8.23596E-02
 1.15000E+01    6.30859E-02    4.81976E-02    7.79742E-02
 1.20000E+01    5.98708E-02    4.63999E-02    7.33417E-02
 1.25000E+01    5.69196E-02    4.41127E-02    6.97265E-02
 1.30000E+01    5.41893E-02    4.19967E-02    6.63819E-02
 1.35000E+01    5.28822E-02    4.09837E-02    6.47807E-02
 1.40000E+01    5.17925E-02    4.06053E-02    6.29797E-02
 1.45000E+01    4.95398E-02    3.88392E-02    6.02404E-02
 1.50000E+01    4.72400E-02    3.72251E-02    5.72549E-02
 1.55000E+01    4.49214E-02    3.53981E-02    5.44447E-02
 1.60000E+01    4.26329E-02    3.37653E-02    5.15005E-02
 1.65000E+01    4.06544E-02    3.21983E-02    4.91105E-02
 1.70000E+01    3.88311E-02    3.07542E-02    4.69080E-02
 1.75000E+01    3.71030E-02    2.93856E-02    4.48204E-02
 1.80000E+01    3.54293E-02    2.83080E-02    4.25506E-02
 1.85000E+01    3.39306E-02    2.71106E-02    4.07506E-02
 1.95000E+01    3.12110E-02    2.49376E-02    3.74844E-02
 2.00000E+01    2.98937E-02    2.38851E-02    3.59023E-02
