# n + Os187 : (n,n'12)  
# endfb8.0   N.Iwamoto                         EVAL-Jan10
# uncertainties: n
# # energies =    80
#   E(MeV)       xs(mb) 
 3.51888E-01    0.00000E+00
 4.00000E-01    3.31594E+01
 4.21261E-01    3.83369E+01
 4.44385E-01    4.34006E+01
 4.47441E-01    4.38465E+01
 4.61979E-01    4.50253E+01
 4.66503E-01    4.57133E+01
 5.00000E-01    5.11033E+01
 5.04155E-01    5.18521E+01
 5.10962E-01    5.28260E+01
 5.14360E-01    5.33243E+01
 5.39455E-01    5.72579E+01
 5.59905E-01    6.00934E+01
 5.89473E-01    6.45317E+01
 5.99668E-01    6.49596E+01
 6.00000E-01    6.49138E+01
 6.14296E-01    6.59884E+01
 6.21334E-01    6.63165E+01
 6.45333E-01    6.80727E+01
 6.67713E-01    6.83205E+01
 6.73615E-01    6.83581E+01
 6.87690E-01    6.90089E+01
 6.88193E-01    6.90351E+01
 7.00000E-01    6.96992E+01
 7.15067E-01    7.06771E+01
 7.29656E-01    7.07129E+01
 7.31023E-01    7.06276E+01
 7.49019E-01    7.13175E+01
 7.61084E-01    7.11573E+01
 8.00000E-01    7.12322E+01
 9.00000E-01    7.08697E+01
 1.00000E+00    6.78189E+01
 1.10000E+00    6.14910E+01
 1.20000E+00    5.57661E+01
 1.30000E+00    5.05387E+01
 1.40000E+00    4.53432E+01
 1.50000E+00    4.01668E+01
 1.60000E+00    3.54321E+01
 1.70000E+00    3.11646E+01
 1.80000E+00    2.73416E+01
 1.90000E+00    2.39335E+01
 2.00000E+00    2.09129E+01
 2.25000E+00    1.50764E+01
 2.50000E+00    1.04258E+01
 2.75000E+00    7.32993E+00
 3.00000E+00    5.14927E+00
 3.50000E+00    2.49107E+00
 4.00000E+00    1.22288E+00
 4.50000E+00    6.33230E-01
 5.00000E+00    3.63111E-01
 5.50000E+00    2.38288E-01
 6.00000E+00    1.78678E-01
 6.50000E+00    1.47979E-01
 7.00000E+00    1.30520E-01
 7.50000E+00    1.19243E-01
 8.00000E+00    1.11165E-01
 8.50000E+00    1.04859E-01
 9.00000E+00    9.95459E-02
 9.50000E+00    9.47388E-02
 1.00000E+01    9.01791E-02
 1.05000E+01    8.57575E-02
 1.10000E+01    8.14812E-02
 1.15000E+01    7.73727E-02
 1.20000E+01    7.34690E-02
 1.25000E+01    6.97997E-02
 1.30000E+01    6.63826E-02
 1.35000E+01    6.32204E-02
 1.40000E+01    6.03046E-02
 1.45000E+01    5.76177E-02
 1.50000E+01    5.51345E-02
 1.55000E+01    5.28288E-02
 1.60000E+01    5.06737E-02
 1.65000E+01    4.86452E-02
 1.70000E+01    4.67186E-02
 1.75000E+01    4.48752E-02
 1.80000E+01    4.31157E-02
 1.85000E+01    4.14366E-02
 1.90000E+01    3.98506E-02
 1.95000E+01    3.83516E-02
 2.00000E+01    3.69380E-02
