# n + Os187 : (n,n'03)  
# endfb8.0   N.Iwamoto                         EVAL-Jan10
# uncertainties: n
# # energies =   106
#   E(MeV)       xs(mb) 
 7.54449E-02    0.00000E+00
 8.00000E-02    3.12203E+01
 9.00000E-02    5.41454E+01
 1.00000E-01    7.61634E+01
 1.01092E-01    7.85008E+01
 1.10000E-01    8.94094E+01
 1.17631E-01    1.03129E+02
 1.20000E-01    1.02517E+02
 1.30000E-01    1.16483E+02
 1.40000E-01    1.31762E+02
 1.50000E-01    1.47023E+02
 1.60000E-01    1.62266E+02
 1.70000E-01    1.76510E+02
 1.80000E-01    1.90420E+02
 1.88411E-01    2.01807E+02
 1.90000E-01    1.97382E+02
 1.91628E-01    1.97865E+02
 2.00000E-01    2.01444E+02
 2.25000E-01    2.32912E+02
 2.50000E-01    2.65978E+02
 2.58558E-01    2.75939E+02
 2.64721E-01    2.83031E+02
 2.75000E-01    2.94810E+02
 3.00000E-01    3.23085E+02
 3.35058E-01    3.60315E+02
 3.43342E-01    3.64575E+02
 3.51888E-01    3.71407E+02
 4.00000E-01    4.06616E+02
 4.21261E-01    4.19011E+02
 4.44385E-01    4.32303E+02
 4.47441E-01    4.29068E+02
 4.61979E-01    4.30229E+02
 4.66503E-01    4.31747E+02
 5.00000E-01    4.29711E+02
 5.04155E-01    4.30466E+02
 5.10962E-01    4.26646E+02
 5.14360E-01    4.26505E+02
 5.39455E-01    4.29464E+02
 5.59905E-01    4.27225E+02
 5.89473E-01    4.31651E+02
 5.99668E-01    4.30028E+02
 6.00000E-01    4.29270E+02
 6.14296E-01    4.27816E+02
 6.21334E-01    4.25685E+02
 6.45333E-01    4.23855E+02
 6.67713E-01    4.18554E+02
 6.73615E-01    4.16068E+02
 6.87690E-01    4.13798E+02
 6.88193E-01    4.13736E+02
 7.00000E-01    4.12553E+02
 7.15067E-01    4.10698E+02
 7.29656E-01    4.06398E+02
 7.31023E-01    4.05398E+02
 7.49019E-01    4.01135E+02
 7.61084E-01    3.97688E+02
 8.00000E-01    3.92102E+02
 9.00000E-01    3.81353E+02
 1.00000E+00    3.72327E+02
 1.10000E+00    3.58177E+02
 1.20000E+00    3.44164E+02
 1.30000E+00    3.31466E+02
 1.40000E+00    3.19969E+02
 1.50000E+00    3.09521E+02
 1.60000E+00    3.00016E+02
 1.70000E+00    2.91365E+02
 1.80000E+00    2.83448E+02
 1.90000E+00    2.76179E+02
 2.00000E+00    2.69502E+02
 2.25000E+00    2.55405E+02
 2.50000E+00    2.43446E+02
 2.75000E+00    2.34283E+02
 3.00000E+00    2.26942E+02
 3.50000E+00    2.17563E+02
 4.00000E+00    2.12082E+02
 4.50000E+00    2.07358E+02
 5.00000E+00    2.01780E+02
 5.50000E+00    1.94937E+02
 6.00000E+00    1.87175E+02
 6.50000E+00    1.78796E+02
 7.00000E+00    1.70318E+02
 7.50000E+00    1.62334E+02
 8.00000E+00    1.55246E+02
 8.50000E+00    1.49304E+02
 9.00000E+00    1.44312E+02
 9.50000E+00    1.40061E+02
 1.00000E+01    1.36200E+02
 1.05000E+01    1.32512E+02
 1.10000E+01    1.28846E+02
 1.15000E+01    1.25146E+02
 1.20000E+01    1.21418E+02
 1.25000E+01    1.17708E+02
 1.30000E+01    1.14071E+02
 1.35000E+01    1.10556E+02
 1.40000E+01    1.07198E+02
 1.45000E+01    1.04015E+02
 1.50000E+01    1.01011E+02
 1.55000E+01    9.81779E+01
 1.60000E+01    9.54995E+01
 1.65000E+01    9.29576E+01
 1.70000E+01    9.05327E+01
 1.75000E+01    8.82086E+01
 1.80000E+01    8.59732E+01
 1.85000E+01    8.38205E+01
 1.90000E+01    8.17505E+01
 1.95000E+01    7.97676E+01
 2.00000E+01    7.78786E+01
