# n + Os187 : (n,d)     
# endfb8.0   N.Iwamoto                         EVAL-Jan10
# uncertainties: n
# # energies =    57
#   E(MeV)       xs(mb) 
 4.37588E+00    0.00000E+00
 4.43521E+00    7.40970E-27
 4.47577E+00    1.30270E-26
 4.52294E+00    1.96860E-26
 4.52568E+00    1.14730E-22
 4.55074E+00    1.62110E-21
 4.56288E+00    2.58860E-21
 4.58771E+00    4.89110E-21
 4.64613E+00    1.08590E-20
 4.65098E+00    1.13640E-20
 4.69158E+00    1.56470E-20
 4.69405E+00    1.59080E-20
 4.69544E+00    1.60550E-20
 4.70000E+00    1.65380E-20
 4.70766E+00    1.73490E-20
 4.71972E+00    1.86260E-20
 4.72897E+00    1.96070E-20
 4.75631E+00    2.25070E-20
 4.79592E+00    2.67110E-20
 4.79871E+00    2.70070E-20
 4.80400E+00    2.75690E-20
 4.84134E+00    3.15320E-20
 4.84819E+00    3.22600E-20
 4.84893E+00    3.23380E-20
 4.84942E+00    3.23900E-20
 4.87585E+00    3.51960E-20
 4.87930E+00    3.55620E-20
 5.50000E+00    1.01450E-19
 6.00000E+00    9.64340E-19
 6.50000E+00    1.86830E-14
 7.00000E+00    1.82870E-11
 7.50000E+00    2.79680E-09
 8.00000E+00    1.15960E-07
 8.50000E+00    2.28687E-06
 9.00000E+00    2.48526E-05
 9.50000E+00    1.73813E-04
 1.00000E+01    8.70278E-04
 1.05000E+01    3.36391E-03
 1.10000E+01    1.05925E-02
 1.15000E+01    2.82236E-02
 1.20000E+01    6.53656E-02
 1.25000E+01    1.34145E-01
 1.30000E+01    2.47658E-01
 1.35000E+01    4.16896E-01
 1.40000E+01    6.48258E-01
 1.45000E+01    9.42905E-01
 1.50000E+01    1.29765E+00
 1.55000E+01    1.70653E+00
 1.60000E+01    2.16221E+00
 1.65000E+01    2.58505E+00
 1.70000E+01    3.10514E+00
 1.75000E+01    3.64884E+00
 1.80000E+01    4.20748E+00
 1.85000E+01    4.77152E+00
 1.90000E+01    5.33025E+00
 1.95000E+01    5.87290E+00
 2.00000E+01    6.38966E+00
