# n + Os187 : (n,n'24)  
# endfb8.0   N.Iwamoto                         EVAL-Jan10
# uncertainties: n
# # energies =    66
#   E(MeV)       xs(mb) 
 5.99668E-01    0.00000E+00
 6.00000E-01    1.00943E+01
 6.14296E-01    5.31273E+01
 6.21334E-01    5.98159E+01
 6.45333E-01    7.54527E+01
 6.67713E-01    8.37753E+01
 6.73615E-01    8.41945E+01
 6.87690E-01    8.73469E+01
 6.88193E-01    8.74627E+01
 7.00000E-01    9.01485E+01
 7.15067E-01    9.29816E+01
 7.29656E-01    9.50514E+01
 7.31023E-01    9.46618E+01
 7.49019E-01    9.63673E+01
 7.61084E-01    9.64740E+01
 8.00000E-01    9.95391E+01
 9.00000E-01    1.03303E+02
 1.00000E+00    1.00548E+02
 1.10000E+00    9.19195E+01
 1.20000E+00    8.36811E+01
 1.30000E+00    7.35484E+01
 1.40000E+00    6.37097E+01
 1.50000E+00    5.51785E+01
 1.60000E+00    4.78158E+01
 1.70000E+00    4.07885E+01
 1.80000E+00    3.47055E+01
 1.90000E+00    2.94776E+01
 2.00000E+00    2.50124E+01
 2.25000E+00    1.68307E+01
 2.50000E+00    1.09566E+01
 2.75000E+00    7.30660E+00
 3.00000E+00    4.81398E+00
 3.50000E+00    2.12618E+00
 4.00000E+00    9.56974E-01
 4.50000E+00    4.53439E-01
 5.00000E+00    2.37183E-01
 5.50000E+00    1.43089E-01
 6.00000E+00    1.00800E-01
 6.50000E+00    8.04501E-02
 7.00000E+00    6.96958E-02
 7.50000E+00    6.31813E-02
 8.00000E+00    5.87134E-02
 8.50000E+00    5.53223E-02
 9.00000E+00    5.25271E-02
 9.50000E+00    5.00425E-02
 1.00000E+01    4.77114E-02
 1.05000E+01    4.54570E-02
 1.10000E+01    4.32600E-02
 1.15000E+01    4.11399E-02
 1.20000E+01    3.91131E-02
 1.25000E+01    3.71976E-02
 1.30000E+01    3.54057E-02
 1.35000E+01    3.37414E-02
 1.40000E+01    3.22030E-02
 1.45000E+01    3.07830E-02
 1.50000E+01    2.94696E-02
 1.55000E+01    2.82501E-02
 1.60000E+01    2.71105E-02
 1.65000E+01    2.60383E-02
 1.70000E+01    2.50201E-02
 1.75000E+01    2.40457E-02
 1.80000E+01    2.31149E-02
 1.85000E+01    2.22257E-02
 1.90000E+01    2.13845E-02
 1.95000E+01    2.05876E-02
 2.00000E+01    1.98340E-02
