# n + Os187 : (n,n'02)  
# endfb8.0   N.Iwamoto                         EVAL-Jan10
# uncertainties: n
# # energies =   107
#   E(MeV)       xs(mb) 
 7.47310E-02    0.00000E+00
 7.54449E-02    1.94735E+02
 8.00000E-02    3.93172E+02
 9.00000E-02    5.12874E+02
 1.00000E-01    5.59677E+02
 1.01092E-01    5.62505E+02
 1.10000E-01    5.79973E+02
 1.17631E-01    5.89457E+02
 1.20000E-01    5.86483E+02
 1.30000E-01    5.89134E+02
 1.40000E-01    5.91380E+02
 1.50000E-01    5.92135E+02
 1.60000E-01    5.93135E+02
 1.70000E-01    5.92288E+02
 1.80000E-01    5.91223E+02
 1.88411E-01    5.90205E+02
 1.90000E-01    5.86914E+02
 1.91628E-01    5.85657E+02
 2.00000E-01    5.81591E+02
 2.25000E-01    5.76168E+02
 2.50000E-01    5.72474E+02
 2.58558E-01    5.69994E+02
 2.64721E-01    5.68381E+02
 2.75000E-01    5.66125E+02
 3.00000E-01    5.62073E+02
 3.35058E-01    5.57159E+02
 3.43342E-01    5.54601E+02
 3.51888E-01    5.52539E+02
 4.00000E-01    5.43169E+02
 4.21261E-01    5.37166E+02
 4.44385E-01    5.31370E+02
 4.47441E-01    5.22900E+02
 4.61979E-01    5.11868E+02
 4.66503E-01    5.09611E+02
 5.00000E-01    4.68899E+02
 5.04155E-01    4.66135E+02
 5.10962E-01    4.51740E+02
 5.14360E-01    4.48094E+02
 5.39455E-01    4.29650E+02
 5.59905E-01    4.07072E+02
 5.89473E-01    3.90551E+02
 5.99668E-01    3.83194E+02
 6.00000E-01    3.81616E+02
 6.14296E-01    3.68973E+02
 6.21334E-01    3.60150E+02
 6.45333E-01    3.44824E+02
 6.67713E-01    3.31088E+02
 6.73615E-01    3.24992E+02
 6.87690E-01    3.16621E+02
 6.88193E-01    3.16355E+02
 7.00000E-01    3.10502E+02
 7.15067E-01    3.02832E+02
 7.29656E-01    2.93774E+02
 7.31023E-01    2.91814E+02
 7.49019E-01    2.80382E+02
 7.61084E-01    2.71570E+02
 8.00000E-01    2.52761E+02
 9.00000E-01    2.11893E+02
 1.00000E+00    1.76224E+02
 1.10000E+00    1.47134E+02
 1.20000E+00    1.22237E+02
 1.30000E+00    1.01737E+02
 1.40000E+00    8.48150E+01
 1.50000E+00    7.07942E+01
 1.60000E+00    5.91751E+01
 1.70000E+00    4.95611E+01
 1.80000E+00    4.15740E+01
 1.90000E+00    3.49166E+01
 2.00000E+00    2.93599E+01
 2.25000E+00    1.94281E+01
 2.50000E+00    1.24779E+01
 2.75000E+00    8.22097E+00
 3.00000E+00    5.28285E+00
 3.50000E+00    2.25007E+00
 4.00000E+00    9.63249E-01
 4.50000E+00    4.20132E-01
 5.00000E+00    1.91633E-01
 5.50000E+00    9.52240E-02
 6.00000E+00    5.40135E-02
 6.50000E+00    3.59057E-02
 7.00000E+00    2.76255E-02
 7.50000E+00    2.34896E-02
 8.00000E+00    2.11492E-02
 8.50000E+00    1.96169E-02
 9.00000E+00    1.84606E-02
 9.50000E+00    1.74780E-02
 1.00000E+01    1.65789E-02
 1.05000E+01    1.57252E-02
 1.10000E+01    1.49106E-02
 1.15000E+01    1.41360E-02
 1.20000E+01    1.34059E-02
 1.25000E+01    1.27239E-02
 1.30000E+01    1.20919E-02
 1.35000E+01    1.15090E-02
 1.40000E+01    1.09729E-02
 1.45000E+01    1.04795E-02
 1.50000E+01    1.00239E-02
 1.55000E+01    9.60077E-03
 1.60000E+01    9.20517E-03
 1.65000E+01    8.83274E-03
 1.70000E+01    8.47890E-03
 1.75000E+01    8.14053E-03
 1.80000E+01    7.81782E-03
 1.85000E+01    7.51025E-03
 1.90000E+01    7.26560E-03
 1.95000E+01    7.03845E-03
 2.00000E+01    6.81094E-03
