# n + Os187 : (n,n'20)  
# endfb8.0   N.Iwamoto                         EVAL-Jan10
# uncertainties: n
# # energies =    70
#   E(MeV)       xs(mb) 
 5.14360E-01    0.00000E+00
 5.39455E-01    1.21116E-01
 5.59905E-01    2.29812E-01
 5.89473E-01    4.34964E-01
 5.99668E-01    5.20768E-01
 6.00000E-01    5.23798E-01
 6.14296E-01    6.64762E-01
 6.21334E-01    7.39048E-01
 6.45333E-01    1.02176E+00
 6.67713E-01    1.30391E+00
 6.73615E-01    1.38646E+00
 6.87690E-01    1.58132E+00
 6.88193E-01    1.58694E+00
 7.00000E-01    1.75482E+00
 7.15067E-01    1.98514E+00
 7.29656E-01    2.19280E+00
 7.31023E-01    2.21415E+00
 7.49019E-01    2.50848E+00
 7.61084E-01    2.71872E+00
 8.00000E-01    3.29569E+00
 9.00000E-01    4.81522E+00
 1.00000E+00    5.72664E+00
 1.10000E+00    6.35870E+00
 1.20000E+00    6.61745E+00
 1.30000E+00    6.61053E+00
 1.40000E+00    6.56995E+00
 1.50000E+00    6.50631E+00
 1.60000E+00    6.30731E+00
 1.70000E+00    6.05579E+00
 1.80000E+00    5.77365E+00
 1.90000E+00    5.46675E+00
 2.00000E+00    5.14263E+00
 2.25000E+00    4.36651E+00
 2.50000E+00    3.47207E+00
 2.75000E+00    2.74649E+00
 3.00000E+00    2.15668E+00
 3.50000E+00    1.22689E+00
 4.00000E+00    6.75090E-01
 4.50000E+00    3.73512E-01
 5.00000E+00    2.17950E-01
 5.50000E+00    1.40098E-01
 6.00000E+00    1.01246E-01
 6.50000E+00    8.11466E-02
 7.00000E+00    7.00649E-02
 7.50000E+00    6.32623E-02
 8.00000E+00    5.86197E-02
 8.50000E+00    5.51337E-02
 9.00000E+00    5.22842E-02
 9.50000E+00    4.97639E-02
 1.00000E+01    4.74066E-02
 1.05000E+01    4.51329E-02
 1.10000E+01    4.29260E-02
 1.15000E+01    4.08000E-02
 1.20000E+01    3.87726E-02
 1.25000E+01    3.68606E-02
 1.30000E+01    3.50749E-02
 1.35000E+01    3.34187E-02
 1.40000E+01    3.18893E-02
 1.45000E+01    3.04786E-02
 1.50000E+01    2.91744E-02
 1.55000E+01    2.79635E-02
 1.60000E+01    2.68318E-02
 1.65000E+01    2.57668E-02
 1.70000E+01    2.47540E-02
 1.75000E+01    2.37847E-02
 1.80000E+01    2.28591E-02
 1.85000E+01    2.19751E-02
 1.90000E+01    2.11393E-02
 1.95000E+01    2.03483E-02
 2.00000E+01    1.96014E-02
