# n + Ba133 : (n,n'18)  
# tendl.2019 A.J. Koning and D. Rochman        EVAL-NOV19
# uncertainties: n
# # energies =    77
#   E(MeV)       xs(mb) 
 1.02934E+00    0.00000E+00
 1.07490E+00    1.49415E+01
 1.11963E+00    2.96108E+01
 1.12079E+00    2.99912E+01
 1.20000E+00    5.59683E+01
 1.22099E+00    5.69494E+01
 1.25717E+00    5.86406E+01
 1.28095E+00    5.97522E+01
 1.29370E+00    6.03481E+01
 1.33941E+00    6.24847E+01
 1.35131E+00    6.30410E+01
 1.36303E+00    6.35888E+01
 1.38609E+00    6.46667E+01
 1.40000E+00    6.53169E+01
 1.51290E+00    6.64953E+01
 1.60000E+00    6.74044E+01
 1.80000E+00    6.13976E+01
 2.00000E+00    5.16621E+01
 2.20000E+00    4.17164E+01
 2.40000E+00    3.21259E+01
 2.60000E+00    2.40690E+01
 2.80000E+00    1.77192E+01
 3.00000E+00    1.29324E+01
 3.20000E+00    9.42734E+00
 3.40000E+00    6.89507E+00
 3.60000E+00    5.07187E+00
 3.80000E+00    3.75411E+00
 4.00000E+00    2.79358E+00
 4.20000E+00    2.08747E+00
 4.40000E+00    1.56436E+00
 4.60000E+00    1.17463E+00
 4.80000E+00    8.83192E-01
 5.00000E+00    6.64733E-01
 5.20000E+00    5.00677E-01
 5.40000E+00    3.77524E-01
 5.60000E+00    2.85224E-01
 5.80000E+00    2.15486E-01
 6.00000E+00    1.63492E-01
 6.20000E+00    1.24117E-01
 6.40000E+00    9.42129E-02
 6.60000E+00    7.19012E-02
 6.80000E+00    5.49921E-02
 7.00000E+00    4.23085E-02
 7.20000E+00    3.26230E-02
 7.40000E+00    2.52549E-02
 7.60000E+00    1.96289E-02
 7.80000E+00    1.52763E-02
 8.00000E+00    1.19502E-02
 8.50000E+00    6.52154E-03
 9.00000E+00    3.60824E-03
 9.50000E+00    2.02061E-03
 1.00000E+01    1.14400E-03
 1.05000E+01    6.54323E-04
 1.10000E+01    3.77916E-04
 1.15000E+01    2.20357E-04
 1.20000E+01    1.29694E-04
 1.25000E+01    7.70299E-05
 1.30000E+01    4.61633E-05
 1.35000E+01    2.79091E-05
 1.40000E+01    1.70168E-05
 1.45000E+01    1.04583E-05
 1.50000E+01    6.47574E-06
 1.60000E+01    2.53160E-06
 1.70000E+01    1.01431E-06
 1.80000E+01    4.16270E-07
 1.90000E+01    1.74920E-07
 2.00000E+01    7.45360E-08
 2.10000E+01    3.25270E-08
 2.20000E+01    1.44130E-08
 2.30000E+01    6.48220E-09
 2.40000E+01    2.95870E-09
 2.50000E+01    1.37140E-09
 2.60000E+01    6.45680E-10
 2.70000E+01    3.08300E-10
 2.80000E+01    1.49200E-10
 2.90000E+01    7.30690E-11
 3.00000E+01    3.61700E-11
