# n + Ge 74 : (n,n'11)  
# jeff3.3    A.J. Koning and D. Rochman        EVAL-DEC15
# uncertainties: n
# # energies =    78
#   E(MeV)       xs(mb) 
 2.25817E+00    0.00000E+00
 2.33138E+00    1.21701E+01
 2.40000E+00    2.35772E+01
 2.43630E+00    2.57611E+01
 2.52398E+00    3.10360E+01
 2.57092E+00    3.38600E+01
 2.60000E+00    3.56095E+01
 2.60439E+00    3.56371E+01
 2.60710E+00    3.56541E+01
 2.63580E+00    3.58343E+01
 2.70605E+00    3.62755E+01
 2.72731E+00    3.64090E+01
 2.73044E+00    3.64287E+01
 2.73372E+00    3.64493E+01
 2.74799E+00    3.65389E+01
 2.78814E+00    3.67910E+01
 2.80000E+00    3.68655E+01
 2.86710E+00    3.52042E+01
 2.87207E+00    3.50812E+01
 2.87462E+00    3.50181E+01
 2.88078E+00    3.48656E+01
 2.89501E+00    3.45132E+01
 2.91741E+00    3.39587E+01
 3.00000E+00    3.19139E+01
 3.20000E+00    2.60343E+01
 3.40000E+00    2.11514E+01
 3.60000E+00    1.70308E+01
 3.80000E+00    1.36188E+01
 4.00000E+00    1.08211E+01
 4.20000E+00    8.66068E+00
 4.40000E+00    6.96281E+00
 4.60000E+00    5.61617E+00
 4.80000E+00    4.53768E+00
 5.00000E+00    3.66788E+00
 5.20000E+00    2.96084E+00
 5.40000E+00    2.38477E+00
 5.60000E+00    1.91580E+00
 5.80000E+00    1.53505E+00
 6.00000E+00    1.22721E+00
 6.20000E+00    9.79497E-01
 6.40000E+00    7.81172E-01
 6.60000E+00    6.23116E-01
 6.80000E+00    4.97228E-01
 7.00000E+00    3.97755E-01
 7.20000E+00    3.18341E-01
 7.40000E+00    2.55846E-01
 7.60000E+00    2.05133E-01
 7.80000E+00    1.64967E-01
 8.00000E+00    1.33398E-01
 8.50000E+00    7.95270E-02
 9.00000E+00    4.85093E-02
 9.50000E+00    3.01835E-02
 1.00000E+01    1.91090E-02
 1.05000E+01    1.22763E-02
 1.10000E+01    7.97379E-03
 1.15000E+01    5.22318E-03
 1.20000E+01    3.44782E-03
 1.25000E+01    2.29259E-03
 1.30000E+01    1.53526E-03
 1.35000E+01    1.03510E-03
 1.40000E+01    7.03117E-04
 1.45000E+01    4.81221E-04
 1.50000E+01    3.31642E-04
 1.60000E+01    1.60412E-04
 1.70000E+01    7.90095E-05
 1.80000E+01    3.94517E-05
 1.90000E+01    1.99961E-05
 2.00000E+01    1.02902E-05
 2.10000E+01    5.39605E-06
 2.20000E+01    2.87284E-06
 2.30000E+01    1.55336E-06
 2.40000E+01    8.44920E-07
 2.50000E+01    4.68140E-07
 2.60000E+01    2.61690E-07
 2.70000E+01    1.47370E-07
 2.80000E+01    8.36920E-08
 2.90000E+01    4.78680E-08
 3.00000E+01    2.75690E-08
