# n + Ge 74 : (n,n'13)  
# jeff3.3    A.J. Koning and D. Rochman        EVAL-DEC15
# uncertainties: n
# # energies =    75
#   E(MeV)       xs(mb) 
 2.43630E+00    0.00000E+00
 2.52398E+00    2.59335E+01
 2.57092E+00    3.98172E+01
 2.60000E+00    4.84183E+01
 2.60439E+00    4.88729E+01
 2.60710E+00    4.91536E+01
 2.63580E+00    5.21255E+01
 2.70605E+00    5.94002E+01
 2.72731E+00    6.16018E+01
 2.73044E+00    6.19259E+01
 2.73372E+00    6.22656E+01
 2.74799E+00    6.37432E+01
 2.78814E+00    6.79010E+01
 2.80000E+00    6.91291E+01
 2.86710E+00    6.91384E+01
 2.87207E+00    6.91391E+01
 2.87462E+00    6.91394E+01
 2.88078E+00    6.91403E+01
 2.89501E+00    6.91423E+01
 2.91741E+00    6.91454E+01
 3.00000E+00    6.91568E+01
 3.20000E+00    5.99007E+01
 3.40000E+00    4.96799E+01
 3.60000E+00    4.07263E+01
 3.80000E+00    3.28155E+01
 4.00000E+00    2.61339E+01
 4.20000E+00    2.06794E+01
 4.40000E+00    1.64102E+01
 4.60000E+00    1.30536E+01
 4.80000E+00    1.04184E+01
 5.00000E+00    8.35300E+00
 5.20000E+00    6.72860E+00
 5.40000E+00    5.44794E+00
 5.60000E+00    4.43546E+00
 5.80000E+00    3.63232E+00
 6.00000E+00    2.99328E+00
 6.20000E+00    2.48348E+00
 6.40000E+00    2.07597E+00
 6.60000E+00    1.74989E+00
 6.80000E+00    1.48838E+00
 7.00000E+00    1.27855E+00
 7.20000E+00    1.10911E+00
 7.40000E+00    9.73601E-01
 7.60000E+00    8.61217E-01
 7.80000E+00    7.70829E-01
 8.00000E+00    6.98231E-01
 8.50000E+00    5.70207E-01
 9.00000E+00    4.92306E-01
 9.50000E+00    4.43585E-01
 1.00000E+01    4.12667E-01
 1.05000E+01    3.93204E-01
 1.10000E+01    3.81537E-01
 1.15000E+01    3.75447E-01
 1.20000E+01    3.73402E-01
 1.25000E+01    3.74188E-01
 1.30000E+01    3.76836E-01
 1.35000E+01    3.80608E-01
 1.40000E+01    3.85016E-01
 1.45000E+01    3.89775E-01
 1.50000E+01    3.94762E-01
 1.60000E+01    4.05266E-01
 1.70000E+01    4.16139E-01
 1.80000E+01    4.26583E-01
 1.90000E+01    4.35992E-01
 2.00000E+01    4.44391E-01
 2.10000E+01    4.52108E-01
 2.20000E+01    4.59391E-01
 2.30000E+01    4.66313E-01
 2.40000E+01    4.72838E-01
 2.50000E+01    4.78880E-01
 2.60000E+01    4.84299E-01
 2.70000E+01    4.88913E-01
 2.80000E+01    4.92515E-01
 2.90000E+01    4.94941E-01
 3.00000E+01    4.96110E-01
