# n + Ge 74 : (n,n'06)  
# jeff3.3    A.J. Koning and D. Rochman        EVAL-DEC15
# uncertainties: n
# # energies =    86
#   E(MeV)       xs(mb) 
 1.74849E+00    0.00000E+00
 1.80000E+00    2.79009E+01
 1.93910E+00    5.85212E+01
 2.00000E+00    7.19272E+01
 2.19454E+00    8.55323E+01
 2.20000E+00    8.59141E+01
 2.21136E+00    8.52978E+01
 2.22792E+00    8.43994E+01
 2.25817E+00    8.27582E+01
 2.33138E+00    7.87863E+01
 2.40000E+00    7.50634E+01
 2.43630E+00    7.26100E+01
 2.52398E+00    6.66839E+01
 2.57092E+00    6.35113E+01
 2.60000E+00    6.15459E+01
 2.60439E+00    6.13155E+01
 2.60710E+00    6.11733E+01
 2.63580E+00    5.96670E+01
 2.70605E+00    5.59799E+01
 2.72731E+00    5.48641E+01
 2.73044E+00    5.46998E+01
 2.73372E+00    5.45277E+01
 2.74799E+00    5.37787E+01
 2.78814E+00    5.16715E+01
 2.80000E+00    5.10490E+01
 2.86710E+00    4.77175E+01
 2.87207E+00    4.74708E+01
 2.87462E+00    4.73442E+01
 2.88078E+00    4.70383E+01
 2.89501E+00    4.63318E+01
 2.91741E+00    4.52197E+01
 3.00000E+00    4.11192E+01
 3.20000E+00    3.25425E+01
 3.40000E+00    2.57059E+01
 3.60000E+00    2.05007E+01
 3.80000E+00    1.64135E+01
 4.00000E+00    1.31679E+01
 4.20000E+00    1.05702E+01
 4.40000E+00    8.48227E+00
 4.60000E+00    6.79522E+00
 4.80000E+00    5.42824E+00
 5.00000E+00    4.32301E+00
 5.20000E+00    3.43083E+00
 5.40000E+00    2.71451E+00
 5.60000E+00    2.14296E+00
 5.80000E+00    1.68945E+00
 6.00000E+00    1.33161E+00
 6.20000E+00    1.04988E+00
 6.40000E+00    8.28850E-01
 6.60000E+00    6.55933E-01
 6.80000E+00    5.20101E-01
 7.00000E+00    4.14098E-01
 7.20000E+00    3.30324E-01
 7.40000E+00    2.64887E-01
 7.60000E+00    2.12045E-01
 7.80000E+00    1.70387E-01
 8.00000E+00    1.37711E-01
 8.50000E+00    8.20949E-02
 9.00000E+00    5.01034E-02
 9.50000E+00    3.11916E-02
 1.00000E+01    1.97526E-02
 1.05000E+01    1.26881E-02
 1.10000E+01    8.23547E-03
 1.15000E+01    5.38736E-03
 1.20000E+01    3.54977E-03
 1.25000E+01    2.35594E-03
 1.30000E+01    1.57531E-03
 1.35000E+01    1.06122E-03
 1.40000E+01    7.20763E-04
 1.45000E+01    4.93423E-04
 1.50000E+01    3.40117E-04
 1.60000E+01    1.64314E-04
 1.70000E+01    8.06633E-05
 1.80000E+01    4.01412E-05
 1.90000E+01    2.03046E-05
 2.00000E+01    1.04419E-05
 2.10000E+01    5.47529E-06
 2.20000E+01    2.91496E-06
 2.30000E+01    1.57570E-06
 2.40000E+01    8.56550E-07
 2.50000E+01    4.74160E-07
 2.60000E+01    2.64770E-07
 2.70000E+01    1.48930E-07
 2.80000E+01    8.44840E-08
 2.90000E+01    4.82780E-08
 3.00000E+01    2.77880E-08
