# n + Cm244 : (n,n'08)  
# endfb8.0   O.Iwamoto,T.Nakagawa,T.Ohsawa+    EVAL-JAN10
# uncertainties: y
# # energies =    45
#   E(MeV)       xs(mb)       xslow(mb)      xsupp(mb)
 1.04229E+00    0.00000E+00    0.00000E+00    0.00000E+00
 1.04449E+00    4.31010E+00    2.56450E+00    6.05570E+00
 1.08866E+00    3.65810E+01    2.17656E+01    5.13964E+01
 1.11048E+00    5.02365E+01    2.98906E+01    7.05824E+01
 1.30000E+00    1.08167E+02    6.43592E+01    1.51975E+02
 1.60000E+00    9.75879E+01    6.47001E+01    1.30476E+02
 1.80000E+00    7.45216E+01    4.94073E+01    9.96359E+01
 2.00000E+00    5.32154E+01    3.75168E+01    6.89140E+01
 2.30000E+00    2.98328E+01    2.10321E+01    3.86335E+01
 2.50000E+00    1.94633E+01    1.50645E+01    2.38621E+01
 2.70000E+00    1.23828E+01    9.58421E+00    1.51814E+01
 3.00000E+00    6.12274E+00    5.10021E+00    7.14527E+00
 3.50000E+00    1.87326E+00    1.59413E+00    2.15239E+00
 4.00000E+00    6.55056E-01    5.53521E-01    7.56591E-01
 4.50000E+00    3.00876E-01    2.54240E-01    3.47512E-01
 5.00000E+00    1.87331E-01    1.48927E-01    2.25735E-01
 5.50000E+00    1.45784E-01    1.15898E-01    1.75670E-01
 6.00000E+00    1.24311E-01    9.42270E-02    1.54395E-01
 6.50000E+00    1.13569E-01    8.60846E-02    1.41053E-01
 7.00000E+00    1.05905E-01    7.91103E-02    1.32700E-01
 7.50000E+00    9.79231E-02    7.31479E-02    1.22698E-01
 8.00000E+00    9.21847E-02    6.89536E-02    1.15416E-01
 8.50000E+00    8.81161E-02    6.59104E-02    1.10322E-01
 9.00000E+00    8.51749E-02    6.43915E-02    1.05958E-01
 9.50000E+00    7.92947E-02    5.99461E-02    9.86433E-02
 1.00000E+01    7.46471E-02    5.70290E-02    9.22652E-02
 1.05000E+01    7.03983E-02    5.37830E-02    8.70136E-02
 1.10000E+01    6.66340E-02    5.09072E-02    8.23608E-02
 1.15000E+01    6.30859E-02    4.81965E-02    7.79753E-02
 1.20000E+01    5.98708E-02    4.63984E-02    7.33432E-02
 1.25000E+01    5.69196E-02    4.41113E-02    6.97279E-02
 1.30000E+01    5.41893E-02    4.19953E-02    6.63833E-02
 1.35000E+01    5.28822E-02    4.09824E-02    6.47820E-02
 1.40000E+01    5.17925E-02    4.06049E-02    6.29801E-02
 1.45000E+01    4.95398E-02    3.88388E-02    6.02408E-02
 1.50000E+01    4.72400E-02    3.72247E-02    5.72553E-02
 1.55000E+01    4.49214E-02    3.53977E-02    5.44451E-02
 1.60000E+01    4.26329E-02    3.37650E-02    5.15008E-02
 1.65000E+01    4.06544E-02    3.21980E-02    4.91108E-02
 1.70000E+01    3.88311E-02    3.07540E-02    4.69082E-02
 1.75000E+01    3.71030E-02    2.93854E-02    4.48206E-02
 1.80000E+01    3.54293E-02    2.83075E-02    4.25511E-02
 1.85000E+01    3.39306E-02    2.71100E-02    4.07512E-02
 1.95000E+01    3.12110E-02    2.49371E-02    3.74849E-02
 2.00000E+01    2.98937E-02    2.38846E-02    3.59028E-02
