# n + Sc 45 : (n,n'05)  
# jeff3.3    A.J. Koning and D. Rochman        EVAL-DEC15
# uncertainties: n
# # energies =    91
#   E(MeV)       xs(mb) 
 9.60313E-01    0.00000E+00
 9.96242E-01    5.11044E-01
 1.00000E+00    5.64497E-01
 1.09155E+00    1.75924E+00
 1.20000E+00    3.17454E+00
 1.26445E+00    4.07633E+00
 1.33242E+00    5.02737E+00
 1.38458E+00    5.75720E+00
 1.40000E+00    5.97296E+00
 1.44048E+00    6.52273E+00
 1.46565E+00    6.86458E+00
 1.50554E+00    7.40634E+00
 1.59112E+00    8.56863E+00
 1.60000E+00    8.68923E+00
 1.69929E+00    9.88571E+00
 1.75450E+00    1.05510E+01
 1.80000E+00    1.10993E+01
 1.84039E+00    1.11900E+01
 1.94335E+00    1.14211E+01
 1.97392E+00    1.14897E+01
 1.97893E+00    1.15009E+01
 2.00000E+00    1.15482E+01
 2.02790E+00    1.14622E+01
 2.07677E+00    1.13115E+01
 2.13689E+00    1.11262E+01
 2.13996E+00    1.11167E+01
 2.15346E+00    1.10751E+01
 2.16997E+00    1.10242E+01
 2.18638E+00    1.09736E+01
 2.19926E+00    1.09339E+01
 2.20000E+00    1.09316E+01
 2.23597E+00    1.08407E+01
 2.27165E+00    1.07506E+01
 2.40000E+00    1.04263E+01
 2.60000E+00    9.81482E+00
 2.80000E+00    8.70268E+00
 3.00000E+00    7.43190E+00
 3.20000E+00    6.45621E+00
 3.40000E+00    5.63473E+00
 3.60000E+00    4.88198E+00
 3.80000E+00    4.19390E+00
 4.00000E+00    3.59547E+00
 4.20000E+00    3.08743E+00
 4.40000E+00    2.65981E+00
 4.60000E+00    2.30156E+00
 4.80000E+00    1.99598E+00
 5.00000E+00    1.73449E+00
 5.20000E+00    1.50787E+00
 5.40000E+00    1.31112E+00
 5.60000E+00    1.14002E+00
 5.80000E+00    9.92028E-01
 6.00000E+00    8.64241E-01
 6.20000E+00    7.53001E-01
 6.40000E+00    6.58086E-01
 6.60000E+00    5.72793E-01
 6.80000E+00    5.02080E-01
 7.00000E+00    4.38474E-01
 7.20000E+00    3.82479E-01
 7.40000E+00    3.35457E-01
 7.60000E+00    2.92645E-01
 7.80000E+00    2.56695E-01
 8.00000E+00    2.24356E-01
 8.50000E+00    1.60742E-01
 9.00000E+00    1.15456E-01
 9.50000E+00    8.19398E-02
 1.00000E+01    5.86360E-02
 1.05000E+01    4.20622E-02
 1.10000E+01    3.02894E-02
 1.15000E+01    2.18723E-02
 1.20000E+01    1.58836E-02
 1.25000E+01    1.15775E-02
 1.30000E+01    8.48419E-03
 1.35000E+01    6.21272E-03
 1.40000E+01    4.55713E-03
 1.45000E+01    3.35326E-03
 1.50000E+01    2.47902E-03
 1.60000E+01    1.35869E-03
 1.70000E+01    7.46035E-04
 1.80000E+01    4.14849E-04
 1.90000E+01    2.31544E-04
 2.00000E+01    1.29885E-04
 2.10000E+01    7.35791E-05
 2.20000E+01    4.17879E-05
 2.30000E+01    2.37803E-05
 2.40000E+01    1.33077E-05
 2.50000E+01    7.27655E-06
 2.60000E+01    3.80284E-06
 2.70000E+01    1.84948E-06
 2.80000E+01    7.96820E-07
 2.90000E+01    3.67000E-07
 3.00000E+01    1.56190E-07
