# n + Se 78 : (n,xh)    
# jendl4.0   S.Kamada, K.Shibata, A.Ichihara+  EVAL-MAY09
# 
# # energies =    74
#   E(MeV)        xs(mb) 
 6.21672E-01    0.00000E+00
 7.00000E-01    0.00000E+00
 8.00000E-01    0.00000E+00
 9.00000E-01    0.00000E+00
 1.00000E+00    0.00000E+00
 1.32558E+00    0.00000E+00
 1.50000E+00    0.00000E+00
 1.51800E+00    0.00000E+00
 1.52227E+00    0.00000E+00
 1.78146E+00    0.00000E+00
 1.87793E+00    0.00000E+00
 2.00000E+00    0.00000E+00
 2.02174E+00    0.00000E+00
 2.21901E+00    0.00000E+00
 2.29642E+00    0.00000E+00
 2.32957E+00    0.00000E+00
 2.35745E+00    0.00000E+00
 2.36544E+00    0.00000E+00
 2.39243E+00    0.00000E+00
 2.50000E+00    0.00000E+00
 2.53978E+00    0.00000E+00
 2.56979E+00    0.00000E+00
 2.57936E+00    0.00000E+00
 2.57944E+00    0.00000E+00
 2.59314E+00    0.00000E+00
 2.66364E+00    0.00000E+00
 2.68174E+00    0.00000E+00
 2.71683E+00    0.00000E+00
 2.75450E+00    0.00000E+00
 2.77041E+00    0.00000E+00
 2.77802E+00    0.00000E+00
 2.78867E+00    0.00000E+00
 2.78884E+00    0.00000E+00
 2.87523E+00    0.00000E+00
 2.90120E+00    0.00000E+00
 2.92731E+00    0.00000E+00
 2.93566E+00    0.00000E+00
 2.95243E+00    0.00000E+00
 2.98738E+00    0.00000E+00
 3.00000E+00    0.00000E+00
 3.04187E+00    0.00000E+00
 3.04457E+00    0.00000E+00
 3.05297E+00    0.00000E+00
 3.07916E+00    0.00000E+00
 3.08806E+00    0.00000E+00
 3.10063E+00    0.00000E+00
 3.12868E+00    0.00000E+00
 3.12972E+00    0.00000E+00
 3.13985E+00    0.00000E+00
 3.50000E+00    0.00000E+00
 4.00000E+00    0.00000E+00
 4.50000E+00    0.00000E+00
 5.00000E+00    0.00000E+00
 5.50000E+00    0.00000E+00
 6.00000E+00    0.00000E+00
 6.50000E+00    0.00000E+00
 7.00000E+00    0.00000E+00
 7.50000E+00    0.00000E+00
 8.00000E+00    0.00000E+00
 8.50000E+00    0.00000E+00
 9.00000E+00    0.00000E+00
 9.50000E+00    0.00000E+00
 1.00000E+01    0.00000E+00
 1.10000E+01    0.00000E+00
 1.20000E+01    0.00000E+00
 1.30000E+01    0.00000E+00
 1.40000E+01    0.00000E+00
 1.45000E+01    0.00000E+00
 1.50000E+01    1.76100E-09
 1.60000E+01    5.09500E-08
 1.70000E+01    4.62400E-07
 1.80000E+01    2.05000E-04
 1.90000E+01    3.61200E-04
 2.00000E+01    1.32900E-03
