# n + Se 78 : (n,tot)   
# jendl4.0   S.Kamada, K.Shibata, A.Ichihara+  EVAL-MAY09
# uncertainties: n
# # energies =   171
#   E(MeV)       xs(mb) 
 1.00000E-11    2.05752E+04
 1.00000E-07    8.56240E+03
 4.13990E-07    8.50273E+03
 5.31580E-07    8.49005E+03
 6.82560E-07    8.47878E+03
 8.76420E-07    8.46896E+03
 1.12540E-06    8.46232E+03
 1.44500E-06    8.45585E+03
 1.85540E-06    8.44762E+03
 2.37240E-06    8.43859E+03
 3.05900E-06    8.43491E+03
 3.92790E-06    8.43130E+03
 5.04350E-06    8.42667E+03
 6.47600E-06    8.42071E+03
 8.31530E-06    8.41307E+03
 1.06770E-05    8.40326E+03
 1.37100E-05    8.39089E+03
 1.76030E-05    8.37978E+03
 2.26030E-05    8.36734E+03
 2.92030E-05    8.35156E+03
 3.72670E-05    8.33156E+03
 4.78510E-05    8.30560E+03
 6.14420E-05    8.27227E+03
 7.88930E-05    8.22947E+03
 1.01300E-04    8.17452E+03
 1.30070E-04    8.10092E+03
 1.67020E-04    7.98061E+03
 2.14450E-04    7.76760E+03
 2.75360E-04    7.08404E+03
 3.53580E-04    4.56239E+04
 4.54000E-04    8.71269E+03
 5.82950E-04    8.21321E+03
 7.48520E-04    8.44168E+03
 9.61120E-04    7.67184E+03
 1.23410E-03    7.61823E+03
 1.58460E-03    7.60100E+03
 2.03470E-03    6.62522E+03
 2.24870E-03    7.20643E+03
 2.48520E-03    5.91267E+03
 2.61260E-03    5.54631E+03
 2.74650E-03    4.43404E+03
 3.03540E-03    5.26924E+04
 3.35460E-03    1.05779E+04
 3.70740E-03    8.13178E+03
 4.30740E-03    5.59740E+03
 5.53080E-03    3.49627E+04
 7.10170E-03    7.88008E+03
 9.11880E-03    2.48989E+04
 1.17090E-02    1.36814E+04
 1.50340E-02    1.28197E+04
 1.93050E-02    1.21904E+04
 2.18750E-02    1.19855E+04
 2.35790E-02    1.18811E+04
 2.41760E-02    1.18267E+04
 2.47880E-02    1.17424E+04
 2.60580E-02    1.16426E+04
 2.70000E-02    1.15331E+04
 2.85000E-02    1.13359E+04
 3.18280E-02    1.11682E+04
 3.43070E-02    1.09338E+04
 4.08680E-02    1.06693E+04
 4.63090E-02    1.04587E+04
 5.24750E-02    1.02997E+04
 5.65620E-02    1.01040E+04
 6.73790E-02    9.92778E+03
 7.20000E-02    9.81150E+03
 7.95000E-02    9.71406E+03
 8.25000E-02    9.65722E+03
 8.65170E-02    9.53794E+03
 9.80370E-02    9.38156E+03
 1.11090E-01    9.28832E+03
 1.16790E-01    9.23139E+03
 1.22770E-01    9.17154E+03
 1.29070E-01    9.10856E+03
 1.35690E-01    9.04242E+03
 1.42640E-01    8.97287E+03
 1.49960E-01    8.89976E+03
 1.57640E-01    8.82290E+03
 1.65730E-01    8.74209E+03
 1.74220E-01    8.65714E+03
 1.83160E-01    8.56779E+03
 1.92550E-01    8.47481E+03
 2.02420E-01    8.39845E+03
 2.12800E-01    8.32736E+03
 2.23710E-01    8.25263E+03
 2.35180E-01    8.17405E+03
 2.47240E-01    8.04804E+03
 2.73240E-01    7.91335E+03
 2.87250E-01    7.84199E+03
 2.94520E-01    7.80867E+03
 2.97200E-01    7.79537E+03
 2.98500E-01    7.78013E+03
 3.01970E-01    7.68481E+03
 3.33730E-01    7.50210E+03
 3.68830E-01    7.35321E+03
 3.87740E-01    7.24823E+03
 4.07620E-01    7.09883E+03
 4.50490E-01    6.88647E+03
 4.97870E-01    6.71904E+03
 5.23400E-01    6.60958E+03
 5.50230E-01    6.49457E+03
 5.78440E-01    6.37385E+03
 6.08100E-01    6.25100E+03
 6.39280E-01    6.12342E+03
 6.72060E-01    5.98966E+03
 7.06510E-01    5.86181E+03
 7.42740E-01    5.73402E+03
 7.80820E-01    5.60243E+03
 8.20850E-01    5.47976E+03
 8.62940E-01    5.35355E+03
 9.07180E-01    5.22329E+03
 9.61640E-01    5.10330E+03
 1.00260E+00    4.96751E+03
 1.10800E+00    4.83167E+03
 1.16480E+00    4.73480E+03
 1.22460E+00    4.63303E+03
 1.28730E+00    4.52603E+03
 1.35340E+00    4.41354E+03
 1.42270E+00    4.29532E+03
 1.49570E+00    4.20176E+03
 1.57240E+00    4.14251E+03
 1.65300E+00    4.08037E+03
 1.73770E+00    4.01504E+03
 1.82680E+00    3.94632E+03
 1.92050E+00    3.87502E+03
 2.01900E+00    3.83540E+03
 2.12250E+00    3.81184E+03
 2.23130E+00    3.79131E+03
 2.30690E+00    3.77858E+03
 2.34570E+00    3.77209E+03
 2.36530E+00    3.76770E+03
 2.38520E+00    3.75657E+03
 2.46600E+00    3.74238E+03
 2.59240E+00    3.74639E+03
 2.72530E+00    3.75188E+03
 2.86500E+00    3.75766E+03
 3.01190E+00    3.76607E+03
 3.16640E+00    3.78117E+03
 3.32870E+00    3.80589E+03
 3.67880E+00    3.84172E+03
 4.06570E+00    3.87900E+03
 4.49330E+00    3.90244E+03
 4.72370E+00    3.91814E+03
 4.96590E+00    3.92950E+03
 5.22050E+00    3.93956E+03
 5.48810E+00    3.95014E+03
 5.76950E+00    3.95963E+03
 6.06530E+00    3.96471E+03
 6.37630E+00    3.96887E+03
 6.59240E+00    3.97145E+03
 6.70320E+00    3.97492E+03
 7.04690E+00    3.97390E+03
 7.40820E+00    3.96882E+03
 7.78800E+00    3.96177E+03
 8.18730E+00    3.94573E+03
 8.60710E+00    3.92672E+03
 9.04840E+00    3.89823E+03
 9.51230E+00    3.86598E+03
 1.00000E+01    3.82485E+03
 1.05130E+01    3.77697E+03
 1.10520E+01    3.72274E+03
 1.16180E+01    3.66272E+03
 1.22140E+01    3.59737E+03
 1.28400E+01    3.52818E+03
 1.34990E+01    3.47444E+03
 1.38400E+01    3.43747E+03
 1.41910E+01    3.39981E+03
 1.45500E+01    3.36174E+03
 1.49180E+01    3.30398E+03
 1.56830E+01    3.22562E+03
 1.64870E+01    3.14746E+03
