# n + Se 78 : (n,non)   
# jendl4.0   S.Kamada, K.Shibata, A.Ichihara+  EVAL-MAY09
# uncertainties: n
# # energies =    98
#   E(MeV)       xs(mb) 
 1.20000E-02    0.00000E+00
 1.20000E-02    1.64300E+02
 2.00000E-02    1.11500E+02
 3.00000E-02    8.59300E+01
 4.00000E-02    7.22600E+01
 5.00000E-02    6.43100E+01
 6.00000E-02    5.90900E+01
 7.00000E-02    5.52900E+01
 8.00000E-02    5.23500E+01
 9.00000E-02    5.01200E+01
 1.00000E-01    4.85000E+01
 2.00000E-01    3.85100E+01
 3.00000E-01    3.52200E+01
 4.00000E-01    3.46200E+01
 5.00000E-01    3.49200E+01
 6.00000E-01    3.60100E+01
 6.21672E-01    3.21589E+01
 7.00000E-01    4.48840E+02
 8.00000E-01    6.85060E+02
 9.00000E-01    8.27080E+02
 1.00000E+00    9.20320E+02
 1.32558E+00    9.39777E+02
 1.50000E+00    1.22460E+03
 1.51800E+00    1.22192E+03
 1.52227E+00    1.22243E+03
 1.78146E+00    1.32116E+03
 1.87793E+00    1.38958E+03
 2.00000E+00    1.55256E+03
 2.02174E+00    1.54241E+03
 2.21901E+00    1.52395E+03
 2.29642E+00    1.53140E+03
 2.32957E+00    1.54703E+03
 2.35745E+00    1.57334E+03
 2.36544E+00    1.58477E+03
 2.39243E+00    1.62798E+03
 2.50000E+00    1.81941E+03
 2.53978E+00    1.78548E+03
 2.56979E+00    1.76456E+03
 2.57936E+00    1.75958E+03
 2.57944E+00    1.75955E+03
 2.59314E+00    1.75387E+03
 2.66364E+00    1.73588E+03
 2.68174E+00    1.73465E+03
 2.71683E+00    1.73889E+03
 2.75450E+00    1.74743E+03
 2.77041E+00    1.75380E+03
 2.77802E+00    1.75723E+03
 2.78867E+00    1.76310E+03
 2.78884E+00    1.76321E+03
 2.87523E+00    1.83454E+03
 2.90120E+00    1.86160E+03
 2.92731E+00    1.89462E+03
 2.93566E+00    1.90535E+03
 2.95243E+00    1.93091E+03
 2.98738E+00    1.98762E+03
 3.00000E+00    2.01187E+03
 3.04187E+00    1.99902E+03
 3.04457E+00    1.99841E+03
 3.05297E+00    1.99731E+03
 3.07916E+00    1.99406E+03
 3.08806E+00    1.99372E+03
 3.10063E+00    1.99424E+03
 3.12868E+00    1.99757E+03
 3.12972E+00    1.99771E+03
 3.13985E+00    1.99942E+03
 3.47068E+00    2.12321E+03
 3.50000E+00    2.13418E+03
 4.00000E+00    2.12424E+03
 4.50000E+00    2.08936E+03
 5.00000E+00    2.04585E+03
 5.50000E+00    2.00232E+03
 6.00000E+00    1.96519E+03
 6.10661E+00    1.95908E+03
 6.50000E+00    1.93653E+03
 7.00000E+00    1.91470E+03
 7.50000E+00    1.89767E+03
 8.00000E+00    1.88329E+03
 8.27973E+00    1.87605E+03
 8.50000E+00    1.87035E+03
 9.00000E+00    1.85822E+03
 9.50000E+00    1.84665E+03
 1.00000E+01    1.83580E+03
 1.05331E+01    1.81726E+03
 1.06337E+01    1.81376E+03
 1.08111E+01    1.81472E+03
 1.10000E+01    1.81573E+03
 1.17654E+01    1.80210E+03
 1.20000E+01    1.79792E+03
 1.30000E+01    1.78215E+03
 1.40000E+01    1.76693E+03
 1.45000E+01    1.75814E+03
 1.50000E+01    1.74981E+03
 1.60000E+01    1.73264E+03
 1.70000E+01    1.71397E+03
 1.80000E+01    1.69654E+03
 1.81486E+01    1.69397E+03
 1.90000E+01    1.68079E+03
 2.00000E+01    1.66607E+03
