# n + Se 78 : (n,n')    
# jendl4.0   S.Kamada, K.Shibata, A.Ichihara+  EVAL-MAY09
# uncertainties: n
# # energies =    74
#   E(MeV)       xs(mb) 
 6.21672E-01    0.00000E+00
 7.00000E-01    4.30600E+02
 8.00000E-01    6.70000E+02
 9.00000E-01    8.13400E+02
 1.00000E+00    9.07100E+02
 1.32558E+00    9.27156E+02
 1.50000E+00    1.21230E+03
 1.51800E+00    1.20972E+03
 1.52227E+00    1.21025E+03
 1.78146E+00    1.31043E+03
 1.87793E+00    1.37939E+03
 2.00000E+00    1.54305E+03
 2.02174E+00    1.53297E+03
 2.21901E+00    1.51512E+03
 2.29642E+00    1.52281E+03
 2.32957E+00    1.53854E+03
 2.35745E+00    1.56494E+03
 2.36544E+00    1.57639E+03
 2.39243E+00    1.61969E+03
 2.50000E+00    1.81145E+03
 2.53978E+00    1.77771E+03
 2.56979E+00    1.75692E+03
 2.57936E+00    1.75198E+03
 2.57944E+00    1.75195E+03
 2.59314E+00    1.74633E+03
 2.66364E+00    1.72866E+03
 2.68174E+00    1.72751E+03
 2.71683E+00    1.73191E+03
 2.75450E+00    1.74062E+03
 2.77041E+00    1.74706E+03
 2.77802E+00    1.75053E+03
 2.78867E+00    1.75645E+03
 2.78884E+00    1.75655E+03
 2.87523E+00    1.82828E+03
 2.90120E+00    1.85546E+03
 2.92731E+00    1.88860E+03
 2.93566E+00    1.89936E+03
 2.95243E+00    1.92500E+03
 2.98738E+00    1.98186E+03
 3.00000E+00    2.00617E+03
 3.04187E+00    1.99341E+03
 3.04457E+00    1.99280E+03
 3.05297E+00    1.99172E+03
 3.07916E+00    1.98853E+03
 3.08806E+00    1.98820E+03
 3.10063E+00    1.98875E+03
 3.12868E+00    1.99214E+03
 3.12972E+00    1.99228E+03
 3.13985E+00    1.99401E+03
 3.50000E+00    2.12951E+03
 4.00000E+00    2.11987E+03
 4.50000E+00    2.08534E+03
 5.00000E+00    2.04250E+03
 5.50000E+00    1.99946E+03
 6.00000E+00    1.96276E+03
 6.50000E+00    1.93433E+03
 7.00000E+00    1.91256E+03
 7.50000E+00    1.89528E+03
 8.00000E+00    1.88044E+03
 8.50000E+00    1.86681E+03
 9.00000E+00    1.85374E+03
 9.50000E+00    1.84115E+03
 1.00000E+01    1.82909E+03
 1.10000E+01    1.79197E+03
 1.20000E+01    1.30975E+03
 1.30000E+01    9.52951E+02
 1.40000E+01    7.37132E+02
 1.45000E+01    6.55290E+02
 1.50000E+01    6.07073E+02
 1.60000E+01    5.25856E+02
 1.70000E+01    4.70919E+02
 1.80000E+01    4.31144E+02
 1.90000E+01    3.99602E+02
 2.00000E+01    3.73238E+02
