# n + Se 78 : (n,el)    
# jendl4.0   S.Kamada, K.Shibata, A.Ichihara+  EVAL-MAY09
# uncertainties: n
# # energies =   171
#   E(MeV)       xs(mb) 
 1.00000E-11    1.59254E+04
 1.00000E-07    8.40753E+03
 4.13990E-07    8.40253E+03
 5.31580E-07    8.40198E+03
 6.82560E-07    8.40127E+03
 8.76420E-07    8.40037E+03
 1.12540E-06    8.39921E+03
 1.44500E-06    8.39800E+03
 1.85540E-06    8.39706E+03
 2.37240E-06    8.39586E+03
 3.05900E-06    8.39431E+03
 3.92790E-06    8.39233E+03
 5.04350E-06    8.38978E+03
 6.47600E-06    8.38651E+03
 8.31530E-06    8.38232E+03
 1.06770E-05    8.37693E+03
 1.37100E-05    8.37001E+03
 1.76030E-05    8.36113E+03
 2.26030E-05    8.34955E+03
 2.92030E-05    8.33488E+03
 3.72670E-05    8.31627E+03
 4.78510E-05    8.29212E+03
 6.14420E-05    8.26112E+03
 7.88930E-05    8.22131E+03
 1.01300E-04    8.17019E+03
 1.30070E-04    8.09167E+03
 1.67020E-04    7.97334E+03
 2.14450E-04    7.75730E+03
 2.75360E-04    7.04314E+03
 3.53580E-04    3.10839E+04
 4.54000E-04    8.70309E+03
 5.82950E-04    8.21025E+03
 7.48520E-04    7.97356E+03
 9.61120E-04    7.67239E+03
 1.23410E-03    7.40188E+03
 1.58460E-03    7.23594E+03
 2.03470E-03    6.61590E+03
 2.24870E-03    6.61334E+03
 2.48520E-03    5.90971E+03
 2.61260E-03    5.54325E+03
 2.74650E-03    4.42608E+03
 3.03540E-03    5.16908E+04
 3.35460E-03    1.05666E+04
 3.70740E-03    7.86969E+03
 4.30740E-03    5.48358E+03
 5.53080E-03    3.46870E+04
 7.10170E-03    7.87766E+03
 9.11880E-03    2.48270E+04
 1.17090E-02    1.35418E+04
 1.50340E-02    1.26890E+04
 1.93050E-02    1.20799E+04
 2.18750E-02    1.18810E+04
 2.35790E-02    1.17795E+04
 2.41760E-02    1.17267E+04
 2.47880E-02    1.16448E+04
 2.60580E-02    1.15478E+04
 2.70000E-02    1.14414E+04
 2.85000E-02    1.12498E+04
 3.18280E-02    1.10865E+04
 3.43070E-02    1.08581E+04
 4.08680E-02    1.05999E+04
 4.63090E-02    1.03937E+04
 5.24750E-02    1.02377E+04
 5.65620E-02    1.00455E+04
 6.73790E-02    9.87233E+03
 7.20000E-02    9.75788E+03
 7.95000E-02    9.66193E+03
 8.25000E-02    9.60587E+03
 8.65170E-02    9.48813E+03
 9.80370E-02    9.33349E+03
 1.11090E-01    9.24121E+03
 1.16790E-01    9.18486E+03
 1.22770E-01    9.12562E+03
 1.29070E-01    9.06330E+03
 1.35690E-01    8.99783E+03
 1.42640E-01    8.92900E+03
 1.49960E-01    8.85663E+03
 1.57640E-01    8.78056E+03
 1.65730E-01    8.70058E+03
 1.74220E-01    8.61649E+03
 1.83160E-01    8.52807E+03
 1.92550E-01    8.43603E+03
 2.02420E-01    8.36019E+03
 2.12800E-01    8.28945E+03
 2.23710E-01    8.21508E+03
 2.35180E-01    8.13690E+03
 2.47240E-01    8.01151E+03
 2.73240E-01    7.87748E+03
 2.87250E-01    7.80647E+03
 2.94520E-01    7.77331E+03
 2.97200E-01    7.76007E+03
 2.98500E-01    7.74490E+03
 3.01970E-01    7.64969E+03
 3.33730E-01    7.46718E+03
 3.68830E-01    7.31846E+03
 3.87740E-01    7.21359E+03
 4.07620E-01    7.06413E+03
 4.50490E-01    6.85163E+03
 4.97870E-01    6.68400E+03
 5.23400E-01    6.57426E+03
 5.50230E-01    6.45895E+03
 5.78440E-01    6.33812E+03
 6.08100E-01    6.19226E+03
 6.39280E-01    5.91113E+03
 6.72060E-01    5.60036E+03
 7.06510E-01    5.35516E+03
 7.42740E-01    5.13962E+03
 7.80820E-01    4.92082E+03
 8.20850E-01    4.73545E+03
 8.62940E-01    4.54823E+03
 9.07180E-01    4.36438E+03
 9.61640E-01    4.19986E+03
 1.00260E+00    4.04394E+03
 1.10800E+00    3.90321E+03
 1.16480E+00    3.80286E+03
 1.22460E+00    3.69742E+03
 1.28730E+00    3.57753E+03
 1.35340E+00    3.37222E+03
 1.42270E+00    3.13786E+03
 1.49570E+00    2.97293E+03
 1.57240E+00    2.88575E+03
 1.65300E+00    2.79213E+03
 1.73770E+00    2.68997E+03
 1.82680E+00    2.55409E+03
 1.92050E+00    2.36663E+03
 2.01900E+00    2.29750E+03
 2.12250E+00    2.28376E+03
 2.23130E+00    2.26228E+03
 2.30690E+00    2.23133E+03
 2.34570E+00    2.19880E+03
 2.36530E+00    2.16686E+03
 2.38520E+00    2.06990E+03
 2.46600E+00    1.95680E+03
 2.59240E+00    2.00300E+03
 2.72530E+00    1.97580E+03
 2.86500E+00    1.83936E+03
 3.01190E+00    1.76642E+03
 3.16640E+00    1.74222E+03
 3.32870E+00    1.69023E+03
 3.67880E+00    1.71892E+03
 4.06570E+00    1.77485E+03
 4.49330E+00    1.82399E+03
 4.72370E+00    1.85900E+03
 4.96590E+00    1.89365E+03
 5.22050E+00    1.92646E+03
 5.48810E+00    1.95910E+03
 5.76950E+00    1.98768E+03
 6.06530E+00    2.01416E+03
 6.37630E+00    2.03338E+03
 6.59240E+00    2.04384E+03
 6.70320E+00    2.05448E+03
 7.04690E+00    2.06799E+03
 7.40820E+00    2.07610E+03
 7.78800E+00    2.07874E+03
 8.18730E+00    2.07436E+03
 8.60710E+00    2.06452E+03
 9.04840E+00    2.04847E+03
 9.51230E+00    2.02554E+03
 1.00000E+01    1.99790E+03
 1.05130E+01    1.96192E+03
 1.10520E+01    1.91293E+03
 1.16180E+01    1.86318E+03
 1.22140E+01    1.80772E+03
 1.28400E+01    1.74856E+03
 1.34990E+01    1.70247E+03
 1.38400E+01    1.67089E+03
 1.41910E+01    1.63938E+03
 1.45500E+01    1.60749E+03
 1.49180E+01    1.55928E+03
 1.56830E+01    1.49460E+03
 1.64870E+01    1.43166E+03
