# n + Sr 86 : (n,g)     
# endfb8.0   JNDC FPND W.G., Mughabghab        EVAL-FEB05
# uncertainties: n
# # energies =    69
#   E(MeV)       xs(mb) 
 1.00000E-10    7.01787E+03
 5.00000E-09    1.91089E+03
 1.00000E-08    1.44725E+03
 1.50000E-08    1.21599E+03
 2.00000E-08    1.06985E+03
 2.50000E-08    9.66576E+02
 3.00000E-08    8.88521E+02
 3.50000E-08    8.16929E+02
 4.20000E-08    7.47235E+02
 5.00000E-08    6.89273E+02
 5.80000E-08    6.40651E+02
 6.70000E-08    5.91239E+02
 8.00000E-08    5.35043E+02
 1.00000E-07    4.65547E+02
 1.40000E-07    4.01763E+02
 1.80000E-07    3.58803E+02
 2.20000E-07    3.30472E+02
 2.50000E-07    3.11154E+02
 2.80000E-07    2.97286E+02
 3.00000E-07    2.87542E+02
 3.20000E-07    2.76705E+02
 3.50000E-07    2.61753E+02
 4.00000E-07    2.39566E+02
 5.00000E-07    2.14350E+02
 6.25000E-07    1.91882E+02
 7.80000E-07    1.77682E+02
 8.50000E-07    1.70996E+02
 9.10000E-07    1.66328E+02
 9.50000E-07    1.63625E+02
 9.72000E-07    1.61715E+02
 9.96000E-07    1.59788E+02
 1.02000E-06    1.57894E+02
 1.04500E-06    1.56000E+02
 1.07100E-06    1.54137E+02
 1.09700E-06    1.52336E+02
 1.12300E-06    1.50578E+02
 1.15000E-06    1.45228E+02
 1.30000E-06    1.35999E+02
 1.50000E-06    1.20937E+02
 2.10000E-06    1.05553E+02
 2.60000E-06    9.44647E+01
 3.30000E-06    8.49901E+01
 4.00000E-06    6.57342E+01
 9.87700E-06    4.72032E+01
 1.59680E-05    3.75732E+01
 2.77000E-05    3.01096E+01
 4.80520E-05    2.55135E+01
 7.55014E-05    2.31389E+01
 1.48728E-04    3.16687E+01
 3.67262E-04    4.10222E+03
 9.06898E-04    1.77738E+02
 1.42510E-03    1.52582E+00
 2.23945E-03    5.69829E+02
 3.51910E-03    1.44008E+02
 5.53000E-03    9.32006E+01
 9.11800E-03    8.95937E+01
 1.50300E-02    5.77049E+01
 2.47800E-02    4.65147E+01
 4.08500E-02    5.09249E+01
 6.73400E-02    3.76910E+01
 1.11000E-01    3.19974E+01
 1.83000E-01    3.09280E+01
 3.02000E-01    3.21084E+01
 5.00000E-01    3.38617E+01
 8.21000E-01    3.25058E+01
 1.35300E+00    2.29397E+01
 2.23100E+00    1.49859E+01
 3.67900E+00    5.56911E+00
 6.06500E+00    1.71810E+00
