# n + Sr 86 : (n,el)    
# endfb8.0   JNDC FPND W.G., Mughabghab        EVAL-FEB05
# uncertainties: n
# # energies =   171
#   E(MeV)       xs(mb) 
 1.00000E-11    5.12053E+03
 1.00000E-07    2.78634E+03
 4.13990E-07    2.78446E+03
 5.31580E-07    2.78394E+03
 6.82560E-07    2.78357E+03
 8.76420E-07    2.78309E+03
 1.12540E-06    2.78247E+03
 1.44500E-06    2.78168E+03
 1.85540E-06    2.78068E+03
 2.37240E-06    2.77938E+03
 3.05900E-06    2.77769E+03
 3.92790E-06    2.77555E+03
 5.04350E-06    2.77275E+03
 6.47600E-06    2.76915E+03
 8.31530E-06    2.76451E+03
 1.06770E-05    2.75856E+03
 1.37100E-05    2.75093E+03
 1.76030E-05    2.74112E+03
 2.26030E-05    2.72834E+03
 2.92030E-05    2.71214E+03
 3.72670E-05    2.69159E+03
 4.78510E-05    2.66493E+03
 6.14420E-05    2.62716E+03
 7.88930E-05    2.57521E+03
 1.01300E-04    2.50509E+03
 1.30070E-04    2.40355E+03
 1.67020E-04    2.25329E+03
 2.14450E-04    2.01751E+03
 2.75360E-04    1.61259E+03
 3.53580E-04    8.34856E+02
 4.54000E-04    3.17152E+04
 5.82950E-04    2.45681E+05
 7.48520E-04    7.94806E+03
 9.61120E-04    5.77029E+03
 1.23410E-03    5.01585E+03
 1.58460E-03    4.56700E+03
 2.03470E-03    4.33806E+03
 2.24870E-03    4.20310E+03
 2.48520E-03    4.15046E+03
 2.61260E-03    3.99014E+03
 2.74650E-03    3.72369E+03
 3.03540E-03    1.47595E+04
 3.35460E-03    5.11031E+03
 3.70740E-03    4.37195E+03
 4.30740E-03    4.41482E+03
 5.53080E-03    3.83954E+03
 7.10170E-03    3.37575E+03
 9.11880E-03    1.13655E+04
 1.17090E-02    5.35029E+03
 1.50340E-02    1.66520E+04
 1.93050E-02    8.75216E+03
 2.18750E-02    9.79236E+03
 2.35790E-02    7.05965E+03
 2.41760E-02    6.38858E+03
 2.47880E-02    5.76233E+03
 2.60580E-02    5.00994E+03
 2.70000E-02    9.79941E+03
 2.85000E-02    1.01167E+04
 3.18280E-02    9.49342E+03
 3.43070E-02    9.43618E+03
 4.08680E-02    9.37391E+03
 4.63090E-02    9.32725E+03
 5.24750E-02    9.29244E+03
 5.65620E-02    9.25212E+03
 6.73790E-02    9.21534E+03
 7.20000E-02    9.19113E+03
 7.95000E-02    9.17148E+03
 8.25000E-02    9.15932E+03
 8.65170E-02    9.13461E+03
 9.80370E-02    9.12356E+03
 1.11090E-01    9.14989E+03
 1.16790E-01    9.16678E+03
 1.22770E-01    9.18453E+03
 1.29070E-01    9.20321E+03
 1.35690E-01    9.22282E+03
 1.42640E-01    9.24345E+03
 1.49960E-01    9.25319E+03
 1.57640E-01    9.25098E+03
 1.65730E-01    9.24866E+03
 1.74220E-01    9.24623E+03
 1.83160E-01    9.24367E+03
 1.92550E-01    9.24097E+03
 2.02420E-01    9.23191E+03
 2.12800E-01    9.21017E+03
 2.23710E-01    9.18700E+03
 2.35180E-01    9.16265E+03
 2.47240E-01    9.11854E+03
 2.73240E-01    9.05784E+03
 2.87250E-01    9.02462E+03
 2.94520E-01    9.00910E+03
 2.97200E-01    9.00291E+03
 2.98500E-01    8.99550E+03
 3.01970E-01    8.92162E+03
 3.33730E-01    8.76837E+03
 3.68830E-01    8.65072E+03
 3.87740E-01    8.57986E+03
 4.07620E-01    8.46632E+03
 4.50490E-01    8.31283E+03
 4.97870E-01    8.18752E+03
 5.23400E-01    8.07483E+03
 5.50230E-01    7.95557E+03
 5.78440E-01    7.84079E+03
 6.08100E-01    7.73121E+03
 6.39280E-01    7.61604E+03
 6.72060E-01    7.49818E+03
 7.06510E-01    7.37699E+03
 7.42740E-01    7.25290E+03
 7.80820E-01    7.12336E+03
 8.20850E-01    6.98717E+03
 8.62940E-01    6.84769E+03
 9.07180E-01    6.70114E+03
 9.61640E-01    6.55965E+03
 1.00260E+00    6.35370E+03
 1.10800E+00    5.98534E+03
 1.16480E+00    5.65629E+03
 1.22460E+00    5.36138E+03
 1.28730E+00    5.14824E+03
 1.35340E+00    4.94920E+03
 1.42270E+00    4.75734E+03
 1.49570E+00    4.58293E+03
 1.57240E+00    4.42465E+03
 1.65300E+00    4.27352E+03
 1.73770E+00    4.12535E+03
 1.82680E+00    3.97464E+03
 1.92050E+00    3.75814E+03
 2.01900E+00    3.57165E+03
 2.12250E+00    3.40834E+03
 2.23130E+00    3.27769E+03
 2.30690E+00    3.20489E+03
 2.34570E+00    3.16818E+03
 2.36530E+00    3.14339E+03
 2.38520E+00    3.08311E+03
 2.46600E+00    2.96804E+03
 2.59240E+00    2.82885E+03
 2.72530E+00    2.69612E+03
 2.86500E+00    2.56452E+03
 3.01190E+00    2.44043E+03
 3.16640E+00    2.34797E+03
 3.32870E+00    2.24897E+03
 3.67880E+00    2.13126E+03
 4.06570E+00    2.09973E+03
 4.49330E+00    2.11200E+03
 4.72370E+00    2.12074E+03
 4.96590E+00    2.14932E+03
 5.22050E+00    2.21209E+03
 5.48810E+00    2.27856E+03
 5.76950E+00    2.34676E+03
 6.06530E+00    2.42365E+03
 6.37630E+00    2.49459E+03
 6.59240E+00    2.53860E+03
 6.70320E+00    2.59671E+03
 7.04690E+00    2.67975E+03
 7.40820E+00    2.75904E+03
 7.78800E+00    2.83890E+03
 8.18730E+00    2.89899E+03
 8.60710E+00    2.95742E+03
 9.04840E+00    2.99990E+03
 9.51230E+00    3.02936E+03
 1.00000E+01    3.04712E+03
 1.05130E+01    3.05235E+03
 1.10520E+01    3.05727E+03
 1.16180E+01    3.01968E+03
 1.22140E+01    2.92391E+03
 1.28400E+01    2.85756E+03
 1.34990E+01    2.84035E+03
 1.38400E+01    2.82468E+03
 1.41910E+01    2.78121E+03
 1.45500E+01    2.74757E+03
 1.49180E+01    2.69383E+03
 1.56830E+01    2.59837E+03
 1.64870E+01    2.47646E+03
