# n + Sr 86 : (n,tot)   
# endfb8.0   JNDC FPND W.G., Mughabghab        EVAL-FEB05
# uncertainties: n
# # energies =   171
#   E(MeV)       xs(mb) 
 1.00000E-11    1.59898E+04
 1.00000E-07    3.14853E+03
 4.13990E-07    3.01848E+03
 5.31580E-07    2.99060E+03
 6.82560E-07    2.96594E+03
 8.76420E-07    2.94410E+03
 1.12540E-06    2.92504E+03
 1.44500E-06    2.90847E+03
 1.85540E-06    2.89310E+03
 2.37240E-06    2.88001E+03
 3.05900E-06    2.86553E+03
 3.92790E-06    2.85514E+03
 5.04350E-06    2.84248E+03
 6.47600E-06    2.83180E+03
 8.31530E-06    2.82177E+03
 1.06770E-05    2.80891E+03
 1.37100E-05    2.79656E+03
 1.76030E-05    2.78405E+03
 2.26030E-05    2.76774E+03
 2.92030E-05    2.74706E+03
 3.72670E-05    2.72204E+03
 4.78510E-05    2.69076E+03
 6.14420E-05    2.65060E+03
 7.88930E-05    2.59903E+03
 1.01300E-04    2.52759E+03
 1.30070E-04    2.42681E+03
 1.67020E-04    2.27819E+03
 2.14450E-04    2.04694E+03
 2.75360E-04    1.65346E+03
 3.53580E-04    9.17137E+02
 4.54000E-04    3.42527E+04
 5.82950E-04    2.57876E+05
 7.48520E-04    7.98090E+03
 9.61120E-04    5.77766E+03
 1.23410E-03    5.32739E+03
 1.58460E-03    4.56841E+03
 2.03470E-03    4.33925E+03
 2.24870E-03    4.20680E+03
 2.48520E-03    4.71703E+03
 2.61260E-03    3.99427E+03
 2.74650E-03    3.72849E+03
 3.03540E-03    1.70359E+04
 3.35460E-03    5.12203E+03
 3.70740E-03    4.37312E+03
 4.30740E-03    4.67340E+03
 5.53080E-03    3.92515E+03
 7.10170E-03    3.47665E+03
 9.11880E-03    1.15017E+04
 1.17090E-02    5.39444E+03
 1.50340E-02    1.66698E+04
 1.93050E-02    8.75361E+03
 2.18750E-02    1.01107E+04
 2.35790E-02    7.06364E+03
 2.41760E-02    6.39013E+03
 2.47880E-02    5.76308E+03
 2.60580E-02    5.01051E+03
 2.70000E-02    9.83162E+03
 2.85000E-02    1.01593E+04
 3.18280E-02    9.56512E+03
 3.43070E-02    9.50124E+03
 4.08680E-02    9.43183E+03
 4.63090E-02    9.37998E+03
 5.24750E-02    9.34163E+03
 5.65620E-02    9.29745E+03
 6.73790E-02    9.25734E+03
 7.20000E-02    9.23114E+03
 7.95000E-02    9.21000E+03
 8.25000E-02    9.19709E+03
 8.65170E-02    9.17092E+03
 9.80370E-02    9.15824E+03
 1.11090E-01    9.18385E+03
 1.16790E-01    9.20030E+03
 1.22770E-01    9.21759E+03
 1.29070E-01    9.23578E+03
 1.35690E-01    9.25489E+03
 1.42640E-01    9.27498E+03
 1.49960E-01    9.28440E+03
 1.57640E-01    9.28210E+03
 1.65730E-01    9.27970E+03
 1.74220E-01    9.27716E+03
 1.83160E-01    9.27450E+03
 1.92550E-01    9.27171E+03
 2.02420E-01    9.26251E+03
 2.12800E-01    9.24059E+03
 2.23710E-01    9.21723E+03
 2.35180E-01    9.19267E+03
 2.47240E-01    9.14937E+03
 2.73240E-01    9.08939E+03
 2.87250E-01    9.05614E+03
 2.94520E-01    9.04061E+03
 2.97200E-01    9.03441E+03
 2.98500E-01    9.02700E+03
 3.01970E-01    8.95322E+03
 3.33730E-01    8.80026E+03
 3.68830E-01    8.68282E+03
 3.87740E-01    8.61208E+03
 4.07620E-01    8.49874E+03
 4.50490E-01    8.34550E+03
 4.97870E-01    8.22041E+03
 5.23400E-01    8.10794E+03
 5.50230E-01    7.98892E+03
 5.78440E-01    7.87435E+03
 6.08100E-01    7.76496E+03
 6.39280E-01    7.64999E+03
 6.72060E-01    7.53235E+03
 7.06510E-01    7.41141E+03
 7.42740E-01    7.28764E+03
 7.80820E-01    7.15844E+03
 8.20850E-01    7.02262E+03
 8.62940E-01    6.88354E+03
 9.07180E-01    6.73755E+03
 9.61640E-01    6.59659E+03
 1.00260E+00    6.39850E+03
 1.10800E+00    6.18291E+03
 1.16480E+00    6.04347E+03
 1.22460E+00    5.90323E+03
 1.28730E+00    5.75787E+03
 1.35340E+00    5.62037E+03
 1.42270E+00    5.48085E+03
 1.49570E+00    5.34773E+03
 1.57240E+00    5.21127E+03
 1.65300E+00    5.08149E+03
 1.73770E+00    4.95160E+03
 1.82680E+00    4.82835E+03
 1.92050E+00    4.70521E+03
 2.01900E+00    4.58981E+03
 2.12250E+00    4.47577E+03
 2.23130E+00    4.38572E+03
 2.30690E+00    4.33157E+03
 2.34570E+00    4.30721E+03
 2.36530E+00    4.29090E+03
 2.38520E+00    4.24947E+03
 2.46600E+00    4.16642E+03
 2.59240E+00    4.07589E+03
 2.72530E+00    3.99011E+03
 2.86500E+00    3.91184E+03
 3.01190E+00    3.84276E+03
 3.16640E+00    3.78251E+03
 3.32870E+00    3.72664E+03
 3.67880E+00    3.67311E+03
 4.06570E+00    3.68743E+03
 4.49330E+00    3.72986E+03
 4.72370E+00    3.76010E+03
 4.96590E+00    3.80435E+03
 5.22050E+00    3.87192E+03
 5.48810E+00    3.94329E+03
 5.76950E+00    4.01813E+03
 6.06530E+00    4.09119E+03
 6.37630E+00    4.15266E+03
 6.59240E+00    4.19079E+03
 6.70320E+00    4.24308E+03
 7.04690E+00    4.30509E+03
 7.40820E+00    4.35808E+03
 7.78800E+00    4.41017E+03
 8.18730E+00    4.43922E+03
 8.60710E+00    4.46471E+03
 9.04840E+00    4.47891E+03
 9.51230E+00    4.48184E+03
 1.00000E+01    4.47510E+03
 1.05130E+01    4.45806E+03
 1.10520E+01    4.44098E+03
 1.16180E+01    4.42332E+03
 1.22140E+01    4.39732E+03
 1.28400E+01    4.36896E+03
 1.34990E+01    4.34785E+03
 1.38400E+01    4.33165E+03
 1.41910E+01    4.30440E+03
 1.45500E+01    4.27576E+03
 1.49180E+01    4.21602E+03
 1.56830E+01    4.10718E+03
 1.64870E+01    3.95853E+03
