# n + Xe126 : (n,el)    
# endfb8.0   JNDC FPND W.G., Mughabghab        EVAL-JAN05
# uncertainties: n
# # energies =   171
#   E(MeV)       xs(mb) 
 1.00000E-11    8.29798E+03
 1.00000E-07    5.03915E+03
 4.13990E-07    5.02907E+03
 5.31580E-07    5.02396E+03
 6.82560E-07    5.01746E+03
 8.76420E-07    5.00915E+03
 1.12540E-06    4.99848E+03
 1.44500E-06    4.98478E+03
 1.85540E-06    4.96462E+03
 2.37240E-06    4.93585E+03
 3.05900E-06    4.89861E+03
 3.92790E-06    4.83914E+03
 5.04350E-06    4.73240E+03
 6.47600E-06    4.45248E+03
 8.31530E-06    7.67236E+03
 1.06770E-05    5.90701E+03
 1.37100E-05    5.27334E+03
 1.76030E-05    5.09090E+03
 2.26030E-05    4.97173E+03
 2.92030E-05    4.87092E+03
 3.72670E-05    4.77552E+03
 4.78510E-05    4.67837E+03
 6.14420E-05    4.57791E+03
 7.88930E-05    4.47201E+03
 1.01300E-04    4.35872E+03
 1.30070E-04    4.22760E+03
 1.67020E-04    4.04890E+03
 2.14450E-04    6.24280E+03
 2.75360E-04    3.82994E+03
 3.53580E-04    2.40617E+03
 4.54000E-04    5.60277E+04
 5.82950E-04    4.98955E+03
 7.48520E-04    4.63766E+03
 9.61120E-04    4.48842E+03
 1.23410E-03    4.39812E+03
 1.58460E-03    4.31960E+03
 2.03470E-03    4.20588E+03
 2.24870E-03    9.07104E+03
 2.48520E-03    9.54439E+03
 2.61260E-03    9.42733E+03
 2.74650E-03    9.25555E+03
 3.03540E-03    9.03319E+03
 3.35460E-03    8.81696E+03
 3.70740E-03    8.55685E+03
 4.30740E-03    8.16500E+03
 5.53080E-03    7.71359E+03
 7.10170E-03    7.30589E+03
 9.11880E-03    6.94154E+03
 1.17090E-02    6.62080E+03
 1.50340E-02    6.34081E+03
 1.93050E-02    6.15735E+03
 2.18750E-02    6.06837E+03
 2.35790E-02    6.02719E+03
 2.41760E-02    6.00618E+03
 2.47880E-02    5.97593E+03
 2.60580E-02    5.94321E+03
 2.70000E-02    5.90885E+03
 2.85000E-02    5.85029E+03
 3.18280E-02    5.78754E+03
 3.43070E-02    5.71102E+03
 4.08680E-02    5.62857E+03
 4.63090E-02    5.56629E+03
 5.24750E-02    5.51967E+03
 5.65620E-02    5.46702E+03
 6.73790E-02    5.42056E+03
 7.20000E-02    5.39033E+03
 7.95000E-02    5.36635E+03
 8.25000E-02    5.35215E+03
 8.65170E-02    5.32270E+03
 9.80370E-02    5.28844E+03
 1.11090E-01    5.28014E+03
 1.16790E-01    5.27574E+03
 1.22770E-01    5.27112E+03
 1.29070E-01    5.26625E+03
 1.35690E-01    5.26115E+03
 1.42640E-01    5.25577E+03
 1.49960E-01    5.25486E+03
 1.57640E-01    5.25881E+03
 1.65730E-01    5.26298E+03
 1.74220E-01    5.26735E+03
 1.83160E-01    5.27195E+03
 1.92550E-01    5.27679E+03
 2.02420E-01    5.28208E+03
 2.12800E-01    5.29199E+03
 2.23710E-01    5.30415E+03
 2.35180E-01    5.31694E+03
 2.47240E-01    5.33746E+03
 2.73240E-01    5.36211E+03
 2.87250E-01    5.37727E+03
 2.94520E-01    5.38435E+03
 2.97200E-01    5.38717E+03
 2.98500E-01    5.39055E+03
 3.01970E-01    5.41518E+03
 3.33730E-01    5.46220E+03
 3.68830E-01    5.50022E+03
 3.87740E-01    5.51815E+03
 4.07620E-01    5.51695E+03
 4.50490E-01    5.51434E+03
 4.97870E-01    5.51943E+03
 5.23400E-01    5.53562E+03
 5.50230E-01    5.55272E+03
 5.78440E-01    5.57069E+03
 6.08100E-01    5.58958E+03
 6.39280E-01    5.60944E+03
 6.72060E-01    5.63032E+03
 7.06510E-01    5.65097E+03
 7.42740E-01    5.66769E+03
 7.80820E-01    5.68479E+03
 8.20850E-01    5.70261E+03
 8.62940E-01    5.71157E+03
 9.07180E-01    5.68505E+03
 9.61640E-01    5.66433E+03
 1.00260E+00    5.63294E+03
 1.10800E+00    5.59753E+03
 1.16480E+00    5.57228E+03
 1.22460E+00    5.54397E+03
 1.28730E+00    5.49903E+03
 1.35340E+00    5.43086E+03
 1.42270E+00    5.35437E+03
 1.49570E+00    5.27391E+03
 1.57240E+00    5.18935E+03
 1.65300E+00    5.09910E+03
 1.73770E+00    4.99066E+03
 1.82680E+00    4.87320E+03
 1.92050E+00    4.74969E+03
 2.01900E+00    4.62167E+03
 2.12250E+00    4.49025E+03
 2.23130E+00    4.37583E+03
 2.30690E+00    4.30483E+03
 2.34570E+00    4.26864E+03
 2.36530E+00    4.24419E+03
 2.38520E+00    4.18213E+03
 2.46600E+00    4.05334E+03
 2.59240E+00    3.88712E+03
 2.72530E+00    3.72559E+03
 2.86500E+00    3.56611E+03
 3.01190E+00    3.40645E+03
 3.16640E+00    3.24633E+03
 3.32870E+00    3.01925E+03
 3.67880E+00    2.73946E+03
 4.06570E+00    2.52325E+03
 4.49330E+00    2.38568E+03
 4.72370E+00    2.29861E+03
 4.96590E+00    2.23484E+03
 5.22050E+00    2.20816E+03
 5.48810E+00    2.18073E+03
 5.76950E+00    2.15326E+03
 6.06530E+00    2.16404E+03
 6.37630E+00    2.18874E+03
 6.59240E+00    2.20407E+03
 6.70320E+00    2.22526E+03
 7.04690E+00    2.28365E+03
 7.40820E+00    2.36187E+03
 7.78800E+00    2.44455E+03
 8.18730E+00    2.54570E+03
 8.60710E+00    2.65527E+03
 9.04840E+00    2.76694E+03
 9.51230E+00    2.88240E+03
 1.00000E+01    3.04544E+03
 1.05130E+01    3.20479E+03
 1.10520E+01    3.24284E+03
 1.16180E+01    3.20146E+03
 1.22140E+01    3.17135E+03
 1.28400E+01    3.16963E+03
 1.34990E+01    3.21438E+03
 1.38400E+01    3.24080E+03
 1.41910E+01    3.24026E+03
 1.45500E+01    3.23982E+03
 1.49180E+01    3.23742E+03
 1.56830E+01    3.21512E+03
 1.64870E+01    3.17381E+03
