# n + Xe126 : (n,tot)   
# endfb8.0   JNDC FPND W.G., Mughabghab        EVAL-JAN05
# uncertainties: n
# # energies =   171
#   E(MeV)       xs(mb) 
 1.00000E-11    4.59206E+04
 1.00000E-07    6.31505E+03
 4.13990E-07    5.87350E+03
 5.31580E-07    5.77946E+03
 6.82560E-07    5.69652E+03
 8.76420E-07    5.62355E+03
 1.12540E-06    5.56014E+03
 1.44500E-06    5.50507E+03
 1.85540E-06    5.45698E+03
 2.37240E-06    5.41883E+03
 3.05900E-06    5.39226E+03
 3.92790E-06    5.39709E+03
 5.04350E-06    5.50044E+03
 6.47600E-06    6.29867E+03
 8.31530E-06    2.28425E+05
 1.06770E-05    8.71861E+03
 1.37100E-05    5.56229E+03
 1.76030E-05    5.19544E+03
 2.26030E-05    5.02665E+03
 2.92030E-05    4.90658E+03
 3.72670E-05    4.80045E+03
 4.78510E-05    4.69605E+03
 6.14420E-05    4.59001E+03
 7.88930E-05    4.48111E+03
 1.01300E-04    4.36610E+03
 1.30070E-04    4.23359E+03
 1.67020E-04    4.05605E+03
 2.14450E-04    1.27435E+04
 2.75360E-04    3.83902E+03
 3.53580E-04    2.54793E+03
 4.54000E-04    6.23456E+04
 5.82950E-04    4.99214E+03
 7.48520E-04    4.63828E+03
 9.61120E-04    4.48856E+03
 1.23410E-03    4.39827E+03
 1.58460E-03    4.31983E+03
 2.03470E-03    4.20626E+03
 2.24870E-03    1.10977E+04
 2.48520E-03    1.18635E+04
 2.61260E-03    1.16684E+04
 2.74650E-03    1.13862E+04
 3.03540E-03    1.10275E+04
 3.35460E-03    1.06854E+04
 3.70740E-03    1.02831E+04
 4.30740E-03    9.69468E+03
 5.53080E-03    9.04104E+03
 7.10170E-03    8.47069E+03
 9.11880E-03    7.97489E+03
 1.17090E-02    7.54655E+03
 1.50340E-02    7.17615E+03
 1.93050E-02    6.93282E+03
 2.18750E-02    6.81368E+03
 2.35790E-02    6.75805E+03
 2.41760E-02    6.72964E+03
 2.47880E-02    6.68870E+03
 2.60580E-02    6.64435E+03
 2.70000E-02    6.59762E+03
 2.85000E-02    6.51720E+03
 3.18280E-02    6.43059E+03
 3.43070E-02    6.32278E+03
 4.08680E-02    6.20456E+03
 4.63090E-02    6.11363E+03
 5.24750E-02    6.04561E+03
 5.65620E-02    5.96716E+03
 6.73790E-02    5.89596E+03
 7.20000E-02    5.85022E+03
 7.95000E-02    5.81407E+03
 8.25000E-02    5.79294E+03
 8.65170E-02    5.74918E+03
 9.80370E-02    5.69769E+03
 1.11090E-01    5.68046E+03
 1.16790E-01    5.67063E+03
 1.22770E-01    5.66030E+03
 1.29070E-01    5.64943E+03
 1.35690E-01    5.63800E+03
 1.42640E-01    5.62600E+03
 1.49960E-01    5.62031E+03
 1.57640E-01    5.62156E+03
 1.65730E-01    5.62287E+03
 1.74220E-01    5.62425E+03
 1.83160E-01    5.62570E+03
 1.92550E-01    5.62722E+03
 2.02420E-01    5.63009E+03
 2.12800E-01    5.63972E+03
 2.23710E-01    5.65079E+03
 2.35180E-01    5.66244E+03
 2.47240E-01    5.68176E+03
 2.73240E-01    5.70816E+03
 2.87250E-01    5.72353E+03
 2.94520E-01    5.73071E+03
 2.97200E-01    5.73358E+03
 2.98500E-01    5.73700E+03
 3.01970E-01    5.76257E+03
 3.33730E-01    5.81577E+03
 3.68830E-01    5.85981E+03
 3.87740E-01    5.89119E+03
 4.07620E-01    5.94129E+03
 4.50490E-01    6.01163E+03
 4.97870E-01    6.06846E+03
 5.23400E-01    6.10894E+03
 5.50230E-01    6.15149E+03
 5.78440E-01    6.19624E+03
 6.08100E-01    6.24196E+03
 6.39280E-01    6.28289E+03
 6.72060E-01    6.32484E+03
 7.06510E-01    6.36894E+03
 7.42740E-01    6.41341E+03
 7.80820E-01    6.45135E+03
 8.20850E-01    6.49012E+03
 8.62940E-01    6.53067E+03
 9.07180E-01    6.56530E+03
 9.61640E-01    6.59350E+03
 1.00260E+00    6.62176E+03
 1.10800E+00    6.64133E+03
 1.16480E+00    6.65512E+03
 1.22460E+00    6.66501E+03
 1.28730E+00    6.65536E+03
 1.35340E+00    6.64015E+03
 1.42270E+00    6.61543E+03
 1.49570E+00    6.58648E+03
 1.57240E+00    6.54302E+03
 1.65300E+00    6.49517E+03
 1.73770E+00    6.43440E+03
 1.82680E+00    6.36354E+03
 1.92050E+00    6.28903E+03
 2.01900E+00    6.20770E+03
 2.12250E+00    6.11516E+03
 2.23130E+00    6.03432E+03
 2.30690E+00    5.98416E+03
 2.34570E+00    5.95859E+03
 2.36530E+00    5.94131E+03
 2.38520E+00    5.89746E+03
 2.46600E+00    5.80713E+03
 2.59240E+00    5.69559E+03
 2.72530E+00    5.58122E+03
 2.86500E+00    5.46160E+03
 3.01190E+00    5.33642E+03
 3.16640E+00    5.20164E+03
 3.32870E+00    5.00189E+03
 3.67880E+00    4.74777E+03
 4.06570E+00    4.51663E+03
 4.49330E+00    4.35417E+03
 4.72370E+00    4.24749E+03
 4.96590E+00    4.16388E+03
 5.22050E+00    4.11593E+03
 5.48810E+00    4.06610E+03
 5.76950E+00    4.01623E+03
 6.06530E+00    4.01560E+03
 6.37630E+00    4.03396E+03
 6.59240E+00    4.04534E+03
 6.70320E+00    4.06141E+03
 7.04690E+00    4.11267E+03
 7.40820E+00    4.18291E+03
 7.78800E+00    4.25675E+03
 8.18730E+00    4.33439E+03
 8.60710E+00    4.41600E+03
 9.04840E+00    4.49669E+03
 9.51230E+00    4.57175E+03
 1.00000E+01    4.63884E+03
 1.05130E+01    4.69623E+03
 1.10520E+01    4.75101E+03
 1.16180E+01    4.81121E+03
 1.22140E+01    4.86398E+03
 1.28400E+01    4.91385E+03
 1.34990E+01    4.95154E+03
 1.38400E+01    4.97728E+03
 1.41910E+01    5.00522E+03
 1.45500E+01    5.03357E+03
 1.49180E+01    5.07192E+03
 1.56830E+01    5.10444E+03
 1.64870E+01    5.07826E+03
