# n + Kr 80 : (n,el)    
# endfb8.0   JNDC FP Nuclear Data W.G.         EVAL-MAR90
# uncertainties: n
# # energies =   171
#   E(MeV)       xs(mb) 
 1.00000E-11    1.37124E+04
 1.00000E-07    7.28538E+03
 4.13990E-07    7.26751E+03
 5.31580E-07    7.25989E+03
 6.82560E-07    7.25009E+03
 8.76420E-07    7.23752E+03
 1.12540E-06    7.22137E+03
 1.44500E-06    7.20106E+03
 1.85540E-06    7.17665E+03
 2.37240E-06    7.14515E+03
 3.05900E-06    7.10435E+03
 3.92790E-06    7.05233E+03
 5.04350E-06    6.98554E+03
 6.47600E-06    6.89978E+03
 8.31530E-06    6.78966E+03
 1.06770E-05    6.64825E+03
 1.37100E-05    6.46868E+03
 1.76030E-05    6.24258E+03
 2.26030E-05    5.94815E+03
 2.92030E-05    5.57285E+03
 3.72670E-05    5.06398E+03
 4.78510E-05    4.30446E+03
 6.14420E-05    2.97517E+03
 7.88930E-05    2.08516E+03
 1.01300E-04    4.69057E+05
 1.30070E-04    1.18862E+04
 1.67020E-04    8.44038E+03
 2.14450E-04    7.10088E+03
 2.75360E-04    6.21392E+03
 3.53580E-04    1.39699E+04
 4.54000E-04    6.96859E+03
 5.82950E-04    4.86994E+03
 7.48520E-04    4.34041E+04
 9.61120E-04    1.27706E+04
 1.23410E-03    1.23640E+04
 1.58460E-03    1.18007E+04
 2.03470E-03    1.14341E+04
 2.24870E-03    1.12361E+04
 2.48520E-03    1.10929E+04
 2.61260E-03    1.10002E+04
 2.74650E-03    1.08661E+04
 3.03540E-03    1.06922E+04
 3.35460E-03    1.05258E+04
 3.70740E-03    1.03282E+04
 4.30740E-03    1.00371E+04
 5.53080E-03    9.70995E+03
 7.10170E-03    9.42314E+03
 9.11880E-03    9.17671E+03
 1.17090E-02    8.96470E+03
 1.50340E-02    8.78183E+03
 1.93050E-02    8.66158E+03
 2.18750E-02    8.60318E+03
 2.35790E-02    8.57566E+03
 2.41760E-02    8.56152E+03
 2.47880E-02    8.54104E+03
 2.60580E-02    8.51872E+03
 2.70000E-02    8.49514E+03
 2.85000E-02    8.45405E+03
 3.18280E-02    8.40899E+03
 3.43070E-02    8.35135E+03
 4.08680E-02    8.28503E+03
 4.63090E-02    8.23177E+03
 5.24750E-02    8.19001E+03
 5.65620E-02    8.13849E+03
 6.73790E-02    8.08848E+03
 7.20000E-02    8.05413E+03
 7.95000E-02    8.02564E+03
 8.25000E-02    8.00774E+03
 8.65170E-02    7.97085E+03
 9.80370E-02    7.92890E+03
 1.11090E-01    7.91497E+03
 1.16790E-01    7.90675E+03
 1.22770E-01    7.89811E+03
 1.29070E-01    7.88901E+03
 1.35690E-01    7.87946E+03
 1.42640E-01    7.86942E+03
 1.49960E-01    7.85886E+03
 1.57640E-01    7.84633E+03
 1.65730E-01    7.82940E+03
 1.74220E-01    7.81140E+03
 1.83160E-01    7.79247E+03
 1.92550E-01    7.77258E+03
 2.02420E-01    7.75146E+03
 2.12800E-01    7.72490E+03
 2.23710E-01    7.69525E+03
 2.35180E-01    7.66407E+03
 2.47240E-01    7.61331E+03
 2.73240E-01    7.55348E+03
 2.87250E-01    7.52059E+03
 2.94520E-01    7.50524E+03
 2.97200E-01    7.49911E+03
 2.98500E-01    7.49177E+03
 3.01970E-01    7.42332E+03
 3.33730E-01    7.28344E+03
 3.68830E-01    7.18012E+03
 3.87740E-01    7.11460E+03
 4.07620E-01    7.01025E+03
 4.50490E-01    6.87491E+03
 4.97870E-01    6.76323E+03
 5.23400E-01    6.66688E+03
 5.50230E-01    6.56504E+03
 5.78440E-01    6.46382E+03
 6.08100E-01    6.35549E+03
 6.39280E-01    6.17053E+03
 6.72060E-01    5.97266E+03
 7.06510E-01    5.78037E+03
 7.42740E-01    5.59454E+03
 7.80820E-01    5.41195E+03
 8.20850E-01    5.24126E+03
 8.62940E-01    5.07418E+03
 9.07180E-01    4.90051E+03
 9.61640E-01    4.74768E+03
 1.00260E+00    4.53728E+03
 1.10800E+00    4.32517E+03
 1.16480E+00    4.18883E+03
 1.22460E+00    4.05450E+03
 1.28730E+00    3.89215E+03
 1.35340E+00    3.71044E+03
 1.42270E+00    3.52823E+03
 1.49570E+00    3.36540E+03
 1.57240E+00    3.21863E+03
 1.65300E+00    3.07870E+03
 1.73770E+00    2.95053E+03
 1.82680E+00    2.83484E+03
 1.92050E+00    2.72041E+03
 2.01900E+00    2.62129E+03
 2.12250E+00    2.53095E+03
 2.23130E+00    2.46584E+03
 2.30690E+00    2.42693E+03
 2.34570E+00    2.40710E+03
 2.36530E+00    2.39439E+03
 2.38520E+00    2.36521E+03
 2.46600E+00    2.31602E+03
 2.59240E+00    2.25921E+03
 2.72530E+00    2.21469E+03
 2.86500E+00    2.17928E+03
 3.01190E+00    2.15415E+03
 3.16640E+00    2.14103E+03
 3.32870E+00    2.13930E+03
 3.67880E+00    2.16965E+03
 4.06570E+00    2.23331E+03
 4.49330E+00    2.29607E+03
 4.72370E+00    2.33435E+03
 4.96590E+00    2.37461E+03
 5.22050E+00    2.42473E+03
 5.48810E+00    2.47664E+03
 5.76950E+00    2.52462E+03
 6.06530E+00    2.58712E+03
 6.37630E+00    2.64665E+03
 6.59240E+00    2.68337E+03
 6.70320E+00    2.72912E+03
 7.04690E+00    2.79263E+03
 7.40820E+00    2.85205E+03
 7.78800E+00    2.90964E+03
 8.18730E+00    2.94583E+03
 8.60710E+00    2.98034E+03
 9.04840E+00    2.99458E+03
 9.51230E+00    2.99460E+03
 1.00000E+01    2.97603E+03
 1.05130E+01    2.93882E+03
 1.10520E+01    2.90180E+03
 1.16180E+01    2.83848E+03
 1.22140E+01    2.72960E+03
 1.28400E+01    2.63105E+03
 1.34990E+01    2.57651E+03
 1.38400E+01    2.53742E+03
 1.41910E+01    2.47842E+03
 1.45500E+01    2.42664E+03
 1.49180E+01    2.35046E+03
 1.56830E+01    2.24068E+03
 1.64870E+01    2.12743E+03
