# n + Kr 80 : (n,tot)   
# endfb8.0   JNDC FP Nuclear Data W.G.         EVAL-MAR90
# uncertainties: n
# # energies =   171
#   E(MeV)       xs(mb) 
 1.00000E-11    1.38092E+05
 1.00000E-07    1.14214E+04
 4.13990E-07    9.93202E+03
 5.31580E-07    9.60882E+03
 6.82560E-07    9.32046E+03
 8.76420E-07    9.06207E+03
 1.12540E-06    8.83031E+03
 1.44500E-06    8.61969E+03
 1.85540E-06    8.42759E+03
 2.37240E-06    8.24403E+03
 3.05900E-06    8.06728E+03
 3.92790E-06    7.89596E+03
 5.04350E-06    7.72429E+03
 6.47600E-06    7.54742E+03
 8.31530E-06    7.35648E+03
 1.06770E-05    7.14634E+03
 1.37100E-05    6.91110E+03
 1.76030E-05    6.63744E+03
 2.26030E-05    6.30267E+03
 2.92030E-05    5.89715E+03
 3.72670E-05    5.38455E+03
 4.78510E-05    4.66974E+03
 6.14420E-05    3.55754E+03
 7.88930E-05    6.16140E+03
 1.01300E-04    6.59308E+05
 1.30070E-04    1.22296E+04
 1.67020E-04    8.51997E+03
 2.14450E-04    7.13403E+03
 2.75360E-04    6.23626E+03
 3.53580E-04    2.33092E+04
 4.54000E-04    7.19741E+03
 5.82950E-04    4.88168E+03
 7.48520E-04    4.74416E+04
 9.61120E-04    1.40987E+04
 1.23410E-03    1.36950E+04
 1.58460E-03    1.29412E+04
 2.03470E-03    1.24647E+04
 2.24870E-03    1.22127E+04
 2.48520E-03    1.20317E+04
 2.61260E-03    1.19152E+04
 2.74650E-03    1.17478E+04
 3.03540E-03    1.15321E+04
 3.35460E-03    1.13273E+04
 3.70740E-03    1.10861E+04
 4.30740E-03    1.07335E+04
 5.53080E-03    1.03398E+04
 7.10170E-03    9.99417E+03
 9.11880E-03    9.69246E+03
 1.17090E-02    9.42767E+03
 1.50340E-02    9.19453E+03
 1.93050E-02    9.03749E+03
 2.18750E-02    8.96020E+03
 2.35790E-02    8.92352E+03
 2.41760E-02    8.90464E+03
 2.47880E-02    8.87725E+03
 2.60580E-02    8.84731E+03
 2.70000E-02    8.81560E+03
 2.85000E-02    8.76013E+03
 3.18280E-02    8.69932E+03
 3.43070E-02    8.62124E+03
 4.08680E-02    8.53173E+03
 4.63090E-02    8.46042E+03
 5.24750E-02    8.40513E+03
 5.65620E-02    8.33800E+03
 6.73790E-02    8.27402E+03
 7.20000E-02    8.23083E+03
 7.95000E-02    8.19540E+03
 8.25000E-02    8.17349E+03
 8.65170E-02    8.12880E+03
 9.80370E-02    8.07679E+03
 1.11090E-01    8.05768E+03
 1.16790E-01    8.04638E+03
 1.22770E-01    8.03450E+03
 1.29070E-01    8.02200E+03
 1.35690E-01    8.00887E+03
 1.42640E-01    7.99506E+03
 1.49960E-01    7.98055E+03
 1.57640E-01    7.96529E+03
 1.65730E-01    7.94872E+03
 1.74220E-01    7.92889E+03
 1.83160E-01    7.90773E+03
 1.92550E-01    7.88550E+03
 2.02420E-01    7.86212E+03
 2.12800E-01    7.83580E+03
 2.23710E-01    7.80498E+03
 2.35180E-01    7.77252E+03
 2.47240E-01    7.72035E+03
 2.73240E-01    7.66097E+03
 2.87250E-01    7.62779E+03
 2.94520E-01    7.61229E+03
 2.97200E-01    7.60610E+03
 2.98500E-01    7.59870E+03
 3.01970E-01    7.53112E+03
 3.33730E-01    7.39346E+03
 3.68830E-01    7.28964E+03
 3.87740E-01    7.22554E+03
 4.07620E-01    7.12304E+03
 4.50490E-01    6.98849E+03
 4.97870E-01    6.87862E+03
 5.23400E-01    6.78427E+03
 5.50230E-01    6.68456E+03
 5.78440E-01    6.58467E+03
 6.08100E-01    6.48680E+03
 6.39280E-01    6.38397E+03
 6.72060E-01    6.27589E+03
 7.06510E-01    6.16225E+03
 7.42740E-01    6.04328E+03
 7.80820E-01    5.92820E+03
 8.20850E-01    5.81115E+03
 8.62940E-01    5.68917E+03
 9.07180E-01    5.56099E+03
 9.61640E-01    5.43887E+03
 1.00260E+00    5.26950E+03
 1.10800E+00    5.09304E+03
 1.16480E+00    4.97921E+03
 1.22460E+00    4.86680E+03
 1.28730E+00    4.75963E+03
 1.35340E+00    4.65436E+03
 1.42270E+00    4.55489E+03
 1.49570E+00    4.46038E+03
 1.57240E+00    4.37379E+03
 1.65300E+00    4.28523E+03
 1.73770E+00    4.20333E+03
 1.82680E+00    4.13053E+03
 1.92050E+00    4.06035E+03
 2.01900E+00    3.99579E+03
 2.12250E+00    3.93615E+03
 2.23130E+00    3.89236E+03
 2.30690E+00    3.86781E+03
 2.34570E+00    3.85530E+03
 2.36530E+00    3.84685E+03
 2.38520E+00    3.82539E+03
 2.46600E+00    3.78981E+03
 2.59240E+00    3.75328E+03
 2.72530E+00    3.71957E+03
 2.86500E+00    3.69343E+03
 3.01190E+00    3.67441E+03
 3.16640E+00    3.66140E+03
 3.32870E+00    3.65442E+03
 3.67880E+00    3.66969E+03
 4.06570E+00    3.71398E+03
 4.49330E+00    3.76734E+03
 4.72370E+00    3.81519E+03
 4.96590E+00    3.87128E+03
 5.22050E+00    3.93754E+03
 5.48810E+00    4.00806E+03
 5.76950E+00    4.08221E+03
 6.06530E+00    4.16017E+03
 6.37630E+00    4.22679E+03
 6.59240E+00    4.26548E+03
 6.70320E+00    4.31860E+03
 7.04690E+00    4.38540E+03
 7.40820E+00    4.43885E+03
 7.78800E+00    4.48982E+03
 8.18730E+00    4.50633E+03
 8.60710E+00    4.51617E+03
 9.04840E+00    4.49926E+03
 9.51230E+00    4.46295E+03
 1.00000E+01    4.40237E+03
 1.05130E+01    4.31946E+03
 1.10520E+01    4.23805E+03
 1.16180E+01    4.15681E+03
 1.22140E+01    4.06009E+03
 1.28400E+01    3.96062E+03
 1.34990E+01    3.88763E+03
 1.38400E+01    3.84006E+03
 1.41910E+01    3.79485E+03
 1.45500E+01    3.75077E+03
 1.49180E+01    3.68675E+03
 1.56830E+01    3.60230E+03
 1.64870E+01    3.50866E+03
