# n + Ga  0 : (n,xa)
# jeff3.3    A.J. Koning and D. Rochman        EVAL-DEC15
#
# # energies =   131
#   E(MeV)          xs(mb) 
 3.23354E-01    4.10062E-07
 4.00000E-01    5.98904E-07
 5.00000E-01    1.30479E-06
 5.82613E-01    2.08754E-06
 6.00000E-01    2.25343E-06
 7.00000E-01    4.17492E-06
 8.00000E-01    7.35361E-06
 8.84893E-01    1.25794E-05
 9.00000E-01    1.35093E-05
 1.00000E+00    2.31448E-05
 1.04363E+00    3.15778E-05
 1.12323E+00    4.69634E-05
 1.15060E+00    5.22535E-05
 1.20000E+00    6.18019E-05
 1.35625E+00    1.31973E-04
 1.40000E+00    1.51621E-04
 1.50992E+00    2.97269E-04
 1.54809E+00    3.47846E-04
 1.60000E+00    4.16628E-04
 1.74892E+00    8.55667E-04
 1.79060E+00    9.78547E-04
 1.80000E+00    1.00626E-03
 1.91931E+00    1.68854E-03
 1.95239E+00    1.87771E-03
 2.00000E+00    2.14998E-03
 2.00125E+00    2.16328E-03
 2.01950E+00    2.35752E-03
 2.03703E+00    2.54408E-03
 2.05346E+00    2.71895E-03
 2.07515E+00    2.94979E-03
 2.20000E+00    4.27857E-03
 2.23017E+00    4.87528E-03
 2.25175E+00    5.30210E-03
 2.28392E+00    5.93838E-03
 2.35348E+00    7.31415E-03
 2.38773E+00    7.99158E-03
 2.40000E+00    8.23426E-03
 2.45878E+00    1.02282E-02
 2.46422E+00    1.04127E-02
 2.49481E+00    1.14504E-02
 2.52208E+00    1.23754E-02
 2.56682E+00    1.38930E-02
 2.60000E+00    1.50185E-02
 2.60193E+00    1.51256E-02
 2.61019E+00    1.55838E-02
 2.80000E+00    2.61124E-02
 3.00000E+00    4.25578E-02
 3.20000E+00    6.61106E-02
 3.40000E+00    1.01717E-01
 3.60000E+00    1.48363E-01
 3.80000E+00    2.10410E-01
 4.00000E+00    2.91125E-01
 4.20000E+00    3.88817E-01
 4.40000E+00    5.16121E-01
 4.60000E+00    6.63924E-01
 4.80000E+00    8.35968E-01
 5.00000E+00    1.04526E+00
 5.20000E+00    1.26953E+00
 5.40000E+00    1.53536E+00
 5.60000E+00    1.82050E+00
 5.80000E+00    2.11282E+00
 6.00000E+00    2.46953E+00
 6.20000E+00    2.79542E+00
 6.40000E+00    3.16993E+00
 6.60000E+00    3.54510E+00
 6.80000E+00    3.87330E+00
 7.00000E+00    4.29072E+00
 7.20000E+00    4.67761E+00
 7.40000E+00    5.02871E+00
 7.60000E+00    5.50568E+00
 7.80000E+00    5.80851E+00
 8.00000E+00    6.26776E+00
 8.50000E+00    7.32557E+00
 9.00000E+00    8.45823E+00
 9.50000E+00    9.70316E+00
 1.00000E+01    1.11309E+01
 1.05000E+01    1.29114E+01
 1.10000E+01    1.49658E+01
 1.15000E+01    1.67769E+01
 1.20000E+01    1.81263E+01
 1.25000E+01    1.94348E+01
 1.30000E+01    2.05988E+01
 1.35000E+01    2.18626E+01
 1.40000E+01    2.30774E+01
 1.45000E+01    2.43759E+01
 1.50000E+01    2.56250E+01
 1.60000E+01    2.82056E+01
 1.70000E+01    3.06989E+01
 1.80000E+01    3.30299E+01
 1.90000E+01    3.55017E+01
 2.00000E+01    3.78764E+01
 2.10000E+01    4.02329E+01
 2.20000E+01    4.25538E+01
 2.30000E+01    4.47847E+01
 2.40000E+01    4.66704E+01
 2.50000E+01    4.88177E+01
 2.60000E+01    5.08876E+01
 2.70000E+01    5.29274E+01
 2.80000E+01    5.50112E+01
 2.90000E+01    5.70356E+01
 3.00000E+01    5.90126E+01
 3.00000E+01    5.90126E+01
 3.20000E+01    6.30526E+01
 3.40000E+01    6.74319E+01
 3.60000E+01    7.19252E+01
 3.80000E+01    7.60038E+01
 4.00000E+01    7.95732E+01
 4.20000E+01    8.26837E+01
 4.40000E+01    8.51478E+01
 4.60000E+01    8.72120E+01
 4.80000E+01    8.89989E+01
 5.00000E+01    9.09622E+01
 5.20000E+01    9.31218E+01
 5.40000E+01    9.52031E+01
 5.60000E+01    9.72104E+01
 5.80000E+01    9.91174E+01
 6.00000E+01    1.00665E+02
 6.50000E+01    1.04820E+02
 7.00000E+01    1.07509E+02
 7.50000E+01    1.10396E+02
 8.00000E+01    1.12407E+02
 9.00000E+01    1.14369E+02
 1.00000E+02    1.09747E+02
 1.10000E+02    1.07837E+02
 1.20000E+02    1.10424E+02
 1.30000E+02    1.19146E+02
 1.40000E+02    1.26709E+02
 1.50000E+02    1.33118E+02
 1.60000E+02    1.39945E+02
 1.80000E+02    1.61548E+02
 2.00000E+02    1.93463E+02
