# n + Cl  0 : (n,n'01)
# jendl4.0   T.WATANABE                        EVAL-MAR94
# uncertainties: n
# # energies =   219
#   E(MeV)          xs(mb) 
 1.77367E+00    2.88835E+01
 1.77370E+00    2.88855E+01
 1.77412E+00    2.89134E+01
 1.77495E+00    2.89689E+01
 1.77660E+00    2.90794E+01
 1.77825E+00    2.91894E+01
 1.77988E+00    2.92983E+01
 1.78313E+00    2.95141E+01
 1.78633E+00    2.97253E+01
 1.78948E+00    2.99333E+01
 1.79260E+00    3.01387E+01
 1.79567E+00    3.03408E+01
 1.79869E+00    3.05397E+01
 1.80466E+00    3.09322E+01
 1.81047E+00    3.13134E+01
 1.81611E+00    3.16756E+01
 1.82159E+00    3.20147E+01
 1.82692E+00    3.23438E+01
 1.83210E+00    3.26633E+01
 1.83712E+00    3.29725E+01
 1.84690E+00    3.35703E+01
 1.85612E+00    3.41323E+01
 1.86480E+00    3.46563E+01
 1.87297E+00    3.51487E+01
 1.88067E+00    3.56116E+01
 1.88792E+00    3.60465E+01
 1.90158E+00    3.68587E+01
 1.91361E+00    3.75705E+01
 1.92420E+00    3.81916E+01
 1.93352E+00    3.87348E+01
 1.94993E+00    3.96886E+01
 1.96233E+00    4.04043E+01
 1.97168E+00    4.09383E+01
 1.98579E+00    4.17421E+01
 2.00000E+00    4.25490E+01
 2.01271E+00    4.33616E+01
 2.02530E+00    4.41646E+01
 2.03777E+00    4.49581E+01
 2.05013E+00    4.57344E+01
 2.06236E+00    4.65003E+01
 2.07447E+00    4.72569E+01
 2.09852E+00    4.87393E+01
 2.12209E+00    5.01781E+01
 2.14517E+00    5.15733E+01
 2.16778E+00    5.29217E+01
 2.18990E+00    5.42292E+01
 2.21154E+00    5.54969E+01
 2.23272E+00    5.67242E+01
 2.25342E+00    5.79123E+01
 2.27367E+00    5.90645E+01
 2.29345E+00    6.01803E+01
 2.31278E+00    6.12576E+01
 2.33166E+00    6.23065E+01
 2.35009E+00    6.33210E+01
 2.38623E+00    6.52885E+01
 2.42061E+00    6.71300E+01
 2.45330E+00    6.88573E+01
 2.48434E+00    7.04768E+01
 2.51380E+00    7.19914E+01
 2.54173E+00    7.34177E+01
 2.56820E+00    7.47508E+01
 2.59327E+00    7.60038E+01
 2.61699E+00    7.71762E+01
 2.66206E+00    7.93740E+01
 2.70212E+00    8.12966E+01
 2.73768E+00    8.28251E+01
 2.76917E+00    8.39969E+01
 2.79702E+00    8.48972E+01
 2.84644E+00    8.64573E+01
 2.88408E+00    8.76275E+01
 2.94147E+00    8.93837E+01
 3.00000E+00    9.11442E+01
 3.04180E+00    9.20347E+01
 3.07354E+00    9.27023E+01
 3.12176E+00    9.33207E+01
 3.17074E+00    9.37469E+01
 3.18790E+00    9.34581E+01
 3.25054E+00    9.34396E+01
 3.30635E+00    9.29312E+01
 3.35598E+00    9.24531E+01
 3.44462E+00    9.16206E+01
 3.51264E+00    9.09951E+01
 3.56453E+00    9.05259E+01
 3.64381E+00    8.98218E+01
 3.72485E+00    8.91203E+01
 3.80888E+00    8.74893E+01
 3.84288E+00    8.65961E+01
 4.00000E+00    8.32937E+01
 4.11921E+00    8.10852E+01
 4.12579E+00    8.09405E+01
 4.20732E+00    7.88354E+01
 4.29046E+00    7.66191E+01
 4.38528E+00    7.39401E+01
 4.38908E+00    7.38004E+01
 4.45216E+00    7.19910E+01
 4.51615E+00    7.02430E+01
 4.58159E+00    6.82384E+01
 4.66993E+00    6.58158E+01
 4.72642E+00    6.43118E+01
 4.81245E+00    6.20320E+01
 4.90004E+00    5.97409E+01
 4.93209E+00    5.89329E+01
 4.94205E+00    5.86039E+01
 4.96948E+00    5.77817E+01
 4.98633E+00    5.72136E+01
 5.00000E+00    5.67853E+01
 5.03789E+00    5.57393E+01
 5.05515E+00    5.52741E+01
 5.05721E+00    5.52218E+01
 5.09604E+00    5.42823E+01
 5.10960E+00    5.39095E+01
 5.14586E+00    5.30416E+01
 5.19301E+00    5.18794E+01
 5.19702E+00    5.17578E+01
 5.19794E+00    5.17294E+01
 5.24477E+00    5.07514E+01
 5.33371E+00    4.89187E+01
 5.41277E+00    4.73151E+01
 5.48291E+00    4.59120E+01
 5.54503E+00    4.46843E+01
 5.59996E+00    4.36119E+01
 5.64846E+00    4.26710E+01
 5.69125E+00    4.18487E+01
 5.76692E+00    4.04090E+01
 5.82433E+00    3.93299E+01
 5.86776E+00    3.85210E+01
 5.93351E+00    3.73067E+01
 6.00000E+00    3.60909E+01
 6.05809E+00    3.53258E+01
 6.11305E+00    3.46051E+01
 6.16504E+00    3.39323E+01
 6.21417E+00    3.32993E+01
 6.30736E+00    3.21143E+01
 6.39004E+00    3.10774E+01
 6.46328E+00    3.01703E+01
 6.52805E+00    2.93764E+01
 6.58526E+00    2.86833E+01
 6.63573E+00    2.80745E+01
 6.72498E+00    2.70107E+01
 6.79271E+00    2.62129E+01
 6.84395E+00    2.56156E+01
 6.92153E+00    2.47179E+01
 7.00000E+00    2.38197E+01
 7.05866E+00    2.33790E+01
 7.16999E+00    2.25502E+01
 7.26884E+00    2.18250E+01
 7.35645E+00    2.11905E+01
 7.43397E+00    2.06354E+01
 7.50247E+00    2.01502E+01
 7.56293E+00    1.97253E+01
 7.66991E+00    1.89811E+01
 7.75113E+00    1.84232E+01
 7.81261E+00    1.80053E+01
 7.90575E+00    1.73776E+01
 8.00000E+00    1.67496E+01
 8.11865E+00    1.61680E+01
 8.22392E+00    1.56591E+01
 8.31715E+00    1.52138E+01
 8.39958E+00    1.48242E+01
 8.47239E+00    1.44842E+01
 8.60132E+00    1.38872E+01
 8.69930E+00    1.34395E+01
 8.77352E+00    1.31042E+01
 8.88604E+00    1.26005E+01
 9.00000E+00    1.20968E+01
 9.11932E+00    1.17417E+01
 9.22501E+00    1.14310E+01
 9.31850E+00    1.11592E+01
 9.40108E+00    1.09220E+01
 9.47394E+00    1.07133E+01
 9.60280E+00    1.03489E+01
 9.70060E+00    1.00757E+01
 9.77460E+00    9.87129E+00
 9.88666E+00    9.56378E+00
 1.00000E+01    9.25608E+00
 1.01199E+01    9.05557E+00
 1.02259E+01    8.88078E+00
 1.03196E+01    8.72680E+00
 1.04856E+01    8.45809E+00
 1.06119E+01    8.25653E+00
 1.07077E+01    8.10573E+00
 1.08528E+01    7.87904E+00
 1.10000E+01    7.65199E+00
 1.11203E+01    7.51898E+00
 1.12266E+01    7.40179E+00
 1.14152E+01    7.19723E+00
 1.15586E+01    7.04393E+00
 1.16674E+01    6.92926E+00
 1.18326E+01    6.75659E+00
 1.20000E+01    6.58385E+00
 1.21207E+01    6.49244E+00
 1.23348E+01    6.33181E+00
 1.24978E+01    6.21161E+00
 1.26215E+01    6.12137E+00
 1.28094E+01    5.98594E+00
 1.30000E+01    5.85018E+00
 1.32431E+01    5.71195E+00
 1.34284E+01    5.60828E+00
 1.35691E+01    5.53081E+00
 1.37829E+01    5.41409E+00
 1.40000E+01    5.29725E+00
 1.42478E+01    5.18183E+00
 1.45000E+01    5.06641E+00
 1.47479E+01    4.96414E+00
 1.50000E+01    4.86187E+00
 1.52440E+01    4.77540E+00
 1.56174E+01    4.64569E+00
 1.60000E+01    4.51598E+00
 1.62443E+01    4.44409E+00
 1.66179E+01    4.33625E+00
 1.70000E+01    4.22841E+00
 1.72447E+01    4.16639E+00
 1.76183E+01    4.07337E+00
 1.80000E+01    3.98036E+00
 1.82450E+01    3.92567E+00
 1.86187E+01    3.84312E+00
 1.90000E+01    3.76043E+00
 1.94936E+01    3.66006E+00
 2.00000E+01    3.55970E+00
