# n + Cl  0 : (n,xp)
# jendl4.0   T.WATANABE                        EVAL-MAR94
#
# # energies =   202
#   E(MeV)          xs(mb) 
 1.77367E+00    7.20582E+01
 1.77370E+00    7.20601E+01
 1.77412E+00    7.20862E+01
 1.77495E+00    7.21378E+01
 1.77660E+00    7.22403E+01
 1.77825E+00    7.23428E+01
 1.77988E+00    7.24441E+01
 1.78313E+00    7.26461E+01
 1.78633E+00    7.28450E+01
 1.78948E+00    7.30408E+01
 1.79260E+00    7.32347E+01
 1.79567E+00    7.34255E+01
 1.79869E+00    7.36132E+01
 1.80466E+00    7.39843E+01
 1.81047E+00    7.43454E+01
 1.81611E+00    7.46960E+01
 1.82159E+00    7.50367E+01
 1.82692E+00    7.53680E+01
 1.83210E+00    7.56898E+01
 1.83712E+00    7.60017E+01
 1.84690E+00    7.66096E+01
 1.85612E+00    7.71822E+01
 1.86480E+00    7.77224E+01
 1.87297E+00    7.82296E+01
 1.88067E+00    7.87076E+01
 1.88792E+00    7.91586E+01
 1.90158E+00    8.00079E+01
 1.91361E+00    8.07554E+01
 1.92420E+00    8.14134E+01
 1.93352E+00    8.19926E+01
 1.94993E+00    8.30123E+01
 1.96233E+00    8.37830E+01
 1.97168E+00    8.43644E+01
 1.98579E+00    8.52416E+01
 2.00000E+00    8.61240E+01
 2.01271E+00    8.66849E+01
 2.02530E+00    8.72405E+01
 2.03777E+00    8.77908E+01
 2.05013E+00    8.83363E+01
 2.06236E+00    8.88761E+01
 2.07447E+00    8.94105E+01
 2.09852E+00    9.04717E+01
 2.12209E+00    9.15120E+01
 2.14517E+00    9.25304E+01
 2.16778E+00    9.35281E+01
 2.18990E+00    9.45045E+01
 2.21154E+00    9.54592E+01
 2.23272E+00    9.63936E+01
 2.25342E+00    9.73071E+01
 2.27367E+00    9.82013E+01
 2.29345E+00    9.90741E+01
 2.31278E+00    9.99270E+01
 2.33166E+00    1.00760E+02
 2.35009E+00    1.01574E+02
 2.38623E+00    1.03168E+02
 2.42061E+00    1.04685E+02
 2.45330E+00    1.06128E+02
 2.48434E+00    1.07498E+02
 2.51380E+00    1.08798E+02
 2.54173E+00    1.10030E+02
 2.56820E+00    1.11198E+02
 2.59327E+00    1.12304E+02
 2.61699E+00    1.13351E+02
 2.66206E+00    1.15340E+02
 2.70212E+00    1.17108E+02
 2.73768E+00    1.18677E+02
 2.76917E+00    1.20067E+02
 2.79702E+00    1.21296E+02
 2.84644E+00    1.23476E+02
 2.88408E+00    1.25138E+02
 2.94147E+00    1.27670E+02
 3.00000E+00    1.30253E+02
 3.04170E+00    1.31604E+02
 3.07335E+00    1.32631E+02
 3.12145E+00    1.34190E+02
 3.17030E+00    1.35774E+02
 3.17074E+00    1.35788E+02
 3.18790E+00    1.36345E+02
 3.18800E+00    1.36348E+02
 3.21916E+00    1.37358E+02
 3.24865E+00    1.38314E+02
 3.27654E+00    1.39218E+02
 3.30291E+00    1.40073E+02
 3.32782E+00    1.40881E+02
 3.35135E+00    1.41644E+02
 3.37355E+00    1.42363E+02
 3.41558E+00    1.43726E+02
 3.45279E+00    1.44932E+02
 3.48568E+00    1.45999E+02
 3.51472E+00    1.46940E+02
 3.54032E+00    1.47770E+02
 3.58558E+00    1.49237E+02
 3.61990E+00    1.50350E+02
 3.67200E+00    1.52039E+02
 3.72485E+00    1.53753E+02
 3.72490E+00    1.53754E+02
 3.76666E+00    1.55108E+02
 3.80888E+00    1.56477E+02
 3.80900E+00    1.56481E+02
 3.84288E+00    1.57579E+02
 3.84330E+00    1.57593E+02
 3.88189E+00    1.58844E+02
 3.91109E+00    1.59791E+02
 3.95529E+00    1.61223E+02
 4.00000E+00    1.62673E+02
 4.05917E+00    1.63529E+02
 4.11921E+00    1.64398E+02
 4.11930E+00    1.64399E+02
 4.12579E+00    1.64493E+02
 4.12590E+00    1.64494E+02
 4.16644E+00    1.65081E+02
 4.22799E+00    1.65972E+02
 4.29046E+00    1.66876E+02
 4.29060E+00    1.66878E+02
 4.33768E+00    1.67561E+02
 4.38528E+00    1.68250E+02
 4.38540E+00    1.68252E+02
 4.38908E+00    1.68305E+02
 4.38920E+00    1.68307E+02
 4.45222E+00    1.69219E+02
 4.51615E+00    1.70145E+02
 4.51630E+00    1.70147E+02
 4.58159E+00    1.71092E+02
 4.62555E+00    1.71729E+02
 4.66993E+00    1.72372E+02
 4.72642E+00    1.73190E+02
 4.81245E+00    1.74436E+02
 4.90004E+00    1.75704E+02
 4.93209E+00    1.76168E+02
 4.94205E+00    1.76313E+02
 4.96948E+00    1.76710E+02
 4.98633E+00    1.76954E+02
 5.00000E+00    1.77152E+02
 5.03789E+00    1.77461E+02
 5.05515E+00    1.77601E+02
 5.05721E+00    1.77618E+02
 5.09604E+00    1.77935E+02
 5.10960E+00    1.78045E+02
 5.14586E+00    1.78341E+02
 5.19301E+00    1.78726E+02
 5.19702E+00    1.78758E+02
 5.19794E+00    1.78766E+02
 5.29202E+00    1.79533E+02
 5.37573E+00    1.80215E+02
 5.45007E+00    1.80821E+02
 5.58263E+00    1.81902E+02
 5.68417E+00    1.82730E+02
 5.76153E+00    1.83361E+02
 5.87956E+00    1.84324E+02
 6.00000E+00    1.85306E+02
 6.11673E+00    1.86377E+02
 6.32651E+00    1.88302E+02
 6.48855E+00    1.89790E+02
 6.73943E+00    1.92103E+02
 7.00000E+00    1.94510E+02
 7.23762E+00    1.97734E+02
 7.60927E+00    2.02776E+02
 8.00000E+00    2.08076E+02
 8.23907E+00    2.16918E+02
 8.61113E+00    2.30982E+02
 9.00000E+00    2.45683E+02
 1.00000E+01    3.03532E+02
 1.04881E+01    3.33478E+02
 1.10000E+01    3.64885E+02
 1.12419E+01    3.80058E+02
 1.14268E+01    3.91655E+02
 1.17099E+01    4.09409E+02
 1.20000E+01    4.27606E+02
 1.21207E+01    4.32176E+02
 1.23348E+01    4.40283E+02
 1.24978E+01    4.46453E+02
 1.26215E+01    4.51136E+02
 1.28094E+01    4.58249E+02
 1.30000E+01    4.65467E+02
 1.31210E+01    4.67512E+02
 1.33354E+01    4.71136E+02
 1.34986E+01    4.73895E+02
 1.36222E+01    4.75984E+02
 1.38098E+01    4.79155E+02
 1.40000E+01    4.82371E+02
 1.42478E+01    4.84430E+02
 1.43734E+01    4.85473E+02
 1.45000E+01    4.86525E+02
 1.47479E+01    4.88126E+02
 1.50000E+01    4.89755E+02
 1.52440E+01    4.90074E+02
 1.54296E+01    4.90316E+02
 1.57122E+01    4.90685E+02
 1.60000E+01    4.91061E+02
 1.62443E+01    4.91687E+02
 1.66179E+01    4.92645E+02
 1.68079E+01    4.93132E+02
 1.70000E+01    4.93624E+02
 1.72447E+01    4.96373E+02
 1.76183E+01    5.00571E+02
 1.80000E+01    5.04858E+02
 1.82450E+01    5.05325E+02
 1.86187E+01    5.06037E+02
 1.90000E+01    5.06763E+02
 1.94936E+01    5.05879E+02
 1.97452E+01    5.05427E+02
 2.00000E+01    5.04970E+02
