# n + Kr 80 : (n,xh)    
# jendl4.0   K.Shibata, A.Ichihara, S.Kunieda  EVAL-AUG09
# 
# # energies =    58
#   E(MeV)        xs(mb) 
 6.24393E-01    0.00000E+00
 7.00000E-01    0.00000E+00
 8.00000E-01    0.00000E+00
 9.00000E-01    0.00000E+00
 1.00000E+00    0.00000E+00
 1.27211E+00    0.00000E+00
 1.33717E+00    0.00000E+00
 1.45415E+00    0.00000E+00
 1.50000E+00    0.00000E+00
 1.81053E+00    0.00000E+00
 2.00000E+00    0.00000E+00
 2.17290E+00    0.00000E+00
 2.42199E+00    0.00000E+00
 2.46969E+00    0.00000E+00
 2.50000E+00    0.00000E+00
 2.69297E+00    0.00000E+00
 2.82821E+00    0.00000E+00
 2.89536E+00    0.00000E+00
 3.00000E+00    0.00000E+00
 3.00647E+00    0.00000E+00
 3.03513E+00    0.00000E+00
 3.07740E+00    0.00000E+00
 3.07995E+00    0.00000E+00
 3.14948E+00    0.00000E+00
 3.38765E+00    0.00000E+00
 3.45253E+00    0.00000E+00
 3.50000E+00    0.00000E+00
 3.53182E+00    0.00000E+00
 3.57448E+00    0.00000E+00
 3.60324E+00    0.00000E+00
 3.62658E+00    0.00000E+00
 3.68078E+00    0.00000E+00
 3.74599E+00    0.00000E+00
 3.75612E+00    0.00000E+00
 4.00000E+00    0.00000E+00
 4.50000E+00    0.00000E+00
 5.00000E+00    0.00000E+00
 5.50000E+00    0.00000E+00
 6.00000E+00    0.00000E+00
 6.50000E+00    0.00000E+00
 7.00000E+00    0.00000E+00
 7.50000E+00    0.00000E+00
 8.00000E+00    0.00000E+00
 8.50000E+00    0.00000E+00
 9.00000E+00    0.00000E+00
 9.50000E+00    0.00000E+00
 1.00000E+01    0.00000E+00
 1.10000E+01    0.00000E+00
 1.20000E+01    0.00000E+00
 1.30000E+01    1.09400E-07
 1.40000E+01    9.80000E-07
 1.45000E+01    2.26200E-06
 1.50000E+01    4.27400E-06
 1.60000E+01    1.26500E-05
 1.70000E+01    3.90400E-04
 1.80000E+01    1.28500E-03
 1.90000E+01    3.57100E-03
 2.00000E+01    8.21300E-03
