# n + Kr 80 : (n,tot)   
# jendl4.0   K.Shibata, A.Ichihara, S.Kunieda  EVAL-AUG09
# uncertainties: n
# # energies =   171
#   E(MeV)       xs(mb) 
 1.00000E-11    1.38092E+05
 1.00000E-07    1.14214E+04
 4.13990E-07    9.93202E+03
 5.31580E-07    9.60882E+03
 6.82560E-07    9.32046E+03
 8.76420E-07    9.06207E+03
 1.12540E-06    8.83031E+03
 1.44500E-06    8.61969E+03
 1.85540E-06    8.42759E+03
 2.37240E-06    8.24403E+03
 3.05900E-06    8.06728E+03
 3.92790E-06    7.89596E+03
 5.04350E-06    7.72429E+03
 6.47600E-06    7.54742E+03
 8.31530E-06    7.35648E+03
 1.06770E-05    7.14634E+03
 1.37100E-05    6.91110E+03
 1.76030E-05    6.63744E+03
 2.26030E-05    6.30267E+03
 2.92030E-05    5.89715E+03
 3.72670E-05    5.38455E+03
 4.78510E-05    4.66974E+03
 6.14420E-05    3.55754E+03
 7.88930E-05    6.16140E+03
 1.01300E-04    6.59308E+05
 1.30070E-04    1.22296E+04
 1.67020E-04    8.51997E+03
 2.14450E-04    7.13403E+03
 2.75360E-04    6.23626E+03
 3.53580E-04    2.33092E+04
 4.54000E-04    7.19741E+03
 5.82950E-04    4.88168E+03
 7.48520E-04    4.74416E+04
 9.61120E-04    3.08884E+04
 1.23410E-03    3.18839E+04
 1.58460E-03    2.83774E+04
 2.03470E-03    2.60643E+04
 2.24870E-03    2.51866E+04
 2.48520E-03    2.44714E+04
 2.61260E-03    2.39619E+04
 2.74650E-03    2.31480E+04
 3.03540E-03    2.22638E+04
 3.35460E-03    2.14849E+04
 3.70740E-03    2.04464E+04
 4.30740E-03    1.90302E+04
 5.53080E-03    1.74255E+04
 7.10170E-03    1.60255E+04
 9.11880E-03    1.48818E+04
 1.17090E-02    1.40550E+04
 1.50340E-02    1.30424E+04
 1.93050E-02    1.22104E+04
 2.18750E-02    1.19476E+04
 2.35790E-02    1.18142E+04
 2.41760E-02    1.17447E+04
 2.47880E-02    1.16370E+04
 2.60580E-02    1.15095E+04
 2.70000E-02    1.13695E+04
 2.85000E-02    1.11179E+04
 3.18280E-02    1.09055E+04
 3.43070E-02    1.06093E+04
 4.08680E-02    1.02846E+04
 4.63090E-02    1.00354E+04
 5.24750E-02    9.85712E+03
 5.65620E-02    9.64234E+03
 6.73790E-02    9.44936E+03
 7.20000E-02    9.33036E+03
 7.95000E-02    9.23259E+03
 8.25000E-02    9.17747E+03
 8.65170E-02    9.06418E+03
 9.80370E-02    8.92826E+03
 1.11090E-01    8.85744E+03
 1.16790E-01    8.81440E+03
 1.22770E-01    8.76916E+03
 1.29070E-01    8.72156E+03
 1.35690E-01    8.67157E+03
 1.42640E-01    8.61899E+03
 1.49960E-01    8.56373E+03
 1.57640E-01    8.50563E+03
 1.65730E-01    8.44454E+03
 1.74220E-01    8.38033E+03
 1.83160E-01    8.31280E+03
 1.92550E-01    8.24270E+03
 2.02420E-01    8.18956E+03
 2.12800E-01    8.14251E+03
 2.23710E-01    8.09306E+03
 2.35180E-01    8.04107E+03
 2.47240E-01    7.95770E+03
 2.73240E-01    7.86858E+03
 2.87250E-01    7.82136E+03
 2.94520E-01    7.79931E+03
 2.97200E-01    7.79050E+03
 2.98500E-01    7.78029E+03
 3.01970E-01    7.71312E+03
 3.33730E-01    7.58419E+03
 3.68830E-01    7.47912E+03
 3.87740E-01    7.40468E+03
 4.07620E-01    7.29226E+03
 4.50490E-01    7.13085E+03
 4.97870E-01    7.00239E+03
 5.23400E-01    6.91625E+03
 5.50230E-01    6.82572E+03
 5.78440E-01    6.73072E+03
 6.08100E-01    6.63426E+03
 6.39280E-01    6.53418E+03
 6.72060E-01    6.42905E+03
 7.06510E-01    6.32084E+03
 7.42740E-01    6.20829E+03
 7.80820E-01    6.09126E+03
 8.20850E-01    5.97560E+03
 8.62940E-01    5.85536E+03
 9.07180E-01    5.72764E+03
 9.61640E-01    5.60811E+03
 1.00260E+00    5.46805E+03
 1.10800E+00    5.32550E+03
 1.16480E+00    5.22385E+03
 1.22460E+00    5.11706E+03
 1.28730E+00    5.00478E+03
 1.35340E+00    4.88674E+03
 1.42270E+00    4.76269E+03
 1.49570E+00    4.66150E+03
 1.57240E+00    4.59235E+03
 1.65300E+00    4.51980E+03
 1.73770E+00    4.44352E+03
 1.82680E+00    4.36329E+03
 1.92050E+00    4.27976E+03
 2.01900E+00    4.22312E+03
 2.12250E+00    4.17952E+03
 2.23130E+00    4.14155E+03
 2.30690E+00    4.11799E+03
 2.34570E+00    4.10598E+03
 2.36530E+00    4.09786E+03
 2.38520E+00    4.07727E+03
 2.46600E+00    4.03944E+03
 2.59240E+00    4.01136E+03
 2.72530E+00    3.98424E+03
 2.86500E+00    3.95571E+03
 3.01190E+00    3.93132E+03
 3.16640E+00    3.91567E+03
 3.32870E+00    3.89226E+03
 3.67880E+00    3.87506E+03
 4.06570E+00    3.86654E+03
 4.49330E+00    3.86938E+03
 4.72370E+00    3.87680E+03
 4.96590E+00    3.88460E+03
 5.22050E+00    3.89323E+03
 5.48810E+00    3.90487E+03
 5.76950E+00    3.91751E+03
 6.06530E+00    3.93080E+03
 6.37630E+00    3.94238E+03
 6.59240E+00    3.94956E+03
 6.70320E+00    3.95937E+03
 7.04690E+00    3.96823E+03
 7.40820E+00    3.97351E+03
 7.78800E+00    3.97747E+03
 8.18730E+00    3.97125E+03
 8.60710E+00    3.96173E+03
 9.04840E+00    3.94193E+03
 9.51230E+00    3.91849E+03
 1.00000E+01    3.88592E+03
 1.05130E+01    3.84644E+03
 1.10520E+01    3.80006E+03
 1.16180E+01    3.74744E+03
 1.22140E+01    3.68808E+03
 1.28400E+01    3.62375E+03
 1.34990E+01    3.57211E+03
 1.38400E+01    3.53632E+03
 1.41910E+01    3.49881E+03
 1.45500E+01    3.46074E+03
 1.49180E+01    3.40208E+03
 1.56830E+01    3.32138E+03
 1.64870E+01    3.24062E+03
