# n + Kr 80 : (n,el)    
# jendl4.0   K.Shibata, A.Ichihara, S.Kunieda  EVAL-AUG09
# uncertainties: n
# # energies =   171
#   E(MeV)       xs(mb) 
 1.00000E-11    1.37124E+04
 1.00000E-07    7.28538E+03
 4.13990E-07    7.26751E+03
 5.31580E-07    7.25989E+03
 6.82560E-07    7.25009E+03
 8.76420E-07    7.23752E+03
 1.12540E-06    7.22137E+03
 1.44500E-06    7.20106E+03
 1.85540E-06    7.17665E+03
 2.37240E-06    7.14515E+03
 3.05900E-06    7.10435E+03
 3.92790E-06    7.05233E+03
 5.04350E-06    6.98554E+03
 6.47600E-06    6.89978E+03
 8.31530E-06    6.78966E+03
 1.06770E-05    6.64825E+03
 1.37100E-05    6.46868E+03
 1.76030E-05    6.24258E+03
 2.26030E-05    5.94815E+03
 2.92030E-05    5.57285E+03
 3.72670E-05    5.06398E+03
 4.78510E-05    4.30446E+03
 6.14420E-05    2.97517E+03
 7.88930E-05    2.08516E+03
 1.01300E-04    4.69057E+05
 1.30070E-04    1.18862E+04
 1.67020E-04    8.44038E+03
 2.14450E-04    7.10088E+03
 2.75360E-04    6.21392E+03
 3.53580E-04    1.39699E+04
 4.54000E-04    6.96859E+03
 5.82950E-04    4.86994E+03
 7.48520E-04    4.34041E+04
 9.61120E-04    2.92715E+04
 1.23410E-03    3.02149E+04
 1.58460E-03    2.70148E+04
 2.03470E-03    2.48929E+04
 2.24870E-03    2.40741E+04
 2.48520E-03    2.34069E+04
 2.61260E-03    2.29316E+04
 2.74650E-03    2.21722E+04
 3.03540E-03    2.13436E+04
 3.35460E-03    2.06104E+04
 3.70740E-03    1.96324E+04
 4.30740E-03    1.82946E+04
 5.53080E-03    1.67760E+04
 7.10170E-03    1.54508E+04
 9.11880E-03    1.43702E+04
 1.17090E-02    1.35919E+04
 1.50340E-02    1.26392E+04
 1.93050E-02    1.18569E+04
 2.18750E-02    1.16113E+04
 2.35790E-02    1.14866E+04
 2.41760E-02    1.14217E+04
 2.47880E-02    1.13210E+04
 2.60580E-02    1.12019E+04
 2.70000E-02    1.10712E+04
 2.85000E-02    1.08361E+04
 3.18280E-02    1.06379E+04
 3.43070E-02    1.03615E+04
 4.08680E-02    1.00585E+04
 4.63090E-02    9.82587E+03
 5.24750E-02    9.65919E+03
 5.65620E-02    9.45799E+03
 6.73790E-02    9.27681E+03
 7.20000E-02    9.16483E+03
 7.95000E-02    9.07273E+03
 8.25000E-02    9.02063E+03
 8.65170E-02    8.91329E+03
 9.80370E-02    8.78351E+03
 1.11090E-01    8.71531E+03
 1.16790E-01    8.67386E+03
 1.22770E-01    8.63028E+03
 1.29070E-01    8.58443E+03
 1.35690E-01    8.53627E+03
 1.42640E-01    8.48563E+03
 1.49960E-01    8.43240E+03
 1.57640E-01    8.37644E+03
 1.65730E-01    8.31760E+03
 1.74220E-01    8.25574E+03
 1.83160E-01    8.19069E+03
 1.92550E-01    8.12314E+03
 2.02420E-01    8.07123E+03
 2.12800E-01    8.02486E+03
 2.23710E-01    7.97612E+03
 2.35180E-01    7.92487E+03
 2.47240E-01    7.84268E+03
 2.73240E-01    7.75483E+03
 2.87250E-01    7.70828E+03
 2.94520E-01    7.68655E+03
 2.97200E-01    7.67787E+03
 2.98500E-01    7.66777E+03
 3.01970E-01    7.60057E+03
 3.33730E-01    7.47154E+03
 3.68830E-01    7.36639E+03
 3.87740E-01    7.29183E+03
 4.07620E-01    7.17840E+03
 4.50490E-01    7.01532E+03
 4.97870E-01    6.88530E+03
 5.23400E-01    6.79769E+03
 5.50230E-01    6.70563E+03
 5.78440E-01    6.60957E+03
 6.08100E-01    6.50278E+03
 6.39280E-01    6.25665E+03
 6.72060E-01    5.97298E+03
 7.06510E-01    5.73319E+03
 7.42740E-01    5.51138E+03
 7.80820E-01    5.28552E+03
 8.20850E-01    5.09012E+03
 8.62940E-01    4.89195E+03
 9.07180E-01    4.69646E+03
 9.61640E-01    4.52107E+03
 1.00260E+00    4.36491E+03
 1.10800E+00    4.22999E+03
 1.16480E+00    4.13379E+03
 1.22460E+00    4.02980E+03
 1.28730E+00    3.84738E+03
 1.35340E+00    3.58755E+03
 1.42270E+00    3.29407E+03
 1.49570E+00    3.07744E+03
 1.57240E+00    2.99112E+03
 1.65300E+00    2.90084E+03
 1.73770E+00    2.80492E+03
 1.82680E+00    2.66274E+03
 1.92050E+00    2.49385E+03
 2.01900E+00    2.40838E+03
 2.12250E+00    2.36196E+03
 2.23130E+00    2.30550E+03
 2.30690E+00    2.26870E+03
 2.34570E+00    2.24995E+03
 2.36530E+00    2.23728E+03
 2.38520E+00    2.20511E+03
 2.46600E+00    2.13190E+03
 2.59240E+00    2.10032E+03
 2.72530E+00    2.06650E+03
 2.86500E+00    2.00645E+03
 3.01190E+00    1.97016E+03
 3.16640E+00    1.95189E+03
 3.32870E+00    1.92932E+03
 3.67880E+00    1.85410E+03
 4.06570E+00    1.76803E+03
 4.49330E+00    1.78590E+03
 4.72370E+00    1.80588E+03
 4.96590E+00    1.82802E+03
 5.22050E+00    1.85573E+03
 5.48810E+00    1.88539E+03
 5.76950E+00    1.91657E+03
 6.06530E+00    1.94762E+03
 6.37630E+00    1.97161E+03
 6.59240E+00    1.98609E+03
 6.70320E+00    2.00267E+03
 7.04690E+00    2.02557E+03
 7.40820E+00    2.04399E+03
 7.78800E+00    2.05692E+03
 8.18730E+00    2.06464E+03
 8.60710E+00    2.06362E+03
 9.04840E+00    2.05665E+03
 9.51230E+00    2.04261E+03
 1.00000E+01    2.01985E+03
 1.05130E+01    1.99114E+03
 1.10520E+01    1.95787E+03
 1.16180E+01    1.91456E+03
 1.22140E+01    1.86298E+03
 1.28400E+01    1.80879E+03
 1.34990E+01    1.76517E+03
 1.38400E+01    1.73496E+03
 1.41910E+01    1.70348E+03
 1.45500E+01    1.67181E+03
 1.49180E+01    1.62354E+03
 1.56830E+01    1.55776E+03
 1.64870E+01    1.49303E+03
