# n + Zr 96 : (n,tot)   
# jendl4.0   JNDC FP NUCLEAR DATA W.G.         EVAL-AUG89
# uncertainties: n
# # energies =   171
#   E(MeV)       xs(mb) 
 1.00000E-11    1.11248E+04
 1.00000E-07    6.14308E+03
 4.13990E-07    6.13796E+03
 5.31580E-07    6.13663E+03
 6.82560E-07    6.13602E+03
 8.76420E-07    6.13554E+03
 1.12540E-06    6.13494E+03
 1.44500E-06    6.13415E+03
 1.85540E-06    6.13343E+03
 2.37240E-06    6.13330E+03
 3.05900E-06    6.13318E+03
 3.92790E-06    6.13303E+03
 5.04350E-06    6.13284E+03
 6.47600E-06    6.13258E+03
 8.31530E-06    6.13226E+03
 1.06770E-05    6.13185E+03
 1.37100E-05    6.13131E+03
 1.76030E-05    6.13063E+03
 2.26030E-05    6.12974E+03
 2.92030E-05    6.12861E+03
 3.72670E-05    6.12717E+03
 4.78510E-05    6.12531E+03
 6.14420E-05    6.12293E+03
 7.88930E-05    6.11986E+03
 1.01300E-04    6.11592E+03
 1.30070E-04    6.11087E+03
 1.67020E-04    6.10780E+03
 2.14450E-04    6.15129E+03
 2.75360E-04    4.56903E+04
 3.53580E-04    6.09574E+03
 4.54000E-04    6.05557E+03
 5.82950E-04    6.02396E+03
 7.48520E-04    6.07763E+03
 9.61120E-04    5.95042E+03
 1.23410E-03    5.89784E+03
 1.58460E-03    5.83032E+03
 2.03470E-03    5.77274E+03
 2.24870E-03    5.73195E+03
 2.48520E-03    5.69204E+03
 2.61260E-03    5.66308E+03
 2.74650E-03    5.61664E+03
 3.03540E-03    5.54788E+03
 3.35460E-03    5.49585E+03
 3.70740E-03    3.64103E+04
 4.30740E-03    1.65423E+04
 5.53080E-03    1.46242E+04
 7.10170E-03    8.42592E+03
 9.11880E-03    6.00745E+03
 1.17090E-02    5.52371E+03
 1.50340E-02    1.28971E+04
 1.93050E-02    6.38182E+03
 2.18750E-02    6.10514E+03
 2.35790E-02    5.80503E+03
 2.41760E-02    8.52292E+03
 2.47880E-02    6.96396E+03
 2.60580E-02    6.49333E+03
 2.70000E-02    6.93355E+03
 2.85000E-02    2.87928E+04
 3.18280E-02    5.69189E+03
 3.43070E-02    1.03377E+04
 4.08680E-02    7.11525E+03
 4.63090E-02    5.15782E+03
 5.24750E-02    2.18957E+04
 5.65620E-02    9.47085E+03
 6.73790E-02    5.30036E+03
 7.20000E-02    8.10197E+03
 7.95000E-02    2.58158E+04
 8.25000E-02    1.58399E+04
 8.65170E-02    2.02046E+04
 9.80370E-02    9.93833E+03
 1.11090E-01    9.19026E+03
 1.16790E-01    9.20670E+03
 1.22770E-01    9.22399E+03
 1.29070E-01    9.24218E+03
 1.35690E-01    9.26129E+03
 1.42640E-01    9.28137E+03
 1.49960E-01    9.31139E+03
 1.57640E-01    9.35220E+03
 1.65730E-01    9.39117E+03
 1.74220E-01    9.38989E+03
 1.83160E-01    9.37706E+03
 1.92550E-01    9.36321E+03
 2.02420E-01    9.34031E+03
 2.12800E-01    9.31278E+03
 2.23710E-01    9.28383E+03
 2.35180E-01    9.25340E+03
 2.47240E-01    9.20459E+03
 2.73240E-01    9.15242E+03
 2.87250E-01    9.12478E+03
 2.94520E-01    9.11187E+03
 2.97200E-01    9.10672E+03
 2.98500E-01    9.10056E+03
 3.01970E-01    9.05566E+03
 3.33730E-01    8.96923E+03
 3.68830E-01    8.89881E+03
 3.87740E-01    8.84864E+03
 4.07620E-01    8.75938E+03
 4.50490E-01    8.61658E+03
 4.97870E-01    8.48973E+03
 5.23400E-01    8.37251E+03
 5.50230E-01    8.24839E+03
 5.78440E-01    8.11789E+03
 6.08100E-01    7.98069E+03
 6.39280E-01    7.83646E+03
 6.72060E-01    7.68485E+03
 7.06510E-01    7.52546E+03
 7.42740E-01    7.35789E+03
 7.80820E-01    7.18372E+03
 8.20850E-01    7.02171E+03
 8.62940E-01    6.85711E+03
 9.07180E-01    6.66920E+03
 9.61640E-01    6.48677E+03
 1.00260E+00    6.24939E+03
 1.10800E+00    6.00458E+03
 1.16480E+00    5.83007E+03
 1.22460E+00    5.65652E+03
 1.28730E+00    5.51679E+03
 1.35340E+00    5.37483E+03
 1.42270E+00    5.22564E+03
 1.49570E+00    5.08893E+03
 1.57240E+00    4.97931E+03
 1.65300E+00    4.86464E+03
 1.73770E+00    4.76201E+03
 1.82680E+00    4.68479E+03
 1.92050E+00    4.60414E+03
 2.01900E+00    4.53708E+03
 2.12250E+00    4.48153E+03
 2.23130E+00    4.43363E+03
 2.30690E+00    4.40933E+03
 2.34570E+00    4.39835E+03
 2.36530E+00    4.39094E+03
 2.38520E+00    4.37212E+03
 2.46600E+00    4.33335E+03
 2.59240E+00    4.28572E+03
 2.72530E+00    4.24081E+03
 2.86500E+00    4.19432E+03
 3.01190E+00    4.14583E+03
 3.16640E+00    4.09991E+03
 3.32870E+00    4.03199E+03
 3.67880E+00    3.96162E+03
 4.06570E+00    3.92017E+03
 4.49330E+00    3.91259E+03
 4.72370E+00    3.92389E+03
 4.96590E+00    3.93859E+03
 5.22050E+00    3.96560E+03
 5.48810E+00    3.99524E+03
 5.76950E+00    4.02718E+03
 6.06530E+00    4.06174E+03
 6.37630E+00    4.09185E+03
 6.59240E+00    4.11052E+03
 6.70320E+00    4.13221E+03
 7.04690E+00    4.16103E+03
 7.40820E+00    4.18313E+03
 7.78800E+00    4.19959E+03
 8.18730E+00    4.20886E+03
 8.60710E+00    4.20483E+03
 9.04840E+00    4.19581E+03
 9.51230E+00    4.17791E+03
 1.00000E+01    4.15286E+03
 1.05130E+01    4.12145E+03
 1.10520E+01    4.08266E+03
 1.16180E+01    4.03737E+03
 1.22140E+01    3.98504E+03
 1.28400E+01    3.92684E+03
 1.34990E+01    3.87815E+03
 1.38400E+01    3.84417E+03
 1.41910E+01    3.80781E+03
 1.45500E+01    3.77036E+03
 1.49180E+01    3.71257E+03
 1.56830E+01    3.63352E+03
 1.64870E+01    3.55488E+03
