# n + Hg202 : (n,xp)    
# jendl4.0   K.SHIBATA, T.FUKAHORI, S.CHIBA,+  EVAL-SEP97
# 
# # energies =    99
#   E(MeV)        xs(mb) 
 4.41790E-01    0.00000E+00
 4.41795E-01    0.00000E+00
 4.51682E-01    0.00000E+00
 4.61570E-01    0.00000E+00
 4.81346E-01    0.00000E+00
 5.20897E-01    0.00000E+00
 5.60448E-01    0.00000E+00
 6.00000E-01    0.00000E+00
 7.00000E-01    0.00000E+00
 8.00000E-01    0.00000E+00
 9.64490E-01    0.00000E+00
 9.64493E-01    0.00000E+00
 1.00000E+00    0.00000E+00
 1.06250E+00    0.00000E+00
 1.12500E+00    0.00000E+00
 1.12529E+00    0.00000E+00
 1.12530E+00    0.00000E+00
 1.15647E+00    0.00000E+00
 1.18765E+00    0.00000E+00
 1.18810E+00    0.00000E+00
 1.25000E+00    0.00000E+00
 1.31250E+00    0.00000E+00
 1.31815E+00    0.00000E+00
 1.31820E+00    0.00000E+00
 1.35463E+00    0.00000E+00
 1.36365E+00    0.00000E+00
 1.37500E+00    0.00000E+00
 1.39674E+00    0.00000E+00
 1.40910E+00    0.00000E+00
 1.46428E+00    0.00000E+00
 1.50000E+00    0.00000E+00
 1.51634E+00    0.00000E+00
 1.53161E+00    0.00000E+00
 1.56990E+00    0.00000E+00
 1.57251E+00    0.00000E+00
 1.58347E+00    0.00000E+00
 1.63317E+00    0.00000E+00
 1.65140E+00    0.00000E+00
 1.65141E+00    0.00000E+00
 1.68658E+00    0.00000E+00
 1.69498E+00    0.00000E+00
 1.73341E+00    0.00000E+00
 1.73855E+00    0.00000E+00
 1.75000E+00    0.00000E+00
 1.75462E+00    0.00000E+00
 1.79743E+00    0.00000E+00
 1.80296E+00    0.00000E+00
 1.80326E+00    0.00000E+00
 1.82570E+00    0.00000E+00
 1.87500E+00    0.00000E+00
 2.00000E+00    0.00000E+00
 2.12500E+00    0.00000E+00
 2.25000E+00    0.00000E+00
 2.37500E+00    0.00000E+00
 2.50000E+00    0.00000E+00
 2.62500E+00    0.00000E+00
 2.75000E+00    0.00000E+00
 2.87500E+00    0.00000E+00
 3.00000E+00    0.00000E+00
 3.12500E+00    0.00000E+00
 3.25000E+00    0.00000E+00
 3.37500E+00    0.00000E+00
 3.50000E+00    0.00000E+00
 3.75000E+00    0.00000E+00
 4.00000E+00    0.00000E+00
 4.25000E+00    1.03900E-10
 4.50000E+00    2.07800E-10
 5.00000E+00    4.15600E-10
 5.50000E+00    7.62178E-08
 6.00000E+00    1.52020E-07
 7.00000E+00    1.33519E-04
 8.00000E+00    2.66886E-04
 8.25000E+00    1.76810E-03
 8.50000E+00    3.26931E-03
 8.75000E+00    4.77053E-03
 9.00000E+00    6.27174E-03
 9.25000E+00    7.77296E-03
 9.50000E+00    9.27417E-03
 9.75000E+00    1.07754E-02
 1.00000E+01    1.22766E-02
 1.02500E+01    3.12131E-02
 1.05000E+01    5.01496E-02
 1.07500E+01    6.90861E-02
 1.10000E+01    8.80227E-02
 1.12500E+01    1.06959E-01
 1.15000E+01    1.25896E-01
 1.17500E+01    1.44832E-01
 1.20000E+01    1.63769E-01
 1.25000E+01    3.44834E-01
 1.30000E+01    5.25899E-01
 1.35000E+01    7.06964E-01
 1.40000E+01    8.88029E-01
 1.45000E+01    1.35184E+00
 1.50000E+01    1.81565E+00
 1.55000E+01    2.27946E+00
 1.60000E+01    2.74328E+00
 1.80000E+01    6.08690E+00
 1.90000E+01    8.46340E+00
 2.00000E+01    1.08399E+01
