# n + Zn 68 : (n,n')    
# endfb8.0   N.Iwamoto                         EVAL-Dec09
# uncertainties: n
# # energies =   100
#   E(MeV)       xs(mb) 
 1.05000E-01    0.00000E+00
 1.10000E-01    1.79090E-06
 1.20000E-01    2.16383E-06
 1.30000E-01    2.38160E-06
 1.40000E-01    2.55730E-06
 1.50000E-01    2.69889E-06
 1.60000E-01    2.79868E-06
 1.70000E-01    2.86060E-06
 1.80000E-01    2.88022E-06
 1.90000E-01    2.89617E-06
 2.00000E-01    2.90166E-06
 2.25000E-01    2.52497E-05
 2.50000E-01    3.18513E-05
 2.75000E-01    3.59989E-05
 3.00000E-01    3.77996E-05
 4.00000E-01    1.85120E-04
 5.00000E-01    5.94208E-04
 6.00000E-01    1.49234E-03
 7.00000E-01    3.21077E-03
 8.00000E-01    6.18753E-03
 9.00000E-01    1.09939E-02
 1.00000E+00    1.83730E-02
 1.09337E+00    2.88080E-02
 1.10000E+00    9.57142E+01
 1.20000E+00    2.91121E+02
 1.30000E+00    4.05274E+02
 1.40000E+00    4.99370E+02
 1.50000E+00    5.79260E+02
 1.60000E+00    6.44268E+02
 1.68053E+00    6.87560E+02
 1.70000E+00    7.16678E+02
 1.80000E+00    7.82701E+02
 1.90000E+00    8.31065E+02
 1.91110E+00    8.35601E+02
 2.00000E+00    9.13531E+02
 2.25000E+00    1.03497E+03
 2.37301E+00    1.07134E+03
 2.40550E+00    1.08925E+03
 2.45334E+00    1.11388E+03
 2.50000E+00    1.13625E+03
 2.54748E+00    1.16247E+03
 2.75000E+00    1.27067E+03
 2.79122E+00    1.28726E+03
 2.86348E+00    1.32273E+03
 2.99979E+00    1.37538E+03
 3.00000E+00    1.38011E+03
 3.00410E+00    1.38258E+03
 3.05389E+00    1.40848E+03
 3.12695E+00    1.44066E+03
 3.12696E+00    1.44067E+03
 3.14852E+00    1.45039E+03
 3.20043E+00    1.47213E+03
 3.20703E+00    1.47501E+03
 3.21098E+00    1.47721E+03
 3.23143E+00    1.48760E+03
 3.23392E+00    1.48914E+03
 3.33017E+00    1.53163E+03
 3.33590E+00    1.53392E+03
 3.39578E+00    1.55752E+03
 3.43527E+00    1.57245E+03
 3.45140E+00    1.57843E+03
 3.47590E+00    1.58743E+03
 3.48035E+00    1.58936E+03
 3.50000E+00    1.59718E+03
 3.51010E+00    1.60063E+03
 3.53908E+00    1.60998E+03
 3.53909E+00    1.60999E+03
 4.00000E+00    1.71881E+03
 4.50000E+00    1.76008E+03
 5.00000E+00    1.75915E+03
 5.50000E+00    1.74139E+03
 6.00000E+00    1.71929E+03
 6.50000E+00    1.69818E+03
 7.00000E+00    1.68002E+03
 7.50000E+00    1.66538E+03
 8.00000E+00    1.65393E+03
 8.50000E+00    1.64577E+03
 9.00000E+00    1.63788E+03
 9.50000E+00    1.63005E+03
 1.00000E+01    1.62100E+03
 1.05000E+01    1.60161E+03
 1.10000E+01    1.48348E+03
 1.15000E+01    1.28288E+03
 1.20000E+01    1.07918E+03
 1.25000E+01    9.05861E+02
 1.30000E+01    7.71560E+02
 1.35000E+01    6.68032E+02
 1.40000E+01    5.88151E+02
 1.45000E+01    5.21725E+02
 1.50000E+01    4.69409E+02
 1.55000E+01    4.27709E+02
 1.60000E+01    3.95208E+02
 1.65000E+01    3.68804E+02
 1.70000E+01    3.47717E+02
 1.75000E+01    3.29684E+02
 1.80000E+01    3.15202E+02
 1.85000E+01    3.01563E+02
 1.90000E+01    2.89609E+02
 1.95000E+01    2.78539E+02
 2.00000E+01    2.68580E+02
