# n + Zn 68 : (n,t)     
# endfb8.0   N.Iwamoto                         EVAL-Dec09
# uncertainties: n
# # energies =    46
#   E(MeV)       xs(mb) 
 1.07852E+01    0.00000E+00
 1.09740E+01    1.81320E-10
 1.10266E+01    2.34070E-10
 1.10644E+01    1.26560E-09
 1.11768E+01    6.51360E-09
 1.12573E+01    1.05080E-08
 1.13848E+01    1.69950E-08
 1.14743E+01    2.15650E-08
 1.15259E+01    2.42020E-08
 1.16202E+01    3.10470E-08
 1.16824E+01    3.59720E-08
 1.17148E+01    3.86240E-08
 1.18087E+01    4.64460E-08
 1.18175E+01    4.71820E-08
 1.18529E+01    5.01560E-08
 1.19566E+01    5.88890E-08
 1.19605E+01    5.92180E-08
 1.20000E+01    6.25460E-08
 1.20158E+01    7.80270E-08
 1.20509E+01    1.12900E-07
 1.21492E+01    2.11980E-07
 1.22387E+01    3.02580E-07
 1.22460E+01    3.09970E-07
 1.23055E+01    3.70300E-07
 1.23556E+01    4.21110E-07
 1.23686E+01    4.34300E-07
 1.23860E+01    4.51960E-07
 1.24394E+01    5.06140E-07
 1.24882E+01    5.55650E-07
 1.25000E+01    5.67790E-07
 1.25045E+01    7.51140E-07
 1.30000E+01    2.09464E-05
 1.35000E+01    2.38777E-04
 1.40000E+01    1.28677E-03
 1.45000E+01    4.29249E-03
 1.50000E+01    1.05314E-02
 1.55000E+01    2.16452E-02
 1.60000E+01    4.02971E-02
 1.65000E+01    6.97690E-02
 1.70000E+01    1.12883E-01
 1.75000E+01    1.71085E-01
 1.80000E+01    2.44811E-01
 1.85000E+01    3.33364E-01
 1.90000E+01    4.36140E-01
 1.95000E+01    5.51565E-01
 2.00000E+01    6.78423E-01
