# n + Hg202 : (n,n'11)  
# jeff3.3    A.J. Koning and D. Rochman        EVAL-DEC15
# uncertainties: n
# # energies =    82
#   E(MeV)       xs(mb) 
 1.56978E+00    0.00000E+00
 1.57259E+00    1.35082E+00
 1.58326E+00    6.48011E+00
 1.60000E+00    1.45273E+01
 1.63211E+00    2.20221E+01
 1.65183E+00    2.66250E+01
 1.68694E+00    3.48201E+01
 1.73342E+00    4.56691E+01
 1.75467E+00    5.06291E+01
 1.79731E+00    6.05817E+01
 1.80000E+00    6.12096E+01
 1.80289E+00    6.14799E+01
 1.80999E+00    6.21441E+01
 1.83263E+00    6.42619E+01
 1.86147E+00    6.69596E+01
 1.87087E+00    6.78389E+01
 1.91039E+00    7.15356E+01
 1.96927E+00    7.70434E+01
 1.97544E+00    7.76205E+01
 1.98727E+00    7.87271E+01
 1.99852E+00    7.97795E+01
 2.00000E+00    7.99179E+01
 2.00135E+00    7.99220E+01
 2.20000E+00    8.05304E+01
 2.40000E+00    7.28958E+01
 2.60000E+00    6.31206E+01
 2.80000E+00    5.38517E+01
 3.00000E+00    4.57876E+01
 3.20000E+00    3.88491E+01
 3.40000E+00    3.27725E+01
 3.60000E+00    2.73633E+01
 3.80000E+00    2.25536E+01
 4.00000E+00    1.83451E+01
 4.20000E+00    1.47451E+01
 4.40000E+00    1.17288E+01
 4.60000E+00    9.25084E+00
 4.80000E+00    7.24600E+00
 5.00000E+00    5.64466E+00
 5.20000E+00    4.37933E+00
 5.40000E+00    3.38814E+00
 5.60000E+00    2.60768E+00
 5.80000E+00    2.00850E+00
 6.00000E+00    1.54657E+00
 6.20000E+00    1.19029E+00
 6.40000E+00    9.16016E-01
 6.60000E+00    7.05206E-01
 6.80000E+00    5.41949E-01
 7.00000E+00    4.17305E-01
 7.20000E+00    3.21104E-01
 7.40000E+00    2.47454E-01
 7.60000E+00    1.90909E-01
 7.80000E+00    1.47450E-01
 8.00000E+00    1.14250E-01
 8.50000E+00    6.06064E-02
 9.00000E+00    3.23728E-02
 9.50000E+00    1.74006E-02
 1.00000E+01    9.40183E-03
 1.05000E+01    5.10252E-03
 1.10000E+01    2.78083E-03
 1.15000E+01    1.52220E-03
 1.20000E+01    8.37517E-04
 1.25000E+01    4.63536E-04
 1.30000E+01    2.58185E-04
 1.35000E+01    1.44769E-04
 1.40000E+01    8.17131E-05
 1.45000E+01    4.64171E-05
 1.50000E+01    2.65253E-05
 1.60000E+01    8.80202E-06
 1.70000E+01    2.96403E-06
 1.80000E+01    1.02071E-06
 1.90000E+01    3.58090E-07
 2.00000E+01    1.28080E-07
 2.10000E+01    4.67130E-08
 2.20000E+01    1.73610E-08
 2.30000E+01    6.56700E-09
 2.40000E+01    2.52190E-09
 2.50000E+01    9.82100E-10
 2.60000E+01    3.87620E-10
 2.70000E+01    1.54980E-10
 2.80000E+01    6.28150E-11
 2.90000E+01    2.57910E-11
 3.00000E+01    1.07310E-11
