# n + Hg202 : (n,n'21)  
# jeff3.3    A.J. Koning and D. Rochman        EVAL-DEC15
# uncertainties: n
# # energies =    70
#   E(MeV)       xs(mb) 
 1.80999E+00    0.00000E+00
 1.83263E+00    6.91224E-01
 1.86147E+00    1.57174E+00
 1.87087E+00    1.85873E+00
 1.91039E+00    3.06532E+00
 1.96927E+00    4.86299E+00
 1.97544E+00    5.05137E+00
 1.98727E+00    5.41255E+00
 1.99852E+00    5.75603E+00
 2.00000E+00    5.80121E+00
 2.00135E+00    5.82904E+00
 2.20000E+00    9.92454E+00
 2.40000E+00    1.22563E+01
 2.60000E+00    1.28176E+01
 2.80000E+00    1.22927E+01
 3.00000E+00    1.12507E+01
 3.20000E+00    1.00304E+01
 3.40000E+00    8.79882E+00
 3.60000E+00    7.62444E+00
 3.80000E+00    6.53320E+00
 4.00000E+00    5.53811E+00
 4.20000E+00    4.64946E+00
 4.40000E+00    3.86957E+00
 4.60000E+00    3.19721E+00
 4.80000E+00    2.62555E+00
 5.00000E+00    2.14522E+00
 5.20000E+00    1.74586E+00
 5.40000E+00    1.41692E+00
 5.60000E+00    1.14414E+00
 5.80000E+00    9.24941E-01
 6.00000E+00    7.47772E-01
 6.20000E+00    6.04652E-01
 6.40000E+00    4.89159E-01
 6.60000E+00    3.95562E-01
 6.80000E+00    3.19446E-01
 7.00000E+00    2.58185E-01
 7.20000E+00    2.08172E-01
 7.40000E+00    1.67783E-01
 7.60000E+00    1.35156E-01
 7.80000E+00    1.08604E-01
 8.00000E+00    8.73680E-02
 8.50000E+00    5.02570E-02
 9.00000E+00    2.86211E-02
 9.50000E+00    1.61655E-02
 1.00000E+01    9.07566E-03
 1.05000E+01    5.07706E-03
 1.10000E+01    2.83676E-03
 1.15000E+01    1.58656E-03
 1.20000E+01    8.90089E-04
 1.25000E+01    5.01747E-04
 1.30000E+01    2.84449E-04
 1.35000E+01    1.62258E-04
 1.40000E+01    9.31234E-05
 1.45000E+01    5.37549E-05
 1.50000E+01    3.11926E-05
 1.60000E+01    1.06440E-05
 1.70000E+01    3.67105E-06
 1.80000E+01    1.28980E-06
 1.90000E+01    4.60250E-07
 2.00000E+01    1.67120E-07
 2.10000E+01    6.18070E-08
 2.20000E+01    2.32750E-08
 2.30000E+01    8.91170E-09
 2.40000E+01    3.45960E-09
 2.50000E+01    1.35990E-09
 2.60000E+01    5.41020E-10
 2.70000E+01    2.17860E-10
 2.80000E+01    8.88860E-11
 2.90000E+01    3.67280E-11
 3.00000E+01    1.53740E-11
