# n + Hg202 : (n,n'06)  
# jeff3.3    A.J. Koning and D. Rochman        EVAL-DEC15
# uncertainties: n
# # energies =    88
#   E(MeV)       xs(mb) 
 1.35465E+00    0.00000E+00
 1.39650E+00    3.58055E+01
 1.40000E+00    3.88000E+01
 1.41842E+00    4.37353E+01
 1.46428E+00    5.60228E+01
 1.53161E+00    7.40628E+01
 1.56978E+00    8.42898E+01
 1.57259E+00    8.50427E+01
 1.58326E+00    8.79016E+01
 1.60000E+00    9.23868E+01
 1.63211E+00    9.43048E+01
 1.65183E+00    9.54827E+01
 1.68694E+00    9.75798E+01
 1.73342E+00    1.00356E+02
 1.75467E+00    1.01625E+02
 1.79731E+00    1.04172E+02
 1.80000E+00    1.04333E+02
 1.80289E+00    1.04187E+02
 1.80999E+00    1.03827E+02
 1.83263E+00    1.02679E+02
 1.86147E+00    1.01217E+02
 1.87087E+00    1.00741E+02
 1.91039E+00    9.87373E+01
 1.96927E+00    9.57527E+01
 1.97544E+00    9.54399E+01
 1.98727E+00    9.48403E+01
 1.99852E+00    9.42700E+01
 2.00000E+00    9.41950E+01
 2.00135E+00    9.40852E+01
 2.20000E+00    7.79251E+01
 2.40000E+00    6.40195E+01
 2.60000E+00    5.27964E+01
 2.80000E+00    4.37639E+01
 3.00000E+00    3.62861E+01
 3.20000E+00    2.99212E+01
 3.40000E+00    2.44324E+01
 3.60000E+00    1.97214E+01
 3.80000E+00    1.57414E+01
 4.00000E+00    1.24433E+01
 4.20000E+00    9.76207E+00
 4.40000E+00    7.61233E+00
 4.60000E+00    5.90950E+00
 4.80000E+00    4.57214E+00
 5.00000E+00    3.52876E+00
 5.20000E+00    2.71890E+00
 5.40000E+00    2.09242E+00
 5.60000E+00    1.60314E+00
 5.80000E+00    1.22974E+00
 6.00000E+00    9.42563E-01
 6.20000E+00    7.21794E-01
 6.40000E+00    5.52766E-01
 6.60000E+00    4.22883E-01
 6.80000E+00    3.23044E-01
 7.00000E+00    2.47266E-01
 7.20000E+00    1.89128E-01
 7.40000E+00    1.44853E-01
 7.60000E+00    1.11200E-01
 7.80000E+00    8.54184E-02
 8.00000E+00    6.58679E-02
 8.50000E+00    3.45883E-02
 9.00000E+00    1.83331E-02
 9.50000E+00    9.79571E-03
 1.00000E+01    5.26568E-03
 1.05000E+01    2.84319E-03
 1.10000E+01    1.54094E-03
 1.15000E+01    8.38324E-04
 1.20000E+01    4.58138E-04
 1.25000E+01    2.51731E-04
 1.30000E+01    1.39158E-04
 1.35000E+01    7.74401E-05
 1.40000E+01    4.33894E-05
 1.45000E+01    2.44758E-05
 1.50000E+01    1.38964E-05
 1.60000E+01    4.55915E-06
 1.70000E+01    1.52116E-06
 1.80000E+01    5.20060E-07
 1.90000E+01    1.81410E-07
 2.00000E+01    6.45820E-08
 2.10000E+01    2.34530E-08
 2.20000E+01    8.67960E-09
 2.30000E+01    3.26990E-09
 2.40000E+01    1.25120E-09
 2.50000E+01    4.85650E-10
 2.60000E+01    1.91100E-10
 2.70000E+01    7.61820E-11
 2.80000E+01    3.07840E-11
 2.90000E+01    1.26020E-11
 3.00000E+01    5.22810E-12
