# n + Hg202 : (n,xa)    
# jeff3.3    A.J. Koning and D. Rochman        EVAL-DEC15
# 
# # energies =   130
#   E(MeV)        xs(mb) 
 4.41707E-01    1.94449E-11
 5.00000E-01    2.31290E-11
 6.00000E-01    2.94290E-11
 7.00000E-01    3.67992E-11
 8.00000E-01    4.70440E-11
 9.00000E-01    1.09880E-10
 9.64734E-01    1.84007E-10
 1.00000E+00    2.24390E-10
 1.12543E+00    3.33821E-10
 1.18816E+00    3.88550E-10
 1.20000E+00    3.98880E-10
 1.31808E+00    6.50674E-10
 1.35465E+00    7.28656E-10
 1.39650E+00    8.17897E-10
 1.40000E+00    8.25360E-10
 1.41842E+00    9.26646E-10
 1.46428E+00    1.17882E-09
 1.53161E+00    1.54904E-09
 1.56978E+00    1.75893E-09
 1.57259E+00    1.77438E-09
 1.58326E+00    1.83305E-09
 1.60000E+00    1.92510E-09
 1.63211E+00    2.07552E-09
 1.65183E+00    2.16790E-09
 1.68694E+00    2.33237E-09
 1.73342E+00    2.55011E-09
 1.75467E+00    2.64965E-09
 1.79731E+00    2.84940E-09
 1.80000E+00    2.86200E-09
 1.80289E+00    2.91965E-09
 1.80999E+00    3.06127E-09
 1.83263E+00    3.51287E-09
 1.86147E+00    4.08814E-09
 1.87087E+00    4.27564E-09
 1.91039E+00    5.06395E-09
 1.96927E+00    6.23843E-09
 1.97544E+00    6.36150E-09
 1.98727E+00    6.59747E-09
 1.99852E+00    6.82188E-09
 2.00000E+00    6.85140E-09
 2.00135E+00    6.88087E-09
 2.20000E+00    1.12170E-08
 2.40000E+00    1.86570E-08
 2.60000E+00    3.59520E-08
 2.80000E+00    5.18500E-08
 3.00000E+00    9.44230E-08
 3.20000E+00    1.44170E-07
 3.40000E+00    2.14400E-07
 3.60000E+00    3.51543E-07
 3.80000E+00    4.88210E-07
 4.00000E+00    7.56750E-07
 4.20000E+00    1.07824E-06
 4.40000E+00    1.48848E-06
 4.60000E+00    2.17856E-06
 4.80000E+00    2.88705E-06
 5.00000E+00    4.02132E-06
 5.20000E+00    5.36266E-06
 5.40000E+00    6.96321E-06
 5.60000E+00    9.31054E-06
 5.80000E+00    1.17835E-05
 6.00000E+00    1.52712E-05
 6.20000E+00    1.93847E-05
 6.40000E+00    2.41461E-05
 6.60000E+00    3.08232E-05
 6.80000E+00    3.79434E-05
 7.00000E+00    4.75117E-05
 7.20000E+00    5.89042E-05
 7.40000E+00    7.16644E-05
 7.60000E+00    8.95343E-05
 7.80000E+00    1.09150E-04
 8.00000E+00    1.34632E-04
 8.50000E+00    2.22433E-04
 9.00000E+00    3.64228E-04
 9.50000E+00    5.91811E-04
 1.00000E+01    9.57389E-04
 1.05000E+01    1.53807E-03
 1.10000E+01    2.45189E-03
 1.15000E+01    3.88401E-03
 1.20000E+01    6.11855E-03
 1.25000E+01    9.60134E-03
 1.30000E+01    1.50202E-02
 1.35000E+01    2.33707E-02
 1.40000E+01    3.55878E-02
 1.45000E+01    5.26969E-02
 1.50000E+01    8.20472E-02
 1.60000E+01    1.68827E-01
 1.70000E+01    3.20307E-01
 1.80000E+01    5.57263E-01
 1.90000E+01    9.02597E-01
 2.00000E+01    1.38309E+00
 2.10000E+01    2.04515E+00
 2.20000E+01    2.96489E+00
 2.30000E+01    4.25710E+00
 2.40000E+01    5.99986E+00
 2.50000E+01    7.88794E+00
 2.60000E+01    9.18114E+00
 2.70000E+01    1.03652E+01
 2.80000E+01    1.00543E+01
 2.90000E+01    1.00446E+01
 3.00000E+01    1.01000E+01
 3.00000E+01    1.00743E+01
 3.20000E+01    1.04173E+01
 3.40000E+01    1.08252E+01
 3.60000E+01    1.15007E+01
 3.80000E+01    1.21409E+01
 4.00000E+01    1.27676E+01
 4.20000E+01    1.33767E+01
 4.40000E+01    1.39592E+01
 4.60000E+01    1.45201E+01
 4.80000E+01    1.50618E+01
 5.00000E+01    1.55920E+01
 5.20000E+01    1.61064E+01
 5.40000E+01    1.66006E+01
 5.60000E+01    1.70997E+01
 5.80000E+01    1.76078E+01
 6.00000E+01    1.81187E+01
 6.50000E+01    1.93133E+01
 7.00000E+01    2.08425E+01
 7.50000E+01    2.25159E+01
 8.00000E+01    2.45408E+01
 9.00000E+01    2.93059E+01
 1.00000E+02    3.70815E+01
 1.10000E+02    4.26727E+01
 1.20000E+02    4.77360E+01
 1.30000E+02    5.52353E+01
 1.40000E+02    6.77895E+01
 1.50000E+02    7.90708E+01
 1.60000E+02    8.60148E+01
 1.80000E+02    1.12125E+02
 2.00000E+02    1.95872E+02
