# n + Hg202 : (n,n'12)  
# jeff3.3    A.J. Koning and D. Rochman        EVAL-DEC15
# uncertainties: n
# # energies =    81
#   E(MeV)       xs(mb) 
 1.57259E+00    0.00000E+00
 1.58326E+00    3.35855E+00
 1.60000E+00    8.62768E+00
 1.63211E+00    1.12743E+01
 1.65183E+00    1.28996E+01
 1.68694E+00    1.57935E+01
 1.73342E+00    1.96244E+01
 1.75467E+00    2.13759E+01
 1.79731E+00    2.48904E+01
 1.80000E+00    2.51121E+01
 1.80289E+00    2.51564E+01
 1.80999E+00    2.52652E+01
 1.83263E+00    2.56123E+01
 1.86147E+00    2.60544E+01
 1.87087E+00    2.61985E+01
 1.91039E+00    2.68043E+01
 1.96927E+00    2.77068E+01
 1.97544E+00    2.78014E+01
 1.98727E+00    2.79828E+01
 1.99852E+00    2.81552E+01
 2.00000E+00    2.81779E+01
 2.00135E+00    2.81557E+01
 2.20000E+00    2.48871E+01
 2.40000E+00    2.09668E+01
 2.60000E+00    1.75343E+01
 2.80000E+00    1.47299E+01
 3.00000E+00    1.24100E+01
 3.20000E+00    1.04180E+01
 3.40000E+00    8.65446E+00
 3.60000E+00    7.08077E+00
 3.80000E+00    5.69783E+00
 4.00000E+00    4.51584E+00
 4.20000E+00    3.53567E+00
 4.40000E+00    2.74296E+00
 4.60000E+00    2.11522E+00
 4.80000E+00    1.62529E+00
 5.00000E+00    1.24679E+00
 5.20000E+00    9.56251E-01
 5.40000E+00    7.33954E-01
 5.60000E+00    5.62030E-01
 5.80000E+00    4.31567E-01
 6.00000E+00    3.31748E-01
 6.20000E+00    2.55031E-01
 6.40000E+00    1.96027E-01
 6.60000E+00    1.50710E-01
 6.80000E+00    1.15583E-01
 7.00000E+00    8.87750E-02
 7.20000E+00    6.81074E-02
 7.40000E+00    5.23124E-02
 7.60000E+00    4.02188E-02
 7.80000E+00    3.09574E-02
 8.00000E+00    2.39098E-02
 8.50000E+00    1.26013E-02
 9.00000E+00    6.70463E-03
 9.50000E+00    3.59483E-03
 1.00000E+01    1.93628E-03
 1.05000E+01    1.04518E-03
 1.10000E+01    5.64937E-04
 1.15000E+01    3.05947E-04
 1.20000E+01    1.66263E-04
 1.25000E+01    9.08220E-05
 1.30000E+01    4.99348E-05
 1.35000E+01    2.76635E-05
 1.40000E+01    1.54500E-05
 1.45000E+01    8.69946E-06
 1.50000E+01    4.93631E-06
 1.60000E+01    1.62106E-06
 1.70000E+01    5.41210E-07
 1.80000E+01    1.84660E-07
 1.90000E+01    6.41330E-08
 2.00000E+01    2.27220E-08
 2.10000E+01    8.22620E-09
 2.20000E+01    3.04370E-09
 2.30000E+01    1.14930E-09
 2.40000E+01    4.41210E-10
 2.50000E+01    1.71730E-10
 2.60000E+01    6.76420E-11
 2.70000E+01    2.69450E-11
 2.80000E+01    1.08700E-11
 2.90000E+01    4.44390E-12
 3.00000E+01    1.84310E-12
