# n + Hg202 : (n,n'15)  
# jeff3.3    A.J. Koning and D. Rochman        EVAL-DEC15
# uncertainties: n
# # energies =    77
#   E(MeV)       xs(mb) 
 1.65183E+00    0.00000E+00
 1.68694E+00    4.14441E+00
 1.73342E+00    9.63095E+00
 1.75467E+00    1.21393E+01
 1.79731E+00    1.71726E+01
 1.80000E+00    1.74901E+01
 1.80289E+00    1.75776E+01
 1.80999E+00    1.77926E+01
 1.83263E+00    1.84782E+01
 1.86147E+00    1.93514E+01
 1.87087E+00    1.96361E+01
 1.91039E+00    2.08328E+01
 1.96927E+00    2.26157E+01
 1.97544E+00    2.28025E+01
 1.98727E+00    2.31607E+01
 1.99852E+00    2.35014E+01
 2.00000E+00    2.35462E+01
 2.00135E+00    2.35363E+01
 2.20000E+00    2.20762E+01
 2.40000E+00    1.90557E+01
 2.60000E+00    1.60963E+01
 2.80000E+00    1.35828E+01
 3.00000E+00    1.14875E+01
 3.20000E+00    9.69697E+00
 3.40000E+00    8.11734E+00
 3.60000E+00    6.70112E+00
 3.80000E+00    5.43990E+00
 4.00000E+00    4.34631E+00
 4.20000E+00    3.42598E+00
 4.40000E+00    2.67183E+00
 4.60000E+00    2.06844E+00
 4.80000E+00    1.59386E+00
 5.00000E+00    1.22510E+00
 5.20000E+00    9.40860E-01
 5.40000E+00    7.22779E-01
 5.60000E+00    5.53847E-01
 5.80000E+00    4.25592E-01
 6.00000E+00    3.27379E-01
 6.20000E+00    2.51982E-01
 6.40000E+00    1.93863E-01
 6.60000E+00    1.49176E-01
 6.80000E+00    1.14575E-01
 7.00000E+00    8.80883E-02
 7.20000E+00    6.76320E-02
 7.40000E+00    5.19843E-02
 7.60000E+00    3.99916E-02
 7.80000E+00    3.07806E-02
 8.00000E+00    2.37778E-02
 8.50000E+00    1.25261E-02
 9.00000E+00    6.66014E-03
 9.50000E+00    3.56970E-03
 1.00000E+01    1.92311E-03
 1.05000E+01    1.03873E-03
 1.10000E+01    5.61914E-04
 1.15000E+01    3.04547E-04
 1.20000E+01    1.65604E-04
 1.25000E+01    9.05005E-05
 1.30000E+01    4.97703E-05
 1.35000E+01    2.75753E-05
 1.40000E+01    1.54009E-05
 1.45000E+01    8.67158E-06
 1.50000E+01    4.92045E-06
 1.60000E+01    1.61611E-06
 1.70000E+01    5.39760E-07
 1.80000E+01    1.84230E-07
 1.90000E+01    6.40020E-08
 2.00000E+01    2.26770E-08
 2.10000E+01    8.20940E-09
 2.20000E+01    3.03720E-09
 2.30000E+01    1.14670E-09
 2.40000E+01    4.40270E-10
 2.50000E+01    1.71390E-10
 2.60000E+01    6.75240E-11
 2.70000E+01    2.69030E-11
 2.80000E+01    1.08550E-11
 2.90000E+01    4.43790E-12
 3.00000E+01    1.84050E-12
