# n + Ti 49 : (n,el)    
# jendl4.0   K.KOBAYASHI(KUR),H.HASHIKURA(TOK) EVAL-SEP88
# uncertainties: n
# # energies =   171
#   E(MeV)       xs(mb) 
 1.00000E-11    1.19714E+03
 1.00000E-07    5.40996E+02
 4.13990E-07    5.40208E+02
 5.31580E-07    5.39937E+02
 6.82560E-07    5.39681E+02
 8.76420E-07    5.39355E+02
 1.12540E-06    5.38936E+02
 1.44500E-06    5.38399E+02
 1.85540E-06    5.37764E+02
 2.37240E-06    5.37014E+02
 3.05900E-06    5.36044E+02
 3.92790E-06    5.34806E+02
 5.04350E-06    5.33217E+02
 6.47600E-06    5.31177E+02
 8.31530E-06    5.28557E+02
 1.06770E-05    5.25193E+02
 1.37100E-05    5.20874E+02
 1.76030E-05    5.15328E+02
 2.26030E-05    5.08404E+02
 2.92030E-05    5.00448E+02
 3.72670E-05    4.90407E+02
 4.78510E-05    4.78168E+02
 6.14420E-05    4.63759E+02
 7.88930E-05    4.46967E+02
 1.01300E-04    4.27685E+02
 1.30070E-04    4.06249E+02
 1.67020E-04    3.83076E+02
 2.14450E-04    3.58977E+02
 2.75360E-04    3.34680E+02
 3.53580E-04    3.11649E+02
 4.54000E-04    2.91481E+02
 5.82950E-04    2.76506E+02
 7.48520E-04    2.71097E+02
 9.61120E-04    2.84366E+02
 1.23410E-03    3.39708E+02
 1.58460E-03    5.12020E+02
 2.03470E-03    8.12860E+02
 2.24870E-03    1.19515E+03
 2.48520E-03    1.68921E+03
 2.61260E-03    2.23202E+03
 2.74650E-03    3.78627E+03
 3.03540E-03    9.83202E+03
 3.35460E-03    5.60113E+04
 3.70740E-03    1.42650E+05
 4.30740E-03    8.70474E+03
 5.53080E-03    2.14919E+03
 7.10170E-03    3.36208E+04
 9.11880E-03    3.34445E+03
 1.17090E-02    8.43110E+02
 1.50340E-02    2.51702E+03
 1.93050E-02    3.45675E+03
 2.18750E-02    2.38281E+04
 2.35790E-02    1.24328E+04
 2.41760E-02    6.19106E+03
 2.47880E-02    3.94105E+03
 2.60580E-02    7.31591E+03
 2.70000E-02    1.72501E+04
 2.85000E-02    7.90896E+03
 3.18280E-02    2.56724E+04
 3.43070E-02    1.70817E+04
 4.08680E-02    6.17759E+03
 4.63090E-02    3.57492E+03
 5.24750E-02    1.36846E+03
 5.65620E-02    5.90228E+03
 6.73790E-02    5.80902E+03
 7.20000E-02    5.14041E+03
 7.95000E-02    2.85976E+03
 8.25000E-02    1.96410E+03
 8.65170E-02    3.83140E+03
 9.80370E-02    5.76302E+03
 1.11090E-01    3.84185E+03
 1.16790E-01    2.29960E+03
 1.22770E-01    1.48860E+03
 1.29070E-01    7.77698E+02
 1.35690E-01    3.07732E+03
 1.42640E-01    2.85755E+03
 1.49960E-01    1.01812E+04
 1.57640E-01    2.51399E+03
 1.65730E-01    6.01276E+03
 1.74220E-01    5.94261E+03
 1.83160E-01    1.32618E+04
 1.92550E-01    8.74347E+03
 2.02420E-01    5.59622E+03
 2.12800E-01    6.21155E+03
 2.23710E-01    6.43789E+03
 2.35180E-01    5.07563E+03
 2.47240E-01    3.95138E+03
 2.73240E-01    3.80759E+03
 2.87250E-01    3.73515E+03
 2.94520E-01    3.70459E+03
 2.97200E-01    3.69302E+03
 2.98500E-01    3.67918E+03
 3.01970E-01    3.59276E+03
 3.33730E-01    3.44360E+03
 3.68830E-01    3.33479E+03
 3.87740E-01    3.26644E+03
 4.07620E-01    3.18502E+03
 4.50490E-01    3.08165E+03
 4.97870E-01    3.01329E+03
 5.23400E-01    2.98227E+03
 5.50230E-01    2.95024E+03
 5.78440E-01    2.91737E+03
 6.08100E-01    2.89857E+03
 6.39280E-01    2.88498E+03
 6.72060E-01    2.87101E+03
 7.06510E-01    2.86873E+03
 7.42740E-01    2.87277E+03
 7.80820E-01    2.87806E+03
 8.20850E-01    2.89479E+03
 8.62940E-01    2.91540E+03
 9.07180E-01    2.94406E+03
 9.61640E-01    2.97811E+03
 1.00260E+00    3.04102E+03
 1.10800E+00    3.11866E+03
 1.16480E+00    3.17379E+03
 1.22460E+00    3.22703E+03
 1.28730E+00    3.28123E+03
 1.35340E+00    3.33775E+03
 1.42270E+00    3.36622E+03
 1.49570E+00    3.39326E+03
 1.57240E+00    3.33612E+03
 1.65300E+00    3.24983E+03
 1.73770E+00    3.20346E+03
 1.82680E+00    3.17697E+03
 1.92050E+00    3.14370E+03
 2.01900E+00    3.10957E+03
 2.12250E+00    3.07963E+03
 2.23130E+00    3.05452E+03
 2.30690E+00    3.03438E+03
 2.34570E+00    3.01916E+03
 2.36530E+00    3.00889E+03
 2.38520E+00    2.98280E+03
 2.46600E+00    2.92476E+03
 2.59240E+00    2.84710E+03
 2.72530E+00    2.77211E+03
 2.86500E+00    2.66625E+03
 3.01190E+00    2.59175E+03
 3.16640E+00    2.54162E+03
 3.32870E+00    2.46014E+03
 3.67880E+00    2.34102E+03
 4.06570E+00    2.25693E+03
 4.49330E+00    2.20797E+03
 4.72370E+00    2.17388E+03
 4.96590E+00    2.13805E+03
 5.22050E+00    2.10039E+03
 5.48810E+00    2.06079E+03
 5.76950E+00    2.01914E+03
 6.06530E+00    1.97241E+03
 6.37630E+00    1.92983E+03
 6.59240E+00    1.90342E+03
 6.70320E+00    1.86701E+03
 7.04690E+00    1.81069E+03
 7.40820E+00    1.75422E+03
 7.78800E+00    1.69774E+03
 8.18730E+00    1.65039E+03
 8.60710E+00    1.58876E+03
 9.04840E+00    1.53009E+03
 9.51230E+00    1.47566E+03
 1.00000E+01    1.42110E+03
 1.05130E+01    1.36641E+03
 1.10520E+01    1.31185E+03
 1.16180E+01    1.25871E+03
 1.22140E+01    1.20780E+03
 1.28400E+01    1.15955E+03
 1.34990E+01    1.12658E+03
 1.38400E+01    1.10509E+03
 1.41910E+01    1.08523E+03
 1.45500E+01    1.06576E+03
 1.49180E+01    1.03782E+03
 1.56830E+01    1.00334E+03
 1.64870E+01    9.72379E+02
