# n + Ti 49 : (n,tot)   
# jendl4.0   K.KOBAYASHI(KUR),H.HASHIKURA(TOK) EVAL-SEP88
# uncertainties: n
# # energies =   171
#   E(MeV)       xs(mb) 
 1.00000E-11    2.13380E+04
 1.00000E-07    1.21116E+03
 4.13990E-07    9.72244E+02
 5.31580E-07    9.21021E+02
 6.82560E-07    8.75741E+02
 8.76420E-07    8.35664E+02
 1.12540E-06    8.00273E+02
 1.44500E-06    7.68895E+02
 1.85540E-06    7.41261E+02
 2.37240E-06    7.16162E+02
 3.05900E-06    6.93442E+02
 3.92790E-06    6.73111E+02
 5.04350E-06    6.54549E+02
 6.47600E-06    6.37545E+02
 8.31530E-06    6.21599E+02
 1.06770E-05    6.06415E+02
 1.37100E-05    5.91653E+02
 1.76030E-05    5.76915E+02
 2.26030E-05    5.61680E+02
 2.92030E-05    5.45988E+02
 3.72670E-05    5.29472E+02
 4.78510E-05    5.11409E+02
 6.14420E-05    4.91709E+02
 7.88930E-05    4.70198E+02
 1.01300E-04    4.46903E+02
 1.30070E-04    4.22010E+02
 1.67020E-04    3.95862E+02
 2.14450E-04    3.69217E+02
 2.75360E-04    3.43009E+02
 3.53580E-04    3.18421E+02
 4.54000E-04    2.97119E+02
 5.82950E-04    2.81343E+02
 7.48520E-04    2.75382E+02
 9.61120E-04    2.88440E+02
 1.23410E-03    3.43924E+02
 1.58460E-03    5.16997E+02
 2.03470E-03    8.19110E+02
 2.24870E-03    1.20305E+03
 2.48520E-03    1.69932E+03
 2.61260E-03    2.24401E+03
 2.74650E-03    3.80259E+03
 3.03540E-03    9.86584E+03
 3.35460E-03    5.61628E+04
 3.70740E-03    1.42974E+05
 4.30740E-03    8.72593E+03
 5.53080E-03    2.15255E+03
 7.10170E-03    3.36868E+04
 9.11880E-03    3.34700E+03
 1.17090E-02    8.62006E+02
 1.50340E-02    2.53047E+03
 1.93050E-02    3.47349E+03
 2.18750E-02    2.38838E+04
 2.35790E-02    1.24433E+04
 2.41760E-02    6.19566E+03
 2.47880E-02    3.94434E+03
 2.60580E-02    7.32616E+03
 2.70000E-02    1.72850E+04
 2.85000E-02    7.96511E+03
 3.18280E-02    2.56962E+04
 3.43070E-02    1.71006E+04
 4.08680E-02    6.19106E+03
 4.63090E-02    3.58537E+03
 5.24750E-02    1.37058E+03
 5.65620E-02    5.91372E+03
 6.73790E-02    5.81487E+03
 7.20000E-02    5.15178E+03
 7.95000E-02    2.86023E+03
 8.25000E-02    1.96431E+03
 8.65170E-02    3.83234E+03
 9.80370E-02    5.76412E+03
 1.11090E-01    3.84203E+03
 1.16790E-01    2.29970E+03
 1.22770E-01    1.48869E+03
 1.29070E-01    7.77888E+02
 1.35690E-01    3.07909E+03
 1.42640E-01    2.85924E+03
 1.49960E-01    1.01832E+04
 1.57640E-01    2.51426E+03
 1.65730E-01    6.01497E+03
 1.74220E-01    5.94418E+03
 1.83160E-01    1.32639E+04
 1.92550E-01    8.74438E+03
 2.02420E-01    5.59696E+03
 2.12800E-01    6.21240E+03
 2.23710E-01    6.43834E+03
 2.35180E-01    5.07874E+03
 2.47240E-01    3.95638E+03
 2.73240E-01    3.81237E+03
 2.87250E-01    3.73982E+03
 2.94520E-01    3.70922E+03
 2.97200E-01    3.69763E+03
 2.98500E-01    3.68377E+03
 3.01970E-01    3.59722E+03
 3.33730E-01    3.44782E+03
 3.68830E-01    3.33884E+03
 3.87740E-01    3.27040E+03
 4.07620E-01    3.18884E+03
 4.50490E-01    3.08531E+03
 4.97870E-01    3.01684E+03
 5.23400E-01    2.98575E+03
 5.50230E-01    2.95366E+03
 5.78440E-01    2.92072E+03
 6.08100E-01    2.90189E+03
 6.39280E-01    2.88827E+03
 6.72060E-01    2.87427E+03
 7.06510E-01    2.87197E+03
 7.42740E-01    2.87598E+03
 7.80820E-01    2.88125E+03
 8.20850E-01    2.89796E+03
 8.62940E-01    2.91856E+03
 9.07180E-01    2.94721E+03
 9.61640E-01    2.98126E+03
 1.00260E+00    3.04420E+03
 1.10800E+00    3.12187E+03
 1.16480E+00    3.17703E+03
 1.22460E+00    3.23033E+03
 1.28730E+00    3.28460E+03
 1.35340E+00    3.34165E+03
 1.42270E+00    3.40161E+03
 1.49570E+00    3.46253E+03
 1.57240E+00    3.51934E+03
 1.65300E+00    3.57491E+03
 1.73770E+00    3.62617E+03
 1.82680E+00    3.67005E+03
 1.92050E+00    3.71086E+03
 2.01900E+00    3.74049E+03
 2.12250E+00    3.76048E+03
 2.23130E+00    3.77789E+03
 2.30690E+00    3.78869E+03
 2.34570E+00    3.79420E+03
 2.36530E+00    3.79792E+03
 2.38520E+00    3.80736E+03
 2.46600E+00    3.82271E+03
 2.59240E+00    3.82131E+03
 2.72530E+00    3.81551E+03
 2.86500E+00    3.80940E+03
 3.01190E+00    3.79875E+03
 3.16640E+00    3.77866E+03
 3.32870E+00    3.74514E+03
 3.67880E+00    3.68771E+03
 4.06570E+00    3.62178E+03
 4.49330E+00    3.56805E+03
 4.72370E+00    3.52977E+03
 4.96590E+00    3.48953E+03
 5.22050E+00    3.44724E+03
 5.48810E+00    3.40503E+03
 5.76950E+00    3.36255E+03
 6.06530E+00    3.31790E+03
 6.37630E+00    3.27901E+03
 6.59240E+00    3.25488E+03
 6.70320E+00    3.22162E+03
 7.04690E+00    3.16974E+03
 7.40820E+00    3.11548E+03
 7.78800E+00    3.06202E+03
 8.18730E+00    3.00694E+03
 8.60710E+00    2.94904E+03
 9.04840E+00    2.88822E+03
 9.51230E+00    2.83077E+03
 1.00000E+01    2.77223E+03
 1.05130E+01    2.71530E+03
 1.10520E+01    2.65719E+03
 1.16180E+01    2.60083E+03
 1.22140E+01    2.54309E+03
 1.28400E+01    2.48739E+03
 1.34990E+01    2.44595E+03
 1.38400E+01    2.41940E+03
 1.41910E+01    2.39321E+03
 1.45500E+01    2.36769E+03
 1.49180E+01    2.33082E+03
 1.56830E+01    2.28395E+03
 1.64870E+01    2.24055E+03
