# n + Tc 98 : (n,d)     
# jendl.ad   F.Minato                          EVAL-Apr14
# uncertainties: n
# # energies =    47
#   E(MeV)       xs(mb) 
 3.99244E+00    0.00000E+00
 4.47830E+00    8.36380E-10
 4.65735E+00    1.14480E-09
 4.67904E+00    1.18210E-09
 4.71904E+00    1.25100E-09
 4.72079E+00    1.25400E-09
 4.75320E+00    1.30980E-09
 4.79564E+00    1.53620E-09
 4.88959E+00    2.08590E-09
 4.99567E+00    2.72780E-09
 5.02745E+00    2.92940E-09
 5.09633E+00    3.38970E-09
 5.11994E+00    3.54860E-09
 5.12067E+00    3.55370E-09
 5.12398E+00    3.57720E-09
 5.13914E+00    3.68600E-09
 5.27038E+00    4.64450E-09
 5.27414E+00    4.67210E-09
 5.27624E+00    4.68760E-09
 5.29031E+00    4.79120E-09
 5.32756E+00    5.06620E-09
 5.41652E+00    5.72540E-09
 5.44415E+00    5.93040E-09
 5.52378E+00    6.52160E-09
 5.52406E+00    6.52370E-09
 5.55324E+00    6.74040E-09
 5.55599E+00    6.76080E-09
 5.56508E+00    6.82830E-09
 5.57155E+00    6.87640E-09
 5.57417E+00    6.89590E-09
 5.63915E+00    7.37850E-09
 5.75000E+00    8.20180E-09
 6.70000E+00    2.13081E-06
 7.65000E+00    6.15168E-05
 8.60000E+00    1.15806E-03
 9.55000E+00    2.09122E-02
 1.05000E+01    1.56477E-01
 1.14500E+01    6.16016E-01
 1.24000E+01    1.52794E+00
 1.33500E+01    2.80544E+00
 1.43000E+01    4.22791E+00
 1.52500E+01    5.58804E+00
 1.62000E+01    7.52010E+00
 1.71500E+01    8.73892E+00
 1.81000E+01    1.04329E+01
 1.90500E+01    1.20341E+01
 2.00000E+01    1.30105E+01
