# n + Tc 98 : (n,xa)    
# jendl.ad   F.Minato                          EVAL-Apr14
# 
# # energies =    75
#   E(MeV)        xs(mb) 
 2.20246E-02    5.73522E-04
 4.64159E-02    5.94392E-04
 6.61041E-02    6.24926E-04
 7.40349E-02    6.36511E-04
 8.25215E-02    6.48908E-04
 9.16950E-02    6.60178E-04
 1.00000E-01    6.70101E-04
 1.03763E-01    6.74061E-04
 1.07526E-01    6.77324E-04
 1.39977E-01    7.00191E-04
 1.43463E-01    7.02571E-04
 1.53657E-01    7.07111E-04
 1.90000E-01    7.06164E-04
 1.92170E-01    7.06289E-04
 2.05768E-01    7.07070E-04
 2.70902E-01    7.18216E-04
 2.80000E-01    7.19874E-04
 3.09354E-01    7.27682E-04
 3.09355E-01    7.27682E-04
 3.25135E-01    7.34735E-04
 3.25136E-01    7.34735E-04
 3.31834E-01    7.38113E-04
 3.50504E-01    7.47811E-04
 3.54889E-01    7.50205E-04
 3.70000E-01    7.58454E-04
 3.78954E-01    7.63342E-04
 3.94058E-01    7.72043E-04
 4.28409E-01    7.92398E-04
 4.45563E-01    8.03128E-04
 4.45564E-01    8.03129E-04
 4.51605E-01    8.07133E-04
 4.60000E-01    8.12697E-04
 4.62547E-01    8.14385E-04
 4.89219E-01    8.32066E-04
 5.07263E-01    8.47046E-04
 5.43037E-01    8.77952E-04
 5.43038E-01    8.77953E-04
 5.48816E-01    8.83247E-04
 5.50000E-01    8.84332E-04
 5.73852E-01    9.11944E-04
 6.15779E-01    9.65024E-04
 6.28590E-01    9.81576E-04
 6.30934E-01    9.84709E-04
 6.40000E-01    9.97233E-04
 6.46088E-01    1.00564E-03
 6.59444E-01    1.02409E-03
 6.72457E-01    1.04207E-03
 6.77105E-01    1.04867E-03
 6.95290E-01    1.07450E-03
 7.14789E-01    1.10258E-03
 7.20972E-01    1.11187E-03
 7.30000E-01    1.12542E-03
 8.20000E-01    1.28734E-03
 9.10000E-01    1.48533E-03
 1.00000E+00    1.69749E-03
 1.95000E+00    6.07133E-03
 2.90000E+00    1.76858E-02
 3.85000E+00    5.66444E-02
 4.80000E+00    1.24161E-01
 5.75000E+00    2.61068E-01
 6.70000E+00    5.10455E-01
 7.65000E+00    9.57056E-01
 8.60000E+00    1.65732E+00
 9.55000E+00    2.60497E+00
 1.05000E+01    3.83561E+00
 1.14500E+01    5.22907E+00
 1.24000E+01    6.77669E+00
 1.33500E+01    8.42703E+00
 1.43000E+01    1.01261E+01
 1.52500E+01    1.19177E+01
 1.62000E+01    1.37168E+01
 1.71500E+01    1.55146E+01
 1.81000E+01    1.72453E+01
 1.90500E+01    1.90739E+01
 2.00000E+01    2.08359E+01
