# n + Tc 98 : (n,n')    
# jendl.ad   F.Minato                          EVAL-Apr14
# uncertainties: n
# # energies =    75
#   E(MeV)       xs(mb) 
 2.20246E-02    0.00000E+00
 4.64159E-02    3.65912E+01
 6.61041E-02    6.98910E+01
 7.40349E-02    8.66460E+01
 8.25215E-02    1.06765E+02
 9.16950E-02    1.31731E+02
 1.00000E-01    1.56253E+02
 1.03763E-01    1.67591E+02
 1.07526E-01    1.78930E+02
 1.39977E-01    3.30338E+02
 1.43463E-01    3.46999E+02
 1.53657E-01    4.12513E+02
 1.90000E-01    6.58133E+02
 1.92170E-01    6.71597E+02
 2.05768E-01    7.56951E+02
 2.70902E-01    1.07467E+03
 2.80000E-01    1.10725E+03
 3.09354E-01    1.19977E+03
 3.09355E-01    1.19978E+03
 3.25135E-01    1.24039E+03
 3.25136E-01    1.24039E+03
 3.31834E-01    1.25636E+03
 3.50504E-01    1.29819E+03
 3.54889E-01    1.31013E+03
 3.70000E-01    1.34617E+03
 3.78954E-01    1.36615E+03
 3.94058E-01    1.39939E+03
 4.28409E-01    1.44478E+03
 4.45563E-01    1.46126E+03
 4.45564E-01    1.46126E+03
 4.51605E-01    1.46914E+03
 4.60000E-01    1.47900E+03
 4.62547E-01    1.48194E+03
 4.89219E-01    1.51057E+03
 5.07263E-01    1.52706E+03
 5.43037E-01    1.55251E+03
 5.43038E-01    1.55251E+03
 5.48816E-01    1.55517E+03
 5.50000E-01    1.55568E+03
 5.73852E-01    1.56357E+03
 6.15779E-01    1.57007E+03
 6.28590E-01    1.57111E+03
 6.30934E-01    1.57124E+03
 6.40000E-01    1.56955E+03
 6.46088E-01    1.56841E+03
 6.59444E-01    1.56566E+03
 6.72457E-01    1.56254E+03
 6.77105E-01    1.56136E+03
 6.95290E-01    1.56016E+03
 7.14789E-01    1.55723E+03
 7.20972E-01    1.55629E+03
 7.30000E-01    1.55564E+03
 8.20000E-01    1.53483E+03
 9.10000E-01    1.51514E+03
 1.00000E+00    1.51573E+03
 1.95000E+00    1.70382E+03
 2.90000E+00    1.79031E+03
 3.85000E+00    1.82489E+03
 4.80000E+00    1.85977E+03
 5.75000E+00    1.89839E+03
 6.70000E+00    1.92098E+03
 7.65000E+00    1.89293E+03
 8.60000E+00    1.44780E+03
 9.55000E+00    9.80025E+02
 1.05000E+01    6.49348E+02
 1.14500E+01    4.55350E+02
 1.24000E+01    3.40815E+02
 1.33500E+01    2.71600E+02
 1.43000E+01    2.29288E+02
 1.52500E+01    1.98592E+02
 1.62000E+01    1.76462E+02
 1.71500E+01    1.57892E+02
 1.81000E+01    1.42885E+02
 1.90500E+01    1.31649E+02
 2.00000E+01    1.21604E+02
