# n + W 183 : (n,h)     
# jendl4.0   N.Iwamoto                         EVAL-Feb10
# uncertainties: n
# # energies =    25
#   E(MeV)       xs(mb) 
 8.00000E+00    0.00000E+00
 8.50000E+00    1.29620E-34
 9.00000E+00    9.75310E-30
 9.50000E+00    4.64270E-26
 1.00000E+01    3.48030E-23
 1.05000E+01    6.85590E-21
 1.10000E+01    4.96220E-19
 1.15000E+01    1.67420E-17
 1.20000E+01    3.24910E-16
 1.25000E+01    4.76600E-15
 1.30000E+01    7.01430E-14
 1.35000E+01    1.02060E-12
 1.40000E+01    1.22830E-11
 1.45000E+01    1.13740E-10
 1.50000E+01    8.15130E-10
 1.55000E+01    4.64780E-09
 1.60000E+01    1.95870E-08
 1.65000E+01    7.85090E-08
 1.70000E+01    2.69920E-07
 1.75000E+01    8.12620E-07
 1.80000E+01    2.18176E-06
 1.85000E+01    5.30660E-06
 1.90000E+01    1.18534E-05
 1.95000E+01    2.46044E-05
 2.00000E+01    4.79392E-05
