# n + W 183 : (n,n'16)  
# jendl4.0   N.Iwamoto                         EVAL-Feb10
# uncertainties: n
# # energies =    70
#   E(MeV)       xs(mb) 
 6.34680E-01    0.00000E+00
 7.00000E-01    8.49125E-03
 7.43999E-01    2.63716E-02
 7.76296E-01    4.69582E-02
 8.00000E-01    6.63588E-02
 8.55290E-01    1.32066E-01
 8.75802E-01    1.64942E-01
 9.00000E-01    2.09774E-01
 9.08481E-01    2.27724E-01
 9.09507E-01    2.29928E-01
 9.18034E-01    2.48806E-01
 9.31357E-01    2.80073E-01
 9.39803E-01    3.01019E-01
 9.65293E-01    3.70669E-01
 9.65294E-01    3.70664E-01
 9.79350E-01    4.12096E-01
 1.00000E+00    4.78614E-01
 1.00760E+00    5.04919E-01
 1.03206E+00    5.91258E-01
 1.05874E+00    6.88012E-01
 1.06836E+00    7.24871E-01
 1.07791E+00    7.62767E-01
 1.10000E+00    8.50549E-01
 1.20000E+00    1.32295E+00
 1.30000E+00    1.83849E+00
 1.40000E+00    2.33168E+00
 1.50000E+00    2.83267E+00
 1.60000E+00    3.32417E+00
 1.70000E+00    3.73933E+00
 1.80000E+00    4.06122E+00
 1.90000E+00    4.30005E+00
 2.00000E+00    4.45899E+00
 2.25000E+00    4.64121E+00
 2.50000E+00    4.28115E+00
 2.75000E+00    3.88220E+00
 3.00000E+00    4.87898E+00
 3.50000E+00    3.93264E+00
 4.00000E+00    3.29180E+00
 4.50000E+00    2.91978E+00
 5.00000E+00    2.71764E+00
 5.50000E+00    2.59719E+00
 6.00000E+00    2.50558E+00
 6.50000E+00    2.40491E+00
 7.00000E+00    2.28544E+00
 7.50000E+00    2.15022E+00
 8.00000E+00    2.01548E+00
 8.50000E+00    1.89335E+00
 9.00000E+00    1.78938E+00
 9.50000E+00    1.70483E+00
 1.00000E+01    1.63594E+00
 1.05000E+01    1.57982E+00
 1.10000E+01    1.53286E+00
 1.15000E+01    1.49238E+00
 1.20000E+01    1.45615E+00
 1.25000E+01    1.42265E+00
 1.30000E+01    1.39105E+00
 1.35000E+01    1.36121E+00
 1.40000E+01    1.33353E+00
 1.45000E+01    1.30850E+00
 1.50000E+01    1.28656E+00
 1.55000E+01    1.26804E+00
 1.60000E+01    1.25325E+00
 1.65000E+01    1.24238E+00
 1.70000E+01    1.23551E+00
 1.75000E+01    1.23227E+00
 1.80000E+01    1.23196E+00
 1.85000E+01    1.23365E+00
 1.90000E+01    1.23641E+00
 1.95000E+01    1.23948E+00
 2.00000E+01    1.24223E+00
