# n + W 183 : (n,n'27)  
# jendl4.0   N.Iwamoto                         EVAL-Feb10
# uncertainties: n
# # energies =    56
#   E(MeV)       xs(mb) 
 9.65294E-01    0.00000E+00
 9.79350E-01    2.53901E+01
 1.00000E+00    3.75839E+01
 1.00760E+00    4.09690E+01
 1.03206E+00    4.99526E+01
 1.05874E+00    5.75476E+01
 1.06836E+00    5.99108E+01
 1.07791E+00    6.20733E+01
 1.10000E+00    6.67052E+01
 1.20000E+00    8.11393E+01
 1.30000E+00    8.70262E+01
 1.40000E+00    8.81368E+01
 1.50000E+00    8.49940E+01
 1.60000E+00    8.07664E+01
 1.70000E+00    7.33642E+01
 1.80000E+00    6.61689E+01
 1.90000E+00    5.93365E+01
 2.00000E+00    5.27187E+01
 2.25000E+00    3.81850E+01
 2.50000E+00    2.54939E+01
 2.75000E+00    1.73558E+01
 3.00000E+00    1.11442E+01
 3.50000E+00    4.81432E+00
 4.00000E+00    2.10000E+00
 4.50000E+00    9.71746E-01
 5.00000E+00    5.07097E-01
 5.50000E+00    3.12316E-01
 6.00000E+00    2.26579E-01
 6.50000E+00    1.84540E-01
 7.00000E+00    1.60180E-01
 7.50000E+00    1.43404E-01
 8.00000E+00    1.30457E-01
 8.50000E+00    1.19784E-01
 9.00000E+00    1.10659E-01
 9.50000E+00    1.02660E-01
 1.00000E+01    9.55116E-02
 1.05000E+01    8.90309E-02
 1.10000E+01    8.30985E-02
 1.15000E+01    7.76416E-02
 1.20000E+01    7.26173E-02
 1.25000E+01    6.80058E-02
 1.30000E+01    6.37934E-02
 1.35000E+01    5.99604E-02
 1.40000E+01    5.64820E-02
 1.45000E+01    5.33245E-02
 1.50000E+01    5.04496E-02
 1.55000E+01    4.78192E-02
 1.60000E+01    4.53950E-02
 1.65000E+01    4.31438E-02
 1.70000E+01    4.10367E-02
 1.75000E+01    3.90503E-02
 1.80000E+01    3.71661E-02
 1.85000E+01    3.53754E-02
 1.90000E+01    3.36733E-02
 1.95000E+01    3.20580E-02
 2.00000E+01    3.05318E-02
