# n + W 183 : (n,n'22)  
# jendl4.0   N.Iwamoto                         EVAL-Feb10
# uncertainties: n
# # energies =    61
#   E(MeV)       xs(mb) 
 9.09507E-01    0.00000E+00
 9.18034E-01    1.95725E+01
 9.31357E-01    2.92053E+01
 9.39803E-01    3.35877E+01
 9.65293E-01    4.37279E+01
 9.65294E-01    4.37283E+01
 9.79350E-01    4.80928E+01
 1.00000E+00    5.38431E+01
 1.00760E+00    5.57956E+01
 1.03206E+00    6.10534E+01
 1.05874E+00    6.59622E+01
 1.06836E+00    6.72348E+01
 1.07791E+00    6.86576E+01
 1.10000E+00    7.17423E+01
 1.20000E+00    8.35632E+01
 1.30000E+00    9.00438E+01
 1.40000E+00    9.06687E+01
 1.50000E+00    8.89666E+01
 1.60000E+00    8.39669E+01
 1.70000E+00    7.72557E+01
 1.80000E+00    7.05523E+01
 1.90000E+00    6.39824E+01
 2.00000E+00    5.67712E+01
 2.25000E+00    4.15877E+01
 2.50000E+00    2.81134E+01
 2.75000E+00    1.93488E+01
 3.00000E+00    1.24428E+01
 3.50000E+00    5.43179E+00
 4.00000E+00    2.35529E+00
 4.50000E+00    1.04880E+00
 5.00000E+00    5.02086E-01
 5.50000E+00    2.72330E-01
 6.00000E+00    1.73745E-01
 6.50000E+00    1.29093E-01
 7.00000E+00    1.06347E-01
 7.50000E+00    9.27369E-02
 8.00000E+00    8.33010E-02
 8.50000E+00    7.60211E-02
 9.00000E+00    7.00183E-02
 9.50000E+00    6.48535E-02
 1.00000E+01    6.02801E-02
 1.05000E+01    5.61690E-02
 1.10000E+01    5.24184E-02
 1.15000E+01    4.89707E-02
 1.20000E+01    4.57965E-02
 1.25000E+01    4.28832E-02
 1.30000E+01    4.02219E-02
 1.35000E+01    3.78000E-02
 1.40000E+01    3.56013E-02
 1.45000E+01    3.36041E-02
 1.50000E+01    3.17842E-02
 1.55000E+01    3.01172E-02
 1.60000E+01    2.85790E-02
 1.65000E+01    2.71489E-02
 1.70000E+01    2.58087E-02
 1.75000E+01    2.45458E-02
 1.80000E+01    2.33562E-02
 1.85000E+01    2.22260E-02
 1.90000E+01    2.11521E-02
 1.95000E+01    2.01336E-02
 2.00000E+01    1.91720E-02
