# n + W 183 : (n,n'24)  
# jendl4.0   N.Iwamoto                         EVAL-Feb10
# uncertainties: n
# # energies =    59
#   E(MeV)       xs(mb) 
 9.31357E-01    0.00000E+00
 9.39803E-01    7.13696E-04
 9.65293E-01    4.11331E-03
 9.65294E-01    4.11302E-03
 9.79350E-01    7.36824E-03
 1.00000E+00    1.44141E-02
 1.00760E+00    1.77857E-02
 1.03206E+00    3.16483E-02
 1.05874E+00    5.23184E-02
 1.06836E+00    6.14518E-02
 1.07791E+00    7.14645E-02
 1.10000E+00    9.73867E-02
 1.20000E+00    2.75476E-01
 1.30000E+00    5.39969E-01
 1.40000E+00    8.59115E-01
 1.50000E+00    1.21793E+00
 1.60000E+00    1.57815E+00
 1.70000E+00    1.88864E+00
 1.80000E+00    2.18419E+00
 1.90000E+00    2.45394E+00
 2.00000E+00    2.64736E+00
 2.25000E+00    2.91429E+00
 2.50000E+00    2.73272E+00
 2.75000E+00    2.45862E+00
 3.00000E+00    2.36053E+00
 3.50000E+00    1.58026E+00
 4.00000E+00    1.01627E+00
 4.50000E+00    6.71799E-01
 5.00000E+00    4.76458E-01
 5.50000E+00    3.66591E-01
 6.00000E+00    3.02708E-01
 6.50000E+00    2.62137E-01
 7.00000E+00    2.33444E-01
 7.50000E+00    2.11131E-01
 8.00000E+00    1.92827E-01
 8.50000E+00    1.77313E-01
 9.00000E+00    1.63888E-01
 9.50000E+00    1.52058E-01
 1.00000E+01    1.41460E-01
 1.05000E+01    1.31857E-01
 1.10000E+01    1.23063E-01
 1.15000E+01    1.14968E-01
 1.20000E+01    1.07509E-01
 1.25000E+01    1.00660E-01
 1.30000E+01    9.44009E-02
 1.35000E+01    8.87044E-02
 1.40000E+01    8.35472E-02
 1.45000E+01    7.88673E-02
 1.50000E+01    7.46070E-02
 1.55000E+01    7.07093E-02
 1.60000E+01    6.71171E-02
 1.65000E+01    6.37813E-02
 1.70000E+01    6.06589E-02
 1.75000E+01    5.77153E-02
 1.80000E+01    5.49233E-02
 1.85000E+01    5.22702E-02
 1.90000E+01    4.97490E-02
 1.95000E+01    4.73572E-02
 2.00000E+01    4.50983E-02
