# n + W 183 : (n,n'07)  
# jendl4.0   N.Iwamoto                         EVAL-Feb10
# uncertainties: n
# # energies =    82
#   E(MeV)       xs(mb) 
 3.11199E-01    0.00000E+00
 4.00000E-01    3.25349E-01
 4.14367E-01    4.44493E-01
 4.55569E-01    8.66376E-01
 4.78021E-01    1.14628E+00
 4.89685E-01    1.28024E+00
 5.00000E-01    1.42036E+00
 5.35939E-01    1.99417E+00
 5.54138E-01    2.33278E+00
 5.98622E-01    3.17439E+00
 6.00000E-01    3.19465E+00
 6.26194E-01    3.74223E+00
 6.34680E-01    3.80647E+00
 7.00000E-01    5.31223E+00
 7.43999E-01    6.47822E+00
 7.76296E-01    7.37834E+00
 8.00000E-01    8.06956E+00
 8.55290E-01    9.86735E+00
 8.75802E-01    1.05997E+01
 9.00000E-01    1.14956E+01
 9.08481E-01    1.18191E+01
 9.09507E-01    1.18475E+01
 9.18034E-01    1.21216E+01
 9.31357E-01    1.25567E+01
 9.39803E-01    1.28526E+01
 9.65293E-01    1.36079E+01
 9.65294E-01    1.36079E+01
 9.79350E-01    1.40119E+01
 1.00000E+00    1.46201E+01
 1.00760E+00    1.48457E+01
 1.03206E+00    1.55260E+01
 1.05874E+00    1.62746E+01
 1.06836E+00    1.65172E+01
 1.07791E+00    1.67777E+01
 1.10000E+00    1.73428E+01
 1.20000E+00    1.95458E+01
 1.30000E+00    2.10929E+01
 1.40000E+00    2.17580E+01
 1.50000E+00    2.17930E+01
 1.60000E+00    2.13894E+01
 1.70000E+00    2.06610E+01
 1.80000E+00    1.96678E+01
 1.90000E+00    1.84856E+01
 2.00000E+00    1.72004E+01
 2.25000E+00    1.41848E+01
 2.50000E+00    1.06739E+01
 2.75000E+00    8.08237E+00
 3.00000E+00    6.36131E+00
 3.50000E+00    3.49756E+00
 4.00000E+00    1.97316E+00
 4.50000E+00    1.19991E+00
 5.00000E+00    8.13123E-01
 5.50000E+00    6.13286E-01
 6.00000E+00    5.02344E-01
 6.50000E+00    4.33065E-01
 7.00000E+00    3.84265E-01
 7.50000E+00    3.46472E-01
 8.00000E+00    3.15628E-01
 8.50000E+00    2.89576E-01
 9.00000E+00    2.67047E-01
 9.50000E+00    2.47165E-01
 1.00000E+01    2.29323E-01
 1.05000E+01    2.13106E-01
 1.10000E+01    1.98287E-01
 1.15000E+01    1.84708E-01
 1.20000E+01    1.72287E-01
 1.25000E+01    1.60980E-01
 1.30000E+01    1.50736E-01
 1.35000E+01    1.41483E-01
 1.40000E+01    1.33127E-01
 1.45000E+01    1.25564E-01
 1.50000E+01    1.18683E-01
 1.55000E+01    1.12381E-01
 1.60000E+01    1.06564E-01
 1.65000E+01    1.01152E-01
 1.70000E+01    9.60685E-02
 1.75000E+01    9.12704E-02
 1.80000E+01    8.67182E-02
 1.85000E+01    8.23985E-02
 1.90000E+01    7.83072E-02
 1.95000E+01    7.44451E-02
 2.00000E+01    7.08192E-02
