# n + W 183 : (n,n'28)  
# jendl4.0   N.Iwamoto                         EVAL-Feb10
# uncertainties: n
# # energies =    55
#   E(MeV)       xs(mb) 
 9.79350E-01    0.00000E+00
 1.00000E+00    2.09064E-03
 1.00760E+00    3.27917E-03
 1.03206E+00    9.30478E-03
 1.05874E+00    2.05092E-02
 1.06836E+00    2.59325E-02
 1.07791E+00    3.21355E-02
 1.10000E+00    4.89735E-02
 1.20000E+00    1.82832E-01
 1.30000E+00    4.04409E-01
 1.40000E+00    7.00611E-01
 1.50000E+00    1.02450E+00
 1.60000E+00    1.38617E+00
 1.70000E+00    1.68820E+00
 1.80000E+00    1.96993E+00
 1.90000E+00    2.22940E+00
 2.00000E+00    2.44774E+00
 2.25000E+00    2.73825E+00
 2.50000E+00    2.59812E+00
 2.75000E+00    2.35760E+00
 3.00000E+00    2.72190E+00
 3.50000E+00    1.96265E+00
 4.00000E+00    1.39084E+00
 4.50000E+00    1.02695E+00
 5.00000E+00    8.08973E-01
 5.50000E+00    6.75484E-01
 6.00000E+00    5.88326E-01
 6.50000E+00    5.24995E-01
 7.00000E+00    4.74913E-01
 7.50000E+00    4.32933E-01
 8.00000E+00    3.96993E-01
 8.50000E+00    3.65817E-01
 9.00000E+00    3.38510E-01
 9.50000E+00    3.14296E-01
 1.00000E+01    2.92536E-01
 1.05000E+01    2.72757E-01
 1.10000E+01    2.54629E-01
 1.15000E+01    2.37941E-01
 1.20000E+01    2.22569E-01
 1.25000E+01    2.08454E-01
 1.30000E+01    1.95558E-01
 1.35000E+01    1.83820E-01
 1.40000E+01    1.73165E-01
 1.45000E+01    1.63493E-01
 1.50000E+01    1.54685E-01
 1.55000E+01    1.46626E-01
 1.60000E+01    1.39199E-01
 1.65000E+01    1.32302E-01
 1.70000E+01    1.25847E-01
 1.75000E+01    1.19761E-01
 1.80000E+01    1.13988E-01
 1.85000E+01    1.08502E-01
 1.90000E+01    1.03286E-01
 1.95000E+01    9.83354E-02
 2.00000E+01    9.36573E-02
