# n + W 183 : (n,n'26)  
# jendl4.0   N.Iwamoto                         EVAL-Feb10
# uncertainties: n
# # energies =    57
#   E(MeV)       xs(mb) 
 9.65293E-01    0.00000E+00
 9.65294E-01    1.10842E-04
 9.79350E-01    1.43949E-02
 1.00000E+00    3.13733E-02
 1.00760E+00    3.91768E-02
 1.03206E+00    7.08512E-02
 1.05874E+00    1.18505E-01
 1.06836E+00    1.39240E-01
 1.07791E+00    1.61230E-01
 1.10000E+00    2.19493E-01
 1.20000E+00    5.88490E-01
 1.30000E+00    1.05759E+00
 1.40000E+00    1.56161E+00
 1.50000E+00    2.01292E+00
 1.60000E+00    2.43569E+00
 1.70000E+00    2.68032E+00
 1.80000E+00    2.87715E+00
 1.90000E+00    3.03065E+00
 2.00000E+00    3.11960E+00
 2.25000E+00    3.11964E+00
 2.50000E+00    2.77024E+00
 2.75000E+00    2.42960E+00
 3.00000E+00    2.40642E+00
 3.50000E+00    1.63902E+00
 4.00000E+00    1.08259E+00
 4.50000E+00    7.37691E-01
 5.00000E+00    5.39978E-01
 5.50000E+00    4.27363E-01
 6.00000E+00    3.60375E-01
 6.50000E+00    3.16137E-01
 7.00000E+00    2.83562E-01
 7.50000E+00    2.57414E-01
 8.00000E+00    2.35543E-01
 8.50000E+00    2.16806E-01
 9.00000E+00    2.00502E-01
 9.50000E+00    1.86094E-01
 1.00000E+01    1.73170E-01
 1.05000E+01    1.61435E-01
 1.10000E+01    1.50684E-01
 1.15000E+01    1.40791E-01
 1.20000E+01    1.31681E-01
 1.25000E+01    1.23319E-01
 1.30000E+01    1.15681E-01
 1.35000E+01    1.08731E-01
 1.40000E+01    1.02423E-01
 1.45000E+01    9.66972E-02
 1.50000E+01    9.14840E-02
 1.55000E+01    8.67141E-02
 1.60000E+01    8.23180E-02
 1.65000E+01    7.82359E-02
 1.70000E+01    7.44149E-02
 1.75000E+01    7.08128E-02
 1.80000E+01    6.73961E-02
 1.85000E+01    6.41489E-02
 1.90000E+01    6.10624E-02
 1.95000E+01    5.81331E-02
 2.00000E+01    5.53655E-02
