# n + W 183 : (n,n'09)  
# jendl4.0   N.Iwamoto                         EVAL-Feb10
# uncertainties: n
# # energies =    79
#   E(MeV)       xs(mb) 
 4.55569E-01    0.00000E+00
 4.78021E-01    2.62820E+01
 4.89685E-01    3.14125E+01
 5.00000E-01    3.52736E+01
 5.35939E-01    4.66232E+01
 5.54138E-01    5.12662E+01
 5.98622E-01    6.23994E+01
 6.00000E-01    6.27372E+01
 6.26194E-01    6.91381E+01
 6.34680E-01    7.09093E+01
 7.00000E-01    8.47661E+01
 7.43999E-01    9.33873E+01
 7.76296E-01    9.95972E+01
 8.00000E-01    1.04109E+02
 8.55290E-01    1.14707E+02
 8.75802E-01    1.17699E+02
 9.00000E-01    1.20363E+02
 9.08481E-01    1.21414E+02
 9.09507E-01    1.21106E+02
 9.18034E-01    1.20223E+02
 9.31357E-01    1.19438E+02
 9.39803E-01    1.19703E+02
 9.65293E-01    1.20721E+02
 9.65294E-01    1.20721E+02
 9.79350E-01    1.21155E+02
 1.00000E+00    1.22362E+02
 1.00760E+00    1.22783E+02
 1.03206E+00    1.23321E+02
 1.05874E+00    1.23674E+02
 1.06836E+00    1.23245E+02
 1.07791E+00    1.23381E+02
 1.10000E+00    1.22538E+02
 1.20000E+00    1.18162E+02
 1.30000E+00    1.12044E+02
 1.40000E+00    1.05377E+02
 1.50000E+00    9.72156E+01
 1.60000E+00    8.79906E+01
 1.70000E+00    7.89700E+01
 1.80000E+00    7.03130E+01
 1.90000E+00    6.21355E+01
 2.00000E+00    5.46447E+01
 2.25000E+00    3.99012E+01
 2.50000E+00    2.71184E+01
 2.75000E+00    1.88427E+01
 3.00000E+00    1.27296E+01
 3.50000E+00    5.90411E+00
 4.00000E+00    2.82489E+00
 4.50000E+00    1.46871E+00
 5.00000E+00    8.71322E-01
 5.50000E+00    5.98424E-01
 6.00000E+00    4.64662E-01
 6.50000E+00    3.90544E-01
 7.00000E+00    3.42851E-01
 7.50000E+00    3.07860E-01
 8.00000E+00    2.80064E-01
 8.50000E+00    2.56881E-01
 9.00000E+00    2.36929E-01
 9.50000E+00    2.19372E-01
 1.00000E+01    2.03639E-01
 1.05000E+01    1.89354E-01
 1.10000E+01    1.76290E-01
 1.15000E+01    1.64306E-01
 1.20000E+01    1.53326E-01
 1.25000E+01    1.43314E-01
 1.30000E+01    1.34229E-01
 1.35000E+01    1.26012E-01
 1.40000E+01    1.18587E-01
 1.45000E+01    1.11865E-01
 1.50000E+01    1.05750E-01
 1.55000E+01    1.00153E-01
 1.60000E+01    9.49888E-02
 1.65000E+01    9.01866E-02
 1.70000E+01    8.56855E-02
 1.75000E+01    8.14379E-02
 1.80000E+01    7.74071E-02
 1.85000E+01    7.35793E-02
 1.90000E+01    6.99497E-02
 1.95000E+01    6.65185E-02
 2.00000E+01    6.32923E-02
