# n + W 183 : (n,n'18)  
# jendl4.0   N.Iwamoto                         EVAL-Feb10
# uncertainties: n
# # energies =    67
#   E(MeV)       xs(mb) 
 7.76297E-01    0.00000E+00
 8.00000E-01    2.64775E-01
 8.55290E-01    8.47283E-01
 8.75802E-01    1.13888E+00
 9.00000E-01    1.52360E+00
 9.08481E-01    1.67167E+00
 9.09507E-01    1.68677E+00
 9.18034E-01    1.82639E+00
 9.31357E-01    2.05597E+00
 9.39803E-01    2.20842E+00
 9.65293E-01    2.69337E+00
 9.65294E-01    2.69339E+00
 9.79350E-01    2.97908E+00
 1.00000E+00    3.42223E+00
 1.00760E+00    3.59096E+00
 1.03206E+00    4.10720E+00
 1.05874E+00    4.67107E+00
 1.06836E+00    4.85643E+00
 1.07791E+00    5.05800E+00
 1.10000E+00    5.49809E+00
 1.20000E+00    7.52442E+00
 1.30000E+00    9.06371E+00
 1.40000E+00    1.04045E+01
 1.50000E+00    1.10010E+01
 1.60000E+00    1.13730E+01
 1.70000E+00    1.15995E+01
 1.80000E+00    1.16259E+01
 1.90000E+00    1.13224E+01
 2.00000E+00    1.08855E+01
 2.25000E+00    9.66293E+00
 2.50000E+00    7.75078E+00
 2.75000E+00    6.19143E+00
 3.00000E+00    6.26797E+00
 3.50000E+00    4.06134E+00
 4.00000E+00    2.74181E+00
 4.50000E+00    2.00627E+00
 5.00000E+00    1.59662E+00
 5.50000E+00    1.35130E+00
 6.00000E+00    1.18783E+00
 6.50000E+00    1.06454E+00
 7.00000E+00    9.64223E-01
 7.50000E+00    8.78892E-01
 8.00000E+00    8.05403E-01
 8.50000E+00    7.41506E-01
 9.00000E+00    6.85443E-01
 9.50000E+00    6.35645E-01
 1.00000E+01    5.90814E-01
 1.05000E+01    5.50156E-01
 1.10000E+01    5.12937E-01
 1.15000E+01    4.78737E-01
 1.20000E+01    4.47300E-01
 1.25000E+01    4.18517E-01
 1.30000E+01    3.92296E-01
 1.35000E+01    3.68497E-01
 1.40000E+01    3.46940E-01
 1.45000E+01    3.27396E-01
 1.50000E+01    3.09613E-01
 1.55000E+01    2.93343E-01
 1.60000E+01    2.78345E-01
 1.65000E+01    2.64413E-01
 1.70000E+01    2.51368E-01
 1.75000E+01    2.39068E-01
 1.80000E+01    2.27400E-01
 1.85000E+01    2.16316E-01
 1.90000E+01    2.05792E-01
 1.95000E+01    1.95820E-01
 2.00000E+01    1.86418E-01
