# n + W 183 : (n,n'33)  
# jendl4.0   N.Iwamoto                         EVAL-Feb10
# uncertainties: n
# # energies =    49
#   E(MeV)       xs(mb) 
 1.07791E+00    0.00000E+00
 1.10000E+00    8.50721E+00
 1.20000E+00    1.97796E+01
 1.30000E+00    2.76707E+01
 1.40000E+00    3.37098E+01
 1.50000E+00    3.79179E+01
 1.60000E+00    3.97402E+01
 1.70000E+00    4.06239E+01
 1.80000E+00    3.90713E+01
 1.90000E+00    3.69279E+01
 2.00000E+00    3.45872E+01
 2.25000E+00    2.80756E+01
 2.50000E+00    2.02940E+01
 2.75000E+00    1.47437E+01
 3.00000E+00    9.98899E+00
 3.50000E+00    4.71447E+00
 4.00000E+00    2.17975E+00
 4.50000E+00    1.02895E+00
 5.00000E+00    5.21903E-01
 5.50000E+00    2.99233E-01
 6.00000E+00    1.99977E-01
 6.50000E+00    1.53203E-01
 7.00000E+00    1.28370E-01
 7.50000E+00    1.12922E-01
 8.00000E+00    1.01890E-01
 8.50000E+00    9.32176E-02
 9.00000E+00    8.59944E-02
 9.50000E+00    7.97493E-02
 1.00000E+01    7.42084E-02
 1.05000E+01    6.92039E-02
 1.10000E+01    6.46318E-02
 1.15000E+01    6.04255E-02
 1.20000E+01    5.65515E-02
 1.25000E+01    5.29915E-02
 1.30000E+01    4.97348E-02
 1.35000E+01    4.67666E-02
 1.40000E+01    4.40694E-02
 1.45000E+01    4.16186E-02
 1.50000E+01    3.93859E-02
 1.55000E+01    3.73425E-02
 1.60000E+01    3.54592E-02
 1.65000E+01    3.37107E-02
 1.70000E+01    3.20742E-02
 1.75000E+01    3.05316E-02
 1.80000E+01    2.90684E-02
 1.85000E+01    2.76776E-02
 1.90000E+01    2.63550E-02
 1.95000E+01    2.50990E-02
 2.00000E+01    2.39110E-02
