# n + W 183 : (n,n'04)  
# jendl4.0   N.Iwamoto                         EVAL-Feb10
# uncertainties: n
# # energies =    89
#   E(MeV)       xs(mb) 
 2.09957E-01    0.00000E+00
 2.25000E-01    1.86360E+02
 2.50000E-01    2.65429E+02
 2.75000E-01    3.13372E+02
 2.93332E-01    3.39797E+02
 3.00000E-01    3.43470E+02
 3.10648E-01    3.53954E+02
 3.11199E-01    3.54449E+02
 4.00000E-01    4.17702E+02
 4.14367E-01    4.24426E+02
 4.55569E-01    4.40276E+02
 4.78021E-01    4.45798E+02
 4.89685E-01    4.48307E+02
 5.00000E-01    4.50455E+02
 5.35939E-01    4.57796E+02
 5.54138E-01    4.49683E+02
 5.98622E-01    4.49743E+02
 6.00000E-01    4.49784E+02
 6.26194E-01    4.48299E+02
 6.34680E-01    4.47335E+02
 7.00000E-01    4.39231E+02
 7.43999E-01    4.35454E+02
 7.76296E-01    4.32877E+02
 8.00000E-01    4.30919E+02
 8.55290E-01    4.24575E+02
 8.75802E-01    4.20353E+02
 9.00000E-01    4.09795E+02
 9.08481E-01    4.07253E+02
 9.09507E-01    4.06128E+02
 9.18034E-01    4.00029E+02
 9.31357E-01    3.91866E+02
 9.39803E-01    3.88263E+02
 9.65293E-01    3.74124E+02
 9.65294E-01    3.74123E+02
 9.79350E-01    3.65524E+02
 1.00000E+00    3.56767E+02
 1.00760E+00    3.53801E+02
 1.03206E+00    3.44358E+02
 1.05874E+00    3.30841E+02
 1.06836E+00    3.25907E+02
 1.07791E+00    3.22062E+02
 1.10000E+00    3.13652E+02
 1.20000E+00    2.79359E+02
 1.30000E+00    2.42414E+02
 1.40000E+00    2.08792E+02
 1.50000E+00    1.78460E+02
 1.60000E+00    1.52108E+02
 1.70000E+00    1.29389E+02
 1.80000E+00    1.09726E+02
 1.90000E+00    9.27213E+01
 2.00000E+00    7.82615E+01
 2.25000E+00    5.21881E+01
 2.50000E+00    3.28805E+01
 2.75000E+00    2.13979E+01
 3.00000E+00    1.33895E+01
 3.50000E+00    5.57795E+00
 4.00000E+00    2.42289E+00
 4.50000E+00    1.15012E+00
 5.00000E+00    6.29497E-01
 5.50000E+00    4.06913E-01
 6.00000E+00    3.04469E-01
 6.50000E+00    2.51019E-01
 7.00000E+00    2.18318E-01
 7.50000E+00    1.95138E-01
 8.00000E+00    1.77084E-01
 8.50000E+00    1.62171E-01
 9.00000E+00    1.49405E-01
 9.50000E+00    1.38187E-01
 1.00000E+01    1.28139E-01
 1.05000E+01    1.19016E-01
 1.10000E+01    1.10687E-01
 1.15000E+01    1.03063E-01
 1.20000E+01    9.60990E-02
 1.25000E+01    8.97674E-02
 1.30000E+01    8.40385E-02
 1.35000E+01    7.88674E-02
 1.40000E+01    7.42004E-02
 1.45000E+01    6.99768E-02
 1.50000E+01    6.61339E-02
 1.55000E+01    6.26139E-02
 1.60000E+01    5.93634E-02
 1.65000E+01    5.63381E-02
 1.70000E+01    5.34953E-02
 1.75000E+01    5.08100E-02
 1.80000E+01    4.82629E-02
 1.85000E+01    4.58470E-02
 1.90000E+01    4.35607E-02
 1.95000E+01    4.14045E-02
 2.00000E+01    3.93822E-02
