# n + W 183 : (n,n'20)  
# jendl4.0   N.Iwamoto                         EVAL-Feb10
# uncertainties: n
# # energies =    64
#   E(MeV)       xs(mb) 
 8.75802E-01    0.00000E+00
 9.00000E-01    4.08073E+01
 9.08481E-01    4.65395E+01
 9.09507E-01    4.71660E+01
 9.18034E-01    5.20200E+01
 9.31357E-01    5.85067E+01
 9.39803E-01    6.22508E+01
 9.65293E-01    7.15000E+01
 9.65294E-01    7.15004E+01
 9.79350E-01    7.42392E+01
 1.00000E+00    7.92161E+01
 1.00760E+00    8.10362E+01
 1.03206E+00    8.66155E+01
 1.05874E+00    9.10458E+01
 1.06836E+00    9.24375E+01
 1.07791E+00    9.38810E+01
 1.10000E+00    9.70354E+01
 1.20000E+00    1.05373E+02
 1.30000E+00    1.06986E+02
 1.40000E+00    1.03336E+02
 1.50000E+00    9.80992E+01
 1.60000E+00    8.91343E+01
 1.70000E+00    8.03831E+01
 1.80000E+00    7.20940E+01
 1.90000E+00    6.40755E+01
 2.00000E+00    5.59987E+01
 2.25000E+00    3.99528E+01
 2.50000E+00    2.64355E+01
 2.75000E+00    1.78779E+01
 3.00000E+00    1.20940E+01
 3.50000E+00    5.53644E+00
 4.00000E+00    2.72080E+00
 4.50000E+00    1.53073E+00
 5.00000E+00    1.01876E+00
 5.50000E+00    7.82330E-01
 6.00000E+00    6.58149E-01
 6.50000E+00    5.79799E-01
 7.00000E+00    5.21925E-01
 7.50000E+00    4.74803E-01
 8.00000E+00    4.34902E-01
 8.50000E+00    4.00446E-01
 9.00000E+00    3.70315E-01
 9.50000E+00    3.43607E-01
 1.00000E+01    3.19603E-01
 1.05000E+01    2.97949E-01
 1.10000E+01    2.78155E-01
 1.15000E+01    2.59930E-01
 1.20000E+01    2.43139E-01
 1.25000E+01    2.27726E-01
 1.30000E+01    2.13647E-01
 1.35000E+01    2.00838E-01
 1.40000E+01    1.89211E-01
 1.45000E+01    1.78651E-01
 1.50000E+01    1.69027E-01
 1.55000E+01    1.60212E-01
 1.60000E+01    1.52076E-01
 1.65000E+01    1.44510E-01
 1.70000E+01    1.37418E-01
 1.75000E+01    1.30722E-01
 1.80000E+01    1.24362E-01
 1.85000E+01    1.18312E-01
 1.90000E+01    1.12557E-01
 1.95000E+01    1.07094E-01
 2.00000E+01    1.01932E-01
