# n + W 183 : (n,2na)   
# jendl4.0   N.Iwamoto                         EVAL-Feb10
# uncertainties: n
# # energies =    28
#   E(MeV)       xs(mb) 
 4.44336E+00    0.00000E+00
 7.00000E+00    1.55310E-35
 7.50000E+00    3.37880E-29
 8.00000E+00    1.97120E-24
 8.50000E+00    2.71690E-19
 9.00000E+00    6.64970E-16
 9.50000E+00    1.26550E-13
 1.00000E+01    9.72040E-12
 1.05000E+01    3.63440E-10
 1.10000E+01    7.56810E-09
 1.15000E+01    9.77190E-08
 1.20000E+01    8.59510E-07
 1.25000E+01    5.49909E-06
 1.30000E+01    2.65701E-05
 1.35000E+01    1.00379E-04
 1.40000E+01    3.12522E-04
 1.45000E+01    8.13698E-04
 1.50000E+01    1.77630E-03
 1.55000E+01    3.04451E-03
 1.60000E+01    4.28212E-03
 1.65000E+01    5.45707E-03
 1.70000E+01    6.75890E-03
 1.75000E+01    8.50041E-03
 1.80000E+01    1.11527E-02
 1.85000E+01    1.48006E-02
 1.90000E+01    1.99485E-02
 1.95000E+01    2.70678E-02
 2.00000E+01    3.67678E-02
