# n + Th228 : (n,n'25)  
# jendl4.0   O.Iwamoto, T.Nakagawa, et al.     EVAL-FEB10
# uncertainties: y
# # energies =    52
#   E(MeV)       xs(mb)       xslow(mb)      xsupp(mb)
 1.17354E+00    0.00000E+00    0.00000E+00    0.00000E+00
 1.17970E+00    4.82739E+00    3.35986E+00    6.29492E+00
 1.18059E+00    5.20303E+00    3.62131E+00    6.78475E+00
 1.19506E+00    1.01620E+01    7.07275E+00    1.32512E+01
 1.20000E+00    1.16378E+01    8.09991E+00    1.51757E+01
 1.20585E+00    1.33129E+01    9.26578E+00    1.73600E+01
 1.30000E+00    3.32172E+01    2.31192E+01    4.33152E+01
 1.40000E+00    4.59294E+01    3.19669E+01    5.98919E+01
 1.50000E+00    5.23364E+01    4.04560E+01    6.42168E+01
 1.60000E+00    5.46813E+01    4.22686E+01    6.70940E+01
 1.70000E+00    5.46759E+01    4.22645E+01    6.70873E+01
 1.80000E+00    5.24194E+01    4.05202E+01    6.43186E+01
 1.90000E+00    4.90072E+01    3.78826E+01    6.01318E+01
 2.00000E+00    4.44678E+01    3.18834E+01    5.70522E+01
 2.30000E+00    3.08432E+01    2.21146E+01    3.95718E+01
 2.50000E+00    2.26037E+01    1.81282E+01    2.70792E+01
 2.70000E+00    1.60820E+01    1.28978E+01    1.92662E+01
 3.00000E+00    9.25784E+00    7.93397E+00    1.05817E+01
 3.50000E+00    3.47214E+00    3.06937E+00    3.87491E+00
 4.00000E+00    1.29074E+00    1.15521E+00    1.42627E+00
 4.50000E+00    5.39893E-01    4.83204E-01    5.96582E-01
 5.00000E+00    2.90372E-01    2.45364E-01    3.35380E-01
 5.50000E+00    1.97240E-01    1.66668E-01    2.27812E-01
 6.00000E+00    1.58604E-01    1.24346E-01    1.92862E-01
 6.50000E+00    1.37103E-01    1.07489E-01    1.66717E-01
 7.00000E+00    1.23781E-01    9.46925E-02    1.52870E-01
 7.50000E+00    1.13397E-01    8.67487E-02    1.40045E-01
 8.00000E+00    1.05602E-01    8.01519E-02    1.31052E-01
 8.50000E+00    9.86631E-02    7.48853E-02    1.22441E-01
 9.00000E+00    9.29101E-02    7.05188E-02    1.15301E-01
 9.50000E+00    8.74861E-02    6.64020E-02    1.08570E-01
 1.00000E+01    8.26904E-02    6.30928E-02    1.02288E-01
 1.05000E+01    7.83013E-02    5.97439E-02    9.68587E-02
 1.10000E+01    7.43928E-02    5.67617E-02    9.20239E-02
 1.15000E+01    7.03094E-02    5.36461E-02    8.69727E-02
 1.20000E+01    6.67024E-02    5.16944E-02    8.17104E-02
 1.25000E+01    6.35665E-02    4.92640E-02    7.78690E-02
 1.30000E+01    6.03329E-02    4.67580E-02    7.39078E-02
 1.35000E+01    5.75018E-02    4.45639E-02    7.04397E-02
 1.40000E+01    5.48492E-02    4.30566E-02    6.66418E-02
 1.45000E+01    5.25491E-02    4.12510E-02    6.38472E-02
 1.50000E+01    5.03520E-02    3.97277E-02    6.09763E-02
 1.55000E+01    4.80950E-02    3.79470E-02    5.82430E-02
 1.60000E+01    4.58652E-02    3.64170E-02    5.53134E-02
 1.65000E+01    4.39139E-02    3.48676E-02    5.29602E-02
 1.70000E+01    4.22255E-02    3.35270E-02    5.09240E-02
 1.75000E+01    4.07286E-02    3.23385E-02    4.91187E-02
 1.80000E+01    3.91271E-02    3.13799E-02    4.68743E-02
 1.85000E+01    3.75980E-02    3.01536E-02    4.50424E-02
 1.90000E+01    3.61805E-02    2.90168E-02    4.33442E-02
 1.95000E+01    3.48999E-02    2.79897E-02    4.18101E-02
 2.00000E+01    3.35415E-02    2.69003E-02    4.01827E-02
