# n + Th228 : (n,n'27)  
# jendl4.0   O.Iwamoto, T.Nakagawa, et al.     EVAL-FEB10
# uncertainties: y
# # energies =    50
#   E(MeV)       xs(mb)       xslow(mb)      xsupp(mb)
 1.18059E+00    0.00000E+00    0.00000E+00    0.00000E+00
 1.19506E+00    1.09356E+01    6.46294E+00    1.54083E+01
 1.20000E+00    1.33535E+01    7.89192E+00    1.88151E+01
 1.20585E+00    1.60769E+01    9.50145E+00    2.26524E+01
 1.30000E+00    4.87967E+01    2.88388E+01    6.87546E+01
 1.40000E+00    6.74225E+01    3.98467E+01    9.49983E+01
 1.50000E+00    7.51435E+01    5.91379E+01    9.11491E+01
 1.60000E+00    7.62054E+01    5.99737E+01    9.24372E+01
 1.70000E+00    7.41960E+01    5.83923E+01    8.99998E+01
 1.80000E+00    6.91589E+01    5.44281E+01    8.38897E+01
 1.90000E+00    6.31461E+01    4.96960E+01    7.65962E+01
 2.00000E+00    5.59690E+01    3.91783E+01    7.27597E+01
 2.30000E+00    3.67756E+01    2.57429E+01    4.78083E+01
 2.50000E+00    2.62289E+01    2.04323E+01    3.20255E+01
 2.70000E+00    1.82390E+01    1.42082E+01    2.22698E+01
 3.00000E+00    1.01890E+01    8.40592E+00    1.19721E+01
 3.50000E+00    3.66032E+00    3.16618E+00    4.15446E+00
 4.00000E+00    1.30849E+00    1.16717E+00    1.44981E+00
 4.50000E+00    5.39946E-01    4.81632E-01    5.98260E-01
 5.00000E+00    2.93455E-01    2.46796E-01    3.40114E-01
 5.50000E+00    2.03704E-01    1.71315E-01    2.36093E-01
 6.00000E+00    1.66408E-01    1.29798E-01    2.03018E-01
 6.50000E+00    1.45132E-01    1.13203E-01    1.77061E-01
 7.00000E+00    1.31593E-01    1.00537E-01    1.62649E-01
 7.50000E+00    1.20803E-01    9.22935E-02    1.49313E-01
 8.00000E+00    1.12618E-01    8.54771E-02    1.39759E-01
 8.50000E+00    1.05270E-01    7.98999E-02    1.30640E-01
 9.00000E+00    9.91606E-02    7.52629E-02    1.23058E-01
 9.50000E+00    9.33875E-02    7.08811E-02    1.15894E-01
 1.00000E+01    8.82783E-02    6.73563E-02    1.09200E-01
 1.05000E+01    8.36103E-02    6.37947E-02    1.03426E-01
 1.10000E+01    7.94294E-02    6.06046E-02    9.82542E-02
 1.15000E+01    7.50851E-02    5.72899E-02    9.28803E-02
 1.20000E+01    7.12273E-02    5.52012E-02    8.72535E-02
 1.25000E+01    6.78924E-02    5.26166E-02    8.31682E-02
 1.30000E+01    6.44346E-02    4.99368E-02    7.89324E-02
 1.35000E+01    6.14067E-02    4.75902E-02    7.52232E-02
 1.40000E+01    5.85864E-02    4.59903E-02    7.11825E-02
 1.45000E+01    5.61267E-02    4.40595E-02    6.81939E-02
 1.50000E+01    5.37772E-02    4.24302E-02    6.51242E-02
 1.55000E+01    5.13705E-02    4.05313E-02    6.22097E-02
 1.60000E+01    4.89937E-02    3.89010E-02    5.90864E-02
 1.65000E+01    4.69075E-02    3.72446E-02    5.65704E-02
 1.70000E+01    4.51022E-02    3.58111E-02    5.43933E-02
 1.75000E+01    4.35016E-02    3.45403E-02    5.24629E-02
 1.80000E+01    4.18006E-02    3.35241E-02    5.00771E-02
 1.85000E+01    4.01660E-02    3.22131E-02    4.81189E-02
 1.90000E+01    3.86506E-02    3.09978E-02    4.63034E-02
 1.95000E+01    3.72816E-02    2.98998E-02    4.46634E-02
 2.00000E+01    3.58294E-02    2.87352E-02    4.29236E-02
