# n + Cd113 : (n,g)     
# jendl4.0   S.Kunieda, A.Ichihara, K.Shibata+ EVAL-FEB22
# uncertainties: n
# # energies =    69
#   E(MeV)       xs(mb) 
 1.00000E-10    1.07789E+08
 5.00000E-09    3.13565E+07
 1.00000E-08    2.50974E+07
 1.50000E-08    2.22902E+07
 2.00000E-08    2.07519E+07
 2.50000E-08    1.98638E+07
 3.00000E-08    1.93730E+07
 3.50000E-08    1.91460E+07
 4.20000E-08    1.92414E+07
 5.00000E-08    1.97136E+07
 5.80000E-08    2.05804E+07
 6.70000E-08    2.22349E+07
 8.00000E-08    2.59338E+07
 1.00000E-07    3.72761E+07
 1.40000E-07    5.69343E+07
 1.80000E-07    5.03341E+07
 2.20000E-07    2.81791E+07
 2.50000E-07    1.60268E+07
 2.80000E-07    1.03438E+07
 3.00000E-07    7.61662E+06
 3.20000E-07    5.44236E+06
 3.50000E-07    3.43964E+06
 4.00000E-07    1.75844E+06
 5.00000E-07    7.95335E+05
 6.25000E-07    3.83395E+05
 7.80000E-07    2.33592E+05
 8.50000E-07    1.84877E+05
 9.10000E-07    1.56475E+05
 9.50000E-07    1.41889E+05
 9.72000E-07    1.32371E+05
 9.96000E-07    1.23357E+05
 1.02000E-06    1.15021E+05
 1.04500E-06    1.07165E+05
 1.07100E-06    9.98987E+04
 1.09700E-06    9.33068E+04
 1.12300E-06    8.72031E+04
 1.15000E-06    7.11555E+04
 1.30000E-06    4.90689E+04
 1.50000E-06    2.61264E+04
 2.10000E-06    1.22150E+04
 2.60000E-06    6.75017E+03
 3.30000E-06    3.83299E+03
 4.00000E-06    1.19362E+03
 9.87700E-06    2.13028E+02
 1.59680E-05    3.30168E+03
 2.77000E-05    5.70137E+01
 4.80520E-05    5.92938E+03
 7.55014E-05    1.93725E+04
 1.48728E-04    6.62144E+03
 3.67262E-04    4.39821E+03
 9.06898E-04    2.57575E+03
 1.42510E-03    2.21593E+03
 2.23945E-03    1.76241E+03
 3.51910E-03    1.44565E+03
 5.53000E-03    1.19922E+03
 9.11800E-03    9.79054E+02
 1.50300E-02    7.82359E+02
 2.47800E-02    6.03588E+02
 4.08500E-02    4.51455E+02
 6.73400E-02    3.35461E+02
 1.11000E-01    2.59149E+02
 1.83000E-01    2.21891E+02
 3.02000E-01    1.34623E+02
 5.00000E-01    7.02632E+01
 8.21000E-01    3.47947E+01
 1.35300E+00    2.21939E+01
 2.23100E+00    1.57751E+01
 3.67900E+00    6.74549E+00
 6.06500E+00    1.16849E+00
