# n + Cd113 : (n,non)   
# jendl4.0   S.Kunieda, A.Ichihara, K.Shibata+ EVAL-FEB22
# uncertainties: n
# # energies =   127
#   E(MeV)       xs(mb) 
 1.00000E-03    0.00000E+00
 1.00000E-03    3.07100E+03
 1.25000E-03    2.70477E+03
 1.50000E-03    2.43821E+03
 2.00000E-03    2.07000E+03
 2.50000E-03    1.85800E+03
 3.00000E-03    1.70100E+03
 4.00000E-03    1.50100E+03
 5.00000E-03    1.37100E+03
 6.00000E-03    1.27700E+03
 7.00000E-03    1.20400E+03
 8.00000E-03    1.14400E+03
 9.00000E-03    1.09300E+03
 1.00000E-02    1.04800E+03
 1.25000E-02    9.49472E+02
 1.50000E-02    8.75886E+02
 2.00000E-02    7.71200E+02
 2.50000E-02    6.85865E+02
 3.00000E-02    6.23200E+02
 4.00000E-02    5.28800E+02
 5.00000E-02    4.63100E+02
 6.00000E-02    4.14800E+02
 7.00000E-02    3.78000E+02
 8.00000E-02    3.49100E+02
 9.00000E-02    3.26100E+02
 1.00000E-01    3.07300E+02
 1.20000E-01    2.79200E+02
 1.40000E-01    2.59300E+02
 1.60000E-01    2.45300E+02
 1.80000E-01    2.35200E+02
 2.00000E-01    2.27900E+02
 2.50000E-01    2.17800E+02
 2.65945E-01    2.16881E+02
 3.00000E-01    2.15139E+02
 3.01157E-01    2.13087E+02
 3.19005E-01    3.09086E+02
 3.50000E-01    6.21497E+02
 4.00000E-01    9.27501E+02
 4.50000E-01    1.09613E+03
 4.62485E-01    1.11375E+03
 5.00000E-01    1.20447E+03
 5.26996E-01    1.23274E+03
 5.34735E-01    1.24599E+03
 5.50000E-01    1.27366E+03
 5.89359E-01    1.29808E+03
 6.00000E-01    1.32251E+03
 6.43760E-01    1.36498E+03
 6.50000E-01    1.37198E+03
 6.86650E-01    1.38637E+03
 7.00000E-01    1.41907E+03
 7.14749E-01    1.42791E+03
 7.50000E-01    1.48384E+03
 7.66790E-01    1.49398E+03
 8.00000E-01    1.55374E+03
 8.23694E-01    1.57428E+03
 8.50000E-01    1.60494E+03
 8.62941E-01    1.60588E+03
 8.86348E-01    1.62291E+03
 8.91494E-01    1.63013E+03
 9.00000E-01    1.65177E+03
 9.05417E-01    1.65371E+03
 9.48095E-01    1.70498E+03
 9.50000E-01    1.70923E+03
 9.68576E-01    1.71789E+03
 9.97271E-01    1.75220E+03
 1.00000E+00    1.75869E+03
 1.01620E+00    1.74908E+03
 1.04294E+00    1.74099E+03
 1.04657E+00    1.74082E+03
 1.05686E+00    1.74382E+03
 1.05928E+00    1.74490E+03
 1.13615E+00    1.80821E+03
 1.18045E+00    1.85795E+03
 1.18731E+00    1.86814E+03
 1.20000E+00    1.89174E+03
 1.20532E+00    1.89183E+03
 1.20608E+00    1.89201E+03
 1.22515E+00    1.89738E+03
 1.24529E+00    1.90315E+03
 1.27943E+00    1.91294E+03
 1.29123E+00    1.91915E+03
 1.37376E+00    1.98234E+03
 1.40000E+00    2.00298E+03
 1.60000E+00    1.99056E+03
 1.80000E+00    1.98974E+03
 2.00000E+00    1.98911E+03
 2.20000E+00    1.98414E+03
 2.40000E+00    1.97682E+03
 2.60000E+00    1.97116E+03
 2.80000E+00    1.96902E+03
 3.00000E+00    1.97197E+03
 3.25000E+00    1.98451E+03
 3.50000E+00    2.00658E+03
 3.75000E+00    2.03625E+03
 3.90216E+00    2.05699E+03
 4.00000E+00    2.07037E+03
 4.25000E+00    2.10511E+03
 4.50000E+00    2.13681E+03
 4.75000E+00    2.16260E+03
 5.00000E+00    2.18119E+03
 5.50000E+00    2.19559E+03
 6.00000E+00    2.18582E+03
 6.50000E+00    2.16121E+03
 6.59851E+00    2.14690E+03
 7.00000E+00    2.13086E+03
 7.50000E+00    2.10104E+03
 7.55613E+00    2.09823E+03
 7.77590E+00    2.08721E+03
 8.00000E+00    2.07597E+03
 8.50000E+00    2.05758E+03
 9.00000E+00    2.04579E+03
 9.50000E+00    2.03945E+03
 9.80057E+00    2.03778E+03
 9.99351E+00    2.03670E+03
 1.00000E+01    2.03667E+03
 1.10000E+01    2.03662E+03
 1.20000E+01    2.03603E+03
 1.30000E+01    2.03262E+03
 1.40000E+01    2.02798E+03
 1.40890E+01    2.02711E+03
 1.50000E+01    2.01821E+03
 1.60000E+01    2.00539E+03
 1.60767E+01    2.00339E+03
 1.70000E+01    1.98913E+03
 1.80000E+01    1.97272E+03
 1.90000E+01    1.95753E+03
 2.00000E+01    1.94417E+03
