# n + Cd113 : (n,el)    
# jendl4.0   S.Kunieda, A.Ichihara, K.Shibata+ EVAL-FEB22
# uncertainties: n
# # energies =   171
#   E(MeV)       xs(mb) 
 1.00000E-11    3.41395E+04
 1.00000E-07    1.81182E+05
 4.13990E-07    3.04097E+04
 5.31580E-07    1.95150E+04
 6.82560E-07    1.38663E+04
 8.76420E-07    1.06387E+04
 1.12540E-06    8.65921E+03
 1.44500E-06    7.37807E+03
 1.85540E-06    6.51907E+03
 2.37240E-06    5.91413E+03
 3.05900E-06    5.47743E+03
 3.92790E-06    5.16195E+03
 5.04350E-06    4.92724E+03
 6.47600E-06    4.74843E+03
 8.31530E-06    4.61023E+03
 1.06770E-05    4.49533E+03
 1.37100E-05    4.37170E+03
 1.76030E-05    4.40159E+03
 2.26030E-05    4.29954E+03
 2.92030E-05    4.21500E+03
 3.72670E-05    4.11493E+03
 4.78510E-05    3.89483E+03
 6.14420E-05    4.11008E+03
 7.88930E-05    1.62442E+04
 1.01300E-04    5.80323E+03
 1.30070E-04    4.71677E+03
 1.67020E-04    1.72922E+04
 2.14450E-04    1.12300E+04
 2.75360E-04    4.78990E+03
 3.53580E-04    9.76180E+03
 4.54000E-04    8.04979E+03
 5.82950E-04    4.89402E+03
 7.48520E-04    1.32389E+04
 9.61120E-04    8.66323E+03
 1.23410E-03    8.81673E+03
 1.58460E-03    8.44110E+03
 2.03470E-03    8.19204E+03
 2.24870E-03    8.05803E+03
 2.48520E-03    7.95880E+03
 2.61260E-03    7.89332E+03
 2.74650E-03    7.79648E+03
 3.03540E-03    7.66899E+03
 3.35460E-03    7.54345E+03
 3.70740E-03    7.39152E+03
 4.30740E-03    7.17406E+03
 5.53080E-03    6.96042E+03
 7.10170E-03    6.81900E+03
 9.11880E-03    6.74187E+03
 1.17090E-02    6.72038E+03
 1.50340E-02    6.70272E+03
 1.93050E-02    6.69796E+03
 2.18750E-02    6.71723E+03
 2.35790E-02    6.72742E+03
 2.41760E-02    6.73272E+03
 2.47880E-02    6.74089E+03
 2.60580E-02    6.74973E+03
 2.70000E-02    6.75893E+03
 2.85000E-02    6.77905E+03
 3.18280E-02    6.81112E+03
 3.43070E-02    6.85732E+03
 4.08680E-02    6.91830E+03
 4.63090E-02    6.97353E+03
 5.24750E-02    7.01962E+03
 5.65620E-02    7.07799E+03
 6.73790E-02    7.13443E+03
 7.20000E-02    7.17286E+03
 7.95000E-02    7.20448E+03
 8.25000E-02    7.22385E+03
 8.65170E-02    7.26283E+03
 9.80370E-02    7.31816E+03
 1.11090E-01    7.35595E+03
 1.16790E-01    7.37775E+03
 1.22770E-01    7.39827E+03
 1.29070E-01    7.41875E+03
 1.35690E-01    7.43917E+03
 1.42640E-01    7.45851E+03
 1.49960E-01    7.47760E+03
 1.57640E-01    7.49634E+03
 1.65730E-01    7.51387E+03
 1.74220E-01    7.53195E+03
 1.83160E-01    7.54829E+03
 1.92550E-01    7.56442E+03
 2.02420E-01    7.57607E+03
 2.12800E-01    7.58611E+03
 2.23710E-01    7.59666E+03
 2.35180E-01    7.60776E+03
 2.47240E-01    7.62368E+03
 2.73240E-01    7.63206E+03
 2.87250E-01    7.63526E+03
 2.94520E-01    7.63676E+03
 2.97200E-01    7.63735E+03
 2.98500E-01    7.63347E+03
 3.01970E-01    7.50202E+03
 3.33730E-01    7.25998E+03
 3.68830E-01    7.09004E+03
 3.87740E-01    6.98412E+03
 4.07620E-01    6.86596E+03
 4.50490E-01    6.72280E+03
 4.97870E-01    6.62565E+03
 5.23400E-01    6.56183E+03
 5.50230E-01    6.50045E+03
 5.78440E-01    6.43592E+03
 6.08100E-01    6.36808E+03
 6.39280E-01    6.29677E+03
 6.72060E-01    6.21877E+03
 7.06510E-01    6.12600E+03
 7.42740E-01    6.02738E+03
 7.80820E-01    5.92295E+03
 8.20850E-01    5.81441E+03
 8.62940E-01    5.70547E+03
 9.07180E-01    5.58185E+03
 9.61640E-01    5.46268E+03
 1.00260E+00    5.28387E+03
 1.10800E+00    5.09913E+03
 1.16480E+00    4.97238E+03
 1.22460E+00    4.83038E+03
 1.28730E+00    4.68216E+03
 1.35340E+00    4.54217E+03
 1.42270E+00    4.40982E+03
 1.49570E+00    4.28334E+03
 1.57240E+00    4.15454E+03
 1.65300E+00    4.02162E+03
 1.73770E+00    3.88423E+03
 1.82680E+00    3.74597E+03
 1.92050E+00    3.60313E+03
 2.01900E+00    3.46120E+03
 2.12250E+00    3.31589E+03
 2.23130E+00    3.19657E+03
 2.30690E+00    3.12291E+03
 2.34570E+00    3.08706E+03
 2.36530E+00    3.06401E+03
 2.38520E+00    3.00549E+03
 2.46600E+00    2.88661E+03
 2.59240E+00    2.74840E+03
 2.72530E+00    2.61451E+03
 2.86500E+00    2.48442E+03
 3.01190E+00    2.36240E+03
 3.16640E+00    2.24765E+03
 3.32870E+00    2.09676E+03
 3.67880E+00    1.93449E+03
 4.06570E+00    1.83042E+03
 4.49330E+00    1.78999E+03
 4.72370E+00    1.78323E+03
 4.96590E+00    1.79310E+03
 5.22050E+00    1.81538E+03
 5.48810E+00    1.84720E+03
 5.76950E+00    1.89058E+03
 6.06530E+00    1.94144E+03
 6.37630E+00    1.98904E+03
 6.59240E+00    2.01857E+03
 6.70320E+00    2.05946E+03
 7.04690E+00    2.12334E+03
 7.40820E+00    2.19045E+03
 7.78800E+00    2.25648E+03
 8.18730E+00    2.32061E+03
 8.60710E+00    2.38146E+03
 9.04840E+00    2.43753E+03
 9.51230E+00    2.48933E+03
 1.00000E+01    2.53034E+03
 1.05130E+01    2.56543E+03
 1.10520E+01    2.58948E+03
 1.16180E+01    2.60432E+03
 1.22140E+01    2.60433E+03
 1.28400E+01    2.59408E+03
 1.34990E+01    2.57599E+03
 1.38400E+01    2.56217E+03
 1.41910E+01    2.54131E+03
 1.45500E+01    2.51964E+03
 1.49180E+01    2.48023E+03
 1.56830E+01    2.41738E+03
 1.64870E+01    2.34335E+03
