# n + Ba138 : (n,xa)    
# endfb8.0   W.N.Su+, Mughabghab               EVAL-JAN05
# 
# # energies =    76
#   E(MeV)        xs(mb) 
 1.44630E+00    0.00000E+00
 1.50000E+00    0.00000E+00
 1.75000E+00    0.00000E+00
 1.91250E+00    0.00000E+00
 2.10580E+00    0.00000E+00
 2.59080E+00    0.00000E+00
 2.75000E+00    0.00000E+00
 3.00000E+00    0.00000E+00
 3.25000E+00    0.00000E+00
 3.50000E+00    0.00000E+00
 3.75000E+00    0.00000E+00
 4.00000E+00    0.00000E+00
 4.25000E+00    2.12590E-04
 4.62680E+00    5.24270E-04
 4.75000E+00    6.77090E-04
 5.00000E+00    1.08240E-03
 5.25000E+00    1.65760E-03
 5.50000E+00    2.47640E-03
 5.75000E+00    3.71380E-03
 6.00000E+00    5.47060E-03
 6.25000E+00    8.01840E-03
 6.50000E+00    1.15350E-02
 6.75000E+00    1.62620E-02
 6.82970E+00    1.81230E-02
 7.00000E+00    2.25820E-02
 7.25000E+00    3.05950E-02
 7.50000E+00    4.09050E-02
 7.75000E+00    5.35760E-02
 8.00000E+00    6.90720E-02
 8.25000E+00    8.78050E-02
 8.50000E+00    1.09830E-01
 8.67440E+00    1.27640E-01
 8.76590E+00    1.37860E-01
 8.86060E+00    1.48910E-01
 9.07050E+00    1.75750E-01
 9.25000E+00    2.01240E-01
 9.50000E+00    2.41110E-01
 9.75000E+00    2.86050E-01
 1.00000E+01    3.36900E-01
 1.02500E+01    3.93350E-01
 1.05000E+01    4.56280E-01
 1.07500E+01    5.25440E-01
 1.10000E+01    6.01250E-01
 1.12500E+01    6.84340E-01
 1.15000E+01    7.74210E-01
 1.17500E+01    8.71762E-01
 1.20000E+01    9.76323E-01
 1.22500E+01    1.08861E+00
 1.24860E+01    1.20200E+00
 1.27500E+01    1.33659E+00
 1.30000E+01    1.47258E+00
 1.32500E+01    1.61599E+00
 1.35000E+01    1.76779E+00
 1.37500E+01    1.92842E+00
 1.40000E+01    2.09706E+00
 1.42500E+01    2.27457E+00
 1.45000E+01    2.46126E+00
 1.47500E+01    2.65564E+00
 1.50000E+01    2.97594E+00
 1.52500E+01    3.28756E+00
 1.56240E+01    3.73842E+00
 1.57500E+01    3.88521E+00
 1.60000E+01    4.17649E+00
 1.62500E+01    4.46559E+00
 1.65000E+01    4.75386E+00
 1.67500E+01    5.04624E+00
 1.70000E+01    5.34229E+00
 1.72500E+01    5.64501E+00
 1.75000E+01    5.95440E+00
 1.77500E+01    6.27520E+00
 1.80000E+01    6.60230E+00
 1.82500E+01    6.92870E+00
 1.85000E+01    7.26220E+00
 1.90000E+01    7.89700E+00
 1.95000E+01    8.52200E+00
 2.00000E+01    9.08450E+00
