# n + Tc 98 : (n,xa)    
# endfb8.0   A.J. Koning and D. Rochman        EVAL-DEC15
# 
# # energies =   136
#   E(MeV)        xs(mb) 
 2.20246E-02    2.58189E-02
 3.00000E-02    2.18599E-02
 6.00000E-02    1.47028E-02
 6.61041E-02    1.40198E-02
 7.40349E-02    1.31323E-02
 8.25215E-02    1.21826E-02
 9.16950E-02    1.11561E-02
 1.00000E-01    1.02268E-02
 1.07526E-01    9.87054E-03
 1.39977E-01    8.33441E-03
 1.43463E-01    8.16939E-03
 1.53657E-01    7.68683E-03
 1.92170E-01    5.86374E-03
 2.00000E-01    5.49309E-03
 2.05768E-01    5.43304E-03
 2.70902E-01    4.75497E-03
 3.00000E-01    4.45205E-03
 3.09355E-01    4.41634E-03
 3.25135E-01    4.35612E-03
 3.31834E-01    4.33055E-03
 3.50504E-01    4.25929E-03
 3.54889E-01    4.24255E-03
 3.78954E-01    4.15071E-03
 3.94058E-01    4.09306E-03
 4.00000E-01    4.07038E-03
 4.28409E-01    3.99506E-03
 4.45564E-01    3.94957E-03
 4.51605E-01    3.93355E-03
 4.62547E-01    3.90454E-03
 4.89219E-01    3.83382E-03
 5.00000E-01    3.80524E-03
 5.07263E-01    3.85053E-03
 5.43037E-01    4.07363E-03
 5.48816E-01    4.10967E-03
 5.73852E-01    4.26580E-03
 6.00000E-01    4.42886E-03
 6.15779E-01    4.53377E-03
 6.28590E-01    4.61894E-03
 7.00000E-01    5.09371E-03
 8.00000E-01    5.62146E-03
 9.00000E-01    6.19605E-03
 1.00000E+00    6.77544E-03
 1.20000E+00    9.21387E-03
 1.40000E+00    1.15882E-02
 1.60000E+00    1.51695E-02
 1.80000E+00    1.94513E-02
 2.00000E+00    2.43975E-02
 2.20000E+00    3.12533E-02
 2.40000E+00    3.81456E-02
 2.60000E+00    4.70812E-02
 2.80000E+00    5.67141E-02
 3.00000E+00    6.76682E-02
 3.20000E+00    8.10197E-02
 3.40000E+00    9.44591E-02
 3.60000E+00    1.11132E-01
 3.80000E+00    1.28432E-01
 4.00000E+00    1.47899E-01
 4.20000E+00    1.71632E-01
 4.40000E+00    1.92879E-01
 4.60000E+00    2.22871E-01
 4.80000E+00    2.50041E-01
 5.00000E+00    2.79676E-01
 5.20000E+00    3.21489E-01
 5.40000E+00    3.47688E-01
 5.60000E+00    4.04118E-01
 5.80000E+00    4.40598E-01
 6.00000E+00    4.82297E-01
 6.20000E+00    5.63435E-01
 6.40000E+00    5.89858E-01
 6.60000E+00    7.09497E-01
 6.80000E+00    7.68961E-01
 7.00000E+00    8.43039E-01
 7.20000E+00    1.01377E+00
 7.40000E+00    1.05294E+00
 7.60000E+00    1.30501E+00
 7.80000E+00    1.42714E+00
 8.00000E+00    1.56182E+00
 8.50000E+00    2.14563E+00
 9.00000E+00    2.90527E+00
 9.50000E+00    3.85595E+00
 1.00000E+01    5.00056E+00
 1.05000E+01    6.34011E+00
 1.10000E+01    7.86723E+00
 1.15000E+01    9.57681E+00
 1.20000E+01    1.14672E+01
 1.25000E+01    1.35450E+01
 1.30000E+01    1.58436E+01
 1.35000E+01    1.84158E+01
 1.40000E+01    2.12212E+01
 1.45000E+01    2.45766E+01
 1.50000E+01    2.76462E+01
 1.60000E+01    3.35304E+01
 1.70000E+01    3.83519E+01
 1.80000E+01    4.06525E+01
 1.90000E+01    4.37993E+01
 2.00000E+01    4.69428E+01
 2.10000E+01    4.99775E+01
 2.20000E+01    5.27479E+01
 2.30000E+01    5.53295E+01
 2.40000E+01    5.76733E+01
 2.50000E+01    5.96899E+01
 2.60000E+01    6.14509E+01
 2.70000E+01    6.29925E+01
 2.80000E+01    6.42995E+01
 2.90000E+01    6.54932E+01
 3.00000E+01    6.65480E+01
 3.00000E+01    6.61537E+01
 3.20000E+01    6.80137E+01
 3.40000E+01    6.96494E+01
 3.60000E+01    7.13153E+01
 3.80000E+01    7.30575E+01
 4.00000E+01    7.49891E+01
 4.20000E+01    7.65992E+01
 4.40000E+01    7.81254E+01
 4.60000E+01    7.92098E+01
 4.80000E+01    7.99508E+01
 5.00000E+01    8.02659E+01
 5.20000E+01    8.05848E+01
 5.40000E+01    8.07293E+01
 5.60000E+01    8.08748E+01
 5.80000E+01    8.09274E+01
 6.00000E+01    8.09094E+01
 6.50000E+01    8.04838E+01
 7.00000E+01    8.04899E+01
 7.50000E+01    7.96089E+01
 8.00000E+01    7.85668E+01
 9.00000E+01    8.48680E+01
 1.00000E+02    9.27460E+01
 1.10000E+02    9.86613E+01
 1.20000E+02    1.04609E+02
 1.30000E+02    1.10888E+02
 1.40000E+02    1.17799E+02
 1.50000E+02    1.25503E+02
 1.60000E+02    1.34538E+02
 1.80000E+02    1.60520E+02
 2.00000E+02    2.14536E+02
