# n + Eu154 : (n,n'08)  
# jendl4.0   N.Iwamoto                         EVAL-Nov09
# uncertainties: n
# # energies =   102
#   E(MeV)       xs(mb) 
 1.01522E-01    0.00000E+00
 1.10000E-01    1.11891E+02
 1.20000E-01    1.49781E+02
 1.23361E-01    1.59624E+02
 1.28265E-01    1.71741E+02
 1.30000E-01    1.69180E+02
 1.30530E-01    1.69579E+02
 1.35664E-01    1.73957E+02
 1.37593E-01    1.76225E+02
 1.40000E-01    1.76250E+02
 1.46252E-01    1.81316E+02
 1.50000E-01    1.84564E+02
 1.54606E-01    1.88436E+02
 1.60000E-01    1.92670E+02
 1.63494E-01    1.95347E+02
 1.70000E-01    1.99492E+02
 1.74740E-01    2.02228E+02
 1.76632E-01    2.01296E+02
 1.80000E-01    2.01472E+02
 1.81928E-01    2.01842E+02
 1.81994E-01    2.01799E+02
 1.86264E-01    2.01513E+02
 1.90000E-01    2.01814E+02
 1.93554E-01    2.02178E+02
 1.97406E-01    2.00567E+02
 2.00000E-01    2.00359E+02
 2.05153E-01    1.99898E+02
 2.15478E-01    1.94940E+02
 2.20918E-01    1.91414E+02
 2.25000E-01    1.89495E+02
 2.31301E-01    1.87538E+02
 2.32394E-01    1.87063E+02
 2.36821E-01    1.84192E+02
 2.40857E-01    1.81279E+02
 2.50000E-01    1.75425E+02
 2.51054E-01    1.74954E+02
 2.53475E-01    1.73951E+02
 2.56882E-01    1.71174E+02
 2.59882E-01    1.68759E+02
 2.74639E-01    1.61431E+02
 2.75000E-01    1.61206E+02
 2.78513E-01    1.59659E+02
 2.80373E-01    1.58914E+02
 2.80866E-01    1.58700E+02
 2.81210E-01    1.58561E+02
 2.83525E-01    1.57006E+02
 3.00000E-01    1.48471E+02
 4.00000E-01    1.07462E+02
 5.00000E-01    7.77928E+01
 6.00000E-01    5.74821E+01
 7.00000E-01    4.47659E+01
 8.00000E-01    3.54230E+01
 9.00000E-01    2.84375E+01
 1.00000E+00    2.32573E+01
 1.10000E+00    1.93817E+01
 1.20000E+00    1.61104E+01
 1.30000E+00    1.34680E+01
 1.40000E+00    1.13123E+01
 1.50000E+00    9.53936E+00
 1.60000E+00    8.07062E+00
 1.70000E+00    6.84638E+00
 1.80000E+00    5.82085E+00
 1.90000E+00    4.95821E+00
 2.00000E+00    4.23023E+00
 2.25000E+00    2.89002E+00
 2.50000E+00    1.94806E+00
 2.75000E+00    1.33878E+00
 3.00000E+00    9.33449E-01
 3.50000E+00    4.46974E-01
 4.00000E+00    2.18790E-01
 4.50000E+00    1.12304E-01
 5.00000E+00    6.28881E-02
 5.50000E+00    3.96696E-02
 6.00000E+00    2.84940E-02
 6.50000E+00    2.28340E-02
 7.00000E+00    1.96373E-02
 7.50000E+00    1.75482E-02
 8.00000E+00    1.59893E-02
 8.50000E+00    1.47244E-02
 9.00000E+00    1.36554E-02
 9.50000E+00    1.27404E-02
 1.00000E+01    1.19508E-02
 1.05000E+01    1.12670E-02
 1.10000E+01    1.06649E-02
 1.15000E+01    1.01269E-02
 1.20000E+01    9.63583E-03
 1.25000E+01    9.17825E-03
 1.30000E+01    8.74518E-03
 1.35000E+01    8.33241E-03
 1.40000E+01    7.93890E-03
 1.45000E+01    7.56551E-03
 1.50000E+01    7.21401E-03
 1.55000E+01    6.89324E-03
 1.60000E+01    6.59583E-03
 1.65000E+01    6.32105E-03
 1.70000E+01    6.06622E-03
 1.75000E+01    5.82833E-03
 1.80000E+01    5.60386E-03
 1.85000E+01    5.39021E-03
 1.90000E+01    5.18444E-03
 1.95000E+01    4.98538E-03
 2.00000E+01    4.79251E-03
