# n + Eu154 : (n,h)     
# jendl4.0   N.Iwamoto                         EVAL-Nov09
# uncertainties: n
# # energies =    27
#   E(MeV)       xs(mb) 
 7.39011E+00    0.00000E+00
 7.40625E+00    2.48260E-32
 7.41530E+00    3.87470E-32
 7.43485E+00    6.88190E-32
 7.54110E+00    2.32250E-31
 9.50000E+00    1.00530E-29
 1.00000E+01    2.84160E-29
 1.05000E+01    1.00930E-24
 1.10000E+01    2.99080E-21
 1.15000E+01    1.62980E-18
 1.20000E+01    2.64650E-16
 1.25000E+01    1.74740E-14
 1.30000E+01    5.78860E-13
 1.35000E+01    1.11550E-11
 1.40000E+01    1.39240E-10
 1.45000E+01    1.22040E-09
 1.50000E+01    7.99030E-09
 1.55000E+01    4.06970E-08
 1.60000E+01    1.74340E-07
 1.65000E+01    5.66870E-07
 1.70000E+01    1.83440E-06
 1.75000E+01    4.86892E-06
 1.80000E+01    1.18756E-05
 1.85000E+01    2.68535E-05
 1.90000E+01    5.69664E-05
 1.95000E+01    1.08421E-04
 2.00000E+01    1.98114E-04
