# n + Eu154 : (n,n'30)  
# jendl4.0   N.Iwamoto                         EVAL-Nov09
# uncertainties: n
# # energies =    69
#   E(MeV)       xs(mb) 
 2.40857E-01    0.00000E+00
 2.50000E-01    5.49100E+01
 2.51054E-01    5.72198E+01
 2.53475E-01    6.18540E+01
 2.56882E-01    6.72628E+01
 2.59882E-01    7.11475E+01
 2.74639E-01    8.42986E+01
 2.75000E-01    8.45367E+01
 2.78513E-01    8.67269E+01
 2.80373E-01    8.78036E+01
 2.80866E-01    8.80374E+01
 2.81210E-01    8.81999E+01
 2.83525E-01    8.86838E+01
 3.00000E-01    9.33392E+01
 4.00000E-01    8.48277E+01
 5.00000E-01    6.50010E+01
 6.00000E-01    4.97151E+01
 7.00000E-01    3.93974E+01
 8.00000E-01    3.21138E+01
 9.00000E-01    2.66375E+01
 1.00000E+00    2.20677E+01
 1.10000E+00    1.86298E+01
 1.20000E+00    1.59144E+01
 1.30000E+00    1.35724E+01
 1.40000E+00    1.15300E+01
 1.50000E+00    9.79709E+00
 1.60000E+00    8.32536E+00
 1.70000E+00    7.07586E+00
 1.80000E+00    6.01577E+00
 1.90000E+00    5.11707E+00
 2.00000E+00    4.35574E+00
 2.25000E+00    2.95674E+00
 2.50000E+00    1.97793E+00
 2.75000E+00    1.35451E+00
 3.00000E+00    9.56043E-01
 3.50000E+00    4.64648E-01
 4.00000E+00    2.32992E-01
 4.50000E+00    1.24130E-01
 5.00000E+00    7.35511E-02
 5.50000E+00    4.97499E-02
 6.00000E+00    3.81735E-02
 6.50000E+00    3.20893E-02
 7.00000E+00    2.84143E-02
 7.50000E+00    2.58084E-02
 8.00000E+00    2.37242E-02
 8.50000E+00    2.19517E-02
 9.00000E+00    2.04101E-02
 9.50000E+00    1.90674E-02
 1.00000E+01    1.78949E-02
 1.05000E+01    1.68758E-02
 1.10000E+01    1.59758E-02
 1.15000E+01    1.51715E-02
 1.20000E+01    1.44380E-02
 1.25000E+01    1.37555E-02
 1.30000E+01    1.31101E-02
 1.35000E+01    1.24948E-02
 1.40000E+01    1.19078E-02
 1.45000E+01    1.13501E-02
 1.50000E+01    1.08241E-02
 1.55000E+01    1.03476E-02
 1.60000E+01    9.90534E-03
 1.65000E+01    9.49654E-03
 1.70000E+01    9.11757E-03
 1.75000E+01    8.76407E-03
 1.80000E+01    8.42937E-03
 1.85000E+01    8.10980E-03
 1.90000E+01    7.80228E-03
 1.95000E+01    7.50485E-03
 2.00000E+01    7.21657E-03
