# n + Eu154 : (n,n'19)  
# jendl4.0   N.Iwamoto                         EVAL-Nov09
# uncertainties: n
# # energies =    83
#   E(MeV)       xs(mb) 
 1.81928E-01    0.00000E+00
 1.81994E-01    1.07990E+00
 1.86264E-01    7.54121E+00
 1.90000E-01    1.01399E+01
 1.93554E-01    1.22230E+01
 1.97406E-01    1.42930E+01
 2.00000E-01    1.56382E+01
 2.05153E-01    1.82140E+01
 2.15478E-01    2.28099E+01
 2.20918E-01    2.51324E+01
 2.25000E-01    2.67740E+01
 2.31301E-01    2.92176E+01
 2.32394E-01    2.92719E+01
 2.36821E-01    3.02179E+01
 2.40857E-01    3.11101E+01
 2.50000E-01    3.35605E+01
 2.51054E-01    3.38373E+01
 2.53475E-01    3.44810E+01
 2.56882E-01    3.52183E+01
 2.59882E-01    3.57206E+01
 2.74639E-01    3.89603E+01
 2.75000E-01    3.88828E+01
 2.78513E-01    3.93367E+01
 2.80373E-01    3.96501E+01
 2.80866E-01    3.97360E+01
 2.81210E-01    3.97964E+01
 2.83525E-01    4.00011E+01
 3.00000E-01    4.20791E+01
 4.00000E-01    4.78613E+01
 5.00000E-01    4.70528E+01
 6.00000E-01    4.58739E+01
 7.00000E-01    4.52955E+01
 8.00000E-01    4.58222E+01
 9.00000E-01    4.64522E+01
 1.00000E+00    4.76501E+01
 1.10000E+00    4.89819E+01
 1.20000E+00    5.04372E+01
 1.30000E+00    5.18480E+01
 1.40000E+00    5.33851E+01
 1.50000E+00    5.50730E+01
 1.60000E+00    5.69218E+01
 1.70000E+00    5.89248E+01
 1.80000E+00    6.10588E+01
 1.90000E+00    6.32890E+01
 2.00000E+00    6.55733E+01
 2.25000E+00    7.12542E+01
 2.50000E+00    7.64714E+01
 2.75000E+00    8.10353E+01
 3.00000E+00    8.49873E+01
 3.50000E+00    9.10423E+01
 4.00000E+00    9.43417E+01
 4.50000E+00    9.51621E+01
 5.00000E+00    9.47888E+01
 5.50000E+00    9.40815E+01
 6.00000E+00    9.33910E+01
 6.50000E+00    9.26797E+01
 7.00000E+00    9.18193E+01
 7.50000E+00    9.07035E+01
 8.00000E+00    8.93436E+01
 8.50000E+00    8.77749E+01
 9.00000E+00    8.60865E+01
 9.50000E+00    8.43501E+01
 1.00000E+01    8.26436E+01
 1.05000E+01    8.10444E+01
 1.10000E+01    7.96176E+01
 1.15000E+01    7.84071E+01
 1.20000E+01    7.74214E+01
 1.25000E+01    7.66255E+01
 1.30000E+01    7.59519E+01
 1.35000E+01    7.53241E+01
 1.40000E+01    7.46824E+01
 1.45000E+01    7.39993E+01
 1.50000E+01    7.32770E+01
 1.55000E+01    7.25352E+01
 1.60000E+01    7.17974E+01
 1.65000E+01    7.10813E+01
 1.70000E+01    7.03958E+01
 1.75000E+01    6.97419E+01
 1.80000E+01    6.91138E+01
 1.85000E+01    6.85010E+01
 1.90000E+01    6.78904E+01
 1.95000E+01    6.72694E+01
 2.00000E+01    6.66287E+01
