# n + Eu154 : (n,n'24)  
# jendl4.0   N.Iwamoto                         EVAL-Nov09
# uncertainties: n
# # energies =    76
#   E(MeV)       xs(mb) 
 2.05153E-01    0.00000E+00
 2.15478E-01    5.46701E+01
 2.20918E-01    6.45837E+01
 2.25000E-01    7.03530E+01
 2.31301E-01    7.78360E+01
 2.32394E-01    7.89466E+01
 2.36821E-01    8.28838E+01
 2.40857E-01    8.59350E+01
 2.50000E-01    9.11371E+01
 2.51054E-01    9.16635E+01
 2.53475E-01    9.22206E+01
 2.56882E-01    9.18205E+01
 2.59882E-01    9.24528E+01
 2.74639E-01    9.59712E+01
 2.75000E-01    9.60354E+01
 2.78513E-01    9.67094E+01
 2.80373E-01    9.70636E+01
 2.80866E-01    9.69442E+01
 2.81210E-01    9.69480E+01
 2.83525E-01    9.69135E+01
 3.00000E-01    9.63572E+01
 4.00000E-01    8.34492E+01
 5.00000E-01    6.42113E+01
 6.00000E-01    4.95975E+01
 7.00000E-01    3.87838E+01
 8.00000E-01    3.13136E+01
 9.00000E-01    2.53480E+01
 1.00000E+00    2.06722E+01
 1.10000E+00    1.71968E+01
 1.20000E+00    1.44992E+01
 1.30000E+00    1.21773E+01
 1.40000E+00    1.02656E+01
 1.50000E+00    8.68518E+00
 1.60000E+00    7.36979E+00
 1.70000E+00    6.26882E+00
 1.80000E+00    5.34286E+00
 1.90000E+00    4.56106E+00
 2.00000E+00    3.89894E+00
 2.25000E+00    2.67497E+00
 2.50000E+00    1.80643E+00
 2.75000E+00    1.24371E+00
 3.00000E+00    8.88112E-01
 3.50000E+00    4.36101E-01
 4.00000E+00    2.22755E-01
 4.50000E+00    1.22145E-01
 5.00000E+00    7.48068E-02
 5.50000E+00    5.20365E-02
 6.00000E+00    4.06696E-02
 6.50000E+00    3.45191E-02
 7.00000E+00    3.07017E-02
 7.50000E+00    2.79376E-02
 8.00000E+00    2.57000E-02
 8.50000E+00    2.37856E-02
 9.00000E+00    2.21164E-02
 9.50000E+00    2.06627E-02
 1.00000E+01    1.93956E-02
 1.05000E+01    1.82936E-02
 1.10000E+01    1.73203E-02
 1.15000E+01    1.64499E-02
 1.20000E+01    1.56557E-02
 1.25000E+01    1.49161E-02
 1.30000E+01    1.42163E-02
 1.35000E+01    1.35491E-02
 1.40000E+01    1.29124E-02
 1.45000E+01    1.23076E-02
 1.50000E+01    1.17365E-02
 1.55000E+01    1.12175E-02
 1.60000E+01    1.07351E-02
 1.65000E+01    1.02892E-02
 1.70000E+01    9.87581E-03
 1.75000E+01    9.49010E-03
 1.80000E+01    9.12648E-03
 1.85000E+01    8.78065E-03
 1.90000E+01    8.44779E-03
 1.95000E+01    8.12578E-03
 2.00000E+01    7.81365E-03
