# n + Eu154 : (n,n'40)  
# jendl4.0   N.Iwamoto                         EVAL-Nov09
# uncertainties: n
# # energies =    57
#   E(MeV)       xs(mb) 
 2.83525E-01    0.00000E+00
 3.00000E-01    3.52111E+01
 4.00000E-01    5.84697E+01
 5.00000E-01    5.13198E+01
 6.00000E-01    4.17124E+01
 7.00000E-01    3.41173E+01
 8.00000E-01    2.78528E+01
 9.00000E-01    2.31426E+01
 1.00000E+00    1.90397E+01
 1.10000E+00    1.58918E+01
 1.20000E+00    1.34334E+01
 1.30000E+00    1.14472E+01
 1.40000E+00    9.70519E+00
 1.50000E+00    8.25120E+00
 1.60000E+00    7.03113E+00
 1.70000E+00    6.00270E+00
 1.80000E+00    5.13254E+00
 1.90000E+00    4.39391E+00
 2.00000E+00    3.76540E+00
 2.25000E+00    2.59656E+00
 2.50000E+00    1.75952E+00
 2.75000E+00    1.21477E+00
 3.00000E+00    8.30837E-01
 3.50000E+00    3.90876E-01
 4.00000E+00    1.83676E-01
 4.50000E+00    8.70727E-02
 5.00000E+00    4.26729E-02
 5.50000E+00    2.23042E-02
 6.00000E+00    1.29567E-02
 6.50000E+00    8.63667E-03
 7.00000E+00    6.54457E-03
 7.50000E+00    5.43274E-03
 8.00000E+00    4.76011E-03
 8.50000E+00    4.29712E-03
 9.00000E+00    3.94519E-03
 9.50000E+00    3.66193E-03
 1.00000E+01    3.42571E-03
 1.05000E+01    3.22528E-03
 1.10000E+01    3.05084E-03
 1.15000E+01    2.89625E-03
 1.20000E+01    2.75600E-03
 1.25000E+01    2.62590E-03
 1.30000E+01    2.50305E-03
 1.35000E+01    2.38601E-03
 1.40000E+01    2.27431E-03
 1.45000E+01    2.16813E-03
 1.50000E+01    2.06794E-03
 1.55000E+01    1.97675E-03
 1.60000E+01    1.89207E-03
 1.65000E+01    1.81379E-03
 1.70000E+01    1.74123E-03
 1.75000E+01    1.67356E-03
 1.80000E+01    1.60981E-03
 1.85000E+01    1.54922E-03
 1.90000E+01    1.49091E-03
 1.95000E+01    1.43449E-03
 2.00000E+01    1.37978E-03
