# n + Eu154 :  n        
# jendl4.0   N.Iwamoto                         EVAL-Nov09
# uncertainties: n
# # energies =   104
#   E(MeV)       xs(mb) 
 1.00825E-01    0.00000E+00
 1.01048E-01    2.58280E-03
 1.01522E-01    3.61736E-03
 1.10000E-01    8.07267E-03
 1.20000E-01    1.01905E-02
 1.23361E-01    1.07375E-02
 1.28265E-01    1.13212E-02
 1.30000E-01    1.12250E-02
 1.30530E-01    1.12500E-02
 1.35664E-01    1.14570E-02
 1.37593E-01    1.15382E-02
 1.40000E-01    1.15809E-02
 1.46252E-01    1.18205E-02
 1.50000E-01    1.19631E-02
 1.54606E-01    1.21121E-02
 1.60000E-01    1.22753E-02
 1.63494E-01    1.23741E-02
 1.70000E-01    1.36793E-02
 1.74740E-01    1.54220E-02
 1.76632E-01    1.54732E-02
 1.80000E-01    1.56683E-02
 1.81928E-01    1.60436E-02
 1.81994E-01    1.61334E-02
 1.86264E-01    1.82072E-02
 1.90000E-01    1.85970E-02
 1.93554E-01    1.88637E-02
 1.97406E-01    1.89589E-02
 2.00000E-01    1.90192E-02
 2.05153E-01    4.11157E-02
 2.15478E-01    5.17671E-02
 2.20918E-01    5.42524E-02
 2.25000E-01    5.57710E-02
 2.31301E-01    5.83405E-02
 2.32394E-01    5.88616E-02
 2.36821E-01    5.99512E-02
 2.40857E-01    6.07729E-02
 2.50000E-01    6.12569E-02
 2.51054E-01    6.13251E-02
 2.53475E-01    6.11334E-02
 2.56882E-01    6.06207E-02
 2.59882E-01    6.03923E-02
 2.74639E-01    6.71659E-02
 2.75000E-01    6.73886E-02
 2.78513E-01    6.90120E-02
 2.80373E-01    6.95487E-02
 2.80866E-01    6.95595E-02
 2.81210E-01    6.96025E-02
 2.83525E-01    7.30903E-02
 3.00000E-01    8.29927E-02
 4.00000E-01    4.11642E+02
 5.00000E-01    9.59163E+02
 6.00000E-01    1.34281E+03
 7.00000E-01    1.62886E+03
 8.00000E-01    1.84857E+03
 9.00000E-01    2.01675E+03
 1.00000E+00    2.14716E+03
 1.10000E+00    2.25353E+03
 1.20000E+00    2.33870E+03
 1.30000E+00    2.40875E+03
 1.40000E+00    2.46577E+03
 1.50000E+00    2.51128E+03
 1.60000E+00    2.54751E+03
 1.70000E+00    2.57628E+03
 1.80000E+00    2.59914E+03
 1.90000E+00    2.61736E+03
 2.00000E+00    2.63203E+03
 2.25000E+00    2.65714E+03
 2.50000E+00    2.67727E+03
 2.75000E+00    2.69013E+03
 3.00000E+00    2.69747E+03
 3.50000E+00    2.68953E+03
 4.00000E+00    2.65472E+03
 4.50000E+00    2.60695E+03
 5.00000E+00    2.56315E+03
 5.50000E+00    2.52720E+03
 6.00000E+00    2.49765E+03
 6.50000E+00    2.46985E+03
 7.00000E+00    2.26018E+03
 7.50000E+00    1.81448E+03
 8.00000E+00    1.37963E+03
 8.50000E+00    1.04604E+03
 9.00000E+00    8.11442E+02
 9.50000E+00    6.46027E+02
 1.00000E+01    5.27273E+02
 1.05000E+01    4.39968E+02
 1.10000E+01    3.75770E+02
 1.15000E+01    3.28055E+02
 1.20000E+01    2.91415E+02
 1.25000E+01    2.62419E+02
 1.30000E+01    2.38869E+02
 1.35000E+01    2.19189E+02
 1.40000E+01    2.02599E+02
 1.45000E+01    1.89469E+02
 1.50000E+01    1.77200E+02
 1.55000E+01    1.66170E+02
 1.60000E+01    1.57272E+02
 1.65000E+01    1.49319E+02
 1.70000E+01    1.42319E+02
 1.75000E+01    1.35973E+02
 1.80000E+01    1.30622E+02
 1.85000E+01    1.25222E+02
 1.90000E+01    1.19816E+02
 1.95000E+01    1.15754E+02
 2.00000E+01    1.11458E+02
