# n + Eu154 : (n,n'22)  
# jendl4.0   N.Iwamoto                         EVAL-Nov09
# uncertainties: n
# # energies =    79
#   E(MeV)       xs(mb) 
 1.93554E-01    0.00000E+00
 1.97406E-01    1.47346E+01
 2.00000E-01    1.83044E+01
 2.05153E-01    2.32787E+01
 2.15478E-01    2.99894E+01
 2.20918E-01    3.25607E+01
 2.25000E-01    3.42768E+01
 2.31301E-01    3.66856E+01
 2.32394E-01    3.70208E+01
 2.36821E-01    3.81523E+01
 2.40857E-01    3.89844E+01
 2.50000E-01    4.07112E+01
 2.51054E-01    4.09081E+01
 2.53475E-01    4.13617E+01
 2.56882E-01    4.19713E+01
 2.59882E-01    4.17150E+01
 2.74639E-01    4.30190E+01
 2.75000E-01    4.30072E+01
 2.78513E-01    4.32588E+01
 2.80373E-01    4.34138E+01
 2.80866E-01    4.34539E+01
 2.81210E-01    4.34826E+01
 2.83525E-01    4.35030E+01
 3.00000E-01    4.43830E+01
 4.00000E-01    4.19529E+01
 5.00000E-01    3.56654E+01
 6.00000E-01    3.01593E+01
 7.00000E-01    2.53359E+01
 8.00000E-01    2.16948E+01
 9.00000E-01    1.83727E+01
 1.00000E+00    1.56170E+01
 1.10000E+00    1.34253E+01
 1.20000E+00    1.16257E+01
 1.30000E+00    9.98196E+00
 1.40000E+00    8.58017E+00
 1.50000E+00    7.38256E+00
 1.60000E+00    6.35718E+00
 1.70000E+00    5.47770E+00
 1.80000E+00    4.72218E+00
 1.90000E+00    4.07245E+00
 2.00000E+00    3.51330E+00
 2.25000E+00    2.45547E+00
 2.50000E+00    1.68658E+00
 2.75000E+00    1.17598E+00
 3.00000E+00    8.30959E-01
 3.50000E+00    4.05569E-01
 4.00000E+00    2.01335E-01
 4.50000E+00    1.04463E-01
 5.00000E+00    5.90106E-02
 5.50000E+00    3.74132E-02
 6.00000E+00    2.69409E-02
 6.50000E+00    2.15965E-02
 7.00000E+00    1.85705E-02
 7.50000E+00    1.65924E-02
 8.00000E+00    1.51186E-02
 8.50000E+00    1.39235E-02
 9.00000E+00    1.29132E-02
 9.50000E+00    1.20480E-02
 1.00000E+01    1.13009E-02
 1.05000E+01    1.06545E-02
 1.10000E+01    1.00852E-02
 1.15000E+01    9.57690E-03
 1.20000E+01    9.11353E-03
 1.25000E+01    8.68228E-03
 1.30000E+01    8.27437E-03
 1.35000E+01    7.88556E-03
 1.40000E+01    7.51465E-03
 1.45000E+01    7.16237E-03
 1.50000E+01    6.83034E-03
 1.55000E+01    6.52786E-03
 1.60000E+01    6.24721E-03
 1.65000E+01    5.98782E-03
 1.70000E+01    5.74733E-03
 1.75000E+01    5.52294E-03
 1.80000E+01    5.31139E-03
 1.85000E+01    5.11017E-03
 1.90000E+01    4.91647E-03
 1.95000E+01    4.72907E-03
 2.00000E+01    4.54742E-03
