# n + Eu154 : (n,n'09)  
# jendl4.0   N.Iwamoto                         EVAL-Nov09
# uncertainties: n
# # energies =    99
#   E(MeV)       xs(mb) 
 1.23361E-01    0.00000E+00
 1.28265E-01    7.64181E+01
 1.30000E-01    8.51224E+01
 1.30530E-01    8.73842E+01
 1.35664E-01    1.03965E+02
 1.37593E-01    1.08469E+02
 1.40000E-01    1.13288E+02
 1.46252E-01    1.22777E+02
 1.50000E-01    1.27067E+02
 1.54606E-01    1.31217E+02
 1.60000E-01    1.35290E+02
 1.63494E-01    1.37645E+02
 1.70000E-01    1.40821E+02
 1.74740E-01    1.42851E+02
 1.76632E-01    1.40041E+02
 1.80000E-01    1.39390E+02
 1.81928E-01    1.39350E+02
 1.81994E-01    1.39350E+02
 1.86264E-01    1.35252E+02
 1.90000E-01    1.33216E+02
 1.93554E-01    1.32253E+02
 1.97406E-01    1.31513E+02
 2.00000E-01    1.31123E+02
 2.05153E-01    1.30557E+02
 2.15478E-01    1.27947E+02
 2.20918E-01    1.24242E+02
 2.25000E-01    1.20604E+02
 2.31301E-01    1.17992E+02
 2.32394E-01    1.17640E+02
 2.36821E-01    1.16293E+02
 2.40857E-01    1.15204E+02
 2.50000E-01    1.10916E+02
 2.51054E-01    1.10626E+02
 2.53475E-01    1.09524E+02
 2.56882E-01    1.07805E+02
 2.59882E-01    1.06864E+02
 2.74639E-01    1.03640E+02
 2.75000E-01    1.03574E+02
 2.78513E-01    1.02971E+02
 2.80373E-01    1.02673E+02
 2.80866E-01    1.02400E+02
 2.81210E-01    1.02289E+02
 2.83525E-01    1.01596E+02
 3.00000E-01    9.69257E+01
 4.00000E-01    7.23843E+01
 5.00000E-01    5.35009E+01
 6.00000E-01    4.07590E+01
 7.00000E-01    3.26303E+01
 8.00000E-01    2.67440E+01
 9.00000E-01    2.20584E+01
 1.00000E+00    1.85109E+01
 1.10000E+00    1.57864E+01
 1.20000E+00    1.34033E+01
 1.30000E+00    1.13640E+01
 1.40000E+00    9.64066E+00
 1.50000E+00    8.18251E+00
 1.60000E+00    6.94808E+00
 1.70000E+00    5.90302E+00
 1.80000E+00    5.01851E+00
 1.90000E+00    4.27000E+00
 2.00000E+00    3.63666E+00
 2.25000E+00    2.47416E+00
 2.50000E+00    1.65892E+00
 2.75000E+00    1.13823E+00
 3.00000E+00    8.10931E-01
 3.50000E+00    3.96499E-01
 4.00000E+00    2.00914E-01
 4.50000E+00    1.09083E-01
 5.00000E+00    6.63567E-02
 5.50000E+00    4.61418E-02
 6.00000E+00    3.61739E-02
 6.50000E+00    3.08093E-02
 7.00000E+00    2.74614E-02
 7.50000E+00    2.50151E-02
 8.00000E+00    2.30203E-02
 8.50000E+00    2.13079E-02
 9.00000E+00    1.98135E-02
 9.50000E+00    1.85122E-02
 1.00000E+01    1.73784E-02
 1.05000E+01    1.63915E-02
 1.10000E+01    1.55200E-02
 1.15000E+01    1.47399E-02
 1.20000E+01    1.40258E-02
 1.25000E+01    1.33560E-02
 1.30000E+01    1.27225E-02
 1.35000E+01    1.21191E-02
 1.40000E+01    1.15442E-02
 1.45000E+01    1.09989E-02
 1.50000E+01    1.04857E-02
 1.55000E+01    1.00227E-02
 1.60000E+01    9.59324E-03
 1.65000E+01    9.19649E-03
 1.70000E+01    8.82861E-03
 1.75000E+01    8.48521E-03
 1.80000E+01    8.16096E-03
 1.85000E+01    7.84980E-03
 1.90000E+01    7.55014E-03
 1.95000E+01    7.26025E-03
 2.00000E+01    6.97937E-03
