# n + Eu154 : (n,g)     
# jendl4.0   N.Iwamoto                         EVAL-Nov09
# uncertainties: n
# # energies =    69
#   E(MeV)       xs(mb) 
 1.00000E-10    7.59730E+06
 5.00000E-09    2.18368E+06
 1.00000E-08    1.73008E+06
 1.50000E-08    1.52076E+06
 2.00000E-08    1.40085E+06
 2.50000E-08    1.32624E+06
 3.00000E-08    1.27877E+06
 3.50000E-08    1.24604E+06
 4.20000E-08    1.22894E+06
 5.00000E-08    1.23233E+06
 5.80000E-08    1.25539E+06
 6.70000E-08    1.31014E+06
 8.00000E-08    1.44023E+06
 1.00000E-07    1.82258E+06
 1.40000E-07    2.52149E+06
 1.80000E-07    2.69012E+06
 2.20000E-07    2.00828E+06
 2.50000E-07    1.33304E+06
 2.80000E-07    9.25830E+05
 3.00000E-07    7.06999E+05
 3.20000E-07    5.23369E+05
 3.50000E-07    3.49460E+05
 4.00000E-07    2.05076E+05
 5.00000E-07    1.36935E+05
 6.25000E-07    1.86520E+05
 7.80000E-07    4.90257E+05
 8.50000E-07    5.63111E+05
 9.10000E-07    3.50836E+05
 9.50000E-07    2.62263E+05
 9.72000E-07    2.28335E+05
 9.96000E-07    2.10149E+05
 1.02000E-06    2.04323E+05
 1.04500E-06    2.08633E+05
 1.07100E-06    2.22666E+05
 1.09700E-06    2.46922E+05
 1.12300E-06    2.84424E+05
 1.15000E-06    6.81968E+05
 1.30000E-06    1.78121E+06
 1.50000E-06    1.32689E+05
 2.10000E-06    1.98952E+04
 2.60000E-06    2.38512E+04
 3.30000E-06    1.98118E+05
 4.00000E-06    2.85822E+05
 9.87700E-06    8.46914E+04
 1.59680E-05    8.57358E+04
 2.77000E-05    1.78391E+05
 4.80520E-05    1.36000E+05
 7.55014E-05    9.98648E+04
 1.48728E-04    6.39570E+04
 3.67262E-04    3.78327E+04
 9.06898E-04    2.48051E+04
 1.42510E-03    1.86683E+04
 2.23945E-03    1.40466E+04
 3.51910E-03    1.05668E+04
 5.53000E-03    7.83454E+03
 9.11800E-03    5.77876E+03
 1.50300E-02    4.34193E+03
 2.47800E-02    3.34756E+03
 4.08500E-02    2.66931E+03
 6.73400E-02    2.01932E+03
 1.11000E-01    1.17472E+03
 1.83000E-01    5.65165E+02
 3.02000E-01    2.49973E+02
 5.00000E-01    1.14354E+02
 8.21000E-01    5.92965E+01
 1.35300E+00    3.25812E+01
 2.23100E+00    1.55291E+01
 3.67900E+00    4.30434E+00
 6.06500E+00    9.65282E-01
