# n + Eu154 : (n,n'11)  
# jendl4.0   N.Iwamoto                         EVAL-Nov09
# uncertainties: n
# # energies =    96
#   E(MeV)       xs(mb) 
 1.30530E-01    0.00000E+00
 1.35664E-01    8.44474E+01
 1.37593E-01    9.50803E+01
 1.40000E-01    1.05396E+02
 1.46252E-01    1.24199E+02
 1.50000E-01    1.32183E+02
 1.54606E-01    1.40172E+02
 1.60000E-01    1.47574E+02
 1.63494E-01    1.51755E+02
 1.70000E-01    1.58529E+02
 1.74740E-01    1.62430E+02
 1.76632E-01    1.60467E+02
 1.80000E-01    1.60429E+02
 1.81928E-01    1.60899E+02
 1.81994E-01    1.60834E+02
 1.86264E-01    1.61646E+02
 1.90000E-01    1.62369E+02
 1.93554E-01    1.63289E+02
 1.97406E-01    1.63417E+02
 2.00000E-01    1.63689E+02
 2.05153E-01    1.64328E+02
 2.15478E-01    1.63627E+02
 2.20918E-01    1.60178E+02
 2.25000E-01    1.59337E+02
 2.31301E-01    1.58482E+02
 2.32394E-01    1.58064E+02
 2.36821E-01    1.54211E+02
 2.40857E-01    1.50176E+02
 2.50000E-01    1.43783E+02
 2.51054E-01    1.43366E+02
 2.53475E-01    1.42398E+02
 2.56882E-01    1.40544E+02
 2.59882E-01    1.39104E+02
 2.74639E-01    1.35124E+02
 2.75000E-01    1.34962E+02
 2.78513E-01    1.34087E+02
 2.80373E-01    1.33694E+02
 2.80866E-01    1.33527E+02
 2.81210E-01    1.33439E+02
 2.83525E-01    1.31804E+02
 3.00000E-01    1.25598E+02
 4.00000E-01    9.57073E+01
 5.00000E-01    7.15719E+01
 6.00000E-01    5.48678E+01
 7.00000E-01    4.38809E+01
 8.00000E-01    3.59158E+01
 9.00000E-01    2.95207E+01
 1.00000E+00    2.46770E+01
 1.10000E+00    2.09346E+01
 1.20000E+00    1.77083E+01
 1.30000E+00    1.49509E+01
 1.40000E+00    1.26330E+01
 1.50000E+00    1.06821E+01
 1.60000E+00    9.03927E+00
 1.70000E+00    7.65560E+00
 1.80000E+00    6.49028E+00
 1.90000E+00    5.50872E+00
 2.00000E+00    4.68176E+00
 2.25000E+00    3.17060E+00
 2.50000E+00    2.12290E+00
 2.75000E+00    1.45457E+00
 3.00000E+00    9.92902E-01
 3.50000E+00    4.65049E-01
 4.00000E+00    2.17541E-01
 4.50000E+00    1.02953E-01
 5.00000E+00    5.09637E-02
 5.50000E+00    2.74230E-02
 6.00000E+00    1.67051E-02
 6.50000E+00    1.17236E-02
 7.00000E+00    9.25069E-03
 7.50000E+00    7.87489E-03
 8.00000E+00    6.99489E-03
 8.50000E+00    6.35851E-03
 9.00000E+00    5.85825E-03
 9.50000E+00    5.44758E-03
 1.00000E+01    5.10137E-03
 1.05000E+01    4.80546E-03
 1.10000E+01    4.54613E-03
 1.15000E+01    4.31435E-03
 1.20000E+01    4.10340E-03
 1.25000E+01    3.90729E-03
 1.30000E+01    3.72198E-03
 1.35000E+01    3.54557E-03
 1.40000E+01    3.37752E-03
 1.45000E+01    3.21813E-03
 1.50000E+01    3.06810E-03
 1.55000E+01    2.93255E-03
 1.60000E+01    2.80683E-03
 1.65000E+01    2.69067E-03
 1.70000E+01    2.58297E-03
 1.75000E+01    2.48245E-03
 1.80000E+01    2.38760E-03
 1.85000E+01    2.29731E-03
 1.90000E+01    2.21031E-03
 1.95000E+01    2.12545E-03
 2.00000E+01    2.04322E-03
