# n + Eu154 : (n,n'31)  
# jendl4.0   N.Iwamoto                         EVAL-Nov09
# uncertainties: n
# # energies =    67
#   E(MeV)       xs(mb) 
 2.51053E-01    0.00000E+00
 2.53475E-01    1.16831E+01
 2.56882E-01    1.69922E+01
 2.59882E-01    2.02397E+01
 2.74639E-01    3.02316E+01
 2.75000E-01    3.04174E+01
 2.78513E-01    3.20956E+01
 2.80373E-01    3.29208E+01
 2.80866E-01    3.29218E+01
 2.81210E-01    3.30073E+01
 2.83525E-01    3.37080E+01
 3.00000E-01    3.80426E+01
 4.00000E-01    4.48139E+01
 5.00000E-01    3.84083E+01
 6.00000E-01    3.10982E+01
 7.00000E-01    2.54870E+01
 8.00000E-01    2.10929E+01
 9.00000E-01    1.76570E+01
 1.00000E+00    1.46266E+01
 1.10000E+00    1.23366E+01
 1.20000E+00    1.05309E+01
 1.30000E+00    9.00467E+00
 1.40000E+00    7.67908E+00
 1.50000E+00    6.56344E+00
 1.60000E+00    5.62009E+00
 1.70000E+00    4.81929E+00
 1.80000E+00    4.13724E+00
 1.90000E+00    3.55476E+00
 2.00000E+00    3.05633E+00
 2.25000E+00    2.12386E+00
 2.50000E+00    1.44556E+00
 2.75000E+00    1.00237E+00
 3.00000E+00    7.20655E-01
 3.50000E+00    3.56827E-01
 4.00000E+00    1.83469E-01
 4.50000E+00    1.01227E-01
 5.00000E+00    6.23694E-02
 5.50000E+00    4.36544E-02
 6.00000E+00    3.42965E-02
 6.50000E+00    2.92236E-02
 7.00000E+00    2.60587E-02
 7.50000E+00    2.37519E-02
 8.00000E+00    2.18696E-02
 8.50000E+00    2.02493E-02
 9.00000E+00    1.88321E-02
 9.50000E+00    1.75955E-02
 1.00000E+01    1.65161E-02
 1.05000E+01    1.55771E-02
 1.10000E+01    1.47474E-02
 1.15000E+01    1.40058E-02
 1.20000E+01    1.33295E-02
 1.25000E+01    1.27003E-02
 1.30000E+01    1.21051E-02
 1.35000E+01    1.15378E-02
 1.40000E+01    1.09964E-02
 1.45000E+01    1.04818E-02
 1.50000E+01    9.99646E-03
 1.55000E+01    9.55622E-03
 1.60000E+01    9.14753E-03
 1.65000E+01    8.76976E-03
 1.70000E+01    8.41956E-03
 1.75000E+01    8.09292E-03
 1.80000E+01    7.78507E-03
 1.85000E+01    7.49226E-03
 1.90000E+01    7.20814E-03
 1.95000E+01    6.93335E-03
 2.00000E+01    6.66702E-03
