# n + V  50 : (n,xp)    
# jendl4.0   N.Iwamoto                         EVAL-Mar10
# 
# # energies =   111
#   E(MeV)        xs(mb) 
 1.05000E-01    7.03002E-01
 1.10000E-01    7.21265E-01
 1.20000E-01    7.37220E-01
 1.30000E-01    7.38761E-01
 1.40000E-01    7.65427E-01
 1.50000E-01    7.92093E-01
 1.60000E-01    8.22166E-01
 1.70000E-01    8.31044E-01
 1.80000E-01    8.35188E-01
 1.90000E-01    8.32970E-01
 2.00000E-01    8.26279E-01
 2.25000E-01    8.94930E-01
 2.30768E-01    9.06971E-01
 2.50000E-01    5.52273E-01
 2.75000E-01    5.45342E-01
 3.00000E-01    5.36290E-01
 3.26626E-01    5.64570E-01
 3.62577E-01    2.06540E-01
 3.96244E-01    1.47018E-01
 4.00000E-01    1.44731E-01
 5.00000E-01    1.66612E-01
 6.00000E-01    2.24101E-01
 7.00000E-01    3.03732E-01
 8.00000E-01    4.15103E-01
 8.53189E-01    5.00384E-01
 9.00000E-01    5.27052E-01
 9.28377E-01    5.68004E-01
 9.28479E-01    5.67935E-01
 1.00000E+00    6.02440E-01
 1.10000E+00    7.75753E-01
 1.20000E+00    9.93014E-01
 1.30000E+00    1.27224E+00
 1.32768E+00    1.36624E+00
 1.35839E+00    1.47192E+00
 1.40000E+00    1.63098E+00
 1.43021E+00    1.75777E+00
 1.50000E+00    2.03164E+00
 1.52550E+00    2.16335E+00
 1.54906E+00    2.28892E+00
 1.59324E+00    2.53918E+00
 1.60000E+00    2.57907E+00
 1.70000E+00    3.25075E+00
 1.71107E+00    3.33240E+00
 1.73453E+00    3.47591E+00
 1.73454E+00    3.47597E+00
 1.73749E+00    3.45959E+00
 1.75361E+00    3.43814E+00
 1.75943E+00    3.44298E+00
 1.76004E+00    3.44348E+00
 1.78687E+00    3.52303E+00
 1.79707E+00    3.56439E+00
 1.79789E+00    3.56074E+00
 1.80000E+00    3.55135E+00
 1.84737E+00    3.80826E+00
 1.90000E+00    4.20226E+00
 1.92041E+00    4.37164E+00
 1.97510E+00    4.75135E+00
 1.99346E+00    4.91722E+00
 2.00000E+00    4.97631E+00
 2.07916E+00    5.74734E+00
 2.07917E+00    5.74744E+00
 2.15363E+00    6.49743E+00
 2.17608E+00    6.72577E+00
 2.20566E+00    7.04129E+00
 2.25000E+00    7.51830E+00
 2.35461E+00    8.86227E+00
 2.35930E+00    8.92475E+00
 2.39134E+00    9.27715E+00
 2.44745E+00    1.00007E+01
 2.47295E+00    1.02466E+01
 2.47397E+00    1.02564E+01
 2.50000E+00    1.05961E+01
 2.50458E+00    1.06558E+01
 2.52835E+00    1.09189E+01
 2.53314E+00    1.09719E+01
 2.75000E+00    1.35259E+01
 3.00000E+00    1.63250E+01
 3.50000E+00    2.14307E+01
 4.00000E+00    2.49368E+01
 4.50000E+00    2.73871E+01
 5.00000E+00    2.97090E+01
 5.50000E+00    3.21605E+01
 6.00000E+00    3.63836E+01
 6.50000E+00    4.14658E+01
 7.00000E+00    4.76212E+01
 7.50000E+00    5.41848E+01
 8.00000E+00    6.07483E+01
 8.50000E+00    6.71500E+01
 9.00000E+00    7.31496E+01
 9.50000E+00    7.88296E+01
 1.00000E+01    8.58916E+01
 1.05000E+01    9.25455E+01
 1.10000E+01    1.00120E+02
 1.15000E+01    1.07429E+02
 1.20000E+01    1.15008E+02
 1.25000E+01    1.22832E+02
 1.30000E+01    1.31272E+02
 1.35000E+01    1.40392E+02
 1.40000E+01    1.49610E+02
 1.45000E+01    1.58833E+02
 1.50000E+01    1.68168E+02
 1.55000E+01    1.77520E+02
 1.60000E+01    1.86517E+02
 1.65000E+01    1.96778E+02
 1.70000E+01    2.04965E+02
 1.75000E+01    2.15886E+02
 1.80000E+01    2.25752E+02
 1.85000E+01    2.36174E+02
 1.90000E+01    2.46706E+02
 1.95000E+01    2.58491E+02
 2.00000E+01    2.70720E+02
