# n + V  50 : (n,n'05)  
# jendl4.0   N.Iwamoto                         EVAL-Mar10
# uncertainties: n
# # energies =    86
#   E(MeV)       xs(mb) 
 8.53189E-01    0.00000E+00
 9.00000E-01    9.38811E+01
 9.28377E-01    1.04677E+02
 9.28479E-01    1.04679E+02
 1.00000E+00    1.15185E+02
 1.10000E+00    1.25390E+02
 1.20000E+00    1.33192E+02
 1.30000E+00    1.40317E+02
 1.32768E+00    1.42329E+02
 1.35839E+00    1.44417E+02
 1.40000E+00    1.47998E+02
 1.43021E+00    1.50375E+02
 1.50000E+00    1.56077E+02
 1.52550E+00    1.57934E+02
 1.54906E+00    1.59461E+02
 1.59324E+00    1.62910E+02
 1.60000E+00    1.63416E+02
 1.70000E+00    1.70420E+02
 1.71107E+00    1.71172E+02
 1.73454E+00    1.72522E+02
 1.73749E+00    1.72099E+02
 1.75361E+00    1.69530E+02
 1.75943E+00    1.69412E+02
 1.76004E+00    1.68925E+02
 1.78687E+00    1.67155E+02
 1.79707E+00    1.67198E+02
 1.79789E+00    1.65748E+02
 1.80000E+00    1.64549E+02
 1.84737E+00    1.61013E+02
 1.90000E+00    1.61436E+02
 1.92041E+00    1.61769E+02
 1.97510E+00    1.58415E+02
 1.99346E+00    1.58371E+02
 2.00000E+00    1.58379E+02
 2.07916E+00    1.57990E+02
 2.07917E+00    1.57989E+02
 2.15363E+00    1.57063E+02
 2.17608E+00    1.56645E+02
 2.20566E+00    1.56047E+02
 2.25000E+00    1.54834E+02
 2.35461E+00    1.52198E+02
 2.35930E+00    1.51994E+02
 2.39134E+00    1.47070E+02
 2.44745E+00    1.43487E+02
 2.47295E+00    1.41160E+02
 2.47397E+00    1.41096E+02
 2.50000E+00    1.39565E+02
 2.50458E+00    1.39314E+02
 2.52835E+00    1.37579E+02
 2.53314E+00    1.37275E+02
 2.75000E+00    1.20165E+02
 3.00000E+00    1.03567E+02
 3.50000E+00    7.13671E+01
 4.00000E+00    4.86644E+01
 4.50000E+00    3.37913E+01
 5.00000E+00    2.41056E+01
 5.50000E+00    1.76834E+01
 6.00000E+00    1.34390E+01
 6.50000E+00    1.02707E+01
 7.00000E+00    7.98294E+00
 7.50000E+00    6.29732E+00
 8.00000E+00    5.04350E+00
 8.50000E+00    4.11016E+00
 9.00000E+00    3.41379E+00
 9.50000E+00    2.89670E+00
 1.00000E+01    2.51232E+00
 1.05000E+01    2.22494E+00
 1.10000E+01    2.00524E+00
 1.15000E+01    1.83536E+00
 1.20000E+01    1.69900E+00
 1.25000E+01    1.58585E+00
 1.30000E+01    1.49009E+00
 1.35000E+01    1.40354E+00
 1.40000E+01    1.32678E+00
 1.45000E+01    1.25405E+00
 1.50000E+01    1.18786E+00
 1.55000E+01    1.12463E+00
 1.60000E+01    1.06583E+00
 1.65000E+01    1.01050E+00
 1.70000E+01    9.59075E-01
 1.75000E+01    9.11596E-01
 1.80000E+01    8.67073E-01
 1.85000E+01    8.26148E-01
 1.90000E+01    7.88007E-01
 1.95000E+01    7.53199E-01
 2.00000E+01    7.20544E-01
