# n + V  50 : (n,n'10)  
# jendl4.0   N.Iwamoto                         EVAL-Mar10
# uncertainties: n
# # energies =    75
#   E(MeV)       xs(mb) 
 1.43021E+00    0.00000E+00
 1.50000E+00    6.65871E+00
 1.52550E+00    7.17230E+00
 1.54906E+00    7.54783E+00
 1.59324E+00    8.14921E+00
 1.60000E+00    8.23425E+00
 1.70000E+00    9.52361E+00
 1.71107E+00    9.65752E+00
 1.73454E+00    9.61456E+00
 1.73749E+00    9.49686E+00
 1.75361E+00    9.40343E+00
 1.75943E+00    9.26383E+00
 1.76004E+00    9.26136E+00
 1.78687E+00    9.20744E+00
 1.79707E+00    9.10829E+00
 1.79789E+00    9.09301E+00
 1.80000E+00    9.00232E+00
 1.84737E+00    9.17428E+00
 1.90000E+00    9.81950E+00
 1.92041E+00    1.00725E+01
 1.97510E+00    1.06969E+01
 1.99346E+00    1.09527E+01
 2.00000E+00    1.10427E+01
 2.07916E+00    1.22043E+01
 2.07917E+00    1.22029E+01
 2.15363E+00    1.30659E+01
 2.17608E+00    1.32859E+01
 2.20566E+00    1.35551E+01
 2.25000E+00    1.39949E+01
 2.35461E+00    1.52971E+01
 2.35930E+00    1.53549E+01
 2.39134E+00    1.57380E+01
 2.44745E+00    1.62610E+01
 2.47295E+00    1.64584E+01
 2.47397E+00    1.64610E+01
 2.50000E+00    1.66783E+01
 2.50458E+00    1.67169E+01
 2.52835E+00    1.67222E+01
 2.53314E+00    1.67493E+01
 2.75000E+00    1.67758E+01
 3.00000E+00    1.74661E+01
 3.50000E+00    1.44778E+01
 4.00000E+00    1.11938E+01
 4.50000E+00    8.56618E+00
 5.00000E+00    6.64640E+00
 5.50000E+00    5.26647E+00
 6.00000E+00    4.29810E+00
 6.50000E+00    3.51955E+00
 7.00000E+00    2.91870E+00
 7.50000E+00    2.44444E+00
 8.00000E+00    2.06616E+00
 8.50000E+00    1.76452E+00
 9.00000E+00    1.52464E+00
 9.50000E+00    1.33555E+00
 1.00000E+01    1.18719E+00
 1.05000E+01    1.07088E+00
 1.10000E+01    9.78141E-01
 1.15000E+01    9.04156E-01
 1.20000E+01    8.44045E-01
 1.25000E+01    7.92307E-01
 1.30000E+01    7.48353E-01
 1.35000E+01    7.08229E-01
 1.40000E+01    6.71927E-01
 1.45000E+01    6.37816E-01
 1.50000E+01    6.05674E-01
 1.55000E+01    5.75233E-01
 1.60000E+01    5.46152E-01
 1.65000E+01    5.18971E-01
 1.70000E+01    4.93135E-01
 1.75000E+01    4.69308E-01
 1.80000E+01    4.46692E-01
 1.85000E+01    4.25842E-01
 1.90000E+01    4.06464E-01
 1.95000E+01    3.88515E-01
 2.00000E+01    3.71819E-01
