# n + V  50 : (n,a)     
# jendl4.0   N.Iwamoto                         EVAL-Mar10
# uncertainties: n
# # energies =   100
#   E(MeV)       xs(mb) 
 1.00607E-02    0.00000E+00
 5.19499E-02    1.96100E-11
 3.73423E-01    3.44870E-10
 3.95868E-01    3.91080E-10
 3.97898E-01    3.95390E-10
 5.51060E-01    2.08330E-09
 5.70321E-01    2.35640E-09
 6.47142E-01    3.46170E-09
 6.60506E-01    3.65490E-09
 8.99844E-01    7.31610E-09
 9.79419E-01    8.96060E-09
 1.00798E+00    1.80940E-08
 1.06165E+00    4.34570E-08
 1.06206E+00    4.36870E-08
 1.12235E+00    8.07620E-08
 1.14387E+00    9.51130E-08
 1.27048E+00    1.92320E-07
 1.30000E+00    2.15860E-07
 1.30000E+00    2.37480E-07
 1.32768E+00    2.67750E-07
 1.35839E+00    3.04670E-07
 1.40000E+00    3.62500E-07
 1.41933E+00    3.94390E-07
 1.43021E+00    4.12390E-07
 1.47982E+00    5.21000E-07
 1.50000E+00    5.67800E-07
 1.50482E+00    5.82720E-07
 1.52550E+00    6.48000E-07
 1.54906E+00    7.35300E-07
 1.59324E+00    9.42470E-07
 1.60000E+00    9.80310E-07
 1.70000E+00    1.82777E-06
 1.71107E+00    1.96655E-06
 1.73454E+00    2.29340E-06
 1.73749E+00    2.32726E-06
 1.75361E+00    2.47997E-06
 1.75943E+00    2.56067E-06
 1.76004E+00    2.56668E-06
 1.78687E+00    2.98045E-06
 1.79707E+00    3.17360E-06
 1.79789E+00    3.17950E-06
 1.80000E+00    3.21039E-06
 1.84737E+00    4.31497E-06
 1.90000E+00    6.11516E-06
 1.92041E+00    7.01099E-06
 1.97510E+00    9.94037E-06
 1.99346E+00    1.12183E-05
 2.00000E+00    1.17119E-05
 2.07916E+00    1.96516E-05
 2.07917E+00    1.96501E-05
 2.15363E+00    3.13194E-05
 2.17608E+00    3.59362E-05
 2.20566E+00    4.29924E-05
 2.25000E+00    5.56073E-05
 2.35461E+00    1.01836E-04
 2.35930E+00    1.04571E-04
 2.39134E+00    1.24057E-04
 2.44745E+00    1.67748E-04
 2.47295E+00    1.87574E-04
 2.47397E+00    1.88423E-04
 2.50000E+00    2.14610E-04
 2.50458E+00    2.19699E-04
 2.52835E+00    2.46160E-04
 2.53314E+00    2.51923E-04
 2.75000E+00    6.77311E-04
 3.00000E+00    1.83562E-03
 3.50000E+00    9.90602E-03
 4.00000E+00    3.82555E-02
 4.50000E+00    1.16258E-01
 5.00000E+00    2.92749E-01
 5.50000E+00    6.40908E-01
 6.00000E+00    1.26629E+00
 6.50000E+00    2.22546E+00
 7.00000E+00    3.65002E+00
 7.50000E+00    5.60250E+00
 8.00000E+00    8.06355E+00
 8.50000E+00    1.09059E+01
 9.00000E+00    1.39283E+01
 9.50000E+00    1.69421E+01
 1.00000E+01    1.95247E+01
 1.05000E+01    2.22510E+01
 1.10000E+01    2.47840E+01
 1.15000E+01    2.69129E+01
 1.20000E+01    2.91961E+01
 1.25000E+01    3.13582E+01
 1.30000E+01    3.34306E+01
 1.35000E+01    3.53900E+01
 1.40000E+01    3.72633E+01
 1.45000E+01    3.90140E+01
 1.50000E+01    4.05589E+01
 1.55000E+01    4.19922E+01
 1.60000E+01    4.31018E+01
 1.65000E+01    4.37717E+01
 1.70000E+01    4.36924E+01
 1.75000E+01    4.29275E+01
 1.80000E+01    4.15515E+01
 1.85000E+01    3.94579E+01
 1.90000E+01    3.71860E+01
 1.95000E+01    3.47271E+01
 2.00000E+01    3.24399E+01
