# n + Ce140 : (n,xa)    
# jendl4.0   S.Kunieda, A.Ichihara, K.Shibata+ EVAL-FEB10
# 
# # energies =    45
#   E(MeV)        xs(mb) 
 1.60774E+00    0.00000E+00
 1.80000E+00    0.00000E+00
 1.91703E+00    0.00000E+00
 2.00000E+00    0.00000E+00
 2.09827E+00    0.00000E+00
 2.12305E+00    0.00000E+00
 2.20000E+00    0.00000E+00
 2.36481E+00    0.00000E+00
 2.36675E+00    0.00000E+00
 2.40000E+00    0.00000E+00
 2.42940E+00    0.00000E+00
 2.48184E+00    0.00000E+00
 2.49881E+00    0.00000E+00
 2.50888E+00    0.00000E+00
 2.60000E+00    0.00000E+00
 2.80000E+00    0.00000E+00
 3.00000E+00    0.00000E+00
 3.25000E+00    0.00000E+00
 3.50000E+00    0.00000E+00
 3.75000E+00    2.71900E-03
 4.00000E+00    4.37200E-03
 4.25000E+00    5.61400E-03
 4.50000E+00    7.28500E-03
 4.75000E+00    1.07700E-02
 5.00000E+00    1.35600E-02
 5.50000E+00    1.82500E-02
 6.00000E+00    3.21500E-02
 6.50000E+00    4.07900E-02
 7.00000E+00    4.82800E-02
 7.50000E+00    6.11700E-02
 8.00000E+00    8.44600E-02
 8.50000E+00    1.11400E-01
 9.00000E+00    1.61100E-01
 9.50000E+00    2.17100E-01
 1.00000E+01    3.17100E-01
 1.10000E+01    5.96068E-01
 1.20000E+01    1.15925E+00
 1.30000E+01    2.15321E+00
 1.40000E+01    3.71570E+00
 1.50000E+01    5.88160E+00
 1.60000E+01    8.58770E+00
 1.70000E+01    1.17040E+01
 1.80000E+01    1.50940E+01
 1.90000E+01    1.86080E+01
 2.00000E+01    2.21420E+01
