# n + Ce140 : (n,a)     
# jendl4.0   S.Kunieda, A.Ichihara, K.Shibata+ EVAL-FEB10
# uncertainties: n
# # energies =    27
#   E(MeV)       xs(mb) 
 3.50000E+00    0.00000E+00
 3.75000E+00    2.71900E-03
 4.00000E+00    4.37200E-03
 4.25000E+00    5.61400E-03
 4.50000E+00    7.28500E-03
 4.75000E+00    1.07700E-02
 5.00000E+00    1.35600E-02
 5.50000E+00    1.82500E-02
 6.00000E+00    3.21500E-02
 6.50000E+00    4.07900E-02
 7.00000E+00    4.82800E-02
 7.50000E+00    6.11700E-02
 8.00000E+00    8.44600E-02
 8.50000E+00    1.11400E-01
 9.00000E+00    1.61100E-01
 9.50000E+00    2.17100E-01
 1.00000E+01    3.17100E-01
 1.10000E+01    5.95300E-01
 1.20000E+01    1.15000E+00
 1.30000E+01    2.11300E+00
 1.40000E+01    3.59500E+00
 1.50000E+01    5.57800E+00
 1.60000E+01    7.90700E+00
 1.70000E+01    1.03000E+01
 1.80000E+01    1.24300E+01
 1.90000E+01    1.40100E+01
 2.00000E+01    1.49200E+01
