# n + Ce140 : (n,g)     
# jendl4.0   S.Kunieda, A.Ichihara, K.Shibata+ EVAL-FEB10
# uncertainties: n
# # energies =    69
#   E(MeV)       xs(mb) 
 1.00000E-10    3.98078E+03
 5.00000E-09    1.08396E+03
 1.00000E-08    8.20945E+02
 1.50000E-08    6.89748E+02
 2.00000E-08    6.06848E+02
 2.50000E-08    5.48253E+02
 3.00000E-08    5.03975E+02
 3.50000E-08    4.63361E+02
 4.20000E-08    4.23820E+02
 5.00000E-08    3.90928E+02
 5.80000E-08    3.63344E+02
 6.70000E-08    3.35310E+02
 8.00000E-08    3.03423E+02
 1.00000E-07    2.63982E+02
 1.40000E-07    2.27785E+02
 1.80000E-07    2.03397E+02
 2.20000E-07    1.87312E+02
 2.50000E-07    1.76348E+02
 2.80000E-07    1.68472E+02
 3.00000E-07    1.62940E+02
 3.20000E-07    1.56786E+02
 3.50000E-07    1.48293E+02
 4.00000E-07    1.35685E+02
 5.00000E-07    1.21358E+02
 6.25000E-07    1.08585E+02
 7.80000E-07    1.00505E+02
 8.50000E-07    9.66996E+01
 9.10000E-07    9.40439E+01
 9.50000E-07    9.25075E+01
 9.72000E-07    9.14215E+01
 9.96000E-07    9.03249E+01
 1.02000E-06    8.92460E+01
 1.04500E-06    8.81659E+01
 1.07100E-06    8.71029E+01
 1.09700E-06    8.60743E+01
 1.12300E-06    8.50719E+01
 1.15000E-06    8.20257E+01
 1.30000E-06    7.67628E+01
 1.50000E-06    6.81672E+01
 2.10000E-06    5.93670E+01
 2.60000E-06    5.30233E+01
 3.30000E-06    4.75913E+01
 4.00000E-06    3.64573E+01
 9.87700E-06    2.56009E+01
 1.59680E-05    1.97637E+01
 2.77000E-05    1.49592E+01
 4.80520E-05    1.15797E+01
 7.55014E-05    8.69048E+00
 1.48728E-04    5.78732E+00
 3.67262E-04    3.60941E+00
 9.06898E-04    2.52595E+00
 1.42510E-03    2.02443E+00
 2.23945E-03    6.40792E+01
 3.51910E-03    1.28387E+00
 5.53000E-03    1.99568E+01
 9.11800E-03    1.90143E+01
 1.50300E-02    1.35736E+01
 2.47800E-02    9.25850E+00
 4.08500E-02    9.62463E+00
 6.73400E-02    4.33457E+00
 1.11000E-01    4.39479E+00
 1.83000E-01    4.64905E+00
 3.02000E-01    4.50765E+00
 5.00000E-01    5.87988E+00
 8.21000E-01    9.31849E+00
 1.35300E+00    1.36372E+01
 2.23100E+00    5.11895E+00
 3.67900E+00    2.33781E+00
 6.06500E+00    5.21976E-01
