# n + Ce140 : (n,el)    
# jendl4.0   S.Kunieda, A.Ichihara, K.Shibata+ EVAL-FEB10
# uncertainties: n
# # energies =    69
#   E(MeV)       xs(mb) 
 1.00000E-10    3.50569E+03
 5.00000E-09    2.92144E+03
 1.00000E-08    2.90515E+03
 1.50000E-08    2.89876E+03
 2.00000E-08    2.89528E+03
 2.50000E-08    2.89313E+03
 3.00000E-08    2.89169E+03
 3.50000E-08    2.89033E+03
 4.20000E-08    2.88935E+03
 5.00000E-08    2.88833E+03
 5.80000E-08    2.88769E+03
 6.70000E-08    2.88718E+03
 8.00000E-08    2.88642E+03
 1.00000E-07    2.88566E+03
 1.40000E-07    2.88516E+03
 1.80000E-07    2.88467E+03
 2.20000E-07    2.88432E+03
 2.50000E-07    2.88424E+03
 2.80000E-07    2.88419E+03
 3.00000E-07    2.88414E+03
 3.20000E-07    2.88409E+03
 3.50000E-07    2.88400E+03
 4.00000E-07    2.88384E+03
 5.00000E-07    2.88359E+03
 6.25000E-07    2.88328E+03
 7.80000E-07    2.88303E+03
 8.50000E-07    2.88289E+03
 9.10000E-07    2.88281E+03
 9.50000E-07    2.88279E+03
 9.72000E-07    2.88277E+03
 9.96000E-07    2.88275E+03
 1.02000E-06    2.88273E+03
 1.04500E-06    2.88271E+03
 1.07100E-06    2.88269E+03
 1.09700E-06    2.88267E+03
 1.12300E-06    2.88264E+03
 1.15000E-06    2.88257E+03
 1.30000E-06    2.88243E+03
 1.50000E-06    2.88212E+03
 2.10000E-06    2.88167E+03
 2.60000E-06    2.88118E+03
 3.30000E-06    2.88061E+03
 4.00000E-06    2.87829E+03
 9.87700E-06    2.87327E+03
 1.59680E-05    2.86627E+03
 2.77000E-05    2.85356E+03
 4.80520E-05    2.83423E+03
 7.55014E-05    2.79814E+03
 1.48728E-04    2.71888E+03
 3.67262E-04    2.57791E+03
 9.06898E-04    2.44037E+03
 1.42510E-03    2.31133E+03
 2.23945E-03    3.01149E+03
 3.51910E-03    2.02753E+03
 5.53000E-03    1.77522E+03
 9.11800E-03    9.33473E+03
 1.50300E-02    1.33044E+04
 2.47800E-02    6.99507E+03
 4.08500E-02    6.71994E+03
 6.73400E-02    4.67497E+03
 1.11000E-01    4.35242E+03
 1.83000E-01    5.30198E+03
 3.02000E-01    5.68877E+03
 5.00000E-01    6.49699E+03
 8.21000E-01    7.50658E+03
 1.35300E+00    6.83970E+03
 2.23100E+00    3.91989E+03
 3.67900E+00    2.30787E+03
 6.06500E+00    2.04488E+03
