# n + Ce140 : (n,n'02)  
# jendl4.0   S.Kunieda, A.Ichihara, K.Shibata+ EVAL-FEB10
# uncertainties: n
# # energies =    35
#   E(MeV)       xs(mb) 
 1.91703E+00    0.00000E+00
 2.00000E+00    7.58600E+01
 2.20000E+00    1.18900E+02
 2.40000E+00    1.42500E+02
 2.60000E+00    1.84700E+02
 2.80000E+00    1.65700E+02
 3.00000E+00    1.38800E+02
 3.25000E+00    1.07100E+02
 3.50000E+00    8.02000E+01
 3.75000E+00    5.39200E+01
 4.00000E+00    3.98300E+01
 4.25000E+00    2.91800E+01
 4.50000E+00    2.09300E+01
 4.75000E+00    1.46700E+01
 5.00000E+00    1.06000E+01
 5.50000E+00    6.15100E+00
 6.00000E+00    3.46000E+00
 6.50000E+00    2.59800E+00
 7.00000E+00    1.70000E+00
 7.50000E+00    1.70200E+00
 8.00000E+00    1.24000E+00
 8.50000E+00    1.43300E+00
 9.00000E+00    1.07500E+00
 9.50000E+00    1.29700E+00
 1.00000E+01    9.70800E-01
 1.10000E+01    8.79100E-01
 1.20000E+01    8.01400E-01
 1.30000E+01    7.40000E-01
 1.40000E+01    6.94200E-01
 1.50000E+01    6.61600E-01
 1.60000E+01    6.38700E-01
 1.70000E+01    6.22900E-01
 1.80000E+01    6.10200E-01
 1.90000E+01    5.99100E-01
 2.00000E+01    5.88700E-01
