# n + Re186m: (n,n'29)  
# tendl.2019 A.J. Koning and D. Rochman        EVAL-NOV19
# uncertainties: n
# # energies =    72
#   E(MeV)       xs(mb) 
 4.13205E-01    0.00000E+00
 4.15240E-01    8.72424E-02
 5.00000E-01    3.72100E+00
 6.00000E-01    6.88269E+00
 7.00000E-01    9.30086E+00
 8.00000E-01    1.03476E+01
 9.00000E-01    1.02712E+01
 1.00000E+00    9.53166E+00
 1.20000E+00    7.44128E+00
 1.40000E+00    5.51767E+00
 1.60000E+00    4.06624E+00
 1.80000E+00    3.02998E+00
 2.00000E+00    2.29170E+00
 2.20000E+00    1.75503E+00
 2.40000E+00    1.35369E+00
 2.60000E+00    1.04571E+00
 2.80000E+00    8.05797E-01
 3.00000E+00    6.18086E-01
 3.20000E+00    4.71878E-01
 3.40000E+00    3.58685E-01
 3.60000E+00    2.71712E-01
 3.80000E+00    2.05394E-01
 4.00000E+00    1.55091E-01
 4.20000E+00    1.16956E-01
 4.40000E+00    8.80131E-02
 4.60000E+00    6.59724E-02
 4.80000E+00    4.92783E-02
 5.00000E+00    3.66598E-02
 5.20000E+00    2.71095E-02
 5.40000E+00    1.99891E-02
 5.60000E+00    1.46761E-02
 5.80000E+00    1.07449E-02
 6.00000E+00    7.85025E-03
 6.20000E+00    5.72521E-03
 6.40000E+00    4.17315E-03
 6.60000E+00    3.04095E-03
 6.80000E+00    2.21754E-03
 7.00000E+00    1.61875E-03
 7.20000E+00    1.18411E-03
 7.40000E+00    8.68344E-04
 7.60000E+00    6.38759E-04
 7.80000E+00    4.71574E-04
 8.00000E+00    3.49388E-04
 8.50000E+00    1.68172E-04
 9.00000E+00    8.30211E-05
 9.50000E+00    4.19093E-05
 1.00000E+01    2.15463E-05
 1.05000E+01    1.12381E-05
 1.10000E+01    5.93175E-06
 1.15000E+01    3.16382E-06
 1.20000E+01    1.70465E-06
 1.25000E+01    9.28310E-07
 1.30000E+01    5.10920E-07
 1.35000E+01    2.84240E-07
 1.40000E+01    1.59840E-07
 1.45000E+01    9.08300E-08
 1.50000E+01    5.21280E-08
 1.60000E+01    1.76420E-08
 1.70000E+01    6.14950E-09
 1.80000E+01    2.18190E-09
 1.90000E+01    7.93840E-10
 2.00000E+01    2.93900E-10
 2.10000E+01    1.10990E-10
 2.20000E+01    4.28210E-11
 2.30000E+01    1.68970E-11
 2.40000E+01    6.82430E-12
 2.50000E+01    2.80350E-12
 2.60000E+01    1.17210E-12
 2.70000E+01    4.97420E-13
 2.80000E+01    2.14050E-13
 2.90000E+01    9.31640E-14
 3.00000E+01    4.10080E-14
