# n + Re186m: (n,n'23)  
# tendl.2019 A.J. Koning and D. Rochman        EVAL-NOV19
# uncertainties: n
# # energies =    79
#   E(MeV)       xs(mb) 
 3.30111E-01    0.00000E+00
 3.36964E-01    1.71467E-04
 3.50182E-01    5.02190E-04
 3.53630E-01    5.88461E-04
 3.87460E-01    1.43491E-03
 4.00000E-01    1.74867E-03
 4.02501E-01    1.85561E-03
 4.13205E-01    2.38254E-03
 4.15240E-01    2.49666E-03
 5.00000E-01    1.46424E-02
 6.00000E-01    4.26032E-02
 7.00000E-01    8.29371E-02
 8.00000E-01    1.30394E-01
 9.00000E-01    1.79881E-01
 1.00000E+00    2.27145E-01
 1.20000E+00    3.05691E-01
 1.40000E+00    3.55146E-01
 1.60000E+00    3.75297E-01
 1.80000E+00    3.70802E-01
 2.00000E+00    3.48028E-01
 2.20000E+00    3.13618E-01
 2.40000E+00    2.73404E-01
 2.60000E+00    2.31976E-01
 2.80000E+00    1.92596E-01
 3.00000E+00    1.57219E-01
 3.20000E+00    1.26733E-01
 3.40000E+00    1.01147E-01
 3.60000E+00    8.00476E-02
 3.80000E+00    6.28693E-02
 4.00000E+00    4.90189E-02
 4.20000E+00    3.79272E-02
 4.40000E+00    2.91059E-02
 4.60000E+00    2.21388E-02
 4.80000E+00    1.67386E-02
 5.00000E+00    1.25628E-02
 5.20000E+00    9.37796E-03
 5.40000E+00    6.98059E-03
 5.60000E+00    5.17926E-03
 5.80000E+00    3.83898E-03
 6.00000E+00    2.84537E-03
 6.20000E+00    2.10993E-03
 6.40000E+00    1.56698E-03
 6.60000E+00    1.16630E-03
 6.80000E+00    8.70185E-04
 7.00000E+00    6.51287E-04
 7.20000E+00    4.89025E-04
 7.40000E+00    3.68493E-04
 7.60000E+00    2.78772E-04
 7.80000E+00    2.11636E-04
 8.00000E+00    1.61252E-04
 8.50000E+00    8.29226E-05
 9.00000E+00    4.33709E-05
 9.50000E+00    2.29498E-05
 1.00000E+01    1.22357E-05
 1.05000E+01    6.55659E-06
 1.10000E+01    3.52965E-06
 1.15000E+01    1.91013E-06
 1.20000E+01    1.04056E-06
 1.25000E+01    5.71660E-07
 1.30000E+01    3.16960E-07
 1.35000E+01    1.77490E-07
 1.40000E+01    1.00410E-07
 1.45000E+01    5.73760E-08
 1.50000E+01    3.31050E-08
 1.60000E+01    1.13180E-08
 1.70000E+01    3.98300E-09
 1.80000E+01    1.42520E-09
 1.90000E+01    5.22030E-10
 2.00000E+01    1.94220E-10
 2.10000E+01    7.36170E-11
 2.20000E+01    2.84860E-11
 2.30000E+01    1.12700E-11
 2.40000E+01    4.56230E-12
 2.50000E+01    1.87780E-12
 2.60000E+01    7.86140E-13
 2.70000E+01    3.33850E-13
 2.80000E+01    1.43710E-13
 2.90000E+01    6.25590E-14
 3.00000E+01    2.75420E-14
