# n + Re186m: (n,n'22)  
# tendl.2019 A.J. Koning and D. Rochman        EVAL-NOV19
# uncertainties: n
# # energies =    80
#   E(MeV)       xs(mb) 
 3.22519E-01    0.00000E+00
 3.30111E-01    2.12466E-02
 3.36964E-01    4.04252E-02
 3.50182E-01    7.74165E-02
 3.53630E-01    8.70659E-02
 3.87460E-01    1.81741E-01
 4.00000E-01    2.16835E-01
 4.02501E-01    2.23060E-01
 4.13205E-01    2.51293E-01
 4.15240E-01    2.56962E-01
 5.00000E-01    5.97287E-01
 6.00000E-01    9.39790E-01
 7.00000E-01    1.18830E+00
 8.00000E-01    1.35107E+00
 9.00000E-01    1.44956E+00
 1.00000E+00    1.50035E+00
 1.20000E+00    1.51170E+00
 1.40000E+00    1.44322E+00
 1.60000E+00    1.32527E+00
 1.80000E+00    1.17774E+00
 2.00000E+00    1.01634E+00
 2.20000E+00    8.54268E-01
 2.40000E+00    7.01359E-01
 2.60000E+00    5.64120E-01
 2.80000E+00    4.45994E-01
 3.00000E+00    3.47777E-01
 3.20000E+00    2.68432E-01
 3.40000E+00    2.05573E-01
 3.60000E+00    1.56470E-01
 3.80000E+00    1.18527E-01
 4.00000E+00    8.94316E-02
 4.20000E+00    6.72113E-02
 4.40000E+00    5.02919E-02
 4.60000E+00    3.74439E-02
 4.80000E+00    2.77954E-02
 5.00000E+00    2.05398E-02
 5.20000E+00    1.51329E-02
 5.40000E+00    1.11353E-02
 5.60000E+00    8.17891E-03
 5.80000E+00    6.00749E-03
 6.00000E+00    4.41495E-03
 6.20000E+00    3.24750E-03
 6.40000E+00    2.39331E-03
 6.60000E+00    1.76770E-03
 6.80000E+00    1.30900E-03
 7.00000E+00    9.72414E-04
 7.20000E+00    7.24691E-04
 7.40000E+00    5.42050E-04
 7.60000E+00    4.07045E-04
 7.80000E+00    3.06770E-04
 8.00000E+00    2.32077E-04
 8.50000E+00    1.17333E-04
 9.00000E+00    6.04403E-05
 9.50000E+00    3.15651E-05
 1.00000E+01    1.66449E-05
 1.05000E+01    8.83854E-06
 1.10000E+01    4.72242E-06
 1.15000E+01    2.53951E-06
 1.20000E+01    1.37593E-06
 1.25000E+01    7.52300E-07
 1.30000E+01    4.15330E-07
 1.35000E+01    2.31650E-07
 1.40000E+01    1.30570E-07
 1.45000E+01    7.43590E-08
 1.50000E+01    4.27680E-08
 1.60000E+01    1.45400E-08
 1.70000E+01    5.09340E-09
 1.80000E+01    1.81580E-09
 1.90000E+01    6.63120E-10
 2.00000E+01    2.46130E-10
 2.10000E+01    9.31070E-11
 2.20000E+01    3.59680E-11
 2.30000E+01    1.42110E-11
 2.40000E+01    5.74660E-12
 2.50000E+01    2.36320E-12
 2.60000E+01    9.88650E-13
 2.70000E+01    4.19630E-13
 2.80000E+01    1.80560E-13
 2.90000E+01    7.85740E-14
 3.00000E+01    3.45860E-14
