# n + Re186m: (n,n'27)  
# tendl.2019 A.J. Koning and D. Rochman        EVAL-NOV19
# uncertainties: n
# # energies =    75
#   E(MeV)       xs(mb) 
 3.87460E-01    0.00000E+00
 4.00000E-01    2.06948E-02
 4.02501E-01    2.22932E-02
 4.13205E-01    3.04954E-02
 4.15240E-01    3.23372E-02
 5.00000E-01    2.96919E-01
 6.00000E-01    6.26965E-01
 7.00000E-01    8.99516E-01
 8.00000E-01    1.09403E+00
 9.00000E-01    1.22165E+00
 1.00000E+00    1.29711E+00
 1.20000E+00    1.34655E+00
 1.40000E+00    1.30800E+00
 1.60000E+00    1.21579E+00
 1.80000E+00    1.09092E+00
 2.00000E+00    9.49178E-01
 2.20000E+00    8.03592E-01
 2.40000E+00    6.64004E-01
 2.60000E+00    5.37068E-01
 2.80000E+00    4.26623E-01
 3.00000E+00    3.33976E-01
 3.20000E+00    2.58588E-01
 3.40000E+00    1.98519E-01
 3.60000E+00    1.51394E-01
 3.80000E+00    1.14868E-01
 4.00000E+00    8.68035E-02
 4.20000E+00    6.53404E-02
 4.40000E+00    4.89849E-02
 4.60000E+00    3.65396E-02
 4.80000E+00    2.71662E-02
 5.00000E+00    2.01247E-02
 5.20000E+00    1.48501E-02
 5.40000E+00    1.09453E-02
 5.60000E+00    8.05107E-03
 5.80000E+00    5.92071E-03
 6.00000E+00    4.35546E-03
 6.20000E+00    3.20670E-03
 6.40000E+00    2.36489E-03
 6.60000E+00    1.74773E-03
 6.80000E+00    1.29500E-03
 7.00000E+00    9.62205E-04
 7.20000E+00    7.17356E-04
 7.40000E+00    5.36668E-04
 7.60000E+00    4.03032E-04
 7.80000E+00    3.03806E-04
 8.00000E+00    2.29823E-04
 8.50000E+00    1.16217E-04
 9.00000E+00    5.98870E-05
 9.50000E+00    3.12940E-05
 1.00000E+01    1.65140E-05
 1.05000E+01    8.77597E-06
 1.10000E+01    4.69245E-06
 1.15000E+01    2.52497E-06
 1.20000E+01    1.36871E-06
 1.25000E+01    7.48610E-07
 1.30000E+01    4.13380E-07
 1.35000E+01    2.30600E-07
 1.40000E+01    1.29980E-07
 1.45000E+01    7.40280E-08
 1.50000E+01    4.25790E-08
 1.60000E+01    1.44780E-08
 1.70000E+01    5.07300E-09
 1.80000E+01    1.80920E-09
 1.90000E+01    6.60990E-10
 2.00000E+01    2.45430E-10
 2.10000E+01    9.28680E-11
 2.20000E+01    3.58810E-11
 2.30000E+01    1.41770E-11
 2.40000E+01    5.73320E-12
 2.50000E+01    2.35780E-12
 2.60000E+01    9.86510E-13
 2.70000E+01    4.18770E-13
 2.80000E+01    1.80220E-13
 2.90000E+01    7.84380E-14
 3.00000E+01    3.45310E-14
