# n + Re186m: (n,n'24)  
# tendl.2019 A.J. Koning and D. Rochman        EVAL-NOV19
# uncertainties: n
# # energies =    78
#   E(MeV)       xs(mb) 
 3.36964E-01    0.00000E+00
 3.50182E-01    3.92755E-02
 3.53630E-01    4.95208E-02
 3.87460E-01    1.50042E-01
 4.00000E-01    1.87303E-01
 4.02501E-01    1.96729E-01
 4.13205E-01    2.41912E-01
 4.15240E-01    2.51457E-01
 5.00000E-01    1.08623E+00
 6.00000E-01    2.07987E+00
 7.00000E-01    2.72007E+00
 8.00000E-01    2.96895E+00
 9.00000E-01    2.94977E+00
 1.00000E+00    2.78087E+00
 1.20000E+00    2.30382E+00
 1.40000E+00    1.85029E+00
 1.60000E+00    1.48835E+00
 1.80000E+00    1.20936E+00
 2.00000E+00    9.90702E-01
 2.20000E+00    8.13784E-01
 2.40000E+00    6.66298E-01
 2.60000E+00    5.41338E-01
 2.80000E+00    4.35487E-01
 3.00000E+00    3.46855E-01
 3.20000E+00    2.73975E-01
 3.40000E+00    2.14951E-01
 3.60000E+00    1.67756E-01
 3.80000E+00    1.30388E-01
 4.00000E+00    1.00988E-01
 4.20000E+00    7.78864E-02
 4.40000E+00    5.97391E-02
 4.60000E+00    4.54798E-02
 4.80000E+00    3.44318E-02
 5.00000E+00    2.58598E-02
 5.20000E+00    1.92881E-02
 5.40000E+00    1.43220E-02
 5.60000E+00    1.05716E-02
 5.80000E+00    7.77778E-03
 6.00000E+00    5.70636E-03
 6.20000E+00    4.17752E-03
 6.40000E+00    3.05573E-03
 6.60000E+00    2.23440E-03
 6.80000E+00    1.63465E-03
 7.00000E+00    1.19753E-03
 7.20000E+00    8.78978E-04
 7.40000E+00    6.46875E-04
 7.60000E+00    4.77760E-04
 7.80000E+00    3.54074E-04
 8.00000E+00    2.63459E-04
 8.50000E+00    1.28168E-04
 9.00000E+00    6.39418E-05
 9.50000E+00    3.25933E-05
 1.00000E+01    1.69007E-05
 1.05000E+01    8.87997E-06
 1.10000E+01    4.71658E-06
 1.15000E+01    2.52947E-06
 1.20000E+01    1.36952E-06
 1.25000E+01    7.49130E-07
 1.30000E+01    4.14010E-07
 1.35000E+01    2.31220E-07
 1.40000E+01    1.30500E-07
 1.45000E+01    7.44080E-08
 1.50000E+01    4.28380E-08
 1.60000E+01    1.45770E-08
 1.70000E+01    5.10360E-09
 1.80000E+01    1.81700E-09
 1.90000E+01    6.62790E-10
 2.00000E+01    2.45880E-10
 2.10000E+01    9.30170E-11
 2.20000E+01    3.59390E-11
 2.30000E+01    1.42000E-11
 2.40000E+01    5.74150E-12
 2.50000E+01    2.36080E-12
 2.60000E+01    9.87690E-13
 2.70000E+01    4.19340E-13
 2.80000E+01    1.80510E-13
 2.90000E+01    7.85810E-14
 3.00000E+01    3.45940E-14
