# n + Sn117 : (n,n'19)  
# tendl.2019 A.J. Koning and D. Rochman        EVAL-NOV19
# uncertainties: n
# # energies =    73
#   E(MeV)       xs(mb) 
 1.60685E+00    0.00000E+00
 1.63942E+00    4.33186E-03
 1.64205E+00    4.68165E-03
 1.68259E+00    1.00735E-02
 1.72475E+00    1.56809E-02
 1.78527E+00    2.37301E-02
 1.80000E+00    2.56892E-02
 1.82562E+00    3.35050E-02
 1.89067E+00    5.33493E-02
 1.92648E+00    6.42737E-02
 1.96481E+00    7.59668E-02
 2.00000E+00    8.67020E-02
 2.02432E+00    1.02651E-01
 2.06365E+00    1.28445E-01
 2.20000E+00    2.17865E-01
 2.40000E+00    4.42334E-01
 2.60000E+00    7.57688E-01
 2.80000E+00    1.13085E+00
 3.00000E+00    1.50179E+00
 3.20000E+00    1.80418E+00
 3.40000E+00    1.98871E+00
 3.60000E+00    2.03833E+00
 3.80000E+00    1.96791E+00
 4.00000E+00    1.81145E+00
 4.20000E+00    1.60700E+00
 4.40000E+00    1.38684E+00
 4.60000E+00    1.17317E+00
 4.80000E+00    9.78555E-01
 5.00000E+00    8.08411E-01
 5.20000E+00    6.63341E-01
 5.40000E+00    5.41715E-01
 5.60000E+00    4.40837E-01
 5.80000E+00    3.57593E-01
 6.00000E+00    2.89533E-01
 6.20000E+00    2.34396E-01
 6.40000E+00    1.89251E-01
 6.60000E+00    1.52508E-01
 6.80000E+00    1.22899E-01
 7.00000E+00    9.92735E-02
 7.20000E+00    8.02237E-02
 7.40000E+00    6.48402E-02
 7.60000E+00    5.24967E-02
 7.80000E+00    4.24754E-02
 8.00000E+00    3.44324E-02
 8.50000E+00    2.04410E-02
 9.00000E+00    1.22280E-02
 9.50000E+00    7.37324E-03
 1.00000E+01    4.48020E-03
 1.05000E+01    2.74084E-03
 1.10000E+01    1.68648E-03
 1.15000E+01    1.04302E-03
 1.20000E+01    6.47823E-04
 1.25000E+01    4.03840E-04
 1.30000E+01    2.52616E-04
 1.35000E+01    1.58556E-04
 1.40000E+01    9.98444E-05
 1.45000E+01    6.31125E-05
 1.50000E+01    4.00631E-05
 1.60000E+01    1.63735E-05
 1.70000E+01    6.83497E-06
 1.80000E+01    2.92069E-06
 1.90000E+01    1.27811E-06
 2.00000E+01    5.72310E-07
 2.10000E+01    2.60320E-07
 2.20000E+01    1.20670E-07
 2.30000E+01    5.67070E-08
 2.40000E+01    2.69250E-08
 2.50000E+01    1.29220E-08
 2.60000E+01    6.26850E-09
 2.70000E+01    3.07800E-09
 2.80000E+01    1.53040E-09
 2.90000E+01    7.69970E-10
 3.00000E+01    3.91960E-10
