# n + U 235 : (n,tot)   
# jendl.ad   O.Iwamoto,N.Otuka,S.Chiba,+       EVAL-OCT09
# uncertainties: n
# # energies =   171
#   E(MeV)       xs(mb) 
 1.00000E-11    8.00577E+06
 1.00000E-07    2.23431E+05
 4.13990E-07    1.03219E+05
 5.31580E-07    7.48205E+04
 6.82560E-07    6.26817E+04
 8.76420E-07    8.54460E+04
 1.12540E-06    5.89749E+04
 1.44500E-06    1.81755E+04
 1.85540E-06    2.87788E+04
 2.37240E-06    1.70798E+04
 3.05900E-06    4.88937E+04
 3.92790E-06    2.49752E+04
 5.04350E-06    6.96255E+04
 6.47600E-06    3.17106E+04
 8.31530E-06    1.42921E+05
 1.06770E-05    1.13733E+05
 1.37100E-05    5.03754E+04
 1.76030E-05    1.09630E+05
 2.26030E-05    6.56033E+04
 2.92030E-05    9.36964E+04
 3.72670E-05    5.27421E+04
 4.78510E-05    7.95754E+04
 6.14420E-05    3.17498E+04
 7.88930E-05    3.82306E+04
 1.01300E-04    3.32974E+04
 1.30070E-04    3.40623E+04
 1.67020E-04    2.97528E+04
 2.14450E-04    3.28619E+04
 2.75360E-04    2.14012E+04
 3.53580E-04    1.71714E+04
 4.54000E-04    1.85733E+04
 5.82950E-04    1.53120E+04
 7.48520E-04    1.26659E+04
 9.61120E-04    1.21248E+04
 1.23410E-03    9.38198E+03
 1.58460E-03    8.39643E+03
 2.03470E-03    7.92458E+03
 2.24870E-03    7.22878E+03
 2.48520E-03    7.10491E+03
 2.61260E-03    7.01956E+03
 2.74650E-03    6.89175E+03
 3.03540E-03    6.71974E+03
 3.35460E-03    6.54533E+03
 3.70740E-03    6.27596E+03
 4.30740E-03    5.52142E+03
 5.53080E-03    4.57863E+03
 7.10170E-03    4.28623E+03
 9.11880E-03    3.90762E+03
 1.17090E-02    3.53208E+03
 1.50340E-02    3.22600E+03
 1.93050E-02    3.03349E+03
 2.18750E-02    2.96235E+03
 2.35790E-02    2.92740E+03
 2.41760E-02    2.90934E+03
 2.47880E-02    2.88080E+03
 2.60580E-02    2.84634E+03
 2.70000E-02    2.80937E+03
 2.85000E-02    2.73749E+03
 3.18280E-02    2.63795E+03
 3.43070E-02    2.50462E+03
 4.08680E-02    2.43852E+03
 4.63090E-02    2.41086E+03
 5.24750E-02    2.39159E+03
 5.65620E-02    2.27843E+03
 6.73790E-02    2.17420E+03
 7.20000E-02    2.10444E+03
 7.95000E-02    2.05231E+03
 8.25000E-02    2.04084E+03
 8.65170E-02    2.01756E+03
 9.80370E-02    1.96999E+03
 1.11090E-01    1.91838E+03
 1.16790E-01    1.88813E+03
 1.22770E-01    1.86008E+03
 1.29070E-01    1.83202E+03
 1.35690E-01    1.80330E+03
 1.42640E-01    1.77389E+03
 1.49960E-01    1.75230E+03
 1.57640E-01    1.73960E+03
 1.65730E-01    1.72675E+03
 1.74220E-01    1.71418E+03
 1.83160E-01    1.70130E+03
 1.92550E-01    1.68787E+03
 2.02420E-01    1.65858E+03
 2.12800E-01    1.62175E+03
 2.23710E-01    1.58528E+03
 2.35180E-01    1.54789E+03
 2.47240E-01    1.50701E+03
 2.73240E-01    1.48077E+03
 2.87250E-01    1.46768E+03
 2.94520E-01    1.46158E+03
 2.97200E-01    1.45914E+03
 2.98500E-01    1.45669E+03
 3.01970E-01    1.45004E+03
 3.33730E-01    1.43505E+03
 3.68830E-01    1.40693E+03
 3.87740E-01    1.38486E+03
 4.07620E-01    1.34559E+03
 4.50490E-01    1.31005E+03
 4.97870E-01    1.29956E+03
 5.23400E-01    1.29618E+03
 5.50230E-01    1.28861E+03
 5.78440E-01    1.27658E+03
 6.08100E-01    1.26925E+03
 6.39280E-01    1.26364E+03
 6.72060E-01    1.25772E+03
 7.06510E-01    1.25095E+03
 7.42740E-01    1.24360E+03
 7.80820E-01    1.23868E+03
 8.20850E-01    1.24853E+03
 8.62940E-01    1.26191E+03
 9.07180E-01    1.28138E+03
 9.61640E-01    1.30244E+03
 1.00260E+00    1.30215E+03
 1.10800E+00    1.29036E+03
 1.16480E+00    1.28370E+03
 1.22460E+00    1.28644E+03
 1.28730E+00    1.29246E+03
 1.35340E+00    1.29993E+03
 1.42270E+00    1.30776E+03
 1.49570E+00    1.31373E+03
 1.57240E+00    1.31727E+03
 1.65300E+00    1.32117E+03
 1.73770E+00    1.32550E+03
 1.82680E+00    1.33024E+03
 1.92050E+00    1.33527E+03
 2.01900E+00    1.33102E+03
 2.12250E+00    1.32220E+03
 2.23130E+00    1.31504E+03
 2.30690E+00    1.31066E+03
 2.34570E+00    1.30840E+03
 2.36530E+00    1.30691E+03
 2.38520E+00    1.30322E+03
 2.46600E+00    1.29283E+03
 2.59240E+00    1.27268E+03
 2.72530E+00    1.25162E+03
 2.86500E+00    1.23014E+03
 3.01190E+00    1.20951E+03
 3.16640E+00    1.18942E+03
 3.32870E+00    1.16086E+03
 3.67880E+00    1.12772E+03
 4.06570E+00    1.10302E+03
 4.49330E+00    1.08349E+03
 4.72370E+00    1.06463E+03
 4.96590E+00    1.04320E+03
 5.22050E+00    1.01794E+03
 5.48810E+00    1.02032E+03
 5.76950E+00    1.05958E+03
 6.06530E+00    1.15665E+03
 6.37630E+00    1.28201E+03
 6.59240E+00    1.48495E+03
 6.70320E+00    1.78222E+03
 7.04690E+00    2.03426E+03
 7.40820E+00    2.19965E+03
 7.78800E+00    2.31248E+03
 8.18730E+00    2.36294E+03
 8.60710E+00    2.39775E+03
 9.04840E+00    2.43953E+03
 9.51230E+00    2.48568E+03
 1.00000E+01    2.51617E+03
 1.05130E+01    2.53231E+03
 1.10520E+01    2.53894E+03
 1.16180E+01    2.51085E+03
 1.22140E+01    2.51706E+03
 1.28400E+01    2.53914E+03
 1.34990E+01    2.58902E+03
 1.38400E+01    2.62831E+03
 1.41910E+01    2.63566E+03
 1.45500E+01    2.64914E+03
 1.49180E+01    2.65146E+03
 1.56830E+01    2.63269E+03
 1.64870E+01    2.61978E+03
