# n + Sr 84 : (n,el)    
# jeff3.3    A.J. Koning and D. Rochman        EVAL-DEC15
# uncertainties: y
# # energies =    69
#   E(MeV)       xs(mb)       xslow(mb)      xsupp(mb)
 1.00000E-10    6.62757E+03    6.62757E+03    6.62757E+03
 5.00000E-09    5.05615E+03    5.05615E+03    5.05615E+03
 1.00000E-08    5.00951E+03    5.00951E+03    5.00951E+03
 1.50000E-08    4.99123E+03    4.99123E+03    4.99123E+03
 2.00000E-08    4.98135E+03    4.98135E+03    4.98135E+03
 2.50000E-08    4.97519E+03    4.97519E+03    4.97519E+03
 3.00000E-08    4.97081E+03    4.97081E+03    4.97081E+03
 3.50000E-08    4.96740E+03    4.96740E+03    4.96740E+03
 4.20000E-08    4.96395E+03    4.96395E+03    4.96395E+03
 5.00000E-08    4.96172E+03    4.96172E+03    4.96172E+03
 5.80000E-08    4.95965E+03    4.95965E+03    4.95965E+03
 6.70000E-08    4.95778E+03    4.95778E+03    4.95778E+03
 8.00000E-08    4.95606E+03    4.95606E+03    4.95606E+03
 1.00000E-07    4.95376E+03    4.95376E+03    4.95376E+03
 1.40000E-07    4.95219E+03    4.95219E+03    4.95219E+03
 1.80000E-07    4.95080E+03    4.95080E+03    4.95080E+03
 2.20000E-07    4.95026E+03    4.95026E+03    4.95026E+03
 2.50000E-07    4.94995E+03    4.94995E+03    4.94995E+03
 2.80000E-07    4.94969E+03    4.94969E+03    4.94969E+03
 3.00000E-07    4.94948E+03    4.94948E+03    4.94948E+03
 3.20000E-07    4.94923E+03    4.94923E+03    4.94923E+03
 3.50000E-07    4.94882E+03    4.94882E+03    4.94882E+03
 4.00000E-07    4.94805E+03    4.94805E+03    4.94805E+03
 5.00000E-07    4.94732E+03    4.94732E+03    4.94732E+03
 6.25000E-07    4.94685E+03    4.94685E+03    4.94685E+03
 7.80000E-07    4.94646E+03    4.94646E+03    4.94646E+03
 8.50000E-07    4.94623E+03    4.94623E+03    4.94623E+03
 9.10000E-07    4.94606E+03    4.94606E+03    4.94606E+03
 9.50000E-07    4.94596E+03    4.94596E+03    4.94596E+03
 9.72000E-07    4.94588E+03    4.94588E+03    4.94588E+03
 9.96000E-07    4.94580E+03    4.94580E+03    4.94580E+03
 1.02000E-06    4.94571E+03    4.94571E+03    4.94571E+03
 1.04500E-06    4.94563E+03    4.94563E+03    4.94563E+03
 1.07100E-06    4.94554E+03    4.94554E+03    4.94554E+03
 1.09700E-06    4.94545E+03    4.94545E+03    4.94545E+03
 1.12300E-06    4.94536E+03    4.94536E+03    4.94536E+03
 1.15000E-06    4.94506E+03    4.94506E+03    4.94506E+03
 1.30000E-06    4.94447E+03    4.94447E+03    4.94447E+03
 1.50000E-06    4.94316E+03    4.94316E+03    4.94316E+03
 2.10000E-06    4.94126E+03    4.94126E+03    4.94126E+03
 2.60000E-06    4.93925E+03    4.93925E+03    4.93925E+03
 3.30000E-06    4.93700E+03    4.93700E+03    4.93700E+03
 4.00000E-06    4.92789E+03    4.92789E+03    4.92789E+03
 9.87700E-06    4.90822E+03    4.90822E+03    4.90822E+03
 1.59680E-05    4.88079E+03    4.88079E+03    4.88079E+03
 2.77000E-05    4.83099E+03    4.83099E+03    4.83099E+03
 4.80520E-05    4.75386E+03    4.75386E+03    4.75386E+03
 7.55014E-05    4.56355E+03    4.56355E+03    4.56355E+03
 1.48728E-04    3.53816E+04    3.53816E+04    3.53816E+04
 3.67262E-04    1.59475E+04    1.59475E+04    1.59475E+04
 9.06898E-04    5.72028E+03    5.72028E+03    5.72028E+03
 1.42510E-03    6.62723E+03    6.62723E+03    6.62723E+03
 2.23945E-03    1.36631E+04    1.36631E+04    1.36631E+04
 3.51910E-03    9.55939E+03    9.55939E+03    9.55939E+03
 5.53000E-03    1.14626E+04    1.14626E+04    1.14626E+04
 9.11800E-03    7.59920E+03    7.59920E+03    7.59920E+03
 1.50300E-02    9.06652E+03    9.06652E+03    9.06652E+03
 2.47800E-02    8.04031E+03    8.04031E+03    8.04031E+03
 4.08500E-02    7.77063E+03    6.84020E+03    8.70106E+03
 6.73400E-02    7.71277E+03    6.78927E+03    8.63628E+03
 1.11000E-01    7.66436E+03    6.74665E+03    8.58207E+03
 1.83000E-01    7.56156E+03    6.65616E+03    8.46696E+03
 3.02000E-01    7.18222E+03    5.78552E+03    8.57891E+03
 5.00000E-01    6.35501E+03    5.11918E+03    7.59085E+03
 8.21000E-01    4.62133E+03    3.76642E+03    5.47624E+03
 1.35300E+00    2.94404E+03    2.48358E+03    3.40449E+03
 2.23100E+00    1.96300E+03    1.79354E+03    2.13247E+03
 3.67900E+00    1.85417E+03    1.61097E+03    2.09737E+03
 6.06500E+00    2.20049E+03    1.98733E+03    2.41364E+03
