# n + Sr 84 : (n,n'10)  
# jeff3.3    A.J. Koning and D. Rochman        EVAL-DEC15
# uncertainties: n
# # energies =    78
#   E(MeV)       xs(mb) 
 2.55535E+00    0.00000E+00
 2.60000E+00    6.21658E+00
 2.62946E+00    9.46092E+00
 2.76813E+00    2.47321E+01
 2.80000E+00    2.82418E+01
 2.80231E+00    2.83770E+01
 2.84162E+00    3.06782E+01
 2.92169E+00    3.53653E+01
 3.00000E+00    3.99494E+01
 3.07781E+00    4.09782E+01
 3.13592E+00    4.17465E+01
 3.19500E+00    4.25277E+01
 3.20000E+00    4.25938E+01
 3.21316E+00    4.24891E+01
 3.29413E+00    4.18449E+01
 3.30989E+00    4.17195E+01
 3.31857E+00    4.16505E+01
 3.37003E+00    4.12411E+01
 3.37196E+00    4.12257E+01
 3.40000E+00    4.10026E+01
 3.49653E+00    3.92588E+01
 3.52985E+00    3.86569E+01
 3.55398E+00    3.82210E+01
 3.60000E+00    3.73897E+01
 3.62124E+00    3.69653E+01
 3.69403E+00    3.55108E+01
 3.72417E+00    3.49086E+01
 3.80000E+00    3.33934E+01
 4.00000E+00    2.79487E+01
 4.20000E+00    2.17491E+01
 4.40000E+00    1.64383E+01
 4.60000E+00    1.23560E+01
 4.80000E+00    9.30560E+00
 5.00000E+00    7.02750E+00
 5.20000E+00    5.31801E+00
 5.40000E+00    4.02942E+00
 5.60000E+00    3.05627E+00
 5.80000E+00    2.32218E+00
 6.00000E+00    1.76692E+00
 6.20000E+00    1.34794E+00
 6.40000E+00    1.03142E+00
 6.60000E+00    7.92176E-01
 6.80000E+00    6.11211E-01
 7.00000E+00    4.73555E-01
 7.20000E+00    3.68705E-01
 7.40000E+00    2.87826E-01
 7.60000E+00    2.25868E-01
 7.80000E+00    1.78394E-01
 8.00000E+00    1.41380E-01
 8.50000E+00    8.08908E-02
 9.00000E+00    4.74557E-02
 9.50000E+00    2.84157E-02
 1.00000E+01    1.72906E-02
 1.05000E+01    1.06574E-02
 1.10000E+01    6.64072E-03
 1.15000E+01    4.17968E-03
 1.20000E+01    2.65533E-03
 1.25000E+01    1.70184E-03
 1.30000E+01    1.09812E-03
 1.35000E+01    7.12870E-04
 1.40000E+01    4.65616E-04
 1.45000E+01    3.05892E-04
 1.50000E+01    2.02012E-04
 1.60000E+01    8.95138E-05
 1.70000E+01    4.05219E-05
 1.80000E+01    1.87483E-05
 1.90000E+01    8.86338E-06
 2.00000E+01    4.28537E-06
 2.10000E+01    2.11059E-06
 2.20000E+01    1.05655E-06
 2.30000E+01    5.31020E-07
 2.40000E+01    2.72240E-07
 2.50000E+01    1.41010E-07
 2.60000E+01    7.36460E-08
 2.70000E+01    3.88510E-08
 2.80000E+01    2.07060E-08
 2.90000E+01    1.11580E-08
 3.00000E+01    6.08610E-09
