# n + Sr 84 : (n,n'08)  
# jeff3.3    A.J. Koning and D. Rochman        EVAL-DEC15
# uncertainties: n
# # energies =    80
#   E(MeV)       xs(mb) 
 2.41873E+00    0.00000E+00
 2.47754E+00    2.00947E+01
 2.55535E+00    4.66815E+01
 2.60000E+00    6.19378E+01
 2.62946E+00    6.65590E+01
 2.76813E+00    8.83110E+01
 2.80000E+00    9.33102E+01
 2.80231E+00    9.34509E+01
 2.84162E+00    9.58448E+01
 2.92169E+00    1.00721E+02
 3.00000E+00    1.05490E+02
 3.07781E+00    1.07150E+02
 3.13592E+00    1.08390E+02
 3.19500E+00    1.09650E+02
 3.20000E+00    1.09757E+02
 3.21316E+00    1.09609E+02
 3.29413E+00    1.08699E+02
 3.30989E+00    1.08522E+02
 3.31857E+00    1.08424E+02
 3.37003E+00    1.07846E+02
 3.37196E+00    1.07824E+02
 3.40000E+00    1.07509E+02
 3.49653E+00    1.04527E+02
 3.52985E+00    1.03497E+02
 3.55398E+00    1.02752E+02
 3.60000E+00    1.01330E+02
 3.62124E+00    1.00248E+02
 3.69403E+00    9.65387E+01
 3.72417E+00    9.50030E+01
 3.80000E+00    9.11391E+01
 4.00000E+00    7.50887E+01
 4.20000E+00    5.73784E+01
 4.40000E+00    4.28538E+01
 4.60000E+00    3.20667E+01
 4.80000E+00    2.42029E+01
 5.00000E+00    1.84230E+01
 5.20000E+00    1.41201E+01
 5.40000E+00    1.08777E+01
 5.60000E+00    8.41372E+00
 5.80000E+00    6.53316E+00
 6.00000E+00    5.08712E+00
 6.20000E+00    3.97426E+00
 6.40000E+00    3.11462E+00
 6.60000E+00    2.44942E+00
 6.80000E+00    1.93318E+00
 7.00000E+00    1.53029E+00
 7.20000E+00    1.21641E+00
 7.40000E+00    9.67478E-01
 7.60000E+00    7.72648E-01
 7.80000E+00    6.19958E-01
 8.00000E+00    4.98315E-01
 8.50000E+00    2.93629E-01
 9.00000E+00    1.76088E-01
 9.50000E+00    1.07221E-01
 1.00000E+01    6.61324E-02
 1.05000E+01    4.12382E-02
 1.10000E+01    2.59611E-02
 1.15000E+01    1.64879E-02
 1.20000E+01    1.05547E-02
 1.25000E+01    6.80653E-03
 1.30000E+01    4.41339E-03
 1.35000E+01    2.87611E-03
 1.40000E+01    1.88452E-03
 1.45000E+01    1.24155E-03
 1.50000E+01    8.22162E-04
 1.60000E+01    3.66415E-04
 1.70000E+01    1.66943E-04
 1.80000E+01    7.77526E-05
 1.90000E+01    3.69608E-05
 2.00000E+01    1.79231E-05
 2.10000E+01    8.82649E-06
 2.20000E+01    4.40906E-06
 2.30000E+01    2.21102E-06
 2.40000E+01    1.13292E-06
 2.50000E+01    5.87940E-07
 2.60000E+01    3.08370E-07
 2.70000E+01    1.63570E-07
 2.80000E+01    8.76710E-08
 2.90000E+01    4.74780E-08
 3.00000E+01    2.59950E-08
