# n + Sr 84 : (n,n'05)  
# jeff3.3    A.J. Koning and D. Rochman        EVAL-DEC15
# uncertainties: n
# # energies =    85
#   E(MeV)       xs(mb) 
 2.08078E+00    0.00000E+00
 2.09650E+00    8.93455E+00
 2.20000E+00    6.77598E+01
 2.32555E+00    1.25699E+02
 2.40000E+00    1.60057E+02
 2.41873E+00    1.63615E+02
 2.47754E+00    1.74785E+02
 2.55535E+00    1.89563E+02
 2.60000E+00    1.98044E+02
 2.62946E+00    1.99177E+02
 2.76813E+00    2.04508E+02
 2.80000E+00    2.05733E+02
 2.80231E+00    2.05641E+02
 2.84162E+00    2.04072E+02
 2.92169E+00    2.00876E+02
 3.00000E+00    1.97751E+02
 3.07781E+00    1.93083E+02
 3.13592E+00    1.89596E+02
 3.19500E+00    1.86052E+02
 3.20000E+00    1.85752E+02
 3.21316E+00    1.84763E+02
 3.29413E+00    1.78680E+02
 3.30989E+00    1.77495E+02
 3.31857E+00    1.76843E+02
 3.37003E+00    1.72977E+02
 3.37196E+00    1.72832E+02
 3.40000E+00    1.70725E+02
 3.49653E+00    1.63810E+02
 3.52985E+00    1.61423E+02
 3.55398E+00    1.59694E+02
 3.60000E+00    1.56397E+02
 3.62124E+00    1.55121E+02
 3.69403E+00    1.50749E+02
 3.72417E+00    1.48938E+02
 3.80000E+00    1.44383E+02
 4.00000E+00    1.21663E+02
 4.20000E+00    9.35397E+01
 4.40000E+00    6.94543E+01
 4.60000E+00    5.12808E+01
 4.80000E+00    3.80049E+01
 5.00000E+00    2.83206E+01
 5.20000E+00    2.12169E+01
 5.40000E+00    1.59710E+01
 5.60000E+00    1.20775E+01
 5.80000E+00    9.18009E+00
 6.00000E+00    7.00920E+00
 6.20000E+00    5.38025E+00
 6.40000E+00    4.15209E+00
 6.60000E+00    3.22020E+00
 6.80000E+00    2.51215E+00
 7.00000E+00    1.96949E+00
 7.20000E+00    1.55175E+00
 7.40000E+00    1.22587E+00
 7.60000E+00    9.73327E-01
 7.80000E+00    7.77162E-01
 8.00000E+00    6.22273E-01
 8.50000E+00    3.64012E-01
 9.00000E+00    2.17303E-01
 9.50000E+00    1.31945E-01
 1.00000E+01    8.12605E-02
 1.05000E+01    5.06582E-02
 1.10000E+01    3.19245E-02
 1.15000E+01    2.03229E-02
 1.20000E+01    1.30556E-02
 1.25000E+01    8.45681E-03
 1.30000E+01    5.51109E-03
 1.35000E+01    3.61027E-03
 1.40000E+01    2.37748E-03
 1.45000E+01    1.57343E-03
 1.50000E+01    1.04591E-03
 1.60000E+01    4.68517E-04
 1.70000E+01    2.13855E-04
 1.80000E+01    9.95595E-05
 1.90000E+01    4.72734E-05
 2.00000E+01    2.29136E-05
 2.10000E+01    1.12942E-05
 2.20000E+01    5.65304E-06
 2.30000E+01    2.84160E-06
 2.40000E+01    1.45903E-06
 2.50000E+01    7.58200E-07
 2.60000E+01    3.97920E-07
 2.70000E+01    2.11100E-07
 2.80000E+01    1.13150E-07
 2.90000E+01    6.12870E-08
 3.00000E+01    3.35710E-08
