# n + Sr 84 : (n,xa)    
# jeff3.3    A.J. Koning and D. Rochman        EVAL-DEC15
# 
# # energies =   126
#   E(MeV)        xs(mb) 
 8.02755E-01    5.74709E-08
 9.00000E-01    7.90350E-08
 1.00000E+00    1.53220E-07
 1.20000E+00    5.56400E-07
 1.40000E+00    2.61597E-06
 1.47141E+00    5.01800E-06
 1.52228E+00    6.72913E-06
 1.60000E+00    9.34341E-06
 1.78894E+00    1.88045E-05
 1.80000E+00    1.93583E-05
 2.00000E+00    6.46255E-05
 2.08078E+00    9.67354E-05
 2.09650E+00    1.02984E-04
 2.20000E+00    1.44125E-04
 2.32555E+00    2.32940E-04
 2.40000E+00    2.85607E-04
 2.41873E+00    3.19699E-04
 2.47754E+00    4.26744E-04
 2.55535E+00    5.68373E-04
 2.60000E+00    6.49644E-04
 2.62946E+00    7.14877E-04
 2.76813E+00    1.02193E-03
 2.80000E+00    1.09250E-03
 2.80231E+00    1.10584E-03
 2.84162E+00    1.33282E-03
 2.92169E+00    1.79517E-03
 3.00000E+00    2.24735E-03
 3.07781E+00    3.05203E-03
 3.13592E+00    3.65297E-03
 3.19500E+00    4.26395E-03
 3.20000E+00    4.31566E-03
 3.21316E+00    4.50272E-03
 3.29413E+00    5.65365E-03
 3.30989E+00    5.87767E-03
 3.31857E+00    6.00105E-03
 3.37003E+00    6.73252E-03
 3.37196E+00    6.75995E-03
 3.40000E+00    7.15852E-03
 3.49653E+00    1.02484E-02
 3.52985E+00    1.13150E-02
 3.55398E+00    1.20874E-02
 3.60000E+00    1.35605E-02
 3.62124E+00    1.44487E-02
 3.69403E+00    1.74924E-02
 3.72417E+00    1.87527E-02
 3.80000E+00    2.19235E-02
 4.00000E+00    3.33342E-02
 4.20000E+00    4.60203E-02
 4.40000E+00    5.65656E-02
 4.60000E+00    7.38914E-02
 4.80000E+00    9.18263E-02
 5.00000E+00    1.13865E-01
 5.20000E+00    1.44190E-01
 5.40000E+00    1.74515E-01
 5.60000E+00    2.15653E-01
 5.80000E+00    2.66176E-01
 6.00000E+00    3.18690E-01
 6.20000E+00    3.88109E-01
 6.40000E+00    4.67496E-01
 6.60000E+00    5.51465E-01
 6.80000E+00    6.71899E-01
 7.00000E+00    7.84062E-01
 7.20000E+00    9.20771E-01
 7.40000E+00    1.09246E+00
 7.60000E+00    1.24137E+00
 7.80000E+00    1.46094E+00
 8.00000E+00    1.69278E+00
 8.50000E+00    2.39012E+00
 9.00000E+00    3.28772E+00
 9.50000E+00    4.41894E+00
 1.00000E+01    5.78878E+00
 1.05000E+01    7.40818E+00
 1.10000E+01    9.27928E+00
 1.15000E+01    1.13911E+01
 1.20000E+01    1.37539E+01
 1.25000E+01    1.63239E+01
 1.30000E+01    1.90368E+01
 1.35000E+01    2.18624E+01
 1.40000E+01    2.48179E+01
 1.45000E+01    2.78760E+01
 1.50000E+01    3.10197E+01
 1.60000E+01    3.78795E+01
 1.70000E+01    4.49233E+01
 1.80000E+01    5.15837E+01
 1.90000E+01    5.75717E+01
 2.00000E+01    6.15829E+01
 2.10000E+01    6.60829E+01
 2.20000E+01    7.02205E+01
 2.30000E+01    7.36321E+01
 2.40000E+01    7.68328E+01
 2.50000E+01    7.96830E+01
 2.60000E+01    8.21492E+01
 2.70000E+01    8.42508E+01
 2.80000E+01    8.60265E+01
 2.90000E+01    8.75660E+01
 3.00000E+01    8.89674E+01
 3.00000E+01    8.86114E+01
 3.20000E+01    9.10026E+01
 3.40000E+01    9.29170E+01
 3.60000E+01    9.44376E+01
 3.80000E+01    9.55391E+01
 4.00000E+01    9.65190E+01
 4.20000E+01    9.72419E+01
 4.40000E+01    9.72045E+01
 4.60000E+01    9.74525E+01
 4.80000E+01    9.75053E+01
 5.00000E+01    9.73282E+01
 5.20000E+01    9.70770E+01
 5.40000E+01    9.67185E+01
 5.60000E+01    9.61769E+01
 5.80000E+01    9.53462E+01
 6.00000E+01    9.48460E+01
 6.50000E+01    9.38850E+01
 7.00000E+01    9.26240E+01
 7.50000E+01    9.05555E+01
 8.00000E+01    9.19261E+01
 9.00000E+01    1.00967E+02
 1.00000E+02    1.11939E+02
 1.10000E+02    1.20714E+02
 1.20000E+02    1.28941E+02
 1.30000E+02    1.36449E+02
 1.40000E+02    1.44888E+02
 1.50000E+02    1.55278E+02
 1.60000E+02    1.67696E+02
 1.80000E+02    1.96787E+02
 2.00000E+02    2.40673E+02
