# n + Ti 49 : (n,xa)    
# jeff3.3    A.J. Koning and D. Rochman        EVAL-DEC15
# 
# # energies =   122
#   E(MeV)        xs(mb) 
 1.41025E+00    6.52130E-10
 1.57393E+00    4.74303E-09
 1.60000E+00    5.39460E-09
 1.61864E+00    8.82979E-09
 1.64318E+00    1.33523E-08
 1.65637E+00    1.57831E-08
 1.75900E+00    3.46970E-08
 1.79832E+00    4.19434E-08
 1.80000E+00    4.22530E-08
 2.00000E+00    2.94710E-07
 2.20000E+00    1.69103E-06
 2.30792E+00    4.85042E-06
 2.40000E+00    7.54610E-06
 2.52233E+00    1.88266E-05
 2.55597E+00    2.19286E-05
 2.55713E+00    2.20356E-05
 2.56523E+00    2.27825E-05
 2.56785E+00    2.30241E-05
 2.60000E+00    2.59888E-05
 2.71926E+00    5.65380E-05
 2.77666E+00    7.12413E-05
 2.80000E+00    7.72200E-05
 2.90965E+00    1.50141E-04
 3.00000E+00    2.10226E-04
 3.04192E+00    2.76343E-04
 3.10130E+00    3.69999E-04
 3.10520E+00    3.76150E-04
 3.20000E+00    5.25671E-04
 3.24073E+00    6.58504E-04
 3.32790E+00    9.42790E-04
 3.35810E+00    1.04128E-03
 3.40000E+00    1.17793E-03
 3.49890E+00    1.79987E-03
 3.52211E+00    1.94583E-03
 3.54051E+00    2.06154E-03
 3.58335E+00    2.33094E-03
 3.60000E+00    2.43565E-03
 3.68031E+00    3.30850E-03
 3.69305E+00    3.44696E-03
 3.71399E+00    3.67455E-03
 3.77696E+00    4.35894E-03
 3.80000E+00    4.60935E-03
 4.00000E+00    8.90901E-03
 4.20000E+00    1.49489E-02
 4.40000E+00    2.25278E-02
 4.60000E+00    3.69169E-02
 4.80000E+00    5.15734E-02
 5.00000E+00    7.36568E-02
 5.20000E+00    1.01907E-01
 5.40000E+00    1.32694E-01
 5.60000E+00    1.76285E-01
 5.80000E+00    2.21120E-01
 6.00000E+00    2.75490E-01
 6.20000E+00    3.32140E-01
 6.40000E+00    3.94546E-01
 6.60000E+00    4.62738E-01
 6.80000E+00    5.36614E-01
 7.00000E+00    6.10490E-01
 7.20000E+00    6.88389E-01
 7.40000E+00    7.66289E-01
 7.60000E+00    8.65791E-01
 7.80000E+00    1.03316E+00
 8.00000E+00    1.09416E+00
 8.50000E+00    1.46759E+00
 9.00000E+00    1.98601E+00
 9.50000E+00    2.68408E+00
 1.00000E+01    3.56077E+00
 1.05000E+01    4.61092E+00
 1.10000E+01    5.92873E+00
 1.15000E+01    7.32921E+00
 1.20000E+01    8.91753E+00
 1.25000E+01    1.02171E+01
 1.30000E+01    1.20722E+01
 1.35000E+01    1.40338E+01
 1.40000E+01    1.60824E+01
 1.45000E+01    1.80242E+01
 1.50000E+01    2.01824E+01
 1.60000E+01    2.44496E+01
 1.70000E+01    2.93278E+01
 1.80000E+01    3.36566E+01
 1.90000E+01    3.79081E+01
 2.00000E+01    4.21036E+01
 2.10000E+01    4.58903E+01
 2.20000E+01    4.98183E+01
 2.30000E+01    5.37704E+01
 2.40000E+01    5.72208E+01
 2.50000E+01    6.03842E+01
 2.60000E+01    6.33425E+01
 2.70000E+01    6.58733E+01
 2.80000E+01    6.84874E+01
 2.90000E+01    7.09975E+01
 3.00000E+01    7.34280E+01
 3.00000E+01    7.34304E+01
 3.20000E+01    7.80515E+01
 3.40000E+01    8.23646E+01
 3.60000E+01    8.66345E+01
 3.80000E+01    9.06025E+01
 4.00000E+01    9.42058E+01
 4.20000E+01    9.75668E+01
 4.40000E+01    1.00441E+02
 4.60000E+01    1.02806E+02
 4.80000E+01    1.04654E+02
 5.00000E+01    1.05933E+02
 5.20000E+01    1.06344E+02
 5.40000E+01    1.07057E+02
 5.60000E+01    1.07741E+02
 5.80000E+01    1.08253E+02
 6.00000E+01    1.08626E+02
 6.50000E+01    1.09892E+02
 7.00000E+01    1.10618E+02
 7.50000E+01    1.11186E+02
 8.00000E+01    1.10944E+02
 9.00000E+01    1.12598E+02
 1.00000E+02    1.13175E+02
 1.10000E+02    1.14414E+02
 1.20000E+02    1.17980E+02
 1.30000E+02    1.28296E+02
 1.40000E+02    1.38470E+02
 1.50000E+02    1.48093E+02
 1.60000E+02    1.57802E+02
 1.80000E+02    1.80119E+02
 2.00000E+02    1.97250E+02
