# n + Nd145 : (n,n'09)  
# tendl.2019 A.J. Koning and D. Rochman        EVAL-NOV19
# uncertainties: n
# # energies =    87
#   E(MeV)       xs(mb) 
 9.43445E-01    0.00000E+00
 1.00000E+00    6.06511E+01
 1.01805E+00    6.27314E+01
 1.05875E+00    6.74222E+01
 1.09278E+00    7.13443E+01
 1.11893E+00    7.43581E+01
 1.15828E+00    7.88933E+01
 1.16906E+00    8.01358E+01
 1.17042E+00    8.02925E+01
 1.20000E+00    8.37017E+01
 1.22180E+00    8.43436E+01
 1.25842E+00    8.54218E+01
 1.29446E+00    8.64830E+01
 1.32610E+00    8.74146E+01
 1.33550E+00    8.76914E+01
 1.34794E+00    8.80577E+01
 1.40000E+00    8.95905E+01
 1.41065E+00    8.97840E+01
 1.41236E+00    8.98150E+01
 1.41368E+00    8.98390E+01
 1.43754E+00    9.02724E+01
 1.53770E+00    9.20919E+01
 1.53964E+00    9.21271E+01
 1.54293E+00    9.21869E+01
 1.54397E+00    9.22058E+01
 1.60000E+00    9.32236E+01
 1.80000E+00    8.23639E+01
 2.00000E+00    6.54426E+01
 2.20000E+00    4.83240E+01
 2.40000E+00    3.42590E+01
 2.60000E+00    2.39007E+01
 2.80000E+00    1.66422E+01
 3.00000E+00    1.16570E+01
 3.20000E+00    8.23459E+00
 3.40000E+00    5.86640E+00
 3.60000E+00    4.21443E+00
 3.80000E+00    3.04836E+00
 4.00000E+00    2.21854E+00
 4.20000E+00    1.62438E+00
 4.40000E+00    1.19688E+00
 4.60000E+00    8.88730E-01
 4.80000E+00    6.66622E-01
 5.00000E+00    5.06628E-01
 5.20000E+00    3.91587E-01
 5.40000E+00    3.08887E-01
 5.60000E+00    2.49638E-01
 5.80000E+00    2.06958E-01
 6.00000E+00    1.76489E-01
 6.20000E+00    1.54252E-01
 6.40000E+00    1.38412E-01
 6.60000E+00    1.27160E-01
 6.80000E+00    1.19062E-01
 7.00000E+00    1.13381E-01
 7.20000E+00    1.09332E-01
 7.40000E+00    1.06466E-01
 7.60000E+00    1.04448E-01
 7.80000E+00    1.02972E-01
 8.00000E+00    1.01897E-01
 8.50000E+00    1.00085E-01
 9.00000E+00    9.87697E-02
 9.50000E+00    9.75439E-02
 1.00000E+01    9.63219E-02
 1.05000E+01    9.51227E-02
 1.10000E+01    9.39840E-02
 1.15000E+01    9.29302E-02
 1.20000E+01    9.19693E-02
 1.25000E+01    9.10967E-02
 1.30000E+01    9.03030E-02
 1.35000E+01    8.95761E-02
 1.40000E+01    8.89042E-02
 1.45000E+01    8.82767E-02
 1.50000E+01    8.76812E-02
 1.60000E+01    8.65374E-02
 1.70000E+01    8.53757E-02
 1.80000E+01    8.41334E-02
 1.90000E+01    8.28107E-02
 2.00000E+01    8.14597E-02
 2.10000E+01    8.01448E-02
 2.20000E+01    7.89106E-02
 2.30000E+01    7.77675E-02
 2.40000E+01    7.66877E-02
 2.50000E+01    7.56189E-02
 2.60000E+01    7.45048E-02
 2.70000E+01    7.33097E-02
 2.80000E+01    7.20311E-02
 2.90000E+01    7.06923E-02
 3.00000E+01    6.93286E-02
