# n + Os  0 : (n,xa)
# jeff3.3    A.J. Koning and D. Rochman        EVAL-DEC15
#
# # energies =   138
#   E(MeV)          xs(mb) 
 9.80864E-03    1.49033E-04
 1.00000E-02    1.46047E-04
 2.00000E-02    7.24456E-05
 3.00000E-02    5.78554E-05
 6.00000E-02    6.37750E-05
 7.47572E-02    5.66695E-05
 8.82063E-02    5.01937E-05
 1.00000E-01    4.45150E-05
 1.00992E-01    4.43681E-05
 1.17631E-01    4.19044E-05
 1.88431E-01    4.03424E-05
 1.91598E-01    3.97052E-05
 2.00000E-01    3.80148E-05
 2.58487E-01    3.47337E-05
 2.64489E-01    3.43979E-05
 3.00000E-01    3.24108E-05
 3.35148E-01    3.23289E-05
 3.43342E-01    3.23098E-05
 3.51888E-01    3.22898E-05
 4.00000E-01    3.21777E-05
 4.21261E-01    3.24257E-05
 4.44385E-01    3.26968E-05
 4.47491E-01    3.27336E-05
 4.61808E-01    3.29030E-05
 4.66503E-01    3.29585E-05
 5.00000E-01    3.33548E-05
 5.04145E-01    3.34019E-05
 5.10992E-01    3.34799E-05
 5.14360E-01    3.35182E-05
 5.39495E-01    3.38042E-05
 5.59905E-01    3.40365E-05
 5.89473E-01    3.43729E-05
 5.99578E-01    3.44879E-05
 6.00000E-01    3.44927E-05
 6.14296E-01    3.46490E-05
 6.21244E-01    3.47207E-05
 6.45363E-01    3.49692E-05
 6.67613E-01    3.51978E-05
 6.73615E-01    3.52595E-05
 6.87791E-01    3.54052E-05
 7.00000E-01    3.55308E-05
 8.00000E-01    3.80938E-05
 9.00000E-01    4.18732E-05
 1.00000E+00    4.63050E-05
 1.20000E+00    5.98979E-05
 1.40000E+00    7.86109E-05
 1.60000E+00    1.00952E-04
 1.80000E+00    1.26391E-04
 2.00000E+00    1.54380E-04
 2.20000E+00    1.82487E-04
 2.40000E+00    2.15995E-04
 2.60000E+00    2.57904E-04
 2.80000E+00    3.09830E-04
 3.00000E+00    3.74040E-04
 3.20000E+00    4.40185E-04
 3.40000E+00    5.13062E-04
 3.60000E+00    5.85588E-04
 3.80000E+00    6.54450E-04
 4.00000E+00    7.27217E-04
 4.20000E+00    8.00601E-04
 4.40000E+00    8.80036E-04
 4.60000E+00    9.71018E-04
 4.80000E+00    1.06980E-03
 5.00000E+00    1.18758E-03
 5.20000E+00    1.32202E-03
 5.40000E+00    1.47594E-03
 5.60000E+00    1.65666E-03
 5.80000E+00    1.86070E-03
 6.00000E+00    2.11321E-03
 6.20000E+00    2.41577E-03
 6.40000E+00    2.76692E-03
 6.60000E+00    3.19951E-03
 6.80000E+00    3.67276E-03
 7.00000E+00    4.28114E-03
 7.20000E+00    4.99786E-03
 7.40000E+00    5.83960E-03
 7.60000E+00    6.92944E-03
 7.80000E+00    8.04757E-03
 8.00000E+00    9.62438E-03
 8.50000E+00    1.36649E-02
 9.00000E+00    1.85400E-02
 9.50000E+00    2.60516E-02
 1.00000E+01    3.80001E-02
 1.05000E+01    5.65694E-02
 1.10000E+01    8.42279E-02
 1.15000E+01    1.24614E-01
 1.20000E+01    1.83078E-01
 1.25000E+01    2.59958E-01
 1.30000E+01    3.63962E-01
 1.35000E+01    4.86530E-01
 1.40000E+01    6.52359E-01
 1.45000E+01    8.42002E-01
 1.50000E+01    1.07353E+00
 1.60000E+01    1.66519E+00
 1.70000E+01    2.47050E+00
 1.80000E+01    3.58558E+00
 1.90000E+01    5.17989E+00
 2.00000E+01    7.44911E+00
 2.10000E+01    1.01098E+01
 2.20000E+01    1.30224E+01
 2.30000E+01    1.55145E+01
 2.40000E+01    1.69275E+01
 2.50000E+01    1.79532E+01
 2.60000E+01    1.81296E+01
 2.70000E+01    1.81935E+01
 2.80000E+01    1.79143E+01
 2.90000E+01    1.80646E+01
 3.00000E+01    1.83096E+01
 3.00000E+01    1.83096E+01
 3.20000E+01    1.90781E+01
 3.40000E+01    1.99347E+01
 3.60000E+01    2.11532E+01
 3.80000E+01    2.23901E+01
 4.00000E+01    2.36434E+01
 4.20000E+01    2.49120E+01
 4.40000E+01    2.61988E+01
 4.60000E+01    2.75180E+01
 4.80000E+01    2.88182E+01
 5.00000E+01    3.01896E+01
 5.20000E+01    3.15907E+01
 5.40000E+01    3.29413E+01
 5.60000E+01    3.42738E+01
 5.80000E+01    3.57312E+01
 6.00000E+01    3.72905E+01
 6.50000E+01    4.07853E+01
 7.00000E+01    4.42807E+01
 7.50000E+01    4.81845E+01
 8.00000E+01    5.13719E+01
 9.00000E+01    5.73691E+01
 1.00000E+02    6.26376E+01
 1.10000E+02    6.80503E+01
 1.20000E+02    7.15775E+01
 1.30000E+02    7.07956E+01
 1.40000E+02    7.02456E+01
 1.50000E+02    7.46829E+01
 1.60000E+02    8.41208E+01
 1.80000E+02    1.10343E+02
 2.00000E+02    1.83994E+02
