# n + Ho163 : (n,n'07)  
# tendl.2019 A.J. Koning and D. Rochman        EVAL-NOV19
# uncertainties: n
# # energies =    95
#   E(MeV)       xs(mb) 
 3.94497E-01    0.00000E+00
 4.00000E-01    3.16024E+01
 4.21594E-01    3.44348E+01
 4.33849E-01    3.60422E+01
 4.42664E-01    3.71985E+01
 4.58702E-01    3.93021E+01
 4.74167E-01    4.13306E+01
 5.00000E-01    4.47190E+01
 5.03478E-01    4.49606E+01
 5.31510E-01    4.69078E+01
 5.35082E-01    4.71559E+01
 5.55468E-01    4.85720E+01
 5.63467E-01    4.91277E+01
 5.81810E-01    5.04019E+01
 5.91197E-01    5.10539E+01
 5.97677E-01    5.15040E+01
 6.00000E-01    5.16654E+01
 6.16594E-01    5.21308E+01
 6.18093E-01    5.21728E+01
 6.56097E-01    5.32386E+01
 6.68121E-01    5.35758E+01
 6.92340E-01    5.42550E+01
 6.99303E-01    5.44503E+01
 7.00000E-01    5.44698E+01
 7.14395E-01    5.41549E+01
 7.24015E-01    5.39444E+01
 7.50618E-01    5.33624E+01
 8.00000E-01    5.22820E+01
 8.00364E-01    5.22620E+01
 9.00000E-01    4.67936E+01
 1.00000E+00    4.04435E+01
 1.20000E+00    2.90300E+01
 1.40000E+00    2.03659E+01
 1.60000E+00    1.43486E+01
 1.80000E+00    1.02919E+01
 2.00000E+00    7.53432E+00
 2.20000E+00    5.60957E+00
 2.40000E+00    4.22220E+00
 2.60000E+00    3.19435E+00
 2.80000E+00    2.42073E+00
 3.00000E+00    1.83341E+00
 3.20000E+00    1.38573E+00
 3.40000E+00    1.04601E+00
 3.60000E+00    7.89449E-01
 3.80000E+00    5.97094E-01
 4.00000E+00    4.53650E-01
 4.20000E+00    3.47213E-01
 4.40000E+00    2.68897E-01
 4.60000E+00    2.11705E-01
 4.80000E+00    1.70027E-01
 5.00000E+00    1.39884E-01
 5.20000E+00    1.18286E-01
 5.40000E+00    1.02875E-01
 5.60000E+00    9.19232E-02
 5.80000E+00    8.42539E-02
 6.00000E+00    7.87057E-02
 6.20000E+00    7.48583E-02
 6.40000E+00    7.21337E-02
 6.60000E+00    7.01491E-02
 6.80000E+00    6.86767E-02
 7.00000E+00    6.75199E-02
 7.20000E+00    6.65736E-02
 7.40000E+00    6.57638E-02
 7.60000E+00    6.50475E-02
 7.80000E+00    6.44052E-02
 8.00000E+00    6.38209E-02
 8.50000E+00    6.25932E-02
 9.00000E+00    6.16794E-02
 9.50000E+00    6.10470E-02
 1.00000E+01    6.06303E-02
 1.05000E+01    6.03416E-02
 1.10000E+01    6.00877E-02
 1.15000E+01    5.97905E-02
 1.20000E+01    5.93948E-02
 1.25000E+01    5.88726E-02
 1.30000E+01    5.82203E-02
 1.35000E+01    5.74528E-02
 1.40000E+01    5.65956E-02
 1.45000E+01    5.56785E-02
 1.50000E+01    5.47300E-02
 1.60000E+01    5.28311E-02
 1.70000E+01    5.10212E-02
 1.80000E+01    4.93387E-02
 1.90000E+01    4.77759E-02
 2.00000E+01    4.63104E-02
 2.10000E+01    4.49136E-02
 2.20000E+01    4.35564E-02
 2.30000E+01    4.22202E-02
 2.40000E+01    4.09062E-02
 2.50000E+01    3.96315E-02
 2.60000E+01    3.84161E-02
 2.70000E+01    3.72742E-02
 2.80000E+01    3.62084E-02
 2.90000E+01    3.52129E-02
 3.00000E+01    3.42756E-02
