# n + Ho163 : (n,n'15)  
# tendl.2019 A.J. Koning and D. Rochman        EVAL-NOV19
# uncertainties: n
# # energies =    85
#   E(MeV)       xs(mb) 
 5.35082E-01    0.00000E+00
 5.55468E-01    6.10818E-01
 5.63467E-01    8.50488E-01
 5.81810E-01    1.40009E+00
 5.91197E-01    1.68135E+00
 5.97677E-01    1.87551E+00
 6.00000E-01    1.94511E+00
 6.16594E-01    3.22885E+00
 6.18093E-01    3.34482E+00
 6.56097E-01    6.28488E+00
 6.68121E-01    7.21508E+00
 6.92340E-01    9.08871E+00
 6.99303E-01    9.62738E+00
 7.00000E-01    9.68130E+00
 7.14395E-01    1.13759E+01
 7.24015E-01    1.25084E+01
 7.50618E-01    1.56402E+01
 8.00000E-01    2.14536E+01
 8.00364E-01    2.14853E+01
 9.00000E-01    3.01571E+01
 1.00000E+00    3.36914E+01
 1.20000E+00    3.01523E+01
 1.40000E+00    2.22762E+01
 1.60000E+00    1.55964E+01
 1.80000E+00    1.09279E+01
 2.00000E+00    7.78411E+00
 2.20000E+00    5.63622E+00
 2.40000E+00    4.12864E+00
 2.60000E+00    3.04573E+00
 2.80000E+00    2.25867E+00
 3.00000E+00    1.68367E+00
 3.20000E+00    1.26274E+00
 3.40000E+00    9.56162E-01
 3.60000E+00    7.33790E-01
 3.80000E+00    5.73296E-01
 4.00000E+00    4.57704E-01
 4.20000E+00    3.74562E-01
 4.40000E+00    3.15060E-01
 4.60000E+00    2.72727E-01
 4.80000E+00    2.42737E-01
 5.00000E+00    2.21757E-01
 5.20000E+00    2.07440E-01
 5.40000E+00    1.97987E-01
 5.60000E+00    1.92068E-01
 5.80000E+00    1.88729E-01
 6.00000E+00    1.87019E-01
 6.20000E+00    1.86513E-01
 6.40000E+00    1.86632E-01
 6.60000E+00    1.86974E-01
 6.80000E+00    1.87250E-01
 7.00000E+00    1.87243E-01
 7.20000E+00    1.86841E-01
 7.40000E+00    1.85977E-01
 7.60000E+00    1.84648E-01
 7.80000E+00    1.82884E-01
 8.00000E+00    1.80732E-01
 8.50000E+00    1.74086E-01
 9.00000E+00    1.66461E-01
 9.50000E+00    1.58731E-01
 1.00000E+01    1.51460E-01
 1.05000E+01    1.44913E-01
 1.10000E+01    1.39111E-01
 1.15000E+01    1.33947E-01
 1.20000E+01    1.29263E-01
 1.25000E+01    1.24924E-01
 1.30000E+01    1.20842E-01
 1.35000E+01    1.16978E-01
 1.40000E+01    1.13323E-01
 1.45000E+01    1.09894E-01
 1.50000E+01    1.06702E-01
 1.60000E+01    1.01092E-01
 1.70000E+01    9.65178E-02
 1.80000E+01    9.28515E-02
 1.90000E+01    8.98602E-02
 2.00000E+01    8.73049E-02
 2.10000E+01    8.49874E-02
 2.20000E+01    8.27478E-02
 2.30000E+01    8.04800E-02
 2.40000E+01    7.81748E-02
 2.50000E+01    7.59141E-02
 2.60000E+01    7.38060E-02
 2.70000E+01    7.19257E-02
 2.80000E+01    7.02856E-02
 2.90000E+01    6.88427E-02
 3.00000E+01    6.75145E-02
