# n + Ge 70 : (n,el)    
# endfb8.0   Iwamoto,Herman,Mughabghab+        EVAL-AUG04
# uncertainties: n
# # energies =   171
#   E(MeV)       xs(mb) 
 1.00000E-11    2.70759E+04
 1.00000E-07    1.38033E+04
 4.13990E-07    1.37888E+04
 5.31580E-07    1.37837E+04
 6.82560E-07    1.37773E+04
 8.76420E-07    1.37711E+04
 1.12540E-06    1.37638E+04
 1.44500E-06    1.37544E+04
 1.85540E-06    1.37425E+04
 2.37240E-06    1.37271E+04
 3.05900E-06    1.37071E+04
 3.92790E-06    1.36816E+04
 5.04350E-06    1.36489E+04
 6.47600E-06    1.36069E+04
 8.31530E-06    1.35529E+04
 1.06770E-05    1.34837E+04
 1.37100E-05    1.33947E+04
 1.76030E-05    1.32805E+04
 2.26030E-05    1.31318E+04
 2.92030E-05    1.29574E+04
 3.72670E-05    1.27494E+04
 4.78510E-05    1.24797E+04
 6.14420E-05    1.21601E+04
 7.88930E-05    1.17754E+04
 1.01300E-04    1.13279E+04
 1.30070E-04    1.08084E+04
 1.67020E-04    1.02230E+04
 2.14450E-04    9.57543E+03
 2.75360E-04    8.87680E+03
 3.53580E-04    8.12594E+03
 4.54000E-04    7.31517E+03
 5.82950E-04    6.36830E+03
 7.48520E-04    4.89558E+03
 9.61120E-04    6.40973E+04
 1.23410E-03    1.27246E+04
 1.58460E-03    6.69809E+03
 2.03470E-03    5.82948E+03
 2.24870E-03    5.49230E+03
 2.48520E-03    5.25872E+03
 2.61260E-03    5.10413E+03
 2.74650E-03    4.87638E+03
 3.03540E-03    4.56681E+03
 3.35460E-03    4.16033E+03
 3.70740E-03    3.23144E+03
 4.30740E-03    7.23189E+03
 5.53080E-03    2.48688E+04
 7.10170E-03    1.24440E+04
 9.11880E-03    2.20496E+04
 1.17090E-02    1.93530E+04
 1.50340E-02    1.17128E+04
 1.93050E-02    1.10846E+04
 2.18750E-02    1.07716E+04
 2.35790E-02    1.06197E+04
 2.41760E-02    1.05460E+04
 2.47880E-02    1.04357E+04
 2.60580E-02    1.03123E+04
 2.70000E-02    1.01865E+04
 2.85000E-02    9.96079E+03
 3.18280E-02    9.71284E+03
 3.43070E-02    9.39439E+03
 4.08680E-02    9.03000E+03
 4.63090E-02    8.74154E+03
 5.24750E-02    8.51917E+03
 5.65620E-02    8.25239E+03
 6.73790E-02    8.00396E+03
 7.20000E-02    7.83910E+03
 7.95000E-02    7.70504E+03
 8.25000E-02    7.62427E+03
 8.65170E-02    7.46061E+03
 9.80370E-02    7.22996E+03
 1.11090E-01    7.07312E+03
 1.16790E-01    6.98613E+03
 1.22770E-01    6.89719E+03
 1.29070E-01    6.81165E+03
 1.35690E-01    6.72511E+03
 1.42640E-01    6.64088E+03
 1.49960E-01    6.55696E+03
 1.57640E-01    6.47378E+03
 1.65730E-01    6.39212E+03
 1.74220E-01    6.31069E+03
 1.83160E-01    6.23019E+03
 1.92550E-01    6.15077E+03
 2.02420E-01    6.07219E+03
 2.12800E-01    5.99435E+03
 2.23710E-01    5.91825E+03
 2.35180E-01    5.84292E+03
 2.47240E-01    5.72980E+03
 2.73240E-01    5.61892E+03
 2.87250E-01    5.56495E+03
 2.94520E-01    5.53979E+03
 2.97200E-01    5.52974E+03
 2.98500E-01    5.51801E+03
 3.01970E-01    5.43963E+03
 3.33730E-01    5.30060E+03
 3.68830E-01    5.19881E+03
 3.87740E-01    5.13263E+03
 4.07620E-01    5.03583E+03
 4.50490E-01    4.91094E+03
 4.97870E-01    4.82065E+03
 5.23400E-01    4.76239E+03
 5.50230E-01    4.70565E+03
 5.78440E-01    4.65053E+03
 6.08100E-01    4.59784E+03
 6.39280E-01    4.54538E+03
 6.72060E-01    4.49522E+03
 7.06510E-01    4.44687E+03
 7.42740E-01    4.39991E+03
 7.80820E-01    4.35481E+03
 8.20850E-01    4.31167E+03
 8.62940E-01    4.27082E+03
 9.07180E-01    4.22841E+03
 9.61640E-01    4.19121E+03
 1.00260E+00    4.02260E+03
 1.10800E+00    3.66513E+03
 1.16480E+00    3.44308E+03
 1.22460E+00    3.29149E+03
 1.28730E+00    3.12855E+03
 1.35340E+00    2.96026E+03
 1.42270E+00    2.83660E+03
 1.49570E+00    2.72477E+03
 1.57240E+00    2.62096E+03
 1.65300E+00    2.55927E+03
 1.73770E+00    2.42213E+03
 1.82680E+00    2.30775E+03
 1.92050E+00    2.22237E+03
 2.01900E+00    2.16244E+03
 2.12250E+00    2.11021E+03
 2.23130E+00    2.05567E+03
 2.30690E+00    2.02839E+03
 2.34570E+00    2.01022E+03
 2.36530E+00    1.99513E+03
 2.38520E+00    1.97732E+03
 2.46600E+00    1.95643E+03
 2.59240E+00    1.89270E+03
 2.72530E+00    1.85985E+03
 2.86500E+00    1.85539E+03
 3.01190E+00    1.85503E+03
 3.16640E+00    1.86980E+03
 3.32870E+00    1.88531E+03
 3.67880E+00    1.90124E+03
 4.06570E+00    1.96501E+03
 4.49330E+00    2.02553E+03
 4.72370E+00    2.06970E+03
 4.96590E+00    2.11312E+03
 5.22050E+00    2.14945E+03
 5.48810E+00    2.18713E+03
 5.76950E+00    2.22645E+03
 6.06530E+00    2.25308E+03
 6.37630E+00    2.26937E+03
 6.59240E+00    2.27947E+03
 6.70320E+00    2.29318E+03
 7.04690E+00    2.29961E+03
 7.40820E+00    2.29701E+03
 7.78800E+00    2.29205E+03
 8.18730E+00    2.27095E+03
 8.60710E+00    2.24566E+03
 9.04840E+00    2.21283E+03
 9.51230E+00    2.17107E+03
 1.00000E+01    2.12177E+03
 1.05130E+01    2.06451E+03
 1.10520E+01    2.00682E+03
 1.16180E+01    1.94082E+03
 1.22140E+01    1.86684E+03
 1.28400E+01    1.79124E+03
 1.34990E+01    1.73173E+03
 1.38400E+01    1.69111E+03
 1.41910E+01    1.65154E+03
 1.45500E+01    1.61132E+03
 1.49180E+01    1.55024E+03
 1.56830E+01    1.46822E+03
 1.64870E+01    1.38868E+03
