# n + Dy156 : (n,el)    
# endfb8.0   Kim,Mughabghab,Herman,Oblozinsky  EVAL-FEB06
# uncertainties: n
# # energies =   171
#   E(MeV)       xs(mb) 
 1.00000E-11    6.34849E+03
 1.00000E-07    4.01302E+03
 4.13990E-07    3.91710E+03
 5.31580E-07    3.85802E+03
 6.82560E-07    3.77197E+03
 8.76420E-07    3.63860E+03
 1.12540E-06    3.40644E+03
 1.44500E-06    2.86992E+03
 1.85540E-06    4.44798E+03
 2.37240E-06    2.57040E+03
 3.05900E-06    1.82334E+04
 3.92790E-06    5.98101E+03
 5.04350E-06    4.91480E+03
 6.47600E-06    4.17720E+03
 8.31530E-06    4.89778E+03
 1.06770E-05    3.15206E+03
 1.37100E-05    1.99409E+04
 1.76030E-05    4.26148E+04
 2.26030E-05    8.55525E+03
 2.92030E-05    3.15646E+04
 3.72670E-05    2.03179E+04
 4.78510E-05    2.31962E+04
 6.14420E-05    8.14927E+04
 7.88930E-05    3.88796E+04
 1.01300E-04    2.77093E+04
 1.30070E-04    2.67874E+04
 1.67020E-04    2.58497E+04
 2.14450E-04    2.48985E+04
 2.75360E-04    2.39419E+04
 3.53580E-04    2.29844E+04
 4.54000E-04    2.20303E+04
 5.82950E-04    2.10870E+04
 7.48520E-04    2.01577E+04
 9.61120E-04    1.92470E+04
 1.23410E-03    1.83596E+04
 1.58460E-03    1.74991E+04
 2.03470E-03    1.69121E+04
 2.24870E-03    1.65840E+04
 2.48520E-03    1.63411E+04
 2.61260E-03    1.61809E+04
 2.74650E-03    1.59433E+04
 3.03540E-03    1.56322E+04
 3.35460E-03    1.53249E+04
 3.70740E-03    1.49484E+04
 4.30740E-03    1.43649E+04
 5.53080E-03    1.36661E+04
 7.10170E-03    1.30011E+04
 9.11880E-03    1.23699E+04
 1.17090E-02    1.17732E+04
 1.50340E-02    1.12079E+04
 1.93050E-02    1.08036E+04
 2.18750E-02    1.05954E+04
 2.35790E-02    1.04930E+04
 2.41760E-02    1.04425E+04
 2.47880E-02    1.03670E+04
 2.60580E-02    1.02818E+04
 2.70000E-02    1.01935E+04
 2.85000E-02    1.00336E+04
 3.18280E-02    9.85670E+03
 3.43070E-02    9.62469E+03
 4.08680E-02    9.35364E+03
 4.63090E-02    9.13488E+03
 5.24750E-02    8.96273E+03
 5.65620E-02    8.75202E+03
 6.73790E-02    8.55217E+03
 7.20000E-02    8.41743E+03
 7.95000E-02    8.30788E+03
 8.25000E-02    8.24005E+03
 8.65170E-02    8.10315E+03
 9.80370E-02    7.90707E+03
 1.11090E-01    7.77125E+03
 1.16790E-01    7.69425E+03
 1.22770E-01    7.61766E+03
 1.29070E-01    7.54148E+03
 1.35690E-01    7.45465E+03
 1.42640E-01    7.31023E+03
 1.49960E-01    7.18713E+03
 1.57640E-01    7.09549E+03
 1.65730E-01    6.99914E+03
 1.74220E-01    6.89785E+03
 1.83160E-01    6.79133E+03
 1.92550E-01    6.67959E+03
 2.02420E-01    6.58515E+03
 2.12800E-01    6.50194E+03
 2.23710E-01    6.41447E+03
 2.35180E-01    6.32250E+03
 2.47240E-01    6.17501E+03
 2.73240E-01    6.01736E+03
 2.87250E-01    5.93383E+03
 2.94520E-01    5.89483E+03
 2.97200E-01    5.87926E+03
 2.98500E-01    5.86233E+03
 3.01970E-01    5.77827E+03
 3.33730E-01    5.61838E+03
 3.68830E-01    5.48808E+03
 3.87740E-01    5.39629E+03
 4.07620E-01    5.29354E+03
 4.50490E-01    5.15987E+03
 4.97870E-01    5.05486E+03
 5.23400E-01    4.99586E+03
 5.50230E-01    4.93518E+03
 5.78440E-01    4.87166E+03
 6.08100E-01    4.82596E+03
 6.39280E-01    4.79127E+03
 6.72060E-01    4.71759E+03
 7.06510E-01    4.62854E+03
 7.42740E-01    4.57423E+03
 7.80820E-01    4.52376E+03
 8.20850E-01    4.52613E+03
 8.62940E-01    4.43083E+03
 9.07180E-01    4.34870E+03
 9.61640E-01    4.30377E+03
 1.00260E+00    4.26112E+03
 1.10800E+00    4.19976E+03
 1.16480E+00    4.17313E+03
 1.22460E+00    4.14516E+03
 1.28730E+00    4.11143E+03
 1.35340E+00    4.06160E+03
 1.42270E+00    4.01614E+03
 1.49570E+00    3.97530E+03
 1.57240E+00    3.93237E+03
 1.65300E+00    3.88727E+03
 1.73770E+00    3.83985E+03
 1.82680E+00    3.78998E+03
 1.92050E+00    3.74030E+03
 2.01900E+00    3.69020E+03
 2.12250E+00    3.63755E+03
 2.23130E+00    3.59168E+03
 2.30690E+00    3.56322E+03
 2.34570E+00    3.54872E+03
 2.36530E+00    3.53892E+03
 2.38520E+00    3.51404E+03
 2.46600E+00    3.46272E+03
 2.59240E+00    3.39523E+03
 2.72530E+00    3.32255E+03
 2.86500E+00    3.24614E+03
 3.01190E+00    3.16578E+03
 3.16640E+00    3.08132E+03
 3.32870E+00    2.94613E+03
 3.67880E+00    2.75804E+03
 4.06570E+00    2.58699E+03
 4.49330E+00    2.46158E+03
 4.72370E+00    2.37224E+03
 4.96590E+00    2.29545E+03
 5.22050E+00    2.24366E+03
 5.48810E+00    2.18965E+03
 5.76950E+00    2.13398E+03
 6.06530E+00    2.10799E+03
 6.37630E+00    2.09790E+03
 6.59240E+00    2.09165E+03
 6.70320E+00    2.08338E+03
 7.04690E+00    2.09538E+03
 7.40820E+00    2.12354E+03
 7.78800E+00    2.15579E+03
 8.18730E+00    2.20852E+03
 8.60710E+00    2.26786E+03
 9.04840E+00    2.35264E+03
 9.51230E+00    2.42579E+03
 1.00000E+01    2.48704E+03
 1.05130E+01    2.56507E+03
 1.10520E+01    2.63718E+03
 1.16180E+01    2.70446E+03
 1.22140E+01    2.75720E+03
 1.28400E+01    2.79921E+03
 1.34990E+01    2.81733E+03
 1.38400E+01    2.82703E+03
 1.41910E+01    2.82577E+03
 1.45500E+01    2.82265E+03
 1.49180E+01    2.80626E+03
 1.56830E+01    2.76548E+03
 1.64870E+01    2.70170E+03
