# n + Dy156 : (n,tot)   
# endfb8.0   Kim,Mughabghab,Herman,Oblozinsky  EVAL-FEB06
# uncertainties: n
# # energies =   171
#   E(MeV)       xs(mb) 
 1.00000E-11    3.58587E+05
 1.00000E-07    1.74018E+04
 4.13990E-07    1.43841E+04
 5.31580E-07    1.41845E+04
 6.82560E-07    1.44722E+04
 8.76420E-07    1.56924E+04
 1.12540E-06    1.94772E+04
 1.44500E-06    3.87775E+04
 1.85540E-06    6.74601E+05
 2.37240E-06    1.38153E+05
 3.05900E-06    1.14655E+06
 3.92790E-06    1.71284E+04
 5.04350E-06    8.17610E+03
 6.47600E-06    7.38736E+03
 8.31530E-06    1.20474E+05
 1.06770E-05    7.32483E+03
 1.37100E-05    3.47913E+05
 1.76030E-05    3.96029E+05
 2.26030E-05    1.25608E+05
 2.92030E-05    2.54061E+05
 3.72670E-05    1.19537E+05
 4.78510E-05    1.06771E+05
 6.14420E-05    1.96697E+05
 7.88930E-05    1.35649E+05
 1.01300E-04    8.44687E+04
 1.30070E-04    7.53653E+04
 1.67020E-04    6.73482E+04
 2.14450E-04    6.02524E+04
 2.75360E-04    5.39995E+04
 3.53580E-04    4.84823E+04
 4.54000E-04    4.36036E+04
 5.82950E-04    3.93055E+04
 7.48520E-04    3.55085E+04
 9.61120E-04    3.21543E+04
 1.23410E-03    2.91940E+04
 1.58460E-03    2.65816E+04
 2.03470E-03    2.49240E+04
 2.24870E-03    2.40448E+04
 2.48520E-03    2.34123E+04
 2.61260E-03    2.30044E+04
 2.74650E-03    2.24125E+04
 3.03540E-03    2.16592E+04
 3.35460E-03    2.09372E+04
 3.70740E-03    2.00842E+04
 4.30740E-03    1.88272E+04
 5.53080E-03    1.74141E+04
 7.10170E-03    1.61597E+04
 9.11880E-03    1.50448E+04
 1.17090E-02    1.40543E+04
 1.50340E-02    1.31678E+04
 1.93050E-02    1.25614E+04
 2.18750E-02    1.22581E+04
 2.35790E-02    1.21110E+04
 2.41760E-02    1.20391E+04
 2.47880E-02    1.19320E+04
 2.60580E-02    1.18121E+04
 2.70000E-02    1.16886E+04
 2.85000E-02    1.14676E+04
 3.18280E-02    1.12261E+04
 3.43070E-02    1.09150E+04
 4.08680E-02    1.05579E+04
 4.63090E-02    1.02752E+04
 5.24750E-02    1.00558E+04
 5.65620E-02    9.79160E+03
 6.73790E-02    9.54440E+03
 7.20000E-02    9.38025E+03
 7.95000E-02    9.24808E+03
 8.25000E-02    9.16690E+03
 8.65170E-02    9.00475E+03
 9.80370E-02    8.77594E+03
 1.11090E-01    8.61990E+03
 1.16790E-01    8.53251E+03
 1.22770E-01    8.44629E+03
 1.29070E-01    8.36126E+03
 1.35690E-01    8.27202E+03
 1.42640E-01    8.15599E+03
 1.49960E-01    8.04795E+03
 1.57640E-01    7.96413E+03
 1.65730E-01    7.87651E+03
 1.74220E-01    7.78441E+03
 1.83160E-01    7.68755E+03
 1.92550E-01    7.58603E+03
 2.02420E-01    7.50849E+03
 2.12800E-01    7.44736E+03
 2.23710E-01    7.38309E+03
 2.35180E-01    7.31553E+03
 2.47240E-01    7.20717E+03
 2.73240E-01    7.09136E+03
 2.87250E-01    7.02999E+03
 2.94520E-01    7.00134E+03
 2.97200E-01    6.98990E+03
 2.98500E-01    6.97621E+03
 3.01970E-01    6.92654E+03
 3.33730E-01    6.84264E+03
 3.68830E-01    6.77427E+03
 3.87740E-01    6.72667E+03
 4.07620E-01    6.69768E+03
 4.50490E-01    6.67195E+03
 4.97870E-01    6.65168E+03
 5.23400E-01    6.64558E+03
 5.50230E-01    6.64153E+03
 5.78440E-01    6.63780E+03
 6.08100E-01    6.64434E+03
 6.39280E-01    6.65530E+03
 6.72060E-01    6.66682E+03
 7.06510E-01    6.67893E+03
 7.42740E-01    6.69167E+03
 7.80820E-01    6.70505E+03
 8.20850E-01    6.71912E+03
 8.62940E-01    6.73392E+03
 9.07180E-01    6.75064E+03
 9.61640E-01    6.76438E+03
 1.00260E+00    6.78299E+03
 1.10800E+00    6.79772E+03
 1.16480E+00    6.80552E+03
 1.22460E+00    6.81372E+03
 1.28730E+00    6.81598E+03
 1.35340E+00    6.80522E+03
 1.42270E+00    6.79353E+03
 1.49570E+00    6.78123E+03
 1.57240E+00    6.76825E+03
 1.65300E+00    6.74698E+03
 1.73770E+00    6.71910E+03
 1.82680E+00    6.68979E+03
 1.92050E+00    6.65869E+03
 2.01900E+00    6.61594E+03
 2.12250E+00    6.56585E+03
 2.23130E+00    6.52222E+03
 2.30690E+00    6.49515E+03
 2.34570E+00    6.48135E+03
 2.36530E+00    6.47202E+03
 2.38520E+00    6.44836E+03
 2.46600E+00    6.39945E+03
 2.59240E+00    6.33067E+03
 2.72530E+00    6.25425E+03
 2.86500E+00    6.17390E+03
 3.01190E+00    6.08939E+03
 3.16640E+00    6.00058E+03
 3.32870E+00    5.85805E+03
 3.67880E+00    5.65048E+03
 4.06570E+00    5.44701E+03
 4.49330E+00    5.29531E+03
 4.72370E+00    5.18723E+03
 4.96590E+00    5.09219E+03
 5.22050E+00    5.02360E+03
 5.48810E+00    4.95198E+03
 5.76950E+00    4.87782E+03
 6.06530E+00    4.83316E+03
 6.37630E+00    4.80712E+03
 6.59240E+00    4.79097E+03
 6.70320E+00    4.76907E+03
 7.04690E+00    4.76014E+03
 7.40820E+00    4.76651E+03
 7.78800E+00    4.77467E+03
 8.18730E+00    4.80388E+03
 8.60710E+00    4.84128E+03
 9.04840E+00    4.88491E+03
 9.51230E+00    4.93900E+03
 1.00000E+01    4.99607E+03
 1.05130E+01    5.05601E+03
 1.10520E+01    5.11138E+03
 1.16180E+01    5.16287E+03
 1.22140E+01    5.20125E+03
 1.28400E+01    5.22950E+03
 1.34990E+01    5.23805E+03
 1.38400E+01    5.24133E+03
 1.41910E+01    5.23409E+03
 1.45500E+01    5.22517E+03
 1.49180E+01    5.20041E+03
 1.56830E+01    5.14853E+03
 1.64870E+01    5.07398E+03
