# n + Ni  0 : (n,any)
# jeff3.3    S.Chiba,M.B.Chadwick,Hetrick      EVAL-SEP97
# uncertainties: n
# # energies =   151
#   E(MeV)          xs(mb) 
 2.00000E+01    0.00000E+00
 2.00000E+01    0.00000E+00
 2.08798E+01    4.97186E+02
 2.08960E+01    4.97124E+02
 2.10000E+01    4.96717E+02
 2.20000E+01    4.91165E+02
 2.30000E+01    4.84899E+02
 2.38849E+01    4.79495E+02
 2.40000E+01    4.78788E+02
 2.50000E+01    4.72754E+02
 2.53072E+01    4.70964E+02
 2.60000E+01    4.66967E+02
 2.70000E+01    4.61400E+02
 2.74116E+01    4.59199E+02
 2.75200E+01    4.58621E+02
 2.80000E+01    4.56075E+02
 2.89217E+01    4.51362E+02
 2.90000E+01    4.50969E+02
 2.93940E+01    4.49033E+02
 3.00000E+01    4.46085E+02
 3.10000E+01    1.23676E+03
 3.16521E+01    1.22858E+03
 3.20000E+01    1.22426E+03
 3.30000E+01    1.21214E+03
 3.32334E+01    1.20935E+03
 3.40000E+01    1.20021E+03
 3.40880E+01    1.19919E+03
 3.50000E+01    1.18871E+03
 3.54636E+01    1.18345E+03
 3.56048E+01    1.18185E+03
 3.60000E+01    1.17742E+03
 3.61990E+01    1.17528E+03
 3.65320E+01    1.17171E+03
 3.70000E+01    1.16670E+03
 3.72936E+01    1.16361E+03
 3.80000E+01    1.15618E+03
 3.90000E+01    1.14621E+03
 3.97063E+01    1.13926E+03
 4.00000E+01    1.13638E+03
 4.10000E+01    1.12709E+03
 4.15245E+01    1.12231E+03
 4.18548E+01    1.11932E+03
 4.20000E+01    1.11801E+03
 4.30000E+01    1.10944E+03
 4.34394E+01    1.10572E+03
 4.35843E+01    1.10451E+03
 4.40000E+01    1.10102E+03
 4.42171E+01    1.09929E+03
 4.50000E+01    1.09305E+03
 4.60000E+01    1.08520E+03
 4.70000E+01    1.07774E+03
 4.70318E+01    1.07751E+03
 4.71504E+01    1.07663E+03
 4.80000E+01    1.07040E+03
 4.90000E+01    1.06344E+03
 4.95892E+01    1.05940E+03
 5.00000E+01    1.05659E+03
 5.08182E+01    1.05127E+03
 5.10000E+01    1.05009E+03
 5.16437E+01    1.04594E+03
 5.20000E+01    1.04365E+03
 5.30000E+01    1.03750E+03
 5.32297E+01    1.03611E+03
 5.37367E+01    1.03303E+03
 5.39722E+01    1.03160E+03
 5.40000E+01    1.03143E+03
 5.50000E+01    1.02567E+03
 5.58584E+01    1.02078E+03
 5.60000E+01    1.01997E+03
 5.61738E+01    1.01902E+03
 5.70000E+01    1.01451E+03
 5.80000E+01    1.00907E+03
 5.90000E+01    1.00388E+03
 5.90889E+01    1.00342E+03
 6.00000E+01    9.98717E+02
 6.10000E+01    9.93917E+02
 6.18172E+01    9.90013E+02
 6.20000E+01    9.89142E+02
 6.20996E+01    9.88667E+02
 6.26744E+01    9.85932E+02
 6.28695E+01    9.85005E+02
 6.30000E+01    9.84385E+02
 6.30509E+01    9.84143E+02
 6.40000E+01    9.79642E+02
 6.50000E+01    9.74908E+02
 6.60000E+01    9.70589E+02
 6.70000E+01    9.66273E+02
 6.74142E+01    9.64486E+02
 6.80000E+01    9.61959E+02
 6.90000E+01    9.57652E+02
 7.00000E+01    9.53350E+02
 7.10000E+01    9.49406E+02
 7.12251E+01    9.48518E+02
 7.20000E+01    9.45452E+02
 7.23509E+01    9.44061E+02
 7.30000E+01    9.41489E+02
 7.40000E+01    9.37524E+02
 7.50000E+01    9.33560E+02
 7.52964E+01    9.32477E+02
 7.60000E+01    9.29906E+02
 7.62641E+01    9.28938E+02
 7.70000E+01    9.26242E+02
 7.80000E+01    9.22574E+02
 7.90000E+01    9.18901E+02
 8.00000E+01    9.15223E+02
 8.10000E+01    9.11927E+02
 8.20000E+01    9.08623E+02
 8.30000E+01    9.05314E+02
 8.40000E+01    9.01997E+02
 8.50000E+01    8.98677E+02
 8.59980E+01    8.95359E+02
 8.60000E+01    8.95352E+02
 8.70000E+01    8.92023E+02
 8.80000E+01    8.88687E+02
 8.90000E+01    8.85348E+02
 9.00000E+01    8.82005E+02
 9.10000E+01    8.79072E+02
 9.20000E+01    8.76135E+02
 9.30000E+01    8.73196E+02
 9.40000E+01    8.70258E+02
 9.50000E+01    8.67320E+02
 9.60000E+01    8.64381E+02
 9.70000E+01    8.61438E+02
 9.80000E+01    8.58493E+02
 9.90000E+01    8.55546E+02
 1.00000E+02    8.52598E+02
 1.02000E+02    8.47337E+02
 1.04000E+02    8.42083E+02
 1.06000E+02    8.36836E+02
 1.08000E+02    8.31597E+02
 1.10000E+02    8.26367E+02
 1.12000E+02    8.21642E+02
 1.14000E+02    8.16930E+02
 1.16000E+02    8.12231E+02
 1.18000E+02    8.07543E+02
 1.20000E+02    8.02867E+02
 1.22000E+02    7.98601E+02
 1.24000E+02    7.94361E+02
 1.26000E+02    7.90142E+02
 1.28000E+02    7.85943E+02
 1.30000E+02    7.81759E+02
 1.32000E+02    7.77907E+02
 1.34000E+02    7.74080E+02
 1.36000E+02    7.70277E+02
 1.38000E+02    7.66496E+02
 1.40000E+02    7.62736E+02
 1.42000E+02    7.59243E+02
 1.44000E+02    7.55773E+02
 1.46000E+02    7.52324E+02
 1.48000E+02    7.48896E+02
 1.50000E+02    7.45487E+02
