# n + Te125 : (n,n'20)  
# jeff3.3    A.J. Koning and D. Rochman        EVAL-DEC15
# uncertainties: n
# # energies =    75
#   E(MeV)       xs(mb) 
 1.07492E+00    0.00000E+00
 1.08052E+00    1.50612E+00
 1.10021E+00    6.80174E+00
 1.14248E+00    1.81703E+01
 1.15798E+00    2.23391E+01
 1.20000E+00    3.36404E+01
 1.20135E+00    3.37471E+01
 1.21938E+00    3.51724E+01
 1.25286E+00    3.78189E+01
 1.25568E+00    3.80418E+01
 1.27539E+00    3.95998E+01
 1.32109E+00    4.32123E+01
 1.40000E+00    4.94500E+01
 1.60000E+00    5.55017E+01
 1.80000E+00    5.80574E+01
 2.00000E+00    5.80891E+01
 2.20000E+00    5.58934E+01
 2.40000E+00    5.17790E+01
 2.60000E+00    4.61489E+01
 2.80000E+00    3.98264E+01
 3.00000E+00    3.33865E+01
 3.20000E+00    2.73115E+01
 3.40000E+00    2.19072E+01
 3.60000E+00    1.73114E+01
 3.80000E+00    1.35354E+01
 4.00000E+00    1.05070E+01
 4.20000E+00    8.11624E+00
 4.40000E+00    6.24670E+00
 4.60000E+00    4.79300E+00
 4.80000E+00    3.66706E+00
 5.00000E+00    2.79822E+00
 5.20000E+00    2.13012E+00
 5.40000E+00    1.61886E+00
 5.60000E+00    1.22711E+00
 5.80000E+00    9.31225E-01
 6.00000E+00    7.05534E-01
 6.20000E+00    5.34706E-01
 6.40000E+00    4.05226E-01
 6.60000E+00    3.06972E-01
 6.80000E+00    2.33780E-01
 7.00000E+00    1.78195E-01
 7.20000E+00    1.36080E-01
 7.40000E+00    1.04316E-01
 7.60000E+00    7.99923E-02
 7.80000E+00    6.16569E-02
 8.00000E+00    4.76125E-02
 8.50000E+00    2.52831E-02
 9.00000E+00    1.36774E-02
 9.50000E+00    7.52732E-03
 1.00000E+01    4.20723E-03
 1.05000E+01    2.38327E-03
 1.10000E+01    1.36653E-03
 1.15000E+01    7.92316E-04
 1.20000E+01    4.64105E-04
 1.25000E+01    2.74550E-04
 1.30000E+01    1.63966E-04
 1.35000E+01    9.87985E-05
 1.40000E+01    6.00524E-05
 1.45000E+01    3.68066E-05
 1.50000E+01    2.27401E-05
 1.60000E+01    8.87375E-06
 1.70000E+01    3.55950E-06
 1.80000E+01    1.46556E-06
 1.90000E+01    6.18400E-07
 2.00000E+01    2.65390E-07
 2.10000E+01    1.16840E-07
 2.20000E+01    5.22210E-08
 2.30000E+01    2.37250E-08
 2.40000E+01    1.09310E-08
 2.50000E+01    5.10760E-09
 2.60000E+01    2.42100E-09
 2.70000E+01    1.16460E-09
 2.80000E+01    5.67860E-10
 2.90000E+01    2.80520E-10
 3.00000E+01    1.40560E-10
