# n + Te125 : (n,n'23)  
# jeff3.3    A.J. Koning and D. Rochman        EVAL-DEC15
# uncertainties: n
# # energies =    72
#   E(MeV)       xs(mb) 
 1.14248E+00    0.00000E+00
 1.15798E+00    5.15306E+00
 1.20000E+00    1.91229E+01
 1.20135E+00    1.92743E+01
 1.21938E+00    2.12957E+01
 1.25286E+00    2.50494E+01
 1.25568E+00    2.53656E+01
 1.27539E+00    2.75755E+01
 1.32109E+00    3.26993E+01
 1.40000E+00    4.15465E+01
 1.60000E+00    4.95051E+01
 1.80000E+00    5.29645E+01
 2.00000E+00    5.37589E+01
 2.20000E+00    5.23413E+01
 2.40000E+00    4.89901E+01
 2.60000E+00    4.40487E+01
 2.80000E+00    3.82885E+01
 3.00000E+00    3.22794E+01
 3.20000E+00    2.65164E+01
 3.40000E+00    2.13330E+01
 3.60000E+00    1.68919E+01
 3.80000E+00    1.32254E+01
 4.00000E+00    1.02764E+01
 4.20000E+00    7.94499E+00
 4.40000E+00    6.12068E+00
 4.60000E+00    4.70162E+00
 4.80000E+00    3.60192E+00
 5.00000E+00    2.75255E+00
 5.20000E+00    2.09870E+00
 5.40000E+00    1.59734E+00
 5.60000E+00    1.21241E+00
 5.80000E+00    9.21465E-01
 6.00000E+00    6.98998E-01
 6.20000E+00    5.30327E-01
 6.40000E+00    4.02318E-01
 6.60000E+00    3.05058E-01
 6.80000E+00    2.32449E-01
 7.00000E+00    1.77301E-01
 7.20000E+00    1.35441E-01
 7.40000E+00    1.03868E-01
 7.60000E+00    7.96793E-02
 7.80000E+00    6.14162E-02
 8.00000E+00    4.74347E-02
 8.50000E+00    2.51899E-02
 9.00000E+00    1.36259E-02
 9.50000E+00    7.49853E-03
 1.00000E+01    4.19127E-03
 1.05000E+01    2.37454E-03
 1.10000E+01    1.36178E-03
 1.15000E+01    7.89730E-04
 1.20000E+01    4.62685E-04
 1.25000E+01    2.73760E-04
 1.30000E+01    1.63521E-04
 1.35000E+01    9.85436E-05
 1.40000E+01    5.99041E-05
 1.45000E+01    3.67190E-05
 1.50000E+01    2.26876E-05
 1.60000E+01    8.85421E-06
 1.70000E+01    3.55204E-06
 1.80000E+01    1.46264E-06
 1.90000E+01    6.17230E-07
 2.00000E+01    2.64910E-07
 2.10000E+01    1.16640E-07
 2.20000E+01    5.21380E-08
 2.30000E+01    2.36910E-08
 2.40000E+01    1.09170E-08
 2.50000E+01    5.10170E-09
 2.60000E+01    2.41830E-09
 2.70000E+01    1.16340E-09
 2.80000E+01    5.67260E-10
 2.90000E+01    2.80230E-10
 3.00000E+01    1.40410E-10
