# n + Te125 : (n,n'19)  
# jeff3.3    A.J. Koning and D. Rochman        EVAL-DEC15
# uncertainties: n
# # energies =    76
#   E(MeV)       xs(mb) 
 1.06236E+00    0.00000E+00
 1.07492E+00    4.27152E+00
 1.08052E+00    6.17600E+00
 1.10021E+00    1.28723E+01
 1.14248E+00    2.72479E+01
 1.15798E+00    3.25193E+01
 1.20000E+00    4.68098E+01
 1.20135E+00    4.69211E+01
 1.21938E+00    4.84072E+01
 1.25286E+00    5.11668E+01
 1.25568E+00    5.13993E+01
 1.27539E+00    5.30239E+01
 1.32109E+00    5.67907E+01
 1.40000E+00    6.32949E+01
 1.60000E+00    6.64752E+01
 1.80000E+00    6.56870E+01
 2.00000E+00    6.26671E+01
 2.20000E+00    5.79366E+01
 2.40000E+00    5.18617E+01
 2.60000E+00    4.48433E+01
 2.80000E+00    3.76551E+01
 3.00000E+00    3.07868E+01
 3.20000E+00    2.46172E+01
 3.40000E+00    1.93455E+01
 3.60000E+00    1.50145E+01
 3.80000E+00    1.15608E+01
 4.00000E+00    8.86100E+00
 4.20000E+00    6.77531E+00
 4.40000E+00    5.17316E+00
 4.60000E+00    3.94498E+00
 4.80000E+00    3.00416E+00
 5.00000E+00    2.28417E+00
 5.20000E+00    1.73388E+00
 5.40000E+00    1.31469E+00
 5.60000E+00    9.94564E-01
 5.80000E+00    7.53277E-01
 6.00000E+00    5.69632E-01
 6.20000E+00    4.30865E-01
 6.40000E+00    3.25839E-01
 6.60000E+00    2.46276E-01
 6.80000E+00    1.87106E-01
 7.00000E+00    1.42246E-01
 7.20000E+00    1.08333E-01
 7.40000E+00    8.28050E-02
 7.60000E+00    6.33062E-02
 7.80000E+00    4.86479E-02
 8.00000E+00    3.74499E-02
 8.50000E+00    1.97343E-02
 9.00000E+00    1.05987E-02
 9.50000E+00    5.79508E-03
 1.00000E+01    3.22046E-03
 1.05000E+01    1.81502E-03
 1.10000E+01    1.03595E-03
 1.15000E+01    5.98149E-04
 1.20000E+01    3.49043E-04
 1.25000E+01    2.05776E-04
 1.30000E+01    1.22518E-04
 1.35000E+01    7.36244E-05
 1.40000E+01    4.46445E-05
 1.45000E+01    2.73052E-05
 1.50000E+01    1.68378E-05
 1.60000E+01    6.54781E-06
 1.70000E+01    2.61772E-06
 1.80000E+01    1.07408E-06
 1.90000E+01    4.51670E-07
 2.00000E+01    1.93250E-07
 2.10000E+01    8.48740E-08
 2.20000E+01    3.78650E-08
 2.30000E+01    1.71750E-08
 2.40000E+01    7.90050E-09
 2.50000E+01    3.68500E-09
 2.60000E+01    1.74340E-09
 2.70000E+01    8.37040E-10
 2.80000E+01    4.07410E-10
 2.90000E+01    2.00950E-10
 3.00000E+01    1.00560E-10
