# n + Te125 : (n,n'21)  
# jeff3.3    A.J. Koning and D. Rochman        EVAL-DEC15
# uncertainties: n
# # energies =    74
#   E(MeV)       xs(mb) 
 1.08052E+00    0.00000E+00
 1.10021E+00    5.02938E+00
 1.14248E+00    1.58264E+01
 1.15798E+00    1.97855E+01
 1.20000E+00    3.05187E+01
 1.20135E+00    3.06567E+01
 1.21938E+00    3.25000E+01
 1.25286E+00    3.59227E+01
 1.25568E+00    3.62110E+01
 1.27539E+00    3.82260E+01
 1.32109E+00    4.28980E+01
 1.40000E+00    5.09652E+01
 1.60000E+00    5.76306E+01
 1.80000E+00    5.91526E+01
 2.00000E+00    5.78763E+01
 2.20000E+00    5.45490E+01
 2.40000E+00    4.95745E+01
 2.60000E+00    4.33746E+01
 2.80000E+00    3.67579E+01
 3.00000E+00    3.02702E+01
 3.20000E+00    2.43374E+01
 3.40000E+00    1.91973E+01
 3.60000E+00    1.49247E+01
 3.80000E+00    1.14843E+01
 4.00000E+00    8.77663E+00
 4.20000E+00    6.67886E+00
 4.40000E+00    5.06994E+00
 4.60000E+00    3.84357E+00
 4.80000E+00    2.91231E+00
 5.00000E+00    2.20687E+00
 5.20000E+00    1.67321E+00
 5.40000E+00    1.27022E+00
 5.60000E+00    9.64147E-01
 5.80000E+00    7.34585E-01
 6.00000E+00    5.59889E-01
 6.20000E+00    4.27610E-01
 6.40000E+00    3.27029E-01
 6.60000E+00    2.50275E-01
 6.80000E+00    1.92680E-01
 7.00000E+00    1.48544E-01
 7.20000E+00    1.14755E-01
 7.40000E+00    8.89846E-02
 7.60000E+00    6.90170E-02
 7.80000E+00    5.37833E-02
 8.00000E+00    4.19734E-02
 8.50000E+00    2.28325E-02
 9.00000E+00    1.26075E-02
 9.50000E+00    7.05708E-03
 1.00000E+01    3.99887E-03
 1.05000E+01    2.28996E-03
 1.10000E+01    1.32401E-03
 1.15000E+01    7.72378E-04
 1.20000E+01    4.54351E-04
 1.25000E+01    2.69509E-04
 1.30000E+01    1.61201E-04
 1.35000E+01    9.71970E-05
 1.40000E+01    5.90843E-05
 1.45000E+01    3.62047E-05
 1.50000E+01    2.23603E-05
 1.60000E+01    8.72257E-06
 1.70000E+01    3.50246E-06
 1.80000E+01    1.44587E-06
 1.90000E+01    6.12140E-07
 2.00000E+01    2.63410E-07
 2.10000E+01    1.16110E-07
 2.20000E+01    5.19030E-08
 2.30000E+01    2.35770E-08
 2.40000E+01    1.08660E-08
 2.50000E+01    5.08280E-09
 2.60000E+01    2.41300E-09
 2.70000E+01    1.16270E-09
 2.80000E+01    5.67690E-10
 2.90000E+01    2.80660E-10
 3.00000E+01    1.40650E-10
