# n + Pt195 : (n,n'21)  
# jeff3.3    A.J. Koning and D. Rochman        EVAL-DEC15
# uncertainties: n
# # energies =    78
#   E(MeV)       xs(mb) 
 6.15890E-01    0.00000E+00
 6.33398E-01    2.23907E+00
 6.35370E-01    2.49127E+00
 6.67636E-01    6.61771E+00
 6.70551E-01    6.99051E+00
 6.81508E-01    8.39179E+00
 6.98897E-01    1.06156E+01
 7.00000E-01    1.07567E+01
 7.43372E-01    1.28986E+01
 7.69762E-01    1.42019E+01
 7.97103E-01    1.55521E+01
 8.00000E-01    1.56952E+01
 9.00000E-01    1.89566E+01
 1.00000E+00    2.05349E+01
 1.20000E+00    2.03531E+01
 1.40000E+00    1.81538E+01
 1.60000E+00    1.55577E+01
 1.80000E+00    1.31593E+01
 2.00000E+00    1.10901E+01
 2.20000E+00    9.33660E+00
 2.40000E+00    7.84226E+00
 2.60000E+00    6.55474E+00
 2.80000E+00    5.44721E+00
 3.00000E+00    4.49782E+00
 3.20000E+00    3.68975E+00
 3.40000E+00    3.00905E+00
 3.60000E+00    2.44107E+00
 3.80000E+00    1.97133E+00
 4.00000E+00    1.58539E+00
 4.20000E+00    1.27025E+00
 4.40000E+00    1.01444E+00
 4.60000E+00    8.07853E-01
 4.80000E+00    6.41651E-01
 5.00000E+00    5.08316E-01
 5.20000E+00    4.01796E-01
 5.40000E+00    3.16907E-01
 5.60000E+00    2.48036E-01
 5.80000E+00    1.94366E-01
 6.00000E+00    1.51944E-01
 6.20000E+00    1.18711E-01
 6.40000E+00    9.26298E-02
 6.60000E+00    7.20932E-02
 6.80000E+00    5.61229E-02
 7.00000E+00    4.35962E-02
 7.20000E+00    3.38514E-02
 7.40000E+00    2.63060E-02
 7.60000E+00    2.04264E-02
 7.80000E+00    1.59047E-02
 8.00000E+00    1.23906E-02
 8.50000E+00    6.69123E-03
 9.00000E+00    3.65826E-03
 9.50000E+00    2.02439E-03
 1.00000E+01    1.13248E-03
 1.05000E+01    6.39536E-04
 1.10000E+01    3.64246E-04
 1.15000E+01    2.09100E-04
 1.20000E+01    1.20960E-04
 1.25000E+01    7.05364E-05
 1.30000E+01    4.14612E-05
 1.35000E+01    2.45697E-05
 1.40000E+01    1.46749E-05
 1.45000E+01    8.83103E-06
 1.50000E+01    5.35047E-06
 1.60000E+01    1.99983E-06
 1.70000E+01    7.59290E-07
 1.80000E+01    2.94840E-07
 1.90000E+01    1.16420E-07
 2.00000E+01    4.67490E-08
 2.10000E+01    1.91140E-08
 2.20000E+01    7.95460E-09
 2.30000E+01    3.36950E-09
 2.40000E+01    1.45190E-09
 2.50000E+01    6.36030E-10
 2.60000E+01    2.81860E-10
 2.70000E+01    1.26310E-10
 2.80000E+01    5.71980E-11
 2.90000E+01    2.61600E-11
 3.00000E+01    1.20880E-11
