# n + Sn119 : (n,g)     
# jendl.ad   N.Iwamoto                         EVAL-Apr14
# uncertainties: n
# # energies =    69
#   E(MeV)       xs(mb) 
 1.00000E-10    1.52634E+04
 5.00000E-09    4.15116E+03
 1.00000E-08    3.14122E+03
 1.50000E-08    2.63678E+03
 2.00000E-08    2.31748E+03
 2.50000E-08    2.09154E+03
 3.00000E-08    1.92071E+03
 3.50000E-08    1.76411E+03
 4.20000E-08    1.61123E+03
 5.00000E-08    1.48367E+03
 5.80000E-08    1.37655E+03
 6.70000E-08    1.26761E+03
 8.00000E-08    1.14363E+03
 1.00000E-07    9.89234E+02
 1.40000E-07    8.47014E+02
 1.80000E-07    7.50418E+02
 2.20000E-07    6.86253E+02
 2.50000E-07    6.42312E+02
 2.80000E-07    6.10727E+02
 3.00000E-07    5.88398E+02
 3.20000E-07    5.63463E+02
 3.50000E-07    5.28910E+02
 4.00000E-07    4.77339E+02
 5.00000E-07    4.18115E+02
 6.25000E-07    3.64547E+02
 7.80000E-07    3.30357E+02
 8.50000E-07    3.14092E+02
 9.10000E-07    3.02688E+02
 9.50000E-07    2.96070E+02
 9.72000E-07    2.91372E+02
 9.96000E-07    2.86655E+02
 1.02000E-06    2.81988E+02
 1.04500E-06    2.77303E+02
 1.07100E-06    2.72702E+02
 1.09700E-06    2.68253E+02
 1.12300E-06    2.63859E+02
 1.15000E-06    2.50613E+02
 1.30000E-06    2.27574E+02
 1.50000E-06    1.89742E+02
 2.10000E-06    1.51022E+02
 2.60000E-06    1.23526E+02
 3.30000E-06    1.00987E+02
 4.00000E-06    2.72791E+02
 9.87700E-06    2.09914E+01
 1.59680E-05    8.86835E+00
 2.77000E-05    3.35498E+00
 4.80520E-05    5.14625E+01
 7.55014E-05    8.69611E+02
 1.48728E-04    5.81482E+02
 3.67262E-04    7.79442E+02
 9.06898E-04    9.52023E+02
 1.42510E-03    1.29590E+03
 2.23945E-03    1.02898E+03
 3.51910E-03    8.17067E+02
 5.53000E-03    6.37276E+02
 9.11800E-03    4.79791E+02
 1.50300E-02    3.69541E+02
 2.47800E-02    2.34758E+02
 4.08500E-02    1.36481E+02
 6.73400E-02    8.74865E+01
 1.11000E-01    6.43485E+01
 1.83000E-01    5.31595E+01
 3.02000E-01    4.84329E+01
 5.00000E-01    4.88009E+01
 8.21000E-01    3.84462E+01
 1.35300E+00    2.32621E+01
 2.23100E+00    1.42643E+01
 3.67900E+00    5.76912E+00
 6.06500E+00    1.06619E+00
