# n + Cf251 : (n,tot)   
# jendl.ad   O.Iwamoto,T.Nakagawa,+            EVAL-JAN10
# uncertainties: n
# # energies =   171
#   E(MeV)       xs(mb) 
 1.00000E-11    1.14153E+08
 1.00000E-07    1.02087E+07
 4.13990E-07    1.40779E+07
 5.31580E-07    2.02071E+06
 6.82560E-07    5.41941E+05
 8.76420E-07    1.93053E+05
 1.12540E-06    7.93370E+04
 1.44500E-06    3.54403E+04
 1.85540E-06    1.67923E+04
 2.37240E-06    8.22674E+03
 3.05900E-06    4.11407E+03
 3.92790E-06    1.18234E+04
 5.04350E-06    2.54695E+05
 6.47600E-06    2.23741E+05
 8.31530E-06    1.96225E+05
 1.06770E-05    1.71877E+05
 1.37100E-05    1.50502E+05
 1.76030E-05    1.31775E+05
 2.26030E-05    1.15004E+05
 2.92030E-05    1.00460E+05
 3.72670E-05    8.78217E+04
 4.78510E-05    7.65864E+04
 6.14420E-05    6.67113E+04
 7.88930E-05    5.80306E+04
 1.01300E-04    5.04146E+04
 1.30070E-04    4.37475E+04
 1.67020E-04    3.79538E+04
 2.14450E-04    3.28715E+04
 2.75360E-04    2.84351E+04
 3.53580E-04    2.45510E+04
 4.54000E-04    2.11939E+04
 5.82950E-04    1.82694E+04
 7.48520E-04    1.57360E+04
 9.61120E-04    1.35444E+04
 1.23410E-03    1.16600E+04
 1.58460E-03    1.00348E+04
 2.03470E-03    9.03145E+03
 2.24870E-03    8.51468E+03
 2.48520E-03    8.14041E+03
 2.61260E-03    7.90276E+03
 2.74650E-03    7.55999E+03
 3.03540E-03    7.13718E+03
 3.35460E-03    6.73944E+03
 3.70740E-03    6.27730E+03
 4.30740E-03    5.60653E+03
 5.53080E-03    4.89622E+03
 7.10170E-03    4.30707E+03
 9.11880E-03    3.82207E+03
 1.17090E-02    3.44466E+03
 1.50340E-02    3.10966E+03
 1.93050E-02    2.88619E+03
 2.18750E-02    2.79248E+03
 2.35790E-02    2.74737E+03
 2.41760E-02    2.72417E+03
 2.47880E-02    2.68030E+03
 2.60580E-02    2.61798E+03
 2.70000E-02    2.55139E+03
 2.85000E-02    2.44474E+03
 3.18280E-02    2.36438E+03
 3.43070E-02    2.27007E+03
 4.08680E-02    2.16107E+03
 4.63090E-02    2.07394E+03
 5.24750E-02    2.00694E+03
 5.65620E-02    1.92752E+03
 6.73790E-02    1.85315E+03
 7.20000E-02    1.80720E+03
 7.95000E-02    1.76890E+03
 8.25000E-02    1.74659E+03
 8.65170E-02    1.70080E+03
 9.80370E-02    1.63045E+03
 1.11090E-01    1.57616E+03
 1.16790E-01    1.54463E+03
 1.22770E-01    1.51939E+03
 1.29070E-01    1.49534E+03
 1.35690E-01    1.47202E+03
 1.42640E-01    1.45163E+03
 1.49960E-01    1.43665E+03
 1.57640E-01    1.42272E+03
 1.65730E-01    1.40932E+03
 1.74220E-01    1.39752E+03
 1.83160E-01    1.37680E+03
 1.92550E-01    1.35320E+03
 2.02420E-01    1.32707E+03
 2.12800E-01    1.29905E+03
 2.23710E-01    1.27103E+03
 2.35180E-01    1.24553E+03
 2.47240E-01    1.22060E+03
 2.73240E-01    1.20261E+03
 2.87250E-01    1.19428E+03
 2.94520E-01    1.19039E+03
 2.97200E-01    1.18911E+03
 2.98500E-01    1.18741E+03
 3.01970E-01    1.16400E+03
 3.33730E-01    1.13946E+03
 3.68830E-01    1.12700E+03
 3.87740E-01    1.11945E+03
 4.07620E-01    1.12353E+03
 4.50490E-01    1.13347E+03
 4.97870E-01    1.13544E+03
 5.23400E-01    1.12588E+03
 5.50230E-01    1.11617E+03
 5.78440E-01    1.10654E+03
 6.08100E-01    1.10212E+03
 6.39280E-01    1.09979E+03
 6.72060E-01    1.09765E+03
 7.06510E-01    1.09371E+03
 7.42740E-01    1.08886E+03
 7.80820E-01    1.08477E+03
 8.20850E-01    1.08447E+03
 8.62940E-01    1.08512E+03
 9.07180E-01    1.08892E+03
 9.61640E-01    1.09422E+03
 1.00260E+00    1.10582E+03
 1.10800E+00    1.12265E+03
 1.16480E+00    1.13714E+03
 1.22460E+00    1.15477E+03
 1.28730E+00    1.17406E+03
 1.35340E+00    1.19461E+03
 1.42270E+00    1.21637E+03
 1.49570E+00    1.23936E+03
 1.57240E+00    1.26293E+03
 1.65300E+00    1.28527E+03
 1.73770E+00    1.30856E+03
 1.82680E+00    1.32981E+03
 1.92050E+00    1.35117E+03
 2.01900E+00    1.37287E+03
 2.12250E+00    1.39297E+03
 2.23130E+00    1.41065E+03
 2.30690E+00    1.42172E+03
 2.34570E+00    1.42737E+03
 2.36530E+00    1.43120E+03
 2.38520E+00    1.44046E+03
 2.46600E+00    1.45881E+03
 2.59240E+00    1.48201E+03
 2.72530E+00    1.50296E+03
 2.86500E+00    1.52340E+03
 3.01190E+00    1.54167E+03
 3.16640E+00    1.55851E+03
 3.32870E+00    1.58150E+03
 3.67880E+00    1.58816E+03
 4.06570E+00    1.58497E+03
 4.49330E+00    1.58005E+03
 4.72370E+00    1.57623E+03
 4.96590E+00    1.57399E+03
 5.22050E+00    1.57561E+03
 5.48810E+00    1.58293E+03
 5.76950E+00    1.59853E+03
 6.06530E+00    1.65042E+03
 6.37630E+00    1.73768E+03
 6.59240E+00    1.96031E+03
 6.70320E+00    2.33443E+03
 7.04690E+00    2.60710E+03
 7.40820E+00    2.69213E+03
 7.78800E+00    2.75834E+03
 8.18730E+00    2.79361E+03
 8.60710E+00    2.82120E+03
 9.04840E+00    2.83583E+03
 9.51230E+00    2.84343E+03
 1.00000E+01    2.84675E+03
 1.05130E+01    2.84758E+03
 1.10520E+01    2.85004E+03
 1.16180E+01    2.85046E+03
 1.22140E+01    2.84830E+03
 1.28400E+01    2.84698E+03
 1.34990E+01    2.84850E+03
 1.38400E+01    2.84770E+03
 1.41910E+01    2.84747E+03
 1.45500E+01    2.84933E+03
 1.49180E+01    2.84913E+03
 1.56830E+01    2.84860E+03
 1.64870E+01    2.84883E+03
