# n + Cf251 : (n,f)     
# jendl.ad   O.Iwamoto,T.Nakagawa,+            EVAL-JAN10
# uncertainties: n
# # energies =   171
#   E(MeV)       xs(mb) 
 1.00000E-11    7.22256E+07
 1.00000E-07    6.46146E+06
 4.13990E-07    8.90993E+06
 5.31580E-07    1.27848E+06
 6.82560E-07    3.42899E+05
 8.76420E-07    1.22156E+05
 1.12540E-06    5.02098E+04
 1.44500E-06    2.24267E+04
 1.85540E-06    1.06301E+04
 2.37240E-06    5.20621E+03
 3.05900E-06    2.60405E+03
 3.92790E-06    8.13824E+03
 5.04350E-06    1.84447E+05
 6.47600E-06    1.61988E+05
 8.31530E-06    1.42203E+05
 1.06770E-05    1.24673E+05
 1.37100E-05    1.09292E+05
 1.76030E-05    9.57858E+04
 2.26030E-05    8.37097E+04
 2.92030E-05    7.32261E+04
 3.72670E-05    6.40925E+04
 4.78510E-05    5.59719E+04
 6.14420E-05    4.88366E+04
 7.88930E-05    4.25523E+04
 1.01300E-04    3.70340E+04
 1.30070E-04    3.21930E+04
 1.67020E-04    2.79767E+04
 2.14450E-04    2.42788E+04
 2.75360E-04    2.10435E+04
 3.53580E-04    1.82100E+04
 4.54000E-04    1.57539E+04
 5.82950E-04    1.36118E+04
 7.48520E-04    1.17491E+04
 9.61120E-04    1.01378E+04
 1.23410E-03    8.74683E+03
 1.58460E-03    7.54526E+03
 2.03470E-03    6.80171E+03
 2.24870E-03    6.41792E+03
 2.48520E-03    6.14229E+03
 2.61260E-03    5.96661E+03
 2.74650E-03    5.71117E+03
 3.03540E-03    5.39596E+03
 3.35460E-03    5.10080E+03
 3.70740E-03    4.75589E+03
 4.30740E-03    4.25559E+03
 5.53080E-03    3.72425E+03
 7.10170E-03    3.28311E+03
 9.11880E-03    2.92086E+03
 1.17090E-02    2.63966E+03
 1.50340E-02    2.38879E+03
 1.93050E-02    2.22218E+03
 2.18750E-02    2.15350E+03
 2.35790E-02    2.12094E+03
 2.41760E-02    2.10411E+03
 2.47880E-02    2.07105E+03
 2.60580E-02    2.02486E+03
 2.70000E-02    1.97645E+03
 2.85000E-02    1.89884E+03
 3.18280E-02    1.84199E+03
 3.43070E-02    1.77371E+03
 4.08680E-02    1.69530E+03
 4.63090E-02    1.63307E+03
 5.24750E-02    1.58627E+03
 5.65620E-02    1.53062E+03
 6.73790E-02    1.47848E+03
 7.20000E-02    1.44681E+03
 7.95000E-02    1.42076E+03
 8.25000E-02    1.40448E+03
 8.65170E-02    1.37330E+03
 9.80370E-02    1.32340E+03
 1.11090E-01    1.28443E+03
 1.16790E-01    1.26210E+03
 1.22770E-01    1.24448E+03
 1.29070E-01    1.22744E+03
 1.35690E-01    1.21132E+03
 1.42640E-01    1.19750E+03
 1.49960E-01    1.18801E+03
 1.57640E-01    1.17987E+03
 1.65730E-01    1.17161E+03
 1.74220E-01    1.16486E+03
 1.83160E-01    1.15024E+03
 1.92550E-01    1.13357E+03
 2.02420E-01    1.11574E+03
 2.12800E-01    1.09602E+03
 2.23710E-01    1.07536E+03
 2.35180E-01    1.05673E+03
 2.47240E-01    1.04032E+03
 2.73240E-01    1.02958E+03
 2.87250E-01    1.02436E+03
 2.94520E-01    1.02240E+03
 2.97200E-01    1.02169E+03
 2.98500E-01    1.02047E+03
 3.01970E-01    1.00386E+03
 3.33730E-01    9.88544E+02
 3.68830E-01    9.82247E+02
 3.87740E-01    9.78576E+02
 4.07620E-01    9.86875E+02
 4.50490E-01    1.00207E+03
 4.97870E-01    1.00882E+03
 5.23400E-01    1.00383E+03
 5.50230E-01    9.98526E+02
 5.78440E-01    9.93212E+02
 6.08100E-01    9.92716E+02
 6.39280E-01    9.94186E+02
 6.72060E-01    9.95691E+02
 7.06510E-01    9.95714E+02
 7.42740E-01    9.94930E+02
 7.80820E-01    9.94790E+02
 8.20850E-01    9.98585E+02
 8.62940E-01    1.00320E+03
 9.07180E-01    1.01034E+03
 9.61640E-01    1.01955E+03
 1.00260E+00    1.03553E+03
 1.10800E+00    1.05718E+03
 1.16480E+00    1.07529E+03
 1.22460E+00    1.09549E+03
 1.28730E+00    1.11798E+03
 1.35340E+00    1.14161E+03
 1.42270E+00    1.16645E+03
 1.49570E+00    1.19258E+03
 1.57240E+00    1.21978E+03
 1.65300E+00    1.24560E+03
 1.73770E+00    1.27198E+03
 1.82680E+00    1.29730E+03
 1.92050E+00    1.32161E+03
 2.01900E+00    1.34680E+03
 2.12250E+00    1.37012E+03
 2.23130E+00    1.38983E+03
 2.30690E+00    1.40206E+03
 2.34570E+00    1.40830E+03
 2.36530E+00    1.41251E+03
 2.38520E+00    1.42320E+03
 2.46600E+00    1.44419E+03
 2.59240E+00    1.46895E+03
 2.72530E+00    1.49258E+03
 2.86500E+00    1.51400E+03
 3.01190E+00    1.53478E+03
 3.16640E+00    1.55303E+03
 3.32870E+00    1.57750E+03
 3.67880E+00    1.58563E+03
 4.06570E+00    1.58307E+03
 4.49330E+00    1.57824E+03
 4.72370E+00    1.57480E+03
 4.96590E+00    1.57350E+03
 5.22050E+00    1.57604E+03
 5.48810E+00    1.58250E+03
 5.76950E+00    1.59795E+03
 6.06530E+00    1.64985E+03
 6.37630E+00    1.71197E+03
 6.59240E+00    1.76958E+03
 6.70320E+00    1.85691E+03
 7.04690E+00    1.97867E+03
 7.40820E+00    2.09502E+03
 7.78800E+00    2.20242E+03
 8.18730E+00    2.28280E+03
 8.60710E+00    2.35464E+03
 9.04840E+00    2.40779E+03
 9.51230E+00    2.44940E+03
 1.00000E+01    2.47769E+03
 1.05130E+01    2.49653E+03
 1.10520E+01    2.51235E+03
 1.16180E+01    2.52615E+03
 1.22140E+01    2.54275E+03
 1.28400E+01    2.56283E+03
 1.34990E+01    2.57836E+03
 1.38400E+01    2.58592E+03
 1.41910E+01    2.59248E+03
 1.45500E+01    2.59902E+03
 1.49180E+01    2.60711E+03
 1.56830E+01    2.61803E+03
 1.64870E+01    2.62951E+03
