# n + Br 81 : (n,n'09)  
# jeff3.3    A.J. Koning and D. Rochman        EVAL-DEC15
# uncertainties: n
# # energies =    88
#   E(MeV)       xs(mb) 
 8.47211E-01    0.00000E+00
 9.00000E-01    2.78138E+01
 9.17294E-01    3.35016E+01
 9.87154E-01    5.64776E+01
 1.00000E+00    6.07025E+01
 1.03646E+00    6.70898E+01
 1.08962E+00    7.64027E+01
 1.11908E+00    8.15636E+01
 1.18458E+00    9.30383E+01
 1.19147E+00    9.42454E+01
 1.20000E+00    9.57397E+01
 1.20473E+00    9.59060E+01
 1.25331E+00    9.76139E+01
 1.28219E+00    9.86292E+01
 1.29940E+00    9.92343E+01
 1.31621E+00    9.98252E+01
 1.33949E+00    1.00644E+02
 1.34385E+00    1.00797E+02
 1.36663E+00    1.01598E+02
 1.38860E+00    1.02370E+02
 1.40000E+00    1.02771E+02
 1.41836E+00    1.02373E+02
 1.50017E+00    1.00598E+02
 1.53176E+00    9.99121E+01
 1.54128E+00    9.97055E+01
 1.55505E+00    9.94067E+01
 1.60000E+00    9.84314E+01
 1.80000E+00    8.70546E+01
 2.00000E+00    7.35304E+01
 2.20000E+00    6.07535E+01
 2.40000E+00    4.97180E+01
 2.60000E+00    4.05149E+01
 2.80000E+00    3.29253E+01
 3.00000E+00    2.66529E+01
 3.20000E+00    2.14499E+01
 3.40000E+00    1.71694E+01
 3.60000E+00    1.36612E+01
 3.80000E+00    1.08003E+01
 4.00000E+00    8.49483E+00
 4.20000E+00    6.65717E+00
 4.40000E+00    5.20724E+00
 4.60000E+00    4.07058E+00
 4.80000E+00    3.18570E+00
 5.00000E+00    2.50086E+00
 5.20000E+00    1.97073E+00
 5.40000E+00    1.56066E+00
 5.60000E+00    1.24511E+00
 5.80000E+00    9.99544E-01
 6.00000E+00    8.10479E-01
 6.20000E+00    6.63141E-01
 6.40000E+00    5.46880E-01
 6.60000E+00    4.57703E-01
 6.80000E+00    3.86267E-01
 7.00000E+00    3.30374E-01
 7.20000E+00    2.85965E-01
 7.40000E+00    2.49807E-01
 7.60000E+00    2.21532E-01
 7.80000E+00    1.98453E-01
 8.00000E+00    1.80040E-01
 8.50000E+00    1.47812E-01
 9.00000E+00    1.28443E-01
 9.50000E+00    1.16610E-01
 1.00000E+01    1.09312E-01
 1.05000E+01    1.04797E-01
 1.10000E+01    1.02005E-01
 1.15000E+01    1.00293E-01
 1.20000E+01    9.92628E-02
 1.25000E+01    9.86533E-02
 1.30000E+01    9.82910E-02
 1.35000E+01    9.80612E-02
 1.40000E+01    9.78914E-02
 1.45000E+01    9.77380E-02
 1.50000E+01    9.75812E-02
 1.60000E+01    9.72423E-02
 1.70000E+01    9.69083E-02
 1.80000E+01    9.66373E-02
 1.90000E+01    9.64477E-02
 2.00000E+01    9.63074E-02
 2.10000E+01    9.61445E-02
 2.20000E+01    9.58772E-02
 2.30000E+01    9.54427E-02
 2.40000E+01    9.48123E-02
 2.50000E+01    9.39924E-02
 2.60000E+01    9.30134E-02
 2.70000E+01    9.19147E-02
 2.80000E+01    9.07323E-02
 2.90000E+01    8.94946E-02
 3.00000E+01    8.82187E-02
