# n + Br 81 : (n,n'11)  
# jeff3.3    A.J. Koning and D. Rochman        EVAL-DEC15
# uncertainties: n
# # energies =    85
#   E(MeV)       xs(mb) 
 9.87154E-01    0.00000E+00
 1.00000E+00    8.43073E+00
 1.03646E+00    1.54642E+01
 1.08962E+00    2.57192E+01
 1.11908E+00    3.14022E+01
 1.18458E+00    4.40377E+01
 1.19147E+00    4.53669E+01
 1.20000E+00    4.70124E+01
 1.20473E+00    4.73465E+01
 1.25331E+00    5.07778E+01
 1.28219E+00    5.28177E+01
 1.29940E+00    5.40333E+01
 1.31621E+00    5.52206E+01
 1.33949E+00    5.68649E+01
 1.34385E+00    5.71729E+01
 1.36663E+00    5.87819E+01
 1.38860E+00    6.03337E+01
 1.40000E+00    6.11389E+01
 1.41836E+00    6.12779E+01
 1.50017E+00    6.18970E+01
 1.53176E+00    6.21361E+01
 1.54128E+00    6.22081E+01
 1.55505E+00    6.23123E+01
 1.60000E+00    6.26525E+01
 1.80000E+00    5.70700E+01
 2.00000E+00    4.83663E+01
 2.20000E+00    3.97349E+01
 2.40000E+00    3.22559E+01
 2.60000E+00    2.60540E+01
 2.80000E+00    2.09890E+01
 3.00000E+00    1.68683E+01
 3.20000E+00    1.35170E+01
 3.40000E+00    1.08171E+01
 3.60000E+00    8.64567E+00
 3.80000E+00    6.89868E+00
 4.00000E+00    5.50056E+00
 4.20000E+00    4.38619E+00
 4.40000E+00    3.50153E+00
 4.60000E+00    2.79994E+00
 4.80000E+00    2.24505E+00
 5.00000E+00    1.80718E+00
 5.20000E+00    1.46090E+00
 5.40000E+00    1.18717E+00
 5.60000E+00    9.70590E-01
 5.80000E+00    7.98386E-01
 6.00000E+00    6.62455E-01
 6.20000E+00    5.53861E-01
 6.40000E+00    4.66280E-01
 6.60000E+00    3.97555E-01
 6.80000E+00    3.41385E-01
 7.00000E+00    2.96621E-01
 7.20000E+00    2.60403E-01
 7.40000E+00    2.30412E-01
 7.60000E+00    2.06649E-01
 7.80000E+00    1.86977E-01
 8.00000E+00    1.71109E-01
 8.50000E+00    1.42869E-01
 9.00000E+00    1.25548E-01
 9.50000E+00    1.14797E-01
 1.00000E+01    1.08078E-01
 1.05000E+01    1.03875E-01
 1.10000E+01    1.01250E-01
 1.15000E+01    9.96275E-02
 1.20000E+01    9.86468E-02
 1.25000E+01    9.80680E-02
 1.30000E+01    9.77287E-02
 1.35000E+01    9.75206E-02
 1.40000E+01    9.73727E-02
 1.45000E+01    9.72415E-02
 1.50000E+01    9.71062E-02
 1.60000E+01    9.68034E-02
 1.70000E+01    9.64938E-02
 1.80000E+01    9.62365E-02
 1.90000E+01    9.60538E-02
 2.00000E+01    9.59191E-02
 2.10000E+01    9.57644E-02
 2.20000E+01    9.55109E-02
 2.30000E+01    9.50958E-02
 2.40000E+01    9.44887E-02
 2.50000E+01    9.36932E-02
 2.60000E+01    9.27371E-02
 2.70000E+01    9.16584E-02
 2.80000E+01    9.04929E-02
 2.90000E+01    8.92692E-02
 3.00000E+01    8.80053E-02
