# n + Xe131 : (n,n'05)  
# tendl.2019 A.J. Koning and D. Rochman        EVAL-NOV19
# uncertainties: n
# # energies =    96
#   E(MeV)       xs(mb) 
 4.07934E-01    0.00000E+00
 5.00000E-01    1.64081E+02
 5.69545E-01    1.95426E+02
 6.00000E-01    2.09153E+02
 6.41898E-01    2.15009E+02
 6.72073E-01    2.19226E+02
 7.00000E-01    2.23129E+02
 7.05293E-01    2.22288E+02
 7.28479E-01    2.18605E+02
 8.00000E-01    2.07245E+02
 8.12140E-01    2.06568E+02
 9.00000E-01    2.01666E+02
 9.20881E-01    1.99399E+02
 9.59628E-01    1.95192E+02
 9.78704E-01    1.93120E+02
 9.80608E-01    1.92914E+02
 1.00000E+00    1.90808E+02
 1.00208E+00    1.90609E+02
 1.04229E+00    1.86760E+02
 1.05361E+00    1.85676E+02
 1.12186E+00    1.79142E+02
 1.16546E+00    1.74968E+02
 1.20000E+00    1.71662E+02
 1.20033E+00    1.71648E+02
 1.25459E+00    1.69262E+02
 1.33042E+00    1.65927E+02
 1.40000E+00    1.62868E+02
 1.40811E+00    1.62484E+02
 1.46751E+00    1.59669E+02
 1.59639E+00    1.53563E+02
 1.60000E+00    1.53392E+02
 1.61293E+00    1.51994E+02
 1.62875E+00    1.50283E+02
 1.63351E+00    1.49769E+02
 1.65407E+00    1.47545E+02
 1.80000E+00    1.31766E+02
 2.00000E+00    9.79094E+01
 2.20000E+00    6.91647E+01
 2.40000E+00    4.80653E+01
 2.60000E+00    3.33578E+01
 2.80000E+00    2.33236E+01
 3.00000E+00    1.65124E+01
 3.20000E+00    1.18553E+01
 3.40000E+00    8.61694E+00
 3.60000E+00    6.32720E+00
 3.80000E+00    4.68085E+00
 4.00000E+00    3.47985E+00
 4.20000E+00    2.59464E+00
 4.40000E+00    1.93794E+00
 4.60000E+00    1.44865E+00
 4.80000E+00    1.08363E+00
 5.00000E+00    8.11114E-01
 5.20000E+00    6.07512E-01
 5.40000E+00    4.55449E-01
 5.60000E+00    3.42050E-01
 5.80000E+00    2.57505E-01
 6.00000E+00    1.94147E-01
 6.20000E+00    1.46990E-01
 6.40000E+00    1.11083E-01
 6.60000E+00    8.45170E-02
 6.80000E+00    6.45491E-02
 7.00000E+00    4.94402E-02
 7.20000E+00    3.80362E-02
 7.40000E+00    2.93195E-02
 7.60000E+00    2.26894E-02
 7.80000E+00    1.76042E-02
 8.00000E+00    1.36888E-02
 8.50000E+00    7.38701E-03
 9.00000E+00    4.04426E-03
 9.50000E+00    2.24240E-03
 1.00000E+01    1.25752E-03
 1.05000E+01    7.12766E-04
 1.10000E+01    4.08153E-04
 1.15000E+01    2.36045E-04
 1.20000E+01    1.37851E-04
 1.25000E+01    8.12768E-05
 1.30000E+01    4.83689E-05
 1.35000E+01    2.90458E-05
 1.40000E+01    1.75963E-05
 1.45000E+01    1.07501E-05
 1.50000E+01    6.61958E-06
 1.60000E+01    2.56388E-06
 1.70000E+01    1.01806E-06
 1.80000E+01    4.13910E-07
 1.90000E+01    1.72060E-07
 2.00000E+01    7.26630E-08
 2.10000E+01    3.13760E-08
 2.20000E+01    1.37480E-08
 2.30000E+01    6.11400E-09
 2.40000E+01    2.75980E-09
 2.50000E+01    1.26610E-09
 2.60000E+01    5.89440E-10
 2.70000E+01    2.78540E-10
 2.80000E+01    1.33500E-10
 2.90000E+01    6.47630E-11
 3.00000E+01    3.17610E-11
