# n + Re187 : (n,n'05)  
# endfb8.0   I.J. Thompson and N.C. Summers    EVAL-Jan11
# uncertainties: n
# # energies =    99
#   E(MeV)       xs(mb) 
 5.14527E-01    0.00000E+00
 6.00000E-01    4.06825E+01
 8.00000E-01    5.04120E+01
 1.00000E+00    4.21925E+01
 1.20000E+00    3.20447E+01
 1.40000E+00    2.38466E+01
 1.60000E+00    1.77477E+01
 1.80000E+00    1.32708E+01
 2.00000E+00    9.98726E+00
 2.20000E+00    7.56413E+00
 2.40000E+00    5.75390E+00
 2.60000E+00    4.38423E+00
 2.80000E+00    3.33723E+00
 3.00000E+00    2.53303E+00
 3.20000E+00    1.91558E+00
 3.40000E+00    1.44360E+00
 3.60000E+00    1.08552E+00
 3.80000E+00    8.16033E-01
 4.00000E+00    6.14825E-01
 4.20000E+00    4.65497E-01
 4.40000E+00    3.55172E-01
 4.60000E+00    2.73984E-01
 4.80000E+00    2.14403E-01
 5.00000E+00    1.70934E-01
 5.20000E+00    1.39165E-01
 5.40000E+00    1.16282E-01
 5.60000E+00    9.96803E-02
 5.80000E+00    8.79718E-02
 6.00000E+00    7.96670E-02
 6.20000E+00    7.38021E-02
 6.40000E+00    6.96734E-02
 6.60000E+00    6.67594E-02
 6.80000E+00    6.47309E-02
 7.00000E+00    6.33334E-02
 7.20000E+00    6.24047E-02
 7.40000E+00    6.18273E-02
 7.60000E+00    6.15118E-02
 7.80000E+00    6.13979E-02
 8.00000E+00    6.14330E-02
 8.20000E+00    6.15785E-02
 8.40000E+00    6.18010E-02
 8.60000E+00    6.20709E-02
 8.80000E+00    6.23642E-02
 9.00000E+00    6.26585E-02
 9.20000E+00    6.29355E-02
 9.40000E+00    6.31804E-02
 9.60000E+00    6.33810E-02
 9.80000E+00    6.35287E-02
 1.00000E+01    6.36178E-02
 1.02000E+01    6.36463E-02
 1.04000E+01    6.36132E-02
 1.06000E+01    6.35210E-02
 1.08000E+01    6.33734E-02
 1.10000E+01    6.31749E-02
 1.12000E+01    6.29317E-02
 1.14000E+01    6.26495E-02
 1.16000E+01    6.23347E-02
 1.18000E+01    6.19935E-02
 1.20000E+01    6.16315E-02
 1.22000E+01    6.12540E-02
 1.24000E+01    6.08655E-02
 1.26000E+01    6.04706E-02
 1.28000E+01    6.00723E-02
 1.30000E+01    5.96741E-02
 1.32000E+01    5.92779E-02
 1.34000E+01    5.88860E-02
 1.36000E+01    5.84994E-02
 1.38000E+01    5.81197E-02
 1.40000E+01    5.77473E-02
 1.42000E+01    5.73826E-02
 1.44000E+01    5.70258E-02
 1.46000E+01    5.66773E-02
 1.48000E+01    5.63366E-02
 1.50000E+01    5.60035E-02
 1.52000E+01    5.56777E-02
 1.54000E+01    5.53587E-02
 1.56000E+01    5.50463E-02
 1.58000E+01    5.47398E-02
 1.60000E+01    5.44389E-02
 1.62000E+01    5.41427E-02
 1.64000E+01    5.38510E-02
 1.66000E+01    5.35633E-02
 1.68000E+01    5.32791E-02
 1.70000E+01    5.29979E-02
 1.72000E+01    5.27190E-02
 1.74000E+01    5.24427E-02
 1.76000E+01    5.21680E-02
 1.78000E+01    5.18950E-02
 1.80000E+01    5.16233E-02
 1.82000E+01    5.13526E-02
 1.84000E+01    5.10831E-02
 1.86000E+01    5.08145E-02
 1.88000E+01    5.05468E-02
 1.90000E+01    5.02803E-02
 1.92000E+01    5.00149E-02
 1.94000E+01    4.97508E-02
 1.96000E+01    4.94884E-02
 1.98000E+01    4.92275E-02
 2.00000E+01    4.89686E-02
