# n + Re187 : (n,a)     
# endfb8.0   I.J. Thompson and N.C. Summers    EVAL-Jan11
# uncertainties: n
# # energies =    90
#   E(MeV)       xs(mb) 
 2.20000E+00    0.00000E+00
 2.40000E+00    8.35810E-07
 2.60000E+00    1.03676E-06
 2.80000E+00    1.54762E-06
 3.00000E+00    1.98888E-06
 3.20000E+00    2.23396E-06
 3.40000E+00    2.80893E-06
 3.60000E+00    3.24133E-06
 3.80000E+00    3.56930E-06
 4.00000E+00    4.20380E-06
 4.20000E+00    4.48880E-06
 4.40000E+00    4.99792E-06
 4.60000E+00    5.41752E-06
 4.80000E+00    5.42856E-06
 5.00000E+00    6.01876E-06
 5.20000E+00    6.14385E-06
 5.40000E+00    6.23801E-06
 5.60000E+00    6.60470E-06
 5.80000E+00    5.75508E-06
 6.00000E+00    6.74396E-06
 6.20000E+00    7.14300E-06
 6.40000E+00    6.66134E-06
 6.60000E+00    1.16806E-03
 6.80000E+00    1.31749E-03
 7.00000E+00    1.57112E-03
 7.20000E+00    1.89309E-03
 7.40000E+00    2.09054E-03
 7.60000E+00    2.63956E-03
 7.80000E+00    3.02540E-03
 8.00000E+00    3.64614E-03
 8.20000E+00    4.57113E-03
 8.40000E+00    4.94306E-03
 8.60000E+00    6.38591E-03
 8.80000E+00    7.29827E-03
 9.00000E+00    8.83221E-03
 9.20000E+00    1.12493E-02
 9.40000E+00    1.21642E-02
 9.60000E+00    1.56876E-02
 9.80000E+00    1.83412E-02
 1.00000E+01    2.18735E-02
 1.02000E+01    2.77407E-02
 1.04000E+01    3.06814E-02
 1.06000E+01    3.86710E-02
 1.08000E+01    4.58345E-02
 1.10000E+01    5.38616E-02
 1.12000E+01    6.72476E-02
 1.14000E+01    7.54189E-02
 1.16000E+01    9.27678E-02
 1.18000E+01    1.09976E-01
 1.20000E+01    1.26958E-01
 1.22000E+01    1.54512E-01
 1.24000E+01    1.73349E-01
 1.26000E+01    2.07195E-01
 1.28000E+01    2.38540E-01
 1.30000E+01    2.69846E-01
 1.32000E+01    3.18753E-01
 1.34000E+01    3.64930E-01
 1.36000E+01    4.18907E-01
 1.38000E+01    5.08698E-01
 1.40000E+01    5.62595E-01
 1.42000E+01    6.13607E-01
 1.44000E+01    6.73166E-01
 1.46000E+01    7.54162E-01
 1.48000E+01    8.86827E-01
 1.50000E+01    9.68544E-01
 1.52000E+01    1.04522E+00
 1.54000E+01    1.13319E+00
 1.56000E+01    1.24757E+00
 1.58000E+01    1.41858E+00
 1.60000E+01    1.52677E+00
 1.62000E+01    1.63115E+00
 1.64000E+01    1.74487E+00
 1.66000E+01    1.88845E+00
 1.68000E+01    2.09626E+00
 1.70000E+01    2.22571E+00
 1.72000E+01    2.35941E+00
 1.74000E+01    2.50489E+00
 1.76000E+01    2.68421E+00
 1.78000E+01    2.93288E+00
 1.80000E+01    3.08704E+00
 1.82000E+01    3.26030E+00
 1.84000E+01    3.44871E+00
 1.86000E+01    3.68203E+00
 1.88000E+01    3.98112E+00
 1.90000E+01    4.16894E+00
 1.92000E+01    4.37891E+00
 1.94000E+01    4.61113E+00
 1.96000E+01    4.90896E+00
 1.98000E+01    5.26804E+00
 2.00000E+01    5.53067E+00
