# n + Ho165 : (n,xp)    
# jendl.ad   N.Iwamoto                         EVAL-Apr14
# 
# # energies =   103
#   E(MeV)        xs(mb) 
 9.52792E-02    0.00000E+00
 1.00000E-01    0.00000E+00
 1.05000E-01    0.00000E+00
 1.10000E-01    0.00000E+00
 1.20000E-01    0.00000E+00
 1.30000E-01    0.00000E+00
 1.40000E-01    0.00000E+00
 1.50000E-01    0.00000E+00
 1.60000E-01    0.00000E+00
 1.70000E-01    0.00000E+00
 1.80000E-01    0.00000E+00
 1.90000E-01    0.00000E+00
 2.00000E-01    0.00000E+00
 2.11087E-01    0.00000E+00
 2.25000E-01    0.00000E+00
 2.50000E-01    0.00000E+00
 2.75000E-01    0.00000E+00
 3.00000E-01    0.00000E+00
 3.47009E-01    0.00000E+00
 3.63887E-01    0.00000E+00
 4.00000E-01    0.00000E+00
 4.22110E-01    0.00000E+00
 4.32014E-01    0.00000E+00
 4.52006E-01    0.00000E+00
 4.52007E-01    0.00000E+00
 4.94050E-01    0.00000E+00
 5.00000E-01    0.00000E+00
 5.02454E-01    0.00000E+00
 5.18628E-01    9.23689E-18
 5.42307E-01    2.86770E-17
 5.70266E-01    5.16310E-17
 5.93407E-01    7.06294E-17
 6.00000E-01    7.60421E-17
 6.05279E-01    8.03759E-17
 6.42405E-01    1.14686E-16
 6.77116E-01    1.48256E-16
 6.85366E-01    1.56234E-16
 6.93012E-01    1.63626E-16
 7.00000E-01    1.70384E-16
 7.06293E-01    1.76471E-16
 7.08104E-01    1.78222E-16
 7.19705E-01    1.89443E-16
 7.35370E-01    2.04594E-16
 7.48550E-01    2.17341E-16
 7.95636E-01    2.62878E-16
 8.00000E-01    2.67098E-16
 8.07207E-01    2.74067E-16
 8.24814E-01    2.91099E-16
 8.25126E-01    2.91401E-16
 8.32259E-01    2.98300E-16
 8.46948E-01    3.12508E-16
 8.68580E-01    3.33431E-16
 8.76226E-01    3.40825E-16
 9.00000E-01    3.63818E-16
 1.00000E+00    4.60529E-16
 1.10000E+00    5.57241E-16
 1.20000E+00    6.53953E-16
 1.30000E+00    7.50665E-16
 1.40000E+00    8.47376E-16
 1.50000E+00    9.44088E-16
 1.60000E+00    1.04080E-15
 1.70000E+00    1.04300E-14
 1.80000E+00    8.92890E-14
 1.90000E+00    5.95550E-13
 2.00000E+00    3.23800E-12
 2.25000E+00    1.14030E-10
 2.50000E+00    1.84320E-09
 2.75000E+00    1.80040E-08
 3.00000E+00    1.11930E-07
 3.50000E+00    1.95298E-06
 4.00000E+00    1.58379E-05
 4.50000E+00    7.50282E-05
 5.00000E+00    2.41301E-04
 5.50000E+00    5.84960E-04
 6.00000E+00    1.07427E-03
 6.50000E+00    1.91743E-03
 7.00000E+00    3.29290E-03
 7.50000E+00    5.90391E-03
 8.00000E+00    1.13908E-02
 8.50000E+00    2.29361E-02
 9.00000E+00    4.59569E-02
 9.50000E+00    8.87597E-02
 1.00000E+01    1.62903E-01
 1.05000E+01    2.83115E-01
 1.10000E+01    4.66564E-01
 1.15000E+01    7.31597E-01
 1.20000E+01    1.09616E+00
 1.25000E+01    1.57637E+00
 1.30000E+01    2.18547E+00
 1.35000E+01    2.93368E+00
 1.40000E+01    3.82798E+00
 1.45000E+01    4.87281E+00
 1.50000E+01    6.07042E+00
 1.55000E+01    7.42140E+00
 1.60000E+01    8.92485E+00
 1.65000E+01    1.05789E+01
 1.70000E+01    1.23812E+01
 1.75000E+01    1.43285E+01
 1.80000E+01    1.64172E+01
 1.85000E+01    1.86431E+01
 1.90000E+01    2.10015E+01
 1.95000E+01    2.34866E+01
 2.00000E+01    2.60924E+01
