# n + Ho165 : (n,xt)    
# jendl.ad   N.Iwamoto                         EVAL-Apr14
# 
# # energies =   103
#   E(MeV)        xs(mb) 
 9.52792E-02    0.00000E+00
 1.00000E-01    0.00000E+00
 1.05000E-01    0.00000E+00
 1.10000E-01    0.00000E+00
 1.20000E-01    0.00000E+00
 1.30000E-01    0.00000E+00
 1.40000E-01    0.00000E+00
 1.50000E-01    0.00000E+00
 1.60000E-01    0.00000E+00
 1.70000E-01    0.00000E+00
 1.80000E-01    0.00000E+00
 1.90000E-01    0.00000E+00
 2.00000E-01    0.00000E+00
 2.11087E-01    0.00000E+00
 2.25000E-01    0.00000E+00
 2.50000E-01    0.00000E+00
 2.75000E-01    0.00000E+00
 3.00000E-01    0.00000E+00
 3.47009E-01    0.00000E+00
 3.63887E-01    0.00000E+00
 4.00000E-01    0.00000E+00
 4.22110E-01    0.00000E+00
 4.32014E-01    0.00000E+00
 4.52006E-01    0.00000E+00
 4.52007E-01    0.00000E+00
 4.94050E-01    0.00000E+00
 5.00000E-01    0.00000E+00
 5.02454E-01    0.00000E+00
 5.18628E-01    0.00000E+00
 5.42307E-01    0.00000E+00
 5.70266E-01    0.00000E+00
 5.93407E-01    0.00000E+00
 6.00000E-01    0.00000E+00
 6.05279E-01    0.00000E+00
 6.42405E-01    0.00000E+00
 6.77116E-01    0.00000E+00
 6.85366E-01    0.00000E+00
 6.93012E-01    0.00000E+00
 7.00000E-01    0.00000E+00
 7.06293E-01    0.00000E+00
 7.08104E-01    0.00000E+00
 7.19705E-01    0.00000E+00
 7.35370E-01    0.00000E+00
 7.48550E-01    0.00000E+00
 7.95636E-01    0.00000E+00
 8.00000E-01    0.00000E+00
 8.07207E-01    0.00000E+00
 8.24814E-01    0.00000E+00
 8.25126E-01    0.00000E+00
 8.32259E-01    0.00000E+00
 8.46948E-01    0.00000E+00
 8.68580E-01    0.00000E+00
 8.76226E-01    0.00000E+00
 9.00000E-01    0.00000E+00
 1.00000E+00    0.00000E+00
 1.10000E+00    0.00000E+00
 1.20000E+00    0.00000E+00
 1.30000E+00    0.00000E+00
 1.40000E+00    0.00000E+00
 1.50000E+00    0.00000E+00
 1.60000E+00    0.00000E+00
 1.70000E+00    0.00000E+00
 1.80000E+00    0.00000E+00
 1.90000E+00    0.00000E+00
 2.00000E+00    0.00000E+00
 2.25000E+00    0.00000E+00
 2.50000E+00    0.00000E+00
 2.75000E+00    0.00000E+00
 3.00000E+00    0.00000E+00
 3.50000E+00    0.00000E+00
 4.00000E+00    0.00000E+00
 4.50000E+00    0.00000E+00
 5.00000E+00    0.00000E+00
 5.50000E+00    9.84343E-29
 6.00000E+00    1.45903E-21
 6.50000E+00    4.61340E-21
 7.00000E+00    3.53430E-20
 7.50000E+00    7.11720E-16
 8.00000E+00    4.70510E-13
 8.50000E+00    4.30890E-11
 9.00000E+00    1.15180E-09
 9.50000E+00    1.36670E-08
 1.00000E+01    9.89300E-08
 1.05000E+01    5.23460E-07
 1.10000E+01    2.95178E-06
 1.15000E+01    1.61373E-05
 1.20000E+01    7.59476E-05
 1.25000E+01    2.96505E-04
 1.30000E+01    1.04200E-03
 1.35000E+01    2.69742E-03
 1.40000E+01    6.62195E-03
 1.45000E+01    1.43706E-02
 1.50000E+01    2.79046E-02
 1.55000E+01    4.91069E-02
 1.60000E+01    7.94003E-02
 1.65000E+01    1.19563E-01
 1.70000E+01    1.69736E-01
 1.75000E+01    2.29558E-01
 1.80000E+01    2.98307E-01
 1.85000E+01    3.75050E-01
 1.90000E+01    4.58750E-01
 1.95000E+01    5.48348E-01
 2.00000E+01    6.42814E-01
