# n + Ho165 : (n,p)g    
# jendl.ad   N.Iwamoto                         EVAL-Apr14
# uncertainties: n
# # energies =    45
#   E(MeV)       xs(mb) 
 5.07377E-01    0.00000E+00
 6.16193E-01    8.93360E-17
 1.60000E+00    8.97020E-16
 1.70000E+00    1.02710E-14
 1.80000E+00    8.71530E-14
 1.90000E+00    5.74410E-13
 2.00000E+00    3.08040E-12
 2.25000E+00    1.04120E-10
 2.50000E+00    1.60810E-09
 2.75000E+00    1.50390E-08
 3.00000E+00    8.97940E-08
 3.50000E+00    1.47286E-06
 4.00000E+00    1.14724E-05
 4.50000E+00    5.30619E-05
 5.00000E+00    1.68580E-04
 5.50000E+00    4.07104E-04
 6.00000E+00    7.42729E-04
 6.50000E+00    1.33708E-03
 7.00000E+00    2.32816E-03
 7.50000E+00    4.23861E-03
 8.00000E+00    8.27517E-03
 8.50000E+00    1.67737E-02
 9.00000E+00    3.37102E-02
 9.50000E+00    6.51820E-02
 1.00000E+01    1.19668E-01
 1.05000E+01    2.07942E-01
 1.10000E+01    3.42406E-01
 1.15000E+01    5.35998E-01
 1.20000E+01    8.00617E-01
 1.25000E+01    1.14544E+00
 1.30000E+01    1.57536E+00
 1.35000E+01    2.08944E+00
 1.40000E+01    2.68020E+00
 1.45000E+01    3.33383E+00
 1.50000E+01    4.03206E+00
 1.55000E+01    4.75006E+00
 1.60000E+01    5.46523E+00
 1.65000E+01    6.15655E+00
 1.70000E+01    6.80777E+00
 1.75000E+01    7.41604E+00
 1.80000E+01    7.95994E+00
 1.85000E+01    8.44661E+00
 1.90000E+01    8.89647E+00
 1.95000E+01    9.27805E+00
 2.00000E+01    9.61154E+00
