# n + Ho165 : (n,t)     
# jendl.ad   N.Iwamoto                         EVAL-Apr14
# uncertainties: n
# # energies =    69
#   E(MeV)       xs(mb) 
 5.42957E+00    0.00000E+00
 5.50346E+00    1.03270E-28
 5.59793E+00    2.63010E-22
 5.68199E+00    5.11760E-22
 5.71286E+00    6.03380E-22
 5.71691E+00    6.15420E-22
 5.76817E+00    7.67910E-22
 5.78287E+00    8.11640E-22
 5.82171E+00    9.27210E-22
 5.84447E+00    9.94930E-22
 5.84735E+00    1.00350E-21
 5.85399E+00    1.02330E-21
 5.85986E+00    1.04070E-21
 5.88232E+00    1.10760E-21
 5.90786E+00    1.18350E-21
 5.92981E+00    1.24890E-21
 5.94727E+00    1.30080E-21
 5.98597E+00    1.41600E-21
 5.99903E+00    1.45480E-21
 6.00176E+00    1.46670E-21
 6.02109E+00    1.56850E-21
 6.04531E+00    1.71470E-21
 6.07977E+00    1.92680E-21
 6.09361E+00    2.01390E-21
 6.13888E+00    2.30090E-21
 6.14539E+00    2.34230E-21
 6.14592E+00    2.34560E-21
 6.15223E+00    2.38590E-21
 6.16162E+00    2.44580E-21
 6.17174E+00    2.51060E-21
 6.17409E+00    2.52560E-21
 6.20046E+00    2.69440E-21
 6.21544E+00    2.79040E-21
 6.22781E+00    2.86960E-21
 6.23578E+00    2.92060E-21
 6.25538E+00    3.04620E-21
 6.26143E+00    3.08500E-21
 6.28590E+00    3.24170E-21
 6.29411E+00    3.29430E-21
 6.31798E+00    3.44730E-21
 6.31927E+00    3.45550E-21
 6.50000E+00    4.61340E-21
 7.00000E+00    3.53430E-20
 7.50000E+00    7.11720E-16
 8.00000E+00    4.70510E-13
 8.50000E+00    4.30890E-11
 9.00000E+00    1.15180E-09
 9.50000E+00    1.36670E-08
 1.00000E+01    9.89300E-08
 1.05000E+01    5.23460E-07
 1.10000E+01    2.95178E-06
 1.15000E+01    1.61373E-05
 1.20000E+01    7.59476E-05
 1.25000E+01    2.96505E-04
 1.30000E+01    1.04200E-03
 1.35000E+01    2.69742E-03
 1.40000E+01    6.62195E-03
 1.45000E+01    1.43706E-02
 1.50000E+01    2.79046E-02
 1.55000E+01    4.91069E-02
 1.60000E+01    7.93997E-02
 1.65000E+01    1.19557E-01
 1.70000E+01    1.69698E-01
 1.75000E+01    2.29373E-01
 1.80000E+01    2.97606E-01
 1.85000E+01    3.72850E-01
 1.90000E+01    4.52849E-01
 1.95000E+01    5.34561E-01
 2.00000E+01    6.14380E-01
