# n + Dy163 : (n,el)    
# jeff3.3    Kim,Herman,Oh,Oblozinsky          EVAL-FEB06
# uncertainties: n
# # energies =   171
#   E(MeV)       xs(mb) 
 1.00000E-11    5.03951E+03
 1.00000E-07    3.14073E+03
 4.13990E-07    2.96699E+03
 5.31580E-07    2.86667E+03
 6.82560E-07    2.73615E+03
 8.76420E-07    2.61372E+03
 1.12540E-06    3.37292E+03
 1.44500E-06    7.82128E+04
 1.85540E-06    1.71364E+04
 2.37240E-06    6.75753E+03
 3.05900E-06    5.20406E+03
 3.92790E-06    4.55564E+03
 5.04350E-06    4.16103E+03
 6.47600E-06    3.82686E+03
 8.31530E-06    3.38153E+03
 1.06770E-05    2.56885E+03
 1.37100E-05    9.93366E+04
 1.76030E-05    8.35796E+03
 2.26030E-05    5.18255E+03
 2.92030E-05    8.51212E+03
 3.72670E-05    3.84043E+03
 4.78510E-05    1.05129E+05
 6.14420E-05    9.42288E+03
 7.88930E-05    9.55398E+03
 1.01300E-04    2.76349E+04
 1.30070E-04    2.69309E+04
 1.67020E-04    9.20139E+03
 2.14450E-04    3.80330E+04
 2.75360E-04    6.01563E+04
 3.53580E-04    3.78010E+04
 4.54000E-04    2.51670E+04
 5.82950E-04    2.39293E+04
 7.48520E-04    1.97984E+04
 9.61120E-04    2.28109E+04
 1.23410E-03    2.15956E+04
 1.58460E-03    2.03084E+04
 2.03470E-03    1.94488E+04
 2.24870E-03    1.89757E+04
 2.48520E-03    1.86285E+04
 2.61260E-03    1.84011E+04
 2.74650E-03    1.80661E+04
 3.03540E-03    1.76299E+04
 3.35460E-03    1.72064E+04
 3.70740E-03    1.66916E+04
 4.30740E-03    1.59073E+04
 5.53080E-03    1.49884E+04
 7.10170E-03    1.41380E+04
 9.11880E-03    1.33526E+04
 1.17090E-02    1.26309E+04
 1.50340E-02    1.19692E+04
 1.93050E-02    1.15076E+04
 2.18750E-02    1.12745E+04
 2.35790E-02    1.11608E+04
 2.41760E-02    1.11053E+04
 2.47880E-02    1.10223E+04
 2.60580E-02    1.09290E+04
 2.70000E-02    1.08337E+04
 2.85000E-02    1.06619E+04
 3.18280E-02    1.04722E+04
 3.43070E-02    1.02268E+04
 4.08680E-02    9.94371E+03
 4.63090E-02    9.71781E+03
 5.24750E-02    9.54253E+03
 5.65620E-02    9.32890E+03
 6.73790E-02    9.12915E+03
 7.20000E-02    8.94734E+03
 7.95000E-02    8.73928E+03
 8.25000E-02    8.64984E+03
 8.65170E-02    8.47399E+03
 9.80370E-02    8.26561E+03
 1.11090E-01    8.13367E+03
 1.16790E-01    8.05447E+03
 1.22770E-01    7.98870E+03
 1.29070E-01    7.92872E+03
 1.35690E-01    7.86573E+03
 1.42640E-01    7.79948E+03
 1.49960E-01    7.73598E+03
 1.57640E-01    7.68649E+03
 1.65730E-01    7.63384E+03
 1.74220E-01    7.56330E+03
 1.83160E-01    7.48539E+03
 1.92550E-01    7.40373E+03
 2.02420E-01    7.34203E+03
 2.12800E-01    7.29400E+03
 2.23710E-01    7.24352E+03
 2.35180E-01    7.19045E+03
 2.47240E-01    7.03377E+03
 2.73240E-01    6.77012E+03
 2.87250E-01    6.58206E+03
 2.94520E-01    6.45160E+03
 2.97200E-01    6.39951E+03
 2.98500E-01    6.34900E+03
 3.01970E-01    6.25554E+03
 3.33730E-01    6.06306E+03
 3.68830E-01    5.85642E+03
 3.87740E-01    5.69102E+03
 4.07620E-01    5.62176E+03
 4.50490E-01    5.35869E+03
 4.97870E-01    5.04978E+03
 5.23400E-01    5.00359E+03
 5.50230E-01    4.92533E+03
 5.78440E-01    4.79985E+03
 6.08100E-01    4.74087E+03
 6.39280E-01    4.68202E+03
 6.72060E-01    4.59889E+03
 7.06510E-01    4.53675E+03
 7.42740E-01    4.48598E+03
 7.80820E-01    4.43421E+03
 8.20850E-01    4.39692E+03
 8.62940E-01    4.36236E+03
 9.07180E-01    4.32485E+03
 9.61640E-01    4.29396E+03
 1.00260E+00    4.24796E+03
 1.10800E+00    4.19931E+03
 1.16480E+00    4.17453E+03
 1.22460E+00    4.14898E+03
 1.28730E+00    4.12211E+03
 1.35340E+00    4.09409E+03
 1.42270E+00    4.07167E+03
 1.49570E+00    4.05145E+03
 1.57240E+00    4.03021E+03
 1.65300E+00    4.00789E+03
 1.73770E+00    3.98416E+03
 1.82680E+00    3.95545E+03
 1.92050E+00    3.92401E+03
 2.01900E+00    3.88963E+03
 2.12250E+00    3.84848E+03
 2.23130E+00    3.81224E+03
 2.30690E+00    3.78975E+03
 2.34570E+00    3.77829E+03
 2.36530E+00    3.77054E+03
 2.38520E+00    3.75089E+03
 2.46600E+00    3.70931E+03
 2.59240E+00    3.64912E+03
 2.72530E+00    3.58411E+03
 2.86500E+00    3.51577E+03
 3.01190E+00    3.44390E+03
 3.16640E+00    3.36836E+03
 3.32870E+00    3.24470E+03
 3.67880E+00    3.06373E+03
 4.06570E+00    2.88630E+03
 4.49330E+00    2.75383E+03
 4.72370E+00    2.65945E+03
 4.96590E+00    2.57473E+03
 5.22050E+00    2.51012E+03
 5.48810E+00    2.44256E+03
 5.76950E+00    2.37235E+03
 6.06530E+00    2.32203E+03
 6.37630E+00    2.29316E+03
 6.59240E+00    2.28288E+03
 6.70320E+00    2.26912E+03
 7.04690E+00    2.26794E+03
 7.40820E+00    2.27936E+03
 7.78800E+00    2.29396E+03
 8.18730E+00    2.33290E+03
 8.60710E+00    2.37952E+03
 9.04840E+00    2.43646E+03
 9.51230E+00    2.50552E+03
 1.00000E+01    2.57917E+03
 1.05130E+01    2.65762E+03
 1.10520E+01    2.73769E+03
 1.16180E+01    2.81886E+03
 1.22140E+01    2.88803E+03
 1.28400E+01    2.94857E+03
 1.34990E+01    2.98246E+03
 1.38400E+01    3.00286E+03
 1.41910E+01    3.01142E+03
 1.45500E+01    3.01835E+03
 1.49180E+01    3.01650E+03
 1.56830E+01    2.99394E+03
 1.64870E+01    2.94537E+03
