# n + Dy163 : (n,xp)    
# jeff3.3    Kim,Herman,Oh,Oblozinsky          EVAL-FEB06
# 
# # energies =    74
#   E(MeV)        xs(mb) 
 7.38947E-02    0.00000E+00
 8.00000E-02    0.00000E+00
 9.00000E-02    0.00000E+00
 1.00000E-01    0.00000E+00
 1.20000E-01    0.00000E+00
 1.50000E-01    0.00000E+00
 1.68376E-01    0.00000E+00
 2.00000E-01    0.00000E+00
 2.52433E-01    0.00000E+00
 2.83303E-01    0.00000E+00
 2.87348E-01    0.00000E+00
 2.97000E-01    0.00000E+00
 3.00000E-01    0.00000E+00
 3.38623E-01    0.00000E+00
 3.53314E-01    0.00000E+00
 3.92153E-01    0.00000E+00
 4.00000E-01    0.00000E+00
 4.14943E-01    0.00000E+00
 4.17811E-01    0.00000E+00
 4.24441E-01    0.00000E+00
 4.30318E-01    0.00000E+00
 4.52786E-01    0.00000E+00
 4.65444E-01    0.00000E+00
 4.78323E-01    0.00000E+00
 5.00000E-01    0.00000E+00
 5.00077E-01    0.00000E+00
 5.17726E-01    0.00000E+00
 5.17786E-01    0.00000E+00
 5.56434E-01    0.00000E+00
 5.72231E-01    0.00000E+00
 5.77544E-01    0.00000E+00
 5.94659E-01    0.00000E+00
 6.00000E-01    0.00000E+00
 6.15789E-01    0.00000E+00
 6.21122E-01    0.00000E+00
 6.48993E-01    0.00000E+00
 6.55030E-01    0.00000E+00
 7.00000E-01    0.00000E+00
 8.00000E-01    0.00000E+00
 9.00000E-01    0.00000E+00
 1.00000E+00    0.00000E+00
 1.10000E+00    0.00000E+00
 1.20000E+00    0.00000E+00
 1.30000E+00    0.00000E+00
 1.40000E+00    0.00000E+00
 1.50000E+00    0.00000E+00
 1.60000E+00    0.00000E+00
 1.70000E+00    0.00000E+00
 1.80000E+00    0.00000E+00
 1.90000E+00    0.00000E+00
 2.00000E+00    0.00000E+00
 2.50000E+00    0.00000E+00
 3.00000E+00    2.41510E-10
 3.50000E+00    2.14990E-08
 4.00000E+00    3.08730E-07
 5.00000E+00    1.35325E-05
 6.00000E+00    1.33556E-04
 6.20000E+00    1.92769E-04
 6.40000E+00    2.90872E-04
 7.00000E+00    9.47337E-04
 8.00000E+00    6.81051E-03
 9.00000E+00    3.56337E-02
 1.00000E+01    1.41143E-01
 1.10000E+01    4.08177E-01
 1.20000E+01    1.00291E+00
 1.30000E+01    1.77780E+00
 1.40000E+01    2.64463E+00
 1.45000E+01    3.15746E+00
 1.50000E+01    3.93471E+00
 1.60000E+01    5.29933E+00
 1.70000E+01    6.74747E+00
 1.80000E+01    8.45965E+00
 1.90000E+01    1.04480E+01
 2.00000E+01    1.24277E+01
