# n + Os192 : (n,t)m    
# jendl.ad   N.Iwamoto                         EVAL-Apr14
# uncertainties: n
# # energies =    25
#   E(MeV)       xs(mb) 
 7.44157E+00    0.00000E+00
 8.50000E+00    1.44840E-32
 9.00000E+00    1.51440E-23
 9.50000E+00    1.87680E-18
 1.00000E+01    5.00340E-15
 1.05000E+01    1.50420E-12
 1.10000E+01    1.14160E-10
 1.15000E+01    3.40620E-09
 1.20000E+01    5.22140E-08
 1.25000E+01    4.89340E-07
 1.30000E+01    3.16036E-06
 1.35000E+01    1.53273E-05
 1.40000E+01    5.77692E-05
 1.45000E+01    1.91988E-04
 1.50000E+01    5.38196E-04
 1.55000E+01    1.33033E-03
 1.60000E+01    2.94077E-03
 1.65000E+01    5.87086E-03
 1.70000E+01    1.06789E-02
 1.75000E+01    1.77963E-02
 1.80000E+01    2.77472E-02
 1.85000E+01    4.07101E-02
 1.90000E+01    5.66394E-02
 1.95000E+01    7.54563E-02
 2.00000E+01    9.68981E-02
