# n + Os192 : (n,t)     
# jendl.ad   N.Iwamoto                         EVAL-Apr14
# uncertainties: n
# # energies =    29
#   E(MeV)       xs(mb) 
 7.23046E+00    0.00000E+00
 7.35021E+00    8.64220E-30
 7.39341E+00    1.17600E-29
 7.44157E+00    1.52360E-29
 7.55184E+00    2.31950E-29
 8.50000E+00    9.16360E-29
 9.00000E+00    8.88750E-22
 9.50000E+00    2.61700E-17
 1.00000E+01    3.56930E-14
 1.05000E+01    7.45290E-12
 1.10000E+01    4.51470E-10
 1.15000E+01    1.15650E-08
 1.20000E+01    1.59000E-07
 1.25000E+01    1.37635E-06
 1.30000E+01    8.38396E-06
 1.35000E+01    3.89428E-05
 1.40000E+01    1.33636E-04
 1.45000E+01    4.55550E-04
 1.50000E+01    1.25462E-03
 1.55000E+01    3.05622E-03
 1.60000E+01    6.67240E-03
 1.65000E+01    1.31806E-02
 1.70000E+01    2.37693E-02
 1.75000E+01    3.89518E-02
 1.80000E+01    6.05542E-02
 1.85000E+01    8.85561E-02
 1.90000E+01    1.23020E-01
 1.95000E+01    1.63672E-01
 2.00000E+01    2.09913E-01
