# n + Os192 : (n,d)     
# jendl.ad   N.Iwamoto                         EVAL-Apr14
# uncertainties: n
# # energies =    47
#   E(MeV)       xs(mb) 
 6.63095E+00    0.00000E+00
 6.65810E+00    2.02810E-24
 6.72846E+00    9.54250E-24
 6.77672E+00    1.50700E-23
 6.85915E+00    2.48570E-23
 6.88629E+00    2.81120E-23
 6.89634E+00    2.93180E-23
 6.91745E+00    3.18520E-23
 6.93153E+00    3.35430E-23
 7.08231E+00    5.16480E-23
 7.15469E+00    8.66690E-22
 7.18384E+00    1.21920E-21
 7.18887E+00    1.28040E-21
 7.24014E+00    1.91010E-21
 7.25622E+00    2.10800E-21
 7.26125E+00    2.17000E-21
 7.37585E+00    3.58590E-21
 7.39294E+00    3.79710E-21
 7.43415E+00    4.30620E-21
 7.46733E+00    4.71620E-21
 7.49346E+00    5.03910E-21
 7.51156E+00    5.26270E-21
 8.00000E+00    1.49500E-20
 8.50000E+00    3.11420E-17
 9.00000E+00    1.39890E-13
 9.50000E+00    6.08450E-11
 1.00000E+01    6.74740E-09
 1.05000E+01    2.07450E-07
 1.10000E+01    3.11144E-06
 1.15000E+01    2.78460E-05
 1.20000E+01    1.69818E-04
 1.25000E+01    7.72292E-04
 1.30000E+01    2.79096E-03
 1.35000E+01    8.37983E-03
 1.40000E+01    2.15782E-02
 1.45000E+01    4.87473E-02
 1.50000E+01    9.82618E-02
 1.55000E+01    1.65187E-01
 1.60000E+01    2.79822E-01
 1.65000E+01    4.38254E-01
 1.70000E+01    6.42211E-01
 1.75000E+01    8.62945E-01
 1.80000E+01    1.14604E+00
 1.85000E+01    1.46519E+00
 1.90000E+01    1.81546E+00
 1.95000E+01    2.19187E+00
 2.00000E+01    2.58944E+00
