# n + Tc 97 : (n,xa)    
# jeff3.3    A.J. Koning and D. Rochman        EVAL-DEC15
# 
# # energies =   134
#   E(MeV)        xs(mb) 
 9.75752E-02    2.80782E-04
 1.00000E-01    2.76592E-04
 2.00000E-01    2.42542E-04
 2.17963E-01    2.50028E-04
 3.00000E-01    2.84214E-04
 3.27853E-01    3.21940E-04
 4.00000E-01    4.19662E-04
 5.00000E-01    5.67481E-04
 5.86229E-01    7.21334E-04
 6.00000E-01    7.45904E-04
 6.63737E-01    8.62644E-04
 7.00000E-01    9.29487E-04
 7.73650E-01    1.07078E-03
 7.80723E-01    1.08443E-03
 7.86078E-01    1.09477E-03
 7.93205E-01    1.10853E-03
 8.00000E-01    1.12164E-03
 8.41468E-01    1.09559E-03
 8.51532E-01    1.08927E-03
 8.60868E-01    1.08340E-03
 8.64354E-01    1.08121E-03
 8.70871E-01    1.07712E-03
 9.00000E-01    1.05882E-03
 9.49663E-01    1.06464E-03
 9.51754E-01    1.06489E-03
 9.56584E-01    1.06545E-03
 9.80127E-01    1.06821E-03
 1.00000E+00    1.07054E-03
 1.00503E+00    1.07827E-03
 1.01403E+00    1.09211E-03
 1.06014E+00    1.16299E-03
 1.07063E+00    1.17911E-03
 1.13837E+00    1.28324E-03
 1.14985E+00    1.30089E-03
 1.15311E+00    1.30590E-03
 1.17733E+00    1.34313E-03
 1.17935E+00    1.34624E-03
 1.20000E+00    1.37798E-03
 1.21211E+00    1.42609E-03
 1.23257E+00    1.50736E-03
 1.25293E+00    1.58824E-03
 1.40000E+00    2.17245E-03
 1.60000E+00    3.00617E-03
 1.80000E+00    4.00641E-03
 2.00000E+00    6.08599E-03
 2.20000E+00    8.16557E-03
 2.40000E+00    1.15456E-02
 2.60000E+00    1.58845E-02
 2.80000E+00    2.06054E-02
 3.00000E+00    2.83756E-02
 3.20000E+00    3.67954E-02
 3.40000E+00    4.80141E-02
 3.60000E+00    6.25855E-02
 3.80000E+00    7.79223E-02
 4.00000E+00    1.00060E-01
 4.20000E+00    1.26009E-01
 4.40000E+00    1.56279E-01
 4.60000E+00    1.93175E-01
 4.80000E+00    2.34722E-01
 5.00000E+00    2.85900E-01
 5.20000E+00    3.49388E-01
 5.40000E+00    4.15474E-01
 5.60000E+00    4.91657E-01
 5.80000E+00    5.78159E-01
 6.00000E+00    6.74856E-01
 6.20000E+00    8.01896E-01
 6.40000E+00    8.87385E-01
 6.60000E+00    1.04954E+00
 6.80000E+00    1.19876E+00
 7.00000E+00    1.36263E+00
 7.20000E+00    1.57787E+00
 7.40000E+00    1.70139E+00
 7.60000E+00    1.98125E+00
 7.80000E+00    2.22224E+00
 8.00000E+00    2.55386E+00
 8.50000E+00    3.38824E+00
 9.00000E+00    4.43018E+00
 9.50000E+00    5.65212E+00
 1.00000E+01    7.07471E+00
 1.05000E+01    8.62689E+00
 1.10000E+01    1.03948E+01
 1.15000E+01    1.23400E+01
 1.20000E+01    1.44885E+01
 1.25000E+01    1.67964E+01
 1.30000E+01    1.92710E+01
 1.35000E+01    2.19196E+01
 1.40000E+01    2.47301E+01
 1.45000E+01    2.78543E+01
 1.50000E+01    3.13191E+01
 1.60000E+01    3.90664E+01
 1.70000E+01    4.53141E+01
 1.80000E+01    5.12593E+01
 1.90000E+01    5.27219E+01
 2.00000E+01    5.53400E+01
 2.10000E+01    5.79931E+01
 2.20000E+01    6.04963E+01
 2.30000E+01    6.28955E+01
 2.40000E+01    6.51758E+01
 2.50000E+01    6.73840E+01
 2.60000E+01    6.92542E+01
 2.70000E+01    7.10881E+01
 2.80000E+01    7.29926E+01
 2.90000E+01    7.47277E+01
 3.00000E+01    7.65061E+01
 3.00000E+01    7.65311E+01
 3.20000E+01    7.97836E+01
 3.40000E+01    8.28253E+01
 3.60000E+01    8.50664E+01
 3.80000E+01    8.68394E+01
 4.00000E+01    8.79559E+01
 4.20000E+01    8.87282E+01
 4.40000E+01    8.93788E+01
 4.60000E+01    8.99933E+01
 4.80000E+01    9.04864E+01
 5.00000E+01    9.06228E+01
 5.20000E+01    9.07144E+01
 5.40000E+01    9.06302E+01
 5.60000E+01    9.05704E+01
 5.80000E+01    9.06651E+01
 6.00000E+01    9.07868E+01
 6.50000E+01    9.05244E+01
 7.00000E+01    9.04603E+01
 7.50000E+01    8.97175E+01
 8.00000E+01    8.86707E+01
 9.00000E+01    9.49038E+01
 1.00000E+02    1.03693E+02
 1.10000E+02    1.09748E+02
 1.20000E+02    1.16664E+02
 1.30000E+02    1.24932E+02
 1.40000E+02    1.33379E+02
 1.50000E+02    1.41262E+02
 1.60000E+02    1.48900E+02
 1.80000E+02    1.74128E+02
 2.00000E+02    2.28169E+02
