# n + Tc 97 : (n,n'21)  
# jeff3.3    A.J. Koning and D. Rochman        EVAL-DEC15
# uncertainties: n
# # energies =    74
#   E(MeV)       xs(mb) 
 1.06014E+00    0.00000E+00
 1.07063E+00    2.17535E-01
 1.13837E+00    1.62229E+00
 1.14985E+00    1.86036E+00
 1.15311E+00    1.92796E+00
 1.17733E+00    2.43022E+00
 1.17935E+00    2.47211E+00
 1.20000E+00    2.90034E+00
 1.21211E+00    2.97517E+00
 1.23257E+00    3.10160E+00
 1.25293E+00    3.22741E+00
 1.40000E+00    4.13620E+00
 1.60000E+00    4.17832E+00
 1.80000E+00    4.07865E+00
 2.00000E+00    3.94558E+00
 2.20000E+00    3.76677E+00
 2.40000E+00    3.53061E+00
 2.60000E+00    3.24608E+00
 2.80000E+00    2.93325E+00
 3.00000E+00    2.60873E+00
 3.20000E+00    2.28802E+00
 3.40000E+00    1.98720E+00
 3.60000E+00    1.71292E+00
 3.80000E+00    1.46921E+00
 4.00000E+00    1.25631E+00
 4.20000E+00    1.07230E+00
 4.40000E+00    9.14429E-01
 4.60000E+00    7.79161E-01
 4.80000E+00    6.63518E-01
 5.00000E+00    5.64709E-01
 5.20000E+00    4.80076E-01
 5.40000E+00    4.07808E-01
 5.60000E+00    3.45334E-01
 5.80000E+00    2.92128E-01
 6.00000E+00    2.46112E-01
 6.20000E+00    2.07122E-01
 6.40000E+00    1.73602E-01
 6.60000E+00    1.45026E-01
 6.80000E+00    1.20938E-01
 7.00000E+00    1.00018E-01
 7.20000E+00    8.26425E-02
 7.40000E+00    6.81657E-02
 7.60000E+00    5.60897E-02
 7.80000E+00    4.61470E-02
 8.00000E+00    3.78422E-02
 8.50000E+00    2.29169E-02
 9.00000E+00    1.37592E-02
 9.50000E+00    8.21315E-03
 1.00000E+01    4.89649E-03
 1.05000E+01    2.92539E-03
 1.10000E+01    1.75673E-03
 1.15000E+01    1.06254E-03
 1.20000E+01    6.47855E-04
 1.25000E+01    3.98291E-04
 1.30000E+01    2.46777E-04
 1.35000E+01    1.54093E-04
 1.40000E+01    9.69319E-05
 1.45000E+01    6.14009E-05
 1.50000E+01    3.91410E-05
 1.60000E+01    1.61732E-05
 1.70000E+01    6.84001E-06
 1.80000E+01    2.94976E-06
 1.90000E+01    1.29802E-06
 2.00000E+01    5.79980E-07
 2.10000E+01    2.62770E-07
 2.20000E+01    1.19600E-07
 2.30000E+01    5.58660E-08
 2.40000E+01    2.65270E-08
 2.50000E+01    1.27900E-08
 2.60000E+01    6.25240E-09
 2.70000E+01    3.09260E-09
 2.80000E+01    1.54940E-09
 2.90000E+01    7.84540E-10
 3.00000E+01    4.01410E-10
