# n + Nd145 : (n,h)     
# jendl4.0   N.Iwamoto,A.Zukeran,K.Shibata     EVAL-Dec09
# uncertainties: n
# # energies =    53
#   E(MeV)       xs(mb) 
 6.73156E+00    0.00000E+00
 6.75060E+00    1.98590E-32
 6.77414E+00    6.85480E-32
 7.36847E+00    1.56720E-30
 7.37632E+00    1.58700E-30
 7.39888E+00    1.64420E-30
 7.54539E+00    2.01670E-30
 7.55425E+00    2.28010E-30
 7.59966E+00    5.02460E-30
 7.83449E+00    2.01120E-29
 7.85614E+00    2.15100E-29
 7.89370E+00    2.39370E-29
 7.90467E+00    2.46460E-29
 7.90729E+00    2.48160E-29
 7.91223E+00    2.51350E-29
 7.93488E+00    2.65990E-29
 7.96006E+00    2.82270E-29
 8.03860E+00    3.33040E-29
 8.24805E+00    1.91340E-28
 8.28430E+00    2.18930E-28
 8.30041E+00    2.31190E-28
 8.31491E+00    2.42240E-28
 8.34139E+00    2.62400E-28
 8.36334E+00    2.79130E-28
 8.37160E+00    2.85420E-28
 8.37794E+00    2.90250E-28
 8.42014E+00    3.22400E-28
 8.45749E+00    3.50860E-28
 8.47028E+00    3.60600E-28
 8.48267E+00    3.70040E-28
 9.00000E+00    7.64200E-28
 9.50000E+00    3.55730E-25
 1.00000E+01    1.09030E-21
 1.05000E+01    4.67640E-19
 1.10000E+01    5.07520E-17
 1.15000E+01    2.03740E-15
 1.20000E+01    3.86790E-14
 1.25000E+01    4.25240E-13
 1.30000E+01    3.36960E-12
 1.35000E+01    2.59320E-11
 1.40000E+01    2.17380E-10
 1.45000E+01    1.31240E-09
 1.50000E+01    8.72990E-09
 1.55000E+01    5.41020E-08
 1.60000E+01    2.30350E-07
 1.65000E+01    7.43780E-07
 1.70000E+01    2.43843E-06
 1.75000E+01    6.41536E-06
 1.80000E+01    1.56844E-05
 1.85000E+01    3.55260E-05
 1.90000E+01    7.50646E-05
 1.95000E+01    1.43632E-04
 2.00000E+01    2.71437E-04
