# n + Nd145 : (n,n'09)  
# jendl4.0   N.Iwamoto,A.Zukeran,K.Shibata     EVAL-Dec09
# uncertainties: n
# # energies =    65
#   E(MeV)       xs(mb) 
 1.01826E+00    0.00000E+00
 1.05873E+00    4.49510E+01
 1.09280E+00    5.55540E+01
 1.10000E+00    5.74483E+01
 1.11894E+00    6.22664E+01
 1.15827E+00    6.83180E+01
 1.16913E+00    7.00083E+01
 1.17041E+00    7.01888E+01
 1.20000E+00    7.37567E+01
 1.22215E+00    7.68409E+01
 1.25843E+00    8.11713E+01
 1.29455E+00    8.54895E+01
 1.30000E+00    8.61278E+01
 1.32597E+00    8.89783E+01
 1.33553E+00    8.98810E+01
 1.34792E+00    9.10299E+01
 1.40000E+00    9.53210E+01
 1.41065E+00    9.62093E+01
 1.41105E+00    9.62424E+01
 1.41369E+00    9.63074E+01
 1.43754E+00    9.77026E+01
 1.50000E+00    9.90679E+01
 1.60000E+00    9.83466E+01
 1.70000E+00    9.13618E+01
 1.80000E+00    8.21912E+01
 1.90000E+00    7.30770E+01
 2.00000E+00    6.43846E+01
 2.25000E+00    4.39124E+01
 2.50000E+00    3.18154E+01
 2.75000E+00    2.14686E+01
 3.00000E+00    1.59057E+01
 3.50000E+00    8.09459E+00
 4.00000E+00    4.22582E+00
 4.50000E+00    2.31117E+00
 5.00000E+00    1.37168E+00
 5.50000E+00    9.12825E-01
 6.00000E+00    6.86711E-01
 6.50000E+00    5.70130E-01
 7.00000E+00    5.04932E-01
 7.50000E+00    4.64258E-01
 8.00000E+00    4.34623E-01
 8.50000E+00    4.09619E-01
 9.00000E+00    3.86489E-01
 9.50000E+00    3.64246E-01
 1.00000E+01    3.42855E-01
 1.05000E+01    3.22810E-01
 1.10000E+01    3.03701E-01
 1.15000E+01    2.86678E-01
 1.20000E+01    2.70676E-01
 1.25000E+01    2.56785E-01
 1.30000E+01    2.43815E-01
 1.35000E+01    2.32731E-01
 1.40000E+01    2.22319E-01
 1.45000E+01    2.13017E-01
 1.50000E+01    2.04246E-01
 1.55000E+01    1.97085E-01
 1.60000E+01    1.88585E-01
 1.65000E+01    1.81202E-01
 1.70000E+01    1.74774E-01
 1.75000E+01    1.68661E-01
 1.80000E+01    1.61192E-01
 1.85000E+01    1.54685E-01
 1.90000E+01    1.48739E-01
 1.95000E+01    1.43808E-01
 2.00000E+01    1.38232E-01
