# n + Nd145 : (n,g)     
# jendl4.0   N.Iwamoto,A.Zukeran,K.Shibata     EVAL-Dec09
# uncertainties: n
# # energies =    69
#   E(MeV)       xs(mb) 
 1.00000E-10    3.45403E+05
 5.00000E-09    9.40322E+04
 1.00000E-08    7.12054E+04
 1.50000E-08    5.98170E+04
 2.00000E-08    5.26200E+04
 2.50000E-08    4.75329E+04
 3.00000E-08    4.36876E+04
 3.50000E-08    4.01607E+04
 4.20000E-08    3.67267E+04
 5.00000E-08    3.38691E+04
 5.80000E-08    3.14718E+04
 6.70000E-08    2.90353E+04
 8.00000E-08    2.62639E+04
 1.00000E-07    2.28333E+04
 1.40000E-07    1.96841E+04
 1.80000E-07    1.75607E+04
 2.20000E-07    1.61600E+04
 2.50000E-07    1.52052E+04
 2.80000E-07    1.45199E+04
 3.00000E-07    1.40382E+04
 3.20000E-07    1.35023E+04
 3.50000E-07    1.27631E+04
 4.00000E-07    1.16672E+04
 5.00000E-07    1.04254E+04
 6.25000E-07    9.32544E+03
 7.80000E-07    8.63587E+03
 8.50000E-07    8.31458E+03
 9.10000E-07    8.09193E+03
 9.50000E-07    7.96371E+03
 9.72000E-07    7.87361E+03
 9.96000E-07    7.78313E+03
 1.02000E-06    7.69464E+03
 1.04500E-06    7.60629E+03
 1.07100E-06    7.51994E+03
 1.09700E-06    7.43675E+03
 1.12300E-06    7.35576E+03
 1.15000E-06    7.11581E+03
 1.30000E-06    6.71709E+03
 1.50000E-06    6.17244E+03
 2.10000E-06    5.95358E+03
 2.60000E-06    7.00912E+03
 3.30000E-06    1.81053E+04
 4.00000E-06    1.19698E+05
 9.87700E-06    1.25899E+03
 1.59680E-05    1.01797E+03
 2.77000E-05    9.94465E+04
 4.80520E-05    1.03485E+03
 7.55014E-05    2.51361E+04
 1.48728E-04    9.63942E+03
 3.67262E-04    7.88858E+03
 9.06898E-04    4.89547E+03
 1.42510E-03    3.49274E+03
 2.23945E-03    2.21633E+03
 3.51910E-03    1.46840E+03
 5.53000E-03    1.01672E+03
 9.11800E-03    7.17098E+02
 1.50300E-02    5.20195E+02
 2.47800E-02    3.84883E+02
 4.08500E-02    2.91480E+02
 6.73400E-02    2.06093E+02
 1.11000E-01    1.50078E+02
 1.83000E-01    1.20047E+02
 3.02000E-01    1.03428E+02
 5.00000E-01    9.54041E+01
 8.21000E-01    6.66973E+01
 1.35300E+00    4.06149E+01
 2.23100E+00    1.93609E+01
 3.67900E+00    5.13136E+00
 6.06500E+00    9.84851E-01
