# n + Nd145 : (n,n'02)  
# jendl4.0   N.Iwamoto,A.Zukeran,K.Shibata     EVAL-Dec09
# uncertainties: n
# # energies =    96
#   E(MeV)       xs(mb) 
 7.30046E-02    0.00000E+00
 8.00000E-02    4.28053E+02
 9.00000E-02    4.99531E+02
 1.00000E-01    5.22394E+02
 1.10000E-01    5.28461E+02
 1.20000E-01    5.28547E+02
 1.30000E-01    5.23919E+02
 1.40000E-01    5.21608E+02
 1.50000E-01    5.18215E+02
 1.60000E-01    5.13382E+02
 1.70000E-01    5.08478E+02
 1.80000E-01    5.03098E+02
 1.90000E-01    4.97665E+02
 2.00000E-01    4.92495E+02
 2.25000E-01    4.92630E+02
 2.50000E-01    4.92042E+02
 2.75000E-01    4.90707E+02
 3.00000E-01    4.86692E+02
 4.00000E-01    5.11171E+02
 5.00000E-01    5.45321E+02
 6.00000E-01    5.79024E+02
 6.62248E-01    5.98932E+02
 7.00000E-01    5.87147E+02
 7.53488E-01    5.94282E+02
 7.85882E-01    5.59717E+02
 8.00000E-01    5.49168E+02
 9.00000E-01    5.29107E+02
 9.26232E-01    5.25706E+02
 9.27129E-01    5.25243E+02
 9.43572E-01    5.07100E+02
 1.00000E+00    4.67396E+02
 1.01826E+00    4.61758E+02
 1.05873E+00    4.49064E+02
 1.09280E+00    4.26547E+02
 1.10000E+00    4.22133E+02
 1.11894E+00    4.14482E+02
 1.15827E+00    4.00733E+02
 1.16913E+00    3.88164E+02
 1.17041E+00    3.85453E+02
 1.20000E+00    3.59246E+02
 1.22215E+00    3.49303E+02
 1.25843E+00    3.35335E+02
 1.29455E+00    3.16706E+02
 1.30000E+00    3.11788E+02
 1.32597E+00    3.00316E+02
 1.33553E+00    2.95413E+02
 1.34792E+00    2.90513E+02
 1.40000E+00    2.67203E+02
 1.41065E+00    2.63904E+02
 1.41105E+00    2.63530E+02
 1.41369E+00    2.62319E+02
 1.43754E+00    2.51642E+02
 1.50000E+00    2.33884E+02
 1.60000E+00    2.06478E+02
 1.70000E+00    1.76868E+02
 1.80000E+00    1.51523E+02
 1.90000E+00    1.30123E+02
 2.00000E+00    1.12160E+02
 2.25000E+00    7.57944E+01
 2.50000E+00    5.49231E+01
 2.75000E+00    3.75590E+01
 3.00000E+00    2.67341E+01
 3.50000E+00    1.25369E+01
 4.00000E+00    5.63619E+00
 4.50000E+00    2.51622E+00
 5.00000E+00    1.17700E+00
 5.50000E+00    6.13467E-01
 6.00000E+00    3.75743E-01
 6.50000E+00    2.71265E-01
 7.00000E+00    2.21201E-01
 7.50000E+00    1.93709E-01
 8.00000E+00    1.75788E-01
 8.50000E+00    1.62063E-01
 9.00000E+00    1.50381E-01
 9.50000E+00    1.39934E-01
 1.00000E+01    1.30479E-01
 1.05000E+01    1.22047E-01
 1.10000E+01    1.14317E-01
 1.15000E+01    1.07652E-01
 1.20000E+01    1.01488E-01
 1.25000E+01    9.62123E-02
 1.30000E+01    9.13252E-02
 1.35000E+01    8.70407E-02
 1.40000E+01    8.30521E-02
 1.45000E+01    7.95096E-02
 1.50000E+01    7.69829E-02
 1.55000E+01    7.39327E-02
 1.60000E+01    7.09947E-02
 1.65000E+01    6.81408E-02
 1.70000E+01    6.55265E-02
 1.75000E+01    6.29195E-02
 1.80000E+01    6.04231E-02
 1.85000E+01    5.79260E-02
 1.90000E+01    5.56320E-02
 1.95000E+01    5.33643E-02
 2.00000E+01    5.12780E-02
