# n + Nd145 : (n,n')    
# jendl4.0   N.Iwamoto,A.Zukeran,K.Shibata     EVAL-Dec09
# uncertainties: n
# # energies =   100
#   E(MeV)       xs(mb) 
 6.76879E-02    0.00000E+00
 7.00000E-02    8.46220E+00
 7.30046E-02    1.10939E+01
 8.00000E-02    4.42271E+02
 9.00000E-02    5.21164E+02
 1.00000E-01    5.50701E+02
 1.05000E-01    5.56886E+02
 1.10000E-01    5.63075E+02
 1.20000E-01    5.69080E+02
 1.30000E-01    5.69980E+02
 1.40000E-01    5.73457E+02
 1.50000E-01    5.75629E+02
 1.60000E-01    5.76277E+02
 1.70000E-01    5.76722E+02
 1.80000E-01    5.76542E+02
 1.90000E-01    5.76233E+02
 2.00000E-01    5.76039E+02
 2.25000E-01    5.90693E+02
 2.50000E-01    6.04107E+02
 2.75000E-01    6.15779E+02
 3.00000E-01    6.23520E+02
 4.00000E-01    6.99210E+02
 5.00000E-01    7.78601E+02
 6.00000E-01    8.49595E+02
 6.62248E-01    8.89509E+02
 7.00000E-01    1.08460E+03
 7.53488E-01    1.15178E+03
 7.85882E-01    1.30693E+03
 8.00000E-01    1.33517E+03
 9.00000E-01    1.44143E+03
 9.26232E-01    1.46185E+03
 9.27129E-01    1.46296E+03
 9.43572E-01    1.52407E+03
 1.00000E+00    1.61778E+03
 1.01826E+00    1.63563E+03
 1.05873E+00    1.69108E+03
 1.09280E+00    1.73588E+03
 1.10000E+00    1.74416E+03
 1.11893E+00    1.76079E+03
 1.11894E+00    1.76080E+03
 1.15827E+00    1.79627E+03
 1.16913E+00    1.82180E+03
 1.17041E+00    1.82683E+03
 1.20000E+00    1.88687E+03
 1.22215E+00    1.90993E+03
 1.25843E+00    1.93974E+03
 1.29455E+00    1.97085E+03
 1.30000E+00    1.97806E+03
 1.32597E+00    1.99645E+03
 1.33553E+00    2.00350E+03
 1.34792E+00    2.01089E+03
 1.40000E+00    2.04742E+03
 1.41065E+00    2.05230E+03
 1.41105E+00    2.05276E+03
 1.41369E+00    2.05571E+03
 1.43754E+00    2.07114E+03
 1.50000E+00    2.10220E+03
 1.60000E+00    2.14729E+03
 1.70000E+00    2.19599E+03
 1.80000E+00    2.23615E+03
 1.90000E+00    2.26878E+03
 2.00000E+00    2.29520E+03
 2.25000E+00    2.35876E+03
 2.50000E+00    2.40885E+03
 2.75000E+00    2.44332E+03
 3.00000E+00    2.48810E+03
 3.50000E+00    2.51569E+03
 4.00000E+00    2.48658E+03
 4.50000E+00    2.42706E+03
 5.00000E+00    2.36716E+03
 5.50000E+00    2.32256E+03
 6.00000E+00    2.28636E+03
 6.50000E+00    2.18714E+03
 7.00000E+00    2.00684E+03
 7.50000E+00    1.76371E+03
 8.00000E+00    1.46244E+03
 8.50000E+00    1.16104E+03
 9.00000E+00    9.05200E+02
 9.50000E+00    7.04888E+02
 1.00000E+01    5.43937E+02
 1.05000E+01    4.29735E+02
 1.10000E+01    3.50896E+02
 1.15000E+01    2.96658E+02
 1.20000E+01    2.57946E+02
 1.25000E+01    2.30492E+02
 1.30000E+01    2.09876E+02
 1.35000E+01    1.94428E+02
 1.40000E+01    1.82036E+02
 1.45000E+01    1.71997E+02
 1.50000E+01    1.63415E+02
 1.55000E+01    1.55772E+02
 1.60000E+01    1.49688E+02
 1.65000E+01    1.43076E+02
 1.70000E+01    1.37711E+02
 1.75000E+01    1.32564E+02
 1.80000E+01    1.27845E+02
 1.85000E+01    1.23013E+02
 1.90000E+01    1.18648E+02
 1.95000E+01    1.14317E+02
 2.00000E+01    1.10868E+02
