# n + Nd145 : (n,n'05)  
# jendl4.0   N.Iwamoto,A.Zukeran,K.Shibata     EVAL-Dec09
# uncertainties: n
# # energies =    72
#   E(MeV)       xs(mb) 
 7.85882E-01    0.00000E+00
 8.00000E-01    2.23211E+01
 9.00000E-01    4.58962E+01
 9.26232E-01    4.98003E+01
 9.27129E-01    4.96546E+01
 9.43572E-01    5.12221E+01
 1.00000E+00    5.52736E+01
 1.01826E+00    5.72317E+01
 1.05873E+00    6.19525E+01
 1.09280E+00    6.37527E+01
 1.10000E+00    6.36292E+01
 1.11894E+00    6.50755E+01
 1.15827E+00    6.88473E+01
 1.16913E+00    6.90442E+01
 1.17041E+00    6.85530E+01
 1.20000E+00    6.90496E+01
 1.22215E+00    7.03391E+01
 1.25843E+00    7.20598E+01
 1.29455E+00    7.24347E+01
 1.30000E+00    7.17361E+01
 1.32597E+00    7.20772E+01
 1.33553E+00    7.14120E+01
 1.34792E+00    7.13838E+01
 1.40000E+00    7.13006E+01
 1.41065E+00    7.14590E+01
 1.41105E+00    7.12770E+01
 1.41369E+00    7.10304E+01
 1.43754E+00    6.96687E+01
 1.50000E+00    6.96583E+01
 1.60000E+00    6.72409E+01
 1.70000E+00    6.31064E+01
 1.80000E+00    5.82609E+01
 1.90000E+00    5.29123E+01
 2.00000E+00    4.78598E+01
 2.25000E+00    3.52528E+01
 2.50000E+00    2.66677E+01
 2.75000E+00    1.91864E+01
 3.00000E+00    1.47824E+01
 3.50000E+00    7.81575E+00
 4.00000E+00    4.09753E+00
 4.50000E+00    2.22939E+00
 5.00000E+00    1.33618E+00
 5.50000E+00    9.17375E-01
 6.00000E+00    7.17755E-01
 6.50000E+00    6.15801E-01
 7.00000E+00    5.57250E-01
 7.50000E+00    5.17939E-01
 8.00000E+00    4.86846E-01
 8.50000E+00    4.58995E-01
 9.00000E+00    4.32450E-01
 9.50000E+00    4.06744E-01
 1.00000E+01    3.82134E-01
 1.05000E+01    3.59272E-01
 1.10000E+01    3.37719E-01
 1.15000E+01    3.18657E-01
 1.20000E+01    3.00972E-01
 1.25000E+01    2.85580E-01
 1.30000E+01    2.71366E-01
 1.35000E+01    2.58870E-01
 1.40000E+01    2.47266E-01
 1.45000E+01    2.36792E-01
 1.50000E+01    2.26972E-01
 1.55000E+01    2.18004E-01
 1.60000E+01    2.09359E-01
 1.65000E+01    2.01069E-01
 1.70000E+01    1.93410E-01
 1.75000E+01    1.85820E-01
 1.80000E+01    1.78498E-01
 1.85000E+01    1.71206E-01
 1.90000E+01    1.64463E-01
 1.95000E+01    1.57786E-01
 2.00000E+01    1.51581E-01
