# n + Nd145 : (n,n'03)  
# jendl4.0   N.Iwamoto,A.Zukeran,K.Shibata     EVAL-Dec09
# uncertainties: n
# # energies =    75
#   E(MeV)       xs(mb) 
 6.62248E-01    0.00000E+00
 7.00000E-01    1.98550E+02
 7.53488E-01    2.46578E+02
 7.85882E-01    2.42280E+02
 8.00000E-01    2.46624E+02
 9.00000E-01    2.77751E+02
 9.26232E-01    2.85761E+02
 9.27129E-01    2.86036E+02
 9.43572E-01    2.79757E+02
 1.00000E+00    2.87226E+02
 1.01826E+00    2.90531E+02
 1.05873E+00    2.87907E+02
 1.09280E+00    2.90274E+02
 1.10000E+00    2.90907E+02
 1.11894E+00    2.92605E+02
 1.15827E+00    2.92088E+02
 1.16913E+00    2.90384E+02
 1.17041E+00    2.90298E+02
 1.20000E+00    2.80389E+02
 1.22215E+00    2.78553E+02
 1.25843E+00    2.77175E+02
 1.29455E+00    2.74792E+02
 1.30000E+00    2.74218E+02
 1.32597E+00    2.72667E+02
 1.33553E+00    2.72220E+02
 1.34792E+00    2.71649E+02
 1.40000E+00    2.64435E+02
 1.41065E+00    2.63115E+02
 1.41105E+00    2.63064E+02
 1.41369E+00    2.61331E+02
 1.43754E+00    2.56774E+02
 1.50000E+00    2.39248E+02
 1.60000E+00    2.19636E+02
 1.70000E+00    1.94084E+02
 1.80000E+00    1.69571E+02
 1.90000E+00    1.47160E+02
 2.00000E+00    1.26673E+02
 2.25000E+00    8.43551E+01
 2.50000E+00    5.99012E+01
 2.75000E+00    4.02810E+01
 3.00000E+00    3.09525E+01
 3.50000E+00    1.59254E+01
 4.00000E+00    8.62491E+00
 4.50000E+00    5.12737E+00
 5.00000E+00    3.46466E+00
 5.50000E+00    2.65569E+00
 6.00000E+00    2.23857E+00
 6.50000E+00    2.00159E+00
 7.00000E+00    1.84872E+00
 7.50000E+00    1.73436E+00
 8.00000E+00    1.63622E+00
 8.50000E+00    1.54405E+00
 9.00000E+00    1.45429E+00
 9.50000E+00    1.36678E+00
 1.00000E+01    1.28301E+00
 1.05000E+01    1.20539E+00
 1.10000E+01    1.13249E+00
 1.15000E+01    1.06810E+00
 1.20000E+01    1.00868E+00
 1.25000E+01    9.56715E-01
 1.30000E+01    9.09137E-01
 1.35000E+01    8.66959E-01
 1.40000E+01    8.28067E-01
 1.45000E+01    7.92734E-01
 1.50000E+01    7.59731E-01
 1.55000E+01    7.29576E-01
 1.60000E+01    7.00497E-01
 1.65000E+01    6.72631E-01
 1.70000E+01    6.46628E-01
 1.75000E+01    6.21139E-01
 1.80000E+01    5.96370E-01
 1.85000E+01    5.71904E-01
 1.90000E+01    5.49115E-01
 1.95000E+01    5.26733E-01
 2.00000E+01    5.05896E-01
