# n + Nd145 : (n,n'01)  
# jendl4.0   N.Iwamoto,A.Zukeran,K.Shibata     EVAL-Dec09
# uncertainties: n
# # energies =    98
#   E(MeV)       xs(mb) 
 6.76879E-02    0.00000E+00
 7.00000E-02    8.46220E+00
 7.30046E-02    1.10939E+01
 8.00000E-02    1.42184E+01
 9.00000E-02    2.16331E+01
 1.00000E-01    2.83069E+01
 1.10000E-01    3.46100E+01
 1.20000E-01    4.05273E+01
 1.30000E-01    4.60552E+01
 1.40000E-01    5.18430E+01
 1.50000E-01    5.74080E+01
 1.60000E-01    6.28884E+01
 1.70000E-01    6.82370E+01
 1.80000E-01    7.34367E+01
 1.90000E-01    7.85609E+01
 2.00000E-01    8.35370E+01
 2.25000E-01    9.80310E+01
 2.50000E-01    1.12027E+02
 2.75000E-01    1.25029E+02
 3.00000E-01    1.36784E+02
 4.00000E-01    1.87897E+02
 5.00000E-01    2.32940E+02
 6.00000E-01    2.69891E+02
 6.62248E-01    2.89476E+02
 7.00000E-01    2.97827E+02
 7.53488E-01    3.09402E+02
 7.85882E-01    3.00416E+02
 8.00000E-01    2.92262E+02
 9.00000E-01    2.88812E+02
 9.26232E-01    2.88875E+02
 9.27129E-01    2.88248E+02
 9.43572E-01    2.81706E+02
 1.00000E+00    2.61700E+02
 1.01826E+00    2.59531E+02
 1.05873E+00    2.54820E+02
 1.09280E+00    2.41875E+02
 1.10000E+00    2.38785E+02
 1.11894E+00    2.34745E+02
 1.15827E+00    2.28188E+02
 1.16913E+00    2.21497E+02
 1.17041E+00    2.19833E+02
 1.20000E+00    2.07719E+02
 1.22215E+00    2.02980E+02
 1.25843E+00    1.95381E+02
 1.29455E+00    1.84221E+02
 1.30000E+00    1.80974E+02
 1.32597E+00    1.74404E+02
 1.33553E+00    1.70900E+02
 1.34792E+00    1.67827E+02
 1.40000E+00    1.54762E+02
 1.41065E+00    1.52992E+02
 1.41105E+00    1.52639E+02
 1.41369E+00    1.51772E+02
 1.43754E+00    1.44969E+02
 1.50000E+00    1.35227E+02
 1.60000E+00    1.20792E+02
 1.70000E+00    1.05140E+02
 1.80000E+00    9.15547E+01
 1.90000E+00    7.99069E+01
 2.00000E+00    6.99702E+01
 2.25000E+00    4.90410E+01
 2.50000E+00    3.65900E+01
 2.75000E+00    2.56048E+01
 3.00000E+00    1.83285E+01
 3.50000E+00    8.67199E+00
 4.00000E+00    3.84470E+00
 4.50000E+00    1.63981E+00
 5.00000E+00    6.94628E-01
 5.50000E+00    3.01652E-01
 6.00000E+00    1.40399E-01
 6.50000E+00    7.32709E-02
 7.00000E+00    4.42060E-02
 7.50000E+00    3.08500E-02
 8.00000E+00    2.41857E-02
 8.50000E+00    2.04730E-02
 9.00000E+00    1.81198E-02
 9.50000E+00    1.64338E-02
 1.00000E+01    1.51121E-02
 1.05000E+01    1.40289E-02
 1.10000E+01    1.30859E-02
 1.15000E+01    1.22945E-02
 1.20000E+01    1.15754E-02
 1.25000E+01    1.09654E-02
 1.30000E+01    1.04038E-02
 1.35000E+01    9.91303E-03
 1.40000E+01    9.45720E-03
 1.45000E+01    9.05510E-03
 1.50000E+01    8.79806E-03
 1.55000E+01    8.45026E-03
 1.60000E+01    8.11528E-03
 1.65000E+01    7.78991E-03
 1.70000E+01    7.49189E-03
 1.75000E+01    7.19464E-03
 1.80000E+01    6.90999E-03
 1.85000E+01    6.62518E-03
 1.90000E+01    6.36356E-03
 1.95000E+01    6.10487E-03
 2.00000E+01    5.86688E-03
