# n + Nd145 : (n,xp)    
# jendl4.0   N.Iwamoto,A.Zukeran,K.Shibata     EVAL-Dec09
# 
# # energies =   100
#   E(MeV)        xs(mb) 
 6.76879E-02    0.00000E+00
 7.00000E-02    0.00000E+00
 7.30046E-02    0.00000E+00
 8.00000E-02    0.00000E+00
 9.00000E-02    0.00000E+00
 1.00000E-01    0.00000E+00
 1.05000E-01    0.00000E+00
 1.10000E-01    0.00000E+00
 1.20000E-01    0.00000E+00
 1.30000E-01    0.00000E+00
 1.40000E-01    0.00000E+00
 1.50000E-01    0.00000E+00
 1.60000E-01    0.00000E+00
 1.70000E-01    0.00000E+00
 1.80000E-01    0.00000E+00
 1.90000E-01    0.00000E+00
 2.00000E-01    0.00000E+00
 2.25000E-01    0.00000E+00
 2.50000E-01    0.00000E+00
 2.75000E-01    0.00000E+00
 3.00000E-01    0.00000E+00
 4.00000E-01    0.00000E+00
 5.00000E-01    0.00000E+00
 6.00000E-01    0.00000E+00
 6.62248E-01    0.00000E+00
 7.00000E-01    0.00000E+00
 7.53488E-01    0.00000E+00
 7.85882E-01    0.00000E+00
 8.00000E-01    0.00000E+00
 9.00000E-01    0.00000E+00
 9.26232E-01    0.00000E+00
 9.27129E-01    0.00000E+00
 9.43572E-01    0.00000E+00
 1.00000E+00    0.00000E+00
 1.01826E+00    0.00000E+00
 1.05873E+00    8.49078E-14
 1.09280E+00    1.85843E-13
 1.10000E+00    2.10825E-13
 1.11893E+00    2.76997E-13
 1.11894E+00    2.77032E-13
 1.15827E+00    4.14516E-13
 1.16913E+00    4.52478E-13
 1.17041E+00    4.56953E-13
 1.20000E+00    5.60389E-13
 1.22215E+00    6.37842E-13
 1.25843E+00    7.65138E-13
 1.29455E+00    8.91873E-13
 1.30000E+00    9.10995E-13
 1.32597E+00    1.00212E-12
 1.33553E+00    1.03566E-12
 1.34792E+00    1.07913E-12
 1.40000E+00    1.26607E-12
 1.41065E+00    1.30587E-12
 1.41105E+00    1.30737E-12
 1.41369E+00    1.31723E-12
 1.43754E+00    1.40638E-12
 1.50000E+00    1.63982E-12
 1.60000E+00    2.03022E-12
 1.70000E+00    2.49047E-12
 1.80000E+00    2.95083E-12
 1.90000E+00    3.43124E-12
 2.00000E+00    3.92546E-12
 2.25000E+00    5.16100E-12
 2.50000E+00    3.18240E-10
 2.75000E+00    7.67160E-09
 3.00000E+00    9.21170E-08
 3.50000E+00    3.12710E-06
 4.00000E+00    3.15370E-05
 4.50000E+00    1.49699E-04
 5.00000E+00    4.35202E-04
 5.50000E+00    9.19062E-04
 6.00000E+00    1.61938E-03
 6.50000E+00    2.69810E-03
 7.00000E+00    4.76146E-03
 7.50000E+00    9.38471E-03
 8.00000E+00    1.98730E-02
 8.50000E+00    4.21478E-02
 9.00000E+00    8.55650E-02
 9.50000E+00    1.63441E-01
 1.00000E+01    2.93040E-01
 1.05000E+01    4.95229E-01
 1.10000E+01    7.91058E-01
 1.15000E+01    1.20391E+00
 1.20000E+01    1.74869E+00
 1.25000E+01    2.44462E+00
 1.30000E+01    3.29453E+00
 1.35000E+01    4.31029E+00
 1.40000E+01    5.48522E+00
 1.45000E+01    6.82349E+00
 1.50000E+01    8.31537E+00
 1.55000E+01    9.95516E+00
 1.60000E+01    1.17361E+01
 1.65000E+01    1.36394E+01
 1.70000E+01    1.56700E+01
 1.75000E+01    1.77893E+01
 1.80000E+01    2.00239E+01
 1.85000E+01    2.23189E+01
 1.90000E+01    2.47114E+01
 1.95000E+01    2.71499E+01
 2.00000E+01    2.96725E+01
