# n + Hf180 : (n,tot)   
# endfb8.0   R.Q. Wright, T. Kawano            EVAL-OCT16
# uncertainties: n
# # energies =   171
#   E(MeV)       xs(mb) 
 1.00000E-11    1.74962E+05
 1.00000E-07    2.68973E+04
 4.13990E-07    2.50878E+04
 5.31580E-07    2.46615E+04
 6.82560E-07    2.42594E+04
 8.76420E-07    2.38729E+04
 1.12540E-06    2.34951E+04
 1.44500E-06    2.31129E+04
 1.85540E-06    2.27124E+04
 2.37240E-06    2.22883E+04
 3.05900E-06    2.18020E+04
 3.92790E-06    2.12703E+04
 5.04350E-06    2.06727E+04
 6.47600E-06    1.99812E+04
 8.31530E-06    1.91990E+04
 1.06770E-05    1.83136E+04
 1.37100E-05    1.73213E+04
 1.76030E-05    1.62241E+04
 2.26030E-05    1.50066E+04
 2.92030E-05    1.37001E+04
 3.72670E-05    1.22418E+04
 4.78510E-05    1.02180E+04
 6.14420E-05    2.08187E+05
 7.88930E-05    1.32500E+04
 1.01300E-04    1.00585E+04
 1.30070E-04    7.50783E+03
 1.67020E-04    7.42925E+04
 2.14450E-04    8.48326E+03
 2.75360E-04    7.35412E+03
 3.53580E-04    2.28814E+04
 4.54000E-04    1.68158E+04
 5.82950E-04    9.07881E+03
 7.48520E-04    5.80989E+04
 9.61120E-04    1.48853E+04
 1.23410E-03    1.73579E+04
 1.58460E-03    2.42020E+04
 2.03470E-03    8.23051E+03
 2.24870E-03    2.14622E+04
 2.48520E-03    7.61564E+03
 2.61260E-03    8.41098E+03
 2.74650E-03    6.21306E+03
 3.03540E-03    2.17806E+04
 3.35460E-03    3.80458E+04
 3.70740E-03    2.57305E+04
 4.30740E-03    2.58153E+04
 5.53080E-03    2.01900E+04
 7.10170E-03    1.87714E+04
 9.11880E-03    1.75008E+04
 1.17090E-02    1.63604E+04
 1.50340E-02    1.53269E+04
 1.93050E-02    1.46107E+04
 2.18750E-02    1.42491E+04
 2.35790E-02    1.40725E+04
 2.41760E-02    1.39864E+04
 2.47880E-02    1.38590E+04
 2.60580E-02    1.37159E+04
 2.70000E-02    1.35639E+04
 2.85000E-02    1.32952E+04
 3.18280E-02    1.29982E+04
 3.43070E-02    1.26119E+04
 4.08680E-02    1.21646E+04
 4.63090E-02    1.08023E+04
 5.24750E-02    9.01333E+03
 5.65620E-02    8.83389E+03
 6.73790E-02    8.67539E+03
 7.20000E-02    8.55944E+03
 7.95000E-02    8.45915E+03
 8.25000E-02    8.40922E+03
 8.65170E-02    8.30553E+03
 9.80370E-02    8.14991E+03
 1.11090E-01    8.05230E+03
 1.16790E-01    7.99367E+03
 1.22770E-01    7.93807E+03
 1.29070E-01    7.88848E+03
 1.35690E-01    7.83646E+03
 1.42640E-01    7.78177E+03
 1.49960E-01    7.72709E+03
 1.57640E-01    7.68257E+03
 1.65730E-01    7.63737E+03
 1.74220E-01    7.58986E+03
 1.83160E-01    7.53989E+03
 1.92550E-01    7.48738E+03
 2.02420E-01    7.43791E+03
 2.12800E-01    7.39712E+03
 2.23710E-01    7.35453E+03
 2.35180E-01    7.30975E+03
 2.47240E-01    7.24158E+03
 2.73240E-01    7.18144E+03
 2.87250E-01    7.15094E+03
 2.94520E-01    7.13670E+03
 2.97200E-01    7.13102E+03
 2.98500E-01    7.12422E+03
 3.01970E-01    7.07823E+03
 3.33730E-01    7.00261E+03
 3.68830E-01    6.94450E+03
 3.87740E-01    6.91137E+03
 4.07620E-01    6.85923E+03
 4.50490E-01    6.79310E+03
 4.97870E-01    6.75080E+03
 5.23400E-01    6.72337E+03
 5.50230E-01    6.70000E+03
 5.78440E-01    6.67562E+03
 6.08100E-01    6.65311E+03
 6.39280E-01    6.63842E+03
 6.72060E-01    6.62353E+03
 7.06510E-01    6.60892E+03
 7.42740E-01    6.60028E+03
 7.80820E-01    6.59400E+03
 8.20850E-01    6.59659E+03
 8.62940E-01    6.60079E+03
 9.07180E-01    6.60558E+03
 9.61640E-01    6.61412E+03
 1.00260E+00    6.63789E+03
 1.10800E+00    6.66475E+03
 1.16480E+00    6.68391E+03
 1.22460E+00    6.70566E+03
 1.28730E+00    6.73005E+03
 1.35340E+00    6.75570E+03
 1.42270E+00    6.78266E+03
 1.49570E+00    6.81101E+03
 1.57240E+00    6.84045E+03
 1.65300E+00    6.86186E+03
 1.73770E+00    6.88009E+03
 1.82680E+00    6.89922E+03
 1.92050E+00    6.91073E+03
 2.01900E+00    6.91586E+03
 2.12250E+00    6.91045E+03
 2.23130E+00    6.90151E+03
 2.30690E+00    6.89597E+03
 2.34570E+00    6.89314E+03
 2.36530E+00    6.89123E+03
 2.38520E+00    6.88546E+03
 2.46600E+00    6.86252E+03
 2.59240E+00    6.83102E+03
 2.72530E+00    6.79706E+03
 2.86500E+00    6.74931E+03
 3.01190E+00    6.69511E+03
 3.16640E+00    6.63814E+03
 3.32870E+00    6.53681E+03
 3.67880E+00    6.38367E+03
 4.06570E+00    6.21443E+03
 4.49330E+00    6.07651E+03
 4.72370E+00    5.97824E+03
 4.96590E+00    5.87970E+03
 5.22050E+00    5.78231E+03
 5.48810E+00    5.68003E+03
 5.76950E+00    5.58008E+03
 6.06530E+00    5.48286E+03
 6.37630E+00    5.40620E+03
 6.59240E+00    5.36238E+03
 6.70320E+00    5.31059E+03
 7.04690E+00    5.23791E+03
 7.40820E+00    5.17811E+03
 7.78800E+00    5.13277E+03
 8.18730E+00    5.10205E+03
 8.60710E+00    5.08392E+03
 9.04840E+00    5.08490E+03
 9.51230E+00    5.09508E+03
 1.00000E+01    5.11699E+03
 1.05130E+01    5.14952E+03
 1.10520E+01    5.18910E+03
 1.16180E+01    5.23340E+03
 1.22140E+01    5.28024E+03
 1.28400E+01    5.32758E+03
 1.34990E+01    5.36217E+03
 1.38400E+01    5.38436E+03
 1.41910E+01    5.40534E+03
 1.45500E+01    5.42480E+03
 1.49180E+01    5.45050E+03
 1.56830E+01    5.47639E+03
 1.64870E+01    5.48988E+03
