# n + Hf180 : (n,xa)    
# endfb8.0   R.Q. Wright, T. Kawano            EVAL-OCT16
# 
# # energies =   114
#   E(MeV)        xs(mb) 
 9.38471E-02    1.55286E-10
 1.00000E-01    1.39310E-10
 1.20000E-01    1.22110E-10
 1.50000E-01    9.43200E-11
 2.00000E-01    1.08400E-10
 2.50000E-01    1.15860E-10
 3.00000E-01    1.45290E-10
 3.10309E-01    1.49521E-10
 3.50000E-01    1.65810E-10
 4.00000E-01    1.90300E-10
 4.50000E-01    2.30150E-10
 5.00000E-01    2.79790E-10
 6.00000E-01    4.49770E-10
 6.44450E-01    5.72830E-10
 7.00000E-01    7.26620E-10
 8.00000E-01    1.19630E-09
 9.00000E-01    1.99370E-09
 1.00000E+00    3.31590E-09
 1.09002E+00    5.29922E-09
 1.10000E+00    5.51920E-09
 1.10808E+00    5.71403E-09
 1.11345E+00    5.84354E-09
 1.14790E+00    6.67462E-09
 1.17038E+00    7.21700E-09
 1.18995E+00    7.68904E-09
 1.19930E+00    7.91439E-09
 1.20000E+00    7.93140E-09
 1.20639E+00    8.11660E-09
 1.26752E+00    9.89003E-09
 1.29828E+00    1.07820E-08
 1.30000E+00    1.08320E-08
 1.30744E+00    1.10484E-08
 1.32308E+00    1.15033E-08
 1.36169E+00    1.26266E-08
 1.37716E+00    1.30765E-08
 1.38185E+00    1.32131E-08
 1.38905E+00    1.34226E-08
 1.39296E+00    1.35364E-08
 1.40000E+00    1.37410E-08
 1.41710E+00    1.43629E-08
 1.41715E+00    1.43647E-08
 1.42856E+00    1.47798E-08
 1.43760E+00    1.51086E-08
 1.45209E+00    1.56357E-08
 1.48052E+00    1.66696E-08
 1.49072E+00    1.70404E-08
 1.49259E+00    1.71085E-08
 1.50000E+00    1.73780E-08
 1.51645E+00    1.81505E-08
 1.53355E+00    1.89531E-08
 1.54767E+00    1.96160E-08
 1.56554E+00    2.04549E-08
 1.56776E+00    2.05593E-08
 1.60000E+00    2.20730E-08
 1.60637E+00    2.24312E-08
 1.61656E+00    2.30036E-08
 1.61815E+00    2.30928E-08
 1.62134E+00    2.32720E-08
 1.62186E+00    2.33013E-08
 1.62287E+00    2.33578E-08
 1.70000E+00    2.76920E-08
 1.80000E+00    3.60870E-08
 1.90000E+00    4.64430E-08
 2.00000E+00    6.26320E-08
 2.10000E+00    8.24670E-08
 2.20000E+00    1.09130E-07
 2.30000E+00    1.44690E-07
 2.40000E+00    1.91920E-07
 2.50000E+00    2.54240E-07
 2.60000E+00    3.35850E-07
 2.70000E+00    4.41970E-07
 2.80000E+00    5.78980E-07
 2.90000E+00    7.54650E-07
 3.00000E+00    9.78450E-07
 3.10000E+00    1.26154E-06
 3.20000E+00    1.61711E-06
 3.30000E+00    2.06048E-06
 3.40000E+00    2.60904E-06
 3.50000E+00    3.28231E-06
 3.60000E+00    4.10170E-06
 3.80000E+00    6.27168E-06
 4.00000E+00    9.31805E-06
 4.50000E+00    2.20314E-05
 5.00000E+00    4.07944E-05
 5.50000E+00    7.00885E-05
 6.00000E+00    1.12971E-04
 6.50000E+00    1.75630E-04
 7.00000E+00    2.68976E-04
 7.50000E+00    4.09034E-04
 8.00000E+00    6.54613E-04
 8.50000E+00    1.13055E-03
 9.00000E+00    2.12216E-03
 9.50000E+00    4.22381E-03
 1.00000E+01    8.53244E-03
 1.05000E+01    1.68986E-02
 1.10000E+01    3.22263E-02
 1.15000E+01    5.86192E-02
 1.20000E+01    1.01268E-01
 1.25000E+01    1.65721E-01
 1.30000E+01    2.57405E-01
 1.35000E+01    3.81354E-01
 1.40000E+01    5.41613E-01
 1.45000E+01    7.40992E-01
 1.50000E+01    9.81001E-01
 1.55000E+01    1.26189E+00
 1.60000E+01    1.58280E+00
 1.65000E+01    1.94196E+00
 1.70000E+01    2.33695E+00
 1.75000E+01    2.76480E+00
 1.80000E+01    3.22275E+00
 1.85000E+01    3.70789E+00
 1.90000E+01    4.21716E+00
 1.95000E+01    4.74786E+00
 2.00000E+01    5.29676E+00
