# n + Mo 96 : (n,a)     
# jendl4.0   K.Shibata, A.Ichihara, S.Kunieda+ EVAL-MAR09
# uncertainties: n
# # energies =    26
#   E(MeV)       xs(mb) 
 3.00000E+00    0.00000E+00
 3.50000E+00    1.84500E-02
 4.00000E+00    4.85600E-02
 4.50000E+00    1.02100E-01
 5.00000E+00    2.23500E-01
 5.50000E+00    3.49200E-01
 6.00000E+00    4.98800E-01
 6.50000E+00    6.69300E-01
 7.00000E+00    8.30500E-01
 7.50000E+00    1.00500E+00
 8.00000E+00    1.18100E+00
 8.50000E+00    1.34500E+00
 9.00000E+00    1.58100E+00
 9.50000E+00    1.86400E+00
 1.00000E+01    2.24700E+00
 1.10000E+01    3.29600E+00
 1.20000E+01    4.70500E+00
 1.30000E+01    6.31200E+00
 1.40000E+01    7.84100E+00
 1.46000E+01    8.58400E+00
 1.50000E+01    8.96900E+00
 1.60000E+01    9.50800E+00
 1.70000E+01    9.48500E+00
 1.80000E+01    9.06900E+00
 1.90000E+01    8.43400E+00
 2.00000E+01    7.71000E+00
