# n + Mo 96 : (n,n'13)  
# jendl4.0   K.Shibata, A.Ichihara, S.Kunieda+ EVAL-MAR09
# uncertainties: n
# # energies =    28
#   E(MeV)       xs(mb) 
 2.45176E+00    0.00000E+00
 2.50000E+00    2.80300E+01
 3.00000E+00    9.80700E+01
 3.50000E+00    7.20800E+01
 4.00000E+00    5.20500E+01
 4.50000E+00    3.35500E+01
 5.00000E+00    2.17000E+01
 5.50000E+00    1.24600E+01
 6.00000E+00    8.75000E+00
 6.50000E+00    4.99300E+00
 7.00000E+00    4.84900E+00
 7.50000E+00    2.83800E+00
 8.00000E+00    2.18100E+00
 8.50000E+00    2.21400E+00
 9.00000E+00    1.81600E+00
 9.50000E+00    1.98000E+00
 1.00000E+01    1.65400E+00
 1.10000E+01    1.55100E+00
 1.20000E+01    1.47300E+00
 1.30000E+01    1.41100E+00
 1.40000E+01    1.36000E+00
 1.46000E+01    1.33800E+00
 1.50000E+01    1.32500E+00
 1.60000E+01    1.30000E+00
 1.70000E+01    1.28400E+00
 1.80000E+01    1.27300E+00
 1.90000E+01    1.26600E+00
 2.00000E+01    1.26000E+00
