# n + Mo 96 : (n,n'15)  
# jendl4.0   K.Shibata, A.Ichihara, S.Kunieda+ EVAL-MAR09
# uncertainties: n
# # energies =    28
#   E(MeV)       xs(mb) 
 2.46647E+00    0.00000E+00
 2.50000E+00    2.19200E-01
 3.00000E+00    2.26000E+00
 3.50000E+00    5.20000E+00
 4.00000E+00    7.30500E+00
 4.50000E+00    7.08700E+00
 5.00000E+00    5.74300E+00
 5.50000E+00    4.00800E+00
 6.00000E+00    3.29400E+00
 6.50000E+00    2.18900E+00
 7.00000E+00    2.43200E+00
 7.50000E+00    1.60900E+00
 8.00000E+00    1.37700E+00
 8.50000E+00    1.53800E+00
 9.00000E+00    1.37000E+00
 9.50000E+00    1.60400E+00
 1.00000E+01    1.42500E+00
 1.10000E+01    1.48300E+00
 1.20000E+01    1.53300E+00
 1.30000E+01    1.57600E+00
 1.40000E+01    1.61400E+00
 1.46000E+01    1.63900E+00
 1.50000E+01    1.65600E+00
 1.60000E+01    1.70200E+00
 1.70000E+01    1.74900E+00
 1.80000E+01    1.79700E+00
 1.90000E+01    1.84100E+00
 2.00000E+01    1.88100E+00
