# n + Mo 96 : (n,n'10)  
# jendl4.0   K.Shibata, A.Ichihara, S.Kunieda+ EVAL-MAR09
# uncertainties: n
# # energies =    28
#   E(MeV)       xs(mb) 
 2.24282E+00    0.00000E+00
 2.50000E+00    6.10800E+01
 3.00000E+00    5.48900E+01
 3.50000E+00    4.61400E+01
 4.00000E+00    3.82200E+01
 4.50000E+00    2.66000E+01
 5.00000E+00    1.80000E+01
 5.50000E+00    1.09400E+01
 6.00000E+00    8.07100E+00
 6.50000E+00    4.85900E+00
 7.00000E+00    4.95300E+00
 7.50000E+00    3.03100E+00
 8.00000E+00    2.41700E+00
 8.50000E+00    2.53200E+00
 9.00000E+00    2.13200E+00
 9.50000E+00    2.37800E+00
 1.00000E+01    2.02500E+00
 1.10000E+01    1.96200E+00
 1.20000E+01    1.91300E+00
 1.30000E+01    1.87200E+00
 1.40000E+01    1.83800E+00
 1.46000E+01    1.82500E+00
 1.50000E+01    1.81800E+00
 1.60000E+01    1.80900E+00
 1.70000E+01    1.80900E+00
 1.80000E+01    1.81300E+00
 1.90000E+01    1.81900E+00
 2.00000E+01    1.82500E+00
