# n + Sn122 : (n,n'02)  
# jendl4.0   N.Iwamoto,K.Shibata               EVAL-Dec09
# uncertainties: n
# # energies =    65
#   E(MeV)       xs(mb) 
 2.10498E+00    0.00000E+00
 2.15978E+00    2.49673E+01
 2.17163E+00    2.91061E+01
 2.25000E+00    4.95888E+01
 2.26439E+00    5.25098E+01
 2.35038E+00    6.62894E+01
 2.42896E+00    7.51692E+01
 2.43553E+00    7.57724E+01
 2.50000E+00    7.93937E+01
 2.51330E+00    7.99141E+01
 2.55127E+00    8.07038E+01
 2.57656E+00    8.03477E+01
 2.67331E+00    8.01600E+01
 2.67495E+00    8.01671E+01
 2.67898E+00    8.01833E+01
 2.69771E+00    8.00458E+01
 2.71230E+00    7.94070E+01
 2.75000E+00    7.83341E+01
 2.75713E+00    7.81732E+01
 2.77377E+00    7.74273E+01
 2.78848E+00    7.68863E+01
 2.79852E+00    7.65301E+01
 2.86136E+00    7.31845E+01
 2.87910E+00    7.24221E+01
 2.89146E+00    7.19140E+01
 2.90362E+00    7.13962E+01
 2.96933E+00    6.76273E+01
 2.98360E+00    6.68310E+01
 2.99568E+00    6.62206E+01
 2.99799E+00    6.59639E+01
 3.00000E+00    7.41587E+01
 3.50000E+00    4.82230E+01
 4.00000E+00    3.07107E+01
 4.50000E+00    2.15411E+01
 5.00000E+00    1.68509E+01
 5.50000E+00    1.44480E+01
 6.00000E+00    1.30736E+01
 6.50000E+00    1.20159E+01
 7.00000E+00    1.10163E+01
 7.50000E+00    1.00670E+01
 8.00000E+00    9.20810E+00
 8.50000E+00    8.45517E+00
 9.00000E+00    7.80418E+00
 9.50000E+00    7.24590E+00
 1.00000E+01    6.76821E+00
 1.05000E+01    6.36084E+00
 1.10000E+01    5.99514E+00
 1.15000E+01    5.67333E+00
 1.20000E+01    5.37546E+00
 1.25000E+01    5.10462E+00
 1.30000E+01    4.85325E+00
 1.35000E+01    4.61907E+00
 1.40000E+01    4.40261E+00
 1.45000E+01    4.19594E+00
 1.50000E+01    4.00522E+00
 1.55000E+01    3.81848E+00
 1.60000E+01    3.64626E+00
 1.65000E+01    3.47594E+00
 1.70000E+01    3.31922E+00
 1.75000E+01    3.16543E+00
 1.80000E+01    3.02441E+00
 1.85000E+01    2.88795E+00
 1.90000E+01    2.76308E+00
 1.95000E+01    2.64423E+00
 2.00000E+01    2.53533E+00
