# n + Sn122 : (n,n'05)  
# jendl4.0   N.Iwamoto,K.Shibata               EVAL-Dec09
# uncertainties: n
# # energies =    61
#   E(MeV)       xs(mb) 
 2.26439E+00    0.00000E+00
 2.35038E+00    2.34751E+01
 2.42896E+00    3.40447E+01
 2.43553E+00    3.49737E+01
 2.50000E+00    4.33381E+01
 2.51330E+00    4.49440E+01
 2.55127E+00    4.82987E+01
 2.57656E+00    5.03316E+01
 2.67331E+00    5.76677E+01
 2.67495E+00    5.77515E+01
 2.67898E+00    5.79245E+01
 2.69771E+00    5.81984E+01
 2.71230E+00    5.84846E+01
 2.75000E+00    5.94418E+01
 2.75713E+00    5.96649E+01
 2.77377E+00    6.00990E+01
 2.78848E+00    6.02979E+01
 2.79852E+00    6.04012E+01
 2.86136E+00    6.11566E+01
 2.87910E+00    6.13295E+01
 2.89146E+00    6.13145E+01
 2.90362E+00    6.11208E+01
 2.96933E+00    6.01616E+01
 2.98360E+00    5.98886E+01
 2.99568E+00    5.93953E+01
 2.99799E+00    5.93440E+01
 3.00000E+00    5.99311E+01
 3.50000E+00    5.04558E+01
 4.00000E+00    3.50714E+01
 4.50000E+00    2.22715E+01
 5.00000E+00    1.37478E+01
 5.50000E+00    8.71675E+00
 6.00000E+00    5.85822E+00
 6.50000E+00    4.19059E+00
 7.00000E+00    3.17127E+00
 7.50000E+00    2.52715E+00
 8.00000E+00    2.11034E+00
 8.50000E+00    1.82995E+00
 9.00000E+00    1.63104E+00
 9.50000E+00    1.48264E+00
 1.00000E+01    1.36727E+00
 1.05000E+01    1.27530E+00
 1.10000E+01    1.19697E+00
 1.15000E+01    1.13033E+00
 1.20000E+01    1.06998E+00
 1.25000E+01    1.01563E+00
 1.30000E+01    9.65650E-01
 1.35000E+01    9.19006E-01
 1.40000E+01    8.76232E-01
 1.45000E+01    8.35353E-01
 1.50000E+01    7.97705E-01
 1.55000E+01    7.60978E-01
 1.60000E+01    7.26930E-01
 1.65000E+01    6.93449E-01
 1.70000E+01    6.62404E-01
 1.75000E+01    6.32144E-01
 1.80000E+01    6.04155E-01
 1.85000E+01    5.77255E-01
 1.90000E+01    5.52423E-01
 1.95000E+01    5.28852E-01
 2.00000E+01    5.07168E-01
