# n + Sn122 : (n,g)     
# jendl4.0   N.Iwamoto,K.Shibata               EVAL-Dec09
# uncertainties: n
# # energies =    69
#   E(MeV)       xs(mb) 
 1.00000E-10    9.78436E+02
 5.00000E-09    2.66117E+02
 1.00000E-08    2.01364E+02
 1.50000E-08    1.69033E+02
 2.00000E-08    1.48585E+02
 2.50000E-08    1.34121E+02
 3.00000E-08    1.23180E+02
 3.50000E-08    1.13137E+02
 4.20000E-08    1.03349E+02
 5.00000E-08    9.51945E+01
 5.80000E-08    8.83461E+01
 6.70000E-08    8.13765E+01
 8.00000E-08    7.34325E+01
 1.00000E-07    6.35686E+01
 1.40000E-07    5.44729E+01
 1.80000E-07    4.83072E+01
 2.20000E-07    4.42183E+01
 2.50000E-07    4.14175E+01
 2.80000E-07    3.93995E+01
 3.00000E-07    3.79777E+01
 3.20000E-07    3.63921E+01
 3.50000E-07    3.41941E+01
 4.00000E-07    3.09095E+01
 5.00000E-07    2.71424E+01
 6.25000E-07    2.37456E+01
 7.80000E-07    2.15753E+01
 8.50000E-07    2.05461E+01
 9.10000E-07    1.98250E+01
 9.50000E-07    1.94061E+01
 9.72000E-07    1.91096E+01
 9.96000E-07    1.88104E+01
 1.02000E-06    1.85159E+01
 1.04500E-06    1.82208E+01
 1.07100E-06    1.79287E+01
 1.09700E-06    1.76478E+01
 1.12300E-06    1.73722E+01
 1.15000E-06    1.65330E+01
 1.30000E-06    1.50778E+01
 1.50000E-06    1.26836E+01
 2.10000E-06    1.02280E+01
 2.60000E-06    8.46747E+00
 3.30000E-06    6.98489E+00
 4.00000E-06    4.18398E+00
 9.87700E-06    1.92102E+00
 1.59680E-05    1.11939E+00
 2.77000E-05    7.26595E-01
 4.80520E-05    7.39456E-01
 7.55014E-05    4.12780E+02
 1.48728E-04    1.18165E+02
 3.67262E-04    2.62637E-01
 9.06898E-04    6.48907E-01
 1.42510E-03    5.13283E+02
 2.23945E-03    1.43623E+02
 3.51910E-03    1.24439E+02
 5.53000E-03    9.62653E+01
 9.11800E-03    4.04146E+01
 1.50300E-02    5.51955E+01
 2.47800E-02    2.32704E+01
 4.08500E-02    2.14726E+01
 6.73400E-02    1.39957E+01
 1.11000E-01    1.32002E+01
 1.83000E-01    1.25341E+01
 3.02000E-01    1.25865E+01
 5.00000E-01    1.42112E+01
 8.21000E-01    1.78523E+01
 1.35300E+00    1.55904E+01
 2.23100E+00    9.23798E+00
 3.67900E+00    3.43306E+00
 6.06500E+00    9.14231E-01
