# n + Sn122 : (n,n'13)  
# jendl4.0   N.Iwamoto,K.Shibata               EVAL-Dec09
# uncertainties: n
# # energies =    52
#   E(MeV)       xs(mb) 
 2.67495E+00    0.00000E+00
 2.67898E+00    1.99568E-01
 2.69771E+00    1.01228E+00
 2.71230E+00    1.73483E+00
 2.75000E+00    3.65268E+00
 2.75713E+00    3.99319E+00
 2.77377E+00    4.78325E+00
 2.78848E+00    5.37391E+00
 2.79852E+00    5.75812E+00
 2.86136E+00    7.98782E+00
 2.87910E+00    8.53868E+00
 2.89146E+00    8.84607E+00
 2.90362E+00    9.11575E+00
 2.96933E+00    1.04215E+01
 2.98360E+00    1.06824E+01
 2.99568E+00    1.08087E+01
 2.99799E+00    1.08419E+01
 3.00000E+00    1.07253E+01
 3.50000E+00    1.47697E+01
 4.00000E+00    1.24234E+01
 4.50000E+00    8.88312E+00
 5.00000E+00    5.70749E+00
 5.50000E+00    3.48285E+00
 6.00000E+00    2.10872E+00
 6.50000E+00    1.28175E+00
 7.00000E+00    7.76863E-01
 7.50000E+00    4.70122E-01
 8.00000E+00    2.89955E-01
 8.50000E+00    1.86927E-01
 9.00000E+00    1.28284E-01
 9.50000E+00    9.44800E-02
 1.00000E+01    7.44950E-02
 1.05000E+01    6.22938E-02
 1.10000E+01    5.44156E-02
 1.15000E+01    4.91012E-02
 1.20000E+01    4.52027E-02
 1.25000E+01    4.21833E-02
 1.30000E+01    3.97049E-02
 1.35000E+01    3.75574E-02
 1.40000E+01    3.56862E-02
 1.45000E+01    3.39629E-02
 1.50000E+01    3.24081E-02
 1.55000E+01    3.09233E-02
 1.60000E+01    2.95537E-02
 1.65000E+01    2.82181E-02
 1.70000E+01    2.69782E-02
 1.75000E+01    2.57742E-02
 1.80000E+01    2.46565E-02
 1.85000E+01    2.35836E-02
 1.90000E+01    2.25895E-02
 1.95000E+01    2.16416E-02
 2.00000E+01    2.07677E-02
