# n + Sn122 : (n,n'01)  
# jendl4.0   N.Iwamoto,K.Shibata               EVAL-Dec09
# uncertainties: n
# # energies =    75
#   E(MeV)       xs(mb) 
 1.14995E+00    0.00000E+00
 1.20000E+00    2.69702E+02
 1.30000E+00    4.82386E+02
 1.40000E+00    6.08100E+02
 1.50000E+00    6.96831E+02
 1.60000E+00    7.58975E+02
 1.70000E+00    8.11236E+02
 1.80000E+00    8.57555E+02
 1.90000E+00    8.99943E+02
 2.00000E+00    9.39486E+02
 2.10498E+00    9.62909E+02
 2.15978E+00    9.65077E+02
 2.17163E+00    9.56593E+02
 2.25000E+00    8.81332E+02
 2.26439E+00    8.71860E+02
 2.35038E+00    8.22355E+02
 2.42896E+00    7.81267E+02
 2.43553E+00    7.78603E+02
 2.50000E+00    7.34290E+02
 2.51330E+00    7.26833E+02
 2.55127E+00    6.96128E+02
 2.57656E+00    6.77637E+02
 2.67331E+00    6.23077E+02
 2.67495E+00    6.22238E+02
 2.67898E+00    6.20165E+02
 2.69771E+00    6.07028E+02
 2.71230E+00    5.97204E+02
 2.75000E+00    5.75758E+02
 2.75713E+00    5.72075E+02
 2.77377E+00    5.59953E+02
 2.78848E+00    5.51244E+02
 2.79852E+00    5.45595E+02
 2.86136E+00    5.07420E+02
 2.87910E+00    4.98829E+02
 2.89146E+00    4.92701E+02
 2.90362E+00    4.85956E+02
 2.96933E+00    4.49279E+02
 2.98360E+00    4.41649E+02
 2.99568E+00    4.35608E+02
 2.99799E+00    4.33984E+02
 3.00000E+00    4.34158E+02
 3.50000E+00    2.66082E+02
 4.00000E+00    1.81964E+02
 4.50000E+00    1.44981E+02
 5.00000E+00    1.29454E+02
 5.50000E+00    1.22395E+02
 6.00000E+00    1.17003E+02
 6.50000E+00    1.10718E+02
 7.00000E+00    1.03452E+02
 7.50000E+00    9.59264E+01
 8.00000E+00    8.88352E+01
 8.50000E+00    8.25883E+01
 9.00000E+00    7.73238E+01
 9.50000E+00    7.29791E+01
 1.00000E+01    6.93665E+01
 1.05000E+01    6.63934E+01
 1.10000E+01    6.34402E+01
 1.15000E+01    6.08776E+01
 1.20000E+01    5.83275E+01
 1.25000E+01    5.61240E+01
 1.30000E+01    5.39305E+01
 1.35000E+01    5.21546E+01
 1.40000E+01    5.03870E+01
 1.45000E+01    4.89418E+01
 1.50000E+01    4.75036E+01
 1.55000E+01    4.62518E+01
 1.60000E+01    4.50064E+01
 1.65000E+01    4.38867E+01
 1.70000E+01    4.27729E+01
 1.75000E+01    4.17602E+01
 1.80000E+01    4.07534E+01
 1.85000E+01    3.98328E+01
 1.90000E+01    3.89161E+01
 1.95000E+01    3.80969E+01
 2.00000E+01    3.72824E+01
