# n + Sn122 : (n,xt)    
# jendl4.0   N.Iwamoto,K.Shibata               EVAL-Dec09
# 
# # energies =    98
#   E(MeV)        xs(mb) 
 1.05000E-01    0.00000E+00
 1.10000E-01    0.00000E+00
 1.20000E-01    0.00000E+00
 1.30000E-01    0.00000E+00
 1.40000E-01    0.00000E+00
 1.50000E-01    0.00000E+00
 1.60000E-01    0.00000E+00
 1.70000E-01    0.00000E+00
 1.80000E-01    0.00000E+00
 1.90000E-01    0.00000E+00
 2.00000E-01    0.00000E+00
 2.25000E-01    0.00000E+00
 2.50000E-01    0.00000E+00
 2.75000E-01    0.00000E+00
 3.00000E-01    0.00000E+00
 4.00000E-01    0.00000E+00
 5.00000E-01    0.00000E+00
 6.00000E-01    0.00000E+00
 7.00000E-01    0.00000E+00
 8.00000E-01    0.00000E+00
 9.00000E-01    0.00000E+00
 1.00000E+00    0.00000E+00
 1.10000E+00    0.00000E+00
 1.14995E+00    0.00000E+00
 1.20000E+00    0.00000E+00
 1.30000E+00    0.00000E+00
 1.40000E+00    0.00000E+00
 1.50000E+00    0.00000E+00
 1.60000E+00    0.00000E+00
 1.70000E+00    0.00000E+00
 1.80000E+00    0.00000E+00
 1.90000E+00    0.00000E+00
 2.00000E+00    0.00000E+00
 2.10498E+00    0.00000E+00
 2.15978E+00    0.00000E+00
 2.17163E+00    0.00000E+00
 2.25000E+00    0.00000E+00
 2.26439E+00    0.00000E+00
 2.35038E+00    0.00000E+00
 2.42896E+00    0.00000E+00
 2.43553E+00    0.00000E+00
 2.50000E+00    0.00000E+00
 2.51330E+00    0.00000E+00
 2.55127E+00    0.00000E+00
 2.57656E+00    0.00000E+00
 2.67331E+00    0.00000E+00
 2.67495E+00    0.00000E+00
 2.67898E+00    0.00000E+00
 2.69771E+00    0.00000E+00
 2.71230E+00    0.00000E+00
 2.75000E+00    0.00000E+00
 2.75713E+00    0.00000E+00
 2.77377E+00    0.00000E+00
 2.78848E+00    0.00000E+00
 2.79852E+00    0.00000E+00
 2.86136E+00    0.00000E+00
 2.87910E+00    0.00000E+00
 2.89146E+00    0.00000E+00
 2.90362E+00    0.00000E+00
 2.96933E+00    0.00000E+00
 2.98360E+00    0.00000E+00
 2.99568E+00    0.00000E+00
 2.99799E+00    0.00000E+00
 3.00000E+00    0.00000E+00
 3.50000E+00    0.00000E+00
 4.00000E+00    0.00000E+00
 4.50000E+00    0.00000E+00
 5.00000E+00    0.00000E+00
 5.50000E+00    0.00000E+00
 6.00000E+00    0.00000E+00
 6.50000E+00    0.00000E+00
 7.00000E+00    0.00000E+00
 7.50000E+00    0.00000E+00
 8.00000E+00    0.00000E+00
 8.50000E+00    0.00000E+00
 9.00000E+00    0.00000E+00
 9.50000E+00    0.00000E+00
 1.00000E+01    0.00000E+00
 1.05000E+01    0.00000E+00
 1.10000E+01    0.00000E+00
 1.15000E+01    1.35240E-18
 1.20000E+01    3.64565E-18
 1.25000E+01    5.93890E-18
 1.30000E+01    1.27120E-13
 1.35000E+01    7.80370E-11
 1.40000E+01    7.06700E-09
 1.45000E+01    2.00560E-07
 1.50000E+01    2.67034E-06
 1.55000E+01    2.11381E-05
 1.60000E+01    1.14865E-04
 1.65000E+01    4.68575E-04
 1.70000E+01    1.51828E-03
 1.75000E+01    4.05817E-03
 1.80000E+01    9.20144E-03
 1.85000E+01    1.80557E-02
 1.90000E+01    3.18999E-02
 1.95000E+01    5.14375E-02
 2.00000E+01    7.71110E-02
