# n + Sn122 : (n,n'10)  
# jendl4.0   N.Iwamoto,K.Shibata               EVAL-Dec09
# uncertainties: n
# # energies =    55
#   E(MeV)       xs(mb) 
 2.55127E+00    0.00000E+00
 2.57656E+00    7.43828E+00
 2.67331E+00    2.28900E+01
 2.67495E+00    2.30940E+01
 2.67898E+00    2.35896E+01
 2.69771E+00    2.57847E+01
 2.71230E+00    2.70987E+01
 2.75000E+00    3.05730E+01
 2.75713E+00    3.11032E+01
 2.77377E+00    3.21615E+01
 2.78848E+00    3.30227E+01
 2.79852E+00    3.35742E+01
 2.86136E+00    3.60731E+01
 2.87910E+00    3.65310E+01
 2.89146E+00    3.68361E+01
 2.90362E+00    3.71207E+01
 2.96933E+00    3.79542E+01
 2.98360E+00    3.80101E+01
 2.99568E+00    3.80568E+01
 2.99799E+00    3.79738E+01
 3.00000E+00    3.78932E+01
 3.50000E+00    2.94556E+01
 4.00000E+00    1.69345E+01
 4.50000E+00    9.33294E+00
 5.00000E+00    5.28208E+00
 5.50000E+00    3.19764E+00
 6.00000E+00    2.12243E+00
 6.50000E+00    1.53892E+00
 7.00000E+00    1.19590E+00
 7.50000E+00    9.80554E-01
 8.00000E+00    8.39434E-01
 8.50000E+00    7.41981E-01
 9.00000E+00    6.70121E-01
 9.50000E+00    6.14190E-01
 1.00000E+01    5.69105E-01
 1.05000E+01    5.32384E-01
 1.10000E+01    5.00802E-01
 1.15000E+01    4.73883E-01
 1.20000E+01    4.49401E-01
 1.25000E+01    4.27172E-01
 1.30000E+01    4.06693E-01
 1.35000E+01    3.87357E-01
 1.40000E+01    3.69679E-01
 1.45000E+01    3.52712E-01
 1.50000E+01    3.37086E-01
 1.55000E+01    3.21910E-01
 1.60000E+01    3.07740E-01
 1.65000E+01    2.93889E-01
 1.70000E+01    2.80924E-01
 1.75000E+01    2.68376E-01
 1.80000E+01    2.56649E-01
 1.85000E+01    2.45458E-01
 1.90000E+01    2.35025E-01
 1.95000E+01    2.25139E-01
 2.00000E+01    2.15999E-01
