# n + Sn122 : (n,n'11)  
# jendl4.0   N.Iwamoto,K.Shibata               EVAL-Dec09
# uncertainties: n
# # energies =    54
#   E(MeV)       xs(mb) 
 2.57656E+00    0.00000E+00
 2.67331E+00    1.39759E+00
 2.67495E+00    1.40290E+00
 2.67898E+00    1.41959E+00
 2.69771E+00    1.59261E+00
 2.71230E+00    1.74384E+00
 2.75000E+00    2.16628E+00
 2.75713E+00    2.25184E+00
 2.77377E+00    2.45912E+00
 2.78848E+00    2.59007E+00
 2.79852E+00    2.69766E+00
 2.86136E+00    3.46473E+00
 2.87910E+00    3.66947E+00
 2.89146E+00    3.81363E+00
 2.90362E+00    3.95974E+00
 2.96933E+00    4.81446E+00
 2.98360E+00    5.00788E+00
 2.99568E+00    5.15052E+00
 2.99799E+00    5.17999E+00
 3.00000E+00    5.98165E+00
 3.50000E+00    1.23299E+01
 4.00000E+00    1.32084E+01
 4.50000E+00    1.08265E+01
 5.00000E+00    7.93645E+00
 5.50000E+00    5.69768E+00
 6.00000E+00    4.20242E+00
 6.50000E+00    3.20762E+00
 7.00000E+00    2.52300E+00
 7.50000E+00    2.04994E+00
 8.00000E+00    1.72701E+00
 8.50000E+00    1.50335E+00
 9.00000E+00    1.34173E+00
 9.50000E+00    1.21947E+00
 1.00000E+01    1.12360E+00
 1.05000E+01    1.04722E+00
 1.10000E+01    9.82831E-01
 1.15000E+01    9.28685E-01
 1.20000E+01    8.79984E-01
 1.25000E+01    8.36065E-01
 1.30000E+01    7.95765E-01
 1.35000E+01    7.57834E-01
 1.40000E+01    7.23182E-01
 1.45000E+01    6.89983E-01
 1.50000E+01    6.59420E-01
 1.55000E+01    6.29753E-01
 1.60000E+01    6.02075E-01
 1.65000E+01    5.75007E-01
 1.70000E+01    5.49687E-01
 1.75000E+01    5.25164E-01
 1.80000E+01    5.02250E-01
 1.85000E+01    4.80363E-01
 1.90000E+01    4.59975E-01
 1.95000E+01    4.40633E-01
 2.00000E+01    4.22761E-01
