# n + Tb159 : (n,tot)   
# endfb8.0   JNDC FPND W.G., Mughabghab        EVAL-JAN05
# uncertainties: n
# # energies =   171
#   E(MeV)       xs(mb) 
 1.00000E-11    2.62701E+05
 1.00000E-07    1.54485E+04
 4.13990E-07    1.25384E+04
 5.31580E-07    1.19419E+04
 6.82560E-07    1.14424E+04
 8.76420E-07    1.10517E+04
 1.12540E-06    1.08148E+04
 1.44500E-06    1.08771E+04
 1.85540E-06    1.18815E+04
 2.37240E-06    2.32330E+04
 3.05900E-06    3.23757E+05
 3.92790E-06    2.76537E+04
 5.04350E-06    1.33215E+04
 6.47600E-06    8.64953E+03
 8.31530E-06    2.83914E+04
 1.06770E-05    6.40241E+05
 1.37100E-05    1.64988E+04
 1.76030E-05    3.38851E+04
 2.26030E-05    9.20764E+04
 2.92030E-05    2.94364E+04
 3.72670E-05    8.81148E+04
 4.78510E-05    2.80035E+04
 6.14420E-05    8.36942E+04
 7.88930E-05    4.41331E+04
 1.01300E-04    7.19900E+04
 1.30070E-04    4.88807E+04
 1.67020E-04    1.90338E+04
 2.14450E-04    4.32080E+04
 2.75360E-04    4.88643E+04
 3.53580E-04    4.01526E+04
 4.54000E-04    4.22646E+04
 5.82950E-04    3.69925E+04
 7.48520E-04    2.72726E+04
 9.61120E-04    3.10224E+04
 1.23410E-03    2.46658E+04
 1.58460E-03    2.34648E+04
 2.03470E-03    2.21636E+04
 2.24870E-03    2.15940E+04
 2.48520E-03    2.11839E+04
 2.61260E-03    2.09169E+04
 2.74650E-03    2.05221E+04
 3.03540E-03    1.99267E+04
 3.35460E-03    1.93002E+04
 3.70740E-03    1.85736E+04
 4.30740E-03    1.75942E+04
 5.53080E-03    1.64134E+04
 7.10170E-03    1.52950E+04
 9.11880E-03    1.40846E+04
 1.17090E-02    1.30902E+04
 1.50340E-02    1.21277E+04
 1.93050E-02    1.14303E+04
 2.18750E-02    1.11222E+04
 2.35790E-02    1.09759E+04
 2.41760E-02    1.09056E+04
 2.47880E-02    1.08009E+04
 2.60580E-02    1.06847E+04
 2.70000E-02    1.05675E+04
 2.85000E-02    1.03451E+04
 3.18280E-02    1.00454E+04
 3.43070E-02    9.66363E+03
 4.08680E-02    9.27858E+03
 4.63090E-02    9.00845E+03
 5.24750E-02    8.81035E+03
 5.65620E-02    8.62683E+03
 6.73790E-02    8.49645E+03
 7.20000E-02    8.40498E+03
 7.95000E-02    8.32729E+03
 8.25000E-02    8.28357E+03
 8.65170E-02    8.19078E+03
 9.80370E-02    8.00113E+03
 1.11090E-01    7.87762E+03
 1.16790E-01    7.80720E+03
 1.22770E-01    7.74306E+03
 1.29070E-01    7.67995E+03
 1.35690E-01    7.61369E+03
 1.42640E-01    7.55482E+03
 1.49960E-01    7.50208E+03
 1.57640E-01    7.44730E+03
 1.65730E-01    7.39916E+03
 1.74220E-01    7.35166E+03
 1.83160E-01    7.30171E+03
 1.92550E-01    7.24932E+03
 2.02420E-01    7.20705E+03
 2.12800E-01    7.17154E+03
 2.23710E-01    7.13421E+03
 2.35180E-01    7.09496E+03
 2.47240E-01    7.04758E+03
 2.73240E-01    7.01089E+03
 2.87250E-01    6.99158E+03
 2.94520E-01    6.98256E+03
 2.97200E-01    6.97896E+03
 2.98500E-01    6.97465E+03
 3.01970E-01    6.95242E+03
 3.33730E-01    6.92263E+03
 3.68830E-01    6.90340E+03
 3.87740E-01    6.89855E+03
 4.07620E-01    6.89277E+03
 4.50490E-01    6.89959E+03
 4.97870E-01    6.90781E+03
 5.23400E-01    6.91367E+03
 5.50230E-01    6.92042E+03
 5.78440E-01    6.93085E+03
 6.08100E-01    6.94232E+03
 6.39280E-01    6.95438E+03
 6.72060E-01    6.96705E+03
 7.06510E-01    6.98038E+03
 7.42740E-01    6.99439E+03
 7.80820E-01    7.00912E+03
 8.20850E-01    7.02461E+03
 8.62940E-01    7.03860E+03
 9.07180E-01    7.04778E+03
 9.61640E-01    7.05635E+03
 1.00260E+00    7.05605E+03
 1.10800E+00    7.05070E+03
 1.16480E+00    7.04689E+03
 1.22460E+00    7.04267E+03
 1.28730E+00    7.02810E+03
 1.35340E+00    7.00723E+03
 1.42270E+00    6.98530E+03
 1.49570E+00    6.96130E+03
 1.57240E+00    6.92658E+03
 1.65300E+00    6.88759E+03
 1.73770E+00    6.84647E+03
 1.82680E+00    6.79727E+03
 1.92050E+00    6.74227E+03
 2.01900E+00    6.67761E+03
 2.12250E+00    6.59983E+03
 2.23130E+00    6.53202E+03
 2.30690E+00    6.48994E+03
 2.34570E+00    6.46849E+03
 2.36530E+00    6.45435E+03
 2.38520E+00    6.42395E+03
 2.46600E+00    6.36195E+03
 2.59240E+00    6.28416E+03
 2.72530E+00    6.20341E+03
 2.86500E+00    6.12391E+03
 3.01190E+00    6.03691E+03
 3.16640E+00    5.93666E+03
 3.32870E+00    5.78273E+03
 3.67880E+00    5.58603E+03
 4.06570E+00    5.40013E+03
 4.49330E+00    5.26595E+03
 4.72370E+00    5.17814E+03
 4.96590E+00    5.10065E+03
 5.22050E+00    5.04421E+03
 5.48810E+00    4.98527E+03
 5.76950E+00    4.92622E+03
 6.06530E+00    4.88789E+03
 6.37630E+00    4.86561E+03
 6.59240E+00    4.85183E+03
 6.70320E+00    4.83283E+03
 7.04690E+00    4.81475E+03
 7.40820E+00    4.80970E+03
 7.78800E+00    4.80698E+03
 8.18730E+00    4.82238E+03
 8.60710E+00    4.84214E+03
 9.04840E+00    4.86392E+03
 9.51230E+00    4.90294E+03
 1.00000E+01    4.94888E+03
 1.05130E+01    5.00106E+03
 1.10520E+01    5.05465E+03
 1.16180E+01    5.10786E+03
 1.22140E+01    5.15630E+03
 1.28400E+01    5.20377E+03
 1.34990E+01    5.23960E+03
 1.38400E+01    5.26282E+03
 1.41910E+01    5.28169E+03
 1.45500E+01    5.29997E+03
 1.49180E+01    5.32428E+03
 1.56830E+01    5.35044E+03
 1.64870E+01    5.36474E+03
