# n + Xe126 : (n,xd)    
# jendl.ad   kunieda                           EVAL-Mar14
# 
# # energies =    59
#   E(MeV)        xs(mb) 
 1.50000E-01    0.00000E+00
 2.00000E-01    0.00000E+00
 3.00000E-01    0.00000E+00
 3.91747E-01    0.00000E+00
 3.91748E-01    0.00000E+00
 4.00000E-01    0.00000E+00
 5.00000E-01    0.00000E+00
 6.00000E-01    0.00000E+00
 7.00000E-01    0.00000E+00
 8.00000E-01    0.00000E+00
 8.86928E-01    0.00000E+00
 9.00000E-01    0.00000E+00
 9.49516E-01    0.00000E+00
 1.00000E+00    0.00000E+00
 1.20000E+00    0.00000E+00
 1.32439E+00    0.00000E+00
 1.32822E+00    0.00000E+00
 1.40000E+00    0.00000E+00
 1.60000E+00    0.00000E+00
 1.80000E+00    0.00000E+00
 2.00000E+00    0.00000E+00
 2.20000E+00    0.00000E+00
 2.40000E+00    0.00000E+00
 2.70000E+00    0.00000E+00
 3.00000E+00    0.00000E+00
 3.50000E+00    0.00000E+00
 4.00000E+00    0.00000E+00
 4.50000E+00    0.00000E+00
 5.00000E+00    0.00000E+00
 5.50000E+00    5.31150E-19
 6.00000E+00    3.09092E-14
 6.50000E+00    6.68910E-14
 7.00000E+00    8.26020E-13
 7.50000E+00    6.42190E-10
 8.00000E+00    4.33700E-08
 8.50000E+00    1.35381E-06
 9.00000E+00    1.12917E-05
 9.50000E+00    1.21179E-04
 1.00000E+01    6.00137E-04
 1.05000E+01    2.60692E-03
 1.10000E+01    1.01363E-02
 1.15000E+01    3.48701E-02
 1.20000E+01    1.04752E-01
 1.25000E+01    2.13187E-01
 1.30000E+01    3.60252E-01
 1.35000E+01    8.03127E-01
 1.40000E+01    1.19494E+00
 1.45000E+01    1.70429E+00
 1.50000E+01    2.33975E+00
 1.55000E+01    3.10554E+00
 1.60000E+01    4.00242E+00
 1.65000E+01    5.02910E+00
 1.70000E+01    5.84264E+00
 1.75000E+01    7.09091E+00
 1.80000E+01    7.77363E+00
 1.85000E+01    8.79245E+00
 1.90000E+01    1.02966E+01
 1.95000E+01    1.10761E+01
 2.00000E+01    1.22807E+01
