# n + Xe126 : (n,tot)   
# jendl.ad   kunieda                           EVAL-Mar14
# uncertainties: n
# # energies =    69
#   E(MeV)       xs(mb) 
 1.00000E-10    2.97878E+04
 5.00000E-09    8.11399E+03
 1.00000E-08    6.14704E+03
 1.50000E-08    5.16649E+03
 2.00000E-08    4.54677E+03
 2.50000E-08    4.10898E+03
 3.00000E-08    3.77836E+03
 3.50000E-08    3.47558E+03
 4.20000E-08    3.18043E+03
 5.00000E-08    2.93506E+03
 5.80000E-08    2.72935E+03
 6.70000E-08    2.52104E+03
 8.00000E-08    2.28361E+03
 1.00000E-07    1.99034E+03
 1.40000E-07    1.72244E+03
 1.80000E-07    1.54208E+03
 2.20000E-07    1.42353E+03
 2.50000E-07    1.34318E+03
 2.80000E-07    1.28550E+03
 3.00000E-07    1.24498E+03
 3.20000E-07    1.20001E+03
 3.50000E-07    1.13820E+03
 4.00000E-07    1.04726E+03
 5.00000E-07    9.44879E+02
 6.25000E-07    8.54672E+02
 7.80000E-07    7.98783E+02
 8.50000E-07    7.72926E+02
 9.10000E-07    7.54817E+02
 9.50000E-07    7.44736E+02
 9.72000E-07    7.37285E+02
 9.96000E-07    7.29847E+02
 1.02000E-06    7.22900E+02
 1.04500E-06    7.15684E+02
 1.07100E-06    7.08676E+02
 1.09700E-06    7.02088E+02
 1.12300E-06    6.95390E+02
 1.15000E-06    6.75912E+02
 1.30000E-06    6.43568E+02
 1.50000E-06    5.95120E+02
 2.10000E-06    5.55166E+02
 2.60000E-06    5.41303E+02
 3.30000E-06    5.51026E+02
 4.00000E-06    3.15750E+04
 9.87700E-06    5.87770E+04
 1.59680E-05    1.15918E+02
 2.77000E-05    3.83517E+01
 4.80520E-05    1.86187E+01
 7.55014E-05    9.02794E+00
 1.48728E-04    1.80390E+03
 3.67262E-04    1.78686E+03
 9.06898E-04    2.12322E-01
 1.42510E-03    1.38679E-01
 2.23945E-03    1.68399E+03
 3.51910E-03    1.34872E+03
 5.53000E-03    1.07055E+03
 9.11800E-03    8.61671E+02
 1.50300E-02    6.93162E+02
 2.47800E-02    5.47585E+02
 4.08500E-02    4.25505E+02
 6.73400E-02    3.34588E+02
 1.11000E-01    2.79384E+02
 1.83000E-01    2.56686E+02
 3.02000E-01    2.21008E+02
 5.00000E-01    1.58178E+02
 8.21000E-01    1.45656E+02
 1.35300E+00    1.42426E+02
 2.23100E+00    1.29126E+02
 3.67900E+00    6.13755E+01
 6.06500E+00    1.81208E+03
