# n + Xe126 : (n,p)     
# jendl.ad   kunieda                           EVAL-Mar14
# uncertainties: n
# # energies =    54
#   E(MeV)       xs(mb) 
 4.79464E-01    0.00000E+00
 5.36346E-01    7.23930E-12
 5.91202E-01    1.61500E-11
 6.02613E-01    1.81130E-11
 6.26634E-01    3.01420E-11
 6.46834E-01    4.44310E-11
 6.59858E-01    5.54750E-11
 6.85381E-01    8.10960E-11
 7.03868E-01    1.01350E-10
 7.09069E-01    1.07370E-10
 7.18756E-01    1.19110E-10
 7.21387E-01    1.22410E-10
 7.26215E-01    1.28630E-10
 1.60000E+00    1.28550E-09
 1.80000E+00    8.84580E-09
 2.00000E+00    1.76180E-07
 2.20000E+00    1.99855E-06
 2.40000E+00    1.48967E-05
 2.70000E+00    1.68982E-04
 3.00000E+00    1.13843E-03
 3.50000E+00    1.25561E-02
 4.00000E+00    7.06932E-02
 4.50000E+00    2.50042E-01
 5.00000E+00    6.31605E-01
 5.50000E+00    1.14896E+00
 6.00000E+00    2.02303E+00
 6.50000E+00    2.80403E+00
 7.00000E+00    3.54455E+00
 7.50000E+00    4.18000E+00
 8.00000E+00    4.54758E+00
 8.50000E+00    5.15770E+00
 9.00000E+00    5.84819E+00
 9.50000E+00    6.65860E+00
 1.00000E+01    7.75843E+00
 1.05000E+01    9.10439E+00
 1.10000E+01    1.07258E+01
 1.15000E+01    1.26280E+01
 1.20000E+01    1.47624E+01
 1.25000E+01    1.70128E+01
 1.30000E+01    1.93394E+01
 1.35000E+01    2.16395E+01
 1.40000E+01    2.36634E+01
 1.45000E+01    2.56055E+01
 1.50000E+01    2.73220E+01
 1.55000E+01    2.88464E+01
 1.60000E+01    3.02162E+01
 1.65000E+01    3.14600E+01
 1.70000E+01    3.33615E+01
 1.75000E+01    3.46250E+01
 1.80000E+01    3.53005E+01
 1.85000E+01    3.59577E+01
 1.90000E+01    3.76318E+01
 1.95000E+01    3.76290E+01
 2.00000E+01    3.90461E+01
