# n + Au197 : (n,t)     
# jendl4.0   N.Iwamoto                         EVAL-Feb10
# uncertainties: n
# # energies =    62
#   E(MeV)       xs(mb) 
 5.24948E+00    0.00000E+00
 5.34887E+00    2.31540E-30
 5.37992E+00    3.04980E-30
 5.45003E+00    4.71430E-30
 5.46196E+00    4.99760E-30
 5.47284E+00    5.25590E-30
 5.48997E+00    5.66270E-30
 5.51011E+00    6.14090E-30
 5.64063E+00    2.17650E-26
 5.67133E+00    2.69520E-26
 5.68369E+00    2.90460E-26
 5.68389E+00    2.90800E-26
 5.70144E+00    3.20620E-26
 5.70701E+00    3.30100E-26
 5.76016E+00    4.20600E-26
 5.77701E+00    4.49290E-26
 5.79124E+00    4.73520E-26
 5.79647E+00    4.82430E-26
 5.79955E+00    4.87680E-26
 5.81517E+00    5.14280E-26
 5.84340E+00    5.62350E-26
 5.86534E+00    5.99720E-26
 5.88284E+00    6.29520E-26
 5.88482E+00    6.32890E-26
 5.91708E+00    6.87830E-26
 5.91999E+00    6.92780E-26
 5.93095E+00    7.11450E-26
 5.94834E+00    7.41060E-26
 5.99281E+00    8.16790E-26
 6.01920E+00    8.61740E-26
 6.04654E+00    9.33260E-26
 6.04655E+00    9.33290E-26
 6.06817E+00    9.99990E-26
 6.07554E+00    1.02390E-25
 6.50000E+00    2.44740E-25
 7.00000E+00    5.93260E-22
 7.50000E+00    1.99420E-17
 8.00000E+00    2.39620E-14
 8.50000E+00    3.80780E-12
 9.00000E+00    1.60500E-10
 9.50000E+00    2.71650E-09
 1.00000E+01    2.42560E-08
 1.05000E+01    1.42200E-07
 1.10000E+01    6.55520E-07
 1.15000E+01    2.96559E-06
 1.20000E+01    1.30303E-05
 1.25000E+01    5.16058E-05
 1.30000E+01    1.80750E-04
 1.35000E+01    5.52917E-04
 1.40000E+01    1.49208E-03
 1.45000E+01    3.59556E-03
 1.50000E+01    7.82226E-03
 1.55000E+01    1.54554E-02
 1.60000E+01    2.81326E-02
 1.65000E+01    4.66976E-02
 1.70000E+01    7.26311E-02
 1.75000E+01    1.06712E-01
 1.80000E+01    1.49109E-01
 1.85000E+01    1.99333E-01
 1.90000E+01    2.55658E-01
 1.95000E+01    3.17735E-01
 2.00000E+01    3.84156E-01
