# n + Au197 : (n,g)     
# jendl4.0   N.Iwamoto                         EVAL-Feb10
# uncertainties: n
# # energies =    69
#   E(MeV)       xs(mb) 
 1.00000E-10    6.82071E+05
 5.00000E-09    1.86177E+05
 1.00000E-08    1.41282E+05
 1.50000E-08    1.18935E+05
 2.00000E-08    1.04844E+05
 2.50000E-08    9.49053E+04
 3.00000E-08    8.74109E+04
 3.50000E-08    8.05524E+04
 4.20000E-08    7.38919E+04
 5.00000E-08    6.83704E+04
 5.80000E-08    6.37575E+04
 6.70000E-08    5.90898E+04
 8.00000E-08    5.38113E+04
 1.00000E-07    4.73535E+04
 1.40000E-07    4.15232E+04
 1.80000E-07    3.76810E+04
 2.20000E-07    3.52037E+04
 2.50000E-07    3.35526E+04
 2.80000E-07    3.23890E+04
 3.00000E-07    3.15851E+04
 3.20000E-07    3.07073E+04
 3.50000E-07    2.95286E+04
 4.00000E-07    2.78717E+04
 5.00000E-07    2.61723E+04
 6.25000E-07    2.49291E+04
 7.80000E-07    2.43429E+04
 8.50000E-07    2.41584E+04
 9.10000E-07    2.40710E+04
 9.50000E-07    2.40396E+04
 9.72000E-07    2.40261E+04
 9.96000E-07    2.40220E+04
 1.02000E-06    2.40279E+04
 1.04500E-06    2.40423E+04
 1.07100E-06    2.40654E+04
 1.09700E-06    2.41007E+04
 1.12300E-06    2.41423E+04
 1.15000E-06    2.43619E+04
 1.30000E-06    2.50575E+04
 1.50000E-06    2.80478E+04
 2.10000E-06    3.60966E+04
 2.60000E-06    5.55775E+04
 3.30000E-06    1.26809E+05
 4.00000E-06    1.56358E+06
 9.87700E-06    2.19484E+03
 1.59680E-05    5.12468E+02
 2.77000E-05    4.83097E+02
 4.80520E-05    6.96666E+04
 7.55014E-05    8.97135E+03
 1.48728E-04    1.62542E+04
 3.67262E-04    1.24117E+04
 9.06898E-04    6.88753E+03
 1.42510E-03    4.73291E+03
 2.23945E-03    3.02278E+03
 3.51910E-03    2.25656E+03
 5.53000E-03    1.57504E+03
 9.11800E-03    1.06977E+03
 1.50300E-02    7.27281E+02
 2.47800E-02    5.45888E+02
 4.08500E-02    4.23402E+02
 6.73400E-02    3.39632E+02
 1.11000E-01    2.80299E+02
 1.83000E-01    2.36944E+02
 3.02000E-01    1.63213E+02
 5.00000E-01    1.07196E+02
 8.21000E-01    7.99314E+01
 1.35300E+00    6.29043E+01
 2.23100E+00    2.65882E+01
 3.67900E+00    9.02114E+00
 6.06500E+00    2.72114E+00
