# n + Au197 : (n,el)    
# jendl4.0   N.Iwamoto                         EVAL-Feb10
# uncertainties: n
# # energies =   171
#   E(MeV)       xs(mb) 
 1.00000E-11    1.16232E+04
 1.00000E-07    7.75983E+03
 4.13990E-07    7.56386E+03
 5.31580E-07    7.45353E+03
 6.82560E-07    7.30535E+03
 8.76420E-07    7.10330E+03
 1.12540E-06    6.82313E+03
 1.44500E-06    6.42703E+03
 1.85540E-06    5.86872E+03
 2.37240E-06    5.11908E+03
 3.05900E-06    5.35781E+03
 3.92790E-06    5.79606E+05
 5.04350E-06    1.34657E+05
 6.47600E-06    2.50889E+04
 8.31530E-06    1.75930E+04
 1.06770E-05    1.48592E+04
 1.37100E-05    1.33952E+04
 1.76030E-05    1.24154E+04
 2.26030E-05    1.16156E+04
 2.92030E-05    1.08192E+04
 3.72670E-05    9.74760E+03
 4.78510E-05    7.61607E+04
 6.14420E-05    1.79022E+04
 7.88930E-05    1.17738E+04
 1.01300E-04    1.06753E+04
 1.30070E-04    1.46052E+04
 1.67020E-04    1.18207E+04
 2.14450E-04    1.83666E+04
 2.75360E-04    4.43434E+04
 3.53580E-04    2.17221E+04
 4.54000E-04    2.38997E+04
 5.82950E-04    4.48180E+04
 7.48520E-04    3.10951E+04
 9.61120E-04    3.12343E+04
 1.23410E-03    2.78400E+04
 1.58460E-03    2.45208E+04
 2.03470E-03    3.27342E+04
 2.24870E-03    1.88474E+04
 2.48520E-03    1.96190E+04
 2.61260E-03    1.94074E+04
 2.74650E-03    1.91097E+04
 3.03540E-03    1.87137E+04
 3.35460E-03    1.83333E+04
 3.70740E-03    1.78536E+04
 4.30740E-03    1.70914E+04
 5.53080E-03    1.61782E+04
 7.10170E-03    1.52912E+04
 9.11880E-03    1.44784E+04
 1.17090E-02    1.39014E+04
 1.50340E-02    1.33648E+04
 1.93050E-02    1.29709E+04
 2.18750E-02    1.27478E+04
 2.35790E-02    1.26325E+04
 2.41760E-02    1.25827E+04
 2.47880E-02    1.25057E+04
 2.60580E-02    1.24146E+04
 2.70000E-02    1.23146E+04
 2.85000E-02    1.21437E+04
 3.18280E-02    1.19565E+04
 3.43070E-02    1.17131E+04
 4.08680E-02    1.14227E+04
 4.63090E-02    1.11862E+04
 5.24750E-02    1.09995E+04
 5.65620E-02    1.07610E+04
 6.73790E-02    1.05354E+04
 7.20000E-02    1.03653E+04
 7.95000E-02    1.01686E+04
 8.25000E-02    1.00725E+04
 8.65170E-02    9.87271E+03
 9.80370E-02    9.59762E+03
 1.11090E-01    9.39149E+03
 1.16790E-01    9.28132E+03
 1.22770E-01    9.17065E+03
 1.29070E-01    9.05436E+03
 1.35690E-01    8.94490E+03
 1.42640E-01    8.83818E+03
 1.49960E-01    8.72600E+03
 1.57640E-01    8.61137E+03
 1.65730E-01    8.50665E+03
 1.74220E-01    8.39863E+03
 1.83160E-01    8.28692E+03
 1.92550E-01    8.17992E+03
 2.02420E-01    8.06900E+03
 2.12800E-01    7.95238E+03
 2.23710E-01    7.83025E+03
 2.35180E-01    7.71380E+03
 2.47240E-01    7.53295E+03
 2.73240E-01    7.25982E+03
 2.87250E-01    7.09758E+03
 2.94520E-01    7.01960E+03
 2.97200E-01    6.98847E+03
 2.98500E-01    6.95448E+03
 3.01970E-01    6.78218E+03
 3.33730E-01    6.46596E+03
 3.68830E-01    6.22576E+03
 3.87740E-01    6.06533E+03
 4.07620E-01    5.84768E+03
 4.50490E-01    5.55368E+03
 4.97870E-01    5.32754E+03
 5.23400E-01    5.16749E+03
 5.50230E-01    4.99803E+03
 5.78440E-01    4.81941E+03
 6.08100E-01    4.66843E+03
 6.39280E-01    4.52412E+03
 6.72060E-01    4.37777E+03
 7.06510E-01    4.24720E+03
 7.42740E-01    4.12180E+03
 7.80820E-01    3.99494E+03
 8.20850E-01    3.89009E+03
 8.62940E-01    3.78444E+03
 9.07180E-01    3.67629E+03
 9.61640E-01    3.58071E+03
 1.00260E+00    3.51080E+03
 1.10800E+00    3.46293E+03
 1.16480E+00    3.43859E+03
 1.22460E+00    3.41364E+03
 1.28730E+00    3.38881E+03
 1.35340E+00    3.37042E+03
 1.42270E+00    3.35226E+03
 1.49570E+00    3.36201E+03
 1.57240E+00    3.40887E+03
 1.65300E+00    3.45832E+03
 1.73770E+00    3.51547E+03
 1.82680E+00    3.57857E+03
 1.92050E+00    3.64494E+03
 2.01900E+00    3.71750E+03
 2.12250E+00    3.79562E+03
 2.23130E+00    3.86367E+03
 2.30690E+00    3.90590E+03
 2.34570E+00    3.92742E+03
 2.36530E+00    3.94196E+03
 2.38520E+00    3.97887E+03
 2.46600E+00    4.04682E+03
 2.59240E+00    4.10701E+03
 2.72530E+00    4.16820E+03
 2.86500E+00    4.23250E+03
 3.01190E+00    4.27298E+03
 3.16640E+00    4.29111E+03
 3.32870E+00    4.30808E+03
 3.67880E+00    4.26010E+03
 4.06570E+00    4.14267E+03
 4.49330E+00    4.01715E+03
 4.72370E+00    3.90965E+03
 4.96590E+00    3.79341E+03
 5.22050E+00    3.66377E+03
 5.48810E+00    3.52742E+03
 5.76950E+00    3.38489E+03
 6.06530E+00    3.24122E+03
 6.37630E+00    3.12026E+03
 6.59240E+00    3.05081E+03
 6.70320E+00    2.95708E+03
 7.04690E+00    2.82529E+03
 7.40820E+00    2.70357E+03
 7.78800E+00    2.60234E+03
 8.18730E+00    2.51522E+03
 8.60710E+00    2.44402E+03
 9.04840E+00    2.39998E+03
 9.51230E+00    2.37817E+03
 1.00000E+01    2.38171E+03
 1.05130E+01    2.40029E+03
 1.10520E+01    2.43600E+03
 1.16180E+01    2.48595E+03
 1.22140E+01    2.55027E+03
 1.28400E+01    2.62310E+03
 1.34990E+01    2.68328E+03
 1.38400E+01    2.72456E+03
 1.41910E+01    2.76599E+03
 1.45500E+01    2.80841E+03
 1.49180E+01    2.87001E+03
 1.56830E+01    2.94826E+03
 1.64870E+01    3.01738E+03
