# n + Au197 : (n,n'02)  
# jendl4.0   N.Iwamoto                         EVAL-Feb10
# uncertainties: n
# # energies =    77
#   E(MeV)       xs(mb) 
 2.70162E-01    0.00000E+00
 2.75000E-01    8.23494E+01
 2.80419E-01    1.11426E+02
 3.00000E-01    1.60439E+02
 4.00000E-01    2.84946E+02
 4.11245E-01    2.93563E+02
 5.00000E-01    3.54561E+02
 5.05073E-01    3.57191E+02
 5.50304E-01    3.66379E+02
 5.85986E-01    3.70182E+02
 6.00000E-01    3.69763E+02
 7.00000E-01    3.77371E+02
 7.40473E-01    3.79054E+02
 8.00000E-01    3.75294E+02
 8.59881E-01    3.71631E+02
 8.86517E-01    3.68394E+02
 8.92658E-01    3.65552E+02
 9.00000E-01    3.62475E+02
 9.40793E-01    3.52885E+02
 9.52855E-01    3.47985E+02
 1.00000E+00    3.31157E+02
 1.05045E+00    3.19779E+02
 1.10000E+00    3.05983E+02
 1.12574E+00    3.00095E+02
 1.15639E+00    2.93508E+02
 1.20000E+00    2.81964E+02
 1.22353E+00    2.76628E+02
 1.22625E+00    2.75353E+02
 1.23730E+00    2.72089E+02
 1.24836E+00    2.69241E+02
 1.26947E+00    2.63364E+02
 1.30000E+00    2.54214E+02
 1.40000E+00    2.28048E+02
 1.50000E+00    2.04170E+02
 1.60000E+00    1.86676E+02
 1.70000E+00    1.70656E+02
 1.80000E+00    1.55107E+02
 1.90000E+00    1.39148E+02
 2.00000E+00    1.24847E+02
 2.25000E+00    9.91861E+01
 2.50000E+00    7.12540E+01
 2.75000E+00    5.32373E+01
 3.00000E+00    3.66075E+01
 3.50000E+00    1.77845E+01
 4.00000E+00    8.48580E+00
 4.50000E+00    4.05553E+00
 5.00000E+00    1.96736E+00
 5.50000E+00    9.93372E-01
 6.00000E+00    5.42983E-01
 6.50000E+00    3.35540E-01
 7.00000E+00    2.39077E-01
 7.50000E+00    1.92538E-01
 8.00000E+00    1.68511E-01
 8.50000E+00    1.54753E-01
 9.00000E+00    1.45570E-01
 9.50000E+00    1.38296E-01
 1.00000E+01    1.31766E-01
 1.05000E+01    1.25518E-01
 1.10000E+01    1.19687E-01
 1.15000E+01    1.14177E-01
 1.20000E+01    1.08946E-01
 1.25000E+01    1.04122E-01
 1.30000E+01    9.95452E-02
 1.35000E+01    9.53066E-02
 1.40000E+01    9.12722E-02
 1.45000E+01    8.75418E-02
 1.50000E+01    8.39906E-02
 1.55000E+01    8.05950E-02
 1.60000E+01    7.75541E-02
 1.65000E+01    7.48227E-02
 1.70000E+01    7.21855E-02
 1.75000E+01    6.96492E-02
 1.80000E+01    6.71530E-02
 1.85000E+01    6.47876E-02
 1.90000E+01    6.26374E-02
 1.95000E+01    6.06145E-02
 2.00000E+01    5.86880E-02
