# n + Au197 : (n,tot)   
# jendl4.0   N.Iwamoto                         EVAL-Feb10
# uncertainties: n
# # energies =   171
#   E(MeV)       xs(mb) 
 1.00000E-11    1.06814E+06
 1.00000E-07    4.59023E+04
 4.13990E-07    3.50407E+04
 5.31580E-07    3.31619E+04
 6.82560E-07    3.18360E+04
 8.76420E-07    3.11680E+04
 1.12540E-06    3.14056E+04
 1.44500E-06    3.31184E+04
 1.85540E-06    3.78055E+04
 2.37240E-06    5.10778E+04
 3.05900E-06    1.08544E+05
 3.92790E-06    5.55124E+06
 5.04350E-06    8.01319E+05
 6.47600E-06    5.03800E+04
 8.31530E-06    2.38103E+04
 1.06770E-05    1.71148E+04
 1.37100E-05    1.44086E+04
 1.76030E-05    1.29503E+04
 2.26030E-05    1.19483E+04
 2.92030E-05    1.10859E+04
 3.72670E-05    1.04905E+04
 4.78510E-05    1.99814E+05
 6.14420E-05    3.43745E+04
 7.88930E-05    1.24049E+04
 1.01300E-04    1.76773E+04
 1.30070E-04    3.67991E+04
 1.67020E-04    1.80610E+04
 2.14450E-04    3.22514E+04
 2.75360E-04    6.08436E+04
 3.53580E-04    3.70540E+04
 4.54000E-04    3.48554E+04
 5.82950E-04    5.79116E+04
 7.48520E-04    4.04284E+04
 9.61120E-04    3.91409E+04
 1.23410E-03    3.37258E+04
 1.58460E-03    2.86017E+04
 2.03470E-03    3.73506E+04
 2.24870E-03    2.18712E+04
 2.48520E-03    2.29737E+04
 2.61260E-03    2.26454E+04
 2.74650E-03    2.21932E+04
 3.03540E-03    2.15820E+04
 3.35460E-03    2.09939E+04
 3.70740E-03    2.02837E+04
 4.30740E-03    1.91961E+04
 5.53080E-03    1.79128E+04
 7.10170E-03    1.67161E+04
 9.11880E-03    1.56611E+04
 1.17090E-02    1.48853E+04
 1.50340E-02    1.41705E+04
 1.93050E-02    1.36557E+04
 2.18750E-02    1.34031E+04
 2.35790E-02    1.32713E+04
 2.41760E-02    1.32041E+04
 2.47880E-02    1.31163E+04
 2.60580E-02    1.30146E+04
 2.70000E-02    1.29030E+04
 2.85000E-02    1.27025E+04
 3.18280E-02    1.24931E+04
 3.43070E-02    1.22137E+04
 4.08680E-02    1.18864E+04
 4.63090E-02    1.16229E+04
 5.24750E-02    1.14109E+04
 5.65620E-02    1.11515E+04
 6.73790E-02    1.09084E+04
 7.20000E-02    1.07344E+04
 7.95000E-02    1.05977E+04
 8.25000E-02    1.05117E+04
 8.65170E-02    1.03288E+04
 9.80370E-02    1.00655E+04
 1.11090E-01    9.86549E+03
 1.16790E-01    9.75173E+03
 1.22770E-01    9.64566E+03
 1.29070E-01    9.53415E+03
 1.35690E-01    9.42047E+03
 1.42640E-01    9.31788E+03
 1.49960E-01    9.21232E+03
 1.57640E-01    9.10220E+03
 1.65730E-01    9.00161E+03
 1.74220E-01    8.90152E+03
 1.83160E-01    8.79626E+03
 1.92550E-01    8.68949E+03
 2.02420E-01    8.58132E+03
 2.12800E-01    8.46760E+03
 2.23710E-01    8.34815E+03
 2.35180E-01    8.23520E+03
 2.47240E-01    8.06798E+03
 2.73240E-01    7.90128E+03
 2.87250E-01    7.82251E+03
 2.94520E-01    7.78573E+03
 2.97200E-01    7.77104E+03
 2.98500E-01    7.75348E+03
 3.01970E-01    7.62556E+03
 3.33730E-01    7.40180E+03
 3.68830E-01    7.23458E+03
 3.87740E-01    7.13025E+03
 4.07620E-01    6.97240E+03
 4.50490E-01    6.76994E+03
 4.97870E-01    6.62161E+03
 5.23400E-01    6.53323E+03
 5.50230E-01    6.44041E+03
 5.78440E-01    6.35144E+03
 6.08100E-01    6.26920E+03
 6.39280E-01    6.18428E+03
 6.72060E-01    6.10643E+03
 7.06510E-01    6.03459E+03
 7.42740E-01    5.97260E+03
 7.80820E-01    5.90836E+03
 8.20850E-01    5.85754E+03
 8.62940E-01    5.81146E+03
 9.07180E-01    5.76838E+03
 9.61640E-01    5.73825E+03
 1.00260E+00    5.74994E+03
 1.10800E+00    5.78466E+03
 1.16480E+00    5.80941E+03
 1.22460E+00    5.83542E+03
 1.28730E+00    5.86277E+03
 1.35340E+00    5.89095E+03
 1.42270E+00    5.91932E+03
 1.49570E+00    5.97342E+03
 1.57240E+00    6.07149E+03
 1.65300E+00    6.17519E+03
 1.73770E+00    6.28417E+03
 1.82680E+00    6.39095E+03
 1.92050E+00    6.49762E+03
 2.01900E+00    6.60974E+03
 2.12250E+00    6.72638E+03
 2.23130E+00    6.82005E+03
 2.30690E+00    6.87682E+03
 2.34570E+00    6.90576E+03
 2.36530E+00    6.92530E+03
 2.38520E+00    6.97492E+03
 2.46600E+00    7.06337E+03
 2.59240E+00    7.13153E+03
 2.72530E+00    7.19961E+03
 2.86500E+00    7.27116E+03
 3.01190E+00    7.31337E+03
 3.16640E+00    7.32800E+03
 3.32870E+00    7.33899E+03
 3.67880E+00    7.28096E+03
 4.06570E+00    7.15720E+03
 4.49330E+00    7.02002E+03
 4.72370E+00    6.89710E+03
 4.96590E+00    6.76388E+03
 5.22050E+00    6.60895E+03
 5.48810E+00    6.44465E+03
 5.76950E+00    6.27406E+03
 6.06530E+00    6.09527E+03
 6.37630E+00    5.94227E+03
 6.59240E+00    5.85747E+03
 6.70320E+00    5.74303E+03
 7.04690E+00    5.58470E+03
 7.40820E+00    5.44334E+03
 7.78800E+00    5.32615E+03
 8.18730E+00    5.23401E+03
 8.60710E+00    5.16606E+03
 9.04840E+00    5.12148E+03
 9.51230E+00    5.09490E+03
 1.00000E+01    5.09117E+03
 1.05130E+01    5.10036E+03
 1.10520E+01    5.12538E+03
 1.16180E+01    5.16290E+03
 1.22140E+01    5.21533E+03
 1.28400E+01    5.27564E+03
 1.34990E+01    5.32686E+03
 1.38400E+01    5.36162E+03
 1.41910E+01    5.39756E+03
 1.45500E+01    5.43394E+03
 1.49180E+01    5.48729E+03
 1.56830E+01    5.55560E+03
 1.64870E+01    5.61618E+03
