# n + Bi209 : (n,xt)    
# endfb8.0   M.Chadwick,P.Young,A.Smith        EVAL-JUL98
# 
# # energies =    84
#   E(MeV)        xs(mb) 
 9.00300E-01    0.00000E+00
 1.00000E+00    0.00000E+00
 1.20000E+00    0.00000E+00
 1.40000E+00    0.00000E+00
 1.60000E+00    0.00000E+00
 1.61576E+00    0.00000E+00
 1.80000E+00    0.00000E+00
 2.00000E+00    0.00000E+00
 2.20000E+00    0.00000E+00
 2.40000E+00    0.00000E+00
 2.44173E+00    0.00000E+00
 2.50000E+00    0.00000E+00
 2.50400E+00    0.00000E+00
 2.57738E+00    0.00000E+00
 2.59547E+00    0.00000E+00
 2.60000E+00    0.00000E+00
 2.60005E+00    0.00000E+00
 2.61154E+00    0.00000E+00
 2.61355E+00    0.00000E+00
 2.62963E+00    0.00000E+00
 2.75400E+00    4.30107E-07
 2.77935E+00    6.24809E-07
 2.80000E+00    7.83410E-07
 2.83562E+00    1.05700E-06
 2.86100E+00    1.25192E-06
 2.93300E+00    1.80492E-06
 2.97000E+00    2.08909E-06
 3.00000E+00    2.31951E-06
 3.00041E+00    2.32267E-06
 3.05266E+00    2.72399E-06
 3.10600E+00    3.13364E-06
 3.13300E+00    3.34101E-06
 3.16500E+00    3.58679E-06
 3.20000E+00    3.85561E-06
 3.40000E+00    5.39171E-06
 3.60000E+00    6.92780E-06
 3.80000E+00    8.46390E-06
 4.00000E+00    1.00000E-05
 4.40000E+00    1.72000E-05
 4.50000E+00    1.90000E-05
 5.00000E+00    2.80000E-05
 5.50000E+00    3.70000E-05
 6.00000E+00    4.60000E-05
 7.00000E+00    6.40000E-05
 7.60000E+00    7.48000E-05
 7.80000E+00    7.84000E-05
 8.00000E+00    8.20000E-05
 8.50000E+00    9.10000E-05
 9.00000E+00    1.00000E-04
 9.50000E+00    6.50560E-04
 1.00000E+01    1.20960E-03
 1.05000E+01    3.41864E-03
 1.10000E+01    5.62768E-03
 1.20000E+01    1.66458E-02
 1.30000E+01    3.64638E-02
 1.40000E+01    6.53819E-02
 1.60000E+01    1.55500E-01
 1.80000E+01    2.96800E-01
 2.00000E+01    4.80000E-01
 2.00000E+01    1.54094E+00
 2.20000E+01    2.04601E+00
 2.40000E+01    2.49488E+00
 2.60000E+01    2.88290E+00
 2.80000E+01    3.20950E+00
 3.00000E+01    3.48151E+00
 3.50000E+01    3.96529E+00
 4.00000E+01    4.27142E+00
 4.50000E+01    4.45477E+00
 5.00000E+01    4.57225E+00
 5.50000E+01    4.65334E+00
 6.00000E+01    4.72297E+00
 6.50000E+01    4.77081E+00
 7.00000E+01    4.74717E+00
 7.50000E+01    4.72329E+00
 8.00000E+01    4.74881E+00
 8.50000E+01    4.83076E+00
 9.00000E+01    4.98368E+00
 9.50000E+01    5.22453E+00
 1.00000E+02    5.54493E+00
 1.10000E+02    6.42820E+00
 1.20000E+02    7.68625E+00
 1.30000E+02    9.47291E+00
 1.40000E+02    1.16422E+01
 1.50000E+02    1.40610E+01
