# n + Bi209 : (n,xp)    
# endfb8.0   M.Chadwick,P.Young,A.Smith        EVAL-JUL98
# 
# # energies =    84
#   E(MeV)        xs(mb) 
 9.00300E-01    6.93256E-04
 1.00000E+00    7.70027E-04
 1.20000E+00    9.24033E-04
 1.40000E+00    1.07804E-03
 1.60000E+00    1.23204E-03
 1.61576E+00    1.24418E-03
 1.80000E+00    1.38605E-03
 2.00000E+00    1.54006E-03
 2.20000E+00    1.69406E-03
 2.40000E+00    1.84807E-03
 2.44173E+00    1.88020E-03
 2.50000E+00    1.92507E-03
 2.50400E+00    1.92815E-03
 2.57738E+00    1.98465E-03
 2.59547E+00    1.99858E-03
 2.60000E+00    2.00207E-03
 2.60005E+00    2.00211E-03
 2.61154E+00    2.01096E-03
 2.61355E+00    2.01251E-03
 2.62963E+00    2.02489E-03
 2.75400E+00    2.12066E-03
 2.77935E+00    2.14018E-03
 2.80000E+00    2.15608E-03
 2.83562E+00    2.18351E-03
 2.86100E+00    2.20305E-03
 2.93300E+00    2.25849E-03
 2.97000E+00    2.28698E-03
 3.00000E+00    2.31008E-03
 3.00041E+00    2.31040E-03
 3.05266E+00    2.35063E-03
 3.10600E+00    2.39171E-03
 3.13300E+00    2.41250E-03
 3.16500E+00    2.43714E-03
 3.20000E+00    2.46409E-03
 3.40000E+00    2.61809E-03
 3.60000E+00    2.77210E-03
 3.80000E+00    2.92610E-03
 4.00000E+00    3.08079E-03
 4.40000E+00    6.95440E-03
 4.50000E+00    7.92280E-03
 5.00000E+00    1.27648E-02
 5.50000E+00    1.77509E-02
 6.00000E+00    2.27370E-02
 7.00000E+00    3.27091E-02
 7.60000E+00    7.61922E-02
 7.80000E+00    9.06866E-02
 8.00000E+00    1.05181E-01
 8.50000E+00    1.77091E-01
 9.00000E+00    2.49001E-01
 9.50000E+00    3.69161E-01
 1.00000E+01    4.89321E-01
 1.05000E+01    6.80510E-01
 1.10000E+01    8.71700E-01
 1.20000E+01    1.46870E+00
 1.30000E+01    2.33540E+00
 1.40000E+01    3.48150E+00
 1.60000E+01    6.94955E+00
 1.80000E+01    1.10598E+01
 2.00000E+01    1.64716E+01
 2.00000E+01    4.37099E+01
 2.20000E+01    6.25411E+01
 2.40000E+01    8.42759E+01
 2.60000E+01    1.08737E+02
 2.80000E+01    1.35756E+02
 3.00000E+01    1.64491E+02
 3.50000E+01    2.40132E+02
 4.00000E+01    3.11018E+02
 4.50000E+01    3.79488E+02
 5.00000E+01    4.44062E+02
 5.50000E+01    5.04035E+02
 6.00000E+01    5.60463E+02
 6.50000E+01    6.13886E+02
 7.00000E+01    6.63826E+02
 7.50000E+01    7.10379E+02
 8.00000E+01    7.56127E+02
 8.50000E+01    7.97310E+02
 9.00000E+01    8.35753E+02
 9.50000E+01    8.71321E+02
 1.00000E+02    9.04578E+02
 1.10000E+02    9.66299E+02
 1.20000E+02    1.02011E+03
 1.30000E+02    1.06433E+03
 1.40000E+02    1.10556E+03
 1.50000E+02    1.14530E+03
