# n + Bi209 : (n,xd)    
# endfb8.0   M.Chadwick,P.Young,A.Smith        EVAL-JUL98
# 
# # energies =    84
#   E(MeV)        xs(mb) 
 9.00300E-01    0.00000E+00
 1.00000E+00    0.00000E+00
 1.20000E+00    0.00000E+00
 1.40000E+00    0.00000E+00
 1.60000E+00    3.50619E-07
 1.61576E+00    6.41466E-07
 1.80000E+00    4.04134E-06
 2.00000E+00    7.73205E-06
 2.20000E+00    1.14228E-05
 2.40000E+00    1.51135E-05
 2.44173E+00    1.58835E-05
 2.50000E+00    1.69588E-05
 2.50400E+00    1.70327E-05
 2.57738E+00    1.83868E-05
 2.59547E+00    1.87206E-05
 2.60000E+00    1.88042E-05
 2.60005E+00    1.88051E-05
 2.61154E+00    1.90172E-05
 2.61355E+00    1.90543E-05
 2.62963E+00    1.93510E-05
 2.75400E+00    2.16461E-05
 2.77935E+00    2.21139E-05
 2.80000E+00    2.24949E-05
 2.83562E+00    2.31523E-05
 2.86100E+00    2.36206E-05
 2.93300E+00    2.49493E-05
 2.97000E+00    2.56320E-05
 3.00000E+00    2.61856E-05
 3.00041E+00    2.61932E-05
 3.05266E+00    2.71575E-05
 3.10600E+00    2.81417E-05
 3.13300E+00    2.86400E-05
 3.16500E+00    2.92305E-05
 3.20000E+00    2.98764E-05
 3.40000E+00    3.35671E-05
 3.60000E+00    3.72578E-05
 3.80000E+00    4.09485E-05
 4.00000E+00    4.46392E-05
 4.40000E+00    5.20207E-05
 4.50000E+00    5.38660E-05
 5.00000E+00    6.30928E-05
 5.50000E+00    7.23196E-05
 6.00000E+00    8.15464E-05
 7.00000E+00    1.00000E-04
 7.60000E+00    1.48000E-03
 7.80000E+00    1.94000E-03
 8.00000E+00    2.40000E-03
 8.50000E+00    7.15000E-03
 9.00000E+00    1.19000E-02
 9.50000E+00    2.30010E-02
 1.00000E+01    3.41020E-02
 1.05000E+01    5.19530E-02
 1.10000E+01    6.98040E-02
 1.20000E+01    1.14706E-01
 1.30000E+01    1.65508E-01
 1.40000E+01    2.21510E-01
 1.60000E+01    3.49500E-01
 1.80000E+01    4.90700E-01
 2.00000E+01    6.38000E-01
 2.00000E+01    1.41067E+01
 2.20000E+01    1.73956E+01
 2.40000E+01    2.04432E+01
 2.60000E+01    2.33293E+01
 2.80000E+01    2.61083E+01
 3.00000E+01    2.87221E+01
 3.50000E+01    3.41027E+01
 4.00000E+01    3.80541E+01
 4.50000E+01    4.10167E+01
 5.00000E+01    4.33837E+01
 5.50000E+01    4.52529E+01
 6.00000E+01    4.67799E+01
 6.50000E+01    4.80247E+01
 7.00000E+01    4.92563E+01
 7.50000E+01    5.00178E+01
 8.00000E+01    5.06696E+01
 8.50000E+01    5.10661E+01
 9.00000E+01    5.10924E+01
 9.50000E+01    5.12956E+01
 1.00000E+02    5.13730E+01
 1.10000E+02    5.13377E+01
 1.20000E+02    5.11485E+01
 1.30000E+02    5.07358E+01
 1.40000E+02    5.06461E+01
 1.50000E+02    5.01435E+01
