# n + Bi209 : (n,xa)    
# endfb8.0   M.Chadwick,P.Young,A.Smith        EVAL-JUL98
# 
# # energies =    84
#   E(MeV)        xs(mb) 
 9.00300E-01    2.26876E-03
 1.00000E+00    2.52001E-03
 1.20000E+00    3.02401E-03
 1.40000E+00    3.52801E-03
 1.60000E+00    4.03202E-03
 1.61576E+00    4.07173E-03
 1.80000E+00    4.53602E-03
 2.00000E+00    5.04002E-03
 2.20000E+00    5.54402E-03
 2.40000E+00    6.04802E-03
 2.44173E+00    6.15318E-03
 2.50000E+00    6.30002E-03
 2.50400E+00    6.31010E-03
 2.57738E+00    6.49502E-03
 2.59547E+00    6.54060E-03
 2.60000E+00    6.55203E-03
 2.60005E+00    6.55215E-03
 2.61154E+00    6.58112E-03
 2.61355E+00    6.58618E-03
 2.62963E+00    6.62670E-03
 2.75400E+00    6.94011E-03
 2.77935E+00    7.00399E-03
 2.80000E+00    7.05603E-03
 2.83562E+00    7.14579E-03
 2.86100E+00    7.20975E-03
 2.93300E+00    7.39119E-03
 2.97000E+00    7.48443E-03
 3.00000E+00    7.56003E-03
 3.00041E+00    7.56107E-03
 3.05266E+00    7.69274E-03
 3.10600E+00    7.82715E-03
 3.13300E+00    7.89519E-03
 3.16500E+00    7.97583E-03
 3.20000E+00    8.06403E-03
 3.40000E+00    8.56803E-03
 3.60000E+00    9.07204E-03
 3.80000E+00    9.57604E-03
 4.00000E+00    1.00800E-02
 4.40000E+00    1.16801E-02
 4.50000E+00    1.20801E-02
 5.00000E+00    1.40802E-02
 5.50000E+00    1.60803E-02
 6.00000E+00    1.80803E-02
 7.00000E+00    2.20805E-02
 7.60000E+00    4.02965E-02
 7.80000E+00    4.63685E-02
 8.00000E+00    5.24405E-02
 8.50000E+00    8.00208E-02
 9.00000E+00    1.07601E-01
 9.50000E+00    1.50477E-01
 1.00000E+01    1.93352E-01
 1.05000E+01    2.50677E-01
 1.10000E+01    3.08002E-01
 1.20000E+01    4.47120E-01
 1.30000E+01    6.07560E-01
 1.40000E+01    7.90840E-01
 1.60000E+01    1.23840E+00
 1.80000E+01    1.82140E+00
 2.00000E+01    2.53340E+00
 2.00000E+01    2.11106E+00
 2.20000E+01    2.57410E+00
 2.40000E+01    2.99067E+00
 2.60000E+01    3.36329E+00
 2.80000E+01    3.68344E+00
 3.00000E+01    3.96459E+00
 3.50000E+01    4.61635E+00
 4.00000E+01    5.11964E+00
 4.50000E+01    5.64826E+00
 5.00000E+01    6.22146E+00
 5.50000E+01    6.88714E+00
 6.00000E+01    7.66293E+00
 6.50000E+01    8.59545E+00
 7.00000E+01    9.73908E+00
 7.50000E+01    1.09984E+01
 8.00000E+01    1.24288E+01
 8.50000E+01    1.40209E+01
 9.00000E+01    1.58296E+01
 9.50000E+01    1.78125E+01
 1.00000E+02    2.00034E+01
 1.10000E+02    2.48148E+01
 1.20000E+02    3.06275E+01
 1.30000E+02    3.78341E+01
 1.40000E+02    4.60727E+01
 1.50000E+02    5.47901E+01
