# n + Mo100 : (n,non)   
# jeff3.3    K.Shibata, A.Ichihara, S.Kunieda+ EVAL-MAR09
# uncertainties: n
# # energies =    86
#   E(MeV)       xs(mb) 
 2.60000E-02    0.00000E+00
 2.60000E-02    9.93560E+01
 3.00000E-02    8.76600E+01
 4.00000E-02    7.19700E+01
 5.00000E-02    6.25700E+01
 6.00000E-02    5.63500E+01
 7.00000E-02    5.20600E+01
 8.00000E-02    4.93200E+01
 9.00000E-02    4.72900E+01
 1.00000E-01    4.56400E+01
 2.00000E-01    3.88100E+01
 3.00000E-01    3.87600E+01
 4.00000E-01    3.99300E+01
 5.00000E-01    4.16700E+01
 5.40977E-01    3.37204E+01
 6.00000E-01    4.76070E+02
 7.00000E-01    8.41350E+02
 7.02138E-01    8.44194E+02
 8.00000E-01    1.16926E+03
 9.00000E-01    1.31726E+03
 1.00000E+00    1.40151E+03
 1.07453E+00    1.36713E+03
 1.14758E+00    1.41696E+03
 1.47869E+00    1.80629E+03
 1.50000E+00    1.88025E+03
 1.51983E+00    1.87041E+03
 1.62360E+00    1.83882E+03
 1.78434E+00    1.86247E+03
 1.78935E+00    1.86658E+03
 1.86555E+00    1.94970E+03
 1.92757E+00    2.01766E+03
 1.99730E+00    2.15019E+03
 2.00000E+00    2.16311E+03
 2.05806E+00    2.11719E+03
 2.06339E+00    2.11343E+03
 2.10302E+00    2.09529E+03
 2.10737E+00    2.09429E+03
 2.12440E+00    2.09188E+03
 2.17777E+00    2.09141E+03
 2.21165E+00    2.09839E+03
 2.22331E+00    2.10178E+03
 2.30954E+00    2.14842E+03
 2.33332E+00    2.16844E+03
 2.34373E+00    2.17724E+03
 2.36262E+00    2.19583E+03
 2.39358E+00    2.22762E+03
 2.42019E+00    2.26142E+03
 2.44108E+00    2.29342E+03
 2.45655E+00    2.32111E+03
 2.46665E+00    2.34197E+03
 2.50000E+00    2.41526E+03
 3.00000E+00    2.36714E+03
 3.19840E+00    2.34469E+03
 3.50000E+00    2.31055E+03
 4.00000E+00    2.28349E+03
 4.50000E+00    2.28179E+03
 5.00000E+00    2.28627E+03
 5.50000E+00    2.28452E+03
 5.51780E+00    2.28419E+03
 6.00000E+00    2.27545E+03
 6.50000E+00    2.26082E+03
 7.00000E+00    2.24347E+03
 7.50000E+00    2.22472E+03
 8.00000E+00    2.20689E+03
 8.37348E+00    2.19409E+03
 8.50000E+00    2.18975E+03
 9.00000E+00    2.17438E+03
 9.01183E+00    2.17405E+03
 9.50000E+00    2.16036E+03
 9.63051E+00    2.15712E+03
 1.00000E+01    2.14796E+03
 1.10000E+01    2.12584E+03
 1.12589E+01    2.12035E+03
 1.18760E+01    2.10727E+03
 1.20000E+01    2.10464E+03
 1.30000E+01    2.08584E+03
 1.40000E+01    2.06835E+03
 1.43587E+01    2.06319E+03
 1.46000E+01    2.05972E+03
 1.50000E+01    2.05314E+03
 1.59509E+01    2.03869E+03
 1.60000E+01    2.03794E+03
 1.70000E+01    2.02467E+03
 1.80000E+01    2.00962E+03
 1.90000E+01    1.99358E+03
 2.00000E+01    1.97620E+03
