# n + Ba135 : (n,el)    
# endfb8.0   JNDC FPND W.G., Mughabghab        EVAL-JAN05
# uncertainties: n
# # energies =   171
#   E(MeV)       xs(mb) 
 1.00000E-11    4.42542E+03
 1.00000E-07    2.73476E+03
 4.13990E-07    2.72560E+03
 5.31580E-07    2.72089E+03
 6.82560E-07    2.71495E+03
 8.76420E-07    2.70761E+03
 1.12540E-06    2.69819E+03
 1.44500E-06    2.68609E+03
 1.85540E-06    2.67071E+03
 2.37240E-06    2.65080E+03
 3.05900E-06    2.62501E+03
 3.92790E-06    2.59213E+03
 5.04350E-06    2.54991E+03
 6.47600E-06    2.49570E+03
 8.31530E-06    2.42542E+03
 1.06770E-05    2.32529E+03
 1.37100E-05    2.16899E+03
 1.76030E-05    1.81868E+03
 2.26030E-05    2.31899E+04
 2.92030E-05    2.48860E+03
 3.72670E-05    2.02400E+03
 4.78510E-05    1.54074E+03
 6.14420E-05    1.19541E+03
 7.88930E-05    1.60763E+05
 1.01300E-04    6.35349E+04
 1.30070E-04    3.65069E+03
 1.67020E-04    2.78704E+03
 2.14450E-04    3.59809E+03
 2.75360E-04    3.33163E+04
 3.53580E-04    3.35192E+04
 4.54000E-04    4.91751E+03
 5.82950E-04    4.54436E+03
 7.48520E-04    1.74759E+04
 9.61120E-04    9.98061E+03
 1.23410E-03    7.65844E+03
 1.58460E-03    1.38623E+04
 2.03470E-03    4.96575E+03
 2.24870E-03    1.17933E+04
 2.48520E-03    8.35865E+03
 2.61260E-03    9.40389E+03
 2.74650E-03    1.86434E+04
 3.03540E-03    8.71152E+03
 3.35460E-03    1.36375E+04
 3.70740E-03    1.66433E+04
 4.30740E-03    9.95632E+03
 5.53080E-03    6.98736E+03
 7.10170E-03    6.62660E+03
 9.11880E-03    6.20043E+03
 1.17090E-02    6.11315E+03
 1.50340E-02    6.03776E+03
 1.93050E-02    5.95866E+03
 2.18750E-02    5.91588E+03
 2.35790E-02    5.89437E+03
 2.41760E-02    5.88370E+03
 2.47880E-02    5.86496E+03
 2.60580E-02    5.83985E+03
 2.70000E-02    5.81293E+03
 2.85000E-02    5.74390E+03
 3.18280E-02    5.58393E+03
 3.43070E-02    5.36639E+03
 4.08680E-02    5.15584E+03
 4.63090E-02    5.01122E+03
 5.24750E-02    4.88356E+03
 5.65620E-02    4.72918E+03
 6.73790E-02    4.59639E+03
 7.20000E-02    4.59694E+03
 7.95000E-02    4.59339E+03
 8.25000E-02    4.54588E+03
 8.65170E-02    4.44271E+03
 9.80370E-02    4.34580E+03
 1.11090E-01    4.36747E+03
 1.16790E-01    4.38257E+03
 1.22770E-01    4.39844E+03
 1.29070E-01    4.41514E+03
 1.35690E-01    4.43268E+03
 1.42640E-01    4.45127E+03
 1.49960E-01    4.47130E+03
 1.57640E-01    4.49600E+03
 1.65730E-01    4.52277E+03
 1.74220E-01    4.55092E+03
 1.83160E-01    4.58051E+03
 1.92550E-01    4.61161E+03
 2.02420E-01    4.64430E+03
 2.12800E-01    4.67867E+03
 2.23710E-01    4.71386E+03
 2.35180E-01    4.74583E+03
 2.47240E-01    4.79690E+03
 2.73240E-01    4.85853E+03
 2.87250E-01    4.89270E+03
 2.94520E-01    4.90865E+03
 2.97200E-01    4.91502E+03
 2.98500E-01    4.92264E+03
 3.01970E-01    4.97930E+03
 3.33730E-01    5.09073E+03
 3.68830E-01    5.18117E+03
 3.87740E-01    5.23845E+03
 4.07620E-01    5.32691E+03
 4.50490E-01    5.45014E+03
 4.97870E-01    5.52261E+03
 5.23400E-01    5.57406E+03
 5.50230E-01    5.62900E+03
 5.78440E-01    5.68668E+03
 6.08100E-01    5.73853E+03
 6.39280E-01    5.78705E+03
 6.72060E-01    5.83804E+03
 7.06510E-01    5.89165E+03
 7.42740E-01    5.94802E+03
 7.80820E-01    6.00726E+03
 8.20850E-01    6.06721E+03
 8.62940E-01    6.11219E+03
 9.07180E-01    6.14408E+03
 9.61640E-01    6.17338E+03
 1.00260E+00    6.20557E+03
 1.10800E+00    6.23468E+03
 1.16480E+00    6.24797E+03
 1.22460E+00    6.24133E+03
 1.28730E+00    6.21184E+03
 1.35340E+00    6.17635E+03
 1.42270E+00    6.13904E+03
 1.49570E+00    6.08035E+03
 1.57240E+00    5.99402E+03
 1.65300E+00    5.90313E+03
 1.73770E+00    5.79758E+03
 1.82680E+00    5.66882E+03
 1.92050E+00    5.53144E+03
 2.01900E+00    5.34537E+03
 2.12250E+00    5.13764E+03
 2.23130E+00    4.97018E+03
 2.30690E+00    4.87271E+03
 2.34570E+00    4.82631E+03
 2.36530E+00    4.79496E+03
 2.38520E+00    4.71538E+03
 2.46600E+00    4.56234E+03
 2.59240E+00    4.38472E+03
 2.72530E+00    4.21571E+03
 2.86500E+00    4.04798E+03
 3.01190E+00    3.87223E+03
 3.16640E+00    3.68552E+03
 3.32870E+00    3.42340E+03
 3.67880E+00    3.10174E+03
 4.06570E+00    2.83581E+03
 4.49330E+00    2.65973E+03
 4.72370E+00    2.54916E+03
 4.96590E+00    2.46059E+03
 5.22050E+00    2.40464E+03
 5.48810E+00    2.34742E+03
 5.76950E+00    2.29327E+03
 6.06530E+00    2.27760E+03
 6.37630E+00    2.27968E+03
 6.59240E+00    2.28097E+03
 6.70320E+00    2.28368E+03
 7.04690E+00    2.32497E+03
 7.40820E+00    2.35092E+03
 7.78800E+00    2.38216E+03
 8.18730E+00    2.44314E+03
 8.60710E+00    2.47740E+03
 9.04840E+00    2.51846E+03
 9.51230E+00    2.57050E+03
 1.00000E+01    2.61269E+03
 1.05130E+01    2.64410E+03
 1.10520E+01    2.70154E+03
 1.16180E+01    2.77568E+03
 1.22140E+01    2.81796E+03
 1.28400E+01    2.85532E+03
 1.34990E+01    2.88825E+03
 1.38400E+01    2.90815E+03
 1.41910E+01    2.91730E+03
 1.45500E+01    2.92628E+03
 1.49180E+01    2.93378E+03
 1.56830E+01    2.93241E+03
 1.64870E+01    2.91748E+03
