# n + Na 22 : (n,xn)    
# tendl.2019 A.J. Koning and D. Rochman        EVAL-NOV19
# 
# # energies =   128
#   E(MeV)        xs(mb) 
 6.09851E-01    0.00000E+00
 6.87297E-01    9.78356E+00
 7.00000E-01    1.15929E+01
 8.00000E-01    2.88632E+01
 9.00000E-01    4.45639E+01
 9.31663E-01    4.84041E+01
 1.00000E+00    1.09490E+02
 1.20000E+00    2.20656E+02
 1.40000E+00    2.81355E+02
 1.59822E+00    3.05986E+02
 1.60000E+00    3.09508E+02
 1.80000E+00    3.46226E+02
 2.00000E+00    3.60319E+02
 2.02526E+00    3.59149E+02
 2.04165E+00    3.58953E+02
 2.07432E+00    3.63190E+02
 2.20000E+00    4.00818E+02
 2.31306E+00    4.21162E+02
 2.40000E+00    4.39017E+02
 2.60000E+00    4.61825E+02
 2.68964E+00    4.65018E+02
 2.80000E+00    4.74802E+02
 3.00000E+00    4.80052E+02
 3.10516E+00    4.77880E+02
 3.20000E+00    4.82488E+02
 3.20072E+00    4.82481E+02
 3.40000E+00    4.87015E+02
 3.60000E+00    4.87015E+02
 3.68108E+00    4.84474E+02
 3.80000E+00    4.86465E+02
 3.87690E+00    4.84678E+02
 4.00000E+00    4.87073E+02
 4.12529E+00    4.86588E+02
 4.20000E+00    4.86897E+02
 4.25828E+00    4.85599E+02
 4.40000E+00    4.88030E+02
 4.49322E+00    4.87437E+02
 4.51780E+00    4.87321E+02
 4.56055E+00    4.87405E+02
 4.60000E+00    4.88170E+02
 4.67343E+00    4.86929E+02
 4.73137E+00    4.87853E+02
 4.79297E+00    4.91194E+02
 4.80000E+00    4.91832E+02
 4.83397E+00    4.92427E+02
 4.92642E+00    4.94563E+02
 4.98980E+00    4.98128E+02
 5.00000E+00    4.99116E+02
 5.20000E+00    5.06405E+02
 5.29519E+00    5.07277E+02
 5.33483E+00    5.08041E+02
 5.36631E+00    5.09380E+02
 5.40000E+00    5.10814E+02
 5.41128E+00    5.06238E+02
 5.56188E+00    4.45144E+02
 5.60000E+00    4.29680E+02
 5.69157E+00    4.27198E+02
 5.80000E+00    4.29412E+02
 6.00000E+00    4.26779E+02
 6.20000E+00    4.30328E+02
 6.40000E+00    4.29272E+02
 6.60000E+00    4.17816E+02
 6.80000E+00    4.26212E+02
 7.00000E+00    4.20456E+02
 7.20000E+00    4.15799E+02
 7.40000E+00    4.23284E+02
 7.60000E+00    4.18124E+02
 7.80000E+00    4.11621E+02
 8.00000E+00    4.12146E+02
 8.50000E+00    4.20348E+02
 9.00000E+00    4.22713E+02
 9.50000E+00    4.29895E+02
 1.00000E+01    4.39593E+02
 1.05000E+01    4.51928E+02
 1.10000E+01    4.61547E+02
 1.15000E+01    4.72958E+02
 1.20000E+01    4.84237E+02
 1.25000E+01    4.91835E+02
 1.30000E+01    5.04206E+02
 1.35000E+01    5.17088E+02
 1.40000E+01    5.29921E+02
 1.45000E+01    5.43230E+02
 1.50000E+01    5.56691E+02
 1.60000E+01    5.80213E+02
 1.70000E+01    6.04015E+02
 1.80000E+01    6.19156E+02
 1.90000E+01    6.35075E+02
 2.00000E+01    6.51696E+02
 2.10000E+01    6.62886E+02
 2.20000E+01    6.74874E+02
 2.30000E+01    6.80460E+02
 2.40000E+01    6.87995E+02
 2.50000E+01    6.94605E+02
 2.60000E+01    6.99857E+02
 2.70000E+01    7.02649E+02
 2.80000E+01    7.04130E+02
 2.90000E+01    7.03496E+02
 3.00000E+01    7.01203E+02
 3.00000E+01    7.27243E+02
 3.20000E+01    7.32298E+02
 3.40000E+01    7.36514E+02
 3.60000E+01    7.35479E+02
 3.80000E+01    7.33336E+02
 4.00000E+01    7.31270E+02
 4.20000E+01    7.28523E+02
 4.40000E+01    7.26083E+02
 4.60000E+01    7.22599E+02
 4.80000E+01    7.20327E+02
 5.00000E+01    7.18169E+02
 5.20000E+01    7.16131E+02
 5.40000E+01    7.11056E+02
 5.60000E+01    7.07941E+02
 5.80000E+01    7.04731E+02
 6.00000E+01    7.02928E+02
 6.50000E+01    7.00581E+02
 7.00000E+01    6.98118E+02
 7.50000E+01    7.00651E+02
 8.00000E+01    7.06287E+02
 9.00000E+01    7.19570E+02
 1.00000E+02    7.36613E+02
 1.10000E+02    7.42964E+02
 1.20000E+02    7.58916E+02
 1.30000E+02    7.75886E+02
 1.40000E+02    7.93341E+02
 1.50000E+02    8.10023E+02
 1.60000E+02    8.28091E+02
 1.80000E+02    8.58750E+02
 2.00000E+02    8.87987E+02
