# n + U 233 : (n,xn)    
# tendl.2019 O.Iwamoto,N.Otuka,S.Chiba,et al.  EVAL-JAN10
# 
# # energies =    95
#   E(MeV)        xs(mb) 
 4.05246E-02    0.00000E+00
 5.00000E-02    4.18316E+01
 7.00000E-02    8.27052E+01
 9.25589E-02    1.30149E+02
 1.00000E-01    1.49906E+02
 1.10954E-01    1.77241E+02
 1.20000E-01    1.99815E+02
 1.40000E-01    2.43747E+02
 1.55902E-01    2.75338E+02
 1.70000E-01    2.99305E+02
 1.97853E-01    3.43832E+02
 2.00000E-01    3.48539E+02
 2.30463E-01    3.82480E+02
 2.50000E-01    4.01917E+02
 3.00000E-01    4.66685E+02
 3.00103E-01    4.66739E+02
 3.03247E-01    4.71110E+02
 3.13254E-01    4.79360E+02
 3.15962E-01    4.82467E+02
 3.22219E-01    4.88172E+02
 3.31850E-01    4.99820E+02
 3.41951E-01    5.12019E+02
 3.55321E-01    5.29334E+02
 3.82077E-01    5.62225E+02
 3.99281E-01    5.84629E+02
 4.00000E-01    5.85523E+02
 4.00221E-01    5.85794E+02
 4.12950E-01    6.02046E+02
 4.17558E-01    6.07817E+02
 4.26840E-01    6.20963E+02
 4.33870E-01    6.30474E+02
 4.58088E-01    6.64061E+02
 4.99151E-01    7.24796E+02
 5.00000E-01    7.26054E+02
 5.05800E-01    7.30681E+02
 5.19790E-01    7.43563E+02
 5.24259E-01    7.47229E+02
 5.48906E-01    7.65763E+02
 5.64031E-01    7.77209E+02
 5.69454E-01    7.81076E+02
 5.74476E-01    7.85715E+02
 5.77489E-01    7.88360E+02
 6.00000E-01    8.05010E+02
 7.00000E-01    8.63760E+02
 8.00000E-01    9.31343E+02
 9.00000E-01    1.00062E+03
 1.00000E+00    1.06980E+03
 1.10000E+00    1.13308E+03
 1.20000E+00    1.19173E+03
 1.30000E+00    1.24465E+03
 1.40000E+00    1.29157E+03
 1.50000E+00    1.33184E+03
 1.60000E+00    1.37244E+03
 1.70000E+00    1.40947E+03
 1.80000E+00    1.44968E+03
 1.90000E+00    1.48174E+03
 2.00000E+00    1.51067E+03
 2.30000E+00    1.54641E+03
 2.50000E+00    1.53901E+03
 2.70000E+00    1.54314E+03
 3.00000E+00    1.54121E+03
 3.50000E+00    1.55555E+03
 4.00000E+00    1.58873E+03
 4.50000E+00    1.62236E+03
 5.00000E+00    1.64739E+03
 5.50000E+00    1.57576E+03
 6.00000E+00    1.30741E+03
 6.50000E+00    1.09472E+03
 7.00000E+00    9.83704E+02
 7.50000E+00    9.25973E+02
 8.00000E+00    9.05801E+02
 8.50000E+00    9.05615E+02
 9.00000E+00    9.16890E+02
 9.50000E+00    9.34626E+02
 1.00000E+01    9.59161E+02
 1.05000E+01    9.97024E+02
 1.10000E+01    1.03243E+03
 1.15000E+01    1.05279E+03
 1.20000E+01    1.03126E+03
 1.25000E+01    9.71418E+02
 1.30000E+01    8.91883E+02
 1.35000E+01    8.08831E+02
 1.40000E+01    7.31491E+02
 1.45000E+01    6.66388E+02
 1.50000E+01    6.20371E+02
 1.55000E+01    5.91172E+02
 1.60000E+01    5.73963E+02
 1.65000E+01    5.76150E+02
 1.70000E+01    5.82133E+02
 1.75000E+01    6.00281E+02
 1.80000E+01    6.29969E+02
 1.85000E+01    6.72023E+02
 1.90000E+01    7.25001E+02
 1.95000E+01    7.88122E+02
 2.00000E+01    8.56084E+02
