# n + Al 27 : (n,n'17)  
# jendl4.0   Y.HARIMA,H.KITAZAWA,T.FUKAHORI    EVAL-MAR88
# uncertainties: n
# # energies =    91
#   E(MeV)       xs(mb) 
 5.63576E+00    0.00000E+00
 5.63721E+00    1.18685E-01
 5.63939E+00    2.96711E-01
 5.64157E+00    4.74737E-01
 5.64553E+00    7.92078E-01
 5.65296E+00    1.38709E+00
 5.65947E+00    1.90773E+00
 5.67089E+00    2.81884E+00
 5.67946E+00    3.50218E+00
 5.69235E+00    4.52718E+00
 5.70526E+00    5.55218E+00
 5.71841E+00    6.53236E+00
 5.73820E+00    8.00264E+00
 5.75806E+00    9.47291E+00
 5.78389E+00    1.11999E+01
 5.80983E+00    1.29268E+01
 5.83327E+00    1.38446E+01
 5.87451E+00    1.54508E+01
 5.90563E+00    1.66555E+01
 5.92909E+00    1.75589E+01
 5.96444E+00    1.89142E+01
 6.00000E+00    2.02694E+01
 6.06033E+00    2.06905E+01
 6.16738E+00    2.14275E+01
 6.24890E+00    2.19803E+01
 6.37322E+00    2.28094E+01
 6.50000E+00    2.36385E+01
 7.00000E+00    2.34033E+01
 7.12179E+00    2.28192E+01
 7.21451E+00    2.23811E+01
 7.35587E+00    2.17240E+01
 7.50000E+00    2.10669E+01
 7.62199E+00    2.05170E+01
 7.71479E+00    2.01045E+01
 7.85610E+00    1.94859E+01
 8.00000E+00    1.88672E+01
 8.12217E+00    1.83007E+01
 8.21502E+00    1.78759E+01
 8.35630E+00    1.72387E+01
 8.50000E+00    1.66014E+01
 8.62233E+00    1.60700E+01
 8.71524E+00    1.56715E+01
 8.85647E+00    1.50737E+01
 9.00000E+00    1.44759E+01
 9.11932E+00    1.41187E+01
 9.22501E+00    1.38062E+01
 9.31850E+00    1.35328E+01
 9.48439E+00    1.30542E+01
 9.61075E+00    1.26953E+01
 9.70662E+00    1.24261E+01
 9.85222E+00    1.20224E+01
 1.00000E+01    1.16186E+01
 1.01199E+01    1.13135E+01
 1.02259E+01    1.10465E+01
 1.04142E+01    1.05793E+01
 1.05576E+01    1.02289E+01
 1.06665E+01    9.96613E+00
 1.08320E+01    9.57193E+00
 1.10000E+01    9.17773E+00
 1.11203E+01    8.97086E+00
 1.13340E+01    8.60883E+00
 1.14969E+01    8.33731E+00
 1.16207E+01    8.13366E+00
 1.18088E+01    7.82820E+00
 1.20000E+01    7.52274E+00
 1.21207E+01    7.35030E+00
 1.23348E+01    7.04852E+00
 1.24978E+01    6.82219E+00
 1.26215E+01    6.65244E+00
 1.28094E+01    6.39782E+00
 1.30000E+01    6.14320E+00
 1.31210E+01    6.01057E+00
 1.33354E+01    5.77847E+00
 1.34986E+01    5.60439E+00
 1.36222E+01    5.47383E+00
 1.38098E+01    5.27800E+00
 1.40000E+01    5.08216E+00
 1.42478E+01    4.95226E+00
 1.45000E+01    4.82235E+00
 1.47479E+01    4.69627E+00
 1.50000E+01    4.57019E+00
 1.52440E+01    4.48374E+00
 1.56174E+01    4.35406E+00
 1.60000E+01    4.22438E+00
 1.70000E+01    4.17504E+00
 1.74929E+01    4.07983E+00
 1.80000E+01    3.98463E+00
 1.84932E+01    3.93998E+00
 1.90000E+01    3.89532E+00
 1.94936E+01    3.84306E+00
 2.00000E+01    3.79079E+00
