# n + Al 27 : (n,el)    
# jendl4.0   Y.HARIMA,H.KITAZAWA,T.FUKAHORI    EVAL-MAR88
# uncertainties: n
# # energies =   171
#   E(MeV)       xs(mb) 
 1.00000E-11    3.91009E+03
 1.00000E-07    1.41721E+03
 4.13990E-07    1.41511E+03
 5.31580E-07    1.41473E+03
 6.82560E-07    1.41449E+03
 8.76420E-07    1.41435E+03
 1.12540E-06    1.41418E+03
 1.44500E-06    1.41398E+03
 1.85540E-06    1.41391E+03
 2.37240E-06    1.41389E+03
 3.05900E-06    1.41388E+03
 3.92790E-06    1.41386E+03
 5.04350E-06    1.41383E+03
 6.47600E-06    1.41379E+03
 8.31530E-06    1.41375E+03
 1.06770E-05    1.41369E+03
 1.37100E-05    1.41362E+03
 1.76030E-05    1.41352E+03
 2.26030E-05    1.41340E+03
 2.92030E-05    1.41324E+03
 3.72670E-05    1.41304E+03
 4.78510E-05    1.41278E+03
 6.14420E-05    1.41244E+03
 7.88930E-05    1.41202E+03
 1.01300E-04    1.41147E+03
 1.30070E-04    1.41076E+03
 1.67020E-04    1.40985E+03
 2.14450E-04    1.40869E+03
 2.75360E-04    1.40720E+03
 3.53580E-04    1.40528E+03
 4.54000E-04    1.40281E+03
 5.82950E-04    1.39965E+03
 7.48520E-04    1.39559E+03
 9.61120E-04    1.39037E+03
 1.23410E-03    1.38367E+03
 1.58460E-03    1.37507E+03
 2.03470E-03    1.36774E+03
 2.24870E-03    1.36287E+03
 2.48520E-03    1.35891E+03
 2.61260E-03    1.35609E+03
 2.74650E-03    1.35157E+03
 3.03540E-03    1.34501E+03
 3.35460E-03    1.33776E+03
 3.70740E-03    1.32757E+03
 4.30740E-03    1.31442E+03
 5.53080E-03    3.27076E+03
 7.10170E-03    1.22520E+03
 9.11880E-03    1.15469E+03
 1.17090E-02    1.05700E+03
 1.50340E-02    9.09210E+02
 1.93050E-02    7.47529E+02
 2.18750E-02    6.35933E+02
 2.35790E-02    5.74948E+02
 2.41760E-02    5.44204E+02
 2.47880E-02    5.02021E+02
 2.60580E-02    4.67140E+02
 2.70000E-02    4.79157E+02
 2.85000E-02    1.23164E+03
 3.18280E-02    1.13276E+04
 3.43070E-02    1.69398E+04
 4.08680E-02    4.32866E+03
 4.63090E-02    2.82418E+03
 5.24750E-02    2.26234E+03
 5.65620E-02    1.88512E+03
 6.73790E-02    1.82128E+03
 7.20000E-02    2.73480E+03
 7.95000E-02    5.96233E+03
 8.25000E-02    1.22707E+04
 8.65170E-02    1.28969E+04
 9.80370E-02    4.32042E+03
 1.11090E-01    2.89230E+03
 1.16790E-01    6.57017E+03
 1.22770E-01    1.85828E+03
 1.29070E-01    2.52301E+03
 1.35690E-01    8.24435E+03
 1.42640E-01    1.36171E+04
 1.49960E-01    1.35156E+04
 1.57640E-01    1.38152E+04
 1.65730E-01    6.64472E+03
 1.74220E-01    5.04668E+03
 1.83160E-01    3.98584E+03
 1.92550E-01    4.83720E+03
 2.02420E-01    8.01237E+03
 2.12800E-01    5.74692E+03
 2.23710E-01    4.13070E+03
 2.35180E-01    3.16378E+03
 2.47240E-01    2.29217E+03
 2.73240E-01    4.89332E+03
 2.87250E-01    5.54136E+03
 2.94520E-01    4.95965E+03
 2.97200E-01    4.78501E+03
 2.98500E-01    4.69087E+03
 3.01970E-01    4.25228E+03
 3.33730E-01    3.47543E+03
 3.68830E-01    3.62867E+03
 3.87740E-01    3.26770E+03
 4.07620E-01    4.95988E+03
 4.50490E-01    4.01503E+03
 4.97870E-01    3.39650E+03
 5.23400E-01    4.47221E+03
 5.50230E-01    4.21830E+03
 5.78440E-01    3.31808E+03
 6.08100E-01    3.59284E+03
 6.39280E-01    4.50390E+03
 6.72060E-01    3.04400E+03
 7.06510E-01    3.27354E+03
 7.42740E-01    3.90695E+03
 7.80820E-01    5.41982E+03
 8.20850E-01    4.51023E+03
 8.62940E-01    3.61523E+03
 9.07180E-01    2.93724E+03
 9.61640E-01    2.81218E+03
 1.00260E+00    2.90449E+03
 1.10800E+00    3.87319E+03
 1.16480E+00    3.73326E+03
 1.22460E+00    3.17016E+03
 1.28730E+00    2.67971E+03
 1.35340E+00    2.98633E+03
 1.42270E+00    3.09228E+03
 1.49570E+00    3.09975E+03
 1.57240E+00    2.66791E+03
 1.65300E+00    2.84513E+03
 1.73770E+00    2.59185E+03
 1.82680E+00    2.41425E+03
 1.92050E+00    2.89595E+03
 2.01900E+00    2.88390E+03
 2.12250E+00    2.87015E+03
 2.23130E+00    2.83468E+03
 2.30690E+00    2.64230E+03
 2.34570E+00    2.52993E+03
 2.36530E+00    1.92216E+03
 2.38520E+00    2.12981E+03
 2.46600E+00    3.23054E+03
 2.59240E+00    2.49669E+03
 2.72530E+00    2.32035E+03
 2.86500E+00    2.14279E+03
 3.01190E+00    1.93497E+03
 3.16640E+00    1.88786E+03
 3.32870E+00    1.87019E+03
 3.67880E+00    1.68551E+03
 4.06570E+00    1.49083E+03
 4.49330E+00    1.41643E+03
 4.72370E+00    1.36767E+03
 4.96590E+00    1.37650E+03
 5.22050E+00    1.24605E+03
 5.48810E+00    1.10815E+03
 5.76950E+00    1.15640E+03
 6.06530E+00    1.00258E+03
 6.37630E+00    1.06090E+03
 6.59240E+00    8.97726E+02
 6.70320E+00    9.57106E+02
 7.04690E+00    8.00668E+02
 7.40820E+00    8.48296E+02
 7.78800E+00    7.85949E+02
 8.18730E+00    7.86414E+02
 8.60710E+00    7.20937E+02
 9.04840E+00    7.09798E+02
 9.51230E+00    7.35427E+02
 1.00000E+01    7.30091E+02
 1.05130E+01    7.59638E+02
 1.10520E+01    7.71225E+02
 1.16180E+01    7.69358E+02
 1.22140E+01    7.68636E+02
 1.28400E+01    7.69771E+02
 1.34990E+01    7.81531E+02
 1.38400E+01    7.86831E+02
 1.41910E+01    7.84671E+02
 1.45500E+01    7.87222E+02
 1.49180E+01    7.91665E+02
 1.56830E+01    8.06486E+02
 1.64870E+01    8.38207E+02
