# n + Al 27 : (n,tot)   
# jendl4.0   Y.HARIMA,H.KITAZAWA,T.FUKAHORI    EVAL-MAR88
# uncertainties: n
# # energies =   171
#   E(MeV)       xs(mb) 
 1.00000E-11    6.40369E+03
 1.00000E-07    1.49638E+03
 4.13990E-07    1.46507E+03
 5.31580E-07    1.45860E+03
 6.82560E-07    1.45299E+03
 8.76420E-07    1.44812E+03
 1.12540E-06    1.44397E+03
 1.44500E-06    1.44080E+03
 1.85540E-06    1.43708E+03
 2.37240E-06    1.43467E+03
 3.05900E-06    1.43263E+03
 3.92790E-06    1.43004E+03
 5.04350E-06    1.42742E+03
 6.47600E-06    1.42640E+03
 8.31530E-06    1.42526E+03
 1.06770E-05    1.42379E+03
 1.37100E-05    1.42190E+03
 1.76030E-05    1.42058E+03
 2.26030E-05    1.42014E+03
 2.92030E-05    1.41959E+03
 3.72670E-05    1.41889E+03
 4.78510E-05    1.41798E+03
 6.14420E-05    1.41681E+03
 7.88930E-05    1.41531E+03
 1.01300E-04    1.41425E+03
 1.30070E-04    1.41352E+03
 1.67020E-04    1.41259E+03
 2.14450E-04    1.41140E+03
 2.75360E-04    1.40987E+03
 3.53580E-04    1.40790E+03
 4.54000E-04    1.40538E+03
 5.82950E-04    1.40214E+03
 7.48520E-04    1.39798E+03
 9.61120E-04    1.39263E+03
 1.23410E-03    1.38577E+03
 1.58460E-03    1.37696E+03
 2.03470E-03    1.36945E+03
 2.24870E-03    1.36447E+03
 2.48520E-03    1.36041E+03
 2.61260E-03    1.35752E+03
 2.74650E-03    1.35288E+03
 3.03540E-03    1.34616E+03
 3.35460E-03    1.33873E+03
 3.70740E-03    1.32829E+03
 4.30740E-03    1.31542E+03
 5.53080E-03    3.35709E+03
 7.10170E-03    1.22577E+03
 9.11880E-03    1.15513E+03
 1.17090E-02    1.05747E+03
 1.50340E-02    9.09740E+02
 1.93050E-02    7.48165E+02
 2.18750E-02    6.36709E+02
 2.35790E-02    5.75798E+02
 2.41760E-02    5.45106E+02
 2.47880E-02    5.03044E+02
 2.60580E-02    4.68355E+02
 2.70000E-02    4.80698E+02
 2.85000E-02    1.23487E+03
 3.18280E-02    1.13408E+04
 3.43070E-02    1.69497E+04
 4.08680E-02    4.32966E+03
 4.63090E-02    2.82475E+03
 5.24750E-02    2.26271E+03
 5.65620E-02    1.88558E+03
 6.73790E-02    1.82189E+03
 7.20000E-02    2.73584E+03
 7.95000E-02    5.96428E+03
 8.25000E-02    1.22739E+04
 8.65170E-02    1.28994E+04
 9.80370E-02    4.32129E+03
 1.11090E-01    2.89401E+03
 1.16790E-01    6.57989E+03
 1.22770E-01    1.86038E+03
 1.29070E-01    2.52510E+03
 1.35690E-01    8.24732E+03
 1.42640E-01    1.36206E+04
 1.49960E-01    1.35173E+04
 1.57640E-01    1.38168E+04
 1.65730E-01    6.64533E+03
 1.74220E-01    5.04686E+03
 1.83160E-01    3.98708E+03
 1.92550E-01    4.83948E+03
 2.02420E-01    8.01440E+03
 2.12800E-01    5.74819E+03
 2.23710E-01    4.13196E+03
 2.35180E-01    3.16501E+03
 2.47240E-01    2.29335E+03
 2.73240E-01    4.89445E+03
 2.87250E-01    5.54248E+03
 2.94520E-01    4.96076E+03
 2.97200E-01    4.78611E+03
 2.98500E-01    4.69197E+03
 3.01970E-01    4.25335E+03
 3.33730E-01    3.47645E+03
 3.68830E-01    3.62966E+03
 3.87740E-01    3.26867E+03
 4.07620E-01    4.96081E+03
 4.50490E-01    4.01593E+03
 4.97870E-01    3.39737E+03
 5.23400E-01    4.47306E+03
 5.50230E-01    4.21914E+03
 5.78440E-01    3.31891E+03
 6.08100E-01    3.59365E+03
 6.39280E-01    4.50471E+03
 6.72060E-01    3.04480E+03
 7.06510E-01    3.27432E+03
 7.42740E-01    3.90773E+03
 7.80820E-01    5.42058E+03
 8.20850E-01    4.51099E+03
 8.62940E-01    3.61935E+03
 9.07180E-01    2.95513E+03
 9.61640E-01    2.84327E+03
 1.00260E+00    2.94988E+03
 1.10800E+00    3.94716E+03
 1.16480E+00    3.82899E+03
 1.22460E+00    3.28761E+03
 1.28730E+00    2.81886E+03
 1.35340E+00    3.14732E+03
 1.42270E+00    3.27525E+03
 1.49570E+00    3.30545E+03
 1.57240E+00    2.89636E+03
 1.65300E+00    3.09642E+03
 1.73770E+00    2.86573E+03
 1.82680E+00    2.71087E+03
 1.92050E+00    3.21505E+03
 2.01900E+00    3.21063E+03
 2.12250E+00    3.19738E+03
 2.23130E+00    3.16277E+03
 2.30690E+00    2.97951E+03
 2.34570E+00    2.87546E+03
 2.36530E+00    2.27325E+03
 2.38520E+00    2.49478E+03
 2.46600E+00    3.62327E+03
 2.59240E+00    2.92476E+03
 2.72530E+00    2.78880E+03
 2.86500E+00    2.66225E+03
 3.01190E+00    2.49354E+03
 3.16640E+00    2.48458E+03
 3.32870E+00    2.52955E+03
 3.67880E+00    2.42178E+03
 4.06570E+00    2.26146E+03
 4.49330E+00    2.21338E+03
 4.72370E+00    2.19749E+03
 4.96590E+00    2.23833E+03
 5.22050E+00    2.12888E+03
 5.48810E+00    2.02026E+03
 5.76950E+00    2.13867E+03
 6.06530E+00    2.01538E+03
 6.37630E+00    2.08783E+03
 6.59240E+00    1.92689E+03
 6.70320E+00    1.98807E+03
 7.04690E+00    1.82425E+03
 7.40820E+00    1.86084E+03
 7.78800E+00    1.78715E+03
 8.18730E+00    1.78333E+03
 8.60710E+00    1.71929E+03
 9.04840E+00    1.69980E+03
 9.51230E+00    1.71949E+03
 1.00000E+01    1.70509E+03
 1.05130E+01    1.72108E+03
 1.10520E+01    1.72625E+03
 1.16180E+01    1.72064E+03
 1.22140E+01    1.71399E+03
 1.28400E+01    1.71187E+03
 1.34990E+01    1.71658E+03
 1.38400E+01    1.71995E+03
 1.41910E+01    1.72287E+03
 1.45500E+01    1.72667E+03
 1.49180E+01    1.72955E+03
 1.56830E+01    1.73268E+03
 1.64870E+01    1.74726E+03
