# n + Al 27 : (n,n'20)  
# jendl4.0   Y.HARIMA,H.KITAZAWA,T.FUKAHORI    EVAL-MAR88
# uncertainties: n
# # energies =    98
#   E(MeV)       xs(mb) 
 5.75806E+00    0.00000E+00
 5.75967E+00    7.86364E-02
 5.76279E+00    2.30994E-01
 5.76865E+00    5.16664E-01
 5.77378E+00    7.66625E-01
 5.78277E+00    1.20406E+00
 5.78953E+00    1.53213E+00
 5.79967E+00    2.02424E+00
 5.80983E+00    2.51635E+00
 5.82154E+00    2.89144E+00
 5.83253E+00    3.24308E+00
 5.85321E+00    3.90242E+00
 5.87136E+00    4.47933E+00
 5.88729E+00    4.98414E+00
 5.91527E+00    5.86754E+00
 5.93634E+00    6.53009E+00
 5.96808E+00    7.52392E+00
 6.00000E+00    8.51775E+00
 6.06033E+00    9.04821E+00
 6.11362E+00    9.51236E+00
 6.16063E+00    9.91849E+00
 6.20207E+00    1.02739E+01
 6.27525E+00    1.08957E+01
 6.33069E+00    1.13622E+01
 6.41479E+00    1.20618E+01
 6.50000E+00    1.27614E+01
 6.62155E+00    1.29352E+01
 6.80815E+00    1.31958E+01
 7.00000E+00    1.34564E+01
 7.12179E+00    1.30576E+01
 7.21451E+00    1.27585E+01
 7.35587E+00    1.23098E+01
 7.50000E+00    1.18611E+01
 7.62199E+00    1.14853E+01
 7.71479E+00    1.12035E+01
 7.85610E+00    1.07807E+01
 8.00000E+00    1.03579E+01
 8.12217E+00    1.00621E+01
 8.21502E+00    9.84025E+00
 8.35630E+00    9.50748E+00
 8.50000E+00    9.17471E+00
 8.62233E+00    8.89716E+00
 8.71524E+00    8.68900E+00
 8.85647E+00    8.37675E+00
 9.00000E+00    8.06451E+00
 9.11932E+00    7.85512E+00
 9.22501E+00    7.67191E+00
 9.31850E+00    7.51160E+00
 9.48439E+00    7.23105E+00
 9.61075E+00    7.02065E+00
 9.70662E+00    6.86284E+00
 9.85222E+00    6.62613E+00
 1.00000E+01    6.38942E+00
 1.01199E+01    6.21586E+00
 1.02259E+01    6.06399E+00
 1.03196E+01    5.93110E+00
 1.04856E+01    5.69855E+00
 1.06119E+01    5.52414E+00
 1.07077E+01    5.39334E+00
 1.08528E+01    5.19712E+00
 1.10000E+01    5.00091E+00
 1.11203E+01    4.88016E+00
 1.12266E+01    4.77449E+00
 1.14152E+01    4.58959E+00
 1.15586E+01    4.45091E+00
 1.16674E+01    4.34690E+00
 1.18326E+01    4.19088E+00
 1.20000E+01    4.03487E+00
 1.21207E+01    3.93205E+00
 1.22272E+01    3.84208E+00
 1.24160E+01    3.68464E+00
 1.25595E+01    3.56656E+00
 1.26682E+01    3.47800E+00
 1.28330E+01    3.34516E+00
 1.30000E+01    3.21232E+00
 1.31210E+01    3.13236E+00
 1.33354E+01    2.99244E+00
 1.34986E+01    2.88749E+00
 1.36222E+01    2.80878E+00
 1.38098E+01    2.69072E+00
 1.40000E+01    2.57266E+00
 1.42478E+01    2.49586E+00
 1.45000E+01    2.41905E+00
 1.47479E+01    2.34459E+00
 1.50000E+01    2.27014E+00
 1.52440E+01    2.21818E+00
 1.54296E+01    2.17922E+00
 1.57122E+01    2.12077E+00
 1.60000E+01    2.06232E+00
 1.70000E+01    2.03667E+00
 1.72447E+01    2.00728E+00
 1.76183E+01    1.96320E+00
 1.80000E+01    1.91912E+00
 1.82450E+01    1.95138E+00
 1.86187E+01    1.99977E+00
 1.90000E+01    2.04816E+00
 1.94936E+01    2.10544E+00
 2.00000E+01    2.16273E+00
