# n + Al 27 : (n,g)     
# jendl4.0   Y.HARIMA,H.KITAZAWA,T.FUKAHORI    EVAL-MAR88
# uncertainties: n
# # energies =    69
#   E(MeV)       xs(mb) 
 1.00000E-10    1.61045E+03
 5.00000E-09    4.38883E+02
 1.00000E-08    3.32458E+02
 1.50000E-08    2.79257E+02
 2.00000E-08    2.45402E+02
 2.50000E-08    2.21199E+02
 3.00000E-08    2.02722E+02
 3.50000E-08    1.85689E+02
 4.20000E-08    1.69108E+02
 5.00000E-08    1.55362E+02
 5.80000E-08    1.43877E+02
 6.70000E-08    1.32253E+02
 8.00000E-08    1.19091E+02
 1.00000E-07    1.02914E+02
 1.40000E-07    8.81681E+01
 1.80000E-07    7.83002E+01
 2.20000E-07    7.18245E+01
 2.50000E-07    6.74258E+01
 2.80000E-07    6.42755E+01
 3.00000E-07    6.20667E+01
 3.20000E-07    5.96140E+01
 3.50000E-07    5.62375E+01
 4.00000E-07    5.12444E+01
 5.00000E-07    4.55964E+01
 6.25000E-07    4.05887E+01
 7.80000E-07    3.74344E+01
 8.50000E-07    3.59550E+01
 9.10000E-07    3.49237E+01
 9.50000E-07    3.43258E+01
 9.72000E-07    3.39041E+01
 9.96000E-07    3.34795E+01
 1.02000E-06    3.30637E+01
 1.04500E-06    3.26439E+01
 1.07100E-06    3.22320E+01
 1.09700E-06    3.18380E+01
 1.12300E-06    3.14460E+01
 1.15000E-06    3.02742E+01
 1.30000E-06    2.82486E+01
 1.50000E-06    2.49556E+01
 2.10000E-06    2.16031E+01
 2.60000E-06    1.92022E+01
 3.30000E-06    1.71548E+01
 4.00000E-06    1.30039E+01
 9.87700E-06    9.00620E+00
 1.59680E-05    6.89221E+00
 2.77000E-05    5.17629E+00
 4.80520E-05    3.98612E+00
 7.55014E-05    2.98422E+00
 1.48728E-04    1.99440E+00
 3.67262E-04    1.26116E+00
 9.06898E-04    9.06839E-01
 1.42510E-03    7.59763E-01
 2.23945E-03    6.56413E-01
 3.51910E-03    8.62501E-01
 5.53000E-03    4.34506E+01
 9.11800E-03    4.75034E-01
 1.50300E-02    6.19983E-01
 2.47800E-02    6.52558E+00
 4.08500E-02    6.23810E-01
 6.73400E-02    1.56040E+00
 1.11000E-01    2.66305E+00
 1.83000E-01    1.34310E+00
 3.02000E-01    9.77108E-01
 5.00000E-01    8.11054E-01
 8.21000E-01    7.02741E-01
 1.35300E+00    5.87861E-01
 2.23100E+00    4.49689E-01
 3.67900E+00    3.32062E-01
 6.06500E+00    2.77545E-01
