# n + Ba130 : (n,tot)   
# jeff3.3    JNDC FP NUCLEAR DATA W.G.         EVAL-MAR90
# uncertainties: n
# # energies =   171
#   E(MeV)       xs(mb) 
 1.00000E-11    9.91444E+04
 1.00000E-07    6.25481E+03
 4.13990E-07    5.13206E+03
 5.31580E-07    4.88804E+03
 6.82560E-07    4.67001E+03
 8.76420E-07    4.47406E+03
 1.12540E-06    4.29727E+03
 1.44500E-06    4.13526E+03
 1.85540E-06    3.98648E+03
 2.37240E-06    3.84277E+03
 3.05900E-06    3.70218E+03
 3.92790E-06    3.56242E+03
 5.04350E-06    3.41805E+03
 6.47600E-06    3.26356E+03
 8.31530E-06    3.09220E+03
 1.06770E-05    2.89548E+03
 1.37100E-05    2.66295E+03
 1.76030E-05    2.38120E+03
 2.26030E-05    2.03572E+03
 2.92030E-05    1.74023E+03
 3.72670E-05    2.66963E+05
 4.78510E-05    7.76590E+05
 6.14420E-05    1.65976E+04
 7.88930E-05    4.31140E+03
 1.01300E-04    1.81475E+03
 1.30070E-04    2.70264E+05
 1.67020E-04    1.17010E+05
 2.14450E-04    3.92081E+03
 2.75360E-04    2.39295E+04
 3.53580E-04    1.76924E+05
 4.54000E-04    9.18434E+03
 5.82950E-04    1.45610E+04
 7.48520E-04    1.42902E+04
 9.61120E-04    1.17043E+04
 1.23410E-03    1.26717E+04
 1.58460E-03    2.31450E+04
 2.03470E-03    1.20088E+04
 2.24870E-03    1.04708E+04
 2.48520E-03    1.29657E+04
 2.61260E-03    1.31274E+04
 2.74650E-03    1.27494E+04
 3.03540E-03    1.22626E+04
 3.35460E-03    1.17991E+04
 3.70740E-03    1.12543E+04
 4.30740E-03    1.04528E+04
 5.53080E-03    9.55803E+03
 7.10170E-03    8.76808E+03
 9.11880E-03    8.07340E+03
 1.17090E-02    7.46437E+03
 1.50340E-02    6.92693E+03
 1.93050E-02    6.56504E+03
 2.18750E-02    6.39197E+03
 2.35790E-02    6.31145E+03
 2.41760E-02    6.27012E+03
 2.47880E-02    6.20913E+03
 2.60580E-02    6.14106E+03
 2.70000E-02    6.06943E+03
 2.85000E-02    5.94584E+03
 3.18280E-02    5.80861E+03
 3.43070E-02    5.63912E+03
 4.08680E-02    5.44788E+03
 4.63090E-02    5.30177E+03
 5.24750E-02    5.18798E+03
 5.65620E-02    5.05629E+03
 6.73790E-02    4.93506E+03
 7.20000E-02    4.85543E+03
 7.95000E-02    4.79219E+03
 8.25000E-02    4.75186E+03
 8.65170E-02    4.67661E+03
 9.80370E-02    4.60543E+03
 1.11090E-01    4.62017E+03
 1.16790E-01    4.63105E+03
 1.22770E-01    4.64173E+03
 1.29070E-01    4.65282E+03
 1.35690E-01    4.66363E+03
 1.42640E-01    4.67466E+03
 1.49960E-01    4.69248E+03
 1.57640E-01    4.71746E+03
 1.65730E-01    4.74248E+03
 1.74220E-01    4.76747E+03
 1.83160E-01    4.79285E+03
 1.92550E-01    4.81858E+03
 2.02420E-01    4.85119E+03
 2.12800E-01    4.88790E+03
 2.23710E-01    4.92650E+03
 2.35180E-01    4.96707E+03
 2.47240E-01    5.03215E+03
 2.73240E-01    5.10170E+03
 2.87250E-01    5.13856E+03
 2.94520E-01    5.15577E+03
 2.97200E-01    5.16264E+03
 2.98500E-01    5.17085E+03
 3.01970E-01    5.23068E+03
 3.33730E-01    5.34577E+03
 3.68830E-01    5.43956E+03
 3.87740E-01    5.50637E+03
 4.07620E-01    5.61248E+03
 4.50490E-01    5.75128E+03
 4.97870E-01    5.86059E+03
 5.23400E-01    5.93846E+03
 5.50230E-01    6.02031E+03
 5.78440E-01    6.10087E+03
 6.08100E-01    6.17923E+03
 6.39280E-01    6.26161E+03
 6.72060E-01    6.34819E+03
 7.06510E-01    6.43167E+03
 7.42740E-01    6.51298E+03
 7.80820E-01    6.59846E+03
 8.20850E-01    6.68501E+03
 8.62940E-01    6.76535E+03
 9.07180E-01    6.85608E+03
 9.61640E-01    6.93496E+03
 1.00260E+00    7.03322E+03
 1.10800E+00    7.12922E+03
 1.16480E+00    7.19691E+03
 1.22460E+00    7.26177E+03
 1.28730E+00    7.30273E+03
 1.35340E+00    7.34014E+03
 1.42270E+00    7.36107E+03
 1.49570E+00    7.37741E+03
 1.57240E+00    7.37083E+03
 1.65300E+00    7.35089E+03
 1.73770E+00    7.32511E+03
 1.82680E+00    7.27585E+03
 1.92050E+00    7.21089E+03
 2.01900E+00    7.08718E+03
 2.12250E+00    6.93085E+03
 2.23130E+00    6.80172E+03
 2.30690E+00    6.72965E+03
 2.34570E+00    6.69293E+03
 2.36530E+00    6.66813E+03
 2.38520E+00    6.60516E+03
 2.46600E+00    6.48238E+03
 2.59240E+00    6.34309E+03
 2.72530E+00    6.19951E+03
 2.86500E+00    6.06060E+03
 3.01190E+00    5.90816E+03
 3.16640E+00    5.73793E+03
 3.32870E+00    5.49386E+03
 3.67880E+00    5.18370E+03
 4.06570E+00    4.90859E+03
 4.49330E+00    4.71848E+03
 4.72370E+00    4.59776E+03
 4.96590E+00    4.50018E+03
 5.22050E+00    4.44621E+03
 5.48810E+00    4.39022E+03
 5.76950E+00    4.33488E+03
 6.06530E+00    4.32990E+03
 6.37630E+00    4.34467E+03
 6.59240E+00    4.35384E+03
 6.70320E+00    4.36647E+03
 7.04690E+00    4.39159E+03
 7.40820E+00    4.42650E+03
 7.78800E+00    4.46330E+03
 8.18730E+00    4.50199E+03
 8.60710E+00    4.54266E+03
 9.04840E+00    4.58631E+03
 9.51230E+00    4.63676E+03
 1.00000E+01    4.69711E+03
 1.05130E+01    4.76572E+03
 1.10520E+01    4.83254E+03
 1.16180E+01    4.90358E+03
 1.22140E+01    4.95727E+03
 1.28400E+01    5.01195E+03
 1.34990E+01    5.05073E+03
 1.38400E+01    5.07703E+03
 1.41910E+01    5.08872E+03
 1.45500E+01    5.09832E+03
 1.49180E+01    5.10568E+03
 1.56830E+01    5.10403E+03
 1.64870E+01    5.08939E+03
