# n + Cm243 :  n        
# endfb8.0   O.Iwamoto,T.Nakagawa,T.Ohsawa,+   EVAL-JAN10
# uncertainties: n
# # energies =    46
#   E(MeV)       xs(mb) 
 2.70000E+00    0.00000E+00
 2.85000E+00    1.65810E-13
 3.00000E+00    3.34490E-13
 3.12500E+00    4.82420E-11
 3.25000E+00    9.47500E-11
 3.50000E+00    1.86850E-10
 3.62500E+00    2.62610E-08
 3.75000E+00    5.22120E-08
 4.00000E+00    1.03770E-07
 4.25000E+00    2.84085E-05
 4.50000E+00    5.71754E-05
 4.75000E+00    8.73492E-03
 5.00000E+00    1.75756E-02
 5.25000E+00    8.31674E-01
 5.50000E+00    1.66164E+00
 6.00000E+00    4.78161E+01
 6.12500E+00    8.48164E+01
 6.25000E+00    1.24268E+02
 6.50000E+00    2.07293E+02
 6.75000E+00    3.02825E+02
 7.00000E+00    4.08989E+02
 7.50000E+00    5.55950E+02
 8.00000E+00    6.60287E+02
 8.50000E+00    7.39361E+02
 9.00000E+00    7.99295E+02
 9.50000E+00    8.43962E+02
 1.00000E+01    8.80577E+02
 1.05000E+01    9.07003E+02
 1.10000E+01    9.29059E+02
 1.15000E+01    9.46021E+02
 1.20000E+01    9.57203E+02
 1.25000E+01    9.63367E+02
 1.30000E+01    9.63240E+02
 1.35000E+01    9.59308E+02
 1.40000E+01    9.54649E+02
 1.45000E+01    9.51887E+02
 1.50000E+01    9.52393E+02
 1.55000E+01    9.52362E+02
 1.60000E+01    9.53351E+02
 1.65000E+01    9.57089E+02
 1.70000E+01    9.62593E+02
 1.75000E+01    9.67255E+02
 1.80000E+01    9.71512E+02
 1.85000E+01    9.77646E+02
 1.95000E+01    9.88265E+02
 2.00000E+01    9.94794E+02
