# n + Cm243 : (n,n'10)  
# endfb8.0   O.Iwamoto,T.Nakagawa,T.Ohsawa,+   EVAL-JAN10
# uncertainties: y
# # energies =    50
#   E(MeV)       xs(mb)       xslow(mb)      xsupp(mb)
 2.28946E-01    0.00000E+00    0.00000E+00    0.00000E+00
 3.00000E-01    5.17383E+01    3.51780E+00    9.99588E+01
 4.00000E-01    7.92870E+01    1.13358E+01    1.47238E+02
 5.00000E-01    8.91784E+01    1.27500E+01    1.65607E+02
 6.00000E-01    8.77849E+01    2.90545E+01    1.46515E+02
 7.00000E-01    8.19080E+01    2.71094E+01    1.36707E+02
 8.00000E-01    7.26298E+01    3.79117E+01    1.07348E+02
 9.00000E-01    6.29396E+01    3.28535E+01    9.30257E+01
 1.00000E+00    5.33126E+01    3.59843E+01    7.06409E+01
 1.30000E+00    3.06398E+01    2.29485E+01    3.83311E+01
 1.60000E+00    1.66326E+01    1.30228E+01    2.02424E+01
 1.80000E+00    1.08002E+01    8.45620E+00    1.31442E+01
 2.00000E+00    6.90169E+00    5.49365E+00    8.30973E+00
 2.30000E+00    3.45509E+00    2.75021E+00    4.15998E+00
 2.50000E+00    2.16408E+00    1.75069E+00    2.57747E+00
 2.70000E+00    1.35282E+00    1.09440E+00    1.61124E+00
 3.00000E+00    6.90641E-01    5.65584E-01    8.15698E-01
 3.50000E+00    2.41542E-01    1.99025E-01    2.84059E-01
 4.00000E+00    1.00498E-01    8.28063E-02    1.18190E-01
 4.50000E+00    5.24661E-02    4.32300E-02    6.17022E-02
 5.00000E+00    3.42879E-02    2.72232E-02    4.13526E-02
 5.50000E+00    2.65674E-02    2.10934E-02    3.20414E-02
 6.00000E+00    2.26724E-02    1.72759E-02    2.80689E-02
 6.50000E+00    2.04658E-02    1.55946E-02    2.53370E-02
 7.00000E+00    1.89423E-02    1.42245E-02    2.36601E-02
 7.50000E+00    1.77900E-02    1.33592E-02    2.22208E-02
 8.00000E+00    1.68380E-02    1.26780E-02    2.09980E-02
 8.50000E+00    1.59425E-02    1.20038E-02    1.98812E-02
 9.00000E+00    1.51191E-02    1.15499E-02    1.86883E-02
 9.50000E+00    1.43198E-02    1.09393E-02    1.77003E-02
 1.00000E+01    1.35664E-02    1.04999E-02    1.66329E-02
 1.05000E+01    1.28494E-02    9.94500E-03    1.57538E-02
 1.10000E+01    1.21784E-02    9.42566E-03    1.49311E-02
 1.15000E+01    1.15648E-02    8.95076E-03    1.41788E-02
 1.20000E+01    1.09944E-02    8.64124E-03    1.33476E-02
 1.25000E+01    1.04693E-02    8.22853E-03    1.27101E-02
 1.30000E+01    9.98650E-03    7.84906E-03    1.21239E-02
 1.35000E+01    9.54472E-03    7.50184E-03    1.15876E-02
 1.40000E+01    9.13251E-03    7.25082E-03    1.10142E-02
 1.45000E+01    8.75958E-03    6.95473E-03    1.05644E-02
 1.50000E+01    8.44645E-03    6.74000E-03    1.01529E-02
 1.55000E+01    8.15195E-03    6.50500E-03    9.79890E-03
 1.60000E+01    7.87362E-03    6.32234E-03    9.42490E-03
 1.65000E+01    7.61140E-03    6.11178E-03    9.11102E-03
 1.70000E+01    7.36303E-03    5.91235E-03    8.81371E-03
 1.75000E+01    7.12828E-03    5.72385E-03    8.53271E-03
 1.80000E+01    6.90566E-03    5.59337E-03    8.21795E-03
 1.85000E+01    6.69451E-03    5.42235E-03    7.96667E-03
 1.95000E+01    6.30274E-03    5.10502E-03    7.50046E-03
 2.00000E+01    6.12071E-03    4.95759E-03    7.28384E-03
