# n + V  51 : (n,n'15)  
# jendl4.0   N.Iwamoto                         EVAL-Mar10
# uncertainties: n
# # energies =    60
#   E(MeV)       xs(mb) 
 3.37554E+00    0.00000E+00
 3.38573E+00    1.06488E+01
 3.43876E+00    1.67154E+01
 3.44460E+00    1.69940E+01
 3.44804E+00    1.71505E+01
 3.45019E+00    1.72470E+01
 3.45261E+00    1.73232E+01
 3.46224E+00    1.76174E+01
 3.47976E+00    1.80990E+01
 3.50000E+00    1.74787E+01
 3.51211E+00    1.75547E+01
 3.52248E+00    1.67059E+01
 3.58666E+00    1.68224E+01
 3.62518E+00    1.71746E+01
 3.63314E+00    1.72312E+01
 3.63885E+00    1.72535E+01
 3.64744E+00    1.72727E+01
 3.68561E+00    1.75599E+01
 3.69545E+00    1.76461E+01
 3.70391E+00    1.71828E+01
 3.70394E+00    1.71716E+01
 3.73563E+00    1.69437E+01
 3.74062E+00    1.69491E+01
 3.75062E+00    1.69741E+01
 3.75592E+00    1.69892E+01
 3.79641E+00    1.72566E+01
 3.81711E+00    1.74302E+01
 4.00000E+00    1.91294E+01
 4.50000E+00    2.01708E+01
 5.00000E+00    1.74188E+01
 5.50000E+00    1.36583E+01
 6.00000E+00    1.03303E+01
 6.50000E+00    7.80324E+00
 7.00000E+00    5.95924E+00
 7.50000E+00    4.61128E+00
 8.00000E+00    3.61154E+00
 8.50000E+00    2.87876E+00
 9.00000E+00    2.29176E+00
 9.50000E+00    1.83819E+00
 1.00000E+01    1.48483E+00
 1.05000E+01    1.20887E+00
 1.10000E+01    9.92728E-01
 1.15000E+01    8.24139E-01
 1.20000E+01    6.93504E-01
 1.25000E+01    5.91496E-01
 1.30000E+01    5.13057E-01
 1.35000E+01    4.51480E-01
 1.40000E+01    4.03571E-01
 1.45000E+01    3.64880E-01
 1.50000E+01    3.33845E-01
 1.55000E+01    3.08028E-01
 1.60000E+01    2.86095E-01
 1.65000E+01    2.67359E-01
 1.70000E+01    2.50679E-01
 1.75000E+01    2.36098E-01
 1.80000E+01    2.22797E-01
 1.85000E+01    2.10948E-01
 1.90000E+01    2.00080E-01
 1.95000E+01    1.90250E-01
 2.00000E+01    1.81176E-01
