# n + V  51 : (n,xa)    
# jendl4.0   N.Iwamoto                         EVAL-Mar10
# 
# # energies =   111
#   E(MeV)        xs(mb) 
 1.05000E-01    0.00000E+00
 1.10000E-01    0.00000E+00
 1.20000E-01    0.00000E+00
 1.30000E-01    0.00000E+00
 1.40000E-01    0.00000E+00
 1.50000E-01    0.00000E+00
 1.60000E-01    0.00000E+00
 1.70000E-01    0.00000E+00
 1.80000E-01    0.00000E+00
 1.90000E-01    0.00000E+00
 2.00000E-01    0.00000E+00
 2.25000E-01    0.00000E+00
 2.50000E-01    0.00000E+00
 2.75000E-01    0.00000E+00
 3.00000E-01    0.00000E+00
 3.26420E-01    0.00000E+00
 4.00000E-01    0.00000E+00
 5.00000E-01    0.00000E+00
 6.00000E-01    0.00000E+00
 7.00000E-01    0.00000E+00
 8.00000E-01    0.00000E+00
 9.00000E-01    0.00000E+00
 9.47047E-01    0.00000E+00
 1.00000E+00    0.00000E+00
 1.10000E+00    0.00000E+00
 1.20000E+00    0.00000E+00
 1.30000E+00    0.00000E+00
 1.40000E+00    0.00000E+00
 1.50000E+00    0.00000E+00
 1.60000E+00    0.00000E+00
 1.64109E+00    0.00000E+00
 1.70000E+00    0.00000E+00
 1.80000E+00    0.00000E+00
 1.84914E+00    0.00000E+00
 1.90000E+00    0.00000E+00
 2.00000E+00    0.00000E+00
 2.25000E+00    5.04027E-08
 2.45851E+00    1.41442E-07
 2.50000E+00    1.62280E-07
 2.59784E+00    2.52989E-07
 2.73044E+00    3.75924E-07
 2.75000E+00    3.94623E-07
 2.75307E+00    3.97581E-07
 2.84524E+00    4.86414E-07
 3.00000E+00    6.35570E-07
 3.14467E+00    7.75002E-07
 3.21237E+00    8.40250E-07
 3.27845E+00    9.06459E-07
 3.32866E+00    9.57328E-07
 3.34493E+00    9.73811E-07
 3.37554E+00    1.00482E-06
 3.38573E+00    1.01515E-06
 3.43876E+00    1.06887E-06
 3.44460E+00    1.07479E-06
 3.44804E+00    1.07827E-06
 3.45019E+00    1.08045E-06
 3.45261E+00    1.08290E-06
 3.46224E+00    1.09266E-06
 3.47976E+00    1.11041E-06
 3.50000E+00    1.13092E-06
 3.51211E+00    1.14319E-06
 3.52248E+00    1.15369E-06
 3.58666E+00    1.21871E-06
 3.62518E+00    1.25774E-06
 3.63314E+00    1.26580E-06
 3.63885E+00    1.27159E-06
 3.64744E+00    1.28029E-06
 3.64745E+00    1.28030E-06
 3.68561E+00    1.31896E-06
 3.69545E+00    1.32893E-06
 3.70391E+00    1.33750E-06
 3.70394E+00    1.33753E-06
 3.73563E+00    1.36964E-06
 3.74062E+00    1.37469E-06
 3.75062E+00    1.38483E-06
 3.75592E+00    1.39019E-06
 3.79641E+00    1.43122E-06
 3.81711E+00    1.45219E-06
 4.00000E+00    1.63748E-06
 4.50000E+00    2.14404E-06
 5.00000E+00    4.52179E-05
 5.50000E+00    7.24048E-04
 6.00000E+00    6.16728E-03
 6.50000E+00    3.30606E-02
 7.00000E+00    1.25078E-01
 7.50000E+00    3.60802E-01
 8.00000E+00    8.35081E-01
 8.50000E+00    1.61508E+00
 9.00000E+00    2.63865E+00
 9.50000E+00    3.79965E+00
 1.00000E+01    5.00529E+00
 1.05000E+01    6.04468E+00
 1.10000E+01    7.22759E+00
 1.15000E+01    8.48150E+00
 1.20000E+01    9.78745E+00
 1.25000E+01    1.11384E+01
 1.30000E+01    1.25626E+01
 1.35000E+01    1.40428E+01
 1.40000E+01    1.55992E+01
 1.45000E+01    1.72133E+01
 1.50000E+01    1.89059E+01
 1.55000E+01    2.06197E+01
 1.60000E+01    2.24310E+01
 1.65000E+01    2.42650E+01
 1.70000E+01    2.61702E+01
 1.75000E+01    2.81043E+01
 1.80000E+01    3.00975E+01
 1.85000E+01    3.21610E+01
 1.90000E+01    3.42985E+01
 1.95000E+01    3.65289E+01
 2.00000E+01    3.88007E+01
