# n + V  51 : (n,n'04)  
# jendl4.0   N.Iwamoto                         EVAL-Mar10
# uncertainties: n
# # energies =    77
#   E(MeV)       xs(mb) 
 1.84914E+00    0.00000E+00
 1.90000E+00    1.28018E+02
 2.00000E+00    1.53665E+02
 2.25000E+00    1.78026E+02
 2.45851E+00    1.99041E+02
 2.50000E+00    2.03495E+02
 2.59784E+00    2.14564E+02
 2.73044E+00    2.28569E+02
 2.75000E+00    2.30397E+02
 2.75307E+00    2.30707E+02
 2.84524E+00    2.38105E+02
 3.00000E+00    2.48204E+02
 3.14467E+00    2.54273E+02
 3.21237E+00    2.53599E+02
 3.27845E+00    2.53867E+02
 3.32866E+00    2.53678E+02
 3.34493E+00    2.52643E+02
 3.37554E+00    2.50333E+02
 3.38573E+00    2.49309E+02
 3.43876E+00    2.45618E+02
 3.44460E+00    2.45227E+02
 3.44804E+00    2.41587E+02
 3.45019E+00    2.40671E+02
 3.45261E+00    2.37255E+02
 3.46224E+00    2.31180E+02
 3.47976E+00    2.24508E+02
 3.50000E+00    2.18977E+02
 3.51211E+00    2.17315E+02
 3.52248E+00    2.15823E+02
 3.58666E+00    2.03403E+02
 3.62518E+00    1.95226E+02
 3.63314E+00    1.91718E+02
 3.63885E+00    1.90298E+02
 3.64744E+00    1.87396E+02
 3.68561E+00    1.82161E+02
 3.69545E+00    1.78922E+02
 3.70391E+00    1.77560E+02
 3.70394E+00    1.77554E+02
 3.73563E+00    1.73428E+02
 3.74062E+00    1.72912E+02
 3.75062E+00    1.71919E+02
 3.75592E+00    1.71380E+02
 3.79641E+00    1.67462E+02
 3.81711E+00    1.65415E+02
 4.00000E+00    1.47590E+02
 4.50000E+00    9.74821E+01
 5.00000E+00    6.74909E+01
 5.50000E+00    5.02687E+01
 6.00000E+00    3.95477E+01
 6.50000E+00    3.23721E+01
 7.00000E+00    2.73201E+01
 7.50000E+00    2.36317E+01
 8.00000E+00    2.08531E+01
 8.50000E+00    1.87399E+01
 9.00000E+00    1.70011E+01
 9.50000E+00    1.55891E+01
 1.00000E+01    1.44248E+01
 1.05000E+01    1.34600E+01
 1.10000E+01    1.26528E+01
 1.15000E+01    1.19822E+01
 1.20000E+01    1.14253E+01
 1.25000E+01    1.09535E+01
 1.30000E+01    1.05523E+01
 1.35000E+01    1.01958E+01
 1.40000E+01    9.87524E+00
 1.45000E+01    9.56958E+00
 1.50000E+01    9.27824E+00
 1.55000E+01    8.98926E+00
 1.60000E+01    8.70675E+00
 1.65000E+01    8.42762E+00
 1.70000E+01    8.15574E+00
 1.75000E+01    7.89221E+00
 1.80000E+01    7.63935E+00
 1.85000E+01    7.39868E+00
 1.90000E+01    7.17121E+00
 1.95000E+01    6.95838E+00
 2.00000E+01    6.75838E+00
