# n + V  51 : (n,xn)    
# jendl4.0   N.Iwamoto                         EVAL-Mar10
# 
# # energies =   111
#   E(MeV)        xs(mb) 
 1.05000E-01    0.00000E+00
 1.10000E-01    6.79830E-07
 1.20000E-01    7.89130E-07
 1.30000E-01    8.00020E-07
 1.40000E-01    8.26650E-07
 1.50000E-01    8.25240E-07
 1.60000E-01    8.22060E-07
 1.70000E-01    8.04790E-07
 1.80000E-01    7.80420E-07
 1.90000E-01    7.50790E-07
 2.00000E-01    7.18170E-07
 2.25000E-01    8.16332E-06
 2.50000E-01    8.96815E-06
 2.75000E-01    9.00062E-06
 3.00000E-01    8.60688E-06
 3.26420E-01    3.47767E-05
 4.00000E-01    2.67519E+02
 5.00000E-01    2.86018E+02
 6.00000E-01    3.02537E+02
 7.00000E-01    3.23448E+02
 8.00000E-01    3.48325E+02
 9.00000E-01    3.75482E+02
 9.47047E-01    3.88427E+02
 1.00000E+00    4.33926E+02
 1.10000E+00    4.69357E+02
 1.20000E+00    5.01697E+02
 1.30000E+00    5.29630E+02
 1.40000E+00    5.55888E+02
 1.50000E+00    5.80080E+02
 1.60000E+00    5.98023E+02
 1.64109E+00    6.04440E+02
 1.70000E+00    7.56725E+02
 1.80000E+00    7.93078E+02
 1.84914E+00    8.04066E+02
 1.90000E+00    8.93818E+02
 2.00000E+00    9.23495E+02
 2.25000E+00    9.59578E+02
 2.45851E+00    9.77249E+02
 2.50000E+00    9.85335E+02
 2.59784E+00    9.94497E+02
 2.73044E+00    1.00309E+03
 2.75000E+00    1.00641E+03
 2.75307E+00    1.00665E+03
 2.84524E+00    1.01235E+03
 3.00000E+00    1.04121E+03
 3.14467E+00    1.04841E+03
 3.21237E+00    1.05715E+03
 3.27845E+00    1.06147E+03
 3.32866E+00    1.06431E+03
 3.34493E+00    1.06793E+03
 3.37554E+00    1.07308E+03
 3.38573E+00    1.07698E+03
 3.43876E+00    1.08347E+03
 3.44460E+00    1.08422E+03
 3.44804E+00    1.08945E+03
 3.45019E+00    1.09099E+03
 3.45261E+00    1.09836E+03
 3.46224E+00    1.10828E+03
 3.47976E+00    1.11780E+03
 3.50000E+00    1.12858E+03
 3.51211E+00    1.13159E+03
 3.52248E+00    1.13537E+03
 3.58666E+00    1.15400E+03
 3.62518E+00    1.16476E+03
 3.63314E+00    1.16946E+03
 3.63885E+00    1.17186E+03
 3.64744E+00    1.17655E+03
 3.64745E+00    1.17655E+03
 3.68561E+00    1.18379E+03
 3.69545E+00    1.18794E+03
 3.70391E+00    1.19022E+03
 3.70394E+00    1.19024E+03
 3.73563E+00    1.19607E+03
 3.74062E+00    1.19681E+03
 3.75062E+00    1.19816E+03
 3.75592E+00    1.19892E+03
 3.79641E+00    1.20338E+03
 3.81711E+00    1.20557E+03
 4.00000E+00    1.21490E+03
 4.50000E+00    1.25609E+03
 5.00000E+00    1.27704E+03
 5.50000E+00    1.29072E+03
 6.00000E+00    1.30114E+03
 6.50000E+00    1.30773E+03
 7.00000E+00    1.30956E+03
 7.50000E+00    1.30701E+03
 8.00000E+00    1.30146E+03
 8.50000E+00    1.29616E+03
 9.00000E+00    1.28893E+03
 9.50000E+00    1.28203E+03
 1.00000E+01    1.27701E+03
 1.05000E+01    1.27396E+03
 1.10000E+01    1.27046E+03
 1.15000E+01    1.28456E+03
 1.20000E+01    1.36090E+03
 1.25000E+01    1.46883E+03
 1.30000E+01    1.58825E+03
 1.35000E+01    1.70541E+03
 1.40000E+01    1.80195E+03
 1.45000E+01    1.87070E+03
 1.50000E+01    1.91821E+03
 1.55000E+01    1.94803E+03
 1.60000E+01    1.96365E+03
 1.65000E+01    1.97083E+03
 1.70000E+01    1.97133E+03
 1.75000E+01    1.96966E+03
 1.80000E+01    1.96249E+03
 1.85000E+01    1.95693E+03
 1.90000E+01    1.94781E+03
 1.95000E+01    1.93980E+03
 2.00000E+01    1.92982E+03
