# n + V  51 : (n,tot)   
# jendl4.0   N.Iwamoto                         EVAL-Mar10
# uncertainties: n
# # energies =   171
#   E(MeV)       xs(mb) 
 1.00000E-11    6.39159E+04
 1.00000E-07    6.69583E+03
 4.13990E-07    6.06412E+03
 5.31580E-07    5.92936E+03
 6.82560E-07    5.81060E+03
 8.76420E-07    5.70596E+03
 1.12540E-06    5.61447E+03
 1.44500E-06    5.53439E+03
 1.85540E-06    5.46409E+03
 2.37240E-06    5.40212E+03
 3.05900E-06    5.34527E+03
 3.92790E-06    5.29600E+03
 5.04350E-06    5.25506E+03
 6.47600E-06    5.21609E+03
 8.31530E-06    5.18528E+03
 1.06770E-05    5.15650E+03
 1.37100E-05    5.13398E+03
 1.76030E-05    5.11286E+03
 2.26030E-05    5.09897E+03
 2.92030E-05    5.08402E+03
 3.72670E-05    5.07816E+03
 4.78510E-05    5.07256E+03
 6.14420E-05    5.07470E+03
 7.88930E-05    5.08278E+03
 1.01300E-04    5.09317E+03
 1.30070E-04    5.11430E+03
 1.67020E-04    5.14799E+03
 2.14450E-04    5.19125E+03
 2.75360E-04    5.25389E+03
 3.53580E-04    5.34447E+03
 4.54000E-04    5.46696E+03
 5.82950E-04    5.64482E+03
 7.48520E-04    5.90329E+03
 9.61120E-04    6.29472E+03
 1.23410E-03    6.91653E+03
 1.58460E-03    8.01322E+03
 2.03470E-03    9.32904E+03
 2.24870E-03    1.05813E+04
 2.48520E-03    1.19298E+04
 2.61260E-03    1.31877E+04
 2.74650E-03    1.61217E+04
 3.03540E-03    2.40264E+04
 3.35460E-03    4.92740E+04
 3.70740E-03    2.45921E+05
 4.30740E-03    1.29881E+05
 5.53080E-03    1.26359E+05
 7.10170E-03    3.37444E+04
 9.11880E-03    6.90981E+04
 1.17090E-02    7.62473E+04
 1.50340E-02    4.18576E+04
 1.93050E-02    1.67707E+04
 2.18750E-02    2.89140E+04
 2.35790E-02    1.76783E+04
 2.41760E-02    1.55676E+04
 2.47880E-02    1.31688E+04
 2.60580E-02    1.10956E+04
 2.70000E-02    9.25474E+03
 2.85000E-02    1.07945E+04
 3.18280E-02    5.97707E+03
 3.43070E-02    5.82511E+03
 4.08680E-02    3.60400E+03
 4.63090E-02    4.85022E+03
 5.24750E-02    7.66267E+03
 5.65620E-02    9.21856E+03
 6.73790E-02    2.24434E+04
 7.20000E-02    6.10856E+03
 7.95000E-02    5.45173E+03
 8.25000E-02    7.00275E+03
 8.65170E-02    7.20442E+03
 9.80370E-02    2.41538E+03
 1.11090E-01    8.99141E+03
 1.16790E-01    1.27945E+04
 1.22770E-01    1.06999E+04
 1.29070E-01    5.14373E+03
 1.35690E-01    9.69927E+03
 1.42640E-01    3.74027E+03
 1.49960E-01    5.09585E+03
 1.57640E-01    9.27100E+03
 1.65730E-01    7.05667E+03
 1.74220E-01    7.83809E+03
 1.83160E-01    9.98139E+03
 1.92550E-01    6.21228E+03
 2.02420E-01    8.23277E+03
 2.12800E-01    3.91146E+03
 2.23710E-01    4.47062E+03
 2.35180E-01    7.36281E+03
 2.47240E-01    3.72113E+03
 2.73240E-01    5.45628E+03
 2.87250E-01    5.13964E+03
 2.94520E-01    6.26207E+03
 2.97200E-01    6.20381E+03
 2.98500E-01    7.68925E+03
 3.01970E-01    5.22622E+03
 3.33730E-01    4.47881E+03
 3.68830E-01    3.46768E+03
 3.87740E-01    4.33782E+03
 4.07620E-01    3.78075E+03
 4.50490E-01    4.04566E+03
 4.97870E-01    3.46911E+03
 5.23400E-01    2.75028E+03
 5.50230E-01    2.81888E+03
 5.78440E-01    3.56101E+03
 6.08100E-01    3.25670E+03
 6.39280E-01    3.60315E+03
 6.72060E-01    3.59914E+03
 7.06510E-01    3.40489E+03
 7.42740E-01    2.64659E+03
 7.80820E-01    2.98291E+03
 8.20850E-01    2.72658E+03
 8.62940E-01    3.96052E+03
 9.07180E-01    3.49595E+03
 9.61640E-01    3.38842E+03
 1.00260E+00    3.14523E+03
 1.10800E+00    3.74574E+03
 1.16480E+00    3.47860E+03
 1.22460E+00    3.38250E+03
 1.28730E+00    3.61368E+03
 1.35340E+00    3.27237E+03
 1.42270E+00    3.67302E+03
 1.49570E+00    3.28752E+03
 1.57240E+00    3.86579E+03
 1.65300E+00    3.64126E+03
 1.73770E+00    3.79151E+03
 1.82680E+00    3.81500E+03
 1.92050E+00    3.73145E+03
 2.01900E+00    3.76456E+03
 2.12250E+00    3.89758E+03
 2.23130E+00    3.91582E+03
 2.30690E+00    3.71190E+03
 2.34570E+00    3.54796E+03
 2.36530E+00    4.00563E+03
 2.38520E+00    3.85551E+03
 2.46600E+00    4.02975E+03
 2.59240E+00    4.00516E+03
 2.72530E+00    3.97666E+03
 2.86500E+00    3.89151E+03
 3.01190E+00    3.90266E+03
 3.16640E+00    3.96134E+03
 3.32870E+00    3.89435E+03
 3.67880E+00    3.85846E+03
 4.06570E+00    3.83420E+03
 4.49330E+00    3.79769E+03
 4.72370E+00    3.76358E+03
 4.96590E+00    3.65639E+03
 5.22050E+00    3.60965E+03
 5.48810E+00    3.56977E+03
 5.76950E+00    3.52785E+03
 6.06530E+00    3.48377E+03
 6.37630E+00    3.44403E+03
 6.59240E+00    3.41653E+03
 6.70320E+00    3.37834E+03
 7.04690E+00    3.31878E+03
 7.40820E+00    3.25551E+03
 7.78800E+00    3.18669E+03
 8.18730E+00    3.11414E+03
 8.60710E+00    3.03787E+03
 9.04840E+00    2.95932E+03
 9.51230E+00    2.88354E+03
 1.00000E+01    2.80945E+03
 1.05130E+01    2.73762E+03
 1.10520E+01    2.66910E+03
 1.16180E+01    2.60240E+03
 1.22140E+01    2.53887E+03
 1.28400E+01    2.47607E+03
 1.34990E+01    2.43068E+03
 1.38400E+01    2.40015E+03
 1.41910E+01    2.37161E+03
 1.45500E+01    2.34277E+03
 1.49180E+01    2.30175E+03
 1.56830E+01    2.25069E+03
 1.64870E+01    2.20588E+03
