# n + Eu154 : (n,xp)    
# jendl.ad   N.Iwamoto                         EVAL-Apr14
# 
# # energies =   118
#   E(MeV)        xs(mb) 
 6.86167E-02    1.40920E-08
 7.00000E-02    1.40530E-08
 7.23832E-02    1.42193E-08
 8.00000E-02    1.47640E-08
 8.11845E-02    1.48710E-08
 8.22152E-02    1.47261E-08
 8.22153E-02    1.47261E-08
 8.33627E-02    1.46370E-08
 9.00000E-02    1.48340E-08
 1.00000E-01    1.56357E-08
 1.00603E-01    1.56840E-08
 1.00825E-01    1.56741E-08
 1.01048E-01    1.56641E-08
 1.01522E-01    1.56430E-08
 1.10000E-01    1.61750E-08
 1.20000E-01    1.70995E-08
 1.23361E-01    1.74240E-08
 1.28265E-01    1.71390E-08
 1.30000E-01    1.72041E-08
 1.30530E-01    1.72240E-08
 1.35664E-01    1.71780E-08
 1.37593E-01    1.72626E-08
 1.40000E-01    1.73813E-08
 1.46252E-01    1.78270E-08
 1.50000E-01    1.81698E-08
 1.54606E-01    1.85910E-08
 1.54607E-01    1.85911E-08
 1.60000E-01    1.91680E-08
 1.63494E-01    1.95897E-08
 1.70000E-01    2.03750E-08
 1.74740E-01    2.10300E-08
 1.76632E-01    2.07100E-08
 1.80000E-01    2.08740E-08
 1.81928E-01    2.10393E-08
 1.81994E-01    2.10450E-08
 1.86264E-01    2.09780E-08
 1.90000E-01    2.11400E-08
 1.93554E-01    2.14590E-08
 1.97406E-01    2.18821E-08
 2.00000E-01    2.21670E-08
 2.05153E-01    2.28382E-08
 2.15478E-01    2.41830E-08
 2.20918E-01    2.43161E-08
 2.25000E-01    2.44160E-08
 2.31301E-01    2.51625E-08
 2.32394E-01    2.52920E-08
 2.36821E-01    2.56704E-08
 2.40857E-01    2.60153E-08
 2.50000E-01    2.67220E-08
 2.51053E-01    2.68545E-08
 2.51054E-01    2.68546E-08
 2.53475E-01    2.71593E-08
 2.56882E-01    2.75880E-08
 2.59882E-01    2.80630E-08
 2.74639E-01    3.09494E-08
 2.75000E-01    3.10200E-08
 2.78513E-01    3.17943E-08
 2.80373E-01    3.22043E-08
 2.80866E-01    3.23130E-08
 2.80867E-01    3.23132E-08
 2.81210E-01    3.23662E-08
 2.83525E-01    3.27240E-08
 3.00000E-01    3.64820E-08
 4.00000E-01    7.01240E-08
 5.00000E-01    1.31590E-07
 6.00000E-01    2.45450E-07
 7.00000E-01    4.53772E-07
 8.00000E-01    8.18534E-07
 9.00000E-01    1.42836E-06
 1.00000E+00    2.40870E-06
 1.10000E+00    3.93089E-06
 1.20000E+00    6.21617E-06
 1.30000E+00    9.54298E-06
 1.40000E+00    1.42141E-05
 1.50000E+00    2.06241E-05
 1.60000E+00    2.92120E-05
 1.70000E+00    4.04065E-05
 1.80000E+00    5.47362E-05
 1.90000E+00    7.27458E-05
 2.00000E+00    9.49389E-05
 2.25000E+00    1.74184E-04
 2.50000E+00    2.87731E-04
 2.75000E+00    4.49249E-04
 3.00000E+00    6.48503E-04
 3.50000E+00    1.18739E-03
 4.00000E+00    1.85706E-03
 4.50000E+00    2.65122E-03
 5.00000E+00    3.71539E-03
 5.50000E+00    5.61690E-03
 6.00000E+00    9.96923E-03
 6.50000E+00    2.03899E-02
 7.00000E+00    4.35992E-02
 7.50000E+00    9.06200E-02
 8.00000E+00    1.78065E-01
 8.50000E+00    3.27285E-01
 9.00000E+00    5.64643E-01
 9.50000E+00    9.17791E-01
 1.00000E+01    1.41274E+00
 1.05000E+01    2.07207E+00
 1.10000E+01    2.91076E+00
 1.15000E+01    3.93861E+00
 1.20000E+01    5.15902E+00
 1.25000E+01    6.57009E+00
 1.30000E+01    8.16567E+00
 1.35000E+01    9.93787E+00
 1.40000E+01    1.18777E+01
 1.45000E+01    1.39771E+01
 1.50000E+01    1.62295E+01
 1.55000E+01    1.86314E+01
 1.60000E+01    2.11745E+01
 1.65000E+01    2.38631E+01
 1.70000E+01    2.66816E+01
 1.75000E+01    2.96250E+01
 1.80000E+01    3.26789E+01
 1.85000E+01    3.58298E+01
 1.90000E+01    3.90582E+01
 1.95000E+01    4.23536E+01
 2.00000E+01    4.56983E+01
