# n + Eu154 : (n,xn)    
# jendl.ad   N.Iwamoto                         EVAL-Apr14
# 
# # energies =   118
#   E(MeV)        xs(mb) 
 6.86167E-02    0.00000E+00
 7.00000E-02    4.62608E+01
 7.23832E-02    6.84469E+01
 8.00000E-02    1.26428E+02
 8.11845E-02    1.32344E+02
 8.22152E-02    2.15551E+02
 8.22153E-02    2.15554E+02
 8.33627E-02    2.50767E+02
 9.00000E-02    3.54373E+02
 1.00000E-01    4.43085E+02
 1.00603E-01    4.47446E+02
 1.00825E-01    4.65676E+02
 1.01048E-01    4.83991E+02
 1.01522E-01    4.99980E+02
 1.10000E-01    7.24275E+02
 1.20000E-01    8.44081E+02
 1.23361E-01    8.76996E+02
 1.28265E-01    9.87389E+02
 1.30000E-01    1.04154E+03
 1.30530E-01    1.05145E+03
 1.35664E-01    1.19095E+03
 1.37593E-01    1.22441E+03
 1.40000E-01    1.27169E+03
 1.46252E-01    1.35099E+03
 1.50000E-01    1.38884E+03
 1.54606E-01    1.42934E+03
 1.54607E-01    1.42935E+03
 1.60000E-01    1.47541E+03
 1.63494E-01    1.50169E+03
 1.70000E-01    1.54495E+03
 1.74740E-01    1.57242E+03
 1.76632E-01    1.62153E+03
 1.80000E-01    1.66304E+03
 1.81928E-01    1.68044E+03
 1.81994E-01    1.68158E+03
 1.86264E-01    1.73832E+03
 1.90000E-01    1.77940E+03
 1.93554E-01    1.80675E+03
 1.97406E-01    1.83882E+03
 2.00000E-01    1.85568E+03
 2.05153E-01    1.88405E+03
 2.15478E-01    1.95324E+03
 2.20918E-01    2.00692E+03
 2.25000E-01    2.03940E+03
 2.31301E-01    2.07089E+03
 2.32394E-01    2.07664E+03
 2.36821E-01    2.10743E+03
 2.40857E-01    2.13584E+03
 2.50000E-01    2.19306E+03
 2.51053E-01    2.19720E+03
 2.51054E-01    2.19720E+03
 2.53475E-01    2.21142E+03
 2.56882E-01    2.23409E+03
 2.59882E-01    2.25084E+03
 2.74639E-01    2.30386E+03
 2.75000E-01    2.30531E+03
 2.78513E-01    2.31570E+03
 2.80373E-01    2.32068E+03
 2.80866E-01    2.32295E+03
 2.80867E-01    2.32295E+03
 2.81210E-01    2.32412E+03
 2.83525E-01    2.33516E+03
 3.00000E-01    2.38504E+03
 4.00000E-01    2.54370E+03
 5.00000E-01    2.67872E+03
 6.00000E-01    2.73460E+03
 7.00000E-01    2.78908E+03
 8.00000E-01    2.83606E+03
 9.00000E-01    2.86747E+03
 1.00000E+00    2.88845E+03
 1.10000E+00    2.91029E+03
 1.20000E+00    2.92595E+03
 1.30000E+00    2.93651E+03
 1.40000E+00    2.94316E+03
 1.50000E+00    2.94692E+03
 1.60000E+00    2.94877E+03
 1.70000E+00    2.94941E+03
 1.80000E+00    2.94945E+03
 1.90000E+00    2.94928E+03
 2.00000E+00    2.94927E+03
 2.25000E+00    2.95066E+03
 2.50000E+00    2.95659E+03
 2.75000E+00    2.96287E+03
 3.00000E+00    2.96772E+03
 3.50000E+00    2.95880E+03
 4.00000E+00    2.92372E+03
 4.50000E+00    2.87352E+03
 5.00000E+00    2.82659E+03
 5.50000E+00    2.78821E+03
 6.00000E+00    2.75734E+03
 6.50000E+00    2.73984E+03
 7.00000E+00    2.88043E+03
 7.50000E+00    3.26359E+03
 8.00000E+00    3.63313E+03
 8.50000E+00    3.90210E+03
 9.00000E+00    4.07601E+03
 9.50000E+00    4.18807E+03
 1.00000E+01    4.26141E+03
 1.05000E+01    4.31183E+03
 1.10000E+01    4.34628E+03
 1.15000E+01    4.36949E+03
 1.20000E+01    4.38457E+03
 1.25000E+01    4.39275E+03
 1.30000E+01    4.39453E+03
 1.35000E+01    4.39076E+03
 1.40000E+01    4.38221E+03
 1.45000E+01    4.36908E+03
 1.50000E+01    4.35497E+03
 1.55000E+01    4.34091E+03
 1.60000E+01    4.34414E+03
 1.65000E+01    4.39367E+03
 1.70000E+01    4.49920E+03
 1.75000E+01    4.64837E+03
 1.80000E+01    4.81898E+03
 1.85000E+01    4.97245E+03
 1.90000E+01    5.11382E+03
 1.95000E+01    5.23345E+03
 2.00000E+01    5.33053E+03
