# n + Eu154 : (n,d)     
# jendl.ad   N.Iwamoto                         EVAL-Apr14
# uncertainties: n
# # energies =    65
#   E(MeV)       xs(mb) 
 4.27074E+00    0.00000E+00
 4.27832E+00    3.40970E-22
 4.30682E+00    2.98900E-21
 4.32462E+00    4.91040E-21
 4.33664E+00    6.36250E-21
 4.36221E+00    9.67020E-21
 4.36975E+00    1.06710E-20
 4.38444E+00    1.26580E-20
 4.39798E+00    1.45130E-20
 4.39887E+00    1.46350E-20
 4.44605E+00    2.11500E-20
 4.45484E+00    2.23660E-20
 4.46088E+00    2.32020E-20
 4.46667E+00    2.40040E-20
 4.46813E+00    2.42060E-20
 4.50929E+00    2.99120E-20
 4.51775E+00    2.10630E-19
 4.53479E+00    7.84670E-19
 4.53841E+00    9.50470E-19
 4.53949E+00    1.01200E-18
 4.54927E+00    1.67370E-18
 4.59396E+00    4.95820E-18
 4.62976E+00    7.66300E-18
 4.63540E+00    8.09550E-18
 4.64216E+00    8.62070E-18
 4.67752E+00    1.14310E-17
 4.67887E+00    1.15380E-17
 4.68524E+00    1.20470E-17
 4.68838E+00    1.22980E-17
 4.69128E+00    1.25300E-17
 4.69149E+00    1.25470E-17
 4.69863E+00    1.31210E-17
 4.72067E+00    1.48950E-17
 4.72072E+00    1.48990E-17
 4.72374E+00    1.51430E-17
 5.50000E+00    7.78950E-17
 6.00000E+00    1.14800E-14
 6.50000E+00    9.25230E-12
 7.00000E+00    7.54480E-10
 7.50000E+00    1.61560E-08
 8.00000E+00    1.69780E-07
 8.50000E+00    1.65912E-06
 9.00000E+00    1.39903E-05
 9.50000E+00    1.20361E-04
 1.00000E+01    7.37847E-04
 1.05000E+01    3.33111E-03
 1.10000E+01    1.17223E-02
 1.15000E+01    3.36827E-02
 1.20000E+01    8.17008E-02
 1.25000E+01    1.59618E-01
 1.30000E+01    2.99138E-01
 1.35000E+01    5.04071E-01
 1.40000E+01    7.77999E-01
 1.45000E+01    1.11848E+00
 1.50000E+01    1.51908E+00
 1.55000E+01    1.99869E+00
 1.60000E+01    2.47908E+00
 1.65000E+01    3.01847E+00
 1.70000E+01    3.51351E+00
 1.75000E+01    4.02934E+00
 1.80000E+01    4.64461E+00
 1.85000E+01    5.07550E+00
 1.90000E+01    5.58347E+00
 1.95000E+01    6.07309E+00
 2.00000E+01    6.41817E+00
