# n + Lu174 : (n,n'24)  
# jeff3.3    A.J. Koning and D. Rochman        EVAL-DEC15
# uncertainties: n
# # energies =    77
#   E(MeV)       xs(mb) 
 4.94199E-01    0.00000E+00
 5.00000E-01    3.96865E-06
 5.08934E-01    1.86455E-04
 5.10694E-01    2.22405E-04
 5.18992E-01    3.91900E-04
 5.25449E-01    5.23790E-04
 5.28044E-01    5.76795E-04
 5.30056E-01    6.17893E-04
 6.00000E-01    2.04657E-03
 7.00000E-01    8.59993E-03
 8.00000E-01    1.79699E-02
 9.00000E-01    2.82908E-02
 1.00000E+00    3.85382E-02
 1.20000E+00    5.73921E-02
 1.40000E+00    7.31548E-02
 1.60000E+00    8.54473E-02
 1.80000E+00    9.36381E-02
 2.00000E+00    9.70230E-02
 2.20000E+00    9.55756E-02
 2.40000E+00    9.01628E-02
 2.60000E+00    8.20647E-02
 2.80000E+00    7.25344E-02
 3.00000E+00    6.26893E-02
 3.20000E+00    5.32435E-02
 3.40000E+00    4.46697E-02
 3.60000E+00    3.71413E-02
 3.80000E+00    3.07319E-02
 4.00000E+00    2.53845E-02
 4.20000E+00    2.09246E-02
 4.40000E+00    1.72031E-02
 4.60000E+00    1.40860E-02
 4.80000E+00    1.14610E-02
 5.00000E+00    9.27427E-03
 5.20000E+00    7.41956E-03
 5.40000E+00    5.88511E-03
 5.60000E+00    4.62801E-03
 5.80000E+00    3.57275E-03
 6.00000E+00    2.75251E-03
 6.20000E+00    2.10041E-03
 6.40000E+00    1.59446E-03
 6.60000E+00    1.20683E-03
 6.80000E+00    9.10065E-04
 7.00000E+00    6.85907E-04
 7.20000E+00    5.16134E-04
 7.40000E+00    3.88224E-04
 7.60000E+00    2.92333E-04
 7.80000E+00    2.20300E-04
 8.00000E+00    1.66481E-04
 8.50000E+00    8.35514E-05
 9.00000E+00    4.27651E-05
 9.50000E+00    2.23254E-05
 1.00000E+01    1.18641E-05
 1.05000E+01    6.39095E-06
 1.10000E+01    3.47850E-06
 1.15000E+01    1.90766E-06
 1.20000E+01    1.05301E-06
 1.25000E+01    5.85330E-07
 1.30000E+01    3.27530E-07
 1.35000E+01    1.84590E-07
 1.40000E+01    1.04810E-07
 1.45000E+01    5.99940E-08
 1.50000E+01    3.46320E-08
 1.60000E+01    1.18540E-08
 1.70000E+01    4.18510E-09
 1.80000E+01    1.50830E-09
 1.90000E+01    5.59210E-10
 2.00000E+01    2.11770E-10
 2.10000E+01    8.16350E-11
 2.20000E+01    3.20130E-11
 2.30000E+01    1.27800E-11
 2.40000E+01    5.18000E-12
 2.50000E+01    2.13790E-12
 2.60000E+01    8.97820E-13
 2.70000E+01    3.83340E-13
 2.80000E+01    1.66250E-13
 2.90000E+01    7.30880E-14
 3.00000E+01    3.25330E-14
