# n + Lu174 : (n,n'19)  
# jeff3.3    A.J. Koning and D. Rochman        EVAL-DEC15
# uncertainties: n
# # energies =    82
#   E(MeV)       xs(mb) 
 4.44578E-01    0.00000E+00
 4.48014E-01    1.84985E-02
 4.56452E-01    6.39265E-02
 4.59147E-01    7.84356E-02
 4.83792E-01    2.11118E-01
 4.94199E-01    2.67146E-01
 5.00000E-01    2.98377E-01
 5.08934E-01    4.27563E-01
 5.10694E-01    4.53013E-01
 5.18992E-01    5.73002E-01
 5.25449E-01    6.66370E-01
 5.28044E-01    7.03894E-01
 5.30056E-01    7.32988E-01
 6.00000E-01    1.74438E+00
 7.00000E-01    3.01293E+00
 8.00000E-01    3.61465E+00
 9.00000E-01    3.71557E+00
 1.00000E+00    3.56302E+00
 1.20000E+00    3.04058E+00
 1.40000E+00    2.51489E+00
 1.60000E+00    2.05949E+00
 1.80000E+00    1.67298E+00
 2.00000E+00    1.34524E+00
 2.20000E+00    1.06923E+00
 2.40000E+00    8.40379E-01
 2.60000E+00    6.53527E-01
 2.80000E+00    5.02950E-01
 3.00000E+00    3.83693E-01
 3.20000E+00    2.90397E-01
 3.40000E+00    2.18528E-01
 3.60000E+00    1.63773E-01
 3.80000E+00    1.22675E-01
 4.00000E+00    9.21616E-02
 4.20000E+00    6.94770E-02
 4.40000E+00    5.25719E-02
 4.60000E+00    3.99047E-02
 4.80000E+00    3.03351E-02
 5.00000E+00    2.31064E-02
 5.20000E+00    1.75478E-02
 5.40000E+00    1.33065E-02
 5.60000E+00    1.00604E-02
 5.80000E+00    7.52063E-03
 6.00000E+00    5.63441E-03
 6.20000E+00    4.19975E-03
 6.40000E+00    3.12583E-03
 6.60000E+00    2.32536E-03
 6.80000E+00    1.72759E-03
 7.00000E+00    1.28493E-03
 7.20000E+00    9.55206E-04
 7.40000E+00    7.10349E-04
 7.60000E+00    5.29186E-04
 7.80000E+00    3.94531E-04
 8.00000E+00    2.95001E-04
 8.50000E+00    1.44062E-04
 9.00000E+00    7.16212E-05
 9.50000E+00    3.62629E-05
 1.00000E+01    1.86830E-05
 1.05000E+01    9.76583E-06
 1.10000E+01    5.16715E-06
 1.15000E+01    2.76093E-06
 1.20000E+01    1.48826E-06
 1.25000E+01    8.09520E-07
 1.30000E+01    4.44030E-07
 1.35000E+01    2.45610E-07
 1.40000E+01    1.37020E-07
 1.45000E+01    7.71080E-08
 1.50000E+01    4.37830E-08
 1.60000E+01    1.45170E-08
 1.70000E+01    4.97300E-09
 1.80000E+01    1.74260E-09
 1.90000E+01    6.29790E-10
 2.00000E+01    2.33200E-10
 2.10000E+01    8.81910E-11
 2.20000E+01    3.40280E-11
 2.30000E+01    1.33960E-11
 2.40000E+01    5.36270E-12
 2.50000E+01    2.18790E-12
 2.60000E+01    9.08870E-13
 2.70000E+01    3.84080E-13
 2.80000E+01    1.64970E-13
 2.90000E+01    7.18920E-14
 3.00000E+01    3.17490E-14
