# n + Lu174 : (n,n'17)  
# jeff3.3    A.J. Koning and D. Rochman        EVAL-DEC15
# uncertainties: n
# # energies =    84
#   E(MeV)       xs(mb) 
 4.33912E-01    0.00000E+00
 4.35390E-01    1.45335E-04
 4.44578E-01    1.04882E-03
 4.48014E-01    1.38669E-03
 4.56452E-01    2.21643E-03
 4.59147E-01    2.48143E-03
 4.83792E-01    4.90485E-03
 4.94199E-01    5.92820E-03
 5.00000E-01    6.49863E-03
 5.08934E-01    9.54885E-03
 5.10694E-01    1.01497E-02
 5.18992E-01    1.29828E-02
 5.25449E-01    1.51873E-02
 5.28044E-01    1.60733E-02
 5.30056E-01    1.67602E-02
 6.00000E-01    4.06402E-02
 7.00000E-01    8.83700E-02
 8.00000E-01    1.37064E-01
 9.00000E-01    1.81433E-01
 1.00000E+00    2.20265E-01
 1.20000E+00    2.82909E-01
 1.40000E+00    3.26679E-01
 1.60000E+00    3.52483E-01
 1.80000E+00    3.60687E-01
 2.00000E+00    3.52042E-01
 2.20000E+00    3.29015E-01
 2.40000E+00    2.95874E-01
 2.60000E+00    2.57274E-01
 2.80000E+00    2.17245E-01
 3.00000E+00    1.79105E-01
 3.20000E+00    1.44745E-01
 3.40000E+00    1.15201E-01
 3.60000E+00    9.05880E-02
 3.80000E+00    7.06951E-02
 4.00000E+00    5.49622E-02
 4.20000E+00    4.25923E-02
 4.40000E+00    3.29118E-02
 4.60000E+00    2.53482E-02
 4.80000E+00    1.94390E-02
 5.00000E+00    1.48630E-02
 5.20000E+00    1.12883E-02
 5.40000E+00    8.53862E-03
 5.60000E+00    6.42995E-03
 5.80000E+00    4.78691E-03
 6.00000E+00    3.57267E-03
 6.20000E+00    2.65679E-03
 6.40000E+00    1.97579E-03
 6.60000E+00    1.47145E-03
 6.80000E+00    1.09673E-03
 7.00000E+00    8.19996E-04
 7.20000E+00    6.14096E-04
 7.40000E+00    4.60915E-04
 7.60000E+00    3.47164E-04
 7.80000E+00    2.62083E-04
 8.00000E+00    1.98688E-04
 8.50000E+00    1.00813E-04
 9.00000E+00    5.21932E-05
 9.50000E+00    2.74900E-05
 1.00000E+01    1.46843E-05
 1.05000E+01    7.92267E-06
 1.10000E+01    4.30626E-06
 1.15000E+01    2.35305E-06
 1.20000E+01    1.29198E-06
 1.25000E+01    7.13480E-07
 1.30000E+01    3.96280E-07
 1.35000E+01    2.21520E-07
 1.40000E+01    1.24710E-07
 1.45000E+01    7.07520E-08
 1.50000E+01    4.04720E-08
 1.60000E+01    1.36010E-08
 1.70000E+01    4.71800E-09
 1.80000E+01    1.67330E-09
 1.90000E+01    6.11670E-10
 2.00000E+01    2.28760E-10
 2.10000E+01    8.72180E-11
 2.20000E+01    3.38700E-11
 2.30000E+01    1.34070E-11
 2.40000E+01    5.39340E-12
 2.50000E+01    2.21110E-12
 2.60000E+01    9.22840E-13
 2.70000E+01    3.91730E-13
 2.80000E+01    1.68940E-13
 2.90000E+01    7.38820E-14
 3.00000E+01    3.27290E-14
