# n + Am243 : (n,n'08)  
# jendl4.0   O.Iwamoto,T.Nakagawa,T.Ohsawa,+   EVAL-JAN10
# uncertainties: y
# # energies =    52
#   E(MeV)       xs(mb)       xslow(mb)      xsupp(mb)
 2.38988E-01    0.00000E+00    0.00000E+00    0.00000E+00
 2.45013E-01    2.67944E-02    1.52728E-02    3.83160E-02
 2.67104E-01    2.63352E-01    1.50111E-01    3.76593E-01
 3.00000E-01    9.37586E-01    5.34424E-01    1.34075E+00
 4.00000E-01    4.18987E+00    1.89382E+00    6.48592E+00
 5.00000E-01    8.34249E+00    3.77081E+00    1.29142E+01
 6.00000E-01    1.27411E+01    5.40223E+00    2.00800E+01
 7.00000E-01    1.65622E+01    7.02237E+00    2.61020E+01
 8.00000E-01    1.96900E+01    1.00222E+01    2.93578E+01
 9.00000E-01    2.19212E+01    1.11579E+01    3.26845E+01
 1.00000E+00    2.35169E+01    1.34046E+01    3.36292E+01
 1.30000E+00    2.88322E+01    1.73282E+01    4.03362E+01
 1.60000E+00    3.31950E+01    2.09460E+01    4.54440E+01
 1.80000E+00    3.43519E+01    2.16761E+01    4.70278E+01
 2.00000E+00    3.43376E+01    2.03622E+01    4.83130E+01
 2.30000E+00    3.33273E+01    1.97631E+01    4.68915E+01
 2.50000E+00    3.26286E+01    1.89572E+01    4.63000E+01
 2.70000E+00    3.21335E+01    1.86696E+01    4.55974E+01
 3.00000E+00    3.17860E+01    1.88809E+01    4.46911E+01
 3.50000E+00    3.09395E+01    1.83162E+01    4.35628E+01
 4.00000E+00    3.03251E+01    1.78312E+01    4.28190E+01
 4.50000E+00    2.92866E+01    1.72205E+01    4.13527E+01
 5.00000E+00    2.82736E+01    1.61442E+01    4.04030E+01
 5.50000E+00    2.75162E+01    1.57117E+01    3.93206E+01
 6.00000E+00    2.67631E+01    1.43450E+01    3.91812E+01
 6.50000E+00    2.57394E+01    1.37963E+01    3.76825E+01
 7.00000E+00    2.47168E+01    1.28280E+01    3.66056E+01
 7.50000E+00    2.33447E+01    1.21159E+01    3.45735E+01
 8.00000E+00    2.19734E+01    1.14262E+01    3.25206E+01
 8.50000E+00    2.06705E+01    1.07487E+01    3.05923E+01
 9.00000E+00    1.93680E+01    1.01682E+01    2.85678E+01
 9.50000E+00    1.82993E+01    9.60713E+00    2.69915E+01
 1.00000E+01    1.72309E+01    9.09791E+00    2.53639E+01
 1.05000E+01    1.63268E+01    8.62055E+00    2.40330E+01
 1.10000E+01    1.54229E+01    8.14329E+00    2.27025E+01
 1.15000E+01    1.46036E+01    7.71070E+00    2.14965E+01
 1.20000E+01    1.37845E+01    7.40228E+00    2.01667E+01
 1.25000E+01    1.30389E+01    7.00189E+00    1.90759E+01
 1.30000E+01    1.22935E+01    6.60161E+00    1.79854E+01
 1.35000E+01    1.16446E+01    6.25315E+00    1.70361E+01
 1.40000E+01    1.09958E+01    6.06968E+00    1.59219E+01
 1.45000E+01    1.04505E+01    5.76868E+00    1.51323E+01
 1.50000E+01    9.90531E+00    5.53707E+00    1.42736E+01
 1.55000E+01    9.44899E+00    5.28199E+00    1.36160E+01
 1.60000E+01    8.99271E+00    5.08088E+00    1.29045E+01
 1.65000E+01    8.60600E+00    4.86239E+00    1.23496E+01
 1.70000E+01    8.21932E+00    4.64392E+00    1.17947E+01
 1.75000E+01    7.88942E+00    4.45752E+00    1.13213E+01
 1.80000E+01    7.55955E+00    4.34674E+00    1.07724E+01
 1.85000E+01    7.27913E+00    4.18550E+00    1.03728E+01
 1.95000E+01    6.76089E+00    3.88751E+00    9.63427E+00
 2.00000E+01    6.52308E+00    3.75077E+00    9.29539E+00
