# n + Te125 : (n,tot)   
# jendl4.0   JNDC FP NUCLEAR DATA W.G.         EVAL-MAR90
# uncertainties: n
# # energies =   171
#   E(MeV)       xs(mb) 
 1.00000E-11    1.95974E+04
 1.00000E-07    3.86393E+03
 4.13990E-07    3.69420E+03
 5.31580E-07    3.65717E+03
 6.82560E-07    3.62402E+03
 8.76420E-07    3.59422E+03
 1.12540E-06    3.56768E+03
 1.44500E-06    3.54434E+03
 1.85540E-06    3.52127E+03
 2.37240E-06    3.50174E+03
 3.05900E-06    3.47975E+03
 3.92790E-06    3.46226E+03
 5.04350E-06    3.44151E+03
 6.47600E-06    3.42397E+03
 8.31530E-06    3.40452E+03
 1.06770E-05    3.38349E+03
 1.37100E-05    3.36433E+03
 1.76030E-05    3.34957E+03
 2.26030E-05    1.49337E+04
 2.92030E-05    3.39910E+03
 3.72670E-05    3.30603E+03
 4.78510E-05    3.25951E+03
 6.14420E-05    3.21119E+03
 7.88930E-05    3.29496E+03
 1.01300E-04    3.33895E+03
 1.30070E-04    1.53942E+04
 1.67020E-04    2.78381E+03
 2.14450E-04    3.15284E+04
 2.75360E-04    2.44002E+04
 3.53580E-04    4.28159E+04
 4.54000E-04    1.80324E+04
 5.82950E-04    1.01162E+04
 7.48520E-04    9.48087E+03
 9.61120E-04    1.50912E+04
 1.23410E-03    7.61488E+03
 1.58460E-03    8.87090E+03
 2.03470E-03    6.20961E+03
 2.24870E-03    8.39451E+03
 2.48520E-03    8.81727E+03
 2.61260E-03    1.57607E+04
 2.74650E-03    8.40173E+03
 3.03540E-03    6.77443E+03
 3.35460E-03    9.40470E+03
 3.70740E-03    8.68908E+03
 4.30740E-03    7.35110E+03
 5.53080E-03    6.92684E+03
 7.10170E-03    6.75599E+03
 9.11880E-03    6.53677E+03
 1.17090E-02    6.34751E+03
 1.50340E-02    6.19635E+03
 1.93050E-02    6.08775E+03
 2.18750E-02    6.05054E+03
 2.35790E-02    6.03146E+03
 2.41760E-02    6.02151E+03
 2.47880E-02    6.00745E+03
 2.60580E-02    5.99260E+03
 2.70000E-02    5.97635E+03
 2.85000E-02    5.94000E+03
 3.18280E-02    5.87746E+03
 3.43070E-02    5.84429E+03
 4.08680E-02    5.88495E+03
 4.63090E-02    5.91871E+03
 5.24750E-02    5.90705E+03
 5.65620E-02    5.87650E+03
 6.73790E-02    5.85125E+03
 7.20000E-02    5.83765E+03
 7.95000E-02    5.82244E+03
 8.25000E-02    5.80105E+03
 8.65170E-02    5.75385E+03
 9.80370E-02    5.69711E+03
 1.11090E-01    5.67791E+03
 1.16790E-01    5.66729E+03
 1.22770E-01    5.65625E+03
 1.29070E-01    5.64581E+03
 1.35690E-01    5.63517E+03
 1.42640E-01    5.62497E+03
 1.49960E-01    5.62208E+03
 1.57640E-01    5.62250E+03
 1.65730E-01    5.62296E+03
 1.74220E-01    5.62343E+03
 1.83160E-01    5.62393E+03
 1.92550E-01    5.62470E+03
 2.02420E-01    5.63158E+03
 2.12800E-01    5.64142E+03
 2.23710E-01    5.65121E+03
 2.35180E-01    5.66097E+03
 2.47240E-01    5.68206E+03
 2.73240E-01    5.70878E+03
 2.87250E-01    5.72217E+03
 2.94520E-01    5.72842E+03
 2.97200E-01    5.73092E+03
 2.98500E-01    5.73408E+03
 3.01970E-01    5.76176E+03
 3.33730E-01    5.81530E+03
 3.68830E-01    5.85893E+03
 3.87740E-01    5.89001E+03
 4.07620E-01    5.93986E+03
 4.50490E-01    6.01213E+03
 4.97870E-01    6.07102E+03
 5.23400E-01    6.11298E+03
 5.50230E-01    6.15685E+03
 5.78440E-01    6.19797E+03
 6.08100E-01    6.23914E+03
 6.39280E-01    6.28242E+03
 6.72060E-01    6.32791E+03
 7.06510E-01    6.37339E+03
 7.42740E-01    6.41227E+03
 7.80820E-01    6.45227E+03
 8.20850E-01    6.49427E+03
 8.62940E-01    6.52938E+03
 9.07180E-01    6.56205E+03
 9.61640E-01    6.59377E+03
 1.00260E+00    6.62794E+03
 1.10800E+00    6.65140E+03
 1.16480E+00    6.66443E+03
 1.22460E+00    6.66558E+03
 1.28730E+00    6.65490E+03
 1.35340E+00    6.63890E+03
 1.42270E+00    6.61438E+03
 1.49570E+00    6.58401E+03
 1.57240E+00    6.53765E+03
 1.65300E+00    6.48778E+03
 1.73770E+00    6.43256E+03
 1.82680E+00    6.36193E+03
 1.92050E+00    6.28612E+03
 2.01900E+00    6.19295E+03
 2.12250E+00    6.08366E+03
 2.23130E+00    5.98963E+03
 2.30690E+00    5.93778E+03
 2.34570E+00    5.91228E+03
 2.36530E+00    5.89506E+03
 2.38520E+00    5.85134E+03
 2.46600E+00    5.76142E+03
 2.59240E+00    5.65946E+03
 2.72530E+00    5.55899E+03
 2.86500E+00    5.45419E+03
 3.01190E+00    5.33625E+03
 3.16640E+00    5.19934E+03
 3.32870E+00    5.00071E+03
 3.67880E+00    4.74700E+03
 4.06570E+00    4.51580E+03
 4.49330E+00    4.35364E+03
 4.72370E+00    4.24640E+03
 4.96590E+00    4.16338E+03
 5.22050E+00    4.11533E+03
 5.48810E+00    4.06538E+03
 5.76950E+00    4.01577E+03
 6.06530E+00    4.01534E+03
 6.37630E+00    4.03372E+03
 6.59240E+00    4.04513E+03
 6.70320E+00    4.06123E+03
 7.04690E+00    4.11256E+03
 7.40820E+00    4.18290E+03
 7.78800E+00    4.25684E+03
 8.18730E+00    4.33458E+03
 8.60710E+00    4.41631E+03
 9.04840E+00    4.49709E+03
 9.51230E+00    4.57219E+03
 1.00000E+01    4.63919E+03
 1.05130E+01    4.69656E+03
 1.10520E+01    4.75461E+03
 1.16180E+01    4.81273E+03
 1.22140E+01    4.86405E+03
 1.28400E+01    4.91374E+03
 1.34990E+01    4.95127E+03
 1.38400E+01    4.97691E+03
 1.41910E+01    5.00474E+03
 1.45500E+01    5.03299E+03
 1.49180E+01    5.07134E+03
 1.56830E+01    5.10383E+03
 1.64870E+01    5.07774E+03
