# n + Te125 : (n,g)     
# jendl4.0   JNDC FP NUCLEAR DATA W.G.         EVAL-MAR90
# uncertainties: n
# # energies =    69
#   E(MeV)       xs(mb) 
 1.00000E-10    9.03201E+03
 5.00000E-09    2.45861E+03
 1.00000E-08    1.86164E+03
 1.50000E-08    1.56378E+03
 2.00000E-08    1.37552E+03
 2.50000E-08    1.24244E+03
 3.00000E-08    1.14185E+03
 3.50000E-08    1.04958E+03
 4.20000E-08    9.59706E+02
 5.00000E-08    8.84915E+02
 5.80000E-08    8.22170E+02
 6.70000E-08    7.58399E+02
 8.00000E-08    6.85807E+02
 1.00000E-07    5.95922E+02
 1.40000E-07    5.13345E+02
 1.80000E-07    4.57601E+02
 2.20000E-07    4.20782E+02
 2.50000E-07    3.95647E+02
 2.80000E-07    3.77590E+02
 3.00000E-07    3.64892E+02
 3.20000E-07    3.50746E+02
 3.50000E-07    3.31198E+02
 4.00000E-07    3.02124E+02
 5.00000E-07    2.68984E+02
 6.25000E-07    2.39316E+02
 7.80000E-07    2.20473E+02
 8.50000E-07    2.11577E+02
 9.10000E-07    2.05361E+02
 9.50000E-07    2.01751E+02
 9.72000E-07    1.99201E+02
 9.96000E-07    1.96625E+02
 1.02000E-06    1.94088E+02
 1.04500E-06    1.91547E+02
 1.07100E-06    1.89045E+02
 1.09700E-06    1.86623E+02
 1.12300E-06    1.84265E+02
 1.15000E-06    1.77077E+02
 1.30000E-06    1.64606E+02
 1.50000E-06    1.44125E+02
 2.10000E-06    1.23030E+02
 2.60000E-06    1.07658E+02
 3.30000E-06    9.44486E+01
 4.00000E-06    6.77800E+01
 9.87700E-06    4.57675E+01
 1.59680E-05    5.38671E+03
 2.77000E-05    6.39397E+01
 4.80520E-05    1.27961E+01
 7.55014E-05    3.42060E+03
 1.48728E-04    8.85112E+03
 3.67262E-04    3.63166E+03
 9.06898E-04    3.11435E+03
 1.42510E-03    1.21181E+03
 2.23945E-03    1.24654E+03
 3.51910E-03    9.44050E+02
 5.53000E-03    8.11905E+02
 9.11800E-03    7.42427E+02
 1.50300E-02    6.00832E+02
 2.47800E-02    4.59635E+02
 4.08500E-02    3.05220E+02
 6.73400E-02    2.05589E+02
 1.11000E-01    1.54318E+02
 1.83000E-01    1.30498E+02
 3.02000E-01    1.15054E+02
 5.00000E-01    7.26124E+01
 8.21000E-01    5.35415E+01
 1.35300E+00    4.48602E+01
 2.23100E+00    2.37199E+01
 3.67900E+00    5.97047E+00
 6.06500E+00    1.20092E+00
