# n + Co 59 : (n,xa)    
# jeff3.3    A.SMITH+,G.DESAUSSURE+            EVAL-JUL89
# 
# # energies =    84
#   E(MeV)        xs(mb) 
 1.11850E+00    0.00000E+00
 1.20000E+00    0.00000E+00
 1.21050E+00    0.00000E+00
 1.30000E+00    0.00000E+00
 1.31380E+00    0.00000E+00
 1.40000E+00    0.00000E+00
 1.45830E+00    0.00000E+00
 1.48360E+00    0.00000E+00
 1.50000E+00    0.00000E+00
 1.50660E+00    0.00000E+00
 1.60000E+00    0.00000E+00
 1.70000E+00    0.00000E+00
 1.77410E+00    0.00000E+00
 1.80000E+00    0.00000E+00
 1.90000E+00    0.00000E+00
 2.00000E+00    0.00000E+00
 2.09620E+00    0.00000E+00
 2.10000E+00    0.00000E+00
 2.12330E+00    0.00000E+00
 2.18930E+00    0.00000E+00
 2.20000E+00    0.00000E+00
 2.21940E+00    0.00000E+00
 2.24280E+00    0.00000E+00
 2.30000E+00    0.00000E+00
 2.40000E+00    0.00000E+00
 2.43560E+00    0.00000E+00
 2.50000E+00    0.00000E+00
 2.52030E+00    0.00000E+00
 2.58330E+00    0.00000E+00
 2.60000E+00    0.00000E+00
 2.62800E+00    0.00000E+00
 2.70000E+00    0.00000E+00
 2.75880E+00    0.00000E+00
 2.80000E+00    0.00000E+00
 2.82780E+00    0.00000E+00
 2.87310E+00    0.00000E+00
 2.90000E+00    0.00000E+00
 3.00000E+00    0.00000E+00
 3.10000E+00    0.00000E+00
 3.20000E+00    0.00000E+00
 3.30000E+00    0.00000E+00
 3.40000E+00    0.00000E+00
 3.50000E+00    0.00000E+00
 3.60000E+00    0.00000E+00
 3.70000E+00    0.00000E+00
 3.80000E+00    0.00000E+00
 4.00000E+00    7.40000E-04
 4.20000E+00    2.20080E-03
 4.40000E+00    6.36640E-03
 4.50000E+00    8.90000E-03
 4.60000E+00    1.70320E-02
 4.80000E+00    4.25841E-02
 5.00000E+00    9.60000E-02
 5.20000E+00    1.72000E-01
 5.40000E+00    3.04400E-01
 5.50000E+00    3.80000E-01
 5.60000E+00    4.76640E-01
 5.80000E+00    7.20940E-01
 5.90000E+00    8.42820E-01
 6.00000E+00    9.64700E-01
 6.50000E+00    1.93300E+00
 7.00000E+00    3.48000E+00
 7.10000E+00    3.81200E+00
 7.50000E+00    5.42000E+00
 8.00000E+00    7.75000E+00
 8.40000E+00    9.69600E+00
 9.00000E+00    1.20500E+01
 1.00000E+01    1.54450E+01
 1.05000E+01    1.74350E+01
 1.10000E+01    1.94504E+01
 1.15000E+01    2.14462E+01
 1.20000E+01    2.37940E+01
 1.25000E+01    2.60774E+01
 1.30000E+01    2.81028E+01
 1.35000E+01    3.03860E+01
 1.40000E+01    3.32700E+01
 1.45000E+01    3.73030E+01
 1.50000E+01    4.25350E+01
 1.55000E+01    4.92100E+01
 1.60000E+01    5.77550E+01
 1.70000E+01    7.00553E+01
 1.80000E+01    6.14529E+01
 1.90000E+01    5.60074E+01
 2.00000E+01    5.19465E+01
