# n + Co 59 : (n,xd)    
# jeff3.3    A.SMITH+,G.DESAUSSURE+            EVAL-JUL89
# 
# # energies =    84
#   E(MeV)        xs(mb) 
 1.11850E+00    0.00000E+00
 1.20000E+00    0.00000E+00
 1.21050E+00    0.00000E+00
 1.30000E+00    0.00000E+00
 1.31380E+00    0.00000E+00
 1.40000E+00    0.00000E+00
 1.45830E+00    0.00000E+00
 1.48360E+00    0.00000E+00
 1.50000E+00    0.00000E+00
 1.50660E+00    0.00000E+00
 1.60000E+00    0.00000E+00
 1.70000E+00    0.00000E+00
 1.77410E+00    0.00000E+00
 1.80000E+00    0.00000E+00
 1.90000E+00    0.00000E+00
 2.00000E+00    0.00000E+00
 2.09620E+00    0.00000E+00
 2.10000E+00    0.00000E+00
 2.12330E+00    0.00000E+00
 2.18930E+00    0.00000E+00
 2.20000E+00    0.00000E+00
 2.21940E+00    0.00000E+00
 2.24280E+00    0.00000E+00
 2.30000E+00    0.00000E+00
 2.40000E+00    0.00000E+00
 2.43560E+00    0.00000E+00
 2.50000E+00    0.00000E+00
 2.52030E+00    0.00000E+00
 2.58330E+00    0.00000E+00
 2.60000E+00    0.00000E+00
 2.62800E+00    0.00000E+00
 2.70000E+00    0.00000E+00
 2.75880E+00    0.00000E+00
 2.80000E+00    0.00000E+00
 2.82780E+00    0.00000E+00
 2.87310E+00    0.00000E+00
 2.90000E+00    0.00000E+00
 3.00000E+00    0.00000E+00
 3.10000E+00    0.00000E+00
 3.20000E+00    0.00000E+00
 3.30000E+00    0.00000E+00
 3.40000E+00    0.00000E+00
 3.50000E+00    0.00000E+00
 3.60000E+00    0.00000E+00
 3.70000E+00    0.00000E+00
 3.80000E+00    0.00000E+00
 4.00000E+00    0.00000E+00
 4.20000E+00    0.00000E+00
 4.40000E+00    0.00000E+00
 4.50000E+00    0.00000E+00
 4.60000E+00    0.00000E+00
 4.80000E+00    0.00000E+00
 5.00000E+00    0.00000E+00
 5.20000E+00    0.00000E+00
 5.40000E+00    1.36510E-07
 5.50000E+00    2.15009E-07
 5.60000E+00    2.93508E-07
 5.80000E+00    4.50506E-07
 5.90000E+00    5.29006E-07
 6.00000E+00    6.07505E-07
 6.50000E+00    1.00000E-06
 7.00000E+00    7.00000E-05
 7.10000E+00    2.18000E-04
 7.50000E+00    1.66000E-03
 8.00000E+00    1.16800E-02
 8.40000E+00    3.65920E-02
 9.00000E+00    1.14600E-01
 1.00000E+01    3.57700E-01
 1.05000E+01    5.08800E-01
 1.10000E+01    6.66500E-01
 1.15000E+01    8.26400E-01
 1.20000E+01    9.87800E-01
 1.25000E+01    1.15400E+00
 1.30000E+01    1.32600E+00
 1.35000E+01    1.51200E+00
 1.40000E+01    1.71600E+00
 1.45000E+01    1.94700E+00
 1.50000E+01    2.20900E+00
 1.55000E+01    2.51400E+00
 1.60000E+01    2.86800E+00
 1.70000E+01    3.74803E+00
 1.80000E+01    4.85145E+00
 1.90000E+01    6.13720E+00
 2.00000E+01    7.58500E+00
