# n + Co 59 : (n,xp)    
# jeff3.3    A.SMITH+,G.DESAUSSURE+            EVAL-JUL89
# 
# # energies =    84
#   E(MeV)        xs(mb) 
 1.11850E+00    0.00000E+00
 1.20000E+00    0.00000E+00
 1.21050E+00    0.00000E+00
 1.30000E+00    0.00000E+00
 1.31380E+00    0.00000E+00
 1.40000E+00    0.00000E+00
 1.45830E+00    0.00000E+00
 1.48360E+00    0.00000E+00
 1.50000E+00    0.00000E+00
 1.50660E+00    6.48914E-06
 1.60000E+00    9.83200E-05
 1.70000E+00    1.96640E-04
 1.77410E+00    3.44481E-04
 1.80000E+00    4.50533E-04
 1.90000E+00    8.60000E-04
 2.00000E+00    1.93200E-03
 2.09620E+00    4.30622E-03
 2.10000E+00    4.40000E-03
 2.12330E+00    5.98596E-03
 2.18930E+00    1.04784E-02
 2.20000E+00    1.12067E-02
 2.21940E+00    1.25272E-02
 2.24280E+00    1.41199E-02
 2.30000E+00    2.27400E-02
 2.40000E+00    3.90000E-02
 2.43560E+00    4.69103E-02
 2.50000E+00    6.12200E-02
 2.52030E+00    7.01073E-02
 2.58330E+00    9.76887E-02
 2.60000E+00    1.05000E-01
 2.62800E+00    1.29173E-01
 2.70000E+00    1.91333E-01
 2.75880E+00    2.39336E-01
 2.80000E+00    2.61980E-01
 2.82780E+00    2.77259E-01
 2.87310E+00    3.02156E-01
 2.90000E+00    3.16940E-01
 3.00000E+00    3.71900E-01
 3.10000E+00    5.27140E-01
 3.20000E+00    6.82380E-01
 3.30000E+00    9.21200E-01
 3.40000E+00    1.24360E+00
 3.50000E+00    1.56600E+00
 3.60000E+00    1.93000E+00
 3.70000E+00    2.29400E+00
 3.80000E+00    2.65800E+00
 4.00000E+00    3.38600E+00
 4.20000E+00    4.35160E+00
 4.40000E+00    5.31720E+00
 4.50000E+00    5.80000E+00
 4.60000E+00    6.57760E+00
 4.80000E+00    8.13280E+00
 5.00000E+00    9.68800E+00
 5.20000E+00    1.08888E+01
 5.40000E+00    1.20896E+01
 5.50000E+00    1.26900E+01
 5.60000E+00    1.30500E+01
 5.80000E+00    1.37700E+01
 5.90000E+00    1.41300E+01
 6.00000E+00    1.44900E+01
 6.50000E+00    1.67250E+01
 7.00000E+00    1.89600E+01
 7.10000E+00    1.95670E+01
 7.50000E+00    2.19950E+01
 8.00000E+00    2.50300E+01
 8.40000E+00    2.65140E+01
 9.00000E+00    2.87400E+01
 1.00000E+01    5.61300E+01
 1.05000E+01    1.14195E+02
 1.10000E+01    1.72260E+02
 1.15000E+01    1.96000E+02
 1.20000E+01    2.19740E+02
 1.25000E+01    2.33290E+02
 1.30000E+01    2.46840E+02
 1.35000E+01    2.44800E+02
 1.40000E+01    2.40400E+02
 1.45000E+01    2.33200E+02
 1.50000E+01    2.25940E+02
 1.55000E+01    2.19335E+02
 1.60000E+01    2.12730E+02
 1.70000E+01    2.02600E+02
 1.80000E+01    1.95006E+02
 1.90000E+01    2.02039E+02
 2.00000E+01    2.00161E+02
