# n + Se 79 : (n,el)    
# endfb8.0   JNDC FP Nuclear Data W.G.         EVAL-MAR90
# uncertainties: n
# # energies =   171
#   E(MeV)       xs(mb) 
 1.00000E-11    1.18960E+04
 1.00000E-07    6.30577E+03
 4.13990E-07    6.30263E+03
 5.31580E-07    6.30182E+03
 6.82560E-07    6.30164E+03
 8.76420E-07    6.30162E+03
 1.12540E-06    6.30161E+03
 1.44500E-06    6.30158E+03
 1.85540E-06    6.30156E+03
 2.37240E-06    6.30152E+03
 3.05900E-06    6.30148E+03
 3.92790E-06    6.30142E+03
 5.04350E-06    6.30135E+03
 6.47600E-06    6.30126E+03
 8.31530E-06    6.30114E+03
 1.06770E-05    6.30098E+03
 1.37100E-05    6.30078E+03
 1.76030E-05    6.30053E+03
 2.26030E-05    6.30020E+03
 2.92030E-05    6.30003E+03
 3.72670E-05    1.85922E+04
 4.78510E-05    1.88697E+04
 6.14420E-05    1.81026E+04
 7.88930E-05    1.73647E+04
 1.01300E-04    1.67051E+04
 1.30070E-04    1.61038E+04
 1.67020E-04    1.55143E+04
 2.14450E-04    1.49353E+04
 2.75360E-04    1.43731E+04
 3.53580E-04    1.38282E+04
 4.54000E-04    1.33036E+04
 5.82950E-04    1.28013E+04
 7.48520E-04    1.23221E+04
 9.61120E-04    1.18670E+04
 1.23410E-03    1.14379E+04
 1.58460E-03    1.10283E+04
 2.03470E-03    1.07557E+04
 2.24870E-03    1.06075E+04
 2.48520E-03    1.04996E+04
 2.61260E-03    1.04293E+04
 2.74650E-03    1.03272E+04
 3.03540E-03    1.01931E+04
 3.35460E-03    1.00633E+04
 3.70740E-03    9.90794E+03
 4.30740E-03    9.67523E+03
 5.53080E-03    9.41091E+03
 7.10170E-03    9.17361E+03
 9.11880E-03    8.96692E+03
 1.17090E-02    8.78873E+03
 1.50340E-02    8.63437E+03
 1.93050E-02    8.53260E+03
 2.18750E-02    8.48240E+03
 2.35790E-02    8.45816E+03
 2.41760E-02    8.44644E+03
 2.47880E-02    8.42925E+03
 2.60580E-02    8.41014E+03
 2.70000E-02    8.38990E+03
 2.85000E-02    8.35451E+03
 3.18280E-02    8.31566E+03
 3.43070E-02    8.26557E+03
 4.08680E-02    8.20743E+03
 4.63090E-02    8.16019E+03
 5.24750E-02    8.12275E+03
 5.65620E-02    8.07598E+03
 6.73790E-02    8.03019E+03
 7.20000E-02    7.99830E+03
 7.95000E-02    7.97170E+03
 8.25000E-02    7.95494E+03
 8.65170E-02    7.92017E+03
 9.80370E-02    7.88154E+03
 1.11090E-01    7.87142E+03
 1.16790E-01    7.86560E+03
 1.22770E-01    7.85949E+03
 1.29070E-01    7.85305E+03
 1.35690E-01    7.84310E+03
 1.42640E-01    7.80436E+03
 1.49960E-01    7.75697E+03
 1.57640E-01    7.70714E+03
 1.65730E-01    7.65476E+03
 1.74220E-01    7.60215E+03
 1.83160E-01    7.55494E+03
 1.92550E-01    7.50596E+03
 2.02420E-01    7.45446E+03
 2.12800E-01    7.40031E+03
 2.23710E-01    7.34340E+03
 2.35180E-01    7.28436E+03
 2.47240E-01    7.19854E+03
 2.73240E-01    7.10785E+03
 2.87250E-01    7.05979E+03
 2.94520E-01    7.03736E+03
 2.97200E-01    7.02840E+03
 2.98500E-01    7.01769E+03
 3.01970E-01    6.93963E+03
 3.33730E-01    6.79222E+03
 3.68830E-01    6.67192E+03
 3.87740E-01    6.56940E+03
 4.07620E-01    6.41068E+03
 4.50490E-01    6.20742E+03
 4.97870E-01    6.05515E+03
 5.23400E-01    5.95078E+03
 5.50230E-01    5.84106E+03
 5.78440E-01    5.72570E+03
 6.08100E-01    5.60452E+03
 6.39280E-01    5.47846E+03
 6.72060E-01    5.34634E+03
 7.06510E-01    5.20745E+03
 7.42740E-01    5.06142E+03
 7.80820E-01    4.90793E+03
 8.20850E-01    4.74654E+03
 8.62940E-01    4.57928E+03
 9.07180E-01    4.40603E+03
 9.61640E-01    4.24399E+03
 1.00260E+00    4.01482E+03
 1.10800E+00    3.76798E+03
 1.16480E+00    3.60549E+03
 1.22460E+00    3.44972E+03
 1.28730E+00    3.30129E+03
 1.35340E+00    3.15893E+03
 1.42270E+00    3.02916E+03
 1.49570E+00    2.90754E+03
 1.57240E+00    2.79749E+03
 1.65300E+00    2.69604E+03
 1.73770E+00    2.59959E+03
 1.82680E+00    2.50215E+03
 1.92050E+00    2.40709E+03
 2.01900E+00    2.32988E+03
 2.12250E+00    2.25933E+03
 2.23130E+00    2.20374E+03
 2.30690E+00    2.17028E+03
 2.34570E+00    2.15323E+03
 2.36530E+00    2.14171E+03
 2.38520E+00    2.11517E+03
 2.46600E+00    2.06303E+03
 2.59240E+00    2.00071E+03
 2.72530E+00    1.94091E+03
 2.86500E+00    1.88223E+03
 3.01190E+00    1.86679E+03
 3.16640E+00    1.88325E+03
 3.32870E+00    1.90962E+03
 3.67880E+00    1.94613E+03
 4.06570E+00    2.03432E+03
 4.49330E+00    2.12662E+03
 4.72370E+00    2.18869E+03
 4.96590E+00    2.25439E+03
 5.22050E+00    2.32772E+03
 5.48810E+00    2.40526E+03
 5.76950E+00    2.48241E+03
 6.06530E+00    2.55821E+03
 6.37630E+00    2.61982E+03
 6.59240E+00    2.65794E+03
 6.70320E+00    2.71181E+03
 7.04690E+00    2.79821E+03
 7.40820E+00    2.84720E+03
 7.78800E+00    2.89131E+03
 8.18730E+00    2.90666E+03
 8.60710E+00    2.95627E+03
 9.04840E+00    2.97692E+03
 9.51230E+00    2.97632E+03
 1.00000E+01    2.93882E+03
 1.05130E+01    2.87159E+03
 1.10520E+01    2.83229E+03
 1.16180E+01    2.79962E+03
 1.22140E+01    2.71967E+03
 1.28400E+01    2.62597E+03
 1.34990E+01    2.55704E+03
 1.38400E+01    2.51090E+03
 1.41910E+01    2.45939E+03
 1.45500E+01    2.40495E+03
 1.49180E+01    2.32279E+03
 1.56830E+01    2.21527E+03
 1.64870E+01    2.10937E+03
