# n + Se 79 : (n,tot)   
# endfb8.0   JNDC FP Nuclear Data W.G.         EVAL-MAR90
# uncertainties: n
# # energies =   171
#   E(MeV)       xs(mb) 
 1.00000E-11    5.53870E+05
 1.00000E-07    2.43896E+04
 4.13990E-07    1.79875E+04
 5.31580E-07    1.66555E+04
 6.82560E-07    1.54224E+04
 8.76420E-07    1.43115E+04
 1.12540E-06    1.34199E+04
 1.44500E-06    1.26039E+04
 1.85540E-06    1.18434E+04
 2.37240E-06    1.11819E+04
 3.05900E-06    1.06429E+04
 3.92790E-06    1.01340E+04
 5.04350E-06    9.65338E+03
 6.47600E-06    9.27539E+03
 8.31530E-06    8.94523E+03
 1.06770E-05    8.62640E+03
 1.37100E-05    8.33419E+03
 1.76030E-05    8.11552E+03
 2.26030E-05    7.90710E+03
 2.92030E-05    7.70549E+03
 3.72670E-05    4.16055E+04
 4.78510E-05    4.02624E+04
 6.14420E-05    3.63745E+04
 7.88930E-05    3.29512E+04
 1.01300E-04    2.99240E+04
 1.30070E-04    2.72569E+04
 1.67020E-04    2.49045E+04
 2.14450E-04    2.28266E+04
 2.75360E-04    2.09966E+04
 3.53580E-04    1.93812E+04
 4.54000E-04    1.79561E+04
 5.82950E-04    1.67024E+04
 7.48520E-04    1.55951E+04
 9.61120E-04    1.46202E+04
 1.23410E-03    1.37618E+04
 1.58460E-03    1.30063E+04
 2.03470E-03    1.25284E+04
 2.24870E-03    1.22757E+04
 2.48520E-03    1.20941E+04
 2.61260E-03    1.19773E+04
 2.74650E-03    1.18093E+04
 3.03540E-03    1.15928E+04
 3.35460E-03    1.13872E+04
 3.70740E-03    1.11451E+04
 4.30740E-03    1.07899E+04
 5.53080E-03    1.03941E+04
 7.10170E-03    1.00456E+04
 9.11880E-03    9.73980E+03
 1.17090E-02    9.47170E+03
 1.50340E-02    9.23483E+03
 1.93050E-02    9.07442E+03
 2.18750E-02    8.99481E+03
 2.35790E-02    8.95624E+03
 2.41760E-02    8.93754E+03
 2.47880E-02    8.90998E+03
 2.60580E-02    8.87916E+03
 2.70000E-02    8.84649E+03
 2.85000E-02    8.78921E+03
 3.18280E-02    8.72634E+03
 3.43070E-02    8.64537E+03
 4.08680E-02    8.55224E+03
 4.63090E-02    8.47776E+03
 5.24750E-02    8.41985E+03
 5.65620E-02    8.34935E+03
 6.73790E-02    8.28209E+03
 7.20000E-02    8.23657E+03
 7.95000E-02    8.19921E+03
 8.25000E-02    8.17611E+03
 8.65170E-02    8.12900E+03
 9.80370E-02    8.07449E+03
 1.11090E-01    8.05506E+03
 1.16790E-01    8.04360E+03
 1.22770E-01    8.03156E+03
 1.29070E-01    8.01889E+03
 1.35690E-01    8.00558E+03
 1.42640E-01    7.99159E+03
 1.49960E-01    7.97688E+03
 1.57640E-01    7.96122E+03
 1.65730E-01    7.94300E+03
 1.74220E-01    7.92344E+03
 1.83160E-01    7.90287E+03
 1.92550E-01    7.88125E+03
 2.02420E-01    7.85848E+03
 2.12800E-01    7.83114E+03
 2.23710E-01    7.80024E+03
 2.35180E-01    7.76774E+03
 2.47240E-01    7.71551E+03
 2.73240E-01    7.65565E+03
 2.87250E-01    7.62202E+03
 2.94520E-01    7.60632E+03
 2.97200E-01    7.60005E+03
 2.98500E-01    7.59255E+03
 3.01970E-01    7.53708E+03
 3.33730E-01    7.42663E+03
 3.68830E-01    7.33511E+03
 3.87740E-01    7.26397E+03
 4.07620E-01    7.14861E+03
 4.50490E-01    6.99222E+03
 4.97870E-01    6.87226E+03
 5.23400E-01    6.78488E+03
 5.50230E-01    6.69107E+03
 5.78440E-01    6.59243E+03
 6.08100E-01    6.48874E+03
 6.39280E-01    6.37973E+03
 6.72060E-01    6.26826E+03
 7.06510E-01    6.15909E+03
 7.42740E-01    6.04471E+03
 7.80820E-01    5.92479E+03
 8.20850E-01    5.80731E+03
 8.62940E-01    5.68774E+03
 9.07180E-01    5.55482E+03
 9.61640E-01    5.43740E+03
 1.00260E+00    5.26625E+03
 1.10800E+00    5.09108E+03
 1.16480E+00    4.97448E+03
 1.22460E+00    4.86446E+03
 1.28730E+00    4.75492E+03
 1.35340E+00    4.65128E+03
 1.42270E+00    4.55157E+03
 1.49570E+00    4.45596E+03
 1.57240E+00    4.36695E+03
 1.65300E+00    4.28046E+03
 1.73770E+00    4.20220E+03
 1.82680E+00    4.12873E+03
 1.92050E+00    4.06010E+03
 2.01900E+00    4.00513E+03
 2.12250E+00    3.96180E+03
 2.23130E+00    3.92405E+03
 2.30690E+00    3.90064E+03
 2.34570E+00    3.88870E+03
 2.36530E+00    3.88137E+03
 2.38520E+00    3.86463E+03
 2.46600E+00    3.83016E+03
 2.59240E+00    3.78690E+03
 2.72530E+00    3.74236E+03
 2.86500E+00    3.70032E+03
 3.01190E+00    3.68176E+03
 3.16640E+00    3.68107E+03
 3.32870E+00    3.67996E+03
 3.67880E+00    3.67929E+03
 4.06570E+00    3.72525E+03
 4.49330E+00    3.78230E+03
 4.72370E+00    3.82295E+03
 4.96590E+00    3.87137E+03
 5.22050E+00    3.93778E+03
 5.48810E+00    4.00847E+03
 5.76950E+00    4.08279E+03
 6.06530E+00    4.16085E+03
 6.37630E+00    4.22625E+03
 6.59240E+00    4.26566E+03
 6.70320E+00    4.31994E+03
 7.04690E+00    4.38518E+03
 7.40820E+00    4.43785E+03
 7.78800E+00    4.48977E+03
 8.18730E+00    4.50688E+03
 8.60710E+00    4.51682E+03
 9.04840E+00    4.49995E+03
 9.51230E+00    4.46366E+03
 1.00000E+01    4.40300E+03
 1.05130E+01    4.31983E+03
 1.10520E+01    4.23851E+03
 1.16180E+01    4.15700E+03
 1.22140E+01    4.06004E+03
 1.28400E+01    3.96029E+03
 1.34990E+01    3.88711E+03
 1.38400E+01    3.83941E+03
 1.41910E+01    3.79407E+03
 1.45500E+01    3.74986E+03
 1.49180E+01    3.68561E+03
 1.56830E+01    3.60114E+03
 1.64870E+01    3.50767E+03
