# n + W 180 : (n,n'16)  
# tendl.2019 A.J. Koning and D. Rochman        EVAL-NOV19
# uncertainties: n
# # energies =    77
#   E(MeV)       xs(mb) 
 1.52450E+00    0.00000E+00
 1.53758E+00    5.66215E+00
 1.54419E+00    8.52354E+00
 1.57692E+00    2.26919E+01
 1.59614E+00    3.10120E+01
 1.60000E+00    3.26829E+01
 1.63328E+00    3.51064E+01
 1.64202E+00    3.57428E+01
 1.64380E+00    3.58725E+01
 1.64896E+00    3.62482E+01
 1.67347E+00    3.80331E+01
 1.70305E+00    4.01871E+01
 1.70450E+00    4.02927E+01
 1.71249E+00    4.08745E+01
 1.73521E+00    4.25290E+01
 1.73951E+00    4.28422E+01
 1.80000E+00    4.72471E+01
 2.00000E+00    4.61530E+01
 2.20000E+00    4.35433E+01
 2.40000E+00    3.98097E+01
 2.60000E+00    3.49508E+01
 2.80000E+00    2.92467E+01
 3.00000E+00    2.31758E+01
 3.20000E+00    1.74811E+01
 3.40000E+00    1.24253E+01
 3.60000E+00    8.47869E+00
 3.80000E+00    5.62362E+00
 4.00000E+00    3.66549E+00
 4.20000E+00    2.37037E+00
 4.40000E+00    1.53560E+00
 4.60000E+00    1.00709E+00
 4.80000E+00    6.55546E-01
 5.00000E+00    4.30655E-01
 5.20000E+00    2.85233E-01
 5.40000E+00    1.90513E-01
 5.60000E+00    1.28336E-01
 5.80000E+00    8.65361E-02
 6.00000E+00    5.89908E-02
 6.20000E+00    4.06070E-02
 6.40000E+00    2.81601E-02
 6.60000E+00    1.96676E-02
 6.80000E+00    1.38459E-02
 7.00000E+00    9.79172E-03
 7.20000E+00    6.97609E-03
 7.40000E+00    4.99214E-03
 7.60000E+00    3.58848E-03
 7.80000E+00    2.59497E-03
 8.00000E+00    1.88220E-03
 8.50000E+00    8.60771E-04
 9.00000E+00    4.02354E-04
 9.50000E+00    1.91246E-04
 1.00000E+01    9.23668E-05
 1.05000E+01    4.53429E-05
 1.10000E+01    2.26201E-05
 1.15000E+01    1.14596E-05
 1.20000E+01    5.88907E-06
 1.25000E+01    3.06725E-06
 1.30000E+01    1.61839E-06
 1.35000E+01    8.64340E-07
 1.40000E+01    4.67380E-07
 1.45000E+01    2.55580E-07
 1.50000E+01    1.41370E-07
 1.60000E+01    4.46450E-08
 1.70000E+01    1.46400E-08
 1.80000E+01    4.93130E-09
 1.90000E+01    1.72180E-09
 2.00000E+01    6.18890E-10
 2.10000E+01    2.28440E-10
 2.20000E+01    8.63320E-11
 2.30000E+01    3.35250E-11
 2.40000E+01    1.33350E-11
 2.50000E+01    5.40780E-12
 2.60000E+01    2.23210E-12
 2.70000E+01    9.35350E-13
 2.80000E+01    3.97680E-13
 2.90000E+01    1.72070E-13
 3.00000E+01    7.55220E-14
