# n + W 180 : (n,n'14)  
# tendl.2019 A.J. Koning and D. Rochman        EVAL-NOV19
# uncertainties: n
# # energies =    79
#   E(MeV)       xs(mb) 
 1.46998E+00    0.00000E+00
 1.47824E+00    1.69724E-01
 1.52450E+00    1.12026E+00
 1.53758E+00    1.38902E+00
 1.54419E+00    1.52485E+00
 1.57692E+00    2.19737E+00
 1.59614E+00    2.59230E+00
 1.60000E+00    2.67161E+00
 1.63328E+00    3.29935E+00
 1.64202E+00    3.46420E+00
 1.64380E+00    3.49778E+00
 1.64896E+00    3.59511E+00
 1.67347E+00    4.05742E+00
 1.70305E+00    4.61537E+00
 1.70450E+00    4.64272E+00
 1.71249E+00    4.79343E+00
 1.73521E+00    5.22198E+00
 1.73951E+00    5.30309E+00
 1.80000E+00    6.44407E+00
 2.00000E+00    1.04056E+01
 2.20000E+00    1.43269E+01
 2.40000E+00    1.72561E+01
 2.60000E+00    1.87207E+01
 2.80000E+00    1.86612E+01
 3.00000E+00    1.72397E+01
 3.20000E+00    1.50976E+01
 3.40000E+00    1.22323E+01
 3.60000E+00    9.43753E+00
 3.80000E+00    7.02450E+00
 4.00000E+00    5.10078E+00
 4.20000E+00    3.64793E+00
 4.40000E+00    2.61477E+00
 4.60000E+00    1.87307E+00
 4.80000E+00    1.31748E+00
 5.00000E+00    9.29621E-01
 5.20000E+00    6.56819E-01
 5.40000E+00    4.65040E-01
 5.60000E+00    3.30195E-01
 5.80000E+00    2.33509E-01
 6.00000E+00    1.66234E-01
 6.20000E+00    1.19058E-01
 6.40000E+00    8.56451E-02
 6.60000E+00    6.18892E-02
 6.80000E+00    4.49792E-02
 7.00000E+00    3.27827E-02
 7.20000E+00    2.40362E-02
 7.40000E+00    1.76795E-02
 7.60000E+00    1.30506E-02
 7.80000E+00    9.68328E-03
 8.00000E+00    7.20094E-03
 8.50000E+00    3.49608E-03
 9.00000E+00    1.72844E-03
 9.50000E+00    8.65466E-04
 1.00000E+01    4.38321E-04
 1.05000E+01    2.24562E-04
 1.10000E+01    1.16402E-04
 1.15000E+01    6.10476E-05
 1.20000E+01    3.23822E-05
 1.25000E+01    1.73690E-05
 1.30000E+01    9.42026E-06
 1.35000E+01    5.16289E-06
 1.40000E+01    2.86024E-06
 1.45000E+01    1.59981E-06
 1.50000E+01    9.03550E-07
 1.60000E+01    2.96060E-07
 1.70000E+01    1.00160E-07
 1.80000E+01    3.46590E-08
 1.90000E+01    1.23960E-08
 2.00000E+01    4.55290E-09
 2.10000E+01    1.71340E-09
 2.20000E+01    6.58730E-10
 2.30000E+01    2.59670E-10
 2.40000E+01    1.04640E-10
 2.50000E+01    4.29120E-11
 2.60000E+01    1.78900E-11
 2.70000E+01    7.56710E-12
 2.80000E+01    3.24650E-12
 2.90000E+01    1.41730E-12
 3.00000E+01    6.27430E-13
