# n + W 180 : (n,n'18)  
# tendl.2019 A.J. Koning and D. Rochman        EVAL-NOV19
# uncertainties: n
# # energies =    75
#   E(MeV)       xs(mb) 
 1.54419E+00    0.00000E+00
 1.57692E+00    3.71425E+00
 1.59614E+00    5.89537E+00
 1.60000E+00    6.33341E+00
 1.63328E+00    8.54077E+00
 1.64202E+00    9.12047E+00
 1.64380E+00    9.23853E+00
 1.64896E+00    9.58078E+00
 1.67347E+00    1.12064E+01
 1.70305E+00    1.31684E+01
 1.70450E+00    1.32646E+01
 1.71249E+00    1.37945E+01
 1.73521E+00    1.53015E+01
 1.73951E+00    1.55867E+01
 1.80000E+00    1.95988E+01
 2.00000E+00    2.69009E+01
 2.20000E+00    3.28569E+01
 2.40000E+00    3.66433E+01
 2.60000E+00    3.76931E+01
 2.80000E+00    3.60067E+01
 3.00000E+00    3.20206E+01
 3.20000E+00    2.74283E+01
 3.40000E+00    2.14307E+01
 3.60000E+00    1.59604E+01
 3.80000E+00    1.14831E+01
 4.00000E+00    8.07446E+00
 4.20000E+00    5.60364E+00
 4.40000E+00    3.87678E+00
 4.60000E+00    2.72344E+00
 4.80000E+00    1.87517E+00
 5.00000E+00    1.29701E+00
 5.20000E+00    9.00257E-01
 5.40000E+00    6.27385E-01
 5.60000E+00    4.39202E-01
 5.80000E+00    3.06665E-01
 6.00000E+00    2.15796E-01
 6.20000E+00    1.52935E-01
 6.40000E+00    1.08943E-01
 6.60000E+00    7.80122E-02
 6.80000E+00    5.62128E-02
 7.00000E+00    4.06349E-02
 7.20000E+00    2.95585E-02
 7.40000E+00    2.15745E-02
 7.60000E+00    1.58042E-02
 7.80000E+00    1.16383E-02
 8.00000E+00    8.59059E-03
 8.50000E+00    4.09379E-03
 9.00000E+00    1.98755E-03
 9.50000E+00    9.78200E-04
 1.00000E+01    4.87590E-04
 1.05000E+01    2.46230E-04
 1.10000E+01    1.25997E-04
 1.15000E+01    6.53216E-05
 1.20000E+01    3.42910E-05
 1.25000E+01    1.82198E-05
 1.30000E+01    9.79626E-06
 1.35000E+01    5.32600E-06
 1.40000E+01    2.92870E-06
 1.45000E+01    1.62683E-06
 1.50000E+01    9.12960E-07
 1.60000E+01    2.95780E-07
 1.70000E+01    9.90990E-08
 1.80000E+01    3.40040E-08
 1.90000E+01    1.20710E-08
 2.00000E+01    4.40490E-09
 2.10000E+01    1.64830E-09
 2.20000E+01    6.30520E-10
 2.30000E+01    2.47430E-10
 2.40000E+01    9.92970E-11
 2.50000E+01    4.05710E-11
 2.60000E+01    1.68580E-11
 2.70000E+01    7.10940E-12
 2.80000E+01    3.04190E-12
 2.90000E+01    1.32460E-12
 3.00000E+01    5.85040E-13
