# n + Hg201 : (n,xa)    
# jendl4.0   K.SHIBATA, T.FUKAHORI, S.CHIBA,+  EVAL-SEP97
# 
# # energies =   142
#   E(MeV)        xs(mb) 
 1.56780E-03    0.00000E+00
 1.60803E-03    0.00000E+00
 1.67359E-03    0.00000E+00
 1.73915E-03    0.00000E+00
 1.87027E-03    0.00000E+00
 2.13252E-03    0.00000E+00
 2.39477E-03    0.00000E+00
 2.65702E-03    0.00000E+00
 3.18152E-03    0.00000E+00
 3.70602E-03    0.00000E+00
 4.75501E-03    0.00000E+00
 5.80401E-03    0.00000E+00
 7.90200E-03    0.00000E+00
 1.00000E-02    0.00000E+00
 1.56250E-02    1.59450E-10
 2.12500E-02    3.18900E-10
 2.64020E-02    4.64942E-10
 2.64320E-02    4.65792E-10
 2.70067E-02    4.82083E-10
 2.75815E-02    4.98377E-10
 2.87310E-02    5.30961E-10
 3.10300E-02    5.96130E-10
 3.23010E-02    6.32159E-10
 3.23616E-02    6.33877E-10
 3.25000E-02    6.37800E-10
 3.33290E-02    6.61299E-10
 3.34184E-02    6.63833E-10
 3.44753E-02    6.93793E-10
 3.56280E-02    7.26468E-10
 3.65890E-02    7.53710E-10
 4.02260E-02    8.56806E-10
 4.08164E-02    8.73542E-10
 4.37500E-02    9.56700E-10
 4.48240E-02    9.87144E-10
 4.50438E-02    9.93375E-10
 4.92712E-02    1.11321E-09
 5.40200E-02    1.24782E-09
 5.50000E-02    1.27560E-09
 5.77260E-02    1.35287E-09
 6.32160E-02    1.50850E-09
 6.61808E-02    1.59254E-09
 7.75000E-02    1.91340E-09
 8.16080E-02    2.02985E-09
 8.30904E-02    2.07187E-09
 1.00000E-01    2.55120E-09
 1.60000E-01    7.55380E-09
 1.68341E-01    9.19039E-09
 1.80000E-01    1.14780E-08
 2.00000E-01    1.60570E-08
 2.25000E-01    2.32962E-08
 2.50000E-01    3.05355E-08
 3.00000E-01    4.50140E-08
 3.50000E-01    5.87880E-08
 3.86530E-01    6.88513E-08
 4.00000E-01    7.25620E-08
 4.16580E-01    7.71294E-08
 4.16600E-01    7.71350E-08
 4.25000E-01    7.94490E-08
 4.27025E-01    8.00068E-08
 4.37450E-01    8.28787E-08
 4.50000E-01    8.63360E-08
 4.58300E-01    8.86225E-08
 4.66731E-01    9.09451E-08
 5.00000E-01    1.00110E-07
 5.45725E-01    1.21859E-07
 5.50047E-01    1.23914E-07
 5.55775E-01    1.26639E-07
 5.62500E-01    1.29837E-07
 6.25000E-01    1.59565E-07
 6.48639E-01    1.70809E-07
 6.87500E-01    1.89292E-07
 7.36679E-01    2.12684E-07
 7.50000E-01    2.19020E-07
 7.69845E-01    2.34310E-07
 7.70046E-01    2.34465E-07
 8.22523E-01    2.74898E-07
 8.75000E-01    3.15330E-07
 9.37500E-01    3.63485E-07
 1.00000E+00    4.11640E-07
 1.06250E+00    4.82959E-07
 1.12500E+00    5.54279E-07
 1.18750E+00    6.25598E-07
 1.25000E+00    6.96917E-07
 1.31250E+00    7.68237E-07
 1.37500E+00    8.39556E-07
 1.43750E+00    9.10876E-07
 1.50000E+00    9.82195E-07
 1.56250E+00    1.05351E-06
 1.62500E+00    1.12483E-06
 1.75000E+00    1.26747E-06
 1.87500E+00    1.41011E-06
 2.00000E+00    1.55275E-06
 2.12500E+00    3.41036E-06
 2.25000E+00    5.26796E-06
 2.37500E+00    7.12557E-06
 2.50000E+00    8.98317E-06
 2.62500E+00    1.08408E-05
 2.75000E+00    1.26984E-05
 2.87500E+00    1.45560E-05
 3.00000E+00    1.64136E-05
 3.25000E+00    2.62447E-05
 3.50000E+00    3.60757E-05
 3.75000E+00    4.59068E-05
 4.00000E+00    5.57378E-05
 4.50000E+00    1.55954E-04
 5.00000E+00    2.56169E-04
 5.50000E+00    3.56385E-04
 6.00000E+00    4.56601E-04
 6.25000E+00    6.07781E-04
 6.50000E+00    7.58962E-04
 6.75000E+00    9.10142E-04
 7.00000E+00    1.06132E-03
 7.25000E+00    1.21250E-03
 7.50000E+00    1.36368E-03
 7.75000E+00    1.51486E-03
 8.00000E+00    1.66604E-03
 8.25000E+00    3.51811E-03
 8.50000E+00    5.37017E-03
 8.75000E+00    7.22223E-03
 9.00000E+00    9.07430E-03
 9.25000E+00    1.09264E-02
 9.50000E+00    1.27784E-02
 9.75000E+00    1.46305E-02
 1.00000E+01    1.64826E-02
 1.02500E+01    2.53680E-02
 1.05000E+01    3.42534E-02
 1.07500E+01    4.31389E-02
 1.10000E+01    5.20243E-02
 1.12500E+01    6.09098E-02
 1.15000E+01    6.97952E-02
 1.17500E+01    7.86807E-02
 1.20000E+01    8.75661E-02
 1.25000E+01    1.23063E-01
 1.30000E+01    1.58560E-01
 1.35000E+01    1.94057E-01
 1.40000E+01    2.29553E-01
 1.50000E+01    3.56959E-01
 1.60000E+01    4.84365E-01
 1.70000E+01    6.95011E-01
 1.80000E+01    9.05658E-01
 1.90000E+01    1.21516E+00
 2.00000E+01    1.52467E+00
