# n + Hg201 : (n,tot)   
# jendl4.0   K.SHIBATA, T.FUKAHORI, S.CHIBA,+  EVAL-SEP97
# uncertainties: n
# # energies =   171
#   E(MeV)       xs(mb) 
 1.00000E-11    1.05350E+05
 1.00000E-07    1.72515E+04
 4.13990E-07    1.62396E+04
 5.31580E-07    1.60195E+04
 6.82560E-07    1.58233E+04
 8.76420E-07    1.56475E+04
 1.12540E-06    1.54913E+04
 1.44500E-06    1.53502E+04
 1.85540E-06    1.52192E+04
 2.37240E-06    1.51011E+04
 3.05900E-06    1.49775E+04
 3.92790E-06    1.48723E+04
 5.04350E-06    1.47547E+04
 6.47600E-06    1.46514E+04
 8.31530E-06    1.45311E+04
 1.06770E-05    1.44181E+04
 1.37100E-05    1.42880E+04
 1.76030E-05    1.41500E+04
 2.26030E-05    1.39973E+04
 2.92030E-05    1.38320E+04
 3.72670E-05    3.29041E+04
 4.78510E-05    1.38423E+04
 6.14420E-05    2.86496E+04
 7.88930E-05    1.35499E+04
 1.01300E-04    1.29949E+04
 1.30070E-04    1.23805E+04
 1.67020E-04    6.66200E+04
 2.14450E-04    1.67435E+04
 2.75360E-04    5.74414E+04
 3.53580E-04    4.15780E+04
 4.54000E-04    5.15408E+04
 5.82950E-04    3.48760E+04
 7.48520E-04    3.31535E+04
 9.61120E-04    3.05499E+04
 1.23410E-03    2.86980E+04
 1.58460E-03    2.69787E+04
 2.03470E-03    2.58323E+04
 2.24870E-03    2.52016E+04
 2.48520E-03    2.47392E+04
 2.61260E-03    2.44344E+04
 2.74650E-03    2.39843E+04
 3.03540E-03    2.33998E+04
 3.35460E-03    2.28279E+04
 3.70740E-03    2.21305E+04
 4.30740E-03    2.10666E+04
 5.53080E-03    1.98016E+04
 7.10170E-03    1.86157E+04
 9.11880E-03    1.75630E+04
 1.17090E-02    1.67900E+04
 1.50340E-02    1.60750E+04
 1.93050E-02    1.55563E+04
 2.18750E-02    1.52878E+04
 2.35790E-02    1.51550E+04
 2.41760E-02    1.50897E+04
 2.47880E-02    1.49914E+04
 2.60580E-02    1.48797E+04
 2.70000E-02    1.47637E+04
 2.85000E-02    1.45522E+04
 3.18280E-02    1.43169E+04
 3.43070E-02    1.40084E+04
 4.08680E-02    1.36453E+04
 4.63090E-02    1.33501E+04
 5.24750E-02    1.31189E+04
 5.65620E-02    1.28366E+04
 6.73790E-02    1.25660E+04
 7.20000E-02    1.23864E+04
 7.95000E-02    1.22411E+04
 8.25000E-02    1.21499E+04
 8.65170E-02    1.19668E+04
 9.80370E-02    1.16862E+04
 1.11090E-01    1.14505E+04
 1.16790E-01    1.13163E+04
 1.22770E-01    1.11910E+04
 1.29070E-01    1.10593E+04
 1.35690E-01    1.09293E+04
 1.42640E-01    1.08104E+04
 1.49960E-01    1.06861E+04
 1.57640E-01    1.05553E+04
 1.65730E-01    1.04178E+04
 1.74220E-01    1.02747E+04
 1.83160E-01    1.01344E+04
 1.92550E-01    9.98921E+03
 2.02420E-01    9.83654E+03
 2.12800E-01    9.67603E+03
 2.23710E-01    9.51512E+03
 2.35180E-01    9.36574E+03
 2.47240E-01    9.13485E+03
 2.73240E-01    8.91506E+03
 2.87250E-01    8.80171E+03
 2.94520E-01    8.74865E+03
 2.97200E-01    8.72744E+03
 2.98500E-01    8.70208E+03
 3.01970E-01    8.51922E+03
 3.33730E-01    8.18058E+03
 3.68830E-01    7.93440E+03
 3.87740E-01    7.77324E+03
 4.07620E-01    7.54030E+03
 4.50490E-01    7.23827E+03
 4.97870E-01    7.01819E+03
 5.23400E-01    6.86904E+03
 5.50230E-01    6.72177E+03
 5.78440E-01    6.58088E+03
 6.08100E-01    6.43869E+03
 6.39280E-01    6.30299E+03
 6.72060E-01    6.16619E+03
 7.06510E-01    6.03753E+03
 7.42740E-01    5.92051E+03
 7.80820E-01    5.83317E+03
 8.20850E-01    5.74270E+03
 8.62940E-01    5.65785E+03
 9.07180E-01    5.56647E+03
 9.61640E-01    5.47884E+03
 1.00260E+00    5.49598E+03
 1.10800E+00    5.56888E+03
 1.16480E+00    5.61906E+03
 1.22460E+00    5.66457E+03
 1.28730E+00    5.71168E+03
 1.35340E+00    5.76121E+03
 1.42270E+00    5.81306E+03
 1.49570E+00    5.86240E+03
 1.57240E+00    5.91195E+03
 1.65300E+00    5.96402E+03
 1.73770E+00    6.01620E+03
 1.82680E+00    6.06727E+03
 1.92050E+00    6.12198E+03
 2.01900E+00    6.21851E+03
 2.12250E+00    6.33993E+03
 2.23130E+00    6.44563E+03
 2.30690E+00    6.50796E+03
 2.34570E+00    6.53797E+03
 2.36530E+00    6.55823E+03
 2.38520E+00    6.60968E+03
 2.46600E+00    6.71567E+03
 2.59240E+00    6.84868E+03
 2.72530E+00    6.98576E+03
 2.86500E+00    7.12084E+03
 3.01190E+00    7.20016E+03
 3.16640E+00    7.23681E+03
 3.32870E+00    7.29560E+03
 3.67880E+00    7.37661E+03
 4.06570E+00    7.26080E+03
 4.49330E+00    7.08418E+03
 4.72370E+00    6.97497E+03
 4.96590E+00    6.86195E+03
 5.22050E+00    6.75129E+03
 5.48810E+00    6.64654E+03
 5.76950E+00    6.53451E+03
 6.06530E+00    6.35917E+03
 6.37630E+00    6.18419E+03
 6.59240E+00    6.08013E+03
 6.70320E+00    5.95506E+03
 7.04690E+00    5.76415E+03
 7.40820E+00    5.57612E+03
 7.78800E+00    5.41024E+03
 8.18730E+00    5.30505E+03
 8.60710E+00    5.21384E+03
 9.04840E+00    5.12683E+03
 9.51230E+00    5.04048E+03
 1.00000E+01    5.00007E+03
 1.05130E+01    4.99977E+03
 1.10520E+01    5.00334E+03
 1.16180E+01    5.01494E+03
 1.22140E+01    5.07708E+03
 1.28400E+01    5.15598E+03
 1.34990E+01    5.21725E+03
 1.38400E+01    5.26108E+03
 1.41910E+01    5.31513E+03
 1.45500E+01    5.37028E+03
 1.49180E+01    5.45508E+03
 1.56830E+01    5.56203E+03
 1.64870E+01    5.63253E+03
