# n + Hg201 : (n,g)     
# jendl4.0   K.SHIBATA, T.FUKAHORI, S.CHIBA,+  EVAL-SEP97
# uncertainties: n
# # energies =    69
#   E(MeV)       xs(mb) 
 1.00000E-10    5.43710E+04
 5.00000E-09    1.48024E+04
 1.00000E-08    1.12091E+04
 1.50000E-08    9.41651E+03
 2.00000E-08    8.28368E+03
 2.50000E-08    7.48301E+03
 3.00000E-08    6.87775E+03
 3.50000E-08    6.32253E+03
 4.20000E-08    5.78199E+03
 5.00000E-08    5.33229E+03
 5.80000E-08    4.95495E+03
 6.70000E-08    4.57141E+03
 8.00000E-08    4.13508E+03
 1.00000E-07    3.59508E+03
 1.40000E-07    3.09904E+03
 1.80000E-07    2.76461E+03
 2.20000E-07    2.54380E+03
 2.50000E-07    2.39312E+03
 2.80000E-07    2.28487E+03
 3.00000E-07    2.20877E+03
 3.20000E-07    2.12407E+03
 3.50000E-07    2.00714E+03
 4.00000E-07    1.83331E+03
 5.00000E-07    1.63533E+03
 6.25000E-07    1.45839E+03
 7.80000E-07    1.34622E+03
 8.50000E-07    1.29327E+03
 9.10000E-07    1.25626E+03
 9.50000E-07    1.23480E+03
 9.72000E-07    1.21964E+03
 9.96000E-07    1.20434E+03
 1.02000E-06    1.18927E+03
 1.04500E-06    1.17418E+03
 1.07100E-06    1.15936E+03
 1.09700E-06    1.14503E+03
 1.12300E-06    1.13097E+03
 1.15000E-06    1.08830E+03
 1.30000E-06    1.01453E+03
 1.50000E-06    8.93218E+02
 2.10000E-06    7.68271E+02
 2.60000E-06    6.77270E+02
 3.30000E-06    5.98893E+02
 4.00000E-06    4.36050E+02
 9.87700E-06    2.78243E+02
 1.59680E-05    2.07636E+02
 2.77000E-05    8.82152E+03
 4.80520E-05    8.31297E+03
 7.55014E-05    1.28530E+02
 1.48728E-04    1.30947E+04
 3.67262E-04    7.03098E+03
 9.06898E-04    3.01539E+03
 1.42510E-03    2.15650E+03
 2.23945E-03    1.54072E+03
 3.51910E-03    1.10079E+03
 5.53000E-03    7.73341E+02
 9.11800E-03    5.28967E+02
 1.50300E-02    3.55515E+02
 2.47800E-02    2.38805E+02
 4.08500E-02    1.60419E+02
 6.73400E-02    1.07954E+02
 1.11000E-01    7.69253E+01
 1.83000E-01    5.80051E+01
 3.02000E-01    4.30785E+01
 5.00000E-01    2.79637E+01
 8.21000E-01    1.73350E+01
 1.35300E+00    1.22476E+01
 2.23100E+00    7.81760E+00
 3.67900E+00    3.28333E+00
 6.06500E+00    4.82973E-01
