# n + Sn118 : (n,d)     
# jendl.ad   N.Iwamoto                         EVAL-Apr14
# uncertainties: n
# # energies =    25
#   E(MeV)       xs(mb) 
 7.84194E+00    0.00000E+00
 8.15994E+00    1.52500E-15
 9.00000E+00    5.71160E-12
 9.50000E+00    6.14750E-11
 1.00000E+01    2.00580E-08
 1.05000E+01    1.28668E-06
 1.10000E+01    1.80849E-05
 1.15000E+01    2.60774E-04
 1.20000E+01    2.02849E-03
 1.25000E+01    1.09133E-02
 1.30000E+01    4.39267E-02
 1.35000E+01    1.39621E-01
 1.40000E+01    3.64433E-01
 1.45000E+01    8.05174E-01
 1.50000E+01    1.54738E+00
 1.55000E+01    2.64517E+00
 1.60000E+01    4.12568E+00
 1.65000E+01    5.97536E+00
 1.70000E+01    8.18262E+00
 1.75000E+01    1.07011E+01
 1.80000E+01    1.35098E+01
 1.85000E+01    1.65450E+01
 1.90000E+01    1.95423E+01
 1.95000E+01    2.29101E+01
 2.00000E+01    2.59665E+01
