# n + Sn118 : (n,tot)   
# jendl.ad   N.Iwamoto                         EVAL-Apr14
# uncertainties: n
# # energies =    69
#   E(MeV)       xs(mb) 
 1.00000E-10    1.50546E+03
 5.00000E-09    4.09876E+02
 1.00000E-08    3.10394E+02
 1.50000E-08    2.60789E+02
 2.00000E-08    2.29424E+02
 2.50000E-08    2.07280E+02
 3.00000E-08    1.90542E+02
 3.50000E-08    1.75164E+02
 4.20000E-08    1.60184E+02
 5.00000E-08    1.47732E+02
 5.80000E-08    1.37311E+02
 6.70000E-08    1.26716E+02
 8.00000E-08    1.14632E+02
 1.00000E-07    9.97023E+01
 1.40000E-07    8.60029E+01
 1.80000E-07    7.67518E+01
 2.20000E-07    7.06579E+01
 2.50000E-07    6.65249E+01
 2.80000E-07    6.35337E+01
 3.00000E-07    6.14302E+01
 3.20000E-07    5.90927E+01
 3.50000E-07    5.58654E+01
 4.00000E-07    5.10869E+01
 5.00000E-07    4.56698E+01
 6.25000E-07    4.07929E+01
 7.80000E-07    3.77026E+01
 8.50000E-07    3.62595E+01
 9.10000E-07    3.52572E+01
 9.50000E-07    3.46736E+01
 9.72000E-07    3.42555E+01
 9.96000E-07    3.38364E+01
 1.02000E-06    3.34414E+01
 1.04500E-06    3.30310E+01
 1.07100E-06    3.26125E+01
 1.09700E-06    3.22067E+01
 1.12300E-06    3.18343E+01
 1.15000E-06    3.06586E+01
 1.30000E-06    2.86444E+01
 1.50000E-06    2.53453E+01
 2.10000E-06    2.19607E+01
 2.60000E-06    1.95128E+01
 3.30000E-06    1.74146E+01
 4.00000E-06    1.31122E+01
 9.87700E-06    9.02360E+00
 1.59680E-05    7.51422E+00
 2.77000E-05    2.57186E+03
 4.80520E-05    2.40104E+01
 7.55014E-05    3.04961E+00
 1.48728E-04    2.52804E+03
 3.67262E-04    6.77285E+02
 9.06898E-04    2.60824E+02
 1.42510E-03    4.48018E+02
 2.23945E-03    1.19583E+02
 3.51910E-03    1.87982E+02
 5.53000E-03    1.42488E+02
 9.11800E-03    1.23819E+02
 1.50300E-02    9.64225E+01
 2.47800E-02    6.86562E+01
 4.08500E-02    5.08432E+01
 6.73400E-02    4.03982E+01
 1.11000E-01    3.50544E+01
 1.83000E-01    3.29340E+01
 3.02000E-01    3.41177E+01
 5.00000E-01    3.97485E+01
 8.21000E-01    5.46753E+01
 1.35300E+00    5.29607E+01
 2.23100E+00    3.10136E+01
 3.67900E+00    1.44665E+01
 6.06500E+00    1.82952E+03
