# n + Tc 97 : (n,xd)    
# jendl.ad   F.Minato                          EVAL-Apr14
# 
# # energies =    74
#   E(MeV)        xs(mb) 
 9.75651E-02    0.00000E+00
 1.00000E-01    0.00000E+00
 1.45000E-01    0.00000E+00
 1.90000E-01    0.00000E+00
 2.17957E-01    0.00000E+00
 2.80000E-01    0.00000E+00
 3.27856E-01    0.00000E+00
 3.70000E-01    0.00000E+00
 4.60000E-01    0.00000E+00
 5.50000E-01    0.00000E+00
 5.86229E-01    0.00000E+00
 6.40000E-01    0.00000E+00
 6.63737E-01    0.00000E+00
 7.30000E-01    0.00000E+00
 7.73670E-01    0.00000E+00
 7.80763E-01    0.00000E+00
 7.93219E-01    0.00000E+00
 8.20000E-01    0.00000E+00
 8.41488E-01    0.00000E+00
 8.41489E-01    0.00000E+00
 8.42277E-01    0.00000E+00
 8.60868E-01    0.00000E+00
 8.64344E-01    0.00000E+00
 8.70891E-01    0.00000E+00
 9.10000E-01    0.00000E+00
 9.51754E-01    0.00000E+00
 9.56544E-01    0.00000E+00
 9.79793E-01    0.00000E+00
 1.00000E+00    0.00000E+00
 1.00504E+00    0.00000E+00
 1.01403E+00    0.00000E+00
 1.06015E+00    0.00000E+00
 1.07103E+00    0.00000E+00
 1.13836E+00    0.00000E+00
 1.14984E+00    0.00000E+00
 1.14985E+00    0.00000E+00
 1.15306E+00    0.00000E+00
 1.17733E+00    0.00000E+00
 1.17937E+00    0.00000E+00
 1.21239E+00    0.00000E+00
 1.23257E+00    0.00000E+00
 1.25293E+00    0.00000E+00
 1.28463E+00    0.00000E+00
 1.28777E+00    0.00000E+00
 1.29113E+00    0.00000E+00
 1.32379E+00    0.00000E+00
 1.36236E+00    0.00000E+00
 1.38022E+00    0.00000E+00
 1.38658E+00    0.00000E+00
 1.39335E+00    0.00000E+00
 1.39426E+00    0.00000E+00
 1.39669E+00    0.00000E+00
 1.40144E+00    0.00000E+00
 1.40799E+00    0.00000E+00
 1.95000E+00    0.00000E+00
 2.90000E+00    0.00000E+00
 3.85000E+00    1.66547E-12
 4.80000E+00    9.02820E-11
 5.75000E+00    2.95050E-07
 6.70000E+00    2.84649E-05
 7.65000E+00    3.67210E-04
 8.60000E+00    3.63803E-03
 9.55000E+00    4.09319E-02
 1.05000E+01    2.31142E-01
 1.14500E+01    7.27318E-01
 1.24000E+01    1.48867E+00
 1.33500E+01    2.76849E+00
 1.43000E+01    4.16850E+00
 1.52500E+01    5.89124E+00
 1.62000E+01    7.47457E+00
 1.71500E+01    9.27134E+00
 1.81000E+01    1.12565E+01
 1.90500E+01    1.28528E+01
 2.00000E+01    1.45266E+01
