# n + Er  0 : (n,xa)
# jeff3.3    A.J. Koning and D. Rochman        EVAL-DEC15
#
# # energies =   134
#   E(MeV)          xs(mb) 
 8.10678E-02    8.24817E-05
 1.00000E-01    7.08126E-05
 2.00000E-01    5.34806E-05
 2.66601E-01    4.97583E-05
 3.00000E-01    4.78916E-05
 4.00000E-01    4.55603E-05
 5.00000E-01    4.40174E-05
 5.48770E-01    4.51520E-05
 6.00000E-01    4.63440E-05
 7.00000E-01    5.10891E-05
 7.90682E-01    5.73632E-05
 8.00000E-01    5.80078E-05
 8.64613E-01    6.21986E-05
 9.00000E-01    6.44938E-05
 9.16747E-01    6.58738E-05
 9.62045E-01    6.96065E-05
 1.00000E+00    7.27341E-05
 1.08181E+00    8.17879E-05
 1.20000E+00    9.48679E-05
 1.22336E+00    9.87896E-05
 1.35773E+00    1.21347E-04
 1.38440E+00    1.25825E-04
 1.40000E+00    1.28443E-04
 1.46702E+00    1.41558E-04
 1.46891E+00    1.41928E-04
 1.52295E+00    1.52503E-04
 1.53769E+00    1.55388E-04
 1.56519E+00    1.60769E-04
 1.58174E+00    1.64007E-04
 1.60000E+00    1.67581E-04
 1.60594E+00    1.68550E-04
 1.67254E+00    1.79424E-04
 1.67593E+00    1.79978E-04
 1.68387E+00    1.81274E-04
 1.68897E+00    1.82107E-04
 1.70258E+00    1.84329E-04
 1.71340E+00    1.86096E-04
 1.72382E+00    1.87797E-04
 1.73217E+00    1.89161E-04
 1.76201E+00    1.94033E-04
 1.77160E+00    1.95598E-04
 1.79784E+00    1.99883E-04
 1.80000E+00    2.00235E-04
 1.82422E+00    2.04372E-04
 2.00000E+00    2.34396E-04
 2.20000E+00    2.76425E-04
 2.40000E+00    3.20821E-04
 2.60000E+00    3.77653E-04
 2.80000E+00    4.42703E-04
 3.00000E+00    5.10352E-04
 3.20000E+00    5.97390E-04
 3.40000E+00    6.78074E-04
 3.60000E+00    7.67117E-04
 3.80000E+00    8.63046E-04
 4.00000E+00    9.65950E-04
 4.20000E+00    1.09050E-03
 4.40000E+00    1.23145E-03
 4.60000E+00    1.38404E-03
 4.80000E+00    1.55367E-03
 5.00000E+00    1.74607E-03
 5.20000E+00    1.97427E-03
 5.40000E+00    2.24599E-03
 5.60000E+00    2.53998E-03
 5.80000E+00    2.85487E-03
 6.00000E+00    3.23486E-03
 6.20000E+00    3.67631E-03
 6.40000E+00    4.23166E-03
 6.60000E+00    4.81306E-03
 6.80000E+00    5.39460E-03
 7.00000E+00    6.30543E-03
 7.20000E+00    7.31470E-03
 7.40000E+00    8.60460E-03
 7.60000E+00    9.96370E-03
 7.80000E+00    1.12284E-02
 8.00000E+00    1.33827E-02
 8.50000E+00    2.00689E-02
 9.00000E+00    2.98733E-02
 9.50000E+00    4.45488E-02
 1.00000E+01    6.63248E-02
 1.05000E+01    9.88761E-02
 1.10000E+01    1.45834E-01
 1.15000E+01    2.10673E-01
 1.20000E+01    2.96769E-01
 1.25000E+01    4.12217E-01
 1.30000E+01    5.55958E-01
 1.35000E+01    7.41855E-01
 1.40000E+01    9.75340E-01
 1.45000E+01    1.24039E+00
 1.50000E+01    1.56360E+00
 1.60000E+01    2.38605E+00
 1.70000E+01    3.54973E+00
 1.80000E+01    5.15578E+00
 1.90000E+01    7.42317E+00
 2.00000E+01    1.02304E+01
 2.10000E+01    1.31078E+01
 2.20000E+01    1.54066E+01
 2.30000E+01    1.67278E+01
 2.40000E+01    1.70232E+01
 2.50000E+01    1.66831E+01
 2.60000E+01    1.67910E+01
 2.70000E+01    1.70216E+01
 2.80000E+01    1.73512E+01
 2.90000E+01    1.77464E+01
 3.00000E+01    1.81805E+01
 3.00000E+01    1.81805E+01
 3.20000E+01    1.89738E+01
 3.40000E+01    1.96340E+01
 3.60000E+01    2.05244E+01
 3.80000E+01    2.13324E+01
 4.00000E+01    2.20642E+01
 4.20000E+01    2.27493E+01
 4.40000E+01    2.34562E+01
 4.60000E+01    2.40530E+01
 4.80000E+01    2.46325E+01
 5.00000E+01    2.52103E+01
 5.20000E+01    2.57874E+01
 5.40000E+01    2.63900E+01
 5.60000E+01    2.69695E+01
 5.80000E+01    2.75697E+01
 6.00000E+01    2.81897E+01
 6.50000E+01    2.97831E+01
 7.00000E+01    3.16023E+01
 7.50000E+01    3.33645E+01
 8.00000E+01    3.53531E+01
 9.00000E+01    4.07733E+01
 1.00000E+02    4.60212E+01
 1.10000E+02    5.23423E+01
 1.20000E+02    6.82527E+01
 1.30000E+02    7.84873E+01
 1.40000E+02    8.51702E+01
 1.50000E+02    8.67037E+01
 1.60000E+02    9.18928E+01
 1.80000E+02    1.29475E+02
 2.00000E+02    2.81960E+02
