# n + Re185 : (n,t)m    
# jendl.ad   N.Iwamoto                         EVAL-Apr14
# uncertainties: n
# # energies =    30
#   E(MeV)       xs(mb) 
 4.66843E+00    0.00000E+00
 6.00000E+00    3.39590E-26
 6.50000E+00    5.63820E-20
 7.00000E+00    3.83220E-16
 7.50000E+00    1.41130E-13
 8.00000E+00    9.07520E-12
 8.50000E+00    1.92810E-10
 9.00000E+00    2.08740E-09
 9.50000E+00    1.66140E-08
 1.00000E+01    1.20020E-07
 1.05000E+01    7.65210E-07
 1.10000E+01    4.00159E-06
 1.15000E+01    1.69885E-05
 1.20000E+01    5.78182E-05
 1.25000E+01    1.74671E-04
 1.30000E+01    4.60611E-04
 1.35000E+01    1.07856E-03
 1.40000E+01    2.26938E-03
 1.45000E+01    4.33083E-03
 1.50000E+01    7.56595E-03
 1.55000E+01    1.24168E-02
 1.60000E+01    1.82222E-02
 1.65000E+01    2.56482E-02
 1.70000E+01    3.51833E-02
 1.75000E+01    4.74433E-02
 1.80000E+01    5.69846E-02
 1.85000E+01    7.49244E-02
 1.90000E+01    8.76637E-02
 1.95000E+01    1.01485E-01
 2.00000E+01    1.04612E-01
