# n + Re185 : (n,xd)    
# jendl.ad   N.Iwamoto                         EVAL-Apr14
# 
# # energies =    93
#   E(MeV)        xs(mb) 
 1.05000E-01    0.00000E+00
 1.10000E-01    0.00000E+00
 1.20000E-01    0.00000E+00
 1.26043E-01    0.00000E+00
 1.30000E-01    0.00000E+00
 1.40000E-01    0.00000E+00
 1.50000E-01    0.00000E+00
 1.60000E-01    0.00000E+00
 1.70000E-01    0.00000E+00
 1.80000E-01    0.00000E+00
 1.90000E-01    0.00000E+00
 2.00000E-01    0.00000E+00
 2.25000E-01    0.00000E+00
 2.50000E-01    0.00000E+00
 2.75000E-01    0.00000E+00
 2.85750E-01    0.00000E+00
 3.00000E-01    0.00000E+00
 3.70309E-01    0.00000E+00
 4.00000E-01    0.00000E+00
 4.78294E-01    0.00000E+00
 5.00000E-01    0.00000E+00
 5.49983E-01    0.00000E+00
 6.00000E-01    0.00000E+00
 6.49658E-01    0.00000E+00
 7.00000E-01    0.00000E+00
 7.00902E-01    0.00000E+00
 7.21359E-01    0.00000E+00
 7.61631E-01    0.00000E+00
 7.73123E-01    0.00000E+00
 7.73124E-01    0.00000E+00
 8.00000E-01    0.00000E+00
 8.30505E-01    0.00000E+00
 8.40559E-01    0.00000E+00
 8.79586E-01    0.00000E+00
 8.85132E-01    0.00000E+00
 9.00000E-01    0.00000E+00
 9.22001E-01    0.00000E+00
 9.36141E-01    0.00000E+00
 9.54879E-01    0.00000E+00
 9.71268E-01    0.00000E+00
 1.00000E+00    0.00000E+00
 1.00022E+00    0.00000E+00
 1.00023E+00    0.00000E+00
 1.01852E+00    0.00000E+00
 1.05070E+00    0.00000E+00
 1.10000E+00    0.00000E+00
 1.20000E+00    0.00000E+00
 1.30000E+00    0.00000E+00
 1.40000E+00    0.00000E+00
 1.50000E+00    0.00000E+00
 1.60000E+00    0.00000E+00
 1.70000E+00    0.00000E+00
 1.80000E+00    0.00000E+00
 1.90000E+00    0.00000E+00
 2.00000E+00    0.00000E+00
 2.25000E+00    0.00000E+00
 2.50000E+00    0.00000E+00
 2.75000E+00    0.00000E+00
 3.00000E+00    0.00000E+00
 3.50000E+00    2.27860E-22
 4.00000E+00    3.41055E-20
 4.50000E+00    7.61840E-20
 5.00000E+00    1.96270E-16
 5.50000E+00    3.61800E-13
 6.00000E+00    5.37980E-11
 6.50000E+00    1.75710E-09
 7.00000E+00    2.18890E-08
 7.50000E+00    1.62000E-07
 8.00000E+00    1.20127E-06
 8.50000E+00    1.00548E-05
 9.00000E+00    7.10143E-05
 9.50000E+00    2.83492E-04
 1.00000E+01    1.24966E-03
 1.05000E+01    4.43251E-03
 1.10000E+01    1.31239E-02
 1.15000E+01    3.33897E-02
 1.20000E+01    7.45909E-02
 1.25000E+01    1.48741E-01
 1.30000E+01    2.68418E-01
 1.35000E+01    4.43924E-01
 1.40000E+01    6.81123E-01
 1.45000E+01    9.80888E-01
 1.50000E+01    1.33998E+00
 1.55000E+01    1.80866E+00
 1.60000E+01    2.23179E+00
 1.65000E+01    2.70295E+00
 1.70000E+01    3.22006E+00
 1.75000E+01    3.78078E+00
 1.80000E+01    4.29380E+00
 1.85000E+01    4.92906E+00
 1.90000E+01    5.60110E+00
 1.95000E+01    6.08788E+00
 2.00000E+01    6.81467E+00
