# n + Re185 : (n,d)     
# jendl.ad   N.Iwamoto                         EVAL-Apr14
# uncertainties: n
# # energies =    73
#   E(MeV)       xs(mb) 
 3.19659E+00    0.00000E+00
 3.30840E+00    7.97020E-23
 3.56263E+00    2.76290E-22
 3.94898E+00    3.01590E-20
 4.10480E+00    4.22120E-20
 4.20454E+00    5.06830E-20
 4.20805E+00    5.09820E-20
 4.32415E+00    6.09530E-20
 4.33278E+00    6.16940E-20
 4.33661E+00    6.20230E-20
 4.42454E+00    6.95770E-20
 4.45572E+00    7.22550E-20
 4.48719E+00    7.49590E-20
 4.48859E+00    7.50790E-20
 4.49857E+00    7.59360E-20
 4.50000E+00    7.61840E-20
 4.52593E+00    1.02480E-17
 4.54931E+00    1.94210E-17
 4.56438E+00    2.53340E-17
 4.59046E+00    3.55670E-17
 4.62935E+00    5.08270E-17
 4.63539E+00    5.31980E-17
 4.65074E+00    5.92210E-17
 4.68165E+00    7.13500E-17
 4.69673E+00    7.72670E-17
 4.70632E+00    8.10300E-17
 4.72818E+00    8.96080E-17
 4.74183E+00    9.49640E-17
 4.77539E+00    1.08130E-16
 4.78667E+00    1.12560E-16
 4.81895E+00    1.25230E-16
 4.82027E+00    1.25740E-16
 4.83316E+00    1.30800E-16
 4.84252E+00    1.34480E-16
 4.86662E+00    1.43930E-16
 4.88218E+00    1.50040E-16
 4.88917E+00    1.52780E-16
 4.90488E+00    1.58950E-16
 4.91941E+00    1.64650E-16
 4.92798E+00    1.68010E-16
 4.95214E+00    1.77490E-16
 4.96116E+00    1.81030E-16
 5.00000E+00    1.96270E-16
 5.50000E+00    3.61800E-13
 6.00000E+00    5.37980E-11
 6.50000E+00    1.75710E-09
 7.00000E+00    2.18890E-08
 7.50000E+00    1.62000E-07
 8.00000E+00    1.20127E-06
 8.50000E+00    1.00548E-05
 9.00000E+00    7.10143E-05
 9.50000E+00    2.83492E-04
 1.00000E+01    1.24966E-03
 1.05000E+01    4.43251E-03
 1.10000E+01    1.31239E-02
 1.15000E+01    3.33897E-02
 1.20000E+01    7.45909E-02
 1.25000E+01    1.48741E-01
 1.30000E+01    2.68418E-01
 1.35000E+01    4.43924E-01
 1.40000E+01    6.81123E-01
 1.45000E+01    9.80888E-01
 1.50000E+01    1.33998E+00
 1.55000E+01    1.80862E+00
 1.60000E+01    2.23156E+00
 1.65000E+01    2.70193E+00
 1.70000E+01    3.21648E+00
 1.75000E+01    3.77059E+00
 1.80000E+01    4.26789E+00
 1.85000E+01    4.87167E+00
 1.90000E+01    5.48871E+00
 1.95000E+01    5.89016E+00
 2.00000E+01    6.49145E+00
