# n + Pd107 : (n,xp)    
# jendl4.0   N.Iwamoto,K.Shibata               EVAL-Dec09
# 
# # energies =    81
#   E(MeV)        xs(mb) 
 1.05000E-01    0.00000E+00
 1.10000E-01    0.00000E+00
 1.16832E-01    0.00000E+00
 1.20000E-01    0.00000E+00
 1.30000E-01    0.00000E+00
 1.40000E-01    0.00000E+00
 1.50000E-01    0.00000E+00
 1.60000E-01    0.00000E+00
 1.70000E-01    0.00000E+00
 1.80000E-01    0.00000E+00
 1.90000E-01    0.00000E+00
 2.00000E-01    0.00000E+00
 2.16625E-01    0.00000E+00
 2.25000E-01    0.00000E+00
 2.50000E-01    0.00000E+00
 2.75000E-01    0.00000E+00
 3.00000E-01    0.00000E+00
 3.05637E-01    0.00000E+00
 3.15146E-01    0.00000E+00
 3.51465E-01    0.00000E+00
 3.70261E-01    0.00000E+00
 3.85402E-01    0.00000E+00
 3.96122E-01    0.00000E+00
 3.96123E-01    0.00000E+00
 4.00000E-01    0.00000E+00
 4.15887E-01    0.00000E+00
 4.75656E-01    0.00000E+00
 5.00000E-01    0.00000E+00
 6.00000E-01    0.00000E+00
 7.00000E-01    0.00000E+00
 8.00000E-01    4.31543E-11
 9.00000E-01    1.03742E-10
 1.00000E+00    1.94511E-10
 1.10000E+00    4.85128E-10
 1.20000E+00    8.94618E-10
 1.30000E+00    1.41844E-09
 1.40000E+00    2.64616E-09
 1.50000E+00    3.95427E-09
 1.60000E+00    5.27352E-09
 1.70000E+00    6.64022E-09
 1.80000E+00    8.27610E-09
 1.90000E+00    1.30620E-08
 2.00000E+00    2.68450E-08
 2.25000E+00    3.27300E-07
 2.50000E+00    3.06659E-06
 2.75000E+00    1.86919E-05
 3.00000E+00    7.98059E-05
 3.50000E+00    7.62214E-04
 4.00000E+00    3.80793E-03
 4.50000E+00    1.23076E-02
 5.00000E+00    2.91472E-02
 5.50000E+00    5.50239E-02
 6.00000E+00    8.81969E-02
 6.50000E+00    1.27493E-01
 7.00000E+00    1.77878E-01
 7.50000E+00    2.55863E-01
 8.00000E+00    3.91721E-01
 8.50000E+00    6.23180E-01
 9.00000E+00    9.86776E-01
 9.50000E+00    1.51246E+00
 1.00000E+01    2.22199E+00
 1.05000E+01    3.13082E+00
 1.10000E+01    4.24467E+00
 1.15000E+01    5.57156E+00
 1.20000E+01    7.11052E+00
 1.25000E+01    8.85869E+00
 1.30000E+01    1.08163E+01
 1.35000E+01    1.29685E+01
 1.40000E+01    1.53241E+01
 1.45000E+01    1.78503E+01
 1.50000E+01    2.05699E+01
 1.55000E+01    2.34262E+01
 1.60000E+01    2.64583E+01
 1.65000E+01    2.95928E+01
 1.70000E+01    3.28841E+01
 1.75000E+01    3.62357E+01
 1.80000E+01    3.97243E+01
 1.85000E+01    4.32612E+01
 1.90000E+01    4.69160E+01
 1.95000E+01    5.06006E+01
 2.00000E+01    5.44145E+01
