# n + Pd107 : (n,tot)   
# jendl4.0   N.Iwamoto,K.Shibata               EVAL-Dec09
# uncertainties: n
# # energies =   171
#   E(MeV)       xs(mb) 
 1.00000E-11    1.07092E+05
 1.00000E-07    6.49948E+03
 4.13990E-07    5.18724E+03
 5.31580E-07    4.89720E+03
 6.82560E-07    4.64037E+03
 8.76420E-07    4.41521E+03
 1.12540E-06    4.22137E+03
 1.44500E-06    4.05794E+03
 1.85540E-06    3.92572E+03
 2.37240E-06    3.83164E+03
 3.05900E-06    4.33165E+03
 3.92790E-06    5.04345E+03
 5.04350E-06    9.92081E+03
 6.47600E-06    1.15777E+04
 8.31530E-06    3.46483E+03
 1.06770E-05    3.35301E+03
 1.37100E-05    3.27265E+03
 1.76030E-05    3.18307E+03
 2.26030E-05    9.72211E+03
 2.92030E-05    2.99337E+03
 3.72670E-05    2.56256E+05
 4.78510E-05    2.95433E+04
 6.14420E-05    5.75804E+03
 7.88930E-05    5.21708E+04
 1.01300E-04    1.51761E+04
 1.30070E-04    3.35488E+04
 1.67020E-04    4.12642E+04
 2.14450E-04    2.04619E+04
 2.75360E-04    2.19261E+04
 3.53580E-04    1.52200E+04
 4.54000E-04    2.75315E+04
 5.82950E-04    2.16430E+04
 7.48520E-04    4.50729E+04
 9.61120E-04    1.30762E+04
 1.23410E-03    1.33978E+04
 1.58460E-03    1.25088E+04
 2.03470E-03    1.19199E+04
 2.24870E-03    1.15968E+04
 2.48520E-03    1.13600E+04
 2.61260E-03    1.12050E+04
 2.74650E-03    1.09771E+04
 3.03540E-03    1.06795E+04
 3.35460E-03    1.03904E+04
 3.70740E-03    1.00538E+04
 4.30740E-03    9.64856E+03
 5.53080E-03    9.18115E+03
 7.10170E-03    8.79532E+03
 9.11880E-03    8.49984E+03
 1.17090E-02    8.31529E+03
 1.50340E-02    8.14420E+03
 1.93050E-02    8.02639E+03
 2.18750E-02    7.98389E+03
 2.35790E-02    7.96334E+03
 2.41760E-02    7.95348E+03
 2.47880E-02    7.93840E+03
 2.60580E-02    7.92061E+03
 2.70000E-02    7.90275E+03
 2.85000E-02    7.87410E+03
 3.18280E-02    7.86140E+03
 3.43070E-02    7.84930E+03
 4.08680E-02    7.83521E+03
 4.63090E-02    7.82510E+03
 5.24750E-02    7.83367E+03
 5.65620E-02    7.85277E+03
 6.73790E-02    7.87130E+03
 7.20000E-02    7.88551E+03
 7.95000E-02    7.89809E+03
 8.25000E-02    7.90654E+03
 8.65170E-02    7.92436E+03
 9.80370E-02    7.94675E+03
 1.11090E-01    7.95870E+03
 1.16790E-01    7.96597E+03
 1.22770E-01    7.97362E+03
 1.29070E-01    7.98167E+03
 1.35690E-01    7.98699E+03
 1.42640E-01    7.98754E+03
 1.49960E-01    7.98805E+03
 1.57640E-01    7.98858E+03
 1.65730E-01    7.98915E+03
 1.74220E-01    7.98974E+03
 1.83160E-01    7.99036E+03
 1.92550E-01    7.99058E+03
 2.02420E-01    7.98056E+03
 2.12800E-01    7.96563E+03
 2.23710E-01    7.94993E+03
 2.35180E-01    7.93342E+03
 2.47240E-01    7.90695E+03
 2.73240E-01    7.87865E+03
 2.87250E-01    7.86366E+03
 2.94520E-01    7.85666E+03
 2.97200E-01    7.85387E+03
 2.98500E-01    7.85052E+03
 3.01970E-01    7.82328E+03
 3.33730E-01    7.76356E+03
 3.68830E-01    7.71434E+03
 3.87740E-01    7.67927E+03
 4.07620E-01    7.62302E+03
 4.50490E-01    7.54088E+03
 4.97870E-01    7.47372E+03
 5.23400E-01    7.42587E+03
 5.50230E-01    7.37558E+03
 5.78440E-01    7.32270E+03
 6.08100E-01    7.26710E+03
 6.39280E-01    7.20866E+03
 6.72060E-01    7.14722E+03
 7.06510E-01    7.08267E+03
 7.42740E-01    7.01920E+03
 7.80820E-01    6.95556E+03
 8.20850E-01    6.88865E+03
 8.62940E-01    6.81830E+03
 9.07180E-01    6.73800E+03
 9.61640E-01    6.66003E+03
 1.00260E+00    6.54195E+03
 1.10800E+00    6.41124E+03
 1.16480E+00    6.32648E+03
 1.22460E+00    6.23793E+03
 1.28730E+00    6.14483E+03
 1.35340E+00    6.04799E+03
 1.42270E+00    5.95347E+03
 1.49570E+00    5.85549E+03
 1.57240E+00    5.75494E+03
 1.65300E+00    5.65066E+03
 1.73770E+00    5.54558E+03
 1.82680E+00    5.44775E+03
 1.92050E+00    5.34562E+03
 2.01900E+00    5.23828E+03
 2.12250E+00    5.12645E+03
 2.23130E+00    5.03807E+03
 2.30690E+00    4.98520E+03
 2.34570E+00    4.95825E+03
 2.36530E+00    4.94005E+03
 2.38520E+00    4.89422E+03
 2.46600E+00    4.80971E+03
 2.59240E+00    4.70723E+03
 2.72530E+00    4.60505E+03
 2.86500E+00    4.50854E+03
 3.01190E+00    4.41910E+03
 3.16640E+00    4.34023E+03
 3.32870E+00    4.22660E+03
 3.67880E+00    4.11871E+03
 4.06570E+00    4.05513E+03
 4.49330E+00    4.03539E+03
 4.72370E+00    4.04051E+03
 4.96590E+00    4.04854E+03
 5.22050E+00    4.06876E+03
 5.48810E+00    4.09142E+03
 5.76950E+00    4.11766E+03
 6.06530E+00    4.14700E+03
 6.37630E+00    4.17256E+03
 6.59240E+00    4.18842E+03
 6.70320E+00    4.21028E+03
 7.04690E+00    4.24437E+03
 7.40820E+00    4.28021E+03
 7.78800E+00    4.31730E+03
 8.18730E+00    4.34974E+03
 8.60710E+00    4.38202E+03
 9.04840E+00    4.41569E+03
 9.51230E+00    4.44391E+03
 1.00000E+01    4.46394E+03
 1.05130E+01    4.47815E+03
 1.10520E+01    4.48239E+03
 1.16180E+01    4.47840E+03
 1.22140E+01    4.46114E+03
 1.28400E+01    4.43506E+03
 1.34990E+01    4.40636E+03
 1.38400E+01    4.38578E+03
 1.41910E+01    4.35884E+03
 1.45500E+01    4.33115E+03
 1.49180E+01    4.28347E+03
 1.56830E+01    4.21104E+03
 1.64870E+01    4.12856E+03
