# n + Pd107 : (n,el)    
# jendl4.0   N.Iwamoto,K.Shibata               EVAL-Dec09
# uncertainties: n
# # energies =   171
#   E(MeV)       xs(mb) 
 1.00000E-11    5.94103E+03
 1.00000E-07    3.43936E+03
 4.13990E-07    3.42616E+03
 5.31580E-07    3.41989E+03
 6.82560E-07    3.41278E+03
 8.76420E-07    3.40399E+03
 1.12540E-06    3.39460E+03
 1.44500E-06    3.38310E+03
 1.85540E-06    3.36849E+03
 2.37240E-06    3.34936E+03
 3.05900E-06    3.32235E+03
 3.92790E-06    3.28894E+03
 5.04350E-06    3.29887E+03
 6.47600E-06    3.30163E+03
 8.31530E-06    3.25037E+03
 1.06770E-05    3.18898E+03
 1.37100E-05    3.11206E+03
 1.76030E-05    2.99208E+03
 2.26030E-05    2.79518E+03
 2.92030E-05    2.31865E+03
 3.72670E-05    7.24294E+04
 4.78510E-05    8.19523E+03
 6.14420E-05    3.81297E+03
 7.88930E-05    1.08308E+04
 1.01300E-04    4.75695E+03
 1.30070E-04    9.13019E+03
 1.67020E-04    1.49669E+04
 2.14450E-04    8.22197E+03
 2.75360E-04    7.96984E+03
 3.53580E-04    7.07996E+03
 4.54000E-04    1.47410E+04
 5.82950E-04    1.26167E+04
 7.48520E-04    4.22702E+04
 9.61120E-04    7.90835E+03
 1.23410E-03    7.96525E+03
 1.58460E-03    7.78467E+03
 2.03470E-03    7.63657E+03
 2.24870E-03    7.53143E+03
 2.48520E-03    7.45338E+03
 2.61260E-03    7.40176E+03
 2.74650E-03    7.32504E+03
 3.03540E-03    7.22425E+03
 3.35460E-03    7.12450E+03
 3.70740E-03    7.00683E+03
 4.30740E-03    6.86147E+03
 5.53080E-03    6.69004E+03
 7.10170E-03    6.55094E+03
 9.11880E-03    6.45695E+03
 1.17090E-02    6.43857E+03
 1.50340E-02    6.42714E+03
 1.93050E-02    6.42721E+03
 2.18750E-02    6.44934E+03
 2.35790E-02    6.46119E+03
 2.41760E-02    6.46692E+03
 2.47880E-02    6.47568E+03
 2.60580E-02    6.48602E+03
 2.70000E-02    6.49649E+03
 2.85000E-02    6.51999E+03
 3.18280E-02    6.56178E+03
 3.43070E-02    6.62283E+03
 4.08680E-02    6.69709E+03
 4.63090E-02    6.76080E+03
 5.24750E-02    6.82203E+03
 5.65620E-02    6.90300E+03
 6.73790E-02    6.98065E+03
 7.20000E-02    7.03377E+03
 7.95000E-02    7.07760E+03
 8.25000E-02    7.10448E+03
 8.65170E-02    7.15884E+03
 9.80370E-02    7.22958E+03
 1.11090E-01    7.27287E+03
 1.16790E-01    7.29904E+03
 1.22770E-01    7.31424E+03
 1.29070E-01    7.32366E+03
 1.35690E-01    7.33016E+03
 1.42640E-01    7.33152E+03
 1.49960E-01    7.33130E+03
 1.57640E-01    7.32943E+03
 1.65730E-01    7.32747E+03
 1.74220E-01    7.32540E+03
 1.83160E-01    7.32323E+03
 1.92550E-01    7.32095E+03
 2.02420E-01    7.31393E+03
 2.12800E-01    7.29752E+03
 2.23710E-01    7.28003E+03
 2.35180E-01    7.26164E+03
 2.47240E-01    7.23216E+03
 2.73240E-01    7.20064E+03
 2.87250E-01    7.18394E+03
 2.94520E-01    7.17614E+03
 2.97200E-01    7.17303E+03
 2.98500E-01    7.16931E+03
 3.01970E-01    7.05547E+03
 3.33730E-01    6.73164E+03
 3.68830E-01    6.42898E+03
 3.87740E-01    6.20594E+03
 4.07620E-01    5.89116E+03
 4.50490E-01    5.53882E+03
 4.97870E-01    5.33168E+03
 5.23400E-01    5.22242E+03
 5.50230E-01    5.11027E+03
 5.78440E-01    5.00601E+03
 6.08100E-01    4.91133E+03
 6.39280E-01    4.82466E+03
 6.72060E-01    4.73657E+03
 7.06510E-01    4.65875E+03
 7.42740E-01    4.57891E+03
 7.80820E-01    4.50011E+03
 8.20850E-01    4.42397E+03
 8.62940E-01    4.34461E+03
 9.07180E-01    4.26085E+03
 9.61640E-01    4.18094E+03
 1.00260E+00    4.06016E+03
 1.10800E+00    3.93197E+03
 1.16480E+00    3.84582E+03
 1.22460E+00    3.75532E+03
 1.28730E+00    3.66030E+03
 1.35340E+00    3.56648E+03
 1.42270E+00    3.47120E+03
 1.49570E+00    3.37314E+03
 1.57240E+00    3.27859E+03
 1.65300E+00    3.18007E+03
 1.73770E+00    3.07771E+03
 1.82680E+00    2.97489E+03
 1.92050E+00    2.86769E+03
 2.01900E+00    2.77012E+03
 2.12250E+00    2.67622E+03
 2.23130E+00    2.59798E+03
 2.30690E+00    2.54951E+03
 2.34570E+00    2.52474E+03
 2.36530E+00    2.50802E+03
 2.38520E+00    2.46569E+03
 2.46600E+00    2.38974E+03
 2.59240E+00    2.31203E+03
 2.72530E+00    2.23256E+03
 2.86500E+00    2.15021E+03
 3.01190E+00    2.08079E+03
 3.16640E+00    2.02107E+03
 3.32870E+00    1.93971E+03
 3.67880E+00    1.86322E+03
 4.06570E+00    1.82171E+03
 4.49330E+00    1.81271E+03
 4.72370E+00    1.82190E+03
 4.96590E+00    1.83800E+03
 5.22050E+00    1.86576E+03
 5.48810E+00    1.89869E+03
 5.76950E+00    1.94042E+03
 6.06530E+00    1.98566E+03
 6.37630E+00    2.02778E+03
 6.59240E+00    2.05710E+03
 6.70320E+00    2.09107E+03
 7.04690E+00    2.14323E+03
 7.40820E+00    2.19806E+03
 7.78800E+00    2.25177E+03
 8.18730E+00    2.30355E+03
 8.60710E+00    2.35010E+03
 9.04840E+00    2.39353E+03
 9.51230E+00    2.43120E+03
 1.00000E+01    2.45944E+03
 1.05130E+01    2.48175E+03
 1.10520E+01    2.49412E+03
 1.16180E+01    2.49812E+03
 1.22140E+01    2.48896E+03
 1.28400E+01    2.47097E+03
 1.34990E+01    2.44868E+03
 1.38400E+01    2.43212E+03
 1.41910E+01    2.41023E+03
 1.45500E+01    2.38710E+03
 1.49180E+01    2.34713E+03
 1.56830E+01    2.28576E+03
 1.64870E+01    2.21563E+03
