# n + Am242m: (n,el)    
# jendl4.0   O.Iwamoto,T.Nakagawa,T.Ohsawa,+   EVAL-JAN10
# uncertainties: y
# # energies =    69
#   E(MeV)       xs(mb)       xslow(mb)      xsupp(mb)
 1.00000E-10    5.72736E+03    5.72736E+03    5.72736E+03
 5.00000E-09    5.13906E+03    5.13906E+03    5.13906E+03
 1.00000E-08    5.15206E+03    5.15206E+03    5.15206E+03
 1.50000E-08    5.17999E+03    5.17999E+03    5.17999E+03
 2.00000E-08    5.21622E+03    5.21622E+03    5.21622E+03
 2.50000E-08    5.25965E+03    5.25965E+03    5.25965E+03
 3.00000E-08    5.31025E+03    5.31025E+03    5.31025E+03
 3.50000E-08    5.38015E+03    5.38015E+03    5.38015E+03
 4.20000E-08    5.48362E+03    5.48362E+03    5.48362E+03
 5.00000E-08    5.61503E+03    5.61503E+03    5.61503E+03
 5.80000E-08    5.78040E+03    5.78040E+03    5.78040E+03
 6.70000E-08    6.03740E+03    6.03740E+03    6.03740E+03
 8.00000E-08    6.52371E+03    6.52371E+03    6.52371E+03
 1.00000E-07    7.73045E+03    7.73045E+03    7.73045E+03
 1.40000E-07    9.87112E+03    9.87112E+03    9.87112E+03
 1.80000E-07    1.19227E+04    1.19227E+04    1.19227E+04
 2.20000E-07    1.30377E+04    1.30377E+04    1.30377E+04
 2.50000E-07    1.33359E+04    1.33359E+04    1.33359E+04
 2.80000E-07    1.32561E+04    1.32561E+04    1.32561E+04
 3.00000E-07    1.30482E+04    1.30482E+04    1.30482E+04
 3.20000E-07    1.26959E+04    1.26959E+04    1.26959E+04
 3.50000E-07    1.20656E+04    1.20656E+04    1.20656E+04
 4.00000E-07    1.10238E+04    1.10238E+04    1.10238E+04
 5.00000E-07    1.06297E+04    1.06297E+04    1.06297E+04
 6.25000E-07    1.14703E+04    1.14703E+04    1.14703E+04
 7.80000E-07    1.09023E+04    1.09023E+04    1.09023E+04
 8.50000E-07    1.05805E+04    1.05805E+04    1.05805E+04
 9.10000E-07    1.04135E+04    1.04135E+04    1.04135E+04
 9.50000E-07    1.03410E+04    1.03410E+04    1.03410E+04
 9.72000E-07    1.03008E+04    1.03008E+04    1.03008E+04
 9.96000E-07    1.02686E+04    1.02686E+04    1.02686E+04
 1.02000E-06    1.02450E+04    1.02450E+04    1.02450E+04
 1.04500E-06    1.02278E+04    1.02278E+04    1.02278E+04
 1.07100E-06    1.02154E+04    1.02154E+04    1.02154E+04
 1.09700E-06    1.02084E+04    1.02084E+04    1.02084E+04
 1.12300E-06    1.02017E+04    1.02017E+04    1.02017E+04
 1.15000E-06    1.01685E+04    1.01685E+04    1.01685E+04
 1.30000E-06    9.96047E+03    9.96047E+03    9.96047E+03
 1.50000E-06    9.56244E+03    9.56244E+03    9.56244E+03
 2.10000E-06    9.92220E+03    9.92220E+03    9.92220E+03
 2.60000E-06    8.64499E+03    8.64499E+03    8.64499E+03
 3.30000E-06    9.88852E+03    9.88852E+03    9.88852E+03
 4.00000E-06    1.05120E+04    1.05120E+04    1.05120E+04
 9.87700E-06    9.65432E+03    9.65432E+03    9.65432E+03
 1.59680E-05    1.05816E+04    1.05816E+04    1.05816E+04
 2.77000E-05    1.20148E+04    1.20148E+04    1.20148E+04
 4.80520E-05    1.22727E+04    9.70768E+03    1.48376E+04
 7.55014E-05    1.22554E+04    9.69400E+03    1.48167E+04
 1.48728E-04    1.22213E+04    9.66707E+03    1.47756E+04
 3.67262E-04    1.21595E+04    9.61813E+03    1.47008E+04
 9.06898E-04    1.20883E+04    9.56188E+03    1.46148E+04
 1.42510E-03    1.20241E+04    9.51103E+03    1.45371E+04
 2.23945E-03    1.19424E+04    9.42252E+03    1.44622E+04
 3.51910E-03    1.18366E+04    9.33908E+03    1.43341E+04
 5.53000E-03    1.16773E+04    9.19007E+03    1.41646E+04
 9.11800E-03    1.13617E+04    8.93030E+03    1.37931E+04
 1.50300E-02    1.10255E+04    8.65505E+03    1.33960E+04
 2.47800E-02    1.06900E+04    8.40232E+03    1.29776E+04
 4.08500E-02    1.01518E+04    8.04020E+03    1.22633E+04
 6.73400E-02    9.36844E+03    7.49475E+03    1.12421E+04
 1.11000E-01    8.49835E+03    6.96015E+03    1.00366E+04
 1.83000E-01    7.30462E+03    5.98248E+03    8.62675E+03
 3.02000E-01    5.97600E+03    5.53199E+03    6.42002E+03
 5.00000E-01    4.85036E+03    4.72328E+03    4.97744E+03
 8.21000E-01    4.01419E+03    3.64087E+03    4.38751E+03
 1.35300E+00    3.82605E+03    3.59993E+03    4.05217E+03
 2.23100E+00    4.29045E+03    3.84853E+03    4.73236E+03
 3.67900E+00    4.28343E+03    4.05427E+03    4.51260E+03
 6.06500E+00    3.31979E+03    3.03761E+03    3.60198E+03
