# n + Am242m: (n,f)     
# jendl4.0   O.Iwamoto,T.Nakagawa,T.Ohsawa,+   EVAL-JAN10
# uncertainties: y
# # energies =    69
#   E(MeV)       xs(mb)       xslow(mb)      xsupp(mb)
 1.00000E-10    3.83769E+07    3.76094E+07    3.91444E+07
 5.00000E-09    1.08643E+07    1.06470E+07    1.10816E+07
 1.00000E-08    8.49487E+06    8.32498E+06    8.66477E+06
 1.50000E-08    7.36545E+06    7.21814E+06    7.51275E+06
 2.00000E-08    6.68734E+06    6.55359E+06    6.82108E+06
 2.50000E-08    6.23509E+06    6.11039E+06    6.35979E+06
 3.00000E-08    5.91524E+06    5.79694E+06    6.03354E+06
 3.50000E-08    5.64638E+06    5.53345E+06    5.75931E+06
 4.20000E-08    5.41467E+06    5.30638E+06    5.52296E+06
 5.00000E-08    5.25334E+06    5.14827E+06    5.35841E+06
 5.80000E-08    5.14885E+06    5.04587E+06    5.25182E+06
 6.70000E-08    5.08106E+06    4.97944E+06    5.18268E+06
 8.00000E-08    5.06142E+06    4.96020E+06    5.16265E+06
 1.00000E-07    5.10734E+06    5.00519E+06    5.20949E+06
 1.40000E-07    5.01724E+06    4.91690E+06    5.11759E+06
 1.80000E-07    4.49472E+06    4.40483E+06    4.58462E+06
 2.20000E-07    3.75411E+06    3.67903E+06    3.82919E+06
 2.50000E-07    3.09036E+06    3.02855E+06    3.15217E+06
 2.80000E-07    2.59474E+06    2.54284E+06    2.64663E+06
 3.00000E-07    2.26328E+06    2.21802E+06    2.30855E+06
 3.20000E-07    1.93014E+06    1.89153E+06    1.96874E+06
 3.50000E-07    1.55375E+06    1.52268E+06    1.58483E+06
 4.00000E-07    1.22369E+06    1.19921E+06    1.24816E+06
 5.00000E-07    1.23863E+06    1.21385E+06    1.26340E+06
 6.25000E-07    9.84116E+05    9.64434E+05    1.00380E+06
 7.80000E-07    6.72083E+05    6.58641E+05    6.85524E+05
 8.50000E-07    6.10169E+05    5.97966E+05    6.22373E+05
 9.10000E-07    5.84323E+05    5.72636E+05    5.96009E+05
 9.50000E-07    5.72877E+05    5.61419E+05    5.84334E+05
 9.72000E-07    5.65495E+05    5.54185E+05    5.76804E+05
 9.96000E-07    5.58069E+05    5.46907E+05    5.69230E+05
 1.02000E-06    5.50475E+05    5.39465E+05    5.61484E+05
 1.04500E-06    5.42149E+05    5.31306E+05    5.52992E+05
 1.07100E-06    5.32962E+05    5.22303E+05    5.43621E+05
 1.09700E-06    5.22937E+05    5.12479E+05    5.33396E+05
 1.12300E-06    5.11689E+05    5.01455E+05    5.21922E+05
 1.15000E-06    4.67892E+05    4.58535E+05    4.77250E+05
 1.30000E-06    3.78497E+05    3.70927E+05    3.86067E+05
 1.50000E-06    3.42736E+05    3.35882E+05    3.49591E+05
 2.10000E-06    2.35031E+05    2.30330E+05    2.39731E+05
 2.60000E-06    2.86887E+05    2.81149E+05    2.92625E+05
 3.30000E-06    2.82288E+05    2.76642E+05    2.87933E+05
 4.00000E-06    1.55799E+05    1.52683E+05    1.58915E+05
 9.87700E-06    1.04503E+05    1.02413E+05    1.06593E+05
 1.59680E-05    1.00698E+05    9.52599E+04    1.06135E+05
 2.77000E-05    7.84577E+04    6.27662E+04    9.41492E+04
 4.80520E-05    6.69134E+04    6.42368E+04    6.95899E+04
 7.55014E-05    4.41418E+04    4.25717E+04    4.57119E+04
 1.48728E-04    3.14162E+04    3.01492E+04    3.26832E+04
 3.67262E-04    1.75718E+04    1.67675E+04    1.83760E+04
 9.06898E-04    1.27171E+04    1.21119E+04    1.33223E+04
 1.42510E-03    9.97619E+03    9.54622E+03    1.04062E+04
 2.23945E-03    7.98781E+03    7.64865E+03    8.32698E+03
 3.51910E-03    6.72586E+03    6.44122E+03    7.01050E+03
 5.53000E-03    5.31361E+03    5.05771E+03    5.56952E+03
 9.11800E-03    4.38555E+03    4.15062E+03    4.62048E+03
 1.50300E-02    3.71357E+03    3.50928E+03    3.91785E+03
 2.47800E-02    3.18272E+03    2.98621E+03    3.37922E+03
 4.08500E-02    2.89656E+03    2.78536E+03    3.00776E+03
 6.73400E-02    2.78126E+03    2.67446E+03    2.88806E+03
 1.11000E-01    2.59351E+03    2.50819E+03    2.67884E+03
 1.83000E-01    2.40192E+03    2.32895E+03    2.47490E+03
 3.02000E-01    2.20299E+03    2.13833E+03    2.26765E+03
 5.00000E-01    1.89321E+03    1.83757E+03    1.94885E+03
 8.21000E-01    1.67228E+03    1.62156E+03    1.72300E+03
 1.35300E+00    1.73297E+03    1.68147E+03    1.78447E+03
 2.23100E+00    1.78577E+03    1.73213E+03    1.83942E+03
 3.67900E+00    1.66012E+03    1.60730E+03    1.71295E+03
 6.06500E+00    2.05403E+03    1.97762E+03    2.13044E+03
