# n + Am242m: (n,n'14)  
# jendl4.0   O.Iwamoto,T.Nakagawa,T.Ohsawa,+   EVAL-JAN10
# uncertainties: y
# # energies =    74
#   E(MeV)       xs(mb)       xslow(mb)      xsupp(mb)
 2.15293E-01    0.00000E+00    0.00000E+00    0.00000E+00
 2.22222E-01    8.52725E+00    1.50932E+00    1.55452E+01
 2.26671E-01    1.13065E+01    2.00125E+00    2.06117E+01
 2.35879E-01    1.63296E+01    2.89034E+00    2.97689E+01
 2.41412E-01    1.90284E+01    3.36803E+00    3.46888E+01
 2.45258E-01    2.08156E+01    3.68436E+00    3.79468E+01
 2.48843E-01    2.24440E+01    3.97259E+00    4.09154E+01
 2.50000E-01    2.29566E+01    4.06332E+00    4.18499E+01
 2.59477E-01    2.69228E+01    4.76534E+00    4.90803E+01
 2.80404E-01    3.43784E+01    6.08498E+00    6.26718E+01
 2.83286E-01    3.52918E+01    6.24665E+00    6.43369E+01
 2.94201E-01    3.85700E+01    6.82689E+00    7.03131E+01
 2.94623E-01    3.86895E+01    6.84804E+00    7.05310E+01
 3.00000E-01    4.00701E+01    7.09241E+00    7.30478E+01
 3.08370E-01    4.21256E+01    7.45623E+00    7.67950E+01
 3.17417E-01    4.41407E+01    7.81290E+00    8.04685E+01
 3.23141E-01    4.53177E+01    8.02123E+00    8.26142E+01
 3.25220E-01    4.57092E+01    8.09053E+00    8.33279E+01
 4.00000E-01    5.46941E+01    1.50956E+01    9.42926E+01
 5.00000E-01    5.43199E+01    1.49923E+01    9.36475E+01
 6.00000E-01    4.65877E+01    2.58096E+01    6.73658E+01
 7.00000E-01    3.71168E+01    2.05627E+01    5.36709E+01
 8.00000E-01    2.84250E+01    2.17167E+01    3.51333E+01
 9.00000E-01    2.13425E+01    1.63057E+01    2.63793E+01
 1.00000E+00    1.59649E+01    1.28038E+01    1.91259E+01
 1.10000E+00    1.19191E+01    9.55912E+00    1.42791E+01
 1.20000E+00    8.94635E+00    7.09446E+00    1.07982E+01
 1.30000E+00    6.76647E+00    5.36581E+00    8.16713E+00
 1.40000E+00    5.16377E+00    4.09487E+00    6.23267E+00
 1.50000E+00    3.97575E+00    2.96989E+00    4.98161E+00
 1.60000E+00    3.08821E+00    2.30689E+00    3.86953E+00
 1.70000E+00    2.41735E+00    1.80576E+00    3.02894E+00
 1.80000E+00    1.90935E+00    1.42628E+00    2.39242E+00
 1.90000E+00    1.51798E+00    1.13393E+00    1.90203E+00
 2.00000E+00    1.21918E+00    8.42453E-01    1.59591E+00
 2.10000E+00    9.84654E-01    6.80396E-01    1.28891E+00
 2.30000E+00    6.64953E-01    4.59483E-01    8.70424E-01
 2.50000E+00    4.68815E-01    3.47861E-01    5.89769E-01
 2.70000E+00    3.47109E-01    2.57555E-01    4.36663E-01
 3.00000E+00    2.43698E-01    1.91059E-01    2.96337E-01
 3.50000E+00    1.67639E-01    1.29585E-01    2.05693E-01
 4.00000E+00    1.36213E-01    1.03658E-01    1.68768E-01
 4.50000E+00    1.19619E-01    9.10301E-02    1.48208E-01
 5.00000E+00    1.08146E-01    8.08932E-02    1.35399E-01
 5.50000E+00    1.00174E-01    7.49302E-02    1.25418E-01
 6.00000E+00    9.35064E-02    6.92882E-02    1.17725E-01
 6.50000E+00    8.84330E-02    6.55288E-02    1.11337E-01
 7.00000E+00    8.41616E-02    6.22796E-02    1.06044E-01
 7.50000E+00    8.03272E-02    5.94421E-02    1.01212E-01
 8.00000E+00    7.68238E-02    5.76947E-02    9.59529E-02
 8.50000E+00    7.31297E-02    5.49204E-02    9.13390E-02
 9.00000E+00    6.95759E-02    5.30864E-02    8.60654E-02
 9.50000E+00    6.59488E-02    5.03189E-02    8.15787E-02
 1.00000E+01    6.24848E-02    4.81758E-02    7.67938E-02
 1.05000E+01    5.92021E-02    4.56448E-02    7.27594E-02
 1.10000E+01    5.61220E-02    4.32701E-02    6.89739E-02
 1.15000E+01    5.32916E-02    4.10878E-02    6.54954E-02
 1.20000E+01    5.07446E-02    3.94286E-02    6.20606E-02
 1.25000E+01    4.84673E-02    3.76591E-02    5.92755E-02
 1.30000E+01    4.63479E-02    3.60123E-02    5.66835E-02
 1.35000E+01    4.43770E-02    3.44809E-02    5.42731E-02
 1.40000E+01    4.25271E-02    3.33412E-02    5.17129E-02
 1.45000E+01    4.08094E-02    3.19946E-02    4.96242E-02
 1.50000E+01    3.92053E-02    3.08546E-02    4.75560E-02
 1.55000E+01    3.77130E-02    2.96801E-02    4.57459E-02
 1.60000E+01    3.63141E-02    2.87245E-02    4.39037E-02
 1.65000E+01    3.50099E-02    2.76928E-02    4.23270E-02
 1.70000E+01    3.37840E-02    2.67231E-02    4.08449E-02
 1.75000E+01    3.26370E-02    2.58159E-02    3.94581E-02
 1.80000E+01    3.15552E-02    2.51810E-02    3.79293E-02
 1.85000E+01    3.05349E-02    2.43668E-02    3.67029E-02
 1.90000E+01    2.95686E-02    2.35957E-02    3.55415E-02
 1.95000E+01    2.86514E-02    2.28638E-02    3.44390E-02
 2.00000E+01    2.77788E-02    2.21675E-02    3.33901E-02
