# n + Xe124 : (n,2a)g   
# jendl.ad   kunieda                           EVAL-Mar14
# uncertainties: n
# # energies =   159
#   E(MeV)       xs(mb) 
 1.00000E-11    0.00000E+00
 2.53000E-08    0.00000E+00
 7.00000E+00    0.00000E+00
 7.00000E+00    5.52000E-19
 7.50000E+00    1.92550E-15
 8.00000E+00    4.98160E-14
 8.50000E+00    4.63970E-13
 9.00000E+00    2.69540E-12
 9.50000E+00    1.17750E-11
 1.00000E+01    6.30260E-11
 1.05000E+01    2.44880E-10
 1.10000E+01    9.43560E-10
 1.15000E+01    3.32170E-09
 1.20000E+01    1.05990E-08
 1.25000E+01    3.51720E-08
 1.26232E+01    4.69940E-08
 1.26464E+01    4.96180E-08
 1.26682E+01    5.22090E-08
 1.27092E+01    5.74410E-08
 1.27452E+01    6.24450E-08
 1.27768E+01    6.71800E-08
 1.28045E+01    7.16140E-08
 1.28287E+01    7.57390E-08
 1.28500E+01    7.95360E-08
 1.28874E+01    8.66540E-08
 1.29154E+01    9.23990E-08
 1.29365E+01    9.69610E-08
 1.29682E+01    1.04230E-07
 1.30000E+01    1.12040E-07
 1.30307E+01    1.19270E-07
 1.30596E+01    1.26480E-07
 1.30866E+01    1.33620E-07
 1.31121E+01    1.40680E-07
 1.31360E+01    1.47650E-07
 1.31585E+01    1.54490E-07
 1.32007E+01    1.68170E-07
 1.32377E+01    1.81140E-07
 1.32702E+01    1.93300E-07
 1.32987E+01    2.04610E-07
 1.33237E+01    2.15050E-07
 1.33676E+01    2.34610E-07
 1.34006E+01    2.50440E-07
 1.34254E+01    2.63000E-07
 1.34626E+01    2.83040E-07
 1.35000E+01    3.04610E-07
 1.35307E+01    3.22620E-07
 1.35596E+01    3.40480E-07
 1.35867E+01    3.58110E-07
 1.36122E+01    3.75480E-07
 1.36601E+01    4.10330E-07
 1.37021E+01    4.43470E-07
 1.37390E+01    4.74660E-07
 1.37713E+01    5.03740E-07
 1.37997E+01    5.30650E-07
 1.38246E+01    5.55360E-07
 1.38682E+01    6.01420E-07
 1.39011E+01    6.38450E-07
 1.39504E+01    6.98320E-07
 1.40000E+01    7.63800E-07
 1.40307E+01    8.11500E-07
 1.40596E+01    8.58930E-07
 1.40868E+01    9.05900E-07
 1.41122E+01    9.52270E-07
 1.41601E+01    1.04569E-06
 1.42022E+01    1.13493E-06
 1.42391E+01    1.21923E-06
 1.42714E+01    1.29813E-06
 1.42998E+01    1.37133E-06
 1.43247E+01    1.43875E-06
 1.43683E+01    1.56483E-06
 1.44011E+01    1.66658E-06
 1.44505E+01    1.83175E-06
 1.45000E+01    2.01328E-06
 1.45616E+01    2.22138E-06
 1.46157E+01    2.42099E-06
 1.46632E+01    2.61027E-06
 1.47049E+01    2.78796E-06
 1.47414E+01    2.95331E-06
 1.47735E+01    3.10599E-06
 1.48298E+01    3.39239E-06
 1.48722E+01    3.62433E-06
 1.49040E+01    3.80862E-06
 1.49519E+01    4.10272E-06
 1.50000E+01    4.41948E-06
 1.50308E+01    4.65326E-06
 1.50597E+01    4.88366E-06
 1.51140E+01    5.34685E-06
 1.51617E+01    5.78806E-06
 1.52036E+01    6.20389E-06
 1.52403E+01    6.59219E-06
 1.52726E+01    6.95185E-06
 1.53291E+01    7.62913E-06
 1.53717E+01    8.18006E-06
 1.54036E+01    8.61918E-06
 1.54517E+01    9.32258E-06
 1.55000E+01    1.00833E-05
 1.55616E+01    1.09663E-05
 1.56158E+01    1.18022E-05
 1.56633E+01    1.25857E-05
 1.57050E+01    1.33137E-05
 1.57416E+01    1.39853E-05
 1.58058E+01    1.52432E-05
 1.58541E+01    1.62603E-05
 1.58905E+01    1.70675E-05
 1.59451E+01    1.83541E-05
 1.60000E+01    1.97376E-05
 1.60617E+01    2.14445E-05
 1.61158E+01    2.30586E-05
 1.61633E+01    2.45702E-05
 1.62050E+01    2.59739E-05
 1.62416E+01    2.72677E-05
 1.63058E+01    2.96886E-05
 1.63542E+01    3.16443E-05
 1.63905E+01    3.31950E-05
 1.64452E+01    3.56647E-05
 1.65000E+01    3.83179E-05
 1.65617E+01    4.09494E-05
 1.66159E+01    4.33999E-05
 1.66634E+01    4.56642E-05
 1.67469E+01    4.99150E-05
 1.68098E+01    5.33610E-05
 1.68572E+01    5.61009E-05
 1.69284E+01    6.04772E-05
 1.70000E+01    6.51946E-05
 1.70617E+01    7.00763E-05
 1.71159E+01    7.46463E-05
 1.71634E+01    7.88894E-05
 1.72052E+01    8.27998E-05
 1.72784E+01    9.01150E-05
 1.73335E+01    9.60223E-05
 1.73750E+01    1.00706E-04
 1.74374E+01    1.08164E-04
 1.75000E+01    1.16174E-04
 1.75617E+01    1.22593E-04
 1.76703E+01    1.34693E-04
 1.77521E+01    1.44545E-04
 1.78138E+01    1.52406E-04
 1.79067E+01    1.65006E-04
 1.80000E+01    1.78649E-04
 1.80618E+01    1.88829E-04
 1.81160E+01    1.98212E-04
 1.82112E+01    2.15768E-04
 1.82830E+01    2.29950E-04
 1.83370E+01    2.41195E-04
 1.84183E+01    2.59103E-04
 1.85000E+01    2.78342E-04
 1.86238E+01    3.06286E-04
 1.87171E+01    3.29071E-04
 1.87874E+01    3.47267E-04
 1.88934E+01    3.76468E-04
 1.90000E+01    4.08126E-04
 1.91238E+01    4.40192E-04
 1.92171E+01    4.65881E-04
 1.93581E+01    5.07244E-04
 1.95000E+01    5.52270E-04
 1.96238E+01    5.98133E-04
 1.97172E+01    6.35000E-04
 1.98581E+01    6.94592E-04
 2.00000E+01    7.59749E-04
