# n + Xe124 : (n,xd)    
# jendl.ad   kunieda                           EVAL-Mar14
# 
# # energies =    58
#   E(MeV)        xs(mb) 
 1.50000E-01    0.00000E+00
 2.00000E-01    0.00000E+00
 3.00000E-01    0.00000E+00
 3.57023E-01    0.00000E+00
 4.00000E-01    0.00000E+00
 5.00000E-01    0.00000E+00
 6.00000E-01    0.00000E+00
 7.00000E-01    0.00000E+00
 8.00000E-01    0.00000E+00
 8.53502E-01    0.00000E+00
 8.86186E-01    0.00000E+00
 9.00000E-01    0.00000E+00
 1.00000E+00    0.00000E+00
 1.20000E+00    0.00000E+00
 1.25820E+00    0.00000E+00
 1.27928E+00    0.00000E+00
 1.40000E+00    0.00000E+00
 1.60000E+00    0.00000E+00
 1.80000E+00    0.00000E+00
 2.00000E+00    0.00000E+00
 2.20000E+00    0.00000E+00
 2.40000E+00    0.00000E+00
 2.70000E+00    0.00000E+00
 3.00000E+00    0.00000E+00
 3.50000E+00    0.00000E+00
 4.00000E+00    0.00000E+00
 4.50000E+00    0.00000E+00
 5.00000E+00    1.47632E-16
 5.50000E+00    1.11934E-13
 6.00000E+00    2.90990E-13
 6.50000E+00    8.48070E-12
 7.00000E+00    3.26540E-09
 7.50000E+00    1.87660E-07
 8.00000E+00    3.09716E-06
 8.50000E+00    2.88868E-05
 9.00000E+00    2.29878E-04
 9.50000E+00    1.00645E-03
 1.00000E+01    3.89214E-03
 1.05000E+01    1.38849E-02
 1.10000E+01    4.49388E-02
 1.15000E+01    1.29468E-01
 1.20000E+01    2.62886E-01
 1.25000E+01    5.30716E-01
 1.30000E+01    8.22299E-01
 1.35000E+01    1.40694E+00
 1.40000E+01    1.99304E+00
 1.45000E+01    2.71934E+00
 1.50000E+01    3.58933E+00
 1.55000E+01    4.60295E+00
 1.60000E+01    5.75789E+00
 1.65000E+01    6.69942E+00
 1.70000E+01    8.09679E+00
 1.75000E+01    8.84727E+00
 1.80000E+01    1.00157E+01
 1.85000E+01    1.16901E+01
 1.90000E+01    1.25425E+01
 1.95000E+01    1.39170E+01
 2.00000E+01    1.58388E+01
