# n + Xe124 : (n,xn)    
# jendl.ad   kunieda                           EVAL-Mar14
# 
# # energies =    58
#   E(MeV)        xs(mb) 
 1.50000E-01    0.00000E+00
 2.00000E-01    3.03464E-03
 3.00000E-01    2.29043E-02
 3.57023E-01    7.64755E-02
 4.00000E-01    1.98384E+02
 5.00000E-01    3.97403E+02
 6.00000E-01    5.00967E+02
 7.00000E-01    5.72500E+02
 8.00000E-01    6.29674E+02
 8.53502E-01    6.56732E+02
 8.86186E-01    7.25443E+02
 9.00000E-01    7.47147E+02
 1.00000E+00    8.64913E+02
 1.20000E+00    1.01045E+03
 1.25820E+00    1.04324E+03
 1.27928E+00    1.06518E+03
 1.40000E+00    1.18283E+03
 1.60000E+00    1.32773E+03
 1.80000E+00    1.44650E+03
 2.00000E+00    1.54549E+03
 2.20000E+00    1.62912E+03
 2.40000E+00    1.70182E+03
 2.70000E+00    1.79926E+03
 3.00000E+00    1.89257E+03
 3.50000E+00    2.04266E+03
 4.00000E+00    2.16866E+03
 4.50000E+00    2.24585E+03
 5.00000E+00    2.26754E+03
 5.50000E+00    2.25135E+03
 6.00000E+00    2.21294E+03
 6.50000E+00    2.16893E+03
 7.00000E+00    2.13176E+03
 7.50000E+00    2.10328E+03
 8.00000E+00    2.08545E+03
 8.50000E+00    2.07585E+03
 9.00000E+00    2.07112E+03
 9.50000E+00    2.06860E+03
 1.00000E+01    2.06577E+03
 1.05000E+01    2.06114E+03
 1.10000E+01    2.07451E+03
 1.15000E+01    2.25872E+03
 1.20000E+01    2.51390E+03
 1.25000E+01    2.77581E+03
 1.30000E+01    3.00899E+03
 1.35000E+01    3.12646E+03
 1.40000E+01    3.26654E+03
 1.45000E+01    3.32576E+03
 1.50000E+01    3.36871E+03
 1.55000E+01    3.40205E+03
 1.60000E+01    3.42538E+03
 1.65000E+01    3.44128E+03
 1.70000E+01    3.45100E+03
 1.75000E+01    3.45759E+03
 1.80000E+01    3.46121E+03
 1.85000E+01    3.46216E+03
 1.90000E+01    3.46480E+03
 1.95000E+01    3.45561E+03
 2.00000E+01    3.45738E+03
