# n + Br  0 : (n,non)
# jendl4.0   K.Shibata, A.Ichihara, S.Kunieda  EVAL-AUG09
# uncertainties: n
# # energies =   103
#   E(MeV)          xs(mb) 
 5.50000E-03    0.00000E+00
 5.50000E-03    0.00000E+00
 6.00000E-03    8.63251E+02
 7.00000E-03    7.79612E+02
 8.00000E-03    7.15743E+02
 9.00000E-03    6.65053E+02
 1.00000E-02    6.23994E+02
 2.00000E-02    6.12536E+02
 3.00000E-02    4.91084E+02
 4.00000E-02    4.19687E+02
 5.00000E-02    3.71073E+02
 6.00000E-02    3.35608E+02
 7.00000E-02    3.08423E+02
 8.00000E-02    2.86912E+02
 9.00000E-02    2.69468E+02
 1.00000E-01    2.55088E+02
 2.00000E-01    1.86158E+02
 2.10172E-01    1.79033E+02
 2.19885E-01    1.73461E+02
 2.64680E-01    2.28908E+02
 3.00000E-01    4.52429E+02
 3.10427E-01    4.75128E+02
 3.86376E-01    7.33002E+02
 4.00000E-01    8.27796E+02
 4.02560E-01    8.31980E+02
 5.00000E-01    1.06618E+03
 5.29816E-01    1.08351E+03
 6.00000E-01    1.29504E+03
 6.13766E-01    1.31149E+03
 7.00000E-01    1.49260E+03
 7.71081E-01    1.55132E+03
 8.00000E-01    1.62023E+03
 8.03540E-01    1.62114E+03
 8.06994E-01    1.62290E+03
 8.42604E-01    1.64308E+03
 9.00000E-01    1.73267E+03
 9.17985E-01    1.73164E+03
 9.52014E-01    1.74614E+03
 9.66274E-01    1.75611E+03
 9.66902E-01    1.75667E+03
 1.00000E+00    1.80696E+03
 1.04560E+00    1.76955E+03
 1.05208E+00    1.76514E+03
 1.06646E+00    1.75585E+03
 1.08165E+00    1.74684E+03
 1.09350E+00    1.74040E+03
 1.12673E+00    1.72565E+03
 1.13837E+00    1.72168E+03
 1.14613E+00    1.71953E+03
 1.19174E+00    1.70892E+03
 1.19589E+00    1.70843E+03
 1.20470E+00    1.70750E+03
 1.23721E+00    1.70932E+03
 1.27033E+00    1.71497E+03
 1.27256E+00    1.71561E+03
 1.33059E+00    1.74451E+03
 1.34932E+00    1.75883E+03
 1.35004E+00    1.75951E+03
 1.39359E+00    1.80778E+03
 1.40817E+00    1.82691E+03
 1.48960E+00    1.94505E+03
 1.50000E+00    1.96135E+03
 1.51077E+00    1.95728E+03
 1.52079E+00    1.95361E+03
 1.53163E+00    1.94996E+03
 1.53203E+00    1.94986E+03
 1.54216E+00    1.94752E+03
 2.00000E+00    2.07358E+03
 2.50000E+00    2.11040E+03
 3.00000E+00    2.12453E+03
 3.50000E+00    2.10286E+03
 4.00000E+00    2.05392E+03
 4.15932E+00    2.03467E+03
 4.50000E+00    1.99351E+03
 5.00000E+00    1.93400E+03
 5.50000E+00    1.88328E+03
 5.53082E+00    1.88084E+03
 6.00000E+00    1.84359E+03
 6.41232E+00    1.81984E+03
 6.50000E+00    1.81479E+03
 7.00000E+00    1.79468E+03
 7.50000E+00    1.78071E+03
 8.00000E+00    1.77069E+03
 8.45410E+00    1.76368E+03
 8.50000E+00    1.76297E+03
 9.00000E+00    1.75645E+03
 9.12702E+00    1.75493E+03
 9.50000E+00    1.75046E+03
 1.00000E+01    1.74468E+03
 1.08241E+01    1.72954E+03
 1.10000E+01    1.73356E+03
 1.20000E+01    1.72333E+03
 1.30000E+01    1.71351E+03
 1.40000E+01    1.70207E+03
 1.45000E+01    1.69512E+03
 1.47913E+01    1.69068E+03
 1.50000E+01    1.68750E+03
 1.60000E+01    1.66992E+03
 1.70000E+01    1.65156E+03
 1.80000E+01    1.63493E+03
 1.90000E+01    1.62020E+03
 1.92188E+01    1.61717E+03
 2.00000E+01    1.60724E+03
