# n + Ga 69 : (n,el)    
# endfb8.0   T.Watanabe, Mughabghab            EVAL-JAN05
# uncertainties: n
# # energies =   171
#   E(MeV)       xs(mb) 
 1.00000E-11    1.59067E+04
 1.00000E-07    8.07335E+03
 4.13990E-07    8.06695E+03
 5.31580E-07    8.06503E+03
 6.82560E-07    8.06274E+03
 8.76420E-07    8.06083E+03
 1.12540E-06    8.05855E+03
 1.44500E-06    8.05563E+03
 1.85540E-06    8.05191E+03
 2.37240E-06    8.04710E+03
 3.05900E-06    8.04087E+03
 3.92790E-06    8.03293E+03
 5.04350E-06    8.02273E+03
 6.47600E-06    8.00963E+03
 8.31530E-06    7.99282E+03
 1.06770E-05    7.97122E+03
 1.37100E-05    7.94350E+03
 1.76030E-05    7.90791E+03
 2.26030E-05    7.86153E+03
 2.92030E-05    7.80271E+03
 3.72670E-05    7.72814E+03
 4.78510E-05    7.61612E+03
 6.14420E-05    7.44058E+03
 7.88930E-05    6.98784E+03
 1.01300E-04    1.43439E+04
 1.30070E-04    7.75656E+03
 1.67020E-04    7.30931E+03
 2.14450E-04    6.90462E+03
 2.75360E-04    1.30743E+04
 3.53580E-04    6.75881E+03
 4.54000E-04    8.25961E+03
 5.82950E-04    2.86659E+04
 7.48520E-04    7.07097E+03
 9.61120E-04    5.86786E+03
 1.23410E-03    9.89034E+03
 1.58460E-03    2.50280E+04
 2.03470E-03    5.94063E+03
 2.24870E-03    3.06186E+04
 2.48520E-03    1.43125E+04
 2.61260E-03    7.93430E+03
 2.74650E-03    6.43400E+03
 3.03540E-03    4.90020E+03
 3.35460E-03    4.50142E+04
 3.70740E-03    9.75902E+03
 4.30740E-03    1.17856E+04
 5.53080E-03    1.15947E+04
 7.10170E-03    1.11436E+04
 9.11880E-03    1.06878E+04
 1.17090E-02    1.01765E+04
 1.50340E-02    9.68458E+03
 1.93050E-02    9.32827E+03
 2.18750E-02    9.14758E+03
 2.35790E-02    9.05287E+03
 2.41760E-02    9.00666E+03
 2.47880E-02    8.94922E+03
 2.60580E-02    8.88193E+03
 2.70000E-02    8.80833E+03
 2.85000E-02    8.68658E+03
 3.18280E-02    8.54588E+03
 3.43070E-02    8.36276E+03
 4.08680E-02    8.14554E+03
 4.63090E-02    7.96972E+03
 5.24750E-02    7.83681E+03
 5.65620E-02    7.66970E+03
 6.73790E-02    7.51495E+03
 7.20000E-02    7.40302E+03
 7.95000E-02    7.31780E+03
 8.25000E-02    7.26444E+03
 8.65170E-02    7.15087E+03
 9.80370E-02    6.98949E+03
 1.11090E-01    6.86751E+03
 1.16790E-01    6.79675E+03
 1.22770E-01    6.73251E+03
 1.29070E-01    6.66534E+03
 1.35690E-01    6.59520E+03
 1.42640E-01    6.53117E+03
 1.49960E-01    6.46800E+03
 1.57640E-01    6.40159E+03
 1.65730E-01    6.33504E+03
 1.74220E-01    6.27475E+03
 1.83160E-01    6.21198E+03
 1.92550E-01    6.14602E+03
 2.02420E-01    6.07667E+03
 2.12800E-01    6.00376E+03
 2.23710E-01    5.92712E+03
 2.35180E-01    5.85323E+03
 2.47240E-01    5.74760E+03
 2.73240E-01    5.63671E+03
 2.87250E-01    5.58322E+03
 2.94520E-01    5.55847E+03
 2.97200E-01    5.54859E+03
 2.98500E-01    5.53677E+03
 3.01970E-01    5.45044E+03
 3.33730E-01    5.27417E+03
 3.68830E-01    5.13201E+03
 3.87740E-01    5.04295E+03
 4.07620E-01    4.90471E+03
 4.50490E-01    4.72771E+03
 4.97870E-01    4.59610E+03
 5.23400E-01    4.50621E+03
 5.50230E-01    4.41415E+03
 5.78440E-01    4.29710E+03
 6.08100E-01    4.17359E+03
 6.39280E-01    4.06285E+03
 6.72060E-01    3.95758E+03
 7.06510E-01    3.85257E+03
 7.42740E-01    3.75283E+03
 7.80820E-01    3.65179E+03
 8.20850E-01    3.55443E+03
 8.62940E-01    3.45022E+03
 9.07180E-01    3.32653E+03
 9.61640E-01    3.22037E+03
 1.00260E+00    3.07889E+03
 1.10800E+00    2.92241E+03
 1.16480E+00    2.81356E+03
 1.22460E+00    2.70819E+03
 1.28730E+00    2.60538E+03
 1.35340E+00    2.50921E+03
 1.42270E+00    2.42001E+03
 1.49570E+00    2.33504E+03
 1.57240E+00    2.25672E+03
 1.65300E+00    2.18205E+03
 1.73770E+00    2.11213E+03
 1.82680E+00    2.05456E+03
 1.92050E+00    1.99851E+03
 2.01900E+00    1.94744E+03
 2.12250E+00    1.90901E+03
 2.23130E+00    1.88193E+03
 2.30690E+00    1.87054E+03
 2.34570E+00    1.86477E+03
 2.36530E+00    1.86088E+03
 2.38520E+00    1.85394E+03
 2.46600E+00    1.84920E+03
 2.59240E+00    1.84926E+03
 2.72530E+00    1.84934E+03
 2.86500E+00    1.84948E+03
 3.01190E+00    1.86246E+03
 3.16640E+00    1.88577E+03
 3.32870E+00    1.92312E+03
 3.67880E+00    1.97527E+03
 4.06570E+00    2.03376E+03
 4.49330E+00    2.08359E+03
 4.72370E+00    2.11834E+03
 4.96590E+00    2.15011E+03
 5.22050E+00    2.17793E+03
 5.48810E+00    2.20613E+03
 5.76950E+00    2.23536E+03
 6.06530E+00    2.25383E+03
 6.37630E+00    2.26519E+03
 6.59240E+00    2.27224E+03
 6.70320E+00    2.28176E+03
 7.04690E+00    2.28279E+03
 7.40820E+00    2.27527E+03
 7.78800E+00    2.26499E+03
 8.18730E+00    2.23739E+03
 8.60710E+00    2.20502E+03
 9.04840E+00    2.16135E+03
 9.51230E+00    2.10836E+03
 1.00000E+01    2.05318E+03
 1.05130E+01    1.98424E+03
 1.10520E+01    1.90788E+03
 1.16180E+01    1.83384E+03
 1.22140E+01    1.75801E+03
 1.28400E+01    1.68331E+03
 1.34990E+01    1.62796E+03
 1.38400E+01    1.59207E+03
 1.41910E+01    1.55701E+03
 1.45500E+01    1.52353E+03
 1.49180E+01    1.47614E+03
 1.56830E+01    1.41900E+03
 1.64870E+01    1.37148E+03
