# n + Mo100 : (n,na)    
# tendl.2019 A.J. Koning and D. Rochman        EVAL-NOV19
# uncertainties: y
# # energies =    41
#   E(MeV)       xs(mb)       xslow(mb)      xsupp(mb)
 3.21119E+00    0.00000E+00    0.00000E+00    0.00000E+00
 6.00000E+00    2.59360E-15    2.59360E-15    2.59360E-15
 6.20000E+00    5.32450E-14    5.32450E-14    5.32450E-14
 6.40000E+00    5.96860E-13    5.96860E-13    5.96860E-13
 6.60000E+00    5.21640E-12    0.00000E+00    1.42796E-11
 6.80000E+00    3.89370E-11    0.00000E+00    1.06588E-10
 7.00000E+00    2.38640E-10    0.00000E+00    6.53266E-10
 7.20000E+00    1.24550E-09    0.00000E+00    3.40950E-09
 7.40000E+00    8.27530E-09    0.00000E+00    2.26532E-08
 7.60000E+00    4.39660E-08    0.00000E+00    1.20355E-07
 7.80000E+00    1.31410E-07    0.00000E+00    3.59729E-07
 8.00000E+00    4.56310E-07    0.00000E+00    1.24913E-06
 8.50000E+00    4.05639E-06    0.00000E+00    1.11042E-05
 9.00000E+00    8.04284E-06    6.30719E-06    9.77849E-06
 9.50000E+00    1.44807E-05    1.13558E-05    1.76056E-05
 1.00000E+01    3.61358E-05    2.83377E-05    4.39339E-05
 1.05000E+01    1.06912E-04    8.38404E-05    1.29984E-04
 1.10000E+01    3.28414E-04    2.57542E-04    3.99286E-04
 1.15000E+01    9.63160E-04    7.55310E-04    1.17101E-03
 1.20000E+01    2.86558E-03    2.24719E-03    3.48397E-03
 1.25000E+01    8.11866E-03    6.36665E-03    9.87067E-03
 1.30000E+01    1.91845E-02    1.49428E-02    2.34262E-02
 1.35000E+01    4.17959E-02    3.25548E-02    5.10370E-02
 1.40000E+01    8.10916E-02    6.31622E-02    9.90210E-02
 1.45000E+01    1.45247E-01    1.13133E-01    1.77361E-01
 1.50000E+01    2.51941E-01    1.96237E-01    3.07645E-01
 1.60000E+01    6.14473E-01    4.19462E-01    8.09484E-01
 1.70000E+01    1.27726E+00    8.71906E-01    1.68261E+00
 1.80000E+01    2.29847E+00    1.56902E+00    3.02792E+00
 1.90000E+01    3.54238E+00    2.41816E+00    4.66660E+00
 2.00000E+01    4.88757E+00    3.28681E+00    6.48833E+00
 2.10000E+01    5.78661E+00    3.89140E+00    7.68182E+00
 2.20000E+01    6.87118E+00    4.62076E+00    9.12161E+00
 2.30000E+01    7.83826E+00    5.27110E+00    1.04054E+01
 2.40000E+01    8.58654E+00    5.54218E+00    1.16309E+01
 2.50000E+01    9.11088E+00    5.88061E+00    1.23411E+01
 2.60000E+01    9.29532E+00    5.99966E+00    1.25910E+01
 2.70000E+01    9.25501E+00    5.97364E+00    1.25364E+01
 2.80000E+01    9.09345E+00    5.86936E+00    1.23175E+01
 2.90000E+01    8.78789E+00    5.67214E+00    1.19036E+01
 3.00000E+01    8.40961E+00    5.42798E+00    1.13912E+01
