# n + Mo100 : (n,n'16)  
# tendl.2019 A.J. Koning and D. Rochman        EVAL-NOV19
# uncertainties: n
# # energies =    74
#   E(MeV)       xs(mb) 
 2.10736E+00    0.00000E+00
 2.12440E+00    3.43314E+00
 2.17777E+00    1.41859E+01
 2.20000E+00    1.86647E+01
 2.21164E+00    1.95207E+01
 2.22340E+00    2.03855E+01
 2.30953E+00    2.67193E+01
 2.31251E+00    2.69385E+01
 2.33332E+00    2.84688E+01
 2.33857E+00    2.88549E+01
 2.34373E+00    2.92343E+01
 2.36342E+00    3.06823E+01
 2.39356E+00    3.28987E+01
 2.40000E+00    3.33723E+01
 2.42120E+00    3.32936E+01
 2.44095E+00    3.32202E+01
 2.45655E+00    3.31623E+01
 2.60000E+00    3.26295E+01
 2.80000E+00    2.64606E+01
 3.00000E+00    1.96549E+01
 3.20000E+00    1.43346E+01
 3.40000E+00    1.03762E+01
 3.60000E+00    7.54175E+00
 3.80000E+00    5.49783E+00
 4.00000E+00    4.01363E+00
 4.20000E+00    2.93333E+00
 4.40000E+00    2.14669E+00
 4.60000E+00    1.57429E+00
 4.80000E+00    1.15823E+00
 5.00000E+00    8.55556E-01
 5.20000E+00    6.35168E-01
 5.40000E+00    4.74070E-01
 5.60000E+00    3.55864E-01
 5.80000E+00    2.68655E-01
 6.00000E+00    2.03992E-01
 6.20000E+00    1.55749E-01
 6.40000E+00    1.19513E-01
 6.60000E+00    9.22864E-02
 6.80000E+00    7.14087E-02
 7.00000E+00    5.54760E-02
 7.20000E+00    4.31923E-02
 7.40000E+00    3.38216E-02
 7.60000E+00    2.65714E-02
 7.80000E+00    2.08978E-02
 8.00000E+00    1.65295E-02
 8.50000E+00    9.25601E-03
 9.00000E+00    5.23598E-03
 9.50000E+00    2.98130E-03
 1.00000E+01    1.71172E-03
 1.05000E+01    9.92756E-04
 1.10000E+01    5.82016E-04
 1.15000E+01    3.45231E-04
 1.20000E+01    2.07199E-04
 1.25000E+01    1.25831E-04
 1.30000E+01    7.72452E-05
 1.35000E+01    4.79076E-05
 1.40000E+01    3.00052E-05
 1.45000E+01    1.89616E-05
 1.50000E+01    1.20872E-05
 1.60000E+01    5.03277E-06
 1.70000E+01    2.15960E-06
 1.80000E+01    9.51010E-07
 1.90000E+01    4.28700E-07
 2.00000E+01    1.97230E-07
 2.10000E+01    9.26580E-08
 2.20000E+01    4.39070E-08
 2.30000E+01    2.13850E-08
 2.40000E+01    1.05900E-08
 2.50000E+01    5.33050E-09
 2.60000E+01    2.72360E-09
 2.70000E+01    1.40990E-09
 2.80000E+01    7.38970E-10
 2.90000E+01    3.91730E-10
 3.00000E+01    2.09780E-10
