# n + Mo100 : (n,n'06)  
# tendl.2019 A.J. Koning and D. Rochman        EVAL-NOV19
# uncertainties: n
# # energies =    87
#   E(MeV)       xs(mb) 
 1.51981E+00    0.00000E+00
 1.60000E+00    4.60016E+01
 1.62359E+00    5.18443E+01
 1.78431E+00    9.16511E+01
 1.78932E+00    9.28919E+01
 1.80000E+00    9.55371E+01
 1.86572E+00    9.71157E+01
 1.92755E+00    9.86008E+01
 1.99729E+00    1.00276E+02
 2.00000E+00    1.00341E+02
 2.05805E+00    9.41083E+01
 2.06338E+00    9.35361E+01
 2.10302E+00    8.92800E+01
 2.10736E+00    8.88140E+01
 2.12440E+00    8.69845E+01
 2.17777E+00    8.12543E+01
 2.20000E+00    7.88675E+01
 2.21164E+00    7.77824E+01
 2.22340E+00    7.66861E+01
 2.30953E+00    6.86567E+01
 2.31251E+00    6.83789E+01
 2.33332E+00    6.64390E+01
 2.33857E+00    6.59495E+01
 2.34373E+00    6.54685E+01
 2.36342E+00    6.36329E+01
 2.39356E+00    6.08232E+01
 2.40000E+00    6.02228E+01
 2.42120E+00    5.87593E+01
 2.44095E+00    5.73959E+01
 2.45655E+00    5.63190E+01
 2.60000E+00    4.64162E+01
 2.80000E+00    3.43812E+01
 3.00000E+00    2.49892E+01
 3.20000E+00    1.79680E+01
 3.40000E+00    1.28634E+01
 3.60000E+00    9.18871E+00
 3.80000E+00    6.56305E+00
 4.00000E+00    4.69468E+00
 4.20000E+00    3.36858E+00
 4.40000E+00    2.42753E+00
 4.60000E+00    1.75876E+00
 4.80000E+00    1.28217E+00
 5.00000E+00    9.40813E-01
 5.20000E+00    6.95144E-01
 5.40000E+00    5.17073E-01
 5.60000E+00    3.87182E-01
 5.80000E+00    2.91731E-01
 6.00000E+00    2.21146E-01
 6.20000E+00    1.68569E-01
 6.40000E+00    1.29126E-01
 6.60000E+00    9.95247E-02
 6.80000E+00    7.68386E-02
 7.00000E+00    5.95515E-02
 7.20000E+00    4.62362E-02
 7.40000E+00    3.61006E-02
 7.60000E+00    2.82746E-02
 7.80000E+00    2.21656E-02
 8.00000E+00    1.74769E-02
 8.50000E+00    9.71233E-03
 9.00000E+00    5.45877E-03
 9.50000E+00    3.09269E-03
 1.00000E+01    1.76926E-03
 1.05000E+01    1.02356E-03
 1.10000E+01    5.99072E-04
 1.15000E+01    3.54947E-04
 1.20000E+01    2.12856E-04
 1.25000E+01    1.29179E-04
 1.30000E+01    7.92485E-05
 1.35000E+01    4.91159E-05
 1.40000E+01    3.07392E-05
 1.45000E+01    1.94107E-05
 1.50000E+01    1.23644E-05
 1.60000E+01    5.14164E-06
 1.70000E+01    2.20403E-06
 1.80000E+01    9.69470E-07
 1.90000E+01    4.36370E-07
 2.00000E+01    2.00430E-07
 2.10000E+01    9.40330E-08
 2.20000E+01    4.45170E-08
 2.30000E+01    2.16710E-08
 2.40000E+01    1.07280E-08
 2.50000E+01    5.39830E-09
 2.60000E+01    2.75700E-09
 2.70000E+01    1.42630E-09
 2.80000E+01    7.47030E-10
 2.90000E+01    3.95680E-10
 3.00000E+01    2.11740E-10
