# n + Hg201 : (n,el)    
# endfb8.0   S.Chiba,M.Chadwick,P.Young        EVAL-OCT04
# uncertainties: n
# # energies =   171
#   E(MeV)       xs(mb) 
 1.00000E-11    2.01300E+04
 1.00000E-07    1.37720E+04
 4.13990E-07    1.37643E+04
 5.31580E-07    1.37607E+04
 6.82560E-07    1.37574E+04
 8.76420E-07    1.37535E+04
 1.12540E-06    1.37485E+04
 1.44500E-06    1.37421E+04
 1.85540E-06    1.37340E+04
 2.37240E-06    1.37234E+04
 3.05900E-06    1.37098E+04
 3.92790E-06    1.36923E+04
 5.04350E-06    1.36700E+04
 6.47600E-06    1.36413E+04
 8.31530E-06    1.36044E+04
 1.06770E-05    1.35570E+04
 1.37100E-05    1.34962E+04
 1.76030E-05    1.34182E+04
 2.26030E-05    1.33164E+04
 2.92030E-05    1.31318E+04
 3.72670E-05    1.33802E+04
 4.78510E-05    1.32295E+04
 6.14420E-05    1.34833E+04
 7.88930E-05    1.31546E+04
 1.01300E-04    1.27183E+04
 1.30070E-04    1.21181E+04
 1.67020E-04    3.92055E+04
 2.14450E-04    1.57558E+04
 2.75360E-04    3.81847E+04
 3.53580E-04    3.10063E+04
 4.54000E-04    4.34680E+04
 5.82950E-04    3.06487E+04
 7.48520E-04    2.96088E+04
 9.61120E-04    2.74562E+04
 1.23410E-03    2.61335E+04
 1.58460E-03    2.48182E+04
 2.03470E-03    2.38797E+04
 2.24870E-03    2.33524E+04
 2.48520E-03    2.29533E+04
 2.61260E-03    2.27117E+04
 2.74650E-03    2.23278E+04
 3.03540E-03    2.18169E+04
 3.35460E-03    2.13154E+04
 3.70740E-03    2.07055E+04
 4.30740E-03    1.97378E+04
 5.53080E-03    1.85782E+04
 7.10170E-03    1.74594E+04
 9.11880E-03    1.64726E+04
 1.17090E-02    1.58246E+04
 1.50340E-02    1.52222E+04
 1.93050E-02    1.47840E+04
 2.18750E-02    1.45443E+04
 2.35790E-02    1.44256E+04
 2.41760E-02    1.43711E+04
 2.47880E-02    1.42867E+04
 2.60580E-02    1.41868E+04
 2.70000E-02    1.40772E+04
 2.85000E-02    1.38627E+04
 3.18280E-02    1.36175E+04
 3.43070E-02    1.32630E+04
 4.08680E-02    1.28358E+04
 4.63090E-02    1.24848E+04
 5.24750E-02    1.22031E+04
 5.65620E-02    1.18625E+04
 6.73790E-02    1.15397E+04
 7.20000E-02    1.13148E+04
 7.95000E-02    1.11368E+04
 8.25000E-02    1.10229E+04
 8.65170E-02    1.07969E+04
 9.80370E-02    1.04624E+04
 1.11090E-01    1.02276E+04
 1.16790E-01    1.00938E+04
 1.22770E-01    9.95598E+03
 1.29070E-01    9.82822E+03
 1.35690E-01    9.69697E+03
 1.42640E-01    9.56207E+03
 1.49960E-01    9.43230E+03
 1.57640E-01    9.29705E+03
 1.65730E-01    9.15469E+03
 1.74220E-01    9.00177E+03
 1.83160E-01    8.84024E+03
 1.92550E-01    8.68254E+03
 2.02420E-01    8.52156E+03
 2.12800E-01    8.35231E+03
 2.23710E-01    8.18433E+03
 2.35180E-01    8.02323E+03
 2.47240E-01    7.77744E+03
 2.73240E-01    7.53802E+03
 2.87250E-01    7.41949E+03
 2.94520E-01    7.36701E+03
 2.97200E-01    7.34605E+03
 2.98500E-01    7.32099E+03
 3.01970E-01    7.13840E+03
 3.33730E-01    6.81333E+03
 3.68830E-01    6.57256E+03
 3.87740E-01    6.40740E+03
 4.07620E-01    6.13554E+03
 4.50490E-01    5.73706E+03
 4.97870E-01    5.43628E+03
 5.23400E-01    5.29420E+03
 5.50230E-01    5.14265E+03
 5.78440E-01    4.97457E+03
 6.08100E-01    4.80512E+03
 6.39280E-01    4.63388E+03
 6.72060E-01    4.45342E+03
 7.06510E-01    4.27305E+03
 7.42740E-01    4.11119E+03
 7.80820E-01    4.01149E+03
 8.20850E-01    3.90380E+03
 8.62940E-01    3.80089E+03
 9.07180E-01    3.69012E+03
 9.61640E-01    3.59151E+03
 1.00260E+00    3.56653E+03
 1.10800E+00    3.58369E+03
 1.16480E+00    3.59593E+03
 1.22460E+00    3.60879E+03
 1.28730E+00    3.62230E+03
 1.35340E+00    3.63652E+03
 1.42270E+00    3.65145E+03
 1.49570E+00    3.66562E+03
 1.57240E+00    3.67856E+03
 1.65300E+00    3.69215E+03
 1.73770E+00    3.70644E+03
 1.82680E+00    3.72146E+03
 1.92050E+00    3.73855E+03
 2.01900E+00    3.80423E+03
 2.12250E+00    3.89768E+03
 2.23130E+00    3.97908E+03
 2.30690E+00    4.02959E+03
 2.34570E+00    4.05534E+03
 2.36530E+00    4.07273E+03
 2.38520E+00    4.11688E+03
 2.46600E+00    4.20466E+03
 2.59240E+00    4.30691E+03
 2.72530E+00    4.41393E+03
 2.86500E+00    4.52617E+03
 3.01190E+00    4.59341E+03
 3.16640E+00    4.62589E+03
 3.32870E+00    4.67797E+03
 3.67880E+00    4.74907E+03
 4.06570E+00    4.64969E+03
 4.49330E+00    4.50461E+03
 4.72370E+00    4.41068E+03
 4.96590E+00    4.31742E+03
 5.22050E+00    4.22865E+03
 5.48810E+00    4.13806E+03
 5.76950E+00    4.05235E+03
 6.06530E+00    3.97655E+03
 6.37630E+00    3.82566E+03
 6.59240E+00    3.71569E+03
 6.70320E+00    3.57822E+03
 7.04690E+00    3.37966E+03
 7.40820E+00    3.18769E+03
 7.78800E+00    2.99972E+03
 8.18730E+00    2.89655E+03
 8.60710E+00    2.80826E+03
 9.04840E+00    2.71123E+03
 9.51230E+00    2.60317E+03
 1.00000E+01    2.55440E+03
 1.05130E+01    2.56303E+03
 1.10520E+01    2.57163E+03
 1.16180E+01    2.58361E+03
 1.22140E+01    2.63402E+03
 1.28400E+01    2.69665E+03
 1.34990E+01    2.74452E+03
 1.38400E+01    2.78131E+03
 1.41910E+01    2.83494E+03
 1.45500E+01    2.87186E+03
 1.49180E+01    2.92557E+03
 1.56830E+01    2.99494E+03
 1.64870E+01    3.05084E+03
