# n + F  19 : (n,xn)    
# jendl4.0   T.SUGI                            EVAL-JUL89
# 
# # energies =    91
#   E(MeV)        xs(mb) 
 1.15840E-01    0.00000E+00
 1.25000E-01    2.00000E+02
 1.50000E-01    6.00000E+02
 2.00000E-01    1.20000E+03
 2.07670E-01    1.50680E+03
 2.40000E-01    3.10000E+03
 2.50000E-01    3.54286E+03
 2.70000E-01    4.42857E+03
 2.75000E-01    4.23333E+03
 3.00000E-01    3.30000E+03
 3.50000E-01    2.70000E+03
 4.00000E-01    3.05000E+03
 4.20000E-01    3.28400E+03
 4.50000E-01    3.04000E+03
 5.00000E-01    2.65000E+03
 5.50000E-01    2.36000E+03
 6.00000E-01    2.10000E+03
 6.50000E-01    2.03000E+03
 7.00000E-01    1.87000E+03
 8.00000E-01    1.50000E+03
 9.00000E-01    1.29000E+03
 1.00000E+00    1.12051E+03
 1.41715E+00    1.04791E+03
 1.42000E+00    1.04860E+03
 1.45000E+00    1.04136E+03
 1.50000E+00    1.03771E+03
 1.53594E+00    1.02168E+03
 1.54000E+00    1.02185E+03
 1.55000E+00    1.01692E+03
 1.60000E+00    1.01053E+03
 1.63660E+00    1.00638E+03
 1.63661E+00    1.00638E+03
 1.64000E+00    1.00631E+03
 1.65000E+00    1.00329E+03
 1.70000E+00    9.98531E+02
 1.75000E+00    9.99823E+02
 1.80000E+00    9.88224E+02
 1.90000E+00    9.79651E+02
 2.00000E+00    9.81458E+02
 2.25000E+00    9.97006E+02
 2.50000E+00    9.92871E+02
 2.50000E+00    9.92871E+02
 2.92739E+00    9.80836E+02
 2.92740E+00    9.80835E+02
 2.95000E+00    9.79890E+02
 3.00000E+00    9.78401E+02
 3.10000E+00    9.71714E+02
 3.20000E+00    9.65262E+02
 3.30000E+00    9.58930E+02
 3.50000E+00    9.46025E+02
 3.80000E+00    9.20500E+02
 4.00000E+00    9.03681E+02
 4.11454E+00    8.90252E+02
 4.21079E+00    8.82011E+02
 4.24660E+00    8.79452E+02
 4.50000E+00    8.58174E+02
 4.61010E+00    8.50683E+02
 4.61013E+00    8.50681E+02
 4.61150E+00    8.50643E+02
 4.63361E+00    8.48005E+02
 5.00000E+00    8.08860E+02
 5.50000E+00    7.48215E+02
 6.00000E+00    6.94162E+02
 6.50000E+00    6.49478E+02
 7.00000E+00    6.10723E+02
 7.50000E+00    5.96348E+02
 8.00000E+00    5.88597E+02
 8.50000E+00    5.83078E+02
 9.00000E+00    5.81066E+02
 9.50000E+00    5.79134E+02
 1.00000E+01    5.78844E+02
 1.05000E+01    5.83458E+02
 1.10000E+01    5.89117E+02
 1.15000E+01    5.97712E+02
 1.20000E+01    6.14377E+02
 1.25000E+01    6.26092E+02
 1.30000E+01    6.39613E+02
 1.35000E+01    6.46257E+02
 1.40000E+01    6.52357E+02
 1.45000E+01    6.54617E+02
 1.50000E+01    6.55652E+02
 1.55000E+01    6.55915E+02
 1.60000E+01    6.54948E+02
 1.65000E+01    6.53404E+02
 1.70000E+01    6.50828E+02
 1.75000E+01    6.49422E+02
 1.80000E+01    6.47216E+02
 1.85000E+01    6.44484E+02
 1.90000E+01    6.41134E+02
 1.95000E+01    6.37224E+02
 2.00000E+01    6.32869E+02
