# n + F  19 : (n,n')    
# jendl4.0   T.SUGI                            EVAL-JUL89
# uncertainties: n
# # energies =    91
#   E(MeV)       xs(mb) 
 1.15840E-01    0.00000E+00
 1.25000E-01    2.00000E+02
 1.50000E-01    6.00000E+02
 2.00000E-01    1.20000E+03
 2.07670E-01    1.50680E+03
 2.40000E-01    3.10000E+03
 2.50000E-01    3.54286E+03
 2.70000E-01    4.42857E+03
 2.75000E-01    4.23333E+03
 3.00000E-01    3.30000E+03
 3.50000E-01    2.70000E+03
 4.00000E-01    3.05000E+03
 4.20000E-01    3.28400E+03
 4.50000E-01    3.04000E+03
 5.00000E-01    2.65000E+03
 5.50000E-01    2.36000E+03
 6.00000E-01    2.10000E+03
 6.50000E-01    2.03000E+03
 7.00000E-01    1.87000E+03
 8.00000E-01    1.50000E+03
 9.00000E-01    1.29000E+03
 1.00000E+00    1.12051E+03
 1.41715E+00    1.04791E+03
 1.42000E+00    1.04860E+03
 1.45000E+00    1.04136E+03
 1.50000E+00    1.03771E+03
 1.53594E+00    1.02168E+03
 1.54000E+00    1.02185E+03
 1.55000E+00    1.01692E+03
 1.60000E+00    1.01053E+03
 1.63660E+00    1.00638E+03
 1.63661E+00    1.00638E+03
 1.64000E+00    1.00631E+03
 1.65000E+00    1.00329E+03
 1.70000E+00    9.98531E+02
 1.75000E+00    9.99823E+02
 1.80000E+00    9.88224E+02
 1.90000E+00    9.79651E+02
 2.00000E+00    9.81458E+02
 2.25000E+00    9.97006E+02
 2.50000E+00    9.88590E+02
 2.50000E+00    9.92871E+02
 2.92739E+00    9.80836E+02
 2.92740E+00    9.80835E+02
 2.95000E+00    9.79890E+02
 3.00000E+00    9.78401E+02
 3.10000E+00    9.71714E+02
 3.20000E+00    9.65262E+02
 3.30000E+00    9.58930E+02
 3.50000E+00    9.46025E+02
 3.80000E+00    9.20500E+02
 4.00000E+00    9.03681E+02
 4.11454E+00    8.90252E+02
 4.21079E+00    8.82011E+02
 4.24660E+00    8.79413E+02
 4.50000E+00    8.57656E+02
 4.61010E+00    8.49957E+02
 4.61013E+00    8.49955E+02
 4.61150E+00    8.49915E+02
 4.63361E+00    8.47235E+02
 5.00000E+00    8.07398E+02
 5.50000E+00    7.25358E+02
 6.00000E+00    6.49911E+02
 6.50000E+00    5.62243E+02
 7.00000E+00    4.80504E+02
 7.50000E+00    4.25269E+02
 8.00000E+00    3.76659E+02
 8.50000E+00    3.40113E+02
 9.00000E+00    3.07065E+02
 9.50000E+00    2.81566E+02
 1.00000E+01    2.57708E+02
 1.05000E+01    2.40930E+02
 1.10000E+01    2.25026E+02
 1.15000E+01    2.12674E+02
 1.20000E+01    2.00881E+02
 1.25000E+01    1.88343E+02
 1.30000E+01    1.76152E+02
 1.35000E+01    1.70057E+02
 1.40000E+01    1.64217E+02
 1.45000E+01    1.59388E+02
 1.50000E+01    1.54714E+02
 1.55000E+01    1.49947E+02
 1.60000E+01    1.45310E+02
 1.65000E+01    1.41949E+02
 1.70000E+01    1.38676E+02
 1.75000E+01    1.35378E+02
 1.80000E+01    1.32159E+02
 1.85000E+01    1.29403E+02
 1.90000E+01    1.26709E+02
 1.95000E+01    1.24074E+02
 2.00000E+01    1.21495E+02
