# n + Ca 46 : (n,g)     
# jendl.ad   K.Shibata                         EVAL-JUN06
# uncertainties: n
# # energies =    69
#   E(MeV)       xs(mb) 
 1.00000E-10    5.16688E+03
 5.00000E-09    1.40685E+03
 1.00000E-08    1.06548E+03
 1.50000E-08    8.95253E+02
 2.00000E-08    7.87764E+02
 2.50000E-08    7.11782E+02
 3.00000E-08    6.54325E+02
 3.50000E-08    6.01607E+02
 4.20000E-08    5.50272E+02
 5.00000E-08    5.07563E+02
 5.80000E-08    4.71748E+02
 6.70000E-08    4.35360E+02
 8.00000E-08    3.93961E+02
 1.00000E-07    3.42745E+02
 1.40000E-07    2.95755E+02
 1.80000E-07    2.64098E+02
 2.20000E-07    2.43193E+02
 2.50000E-07    2.28974E+02
 2.80000E-07    2.18767E+02
 3.00000E-07    2.11561E+02
 3.20000E-07    2.03568E+02
 3.50000E-07    1.92551E+02
 4.00000E-07    1.76181E+02
 5.00000E-07    1.57578E+02
 6.25000E-07    1.41008E+02
 7.80000E-07    1.30499E+02
 8.50000E-07    1.25578E+02
 9.10000E-07    1.22133E+02
 9.50000E-07    1.20140E+02
 9.72000E-07    1.18724E+02
 9.96000E-07    1.17300E+02
 1.02000E-06    1.15903E+02
 1.04500E-06    1.14506E+02
 1.07100E-06    1.13113E+02
 1.09700E-06    1.11783E+02
 1.12300E-06    1.10468E+02
 1.15000E-06    1.06515E+02
 1.30000E-06    9.97072E+01
 1.50000E-06    8.85345E+01
 2.10000E-06    7.71099E+01
 2.60000E-06    6.88869E+01
 3.30000E-06    6.18411E+01
 4.00000E-06    4.73959E+01
 9.87700E-06    3.33262E+01
 1.59680E-05    2.57701E+01
 2.77000E-05    1.95675E+01
 4.80520E-05    1.52126E+01
 7.55014E-05    1.15001E+01
 1.48728E-04    7.77199E+00
 3.67262E-04    4.94595E+00
 9.06898E-04    2.05458E+01
 1.42510E-03    1.86512E+01
 2.23945E-03    1.27324E+01
 3.51910E-03    8.76329E+00
 5.53000E-03    5.90623E+00
 9.11800E-03    4.21630E+00
 1.50300E-02    3.13424E+00
 2.47800E-02    2.45082E+00
 4.08500E-02    1.95850E+00
 6.73400E-02    1.51493E+00
 1.11000E-01    1.18199E+00
 1.83000E-01    8.67284E-01
 3.02000E-01    6.89869E-01
 5.00000E-01    6.12479E-01
 8.21000E-01    5.70749E-01
 1.35300E+00    3.36115E-01
 2.23100E+00    3.04099E-01
 3.67900E+00    2.45488E-01
 6.06500E+00    1.59363E-01
