# n + Ca 46 : (n,tot)   
# jendl.ad   K.Shibata                         EVAL-JUN06
# uncertainties: n
# # energies =    69
#   E(MeV)       xs(mb) 
 1.00000E-10    5.16905E+03
 5.00000E-09    1.40745E+03
 1.00000E-08    1.06592E+03
 1.50000E-08    8.95572E+02
 2.00000E-08    7.87911E+02
 2.50000E-08    7.11851E+02
 3.00000E-08    6.54338E+02
 3.50000E-08    6.01599E+02
 4.20000E-08    5.50297E+02
 5.00000E-08    5.07583E+02
 5.80000E-08    4.71752E+02
 6.70000E-08    4.35357E+02
 8.00000E-08    3.93975E+02
 1.00000E-07    3.42752E+02
 1.40000E-07    2.95757E+02
 1.80000E-07    2.64110E+02
 2.20000E-07    2.43199E+02
 2.50000E-07    2.28973E+02
 2.80000E-07    2.18766E+02
 3.00000E-07    2.11558E+02
 3.20000E-07    2.03572E+02
 3.50000E-07    1.92560E+02
 4.00000E-07    1.76184E+02
 5.00000E-07    1.57627E+02
 6.25000E-07    1.41031E+02
 7.80000E-07    1.30514E+02
 8.50000E-07    1.25640E+02
 9.10000E-07    1.22162E+02
 9.50000E-07    1.20201E+02
 9.72000E-07    1.18762E+02
 9.96000E-07    1.17319E+02
 1.02000E-06    1.15959E+02
 1.04500E-06    1.14547E+02
 1.07100E-06    1.13121E+02
 1.09700E-06    1.11815E+02
 1.12300E-06    1.10509E+02
 1.15000E-06    1.06525E+02
 1.30000E-06    9.97025E+01
 1.50000E-06    8.85188E+01
 2.10000E-06    7.70866E+01
 2.60000E-06    6.88593E+01
 3.30000E-06    6.18199E+01
 4.00000E-06    4.73839E+01
 9.87700E-06    3.33179E+01
 1.59680E-05    2.57615E+01
 2.77000E-05    1.95628E+01
 4.80520E-05    1.52091E+01
 7.55014E-05    1.14958E+01
 1.48728E-04    7.76941E+00
 3.67262E-04    4.94443E+00
 9.06898E-04    2.05509E+01
 1.42510E-03    1.86517E+01
 2.23945E-03    1.27307E+01
 3.51910E-03    8.76281E+00
 5.53000E-03    5.90606E+00
 9.11800E-03    4.21610E+00
 1.50300E-02    3.13409E+00
 2.47800E-02    2.45034E+00
 4.08500E-02    1.95771E+00
 6.73400E-02    1.51463E+00
 1.11000E-01    1.18198E+00
 1.83000E-01    8.67276E-01
 3.02000E-01    6.90000E-01
 5.00000E-01    6.12580E-01
 8.21000E-01    5.70749E-01
 1.35300E+00    3.36115E-01
 2.23100E+00    3.04103E-01
 3.67900E+00    2.45515E-01
 6.06500E+00    2.40898E-01
