# n + Xe129 : (n,tot)   
# endfb8.0   JNDC FPND W.G., Mughabghab        EVAL-JAN05
# uncertainties: n
# # energies =   171
#   E(MeV)       xs(mb) 
 1.00000E-11    2.32800E+05
 1.00000E-07    1.11142E+04
 4.13990E-07    8.41713E+03
 5.31580E-07    7.83617E+03
 6.82560E-07    7.32142E+03
 8.76420E-07    6.86588E+03
 1.12540E-06    6.46494E+03
 1.44500E-06    6.11581E+03
 1.85540E-06    5.82096E+03
 2.37240E-06    5.58844E+03
 3.05900E-06    5.45348E+03
 3.92790E-06    5.53626E+03
 5.04350E-06    6.30445E+03
 6.47600E-06    1.22562E+04
 8.31530E-06    8.16129E+05
 1.06770E-05    1.25562E+04
 1.37100E-05    4.53432E+03
 1.76030E-05    3.41278E+03
 2.26030E-05    2.92946E+03
 2.92030E-05    2.61493E+03
 3.72670E-05    2.35422E+03
 4.78510E-05    2.08113E+03
 6.14420E-05    1.71834E+03
 7.88930E-05    1.23836E+05
 1.01300E-04    8.49052E+04
 1.30070E-04    3.53506E+04
 1.67020E-04    3.10219E+04
 2.14450E-04    1.80945E+04
 2.75360E-04    2.74706E+03
 3.53580E-04    2.03474E+04
 4.54000E-04    3.37544E+04
 5.82950E-04    2.74122E+04
 7.48520E-04    1.84700E+04
 9.61120E-04    1.47483E+04
 1.23410E-03    8.85534E+03
 1.58460E-03    1.21189E+04
 2.03470E-03    1.08435E+04
 2.24870E-03    1.06890E+04
 2.48520E-03    3.46945E+04
 2.61260E-03    1.05133E+04
 2.74650E-03    5.14850E+03
 3.03540E-03    1.11459E+04
 3.35460E-03    9.05495E+03
 3.70740E-03    1.23381E+04
 4.30740E-03    9.74101E+03
 5.53080E-03    9.08620E+03
 7.10170E-03    8.51280E+03
 9.11880E-03    8.01438E+03
 1.17090E-02    7.58295E+03
 1.50340E-02    7.20905E+03
 1.93050E-02    6.96145E+03
 2.18750E-02    6.84175E+03
 2.35790E-02    6.78559E+03
 2.41760E-02    6.75674E+03
 2.47880E-02    6.71514E+03
 2.60580E-02    6.67004E+03
 2.70000E-02    6.62250E+03
 2.85000E-02    6.54054E+03
 3.18280E-02    6.45214E+03
 3.43070E-02    6.34045E+03
 4.08680E-02    6.17832E+03
 4.63090E-02    6.11270E+03
 5.24750E-02    6.04750E+03
 5.65620E-02    5.95163E+03
 6.73790E-02    5.87498E+03
 7.20000E-02    5.83292E+03
 7.95000E-02    5.79874E+03
 8.25000E-02    5.77376E+03
 8.65170E-02    5.72354E+03
 9.80370E-02    5.68984E+03
 1.11090E-01    5.67694E+03
 1.16790E-01    5.66702E+03
 1.22770E-01    5.65659E+03
 1.29070E-01    5.64562E+03
 1.35690E-01    5.63409E+03
 1.42640E-01    5.62197E+03
 1.49960E-01    5.61617E+03
 1.57640E-01    5.61729E+03
 1.65730E-01    5.61847E+03
 1.74220E-01    5.61971E+03
 1.83160E-01    5.62101E+03
 1.92550E-01    5.62238E+03
 2.02420E-01    5.62508E+03
 2.12800E-01    5.63454E+03
 2.23710E-01    5.64543E+03
 2.35180E-01    5.65688E+03
 2.47240E-01    5.67656E+03
 2.73240E-01    5.70375E+03
 2.87250E-01    5.71903E+03
 2.94520E-01    5.72616E+03
 2.97200E-01    5.72901E+03
 2.98500E-01    5.73241E+03
 3.01970E-01    5.75723E+03
 3.33730E-01    5.80760E+03
 3.68830E-01    5.85114E+03
 3.87740E-01    5.88217E+03
 4.07620E-01    5.93194E+03
 4.50490E-01    6.00410E+03
 4.97870E-01    6.06290E+03
 5.23400E-01    6.10479E+03
 5.50230E-01    6.14882E+03
 5.78440E-01    6.19455E+03
 6.08100E-01    6.23611E+03
 6.39280E-01    6.27793E+03
 6.72060E-01    6.32189E+03
 7.06510E-01    6.36811E+03
 7.42740E-01    6.41064E+03
 7.80820E-01    6.44917E+03
 8.20850E-01    6.48967E+03
 8.62940E-01    6.52964E+03
 9.07180E-01    6.56265E+03
 9.61640E-01    6.59347E+03
 1.00260E+00    6.62101E+03
 1.10800E+00    6.64077E+03
 1.16480E+00    6.65483E+03
 1.22460E+00    6.66414E+03
 1.28730E+00    6.65014E+03
 1.35340E+00    6.63267E+03
 1.42270E+00    6.61431E+03
 1.49570E+00    6.58655E+03
 1.57240E+00    6.53981E+03
 1.65300E+00    6.49016E+03
 1.73770E+00    6.43516E+03
 1.82680E+00    6.36474E+03
 1.92050E+00    6.28913E+03
 2.01900E+00    6.19621E+03
 2.12250E+00    6.08720E+03
 2.23130E+00    5.99286E+03
 2.30690E+00    5.94030E+03
 2.34570E+00    5.91494E+03
 2.36530E+00    5.89781E+03
 2.38520E+00    5.85432E+03
 2.46600E+00    5.76478E+03
 2.59240E+00    5.66253E+03
 2.72530E+00    5.56257E+03
 2.86500E+00    5.45778E+03
 3.01190E+00    5.33904E+03
 3.16640E+00    5.20182E+03
 3.32870E+00    5.00274E+03
 3.67880E+00    4.74849E+03
 4.06570E+00    4.51689E+03
 4.49330E+00    4.35449E+03
 4.72370E+00    4.24708E+03
 4.96590E+00    4.16394E+03
 5.22050E+00    4.11580E+03
 5.48810E+00    4.06576E+03
 5.76950E+00    4.01607E+03
 6.06530E+00    4.01557E+03
 6.37630E+00    4.03390E+03
 6.59240E+00    4.04526E+03
 6.70320E+00    4.06131E+03
 7.04690E+00    4.11248E+03
 7.40820E+00    4.18259E+03
 7.78800E+00    4.25630E+03
 8.18730E+00    4.33379E+03
 8.60710E+00    4.41525E+03
 9.04840E+00    4.49581E+03
 9.51230E+00    4.57079E+03
 1.00000E+01    4.63781E+03
 1.05130E+01    4.69531E+03
 1.10520E+01    4.75350E+03
 1.16180E+01    4.81179E+03
 1.22140E+01    4.86352E+03
 1.28400E+01    4.91366E+03
 1.34990E+01    4.95154E+03
 1.38400E+01    4.97742E+03
 1.41910E+01    5.00551E+03
 1.45500E+01    5.03402E+03
 1.49180E+01    5.07257E+03
 1.56830E+01    5.10509E+03
 1.64870E+01    5.07841E+03
