# n + Fe 54 : (n,tot)   
# jendl4.0   S.IIJIMA,H.YAMAKOSHI              EVAL-MAR87
# uncertainties: n
# # energies =   171
#   E(MeV)       xs(mb) 
 1.00000E-11    2.90163E+04
 1.00000E-07    2.99475E+03
 4.13990E-07    2.70539E+03
 5.31580E-07    2.64355E+03
 6.82560E-07    2.58896E+03
 8.76420E-07    2.54080E+03
 1.12540E-06    2.49848E+03
 1.44500E-06    2.46135E+03
 1.85540E-06    2.42921E+03
 2.37240E-06    2.39918E+03
 3.05900E-06    2.37235E+03
 3.92790E-06    2.34936E+03
 5.04350E-06    2.32823E+03
 6.47600E-06    2.30868E+03
 8.31530E-06    2.29234E+03
 1.06770E-05    2.27525E+03
 1.37100E-05    2.26133E+03
 1.76030E-05    2.24575E+03
 2.26030E-05    2.23249E+03
 2.92030E-05    2.21708E+03
 3.72670E-05    2.20244E+03
 4.78510E-05    2.18640E+03
 6.14420E-05    2.16638E+03
 7.88930E-05    2.14564E+03
 1.01300E-04    2.12017E+03
 1.30070E-04    2.08760E+03
 1.67020E-04    2.04947E+03
 2.14450E-04    2.00219E+03
 2.75360E-04    1.94147E+03
 3.53580E-04    1.86464E+03
 4.54000E-04    1.76971E+03
 5.82950E-04    1.64810E+03
 7.48520E-04    1.49475E+03
 9.61120E-04    1.30250E+03
 1.23410E-03    1.06361E+03
 1.58460E-03    7.72961E+02
 2.03470E-03    5.43038E+02
 2.24870E-03    4.04818E+02
 2.48520E-03    3.01637E+02
 2.61260E-03    2.35183E+02
 2.74650E-03    1.43975E+02
 3.03540E-03    4.98325E+01
 3.35460E-03    2.10070E+01
 3.70740E-03    2.05078E+02
 4.30740E-03    2.33202E+03
 5.53080E-03    3.38688E+04
 7.10170E-03    2.18656E+05
 9.11880E-03    4.65832E+04
 1.17090E-02    1.66524E+04
 1.50340E-02    9.21771E+03
 1.93050E-02    6.42852E+03
 2.18750E-02    5.36800E+03
 2.35790E-02    4.90242E+03
 2.41760E-02    4.68372E+03
 2.47880E-02    4.37183E+03
 2.60580E-02    4.03146E+03
 2.70000E-02    3.69340E+03
 2.85000E-02    3.51811E+03
 3.18280E-02    2.48568E+03
 3.43070E-02    1.68551E+03
 4.08680E-02    5.93893E+02
 4.63090E-02    3.95203E+03
 5.24750E-02    2.76575E+04
 5.65620E-02    2.79161E+03
 6.73790E-02    5.53383E+03
 7.20000E-02    1.33332E+04
 7.95000E-02    2.67623E+03
 8.25000E-02    1.91912E+03
 8.65170E-02    7.51728E+02
 9.80370E-02    2.27365E+03
 1.11090E-01    2.12253E+02
 1.16790E-01    4.06798E+02
 1.22770E-01    2.13298E+03
 1.29070E-01    8.71087E+03
 1.35690E-01    4.94926E+02
 1.42640E-01    6.88862E+03
 1.49960E-01    1.02524E+03
 1.57640E-01    1.66006E+03
 1.65730E-01    4.73308E+03
 1.74220E-01    5.63965E+03
 1.83160E-01    1.01987E+04
 1.92550E-01    1.35565E+04
 2.02420E-01    1.06346E+04
 2.12800E-01    4.59826E+03
 2.23710E-01    3.65665E+03
 2.35180E-01    5.49619E+03
 2.47240E-01    8.43860E+03
 2.73240E-01    3.28318E+03
 2.87250E-01    1.96179E+03
 2.94520E-01    6.06159E+02
 2.97200E-01    1.53553E+02
 2.98500E-01    9.04340E+01
 3.01970E-01    4.72683E+03
 3.33730E-01    5.03747E+03
 3.68830E-01    3.47050E+03
 3.87740E-01    1.02521E+03
 4.07620E-01    5.48926E+03
 4.50490E-01    3.69844E+03
 4.97870E-01    3.59294E+03
 5.23400E-01    5.40891E+03
 5.50230E-01    4.30568E+03
 5.78440E-01    5.25765E+03
 6.08100E-01    4.94302E+03
 6.39280E-01    4.05205E+03
 6.72060E-01    3.58487E+03
 7.06510E-01    2.58850E+03
 7.42740E-01    4.75094E+03
 7.80820E-01    2.56263E+03
 8.20850E-01    3.04893E+03
 8.62940E-01    2.95407E+03
 9.07180E-01    3.28774E+03
 9.61640E-01    2.70916E+03
 1.00260E+00    3.09083E+03
 1.10800E+00    3.29683E+03
 1.16480E+00    2.95647E+03
 1.22460E+00    2.92500E+03
 1.28730E+00    2.93010E+03
 1.35340E+00    3.24804E+03
 1.42270E+00    3.14166E+03
 1.49570E+00    3.10445E+03
 1.57240E+00    3.61078E+03
 1.65300E+00    3.33858E+03
 1.73770E+00    3.34988E+03
 1.82680E+00    3.27286E+03
 1.92050E+00    3.25700E+03
 2.01900E+00    3.39581E+03
 2.12250E+00    3.34203E+03
 2.23130E+00    3.59189E+03
 2.30690E+00    3.36862E+03
 2.34570E+00    3.63095E+03
 2.36530E+00    4.03783E+03
 2.38520E+00    3.20247E+03
 2.46600E+00    3.95364E+03
 2.59240E+00    3.36745E+03
 2.72530E+00    3.63592E+03
 2.86500E+00    3.47302E+03
 3.01190E+00    3.50951E+03
 3.16640E+00    3.57366E+03
 3.32870E+00    3.48677E+03
 3.67880E+00    3.58309E+03
 4.06570E+00    3.66714E+03
 4.49330E+00    3.75812E+03
 4.72370E+00    3.62455E+03
 4.96590E+00    3.68228E+03
 5.22050E+00    3.65487E+03
 5.48810E+00    3.64628E+03
 5.76950E+00    3.61247E+03
 6.06530E+00    3.62921E+03
 6.37630E+00    3.46634E+03
 6.59240E+00    3.53364E+03
 6.70320E+00    3.45246E+03
 7.04690E+00    3.41218E+03
 7.40820E+00    3.40251E+03
 7.78800E+00    3.38769E+03
 8.18730E+00    3.33891E+03
 8.60710E+00    3.28113E+03
 9.04840E+00    3.21278E+03
 9.51230E+00    3.13054E+03
 1.00000E+01    3.05824E+03
 1.05130E+01    2.99669E+03
 1.10520E+01    2.92942E+03
 1.16180E+01    2.85644E+03
 1.22140E+01    2.77521E+03
 1.28400E+01    2.68868E+03
 1.34990E+01    2.62138E+03
 1.38400E+01    2.57507E+03
 1.41910E+01    2.52782E+03
 1.45500E+01    2.47948E+03
 1.49180E+01    2.44430E+03
 1.56830E+01    2.43885E+03
 1.64870E+01    2.41812E+03
