# n + Fe 54 : (n,n'03)  
# jendl4.0   S.IIJIMA,H.YAMAKOSHI              EVAL-MAR87
# uncertainties: n
# # energies =   109
#   E(MeV)       xs(mb) 
 2.60920E+00    0.00000E+00
 2.60991E+00    1.11123E-01
 2.61133E+00    3.32934E-01
 2.61275E+00    5.53878E-01
 2.61557E+00    9.94040E-01
 2.61837E+00    1.43076E+00
 2.62116E+00    1.86407E+00
 2.62669E+00    2.72392E+00
 2.63215E+00    3.57033E+00
 2.63754E+00    4.40352E+00
 2.64285E+00    5.22369E+00
 2.64809E+00    6.03105E+00
 2.65326E+00    6.82579E+00
 2.66346E+00    8.39043E+00
 2.67338E+00    9.90618E+00
 2.68303E+00    1.13746E+01
 2.69241E+00    1.27971E+01
 2.70153E+00    1.41751E+01
 2.71039E+00    1.55101E+01
 2.71900E+00    1.68033E+01
 2.72737E+00    1.80562E+01
 2.74366E+00    2.04836E+01
 2.75902E+00    2.27592E+01
 2.77350E+00    2.48927E+01
 2.78714E+00    2.68928E+01
 2.79999E+00    2.87679E+01
 2.81209E+00    3.05258E+01
 2.82348E+00    3.21738E+01
 2.84496E+00    3.52639E+01
 2.86390E+00    3.79677E+01
 2.88057E+00    4.03335E+01
 2.89523E+00    4.24036E+01
 2.92108E+00    4.60263E+01
 2.94061E+00    4.87433E+01
 2.95535E+00    5.07810E+01
 2.97759E+00    5.38377E+01
 3.00000E+00    5.68943E+01
 3.00506E+00    5.71771E+01
 3.01433E+00    5.76747E+01
 3.06574E+00    5.92705E+01
 3.10488E+00    6.04674E+01
 3.16452E+00    6.22626E+01
 3.22531E+00    6.40579E+01
 3.35682E+00    6.48190E+01
 3.40755E+00    6.54160E+01
 3.64803E+00    6.48569E+01
 3.90549E+00    6.42978E+01
 4.00000E+00    6.31245E+01
 4.10842E+00    6.13206E+01
 4.12288E+00    6.10628E+01
 4.14815E+00    6.06038E+01
 4.19601E+00    5.94194E+01
 4.26883E+00    5.76428E+01
 4.34292E+00    5.58662E+01
 4.37644E+00    5.51552E+01
 4.45138E+00    5.32018E+01
 4.50842E+00    5.17368E+01
 4.55169E+00    5.06380E+01
 4.61736E+00    4.89899E+01
 4.68398E+00    4.73417E+01
 4.74205E+00    4.53371E+01
 4.78789E+00    4.36172E+01
 4.82847E+00    4.24894E+01
 4.86939E+00    4.13617E+01
 4.93426E+00    3.99066E+01
 5.00000E+00    3.84515E+01
 5.04155E+00    3.77707E+01
 5.14041E+00    3.62770E+01
 5.19057E+00    3.55301E+01
 5.24121E+00    3.47832E+01
 5.33054E+00    3.32362E+01
 5.40996E+00    3.18826E+01
 5.48042E+00    3.06983E+01
 5.54282E+00    2.96619E+01
 5.59801E+00    2.87551E+01
 5.64674E+00    2.79617E+01
 5.73306E+00    2.65731E+01
 5.79866E+00    2.55317E+01
 5.84835E+00    2.47507E+01
 5.92369E+00    2.35791E+01
 6.00000E+00    2.24075E+01
 6.05809E+00    2.17815E+01
 6.11305E+00    2.11947E+01
 6.16504E+00    2.06445E+01
 6.21417E+00    2.01287E+01
 6.30736E+00    1.91616E+01
 6.39004E+00    1.83154E+01
 6.46328E+00    1.75750E+01
 6.52805E+00    1.69271E+01
 6.58526E+00    1.63602E+01
 6.63573E+00    1.58642E+01
 6.72498E+00    1.49962E+01
 6.79271E+00    1.43451E+01
 6.84395E+00    1.38568E+01
 6.92153E+00    1.31244E+01
 7.00000E+00    1.23920E+01
 8.00000E+00    7.36527E+00
 9.00000E+00    5.34725E+00
 1.00000E+01    4.21240E+00
 1.10000E+01    3.49624E+00
 1.20000E+01    3.00212E+00
 1.30000E+01    2.62289E+00
 1.40000E+01    2.30001E+00
 1.50000E+01    2.02151E+00
 1.60000E+01    1.81063E+00
 1.70000E+01    1.61816E+00
 1.80000E+01    3.48242E+00
 1.90000E+01    1.35695E+00
 2.00000E+01    1.27390E+00
