# n + Fe 54 : (n,n'14)  
# jendl4.0   S.IIJIMA,H.YAMAKOSHI              EVAL-MAR87
# uncertainties: n
# # energies =    69
#   E(MeV)       xs(mb) 
 4.37644E+00    0.00000E+00
 4.37760E+00    4.81485E-02
 4.37992E+00    1.44069E-01
 4.38221E+00    2.39240E-01
 4.38678E+00    4.28094E-01
 4.39127E+00    6.13998E-01
 4.39570E+00    7.96997E-01
 4.40443E+00    1.15728E+00
 4.41291E+00    1.50630E+00
 4.42114E+00    1.84441E+00
 4.42913E+00    2.17196E+00
 4.43688E+00    2.48927E+00
 4.45193E+00    3.10406E+00
 4.46609E+00    3.68042E+00
 4.47941E+00    4.22077E+00
 4.49193E+00    4.72734E+00
 4.50370E+00    5.20225E+00
 4.52585E+00    6.09270E+00
 4.54532E+00    6.87185E+00
 4.56242E+00    7.55361E+00
 4.57744E+00    8.15015E+00
 4.60385E+00    9.19409E+00
 4.62375E+00    9.97704E+00
 4.65377E+00    1.11515E+01
 4.68398E+00    1.23259E+01
 4.74205E+00    1.28170E+01
 4.78789E+00    1.31232E+01
 4.86939E+00    1.35675E+01
 4.93426E+00    1.38364E+01
 5.00000E+00    1.41052E+01
 5.04155E+00    1.43068E+01
 5.14041E+00    1.46675E+01
 5.24121E+00    1.50281E+01
 5.33054E+00    1.46801E+01
 5.40996E+00    1.43756E+01
 5.48042E+00    1.41092E+01
 5.60594E+00    1.36429E+01
 5.70196E+00    1.32933E+01
 5.77505E+00    1.30310E+01
 5.88645E+00    1.26376E+01
 6.00000E+00    1.22442E+01
 6.05809E+00    1.18935E+01
 6.11305E+00    1.15648E+01
 6.16504E+00    1.12566E+01
 6.21417E+00    1.09676E+01
 6.30736E+00    1.04258E+01
 6.39004E+00    9.95176E+00
 6.46328E+00    9.53696E+00
 6.52805E+00    9.17401E+00
 6.58526E+00    8.85643E+00
 6.63573E+00    8.57855E+00
 6.72498E+00    8.09225E+00
 6.79271E+00    7.72753E+00
 6.84395E+00    7.45399E+00
 6.92153E+00    7.04367E+00
 7.00000E+00    6.63336E+00
 8.00000E+00    4.98679E+00
 9.00000E+00    3.39708E+00
 1.00000E+01    2.46815E+00
 1.10000E+01    1.87368E+00
 1.20000E+01    1.48296E+00
 1.30000E+01    1.23068E+00
 1.40000E+01    1.04564E+00
 1.50000E+01    8.99698E-01
 1.60000E+01    8.34076E-01
 1.70000E+01    7.68870E-01
 1.80000E+01    6.99355E-01
 1.90000E+01    6.28047E-01
 2.00000E+01    4.11274E+00
