# n + Fe 54 : (n,n'06)  
# jendl4.0   S.IIJIMA,H.YAMAKOSHI              EVAL-MAR87
# uncertainties: n
# # energies =    88
#   E(MeV)       xs(mb) 
 3.22531E+00    0.00000E+00
 3.22632E+00    6.12572E-01
 3.22832E+00    1.82814E+00
 3.23029E+00    3.02471E+00
 3.23417E+00    5.38046E+00
 3.23793E+00    7.66258E+00
 3.24158E+00    9.87340E+00
 3.24867E+00    1.41568E+01
 3.25532E+00    1.81726E+01
 3.26158E+00    2.19373E+01
 3.26745E+00    2.54668E+01
 3.27849E+00    3.20845E+01
 3.28818E+00    3.78750E+01
 3.29668E+00    4.29417E+01
 3.30414E+00    4.73750E+01
 3.31723E+00    5.51334E+01
 3.32709E+00    6.09521E+01
 3.34192E+00    6.96803E+01
 3.35682E+00    7.84084E+01
 3.38209E+00    8.17722E+01
 3.40755E+00    8.51360E+01
 3.46614E+00    8.83001E+01
 3.51824E+00    9.10687E+01
 3.56446E+00    9.34913E+01
 3.60541E+00    9.56110E+01
 3.67819E+00    9.93205E+01
 3.73375E+00    1.02103E+02
 3.77596E+00    1.04189E+02
 3.84018E+00    1.07319E+02
 3.90549E+00    1.10449E+02
 4.00000E+00    1.12761E+02
 4.10842E+00    1.14633E+02
 4.12288E+00    1.14648E+02
 4.14815E+00    1.14669E+02
 4.24442E+00    1.13123E+02
 4.34292E+00    1.11577E+02
 4.37644E+00    1.11041E+02
 4.45138E+00    1.09273E+02
 4.56620E+00    1.06622E+02
 4.68398E+00    1.03971E+02
 4.74205E+00    1.00124E+02
 4.78789E+00    9.65883E+01
 4.86939E+00    9.21946E+01
 4.93426E+00    8.93207E+01
 5.00000E+00    8.64467E+01
 5.04155E+00    8.54199E+01
 5.14041E+00    8.29248E+01
 5.24121E+00    8.04296E+01
 5.33054E+00    7.70406E+01
 5.40996E+00    7.40752E+01
 5.48042E+00    7.14804E+01
 5.54282E+00    6.92100E+01
 5.59801E+00    6.72234E+01
 5.64674E+00    6.54852E+01
 5.73306E+00    6.24432E+01
 5.79866E+00    6.01617E+01
 5.84835E+00    5.84506E+01
 5.92369E+00    5.58840E+01
 6.00000E+00    5.33173E+01
 6.05809E+00    5.17269E+01
 6.11305E+00    5.02359E+01
 6.16504E+00    4.88381E+01
 6.21417E+00    4.75277E+01
 6.30736E+00    4.50706E+01
 6.39004E+00    4.29207E+01
 6.46328E+00    4.10395E+01
 6.52805E+00    3.93935E+01
 6.58526E+00    3.79532E+01
 6.63573E+00    3.66929E+01
 6.68021E+00    3.55902E+01
 6.75876E+00    3.36605E+01
 6.81828E+00    3.22132E+01
 6.86326E+00    3.11277E+01
 6.93129E+00    2.94994E+01
 7.00000E+00    2.78712E+01
 8.00000E+00    1.57598E+01
 9.00000E+00    1.01760E+01
 1.00000E+01    4.21959E+00
 1.10000E+01    2.65048E+00
 1.20000E+01    1.88530E+00
 1.30000E+01    1.42145E+00
 1.40000E+01    1.13179E+00
 1.50000E+01    9.36756E-01
 1.60000E+01    1.19612E+00
 1.70000E+01    6.90137E-01
 1.80000E+01    6.84003E-01
 1.90000E+01    2.02406E+00
 2.00000E+01    6.06951E-01
