# n + Fe 54 : (n,n'09)  
# jendl4.0   S.IIJIMA,H.YAMAKOSHI              EVAL-MAR87
# uncertainties: n
# # energies =    70
#   E(MeV)       xs(mb) 
 3.90549E+00    0.00000E+00
 3.90695E+00    1.45449E-01
 3.90982E+00    4.31802E-01
 3.91261E+00    7.09206E-01
 3.91802E+00    1.24668E+00
 3.92309E+00    1.75055E+00
 3.92785E+00    2.22294E+00
 3.93680E+00    3.10866E+00
 3.94465E+00    3.88366E+00
 3.95152E+00    4.56179E+00
 3.96359E+00    5.74852E+00
 3.97266E+00    6.63857E+00
 3.98631E+00    7.97363E+00
 4.00000E+00    9.30870E+00
 4.02683E+00    1.04607E+01
 4.04708E+00    1.13247E+01
 4.06233E+00    1.19728E+01
 4.08531E+00    1.29448E+01
 4.10842E+00    1.39168E+01
 4.12288E+00    1.41335E+01
 4.14815E+00    1.45766E+01
 4.17201E+00    1.53033E+01
 4.19300E+00    1.59391E+01
 4.22999E+00    1.70518E+01
 4.25794E+00    1.78863E+01
 4.30022E+00    1.91380E+01
 4.34292E+00    2.03898E+01
 4.37644E+00    2.10948E+01
 4.41375E+00    2.21208E+01
 4.44666E+00    2.30185E+01
 4.47565E+00    2.38040E+01
 4.52685E+00    2.51787E+01
 4.56563E+00    2.62096E+01
 4.62443E+00    2.77561E+01
 4.68398E+00    2.93026E+01
 4.74205E+00    3.02731E+01
 4.78789E+00    3.08590E+01
 4.86939E+00    3.17281E+01
 5.00000E+00    3.25406E+01
 5.04155E+00    3.30829E+01
 5.14041E+00    3.40629E+01
 5.24121E+00    3.50429E+01
 5.42140E+00    3.44798E+01
 5.56060E+00    3.40575E+01
 5.77612E+00    3.34240E+01
 6.00000E+00    3.27905E+01
 6.11673E+00    3.16075E+01
 6.22074E+00    3.05724E+01
 6.31319E+00    2.96667E+01
 6.39521E+00    2.88742E+01
 6.46786E+00    2.81808E+01
 6.53210E+00    2.75741E+01
 6.64606E+00    2.65122E+01
 6.73283E+00    2.57159E+01
 6.79865E+00    2.51186E+01
 6.89859E+00    2.42227E+01
 7.00000E+00    2.33268E+01
 8.00000E+00    2.20894E+01
 9.00000E+00    1.83943E+01
 1.00000E+01    1.60801E+01
 1.10000E+01    1.43995E+01
 1.20000E+01    1.31613E+01
 1.30000E+01    1.22375E+01
 1.40000E+01    1.14375E+01
 1.50000E+01    1.07245E+01
 1.60000E+01    1.04226E+01
 1.70000E+01    1.00245E+01
 1.80000E+01    9.60355E+00
 1.90000E+01    7.01383E+00
 2.00000E+01    9.19490E+00
