# n + Fe 54 : (n,xt)    
# jendl4.0   S.IIJIMA,H.YAMAKOSHI              EVAL-MAR87
# 
# # energies =   102
#   E(MeV)        xs(mb) 
 1.43453E+00    0.00000E+00
 1.43503E+00    0.00000E+00
 1.43602E+00    0.00000E+00
 1.43700E+00    0.00000E+00
 1.43893E+00    0.00000E+00
 1.44080E+00    0.00000E+00
 1.44261E+00    0.00000E+00
 1.44437E+00    0.00000E+00
 1.44779E+00    0.00000E+00
 1.45100E+00    0.00000E+00
 1.45401E+00    0.00000E+00
 1.45685E+00    0.00000E+00
 1.46217E+00    0.00000E+00
 1.46685E+00    0.00000E+00
 1.47095E+00    0.00000E+00
 1.47455E+00    0.00000E+00
 1.48087E+00    0.00000E+00
 1.48563E+00    0.00000E+00
 1.49280E+00    0.00000E+00
 1.50000E+00    0.00000E+00
 1.51452E+00    0.00000E+00
 1.52826E+00    0.00000E+00
 1.55437E+00    0.00000E+00
 1.57757E+00    0.00000E+00
 1.59816E+00    0.00000E+00
 1.61639E+00    0.00000E+00
 1.63252E+00    0.00000E+00
 1.66113E+00    0.00000E+00
 1.68291E+00    0.00000E+00
 1.69944E+00    0.00000E+00
 1.72454E+00    0.00000E+00
 1.75000E+00    0.00000E+00
 1.77946E+00    0.00000E+00
 1.80563E+00    0.00000E+00
 1.82886E+00    0.00000E+00
 1.87022E+00    0.00000E+00
 1.90185E+00    0.00000E+00
 1.92593E+00    0.00000E+00
 1.96261E+00    0.00000E+00
 2.00000E+00    0.00000E+00
 2.06525E+00    0.00000E+00
 2.12409E+00    0.00000E+00
 2.17694E+00    0.00000E+00
 2.22427E+00    0.00000E+00
 2.26653E+00    0.00000E+00
 2.34241E+00    0.00000E+00
 2.40099E+00    0.00000E+00
 2.49162E+00    0.00000E+00
 2.58566E+00    0.00000E+00
 2.60920E+00    0.00000E+00
 2.65512E+00    0.00000E+00
 2.69596E+00    0.00000E+00
 2.76895E+00    0.00000E+00
 2.82499E+00    0.00000E+00
 2.91118E+00    0.00000E+00
 3.00000E+00    0.00000E+00
 3.00506E+00    0.00000E+00
 3.01433E+00    0.00000E+00
 3.06575E+00    0.00000E+00
 3.11804E+00    0.00000E+00
 3.17122E+00    0.00000E+00
 3.22531E+00    0.00000E+00
 3.29041E+00    0.00000E+00
 3.35682E+00    0.00000E+00
 3.40755E+00    0.00000E+00
 3.52574E+00    0.00000E+00
 3.64803E+00    0.00000E+00
 3.77457E+00    0.00000E+00
 3.90549E+00    0.00000E+00
 4.00000E+00    0.00000E+00
 4.10842E+00    0.00000E+00
 4.12288E+00    0.00000E+00
 4.14815E+00    0.00000E+00
 4.34292E+00    0.00000E+00
 4.37644E+00    0.00000E+00
 4.68398E+00    0.00000E+00
 4.74205E+00    0.00000E+00
 4.78789E+00    0.00000E+00
 4.86939E+00    0.00000E+00
 5.00000E+00    0.00000E+00
 5.04155E+00    0.00000E+00
 5.24121E+00    0.00000E+00
 5.60779E+00    0.00000E+00
 5.80058E+00    0.00000E+00
 6.00000E+00    0.00000E+00
 6.23574E+00    0.00000E+00
 6.48074E+00    0.00000E+00
 6.73537E+00    0.00000E+00
 7.00000E+00    0.00000E+00
 8.00000E+00    0.00000E+00
 9.00000E+00    0.00000E+00
 1.00000E+01    0.00000E+00
 1.10000E+01    0.00000E+00
 1.20000E+01    0.00000E+00
 1.30000E+01    0.00000E+00
 1.40000E+01    0.00000E+00
 1.50000E+01    0.00000E+00
 1.60000E+01    0.00000E+00
 1.70000E+01    0.00000E+00
 1.80000E+01    0.00000E+00
 1.90000E+01    0.00000E+00
 2.00000E+01    0.00000E+00
