# n + Fe 54 : (n,n'07)  
# jendl4.0   S.IIJIMA,H.YAMAKOSHI              EVAL-MAR87
# uncertainties: n
# # energies =    86
#   E(MeV)       xs(mb) 
 3.35682E+00    0.00000E+00
 3.35761E+00    1.68727E-01
 3.35916E+00    5.00906E-01
 3.36216E+00    1.14450E+00
 3.36498E+00    1.74787E+00
 3.37027E+00    2.87919E+00
 3.37491E+00    3.86909E+00
 3.37897E+00    4.73526E+00
 3.38609E+00    6.25105E+00
 3.39145E+00    7.38789E+00
 3.39949E+00    9.09314E+00
 3.40755E+00    1.07984E+01
 3.42210E+00    1.16210E+01
 3.43626E+00    1.24178E+01
 3.45004E+00    1.31898E+01
 3.46343E+00    1.39376E+01
 3.48953E+00    1.53866E+01
 3.51418E+00    1.67449E+01
 3.53744E+00    1.80184E+01
 3.55940E+00    1.92123E+01
 3.58010E+00    2.03315E+01
 3.59962E+00    2.13809E+01
 3.61801E+00    2.23646E+01
 3.65276E+00    2.42091E+01
 3.68343E+00    2.58230E+01
 3.71048E+00    2.72352E+01
 3.73432E+00    2.84709E+01
 3.75530E+00    2.95521E+01
 3.79229E+00    3.14442E+01
 3.82028E+00    3.28633E+01
 3.86265E+00    3.49919E+01
 3.90549E+00    3.71205E+01
 3.95246E+00    3.86246E+01
 4.00000E+00    4.01287E+01
 4.05385E+00    4.21912E+01
 4.10842E+00    4.42536E+01
 4.12288E+00    4.41766E+01
 4.14815E+00    4.41451E+01
 4.24442E+00    4.55513E+01
 4.34292E+00    4.69575E+01
 4.37644E+00    4.70083E+01
 4.45138E+00    4.77392E+01
 4.56620E+00    4.88356E+01
 4.68398E+00    4.99320E+01
 4.74205E+00    4.94065E+01
 4.78789E+00    4.87355E+01
 4.86939E+00    4.76743E+01
 4.93426E+00    4.67697E+01
 5.00000E+00    4.58652E+01
 5.04155E+00    4.58266E+01
 5.24121E+00    4.50120E+01
 5.33054E+00    4.38103E+01
 5.40996E+00    4.27588E+01
 5.48042E+00    4.18387E+01
 5.54282E+00    4.10337E+01
 5.65374E+00    3.96248E+01
 5.73839E+00    3.85682E+01
 5.80270E+00    3.77757E+01
 5.90053E+00    3.65870E+01
 6.00000E+00    3.53983E+01
 6.05809E+00    3.45560E+01
 6.11305E+00    3.37663E+01
 6.21746E+00    3.22856E+01
 6.31028E+00    3.09900E+01
 6.39263E+00    2.98563E+01
 6.46558E+00    2.88644E+01
 6.53008E+00    2.79964E+01
 6.58705E+00    2.72370E+01
 6.68795E+00    2.59079E+01
 6.76463E+00    2.49112E+01
 6.82272E+00    2.41636E+01
 6.91079E+00    2.30422E+01
 7.00000E+00    2.19208E+01
 8.00000E+00    1.20883E+01
 9.00000E+00    7.78201E+00
 1.00000E+01    5.24336E+00
 1.10000E+01    3.68885E+00
 1.20000E+01    2.12944E+00
 1.30000E+01    1.66143E+00
 1.40000E+01    1.36245E+00
 1.50000E+01    1.15683E+00
 1.60000E+01    1.56081E+00
 1.70000E+01    1.41532E+00
 1.80000E+01    8.95226E-01
 1.90000E+01    1.33970E+00
 2.00000E+01    8.13718E-01
