# n + Hg198 : (n,n'19)  
# jeff3.3    A.J. Koning and D. Rochman        EVAL-DEC15
# uncertainties: n
# # energies =    72
#   E(MeV)       xs(mb) 
 1.91933E+00    0.00000E+00
 1.92054E+00    3.98512E-02
 1.93983E+00    6.75177E-01
 1.97501E+00    1.83385E+00
 1.98106E+00    2.03311E+00
 2.00000E+00    2.65691E+00
 2.01557E+00    2.98195E+00
 2.05904E+00    3.88945E+00
 2.06442E+00    4.00176E+00
 2.06939E+00    4.10552E+00
 2.08135E+00    4.35520E+00
 2.12055E+00    5.17355E+00
 2.13603E+00    5.49672E+00
 2.20000E+00    6.83218E+00
 2.40000E+00    1.00349E+01
 2.60000E+00    1.13265E+01
 2.80000E+00    1.12348E+01
 3.00000E+00    1.03905E+01
 3.20000E+00    9.20491E+00
 3.40000E+00    7.91190E+00
 3.60000E+00    6.64548E+00
 3.80000E+00    5.47912E+00
 4.00000E+00    4.45014E+00
 4.20000E+00    3.57261E+00
 4.40000E+00    2.84246E+00
 4.60000E+00    2.24704E+00
 4.80000E+00    1.76852E+00
 5.00000E+00    1.38747E+00
 5.20000E+00    1.08583E+00
 5.40000E+00    8.48008E-01
 5.60000E+00    6.58234E-01
 5.80000E+00    5.11553E-01
 6.00000E+00    3.97653E-01
 6.20000E+00    3.09473E-01
 6.40000E+00    2.40839E-01
 6.60000E+00    1.88076E-01
 6.80000E+00    1.46878E-01
 7.00000E+00    1.14852E-01
 7.20000E+00    8.99422E-02
 7.40000E+00    7.03562E-02
 7.60000E+00    5.51934E-02
 7.80000E+00    4.32515E-02
 8.00000E+00    3.39003E-02
 8.50000E+00    1.84925E-02
 9.00000E+00    1.01071E-02
 9.50000E+00    5.51712E-03
 1.00000E+01    3.00732E-03
 1.05000E+01    1.63896E-03
 1.10000E+01    8.94219E-04
 1.15000E+01    4.89039E-04
 1.20000E+01    2.68479E-04
 1.25000E+01    1.48198E-04
 1.30000E+01    8.23360E-05
 1.35000E+01    4.60759E-05
 1.40000E+01    2.59797E-05
 1.45000E+01    1.47594E-05
 1.50000E+01    8.44544E-06
 1.60000E+01    2.81902E-06
 1.70000E+01    9.56440E-07
 1.80000E+01    3.32140E-07
 1.90000E+01    1.17290E-07
 2.00000E+01    4.21380E-08
 2.10000E+01    1.54240E-08
 2.20000E+01    5.75090E-09
 2.30000E+01    2.18770E-09
 2.40000E+01    8.46850E-10
 2.50000E+01    3.33200E-10
 2.60000E+01    1.33140E-10
 2.70000E+01    5.39920E-11
 2.80000E+01    2.21410E-11
 2.90000E+01    9.19220E-12
 3.00000E+01    3.86430E-12
