# n + Hg198 : (n,n'07)  
# jeff3.3    A.J. Koning and D. Rochman        EVAL-DEC15
# uncertainties: n
# # energies =    86
#   E(MeV)       xs(mb) 
 1.55790E+00    0.00000E+00
 1.60000E+00    1.24553E+01
 1.62066E+00    1.41877E+01
 1.64393E+00    1.61390E+01
 1.69188E+00    2.01598E+01
 1.76897E+00    2.66240E+01
 1.80000E+00    2.92260E+01
 1.82508E+00    2.98371E+01
 1.84194E+00    3.02479E+01
 1.84425E+00    3.03041E+01
 1.85662E+00    3.06055E+01
 1.86836E+00    3.08916E+01
 1.90908E+00    3.18837E+01
 1.91120E+00    3.19353E+01
 1.91933E+00    3.21334E+01
 1.92054E+00    3.21629E+01
 1.93983E+00    3.26329E+01
 1.97501E+00    3.34900E+01
 1.98106E+00    3.36374E+01
 2.00000E+00    3.40989E+01
 2.01557E+00    3.38401E+01
 2.05904E+00    3.31175E+01
 2.06442E+00    3.30280E+01
 2.06939E+00    3.29454E+01
 2.08135E+00    3.27466E+01
 2.12055E+00    3.20950E+01
 2.13603E+00    3.18377E+01
 2.20000E+00    3.07743E+01
 2.40000E+00    2.58712E+01
 2.60000E+00    2.12372E+01
 2.80000E+00    1.72198E+01
 3.00000E+00    1.38303E+01
 3.20000E+00    1.09981E+01
 3.40000E+00    8.64342E+00
 3.60000E+00    6.70287E+00
 3.80000E+00    5.12686E+00
 4.00000E+00    3.87217E+00
 4.20000E+00    2.89475E+00
 4.40000E+00    2.14772E+00
 4.60000E+00    1.58600E+00
 4.80000E+00    1.16839E+00
 5.00000E+00    8.60029E-01
 5.20000E+00    6.33264E-01
 5.40000E+00    4.66854E-01
 5.60000E+00    3.43271E-01
 5.80000E+00    2.53546E-01
 6.00000E+00    1.87797E-01
 6.20000E+00    1.39446E-01
 6.40000E+00    1.03606E-01
 6.60000E+00    7.72715E-02
 6.80000E+00    5.75531E-02
 7.00000E+00    4.29043E-02
 7.20000E+00    3.20327E-02
 7.40000E+00    2.38880E-02
 7.60000E+00    1.78754E-02
 7.80000E+00    1.33866E-02
 8.00000E+00    1.00442E-02
 8.50000E+00    4.96443E-03
 9.00000E+00    2.50130E-03
 9.50000E+00    1.27978E-03
 1.00000E+01    6.62657E-04
 1.05000E+01    3.46205E-04
 1.10000E+01    1.82064E-04
 1.15000E+01    9.62546E-05
 1.20000E+01    5.11654E-05
 1.25000E+01    2.73739E-05
 1.30000E+01    1.47542E-05
 1.35000E+01    8.01930E-06
 1.40000E+01    4.39851E-06
 1.45000E+01    2.43552E-06
 1.50000E+01    1.36126E-06
 1.60000E+01    4.36280E-07
 1.70000E+01    1.43080E-07
 1.80000E+01    4.82290E-08
 1.90000E+01    1.65770E-08
 2.00000E+01    5.80950E-09
 2.10000E+01    2.08000E-09
 2.20000E+01    7.60950E-10
 2.30000E+01    2.84930E-10
 2.40000E+01    1.08900E-10
 2.50000E+01    4.24130E-11
 2.60000E+01    1.67990E-11
 2.70000E+01    6.75290E-12
 2.80000E+01    2.74270E-12
 2.90000E+01    1.12690E-12
 3.00000E+01    4.68840E-13
