# n + Cm247 :  n        
# jendl4.0   O.Iwamoto, T.Nakagawa, et al.     EVAL-FEB10
# uncertainties: n
# # energies =    56
#   E(MeV)       xs(mb) 
 9.00000E-01    0.00000E+00
 1.00000E+00    1.31090E-11
 1.07500E+00    4.40330E-11
 1.15000E+00    7.67290E-11
 1.30000E+00    1.45020E-10
 1.40000E+00    3.26620E-10
 1.50000E+00    5.18650E-10
 1.60000E+00    7.07270E-10
 1.80000E+00    2.20580E-09
 2.00000E+00    7.54840E-09
 2.15000E+00    2.49720E-08
 2.30000E+00    4.13180E-08
 2.40000E+00    8.82020E-08
 2.50000E+00    1.33320E-07
 2.70000E+00    4.48550E-07
 2.85000E+00    1.69941E-06
 3.00000E+00    2.95247E-06
 3.50000E+00    7.51989E-05
 3.75000E+00    1.04681E-03
 4.00000E+00    2.03539E-03
 4.25000E+00    2.98265E-02
 4.50000E+00    5.78250E-02
 4.75000E+00    8.83832E-01
 5.00000E+00    1.71838E+00
 5.50000E+00    3.20644E+01
 5.75000E+00    7.64821E+01
 6.00000E+00    1.19769E+02
 6.25000E+00    2.11195E+02
 6.50000E+00    3.05654E+02
 6.75000E+00    4.07477E+02
 7.00000E+00    5.19505E+02
 7.50000E+00    6.67360E+02
 8.00000E+00    7.97144E+02
 8.50000E+00    8.40822E+02
 9.00000E+00    8.83988E+02
 9.50000E+00    8.95244E+02
 1.00000E+01    8.98080E+02
 1.05000E+01    9.02693E+02
 1.10000E+01    8.95296E+02
 1.15000E+01    8.88166E+02
 1.20000E+01    8.73039E+02
 1.25000E+01    8.53097E+02
 1.30000E+01    8.29599E+02
 1.35000E+01    8.07504E+02
 1.40000E+01    7.90551E+02
 1.45000E+01    7.76566E+02
 1.50000E+01    7.75154E+02
 1.55000E+01    7.67774E+02
 1.60000E+01    7.62115E+02
 1.65000E+01    7.63399E+02
 1.70000E+01    7.61263E+02
 1.75000E+01    7.59716E+02
 1.80000E+01    7.63499E+02
 1.85000E+01    7.61927E+02
 1.95000E+01    7.66322E+02
 2.00000E+01    7.63318E+02
