# n + Cr 54 : (n,g)     
# endfb8.0   S.Chiba,M.Chadwick,D.Hetrick      EVAL-OCT97
# uncertainties: n
# # energies =    78
#   E(MeV)       xs(mb) 
 1.00000E-11    0.00000E+00
 2.53000E-08    0.00000E+00
 8.34000E-01    0.00000E+00
 8.34000E-01    1.00558E-01
 8.34318E-01    1.06590E-01
 8.35378E-01    1.43860E-01
 8.36479E-01    2.37710E-01
 8.37484E-01    6.40450E-01
 8.38494E-01    3.50960E+00
 8.39514E-01    1.99240E+00
 8.40534E-01    2.19890E+01
 8.41570E-01    2.61420E+00
 8.42629E-01    6.36560E-01
 8.43690E-01    3.11630E-01
 8.44720E-01    2.19240E-01
 8.45871E-01    2.21450E-01
 8.46917E-01    4.35010E-01
 8.47935E-01    8.40410E+00
 8.48969E-01    9.73680E-01
 8.50020E-01    2.65060E-01
 8.51044E-01    2.31620E-01
 8.52098E-01    5.83000E-01
 8.53127E-01    4.37960E+01
 8.54158E-01    5.08480E-01
 8.55248E-01    1.57060E-01
 8.56345E-01    9.05960E-02
 8.57446E-01    6.61850E-02
 8.58766E-01    5.38800E-02
 8.60086E-01    4.87160E-02
 8.61297E-01    4.74090E-02
 8.62727E-01    4.91830E-02
 8.64048E-01    5.43680E-02
 8.65148E-01    6.25040E-02
 8.66248E-01    7.65830E-02
 8.67404E-01    1.04020E-01
 8.68449E-01    1.54560E-01
 8.69549E-01    2.83340E-01
 8.70595E-01    6.34240E-01
 8.71662E-01    1.03120E+00
 8.72735E-01    5.77220E-01
 8.73813E-01    4.89130E-01
 8.74879E-01    1.15730E+00
 8.75955E-01    3.46420E+00
 8.77037E-01    7.23570E-01
 8.78130E-01    2.89410E-01
 8.79252E-01    1.96820E-01
 8.80345E-01    2.05280E-01
 8.81525E-01    3.66560E-01
 8.82597E-01    1.52700E+00
 8.83664E-01    1.68040E+01
 8.84754E-01    8.54130E-01
 8.85820E-01    5.55360E+00
 8.86898E-01    2.94560E-01
 8.88018E-01    1.61730E-01
 8.89097E-01    2.77750E-01
 8.90180E-01    1.22100E+01
 8.91269E-01    1.90100E-01
 8.92345E-01    7.50480E-02
 8.93512E-01    4.67530E-02
 8.94716E-01    3.48590E-02
 8.95819E-01    2.88250E-02
 8.97324E-01    2.37250E-02
 8.98529E-01    2.09860E-02
 8.99868E-01    1.87420E-02
 9.00000E-01    2.24582E-02
 9.50000E-01    1.43000E+00
 1.00000E+00    1.19200E+00
 1.50000E+00    1.08400E+00
 2.00000E+00    9.76000E-01
 3.00000E+00    8.80000E-01
 4.00000E+00    6.87200E-01
 5.00000E+00    5.20000E-01
 7.50000E+00    2.80800E-01
 1.00000E+01    2.83000E-01
 1.20000E+01    5.11000E-01
 1.45000E+01    5.54000E-01
 1.75000E+01    4.36000E-01
 2.00000E+01    5.99000E-02
