# n + Zn 67 : (n,n'05)  
# jendl4.0   N.Iwamoto                         EVAL-Dec09
# uncertainties: n
# # energies =    57
#   E(MeV)       xs(mb) 
 8.27049E-01    0.00000E+00
 8.84036E-01    1.51127E+02
 9.00000E-01    1.56843E+02
 9.01080E-01    1.57421E+02
 9.94607E-01    1.89977E+02
 1.00000E+00    1.90379E+02
 1.00492E+00    1.91604E+02
 1.07598E+00    2.10407E+02
 1.10000E+00    2.16270E+02
 1.16003E+00    2.30132E+02
 1.20000E+00    2.38495E+02
 1.30000E+00    2.49792E+02
 1.40000E+00    2.53255E+02
 1.50000E+00    2.53563E+02
 1.60000E+00    2.47337E+02
 1.70000E+00    2.39470E+02
 1.80000E+00    2.30851E+02
 1.90000E+00    2.21625E+02
 2.00000E+00    2.13200E+02
 2.25000E+00    1.92298E+02
 2.50000E+00    1.69952E+02
 2.75000E+00    1.56847E+02
 3.00000E+00    1.44758E+02
 3.50000E+00    1.30806E+02
 4.00000E+00    1.22865E+02
 4.50000E+00    1.16348E+02
 5.00000E+00    1.10048E+02
 5.50000E+00    1.03434E+02
 6.00000E+00    9.66822E+01
 6.50000E+00    9.01477E+01
 7.00000E+00    8.41137E+01
 7.50000E+00    7.87269E+01
 8.00000E+00    7.40253E+01
 8.50000E+00    6.99774E+01
 9.00000E+00    6.65125E+01
 9.50000E+00    6.35370E+01
 1.00000E+01    6.09486E+01
 1.05000E+01    5.87387E+01
 1.10000E+01    5.65432E+01
 1.15000E+01    5.46134E+01
 1.20000E+01    5.26914E+01
 1.25000E+01    5.09317E+01
 1.30000E+01    4.91768E+01
 1.35000E+01    4.76282E+01
 1.40000E+01    4.60829E+01
 1.45000E+01    4.47973E+01
 1.50000E+01    4.35140E+01
 1.55000E+01    4.24611E+01
 1.60000E+01    4.14096E+01
 1.65000E+01    4.04928E+01
 1.70000E+01    3.95772E+01
 1.75000E+01    3.87040E+01
 1.80000E+01    3.78319E+01
 1.85000E+01    3.69593E+01
 1.90000E+01    3.60877E+01
 1.95000E+01    3.52227E+01
 2.00000E+01    3.43585E+01
