# n + Zn 67 : (n,xd)    
# jendl4.0   N.Iwamoto                         EVAL-Dec09
# 
# # energies =    83
#   E(MeV)        xs(mb) 
 9.47183E-02    0.00000E+00
 1.00000E-01    0.00000E+00
 1.05000E-01    0.00000E+00
 1.10000E-01    0.00000E+00
 1.20000E-01    0.00000E+00
 1.30000E-01    0.00000E+00
 1.40000E-01    0.00000E+00
 1.50000E-01    0.00000E+00
 1.60000E-01    0.00000E+00
 1.70000E-01    0.00000E+00
 1.80000E-01    0.00000E+00
 1.87361E-01    0.00000E+00
 1.90000E-01    0.00000E+00
 2.00000E-01    0.00000E+00
 2.25000E-01    0.00000E+00
 2.50000E-01    0.00000E+00
 2.75000E-01    0.00000E+00
 3.00000E-01    0.00000E+00
 3.99462E-01    0.00000E+00
 4.00000E-01    0.00000E+00
 5.00000E-01    0.00000E+00
 6.00000E-01    0.00000E+00
 6.13600E-01    0.00000E+00
 7.00000E-01    0.00000E+00
 8.00000E-01    0.00000E+00
 8.27049E-01    0.00000E+00
 8.27050E-01    0.00000E+00
 8.84036E-01    0.00000E+00
 9.00000E-01    0.00000E+00
 9.01080E-01    0.00000E+00
 9.94607E-01    0.00000E+00
 1.00000E+00    0.00000E+00
 1.00492E+00    0.00000E+00
 1.07598E+00    0.00000E+00
 1.10000E+00    0.00000E+00
 1.16003E+00    0.00000E+00
 1.20000E+00    0.00000E+00
 1.30000E+00    0.00000E+00
 1.40000E+00    0.00000E+00
 1.50000E+00    0.00000E+00
 1.60000E+00    0.00000E+00
 1.70000E+00    0.00000E+00
 1.80000E+00    0.00000E+00
 1.90000E+00    0.00000E+00
 2.00000E+00    0.00000E+00
 2.25000E+00    0.00000E+00
 2.50000E+00    0.00000E+00
 2.75000E+00    0.00000E+00
 3.00000E+00    0.00000E+00
 3.50000E+00    0.00000E+00
 4.00000E+00    0.00000E+00
 4.50000E+00    0.00000E+00
 5.00000E+00    0.00000E+00
 5.50000E+00    0.00000E+00
 6.00000E+00    0.00000E+00
 6.50000E+00    0.00000E+00
 7.00000E+00    7.80328E-09
 7.50000E+00    8.14112E-07
 8.00000E+00    2.40904E-06
 8.50000E+00    1.20348E-05
 9.00000E+00    2.64388E-04
 9.50000E+00    2.69741E-03
 1.00000E+01    1.55185E-02
 1.05000E+01    6.28886E-02
 1.10000E+01    1.77897E-01
 1.15000E+01    3.93711E-01
 1.20000E+01    7.28275E-01
 1.25000E+01    1.17708E+00
 1.30000E+01    1.73169E+00
 1.35000E+01    2.36684E+00
 1.40000E+01    2.90502E+00
 1.45000E+01    3.65300E+00
 1.50000E+01    4.45141E+00
 1.55000E+01    5.27132E+00
 1.60000E+01    6.12094E+00
 1.65000E+01    6.96692E+00
 1.70000E+01    7.82717E+00
 1.75000E+01    8.66859E+00
 1.80000E+01    9.51388E+00
 1.85000E+01    1.03333E+01
 1.90000E+01    1.11491E+01
 1.95000E+01    1.19384E+01
 2.00000E+01    1.27192E+01
