# n + Zn 67 : (n,n'04)  
# jendl4.0   N.Iwamoto                         EVAL-Dec09
# uncertainties: n
# # energies =    60
#   E(MeV)       xs(mb) 
 6.13600E-01    0.00000E+00
 7.00000E-01    1.15359E+02
 8.00000E-01    1.70906E+02
 8.27050E-01    1.83736E+02
 8.84036E-01    1.93612E+02
 9.00000E-01    1.96831E+02
 9.01080E-01    1.97092E+02
 9.94607E-01    2.13705E+02
 1.00000E+00    2.13041E+02
 1.00492E+00    2.13324E+02
 1.07598E+00    2.19523E+02
 1.10000E+00    2.21515E+02
 1.16003E+00    2.25340E+02
 1.20000E+00    2.27499E+02
 1.30000E+00    2.23373E+02
 1.40000E+00    2.11173E+02
 1.50000E+00    1.96939E+02
 1.60000E+00    1.82145E+02
 1.70000E+00    1.66827E+02
 1.80000E+00    1.52676E+02
 1.90000E+00    1.38510E+02
 2.00000E+00    1.25681E+02
 2.25000E+00    1.03175E+02
 2.50000E+00    7.94606E+01
 2.75000E+00    6.55514E+01
 3.00000E+00    5.25647E+01
 3.50000E+00    3.48877E+01
 4.00000E+00    2.34543E+01
 4.50000E+00    1.54452E+01
 5.00000E+00    1.02215E+01
 5.50000E+00    6.84291E+00
 6.00000E+00    4.67139E+00
 6.50000E+00    3.28117E+00
 7.00000E+00    2.39139E+00
 7.50000E+00    1.81944E+00
 8.00000E+00    1.44783E+00
 8.50000E+00    1.20238E+00
 9.00000E+00    1.03595E+00
 9.50000E+00    9.18716E-01
 1.00000E+01    8.31676E-01
 1.05000E+01    7.61657E-01
 1.10000E+01    7.06285E-01
 1.15000E+01    6.57183E-01
 1.20000E+01    6.16162E-01
 1.25000E+01    5.78790E-01
 1.30000E+01    5.47137E-01
 1.35000E+01    5.17956E-01
 1.40000E+01    4.92908E-01
 1.45000E+01    4.69273E-01
 1.50000E+01    4.48369E-01
 1.55000E+01    4.27940E-01
 1.60000E+01    4.09232E-01
 1.65000E+01    3.90592E-01
 1.70000E+01    3.73182E-01
 1.75000E+01    3.55905E-01
 1.80000E+01    3.39702E-01
 1.85000E+01    3.23837E-01
 1.90000E+01    3.08970E-01
 1.95000E+01    2.94649E-01
 2.00000E+01    2.81269E-01
