# n + Os188 : (n,n'16)  
# jeff3.3    A.J. Koning and D. Rochman        EVAL-DEC15
# uncertainties: n
# # energies =    77
#   E(MeV)       xs(mb) 
 1.48597E+00    0.00000E+00
 1.52283E+00    1.16511E+01
 1.52424E+00    1.20968E+01
 1.57511E+00    2.81763E+01
 1.58546E+00    3.14478E+01
 1.60000E+00    3.60438E+01
 1.62918E+00    3.75963E+01
 1.67761E+00    4.01729E+01
 1.69433E+00    4.10624E+01
 1.70398E+00    4.15758E+01
 1.71342E+00    4.20781E+01
 1.73870E+00    4.34231E+01
 1.75587E+00    4.43366E+01
 1.77487E+00    4.53474E+01
 1.78050E+00    4.56469E+01
 1.80000E+00    4.66844E+01
 1.81731E+00    4.65915E+01
 2.00000E+00    4.56115E+01
 2.20000E+00    4.24229E+01
 2.40000E+00    3.86105E+01
 2.60000E+00    3.43123E+01
 2.80000E+00    2.95051E+01
 3.00000E+00    2.42508E+01
 3.20000E+00    1.87981E+01
 3.40000E+00    1.38387E+01
 3.60000E+00    9.69849E+00
 3.80000E+00    6.54275E+00
 4.00000E+00    4.30625E+00
 4.20000E+00    2.79652E+00
 4.40000E+00    1.80532E+00
 4.60000E+00    1.16491E+00
 4.80000E+00    7.58739E-01
 5.00000E+00    4.97793E-01
 5.20000E+00    3.29626E-01
 5.40000E+00    2.20406E-01
 5.60000E+00    1.47996E-01
 5.80000E+00    1.00454E-01
 6.00000E+00    6.88141E-02
 6.20000E+00    4.75547E-02
 6.40000E+00    3.31552E-02
 6.60000E+00    2.32450E-02
 6.80000E+00    1.64414E-02
 7.00000E+00    1.16820E-02
 7.20000E+00    8.34656E-03
 7.40000E+00    5.99836E-03
 7.60000E+00    4.32414E-03
 7.80000E+00    3.13867E-03
 8.00000E+00    2.28533E-03
 8.50000E+00    1.05115E-03
 9.00000E+00    4.92064E-04
 9.50000E+00    2.34163E-04
 1.00000E+01    1.13338E-04
 1.05000E+01    5.57828E-05
 1.10000E+01    2.78869E-05
 1.15000E+01    1.41415E-05
 1.20000E+01    7.26500E-06
 1.25000E+01    3.78037E-06
 1.30000E+01    1.99179E-06
 1.35000E+01    1.06252E-06
 1.40000E+01    5.73640E-07
 1.45000E+01    3.13390E-07
 1.50000E+01    1.73150E-07
 1.60000E+01    5.45090E-08
 1.70000E+01    1.77970E-08
 1.80000E+01    5.96350E-09
 1.90000E+01    2.06780E-09
 2.00000E+01    7.36050E-10
 2.10000E+01    2.68770E-10
 2.20000E+01    1.00710E-10
 2.30000E+01    3.87130E-11
 2.40000E+01    1.52210E-11
 2.50000E+01    6.12310E-12
 2.60000E+01    2.50520E-12
 2.70000E+01    1.04080E-12
 2.80000E+01    4.38920E-13
 2.90000E+01    1.87650E-13
 3.00000E+01    8.13550E-14
