# n + Os188 : (n,n'18)  
# jeff3.3    A.J. Koning and D. Rochman        EVAL-DEC15
# uncertainties: n
# # energies =    75
#   E(MeV)       xs(mb) 
 1.52424E+00    0.00000E+00
 1.57511E+00    4.02866E+00
 1.58546E+00    4.84833E+00
 1.60000E+00    5.99983E+00
 1.62918E+00    8.16797E+00
 1.67761E+00    1.17664E+01
 1.69433E+00    1.30088E+01
 1.70398E+00    1.37258E+01
 1.71342E+00    1.44272E+01
 1.73870E+00    1.63056E+01
 1.75587E+00    1.75813E+01
 1.77487E+00    1.89931E+01
 1.78050E+00    1.94114E+01
 1.80000E+00    2.08603E+01
 1.81731E+00    2.16718E+01
 2.00000E+00    3.02359E+01
 2.20000E+00    3.60876E+01
 2.40000E+00    3.99016E+01
 2.60000E+00    4.17731E+01
 2.80000E+00    4.13039E+01
 3.00000E+00    3.82123E+01
 3.20000E+00    3.27211E+01
 3.40000E+00    2.62616E+01
 3.60000E+00    1.99257E+01
 3.80000E+00    1.44918E+01
 4.00000E+00    1.02481E+01
 4.20000E+00    7.12364E+00
 4.40000E+00    4.90681E+00
 4.60000E+00    3.36129E+00
 4.80000E+00    2.30739E+00
 5.00000E+00    1.58831E+00
 5.20000E+00    1.09838E+00
 5.40000E+00    7.63773E-01
 5.60000E+00    5.31262E-01
 5.80000E+00    3.72246E-01
 6.00000E+00    2.62460E-01
 6.20000E+00    1.86205E-01
 6.40000E+00    1.32982E-01
 6.60000E+00    9.53379E-02
 6.80000E+00    6.88487E-02
 7.00000E+00    4.98840E-02
 7.20000E+00    3.63103E-02
 7.40000E+00    2.65641E-02
 7.60000E+00    1.94802E-02
 7.80000E+00    1.43758E-02
 8.00000E+00    1.06361E-02
 8.50000E+00    5.08060E-03
 9.00000E+00    2.46203E-03
 9.50000E+00    1.20859E-03
 1.00000E+01    6.01318E-04
 1.05000E+01    3.03341E-04
 1.10000E+01    1.55118E-04
 1.15000E+01    8.03676E-05
 1.20000E+01    4.21571E-05
 1.25000E+01    2.23893E-05
 1.30000E+01    1.20339E-05
 1.35000E+01    6.54358E-06
 1.40000E+01    3.59698E-06
 1.45000E+01    1.99789E-06
 1.50000E+01    1.12040E-06
 1.60000E+01    3.61610E-07
 1.70000E+01    1.20440E-07
 1.80000E+01    4.10640E-08
 1.90000E+01    1.44710E-08
 2.00000E+01    5.23150E-09
 2.10000E+01    1.93800E-09
 2.20000E+01    7.35460E-10
 2.30000E+01    2.85680E-10
 2.40000E+01    1.13250E-10
 2.50000E+01    4.58500E-11
 2.60000E+01    1.88640E-11
 2.70000E+01    7.88230E-12
 2.80000E+01    3.34490E-12
 2.90000E+01    1.43980E-12
 3.00000E+01    6.28510E-13
