# n + Os188 : (n,n'07)  
# jeff3.3    A.J. Koning and D. Rochman        EVAL-DEC15
# uncertainties: n
# # energies =    88
#   E(MeV)       xs(mb) 
 1.09219E+00    0.00000E+00
 1.18720E+00    7.00065E+01
 1.20000E+00    7.94380E+01
 1.28595E+00    9.71231E+01
 1.31182E+00    1.02446E+02
 1.40000E+00    1.20590E+02
 1.42137E+00    1.19444E+02
 1.43249E+00    1.18848E+02
 1.45125E+00    1.17841E+02
 1.46535E+00    1.17085E+02
 1.47036E+00    1.16817E+02
 1.48597E+00    1.15979E+02
 1.52283E+00    1.14003E+02
 1.52424E+00    1.13927E+02
 1.57511E+00    1.11199E+02
 1.58546E+00    1.10644E+02
 1.60000E+00    1.09864E+02
 1.62918E+00    1.06573E+02
 1.67761E+00    1.01111E+02
 1.69433E+00    9.92249E+01
 1.70398E+00    9.81366E+01
 1.71342E+00    9.70719E+01
 1.73870E+00    9.42206E+01
 1.75587E+00    9.22841E+01
 1.77487E+00    9.01412E+01
 1.78050E+00    8.95062E+01
 1.80000E+00    8.73069E+01
 1.81731E+00    8.58007E+01
 2.00000E+00    6.99047E+01
 2.20000E+00    5.84564E+01
 2.40000E+00    4.97092E+01
 2.60000E+00    4.20971E+01
 2.80000E+00    3.48551E+01
 3.00000E+00    2.77724E+01
 3.20000E+00    2.09909E+01
 3.40000E+00    1.51531E+01
 3.60000E+00    1.04617E+01
 3.80000E+00    6.98071E+00
 4.00000E+00    4.55228E+00
 4.20000E+00    2.92948E+00
 4.40000E+00    1.88752E+00
 4.60000E+00    1.21911E+00
 4.80000E+00    7.92628E-01
 5.00000E+00    5.19844E-01
 5.20000E+00    3.44245E-01
 5.40000E+00    2.30197E-01
 5.60000E+00    1.54565E-01
 5.80000E+00    1.04867E-01
 6.00000E+00    7.17793E-02
 6.20000E+00    4.95619E-02
 6.40000E+00    3.45126E-02
 6.60000E+00    2.41648E-02
 6.80000E+00    1.70702E-02
 7.00000E+00    1.21132E-02
 7.20000E+00    8.64417E-03
 7.40000E+00    6.20507E-03
 7.60000E+00    4.46838E-03
 7.80000E+00    3.24006E-03
 8.00000E+00    2.35691E-03
 8.50000E+00    1.08197E-03
 9.00000E+00    5.05816E-04
 9.50000E+00    2.40475E-04
 1.00000E+01    1.16272E-04
 1.05000E+01    5.71438E-05
 1.10000E+01    2.85141E-05
 1.15000E+01    1.44304E-05
 1.20000E+01    7.39956E-06
 1.25000E+01    3.84461E-06
 1.30000E+01    2.02348E-06
 1.35000E+01    1.07870E-06
 1.40000E+01    5.82160E-07
 1.45000E+01    3.17980E-07
 1.50000E+01    1.75650E-07
 1.60000E+01    5.52600E-08
 1.70000E+01    1.80210E-08
 1.80000E+01    6.03120E-09
 1.90000E+01    2.08910E-09
 2.00000E+01    7.43190E-10
 2.10000E+01    2.71310E-10
 2.20000E+01    1.01670E-10
 2.30000E+01    3.90850E-11
 2.40000E+01    1.53670E-11
 2.50000E+01    6.17960E-12
 2.60000E+01    2.52670E-12
 2.70000E+01    1.04890E-12
 2.80000E+01    4.42030E-13
 2.90000E+01    1.88880E-13
 3.00000E+01    8.18660E-14
