# n + Os188 : (n,n'20)  
# jeff3.3    A.J. Koning and D. Rochman        EVAL-DEC15
# uncertainties: n
# # energies =    73
#   E(MeV)       xs(mb) 
 1.58546E+00    0.00000E+00
 1.60000E+00    2.75747E+01
 1.62918E+00    3.58088E+01
 1.67761E+00    4.94751E+01
 1.69433E+00    5.41932E+01
 1.70398E+00    5.69163E+01
 1.71342E+00    5.95801E+01
 1.73870E+00    6.67138E+01
 1.75587E+00    7.15589E+01
 1.77487E+00    7.69204E+01
 1.78050E+00    7.85091E+01
 1.80000E+00    8.40117E+01
 1.81731E+00    8.51516E+01
 2.00000E+00    9.71826E+01
 2.20000E+00    9.80559E+01
 2.40000E+00    9.33346E+01
 2.60000E+00    8.48278E+01
 2.80000E+00    7.36309E+01
 3.00000E+00    6.07981E+01
 3.20000E+00    4.74045E+01
 3.40000E+00    3.51875E+01
 3.60000E+00    2.49764E+01
 3.80000E+00    1.71832E+01
 4.00000E+00    1.16477E+01
 4.20000E+00    7.89697E+00
 4.40000E+00    5.42929E+00
 4.60000E+00    3.81528E+00
 4.80000E+00    2.78367E+00
 5.00000E+00    2.11704E+00
 5.20000E+00    1.68469E+00
 5.40000E+00    1.40292E+00
 5.60000E+00    1.21639E+00
 5.80000E+00    1.09507E+00
 6.00000E+00    1.01598E+00
 6.20000E+00    9.64897E-01
 6.40000E+00    9.32548E-01
 6.60000E+00    9.12648E-01
 6.80000E+00    9.01480E-01
 7.00000E+00    8.96192E-01
 7.20000E+00    8.95071E-01
 7.40000E+00    8.96881E-01
 7.60000E+00    9.00665E-01
 7.80000E+00    9.05790E-01
 8.00000E+00    9.11677E-01
 8.50000E+00    9.27310E-01
 9.00000E+00    9.41393E-01
 9.50000E+00    9.52400E-01
 1.00000E+01    9.60213E-01
 1.05000E+01    9.65243E-01
 1.10000E+01    9.67826E-01
 1.15000E+01    9.68050E-01
 1.20000E+01    9.65823E-01
 1.25000E+01    9.61076E-01
 1.30000E+01    9.53883E-01
 1.35000E+01    9.44525E-01
 1.40000E+01    9.33460E-01
 1.45000E+01    9.21296E-01
 1.50000E+01    9.08739E-01
 1.60000E+01    8.85414E-01
 1.70000E+01    8.68714E-01
 1.80000E+01    8.61125E-01
 1.90000E+01    8.61431E-01
 2.00000E+01    8.66005E-01
 2.10000E+01    8.71074E-01
 2.20000E+01    8.74483E-01
 2.30000E+01    8.76212E-01
 2.40000E+01    8.77628E-01
 2.50000E+01    8.80348E-01
 2.60000E+01    8.85422E-01
 2.70000E+01    8.92987E-01
 2.80000E+01    9.02307E-01
 2.90000E+01    9.12089E-01
 3.00000E+01    9.21040E-01
