# n + Os188 : (n,n'13)  
# jeff3.3    A.J. Koning and D. Rochman        EVAL-DEC15
# uncertainties: n
# # energies =    80
#   E(MeV)       xs(mb) 
 1.45125E+00    0.00000E+00
 1.46535E+00    8.64021E+00
 1.47036E+00    1.17102E+01
 1.48597E+00    2.12757E+01
 1.52283E+00    4.38627E+01
 1.52424E+00    4.47267E+01
 1.57511E+00    7.58986E+01
 1.58546E+00    8.22409E+01
 1.60000E+00    9.11507E+01
 1.62918E+00    9.67234E+01
 1.67761E+00    1.05972E+02
 1.69433E+00    1.09165E+02
 1.70398E+00    1.11008E+02
 1.71342E+00    1.12811E+02
 1.73870E+00    1.17639E+02
 1.75587E+00    1.20918E+02
 1.77487E+00    1.24547E+02
 1.78050E+00    1.25622E+02
 1.80000E+00    1.29346E+02
 1.81731E+00    1.29937E+02
 2.00000E+00    1.36175E+02
 2.20000E+00    1.34299E+02
 2.40000E+00    1.27074E+02
 2.60000E+00    1.15529E+02
 2.80000E+00    1.00497E+02
 3.00000E+00    8.30461E+01
 3.20000E+00    6.46079E+01
 3.40000E+00    4.76913E+01
 3.60000E+00    3.35548E+01
 3.80000E+00    2.27726E+01
 4.00000E+00    1.51096E+01
 4.20000E+00    9.90564E+00
 4.40000E+00    6.45007E+00
 4.60000E+00    4.20442E+00
 4.80000E+00    2.76147E+00
 5.00000E+00    1.82442E+00
 5.20000E+00    1.21480E+00
 5.40000E+00    8.15792E-01
 5.60000E+00    5.49630E-01
 5.80000E+00    3.74095E-01
 6.00000E+00    2.56842E-01
 6.20000E+00    1.77917E-01
 6.40000E+00    1.24348E-01
 6.60000E+00    8.74149E-02
 6.80000E+00    6.20259E-02
 7.00000E+00    4.42302E-02
 7.20000E+00    3.17299E-02
 7.40000E+00    2.29056E-02
 7.60000E+00    1.65926E-02
 7.80000E+00    1.21056E-02
 8.00000E+00    8.86138E-03
 8.50000E+00    4.13141E-03
 9.00000E+00    1.95845E-03
 9.50000E+00    9.41663E-04
 1.00000E+01    4.59308E-04
 1.05000E+01    2.27338E-04
 1.10000E+01    1.14169E-04
 1.15000E+01    5.81519E-05
 1.20000E+01    3.00200E-05
 1.25000E+01    1.57058E-05
 1.30000E+01    8.32304E-06
 1.35000E+01    4.46573E-06
 1.40000E+01    2.42410E-06
 1.45000E+01    1.33067E-06
 1.50000E+01    7.38140E-07
 1.60000E+01    2.33730E-07
 1.70000E+01    7.66470E-08
 1.80000E+01    2.57970E-08
 1.90000E+01    8.98940E-09
 2.00000E+01    3.21650E-09
 2.10000E+01    1.18000E-09
 2.20000E+01    4.43680E-10
 2.30000E+01    1.70880E-10
 2.40000E+01    6.72180E-11
 2.50000E+01    2.70290E-11
 2.60000E+01    1.10530E-11
 2.70000E+01    4.59300E-12
 2.80000E+01    1.93940E-12
 2.90000E+01    8.30930E-13
 3.00000E+01    3.61170E-13
