# n + Xe132 : (n,tot)   
# jeff3.3    B.S.Yu+, Mughabghab               EVAL-JAN05
# uncertainties: n
# # energies =   171
#   E(MeV)       xs(mb) 
 1.00000E-11    1.09795E+04
 1.00000E-07    3.92175E+03
 4.13990E-07    3.86172E+03
 5.31580E-07    3.84853E+03
 6.82560E-07    3.83663E+03
 8.76420E-07    3.82580E+03
 1.12540E-06    3.81670E+03
 1.44500E-06    3.80780E+03
 1.85540E-06    3.79823E+03
 2.37240E-06    3.79151E+03
 3.05900E-06    3.78320E+03
 3.92790E-06    3.77261E+03
 5.04350E-06    3.76091E+03
 6.47600E-06    3.75146E+03
 8.31530E-06    3.73965E+03
 1.06770E-05    3.72448E+03
 1.37100E-05    3.70502E+03
 1.76030E-05    3.68293E+03
 2.26030E-05    3.65794E+03
 2.92030E-05    3.62624E+03
 3.72670E-05    3.58606E+03
 4.78510E-05    3.53392E+03
 6.14420E-05    3.46590E+03
 7.88930E-05    3.33792E+03
 1.01300E-04    2.28802E+04
 1.30070E-04    3.53736E+03
 1.67020E-04    3.35134E+03
 2.14450E-04    3.20597E+03
 2.75360E-04    3.01713E+03
 3.53580E-04    2.69070E+03
 4.54000E-04    1.74530E+03
 5.82950E-04    9.65335E+04
 7.48520E-04    5.41489E+03
 9.61120E-04    4.36711E+03
 1.23410E-03    4.03247E+03
 1.58460E-03    3.78907E+03
 2.03470E-03    7.91471E+03
 2.24870E-03    3.91149E+03
 2.48520E-03    3.78160E+03
 2.61260E-03    3.69801E+03
 2.74650E-03    6.58491E+03
 3.03540E-03    4.31336E+03
 3.35460E-03    3.68792E+03
 3.70740E-03    9.09368E+03
 4.30740E-03    9.72806E+03
 5.53080E-03    9.07159E+03
 7.10170E-03    8.49913E+03
 9.11880E-03    8.00149E+03
 1.17090E-02    7.57015E+03
 1.50340E-02    7.19824E+03
 1.93050E-02    6.95139E+03
 2.18750E-02    6.83142E+03
 2.35790E-02    6.77398E+03
 2.41760E-02    6.74636E+03
 2.47880E-02    6.70527E+03
 2.60580E-02    6.65965E+03
 2.70000E-02    6.61327E+03
 2.85000E-02    6.53187E+03
 3.18280E-02    6.44428E+03
 3.43070E-02    6.33444E+03
 4.08680E-02    6.21268E+03
 4.63090E-02    6.12000E+03
 5.24750E-02    6.05073E+03
 5.65620E-02    5.96988E+03
 6.73790E-02    5.89640E+03
 7.20000E-02    5.84989E+03
 7.95000E-02    5.81112E+03
 8.25000E-02    5.78903E+03
 8.65170E-02    5.74328E+03
 9.80370E-02    5.70362E+03
 1.11090E-01    5.71329E+03
 1.16790E-01    5.72057E+03
 1.22770E-01    5.74090E+03
 1.29070E-01    5.76896E+03
 1.35690E-01    5.79844E+03
 1.42640E-01    5.82944E+03
 1.49960E-01    5.85654E+03
 1.57640E-01    5.86960E+03
 1.65730E-01    5.88241E+03
 1.74220E-01    5.89589E+03
 1.83160E-01    5.91006E+03
 1.92550E-01    5.92495E+03
 2.02420E-01    5.94061E+03
 2.12800E-01    5.95704E+03
 2.23710E-01    5.97301E+03
 2.35180E-01    5.98900E+03
 2.47240E-01    6.01464E+03
 2.73240E-01    6.04204E+03
 2.87250E-01    6.05656E+03
 2.94520E-01    6.06334E+03
 2.97200E-01    6.06604E+03
 2.98500E-01    6.06928E+03
 3.01970E-01    6.09330E+03
 3.33730E-01    6.14405E+03
 3.68830E-01    6.18643E+03
 3.87740E-01    6.21663E+03
 4.07620E-01    6.26505E+03
 4.50490E-01    6.33526E+03
 4.97870E-01    6.39247E+03
 5.23400E-01    6.43158E+03
 5.50230E-01    6.46698E+03
 5.78440E-01    6.50372E+03
 6.08100E-01    6.54234E+03
 6.39280E-01    6.58102E+03
 6.72060E-01    6.61324E+03
 7.06510E-01    6.64612E+03
 7.42740E-01    6.67994E+03
 7.80820E-01    6.70697E+03
 8.20850E-01    6.73300E+03
 8.62940E-01    6.75916E+03
 9.07180E-01    6.77728E+03
 9.61640E-01    6.79252E+03
 1.00260E+00    6.79558E+03
 1.10800E+00    6.79150E+03
 1.16480E+00    6.77885E+03
 1.22460E+00    6.75466E+03
 1.28730E+00    6.72858E+03
 1.35340E+00    6.68811E+03
 1.42270E+00    6.64038E+03
 1.49570E+00    6.58187E+03
 1.57240E+00    6.51322E+03
 1.65300E+00    6.43552E+03
 1.73770E+00    6.34701E+03
 1.82680E+00    6.25389E+03
 1.92050E+00    6.15514E+03
 2.01900E+00    6.04887E+03
 2.12250E+00    5.93702E+03
 2.23130E+00    5.83959E+03
 2.30690E+00    5.77914E+03
 2.34570E+00    5.74833E+03
 2.36530E+00    5.72751E+03
 2.38520E+00    5.67713E+03
 2.46600E+00    5.58240E+03
 2.59240E+00    5.46495E+03
 2.72530E+00    5.35390E+03
 2.86500E+00    5.24711E+03
 3.01190E+00    5.14806E+03
 3.16640E+00    5.05518E+03
 3.32870E+00    4.93215E+03
 3.67880E+00    4.79000E+03
 4.06570E+00    4.66885E+03
 4.49330E+00    4.58951E+03
 4.72370E+00    4.54830E+03
 4.96590E+00    4.50904E+03
 5.22050E+00    4.48160E+03
 5.48810E+00    4.45793E+03
 5.76950E+00    4.44477E+03
 6.06530E+00    4.44478E+03
 6.37630E+00    4.44982E+03
 6.59240E+00    4.45562E+03
 6.70320E+00    4.47075E+03
 7.04690E+00    4.49703E+03
 7.40820E+00    4.53717E+03
 7.78800E+00    4.58094E+03
 8.18730E+00    4.62695E+03
 8.60710E+00    4.67410E+03
 9.04840E+00    4.72286E+03
 9.51230E+00    4.77187E+03
 1.00000E+01    4.81104E+03
 1.05130E+01    4.83985E+03
 1.10520E+01    4.85658E+03
 1.16180E+01    4.86165E+03
 1.22140E+01    4.85463E+03
 1.28400E+01    4.83656E+03
 1.34990E+01    4.81707E+03
 1.38400E+01    4.80160E+03
 1.41910E+01    4.78445E+03
 1.45500E+01    4.76616E+03
 1.49180E+01    4.73651E+03
 1.56830E+01    4.69418E+03
 1.64870E+01    4.64833E+03
