# n + Te130 : (n,xg)    
# jendl4.0   JNDC FP NUCLEAR DATA W.G.         EVAL-MAR90
# 
# # energies =   197
#   E(MeV)        xs(mb) 
 8.45918E-01    0.00000E+00
 8.46123E-01    0.00000E+00
 8.46531E-01    0.00000E+00
 8.47341E-01    0.00000E+00
 8.48140E-01    0.00000E+00
 8.48927E-01    0.00000E+00
 8.50478E-01    0.00000E+00
 8.51984E-01    0.00000E+00
 8.53445E-01    0.00000E+00
 8.54863E-01    0.00000E+00
 8.56238E-01    0.00000E+00
 8.58910E-01    0.00000E+00
 8.61422E-01    0.00000E+00
 8.63784E-01    0.00000E+00
 8.66004E-01    0.00000E+00
 8.68091E-01    0.00000E+00
 8.72017E-01    0.00000E+00
 8.75467E-01    0.00000E+00
 8.78496E-01    0.00000E+00
 8.81156E-01    0.00000E+00
 8.85830E-01    0.00000E+00
 8.89351E-01    0.00000E+00
 8.94660E-01    0.00000E+00
 9.00000E-01    0.00000E+00
 9.05946E-01    0.00000E+00
 9.17201E-01    0.00000E+00
 9.27164E-01    0.00000E+00
 9.35970E-01    0.00000E+00
 9.43744E-01    0.00000E+00
 9.50599E-01    0.00000E+00
 9.62716E-01    0.00000E+00
 9.71904E-01    0.00000E+00
 9.85852E-01    0.00000E+00
 1.00000E+00    0.00000E+00
 1.01404E+00    0.00000E+00
 1.02739E+00    0.00000E+00
 1.04006E+00    0.00000E+00
 1.05208E+00    0.00000E+00
 1.06348E+00    0.00000E+00
 1.08518E+00    0.00000E+00
 1.10453E+00    0.00000E+00
 1.12174E+00    0.00000E+00
 1.13703E+00    0.00000E+00
 1.15057E+00    0.00000E+00
 1.17466E+00    0.00000E+00
 1.19306E+00    0.00000E+00
 1.20705E+00    0.00000E+00
 1.22834E+00    0.00000E+00
 1.25000E+00    0.00000E+00
 1.27881E+00    0.00000E+00
 1.30457E+00    0.00000E+00
 1.32754E+00    0.00000E+00
 1.34796E+00    0.00000E+00
 1.38446E+00    0.00000E+00
 1.41248E+00    0.00000E+00
 1.43387E+00    0.00000E+00
 1.46656E+00    0.00000E+00
 1.50000E+00    0.00000E+00
 1.52448E+00    0.00000E+00
 1.56194E+00    0.00000E+00
 1.60033E+00    0.00000E+00
 1.62275E+00    0.00000E+00
 1.64548E+00    0.00000E+00
 1.67101E+00    0.00000E+00
 1.69042E+00    0.00000E+00
 1.71995E+00    0.00000E+00
 1.75000E+00    0.00000E+00
 1.78911E+00    0.00000E+00
 1.82909E+00    0.00000E+00
 1.86964E+00    0.00000E+00
 1.90065E+00    0.00000E+00
 1.94812E+00    0.00000E+00
 1.99678E+00    0.00000E+00
 2.00000E+00    0.00000E+00
 2.02866E+00    0.00000E+00
 2.07241E+00    0.00000E+00
 2.11711E+00    0.00000E+00
 2.16266E+00    0.00000E+00
 2.20801E+00    0.00000E+00
 2.25072E+00    0.00000E+00
 2.29151E+00    0.00000E+00
 2.33042E+00    0.00000E+00
 2.36750E+00    0.00000E+00
 2.40279E+00    0.00000E+00
 2.43636E+00    0.00000E+00
 2.46826E+00    0.00000E+00
 2.52919E+00    0.00000E+00
 2.58374E+00    0.00000E+00
 2.63244E+00    0.00000E+00
 2.67580E+00    0.00000E+00
 2.71433E+00    0.00000E+00
 2.78309E+00    0.00000E+00
 2.83580E+00    0.00000E+00
 2.87599E+00    0.00000E+00
 2.93734E+00    0.00000E+00
 3.00000E+00    0.00000E+00
 3.10984E+00    0.00000E+00
 3.20925E+00    0.00000E+00
 3.29884E+00    0.00000E+00
 3.37927E+00    0.00000E+00
 3.45126E+00    0.00000E+00
 3.58095E+00    0.00000E+00
 3.68141E+00    0.00000E+00
 3.75859E+00    0.00000E+00
 3.87742E+00    0.00000E+00
 4.00000E+00    0.00000E+00
 4.22949E+00    0.00000E+00
 4.59863E+00    0.00000E+00
 5.00000E+00    0.00000E+00
 5.23318E+00    0.00000E+00
 5.41517E+00    0.00000E+00
 5.70009E+00    0.00000E+00
 6.00000E+00    0.00000E+00
 6.48074E+00    0.00000E+00
 7.00000E+00    0.00000E+00
 7.48331E+00    0.00000E+00
 8.00000E+00    0.00000E+00
 8.11865E+00    0.00000E+00
 8.33055E+00    0.00000E+00
 8.49309E+00    0.00000E+00
 8.61708E+00    0.00000E+00
 8.80646E+00    0.00000E+00
 9.00000E+00    0.00000E+00
 9.11932E+00    0.00000E+00
 9.22501E+00    0.00000E+00
 9.31850E+00    0.00000E+00
 9.40108E+00    0.00000E+00
 9.47394E+00    0.00000E+00
 9.53815E+00    0.00000E+00
 9.59470E+00    0.00000E+00
 9.69446E+00    0.00000E+00
 9.76995E+00    0.00000E+00
 9.82697E+00    0.00000E+00
 9.91311E+00    0.00000E+00
 1.00000E+01    0.00000E+00
 1.01146E+01    0.00000E+00
 1.02232E+01    0.00000E+00
 1.03261E+01    0.00000E+00
 1.04235E+01    0.00000E+00
 1.05157E+01    0.00000E+00
 1.06028E+01    0.00000E+00
 1.06852E+01    0.00000E+00
 1.07630E+01    0.00000E+00
 1.08364E+01    0.00000E+00
 1.09057E+01    0.00000E+00
 1.09711E+01    0.00000E+00
 1.10327E+01    0.00000E+00
 1.11492E+01    0.00000E+00
 1.12522E+01    0.00000E+00
 1.13431E+01    0.00000E+00
 1.14232E+01    0.00000E+00
 1.14937E+01    0.00000E+00
 1.15558E+01    0.00000E+00
 1.16104E+01    0.00000E+00
 1.17066E+01    0.00000E+00
 1.17793E+01    0.00000E+00
 1.18341E+01    0.00000E+00
 1.19168E+01    0.00000E+00
 1.20000E+01    0.00000E+00
 1.21162E+01    0.00000E+00
 1.22261E+01    0.00000E+00
 1.23301E+01    0.00000E+00
 1.24283E+01    0.00000E+00
 1.26147E+01    0.00000E+00
 1.27801E+01    0.00000E+00
 1.29266E+01    0.00000E+00
 1.30561E+01    0.00000E+00
 1.31705E+01    0.00000E+00
 1.32715E+01    0.00000E+00
 1.34500E+01    0.00000E+00
 1.35854E+01    0.00000E+00
 1.36879E+01    0.00000E+00
 1.38431E+01    0.00000E+00
 1.40000E+01    0.00000E+00
 1.42436E+01    0.00000E+00
 1.44290E+01    0.00000E+00
 1.47117E+01    0.00000E+00
 1.50000E+01    0.00000E+00
 1.52440E+01    0.00000E+00
 1.56174E+01    0.00000E+00
 1.60000E+01    0.00000E+00
 1.62373E+01    0.00000E+00
 1.64478E+01    0.00000E+00
 1.68229E+01    0.00000E+00
 1.71097E+01    0.00000E+00
 1.73281E+01    0.00000E+00
 1.76608E+01    0.00000E+00
 1.80000E+01    0.00000E+00
 1.82386E+01    0.00000E+00
 1.84500E+01    0.00000E+00
 1.86370E+01    0.00000E+00
 1.88022E+01    0.00000E+00
 1.90947E+01    0.00000E+00
 1.93171E+01    0.00000E+00
 1.94856E+01    0.00000E+00
 1.97411E+01    0.00000E+00
 2.00000E+01    0.00000E+00
