# n + Zr 91 : (n,xp)    
# jendl4.0   JNDC FP NUCLEAR DATA W.G.         EVAL-AUG89
# 
# # energies =    44
#   E(MeV)        xs(mb) 
 1.21817E+00    1.36938E-09
 1.25000E+00    1.56917E-09
 1.48257E+00    3.02894E-09
 1.48260E+00    3.02913E-09
 1.50000E+00    3.13834E-09
 1.75000E+00    4.70752E-09
 1.90298E+00    5.66773E-09
 1.90300E+00    5.66786E-09
 2.00000E+00    6.27670E-09
 2.06486E+00    1.87155E-08
 2.06490E+00    1.87231E-08
 2.15490E+00    4.66196E-08
 2.15495E+00    4.66469E-08
 2.19408E+00    7.30525E-08
 2.21420E+00    9.31442E-08
 2.22512E+00    1.06636E-07
 2.25000E+00    1.45884E-07
 2.28477E+00    2.25962E-07
 2.31298E+00    3.22146E-07
 2.34580E+00    4.86832E-07
 2.34584E+00    4.87070E-07
 2.38190E+00    7.66929E-07
 2.38194E+00    7.67323E-07
 2.39316E+00    8.83506E-07
 2.39320E+00    8.83935E-07
 2.42147E+00    1.26128E-06
 2.42150E+00    1.26174E-06
 2.42157E+00    1.26281E-06
 2.50000E+00    3.38908E-06
 3.00000E+00    1.82882E-03
 3.50000E+00    1.03335E-02
 4.00000E+00    5.82890E-02
 5.00000E+00    3.50034E-01
 6.00000E+00    9.66330E-01
 7.00000E+00    1.82008E+00
 8.00000E+00    3.05693E+00
 1.00000E+01    7.71017E+00
 1.20000E+01    1.67277E+01
 1.30000E+01    2.30272E+01
 1.40000E+01    3.01063E+01
 1.50000E+01    3.72924E+01
 1.60000E+01    4.53007E+01
 1.80000E+01    6.22188E+01
 2.00000E+01    7.90156E+01
