# n + Zr 91 : (n,non)   
# jendl4.0   JNDC FP NUCLEAR DATA W.G.         EVAL-AUG89
# uncertainties: n
# # energies =   122
#   E(MeV)       xs(mb) 
 2.60000E-02    0.00000E+00
 2.60000E-02    6.98256E+01
 2.77500E-02    6.60457E+01
 2.95000E-02    6.26898E+01
 3.12500E-02    5.96919E+01
 3.30000E-02    5.69991E+01
 3.47500E-02    5.45683E+01
 3.65000E-02    5.23643E+01
 3.82500E-02    5.03577E+01
 4.00000E-02    4.85241E+01
 4.25000E-02    4.61532E+01
 4.50000E-02    4.40457E+01
 4.75000E-02    4.21616E+01
 5.00000E-02    4.04684E+01
 5.25000E-02    3.89799E+01
 5.50000E-02    3.76286E+01
 5.75000E-02    3.63968E+01
 6.00000E-02    3.52696E+01
 6.25000E-02    3.42186E+01
 6.50000E-02    3.32504E+01
 6.75000E-02    3.23559E+01
 7.00000E-02    3.15268E+01
 7.50000E-02    3.00529E+01
 8.00000E-02    2.87654E+01
 8.50000E-02    2.76625E+01
 9.00000E-02    2.66798E+01
 9.50000E-02    2.57972E+01
 1.00000E-01    2.50726E+01
 1.25000E-01    2.23736E+01
 1.50000E-01    2.03855E+01
 2.00000E-01    1.82306E+01
 2.50000E-01    1.60194E+01
 3.00000E-01    1.42848E+01
 3.87298E-01    1.26116E+01
 5.00000E-01    1.09032E+01
 7.00000E-01    9.53944E+00
 7.68971E-01    9.20826E+00
 8.00000E-01    9.05919E+00
 9.00000E-01    8.67685E+00
 1.00000E+00    8.98041E+00
 1.21817E+00    9.94658E+00
 1.21827E+00    1.00115E+01
 1.25000E+00    3.05394E+01
 1.48257E+00    1.26234E+02
 1.48260E+00    1.26293E+02
 1.50000E+00    1.61270E+02
 1.75000E+00    4.65690E+02
 1.90268E+00    5.36276E+02
 1.90298E+00    5.36411E+02
 1.90300E+00    5.36439E+02
 2.00000E+00    6.73311E+02
 2.06405E+00    7.38089E+02
 2.06486E+00    7.38909E+02
 2.06490E+00    7.38949E+02
 2.15490E+00    8.32273E+02
 2.15495E+00    8.32328E+02
 2.15515E+00    8.32691E+02
 2.19408E+00    9.02684E+02
 2.19418E+00    9.02935E+02
 2.21329E+00    9.50217E+02
 2.21420E+00    9.52487E+02
 2.22492E+00    9.78783E+02
 2.22512E+00    9.79277E+02
 2.25000E+00    1.04032E+03
 2.28477E+00    1.11792E+03
 2.28609E+00    1.12065E+03
 2.31298E+00    1.17589E+03
 2.31440E+00    1.17821E+03
 2.34580E+00    1.22972E+03
 2.34584E+00    1.22978E+03
 2.34776E+00    1.23277E+03
 2.38190E+00    1.28623E+03
 2.38194E+00    1.28630E+03
 2.38416E+00    1.28932E+03
 2.39316E+00    1.30163E+03
 2.39320E+00    1.30169E+03
 2.42147E+00    1.34300E+03
 2.42150E+00    1.34311E+03
 2.42157E+00    1.34336E+03
 2.50000E+00    1.44864E+03
 3.00000E+00    1.79698E+03
 3.50000E+00    1.82618E+03
 4.00000E+00    1.85571E+03
 5.00000E+00    1.76796E+03
 5.50592E+00    1.75823E+03
 5.51284E+00    1.75810E+03
 6.00000E+00    1.74889E+03
 6.46628E+00    1.73014E+03
 6.48074E+00    1.72956E+03
 6.55616E+00    1.72654E+03
 7.00000E+00    1.70881E+03
 7.15013E+00    1.70302E+03
 7.16524E+00    1.70243E+03
 7.23762E+00    1.69965E+03
 7.28251E+00    1.69792E+03
 7.28394E+00    1.69806E+03
 7.48331E+00    1.71779E+03
 8.00000E+00    1.76908E+03
 8.48528E+00    1.75938E+03
 8.56294E+00    1.75786E+03
 8.64016E+00    1.75635E+03
 8.65246E+00    1.75611E+03
 8.80203E+00    1.75321E+03
 8.80545E+00    1.75315E+03
 9.00000E+00    1.74942E+03
 1.00000E+01    1.73077E+03
 1.10000E+01    1.71889E+03
 1.20000E+01    1.70800E+03
 1.30000E+01    1.69750E+03
 1.34039E+01    1.70098E+03
 1.34923E+01    1.70165E+03
 1.40000E+01    1.70568E+03
 1.45000E+01    1.70992E+03
 1.50000E+01    1.71345E+03
 1.60000E+01    1.72187E+03
 1.70000E+01    1.72184E+03
 1.80000E+01    1.72078E+03
 1.87508E+01    1.71653E+03
 1.90000E+01    1.71513E+03
 1.93981E+01    1.71295E+03
 1.93988E+01    1.71294E+03
 2.00000E+01    1.71622E+03
