# n + Zr 91 : (n,tot)   
# jendl4.0   JNDC FP NUCLEAR DATA W.G.         EVAL-AUG89
# uncertainties: n
# # energies =   171
#   E(MeV)       xs(mb) 
 1.00000E-11    3.33632E+04
 1.00000E-07    1.13734E+04
 4.13990E-07    1.12035E+04
 5.31580E-07    1.11663E+04
 6.82560E-07    1.11326E+04
 8.76420E-07    1.11020E+04
 1.12540E-06    1.10746E+04
 1.44500E-06    1.10528E+04
 1.85540E-06    1.10266E+04
 2.37240E-06    1.09967E+04
 3.05900E-06    1.09753E+04
 3.92790E-06    1.09502E+04
 5.04350E-06    1.09179E+04
 6.47600E-06    1.08769E+04
 8.31530E-06    1.08378E+04
 1.06770E-05    1.07940E+04
 1.37100E-05    1.07376E+04
 1.76030E-05    1.06653E+04
 2.26030E-05    1.05712E+04
 2.92030E-05    1.04644E+04
 3.72670E-05    1.03376E+04
 4.78510E-05    1.01730E+04
 6.14420E-05    9.96552E+03
 7.88930E-05    9.72228E+03
 1.01300E-04    9.41378E+03
 1.30070E-04    9.08072E+03
 1.67020E-04    1.10788E+04
 2.14450E-04    7.74536E+03
 2.75360E-04    8.20486E+04
 3.53580E-04    9.03476E+03
 4.54000E-04    7.72291E+03
 5.82950E-04    2.44667E+04
 7.48520E-04    7.85338E+03
 9.61120E-04    6.31787E+03
 1.23410E-03    3.36802E+04
 1.58460E-03    1.11654E+04
 2.03470E-03    5.61958E+03
 2.24870E-03    3.35858E+04
 2.48520E-03    1.73448E+04
 2.61260E-03    5.54538E+04
 2.74650E-03    1.50743E+04
 3.03540E-03    1.03219E+04
 3.35460E-03    7.98518E+03
 3.70740E-03    1.34989E+04
 4.30740E-03    8.86090E+03
 5.53080E-03    1.11904E+04
 7.10170E-03    1.00840E+04
 9.11880E-03    8.67534E+03
 1.17090E-02    1.04361E+04
 1.50340E-02    9.03419E+03
 1.93050E-02    7.77871E+03
 2.18750E-02    1.13497E+04
 2.35790E-02    1.70686E+04
 2.41760E-02    1.04280E+04
 2.47880E-02    7.96983E+03
 2.60580E-02    8.47768E+03
 2.70000E-02    8.49013E+03
 2.85000E-02    8.51568E+03
 3.18280E-02    8.54797E+03
 3.43070E-02    8.59815E+03
 4.08680E-02    8.66595E+03
 4.63090E-02    8.72887E+03
 5.24750E-02    8.78262E+03
 5.65620E-02    8.85389E+03
 6.73790E-02    8.92527E+03
 7.20000E-02    8.97539E+03
 7.95000E-02    9.01714E+03
 8.25000E-02    9.04315E+03
 8.65170E-02    9.09628E+03
 9.80370E-02    9.16139E+03
 1.11090E-01    9.19010E+03
 1.16790E-01    9.20742E+03
 1.22770E-01    9.22562E+03
 1.29070E-01    9.24477E+03
 1.35690E-01    9.26489E+03
 1.42640E-01    9.28604E+03
 1.49960E-01    9.31125E+03
 1.57640E-01    9.35127E+03
 1.65730E-01    9.39080E+03
 1.74220E-01    9.38760E+03
 1.83160E-01    9.37206E+03
 1.92550E-01    9.35574E+03
 2.02420E-01    9.33826E+03
 2.12800E-01    9.31324E+03
 2.23710E-01    9.28427E+03
 2.35180E-01    9.25381E+03
 2.47240E-01    9.20496E+03
 2.73240E-01    9.15274E+03
 2.87250E-01    9.12507E+03
 2.94520E-01    9.11215E+03
 2.97200E-01    9.10700E+03
 2.98500E-01    9.10083E+03
 3.01970E-01    9.05588E+03
 3.33730E-01    8.96938E+03
 3.68830E-01    8.89889E+03
 3.87740E-01    8.84868E+03
 4.07620E-01    8.75938E+03
 4.50490E-01    8.61658E+03
 4.97870E-01    8.48973E+03
 5.23400E-01    8.37251E+03
 5.50230E-01    8.24839E+03
 5.78440E-01    8.11789E+03
 6.08100E-01    7.98069E+03
 6.39280E-01    7.83646E+03
 6.72060E-01    7.68485E+03
 7.06510E-01    7.52546E+03
 7.42740E-01    7.35789E+03
 7.80820E-01    7.18372E+03
 8.20850E-01    7.02171E+03
 8.62940E-01    6.85711E+03
 9.07180E-01    6.66920E+03
 9.61640E-01    6.48677E+03
 1.00260E+00    6.24939E+03
 1.10800E+00    6.00458E+03
 1.16480E+00    5.83007E+03
 1.22460E+00    5.65653E+03
 1.28730E+00    5.51679E+03
 1.35340E+00    5.37483E+03
 1.42270E+00    5.22564E+03
 1.49570E+00    5.08893E+03
 1.57240E+00    4.97931E+03
 1.65300E+00    4.86464E+03
 1.73770E+00    4.76201E+03
 1.82680E+00    4.68479E+03
 1.92050E+00    4.60414E+03
 2.01900E+00    4.53708E+03
 2.12250E+00    4.48153E+03
 2.23130E+00    4.43363E+03
 2.30690E+00    4.40933E+03
 2.34570E+00    4.39835E+03
 2.36530E+00    4.39094E+03
 2.38520E+00    4.37212E+03
 2.46600E+00    4.33335E+03
 2.59240E+00    4.28572E+03
 2.72530E+00    4.24081E+03
 2.86500E+00    4.19432E+03
 3.01190E+00    4.14583E+03
 3.16640E+00    4.09991E+03
 3.32870E+00    4.03199E+03
 3.67880E+00    3.96162E+03
 4.06570E+00    3.92017E+03
 4.49330E+00    3.91259E+03
 4.72370E+00    3.92389E+03
 4.96590E+00    3.93859E+03
 5.22050E+00    3.96562E+03
 5.48810E+00    3.99528E+03
 5.76950E+00    4.02721E+03
 6.06530E+00    4.06176E+03
 6.37630E+00    4.09186E+03
 6.59240E+00    4.11053E+03
 6.70320E+00    4.13221E+03
 7.04690E+00    4.16103E+03
 7.40820E+00    4.18313E+03
 7.78800E+00    4.19959E+03
 8.18730E+00    4.20886E+03
 8.60710E+00    4.20483E+03
 9.04840E+00    4.19581E+03
 9.51230E+00    4.17791E+03
 1.00000E+01    4.15286E+03
 1.05130E+01    4.12145E+03
 1.10520E+01    4.08266E+03
 1.16180E+01    4.03737E+03
 1.22140E+01    3.98504E+03
 1.28400E+01    3.92684E+03
 1.34990E+01    3.87815E+03
 1.38400E+01    3.84417E+03
 1.41910E+01    3.80781E+03
 1.45500E+01    3.77036E+03
 1.49180E+01    3.71257E+03
 1.56830E+01    3.63352E+03
 1.64870E+01    3.55488E+03
