# n + Zr 91 : (n,el)    
# jendl4.0   JNDC FP NUCLEAR DATA W.G.         EVAL-AUG89
# uncertainties: n
# # energies =   171
#   E(MeV)       xs(mb) 
 1.00000E-11    1.97278E+04
 1.00000E-07    1.09196E+04
 4.13990E-07    1.09110E+04
 5.31580E-07    1.09076E+04
 6.82560E-07    1.09044E+04
 8.76420E-07    1.09012E+04
 1.12540E-06    1.08971E+04
 1.44500E-06    1.08918E+04
 1.85540E-06    1.08851E+04
 2.37240E-06    1.08763E+04
 3.05900E-06    1.08650E+04
 3.92790E-06    1.08506E+04
 5.04350E-06    1.08321E+04
 6.47600E-06    1.08083E+04
 8.31530E-06    1.07778E+04
 1.06770E-05    1.07386E+04
 1.37100E-05    1.06883E+04
 1.76030E-05    1.06237E+04
 2.26030E-05    1.05395E+04
 2.92030E-05    1.04327E+04
 3.72670E-05    1.03022E+04
 4.78510E-05    1.01476E+04
 6.14420E-05    9.95004E+03
 7.88930E-05    9.69731E+03
 1.01300E-04    9.38547E+03
 1.30070E-04    8.98905E+03
 1.67020E-04    8.54371E+03
 2.14450E-04    7.19453E+03
 2.75360E-04    7.06341E+04
 3.53580E-04    8.85447E+03
 4.54000E-04    7.71425E+03
 5.82950E-04    2.24818E+04
 7.48520E-04    7.53586E+03
 9.61120E-04    6.31488E+03
 1.23410E-03    3.29848E+04
 1.58460E-03    1.05501E+04
 2.03470E-03    5.61453E+03
 2.24870E-03    3.29710E+04
 2.48520E-03    1.72650E+04
 2.61260E-03    5.47105E+04
 2.74650E-03    1.46813E+04
 3.03540E-03    1.00038E+04
 3.35460E-03    7.72065E+03
 3.70740E-03    1.31909E+04
 4.30740E-03    8.62683E+03
 5.53080E-03    1.10169E+04
 7.10170E-03    9.90189E+03
 9.11880E-03    8.54436E+03
 1.17090E-02    1.03048E+04
 1.50340E-02    8.97260E+03
 1.93050E-02    7.66584E+03
 2.18750E-02    1.12753E+04
 2.35790E-02    1.70112E+04
 2.41760E-02    1.03235E+04
 2.47880E-02    7.88962E+03
 2.60580E-02    8.40899E+03
 2.70000E-02    8.42402E+03
 2.85000E-02    8.45404E+03
 3.18280E-02    8.49100E+03
 3.43070E-02    8.54683E+03
 4.08680E-02    8.62062E+03
 4.63090E-02    8.68789E+03
 5.24750E-02    8.74470E+03
 5.65620E-02    8.81932E+03
 6.73790E-02    8.89362E+03
 7.20000E-02    8.94549E+03
 7.95000E-02    8.98859E+03
 8.25000E-02    9.01537E+03
 8.65170E-02    9.06996E+03
 9.80370E-02    9.13672E+03
 1.11090E-01    9.16629E+03
 1.16790E-01    9.18414E+03
 1.22770E-01    9.20290E+03
 1.29070E-01    9.22264E+03
 1.35690E-01    9.24337E+03
 1.42640E-01    9.26517E+03
 1.49960E-01    9.29100E+03
 1.57640E-01    9.33138E+03
 1.65730E-01    9.37128E+03
 1.74220E-01    9.36845E+03
 1.83160E-01    9.35331E+03
 1.92550E-01    9.33741E+03
 2.02420E-01    9.32036E+03
 2.12800E-01    9.29568E+03
 2.23710E-01    9.26701E+03
 2.35180E-01    9.23687E+03
 2.47240E-01    9.18854E+03
 2.73240E-01    9.13687E+03
 2.87250E-01    9.10949E+03
 2.94520E-01    9.09671E+03
 2.97200E-01    9.09161E+03
 2.98500E-01    9.08551E+03
 3.01970E-01    9.04104E+03
 3.33730E-01    8.95545E+03
 3.68830E-01    8.88570E+03
 3.87740E-01    8.83602E+03
 4.07620E-01    8.74739E+03
 4.50490E-01    8.60526E+03
 4.97870E-01    8.47889E+03
 5.23400E-01    8.36184E+03
 5.50230E-01    8.23789E+03
 5.78440E-01    8.10756E+03
 6.08100E-01    7.97055E+03
 6.39280E-01    7.82651E+03
 6.72060E-01    7.67510E+03
 7.06510E-01    7.51593E+03
 7.42740E-01    7.34858E+03
 7.80820E-01    7.17463E+03
 8.20850E-01    7.01267E+03
 8.62940E-01    6.84808E+03
 9.07180E-01    6.66018E+03
 9.61640E-01    6.47776E+03
 1.00260E+00    6.23896E+03
 1.10800E+00    5.99171E+03
 1.16480E+00    5.81546E+03
 1.22460E+00    5.62446E+03
 1.28730E+00    5.45491E+03
 1.35340E+00    5.28266E+03
 1.42270E+00    5.10053E+03
 1.49570E+00    4.88630E+03
 1.57240E+00    4.68123E+03
 1.65300E+00    4.46593E+03
 1.73770E+00    4.28169E+03
 1.82680E+00    4.15851E+03
 1.92050E+00    3.97162E+03
 2.01900E+00    3.79048E+03
 2.12250E+00    3.59949E+03
 2.23130E+00    3.35149E+03
 2.30690E+00    3.21216E+03
 2.34570E+00    3.15439E+03
 2.36530E+00    3.11565E+03
 2.38520E+00    3.02353E+03
 2.46600E+00    2.86511E+03
 2.59240E+00    2.72755E+03
 2.72530E+00    2.58655E+03
 2.86500E+00    2.43856E+03
 3.01190E+00    2.34242E+03
 3.16640E+00    2.28766E+03
 3.32870E+00    2.20452E+03
 3.67880E+00    2.11303E+03
 4.06570E+00    2.08868E+03
 4.49330E+00    2.10902E+03
 4.72370E+00    2.13846E+03
 4.96590E+00    2.16942E+03
 5.22050E+00    2.20225E+03
 5.48810E+00    2.23869E+03
 5.76950E+00    2.27847E+03
 6.06530E+00    2.32423E+03
 6.37630E+00    2.36437E+03
 6.59240E+00    2.38900E+03
 6.70320E+00    2.41907E+03
 7.04690E+00    2.45943E+03
 7.40820E+00    2.45624E+03
 7.78800E+00    2.43888E+03
 8.18730E+00    2.44640E+03
 8.60710E+00    2.45462E+03
 9.04840E+00    2.45192E+03
 9.51230E+00    2.44324E+03
 1.00000E+01    2.42511E+03
 1.05130E+01    2.39995E+03
 1.10520E+01    2.36740E+03
 1.16180E+01    2.32841E+03
 1.22140E+01    2.28254E+03
 1.28400E+01    2.22754E+03
 1.34990E+01    2.17509E+03
 1.38400E+01    2.13835E+03
 1.41910E+01    2.09900E+03
 1.45500E+01    2.05880E+03
 1.49180E+01    1.99661E+03
 1.56830E+01    1.91219E+03
 1.64870E+01    1.83310E+03
