# n + Cd108 : (n,a)     
# jendl4.0   S.Kunieda, A.Ichihara, K.Shibata+ EVAL-FEB22
# uncertainties: n
# # energies =    56
#   E(MeV)       xs(mb) 
 1.00000E-01    0.00000E+00
 2.00000E-01    2.31400E-05
 2.50000E-01    2.90900E-05
 3.00000E-01    3.69600E-05
 3.50000E-01    4.76100E-05
 4.00000E-01    6.09500E-05
 4.50000E-01    7.87200E-05
 5.00000E-01    1.00700E-04
 5.50000E-01    1.29800E-04
 6.00000E-01    1.65300E-04
 6.50000E-01    1.74100E-04
 7.00000E-01    1.55800E-04
 7.50000E-01    1.66500E-04
 8.00000E-01    1.86200E-04
 8.50000E-01    2.16400E-04
 9.00000E-01    2.52500E-04
 9.50000E-01    3.01300E-04
 1.00000E+00    3.57300E-04
 1.20000E+00    7.40500E-04
 1.40000E+00    1.54500E-03
 1.60000E+00    3.07700E-03
 1.80000E+00    4.97200E-03
 2.00000E+00    8.29300E-03
 2.20000E+00    1.38200E-02
 2.40000E+00    1.91900E-02
 2.60000E+00    2.71300E-02
 2.80000E+00    3.76100E-02
 3.00000E+00    4.73700E-02
 3.25000E+00    6.04400E-02
 3.50000E+00    8.15900E-02
 3.75000E+00    1.08200E-01
 4.00000E+00    1.43800E-01
 4.25000E+00    1.90600E-01
 4.50000E+00    2.46000E-01
 4.75000E+00    3.20800E-01
 5.00000E+00    4.01500E-01
 5.50000E+00    6.21400E-01
 6.00000E+00    9.10900E-01
 6.50000E+00    1.26600E+00
 7.00000E+00    1.68800E+00
 7.50000E+00    2.16300E+00
 8.00000E+00    2.69200E+00
 8.50000E+00    3.26100E+00
 9.00000E+00    3.90700E+00
 9.50000E+00    4.67700E+00
 1.00000E+01    5.64700E+00
 1.10000E+01    8.40800E+00
 1.20000E+01    1.25300E+01
 1.30000E+01    1.78800E+01
 1.40000E+01    2.39100E+01
 1.50000E+01    2.97300E+01
 1.60000E+01    3.43600E+01
 1.70000E+01    3.70300E+01
 1.80000E+01    3.76800E+01
 1.90000E+01    3.68300E+01
 2.00000E+01    3.48500E+01
