# n + Cd108 : (n,non)   
# jendl4.0   S.Kunieda, A.Ichihara, K.Shibata+ EVAL-FEB22
# uncertainties: n
# # energies =   122
#   E(MeV)       xs(mb) 
 3.80000E-04    0.00000E+00
 3.80000E-04    3.33632E+03
 4.00000E-04    3.21400E+03
 5.00000E-04    2.73800E+03
 6.00000E-04    2.41300E+03
 7.00000E-04    2.17600E+03
 8.00000E-04    1.99400E+03
 9.00000E-04    1.85100E+03
 1.00000E-03    1.73500E+03
 1.25000E-03    1.54082E+03
 1.50000E-03    1.39842E+03
 2.00000E-03    1.20000E+03
 2.50000E-03    1.09199E+03
 3.00000E-03    1.01100E+03
 4.00000E-03    9.07400E+02
 5.00000E-03    8.37400E+02
 6.00000E-03    7.83900E+02
 7.00000E-03    7.40200E+02
 8.00000E-03    7.03000E+02
 9.00000E-03    6.70600E+02
 1.00000E-02    6.41800E+02
 1.25000E-02    5.76265E+02
 1.50000E-02    5.27719E+02
 2.00000E-02    4.59300E+02
 2.50000E-02    4.04430E+02
 3.00000E-02    3.64500E+02
 3.50000E-02    3.31942E+02
 4.00000E-02    3.06100E+02
 5.00000E-02    2.66500E+02
 6.00000E-02    2.38500E+02
 7.00000E-02    2.17700E+02
 8.00000E-02    2.01900E+02
 9.00000E-02    1.89500E+02
 1.00000E-01    1.79900E+02
 1.20000E-01    1.66000E+02
 1.40000E-01    1.57000E+02
 1.60000E-01    1.50900E+02
 1.80000E-01    1.47000E+02
 2.00000E-01    1.44400E+02
 2.50000E-01    1.41300E+02
 3.00000E-01    1.41400E+02
 3.50000E-01    1.43000E+02
 4.00000E-01    1.46100E+02
 4.50000E-01    1.50000E+02
 5.00000E-01    1.55000E+02
 5.50000E-01    1.60700E+02
 6.00000E-01    1.66300E+02
 6.38903E-01    1.54809E+02
 6.50000E-01    2.36460E+02
 7.00000E-01    4.92600E+02
 7.50000E-01    6.90200E+02
 8.00000E-01    8.29700E+02
 8.50000E-01    9.29800E+02
 8.76258E-01    9.67401E+02
 9.00000E-01    1.00140E+03
 9.50000E-01    1.05280E+03
 1.00000E+00    1.09040E+03
 1.20000E+00    1.17410E+03
 1.40000E+00    1.21170E+03
 1.52256E+00    1.20380E+03
 1.60000E+00    1.24893E+03
 1.61681E+00    1.23981E+03
 1.73673E+00    1.33401E+03
 1.80000E+00    1.41655E+03
 1.93132E+00    1.47636E+03
 2.00000E+00    1.53239E+03
 2.16591E+00    1.56330E+03
 2.18294E+00    1.57707E+03
 2.20000E+00    1.60619E+03
 2.22281E+00    1.60232E+03
 2.26028E+00    1.61712E+03
 2.30857E+00    1.64875E+03
 2.38789E+00    1.70108E+03
 2.39676E+00    1.71276E+03
 2.40000E+00    1.71836E+03
 2.50954E+00    1.73507E+03
 2.56514E+00    1.76701E+03
 2.57912E+00    1.77512E+03
 2.58920E+00    1.78522E+03
 2.60000E+00    1.79716E+03
 2.62597E+00    1.80422E+03
 2.64446E+00    1.81063E+03
 2.67035E+00    1.82780E+03
 2.70302E+00    1.85419E+03
 2.71312E+00    1.86569E+03
 2.80000E+00    1.98372E+03
 3.00000E+00    2.00313E+03
 3.25000E+00    2.01507E+03
 3.50000E+00    2.01425E+03
 3.75000E+00    2.01613E+03
 4.00000E+00    2.01904E+03
 4.25000E+00    2.02603E+03
 4.50000E+00    2.03511E+03
 4.75000E+00    2.04598E+03
 5.00000E+00    2.05672E+03
 5.50000E+00    2.07326E+03
 5.97028E+00    2.07847E+03
 6.00000E+00    2.07880E+03
 6.26779E+00    2.07531E+03
 6.50000E+00    2.07229E+03
 7.00000E+00    2.05672E+03
 7.50000E+00    2.03538E+03
 8.00000E+00    2.01227E+03
 8.21564E+00    2.00284E+03
 8.50000E+00    1.99061E+03
 9.00000E+00    1.97220E+03
 9.27941E+00    1.96425E+03
 9.50000E+00    1.95797E+03
 1.00000E+01    1.94771E+03
 1.04354E+01    1.88179E+03
 1.10000E+01    1.93572E+03
 1.20000E+01    1.92914E+03
 1.30000E+01    1.92453E+03
 1.40000E+01    1.92049E+03
 1.50000E+01    1.91469E+03
 1.55951E+01    1.90919E+03
 1.60000E+01    1.90545E+03
 1.70000E+01    1.89453E+03
 1.80000E+01    1.88255E+03
 1.84332E+01    1.87634E+03
 1.90000E+01    1.86862E+03
 2.00000E+01    1.85618E+03
