# n + Cd108 : (n,el)    
# jendl4.0   S.Kunieda, A.Ichihara, K.Shibata+ EVAL-FEB22
# uncertainties: n
# # energies =   171
#   E(MeV)       xs(mb) 
 1.00000E-11    7.81312E+03
 1.00000E-07    4.54978E+03
 4.13990E-07    4.54762E+03
 5.31580E-07    4.54727E+03
 6.82560E-07    4.54682E+03
 8.76420E-07    4.54625E+03
 1.12540E-06    4.54551E+03
 1.44500E-06    4.54457E+03
 1.85540E-06    4.54357E+03
 2.37240E-06    4.54233E+03
 3.05900E-06    4.54073E+03
 3.92790E-06    4.53869E+03
 5.04350E-06    4.53608E+03
 6.47600E-06    4.53271E+03
 8.31530E-06    4.52840E+03
 1.06770E-05    4.52285E+03
 1.37100E-05    4.51574E+03
 1.76030E-05    4.50660E+03
 2.26030E-05    4.49469E+03
 2.92030E-05    4.47959E+03
 3.72670E-05    4.46045E+03
 4.78510E-05    4.43889E+03
 6.14420E-05    4.38846E+03
 7.88930E-05    4.32484E+03
 1.01300E-04    4.21672E+03
 1.30070E-04    4.00590E+03
 1.67020E-04    3.33867E+03
 2.14450E-04    2.49488E+04
 2.75360E-04    3.03997E+04
 3.53580E-04    1.07308E+04
 4.54000E-04    1.16610E+04
 5.82950E-04    1.09608E+04
 7.48520E-04    1.03280E+04
 9.61120E-04    9.76958E+03
 1.23410E-03    9.28558E+03
 1.58460E-03    8.82640E+03
 2.03470E-03    8.52865E+03
 2.24870E-03    8.37365E+03
 2.48520E-03    8.25905E+03
 2.61260E-03    8.18352E+03
 2.74650E-03    8.07200E+03
 3.03540E-03    7.92918E+03
 3.35460E-03    7.79156E+03
 3.70740E-03    7.62536E+03
 4.30740E-03    7.39138E+03
 5.53080E-03    7.16191E+03
 7.10170E-03    7.00676E+03
 9.11880E-03    6.91753E+03
 1.17090E-02    6.88451E+03
 1.50340E-02    6.85583E+03
 1.93050E-02    6.84304E+03
 2.18750E-02    6.85862E+03
 2.35790E-02    6.86701E+03
 2.41760E-02    6.87137E+03
 2.47880E-02    6.87810E+03
 2.60580E-02    6.88538E+03
 2.70000E-02    6.89296E+03
 2.85000E-02    6.91031E+03
 3.18280E-02    6.94081E+03
 3.43070E-02    6.98529E+03
 4.08680E-02    7.04604E+03
 4.63090E-02    7.10256E+03
 5.24750E-02    7.15094E+03
 5.65620E-02    7.21368E+03
 6.73790E-02    7.27624E+03
 7.20000E-02    7.32006E+03
 7.95000E-02    7.35651E+03
 8.25000E-02    7.37944E+03
 8.65170E-02    7.42546E+03
 9.80370E-02    7.48870E+03
 1.11090E-01    7.52991E+03
 1.16790E-01    7.55345E+03
 1.22770E-01    7.57427E+03
 1.29070E-01    7.59475E+03
 1.35690E-01    7.61512E+03
 1.42640E-01    7.63386E+03
 1.49960E-01    7.65220E+03
 1.57640E-01    7.66977E+03
 1.65730E-01    7.68489E+03
 1.74220E-01    7.70033E+03
 1.83160E-01    7.71355E+03
 1.92550E-01    7.72634E+03
 2.02420E-01    7.73480E+03
 2.12800E-01    7.74156E+03
 2.23710E-01    7.74828E+03
 2.35180E-01    7.75497E+03
 2.47240E-01    7.75645E+03
 2.73240E-01    7.74974E+03
 2.87250E-01    7.74610E+03
 2.94520E-01    7.74441E+03
 2.97200E-01    7.74373E+03
 2.98500E-01    7.74245E+03
 3.01970E-01    7.72338E+03
 3.33730E-01    7.68624E+03
 3.68830E-01    7.65502E+03
 3.87740E-01    7.62477E+03
 4.07620E-01    7.57367E+03
 4.50490E-01    7.49922E+03
 4.97870E-01    7.43084E+03
 5.23400E-01    7.37817E+03
 5.50230E-01    7.32280E+03
 5.78440E-01    7.26430E+03
 6.08100E-01    7.18134E+03
 6.39280E-01    7.05696E+03
 6.72060E-01    6.84859E+03
 7.06510E-01    6.64432E+03
 7.42740E-01    6.45226E+03
 7.80820E-01    6.27740E+03
 8.20850E-01    6.11291E+03
 8.62940E-01    5.95522E+03
 9.07180E-01    5.79598E+03
 9.61640E-01    5.65215E+03
 1.00260E+00    5.45873E+03
 1.10800E+00    5.26053E+03
 1.16480E+00    5.13029E+03
 1.22460E+00    5.00238E+03
 1.28730E+00    4.87122E+03
 1.35340E+00    4.74480E+03
 1.42270E+00    4.61292E+03
 1.49570E+00    4.47599E+03
 1.57240E+00    4.32877E+03
 1.65300E+00    4.13169E+03
 1.73770E+00    3.93895E+03
 1.82680E+00    3.75197E+03
 1.92050E+00    3.57267E+03
 2.01900E+00    3.40313E+03
 2.12250E+00    3.23938E+03
 2.23130E+00    3.09538E+03
 2.30690E+00    3.00455E+03
 2.34570E+00    2.96157E+03
 2.36530E+00    2.93363E+03
 2.38520E+00    2.86326E+03
 2.46600E+00    2.73028E+03
 2.59240E+00    2.54264E+03
 2.72530E+00    2.33661E+03
 2.86500E+00    2.20911E+03
 3.01190E+00    2.10292E+03
 3.16640E+00    2.00551E+03
 3.32870E+00    1.88557E+03
 3.67880E+00    1.75753E+03
 4.06570E+00    1.67449E+03
 4.49330E+00    1.64228E+03
 4.72370E+00    1.63721E+03
 4.96590E+00    1.64634E+03
 5.22050E+00    1.66655E+03
 5.48810E+00    1.69649E+03
 5.76950E+00    1.73828E+03
 6.06530E+00    1.78835E+03
 6.37630E+00    1.83583E+03
 6.59240E+00    1.86529E+03
 6.70320E+00    1.90676E+03
 7.04690E+00    1.97171E+03
 7.40820E+00    2.03960E+03
 7.78800E+00    2.10579E+03
 8.18730E+00    2.16959E+03
 8.60710E+00    2.22872E+03
 9.04840E+00    2.28040E+03
 9.51230E+00    2.32608E+03
 1.00000E+01    2.36047E+03
 1.05130E+01    2.38769E+03
 1.10520E+01    2.40366E+03
 1.16180E+01    2.41062E+03
 1.22140E+01    2.40409E+03
 1.28400E+01    2.38813E+03
 1.34990E+01    2.36692E+03
 1.38400E+01    2.35122E+03
 1.41910E+01    2.32915E+03
 1.45500E+01    2.30641E+03
 1.49180E+01    2.26678E+03
 1.56830E+01    2.20581E+03
 1.64870E+01    2.13519E+03
