# n + Fe 54 : (n,n'03)  
# endfb8.0   Nobre, Brown, Herman, Arcilla+    EVAL-DEC17
# uncertainties: n
# # energies =    78
#   E(MeV)       xs(mb) 
 2.60920E+00    0.00000E+00
 2.70000E+00    4.85649E+01
 2.80000E+00    5.93719E+01
 3.00000E+00    7.59138E+01
 3.20000E+00    8.61907E+01
 3.50000E+00    8.91374E+01
 3.60000E+00    8.90651E+01
 3.80000E+00    8.71348E+01
 4.00000E+00    8.06884E+01
 4.15000E+00    7.45324E+01
 4.30000E+00    6.85870E+01
 4.40000E+00    6.41679E+01
 4.50000E+00    5.93266E+01
 4.60000E+00    5.52680E+01
 4.70000E+00    5.08717E+01
 4.80000E+00    4.73030E+01
 5.00000E+00    4.05517E+01
 5.20000E+00    3.51696E+01
 5.40000E+00    3.04205E+01
 5.50000E+00    2.84327E+01
 5.70000E+00    2.51479E+01
 6.00000E+00    2.10013E+01
 6.30000E+00    1.78664E+01
 6.50000E+00    1.62065E+01
 6.70000E+00    1.47614E+01
 7.00000E+00    1.29191E+01
 7.25000E+00    1.16548E+01
 7.50000E+00    1.05549E+01
 8.00000E+00    8.74941E+00
 8.50000E+00    7.28898E+00
 9.00000E+00    6.17915E+00
 9.50000E+00    5.30397E+00
 1.00000E+01    4.59378E+00
 1.05000E+01    4.04965E+00
 1.10000E+01    3.60773E+00
 1.12500E+01    3.41787E+00
 1.15000E+01    3.24755E+00
 1.20000E+01    2.95322E+00
 1.25000E+01    2.71039E+00
 1.30000E+01    2.50813E+00
 1.35000E+01    2.33777E+00
 1.40000E+01    2.19348E+00
 1.45000E+01    2.06935E+00
 1.50000E+01    1.96197E+00
 1.56000E+01    1.85081E+00
 1.60000E+01    1.78591E+00
 1.65000E+01    1.71378E+00
 1.72000E+01    1.62732E+00
 1.80000E+01    1.54594E+00
 1.90000E+01    1.46346E+00
 2.00000E+01    1.39377E+00
 2.10000E+01    1.32936E+00
 2.20000E+01    1.26611E+00
 2.40000E+01    1.14217E+00
 2.57000E+01    1.04738E+00
 2.80000E+01    9.44316E-01
 3.00000E+01    8.75334E-01
 3.20000E+01    8.17861E-01
 3.40000E+01    7.66410E-01
 3.60000E+01    7.18904E-01
 3.80000E+01    6.75212E-01
 4.00000E+01    6.35539E-01
 4.50000E+01    5.51860E-01
 5.00000E+01    4.83505E-01
 5.50000E+01    4.26422E-01
 6.00000E+01    3.78777E-01
 6.50000E+01    3.38472E-01
 7.00000E+01    3.03736E-01
 7.50000E+01    2.73529E-01
 8.00000E+01    2.47185E-01
 9.00000E+01    2.03788E-01
 9.60000E+01    1.82405E-01
 1.00000E+02    1.69701E-01
 1.10000E+02    1.42431E-01
 1.20000E+02    1.20371E-01
 1.30000E+02    1.02375E-01
 1.40000E+02    8.75860E-02
 1.50000E+02    7.53608E-02
