# n + Fe 54 : (n,n'08)  
# endfb8.0   Nobre, Brown, Herman, Arcilla+    EVAL-DEC17
# uncertainties: n
# # energies =    74
#   E(MeV)       xs(mb) 
 3.40735E+00    0.00000E+00
 3.50000E+00    4.51012E+01
 3.60000E+00    5.51511E+01
 3.80000E+00    7.02226E+01
 4.00000E+00    8.13937E+01
 4.15000E+00    8.69472E+01
 4.30000E+00    9.06491E+01
 4.40000E+00    9.11544E+01
 4.50000E+00    8.96743E+01
 4.60000E+00    8.83798E+01
 4.70000E+00    8.54542E+01
 4.80000E+00    8.30857E+01
 5.00000E+00    7.65143E+01
 5.20000E+00    7.00803E+01
 5.40000E+00    6.29248E+01
 5.50000E+00    5.96405E+01
 5.70000E+00    5.38252E+01
 6.00000E+00    4.53209E+01
 6.30000E+00    3.81141E+01
 6.50000E+00    3.40194E+01
 6.70000E+00    3.02565E+01
 7.00000E+00    2.53144E+01
 7.25000E+00    2.18724E+01
 7.50000E+00    1.88754E+01
 8.00000E+00    1.39945E+01
 8.50000E+00    1.01301E+01
 9.00000E+00    7.39020E+00
 9.50000E+00    5.38972E+00
 1.00000E+01    3.94751E+00
 1.05000E+01    2.91619E+00
 1.10000E+01    2.16030E+00
 1.12500E+01    1.86002E+00
 1.15000E+01    1.60965E+00
 1.20000E+01    1.21460E+00
 1.25000E+01    9.30760E-01
 1.30000E+01    7.26071E-01
 1.35000E+01    5.77076E-01
 1.40000E+01    4.70841E-01
 1.45000E+01    3.92292E-01
 1.50000E+01    3.35355E-01
 1.56000E+01    2.85281E-01
 1.60000E+01    2.60356E-01
 1.65000E+01    2.35917E-01
 1.72000E+01    2.09924E-01
 1.80000E+01    1.88464E-01
 1.90000E+01    1.68582E-01
 2.00000E+01    1.52766E-01
 2.10000E+01    1.39032E-01
 2.20000E+01    1.26556E-01
 2.40000E+01    1.05183E-01
 2.57000E+01    9.06399E-02
 2.80000E+01    7.53924E-02
 3.00000E+01    6.50895E-02
 3.20000E+01    5.66704E-02
 3.40000E+01    4.96529E-02
 3.60000E+01    4.37413E-02
 3.80000E+01    3.87232E-02
 4.00000E+01    3.44319E-02
 4.50000E+01    2.60714E-02
 5.00000E+01    2.00607E-02
 5.50000E+01    1.56306E-02
 6.00000E+01    1.23092E-02
 6.50000E+01    9.78191E-03
 7.00000E+01    7.83514E-03
 7.50000E+01    6.31943E-03
 8.00000E+01    5.12789E-03
 9.00000E+01    3.42944E-03
 9.60000E+01    2.71817E-03
 1.00000E+02    2.33587E-03
 1.10000E+02    1.61732E-03
 1.20000E+02    1.13747E-03
 1.30000E+02    8.12592E-04
 1.40000E+02    5.89779E-04
 1.50000E+02    4.35084E-04
