# n + Fe 54 : (n,xn)    
# endfb8.0   Nobre, Brown, Herman, Arcilla+    EVAL-DEC17
# 
# # energies =    96
#   E(MeV)        xs(mb) 
 1.43452E+00    0.00000E+00
 1.50000E+00    3.55335E+02
 1.60000E+00    4.60479E+02
 1.70000E+00    5.18032E+02
 1.80000E+00    5.49169E+02
 1.90000E+00    5.87858E+02
 2.00000E+00    6.29606E+02
 2.40000E+00    7.39658E+02
 2.52450E+00    7.59726E+02
 2.55000E+00    7.63873E+02
 2.58556E+00    7.60433E+02
 2.60920E+00    7.63084E+02
 2.70000E+00    8.21831E+02
 2.80000E+00    8.43528E+02
 3.00000E+00    8.66189E+02
 3.00435E+00    8.64754E+02
 3.01433E+00    8.61508E+02
 3.20000E+00    9.48009E+02
 3.22520E+00    9.39401E+02
 3.35641E+00    9.48080E+02
 3.40735E+00    9.58448E+02
 3.50000E+00    1.02241E+03
 3.50168E+00    1.02246E+03
 3.60000E+00    1.03777E+03
 3.80000E+00    1.06847E+03
 3.86474E+00    1.07368E+03
 4.00000E+00    1.08725E+03
 4.15000E+00    1.10478E+03
 4.30000E+00    1.12416E+03
 4.40000E+00    1.12246E+03
 4.50000E+00    1.12027E+03
 4.60000E+00    1.11489E+03
 4.70000E+00    1.09607E+03
 4.80000E+00    1.08865E+03
 5.00000E+00    1.07810E+03
 5.20000E+00    1.06311E+03
 5.40000E+00    1.05124E+03
 5.50000E+00    1.04316E+03
 5.70000E+00    1.03557E+03
 6.00000E+00    1.01682E+03
 6.30000E+00    1.00389E+03
 6.50000E+00    9.98668E+02
 6.70000E+00    9.93999E+02
 7.00000E+00    9.85972E+02
 7.25000E+00    9.77569E+02
 7.50000E+00    9.68054E+02
 8.00000E+00    9.49324E+02
 8.50000E+00    9.34167E+02
 9.00000E+00    9.18751E+02
 9.50000E+00    9.05767E+02
 1.00000E+01    8.95960E+02
 1.05000E+01    8.86896E+02
 1.10000E+01    8.77452E+02
 1.12500E+01    8.77208E+02
 1.15000E+01    8.75129E+02
 1.20000E+01    8.75274E+02
 1.25000E+01    8.82698E+02
 1.30000E+01    9.04421E+02
 1.35000E+01    9.26284E+02
 1.40000E+01    9.53844E+02
 1.45000E+01    9.88909E+02
 1.50000E+01    1.01767E+03
 1.56000E+01    1.05108E+03
 1.60000E+01    1.07588E+03
 1.65000E+01    1.10227E+03
 1.72000E+01    1.13071E+03
 1.80000E+01    1.15266E+03
 1.90000E+01    1.15627E+03
 2.00000E+01    1.16239E+03
 2.10000E+01    1.15498E+03
 2.20000E+01    1.15545E+03
 2.40000E+01    1.11805E+03
 2.57000E+01    1.09159E+03
 2.80000E+01    1.07111E+03
 3.00000E+01    1.05990E+03
 3.20000E+01    1.05588E+03
 3.40000E+01    1.05893E+03
 3.60000E+01    1.05383E+03
 3.80000E+01    1.05054E+03
 4.00000E+01    1.05307E+03
 4.50000E+01    1.05881E+03
 5.00000E+01    1.10235E+03
 5.50000E+01    1.13780E+03
 6.00000E+01    1.16788E+03
 6.50000E+01    1.20927E+03
 7.00000E+01    1.24479E+03
 7.50000E+01    1.28745E+03
 8.00000E+01    1.32220E+03
 9.00000E+01    1.38689E+03
 9.60000E+01    1.43123E+03
 1.00000E+02    1.48011E+03
 1.10000E+02    1.53437E+03
 1.20000E+02    1.59988E+03
 1.30000E+02    1.64407E+03
 1.40000E+02    1.68848E+03
 1.50000E+02    1.71908E+03
