# n + Fe 54 : (n,xp)    
# endfb8.0   Nobre, Brown, Herman, Arcilla+    EVAL-DEC17
# 
# # energies =    96
#   E(MeV)        xs(mb) 
 1.43452E+00    2.09456E+00
 1.50000E+00    2.62577E+00
 1.60000E+00    3.72560E+00
 1.70000E+00    5.27552E+00
 1.80000E+00    7.54210E+00
 1.90000E+00    1.09128E+01
 2.00000E+00    1.58440E+01
 2.40000E+00    5.31532E+01
 2.52450E+00    6.77332E+01
 2.55000E+00    7.07413E+01
 2.58556E+00    7.49363E+01
 2.60920E+00    7.77298E+01
 2.70000E+00    8.84955E+01
 2.80000E+00    1.00499E+02
 3.00000E+00    1.25454E+02
 3.00435E+00    1.26026E+02
 3.01433E+00    1.27340E+02
 3.20000E+00    1.52312E+02
 3.22520E+00    1.55904E+02
 3.35641E+00    1.74911E+02
 3.40735E+00    1.82484E+02
 3.50000E+00    1.96658E+02
 3.50168E+00    1.96922E+02
 3.60000E+00    2.12397E+02
 3.80000E+00    2.44847E+02
 3.86474E+00    2.55532E+02
 4.00000E+00    2.77881E+02
 4.15000E+00    3.02423E+02
 4.30000E+00    3.26404E+02
 4.40000E+00    3.41824E+02
 4.50000E+00    3.56686E+02
 4.60000E+00    3.70902E+02
 4.70000E+00    3.84397E+02
 4.80000E+00    3.97112E+02
 5.00000E+00    4.20052E+02
 5.20000E+00    4.39574E+02
 5.40000E+00    4.55752E+02
 5.50000E+00    4.62656E+02
 5.70000E+00    4.74335E+02
 6.00000E+00    4.87163E+02
 6.30000E+00    4.95570E+02
 6.50000E+00    4.99350E+02
 6.70000E+00    5.02052E+02
 7.00000E+00    5.04682E+02
 7.25000E+00    5.06022E+02
 7.50000E+00    5.06952E+02
 8.00000E+00    5.08346E+02
 8.50000E+00    5.09863E+02
 9.00000E+00    5.11676E+02
 9.50000E+00    5.13353E+02
 1.00000E+01    5.13983E+02
 1.05000E+01    5.12269E+02
 1.10000E+01    5.30651E+02
 1.12500E+01    5.47526E+02
 1.15000E+01    5.69009E+02
 1.20000E+01    6.22091E+02
 1.25000E+01    6.79867E+02
 1.30000E+01    7.35918E+02
 1.35000E+01    7.77987E+02
 1.40000E+01    8.07457E+02
 1.45000E+01    8.34105E+02
 1.50000E+01    8.41458E+02
 1.56000E+01    8.40189E+02
 1.60000E+01    8.38009E+02
 1.65000E+01    8.28401E+02
 1.72000E+01    8.15233E+02
 1.80000E+01    7.98612E+02
 1.90000E+01    7.75466E+02
 2.00000E+01    7.58978E+02
 2.10000E+01    7.49982E+02
 2.20000E+01    7.47491E+02
 2.40000E+01    7.54468E+02
 2.57000E+01    7.63317E+02
 2.80000E+01    7.95241E+02
 3.00000E+01    8.14780E+02
 3.20000E+01    8.29813E+02
 3.40000E+01    8.36249E+02
 3.60000E+01    8.41559E+02
 3.80000E+01    8.49106E+02
 4.00000E+01    8.51162E+02
 4.50000E+01    8.84514E+02
 5.00000E+01    9.08039E+02
 5.50000E+01    9.41005E+02
 6.00000E+01    9.78808E+02
 6.50000E+01    1.01095E+03
 7.00000E+01    1.05188E+03
 7.50000E+01    1.08960E+03
 8.00000E+01    1.12108E+03
 9.00000E+01    1.18236E+03
 9.60000E+01    1.21837E+03
 1.00000E+02    1.23022E+03
 1.10000E+02    1.27674E+03
 1.20000E+02    1.31380E+03
 1.30000E+02    1.34664E+03
 1.40000E+02    1.38158E+03
 1.50000E+02    1.36576E+03
