# n + Fe 54 : (n,a11)   
# endfb8.0   Nobre, Brown, Herman, Arcilla+    EVAL-DEC17
# uncertainties: n
# # energies =    69
#   E(MeV)       xs(mb) 
 1.56468E+00    0.00000E+00
 4.30000E+00    3.13200E-07
 4.40000E+00    6.92040E-07
 4.50000E+00    1.43657E-06
 4.60000E+00    2.89188E-06
 4.70000E+00    5.53386E-06
 4.80000E+00    1.03464E-05
 5.00000E+00    3.36916E-05
 5.20000E+00    9.72087E-05
 5.40000E+00    2.58862E-04
 5.50000E+00    4.09575E-04
 5.70000E+00    9.65136E-04
 6.00000E+00    3.04329E-03
 6.30000E+00    8.32553E-03
 6.50000E+00    1.51966E-02
 6.70000E+00    2.63662E-02
 7.00000E+00    5.56437E-02
 7.25000E+00    9.73034E-02
 7.50000E+00    1.59326E-01
 8.00000E+00    3.64553E-01
 8.50000E+00    6.75634E-01
 9.00000E+00    1.01045E+00
 9.50000E+00    1.23514E+00
 1.00000E+01    1.28170E+00
 1.05000E+01    1.19302E+00
 1.10000E+01    1.02999E+00
 1.12500E+01    9.40752E-01
 1.15000E+01    8.46690E-01
 1.20000E+01    6.67826E-01
 1.25000E+01    5.10645E-01
 1.30000E+01    3.80988E-01
 1.35000E+01    2.76585E-01
 1.40000E+01    1.98093E-01
 1.45000E+01    1.38435E-01
 1.50000E+01    9.59405E-02
 1.56000E+01    6.08579E-02
 1.60000E+01    4.48519E-02
 1.65000E+01    3.10651E-02
 1.72000E+01    1.85301E-02
 1.80000E+01    1.06196E-02
 1.90000E+01    5.31949E-03
 2.00000E+01    2.64980E-03
 2.10000E+01    1.26925E-03
 2.20000E+01    5.61927E-04
 2.40000E+01    1.24268E-04
 2.57000E+01    3.53977E-05
 2.80000E+01    6.37269E-06
 3.00000E+01    1.49534E-06
 3.20000E+01    3.69150E-07
 3.40000E+01    5.74350E-08
 3.60000E+01    1.31750E-08
 3.80000E+01    3.17040E-09
 4.00000E+01    8.44340E-10
 4.50000E+01    3.19410E-11
 5.00000E+01    3.43960E-13
 5.50000E+01    1.73190E-14
 6.00000E+01    1.15990E-15
 6.50000E+01    1.44170E-17
 7.00000E+01    1.06330E-18
 7.50000E+01    1.28770E-19
 8.00000E+01    3.41700E-20
 9.00000E+01    4.40990E-22
 9.60000E+01    6.66560E-22
 1.00000E+02    1.60490E-22
 1.10000E+02    3.27860E-24
 1.20000E+02    3.50410E-23
 1.30000E+02    2.01800E-23
 1.40000E+02    4.80170E-24
 1.50000E+02    4.16170E-25
