# n + Fe 54 : (n,n'10)  
# endfb8.0   Nobre, Brown, Herman, Arcilla+    EVAL-DEC17
# uncertainties: n
# # energies =    71
#   E(MeV)       xs(mb) 
 3.86474E+00    0.00000E+00
 4.00000E+00    2.66853E+00
 4.15000E+00    5.49241E+00
 4.30000E+00    9.43358E+00
 4.40000E+00    1.22471E+01
 4.50000E+00    1.47590E+01
 4.60000E+00    1.72265E+01
 4.70000E+00    1.91167E+01
 4.80000E+00    2.08160E+01
 5.00000E+00    2.27739E+01
 5.20000E+00    2.36660E+01
 5.40000E+00    2.32693E+01
 5.50000E+00    2.29037E+01
 5.70000E+00    2.19740E+01
 6.00000E+00    1.99177E+01
 6.30000E+00    1.77694E+01
 6.50000E+00    1.64211E+01
 6.70000E+00    1.52186E+01
 7.00000E+00    1.35153E+01
 7.25000E+00    1.21323E+01
 7.50000E+00    1.08118E+01
 8.00000E+00    8.51355E+00
 8.50000E+00    6.49642E+00
 9.00000E+00    4.94193E+00
 9.50000E+00    3.71532E+00
 1.00000E+01    2.76317E+00
 1.05000E+01    2.04586E+00
 1.10000E+01    1.49399E+00
 1.12500E+01    1.26804E+00
 1.15000E+01    1.07703E+00
 1.20000E+01    7.71794E-01
 1.25000E+01    5.50666E-01
 1.30000E+01    3.91735E-01
 1.35000E+01    2.77566E-01
 1.40000E+01    1.98445E-01
 1.45000E+01    1.41831E-01
 1.50000E+01    1.02884E-01
 1.56000E+01    7.06631E-02
 1.60000E+01    5.58721E-02
 1.65000E+01    4.25659E-02
 1.72000E+01    2.99776E-02
 1.80000E+01    2.16327E-02
 1.90000E+01    1.61396E-02
 2.00000E+01    1.35150E-02
 2.10000E+01    1.22622E-02
 2.20000E+01    1.15709E-02
 2.40000E+01    1.09865E-02
 2.57000E+01    1.06754E-02
 2.80000E+01    1.02616E-02
 3.00000E+01    9.87883E-03
 3.20000E+01    9.48766E-03
 3.40000E+01    9.10062E-03
 3.60000E+01    8.72385E-03
 3.80000E+01    8.35981E-03
 4.00000E+01    8.01043E-03
 4.50000E+01    7.19666E-03
 5.00000E+01    6.45912E-03
 5.50000E+01    5.79468E-03
 6.00000E+01    5.20276E-03
 6.50000E+01    4.67779E-03
 7.00000E+01    4.21399E-03
 7.50000E+01    3.80460E-03
 8.00000E+01    3.44277E-03
 9.00000E+01    2.83871E-03
 9.60000E+01    2.53954E-03
 1.00000E+02    2.36195E-03
 1.10000E+02    1.98266E-03
 1.20000E+02    1.67842E-03
 1.30000E+02    1.43267E-03
 1.40000E+02    1.23291E-03
 1.50000E+02    1.06950E-03
