# n + Fe 54 : (n,n'06)  
# endfb8.0   Nobre, Brown, Herman, Arcilla+    EVAL-DEC17
# uncertainties: n
# # energies =    74
#   E(MeV)       xs(mb) 
 3.22520E+00    0.00000E+00
 3.50000E+00    1.12025E+02
 3.60000E+00    1.19081E+02
 3.80000E+00    1.31702E+02
 4.00000E+00    1.37083E+02
 4.15000E+00    1.36803E+02
 4.30000E+00    1.34532E+02
 4.40000E+00    1.30777E+02
 4.50000E+00    1.24848E+02
 4.60000E+00    1.19683E+02
 4.70000E+00    1.12872E+02
 4.80000E+00    1.07261E+02
 5.00000E+00    9.49490E+01
 5.20000E+00    8.40692E+01
 5.40000E+00    7.33822E+01
 5.50000E+00    6.86819E+01
 5.70000E+00    6.06245E+01
 6.00000E+00    4.96876E+01
 6.30000E+00    4.09391E+01
 6.50000E+00    3.61532E+01
 6.70000E+00    3.18741E+01
 7.00000E+00    2.64042E+01
 7.25000E+00    2.26897E+01
 7.50000E+00    1.95155E+01
 8.00000E+00    1.44553E+01
 8.50000E+00    1.05432E+01
 9.00000E+00    7.80045E+00
 9.50000E+00    5.81414E+00
 1.00000E+01    4.37190E+00
 1.05000E+01    3.36327E+00
 1.10000E+01    2.62756E+00
 1.12500E+01    2.33622E+00
 1.15000E+01    2.09276E+00
 1.20000E+01    1.70717E+00
 1.25000E+01    1.42684E+00
 1.30000E+01    1.22070E+00
 1.35000E+01    1.06641E+00
 1.40000E+01    9.51644E-01
 1.45000E+01    8.62866E-01
 1.50000E+01    7.94467E-01
 1.56000E+01    7.30256E-01
 1.60000E+01    6.96013E-01
 1.65000E+01    6.60546E-01
 1.72000E+01    6.21199E-01
 1.80000E+01    5.88353E-01
 1.90000E+01    5.60487E-01
 2.00000E+01    5.41680E-01
 2.10000E+01    5.26285E-01
 2.20000E+01    5.10196E-01
 2.40000E+01    4.71150E-01
 2.57000E+01    4.34739E-01
 2.80000E+01    3.90912E-01
 3.00000E+01    3.60287E-01
 3.20000E+01    3.34492E-01
 3.40000E+01    3.11236E-01
 3.60000E+01    2.89486E-01
 3.80000E+01    2.69125E-01
 4.00000E+01    2.50304E-01
 4.50000E+01    2.09959E-01
 5.00000E+01    1.77401E-01
 5.50000E+01    1.50824E-01
 6.00000E+01    1.29060E-01
 6.50000E+01    1.11168E-01
 7.00000E+01    9.63540E-02
 7.50000E+01    8.39972E-02
 8.00000E+01    7.36174E-02
 9.00000E+01    5.73807E-02
 9.60000E+01    4.98387E-02
 1.00000E+02    4.55204E-02
 1.10000E+02    3.66916E-02
 1.20000E+02    3.00067E-02
 1.30000E+02    2.48692E-02
 1.40000E+02    2.08708E-02
 1.50000E+02    1.77278E-02
