# n + Fe 54 : (n,tot)   
# endfb8.0   Nobre, Brown, Herman, Arcilla+    EVAL-DEC17
# uncertainties: y
# # energies =    69
#   E(MeV)       xs(mb)       xslow(mb)      xsupp(mb)
 1.00000E-10    1.89591E+04    1.89591E+04    1.89591E+04
 5.00000E-09    6.51984E+03    6.51984E+03    6.51984E+03
 1.00000E-08    5.44866E+03    5.44866E+03    5.44866E+03
 1.50000E-08    4.91777E+03    4.91777E+03    4.91777E+03
 2.00000E-08    4.58344E+03    4.58344E+03    4.58344E+03
 2.50000E-08    4.34767E+03    4.34767E+03    4.34767E+03
 3.00000E-08    4.16979E+03    4.16979E+03    4.16979E+03
 3.50000E-08    4.00688E+03    4.00688E+03    4.00688E+03
 4.20000E-08    3.84845E+03    3.84845E+03    3.84845E+03
 5.00000E-08    3.71677E+03    3.71677E+03    3.71677E+03
 5.80000E-08    3.60645E+03    3.60645E+03    3.60645E+03
 6.70000E-08    3.49447E+03    3.49447E+03    3.49447E+03
 8.00000E-08    3.36719E+03    3.36719E+03    3.36719E+03
 1.00000E-07    3.20991E+03    3.20991E+03    3.20991E+03
 1.40000E-07    3.06575E+03    3.06575E+03    3.06575E+03
 1.80000E-07    2.96869E+03    2.96869E+03    2.96869E+03
 2.20000E-07    2.90470E+03    2.90470E+03    2.90470E+03
 2.50000E-07    2.86108E+03    2.86108E+03    2.86108E+03
 2.80000E-07    2.82981E+03    2.82981E+03    2.82981E+03
 3.00000E-07    2.80782E+03    2.80782E+03    2.80782E+03
 3.20000E-07    2.78337E+03    2.78337E+03    2.78337E+03
 3.50000E-07    2.74960E+03    2.74960E+03    2.74960E+03
 4.00000E-07    2.69950E+03    2.69950E+03    2.69950E+03
 5.00000E-07    2.64257E+03    2.64257E+03    2.64257E+03
 6.25000E-07    2.59182E+03    2.59182E+03    2.59182E+03
 7.80000E-07    2.55969E+03    2.55969E+03    2.55969E+03
 8.50000E-07    2.54455E+03    2.54455E+03    2.54455E+03
 9.10000E-07    2.53404E+03    2.53404E+03    2.53404E+03
 9.50000E-07    2.52778E+03    2.52778E+03    2.52778E+03
 9.72000E-07    2.52360E+03    2.52360E+03    2.52360E+03
 9.96000E-07    2.51926E+03    2.51926E+03    2.51926E+03
 1.02000E-06    2.51484E+03    2.51484E+03    2.51484E+03
 1.04500E-06    2.51063E+03    2.51063E+03    2.51063E+03
 1.07100E-06    2.50660E+03    2.50660E+03    2.50660E+03
 1.09700E-06    2.50256E+03    2.50256E+03    2.50256E+03
 1.12300E-06    2.49845E+03    2.49845E+03    2.49845E+03
 1.15000E-06    2.48650E+03    2.48650E+03    2.48650E+03
 1.30000E-06    2.46560E+03    2.46560E+03    2.46560E+03
 1.50000E-06    2.43201E+03    2.43201E+03    2.43201E+03
 2.10000E-06    2.39654E+03    2.39654E+03    2.39654E+03
 2.60000E-06    2.37155E+03    2.37155E+03    2.37155E+03
 3.30000E-06    2.34918E+03    2.34918E+03    2.34918E+03
 4.00000E-06    2.30300E+03    2.30300E+03    2.30300E+03
 9.87700E-06    2.25503E+03    2.25503E+03    2.25503E+03
 1.59680E-05    2.22504E+03    2.22504E+03    2.22504E+03
 2.77000E-05    2.19337E+03    2.19337E+03    2.19337E+03
 4.80520E-05    2.16053E+03    2.16053E+03    2.16053E+03
 7.55014E-05    2.11123E+03    2.11123E+03    2.11123E+03
 1.48728E-04    1.99174E+03    1.99174E+03    1.99174E+03
 3.67262E-04    1.69987E+03    1.69987E+03    1.69987E+03
 9.06898E-04    1.26953E+03    1.26953E+03    1.26953E+03
 1.42510E-03    7.93636E+02    6.44916E+02    9.42357E+02
 2.23945E-03    2.16889E+02    1.76246E+02    2.57532E+02
 3.51910E-03    1.23672E+03    1.00497E+03    1.46847E+03
 5.53000E-03    1.24136E+05    1.00874E+05    1.47398E+05
 9.11800E-03    3.07926E+04    2.50223E+04    3.65629E+04
 1.50300E-02    7.42354E+03    6.29325E+03    8.55383E+03
 2.47800E-02    2.90641E+03    2.51215E+03    3.30066E+03
 4.08500E-02    6.44324E+03    5.67941E+03    7.20707E+03
 6.73400E-02    4.58539E+03    4.07147E+03    5.09931E+03
 1.11000E-01    3.28288E+03    2.95583E+03    3.60993E+03
 1.83000E-01    7.11639E+03    6.41031E+03    7.82247E+03
 3.02000E-01    4.36633E+03    3.90479E+03    4.82788E+03
 5.00000E-01    4.12698E+03    3.70211E+03    4.55186E+03
 8.21000E-01    3.22583E+03    2.96794E+03    3.48373E+03
 1.35300E+00    3.09887E+03    2.94195E+03    3.25578E+03
 2.23100E+00    3.45159E+03    3.27743E+03    3.62576E+03
 3.67900E+00    3.68162E+03    3.51402E+03    3.84921E+03
 6.06500E+00    3.31254E+03    3.13876E+03    3.48631E+03
