# n + Fe 54 : (n,n'02)  
# endfb8.0   Nobre, Brown, Herman, Arcilla+    EVAL-DEC17
# uncertainties: n
# # energies =    78
#   E(MeV)       xs(mb) 
 2.58556E+00    0.00000E+00
 2.70000E+00    2.39004E+01
 2.80000E+00    3.80970E+01
 3.00000E+00    7.07908E+01
 3.20000E+00    9.67246E+01
 3.50000E+00    1.10405E+02
 3.60000E+00    1.11251E+02
 3.80000E+00    1.15477E+02
 4.00000E+00    1.12778E+02
 4.15000E+00    1.08222E+02
 4.30000E+00    1.03289E+02
 4.40000E+00    9.89647E+01
 4.50000E+00    9.35251E+01
 4.60000E+00    8.91723E+01
 4.70000E+00    8.39949E+01
 4.80000E+00    8.00447E+01
 5.00000E+00    7.22980E+01
 5.20000E+00    6.59526E+01
 5.40000E+00    5.96757E+01
 5.50000E+00    5.69617E+01
 5.70000E+00    5.23331E+01
 6.00000E+00    4.57153E+01
 6.30000E+00    4.01314E+01
 6.50000E+00    3.69262E+01
 6.70000E+00    3.39625E+01
 7.00000E+00    2.99317E+01
 7.25000E+00    2.69829E+01
 7.50000E+00    2.43070E+01
 8.00000E+00    1.97457E+01
 8.50000E+00    1.59269E+01
 9.00000E+00    1.30933E+01
 9.50000E+00    1.09460E+01
 1.00000E+01    9.34694E+00
 1.05000E+01    8.16235E+00
 1.10000E+01    7.26316E+00
 1.12500E+01    6.89531E+00
 1.15000E+01    6.58025E+00
 1.20000E+01    6.06285E+00
 1.25000E+01    5.66413E+00
 1.30000E+01    5.34846E+00
 1.35000E+01    5.09029E+00
 1.40000E+01    4.87559E+00
 1.45000E+01    4.68876E+00
 1.50000E+01    4.52447E+00
 1.56000E+01    4.34836E+00
 1.60000E+01    4.24214E+00
 1.65000E+01    4.12033E+00
 1.72000E+01    3.96758E+00
 1.80000E+01    3.81616E+00
 1.90000E+01    3.65451E+00
 2.00000E+01    3.51383E+00
 2.10000E+01    3.38420E+00
 2.20000E+01    3.25881E+00
 2.40000E+01    3.01249E+00
 2.57000E+01    2.81304E+00
 2.80000E+01    2.57312E+00
 3.00000E+01    2.39651E+00
 3.20000E+01    2.24348E+00
 3.40000E+01    2.10812E+00
 3.60000E+01    1.98570E+00
 3.80000E+01    1.87387E+00
 4.00000E+01    1.77153E+00
 4.50000E+01    1.55020E+00
 5.00000E+01    1.36533E+00
 5.50000E+01    1.20808E+00
 6.00000E+01    1.07298E+00
 6.50000E+01    9.56151E-01
 7.00000E+01    8.54699E-01
 7.50000E+01    7.66337E-01
 8.00000E+01    6.89076E-01
 9.00000E+01    5.61584E-01
 9.60000E+01    4.99086E-01
 1.00000E+02    4.62192E-01
 1.10000E+02    3.83926E-01
 1.20000E+02    3.21768E-01
 1.30000E+02    2.72054E-01
 1.40000E+02    2.32020E-01
 1.50000E+02    1.99633E-01
