# n + La  0 : (n,xp)
# jendl.ad   N.Iwamoto                         EVAL-Apr14
#
# # energies =   110
#   E(MeV)          xs(mb) 
 7.31008E-02    1.21716E-07
 8.00000E-02    1.01329E-07
 9.00000E-02    9.21159E-08
 1.00000E-01    8.60305E-08
 1.05000E-01    8.43648E-08
 1.10000E-01    8.26992E-08
 1.17020E-01    8.11726E-08
 1.20000E-01    7.58813E-08
 1.30000E-01    7.11156E-08
 1.40000E-01    6.78009E-08
 1.50000E-01    6.56068E-08
 1.60000E-01    6.41446E-08
 1.62359E-01    6.39944E-08
 1.70000E-01    6.06069E-08
 1.80000E-01    5.85622E-08
 1.90000E-01    5.71828E-08
 1.93596E-01    5.67543E-08
 2.00000E-01    5.50729E-08
 2.25000E-01    5.22354E-08
 2.32095E-01    5.18606E-08
 2.50000E-01    4.80659E-08
 2.75000E-01    4.78273E-08
 2.95123E-01    4.86235E-08
 3.00000E-01    4.88165E-08
 4.00000E-01    5.99920E-08
 4.16333E-01    6.34613E-08
 4.82846E-01    7.64652E-08
 5.00000E-01    7.93031E-08
 5.14183E-01    8.24692E-08
 5.14184E-01    8.24694E-08
 5.22474E-01    8.34724E-08
 6.00000E-01    9.99648E-08
 6.47038E-01    1.15349E-07
 7.00000E-01    1.35330E-07
 7.43086E-01    1.56040E-07
 7.44103E-01    1.55957E-07
 8.00000E-01    1.80850E-07
 8.29392E-01    1.98099E-07
 8.42115E-01    2.04798E-07
 8.48954E-01    2.08849E-07
 8.94495E-01    2.37756E-07
 9.00000E-01    2.41440E-07
 9.07187E-01    2.46250E-07
 9.35795E-01    2.65271E-07
 9.43753E-01    2.70410E-07
 9.54722E-01    2.77495E-07
 9.68432E-01    2.87113E-07
 1.00000E+00    3.10515E-07
 1.04056E+00    3.46750E-07
 1.06562E+00    3.67135E-07
 1.07480E+00    3.74603E-07
 1.10000E+00    3.98997E-07
 1.10402E+00    4.02889E-07
 1.11066E+00    4.09316E-07
 1.15841E+00    4.58766E-07
 1.16345E+00    4.64252E-07
 1.18662E+00    4.89477E-07
 1.20000E+00    5.04042E-07
 1.20908E+00    5.14230E-07
 1.23748E+00    5.47042E-07
 1.23749E+00    5.47053E-07
 1.25209E+00    5.63921E-07
 1.26418E+00    5.77889E-07
 1.27627E+00    5.93773E-07
 1.30000E+00    6.24949E-07
 1.40000E+00    7.79558E-07
 1.50000E+00    9.53451E-07
 1.60000E+00    1.17752E-06
 1.70000E+00    1.43272E-06
 1.80000E+00    1.73799E-06
 1.90000E+00    2.09530E-06
 2.00000E+00    2.52133E-06
 2.25000E+00    4.02020E-06
 2.50000E+00    5.96933E-06
 2.75000E+00    8.99847E-06
 3.00000E+00    1.25731E-05
 3.50000E+00    2.35442E-05
 4.00000E+00    4.57710E-05
 4.50000E+00    1.35145E-04
 5.00000E+00    4.65525E-04
 5.50000E+00    1.27821E-03
 6.00000E+00    2.67766E-03
 6.50000E+00    4.69373E-03
 7.00000E+00    7.51880E-03
 7.50000E+00    1.18979E-02
 8.00000E+00    1.95242E-02
 8.50000E+00    3.36420E-02
 9.00000E+00    6.04901E-02
 9.50000E+00    1.07285E-01
 1.00000E+01    1.84217E-01
 1.05000E+01    3.05770E-01
 1.10000E+01    4.87865E-01
 1.15000E+01    7.50239E-01
 1.20000E+01    1.10875E+00
 1.25000E+01    1.58576E+00
 1.30000E+01    2.19316E+00
 1.35000E+01    2.95061E+00
 1.40000E+01    3.86366E+00
 1.45000E+01    4.94275E+00
 1.50000E+01    6.18936E+00
 1.55000E+01    7.60241E+00
 1.60000E+01    9.18453E+00
 1.65000E+01    1.09165E+01
 1.70000E+01    1.28098E+01
 1.75000E+01    1.48193E+01
 1.80000E+01    1.69810E+01
 1.85000E+01    1.92221E+01
 1.90000E+01    2.16019E+01
 1.95000E+01    2.40405E+01
 2.00000E+01    2.66053E+01
