# n + La  0 : (n,n')
# jendl.ad   N.Iwamoto                         EVAL-Apr14
# uncertainties: n
# # energies =   110
#   E(MeV)          xs(mb) 
 7.31008E-02    0.00000E+00
 8.00000E-02    1.15447E-02
 9.00000E-02    2.66221E-02
 1.00000E-01    4.01903E-02
 1.05000E-01    4.62076E-02
 1.10000E-01    5.27511E-02
 1.17020E-01    6.02131E-02
 1.20000E-01    6.37266E-02
 1.30000E-01    7.44649E-02
 1.40000E-01    8.41229E-02
 1.50000E-01    9.25293E-02
 1.60000E-01    1.00315E-01
 1.62359E-01    1.02224E-01
 1.70000E-01    6.39607E+01
 1.80000E-01    1.10970E+02
 1.90000E-01    1.39460E+02
 1.93596E-01    1.47247E+02
 2.00000E-01    1.61115E+02
 2.25000E-01    1.99109E+02
 2.32095E-01    2.05874E+02
 2.50000E-01    2.23025E+02
 2.75000E-01    2.46554E+02
 2.95123E-01    2.61346E+02
 3.00000E-01    2.64930E+02
 4.00000E-01    3.08699E+02
 4.16333E-01    3.17289E+02
 4.82846E-01    3.52270E+02
 5.00000E-01    3.61308E+02
 5.14183E-01    3.66405E+02
 5.14184E-01    3.66405E+02
 5.22474E-01    3.69384E+02
 6.00000E-01    3.97248E+02
 6.47038E-01    4.17672E+02
 7.00000E-01    4.40674E+02
 7.43086E-01    4.60875E+02
 7.44103E-01    4.61352E+02
 8.00000E-01    4.87565E+02
 8.29392E-01    4.96111E+02
 8.42115E-01    4.99811E+02
 8.48954E-01    5.01808E+02
 8.94495E-01    5.15072E+02
 9.00000E-01    5.16675E+02
 9.07187E-01    5.18351E+02
 9.35795E-01    5.25024E+02
 9.43753E-01    5.26880E+02
 9.54722E-01    5.29446E+02
 9.68432E-01    5.32657E+02
 1.00000E+00    5.40060E+02
 1.04056E+00    5.52970E+02
 1.06562E+00    5.60940E+02
 1.07480E+00    5.63858E+02
 1.10000E+00    5.71872E+02
 1.10402E+00    5.72880E+02
 1.11066E+00    5.74544E+02
 1.15841E+00    5.86507E+02
 1.16345E+00    5.87768E+02
 1.18662E+00    5.93570E+02
 1.20000E+00    5.96919E+02
 1.20908E+00    5.98673E+02
 1.23748E+00    6.21398E+02
 1.23749E+00    6.21416E+02
 1.25209E+00    6.47477E+02
 1.26418E+00    6.69058E+02
 1.27627E+00    6.86969E+02
 1.30000E+00    7.20882E+02
 1.40000E+00    8.31269E+02
 1.50000E+00    1.01216E+03
 1.60000E+00    1.21144E+03
 1.70000E+00    1.35163E+03
 1.80000E+00    1.46598E+03
 1.90000E+00    1.56077E+03
 2.00000E+00    1.64671E+03
 2.25000E+00    1.82106E+03
 2.50000E+00    1.97135E+03
 2.75000E+00    2.07010E+03
 3.00000E+00    2.15875E+03
 3.50000E+00    2.24424E+03
 4.00000E+00    2.26232E+03
 4.50000E+00    2.22902E+03
 5.00000E+00    2.17953E+03
 5.50000E+00    2.13147E+03
 6.00000E+00    2.09488E+03
 6.50000E+00    2.07347E+03
 7.00000E+00    2.06269E+03
 7.50000E+00    2.05799E+03
 8.00000E+00    2.05520E+03
 8.50000E+00    2.05144E+03
 9.00000E+00    2.03266E+03
 9.50000E+00    1.82762E+03
 1.00000E+01    1.52591E+03
 1.05000E+01    1.21633E+03
 1.10000E+01    9.57206E+02
 1.15000E+01    7.60027E+02
 1.20000E+01    6.14378E+02
 1.25000E+01    5.08503E+02
 1.30000E+01    4.31294E+02
 1.35000E+01    3.75964E+02
 1.40000E+01    3.35506E+02
 1.45000E+01    3.05870E+02
 1.50000E+01    2.83748E+02
 1.55000E+01    2.66967E+02
 1.60000E+01    2.52632E+02
 1.65000E+01    2.39480E+02
 1.70000E+01    2.29108E+02
 1.75000E+01    2.19379E+02
 1.80000E+01    2.10423E+02
 1.85000E+01    2.01935E+02
 1.90000E+01    1.94114E+02
 1.95000E+01    1.86796E+02
 2.00000E+01    1.79769E+02
