# n + La  0 : (n,d)m
# jendl.ad   N.Iwamoto                         EVAL-Apr14
# uncertainties: n
# # energies =    30
#   E(MeV)          xs(mb) 
 4.56265E+00    0.00000E+00
 6.00000E+00    2.42020E-14
 6.50000E+00    5.01070E-11
 7.00000E+00    5.65400E-09
 7.50000E+00    1.30680E-07
 8.00000E+00    1.15557E-06
 8.50000E+00    5.78002E-06
 9.00000E+00    2.46988E-05
 9.50000E+00    1.21345E-04
 1.00000E+01    6.47997E-04
 1.05000E+01    2.54467E-03
 1.10000E+01    8.03665E-03
 1.15000E+01    2.09397E-02
 1.20000E+01    4.45002E-02
 1.25000E+01    8.60741E-02
 1.30000E+01    1.47844E-01
 1.35000E+01    2.31415E-01
 1.40000E+01    3.36705E-01
 1.45000E+01    4.63085E-01
 1.50000E+01    6.09055E-01
 1.55000E+01    7.73494E-01
 1.60000E+01    9.49346E-01
 1.65000E+01    1.14119E+00
 1.70000E+01    1.34528E+00
 1.75000E+01    1.54133E+00
 1.80000E+01    1.75296E+00
 1.85000E+01    1.96016E+00
 1.90000E+01    2.16100E+00
 1.95000E+01    2.33488E+00
 2.00000E+01    2.51482E+00
