# n + Fe 56 : (n,p08)   
# endfb8.0     CIELO Collaboration             EVAL-DEC17
# uncertainties: n
# # energies =    83
#   E(MeV)       xs(mb) 
 3.46020E+00    0.00000E+00
 3.50000E+00    7.50340E-09
 3.60000E+00    1.96490E-07
 3.70000E+00    1.79736E-06
 3.80000E+00    2.04980E-05
 3.90000E+00    6.84617E-05
 4.00000E+00    2.90811E-04
 4.10000E+00    7.92454E-04
 4.20000E+00    1.71098E-03
 4.30000E+00    3.22880E-03
 4.40000E+00    3.70234E-03
 4.80000E+00    5.33076E-03
 4.90000E+00    1.28895E-02
 5.00000E+00    2.17101E-02
 5.20000E+00    5.51326E-02
 5.40000E+00    1.23062E-01
 5.50000E+00    1.76403E-01
 5.70000E+00    3.34103E-01
 6.00000E+00    6.78722E-01
 6.30000E+00    1.06230E+00
 6.50000E+00    1.30119E+00
 6.70000E+00    1.55611E+00
 7.00000E+00    1.78988E+00
 7.25000E+00    1.94671E+00
 7.50000E+00    2.06806E+00
 8.00000E+00    2.17243E+00
 8.50000E+00    2.06913E+00
 9.00000E+00    1.80611E+00
 9.50000E+00    1.48039E+00
 1.00000E+01    1.16794E+00
 1.05000E+01    9.02599E-01
 1.10000E+01    6.87318E-01
 1.11000E+01    6.51346E-01
 1.12500E+01    5.96629E-01
 1.15000E+01    5.16374E-01
 1.18000E+01    4.35157E-01
 1.20000E+01    3.80344E-01
 1.25000E+01    2.76469E-01
 1.28000E+01    2.29989E-01
 1.30000E+01    1.98447E-01
 1.32000E+01    1.75796E-01
 1.34000E+01    1.52672E-01
 1.35000E+01    1.41035E-01
 1.37000E+01    1.25693E-01
 1.39000E+01    1.09790E-01
 1.40000E+01    1.01593E-01
 1.42000E+01    9.10031E-02
 1.45000E+01    7.41739E-02
 1.50000E+01    5.44664E-02
 1.60000E+01    3.05586E-02
 1.65000E+01    2.31387E-02
 1.80000E+01    9.16667E-03
 1.90000E+01    4.82735E-03
 2.00000E+01    2.48873E-03
 2.10000E+01    1.17937E-03
 2.20000E+01    6.19101E-04
 2.40000E+01    1.73498E-04
 2.57000E+01    6.05670E-05
 2.80000E+01    1.53109E-05
 3.00000E+01    4.77529E-06
 3.20000E+01    1.53511E-06
 3.40000E+01    5.09490E-07
 3.60000E+01    1.72550E-07
 3.80000E+01    5.95380E-08
 4.00000E+01    2.12730E-08
 4.50000E+01    1.79720E-09
 5.00000E+01    1.69040E-10
 5.25000E+01    5.40040E-11
 5.50000E+01    1.78420E-11
 6.00000E+01    2.06830E-12
 6.50000E+01    2.56900E-13
 7.00000E+01    3.56370E-14
 7.50000E+01    5.34050E-15
 8.00000E+01    8.41940E-16
 9.00000E+01    2.46480E-17
 9.60000E+01    3.38710E-18
 1.00000E+02    8.83960E-19
 1.10000E+02    3.81160E-20
 1.20000E+02    1.86080E-21
 1.25000E+02    4.36560E-22
 1.30000E+02    1.47980E-22
 1.40000E+02    9.72060E-24
 1.50000E+02    7.25390E-25
