# n + Fe 56 : (n,n'16)  
# endfb8.0     CIELO Collaboration             EVAL-DEC17
# uncertainties: n
# # energies =    70
#   E(MeV)       xs(mb) 
 3.82329E+00    0.00000E+00
 4.00000E+00    6.89236E-01
 4.15000E+00    1.67979E+00
 4.30000E+00    2.83019E+00
 4.40000E+00    3.65318E+00
 4.50000E+00    4.41694E+00
 4.60000E+00    5.03216E+00
 4.70000E+00    5.51250E+00
 4.80000E+00    5.92016E+00
 5.00000E+00    6.57469E+00
 5.20000E+00    6.94282E+00
 5.40000E+00    7.09896E+00
 5.50000E+00    7.11642E+00
 5.70000E+00    7.05648E+00
 6.00000E+00    6.79975E+00
 6.30000E+00    6.40997E+00
 6.50000E+00    6.23501E+00
 6.70000E+00    5.89716E+00
 7.00000E+00    5.45733E+00
 7.25000E+00    5.04063E+00
 7.50000E+00    4.62525E+00
 8.00000E+00    3.82414E+00
 8.50000E+00    3.06005E+00
 9.00000E+00    2.42039E+00
 9.50000E+00    1.88276E+00
 1.00000E+01    1.43151E+00
 1.05000E+01    1.07465E+00
 1.10000E+01    7.99940E-01
 1.12500E+01    6.87215E-01
 1.15000E+01    5.88886E-01
 1.20000E+01    4.29475E-01
 1.25000E+01    3.12502E-01
 1.30000E+01    2.25258E-01
 1.35000E+01    1.61654E-01
 1.40000E+01    1.15917E-01
 1.45000E+01    8.29087E-02
 1.50000E+01    5.90857E-02
 1.60000E+01    2.96467E-02
 1.65000E+01    2.08163E-02
 1.80000E+01    7.39257E-03
 1.90000E+01    3.80125E-03
 2.00000E+01    1.97672E-03
 2.20000E+01    5.49372E-04
 2.40000E+01    1.57432E-04
 2.57000E+01    5.57317E-05
 2.80000E+01    1.42523E-05
 3.00000E+01    4.47934E-06
 3.20000E+01    1.45202E-06
 3.40000E+01    4.86340E-07
 3.60000E+01    1.66210E-07
 3.80000E+01    5.78230E-08
 4.00000E+01    2.08120E-08
 4.50000E+01    1.78700E-09
 5.00000E+01    1.70610E-10
 5.25000E+01    5.48870E-11
 5.50000E+01    1.82560E-11
 6.00000E+01    2.14310E-12
 6.50000E+01    2.69320E-13
 7.00000E+01    3.77660E-14
 7.50000E+01    5.71650E-15
 8.00000E+01    9.09610E-16
 9.00000E+01    2.70710E-17
 9.60000E+01    3.75280E-18
 1.00000E+02    9.84670E-19
 1.10000E+02    4.29760E-20
 1.20000E+02    2.12010E-21
 1.25000E+02    4.99710E-22
 1.30000E+02    1.70130E-22
 1.40000E+02    1.12640E-23
 1.50000E+02    8.46360E-25
