# n + Fe 56 : (n,a02)   
# endfb8.0     CIELO Collaboration             EVAL-DEC17
# uncertainties: n
# # energies =    73
#   E(MeV)       xs(mb) 
 6.92028E-01    0.00000E+00
 3.50000E+00    5.02735E-06
 3.60000E+00    1.06067E-05
 3.80000E+00    3.93759E-05
 4.00000E+00    1.22099E-04
 4.15000E+00    2.76111E-04
 4.30000E+00    5.69013E-04
 4.40000E+00    9.26077E-04
 4.50000E+00    1.41317E-03
 4.60000E+00    2.10547E-03
 4.70000E+00    2.99719E-03
 4.80000E+00    4.28919E-03
 5.00000E+00    8.50804E-03
 5.20000E+00    1.58102E-02
 5.40000E+00    2.87152E-02
 5.50000E+00    3.77853E-02
 5.70000E+00    6.26711E-02
 6.00000E+00    1.28606E-01
 6.30000E+00    2.39689E-01
 6.50000E+00    3.58146E-01
 6.70000E+00    5.07128E-01
 7.00000E+00    8.09728E-01
 7.25000E+00    1.12919E+00
 7.50000E+00    1.48014E+00
 8.00000E+00    2.14214E+00
 8.50000E+00    2.44985E+00
 9.00000E+00    2.39954E+00
 9.50000E+00    2.10294E+00
 1.00000E+01    1.71777E+00
 1.05000E+01    1.34797E+00
 1.10000E+01    1.02770E+00
 1.12500E+01    8.86487E-01
 1.15000E+01    7.65133E-01
 1.20000E+01    5.72751E-01
 1.25000E+01    4.20164E-01
 1.30000E+01    3.13428E-01
 1.35000E+01    2.28200E-01
 1.40000E+01    1.83420E-01
 1.45000E+01    1.46261E-01
 1.50000E+01    1.21280E-01
 1.60000E+01    7.82849E-02
 1.65000E+01    6.87447E-02
 1.80000E+01    4.52411E-02
 1.90000E+01    5.04445E-02
 2.00000E+01    3.80551E-02
 2.20000E+01    3.18600E-02
 2.40000E+01    2.89982E-02
 2.57000E+01    2.01335E-02
 2.80000E+01    1.75092E-02
 3.00000E+01    1.46363E-02
 3.20000E+01    1.36920E-02
 3.40000E+01    7.87496E-03
 3.60000E+01    7.18400E-03
 3.80000E+01    6.47705E-03
 4.00000E+01    5.82640E-03
 4.50000E+01    4.64405E-03
 5.00000E+01    3.57808E-03
 5.25000E+01    1.65045E-03
 5.50000E+01    3.04251E-03
 6.00000E+01    1.18670E-03
 6.50000E+01    9.69329E-04
 7.00000E+01    7.91787E-04
 7.50000E+01    6.51069E-04
 8.00000E+01    5.41906E-04
 9.00000E+01    3.54055E-04
 9.60000E+01    2.57470E-04
 1.00000E+02    2.06815E-04
 1.10000E+02    9.89506E-05
 1.20000E+02    1.16230E-21
 1.25000E+02    1.36626E-05
 1.30000E+02    9.47050E-23
 1.40000E+02    6.37130E-24
 1.50000E+02    4.85250E-25
