# n + Fe 56 : (n,p03)   
# endfb8.0     CIELO Collaboration             EVAL-DEC17
# uncertainties: n
# # energies =    88
#   E(MeV)       xs(mb) 
 3.18097E+00    0.00000E+00
 3.20000E+00    6.38700E-09
 3.40000E+00    4.81190E-08
 3.50000E+00    6.31840E-08
 3.60000E+00    6.18670E-07
 3.70000E+00    4.08656E-06
 3.80000E+00    3.92264E-05
 3.90000E+00    1.17576E-04
 4.00000E+00    4.63507E-04
 4.10000E+00    1.19574E-03
 4.20000E+00    2.47569E-03
 4.30000E+00    4.51945E-03
 4.40000E+00    5.04467E-03
 4.50000E+00    5.98797E-03
 4.60000E+00    1.18510E-02
 4.70000E+00    1.96066E-02
 4.80000E+00    3.10427E-02
 4.90000E+00    4.91791E-02
 5.00000E+00    7.25199E-02
 5.20000E+00    1.47868E-01
 5.40000E+00    2.80178E-01
 5.50000E+00    3.75685E-01
 5.70000E+00    6.36616E-01
 6.00000E+00    1.13715E+00
 6.30000E+00    1.60828E+00
 6.50000E+00    1.86314E+00
 6.70000E+00    2.11490E+00
 7.00000E+00    2.27993E+00
 7.25000E+00    2.37163E+00
 7.50000E+00    2.43052E+00
 8.00000E+00    2.42356E+00
 8.50000E+00    2.23057E+00
 9.00000E+00    1.90034E+00
 9.50000E+00    1.53762E+00
 1.00000E+01    1.20562E+00
 1.05000E+01    9.32051E-01
 1.10000E+01    7.13451E-01
 1.11000E+01    6.76875E-01
 1.12500E+01    6.21225E-01
 1.15000E+01    5.39343E-01
 1.18000E+01    4.55937E-01
 1.20000E+01    3.99629E-01
 1.25000E+01    2.91933E-01
 1.28000E+01    2.43392E-01
 1.30000E+01    2.10439E-01
 1.32000E+01    1.86639E-01
 1.34000E+01    1.62336E-01
 1.35000E+01    1.50102E-01
 1.37000E+01    1.33923E-01
 1.39000E+01    1.17147E-01
 1.40000E+01    1.08497E-01
 1.42000E+01    9.72844E-02
 1.45000E+01    7.94592E-02
 1.50000E+01    5.85387E-02
 1.60000E+01    3.30737E-02
 1.65000E+01    2.51375E-02
 1.80000E+01    1.00690E-02
 1.90000E+01    5.33717E-03
 2.00000E+01    2.76727E-03
 2.10000E+01    1.31795E-03
 2.20000E+01    6.94933E-04
 2.40000E+01    1.96268E-04
 2.57000E+01    6.89031E-05
 2.80000E+01    1.75287E-05
 3.00000E+01    5.49190E-06
 3.20000E+01    1.77258E-06
 3.40000E+01    5.90480E-07
 3.60000E+01    2.00670E-07
 3.80000E+01    6.94600E-08
 4.00000E+01    2.48900E-08
 4.50000E+01    2.11640E-09
 5.00000E+01    2.00200E-10
 5.25000E+01    6.41220E-11
 5.50000E+01    2.12370E-11
 6.00000E+01    2.47270E-12
 6.50000E+01    3.08360E-13
 7.00000E+01    4.29280E-14
 7.50000E+01    6.45370E-15
 8.00000E+01    1.02040E-15
 9.00000E+01    3.00210E-17
 9.60000E+01    4.13620E-18
 1.00000E+02    1.08120E-18
 1.10000E+02    4.67850E-20
 1.20000E+02    2.29100E-21
 1.25000E+02    5.38240E-22
 1.30000E+02    1.82690E-22
 1.40000E+02    1.20300E-23
 1.50000E+02    8.99660E-25
