# n + Fe 56 : (n,p07)   
# endfb8.0     CIELO Collaboration             EVAL-DEC17
# uncertainties: n
# # energies =    84
#   E(MeV)       xs(mb) 
 3.42765E+00    0.00000E+00
 3.50000E+00    9.38560E-11
 3.60000E+00    1.66680E-09
 3.70000E+00    1.40460E-08
 3.80000E+00    1.54560E-07
 3.90000E+00    5.05940E-07
 4.00000E+00    2.12170E-06
 4.10000E+00    5.73018E-06
 4.20000E+00    1.22910E-05
 4.30000E+00    2.30781E-05
 4.40000E+00    2.63577E-05
 4.70000E+00    3.58544E-05
 4.80000E+00    8.44733E-03
 4.90000E+00    1.63192E-02
 5.00000E+00    2.58505E-02
 5.20000E+00    6.40384E-02
 5.40000E+00    1.40133E-01
 5.50000E+00    1.99190E-01
 5.70000E+00    3.71732E-01
 6.00000E+00    7.41739E-01
 6.30000E+00    1.14391E+00
 6.50000E+00    1.38912E+00
 6.70000E+00    1.64813E+00
 7.00000E+00    1.87592E+00
 7.25000E+00    2.02548E+00
 7.50000E+00    2.13891E+00
 8.00000E+00    2.22768E+00
 8.50000E+00    2.10934E+00
 9.00000E+00    1.83313E+00
 9.50000E+00    1.49763E+00
 1.00000E+01    1.17879E+00
 1.05000E+01    9.09652E-01
 1.10000E+01    6.92073E-01
 1.11000E+01    6.55777E-01
 1.12500E+01    6.00566E-01
 1.15000E+01    5.19652E-01
 1.18000E+01    4.37822E-01
 1.20000E+01    3.82596E-01
 1.25000E+01    2.78003E-01
 1.28000E+01    2.31216E-01
 1.30000E+01    1.99468E-01
 1.32000E+01    1.76674E-01
 1.34000E+01    1.53406E-01
 1.35000E+01    1.41697E-01
 1.37000E+01    1.26268E-01
 1.39000E+01    1.10276E-01
 1.40000E+01    1.02034E-01
 1.42000E+01    9.13849E-02
 1.45000E+01    7.44638E-02
 1.50000E+01    5.46591E-02
 1.60000E+01    3.06493E-02
 1.65000E+01    2.32018E-02
 1.80000E+01    9.18728E-03
 1.90000E+01    4.83687E-03
 2.00000E+01    2.49299E-03
 2.10000E+01    1.18119E-03
 2.20000E+01    6.19956E-04
 2.40000E+01    1.73698E-04
 2.57000E+01    6.06296E-05
 2.80000E+01    1.53245E-05
 3.00000E+01    4.77892E-06
 3.20000E+01    1.53610E-06
 3.40000E+01    5.09770E-07
 3.60000E+01    1.72640E-07
 3.80000E+01    5.95650E-08
 4.00000E+01    2.12820E-08
 4.50000E+01    1.79780E-09
 5.00000E+01    1.69090E-10
 5.25000E+01    5.40180E-11
 5.50000E+01    1.78470E-11
 6.00000E+01    2.06870E-12
 6.50000E+01    2.56950E-13
 7.00000E+01    3.56430E-14
 7.50000E+01    5.34130E-15
 8.00000E+01    8.42070E-16
 9.00000E+01    2.46510E-17
 9.60000E+01    3.38760E-18
 1.00000E+02    8.84070E-19
 1.10000E+02    3.81210E-20
 1.20000E+02    1.86100E-21
 1.25000E+02    4.36610E-22
 1.30000E+02    1.48000E-22
 1.40000E+02    9.72160E-24
 1.50000E+02    7.25460E-25
