# n + Fe 56 : (n,p09)   
# endfb8.0     CIELO Collaboration             EVAL-DEC17
# uncertainties: n
# # energies =    81
#   E(MeV)       xs(mb) 
 3.51588E+00    0.00000E+00
 3.60000E+00    3.45090E-07
 3.70000E+00    4.02790E-06
 3.80000E+00    5.00241E-05
 3.90000E+00    1.74521E-04
 4.00000E+00    7.61234E-04
 4.10000E+00    2.11163E-03
 4.20000E+00    4.61795E-03
 4.30000E+00    8.79901E-03
 4.40000E+00    1.01657E-02
 4.90000E+00    1.48718E-02
 5.00000E+00    1.66066E-02
 5.20000E+00    4.41210E-02
 5.40000E+00    1.00945E-01
 5.50000E+00    1.45664E-01
 5.70000E+00    2.77201E-01
 6.00000E+00    5.59422E-01
 6.30000E+00    8.64526E-01
 6.50000E+00    1.05089E+00
 6.70000E+00    1.24947E+00
 7.00000E+00    1.43129E+00
 7.25000E+00    1.55932E+00
 7.50000E+00    1.66552E+00
 8.00000E+00    1.78087E+00
 8.50000E+00    1.72839E+00
 9.00000E+00    1.53432E+00
 9.50000E+00    1.27175E+00
 1.00000E+01    1.01093E+00
 1.05000E+01    7.83363E-01
 1.10000E+01    5.95320E-01
 1.11000E+01    5.63745E-01
 1.12500E+01    5.15723E-01
 1.15000E+01    4.45228E-01
 1.18000E+01    3.73997E-01
 1.20000E+01    3.25938E-01
 1.25000E+01    2.35219E-01
 1.28000E+01    1.94928E-01
 1.30000E+01    1.67606E-01
 1.32000E+01    1.48125E-01
 1.34000E+01    1.28251E-01
 1.35000E+01    1.18254E-01
 1.37000E+01    1.05150E-01
 1.39000E+01    9.15759E-02
 1.40000E+01    8.45855E-02
 1.42000E+01    7.56070E-02
 1.45000E+01    6.13508E-02
 1.50000E+01    4.47665E-02
 1.60000E+01    2.48366E-02
 1.65000E+01    1.87157E-02
 1.80000E+01    7.34313E-03
 1.90000E+01    3.85694E-03
 2.00000E+01    1.98740E-03
 2.10000E+01    9.42026E-04
 2.20000E+01    4.94446E-04
 2.40000E+01    1.38146E-04
 2.57000E+01    4.80046E-05
 2.80000E+01    1.20652E-05
 3.00000E+01    3.75059E-06
 3.20000E+01    1.20291E-06
 3.40000E+01    3.98330E-07
 3.60000E+01    1.34570E-07
 3.80000E+01    4.63120E-08
 4.00000E+01    1.65050E-08
 4.50000E+01    1.38660E-09
 5.00000E+01    1.29800E-10
 5.25000E+01    4.13780E-11
 5.50000E+01    1.36430E-11
 6.00000E+01    1.57550E-12
 6.50000E+01    1.95050E-13
 7.00000E+01    2.69790E-14
 7.50000E+01    4.03250E-15
 8.00000E+01    6.34270E-16
 9.00000E+01    1.84950E-17
 9.60000E+01    2.53630E-18
 1.00000E+02    6.61080E-19
 1.10000E+02    2.84250E-20
 1.20000E+02    1.38420E-21
 1.25000E+02    3.24390E-22
 1.30000E+02    1.09840E-22
 1.40000E+02    7.20080E-24
 1.50000E+02    5.36370E-25
