# n + Fe 56 : (n,p02)   
# endfb8.0     CIELO Collaboration             EVAL-DEC17
# uncertainties: n
# # energies =    88
#   E(MeV)       xs(mb) 
 3.07762E+00    0.00000E+00
 3.20000E+00    6.19240E-08
 3.40000E+00    1.06770E-07
 3.50000E+00    1.26100E-07
 3.60000E+00    1.16263E-06
 3.70000E+00    7.38689E-06
 3.80000E+00    6.90039E-05
 3.90000E+00    2.02714E-04
 4.00000E+00    7.86877E-04
 4.10000E+00    2.00521E-03
 4.20000E+00    4.11045E-03
 4.30000E+00    7.44200E-03
 4.40000E+00    8.24926E-03
 4.50000E+00    1.69072E-02
 4.60000E+00    2.93185E-02
 4.70000E+00    4.64614E-02
 4.80000E+00    7.05454E-02
 4.90000E+00    1.01776E-01
 5.00000E+00    1.44006E-01
 5.20000E+00    2.61287E-01
 5.40000E+00    4.46870E-01
 5.50000E+00    5.71721E-01
 5.70000E+00    8.87714E-01
 6.00000E+00    1.40812E+00
 6.30000E+00    1.79106E+00
 6.50000E+00    1.93663E+00
 6.70000E+00    2.07688E+00
 7.00000E+00    2.07105E+00
 7.25000E+00    2.04759E+00
 7.50000E+00    2.01439E+00
 8.00000E+00    1.89047E+00
 8.50000E+00    1.65691E+00
 9.00000E+00    1.35698E+00
 9.50000E+00    1.05678E+00
 1.00000E+01    8.04183E-01
 1.05000E+01    6.04758E-01
 1.10000E+01    4.50022E-01
 1.11000E+01    4.24918E-01
 1.12500E+01    3.86755E-01
 1.15000E+01    3.31612E-01
 1.18000E+01    2.76910E-01
 1.20000E+01    2.40022E-01
 1.25000E+01    1.70846E-01
 1.28000E+01    1.40899E-01
 1.30000E+01    1.20609E-01
 1.32000E+01    1.06306E-01
 1.34000E+01    9.17255E-02
 1.35000E+01    8.43948E-02
 1.37000E+01    7.48634E-02
 1.39000E+01    6.49975E-02
 1.40000E+01    5.99205E-02
 1.42000E+01    5.34551E-02
 1.45000E+01    4.31965E-02
 1.50000E+01    3.13603E-02
 1.60000E+01    1.72734E-02
 1.65000E+01    1.29801E-02
 1.80000E+01    5.04801E-03
 1.90000E+01    2.63084E-03
 2.00000E+01    1.34352E-03
 2.10000E+01    6.31290E-04
 2.20000E+01    3.28960E-04
 2.40000E+01    9.11651E-05
 2.57000E+01    3.16123E-05
 2.80000E+01    7.92984E-06
 3.00000E+01    2.45621E-06
 3.20000E+01    7.84090E-07
 3.40000E+01    2.58540E-07
 3.60000E+01    8.70620E-08
 3.80000E+01    2.98880E-08
 4.00000E+01    1.06290E-08
 4.50000E+01    8.88510E-10
 5.00000E+01    8.28070E-11
 5.25000E+01    2.63470E-11
 5.50000E+01    8.67220E-12
 6.00000E+01    9.98550E-13
 6.50000E+01    1.23310E-13
 7.00000E+01    1.70180E-14
 7.50000E+01    2.53880E-15
 8.00000E+01    3.98650E-16
 9.00000E+01    1.15900E-17
 9.60000E+01    1.58700E-18
 1.00000E+02    4.13270E-19
 1.10000E+02    1.77320E-20
 1.20000E+02    8.61870E-22
 1.25000E+02    2.01800E-22
 1.30000E+02    6.82730E-23
 1.40000E+02    4.46860E-24
 1.50000E+02    3.32370E-25
