# n + Fe 56 : (n,a04)   
# endfb8.0     CIELO Collaboration             EVAL-DEC17
# uncertainties: n
# # energies =    71
#   E(MeV)       xs(mb) 
 1.23194E+00    0.00000E+00
 3.80000E+00    2.98870E-07
 4.00000E+00    2.27752E-06
 4.15000E+00    7.18079E-06
 4.30000E+00    2.03412E-05
 4.40000E+00    3.84459E-05
 4.50000E+00    6.68180E-05
 4.60000E+00    1.12514E-04
 4.70000E+00    1.84690E-04
 4.80000E+00    2.96753E-04
 5.00000E+00    7.37725E-04
 5.20000E+00    1.66508E-03
 5.40000E+00    3.56634E-03
 5.50000E+00    5.10725E-03
 5.70000E+00    9.91637E-03
 6.00000E+00    2.38707E-02
 6.30000E+00    5.33872E-02
 6.50000E+00    8.75721E-02
 6.70000E+00    1.35295E-01
 7.00000E+00    2.48036E-01
 7.25000E+00    3.87477E-01
 7.50000E+00    5.71957E-01
 8.00000E+00    1.06001E+00
 8.50000E+00    1.54149E+00
 9.00000E+00    1.82228E+00
 9.50000E+00    1.82335E+00
 1.00000E+01    1.62401E+00
 1.05000E+01    1.35288E+00
 1.10000E+01    1.07542E+00
 1.12500E+01    9.42312E-01
 1.15000E+01    8.23840E-01
 1.20000E+01    6.28603E-01
 1.25000E+01    4.67938E-01
 1.30000E+01    3.51823E-01
 1.35000E+01    2.57749E-01
 1.40000E+01    2.05614E-01
 1.45000E+01    1.62680E-01
 1.50000E+01    1.33287E-01
 1.60000E+01    8.44707E-02
 1.65000E+01    7.30998E-02
 1.80000E+01    4.67669E-02
 1.90000E+01    5.12157E-02
 2.00000E+01    3.84477E-02
 2.20000E+01    3.19638E-02
 2.40000E+01    2.90265E-02
 2.57000E+01    2.01432E-02
 2.80000E+01    1.75116E-02
 3.00000E+01    1.46371E-02
 3.20000E+01    1.36922E-02
 3.40000E+01    7.87504E-03
 3.60000E+01    7.18403E-03
 3.80000E+01    6.47706E-03
 4.00000E+01    5.82641E-03
 4.50000E+01    4.64405E-03
 5.00000E+01    3.57808E-03
 5.25000E+01    1.65045E-03
 5.50000E+01    3.04251E-03
 6.00000E+01    1.18670E-03
 6.50000E+01    9.69329E-04
 7.00000E+01    7.91787E-04
 7.50000E+01    6.51069E-04
 8.00000E+01    5.41906E-04
 9.00000E+01    3.54055E-04
 9.60000E+01    2.57470E-04
 1.00000E+02    2.06815E-04
 1.10000E+02    9.89506E-05
 1.20000E+02    1.51480E-21
 1.25000E+02    1.36626E-05
 1.30000E+02    1.23600E-22
 1.40000E+02    8.32580E-24
 1.50000E+02    6.34830E-25
