# n + Fe 56 : (n,p05)   
# endfb8.0     CIELO Collaboration             EVAL-DEC17
# uncertainties: n
# # energies =    86
#   E(MeV)       xs(mb) 
 3.30670E+00    0.00000E+00
 3.40000E+00    4.61870E-09
 3.50000E+00    8.62650E-09
 3.60000E+00    9.75790E-08
 3.70000E+00    6.97780E-07
 3.80000E+00    7.04382E-06
 3.90000E+00    2.18613E-05
 4.00000E+00    8.84113E-05
 4.10000E+00    2.32582E-04
 4.20000E+00    4.89031E-04
 4.30000E+00    9.03971E-04
 4.40000E+00    1.01950E-03
 4.60000E+00    1.30363E-03
 4.70000E+00    4.10978E-03
 4.80000E+00    7.10032E-03
 4.90000E+00    1.23699E-02
 5.00000E+00    1.89228E-02
 5.20000E+00    4.27026E-02
 5.40000E+00    8.78848E-02
 5.50000E+00    1.22193E-01
 5.70000E+00    2.20912E-01
 6.00000E+00    4.29365E-01
 6.30000E+00    6.55430E-01
 6.50000E+00    7.99799E-01
 6.70000E+00    9.52628E-01
 7.00000E+00    1.10546E+00
 7.25000E+00    1.21769E+00
 7.50000E+00    1.31685E+00
 8.00000E+00    1.44317E+00
 8.50000E+00    1.43750E+00
 9.00000E+00    1.30394E+00
 9.50000E+00    1.11065E+00
 1.00000E+01    9.05759E-01
 1.05000E+01    7.23002E-01
 1.10000E+01    5.68842E-01
 1.11000E+01    5.42056E-01
 1.12500E+01    5.01263E-01
 1.15000E+01    4.39975E-01
 1.18000E+01    3.75797E-01
 1.20000E+01    3.32421E-01
 1.25000E+01    2.47449E-01
 1.28000E+01    2.07967E-01
 1.30000E+01    1.81118E-01
 1.32000E+01    1.61365E-01
 1.34000E+01    1.41165E-01
 1.35000E+01    1.30987E-01
 1.37000E+01    1.17362E-01
 1.39000E+01    1.03214E-01
 1.40000E+01    9.59084E-02
 1.42000E+01    8.63238E-02
 1.45000E+01    7.10630E-02
 1.50000E+01    5.29336E-02
 1.60000E+01    3.05116E-02
 1.65000E+01    2.34057E-02
 1.80000E+01    9.61201E-03
 1.90000E+01    5.16891E-03
 2.00000E+01    2.71436E-03
 2.10000E+01    1.30721E-03
 2.20000E+01    6.96046E-04
 2.40000E+01    1.99834E-04
 2.57000E+01    7.09730E-05
 2.80000E+01    1.82967E-05
 3.00000E+01    5.78859E-06
 3.20000E+01    1.88386E-06
 3.40000E+01    6.31980E-07
 3.60000E+01    2.16080E-07
 3.80000E+01    7.51930E-08
 4.00000E+01    2.70720E-08
 4.50000E+01    2.32470E-09
 5.00000E+01    2.21650E-10
 5.25000E+01    7.12350E-11
 5.50000E+01    2.36670E-11
 6.00000E+01    2.77110E-12
 6.50000E+01    3.47250E-13
 7.00000E+01    4.85490E-14
 7.50000E+01    7.32670E-15
 8.00000E+01    1.16240E-15
 9.00000E+01    3.44030E-17
 9.60000E+01    4.75470E-18
 1.00000E+02    1.24520E-18
 1.10000E+02    5.41150E-20
 1.20000E+02    2.65990E-21
 1.25000E+02    6.25980E-22
 1.30000E+02    2.12820E-22
 1.40000E+02    1.40550E-23
 1.50000E+02    1.05400E-24
