# n + Fe 56 : (n,a03)   
# endfb8.0     CIELO Collaboration             EVAL-DEC17
# uncertainties: n
# # energies =    72
#   E(MeV)       xs(mb) 
 9.80386E-01    0.00000E+00
 3.60000E+00    8.82520E-07
 3.80000E+00    4.63899E-06
 4.00000E+00    1.84133E-05
 4.15000E+00    4.87849E-05
 4.30000E+00    1.19937E-04
 4.40000E+00    2.07892E-04
 4.50000E+00    3.33078E-04
 4.60000E+00    5.29905E-04
 4.70000E+00    8.14967E-04
 4.80000E+00    1.22159E-03
 5.00000E+00    2.67175E-03
 5.20000E+00    5.52708E-03
 5.40000E+00    1.08704E-02
 5.50000E+00    1.48352E-02
 5.70000E+00    2.63231E-02
 6.00000E+00    5.91587E-02
 6.30000E+00    1.19244E-01
 6.50000E+00    1.86221E-01
 6.70000E+00    2.77006E-01
 7.00000E+00    4.73833E-01
 7.25000E+00    6.98611E-01
 7.50000E+00    9.80088E-01
 8.00000E+00    1.61396E+00
 8.50000E+00    2.09419E+00
 9.00000E+00    2.25475E+00
 9.50000E+00    2.11185E+00
 1.00000E+01    1.80269E+00
 1.05000E+01    1.45881E+00
 1.10000E+01    1.13690E+00
 1.12500E+01    9.89152E-01
 1.15000E+01    8.59584E-01
 1.20000E+01    6.49323E-01
 1.25000E+01    4.79852E-01
 1.30000E+01    3.58596E-01
 1.35000E+01    2.61603E-01
 1.40000E+01    2.07865E-01
 1.45000E+01    1.64004E-01
 1.50000E+01    1.34049E-01
 1.60000E+01    8.47034E-02
 1.65000E+01    7.32280E-02
 1.80000E+01    4.67903E-02
 1.90000E+01    5.12234E-02
 2.00000E+01    3.84503E-02
 2.20000E+01    3.19641E-02
 2.40000E+01    2.90266E-02
 2.57000E+01    2.01432E-02
 2.80000E+01    1.75116E-02
 3.00000E+01    1.46371E-02
 3.20000E+01    1.36922E-02
 3.40000E+01    7.87504E-03
 3.60000E+01    7.18403E-03
 3.80000E+01    6.47706E-03
 4.00000E+01    5.82641E-03
 4.50000E+01    4.64405E-03
 5.00000E+01    3.57808E-03
 5.25000E+01    1.65045E-03
 5.50000E+01    3.04251E-03
 6.00000E+01    1.18670E-03
 6.50000E+01    9.69329E-04
 7.00000E+01    7.91787E-04
 7.50000E+01    6.51069E-04
 8.00000E+01    5.41906E-04
 9.00000E+01    3.54055E-04
 9.60000E+01    2.57470E-04
 1.00000E+02    2.06815E-04
 1.10000E+02    9.89506E-05
 1.20000E+02    1.51480E-21
 1.25000E+02    1.36626E-05
 1.30000E+02    1.23600E-22
 1.40000E+02    8.32580E-24
 1.50000E+02    6.34830E-25
