# n + Fe 56 : (n,n'09)  
# endfb8.0     CIELO Collaboration             EVAL-DEC17
# uncertainties: n
# # energies =    73
#   E(MeV)       xs(mb) 
 3.44966E+00    0.00000E+00
 3.50000E+00    2.09019E-01
 3.60000E+00    6.65775E-01
 3.80000E+00    2.20840E+00
 4.00000E+00    4.18535E+00
 4.15000E+00    5.80296E+00
 4.30000E+00    6.92716E+00
 4.40000E+00    7.67961E+00
 4.50000E+00    8.21999E+00
 4.60000E+00    8.49285E+00
 4.70000E+00    8.61930E+00
 4.80000E+00    8.71010E+00
 5.00000E+00    8.88351E+00
 5.20000E+00    8.86531E+00
 5.40000E+00    8.72811E+00
 5.50000E+00    8.62765E+00
 5.70000E+00    8.37496E+00
 6.00000E+00    7.90716E+00
 6.30000E+00    7.36183E+00
 6.50000E+00    7.12133E+00
 6.70000E+00    6.70270E+00
 7.00000E+00    6.16560E+00
 7.25000E+00    5.66792E+00
 7.50000E+00    5.17577E+00
 8.00000E+00    4.23314E+00
 8.50000E+00    3.34728E+00
 9.00000E+00    2.61661E+00
 9.50000E+00    2.01383E+00
 1.00000E+01    1.51791E+00
 1.05000E+01    1.13195E+00
 1.10000E+01    8.38516E-01
 1.12500E+01    7.19009E-01
 1.15000E+01    6.15154E-01
 1.20000E+01    4.47461E-01
 1.25000E+01    3.24835E-01
 1.30000E+01    2.33627E-01
 1.35000E+01    1.67259E-01
 1.40000E+01    1.19628E-01
 1.45000E+01    8.53416E-02
 1.50000E+01    6.06641E-02
 1.60000E+01    3.03042E-02
 1.65000E+01    2.12400E-02
 1.80000E+01    7.51564E-03
 1.90000E+01    3.85950E-03
 2.00000E+01    2.00536E-03
 2.20000E+01    5.56524E-04
 2.40000E+01    1.59171E-04
 2.57000E+01    5.62483E-05
 2.80000E+01    1.43578E-05
 3.00000E+01    4.50805E-06
 3.20000E+01    1.46037E-06
 3.40000E+01    4.88860E-07
 3.60000E+01    1.66990E-07
 3.80000E+01    5.80680E-08
 4.00000E+01    2.08930E-08
 4.50000E+01    1.79260E-09
 5.00000E+01    1.71070E-10
 5.25000E+01    5.50260E-11
 5.50000E+01    1.83000E-11
 6.00000E+01    2.14770E-12
 6.50000E+01    2.69860E-13
 7.00000E+01    3.78360E-14
 7.50000E+01    5.72650E-15
 8.00000E+01    9.11130E-16
 9.00000E+01    2.71130E-17
 9.60000E+01    3.75840E-18
 1.00000E+02    9.86090E-19
 1.10000E+02    4.30350E-20
 1.20000E+02    2.12280E-21
 1.25000E+02    5.00340E-22
 1.30000E+02    1.70340E-22
 1.40000E+02    1.12770E-23
 1.50000E+02    8.47330E-25
