# n + Fe 56 : (n,n'10)  
# endfb8.0     CIELO Collaboration             EVAL-DEC17
# uncertainties: n
# # energies =    72
#   E(MeV)       xs(mb) 
 3.50748E+00    0.00000E+00
 3.60000E+00    3.62450E+01
 3.80000E+00    5.11768E+01
 4.00000E+00    5.85763E+01
 4.15000E+00    6.47607E+01
 4.30000E+00    6.66346E+01
 4.40000E+00    6.81330E+01
 4.50000E+00    6.67238E+01
 4.60000E+00    6.47766E+01
 4.70000E+00    6.16991E+01
 4.80000E+00    5.82956E+01
 5.00000E+00    5.32276E+01
 5.20000E+00    4.82002E+01
 5.40000E+00    4.32567E+01
 5.50000E+00    4.08875E+01
 5.70000E+00    3.64174E+01
 6.00000E+00    3.05205E+01
 6.30000E+00    2.55254E+01
 6.50000E+00    2.29656E+01
 6.70000E+00    2.03471E+01
 7.00000E+00    1.71125E+01
 7.25000E+00    1.47429E+01
 7.50000E+00    1.26932E+01
 8.00000E+00    9.40733E+00
 8.50000E+00    6.86254E+00
 9.00000E+00    5.05174E+00
 9.50000E+00    3.71281E+00
 1.00000E+01    2.72451E+00
 1.05000E+01    2.00310E+00
 1.10000E+01    1.47686E+00
 1.12500E+01    1.26940E+00
 1.15000E+01    1.09209E+00
 1.20000E+01    8.11068E-01
 1.25000E+01    6.07101E-01
 1.30000E+01    4.58893E-01
 1.35000E+01    3.50853E-01
 1.40000E+01    2.72244E-01
 1.45000E+01    2.14461E-01
 1.50000E+01    1.71503E-01
 1.60000E+01    1.15137E-01
 1.65000E+01    9.66906E-02
 1.80000E+01    6.36506E-02
 1.90000E+01    5.14801E-02
 2.00000E+01    4.29018E-02
 2.20000E+01    3.10152E-02
 2.40000E+01    2.29846E-02
 2.57000E+01    1.84285E-02
 2.80000E+01    1.45643E-02
 3.00000E+01    1.23792E-02
 3.20000E+01    1.07535E-02
 3.40000E+01    9.47669E-03
 3.60000E+01    8.43976E-03
 3.80000E+01    7.58217E-03
 4.00000E+01    6.86213E-03
 4.50000E+01    5.46253E-03
 5.00000E+01    4.43704E-03
 5.25000E+01    3.99832E-03
 5.50000E+01    3.62633E-03
 6.00000E+01    2.97796E-03
 6.50000E+01    2.49269E-03
 7.00000E+01    2.09603E-03
 7.50000E+01    1.76973E-03
 8.00000E+01    1.49997E-03
 9.00000E+01    1.08828E-03
 9.60000E+01    8.98968E-04
 1.00000E+02    7.91774E-04
 1.10000E+02    5.77384E-04
 1.20000E+02    4.22426E-04
 1.25000E+02    3.61937E-04
 1.30000E+02    3.10566E-04
 1.40000E+02    2.29813E-04
 1.50000E+02    1.71410E-04
