# n + Fe 56 : (n,p06)   
# endfb8.0     CIELO Collaboration             EVAL-DEC17
# uncertainties: n
# # energies =    86
#   E(MeV)       xs(mb) 
 3.31226E+00    0.00000E+00
 3.40000E+00    1.09130E-08
 3.50000E+00    2.10500E-08
 3.60000E+00    2.40510E-07
 3.70000E+00    1.72830E-06
 3.80000E+00    1.74973E-05
 3.90000E+00    5.44089E-05
 4.00000E+00    2.20341E-04
 4.10000E+00    5.80236E-04
 4.20000E+00    1.22098E-03
 4.30000E+00    2.25840E-03
 4.40000E+00    2.54834E-03
 4.60000E+00    3.26111E-03
 4.70000E+00    1.16252E-02
 4.80000E+00    1.98456E-02
 4.90000E+00    3.39135E-02
 5.00000E+00    5.15134E-02
 5.20000E+00    1.13531E-01
 5.40000E+00    2.27542E-01
 5.50000E+00    3.11925E-01
 5.70000E+00    5.47622E-01
 6.00000E+00    1.01666E+00
 6.30000E+00    1.48059E+00
 6.50000E+00    1.74101E+00
 6.70000E+00    2.00740E+00
 7.00000E+00    2.20153E+00
 7.25000E+00    2.31805E+00
 7.50000E+00    2.39904E+00
 8.00000E+00    2.42723E+00
 8.50000E+00    2.25280E+00
 9.00000E+00    1.92838E+00
 9.50000E+00    1.55793E+00
 1.00000E+01    1.21689E+00
 1.05000E+01    9.34519E-01
 1.10000E+01    7.08915E-01
 1.11000E+01    6.71481E-01
 1.12500E+01    6.14545E-01
 1.15000E+01    5.31284E-01
 1.18000E+01    4.47279E-01
 1.20000E+01    3.90589E-01
 1.25000E+01    2.83434E-01
 1.28000E+01    2.35555E-01
 1.30000E+01    2.03070E-01
 1.32000E+01    1.79777E-01
 1.34000E+01    1.56004E-01
 1.35000E+01    1.44041E-01
 1.37000E+01    1.28297E-01
 1.39000E+01    1.11982E-01
 1.40000E+01    1.03574E-01
 1.42000E+01    9.27239E-02
 1.45000E+01    7.54849E-02
 1.50000E+01    5.53409E-02
 1.60000E+01    3.09706E-02
 1.65000E+01    2.34277E-02
 1.80000E+01    9.26039E-03
 1.90000E+01    4.87078E-03
 2.00000E+01    2.50841E-03
 2.10000E+01    1.18764E-03
 2.20000E+01    6.22982E-04
 2.40000E+01    1.74410E-04
 2.57000E+01    6.08516E-05
 2.80000E+01    1.53726E-05
 3.00000E+01    4.79174E-06
 3.20000E+01    1.53961E-06
 3.40000E+01    5.10780E-07
 3.60000E+01    1.72950E-07
 3.80000E+01    5.96610E-08
 4.00000E+01    2.13130E-08
 4.50000E+01    1.79980E-09
 5.00000E+01    1.69250E-10
 5.25000E+01    5.40660E-11
 5.50000E+01    1.78610E-11
 6.00000E+01    2.07020E-12
 6.50000E+01    2.57120E-13
 7.00000E+01    3.56640E-14
 7.50000E+01    5.34430E-15
 8.00000E+01    8.42510E-16
 9.00000E+01    2.46630E-17
 9.60000E+01    3.38910E-18
 1.00000E+02    8.84460E-19
 1.10000E+02    3.81370E-20
 1.20000E+02    1.86170E-21
 1.25000E+02    4.36780E-22
 1.30000E+02    1.48060E-22
 1.40000E+02    9.72510E-24
 1.50000E+02    7.25720E-25
