# n + Mo 93 : (n,el)    
# tendl.2019 A.J. Koning and D. Rochman        EVAL-NOV19
# uncertainties: y
# # energies =    69
#   E(MeV)       xs(mb)       xslow(mb)      xsupp(mb)
 1.00000E-10    5.35262E+03    4.47029E+03    6.23496E+03
 5.00000E-09    4.16394E+03    3.47748E+03    4.85039E+03
 1.00000E-08    4.12896E+03    3.44827E+03    4.80965E+03
 1.50000E-08    4.11517E+03    3.43675E+03    4.79359E+03
 2.00000E-08    4.10748E+03    3.43033E+03    4.78463E+03
 2.50000E-08    4.10274E+03    3.42631E+03    4.77917E+03
 3.00000E-08    4.09928E+03    3.42337E+03    4.77520E+03
 3.50000E-08    4.09648E+03    3.42103E+03    4.77193E+03
 4.20000E-08    4.09361E+03    3.41858E+03    4.76864E+03
 5.00000E-08    4.09157E+03    3.41682E+03    4.76632E+03
 5.80000E-08    4.08981E+03    3.41535E+03    4.76426E+03
 6.70000E-08    4.08778E+03    3.41361E+03    4.76196E+03
 8.00000E-08    4.08592E+03    3.41195E+03    4.75989E+03
 1.00000E-07    4.08293E+03    3.40911E+03    4.75676E+03
 1.40000E-07    4.08012E+03    3.40676E+03    4.75348E+03
 1.80000E-07    4.07759E+03    3.40465E+03    4.75054E+03
 2.20000E-07    4.07538E+03    3.40227E+03    4.74848E+03
 2.50000E-07    4.07378E+03    3.40094E+03    4.74663E+03
 2.80000E-07    4.07259E+03    3.39994E+03    4.74524E+03
 3.00000E-07    4.07164E+03    3.39862E+03    4.74466E+03
 3.20000E-07    4.07046E+03    3.39763E+03    4.74329E+03
 3.50000E-07    4.06858E+03    3.39606E+03    4.74110E+03
 4.00000E-07    4.06508E+03    3.39260E+03    4.73756E+03
 5.00000E-07    4.05977E+03    3.38735E+03    4.73218E+03
 6.25000E-07    4.05315E+03    3.38183E+03    4.72447E+03
 7.80000E-07    4.04770E+03    3.37591E+03    4.71949E+03
 8.50000E-07    4.04456E+03    3.37329E+03    4.71583E+03
 9.10000E-07    4.04212E+03    3.37126E+03    4.71298E+03
 9.50000E-07    4.04061E+03    3.36999E+03    4.71122E+03
 9.72000E-07    4.03949E+03    3.36906E+03    4.70991E+03
 9.96000E-07    4.03832E+03    3.36809E+03    4.70855E+03
 1.02000E-06    4.03713E+03    3.36339E+03    4.71086E+03
 1.04500E-06    4.03589E+03    3.36236E+03    4.70942E+03
 1.07100E-06    4.03462E+03    3.36131E+03    4.70794E+03
 1.09700E-06    4.03336E+03    3.36025E+03    4.70646E+03
 1.12300E-06    4.03207E+03    3.35918E+03    4.70496E+03
 1.15000E-06    4.02784E+03    3.35565E+03    4.70002E+03
 1.30000E-06    4.01936E+03    3.34859E+03    4.69013E+03
 1.50000E-06    4.00061E+03    3.33297E+03    4.66825E+03
 2.10000E-06    3.97347E+03    3.30437E+03    4.64256E+03
 2.60000E-06    3.94452E+03    3.28030E+03    4.60874E+03
 3.30000E-06    3.90978E+03    3.24501E+03    4.57456E+03
 4.00000E-06    3.74144E+03    3.09859E+03    4.38429E+03
 9.87700E-06    3.26383E+03    2.66369E+03    3.86397E+03
 1.59680E-05    1.23193E+04    9.60678E+03    1.50319E+04
 2.77000E-05    1.50504E+05    7.51366E+04    2.25871E+05
 4.80520E-05    5.67579E+03    4.67360E+03    6.67798E+03
 7.55014E-05    9.10874E+03    7.66620E+03    1.05513E+04
 1.48728E-04    5.55075E+03    4.64575E+03    6.45574E+03
 3.67262E-04    1.91681E+04    1.55004E+04    2.28358E+04
 9.06898E-04    4.56535E+04    3.90417E+04    5.22652E+04
 1.42510E-03    9.23713E+03    7.97323E+03    1.05010E+04
 2.23945E-03    9.48700E+03    7.54304E+03    1.14310E+04
 3.51910E-03    9.03725E+03    7.18545E+03    1.08890E+04
 5.53000E-03    8.64748E+03    6.87555E+03    1.04194E+04
 9.11800E-03    8.51088E+03    7.27695E+03    9.74481E+03
 1.50300E-02    8.55131E+03    7.31152E+03    9.79110E+03
 2.47800E-02    8.74012E+03    7.47296E+03    1.00073E+04
 4.08500E-02    9.08420E+03    6.84414E+03    1.13243E+04
 6.73400E-02    9.50192E+03    7.15885E+03    1.18450E+04
 1.11000E-01    9.78145E+03    7.36946E+03    1.21934E+04
 1.83000E-01    9.84593E+03    7.41804E+03    1.22738E+04
 3.02000E-01    9.27563E+03    7.30932E+03    1.12420E+04
 5.00000E-01    8.10414E+03    6.38616E+03    9.82212E+03
 8.21000E-01    6.54155E+03    5.26838E+03    7.81472E+03
 1.35300E+00    4.22261E+03    3.32968E+03    5.11554E+03
 2.23100E+00    2.34891E+03    1.89120E+03    2.80662E+03
 3.67900E+00    1.79286E+03    1.56580E+03    2.01993E+03
 6.06500E+00    2.15242E+03    1.84034E+03    2.46450E+03
