# n + Gd152 : (n,t)     
# jendl.ad   N.Iwamoto                         EVAL-Apr14
# uncertainties: n
# # energies =    56
#   E(MeV)       xs(mb) 
 6.84054E+00    0.00000E+00
 6.88292E+00    1.73420E-26
 6.88382E+00    1.78560E-26
 6.91100E+00    3.33690E-26
 6.96033E+00    6.15230E-26
 7.02274E+00    9.71430E-26
 7.03180E+00    1.02310E-25
 7.03683E+00    1.05190E-25
 7.07911E+00    1.29320E-25
 7.09019E+00    1.35640E-25
 7.11132E+00    1.47700E-25
 7.16367E+00    1.77580E-25
 7.18582E+00    1.90220E-25
 7.20293E+00    1.99990E-25
 7.25024E+00    2.26990E-25
 7.25427E+00    2.29290E-25
 7.26031E+00    2.32730E-25
 7.26433E+00    2.35030E-25
 7.27138E+00    2.39050E-25
 7.30158E+00    2.56290E-25
 7.30863E+00    2.60310E-25
 7.33178E+00    2.73530E-25
 7.33983E+00    2.78120E-25
 7.35493E+00    2.86740E-25
 7.37607E+00    2.98800E-25
 7.40627E+00    3.16040E-25
 7.43325E+00    3.31440E-25
 7.43848E+00    3.34420E-25
 7.44251E+00    3.36720E-25
 7.44553E+00    3.38450E-25
 7.44654E+00    3.39020E-25
 8.00000E+00    6.54910E-25
 8.50000E+00    2.69580E-18
 9.00000E+00    2.82940E-14
 9.50000E+00    7.44180E-12
 1.00000E+01    7.75320E-10
 1.05000E+01    2.80800E-08
 1.10000E+01    4.80120E-07
 1.15000E+01    4.74756E-06
 1.20000E+01    3.12762E-05
 1.25000E+01    1.51490E-04
 1.30000E+01    5.77758E-04
 1.35000E+01    1.81945E-03
 1.40000E+01    4.88328E-03
 1.45000E+01    1.13072E-02
 1.50000E+01    2.33697E-02
 1.55000E+01    4.41900E-02
 1.60000E+01    7.42692E-02
 1.65000E+01    1.14103E-01
 1.70000E+01    1.68034E-01
 1.75000E+01    2.31904E-01
 1.80000E+01    3.07171E-01
 1.85000E+01    3.90245E-01
 1.90000E+01    4.85000E-01
 1.95000E+01    5.84601E-01
 2.00000E+01    6.89952E-01
