# n + Gd152 : (n,p)     
# jendl.ad   N.Iwamoto                         EVAL-Apr14
# uncertainties: n
# # energies =    79
#   E(MeV)       xs(mb) 
 1.04425E+00    0.00000E+00
 1.09015E+00    1.83980E-14
 1.10998E+00    3.04990E-14
 1.12202E+00    3.78470E-14
 1.12300E+00    3.84450E-14
 1.13446E+00    4.54380E-14
 1.13470E+00    4.55840E-14
 1.15308E+00    5.68010E-14
 1.15406E+00    5.73990E-14
 1.15644E+00    5.88510E-14
 1.15898E+00    6.04010E-14
 1.16320E+00    6.29760E-14
 1.16589E+00    6.46180E-14
 1.16961E+00    6.68880E-14
 1.18702E+00    7.75120E-14
 1.19131E+00    8.01300E-14
 1.19309E+00    8.12160E-14
 1.19397E+00    8.17530E-14
 1.19400E+00    8.17710E-14
 1.19594E+00    8.29550E-14
 1.20335E+00    8.74770E-14
 1.20620E+00    8.92160E-14
 1.22035E+00    9.78520E-14
 1.22312E+00    9.95420E-14
 1.22437E+00    1.00310E-13
 1.22608E+00    1.01350E-13
 1.23803E+00    1.08640E-13
 1.24247E+00    1.11350E-13
 1.24524E+00    1.13040E-13
 1.24633E+00    1.13710E-13
 1.24672E+00    1.13940E-13
 1.24871E+00    1.15160E-13
 1.24878E+00    1.15200E-13
 1.25727E+00    1.20380E-13
 1.26003E+00    1.22070E-13
 1.26010E+00    1.22110E-13
 1.26517E+00    1.25200E-13
 1.26651E+00    1.26020E-13
 1.26693E+00    1.26280E-13
 1.26717E+00    1.26420E-13
 1.27024E+00    1.28300E-13
 2.25000E+00    7.26200E-13
 2.50000E+00    1.22900E-10
 2.75000E+00    5.58540E-09
 3.00000E+00    1.19640E-07
 3.50000E+00    9.34071E-06
 4.00000E+00    1.74203E-04
 4.50000E+00    1.33702E-03
 5.00000E+00    5.71940E-03
 5.50000E+00    1.63651E-02
 6.00000E+00    3.13316E-02
 6.50000E+00    5.67684E-02
 7.00000E+00    8.97302E-02
 7.50000E+00    1.31602E-01
 8.00000E+00    1.88159E-01
 8.50000E+00    2.70774E-01
 9.00000E+00    3.96881E-01
 9.50000E+00    5.90221E-01
 1.00000E+01    8.79189E-01
 1.05000E+01    1.29499E+00
 1.10000E+01    1.86747E+00
 1.15000E+01    2.62034E+00
 1.20000E+01    3.56693E+00
 1.25000E+01    4.70846E+00
 1.30000E+01    6.03556E+00
 1.35000E+01    7.53064E+00
 1.40000E+01    9.16977E+00
 1.45000E+01    1.09228E+01
 1.50000E+01    1.27632E+01
 1.55000E+01    1.46267E+01
 1.60000E+01    1.64837E+01
 1.65000E+01    1.82407E+01
 1.70000E+01    1.99183E+01
 1.75000E+01    2.14468E+01
 1.80000E+01    2.27444E+01
 1.85000E+01    2.39066E+01
 1.90000E+01    2.49073E+01
 1.95000E+01    2.58644E+01
 2.00000E+01    2.65329E+01
