# n + Gd152 : (n,n')    
# jendl.ad   N.Iwamoto                         EVAL-Apr14
# uncertainties: n
# # energies =   105
#   E(MeV)       xs(mb) 
 1.05000E-01    0.00000E+00
 1.10000E-01    7.62054E-03
 1.20000E-01    8.87984E-03
 1.30000E-01    1.00399E-02
 1.40000E-01    1.11211E-02
 1.50000E-01    1.20979E-02
 1.60000E-01    1.30129E-02
 1.70000E-01    1.38349E-02
 1.80000E-01    1.45907E-02
 1.90000E-01    1.53081E-02
 2.00000E-01    1.59942E-02
 2.25000E-01    7.12104E-02
 2.50000E-01    9.07914E-02
 2.75000E-01    1.08147E-01
 3.00000E-01    1.23206E-01
 3.46565E-01    3.34798E-01
 4.00000E-01    3.39283E+02
 5.00000E-01    5.59941E+02
 6.00000E-01    7.23296E+02
 6.19485E-01    7.49542E+02
 7.00000E-01    1.00121E+03
 7.60411E-01    1.08295E+03
 8.00000E-01    1.12921E+03
 9.00000E-01    1.22897E+03
 9.36723E-01    1.26206E+03
 1.00000E+00    1.42824E+03
 1.05481E+00    1.48852E+03
 1.10000E+00    1.56215E+03
 1.11653E+00    1.57881E+03
 1.13065E+00    1.63067E+03
 1.20000E+00    1.74420E+03
 1.23553E+00    1.78076E+03
 1.29077E+00    1.82861E+03
 1.30000E+00    1.83713E+03
 1.32338E+00    1.85489E+03
 1.32717E+00    1.87055E+03
 1.40000E+00    1.97656E+03
 1.44354E+00    2.00632E+03
 1.47023E+00    2.03411E+03
 1.48024E+00    2.05114E+03
 1.50000E+00    2.06838E+03
 1.56050E+00    2.10446E+03
 1.60000E+00    2.12290E+03
 1.61626E+00    2.12877E+03
 1.65432E+00    2.15375E+03
 1.67914E+00    2.17186E+03
 1.67915E+00    2.17186E+03
 1.70000E+00    2.18038E+03
 1.70365E+00    2.18165E+03
 1.75838E+00    2.20580E+03
 1.76764E+00    2.20858E+03
 1.78333E+00    2.21760E+03
 1.80000E+00    2.22622E+03
 1.81966E+00    2.23233E+03
 1.85183E+00    2.24000E+03
 1.87394E+00    2.25184E+03
 1.87441E+00    2.25214E+03
 1.89278E+00    2.26238E+03
 1.90000E+00    2.26464E+03
 1.92814E+00    2.27143E+03
 1.95405E+00    2.27899E+03
 1.97503E+00    2.28836E+03
 1.98879E+00    2.29240E+03
 2.00000E+00    2.29749E+03
 2.01115E+00    2.30009E+03
 2.01116E+00    2.30009E+03
 2.02499E+00    2.30278E+03
 2.25000E+00    2.33865E+03
 2.50000E+00    2.35569E+03
 2.75000E+00    2.38477E+03
 3.00000E+00    2.40012E+03
 3.50000E+00    2.43196E+03
 4.00000E+00    2.45058E+03
 4.50000E+00    2.45667E+03
 5.00000E+00    2.45863E+03
 5.50000E+00    2.45886E+03
 6.00000E+00    2.45956E+03
 6.50000E+00    2.45848E+03
 7.00000E+00    2.45448E+03
 7.50000E+00    2.44627E+03
 8.00000E+00    2.43443E+03
 8.50000E+00    2.41998E+03
 9.00000E+00    2.35978E+03
 9.50000E+00    2.15667E+03
 1.00000E+01    1.86445E+03
 1.05000E+01    1.56773E+03
 1.10000E+01    1.33208E+03
 1.15000E+01    1.13924E+03
 1.20000E+01    9.91686E+02
 1.25000E+01    8.77932E+02
 1.30000E+01    7.88524E+02
 1.35000E+01    7.16649E+02
 1.40000E+01    6.58121E+02
 1.45000E+01    6.09695E+02
 1.50000E+01    5.69215E+02
 1.55000E+01    5.35461E+02
 1.60000E+01    5.05939E+02
 1.65000E+01    4.80558E+02
 1.70000E+01    4.59592E+02
 1.75000E+01    4.39393E+02
 1.80000E+01    4.22870E+02
 1.85000E+01    4.07852E+02
 1.90000E+01    3.94130E+02
 1.95000E+01    3.81546E+02
 2.00000E+01    3.69343E+02
