# n + S  36 : (n,tot)   
# jendl4.0   H.NAKAMURA                        EVAL-MAY87
# uncertainties: n
# # energies =   171
#   E(MeV)       xs(mb) 
 1.00000E-11    6.59887E+03
 1.00000E-07    2.25676E+03
 4.13990E-07    2.23488E+03
 5.31580E-07    2.23006E+03
 6.82560E-07    2.22566E+03
 8.76420E-07    2.22181E+03
 1.12540E-06    2.21850E+03
 1.44500E-06    2.21636E+03
 1.85540E-06    2.21378E+03
 2.37240E-06    2.21045E+03
 3.05900E-06    2.20770E+03
 3.92790E-06    2.20662E+03
 5.04350E-06    2.20525E+03
 6.47600E-06    2.20350E+03
 8.31530E-06    2.20124E+03
 1.06770E-05    2.19877E+03
 1.37100E-05    2.19809E+03
 1.76030E-05    2.19762E+03
 2.26030E-05    2.19700E+03
 2.92030E-05    2.19622E+03
 3.72670E-05    2.19522E+03
 4.78510E-05    2.19393E+03
 6.14420E-05    2.19228E+03
 7.88930E-05    2.19131E+03
 1.01300E-04    2.19123E+03
 1.30070E-04    2.19114E+03
 1.67020E-04    2.19102E+03
 2.14450E-04    2.19086E+03
 2.75360E-04    2.19067E+03
 3.53580E-04    2.19041E+03
 4.54000E-04    2.19008E+03
 5.82950E-04    2.18966E+03
 7.48520E-04    2.18912E+03
 9.61120E-04    2.18843E+03
 1.23410E-03    2.18754E+03
 1.58460E-03    2.18678E+03
 2.03470E-03    2.18675E+03
 2.24870E-03    2.18675E+03
 2.48520E-03    2.18675E+03
 2.61260E-03    2.18675E+03
 2.74650E-03    2.18675E+03
 3.03540E-03    2.18674E+03
 3.35460E-03    2.18674E+03
 3.70740E-03    2.18674E+03
 4.30740E-03    2.18674E+03
 5.53080E-03    2.18674E+03
 7.10170E-03    2.18673E+03
 9.11880E-03    2.18672E+03
 1.17090E-02    2.18671E+03
 1.50340E-02    2.18670E+03
 1.93050E-02    2.18669E+03
 2.18750E-02    2.18669E+03
 2.35790E-02    2.18668E+03
 2.41760E-02    2.18668E+03
 2.47880E-02    2.18668E+03
 2.60580E-02    2.18667E+03
 2.70000E-02    2.18667E+03
 2.85000E-02    2.18666E+03
 3.18280E-02    2.18665E+03
 3.43070E-02    2.18664E+03
 4.08680E-02    2.18662E+03
 4.63090E-02    2.18660E+03
 5.24750E-02    2.18659E+03
 5.65620E-02    2.18657E+03
 6.73790E-02    2.18654E+03
 7.20000E-02    2.18652E+03
 7.95000E-02    2.18651E+03
 8.25000E-02    2.18650E+03
 8.65170E-02    2.18647E+03
 9.80370E-02    2.18644E+03
 1.11090E-01    2.18641E+03
 1.16790E-01    2.18639E+03
 1.22770E-01    2.18637E+03
 1.29070E-01    2.18635E+03
 1.35690E-01    2.18633E+03
 1.42640E-01    2.18631E+03
 1.49960E-01    2.18629E+03
 1.57640E-01    2.18626E+03
 1.65730E-01    2.18624E+03
 1.74220E-01    2.18621E+03
 1.83160E-01    2.18618E+03
 1.92550E-01    2.18615E+03
 2.02420E-01    2.18612E+03
 2.12800E-01    2.18609E+03
 2.23710E-01    2.18606E+03
 2.35180E-01    2.18602E+03
 2.47240E-01    2.18596E+03
 2.73240E-01    2.18590E+03
 2.87250E-01    2.18587E+03
 2.94520E-01    2.18585E+03
 2.97200E-01    2.18585E+03
 2.98500E-01    2.18584E+03
 3.01970E-01    2.18579E+03
 3.33730E-01    2.18568E+03
 3.68830E-01    2.18560E+03
 3.87740E-01    2.18554E+03
 4.07620E-01    2.18545E+03
 4.50490E-01    2.18531E+03
 4.97870E-01    2.18520E+03
 5.23400E-01    2.18512E+03
 5.50230E-01    2.18504E+03
 5.78440E-01    2.18526E+03
 6.08100E-01    2.19012E+03
 6.39280E-01    2.19680E+03
 6.72060E-01    2.20383E+03
 7.06510E-01    2.21263E+03
 7.42740E-01    2.22525E+03
 7.80820E-01    2.23865E+03
 8.20850E-01    2.25400E+03
 8.62940E-01    2.27264E+03
 9.07180E-01    2.29402E+03
 9.61640E-01    2.31668E+03
 1.00260E+00    2.35569E+03
 1.10800E+00    2.40238E+03
 1.16480E+00    2.43576E+03
 1.22460E+00    2.46978E+03
 1.28730E+00    2.50262E+03
 1.35340E+00    2.53698E+03
 1.42270E+00    2.57309E+03
 1.49570E+00    2.61112E+03
 1.57240E+00    2.65171E+03
 1.65300E+00    2.69459E+03
 1.73770E+00    2.73967E+03
 1.82680E+00    2.78597E+03
 1.92050E+00    2.83036E+03
 2.01900E+00    2.87136E+03
 2.12250E+00    2.90694E+03
 2.23130E+00    2.93788E+03
 2.30690E+00    2.95707E+03
 2.34570E+00    2.96686E+03
 2.36530E+00    2.97347E+03
 2.38520E+00    2.99025E+03
 2.46600E+00    3.02277E+03
 2.59240E+00    3.06039E+03
 2.72530E+00    3.09987E+03
 2.86500E+00    3.14129E+03
 3.01190E+00    3.16823E+03
 3.16640E+00    3.18406E+03
 3.32870E+00    3.20030E+03
 3.67880E+00    3.19664E+03
 4.06570E+00    3.17104E+03
 4.49330E+00    3.13277E+03
 4.72370E+00    3.09996E+03
 4.96590E+00    3.05950E+03
 5.22050E+00    3.01380E+03
 5.48810E+00    2.96328E+03
 5.76950E+00    2.90981E+03
 6.06530E+00    2.85124E+03
 6.37630E+00    2.79987E+03
 6.59240E+00    2.76801E+03
 6.70320E+00    2.72483E+03
 7.04690E+00    2.65947E+03
 7.40820E+00    2.59093E+03
 7.78800E+00    2.52136E+03
 8.18730E+00    2.45130E+03
 8.60710E+00    2.37860E+03
 9.04840E+00    2.30727E+03
 9.51230E+00    2.23372E+03
 1.00000E+01    2.16196E+03
 1.05130E+01    2.09211E+03
 1.10520E+01    2.02680E+03
 1.16180E+01    1.96565E+03
 1.22140E+01    1.91328E+03
 1.28400E+01    1.86804E+03
 1.34990E+01    1.84166E+03
 1.38400E+01    1.82546E+03
 1.41910E+01    1.81378E+03
 1.45500E+01    1.80520E+03
 1.49180E+01    1.79894E+03
 1.56830E+01    1.79799E+03
 1.64870E+01    1.80725E+03
