# n + Mo 98 : (n,n'13)  
# endfb8.0   JNDC FP Nuclear Data W.G.         EVAL-AUG89
# uncertainties: n
# # energies =   122
#   E(MeV)       xs(mb) 
 2.35740E+00    0.00000E+00
 2.35744E+00    3.44488E-03
 2.35808E+00    4.43810E-01
 2.35929E+00    1.26949E+00
 2.36140E+00    2.71442E+00
 2.36457E+00    4.88181E+00
 2.36774E+00    7.04919E+00
 2.36815E+00    7.28095E+00
 2.37216E+00    9.60674E+00
 2.37606E+00    1.18598E+01
 2.37984E+00    1.40425E+01
 2.38350E+00    1.61570E+01
 2.39062E+00    2.02538E+01
 2.39732E+00    2.40946E+01
 2.40361E+00    2.76953E+01
 2.40952E+00    3.10710E+01
 2.41508E+00    3.42357E+01
 2.42553E+00    4.01694E+01
 2.43472E+00    4.53615E+01
 2.44279E+00    4.99046E+01
 2.44987E+00    5.38797E+01
 2.46230E+00    6.08363E+01
 2.47167E+00    6.60537E+01
 2.48580E+00    7.38798E+01
 2.50000E+00    8.17059E+01
 2.52865E+00    8.31794E+01
 2.58326E+00    8.59422E+01
 2.63201E+00    8.83597E+01
 2.67542E+00    9.04750E+01
 2.71399E+00    9.23259E+01
 2.74819E+00    9.39454E+01
 2.80909E+00    9.67795E+01
 2.85565E+00    9.89052E+01
 2.92693E+00    1.02094E+02
 3.00000E+00    1.05282E+02
 3.05443E+00    1.02320E+02
 3.10635E+00    9.95423E+01
 3.15583E+00    9.69386E+01
 3.20293E+00    9.44977E+01
 3.24773E+00    9.22093E+01
 3.29029E+00    9.00639E+01
 3.33071E+00    8.80526E+01
 3.36904E+00    8.61671E+01
 3.40539E+00    8.43993E+01
 3.43981E+00    8.27421E+01
 3.50530E+00    7.96348E+01
 3.56363E+00    7.69158E+01
 3.61546E+00    7.45368E+01
 3.66143E+00    7.24551E+01
 3.70213E+00    7.06336E+01
 3.73811E+00    6.90399E+01
 3.80193E+00    6.62507E+01
 3.85051E+00    6.41589E+01
 3.88735E+00    6.25900E+01
 3.94327E+00    6.02367E+01
 4.00000E+00    5.78834E+01
 4.05618E+00    5.69634E+01
 4.10956E+00    5.61009E+01
 4.21155E+00    5.44836E+01
 4.30287E+00    5.30685E+01
 4.38439E+00    5.18303E+01
 4.45699E+00    5.07469E+01
 4.52151E+00    4.97989E+01
 4.57872E+00    4.89694E+01
 4.68059E+00    4.75178E+01
 4.75848E+00    4.64291E+01
 4.81774E+00    4.56126E+01
 4.90802E+00    4.43878E+01
 5.00000E+00    4.31630E+01
 5.11526E+00    4.27389E+01
 5.32339E+00    4.19967E+01
 5.48503E+00    4.14400E+01
 5.60948E+00    4.10226E+01
 5.80145E+00    4.03963E+01
 6.00000E+00    3.97701E+01
 6.23574E+00    3.93406E+01
 6.41860E+00    3.90186E+01
 6.70300E+00    3.85354E+01
 7.00000E+00    3.80523E+01
 7.48331E+00    3.77335E+01
 8.00000E+00    3.74147E+01
 8.23907E+00    3.68561E+01
 8.42305E+00    3.64371E+01
 8.70675E+00    3.58087E+01
 9.00000E+00    3.51802E+01
 9.24021E+00    3.46446E+01
 9.42457E+00    3.42429E+01
 9.70802E+00    3.36404E+01
 1.00000E+01    3.30378E+01
 1.02411E+01    3.23541E+01
 1.04258E+01    3.18414E+01
 1.07091E+01    3.10722E+01
 1.10000E+01    3.03031E+01
 1.12419E+01    2.96212E+01
 1.14268E+01    2.91098E+01
 1.17099E+01    2.83426E+01
 1.20000E+01    2.75755E+01
 1.22425E+01    2.68939E+01
 1.24277E+01    2.63827E+01
 1.27106E+01    2.56159E+01
 1.30000E+01    2.48491E+01
 1.32431E+01    2.44366E+01
 1.36163E+01    2.38178E+01
 1.40000E+01    2.31990E+01
 1.42436E+01    2.27865E+01
 1.46169E+01    2.21677E+01
 1.50000E+01    2.15490E+01
 1.52440E+01    2.11365E+01
 1.56174E+01    2.05177E+01
 1.60000E+01    1.98990E+01
 1.62443E+01    1.95618E+01
 1.66179E+01    1.90559E+01
 1.70000E+01    1.85500E+01
 1.72447E+01    1.82128E+01
 1.76183E+01    1.77069E+01
 1.80000E+01    1.72010E+01
 1.82450E+01    1.68638E+01
 1.86187E+01    1.63579E+01
 1.90000E+01    1.58520E+01
 1.92452E+01    1.55148E+01
 1.96190E+01    1.50089E+01
 2.00000E+01    1.45030E+01
