# n + Mg 26 : (n,xn)    
# jeff3.3    M.HATCHYA(DEC),T.ASAMI(NEDAC)     EVAL-MAR87
# 
# # energies =   154
#   E(MeV)        xs(mb) 
 1.87892E+00    0.00000E+00
 1.87961E+00    9.76927E-01
 1.88030E+00    1.95384E+00
 1.88214E+00    4.60363E+00
 1.88393E+00    7.17061E+00
 1.88566E+00    9.65737E+00
 1.88902E+00    1.44755E+01
 1.89218E+00    1.89924E+01
 1.89514E+00    2.32271E+01
 1.89792E+00    2.71971E+01
 1.90315E+00    3.46408E+01
 1.90774E+00    4.11540E+01
 1.91176E+00    4.68531E+01
 1.91882E+00    5.68265E+01
 1.92413E+00    6.43065E+01
 1.93212E+00    7.55266E+01
 1.94015E+00    8.67466E+01
 1.94753E+00    9.70290E+01
 1.95401E+00    1.06026E+02
 1.95970E+00    1.13899E+02
 1.96970E+00    1.27676E+02
 1.97723E+00    1.38008E+02
 1.98858E+00    1.53507E+02
 2.00000E+00    1.69006E+02
 2.01478E+00    1.76301E+02
 2.02873E+00    1.83141E+02
 2.04190E+00    1.89553E+02
 2.06682E+00    2.01575E+02
 2.08888E+00    2.12094E+02
 2.10837E+00    2.21299E+02
 2.12557E+00    2.29353E+02
 2.14074E+00    2.36400E+02
 2.16755E+00    2.48733E+02
 2.18787E+00    2.57982E+02
 2.21872E+00    2.71857E+02
 2.25000E+00    2.85731E+02
 2.27983E+00    2.98853E+02
 2.30625E+00    3.10334E+02
 2.32963E+00    3.20380E+02
 2.35027E+00    3.29170E+02
 2.38684E+00    3.44554E+02
 2.41464E+00    3.56091E+02
 2.43570E+00    3.64744E+02
 2.46764E+00    3.77723E+02
 2.50000E+00    3.90703E+02
 2.55763E+00    4.02035E+02
 2.60914E+00    4.11950E+02
 2.65507E+00    4.20626E+02
 2.69592E+00    4.28217E+02
 2.73217E+00    4.34859E+02
 2.79680E+00    4.46483E+02
 2.84627E+00    4.55202E+02
 2.92213E+00    4.68279E+02
 3.00000E+00    4.81356E+02
 3.05247E+00    4.87009E+02
 3.05410E+00    4.87576E+02
 3.10934E+00    5.06974E+02
 3.16557E+00    5.26372E+02
 3.22083E+00    5.45114E+02
 3.27705E+00    5.63855E+02
 3.33142E+00    5.81694E+02
 3.37279E+00    5.95072E+02
 3.43581E+00    6.15141E+02
 3.50000E+00    6.35209E+02
 3.55549E+00    6.44802E+02
 3.64038E+00    6.59190E+02
 3.72729E+00    6.73579E+02
 3.79367E+00    6.86867E+02
 3.89547E+00    7.06799E+02
 4.00000E+00    7.26731E+02
 4.09347E+00    7.38621E+02
 4.18817E+00    7.55530E+02
 4.26063E+00    7.68213E+02
 4.37169E+00    7.87236E+02
 4.48563E+00    8.06259E+02
 4.50000E+00    8.09102E+02
 4.50017E+00    8.09084E+02
 4.51887E+00    8.16602E+02
 4.63463E+00    8.40350E+02
 4.72339E+00    8.58161E+02
 4.79107E+00    8.71520E+02
 4.89442E+00    8.91557E+02
 5.00000E+00    9.11595E+02
 5.02166E+00    9.14139E+02
 5.09022E+00    9.27126E+02
 5.16502E+00    9.38545E+02
 5.32813E+00    9.60088E+02
 5.49640E+00    9.81631E+02
 5.50000E+00    9.82733E+02
 5.68650E+00    1.00376E+03
 5.68651E+00    1.00377E+03
 5.91089E+00    1.02280E+03
 6.00000E+00    1.03154E+03
 6.24500E+00    1.04591E+03
 6.50000E+00    1.06028E+03
 6.74537E+00    1.06757E+03
 7.00000E+00    1.07486E+03
 7.50000E+00    1.08265E+03
 8.00000E+00    1.08551E+03
 8.31057E+00    1.08320E+03
 8.64842E+00    1.09008E+03
 9.00000E+00    1.09695E+03
 1.00000E+01    1.10084E+03
 1.04881E+01    1.09423E+03
 1.10000E+01    1.08763E+03
 1.14891E+01    1.07591E+03
 1.20000E+01    1.06419E+03
 1.21207E+01    1.08498E+03
 1.23348E+01    1.12248E+03
 1.24978E+01    1.15153E+03
 1.26215E+01    1.17385E+03
 1.28094E+01    1.20820E+03
 1.30000E+01    1.24360E+03
 1.31210E+01    1.26948E+03
 1.32278E+01    1.29254E+03
 1.34167E+01    1.33383E+03
 1.35602E+01    1.36560E+03
 1.36689E+01    1.38987E+03
 1.38334E+01    1.42701E+03
 1.40000E+01    1.46505E+03
 1.41213E+01    1.48689E+03
 1.42282E+01    1.50632E+03
 1.43225E+01    1.52358E+03
 1.44889E+01    1.55433E+03
 1.46150E+01    1.57787E+03
 1.47103E+01    1.59579E+03
 1.48545E+01    1.62310E+03
 1.50000E+01    1.65094E+03
 1.51215E+01    1.66471E+03
 1.52286E+01    1.67695E+03
 1.54179E+01    1.69879E+03
 1.55614E+01    1.71552E+03
 1.56699E+01    1.72827E+03
 1.58341E+01    1.74772E+03
 1.60000E+01    1.76756E+03
 1.61217E+01    1.77586E+03
 1.63369E+01    1.79069E+03
 1.65002E+01    1.80208E+03
 1.66238E+01    1.81078E+03
 1.68108E+01    1.82409E+03
 1.70000E+01    1.83769E+03
 1.72447E+01    1.84710E+03
 1.74305E+01    1.85436E+03
 1.75711E+01    1.85992E+03
 1.77843E+01    1.86844E+03
 1.80000E+01    1.87720E+03
 1.82450E+01    1.88103E+03
 1.84309E+01    1.88401E+03
 1.87133E+01    1.88865E+03
 1.90000E+01    1.89350E+03
 1.92452E+01    1.89420E+03
 1.94312E+01    1.89479E+03
 1.97135E+01    1.89575E+03
 2.00000E+01    1.89682E+03
