# n + Pb207 :  n        
# jendl4.0   O.Iwamoto, N.Iwamoto              EVAL-MAR10
# uncertainties: n
# # energies =    60
#   E(MeV)       xs(mb) 
 1.50000E-01    0.00000E+00
 2.00000E-01    4.73653E-05
 3.00000E-01    3.39632E-04
 4.00000E-01    1.18741E-03
 5.00000E-01    3.03066E-03
 5.72479E-01    6.25618E-03
 6.00000E-01    4.72876E-03
 7.00000E-01    6.35252E-03
 8.00000E-01    9.57077E-03
 9.00000E-01    1.43972E-02
 9.02175E-01    1.44183E-02
 1.00000E+00    1.94672E-02
 1.20000E+00    3.73718E-02
 1.40000E+00    6.97674E-02
 1.50000E+00    9.38230E-02
 1.60000E+00    1.24708E-01
 1.64133E+00    1.47215E-01
 1.80000E+00    1.97177E-01
 2.00000E+00    3.09358E-01
 2.35135E+00    6.54539E-01
 2.50000E+00    8.17860E-01
 2.63628E+00    1.04781E+00
 2.67538E+00    1.09512E+00
 2.71517E+00    1.16039E+00
 2.74029E+00    1.19615E+00
 3.00000E+00    4.47942E+01
 3.50000E+00    4.13640E+02
 4.00000E+00    9.51509E+02
 4.50000E+00    1.48479E+03
 5.00000E+00    1.90645E+03
 5.50000E+00    2.17093E+03
 6.00000E+00    2.30711E+03
 6.50000E+00    2.37087E+03
 7.00000E+00    2.38813E+03
 7.50000E+00    2.27909E+03
 8.00000E+00    2.08384E+03
 8.50000E+00    1.82685E+03
 9.00000E+00    1.53409E+03
 9.50000E+00    1.23341E+03
 1.00000E+01    9.58081E+02
 1.05000E+01    7.29753E+02
 1.10000E+01    5.57318E+02
 1.15000E+01    4.35229E+02
 1.20000E+01    3.42828E+02
 1.25000E+01    2.85077E+02
 1.30000E+01    2.44495E+02
 1.35000E+01    2.19353E+02
 1.40000E+01    1.99536E+02
 1.45000E+01    1.86939E+02
 1.50000E+01    1.76987E+02
 1.55000E+01    1.68417E+02
 1.60000E+01    1.60780E+02
 1.65000E+01    1.55561E+02
 1.70000E+01    1.49914E+02
 1.75000E+01    1.42538E+02
 1.80000E+01    1.38168E+02
 1.85000E+01    1.33445E+02
 1.90000E+01    1.28086E+02
 1.95000E+01    1.24798E+02
 2.00000E+01    1.20868E+02
