# n + Pb207 : (n,xp)    
# jendl4.0   O.Iwamoto, N.Iwamoto              EVAL-MAR10
# 
# # energies =    62
#   E(MeV)        xs(mb) 
 1.50000E-01    0.00000E+00
 2.00000E-01    0.00000E+00
 3.00000E-01    0.00000E+00
 4.00000E-01    0.00000E+00
 5.00000E-01    0.00000E+00
 5.72479E-01    0.00000E+00
 6.00000E-01    0.00000E+00
 7.00000E-01    1.01019E-19
 8.00000E-01    2.66599E-19
 9.00000E-01    4.32179E-19
 9.02175E-01    4.35780E-19
 1.00000E+00    5.97759E-19
 1.20000E+00    9.28919E-19
 1.40000E+00    1.26008E-18
 1.50000E+00    1.42566E-18
 1.60000E+00    1.59124E-18
 1.64133E+00    1.65967E-18
 1.80000E+00    1.92240E-18
 2.00000E+00    4.74970E-16
 2.35135E+00    6.14700E-13
 2.50000E+00    6.59240E-12
 2.63628E+00    4.54130E-11
 2.63629E+00    4.54207E-11
 2.67537E+00    7.55903E-11
 2.67538E+00    7.55980E-11
 2.71517E+00    1.24940E-10
 2.74029E+00    1.70310E-10
 3.00000E+00    3.04910E-09
 3.50000E+00    2.20590E-07
 4.00000E+00    4.98511E-06
 4.50000E+00    5.05297E-05
 5.00000E+00    2.87178E-04
 5.50000E+00    1.05794E-03
 6.00000E+00    2.80174E-03
 6.50000E+00    5.75207E-03
 7.00000E+00    9.69018E-03
 7.50000E+00    1.40375E-02
 8.00000E+00    1.83619E-02
 8.50000E+00    2.31562E-02
 9.00000E+00    3.06336E-02
 9.50000E+00    4.53217E-02
 1.00000E+01    7.43422E-02
 1.05000E+01    1.27327E-01
 1.10000E+01    2.16387E-01
 1.15000E+01    3.55247E-01
 1.20000E+01    5.59434E-01
 1.25000E+01    8.46250E-01
 1.30000E+01    1.23312E+00
 1.35000E+01    1.74036E+00
 1.40000E+01    2.38117E+00
 1.45000E+01    3.16903E+00
 1.50000E+01    4.11720E+00
 1.55000E+01    5.22293E+00
 1.60000E+01    6.49722E+00
 1.65000E+01    7.92512E+00
 1.70000E+01    9.51175E+00
 1.75000E+01    1.12446E+01
 1.80000E+01    1.31193E+01
 1.85000E+01    1.51386E+01
 1.90000E+01    1.72901E+01
 1.95000E+01    1.95780E+01
 2.00000E+01    2.20060E+01
