# n + Pb207 : (n,g)     
# jendl4.0   O.Iwamoto, N.Iwamoto              EVAL-MAR10
# uncertainties: n
# # energies =    69
#   E(MeV)       xs(mb) 
 1.00000E-10    4.32804E+03
 5.00000E-09    1.17849E+03
 1.00000E-08    8.92520E+02
 1.50000E-08    7.49877E+02
 2.00000E-08    6.59745E+02
 2.50000E-08    5.96047E+02
 3.00000E-08    5.47902E+02
 3.50000E-08    5.03750E+02
 4.20000E-08    4.60770E+02
 5.00000E-08    4.25008E+02
 5.80000E-08    3.95014E+02
 6.70000E-08    3.64537E+02
 8.00000E-08    3.29879E+02
 1.00000E-07    2.86995E+02
 1.40000E-07    2.47645E+02
 1.80000E-07    2.21134E+02
 2.20000E-07    2.03646E+02
 2.50000E-07    1.91722E+02
 2.80000E-07    1.83162E+02
 3.00000E-07    1.77148E+02
 3.20000E-07    1.70463E+02
 3.50000E-07    1.61230E+02
 4.00000E-07    1.47522E+02
 5.00000E-07    1.31945E+02
 6.25000E-07    1.18064E+02
 7.80000E-07    1.09280E+02
 8.50000E-07    1.05144E+02
 9.10000E-07    1.02257E+02
 9.50000E-07    1.00585E+02
 9.72000E-07    9.94034E+01
 9.96000E-07    9.82112E+01
 1.02000E-06    9.70395E+01
 1.04500E-06    9.58695E+01
 1.07100E-06    9.47166E+01
 1.09700E-06    9.35989E+01
 1.12300E-06    9.25090E+01
 1.15000E-06    8.91969E+01
 1.30000E-06    8.34903E+01
 1.50000E-06    7.41482E+01
 2.10000E-06    6.45806E+01
 2.60000E-06    5.76830E+01
 3.30000E-06    5.17899E+01
 4.00000E-06    3.96865E+01
 9.87700E-06    2.78976E+01
 1.59680E-05    2.15651E+01
 2.77000E-05    1.63625E+01
 4.80520E-05    1.27086E+01
 7.55014E-05    9.58652E+00
 1.48728E-04    6.44310E+00
 3.67262E-04    4.03948E+00
 9.06898E-04    2.79342E+00
 1.42510E-03    2.17164E+00
 2.23945E-03    7.81173E+01
 3.51910E-03    1.25740E+00
 5.53000E-03    9.11942E-01
 9.11800E-03    2.78101E+01
 1.50300E-02    1.10642E+01
 2.47800E-02    1.33700E+01
 4.08500E-02    9.84648E+00
 6.73400E-02    2.62301E+00
 1.11000E-01    6.84788E+00
 1.83000E-01    3.20348E+00
 3.02000E-01    3.68515E+00
 5.00000E-01    2.57129E+00
 8.21000E-01    1.76298E+00
 1.35300E+00    2.21952E+00
 2.23100E+00    3.42500E+00
 3.67900E+00    3.04081E+00
 6.06500E+00    1.75183E+00
