# n + Os187 : (n,n'20)  
# tendl.2019 A.J. Koning and D. Rochman        EVAL-NOV19
# uncertainties: n
# # energies =    80
#   E(MeV)       xs(mb) 
 5.14360E-01    0.00000E+00
 5.39495E-01    4.64889E-01
 5.59905E-01    8.42385E-01
 5.89473E-01    1.38927E+00
 5.99578E-01    1.57616E+00
 6.00000E-01    1.58397E+00
 6.14296E-01    2.07357E+00
 6.21244E-01    2.31152E+00
 6.45363E-01    3.13752E+00
 6.67613E-01    3.89953E+00
 6.73615E-01    4.10508E+00
 6.87791E-01    4.59057E+00
 7.00000E-01    5.00869E+00
 8.00000E-01    9.07926E+00
 9.00000E-01    1.28163E+01
 1.00000E+00    1.55439E+01
 1.20000E+00    1.82752E+01
 1.40000E+00    1.94677E+01
 1.60000E+00    1.99179E+01
 1.80000E+00    1.92956E+01
 2.00000E+00    1.74719E+01
 2.20000E+00    1.47821E+01
 2.40000E+00    1.17914E+01
 2.60000E+00    8.99323E+00
 2.80000E+00    6.64789E+00
 3.00000E+00    4.81883E+00
 3.20000E+00    3.35311E+00
 3.40000E+00    2.38398E+00
 3.60000E+00    1.67149E+00
 3.80000E+00    1.20559E+00
 4.00000E+00    8.72159E-01
 4.20000E+00    6.34831E-01
 4.40000E+00    4.64837E-01
 4.60000E+00    3.42030E-01
 4.80000E+00    2.52996E-01
 5.00000E+00    1.87798E-01
 5.20000E+00    1.40114E-01
 5.40000E+00    1.04814E-01
 5.60000E+00    7.82794E-02
 5.80000E+00    5.87375E-02
 6.00000E+00    4.41666E-02
 6.20000E+00    3.33613E-02
 6.40000E+00    2.52489E-02
 6.60000E+00    1.91545E-02
 6.80000E+00    1.45455E-02
 7.00000E+00    1.10416E-02
 7.20000E+00    8.39744E-03
 7.40000E+00    6.38561E-03
 7.60000E+00    4.86110E-03
 7.80000E+00    3.70618E-03
 8.00000E+00    2.82647E-03
 8.50000E+00    1.44841E-03
 9.00000E+00    7.51054E-04
 9.50000E+00    3.94315E-04
 1.00000E+01    2.09632E-04
 1.05000E+01    1.12881E-04
 1.10000E+01    6.14963E-05
 1.15000E+01    3.39023E-05
 1.20000E+01    1.88735E-05
 1.25000E+01    1.06145E-05
 1.30000E+01    6.02687E-06
 1.35000E+01    3.44889E-06
 1.40000E+01    1.98934E-06
 1.45000E+01    1.15652E-06
 1.50000E+01    6.76680E-07
 1.60000E+01    2.35680E-07
 1.70000E+01    8.42090E-08
 1.80000E+01    3.06910E-08
 1.90000E+01    1.15230E-08
 2.00000E+01    4.44230E-09
 2.10000E+01    1.75770E-09
 2.20000E+01    7.11400E-10
 2.30000E+01    2.94450E-10
 2.40000E+01    1.23380E-10
 2.50000E+01    5.24260E-11
 2.60000E+01    2.26060E-11
 2.70000E+01    9.88800E-12
 2.80000E+01    4.38840E-12
 2.90000E+01    1.97680E-12
 3.00000E+01    9.03480E-13
