# n + Os187 : (n,n'25)  
# tendl.2019 A.J. Koning and D. Rochman        EVAL-NOV19
# uncertainties: n
# # energies =    74
#   E(MeV)       xs(mb) 
 6.14296E-01    0.00000E+00
 6.21244E-01    1.20655E+01
 6.45363E-01    5.39492E+01
 6.67613E-01    9.25875E+01
 6.73615E-01    1.03010E+02
 6.87791E-01    1.27628E+02
 7.00000E-01    1.48829E+02
 8.00000E-01    1.78405E+02
 9.00000E-01    1.89224E+02
 1.00000E+00    1.90485E+02
 1.20000E+00    1.78513E+02
 1.40000E+00    1.56542E+02
 1.60000E+00    1.30230E+02
 1.80000E+00    1.02656E+02
 2.00000E+00    7.66863E+01
 2.20000E+00    5.45747E+01
 2.40000E+00    3.73566E+01
 2.60000E+00    2.49036E+01
 2.80000E+00    1.63549E+01
 3.00000E+00    1.06786E+01
 3.20000E+00    6.86920E+00
 3.40000E+00    4.50347E+00
 3.60000E+00    2.93729E+00
 3.80000E+00    1.94635E+00
 4.00000E+00    1.30872E+00
 4.20000E+00    8.87984E-01
 4.40000E+00    6.08568E-01
 4.60000E+00    4.20893E-01
 4.80000E+00    2.93914E-01
 5.00000E+00    2.06802E-01
 5.20000E+00    1.46898E-01
 5.40000E+00    1.05030E-01
 5.60000E+00    7.52652E-02
 5.80000E+00    5.43966E-02
 6.00000E+00    3.95339E-02
 6.20000E+00    2.89672E-02
 6.40000E+00    2.13280E-02
 6.60000E+00    1.57847E-02
 6.80000E+00    1.17244E-02
 7.00000E+00    8.72277E-03
 7.20000E+00    6.51438E-03
 7.40000E+00    4.87163E-03
 7.60000E+00    3.65185E-03
 7.80000E+00    2.74457E-03
 8.00000E+00    2.06510E-03
 8.50000E+00    1.02606E-03
 9.00000E+00    5.17230E-04
 9.50000E+00    2.64405E-04
 1.00000E+01    1.37015E-04
 1.05000E+01    7.19838E-05
 1.10000E+01    3.83026E-05
 1.15000E+01    2.06482E-05
 1.20000E+01    1.12543E-05
 1.25000E+01    6.20478E-06
 1.30000E+01    3.45799E-06
 1.35000E+01    1.94481E-06
 1.40000E+01    1.10397E-06
 1.45000E+01    6.32490E-07
 1.50000E+01    3.65210E-07
 1.60000E+01    1.24340E-07
 1.70000E+01    4.36050E-08
 1.80000E+01    1.56360E-08
 1.90000E+01    5.78280E-09
 2.00000E+01    2.19730E-09
 2.10000E+01    8.57230E-10
 2.20000E+01    3.42360E-10
 2.30000E+01    1.40020E-10
 2.40000E+01    5.80640E-11
 2.50000E+01    2.44580E-11
 2.60000E+01    1.04680E-11
 2.70000E+01    4.54880E-12
 2.80000E+01    2.00640E-12
 2.90000E+01    8.98430E-13
 3.00000E+01    4.08230E-13
