# n + Os184 : (n,tot)   
# jendl.ad   N.Iwamoto                         EVAL-Apr14
# uncertainties: n
# # energies =   171
#   E(MeV)       xs(mb) 
 1.00000E-11    3.24546E+07
 1.00000E-07    1.08077E+06
 4.13990E-07    6.97553E+05
 5.31580E-07    6.15717E+05
 6.82560E-07    5.43350E+05
 8.76420E-07    4.79428E+05
 1.12540E-06    4.23173E+05
 1.44500E-06    3.73408E+05
 1.85540E-06    3.29892E+05
 2.37240E-06    2.91098E+05
 3.05900E-06    2.56667E+05
 3.92790E-06    2.26507E+05
 5.04350E-06    1.99858E+05
 6.47600E-06    1.76359E+05
 8.31530E-06    1.78878E+05
 1.06770E-05    2.11239E+05
 1.37100E-05    1.75359E+05
 1.76030E-05    1.45585E+05
 2.26030E-05    1.20593E+05
 2.92030E-05    1.00096E+05
 3.72670E-05    8.31036E+04
 4.78510E-05    6.83700E+04
 6.14420E-05    5.62050E+04
 7.88930E-05    4.60541E+04
 1.01300E-04    3.75880E+04
 1.30070E-04    3.05773E+04
 1.67020E-04    2.48846E+04
 2.14450E-04    2.02466E+04
 2.75360E-04    1.64704E+04
 3.53580E-04    1.33975E+04
 4.54000E-04    1.08534E+04
 5.82950E-04    8.79007E+03
 7.48520E-04    7.11329E+03
 9.61120E-04    5.77420E+03
 1.23410E-03    4.71646E+03
 1.58460E-03    3.85249E+03
 2.03470E-03    3.33931E+03
 2.24870E-03    3.07991E+03
 2.48520E-03    2.89863E+03
 2.61260E-03    2.78299E+03
 2.74650E-03    2.61924E+03
 3.03540E-03    2.41702E+03
 3.35460E-03    2.22844E+03
 3.70740E-03    2.01888E+03
 4.30740E-03    1.75651E+03
 5.53080E-03    1.47860E+03
 7.10170E-03    1.25970E+03
 9.11880E-03    1.08979E+03
 1.17090E-02    9.62927E+02
 1.50340E-02    8.52020E+02
 1.93050E-02    7.79422E+02
 2.18750E-02    7.48069E+02
 2.35790E-02    7.32988E+02
 2.41760E-02    7.25950E+02
 2.47880E-02    7.15387E+02
 2.60580E-02    7.03275E+02
 2.70000E-02    6.90381E+02
 2.85000E-02    6.68115E+02
 3.18280E-02    6.45934E+02
 3.43070E-02    6.18000E+02
 4.08680E-02    5.87840E+02
 4.63090E-02    5.65718E+02
 5.24750E-02    5.50019E+02
 5.65620E-02    5.32785E+02
 6.73790E-02    5.18240E+02
 7.20000E-02    5.10134E+02
 7.95000E-02    5.03871E+02
 8.25000E-02    5.01086E+02
 8.65170E-02    4.95480E+02
 9.80370E-02    4.88472E+02
 1.11090E-01    4.84549E+02
 1.16790E-01    4.77717E+02
 1.22770E-01    4.24010E+02
 1.29070E-01    3.79288E+02
 1.35690E-01    3.62549E+02
 1.42640E-01    3.48336E+02
 1.49960E-01    3.35019E+02
 1.57640E-01    3.22700E+02
 1.65730E-01    3.11938E+02
 1.74220E-01    3.02111E+02
 1.83160E-01    2.93676E+02
 1.92550E-01    2.85684E+02
 2.02420E-01    2.78367E+02
 2.12800E-01    2.71433E+02
 2.23710E-01    2.65173E+02
 2.35180E-01    4.99621E+02
 2.47240E-01    1.05582E+03
 2.73240E-01    1.13908E+03
 2.87250E-01    1.17632E+03
 2.94520E-01    1.19369E+03
 2.97200E-01    1.20063E+03
 2.98500E-01    1.20872E+03
 3.01970E-01    1.26309E+03
 3.33730E-01    1.36768E+03
 3.68830E-01    1.45314E+03
 3.87740E-01    1.50858E+03
 4.07620E-01    1.58474E+03
 4.50490E-01    1.69352E+03
 4.97870E-01    1.77655E+03
 5.23400E-01    1.82592E+03
 5.50230E-01    1.87776E+03
 5.78440E-01    1.93177E+03
 6.08100E-01    1.97875E+03
 6.39280E-01    2.02432E+03
 6.72060E-01    2.07200E+03
 7.06510E-01    2.11379E+03
 7.42740E-01    2.15340E+03
 7.80820E-01    2.18849E+03
 8.20850E-01    2.21808E+03
 8.62940E-01    2.24877E+03
 9.07180E-01    2.28344E+03
 9.61640E-01    2.35262E+03
 1.00260E+00    2.44939E+03
 1.10800E+00    2.55428E+03
 1.16480E+00    2.60128E+03
 1.22460E+00    2.64202E+03
 1.28730E+00    2.67373E+03
 1.35340E+00    2.70111E+03
 1.42270E+00    2.73046E+03
 1.49570E+00    2.76759E+03
 1.57240E+00    2.79825E+03
 1.65300E+00    2.83614E+03
 1.73770E+00    2.87047E+03
 1.82680E+00    2.89343E+03
 1.92050E+00    2.91367E+03
 2.01900E+00    2.93070E+03
 2.12250E+00    2.94754E+03
 2.23130E+00    2.96034E+03
 2.30690E+00    2.96358E+03
 2.34570E+00    2.96509E+03
 2.36530E+00    2.96613E+03
 2.38520E+00    2.96892E+03
 2.46600E+00    2.97374E+03
 2.59240E+00    2.97823E+03
 2.72530E+00    2.98158E+03
 2.86500E+00    2.98098E+03
 3.01190E+00    2.97787E+03
 3.16640E+00    2.97349E+03
 3.32870E+00    2.96803E+03
 3.67880E+00    2.95577E+03
 4.06570E+00    2.93913E+03
 4.49330E+00    2.92365E+03
 4.72370E+00    2.91076E+03
 4.96590E+00    2.89622E+03
 5.22050E+00    2.87814E+03
 5.48810E+00    2.85868E+03
 5.76950E+00    2.83732E+03
 6.06530E+00    2.81417E+03
 6.37630E+00    2.79418E+03
 6.59240E+00    2.78252E+03
 6.70320E+00    2.76704E+03
 7.04690E+00    2.74539E+03
 7.40820E+00    2.72581E+03
 7.78800E+00    2.70958E+03
 8.18730E+00    2.69591E+03
 8.60710E+00    2.67941E+03
 9.04840E+00    2.65466E+03
 9.51230E+00    2.59690E+03
 1.00000E+01    2.52719E+03
 1.05130E+01    2.46659E+03
 1.10520E+01    2.41925E+03
 1.16180E+01    2.38199E+03
 1.22140E+01    2.35163E+03
 1.28400E+01    2.32627E+03
 1.34990E+01    2.30997E+03
 1.38400E+01    2.30033E+03
 1.41910E+01    2.29152E+03
 1.45500E+01    2.28345E+03
 1.49180E+01    2.27245E+03
 1.56830E+01    2.25864E+03
 1.64870E+01    2.24887E+03
