# n + Er166 : (n,n'18)  
# jeff3.3    A.J. Koning and D. Rochman        EVAL-DEC15
# uncertainties: n
# # energies =    74
#   E(MeV)       xs(mb) 
 1.60594E+00    0.00000E+00
 1.67254E+00    1.01582E+01
 1.67593E+00    1.06753E+01
 1.68387E+00    1.18863E+01
 1.68897E+00    1.26642E+01
 1.70258E+00    1.47401E+01
 1.71340E+00    1.63904E+01
 1.72382E+00    1.79797E+01
 1.73217E+00    1.92533E+01
 1.76201E+00    2.38047E+01
 1.77160E+00    2.52674E+01
 1.79784E+00    2.92697E+01
 1.80000E+00    2.95991E+01
 1.82422E+00    3.07305E+01
 2.00000E+00    3.89422E+01
 2.20000E+00    3.91146E+01
 2.40000E+00    3.36532E+01
 2.60000E+00    2.63830E+01
 2.80000E+00    1.96109E+01
 3.00000E+00    1.41313E+01
 3.20000E+00    1.02958E+01
 3.40000E+00    7.21401E+00
 3.60000E+00    5.03798E+00
 3.80000E+00    3.52016E+00
 4.00000E+00    2.46787E+00
 4.20000E+00    1.73780E+00
 4.40000E+00    1.22892E+00
 4.60000E+00    8.89100E-01
 4.80000E+00    6.36185E-01
 5.00000E+00    4.53817E-01
 5.20000E+00    3.25044E-01
 5.40000E+00    2.33587E-01
 5.60000E+00    1.68449E-01
 5.80000E+00    1.21268E-01
 6.00000E+00    8.78383E-02
 6.20000E+00    6.37827E-02
 6.40000E+00    4.65041E-02
 6.60000E+00    3.39969E-02
 6.80000E+00    2.50161E-02
 7.00000E+00    1.84666E-02
 7.20000E+00    1.36834E-02
 7.40000E+00    1.01862E-02
 7.60000E+00    7.59784E-03
 7.80000E+00    5.69772E-03
 8.00000E+00    4.28372E-03
 8.50000E+00    2.12887E-03
 9.00000E+00    1.07690E-03
 9.50000E+00    5.52331E-04
 1.00000E+01    2.86880E-04
 1.05000E+01    1.50902E-04
 1.10000E+01    8.03866E-05
 1.15000E+01    4.33613E-05
 1.20000E+01    2.36791E-05
 1.25000E+01    1.30780E-05
 1.30000E+01    7.30390E-06
 1.35000E+01    4.12027E-06
 1.40000E+01    2.34816E-06
 1.45000E+01    1.35061E-06
 1.50000E+01    7.83290E-07
 1.60000E+01    2.70480E-07
 1.70000E+01    9.61850E-08
 1.80000E+01    3.50230E-08
 1.90000E+01    1.31370E-08
 2.00000E+01    5.06360E-09
 2.10000E+01    1.99930E-09
 2.20000E+01    8.05180E-10
 2.30000E+01    3.31600E-10
 2.40000E+01    1.39600E-10
 2.50000E+01    5.97430E-11
 2.60000E+01    2.59820E-11
 2.70000E+01    1.14600E-11
 2.80000E+01    5.11310E-12
 2.90000E+01    2.32090E-12
 3.00000E+01    1.06970E-12
