# n + Er166 : (n,xa)    
# jeff3.3    A.J. Koning and D. Rochman        EVAL-DEC15
# 
# # energies =   134
#   E(MeV)        xs(mb) 
 8.10678E-02    7.61157E-06
 1.00000E-01    6.57914E-06
 2.00000E-01    5.59745E-06
 2.66601E-01    6.23713E-06
 3.00000E-01    6.55792E-06
 4.00000E-01    8.12692E-06
 5.00000E-01    1.11082E-05
 5.48770E-01    1.31128E-05
 6.00000E-01    1.52185E-05
 7.00000E-01    2.05589E-05
 7.90682E-01    2.61433E-05
 8.00000E-01    2.67171E-05
 8.64613E-01    2.99813E-05
 9.00000E-01    3.17690E-05
 9.16747E-01    3.33398E-05
 9.62045E-01    3.75884E-05
 1.00000E+00    4.11483E-05
 1.08181E+00    5.32198E-05
 1.20000E+00    7.06593E-05
 1.22336E+00    7.65909E-05
 1.35773E+00    1.10711E-04
 1.38440E+00    1.17483E-04
 1.40000E+00    1.21444E-04
 1.46702E+00    1.44843E-04
 1.46891E+00    1.45503E-04
 1.52295E+00    1.64370E-04
 1.53769E+00    1.69516E-04
 1.56519E+00    1.79117E-04
 1.58174E+00    1.84895E-04
 1.60000E+00    1.91270E-04
 1.60594E+00    1.93662E-04
 1.67254E+00    2.20483E-04
 1.67593E+00    2.21848E-04
 1.68387E+00    2.25046E-04
 1.68897E+00    2.27100E-04
 1.70258E+00    2.32581E-04
 1.71340E+00    2.36938E-04
 1.72382E+00    2.41134E-04
 1.73217E+00    2.44497E-04
 1.76201E+00    2.56514E-04
 1.77160E+00    2.60376E-04
 1.79784E+00    2.70943E-04
 1.80000E+00    2.71813E-04
 1.82422E+00    2.84132E-04
 2.00000E+00    3.73535E-04
 2.20000E+00    4.90331E-04
 2.40000E+00    6.08113E-04
 2.60000E+00    7.37565E-04
 2.80000E+00    8.67054E-04
 3.00000E+00    9.96575E-04
 3.20000E+00    1.16668E-03
 3.40000E+00    1.31383E-03
 3.60000E+00    1.47818E-03
 3.80000E+00    1.65312E-03
 4.00000E+00    1.83888E-03
 4.20000E+00    2.04966E-03
 4.40000E+00    2.28535E-03
 4.60000E+00    2.54268E-03
 4.80000E+00    2.82306E-03
 5.00000E+00    3.14919E-03
 5.20000E+00    3.50551E-03
 5.40000E+00    3.92820E-03
 5.60000E+00    4.38908E-03
 5.80000E+00    4.85302E-03
 6.00000E+00    5.46652E-03
 6.20000E+00    6.12424E-03
 6.40000E+00    6.98600E-03
 6.60000E+00    7.85108E-03
 6.80000E+00    8.80730E-03
 7.00000E+00    1.01354E-02
 7.20000E+00    1.16356E-02
 7.40000E+00    1.36826E-02
 7.60000E+00    1.56715E-02
 7.80000E+00    1.77974E-02
 8.00000E+00    2.10465E-02
 8.50000E+00    3.15385E-02
 9.00000E+00    4.76081E-02
 9.50000E+00    7.08402E-02
 1.00000E+01    1.07453E-01
 1.05000E+01    1.62537E-01
 1.10000E+01    2.45617E-01
 1.15000E+01    3.58921E-01
 1.20000E+01    5.11875E-01
 1.25000E+01    7.11819E-01
 1.30000E+01    9.57489E-01
 1.35000E+01    1.26942E+00
 1.40000E+01    1.68311E+00
 1.45000E+01    2.09733E+00
 1.50000E+01    2.63150E+00
 1.60000E+01    3.89578E+00
 1.70000E+01    5.65797E+00
 1.80000E+01    7.96849E+00
 1.90000E+01    1.12274E+01
 2.00000E+01    1.56135E+01
 2.10000E+01    1.95905E+01
 2.20000E+01    2.25026E+01
 2.30000E+01    2.41668E+01
 2.40000E+01    2.31223E+01
 2.50000E+01    2.28702E+01
 2.60000E+01    2.28539E+01
 2.70000E+01    2.30335E+01
 2.80000E+01    2.33476E+01
 2.90000E+01    2.37376E+01
 3.00000E+01    2.41721E+01
 3.00000E+01    2.40915E+01
 3.20000E+01    2.49894E+01
 3.40000E+01    2.54274E+01
 3.60000E+01    2.62556E+01
 3.80000E+01    2.69656E+01
 4.00000E+01    2.75657E+01
 4.20000E+01    2.80911E+01
 4.40000E+01    2.85532E+01
 4.60000E+01    2.89693E+01
 4.80000E+01    2.93715E+01
 5.00000E+01    2.97676E+01
 5.20000E+01    3.01580E+01
 5.40000E+01    3.05505E+01
 5.60000E+01    3.09631E+01
 5.80000E+01    3.14135E+01
 6.00000E+01    3.18981E+01
 6.50000E+01    3.33173E+01
 7.00000E+01    3.49859E+01
 7.50000E+01    3.71373E+01
 8.00000E+01    3.96207E+01
 9.00000E+01    4.59566E+01
 1.00000E+02    5.42826E+01
 1.10000E+02    6.43772E+01
 1.20000E+02    7.44229E+01
 1.30000E+02    7.85280E+01
 1.40000E+02    8.95544E+01
 1.50000E+02    9.94022E+01
 1.60000E+02    1.08748E+02
 1.80000E+02    1.71686E+02
 2.00000E+02    3.73482E+02
