# n + Pd110 : (n,xa)    
# jendl4.0   N.Iwamoto,K.Shibata               EVAL-Dec09
# 
# # energies =   112
#   E(MeV)        xs(mb) 
 1.05000E-01    0.00000E+00
 1.10000E-01    0.00000E+00
 1.20000E-01    0.00000E+00
 1.30000E-01    0.00000E+00
 1.40000E-01    0.00000E+00
 1.50000E-01    0.00000E+00
 1.60000E-01    0.00000E+00
 1.70000E-01    0.00000E+00
 1.80000E-01    0.00000E+00
 1.90000E-01    0.00000E+00
 2.00000E-01    0.00000E+00
 2.25000E-01    0.00000E+00
 2.50000E-01    0.00000E+00
 2.75000E-01    0.00000E+00
 3.00000E-01    0.00000E+00
 3.77231E-01    0.00000E+00
 4.00000E-01    0.00000E+00
 5.00000E-01    0.00000E+00
 6.00000E-01    0.00000E+00
 7.00000E-01    0.00000E+00
 8.00000E-01    2.11710E-22
 8.21077E-01    3.70950E-22
 9.00000E-01    2.49680E-21
 9.29220E-01    4.97770E-21
 9.55419E-01    8.93240E-21
 1.00000E+00    2.34430E-20
 1.10000E+00    1.97340E-19
 1.18140E+00    1.03350E-18
 1.20000E+00    1.47700E-18
 1.22336E+00    2.31240E-18
 1.22337E+00    2.31270E-18
 1.22556E+00    2.37810E-18
 1.22557E+00    2.37888E-18
 1.30000E+00    8.14070E-18
 1.40000E+00    4.44480E-17
 1.41107E+00    5.34550E-17
 1.48356E+00    1.73590E-16
 1.50000E+00    2.20760E-16
 1.58849E+00    8.35000E-16
 1.59854E+00    9.68850E-16
 1.60000E+00    9.88270E-16
 1.65606E+00    2.21830E-15
 1.70000E+00    4.09910E-15
 1.73484E+00    6.63820E-15
 1.80000E+00    1.59590E-14
 1.87505E+00    4.26040E-14
 1.88111E+00    4.57810E-14
 1.90000E+00    5.72890E-14
 1.90701E+00    6.23730E-14
 1.91762E+00    7.04280E-14
 1.95222E+00    1.04520E-13
 1.97395E+00    1.34050E-13
 2.00000E+00    1.80210E-13
 2.00624E+00    1.93310E-13
 2.00625E+00    1.93335E-13
 2.03349E+00    2.62070E-13
 2.05637E+00    3.37590E-13
 2.07992E+00    4.34490E-13
 2.10817E+00    5.87650E-13
 2.11423E+00    6.26520E-13
 2.14480E+00    8.62220E-13
 2.14481E+00    8.62315E-13
 2.15964E+00    1.00320E-12
 2.16136E+00    1.01930E-12
 2.21313E+00    1.69990E-12
 2.21414E+00    1.71640E-12
 2.25000E+00    2.42610E-12
 2.27973E+00    3.22710E-12
 2.29699E+00    3.80110E-12
 2.31435E+00    4.47540E-12
 2.31606E+00    4.54820E-12
 2.31707E+00    4.59110E-12
 2.34337E+00    5.86970E-12
 2.35340E+00    6.44400E-12
 2.39145E+00    9.18340E-12
 2.50000E+00    2.46030E-11
 2.75000E+00    2.03060E-10
 3.00000E+00    1.24170E-09
 3.50000E+00    2.83090E-08
 4.00000E+00    3.29020E-07
 4.50000E+00    2.41057E-06
 5.00000E+00    1.24578E-05
 5.50000E+00    4.93154E-05
 6.00000E+00    1.55642E-04
 6.50000E+00    3.93719E-04
 7.00000E+00    8.83185E-04
 7.50000E+00    1.80210E-03
 8.00000E+00    3.40712E-03
 8.50000E+00    6.09747E-03
 9.00000E+00    1.05585E-02
 9.50000E+00    1.73118E-02
 1.00000E+01    2.67733E-02
 1.05000E+01    4.44018E-02
 1.10000E+01    7.49304E-02
 1.15000E+01    1.26933E-01
 1.20000E+01    2.12701E-01
 1.25000E+01    3.48060E-01
 1.30000E+01    5.51453E-01
 1.35000E+01    8.41368E-01
 1.40000E+01    1.22779E+00
 1.45000E+01    1.73896E+00
 1.50000E+01    2.37864E+00
 1.55000E+01    3.15319E+00
 1.60000E+01    4.01808E+00
 1.65000E+01    4.98858E+00
 1.70000E+01    6.07883E+00
 1.75000E+01    7.26466E+00
 1.80000E+01    8.56121E+00
 1.85000E+01    9.95483E+00
 1.90000E+01    1.14433E+01
 1.95000E+01    1.30248E+01
 2.00000E+01    1.47072E+01
