# n + Pd110 : (n,n'11)  
# jendl4.0   N.Iwamoto,K.Shibata               EVAL-Dec09
# uncertainties: n
# # energies =    71
#   E(MeV)       xs(mb) 
 1.59854E+00    0.00000E+00
 1.60000E+00    2.52353E+00
 1.65606E+00    2.68068E+01
 1.70000E+00    4.11082E+01
 1.73484E+00    4.99240E+01
 1.80000E+00    6.17297E+01
 1.87505E+00    6.91404E+01
 1.88111E+00    6.95816E+01
 1.90000E+00    7.05411E+01
 1.90701E+00    7.06568E+01
 1.91762E+00    7.06561E+01
 1.95222E+00    6.97313E+01
 1.97395E+00    6.89966E+01
 2.00000E+00    6.81430E+01
 2.00624E+00    6.78548E+01
 2.03349E+00    6.67744E+01
 2.05637E+00    6.59919E+01
 2.07992E+00    6.51211E+01
 2.10817E+00    6.42922E+01
 2.11423E+00    6.41019E+01
 2.14480E+00    6.27829E+01
 2.15964E+00    6.18983E+01
 2.16136E+00    6.17824E+01
 2.21313E+00    5.87506E+01
 2.21414E+00    5.86679E+01
 2.25000E+00    5.64784E+01
 2.27973E+00    5.48808E+01
 2.29699E+00    5.38903E+01
 2.31435E+00    5.29296E+01
 2.31606E+00    5.28390E+01
 2.31707E+00    5.27858E+01
 2.34337E+00    5.14640E+01
 2.35340E+00    5.10030E+01
 2.39145E+00    4.94450E+01
 2.50000E+00    4.48300E+01
 2.75000E+00    3.54738E+01
 3.00000E+00    2.62620E+01
 3.50000E+00    1.50456E+01
 4.00000E+00    8.09172E+00
 4.50000E+00    4.44722E+00
 5.00000E+00    2.57578E+00
 5.50000E+00    1.60226E+00
 6.00000E+00    1.06798E+00
 6.50000E+00    7.57137E-01
 7.00000E+00    5.81641E-01
 7.50000E+00    4.76783E-01
 8.00000E+00    4.09555E-01
 8.50000E+00    3.63430E-01
 9.00000E+00    3.29700E-01
 9.50000E+00    3.03245E-01
 1.00000E+01    2.81675E-01
 1.05000E+01    2.63456E-01
 1.10000E+01    2.47352E-01
 1.15000E+01    2.33011E-01
 1.20000E+01    2.19979E-01
 1.25000E+01    2.08057E-01
 1.30000E+01    1.97120E-01
 1.35000E+01    1.86897E-01
 1.40000E+01    1.77567E-01
 1.45000E+01    1.68695E-01
 1.50000E+01    1.60533E-01
 1.55000E+01    1.52576E-01
 1.60000E+01    1.45579E-01
 1.65000E+01    1.38589E-01
 1.70000E+01    1.31935E-01
 1.75000E+01    1.25866E-01
 1.80000E+01    1.20340E-01
 1.85000E+01    1.14864E-01
 1.90000E+01    1.09704E-01
 1.95000E+01    1.04897E-01
 2.00000E+01    1.00561E-01
