# n + Pd110 : (n,tot)   
# jendl4.0   N.Iwamoto,K.Shibata               EVAL-Dec09
# uncertainties: n
# # energies =   171
#   E(MeV)       xs(mb) 
 1.00000E-11    1.09823E+04
 1.00000E-07    5.07824E+03
 4.13990E-07    5.04626E+03
 5.31580E-07    5.03917E+03
 6.82560E-07    5.03280E+03
 8.76420E-07    5.02713E+03
 1.12540E-06    5.02273E+03
 1.44500E-06    5.01985E+03
 1.85540E-06    5.01620E+03
 2.37240E-06    5.01147E+03
 3.05900E-06    5.00913E+03
 3.92790E-06    5.10275E+03
 5.04350E-06    6.35504E+03
 6.47600E-06    4.99671E+03
 8.31530E-06    4.98797E+03
 1.06770E-05    4.97960E+03
 1.37100E-05    4.97646E+03
 1.76030E-05    4.97294E+03
 2.26030E-05    4.96834E+03
 2.92030E-05    4.96251E+03
 3.72670E-05    4.95517E+03
 4.78510E-05    4.94939E+03
 6.14420E-05    4.95498E+03
 7.88930E-05    5.98923E+03
 1.01300E-04    4.93375E+03
 1.30070E-04    4.92916E+03
 1.67020E-04    5.07635E+03
 2.14450E-04    6.20570E+03
 2.75360E-04    4.93285E+03
 3.53580E-04    4.89171E+03
 4.54000E-04    5.13168E+03
 5.82950E-04    4.83770E+03
 7.48520E-04    9.52067E+03
 9.61120E-04    6.22648E+03
 1.23410E-03    4.78226E+03
 1.58460E-03    1.11821E+04
 2.03470E-03    5.55615E+03
 2.24870E-03    4.74410E+03
 2.48520E-03    7.89795E+03
 2.61260E-03    1.57971E+04
 2.74650E-03    5.18798E+03
 3.03540E-03    6.87068E+03
 3.35460E-03    5.96536E+03
 3.70740E-03    1.17202E+04
 4.30740E-03    1.05583E+04
 5.53080E-03    9.11172E+03
 7.10170E-03    8.36179E+03
 9.11880E-03    8.74082E+03
 1.17090E-02    8.57093E+03
 1.50340E-02    8.41542E+03
 1.93050E-02    8.30958E+03
 2.18750E-02    8.27605E+03
 2.35790E-02    8.26007E+03
 2.41760E-02    8.25239E+03
 2.47880E-02    8.24065E+03
 2.60580E-02    8.22680E+03
 2.70000E-02    8.21288E+03
 2.85000E-02    8.19215E+03
 3.18280E-02    8.19080E+03
 3.43070E-02    8.19520E+03
 4.08680E-02    8.20044E+03
 4.63090E-02    8.20717E+03
 5.24750E-02    8.23013E+03
 5.65620E-02    8.26652E+03
 6.73790E-02    8.30172E+03
 7.20000E-02    8.32525E+03
 7.95000E-02    8.34510E+03
 8.25000E-02    8.35679E+03
 8.65170E-02    8.38142E+03
 9.80370E-02    8.41180E+03
 1.11090E-01    8.42622E+03
 1.16790E-01    8.43447E+03
 1.22770E-01    8.44262E+03
 1.29070E-01    8.44534E+03
 1.35690E-01    8.43830E+03
 1.42640E-01    8.43111E+03
 1.49960E-01    8.42364E+03
 1.57640E-01    8.41595E+03
 1.65730E-01    8.40787E+03
 1.74220E-01    8.39938E+03
 1.83160E-01    8.39044E+03
 1.92550E-01    8.38106E+03
 2.02420E-01    8.36065E+03
 2.12800E-01    8.32669E+03
 2.23710E-01    8.29098E+03
 2.35180E-01    8.25343E+03
 2.47240E-01    8.19342E+03
 2.73240E-01    8.13360E+03
 2.87250E-01    8.10359E+03
 2.94520E-01    8.08958E+03
 2.97200E-01    8.08398E+03
 2.98500E-01    8.07729E+03
 3.01970E-01    8.02081E+03
 3.33730E-01    7.90480E+03
 3.68830E-01    7.81126E+03
 3.87740E-01    7.75563E+03
 4.07620E-01    7.67027E+03
 4.50490E-01    7.55000E+03
 4.97870E-01    7.46616E+03
 5.23400E-01    7.40855E+03
 5.50230E-01    7.34800E+03
 5.78440E-01    7.28627E+03
 6.08100E-01    7.22968E+03
 6.39280E-01    7.17113E+03
 6.72060E-01    7.10958E+03
 7.06510E-01    7.04488E+03
 7.42740E-01    6.97867E+03
 7.80820E-01    6.91676E+03
 8.20850E-01    6.85253E+03
 8.62940E-01    6.78501E+03
 9.07180E-01    6.70793E+03
 9.61640E-01    6.63309E+03
 1.00260E+00    6.52197E+03
 1.10800E+00    6.40633E+03
 1.16480E+00    6.32569E+03
 1.22460E+00    6.24096E+03
 1.28730E+00    6.15188E+03
 1.35340E+00    6.06021E+03
 1.42270E+00    5.97099E+03
 1.49570E+00    5.87781E+03
 1.57240E+00    5.78037E+03
 1.65300E+00    5.67811E+03
 1.73770E+00    5.57720E+03
 1.82680E+00    5.48115E+03
 1.92050E+00    5.38059E+03
 2.01900E+00    5.27739E+03
 2.12250E+00    5.16944E+03
 2.23130E+00    5.07859E+03
 2.30690E+00    5.02847E+03
 2.34570E+00    5.00310E+03
 2.36530E+00    4.98597E+03
 2.38520E+00    4.94246E+03
 2.46600E+00    4.85591E+03
 2.59240E+00    4.76021E+03
 2.72530E+00    4.66227E+03
 2.86500E+00    4.57034E+03
 3.01190E+00    4.49055E+03
 3.16640E+00    4.42473E+03
 3.32870E+00    4.33003E+03
 3.67880E+00    4.25129E+03
 4.06570E+00    4.20769E+03
 4.49330E+00    4.19572E+03
 4.72370E+00    4.19861E+03
 4.96590E+00    4.20166E+03
 5.22050E+00    4.20637E+03
 5.48810E+00    4.21623E+03
 5.76950E+00    4.22696E+03
 6.06530E+00    4.23825E+03
 6.37630E+00    4.24808E+03
 6.59240E+00    4.25555E+03
 6.70320E+00    4.26953E+03
 7.04690E+00    4.29132E+03
 7.40820E+00    4.31423E+03
 7.78800E+00    4.33831E+03
 8.18730E+00    4.36342E+03
 8.60710E+00    4.38929E+03
 9.04840E+00    4.41648E+03
 9.51230E+00    4.44361E+03
 1.00000E+01    4.46225E+03
 1.05130E+01    4.47584E+03
 1.10520E+01    4.48050E+03
 1.16180E+01    4.47788E+03
 1.22140E+01    4.46378E+03
 1.28400E+01    4.44210E+03
 1.34990E+01    4.41804E+03
 1.38400E+01    4.40060E+03
 1.41910E+01    4.37743E+03
 1.45500E+01    4.35357E+03
 1.49180E+01    4.31211E+03
 1.56830E+01    4.24844E+03
 1.64870E+01    4.17510E+03
