# n + Pd110 : (n,el)    
# jendl4.0   N.Iwamoto,K.Shibata               EVAL-Dec09
# uncertainties: n
# # energies =   171
#   E(MeV)       xs(mb) 
 1.00000E-11    8.53846E+03
 1.00000E-07    4.99822E+03
 4.13990E-07    4.99562E+03
 5.31580E-07    4.99516E+03
 6.82560E-07    4.99457E+03
 8.76420E-07    4.99380E+03
 1.12540E-06    4.99282E+03
 1.44500E-06    4.99159E+03
 1.85540E-06    4.99048E+03
 2.37240E-06    4.98920E+03
 3.05900E-06    4.98754E+03
 3.92790E-06    4.98543E+03
 5.04350E-06    4.98372E+03
 6.47600E-06    4.98224E+03
 8.31530E-06    4.98033E+03
 1.06770E-05    4.97786E+03
 1.37100E-05    4.97470E+03
 1.76030E-05    4.97065E+03
 2.26030E-05    4.96536E+03
 2.92030E-05    4.95867E+03
 3.72670E-05    4.95331E+03
 4.78510E-05    4.94910E+03
 6.14420E-05    4.94368E+03
 7.88930E-05    4.94297E+03
 1.01300E-04    4.93112E+03
 1.30070E-04    4.92060E+03
 1.67020E-04    4.90334E+03
 2.14450E-04    4.99051E+03
 2.75360E-04    4.93137E+03
 3.53580E-04    4.88566E+03
 4.54000E-04    4.85303E+03
 5.82950E-04    4.76032E+03
 7.48520E-04    7.87022E+03
 9.61120E-04    5.51493E+03
 1.23410E-03    4.59638E+03
 1.58460E-03    1.05668E+04
 2.03470E-03    5.24041E+03
 2.24870E-03    4.64585E+03
 2.48520E-03    7.01494E+03
 2.61260E-03    1.46342E+04
 2.74650E-03    5.07811E+03
 3.03540E-03    6.36692E+03
 3.35460E-03    5.59780E+03
 3.70740E-03    1.08417E+04
 4.30740E-03    9.95949E+03
 5.53080E-03    8.58213E+03
 7.10170E-03    8.02492E+03
 9.11880E-03    8.41589E+03
 1.17090E-02    8.29104E+03
 1.50340E-02    8.17828E+03
 1.93050E-02    8.10292E+03
 2.18750E-02    8.08327E+03
 2.35790E-02    8.07433E+03
 2.41760E-02    8.06969E+03
 2.47880E-02    8.06252E+03
 2.60580E-02    8.05480E+03
 2.70000E-02    8.04679E+03
 2.85000E-02    8.03626E+03
 3.18280E-02    8.04458E+03
 3.43070E-02    8.06135E+03
 4.08680E-02    8.07971E+03
 4.63090E-02    8.09684E+03
 5.24750E-02    8.12608E+03
 5.65620E-02    8.16884E+03
 6.73790E-02    8.20919E+03
 7.20000E-02    8.23539E+03
 7.95000E-02    8.25743E+03
 8.25000E-02    8.27053E+03
 8.65170E-02    8.29797E+03
 9.80370E-02    8.33181E+03
 1.11090E-01    8.34815E+03
 1.16790E-01    8.35740E+03
 1.22770E-01    8.36643E+03
 1.29070E-01    8.36992E+03
 1.35690E-01    8.36347E+03
 1.42640E-01    8.35682E+03
 1.49960E-01    8.34974E+03
 1.57640E-01    8.34231E+03
 1.65730E-01    8.33451E+03
 1.74220E-01    8.32630E+03
 1.83160E-01    8.31767E+03
 1.92550E-01    8.30860E+03
 2.02420E-01    8.28850E+03
 2.12800E-01    8.25482E+03
 2.23710E-01    8.21941E+03
 2.35180E-01    8.18217E+03
 2.47240E-01    8.12264E+03
 2.73240E-01    8.06304E+03
 2.87250E-01    8.03303E+03
 2.94520E-01    8.01901E+03
 2.97200E-01    8.01342E+03
 2.98500E-01    8.00673E+03
 3.01970E-01    7.95010E+03
 3.33730E-01    7.83365E+03
 3.68830E-01    7.72851E+03
 3.87740E-01    7.59954E+03
 4.07620E-01    7.40479E+03
 4.50490E-01    7.14024E+03
 4.97870E-01    6.94826E+03
 5.23400E-01    6.83896E+03
 5.50230E-01    6.72885E+03
 5.78440E-01    6.62725E+03
 6.08100E-01    6.52668E+03
 6.39280E-01    6.43622E+03
 6.72060E-01    6.34208E+03
 7.06510E-01    6.25011E+03
 7.42740E-01    6.16361E+03
 7.80820E-01    6.07276E+03
 8.20850E-01    5.94175E+03
 8.62940E-01    5.76754E+03
 9.07180E-01    5.59240E+03
 9.61640E-01    5.41098E+03
 1.00260E+00    5.15333E+03
 1.10800E+00    4.91954E+03
 1.16480E+00    4.76580E+03
 1.22460E+00    4.55805E+03
 1.28730E+00    4.33715E+03
 1.35340E+00    4.16192E+03
 1.42270E+00    4.00541E+03
 1.49570E+00    3.84638E+03
 1.57240E+00    3.68854E+03
 1.65300E+00    3.53266E+03
 1.73770E+00    3.38836E+03
 1.82680E+00    3.24697E+03
 1.92050E+00    3.08928E+03
 2.01900E+00    2.94577E+03
 2.12250E+00    2.81035E+03
 2.23130E+00    2.69572E+03
 2.30690E+00    2.63082E+03
 2.34570E+00    2.59791E+03
 2.36530E+00    2.57635E+03
 2.38520E+00    2.52558E+03
 2.46600E+00    2.42989E+03
 2.59240E+00    2.33217E+03
 2.72530E+00    2.23522E+03
 2.86500E+00    2.13518E+03
 3.01190E+00    2.05316E+03
 3.16640E+00    1.98283E+03
 3.32870E+00    1.88882E+03
 3.67880E+00    1.80131E+03
 4.06570E+00    1.75476E+03
 4.49330E+00    1.74328E+03
 4.72370E+00    1.75075E+03
 4.96590E+00    1.76312E+03
 5.22050E+00    1.78610E+03
 5.48810E+00    1.81373E+03
 5.76950E+00    1.84896E+03
 6.06530E+00    1.88740E+03
 6.37630E+00    1.92306E+03
 6.59240E+00    1.94523E+03
 6.70320E+00    1.97580E+03
 7.04690E+00    2.02347E+03
 7.40820E+00    2.07358E+03
 7.78800E+00    2.12301E+03
 8.18730E+00    2.17121E+03
 8.60710E+00    2.22100E+03
 9.04840E+00    2.26049E+03
 9.51230E+00    2.29861E+03
 1.00000E+01    2.32938E+03
 1.05130E+01    2.35487E+03
 1.10520E+01    2.37135E+03
 1.16180E+01    2.38035E+03
 1.22140E+01    2.37751E+03
 1.28400E+01    2.36695E+03
 1.34990E+01    2.35139E+03
 1.38400E+01    2.33950E+03
 1.41910E+01    2.32285E+03
 1.45500E+01    2.30518E+03
 1.49180E+01    2.27376E+03
 1.56830E+01    2.22395E+03
 1.64870E+01    2.16501E+03
