# n + Pd110 : (n,n'04)  
# jendl4.0   N.Iwamoto,K.Shibata               EVAL-Dec09
# uncertainties: n
# # energies =    84
#   E(MeV)       xs(mb) 
 9.55419E-01    0.00000E+00
 1.00000E+00    8.62133E+01
 1.10000E+00    2.01023E+02
 1.18140E+00    2.44848E+02
 1.20000E+00    2.46555E+02
 1.22336E+00    2.49380E+02
 1.22556E+00    2.49433E+02
 1.30000E+00    2.34790E+02
 1.40000E+00    2.17147E+02
 1.41107E+00    2.15544E+02
 1.48356E+00    2.07177E+02
 1.50000E+00    2.03952E+02
 1.58849E+00    1.88542E+02
 1.59854E+00    1.87020E+02
 1.60000E+00    1.86405E+02
 1.65606E+00    1.75913E+02
 1.70000E+00    1.66449E+02
 1.73484E+00    1.60588E+02
 1.80000E+00    1.51431E+02
 1.87505E+00    1.43404E+02
 1.88111E+00    1.42390E+02
 1.90000E+00    1.39058E+02
 1.90701E+00    1.37947E+02
 1.91762E+00    1.35767E+02
 1.95222E+00    1.28403E+02
 1.97395E+00    1.24132E+02
 2.00000E+00    1.19475E+02
 2.00624E+00    1.18410E+02
 2.03349E+00    1.14184E+02
 2.05637E+00    1.11004E+02
 2.07992E+00    1.07588E+02
 2.10817E+00    1.04042E+02
 2.11423E+00    1.03331E+02
 2.14480E+00    9.93862E+01
 2.15964E+00    9.71796E+01
 2.16136E+00    9.68313E+01
 2.21313E+00    8.89264E+01
 2.21414E+00    8.87582E+01
 2.25000E+00    8.36513E+01
 2.27973E+00    7.98982E+01
 2.29699E+00    7.77357E+01
 2.31435E+00    7.57157E+01
 2.31606E+00    7.55249E+01
 2.31707E+00    7.54128E+01
 2.34337E+00    7.26204E+01
 2.35340E+00    7.16450E+01
 2.39145E+00    6.83130E+01
 2.50000E+00    5.96115E+01
 2.75000E+00    4.42979E+01
 3.00000E+00    3.11965E+01
 3.50000E+00    1.68086E+01
 4.00000E+00    8.52196E+00
 4.50000E+00    4.38170E+00
 5.00000E+00    2.29598E+00
 5.50000E+00    1.21913E+00
 6.00000E+00    6.44692E-01
 6.50000E+00    3.36954E-01
 7.00000E+00    1.86767E-01
 7.50000E+00    1.12861E-01
 8.00000E+00    7.54698E-02
 8.50000E+00    5.58526E-02
 9.00000E+00    4.49890E-02
 9.50000E+00    4.07657E-02
 1.00000E+01    3.91768E-02
 1.05000E+01    3.80725E-02
 1.10000E+01    3.70085E-02
 1.15000E+01    3.58214E-02
 1.20000E+01    3.44525E-02
 1.25000E+01    3.29038E-02
 1.30000E+01    3.12019E-02
 1.35000E+01    2.93471E-02
 1.40000E+01    2.73933E-02
 1.45000E+01    2.53047E-02
 1.50000E+01    2.31648E-02
 1.55000E+01    2.33448E-02
 1.60000E+01    1.60430E-02
 1.65000E+01    1.64355E-02
 1.70000E+01    2.14994E-02
 1.75000E+01    1.99643E-02
 1.80000E+01    1.32705E-02
 1.85000E+01    1.25744E-02
 1.90000E+01    1.69076E-02
 1.95000E+01    1.87103E-02
 2.00000E+01    1.71668E-02
