# n + Pd110 : (n,xn)    
# jendl4.0   N.Iwamoto,K.Shibata               EVAL-Dec09
# 
# # energies =   112
#   E(MeV)        xs(mb) 
 1.05000E-01    0.00000E+00
 1.10000E-01    1.47175E-03
 1.20000E-01    1.61927E-03
 1.30000E-01    1.64517E-03
 1.40000E-01    1.65829E-03
 1.50000E-01    1.66977E-03
 1.60000E-01    1.69864E-03
 1.70000E-01    1.74372E-03
 1.80000E-01    1.78820E-03
 1.90000E-01    1.82926E-03
 2.00000E-01    1.87345E-03
 2.25000E-01    1.15516E-02
 2.50000E-01    1.21140E-02
 2.75000E-01    1.29429E-02
 3.00000E-01    1.38165E-02
 3.77231E-01    4.66884E-02
 4.00000E-01    1.12575E+02
 5.00000E-01    4.49372E+02
 6.00000E-01    6.26894E+02
 7.00000E-01    7.27050E+02
 8.00000E-01    7.90820E+02
 8.21077E-01    8.01143E+02
 9.00000E-01    1.00289E+03
 9.29220E-01    1.05536E+03
 9.55419E-01    1.10352E+03
 1.00000E+00    1.23269E+03
 1.10000E+00    1.40720E+03
 1.18140E+00    1.49436E+03
 1.20000E+00    1.52643E+03
 1.22336E+00    1.55781E+03
 1.22337E+00    1.55780E+03
 1.22556E+00    1.56653E+03
 1.22557E+00    1.56653E+03
 1.30000E+00    1.75232E+03
 1.40000E+00    1.88452E+03
 1.41107E+00    1.89542E+03
 1.48356E+00    1.95690E+03
 1.50000E+00    1.98039E+03
 1.58849E+00    2.04526E+03
 1.59854E+00    2.05104E+03
 1.60000E+00    2.05311E+03
 1.65606E+00    2.09007E+03
 1.70000E+00    2.11960E+03
 1.73484E+00    2.13862E+03
 1.80000E+00    2.16934E+03
 1.87505E+00    2.19876E+03
 1.88111E+00    2.20315E+03
 1.90000E+00    2.21650E+03
 1.90701E+00    2.22064E+03
 1.91762E+00    2.22928E+03
 1.95222E+00    2.25632E+03
 1.97395E+00    2.27069E+03
 2.00000E+00    2.28671E+03
 2.00624E+00    2.28864E+03
 2.00625E+00    2.28864E+03
 2.03349E+00    2.29630E+03
 2.05637E+00    2.30181E+03
 2.07992E+00    2.30865E+03
 2.10817E+00    2.31545E+03
 2.11423E+00    2.31684E+03
 2.14480E+00    2.32475E+03
 2.14481E+00    2.32475E+03
 2.15964E+00    2.32910E+03
 2.16136E+00    2.32998E+03
 2.21313E+00    2.34594E+03
 2.21414E+00    2.34629E+03
 2.25000E+00    2.35696E+03
 2.27973E+00    2.36445E+03
 2.29699E+00    2.36874E+03
 2.31435E+00    2.37288E+03
 2.31606E+00    2.37327E+03
 2.31707E+00    2.37351E+03
 2.34337E+00    2.37948E+03
 2.35340E+00    2.38151E+03
 2.39145E+00    2.38833E+03
 2.50000E+00    2.40693E+03
 2.75000E+00    2.40451E+03
 3.00000E+00    2.41689E+03
 3.50000E+00    2.42205E+03
 4.00000E+00    2.43565E+03
 4.50000E+00    2.44077E+03
 5.00000E+00    2.42965E+03
 5.50000E+00    2.40018E+03
 6.00000E+00    2.35925E+03
 6.50000E+00    2.31552E+03
 7.00000E+00    2.27351E+03
 7.50000E+00    2.23685E+03
 8.00000E+00    2.20654E+03
 8.50000E+00    2.18229E+03
 9.00000E+00    2.17002E+03
 9.50000E+00    2.49403E+03
 1.00000E+01    2.92603E+03
 1.05000E+01    3.21192E+03
 1.10000E+01    3.39013E+03
 1.15000E+01    3.50081E+03
 1.20000E+01    3.56701E+03
 1.25000E+01    3.60743E+03
 1.30000E+01    3.63262E+03
 1.35000E+01    3.64641E+03
 1.40000E+01    3.65522E+03
 1.45000E+01    3.65542E+03
 1.50000E+01    3.65434E+03
 1.55000E+01    3.64682E+03
 1.60000E+01    3.64714E+03
 1.65000E+01    3.66444E+03
 1.70000E+01    3.71296E+03
 1.75000E+01    3.79372E+03
 1.80000E+01    3.89796E+03
 1.85000E+01    4.00942E+03
 1.90000E+01    4.12412E+03
 1.95000E+01    4.22106E+03
 2.00000E+01    4.30760E+03
