# n + Yb  0 : (n,d)
# jendl.ad   kunieda                           EVAL-Mar14
# uncertainties: n
# # energies =    50
#   E(MeV)          xs(mb) 
 4.60293E+00    6.27274E-22
 4.64187E+00    1.65526E-21
 4.71815E+00    3.92977E-21
 4.75353E+00    5.04435E-21
 4.78720E+00    6.12292E-21
 4.78721E+00    6.12323E-21
 4.80858E+00    6.81544E-21
 4.82393E+00    7.31513E-21
 4.84157E+00    7.89134E-21
 4.85154E+00    8.21765E-21
 4.87507E+00    8.98891E-21
 4.92414E+00    1.05979E-20
 4.93196E+00    1.08544E-20
 4.95473E+00    1.16012E-20
 4.96007E+00    1.17762E-20
 4.96316E+00    1.18776E-20
 4.98661E+00    1.26469E-20
 5.00803E+00    1.33497E-20
 5.01474E+00    1.61722E-20
 5.02460E+00    2.32581E-20
 5.03195E+00    3.00788E-20
 6.00000E+00    2.93941E-17
 6.50000E+00    2.31157E-14
 7.00000E+00    6.32039E-12
 7.50000E+00    1.01662E-09
 8.00000E+00    3.82170E-08
 8.50000E+00    9.27618E-07
 9.00000E+00    1.19788E-05
 9.50000E+00    8.72234E-05
 1.00000E+01    4.41697E-04
 1.05000E+01    1.95379E-03
 1.10000E+01    6.64915E-03
 1.15000E+01    1.74367E-02
 1.20000E+01    4.63895E-02
 1.25000E+01    1.02410E-01
 1.30000E+01    1.95791E-01
 1.35000E+01    3.35055E-01
 1.40000E+01    5.84577E-01
 1.45000E+01    9.03567E-01
 1.50000E+01    1.33070E+00
 1.55000E+01    1.85607E+00
 1.60000E+01    2.45984E+00
 1.65000E+01    3.04642E+00
 1.70000E+01    3.61009E+00
 1.75000E+01    4.56290E+00
 1.80000E+01    5.24062E+00
 1.85000E+01    6.24169E+00
 1.90000E+01    7.03369E+00
 1.95000E+01    7.96998E+00
 2.00000E+01    8.64507E+00
