# n + W 184 : (n,n'11)  
# jendl4.0   N.Iwamoto                         EVAL-Feb10
# uncertainties: n
# # energies =    66
#   E(MeV)       xs(mb) 
 1.25917E+00    0.00000E+00
 1.29064E+00    1.58966E-04
 1.29204E+00    1.70881E-04
 1.30000E+00    2.77249E-04
 1.30202E+00    2.98968E-04
 1.32938E+00    6.82564E-04
 1.35276E+00    1.17044E-03
 1.36783E+00    1.57196E-03
 1.39391E+00    2.46363E-03
 1.40000E+00    2.71449E-03
 1.43280E+00    4.35928E-03
 1.43885E+00    4.71620E-03
 1.45419E+00    5.71519E-03
 1.48510E+00    7.94412E-03
 1.50000E+00    8.88954E-03
 1.50018E+00    8.90428E-03
 1.50977E+00    9.60835E-03
 1.53163E+00    1.12236E-02
 1.54529E+00    1.25053E-02
 1.57885E+00    1.62235E-02
 1.59012E+00    1.76657E-02
 1.60000E+00    1.88151E-02
 1.62241E+00    2.19955E-02
 1.62372E+00    2.21971E-02
 1.70000E+00    3.61154E-02
 1.80000E+00    6.21200E-02
 1.90000E+00    9.74253E-02
 2.00000E+00    1.40285E-01
 2.25000E+00    2.79475E-01
 2.50000E+00    4.72047E-01
 2.75000E+00    6.28716E-01
 3.00000E+00    1.44128E+00
 3.50000E+00    1.47540E+00
 4.00000E+00    1.30867E+00
 4.50000E+00    1.10055E+00
 5.00000E+00    9.37406E-01
 5.50000E+00    8.29828E-01
 6.00000E+00    7.58566E-01
 6.50000E+00    7.01122E-01
 7.00000E+00    6.50766E-01
 7.50000E+00    6.06507E-01
 8.00000E+00    5.68990E-01
 8.50000E+00    5.37101E-01
 9.00000E+00    5.09133E-01
 9.50000E+00    4.83802E-01
 1.00000E+01    4.60347E-01
 1.05000E+01    4.38679E-01
 1.10000E+01    4.18837E-01
 1.15000E+01    4.00940E-01
 1.20000E+01    3.85242E-01
 1.25000E+01    3.71956E-01
 1.30000E+01    3.61305E-01
 1.35000E+01    3.53440E-01
 1.40000E+01    3.48383E-01
 1.45000E+01    3.46041E-01
 1.50000E+01    3.46212E-01
 1.55000E+01    3.48620E-01
 1.60000E+01    3.52886E-01
 1.65000E+01    3.58464E-01
 1.70000E+01    3.64602E-01
 1.75000E+01    3.70412E-01
 1.80000E+01    3.75052E-01
 1.85000E+01    3.78010E-01
 1.90000E+01    3.79242E-01
 1.95000E+01    3.79095E-01
 2.00000E+01    3.78035E-01
