# n + W 184 : (n,n'19)  
# jendl4.0   N.Iwamoto                         EVAL-Feb10
# uncertainties: n
# # energies =    56
#   E(MeV)       xs(mb) 
 1.43280E+00    0.00000E+00
 1.43885E+00    1.27068E+01
 1.45419E+00    2.21311E+01
 1.48510E+00    3.29358E+01
 1.50000E+00    3.69647E+01
 1.50018E+00    3.70103E+01
 1.50977E+00    3.93643E+01
 1.53163E+00    4.44210E+01
 1.54529E+00    4.67314E+01
 1.57885E+00    5.29876E+01
 1.59012E+00    5.45778E+01
 1.60000E+00    5.60615E+01
 1.62241E+00    5.94413E+01
 1.62372E+00    5.96074E+01
 1.70000E+00    6.99529E+01
 1.80000E+00    7.94948E+01
 1.90000E+00    8.36078E+01
 2.00000E+00    8.44767E+01
 2.25000E+00    7.28339E+01
 2.50000E+00    6.12238E+01
 2.75000E+00    4.49326E+01
 3.00000E+00    3.32153E+01
 3.50000E+00    1.62159E+01
 4.00000E+00    7.58733E+00
 4.50000E+00    3.57608E+00
 5.00000E+00    1.79011E+00
 5.50000E+00    1.00439E+00
 6.00000E+00    6.54675E-01
 6.50000E+00    4.90737E-01
 7.00000E+00    4.06349E-01
 7.50000E+00    3.56589E-01
 8.00000E+00    3.22596E-01
 8.50000E+00    2.96427E-01
 9.00000E+00    2.74708E-01
 9.50000E+00    2.55849E-01
 1.00000E+01    2.38904E-01
 1.05000E+01    2.23469E-01
 1.10000E+01    2.09240E-01
 1.15000E+01    1.96044E-01
 1.20000E+01    1.83831E-01
 1.25000E+01    1.72559E-01
 1.30000E+01    1.62197E-01
 1.35000E+01    1.52692E-01
 1.40000E+01    1.43968E-01
 1.45000E+01    1.35937E-01
 1.50000E+01    1.28509E-01
 1.55000E+01    1.21598E-01
 1.60000E+01    1.15137E-01
 1.65000E+01    1.09075E-01
 1.70000E+01    1.03381E-01
 1.75000E+01    9.80414E-02
 1.80000E+01    9.30451E-02
 1.85000E+01    8.83899E-02
 1.90000E+01    8.40771E-02
 1.95000E+01    8.00965E-02
 2.00000E+01    7.64319E-02
