# n + W 184 : (n,n'12)  
# jendl4.0   N.Iwamoto                         EVAL-Feb10
# uncertainties: n
# # energies =    65
#   E(MeV)       xs(mb) 
 1.29064E+00    0.00000E+00
 1.29204E+00    1.13568E+01
 1.30000E+00    2.68304E+01
 1.30202E+00    2.92308E+01
 1.32938E+00    5.03697E+01
 1.35276E+00    6.27184E+01
 1.36783E+00    6.95648E+01
 1.39391E+00    8.04775E+01
 1.40000E+00    8.24539E+01
 1.43280E+00    9.37310E+01
 1.43885E+00    9.55267E+01
 1.45419E+00    9.94519E+01
 1.48510E+00    1.06966E+02
 1.50000E+00    1.10434E+02
 1.50018E+00    1.10476E+02
 1.50977E+00    1.12677E+02
 1.53163E+00    1.17569E+02
 1.54529E+00    1.20150E+02
 1.57885E+00    1.25596E+02
 1.59012E+00    1.26755E+02
 1.60000E+00    1.28010E+02
 1.62241E+00    1.30905E+02
 1.62372E+00    1.30878E+02
 1.70000E+00    1.36738E+02
 1.80000E+00    1.37838E+02
 1.90000E+00    1.35571E+02
 2.00000E+00    1.27399E+02
 2.25000E+00    9.95720E+01
 2.50000E+00    7.69046E+01
 2.75000E+00    5.33230E+01
 3.00000E+00    3.74134E+01
 3.50000E+00    1.68955E+01
 4.00000E+00    7.36739E+00
 4.50000E+00    3.22711E+00
 5.00000E+00    1.48476E+00
 5.50000E+00    7.57563E-01
 6.00000E+00    4.50644E-01
 6.50000E+00    3.15414E-01
 7.00000E+00    2.50588E-01
 7.50000E+00    2.15254E-01
 8.00000E+00    1.92721E-01
 8.50000E+00    1.76189E-01
 9.00000E+00    1.62845E-01
 9.50000E+00    1.51422E-01
 1.00000E+01    1.41227E-01
 1.05000E+01    1.31967E-01
 1.10000E+01    1.23442E-01
 1.15000E+01    1.15543E-01
 1.20000E+01    1.08256E-01
 1.25000E+01    1.01548E-01
 1.30000E+01    9.53970E-02
 1.35000E+01    8.97663E-02
 1.40000E+01    8.46065E-02
 1.45000E+01    7.98619E-02
 1.50000E+01    7.54735E-02
 1.55000E+01    7.13906E-02
 1.60000E+01    6.75727E-02
 1.65000E+01    6.39909E-02
 1.70000E+01    6.06280E-02
 1.75000E+01    5.74768E-02
 1.80000E+01    5.45315E-02
 1.85000E+01    5.17910E-02
 1.90000E+01    4.92557E-02
 1.95000E+01    4.69191E-02
 2.00000E+01    4.47703E-02
