# n + W 184 : (n,n'14)  
# jendl4.0   N.Iwamoto                         EVAL-Feb10
# uncertainties: n
# # energies =    62
#   E(MeV)       xs(mb) 
 1.30202E+00    0.00000E+00
 1.32938E+00    3.08664E+00
 1.35276E+00    4.60329E+00
 1.36783E+00    5.47737E+00
 1.39391E+00    6.87974E+00
 1.40000E+00    7.23702E+00
 1.43280E+00    9.19399E+00
 1.43885E+00    9.54624E+00
 1.45419E+00    1.04516E+01
 1.48510E+00    1.22160E+01
 1.50000E+00    1.30755E+01
 1.50018E+00    1.30860E+01
 1.50977E+00    1.36191E+01
 1.53163E+00    1.48826E+01
 1.54529E+00    1.56263E+01
 1.57885E+00    1.71584E+01
 1.59012E+00    1.76383E+01
 1.60000E+00    1.80738E+01
 1.62241E+00    1.91023E+01
 1.62372E+00    1.91634E+01
 1.70000E+00    2.27967E+01
 1.80000E+00    2.59467E+01
 1.90000E+00    2.81956E+01
 2.00000E+00    2.89535E+01
 2.25000E+00    2.71389E+01
 2.50000E+00    2.47632E+01
 2.75000E+00    1.98462E+01
 3.00000E+00    1.61468E+01
 3.50000E+00    9.14017E+00
 4.00000E+00    4.81077E+00
 4.50000E+00    2.47995E+00
 5.00000E+00    1.31641E+00
 5.50000E+00    7.55279E-01
 6.00000E+00    4.87472E-01
 6.50000E+00    3.56493E-01
 7.00000E+00    2.88340E-01
 7.50000E+00    2.49060E-01
 8.00000E+00    2.23259E-01
 8.50000E+00    2.04119E-01
 9.00000E+00    1.88633E-01
 9.50000E+00    1.75383E-01
 1.00000E+01    1.63568E-01
 1.05000E+01    1.52844E-01
 1.10000E+01    1.42977E-01
 1.15000E+01    1.33836E-01
 1.20000E+01    1.25402E-01
 1.25000E+01    1.17639E-01
 1.30000E+01    1.10518E-01
 1.35000E+01    1.03999E-01
 1.40000E+01    9.80243E-02
 1.45000E+01    9.25304E-02
 1.50000E+01    8.74488E-02
 1.55000E+01    8.27209E-02
 1.60000E+01    7.82999E-02
 1.65000E+01    7.41521E-02
 1.70000E+01    7.02576E-02
 1.75000E+01    6.66080E-02
 1.80000E+01    6.31966E-02
 1.85000E+01    6.00219E-02
 1.90000E+01    5.70847E-02
 1.95000E+01    5.43765E-02
 2.00000E+01    5.18847E-02
