# n + W 184 : (n,2na)   
# jendl4.0   N.Iwamoto                         EVAL-Feb10
# uncertainties: n
# # energies =    25
#   E(MeV)       xs(mb) 
 8.00000E+00    0.00000E+00
 8.50000E+00    7.74770E-33
 9.00000E+00    1.39890E-24
 9.50000E+00    4.76740E-21
 1.00000E+01    6.17190E-18
 1.05000E+01    2.21000E-15
 1.10000E+01    2.87830E-13
 1.15000E+01    1.68060E-11
 1.20000E+01    5.13750E-10
 1.25000E+01    9.24820E-09
 1.30000E+01    1.09150E-07
 1.35000E+01    8.96830E-07
 1.40000E+01    5.35168E-06
 1.45000E+01    2.10723E-05
 1.50000E+01    5.34627E-05
 1.55000E+01    1.09190E-04
 1.60000E+01    2.09276E-04
 1.65000E+01    3.95548E-04
 1.70000E+01    7.42636E-04
 1.75000E+01    1.36157E-03
 1.80000E+01    2.42237E-03
 1.85000E+01    4.16075E-03
 1.90000E+01    6.88522E-03
 1.95000E+01    1.10331E-02
 2.00000E+01    1.69981E-02
