# n + W 184 : (n,p)     
# jendl4.0   N.Iwamoto                         EVAL-Feb10
# uncertainties: n
# # energies =    39
#   E(MeV)       xs(mb) 
 2.09508E+00    0.00000E+00
 2.14324E+00    4.36730E-17
 2.18487E+00    1.16150E-16
 2.32473E+00    4.08840E-16
 2.36887E+00    5.01620E-16
 3.50000E+00    2.88040E-15
 4.00000E+00    7.92140E-12
 4.50000E+00    1.13050E-09
 5.00000E+00    3.29880E-08
 5.50000E+00    3.75810E-07
 6.00000E+00    2.44048E-06
 6.50000E+00    1.17733E-05
 7.00000E+00    5.02995E-05
 7.50000E+00    2.01680E-04
 8.00000E+00    7.40342E-04
 8.50000E+00    2.41279E-03
 9.00000E+00    6.99664E-03
 9.50000E+00    1.80308E-02
 1.00000E+01    4.17383E-02
 1.05000E+01    8.76818E-02
 1.10000E+01    1.68726E-01
 1.15000E+01    3.00074E-01
 1.20000E+01    4.97666E-01
 1.25000E+01    7.76571E-01
 1.30000E+01    1.14981E+00
 1.35000E+01    1.62757E+00
 1.40000E+01    2.21631E+00
 1.45000E+01    2.91756E+00
 1.50000E+01    3.72621E+00
 1.55000E+01    4.62931E+00
 1.60000E+01    5.60596E+00
 1.65000E+01    6.62948E+00
 1.70000E+01    7.67140E+00
 1.75000E+01    8.70573E+00
 1.80000E+01    9.71395E+00
 1.85000E+01    1.06782E+01
 1.90000E+01    1.15730E+01
 1.95000E+01    1.23985E+01
 2.00000E+01    1.31482E+01
