# n + W 184 : (n,h)     
# jendl4.0   N.Iwamoto                         EVAL-Feb10
# uncertainties: n
# # energies =    23
#   E(MeV)       xs(mb) 
 9.00000E+00    0.00000E+00
 9.50000E+00    5.62330E-32
 1.00000E+01    6.38640E-28
 1.05000E+01    8.84780E-25
 1.10000E+01    2.73590E-22
 1.15000E+01    2.78350E-20
 1.20000E+01    1.21050E-18
 1.25000E+01    2.70320E-17
 1.30000E+01    3.54610E-16
 1.35000E+01    3.05680E-15
 1.40000E+01    2.02980E-14
 1.45000E+01    1.46890E-13
 1.50000E+01    1.48470E-12
 1.55000E+01    1.56820E-11
 1.60000E+01    1.35890E-10
 1.65000E+01    9.58260E-10
 1.70000E+01    5.20830E-09
 1.75000E+01    2.33500E-08
 1.80000E+01    8.85920E-08
 1.85000E+01    2.90840E-07
 1.90000E+01    8.42430E-07
 1.95000E+01    2.08749E-06
 2.00000E+01    4.98230E-06
