# n + W 184 : (n,el)    
# jendl4.0   N.Iwamoto                         EVAL-Feb10
# uncertainties: n
# # energies =   171
#   E(MeV)       xs(mb) 
 1.00000E-11    1.09736E+04
 1.00000E-07    7.34903E+03
 4.13990E-07    7.33990E+03
 5.31580E-07    7.33602E+03
 6.82560E-07    7.33110E+03
 8.76420E-07    7.32477E+03
 1.12540E-06    7.31666E+03
 1.44500E-06    7.30623E+03
 1.85540E-06    7.29298E+03
 2.37240E-06    7.27582E+03
 3.05900E-06    7.25360E+03
 3.92790E-06    7.22526E+03
 5.04350E-06    7.18888E+03
 6.47600E-06    7.14216E+03
 8.31530E-06    7.08218E+03
 1.06770E-05    7.00516E+03
 1.37100E-05    6.90626E+03
 1.76030E-05    6.77929E+03
 2.26030E-05    6.61386E+03
 2.92030E-05    6.40405E+03
 3.72670E-05    6.12967E+03
 4.78510E-05    5.75578E+03
 6.14420E-05    5.23346E+03
 7.88930E-05    4.33119E+03
 1.01300E-04    3.77061E+03
 1.30070E-04    9.94215E+02
 1.67020E-04    5.09738E+05
 2.14450E-04    1.39757E+04
 2.75360E-04    1.64667E+04
 3.53580E-04    8.42369E+03
 4.54000E-04    5.23839E+03
 5.82950E-04    2.36882E+04
 7.48520E-04    6.72505E+04
 9.61120E-04    5.02502E+04
 1.23410E-03    6.22441E+04
 1.58460E-03    1.48983E+04
 2.03470E-03    6.31279E+04
 2.24870E-03    2.49623E+04
 2.48520E-03    1.48167E+04
 2.61260E-03    2.46184E+04
 2.74650E-03    1.99742E+04
 3.03540E-03    2.25038E+04
 3.35460E-03    2.40251E+04
 3.70740E-03    2.28887E+04
 4.30740E-03    2.13813E+04
 5.53080E-03    1.96507E+04
 7.10170E-03    1.81003E+04
 9.11880E-03    1.67245E+04
 1.17090E-02    1.55303E+04
 1.50340E-02    1.44283E+04
 1.93050E-02    1.36597E+04
 2.18750E-02    1.32875E+04
 2.35790E-02    1.31057E+04
 2.41760E-02    1.30158E+04
 2.47880E-02    1.28828E+04
 2.60580E-02    1.27321E+04
 2.70000E-02    1.25763E+04
 2.85000E-02    1.22971E+04
 3.18280E-02    1.19956E+04
 3.43070E-02    1.16035E+04
 4.08680E-02    1.11591E+04
 4.63090E-02    1.08092E+04
 5.24750E-02    1.05360E+04
 5.65620E-02    1.02078E+04
 6.73790E-02    9.90426E+03
 7.20000E-02    9.70462E+03
 7.95000E-02    9.54258E+03
 8.25000E-02    9.44345E+03
 8.65170E-02    9.24432E+03
 9.80370E-02    8.96926E+03
 1.11090E-01    8.76160E+03
 1.16790E-01    8.59541E+03
 1.22770E-01    8.45898E+03
 1.29070E-01    8.32884E+03
 1.35690E-01    8.19913E+03
 1.42640E-01    8.06946E+03
 1.49960E-01    7.94114E+03
 1.57640E-01    7.81665E+03
 1.65730E-01    7.69978E+03
 1.74220E-01    7.58339E+03
 1.83160E-01    7.46671E+03
 1.92550E-01    7.34992E+03
 2.02420E-01    7.23189E+03
 2.12800E-01    7.11479E+03
 2.23710E-01    6.99717E+03
 2.35180E-01    6.87831E+03
 2.47240E-01    6.71573E+03
 2.73240E-01    6.56690E+03
 2.87250E-01    6.49288E+03
 2.94520E-01    6.45960E+03
 2.97200E-01    6.44632E+03
 2.98500E-01    6.43056E+03
 3.01970E-01    6.32010E+03
 3.33730E-01    6.11660E+03
 3.68830E-01    5.96857E+03
 3.87740E-01    5.86670E+03
 4.07620E-01    5.74992E+03
 4.50490E-01    5.59763E+03
 4.97870E-01    5.48739E+03
 5.23400E-01    5.40961E+03
 5.50230E-01    5.33097E+03
 5.78440E-01    5.25861E+03
 6.08100E-01    5.19476E+03
 6.39280E-01    5.13979E+03
 6.72060E-01    5.08202E+03
 7.06510E-01    5.03207E+03
 7.42740E-01    4.98877E+03
 7.80820E-01    4.94653E+03
 8.20850E-01    4.90696E+03
 8.62940E-01    4.86541E+03
 9.07180E-01    4.79779E+03
 9.61640E-01    4.71450E+03
 1.00260E+00    4.59419E+03
 1.10800E+00    4.48233E+03
 1.16480E+00    4.40451E+03
 1.22460E+00    4.34718E+03
 1.28730E+00    4.29347E+03
 1.35340E+00    4.23923E+03
 1.42270E+00    4.19070E+03
 1.49570E+00    4.15713E+03
 1.57240E+00    4.13069E+03
 1.65300E+00    4.10824E+03
 1.73770E+00    4.09608E+03
 1.82680E+00    4.08932E+03
 1.92050E+00    4.08221E+03
 2.01900E+00    4.07474E+03
 2.12250E+00    4.06684E+03
 2.23130E+00    4.05996E+03
 2.30690E+00    4.05568E+03
 2.34570E+00    4.05350E+03
 2.36530E+00    4.05203E+03
 2.38520E+00    4.04829E+03
 2.46600E+00    4.03924E+03
 2.59240E+00    4.01775E+03
 2.72530E+00    3.99227E+03
 2.86500E+00    3.95864E+03
 3.01190E+00    3.91451E+03
 3.16640E+00    3.85904E+03
 3.32870E+00    3.76682E+03
 3.67880E+00    3.60742E+03
 4.06570E+00    3.41615E+03
 4.49330E+00    3.25770E+03
 4.72370E+00    3.14655E+03
 4.96590E+00    3.03510E+03
 5.22050E+00    2.92250E+03
 5.48810E+00    2.81490E+03
 5.76950E+00    2.70838E+03
 6.06530E+00    2.61207E+03
 6.37630E+00    2.53614E+03
 6.59240E+00    2.49586E+03
 6.70320E+00    2.44494E+03
 7.04690E+00    2.38050E+03
 7.40820E+00    2.31870E+03
 7.78800E+00    2.29667E+03
 8.18730E+00    2.28386E+03
 8.60710E+00    2.28826E+03
 9.04840E+00    2.31344E+03
 9.51230E+00    2.35556E+03
 1.00000E+01    2.41676E+03
 1.05130E+01    2.49452E+03
 1.10520E+01    2.58561E+03
 1.16180E+01    2.68662E+03
 1.22140E+01    2.79367E+03
 1.28400E+01    2.90267E+03
 1.34990E+01    2.98354E+03
 1.38400E+01    3.03592E+03
 1.41910E+01    3.08649E+03
 1.45500E+01    3.13475E+03
 1.49180E+01    3.20207E+03
 1.56830E+01    3.27997E+03
 1.64870E+01    3.34129E+03
