# n + W 184 : (n,n'10)  
# jendl4.0   N.Iwamoto                         EVAL-Feb10
# uncertainties: n
# # energies =    67
#   E(MeV)       xs(mb) 
 1.22799E+00    0.00000E+00
 1.25917E+00    3.70777E+01
 1.29064E+00    5.18159E+01
 1.29204E+00    5.21190E+01
 1.30000E+00    5.49720E+01
 1.30202E+00    5.57238E+01
 1.32938E+00    6.58139E+01
 1.35276E+00    7.38254E+01
 1.36783E+00    7.72885E+01
 1.39391E+00    8.47524E+01
 1.40000E+00    8.59717E+01
 1.43280E+00    9.41072E+01
 1.43885E+00    9.52842E+01
 1.45419E+00    9.80430E+01
 1.48510E+00    1.04198E+02
 1.50000E+00    1.06670E+02
 1.50018E+00    1.06700E+02
 1.50977E+00    1.08252E+02
 1.53163E+00    1.11734E+02
 1.54529E+00    1.13508E+02
 1.57885E+00    1.18233E+02
 1.59012E+00    1.19266E+02
 1.60000E+00    1.20399E+02
 1.62241E+00    1.23031E+02
 1.62372E+00    1.23123E+02
 1.70000E+00    1.26942E+02
 1.80000E+00    1.29432E+02
 1.90000E+00    1.26263E+02
 2.00000E+00    1.18738E+02
 2.25000E+00    9.43287E+01
 2.50000E+00    7.35652E+01
 2.75000E+00    5.18958E+01
 3.00000E+00    3.79468E+01
 3.50000E+00    1.81622E+01
 4.00000E+00    8.56314E+00
 4.50000E+00    4.21204E+00
 5.00000E+00    2.29735E+00
 5.50000E+00    1.45071E+00
 6.00000E+00    1.06124E+00
 6.50000E+00    8.64086E-01
 7.00000E+00    7.49731E-01
 7.50000E+00    6.72723E-01
 8.00000E+00    6.14350E-01
 8.50000E+00    5.66540E-01
 9.00000E+00    5.25588E-01
 9.50000E+00    4.89469E-01
 1.00000E+01    4.56753E-01
 1.05000E+01    4.26820E-01
 1.10000E+01    3.99173E-01
 1.15000E+01    3.73524E-01
 1.20000E+01    3.49862E-01
 1.25000E+01    3.28099E-01
 1.30000E+01    3.08157E-01
 1.35000E+01    2.89916E-01
 1.40000E+01    2.73209E-01
 1.45000E+01    2.57848E-01
 1.50000E+01    2.43628E-01
 1.55000E+01    2.30398E-01
 1.60000E+01    2.18028E-01
 1.65000E+01    2.06425E-01
 1.70000E+01    1.95534E-01
 1.75000E+01    1.85334E-01
 1.80000E+01    1.75806E-01
 1.85000E+01    1.66946E-01
 1.90000E+01    1.58756E-01
 1.95000E+01    1.51213E-01
 2.00000E+01    1.44279E-01
