# n + W 184 : (n,n'23)  
# jendl4.0   N.Iwamoto                         EVAL-Feb10
# uncertainties: n
# # energies =    51
#   E(MeV)       xs(mb) 
 1.50018E+00    0.00000E+00
 1.50977E+00    4.14802E-01
 1.53163E+00    8.44749E-01
 1.54529E+00    1.12091E+00
 1.57885E+00    1.90433E+00
 1.59012E+00    2.21421E+00
 1.60000E+00    2.48773E+00
 1.62241E+00    3.17751E+00
 1.62372E+00    3.22104E+00
 1.70000E+00    6.14374E+00
 1.80000E+00    1.05336E+01
 1.90000E+00    1.47832E+01
 2.00000E+00    1.78098E+01
 2.25000E+00    2.07387E+01
 2.50000E+00    2.11193E+01
 2.75000E+00    1.76630E+01
 3.00000E+00    1.46852E+01
 3.50000E+00    8.52197E+00
 4.00000E+00    4.51366E+00
 4.50000E+00    2.31256E+00
 5.00000E+00    1.20988E+00
 5.50000E+00    6.81540E-01
 6.00000E+00    4.32764E-01
 6.50000E+00    3.13132E-01
 7.00000E+00    2.51942E-01
 7.50000E+00    2.17215E-01
 8.00000E+00    1.94657E-01
 8.50000E+00    1.78027E-01
 9.00000E+00    1.64612E-01
 9.50000E+00    1.53159E-01
 1.00000E+01    1.42966E-01
 1.05000E+01    1.33731E-01
 1.10000E+01    1.25242E-01
 1.15000E+01    1.17382E-01
 1.20000E+01    1.10102E-01
 1.25000E+01    1.03381E-01
 1.30000E+01    9.71960E-02
 1.35000E+01    9.15180E-02
 1.40000E+01    8.63048E-02
 1.45000E+01    8.15062E-02
 1.50000E+01    7.70667E-02
 1.55000E+01    7.29368E-02
 1.60000E+01    6.90755E-02
 1.65000E+01    6.54525E-02
 1.70000E+01    6.20488E-02
 1.75000E+01    5.88554E-02
 1.80000E+01    5.58655E-02
 1.85000E+01    5.30779E-02
 1.90000E+01    5.04933E-02
 1.95000E+01    4.81062E-02
 2.00000E+01    4.59069E-02
