# n + W 184 : (n,n'16)  
# jendl4.0   N.Iwamoto                         EVAL-Feb10
# uncertainties: n
# # energies =    60
#   E(MeV)       xs(mb) 
 1.35276E+00    0.00000E+00
 1.36783E+00    1.32241E+01
 1.39391E+00    2.03089E+01
 1.40000E+00    2.15338E+01
 1.43280E+00    2.72772E+01
 1.43885E+00    2.81687E+01
 1.45419E+00    3.03258E+01
 1.48510E+00    3.43419E+01
 1.50000E+00    3.62320E+01
 1.50018E+00    3.62548E+01
 1.50977E+00    3.74381E+01
 1.53163E+00    3.99220E+01
 1.54529E+00    4.13345E+01
 1.57885E+00    4.48337E+01
 1.59012E+00    4.59023E+01
 1.60000E+00    4.68821E+01
 1.62241E+00    4.88010E+01
 1.62372E+00    4.89090E+01
 1.70000E+00    5.52474E+01
 1.80000E+00    6.11033E+01
 1.90000E+00    6.35900E+01
 2.00000E+00    6.43909E+01
 2.25000E+00    5.51460E+01
 2.50000E+00    4.69426E+01
 2.75000E+00    3.51183E+01
 3.00000E+00    2.65897E+01
 3.50000E+00    1.35665E+01
 4.00000E+00    6.55589E+00
 4.50000E+00    3.14257E+00
 5.00000E+00    1.57002E+00
 5.50000E+00    8.61935E-01
 6.00000E+00    5.43293E-01
 6.50000E+00    3.94432E-01
 7.00000E+00    3.19307E-01
 7.50000E+00    2.76524E-01
 8.00000E+00    2.48404E-01
 8.50000E+00    2.27414E-01
 9.00000E+00    2.10335E-01
 9.50000E+00    1.95671E-01
 1.00000E+01    1.82568E-01
 1.05000E+01    1.70652E-01
 1.10000E+01    1.59683E-01
 1.15000E+01    1.49518E-01
 1.20000E+01    1.40130E-01
 1.25000E+01    1.31482E-01
 1.30000E+01    1.23543E-01
 1.35000E+01    1.16271E-01
 1.40000E+01    1.09603E-01
 1.45000E+01    1.03470E-01
 1.50000E+01    9.77980E-02
 1.55000E+01    9.25207E-02
 1.60000E+01    8.75865E-02
 1.65000E+01    8.29573E-02
 1.70000E+01    7.86102E-02
 1.75000E+01    7.45353E-02
 1.80000E+01    7.07250E-02
 1.85000E+01    6.71774E-02
 1.90000E+01    6.38934E-02
 1.95000E+01    6.08648E-02
 2.00000E+01    5.80784E-02
