# n + W 184 : (n,n'08)  
# jendl4.0   N.Iwamoto                         EVAL-Feb10
# uncertainties: n
# # energies =    70
#   E(MeV)       xs(mb) 
 1.13623E+00    0.00000E+00
 1.14006E+00    2.87110E+01
 1.20000E+00    9.30777E+01
 1.22799E+00    1.10266E+02
 1.25917E+00    1.25233E+02
 1.29064E+00    1.40340E+02
 1.29204E+00    1.39471E+02
 1.30000E+00    1.40916E+02
 1.30202E+00    1.41466E+02
 1.32938E+00    1.50397E+02
 1.35276E+00    1.57681E+02
 1.36783E+00    1.62231E+02
 1.39391E+00    1.69853E+02
 1.40000E+00    1.70379E+02
 1.43280E+00    1.76711E+02
 1.43885E+00    1.77423E+02
 1.45419E+00    1.78554E+02
 1.48510E+00    1.82415E+02
 1.50000E+00    1.84260E+02
 1.50018E+00    1.84283E+02
 1.50977E+00    1.85476E+02
 1.53163E+00    1.88131E+02
 1.54529E+00    1.88470E+02
 1.57885E+00    1.89506E+02
 1.59012E+00    1.88938E+02
 1.60000E+00    1.88849E+02
 1.62241E+00    1.88840E+02
 1.62372E+00    1.88563E+02
 1.70000E+00    1.85049E+02
 1.80000E+00    1.78106E+02
 1.90000E+00    1.64413E+02
 2.00000E+00    1.50886E+02
 2.25000E+00    1.12694E+02
 2.50000E+00    8.40034E+01
 2.75000E+00    5.72127E+01
 3.00000E+00    3.93086E+01
 3.50000E+00    1.72878E+01
 4.00000E+00    7.32033E+00
 4.50000E+00    3.05922E+00
 5.00000E+00    1.29014E+00
 5.50000E+00    5.64604E-01
 6.00000E+00    2.67814E-01
 6.50000E+00    1.45026E-01
 7.00000E+00    9.27632E-02
 7.50000E+00    6.92922E-02
 8.00000E+00    5.75716E-02
 8.50000E+00    5.07503E-02
 9.00000E+00    4.61002E-02
 9.50000E+00    4.25057E-02
 1.00000E+01    3.94681E-02
 1.05000E+01    3.67827E-02
 1.10000E+01    3.43440E-02
 1.15000E+01    3.21028E-02
 1.20000E+01    3.00454E-02
 1.25000E+01    2.81599E-02
 1.30000E+01    2.64357E-02
 1.35000E+01    2.48602E-02
 1.40000E+01    2.34190E-02
 1.45000E+01    2.20951E-02
 1.50000E+01    2.08711E-02
 1.55000E+01    1.97323E-02
 1.60000E+01    1.86677E-02
 1.65000E+01    1.76693E-02
 1.70000E+01    1.67324E-02
 1.75000E+01    1.58555E-02
 1.80000E+01    1.50371E-02
 1.85000E+01    1.42768E-02
 1.90000E+01    1.35746E-02
 1.95000E+01    1.29284E-02
 2.00000E+01    1.23349E-02
