# n + K  41 : (n,el)    
# jendl4.0   H.NAKAMURA                        EVAL-MAY87
# uncertainties: n
# # energies =   171
#   E(MeV)       xs(mb) 
 1.00000E-11    6.05904E+03
 1.00000E-07    2.57050E+03
 4.13990E-07    2.56788E+03
 5.31580E-07    2.56734E+03
 6.82560E-07    2.56686E+03
 8.76420E-07    2.56667E+03
 1.12540E-06    2.56643E+03
 1.44500E-06    2.56613E+03
 1.85540E-06    2.56574E+03
 2.37240E-06    2.56524E+03
 3.05900E-06    2.56459E+03
 3.92790E-06    2.56378E+03
 5.04350E-06    2.56298E+03
 6.47600E-06    2.56206E+03
 8.31530E-06    2.56087E+03
 1.06770E-05    2.55935E+03
 1.37100E-05    2.55739E+03
 1.76030E-05    2.55488E+03
 2.26030E-05    2.55160E+03
 2.92030E-05    2.54745E+03
 3.72670E-05    2.54218E+03
 4.78510E-05    2.53535E+03
 6.14420E-05    2.52658E+03
 7.88930E-05    2.51531E+03
 1.01300E-04    2.50085E+03
 1.30070E-04    2.48228E+03
 1.67020E-04    2.45843E+03
 2.14450E-04    2.42782E+03
 2.75360E-04    2.38860E+03
 3.53580E-04    2.34147E+03
 4.54000E-04    2.28255E+03
 5.82950E-04    2.20690E+03
 7.48520E-04    2.11119E+03
 9.61120E-04    1.98996E+03
 1.23410E-03    1.81981E+03
 1.58460E-03    4.41884E+03
 2.03470E-03    5.09992E+03
 2.24870E-03    2.00751E+03
 2.48520E-03    1.82888E+03
 2.61260E-03    1.75236E+03
 2.74650E-03    1.65995E+03
 3.03540E-03    1.60347E+03
 3.35460E-03    1.45879E+03
 3.70740E-03    1.35880E+03
 4.30740E-03    1.26743E+04
 5.53080E-03    1.06705E+04
 7.10170E-03    1.36322E+03
 9.11880E-03    9.90201E+02
 1.17090E-02    1.04661E+03
 1.50340E-02    6.27856E+03
 1.93050E-02    2.17924E+03
 2.18750E-02    8.65633E+02
 2.35790E-02    8.41608E+02
 2.41760E-02    1.03842E+03
 2.47880E-02    7.64685E+03
 2.60580E-02    7.04019E+02
 2.70000E-02    1.53375E+03
 2.85000E-02    5.28192E+02
 3.18280E-02    3.66107E+02
 3.43070E-02    6.70923E+03
 4.08680E-02    3.78935E+03
 4.63090E-02    1.06191E+03
 5.24750E-02    1.60955E+03
 5.65620E-02    1.98901E+03
 6.73790E-02    1.38380E+03
 7.20000E-02    2.62092E+03
 7.95000E-02    5.32469E+03
 8.25000E-02    3.18988E+03
 8.65170E-02    1.05509E+03
 9.80370E-02    1.30066E+03
 1.11090E-01    2.88639E+03
 1.16790E-01    1.96564E+03
 1.22770E-01    2.32614E+03
 1.29070E-01    2.99113E+03
 1.35690E-01    2.92075E+03
 1.42640E-01    2.85470E+03
 1.49960E-01    2.79351E+03
 1.57640E-01    2.74165E+03
 1.65730E-01    2.68817E+03
 1.74220E-01    2.63835E+03
 1.83160E-01    2.58734E+03
 1.92550E-01    2.53872E+03
 2.02420E-01    2.49091E+03
 2.12800E-01    2.44260E+03
 2.23710E-01    2.39743E+03
 2.35180E-01    2.35079E+03
 2.47240E-01    2.28500E+03
 2.73240E-01    2.21965E+03
 2.87250E-01    2.18813E+03
 2.94520E-01    2.17342E+03
 2.97200E-01    2.16754E+03
 2.98500E-01    2.16132E+03
 3.01970E-01    2.13472E+03
 3.33730E-01    2.08519E+03
 3.68830E-01    2.04937E+03
 3.87740E-01    2.02597E+03
 4.07620E-01    2.00811E+03
 4.50490E-01    1.98660E+03
 4.97870E-01    1.97466E+03
 5.23400E-01    1.97590E+03
 5.50230E-01    1.97726E+03
 5.78440E-01    1.97876E+03
 6.08100E-01    1.98641E+03
 6.39280E-01    1.99824E+03
 6.72060E-01    2.01068E+03
 7.06510E-01    2.02798E+03
 7.42740E-01    2.04979E+03
 7.80820E-01    2.07288E+03
 8.20850E-01    2.10142E+03
 8.62940E-01    2.13330E+03
 9.07180E-01    2.17068E+03
 9.61640E-01    2.20879E+03
 1.00260E+00    2.26653E+03
 1.10800E+00    2.32816E+03
 1.16480E+00    2.36988E+03
 1.22460E+00    2.41371E+03
 1.28730E+00    2.45908E+03
 1.35340E+00    2.50038E+03
 1.42270E+00    2.54226E+03
 1.49570E+00    2.58837E+03
 1.57240E+00    2.63687E+03
 1.65300E+00    2.68424E+03
 1.73770E+00    2.73404E+03
 1.82680E+00    2.78642E+03
 1.92050E+00    2.84081E+03
 2.01900E+00    2.87246E+03
 2.12250E+00    2.89268E+03
 2.23130E+00    2.91028E+03
 2.30690E+00    2.92120E+03
 2.34570E+00    2.92677E+03
 2.36530E+00    2.93053E+03
 2.38520E+00    2.94008E+03
 2.46600E+00    2.95975E+03
 2.59240E+00    2.98245E+03
 2.72530E+00    3.00437E+03
 2.86500E+00    3.02723E+03
 3.01190E+00    3.01701E+03
 3.16640E+00    2.98051E+03
 3.32870E+00    2.92343E+03
 3.67880E+00    2.84989E+03
 4.06570E+00    2.74075E+03
 4.49330E+00    2.64664E+03
 4.72370E+00    2.58408E+03
 4.96590E+00    2.51708E+03
 5.22050E+00    2.44137E+03
 5.48810E+00    2.36724E+03
 5.76950E+00    2.29333E+03
 6.06530E+00    2.21164E+03
 6.37630E+00    2.13962E+03
 6.59240E+00    2.09660E+03
 6.70320E+00    2.04160E+03
 7.04690E+00    1.95583E+03
 7.40820E+00    1.87087E+03
 7.78800E+00    1.78789E+03
 8.18730E+00    1.70426E+03
 8.60710E+00    1.62242E+03
 9.04840E+00    1.54805E+03
 9.51230E+00    1.47768E+03
 1.00000E+01    1.39249E+03
 1.05130E+01    1.29542E+03
 1.10520E+01    1.22562E+03
 1.16180E+01    1.17248E+03
 1.22140E+01    1.10694E+03
 1.28400E+01    1.04823E+03
 1.34990E+01    1.01893E+03
 1.38400E+01    9.98684E+02
 1.41910E+01    9.70456E+02
 1.45500E+01    9.46733E+02
 1.49180E+01    9.31539E+02
 1.56830E+01    9.26708E+02
 1.64870E+01    9.12850E+02
