# n + Cm243 : (n,xn)    
# jendl4.0   O.Iwamoto,T.Nakagawa,T.Ohsawa,+   EVAL-JAN10
# 
# # energies =    66
#   E(MeV)        xs(mb) 
 4.21743E-02    0.00000E+00
 5.00000E-02    4.16967E+01
 7.00000E-02    7.50990E+01
 8.77627E-02    1.00112E+02
 9.43901E-02    1.10393E+02
 1.00000E-01    1.37812E+02
 1.15956E-01    1.92313E+02
 1.30000E-01    2.40284E+02
 1.30539E-01    2.41987E+02
 1.30540E-01    2.41991E+02
 1.53635E-01    3.45070E+02
 1.64681E-01    4.14031E+02
 1.70000E-01    4.55525E+02
 1.87776E-01    5.47832E+02
 2.00000E-01    6.05977E+02
 2.19909E-01    6.91060E+02
 2.28946E-01    7.26013E+02
 3.00000E-01    9.78517E+02
 4.00000E-01    1.17848E+03
 5.00000E-01    1.31772E+03
 6.00000E-01    1.38608E+03
 7.00000E-01    1.42860E+03
 8.00000E-01    1.44185E+03
 9.00000E-01    1.44666E+03
 1.00000E+00    1.44661E+03
 1.30000E+00    1.44047E+03
 1.60000E+00    1.42644E+03
 1.80000E+00    1.40520E+03
 2.00000E+00    1.37528E+03
 2.30000E+00    1.32393E+03
 2.50000E+00    1.29029E+03
 2.70000E+00    1.26253E+03
 3.00000E+00    1.29104E+03
 3.50000E+00    1.28709E+03
 4.00000E+00    1.29804E+03
 4.50000E+00    1.32203E+03
 5.00000E+00    1.34393E+03
 5.50000E+00    1.37334E+03
 6.00000E+00    1.36696E+03
 6.50000E+00    1.33749E+03
 7.00000E+00    1.28028E+03
 7.50000E+00    1.19990E+03
 8.00000E+00    1.15206E+03
 8.50000E+00    1.10530E+03
 9.00000E+00    1.07514E+03
 9.50000E+00    1.05813E+03
 1.00000E+01    1.04849E+03
 1.05000E+01    1.05868E+03
 1.10000E+01    1.07152E+03
 1.15000E+01    1.08653E+03
 1.20000E+01    1.09062E+03
 1.25000E+01    1.07191E+03
 1.30000E+01    1.02803E+03
 1.35000E+01    9.68944E+02
 1.40000E+01    9.04961E+02
 1.45000E+01    8.49817E+02
 1.50000E+01    8.07670E+02
 1.55000E+01    7.71176E+02
 1.60000E+01    7.40943E+02
 1.65000E+01    7.16459E+02
 1.70000E+01    7.12873E+02
 1.75000E+01    6.95991E+02
 1.80000E+01    6.82640E+02
 1.85000E+01    6.71896E+02
 1.95000E+01    6.48847E+02
 2.00000E+01    6.43397E+02
