# n + Cm243 : (n,n'10)  
# jendl4.0   O.Iwamoto,T.Nakagawa,T.Ohsawa,+   EVAL-JAN10
# uncertainties: y
# # energies =    50
#   E(MeV)       xs(mb)       xslow(mb)      xsupp(mb)
 2.28946E-01    0.00000E+00    0.00000E+00    0.00000E+00
 3.00000E-01    5.17383E+01    3.51821E+00    9.99584E+01
 4.00000E-01    7.92870E+01    1.13380E+01    1.47236E+02
 5.00000E-01    8.91784E+01    1.27525E+01    1.65604E+02
 6.00000E-01    8.77849E+01    2.90568E+01    1.46513E+02
 7.00000E-01    8.19080E+01    2.71116E+01    1.36704E+02
 8.00000E-01    7.26298E+01    3.79128E+01    1.07347E+02
 9.00000E-01    6.29396E+01    3.28545E+01    9.30247E+01
 1.00000E+00    5.33126E+01    3.59860E+01    7.06392E+01
 1.30000E+00    3.06398E+01    2.29492E+01    3.83304E+01
 1.60000E+00    1.66326E+01    1.30233E+01    2.02419E+01
 1.80000E+00    1.08002E+01    8.45656E+00    1.31438E+01
 2.00000E+00    6.90169E+00    5.49375E+00    8.30964E+00
 2.30000E+00    3.45509E+00    2.75025E+00    4.15993E+00
 2.50000E+00    2.16408E+00    1.75074E+00    2.57742E+00
 2.70000E+00    1.35282E+00    1.09443E+00    1.61121E+00
 3.00000E+00    6.90641E-01    5.65635E-01    8.15647E-01
 3.50000E+00    2.41542E-01    1.99031E-01    2.84053E-01
 4.00000E+00    1.00498E-01    8.28103E-02    1.18186E-01
 4.50000E+00    5.24661E-02    4.32321E-02    6.17001E-02
 5.00000E+00    3.42879E-02    2.72246E-02    4.13512E-02
 5.50000E+00    2.65674E-02    2.10945E-02    3.20403E-02
 6.00000E+00    2.26724E-02    1.72764E-02    2.80684E-02
 6.50000E+00    2.04658E-02    1.55949E-02    2.53367E-02
 7.00000E+00    1.89423E-02    1.42257E-02    2.36589E-02
 7.50000E+00    1.77900E-02    1.33603E-02    2.22197E-02
 8.00000E+00    1.68380E-02    1.26790E-02    2.09970E-02
 8.50000E+00    1.59425E-02    1.20047E-02    1.98803E-02
 9.00000E+00    1.51191E-02    1.15510E-02    1.86872E-02
 9.50000E+00    1.43198E-02    1.09403E-02    1.76993E-02
 1.00000E+01    1.35664E-02    1.05004E-02    1.66324E-02
 1.05000E+01    1.28494E-02    9.94544E-03    1.57534E-02
 1.10000E+01    1.21784E-02    9.42608E-03    1.49307E-02
 1.15000E+01    1.15648E-02    8.95115E-03    1.41784E-02
 1.20000E+01    1.09944E-02    8.64160E-03    1.33472E-02
 1.25000E+01    1.04693E-02    8.22887E-03    1.27097E-02
 1.30000E+01    9.98650E-03    7.84939E-03    1.21236E-02
 1.35000E+01    9.54472E-03    7.50215E-03    1.15873E-02
 1.40000E+01    9.13251E-03    7.25121E-03    1.10138E-02
 1.45000E+01    8.75958E-03    6.95511E-03    1.05641E-02
 1.50000E+01    8.44645E-03    6.74027E-03    1.01526E-02
 1.55000E+01    8.15195E-03    6.50526E-03    9.79864E-03
 1.60000E+01    7.87362E-03    6.32252E-03    9.42472E-03
 1.65000E+01    7.61140E-03    6.11195E-03    9.11085E-03
 1.70000E+01    7.36303E-03    5.91251E-03    8.81355E-03
 1.75000E+01    7.12828E-03    5.72401E-03    8.53255E-03
 1.80000E+01    6.90566E-03    5.59358E-03    8.21774E-03
 1.85000E+01    6.69451E-03    5.42255E-03    7.96647E-03
 1.95000E+01    6.30274E-03    5.10522E-03    7.50026E-03
 2.00000E+01    6.12071E-03    4.95778E-03    7.28365E-03
