# n + Cm243 : (n,el)    
# jendl4.0   O.Iwamoto,T.Nakagawa,T.Ohsawa,+   EVAL-JAN10
# uncertainties: y
# # energies =    69
#   E(MeV)       xs(mb)       xslow(mb)      xsupp(mb)
 1.00000E-10    1.00812E+04    1.00812E+04    1.00812E+04
 5.00000E-09    8.97366E+03    8.97366E+03    8.97366E+03
 1.00000E-08    8.92403E+03    8.92403E+03    8.92403E+03
 1.50000E-08    8.89248E+03    8.89248E+03    8.89248E+03
 2.00000E-08    8.86658E+03    8.86658E+03    8.86658E+03
 2.50000E-08    8.84333E+03    8.84333E+03    8.84333E+03
 3.00000E-08    8.82190E+03    8.82190E+03    8.82190E+03
 3.50000E-08    8.79678E+03    8.79678E+03    8.79678E+03
 4.20000E-08    8.76756E+03    8.76756E+03    8.76756E+03
 5.00000E-08    8.73673E+03    8.73673E+03    8.73673E+03
 5.80000E-08    8.70527E+03    8.70527E+03    8.70527E+03
 6.70000E-08    8.66660E+03    8.66660E+03    8.66660E+03
 8.00000E-08    8.61032E+03    8.61032E+03    8.61032E+03
 1.00000E-07    8.51560E+03    8.51560E+03    8.51560E+03
 1.40000E-07    8.39372E+03    8.39372E+03    8.39372E+03
 1.80000E-07    8.28084E+03    8.28084E+03    8.28084E+03
 2.20000E-07    8.18728E+03    8.18728E+03    8.18728E+03
 2.50000E-07    8.11145E+03    8.11145E+03    8.11145E+03
 2.80000E-07    8.05067E+03    8.05067E+03    8.05067E+03
 3.00000E-07    8.00328E+03    8.00328E+03    8.00328E+03
 3.20000E-07    7.94703E+03    7.94703E+03    7.94703E+03
 3.50000E-07    7.86135E+03    7.86135E+03    7.86135E+03
 4.00000E-07    7.72106E+03    7.72106E+03    7.72106E+03
 5.00000E-07    7.57448E+03    7.57448E+03    7.57448E+03
 6.25000E-07    7.49951E+03    7.49951E+03    7.49951E+03
 7.80000E-07    7.39550E+03    7.39550E+03    7.39550E+03
 8.50000E-07    7.28876E+03    7.28876E+03    7.28876E+03
 9.10000E-07    7.19954E+03    7.19954E+03    7.19954E+03
 9.50000E-07    7.14556E+03    7.14556E+03    7.14556E+03
 9.72000E-07    7.10885E+03    7.10885E+03    7.10885E+03
 9.96000E-07    7.07452E+03    7.07452E+03    7.07452E+03
 1.02000E-06    7.04472E+03    7.04472E+03    7.04472E+03
 1.04500E-06    7.01985E+03    7.01985E+03    7.01985E+03
 1.07100E-06    6.99958E+03    6.99958E+03    6.99958E+03
 1.09700E-06    6.98256E+03    6.98256E+03    6.98256E+03
 1.12300E-06    6.96544E+03    6.96544E+03    6.96544E+03
 1.15000E-06    6.84702E+03    6.84702E+03    6.84702E+03
 1.30000E-06    6.54338E+03    6.54338E+03    6.54338E+03
 1.50000E-06    6.40622E+03    6.40622E+03    6.40622E+03
 2.10000E-06    1.24325E+04    1.24325E+04    1.24325E+04
 2.60000E-06    1.29399E+04    1.29399E+04    1.29399E+04
 3.30000E-06    1.34438E+04    1.34438E+04    1.34438E+04
 4.00000E-06    1.07169E+04    1.07169E+04    1.07169E+04
 9.87700E-06    1.19986E+04    1.19986E+04    1.19986E+04
 1.59680E-05    1.30140E+04    1.30140E+04    1.30140E+04
 2.77000E-05    1.16414E+04    1.16414E+04    1.16414E+04
 4.80520E-05    1.14846E+04    1.14846E+04    1.14846E+04
 7.55014E-05    1.21187E+04    1.21187E+04    1.21187E+04
 1.48728E-04    1.13017E+04    9.25608E+03    1.33473E+04
 3.67262E-04    1.12382E+04    9.20405E+03    1.32723E+04
 9.06898E-04    1.11661E+04    9.14501E+03    1.31871E+04
 1.42510E-03    1.11019E+04    9.09244E+03    1.31113E+04
 2.23945E-03    1.10202E+04    8.95941E+03    1.30810E+04
 3.51910E-03    1.09128E+04    8.87212E+03    1.29535E+04
 5.53000E-03    1.07677E+04    8.63566E+03    1.28997E+04
 9.11800E-03    1.05561E+04    8.40264E+03    1.27095E+04
 1.50300E-02    1.02778E+04    8.13998E+03    1.24155E+04
 2.47800E-02    1.00337E+04    7.82626E+03    1.22411E+04
 4.08500E-02    9.43488E+03    7.24598E+03    1.16238E+04
 6.73400E-02    8.67158E+03    6.59040E+03    1.07528E+04
 1.11000E-01    7.71057E+03    5.81377E+03    9.60738E+03
 1.83000E-01    6.52142E+03    4.91715E+03    8.12569E+03
 3.02000E-01    5.41737E+03    4.18762E+03    6.64711E+03
 5.00000E-01    4.35652E+03    3.52878E+03    5.18426E+03
 8.21000E-01    3.62241E+03    3.39166E+03    3.85315E+03
 1.35300E+00    3.55465E+03    3.27561E+03    3.83369E+03
 2.23100E+00    4.19128E+03    3.88657E+03    4.49598E+03
 3.67900E+00    4.12050E+03    3.91983E+03    4.32117E+03
 6.06500E+00    2.77941E+03    2.54733E+03    3.01149E+03
