# n + Np237 :  n        
# jendl4.0   O.Iwamoto,T.Nakagawa,S.Chiba,+    EVAL-JAN10
# uncertainties: n
# # energies =    53
#   E(MeV)       xs(mb) 
 2.30000E+00    0.00000E+00
 2.50000E+00    2.63690E-07
 2.70000E+00    1.44676E-06
 3.00000E+00    1.33770E-05
 3.25000E+00    2.85548E-04
 3.50000E+00    5.48874E-04
 3.62500E+00    5.84870E-03
 3.75000E+00    1.11868E-02
 4.00000E+00    2.19713E-02
 4.12500E+00    1.62454E-01
 4.25000E+00    3.05474E-01
 4.50000E+00    5.98820E-01
 4.75000E+00    4.26834E+00
 5.00000E+00    7.98314E+00
 5.25000E+00    3.45133E+01
 5.50000E+00    6.03095E+01
 5.62500E+00    1.12237E+02
 5.75000E+00    1.65370E+02
 6.00000E+00    2.75182E+02
 6.25000E+00    4.35113E+02
 6.50000E+00    5.86487E+02
 6.75000E+00    7.32089E+02
 7.00000E+00    8.75382E+02
 7.50000E+00    1.03309E+03
 8.00000E+00    1.16846E+03
 8.50000E+00    1.16454E+03
 9.00000E+00    1.14697E+03
 9.25000E+00    1.14566E+03
 9.50000E+00    1.14434E+03
 9.75000E+00    1.14256E+03
 1.00000E+01    1.14078E+03
 1.02500E+01    1.13398E+03
 1.05000E+01    1.12718E+03
 1.10000E+01    1.11432E+03
 1.15000E+01    1.09696E+03
 1.20000E+01    1.08081E+03
 1.25000E+01    1.07333E+03
 1.30000E+01    1.04616E+03
 1.35000E+01    1.04552E+03
 1.40000E+01    1.03839E+03
 1.45000E+01    1.00764E+03
 1.50000E+01    9.83833E+02
 1.52500E+01    9.74591E+02
 1.55000E+01    9.65348E+02
 1.60000E+01    9.55290E+02
 1.65000E+01    9.38341E+02
 1.70000E+01    9.25210E+02
 1.75000E+01    9.19167E+02
 1.80000E+01    9.14808E+02
 1.85000E+01    9.14434E+02
 1.90000E+01    9.16582E+02
 1.95000E+01    9.20030E+02
 2.00000E+01    9.22190E+02
