# n + Ca 42 : (n,a)     
# jendl.ad   K.Shibata                         EVAL-JUN06
# uncertainties: n
# # energies =    58
#   E(MeV)       xs(mb) 
 1.50000E+00    0.00000E+00
 1.79391E+00    3.57279E-04
 2.00000E+00    6.07800E-04
 2.04931E+00    2.11980E-03
 2.06579E+00    2.62536E-03
 2.14280E+00    4.98677E-03
 2.19196E+00    6.49402E-03
 2.21438E+00    7.18173E-03
 2.23517E+00    7.81918E-03
 2.34566E+00    1.12074E-02
 2.36563E+00    1.18198E-02
 2.47254E+00    1.50981E-02
 2.50000E+00    1.59400E-02
 2.54873E+00    2.82166E-02
 2.67162E+00    5.91738E-02
 2.78631E+00    8.80670E-02
 2.88667E+00    1.13349E-01
 2.99491E+00    1.40617E-01
 3.00000E+00    1.41900E-01
 3.01682E+00    1.65322E-01
 3.09219E+00    2.70277E-01
 3.11308E+00    2.99367E-01
 3.18169E+00    3.94910E-01
 3.25952E+00    5.03286E-01
 3.29905E+00    5.58329E-01
 3.36295E+00    6.47312E-01
 3.42132E+00    7.28594E-01
 3.48071E+00    8.11301E-01
 3.50000E+00    8.38163E-01
 3.57902E+00    1.16233E+00
 3.63432E+00    1.38918E+00
 3.70190E+00    1.66645E+00
 3.73887E+00    1.81811E+00
 3.92924E+00    2.59908E+00
 4.00000E+00    2.88937E+00
 4.50000E+00    7.33065E+00
 5.00000E+00    1.43918E+01
 5.50000E+00    2.34474E+01
 6.00000E+00    3.32090E+01
 6.50000E+00    4.28911E+01
 7.00000E+00    5.37631E+01
 7.50000E+00    6.60400E+01
 8.00000E+00    7.93000E+01
 8.50000E+00    9.11700E+01
 9.00000E+00    9.91600E+01
 9.50000E+00    1.03500E+02
 1.00000E+01    1.06100E+02
 1.10000E+01    1.11500E+02
 1.20000E+01    1.14000E+02
 1.30000E+01    1.04600E+02
 1.40000E+01    8.63600E+01
 1.45000E+01    7.70500E+01
 1.50000E+01    6.80500E+01
 1.60000E+01    5.23100E+01
 1.70000E+01    3.95800E+01
 1.80000E+01    2.89700E+01
 1.90000E+01    2.05800E+01
 2.00000E+01    1.44100E+01
