# n + Dy158 : (n,tot)   
# jendl4.0   N.Iwamoto,S.Chiba                 EVAL-Nov09
# uncertainties: n
# # energies =    69
#   E(MeV)       xs(mb) 
 1.00000E-10    3.15928E+05
 5.00000E-09    9.07750E+04
 1.00000E-08    7.02793E+04
 1.50000E-08    6.00102E+04
 2.00000E-08    5.34932E+04
 2.50000E-08    4.88678E+04
 3.00000E-08    4.53571E+04
 3.50000E-08    4.21220E+04
 4.20000E-08    3.89561E+04
 5.00000E-08    3.63078E+04
 5.80000E-08    3.40724E+04
 6.70000E-08    3.17846E+04
 8.00000E-08    2.91584E+04
 1.00000E-07    2.58656E+04
 1.40000E-07    2.27903E+04
 1.80000E-07    2.06799E+04
 2.20000E-07    1.92689E+04
 2.50000E-07    1.82974E+04
 2.80000E-07    1.75951E+04
 3.00000E-07    1.70992E+04
 3.20000E-07    1.65452E+04
 3.50000E-07    1.57775E+04
 4.00000E-07    1.46328E+04
 5.00000E-07    1.33302E+04
 6.25000E-07    1.21765E+04
 7.80000E-07    1.14564E+04
 8.50000E-07    1.11223E+04
 9.10000E-07    1.08913E+04
 9.50000E-07    1.07588E+04
 9.72000E-07    1.06651E+04
 9.96000E-07    1.05716E+04
 1.02000E-06    1.04801E+04
 1.04500E-06    1.03890E+04
 1.07100E-06    1.02990E+04
 1.09700E-06    1.02141E+04
 1.12300E-06    1.01292E+04
 1.15000E-06    9.88016E+03
 1.30000E-06    9.45995E+03
 1.50000E-06    8.81752E+03
 2.10000E-06    8.21876E+03
 2.60000E-06    7.83661E+03
 3.30000E-06    7.54446E+03
 4.00000E-06    7.03841E+03
 9.87700E-06    6.52973E+03
 1.59680E-05    5.92827E+03
 2.77000E-05    2.58237E+05
 4.80520E-05    1.10517E+04
 7.55014E-05    1.50482E+05
 1.48728E-04    8.96935E+04
 3.67262E-04    5.92952E+04
 9.06898E-04    4.35287E+04
 1.42510E-03    3.61830E+04
 2.23945E-03    3.00943E+04
 3.51910E-03    2.51262E+04
 5.53000E-03    2.10614E+04
 9.11800E-03    1.77498E+04
 1.50300E-02    1.51550E+04
 2.47800E-02    1.30500E+04
 4.08500E-02    1.13628E+04
 6.73400E-02    1.00061E+04
 1.11000E-01    8.91871E+03
 1.83000E-01    8.07876E+03
 3.02000E-01    7.50337E+03
 5.00000E-01    7.23141E+03
 8.21000E-01    7.14550E+03
 1.35300E+00    6.89349E+03
 2.23100E+00    6.22050E+03
 3.67900E+00    5.35348E+03
 6.06500E+00    4.89825E+03
