# n + Dy158 : (n,n'16)  
# jendl4.0   N.Iwamoto,S.Chiba                 EVAL-Nov09
# uncertainties: n
# # energies =    54
#   E(MeV)       xs(mb) 
 1.45096E+00    0.00000E+00
 1.48643E+00    4.87604E+01
 1.49584E+00    5.44039E+01
 1.50000E+00    5.67621E+01
 1.51071E+00    6.21880E+01
 1.52321E+00    6.80557E+01
 1.52815E+00    7.02100E+01
 1.52981E+00    7.08926E+01
 1.53783E+00    7.41090E+01
 1.55720E+00    8.12157E+01
 1.56896E+00    8.50272E+01
 1.60000E+00    9.27279E+01
 1.70000E+00    1.06857E+02
 1.80000E+00    1.08623E+02
 1.90000E+00    1.04227E+02
 2.00000E+00    9.68583E+01
 2.25000E+00    7.79561E+01
 2.50000E+00    5.47728E+01
 2.75000E+00    3.95391E+01
 3.00000E+00    2.69264E+01
 3.50000E+00    1.27211E+01
 4.00000E+00    6.06854E+00
 4.50000E+00    3.02699E+00
 5.00000E+00    1.64129E+00
 5.50000E+00    1.00454E+00
 6.00000E+00    7.04104E-01
 6.50000E+00    5.54841E-01
 7.00000E+00    4.73859E-01
 7.50000E+00    4.24233E-01
 8.00000E+00    3.89486E-01
 8.50000E+00    3.62187E-01
 9.00000E+00    3.39103E-01
 9.50000E+00    3.18614E-01
 1.00000E+01    3.00048E-01
 1.05000E+01    2.83195E-01
 1.10000E+01    2.67439E-01
 1.15000E+01    2.53169E-01
 1.20000E+01    2.39809E-01
 1.25000E+01    2.27621E-01
 1.30000E+01    2.16222E-01
 1.35000E+01    2.05757E-01
 1.40000E+01    1.95962E-01
 1.45000E+01    1.86912E-01
 1.50000E+01    1.78435E-01
 1.55000E+01    1.70711E-01
 1.60000E+01    1.62867E-01
 1.65000E+01    1.56175E-01
 1.70000E+01    1.50073E-01
 1.75000E+01    1.44150E-01
 1.80000E+01    1.38033E-01
 1.85000E+01    1.32115E-01
 1.90000E+01    1.27349E-01
 1.95000E+01    1.22944E-01
 2.00000E+01    1.18620E-01
