# n + Dy158 : (n,n'12)  
# jendl4.0   N.Iwamoto,S.Chiba                 EVAL-Nov09
# uncertainties: n
# # energies =    59
#   E(MeV)       xs(mb) 
 1.32318E+00    0.00000E+00
 1.37070E+00    4.04553E+00
 1.38049E+00    4.66489E+00
 1.40000E+00    5.89890E+00
 1.40609E+00    6.27361E+00
 1.45096E+00    8.72245E+00
 1.48643E+00    1.06413E+01
 1.49584E+00    1.10510E+01
 1.50000E+00    1.12626E+01
 1.51071E+00    1.18136E+01
 1.52321E+00    1.23466E+01
 1.52815E+00    1.24812E+01
 1.52981E+00    1.24622E+01
 1.53783E+00    1.26720E+01
 1.55720E+00    1.33261E+01
 1.56896E+00    1.37645E+01
 1.60000E+00    1.49935E+01
 1.70000E+00    1.84516E+01
 1.80000E+00    2.09201E+01
 1.90000E+00    2.26529E+01
 2.00000E+00    2.37181E+01
 2.25000E+00    2.45201E+01
 2.50000E+00    2.14879E+01
 2.75000E+00    1.85017E+01
 3.00000E+00    1.49175E+01
 3.50000E+00    9.11804E+00
 4.00000E+00    5.24068E+00
 4.50000E+00    2.95221E+00
 5.00000E+00    1.69481E+00
 5.50000E+00    1.03336E+00
 6.00000E+00    6.92719E-01
 6.50000E+00    5.16460E-01
 7.00000E+00    4.21460E-01
 7.50000E+00    3.66115E-01
 8.00000E+00    3.30251E-01
 8.50000E+00    3.04111E-01
 9.00000E+00    2.83174E-01
 9.50000E+00    2.65233E-01
 1.00000E+01    2.49303E-01
 1.05000E+01    2.35002E-01
 1.10000E+01    2.21728E-01
 1.15000E+01    2.09757E-01
 1.20000E+01    1.98571E-01
 1.25000E+01    1.88398E-01
 1.30000E+01    1.78885E-01
 1.35000E+01    1.70168E-01
 1.40000E+01    1.61996E-01
 1.45000E+01    1.54459E-01
 1.50000E+01    1.47398E-01
 1.55000E+01    1.40931E-01
 1.60000E+01    1.34441E-01
 1.65000E+01    1.28876E-01
 1.70000E+01    1.23803E-01
 1.75000E+01    1.18899E-01
 1.80000E+01    1.13818E-01
 1.85000E+01    1.08913E-01
 1.90000E+01    1.04964E-01
 1.95000E+01    1.01314E-01
 2.00000E+01    9.77363E-02
