# n + Dy158 : (n,n'20)  
# jendl4.0   N.Iwamoto,S.Chiba                 EVAL-Nov09
# uncertainties: n
# # energies =    49
#   E(MeV)       xs(mb) 
 1.52321E+00    0.00000E+00
 1.52815E+00    1.70003E+00
 1.52981E+00    1.97598E+00
 1.53783E+00    3.07376E+00
 1.55720E+00    5.33168E+00
 1.56896E+00    6.64840E+00
 1.60000E+00    1.00385E+01
 1.70000E+00    1.96310E+01
 1.80000E+00    2.67709E+01
 1.90000E+00    3.18792E+01
 2.00000E+00    3.52496E+01
 2.25000E+00    3.86562E+01
 2.50000E+00    3.41964E+01
 2.75000E+00    2.91185E+01
 3.00000E+00    2.23625E+01
 3.50000E+00    1.25214E+01
 4.00000E+00    6.54784E+00
 4.50000E+00    3.31317E+00
 5.00000E+00    1.65773E+00
 5.50000E+00    8.39710E-01
 6.00000E+00    4.45553E-01
 6.50000E+00    2.58662E-01
 7.00000E+00    1.69885E-01
 7.50000E+00    1.26682E-01
 8.00000E+00    1.04493E-01
 8.50000E+00    9.18626E-02
 9.00000E+00    8.36454E-02
 9.50000E+00    7.75443E-02
 1.00000E+01    7.25630E-02
 1.05000E+01    6.82850E-02
 1.10000E+01    6.44009E-02
 1.15000E+01    6.09330E-02
 1.20000E+01    5.77106E-02
 1.25000E+01    5.47806E-02
 1.30000E+01    5.20454E-02
 1.35000E+01    4.95353E-02
 1.40000E+01    4.71851E-02
 1.45000E+01    4.50122E-02
 1.50000E+01    4.29772E-02
 1.55000E+01    4.11109E-02
 1.60000E+01    3.92391E-02
 1.65000E+01    3.76211E-02
 1.70000E+01    3.61627E-02
 1.75000E+01    3.47454E-02
 1.80000E+01    3.32614E-02
 1.85000E+01    3.18499E-02
 1.90000E+01    3.07071E-02
 1.95000E+01    2.96360E-02
 2.00000E+01    2.86031E-02
