# n + Dy158 : (n,n'10)  
# jendl4.0   N.Iwamoto,S.Chiba                 EVAL-Nov09
# uncertainties: n
# # energies =    62
#   E(MeV)       xs(mb) 
 1.27711E+00    0.00000E+00
 1.28818E+00    2.16127E+01
 1.30000E+00    2.92947E+01
 1.32318E+00    3.93826E+01
 1.37070E+00    5.31619E+01
 1.38049E+00    5.53312E+01
 1.40000E+00    5.77416E+01
 1.40609E+00    5.85954E+01
 1.45096E+00    6.31666E+01
 1.48643E+00    6.39605E+01
 1.49584E+00    6.41626E+01
 1.50000E+00    6.42507E+01
 1.51071E+00    6.45435E+01
 1.52321E+00    6.48828E+01
 1.52815E+00    6.50137E+01
 1.52981E+00    6.50570E+01
 1.53783E+00    6.52611E+01
 1.55720E+00    6.57235E+01
 1.56896E+00    6.59945E+01
 1.60000E+00    6.47809E+01
 1.70000E+00    6.31947E+01
 1.80000E+00    5.94038E+01
 1.90000E+00    5.46002E+01
 2.00000E+00    4.93632E+01
 2.25000E+00    3.80688E+01
 2.50000E+00    2.59634E+01
 2.75000E+00    1.82569E+01
 3.00000E+00    1.24010E+01
 3.50000E+00    5.84150E+00
 4.00000E+00    2.92231E+00
 4.50000E+00    1.62975E+00
 5.00000E+00    1.04210E+00
 5.50000E+00    7.62574E-01
 6.00000E+00    6.19711E-01
 6.50000E+00    5.38464E-01
 7.00000E+00    4.85707E-01
 7.50000E+00    4.46822E-01
 8.00000E+00    4.15276E-01
 8.50000E+00    3.88086E-01
 9.00000E+00    3.63928E-01
 9.50000E+00    3.41998E-01
 1.00000E+01    3.21934E-01
 1.05000E+01    3.03651E-01
 1.10000E+01    2.86555E-01
 1.15000E+01    2.71083E-01
 1.20000E+01    2.56598E-01
 1.25000E+01    2.43422E-01
 1.30000E+01    2.31091E-01
 1.35000E+01    2.19801E-01
 1.40000E+01    2.09230E-01
 1.45000E+01    1.99484E-01
 1.50000E+01    1.90352E-01
 1.55000E+01    1.82026E-01
 1.60000E+01    1.73633E-01
 1.65000E+01    1.66371E-01
 1.70000E+01    1.59875E-01
 1.75000E+01    1.53508E-01
 1.80000E+01    1.46887E-01
 1.85000E+01    1.40596E-01
 1.90000E+01    1.35522E-01
 1.95000E+01    1.30723E-01
 2.00000E+01    1.26106E-01
