# n + Dy158 : (n,n'24)  
# jendl4.0   N.Iwamoto,S.Chiba                 EVAL-Nov09
# uncertainties: n
# # energies =    45
#   E(MeV)       xs(mb) 
 1.55720E+00    0.00000E+00
 1.56896E+00    1.52537E-02
 1.60000E+00    6.38450E-02
 1.70000E+00    3.33723E-01
 1.80000E+00    7.55910E-01
 1.90000E+00    1.32086E+00
 2.00000E+00    1.98463E+00
 2.25000E+00    3.81775E+00
 2.50000E+00    4.95022E+00
 2.75000E+00    5.54902E+00
 3.00000E+00    5.44408E+00
 3.50000E+00    4.13661E+00
 4.00000E+00    2.71050E+00
 4.50000E+00    1.66030E+00
 5.00000E+00    1.00076E+00
 5.50000E+00    6.20071E-01
 6.00000E+00    4.10854E-01
 6.50000E+00    2.98326E-01
 7.00000E+00    2.36993E-01
 7.50000E+00    2.01867E-01
 8.00000E+00    1.79998E-01
 8.50000E+00    1.64788E-01
 9.00000E+00    1.53065E-01
 9.50000E+00    1.43276E-01
 1.00000E+01    1.34706E-01
 1.05000E+01    1.27064E-01
 1.10000E+01    1.19984E-01
 1.15000E+01    1.13598E-01
 1.20000E+01    1.07631E-01
 1.25000E+01    1.02191E-01
 1.30000E+01    9.71024E-02
 1.35000E+01    9.24302E-02
 1.40000E+01    8.80555E-02
 1.45000E+01    8.40121E-02
 1.50000E+01    8.02225E-02
 1.55000E+01    7.67690E-02
 1.60000E+01    7.32583E-02
 1.65000E+01    7.02642E-02
 1.70000E+01    6.75306E-02
 1.75000E+01    6.48830E-02
 1.80000E+01    6.21300E-02
 1.85000E+01    5.94843E-02
 1.90000E+01    5.73546E-02
 1.95000E+01    5.53679E-02
 2.00000E+01    5.34315E-02
