# n + Dy158 : (n,g)     
# jendl4.0   N.Iwamoto,S.Chiba                 EVAL-Nov09
# uncertainties: n
# # energies =   171
#   E(MeV)       xs(mb) 
 1.00000E-11    4.75014E+05
 1.00000E-07    1.32507E+04
 4.13990E-07    6.90146E+03
 5.31580E-07    5.53471E+03
 6.82560E-07    4.35557E+03
 8.76420E-07    3.35848E+03
 1.12540E-06    2.53656E+03
 1.44500E-06    1.87817E+03
 1.85540E-06    1.37115E+03
 2.37240E-06    9.87473E+02
 3.05900E-06    7.07961E+02
 3.92790E-06    5.15209E+02
 5.04350E-06    3.86015E+02
 6.47600E-06    3.03415E+02
 8.31530E-06    2.55182E+02
 1.06770E-05    2.34049E+02
 1.37100E-05    2.40106E+02
 1.76030E-05    2.89403E+02
 2.26030E-05    4.81297E+02
 2.92030E-05    5.31059E+03
 3.72670E-05    4.06093E+05
 4.78510E-05    1.57492E+03
 6.14420E-05    4.16555E+02
 7.88930E-05    1.04947E+05
 1.01300E-04    4.08292E+04
 1.30070E-04    3.36315E+04
 1.67020E-04    2.77032E+04
 2.14450E-04    2.28196E+04
 2.75360E-04    1.87970E+04
 3.53580E-04    1.54627E+04
 4.54000E-04    1.26153E+04
 5.82950E-04    1.02762E+04
 7.48520E-04    8.34727E+03
 9.61120E-04    6.81391E+03
 1.23410E-03    5.62717E+03
 1.58460E-03    4.64828E+03
 2.03470E-03    4.06103E+03
 2.24870E-03    3.76210E+03
 2.48520E-03    3.55180E+03
 2.61260E-03    3.41863E+03
 2.74650E-03    3.22884E+03
 3.03540E-03    2.99113E+03
 3.35460E-03    2.77105E+03
 3.70740E-03    2.52455E+03
 4.30740E-03    2.21525E+03
 5.53080E-03    1.88538E+03
 7.10170E-03    1.62485E+03
 9.11880E-03    1.42159E+03
 1.17090E-02    1.26564E+03
 1.50340E-02    1.12867E+03
 1.93050E-02    1.03629E+03
 2.18750E-02    9.92595E+02
 2.35790E-02    9.71523E+02
 2.41760E-02    9.61154E+02
 2.47880E-02    9.45838E+02
 2.60580E-02    9.28699E+02
 2.70000E-02    9.11022E+02
 2.85000E-02    8.79744E+02
 3.18280E-02    8.46381E+02
 3.43070E-02    8.03817E+02
 4.08680E-02    7.55293E+02
 4.63090E-02    7.17323E+02
 5.24750E-02    6.89254E+02
 5.65620E-02    6.56722E+02
 6.73790E-02    6.27480E+02
 7.20000E-02    6.09222E+02
 7.95000E-02    5.94816E+02
 8.25000E-02    5.86475E+02
 8.65170E-02    5.70343E+02
 9.80370E-02    5.13801E+02
 1.11090E-01    4.68621E+02
 1.16790E-01    4.48343E+02
 1.22770E-01    4.29636E+02
 1.29070E-01    4.12111E+02
 1.35690E-01    3.95869E+02
 1.42640E-01    3.80784E+02
 1.49960E-01    3.66970E+02
 1.57640E-01    3.54365E+02
 1.65730E-01    3.42718E+02
 1.74220E-01    3.32105E+02
 1.83160E-01    3.22445E+02
 1.92550E-01    3.13621E+02
 2.02420E-01    3.06109E+02
 2.12800E-01    2.98813E+02
 2.23710E-01    2.92146E+02
 2.35180E-01    2.86357E+02
 2.47240E-01    2.78366E+02
 2.73240E-01    2.71304E+02
 2.87250E-01    2.68310E+02
 2.94520E-01    2.66959E+02
 2.97200E-01    2.66420E+02
 2.98500E-01    2.65774E+02
 3.01970E-01    2.62880E+02
 3.33730E-01    2.57732E+02
 3.68830E-01    2.53550E+02
 3.87740E-01    2.51040E+02
 4.07620E-01    2.49481E+02
 4.50490E-01    2.47965E+02
 4.97870E-01    2.47468E+02
 5.23400E-01    2.48403E+02
 5.50230E-01    2.49393E+02
 5.78440E-01    2.50445E+02
 6.08100E-01    2.52453E+02
 6.39280E-01    2.55133E+02
 6.72060E-01    2.57953E+02
 7.06510E-01    2.61647E+02
 7.42740E-01    2.66156E+02
 7.80820E-01    2.70989E+02
 8.20850E-01    2.77060E+02
 8.62940E-01    2.83711E+02
 9.07180E-01    2.91329E+02
 9.61640E-01    2.87239E+02
 1.00260E+00    2.74967E+02
 1.10800E+00    2.58008E+02
 1.16480E+00    2.50966E+02
 1.22460E+00    2.48407E+02
 1.28730E+00    2.45007E+02
 1.35340E+00    2.38958E+02
 1.42270E+00    2.25313E+02
 1.49570E+00    2.14811E+02
 1.57240E+00    2.06340E+02
 1.65300E+00    1.98377E+02
 1.73770E+00    1.88255E+02
 1.82680E+00    1.77418E+02
 1.92050E+00    1.66625E+02
 2.01900E+00    1.56432E+02
 2.12250E+00    1.46957E+02
 2.23130E+00    1.38645E+02
 2.30690E+00    1.32248E+02
 2.34570E+00    1.29179E+02
 2.36530E+00    1.27152E+02
 2.38520E+00    1.22183E+02
 2.46600E+00    1.13220E+02
 2.59240E+00    1.04083E+02
 2.72530E+00    9.48695E+01
 2.86500E+00    8.49560E+01
 3.01190E+00    7.61336E+01
 3.16640E+00    6.83135E+01
 3.32870E+00    5.78651E+01
 3.67880E+00    4.48534E+01
 4.06570E+00    3.28975E+01
 4.49330E+00    2.50335E+01
 4.72370E+00    2.04549E+01
 4.96590E+00    1.66531E+01
 5.22050E+00    1.34668E+01
 5.48810E+00    1.08344E+01
 5.76950E+00    8.65774E+00
 6.06530E+00    6.91235E+00
 6.37630E+00    5.71554E+00
 6.59240E+00    5.06884E+00
 6.70320E+00    4.32231E+00
 7.04690E+00    3.40977E+00
 7.40820E+00    2.72272E+00
 7.78800E+00    2.23341E+00
 8.18730E+00    1.89403E+00
 8.60710E+00    1.69480E+00
 9.04840E+00    1.59136E+00
 9.51230E+00    1.54688E+00
 1.00000E+01    1.53638E+00
 1.05130E+01    1.53903E+00
 1.10520E+01    1.54087E+00
 1.16180E+01    1.53043E+00
 1.22140E+01    1.50355E+00
 1.28400E+01    1.46252E+00
 1.34990E+01    1.42403E+00
 1.38400E+01    1.39339E+00
 1.41910E+01    1.35729E+00
 1.45500E+01    1.31410E+00
 1.49180E+01    1.23624E+00
 1.56830E+01    1.10404E+00
 1.64870E+01    9.57035E-01
