# n + Dy158 : (n,n'19)  
# jendl4.0   N.Iwamoto,S.Chiba                 EVAL-Nov09
# uncertainties: n
# # energies =    50
#   E(MeV)       xs(mb) 
 1.51071E+00    0.00000E+00
 1.52321E+00    2.90969E+00
 1.52815E+00    3.50854E+00
 1.52981E+00    3.70239E+00
 1.53783E+00    4.64452E+00
 1.55720E+00    6.82635E+00
 1.56896E+00    8.12244E+00
 1.60000E+00    1.14936E+01
 1.70000E+00    2.10433E+01
 1.80000E+00    2.80699E+01
 1.90000E+00    3.30512E+01
 2.00000E+00    3.63007E+01
 2.25000E+00    3.93990E+01
 2.50000E+00    3.46787E+01
 2.75000E+00    2.93828E+01
 3.00000E+00    2.26194E+01
 3.50000E+00    1.26683E+01
 4.00000E+00    6.65098E+00
 4.50000E+00    3.39808E+00
 5.00000E+00    1.73322E+00
 5.50000E+00    9.09142E-01
 6.00000E+00    5.10198E-01
 6.50000E+00    3.19090E-01
 7.00000E+00    2.26463E-01
 7.50000E+00    1.79719E-01
 8.00000E+00    1.54265E-01
 8.50000E+00    1.38624E-01
 9.00000E+00    1.27640E-01
 9.50000E+00    1.18983E-01
 1.00000E+01    1.11639E-01
 1.05000E+01    1.05194E-01
 1.10000E+01    9.92739E-02
 1.15000E+01    9.39564E-02
 1.20000E+01    8.89994E-02
 1.25000E+01    8.44853E-02
 1.30000E+01    8.02676E-02
 1.35000E+01    7.63955E-02
 1.40000E+01    7.27726E-02
 1.45000E+01    6.94237E-02
 1.50000E+01    6.62868E-02
 1.55000E+01    6.34032E-02
 1.60000E+01    6.05215E-02
 1.65000E+01    5.80167E-02
 1.70000E+01    5.57715E-02
 1.75000E+01    5.35769E-02
 1.80000E+01    5.12915E-02
 1.85000E+01    4.91178E-02
 1.90000E+01    4.73471E-02
 1.95000E+01    4.56978E-02
 2.00000E+01    4.41072E-02
