# n + Dy158 : (n,n'13)  
# jendl4.0   N.Iwamoto,S.Chiba                 EVAL-Nov09
# uncertainties: n
# # energies =    58
#   E(MeV)       xs(mb) 
 1.37070E+00    0.00000E+00
 1.38049E+00    4.02246E+01
 1.40000E+00    6.49270E+01
 1.40609E+00    7.04146E+01
 1.45096E+00    9.93798E+01
 1.48643E+00    1.13174E+02
 1.49584E+00    1.16353E+02
 1.50000E+00    1.17716E+02
 1.51071E+00    1.20601E+02
 1.52321E+00    1.23755E+02
 1.52815E+00    1.24953E+02
 1.52981E+00    1.25194E+02
 1.53783E+00    1.26832E+02
 1.55720E+00    1.30723E+02
 1.56896E+00    1.32964E+02
 1.60000E+00    1.36897E+02
 1.70000E+00    1.42991E+02
 1.80000E+00    1.39680E+02
 1.90000E+00    1.32378E+02
 2.00000E+00    1.23081E+02
 2.25000E+00    1.00424E+02
 2.50000E+00    7.23375E+01
 2.75000E+00    5.32695E+01
 3.00000E+00    3.64491E+01
 3.50000E+00    1.74453E+01
 4.00000E+00    8.23206E+00
 4.50000E+00    3.93269E+00
 5.00000E+00    1.95064E+00
 5.50000E+00    1.04119E+00
 6.00000E+00    6.23109E-01
 6.50000E+00    4.27768E-01
 7.00000E+00    3.32320E-01
 7.50000E+00    2.81663E-01
 8.00000E+00    2.51365E-01
 8.50000E+00    2.30496E-01
 9.00000E+00    2.14307E-01
 9.50000E+00    2.00646E-01
 1.00000E+01    1.88592E-01
 1.05000E+01    1.77796E-01
 1.10000E+01    1.67781E-01
 1.15000E+01    1.58747E-01
 1.20000E+01    1.50306E-01
 1.25000E+01    1.42624E-01
 1.30000E+01    1.35441E-01
 1.35000E+01    1.28856E-01
 1.40000E+01    1.22693E-01
 1.45000E+01    1.17004E-01
 1.50000E+01    1.11675E-01
 1.55000E+01    1.06822E-01
 1.60000E+01    1.01901E-01
 1.65000E+01    9.76745E-02
 1.70000E+01    9.38847E-02
 1.75000E+01    9.01396E-02
 1.80000E+01    8.62853E-02
 1.85000E+01    8.26190E-02
 1.90000E+01    7.96041E-02
 1.95000E+01    7.68175E-02
 2.00000E+01    7.41329E-02
