# n + Dy158 : (n,n'21)  
# jendl4.0   N.Iwamoto,S.Chiba                 EVAL-Nov09
# uncertainties: n
# # energies =    48
#   E(MeV)       xs(mb) 
 1.52815E+00    0.00000E+00
 1.52981E+00    5.14701E+00
 1.53783E+00    1.19524E+01
 1.55720E+00    2.08501E+01
 1.56896E+00    2.51191E+01
 1.60000E+00    3.49811E+01
 1.70000E+00    5.66888E+01
 1.80000E+00    6.73762E+01
 1.90000E+00    7.16405E+01
 2.00000E+00    7.19910E+01
 2.25000E+00    6.62223E+01
 2.50000E+00    5.18352E+01
 2.75000E+00    4.06459E+01
 3.00000E+00    2.91267E+01
 3.50000E+00    1.49243E+01
 4.00000E+00    7.32551E+00
 4.50000E+00    3.51169E+00
 5.00000E+00    1.66287E+00
 5.50000E+00    7.86794E-01
 6.00000E+00    3.78573E-01
 6.50000E+00    1.90933E-01
 7.00000E+00    1.05171E-01
 7.50000E+00    6.58251E-02
 8.00000E+00    4.74559E-02
 8.50000E+00    3.83724E-02
 9.00000E+00    3.33863E-02
 9.50000E+00    3.02425E-02
 1.00000E+01    2.79754E-02
 1.05000E+01    2.61759E-02
 1.10000E+01    2.46161E-02
 1.15000E+01    2.32567E-02
 1.20000E+01    2.20104E-02
 1.25000E+01    2.08849E-02
 1.30000E+01    1.98378E-02
 1.35000E+01    1.88780E-02
 1.40000E+01    1.79812E-02
 1.45000E+01    1.71528E-02
 1.50000E+01    1.63773E-02
 1.55000E+01    1.56668E-02
 1.60000E+01    1.49529E-02
 1.65000E+01    1.43372E-02
 1.70000E+01    1.37810E-02
 1.75000E+01    1.32418E-02
 1.80000E+01    1.26759E-02
 1.85000E+01    1.21377E-02
 1.90000E+01    1.17030E-02
 1.95000E+01    1.12945E-02
 2.00000E+01    1.09007E-02
