# n + Dy158 : (n,n'22)  
# jendl4.0   N.Iwamoto,S.Chiba                 EVAL-Nov09
# uncertainties: n
# # energies =    46
#   E(MeV)       xs(mb) 
 1.53783E+00    0.00000E+00
 1.55720E+00    8.98540E-10
 1.56896E+00    3.24400E-09
 1.60000E+00    2.74960E-08
 1.70000E+00    9.37300E-07
 1.80000E+00    5.92891E-06
 1.90000E+00    2.20427E-05
 2.00000E+00    7.53670E-05
 2.25000E+00    4.24679E-04
 2.50000E+00    1.04809E-03
 2.75000E+00    3.04195E-03
 3.00000E+00    7.63269E-02
 3.50000E+00    9.33172E-02
 4.00000E+00    1.21078E-01
 4.50000E+00    1.67427E-01
 5.00000E+00    2.34796E-01
 5.50000E+00    3.14812E-01
 6.00000E+00    3.88391E-01
 6.50000E+00    4.35926E-01
 7.00000E+00    4.49988E-01
 7.50000E+00    4.37960E-01
 8.00000E+00    4.13912E-01
 8.50000E+00    3.89485E-01
 9.00000E+00    3.70167E-01
 9.50000E+00    3.56317E-01
 1.00000E+01    3.45903E-01
 1.05000E+01    3.36316E-01
 1.10000E+01    3.26886E-01
 1.15000E+01    3.15504E-01
 1.20000E+01    3.04247E-01
 1.25000E+01    2.91367E-01
 1.30000E+01    2.78591E-01
 1.35000E+01    2.65395E-01
 1.40000E+01    2.52288E-01
 1.45000E+01    2.39758E-01
 1.50000E+01    2.27303E-01
 1.55000E+01    2.16261E-01
 1.60000E+01    2.05213E-01
 1.65000E+01    1.95790E-01
 1.70000E+01    1.86454E-01
 1.75000E+01    1.78163E-01
 1.80000E+01    1.69832E-01
 1.85000E+01    1.62173E-01
 1.90000E+01    1.54667E-01
 1.95000E+01    1.47788E-01
 2.00000E+01    1.40931E-01
