# n + Dy158 : (n,xd)    
# jendl4.0   N.Iwamoto,S.Chiba                 EVAL-Nov09
# 
# # energies =    98
#   E(MeV)        xs(mb) 
 9.95498E-02    0.00000E+00
 1.00000E-01    0.00000E+00
 1.05000E-01    0.00000E+00
 1.10000E-01    0.00000E+00
 1.20000E-01    0.00000E+00
 1.30000E-01    0.00000E+00
 1.40000E-01    0.00000E+00
 1.50000E-01    0.00000E+00
 1.60000E-01    0.00000E+00
 1.70000E-01    0.00000E+00
 1.80000E-01    0.00000E+00
 1.90000E-01    0.00000E+00
 2.00000E-01    0.00000E+00
 2.25000E-01    0.00000E+00
 2.50000E-01    0.00000E+00
 2.75000E-01    0.00000E+00
 3.00000E-01    0.00000E+00
 3.19165E-01    0.00000E+00
 4.00000E-01    0.00000E+00
 5.00000E-01    0.00000E+00
 6.00000E-01    0.00000E+00
 6.41785E-01    0.00000E+00
 7.00000E-01    0.00000E+00
 8.00000E-01    0.00000E+00
 9.00000E-01    0.00000E+00
 9.52364E-01    0.00000E+00
 9.96856E-01    0.00000E+00
 9.96857E-01    0.00000E+00
 1.00000E+00    0.00000E+00
 1.05056E+00    0.00000E+00
 1.05127E+00    0.00000E+00
 1.09251E+00    0.00000E+00
 1.10000E+00    0.00000E+00
 1.17118E+00    0.00000E+00
 1.20000E+00    0.00000E+00
 1.27710E+00    0.00000E+00
 1.27711E+00    0.00000E+00
 1.28818E+00    0.00000E+00
 1.30000E+00    0.00000E+00
 1.32318E+00    0.00000E+00
 1.37070E+00    0.00000E+00
 1.38049E+00    0.00000E+00
 1.40000E+00    0.00000E+00
 1.40609E+00    0.00000E+00
 1.45096E+00    0.00000E+00
 1.48643E+00    0.00000E+00
 1.49584E+00    0.00000E+00
 1.50000E+00    0.00000E+00
 1.51071E+00    0.00000E+00
 1.52321E+00    0.00000E+00
 1.52815E+00    0.00000E+00
 1.52981E+00    0.00000E+00
 1.53783E+00    0.00000E+00
 1.55720E+00    0.00000E+00
 1.56896E+00    0.00000E+00
 1.60000E+00    0.00000E+00
 1.70000E+00    0.00000E+00
 1.80000E+00    0.00000E+00
 1.90000E+00    0.00000E+00
 2.00000E+00    0.00000E+00
 2.25000E+00    0.00000E+00
 2.50000E+00    0.00000E+00
 2.75000E+00    0.00000E+00
 3.00000E+00    0.00000E+00
 3.50000E+00    0.00000E+00
 4.00000E+00    0.00000E+00
 4.50000E+00    0.00000E+00
 5.00000E+00    8.88689E-20
 5.50000E+00    2.65594E-17
 6.00000E+00    9.24160E-17
 6.50000E+00    2.86890E-14
 7.00000E+00    2.76380E-11
 7.50000E+00    3.57940E-09
 8.00000E+00    1.71590E-07
 8.50000E+00    3.27077E-06
 9.00000E+00    2.29586E-05
 9.50000E+00    1.70771E-04
 1.00000E+01    9.05752E-04
 1.05000E+01    3.67952E-03
 1.10000E+01    1.20570E-02
 1.15000E+01    3.31181E-02
 1.20000E+01    7.82274E-02
 1.25000E+01    1.62366E-01
 1.30000E+01    2.87669E-01
 1.35000E+01    4.85222E-01
 1.40000E+01    7.53871E-01
 1.45000E+01    1.09429E+00
 1.50000E+01    1.50146E+00
 1.55000E+01    2.00203E+00
 1.60000E+01    2.51062E+00
 1.65000E+01    3.00773E+00
 1.70000E+01    3.72958E+00
 1.75000E+01    4.33113E+00
 1.80000E+01    4.87129E+00
 1.85000E+01    5.54754E+00
 1.90000E+01    6.26230E+00
 1.95000E+01    6.88178E+00
 2.00000E+01    7.53514E+00
