# n + Dy158 : (n,n'04)  
# jendl4.0   N.Iwamoto,S.Chiba                 EVAL-Nov09
# uncertainties: n
# # energies =    71
#   E(MeV)       xs(mb) 
 9.52364E-01    0.00000E+00
 9.96856E-01    1.59947E+02
 1.00000E+00    1.65210E+02
 1.05056E+00    2.31253E+02
 1.05127E+00    2.32041E+02
 1.09251E+00    2.61912E+02
 1.10000E+00    2.60207E+02
 1.17118E+00    2.89246E+02
 1.20000E+00    2.98397E+02
 1.27710E+00    3.18205E+02
 1.28818E+00    3.19395E+02
 1.30000E+00    3.21055E+02
 1.32318E+00    3.24587E+02
 1.37070E+00    3.30334E+02
 1.38049E+00    3.25948E+02
 1.40000E+00    3.18698E+02
 1.40609E+00    3.17811E+02
 1.45096E+00    3.10863E+02
 1.48643E+00    3.01554E+02
 1.49584E+00    3.00066E+02
 1.50000E+00    2.99455E+02
 1.51071E+00    2.97894E+02
 1.52321E+00    2.96121E+02
 1.52815E+00    2.95417E+02
 1.52981E+00    2.94746E+02
 1.53783E+00    2.93084E+02
 1.55720E+00    2.89720E+02
 1.56896E+00    2.87618E+02
 1.60000E+00    2.81572E+02
 1.70000E+00    2.61234E+02
 1.80000E+00    2.35732E+02
 1.90000E+00    2.10132E+02
 2.00000E+00    1.85304E+02
 2.25000E+00    1.35917E+02
 2.50000E+00    9.10466E+01
 2.75000E+00    6.33830E+01
 3.00000E+00    4.24984E+01
 3.50000E+00    1.96648E+01
 4.00000E+00    9.23621E+00
 4.50000E+00    4.47589E+00
 5.00000E+00    2.30034E+00
 5.50000E+00    1.30388E+00
 6.00000E+00    8.42003E-01
 6.50000E+00    6.20083E-01
 7.00000E+00    5.05214E-01
 7.50000E+00    4.38631E-01
 8.00000E+00    3.94488E-01
 8.50000E+00    3.61386E-01
 9.00000E+00    3.35810E-01
 9.50000E+00    3.13707E-01
 1.00000E+01    2.94038E-01
 1.05000E+01    2.76407E-01
 1.10000E+01    2.60126E-01
 1.15000E+01    2.45500E-01
 1.20000E+01    2.31882E-01
 1.25000E+01    2.19580E-01
 1.30000E+01    2.08093E-01
 1.35000E+01    1.97635E-01
 1.40000E+01    1.87856E-01
 1.45000E+01    1.78884E-01
 1.50000E+01    1.70488E-01
 1.55000E+01    1.62966E-01
 1.60000E+01    1.59210E-01
 1.65000E+01    1.52074E-01
 1.70000E+01    1.42628E-01
 1.75000E+01    1.36953E-01
 1.80000E+01    1.34926E-01
 1.85000E+01    1.30216E-01
 1.90000E+01    1.22417E-01
 1.95000E+01    1.16227E-01
 2.00000E+01    1.12162E-01
