# n + Tc 99 : (n,g)     
# jeff3.3    Gunsing, Serot, Koning            EVAL-FEB05
# uncertainties: n
# # energies =    97
#   E(MeV)       xs(mb) 
 1.00000E-10    1.45748E+05
 5.00000E-09    3.97462E+04
 1.00000E-08    3.01401E+04
 1.50000E-08    2.53546E+04
 2.00000E-08    2.23346E+04
 2.50000E-08    2.02029E+04
 3.00000E-08    1.85942E+04
 3.50000E-08    1.71207E+04
 4.20000E-08    1.56885E+04
 5.00000E-08    1.44995E+04
 5.80000E-08    1.35046E+04
 6.70000E-08    1.24966E+04
 8.00000E-08    1.13541E+04
 1.00000E-07    9.95016E+03
 1.40000E-07    8.67481E+03
 1.80000E-07    7.82683E+03
 2.20000E-07    7.27516E+03
 2.50000E-07    6.90394E+03
 2.80000E-07    6.64052E+03
 3.00000E-07    6.45712E+03
 3.20000E-07    6.25523E+03
 3.50000E-07    5.98087E+03
 4.00000E-07    5.58564E+03
 5.00000E-07    5.16015E+03
 6.25000E-07    4.81529E+03
 7.80000E-07    4.62202E+03
 8.50000E-07    4.54227E+03
 9.10000E-07    4.49165E+03
 9.50000E-07    4.46452E+03
 9.72000E-07    4.44666E+03
 9.96000E-07    4.42953E+03
 1.02000E-06    4.41380E+03
 1.04500E-06    4.39939E+03
 1.07100E-06    4.38582E+03
 1.09700E-06    4.37433E+03
 1.12300E-06    4.36404E+03
 1.15000E-06    4.34339E+03
 1.30000E-06    4.34344E+03
 1.50000E-06    4.54135E+03
 2.10000E-06    5.22545E+03
 2.60000E-06    6.81293E+03
 3.30000E-06    1.11253E+04
 4.00000E-06    2.58732E+05
 9.87700E-06    1.20459E+03
 1.59680E-05    6.54511E+04
 2.77000E-05    2.93850E+03
 4.80520E-05    5.14376E+03
 7.55014E-05    3.44814E+03
 1.48728E-04    1.34197E+04
 3.67262E-04    4.69260E+03
 9.06898E-04    3.23984E+03
 1.42510E-03    3.01411E+03
 2.23945E-03    2.27741E+03
 3.51910E-03    1.60744E+03
 5.53000E-03    1.71869E+03
 9.11800E-03    1.45754E+03
 1.50300E-02    1.18016E+03
 2.47800E-02    9.21505E+02
 4.08500E-02    6.95468E+02
 6.73400E-02    5.15225E+02
 1.11000E-01    3.57249E+02
 1.83000E-01    2.41746E+02
 3.02000E-01    1.80891E+02
 5.00000E-01    1.44824E+02
 8.21000E-01    7.84004E+01
 1.35300E+00    5.10687E+01
 2.23100E+00    3.29388E+01
 3.67900E+00    1.51211E+01
 6.06500E+00    3.12067E+00
 2.00000E+01    1.34404E-02
 2.20000E+01    1.17676E-02
 2.40000E+01    1.08551E-02
 2.60000E+01    1.04072E-02
 2.80000E+01    1.00653E-02
 3.00000E+01    9.88738E-03
 3.50000E+01    9.59490E-03
 4.00000E+01    9.75758E-03
 4.50000E+01    1.01396E-02
 5.00000E+01    1.02156E-02
 5.50000E+01    1.06199E-02
 6.00000E+01    1.08932E-02
 6.50000E+01    1.14444E-02
 7.00000E+01    1.06806E-02
 7.50000E+01    1.17966E-02
 8.00000E+01    1.10708E-02
 8.50000E+01    1.17766E-02
 9.00000E+01    1.09624E-02
 9.50000E+01    1.10572E-02
 1.00000E+02    1.14132E-02
 1.10000E+02    1.08443E-02
 1.20000E+02    1.13233E-02
 1.30000E+02    1.01321E-02
 1.40000E+02    1.01348E-02
 1.50000E+02    1.01257E-02
 1.60000E+02    9.31222E-03
 1.80000E+02    8.13788E-03
 2.00000E+02    8.47347E-03
