# n + U 236 : (n,g)     
# jendl.ad   O.Iwamoto, T.Nakagawa, et al.     EVAL-JAN10
# uncertainties: n
# # energies =    69
#   E(MeV)       xs(mb) 
 1.00000E-10    3.55955E+04
 5.00000E-09    9.70631E+03
 1.00000E-08    7.35779E+03
 1.50000E-08    6.18823E+03
 2.00000E-08    5.44925E+03
 2.50000E-08    4.92768E+03
 3.00000E-08    4.53362E+03
 3.50000E-08    4.17272E+03
 4.20000E-08    3.82275E+03
 5.00000E-08    3.53125E+03
 5.80000E-08    3.28697E+03
 6.70000E-08    3.03939E+03
 8.00000E-08    2.75936E+03
 1.00000E-07    2.41398E+03
 1.40000E-07    2.09982E+03
 1.80000E-07    1.89055E+03
 2.20000E-07    1.75422E+03
 2.50000E-07    1.66199E+03
 2.80000E-07    1.59632E+03
 3.00000E-07    1.55054E+03
 3.20000E-07    1.50011E+03
 3.50000E-07    1.43142E+03
 4.00000E-07    1.33218E+03
 5.00000E-07    1.22478E+03
 6.25000E-07    1.13633E+03
 7.80000E-07    1.08585E+03
 8.50000E-07    1.06473E+03
 9.10000E-07    1.05158E+03
 9.50000E-07    1.04404E+03
 9.72000E-07    1.03889E+03
 9.96000E-07    1.03437E+03
 1.02000E-06    1.03001E+03
 1.04500E-06    1.02557E+03
 1.07100E-06    1.02150E+03
 1.09700E-06    1.01810E+03
 1.12300E-06    1.01492E+03
 1.15000E-06    1.00804E+03
 1.30000E-06    1.00437E+03
 1.50000E-06    1.04542E+03
 2.10000E-06    1.20341E+03
 2.60000E-06    1.58899E+03
 3.30000E-06    2.69357E+03
 4.00000E-06    3.21147E+05
 9.87700E-06    1.37939E+02
 1.59680E-05    5.00650E+01
 2.77000E-05    3.74928E+04
 4.80520E-05    1.76204E+04
 7.55014E-05    2.00845E+04
 1.48728E-04    7.38982E+03
 3.67262E-04    5.74386E+03
 9.06898E-04    3.16303E+03
 1.42510E-03    2.13643E+03
 2.23945E-03    1.40151E+03
 3.51910E-03    1.35495E+03
 5.53000E-03    1.07728E+03
 9.11800E-03    8.88346E+02
 1.50300E-02    7.33086E+02
 2.47800E-02    5.97418E+02
 4.08500E-02    4.51910E+02
 6.73400E-02    3.01442E+02
 1.11000E-01    2.18774E+02
 1.83000E-01    1.88577E+02
 3.02000E-01    1.78779E+02
 5.00000E-01    1.98025E+02
 8.21000E-01    1.61928E+02
 1.35300E+00    9.05730E+01
 2.23100E+00    3.63362E+01
 3.67900E+00    4.91339E+00
 6.06500E+00    9.13292E-01
