# n + Yb173 : (n,n'01)  
# endfb8.0   S.Kunieda, A.Ichihara, K.Shibata+ EVAL-FEB10
# uncertainties: n
# # energies =    63
#   E(MeV)       xs(mb) 
 7.91057E-02    0.00000E+00
 8.00000E-02    9.28700E+01
 9.00000E-02    2.35000E+02
 1.00000E-01    3.05400E+02
 1.20000E-01    4.05100E+02
 1.40000E-01    4.82300E+02
 1.60000E-01    5.46700E+02
 1.80000E-01    6.03700E+02
 2.00000E-01    6.35300E+02
 2.50000E-01    7.17700E+02
 3.00000E-01    7.84400E+02
 3.50000E-01    8.32100E+02
 4.00000E-01    8.29800E+02
 4.50000E-01    8.25100E+02
 5.00000E-01    7.98100E+02
 5.50000E-01    7.64700E+02
 6.00000E-01    7.38600E+02
 6.50000E-01    7.91900E+02
 7.00000E-01    7.58500E+02
 7.50000E-01    7.34100E+02
 8.00000E-01    7.15400E+02
 8.50000E-01    6.48400E+02
 9.00000E-01    6.38700E+02
 9.50000E-01    6.29900E+02
 1.00000E+00    6.22500E+02
 1.20000E+00    5.50800E+02
 1.40000E+00    4.92900E+02
 1.60000E+00    4.45700E+02
 1.80000E+00    4.06600E+02
 2.00000E+00    3.74400E+02
 2.20000E+00    3.48000E+02
 2.40000E+00    3.26800E+02
 2.60000E+00    3.09600E+02
 2.80000E+00    2.95600E+02
 3.00000E+00    2.84200E+02
 3.25000E+00    2.72300E+02
 3.50000E+00    2.62900E+02
 3.75000E+00    2.55000E+02
 4.00000E+00    2.48500E+02
 4.25000E+00    2.43000E+02
 4.50000E+00    2.38400E+02
 4.75000E+00    2.34400E+02
 5.00000E+00    2.30800E+02
 5.50000E+00    2.23900E+02
 6.00000E+00    2.16900E+02
 6.50000E+00    2.09600E+02
 7.00000E+00    2.02200E+02
 7.50000E+00    1.94900E+02
 8.00000E+00    1.88100E+02
 8.50000E+00    1.81700E+02
 9.00000E+00    1.75800E+02
 9.50000E+00    1.70300E+02
 1.00000E+01    1.65200E+02
 1.10000E+01    1.55800E+02
 1.20000E+01    1.47400E+02
 1.30000E+01    1.39800E+02
 1.40000E+01    1.32900E+02
 1.50000E+01    1.26600E+02
 1.60000E+01    1.20900E+02
 1.70000E+01    1.15700E+02
 1.80000E+01    1.11000E+02
 1.90000E+01    1.06600E+02
 2.00000E+01    1.02700E+02
