# n + Sb121 : (n,tot)   
# jeff3.3    JNDC FP NUCLEAR DATA W.G.         EVAL-AUG89
# uncertainties: n
# # energies =   171
#   E(MeV)       xs(mb) 
 1.00000E-11    7.03676E+04
 1.00000E-07    5.84435E+03
 4.13990E-07    5.13681E+03
 5.31580E-07    4.99819E+03
 6.82560E-07    4.88427E+03
 8.76420E-07    4.79562E+03
 1.12540E-06    4.73569E+03
 1.44500E-06    4.71144E+03
 1.85540E-06    4.74284E+03
 2.37240E-06    4.88597E+03
 3.05900E-06    5.35023E+03
 3.92790E-06    7.52031E+03
 5.04350E-06    4.45184E+05
 6.47600E-06    2.62203E+04
 8.31530E-06    5.46287E+03
 1.06770E-05    5.50657E+03
 1.37100E-05    2.48662E+05
 1.76030E-05    5.64716E+03
 2.26030E-05    5.82315E+03
 2.92030E-05    5.02946E+04
 3.72670E-05    4.33395E+03
 4.78510E-05    1.09176E+04
 6.14420E-05    1.64290E+04
 7.88930E-05    1.94936E+04
 1.01300E-04    2.10033E+04
 1.30070E-04    2.79111E+04
 1.67020E-04    6.77254E+03
 2.14450E-04    5.63287E+03
 2.75360E-04    7.72829E+03
 3.53580E-04    1.52847E+04
 4.54000E-04    1.08910E+04
 5.82950E-04    1.01545E+04
 7.48520E-04    1.05678E+04
 9.61120E-04    8.38869E+03
 1.23410E-03    7.22419E+03
 1.58460E-03    7.63788E+03
 2.03470E-03    7.30617E+03
 2.24870E-03    7.19066E+03
 2.48520E-03    7.10858E+03
 2.61260E-03    7.05622E+03
 2.74650E-03    6.98179E+03
 3.03540E-03    6.88711E+03
 3.35460E-03    6.79881E+03
 3.70740E-03    6.69731E+03
 4.30740E-03    6.55479E+03
 5.53080E-03    6.40605E+03
 7.10170E-03    6.28864E+03
 9.11880E-03    6.20111E+03
 1.17090E-02    6.13986E+03
 1.50340E-02    6.10361E+03
 1.93050E-02    6.09101E+03
 2.18750E-02    6.08963E+03
 2.35790E-02    6.09034E+03
 2.41760E-02    6.09078E+03
 2.47880E-02    6.09195E+03
 2.60580E-02    6.09398E+03
 2.70000E-02    6.09648E+03
 2.85000E-02    6.10293E+03
 3.18280E-02    6.11225E+03
 3.43070E-02    6.12676E+03
 4.08680E-02    6.16617E+03
 4.63090E-02    6.19153E+03
 5.24750E-02    6.21447E+03
 5.65620E-02    6.24792E+03
 6.73790E-02    6.28452E+03
 7.20000E-02    6.31106E+03
 7.95000E-02    6.33514E+03
 8.25000E-02    6.35295E+03
 8.65170E-02    6.37817E+03
 9.80370E-02    6.33591E+03
 1.11090E-01    6.33007E+03
 1.16790E-01    6.32758E+03
 1.22770E-01    6.32496E+03
 1.29070E-01    6.32221E+03
 1.35690E-01    6.31932E+03
 1.42640E-01    6.31628E+03
 1.49960E-01    6.31308E+03
 1.57640E-01    6.30972E+03
 1.65730E-01    6.30744E+03
 1.74220E-01    6.30695E+03
 1.83160E-01    6.30645E+03
 1.92550E-01    6.30602E+03
 2.02420E-01    6.30774E+03
 2.12800E-01    6.31048E+03
 2.23710E-01    6.31335E+03
 2.35180E-01    6.31638E+03
 2.47240E-01    6.32123E+03
 2.73240E-01    6.32642E+03
 2.87250E-01    6.32917E+03
 2.94520E-01    6.33045E+03
 2.97200E-01    6.33097E+03
 2.98500E-01    6.33158E+03
 3.01970E-01    6.34191E+03
 3.33730E-01    6.37005E+03
 3.68830E-01    6.39331E+03
 3.87740E-01    6.40989E+03
 4.07620E-01    6.43648E+03
 4.50490E-01    6.47502E+03
 4.97870E-01    6.50643E+03
 5.23400E-01    6.52474E+03
 5.50230E-01    6.53769E+03
 5.78440E-01    6.55123E+03
 6.08100E-01    6.56547E+03
 6.39280E-01    6.58044E+03
 6.72060E-01    6.59604E+03
 7.06510E-01    6.60708E+03
 7.42740E-01    6.61591E+03
 7.80820E-01    6.62278E+03
 8.20850E-01    6.62532E+03
 8.62940E-01    6.62787E+03
 9.07180E-01    6.63065E+03
 9.61640E-01    6.62449E+03
 1.00260E+00    6.60436E+03
 1.10800E+00    6.57719E+03
 1.16480E+00    6.54650E+03
 1.22460E+00    6.51390E+03
 1.28730E+00    6.47283E+03
 1.35340E+00    6.42348E+03
 1.42270E+00    6.37066E+03
 1.49570E+00    6.30200E+03
 1.57240E+00    6.22569E+03
 1.65300E+00    6.14550E+03
 1.73770E+00    6.05928E+03
 1.82680E+00    5.95981E+03
 1.92050E+00    5.85413E+03
 2.01900E+00    5.74333E+03
 2.12250E+00    5.62867E+03
 2.23130E+00    5.52908E+03
 2.30690E+00    5.46729E+03
 2.34570E+00    5.43578E+03
 2.36530E+00    5.41451E+03
 2.38520E+00    5.36049E+03
 2.46600E+00    5.25463E+03
 2.59240E+00    5.12879E+03
 2.72530E+00    5.00259E+03
 2.86500E+00    4.88154E+03
 3.01190E+00    4.77872E+03
 3.16640E+00    4.68886E+03
 3.32870E+00    4.55514E+03
 3.67880E+00    4.38303E+03
 4.06570E+00    4.27014E+03
 4.49330E+00    4.20492E+03
 4.72370E+00    4.16131E+03
 4.96590E+00    4.12687E+03
 5.22050E+00    4.10591E+03
 5.48810E+00    4.08471E+03
 5.76950E+00    4.06316E+03
 6.06530E+00    4.06196E+03
 6.37630E+00    4.06919E+03
 6.59240E+00    4.07367E+03
 6.70320E+00    4.08016E+03
 7.04690E+00    4.11155E+03
 7.40820E+00    4.15782E+03
 7.78800E+00    4.20762E+03
 8.18730E+00    4.27629E+03
 8.60710E+00    4.35378E+03
 9.04840E+00    4.43524E+03
 9.51230E+00    4.52088E+03
 1.00000E+01    4.59792E+03
 1.05130E+01    4.66429E+03
 1.10520E+01    4.71166E+03
 1.16180E+01    4.74333E+03
 1.22140E+01    4.75081E+03
 1.28400E+01    4.74343E+03
 1.34990E+01    4.72359E+03
 1.38400E+01    4.70792E+03
 1.41910E+01    4.68456E+03
 1.45500E+01    4.66024E+03
 1.49180E+01    4.61810E+03
 1.56830E+01    4.55371E+03
 1.64870E+01    4.48163E+03
