# n + Ti 48 : (n,g)     
# jendl.ad   K.KOBAYASHI(KUR),H.HASHIKURA(TOK) EVAL-SEP88
# uncertainties: n
# # energies =    69
#   E(MeV)       xs(mb) 
 1.00000E-10    5.81342E+04
 5.00000E-09    1.58287E+04
 1.00000E-08    1.19876E+04
 1.50000E-08    1.00723E+04
 2.00000E-08    8.86271E+03
 2.50000E-08    8.00792E+03
 3.00000E-08    7.36147E+03
 3.50000E-08    6.76792E+03
 4.20000E-08    6.19007E+03
 5.00000E-08    5.71002E+03
 5.80000E-08    5.30728E+03
 6.70000E-08    4.89734E+03
 8.00000E-08    4.43108E+03
 1.00000E-07    3.85546E+03
 1.40000E-07    3.32603E+03
 1.80000E-07    2.96932E+03
 2.20000E-07    2.73468E+03
 2.50000E-07    2.57460E+03
 2.80000E-07    2.45935E+03
 3.00000E-07    2.37835E+03
 3.20000E-07    2.28828E+03
 3.50000E-07    2.16398E+03
 4.00000E-07    1.98003E+03
 5.00000E-07    1.77049E+03
 6.25000E-07    1.58338E+03
 7.80000E-07    1.46513E+03
 8.50000E-07    1.40992E+03
 9.10000E-07    1.37105E+03
 9.50000E-07    1.34847E+03
 9.72000E-07    1.33257E+03
 9.96000E-07    1.31645E+03
 1.02000E-06    1.30060E+03
 1.04500E-06    1.28478E+03
 1.07100E-06    1.26920E+03
 1.09700E-06    1.25409E+03
 1.12300E-06    1.23934E+03
 1.15000E-06    1.19469E+03
 1.30000E-06    1.11751E+03
 1.50000E-06    9.91506E+02
 2.10000E-06    8.62428E+02
 2.60000E-06    7.69117E+02
 3.30000E-06    6.89217E+02
 4.00000E-06    5.24767E+02
 9.87700E-06    3.63330E+02
 1.59680E-05    2.75386E+02
 2.77000E-05    2.02051E+02
 4.80520E-05    1.49769E+02
 7.55014E-05    1.04963E+02
 1.48728E-04    6.17984E+01
 3.67262E-04    3.40312E+01
 9.06898E-04    2.33268E+01
 1.42510E-03    1.94569E+01
 2.23945E-03    1.73050E+01
 3.51910E-03    1.69516E+01
 5.53000E-03    2.49002E+01
 9.11800E-03    7.48050E+01
 1.50300E-02    8.58870E+01
 2.47800E-02    2.67007E+01
 4.08500E-02    8.84709E+00
 6.73400E-02    7.97676E+00
 1.11000E-01    5.53303E+00
 1.83000E-01    5.36408E+00
 3.02000E-01    3.14586E+00
 5.00000E-01    3.36918E+00
 8.21000E-01    2.93391E+00
 1.35300E+00    1.33684E+00
 2.23100E+00    1.10148E+00
 3.67900E+00    5.95332E-01
 6.06500E+00    4.23772E-01
