# n + Sn116 : (n,p)m    
# jendl.ad   N.Iwamoto                         EVAL-Apr14
# uncertainties: n
# # energies =    35
#   E(MeV)       xs(mb) 
 2.64584E+00    0.00000E+00
 2.80964E+00    2.84830E-14
 4.00000E+00    2.35470E-13
 4.50000E+00    5.40060E-10
 5.00000E+00    8.85605E-05
 5.50000E+00    9.22680E-04
 6.00000E+00    4.57200E-03
 6.50000E+00    1.43956E-02
 7.00000E+00    3.38309E-02
 7.50000E+00    6.59886E-02
 8.00000E+00    1.14638E-01
 8.50000E+00    1.85400E-01
 9.00000E+00    2.87942E-01
 9.50000E+00    4.36242E-01
 1.00000E+01    6.47400E-01
 1.05000E+01    9.39050E-01
 1.10000E+01    1.32486E+00
 1.15000E+01    1.81092E+00
 1.20000E+01    2.42154E+00
 1.25000E+01    3.15421E+00
 1.30000E+01    3.99976E+00
 1.35000E+01    4.94261E+00
 1.40000E+01    5.95297E+00
 1.45000E+01    6.97140E+00
 1.50000E+01    7.96086E+00
 1.55000E+01    8.86810E+00
 1.60000E+01    9.69186E+00
 1.65000E+01    1.04097E+01
 1.70000E+01    1.10497E+01
 1.75000E+01    1.16118E+01
 1.80000E+01    1.21266E+01
 1.85000E+01    1.25668E+01
 1.90000E+01    1.26822E+01
 1.95000E+01    1.29934E+01
 2.00000E+01    1.32793E+01
