# n + Sn116 : (n,d)g    
# jendl.ad   N.Iwamoto                         EVAL-Apr14
# uncertainties: n
# # energies =    26
#   E(MeV)       xs(mb) 
 7.11730E+00    0.00000E+00
 7.45647E+00    9.44140E-14
 8.50000E+00    3.84900E-13
 9.00000E+00    4.34300E-10
 9.50000E+00    3.17800E-08
 1.00000E+01    5.40670E-07
 1.05000E+01    3.97242E-06
 1.10000E+01    2.15185E-05
 1.15000E+01    1.28927E-04
 1.20000E+01    7.61405E-04
 1.25000E+01    3.62452E-03
 1.30000E+01    1.34110E-02
 1.35000E+01    3.96146E-02
 1.40000E+01    9.66111E-02
 1.45000E+01    2.00668E-01
 1.50000E+01    3.66132E-01
 1.55000E+01    6.01899E-01
 1.60000E+01    9.12528E-01
 1.65000E+01    1.29491E+00
 1.70000E+01    1.74529E+00
 1.75000E+01    2.25176E+00
 1.80000E+01    2.80857E+00
 1.85000E+01    3.40100E+00
 1.90000E+01    3.96533E+00
 1.95000E+01    4.60746E+00
 2.00000E+01    5.26401E+00
