# n + Sn116 : (n,xp)    
# jendl.ad   N.Iwamoto                         EVAL-Apr14
# 
# # energies =   111
#   E(MeV)        xs(mb) 
 1.05000E-01    0.00000E+00
 1.10000E-01    0.00000E+00
 1.20000E-01    0.00000E+00
 1.30000E-01    0.00000E+00
 1.40000E-01    0.00000E+00
 1.50000E-01    0.00000E+00
 1.60000E-01    0.00000E+00
 1.70000E-01    0.00000E+00
 1.80000E-01    0.00000E+00
 1.90000E-01    0.00000E+00
 2.00000E-01    0.00000E+00
 2.25000E-01    0.00000E+00
 2.50000E-01    0.00000E+00
 2.75000E-01    0.00000E+00
 3.00000E-01    0.00000E+00
 4.00000E-01    0.00000E+00
 5.00000E-01    0.00000E+00
 6.00000E-01    0.00000E+00
 7.00000E-01    0.00000E+00
 8.00000E-01    0.00000E+00
 9.00000E-01    0.00000E+00
 1.00000E+00    0.00000E+00
 1.10000E+00    0.00000E+00
 1.20000E+00    0.00000E+00
 1.30000E+00    0.00000E+00
 1.30482E+00    0.00000E+00
 1.40000E+00    0.00000E+00
 1.50000E+00    0.00000E+00
 1.60000E+00    0.00000E+00
 1.70000E+00    0.00000E+00
 1.77215E+00    0.00000E+00
 1.80000E+00    0.00000E+00
 1.90000E+00    0.00000E+00
 2.00000E+00    0.00000E+00
 2.04512E+00    0.00000E+00
 2.13070E+00    0.00000E+00
 2.24475E+00    0.00000E+00
 2.25000E+00    0.00000E+00
 2.28588E+00    0.00000E+00
 2.38657E+00    0.00000E+00
 2.41169E+00    0.00000E+00
 2.50000E+00    0.00000E+00
 2.55121E+00    4.36372E-15
 2.56786E+00    6.51649E-15
 2.60806E+00    1.17142E-14
 2.67351E+00    2.49881E-14
 2.75000E+00    4.81783E-14
 2.79747E+00    6.25703E-14
 2.81484E+00    6.82526E-14
 2.82566E+00    7.23985E-14
 2.86857E+00    8.88407E-14
 2.93416E+00    1.13973E-13
 2.93417E+00    1.13977E-13
 2.98579E+00    1.33757E-13
 3.00000E+00    1.39202E-13
 3.02235E+00    1.47766E-13
 3.04269E+00    1.55560E-13
 3.05909E+00    1.61844E-13
 3.07291E+00    1.67139E-13
 3.11551E+00    1.83463E-13
 3.12388E+00    1.86670E-13
 3.13220E+00    1.89858E-13
 3.18521E+00    2.10170E-13
 3.20735E+00    2.18654E-13
 3.21171E+00    2.20324E-13
 3.22212E+00    2.24313E-13
 3.23794E+00    2.30375E-13
 3.25554E+00    2.37119E-13
 3.25604E+00    2.37311E-13
 3.25615E+00    2.37353E-13
 3.26418E+00    2.40430E-13
 3.28602E+00    2.48798E-13
 3.30612E+00    2.56500E-13
 3.31761E+00    2.60903E-13
 3.33780E+00    2.68639E-13
 3.34384E+00    2.70954E-13
 3.36279E+00    2.78215E-13
 3.50000E+00    3.30791E-13
 4.00000E+00    5.22380E-13
 4.50000E+00    1.22800E-09
 5.00000E+00    3.70064E-04
 5.50000E+00    3.22623E-03
 6.00000E+00    1.50933E-02
 6.50000E+00    4.73456E-02
 7.00000E+00    1.12477E-01
 7.50000E+00    2.21394E-01
 8.00000E+00    3.85967E-01
 8.50000E+00    6.23746E-01
 9.00000E+00    9.66020E-01
 9.50000E+00    1.45808E+00
 1.00000E+01    2.15399E+00
 1.05000E+01    3.11083E+00
 1.10000E+01    4.36836E+00
 1.15000E+01    6.00633E+00
 1.20000E+01    8.00337E+00
 1.25000E+01    1.04007E+01
 1.30000E+01    1.31821E+01
 1.35000E+01    1.63406E+01
 1.40000E+01    1.98366E+01
 1.45000E+01    2.35970E+01
 1.50000E+01    2.75867E+01
 1.55000E+01    3.17101E+01
 1.60000E+01    3.59894E+01
 1.65000E+01    4.03334E+01
 1.70000E+01    4.48102E+01
 1.75000E+01    4.93597E+01
 1.80000E+01    5.40785E+01
 1.85000E+01    5.88295E+01
 1.90000E+01    6.30023E+01
 1.95000E+01    6.78810E+01
 2.00000E+01    7.28708E+01
