# n + Sn116 : (n,na)    
# jendl.ad   N.Iwamoto                         EVAL-Apr14
# uncertainties: n
# # energies =    31
#   E(MeV)       xs(mb) 
 3.40186E+00    0.00000E+00
 5.50000E+00    1.66090E-25
 6.00000E+00    3.80150E-18
 6.50000E+00    2.00360E-14
 7.00000E+00    1.12120E-11
 7.50000E+00    1.38860E-09
 8.00000E+00    6.03090E-08
 8.50000E+00    1.19677E-06
 9.00000E+00    1.34574E-05
 9.50000E+00    9.85912E-05
 1.00000E+01    4.26197E-04
 1.05000E+01    1.02789E-03
 1.10000E+01    1.68794E-03
 1.15000E+01    3.34847E-03
 1.20000E+01    7.52850E-03
 1.25000E+01    1.68481E-02
 1.30000E+01    3.58045E-02
 1.35000E+01    7.19379E-02
 1.40000E+01    1.36892E-01
 1.45000E+01    2.48482E-01
 1.50000E+01    4.30075E-01
 1.55000E+01    7.22700E-01
 1.60000E+01    1.16921E+00
 1.65000E+01    1.82104E+00
 1.70000E+01    2.73256E+00
 1.75000E+01    3.94710E+00
 1.80000E+01    5.50166E+00
 1.85000E+01    7.40650E+00
 1.90000E+01    9.66995E+00
 1.95000E+01    1.22552E+01
 2.00000E+01    1.51528E+01
