# n + Sn116 : (n,t)     
# jendl.ad   N.Iwamoto                         EVAL-Apr14
# uncertainties: n
# # energies =    57
#   E(MeV)       xs(mb) 
 9.92003E+00    0.00000E+00
 1.01120E+01    3.52590E-21
 1.01430E+01    2.49740E-17
 1.02103E+01    7.91840E-17
 1.04215E+01    2.49300E-16
 1.04263E+01    2.53170E-16
 1.04610E+01    2.81120E-16
 1.04994E+01    3.12050E-16
 1.05256E+01    3.33160E-16
 1.05535E+01    3.55630E-16
 1.05674E+01    3.66830E-16
 1.06135E+01    4.03960E-16
 1.06190E+01    4.08390E-16
 1.06225E+01    4.11210E-16
 1.06514E+01    4.34490E-16
 1.06549E+01    4.37310E-16
 1.07021E+01    4.75330E-16
 1.07522E+01    5.15680E-16
 1.07630E+01    5.24380E-16
 1.08340E+01    5.81570E-16
 1.08374E+01    5.84310E-16
 1.08991E+01    6.34010E-16
 1.09319E+01    6.60430E-16
 1.09352E+01    6.63090E-16
 1.09476E+01    6.73070E-16
 1.09487E+01    6.73960E-16
 1.09611E+01    6.83950E-16
 1.09662E+01    6.88060E-16
 1.09740E+01    6.94340E-16
 1.09764E+01    6.96270E-16
 1.09887E+01    7.06180E-16
 1.09918E+01    7.08680E-16
 1.09979E+01    7.13590E-16
 1.10000E+01    7.15280E-16
 1.10034E+01    7.64390E-16
 1.10121E+01    8.90050E-16
 1.10247E+01    1.07200E-15
 1.10415E+01    1.31470E-15
 1.10690E+01    1.71190E-15
 1.15000E+01    7.93720E-15
 1.20000E+01    1.72780E-11
 1.25000E+01    3.01380E-09
 1.30000E+01    7.30090E-08
 1.35000E+01    1.37133E-06
 1.40000E+01    1.38132E-05
 1.45000E+01    8.93112E-05
 1.50000E+01    4.14584E-04
 1.55000E+01    1.48827E-03
 1.60000E+01    4.32514E-03
 1.65000E+01    1.05144E-02
 1.70000E+01    2.19867E-02
 1.75000E+01    4.03684E-02
 1.80000E+01    6.74517E-02
 1.85000E+01    1.03871E-01
 1.90000E+01    1.49882E-01
 1.95000E+01    2.05263E-01
 2.00000E+01    2.69508E-01
