# n + Sn116 : (n,d)m    
# jendl.ad   N.Iwamoto                         EVAL-Apr14
# uncertainties: n
# # energies =    25
#   E(MeV)       xs(mb) 
 7.45647E+00    0.00000E+00
 8.50000E+00    1.05690E-14
 9.00000E+00    1.27690E-10
 9.50000E+00    4.37220E-08
 1.00000E+01    2.42467E-06
 1.05000E+01    3.06863E-05
 1.10000E+01    3.15401E-04
 1.15000E+01    1.95858E-03
 1.20000E+01    8.40798E-03
 1.25000E+01    2.72350E-02
 1.30000E+01    7.02418E-02
 1.35000E+01    1.50076E-01
 1.40000E+01    2.74551E-01
 1.45000E+01    4.42868E-01
 1.50000E+01    6.47556E-01
 1.55000E+01    8.75601E-01
 1.60000E+01    1.11603E+00
 1.65000E+01    1.35692E+00
 1.70000E+01    1.59471E+00
 1.75000E+01    1.82367E+00
 1.80000E+01    2.04684E+00
 1.85000E+01    2.26244E+00
 1.90000E+01    2.45533E+00
 1.95000E+01    2.66296E+00
 2.00000E+01    2.87696E+00
