# n + Fe 55 : (n,n'13)  
# endfb8.0   A.J. Koning and D. Rochman        EVAL-DEC15
# uncertainties: n
# # energies =    75
#   E(MeV)       xs(mb) 
 2.53572E+00    0.00000E+00
 2.58573E+00    2.93709E+01
 2.60000E+00    3.77516E+01
 2.62503E+00    3.92391E+01
 2.64774E+00    4.05887E+01
 2.80000E+00    4.96372E+01
 2.86546E+00    5.18399E+01
 2.92504E+00    5.38447E+01
 2.99286E+00    5.61269E+01
 3.00000E+00    5.63671E+01
 3.03685E+00    5.71481E+01
 3.03919E+00    5.71977E+01
 3.08410E+00    5.81495E+01
 3.12840E+00    5.90884E+01
 3.13248E+00    5.91749E+01
 3.16578E+00    5.98806E+01
 3.20000E+00    6.06059E+01
 3.34531E+00    6.27516E+01
 3.37179E+00    6.31426E+01
 3.40000E+00    6.35592E+01
 3.42373E+00    6.35334E+01
 3.48177E+00    6.34704E+01
 3.52037E+00    6.34284E+01
 3.60000E+00    6.33419E+01
 3.80000E+00    6.03085E+01
 4.00000E+00    5.57452E+01
 4.20000E+00    5.04150E+01
 4.40000E+00    4.48421E+01
 4.60000E+00    3.94462E+01
 4.80000E+00    3.43892E+01
 5.00000E+00    2.98727E+01
 5.20000E+00    2.58412E+01
 5.40000E+00    2.23580E+01
 5.60000E+00    1.93616E+01
 5.80000E+00    1.67207E+01
 6.00000E+00    1.44887E+01
 6.20000E+00    1.25643E+01
 6.40000E+00    1.08906E+01
 6.60000E+00    9.47488E+00
 6.80000E+00    8.23895E+00
 7.00000E+00    7.17729E+00
 7.20000E+00    6.25535E+00
 7.40000E+00    5.44076E+00
 7.60000E+00    4.76146E+00
 7.80000E+00    4.15022E+00
 8.00000E+00    3.63275E+00
 8.50000E+00    2.58214E+00
 9.00000E+00    1.83965E+00
 9.50000E+00    1.31302E+00
 1.00000E+01    9.38489E-01
 1.05000E+01    6.70250E-01
 1.10000E+01    4.81528E-01
 1.15000E+01    3.46682E-01
 1.20000E+01    2.50030E-01
 1.25000E+01    1.80649E-01
 1.30000E+01    1.30638E-01
 1.35000E+01    9.45354E-02
 1.40000E+01    6.83919E-02
 1.45000E+01    4.95206E-02
 1.50000E+01    3.58737E-02
 1.60000E+01    1.88750E-02
 1.70000E+01    9.99907E-03
 1.80000E+01    5.34560E-03
 1.90000E+01    2.88280E-03
 2.00000E+01    1.56965E-03
 2.10000E+01    8.64238E-04
 2.20000E+01    4.79240E-04
 2.30000E+01    2.67724E-04
 2.40000E+01    1.51647E-04
 2.50000E+01    8.60623E-05
 2.60000E+01    4.79836E-05
 2.70000E+01    2.74090E-05
 2.80000E+01    1.57558E-05
 2.90000E+01    9.11447E-06
 3.00000E+01    5.29363E-06
