# n + Fe 55 : (n,n'09)  
# endfb8.0   A.J. Koning and D. Rochman        EVAL-DEC15
# uncertainties: n
# # energies =    80
#   E(MeV)       xs(mb) 
 2.25248E+00    0.00000E+00
 2.29691E+00    8.42077E+00
 2.34331E+00    1.72149E+01
 2.40000E+00    2.79593E+01
 2.51555E+00    3.26488E+01
 2.53572E+00    3.34674E+01
 2.58573E+00    3.54971E+01
 2.60000E+00    3.60762E+01
 2.62503E+00    3.67922E+01
 2.64774E+00    3.74419E+01
 2.80000E+00    4.17977E+01
 2.86546E+00    4.31472E+01
 2.92504E+00    4.43754E+01
 2.99286E+00    4.57735E+01
 3.00000E+00    4.59207E+01
 3.03685E+00    4.59527E+01
 3.03919E+00    4.59548E+01
 3.08410E+00    4.59938E+01
 3.12840E+00    4.60323E+01
 3.13248E+00    4.60358E+01
 3.16578E+00    4.60648E+01
 3.20000E+00    4.60945E+01
 3.34531E+00    4.65754E+01
 3.37179E+00    4.66630E+01
 3.40000E+00    4.67564E+01
 3.42373E+00    4.66606E+01
 3.48177E+00    4.64262E+01
 3.52037E+00    4.62704E+01
 3.60000E+00    4.59488E+01
 3.80000E+00    4.33604E+01
 4.00000E+00    4.02412E+01
 4.20000E+00    3.69307E+01
 4.40000E+00    3.35998E+01
 4.60000E+00    3.03941E+01
 4.80000E+00    2.73423E+01
 5.00000E+00    2.45574E+01
 5.20000E+00    2.19841E+01
 5.40000E+00    1.96842E+01
 5.60000E+00    1.76306E+01
 5.80000E+00    1.57377E+01
 6.00000E+00    1.40805E+01
 6.20000E+00    1.25963E+01
 6.40000E+00    1.12564E+01
 6.60000E+00    1.00888E+01
 6.80000E+00    9.03853E+00
 7.00000E+00    8.11036E+00
 7.20000E+00    7.28471E+00
 7.40000E+00    6.53856E+00
 7.60000E+00    5.90363E+00
 7.80000E+00    5.32178E+00
 8.00000E+00    4.82110E+00
 8.50000E+00    3.77423E+00
 9.00000E+00    3.00666E+00
 9.50000E+00    2.44232E+00
 1.00000E+01    2.02618E+00
 1.05000E+01    1.71684E+00
 1.10000E+01    1.49061E+00
 1.15000E+01    1.32229E+00
 1.20000E+01    1.19620E+00
 1.25000E+01    1.10106E+00
 1.30000E+01    1.02828E+00
 1.35000E+01    9.71763E-01
 1.40000E+01    9.26979E-01
 1.45000E+01    8.90828E-01
 1.50000E+01    8.60970E-01
 1.60000E+01    8.14207E-01
 1.70000E+01    7.78950E-01
 1.80000E+01    7.51493E-01
 1.90000E+01    7.29869E-01
 2.00000E+01    7.12654E-01
 2.10000E+01    6.98518E-01
 2.20000E+01    6.86226E-01
 2.30000E+01    6.74780E-01
 2.40000E+01    6.63592E-01
 2.50000E+01    6.52420E-01
 2.60000E+01    6.41287E-01
 2.70000E+01    6.30345E-01
 2.80000E+01    6.19748E-01
 2.90000E+01    6.09604E-01
 3.00000E+01    5.99942E-01
