# n + Fe 55 : (n,n'10)  
# endfb8.0   A.J. Koning and D. Rochman        EVAL-DEC15
# uncertainties: n
# # energies =    79
#   E(MeV)       xs(mb) 
 2.29691E+00    0.00000E+00
 2.34331E+00    1.07868E+01
 2.40000E+00    2.39657E+01
 2.51555E+00    2.90275E+01
 2.53572E+00    2.99111E+01
 2.58573E+00    3.21018E+01
 2.60000E+00    3.27269E+01
 2.62503E+00    3.34484E+01
 2.64774E+00    3.41030E+01
 2.80000E+00    3.84917E+01
 2.86546E+00    3.99140E+01
 2.92504E+00    4.12086E+01
 2.99286E+00    4.26822E+01
 3.00000E+00    4.28373E+01
 3.03685E+00    4.29582E+01
 3.03919E+00    4.29659E+01
 3.08410E+00    4.31133E+01
 3.12840E+00    4.32587E+01
 3.13248E+00    4.32721E+01
 3.16578E+00    4.33814E+01
 3.20000E+00    4.34937E+01
 3.34531E+00    4.42626E+01
 3.37179E+00    4.44027E+01
 3.40000E+00    4.45520E+01
 3.42373E+00    4.44970E+01
 3.48177E+00    4.43626E+01
 3.52037E+00    4.42732E+01
 3.60000E+00    4.40887E+01
 3.80000E+00    4.17811E+01
 4.00000E+00    3.88626E+01
 4.20000E+00    3.56910E+01
 4.40000E+00    3.24546E+01
 4.60000E+00    2.93150E+01
 4.80000E+00    2.63096E+01
 5.00000E+00    2.35566E+01
 5.20000E+00    2.10054E+01
 5.40000E+00    1.87203E+01
 5.60000E+00    1.66764E+01
 5.80000E+00    1.47900E+01
 6.00000E+00    1.31366E+01
 6.20000E+00    1.16546E+01
 6.40000E+00    1.03160E+01
 6.60000E+00    9.14864E+00
 6.80000E+00    8.09817E+00
 7.00000E+00    7.17071E+00
 7.20000E+00    6.34498E+00
 7.40000E+00    5.59989E+00
 7.60000E+00    4.96571E+00
 7.80000E+00    4.38515E+00
 8.00000E+00    3.88666E+00
 8.50000E+00    2.84702E+00
 9.00000E+00    2.08950E+00
 9.50000E+00    1.53732E+00
 1.00000E+01    1.13458E+00
 1.05000E+01    8.39091E-01
 1.10000E+01    6.26583E-01
 1.15000E+01    4.71571E-01
 1.20000E+01    3.58357E-01
 1.25000E+01    2.75722E-01
 1.30000E+01    2.15249E-01
 1.35000E+01    1.70977E-01
 1.40000E+01    1.38463E-01
 1.45000E+01    1.14625E-01
 1.50000E+01    9.70713E-02
 1.60000E+01    7.44689E-02
 1.70000E+01    6.18769E-02
 1.80000E+01    5.46433E-02
 1.90000E+01    5.03269E-02
 2.00000E+01    4.76432E-02
 2.10000E+01    4.58799E-02
 2.20000E+01    4.46214E-02
 2.30000E+01    4.36292E-02
 2.40000E+01    4.27710E-02
 2.50000E+01    4.19761E-02
 2.60000E+01    4.12173E-02
 2.70000E+01    4.04919E-02
 2.80000E+01    3.97992E-02
 2.90000E+01    3.91412E-02
 3.00000E+01    3.85174E-02
