# n + Fe 55 : (n,xp)    
# endfb8.0   A.J. Koning and D. Rochman        EVAL-DEC15
# 
# # energies =   130
#   E(MeV)        xs(mb) 
 4.18974E-01    1.45463E+00
 5.00000E-01    2.11170E+00
 6.00000E-01    3.30090E+00
 7.00000E-01    4.99616E+00
 8.00000E-01    7.33813E+00
 9.00000E-01    1.04762E+01
 9.48388E-01    1.11785E+01
 1.00000E+00    1.19275E+01
 1.20000E+00    1.92515E+01
 1.34071E+00    2.34179E+01
 1.40000E+00    2.51734E+01
 1.43431E+00    2.61202E+01
 1.60000E+00    3.06927E+01
 1.80000E+00    4.17066E+01
 1.95352E+00    5.17264E+01
 2.00000E+00    5.47600E+01
 2.05200E+00    5.71818E+01
 2.08937E+00    5.89223E+01
 2.18336E+00    6.32997E+01
 2.20000E+00    6.40747E+01
 2.25248E+00    6.57403E+01
 2.29691E+00    6.71503E+01
 2.34331E+00    6.86229E+01
 2.40000E+00    7.04221E+01
 2.51555E+00    7.43145E+01
 2.53572E+00    7.49939E+01
 2.58573E+00    7.66785E+01
 2.60000E+00    7.71592E+01
 2.62503E+00    7.77316E+01
 2.64774E+00    7.82510E+01
 2.80000E+00    8.17331E+01
 2.86546E+00    8.34640E+01
 2.92504E+00    8.50394E+01
 2.99286E+00    8.68326E+01
 3.00000E+00    8.70214E+01
 3.03685E+00    8.76165E+01
 3.03919E+00    8.76543E+01
 3.08410E+00    8.83796E+01
 3.12840E+00    8.90951E+01
 3.13248E+00    8.91610E+01
 3.16578E+00    8.96988E+01
 3.20000E+00    9.02514E+01
 3.34531E+00    9.47030E+01
 3.37179E+00    9.55143E+01
 3.40000E+00    9.63785E+01
 3.42373E+00    9.71789E+01
 3.48177E+00    9.91364E+01
 3.52037E+00    1.00438E+02
 3.60000E+00    1.03124E+02
 3.80000E+00    1.09180E+02
 4.00000E+00    1.16191E+02
 4.20000E+00    1.24158E+02
 4.40000E+00    1.32823E+02
 4.60000E+00    1.42308E+02
 4.80000E+00    1.52029E+02
 5.00000E+00    1.62410E+02
 5.20000E+00    1.72758E+02
 5.40000E+00    1.83133E+02
 5.60000E+00    1.93929E+02
 5.80000E+00    2.03481E+02
 6.00000E+00    2.13696E+02
 6.20000E+00    2.23204E+02
 6.40000E+00    2.31751E+02
 6.60000E+00    2.40989E+02
 6.80000E+00    2.48560E+02
 7.00000E+00    2.56574E+02
 7.20000E+00    2.63777E+02
 7.40000E+00    2.69406E+02
 7.60000E+00    2.76803E+02
 7.80000E+00    2.81660E+02
 8.00000E+00    2.88006E+02
 8.50000E+00    2.99048E+02
 9.00000E+00    3.08775E+02
 9.50000E+00    3.17117E+02
 1.00000E+01    3.24134E+02
 1.05000E+01    3.29041E+02
 1.10000E+01    3.35453E+02
 1.15000E+01    3.47541E+02
 1.20000E+01    3.68925E+02
 1.25000E+01    3.94251E+02
 1.30000E+01    4.14694E+02
 1.35000E+01    4.28059E+02
 1.40000E+01    4.37873E+02
 1.45000E+01    4.43914E+02
 1.50000E+01    4.51459E+02
 1.60000E+01    4.65498E+02
 1.70000E+01    4.77774E+02
 1.80000E+01    4.86468E+02
 1.90000E+01    4.93063E+02
 2.00000E+01    4.94879E+02
 2.10000E+01    4.98542E+02
 2.20000E+01    5.07177E+02
 2.30000E+01    5.20650E+02
 2.40000E+01    5.39057E+02
 2.50000E+01    5.54510E+02
 2.60000E+01    5.63544E+02
 2.70000E+01    5.71365E+02
 2.80000E+01    5.76802E+02
 2.90000E+01    5.80954E+02
 3.00000E+01    5.82600E+02
 3.00000E+01    5.82303E+02
 3.20000E+01    5.84813E+02
 3.40000E+01    5.87648E+02
 3.60000E+01    5.94646E+02
 3.80000E+01    6.04593E+02
 4.00000E+01    6.13434E+02
 4.20000E+01    6.20585E+02
 4.40000E+01    6.27040E+02
 4.60000E+01    6.33978E+02
 4.80000E+01    6.39021E+02
 5.00000E+01    6.49480E+02
 5.20000E+01    6.59577E+02
 5.40000E+01    6.71638E+02
 5.60000E+01    6.82281E+02
 5.80000E+01    6.93545E+02
 6.00000E+01    7.01825E+02
 6.50000E+01    7.24388E+02
 7.00000E+01    7.43767E+02
 7.50000E+01    7.59610E+02
 8.00000E+01    7.74417E+02
 9.00000E+01    8.11346E+02
 1.00000E+02    8.44512E+02
 1.10000E+02    8.82661E+02
 1.20000E+02    9.22363E+02
 1.30000E+02    9.67908E+02
 1.40000E+02    1.00916E+03
 1.50000E+02    1.05888E+03
 1.60000E+02    1.11700E+03
 1.80000E+02    1.23576E+03
 2.00000E+02    1.34610E+03
