# n + Pu236 : (n,g)     
# jendl.ad   O.Iwamoto, T.Nakagawa, et al.     EVAL-FEB10
# uncertainties: n
# # energies =    69
#   E(MeV)       xs(mb) 
 1.00000E-10    1.92204E+05
 5.00000E-09    5.23573E+04
 1.00000E-08    3.96574E+04
 1.50000E-08    3.33286E+04
 2.00000E-08    2.93279E+04
 2.50000E-08    2.65040E+04
 3.00000E-08    2.43684E+04
 3.50000E-08    2.24105E+04
 4.20000E-08    2.05083E+04
 5.00000E-08    1.89322E+04
 5.80000E-08    1.76082E+04
 6.70000E-08    1.62654E+04
 8.00000E-08    1.47464E+04
 1.00000E-07    1.28821E+04
 1.40000E-07    1.11918E+04
 1.80000E-07    1.00807E+04
 2.20000E-07    9.36544E+03
 2.50000E-07    8.88974E+03
 2.80000E-07    8.55666E+03
 3.00000E-07    8.32807E+03
 3.20000E-07    8.08028E+03
 3.50000E-07    7.75225E+03
 4.00000E-07    7.30691E+03
 5.00000E-07    6.88169E+03
 6.25000E-07    6.63827E+03
 7.80000E-07    6.59177E+03
 8.50000E-07    6.62407E+03
 9.10000E-07    6.67052E+03
 9.50000E-07    6.70841E+03
 9.72000E-07    6.73983E+03
 9.96000E-07    6.77882E+03
 1.02000E-06    6.82389E+03
 1.04500E-06    6.87714E+03
 1.07100E-06    6.93594E+03
 1.09700E-06    6.99782E+03
 1.12300E-06    7.06752E+03
 1.15000E-06    7.34443E+03
 1.30000E-06    8.09658E+03
 1.50000E-06    1.15593E+04
 2.10000E-06    2.80824E+04
 2.60000E-06    6.70935E+05
 3.30000E-06    1.16053E+05
 4.00000E-06    2.62152E+04
 9.87700E-06    1.20578E+04
 1.59680E-05    5.98190E+03
 2.77000E-05    6.60214E+03
 4.80520E-05    6.59512E+03
 7.55014E-05    3.78761E+03
 1.48728E-04    2.41947E+03
 3.67262E-04    1.48951E+03
 9.06898E-04    1.02361E+03
 1.42510E-03    8.01236E+02
 2.23945E-03    6.29076E+02
 3.51910E-03    4.97926E+02
 5.53000E-03    3.95127E+02
 9.11800E-03    3.19516E+02
 1.50300E-02    2.66441E+02
 2.47800E-02    2.30430E+02
 4.08500E-02    2.04471E+02
 6.73400E-02    1.80617E+02
 1.11000E-01    1.55934E+02
 1.83000E-01    1.48619E+02
 3.02000E-01    1.46753E+02
 5.00000E-01    1.61536E+02
 8.21000E-01    1.67598E+02
 1.35300E+00    1.17926E+02
 2.23100E+00    4.01185E+01
 3.67900E+00    5.92648E+00
 6.06500E+00    1.58962E+00
