# n + Pu236 : (n,f)     
# jendl.ad   O.Iwamoto, T.Nakagawa, et al.     EVAL-FEB10
# uncertainties: n
# # energies =   171
#   E(MeV)       xs(mb) 
 1.00000E-11    1.52910E+06
 1.00000E-07    4.80425E+04
 4.13990E-07    3.06035E+04
 5.31580E-07    2.75516E+04
 6.82560E-07    2.54589E+04
 8.76420E-07    2.45628E+04
 1.12540E-06    2.54853E+04
 1.44500E-06    3.01912E+04
 1.85540E-06    4.80288E+04
 2.37240E-06    3.61441E+05
 3.05900E-06    1.33833E+06
 3.92790E-06    5.47622E+04
 5.04350E-06    5.50490E+05
 6.47600E-06    1.83628E+05
 8.31530E-06    3.58412E+04
 1.06770E-05    1.19731E+05
 1.37100E-05    1.36088E+05
 1.76030E-05    6.18848E+04
 2.26030E-05    3.67699E+04
 2.92030E-05    5.65929E+04
 3.72670E-05    8.73088E+04
 4.78510E-05    7.98248E+04
 6.14420E-05    6.00479E+04
 7.88930E-05    5.35480E+04
 1.01300E-04    4.92940E+04
 1.30070E-04    4.53876E+04
 1.67020E-04    4.17387E+04
 2.14450E-04    3.75432E+04
 2.75360E-04    3.34848E+04
 3.53580E-04    2.96062E+04
 4.54000E-04    2.48010E+04
 5.82950E-04    2.10463E+04
 7.48520E-04    1.85218E+04
 9.61120E-04    1.60801E+04
 1.23410E-03    1.35976E+04
 1.58460E-03    1.14928E+04
 2.03470E-03    1.03462E+04
 2.24870E-03    9.87278E+03
 2.48520E-03    9.52853E+03
 2.61260E-03    9.30763E+03
 2.74650E-03    8.98737E+03
 3.03540E-03    8.57610E+03
 3.35460E-03    8.18244E+03
 3.70740E-03    7.74189E+03
 4.30740E-03    7.27102E+03
 5.53080E-03    6.71761E+03
 7.10170E-03    6.11531E+03
 9.11880E-03    5.53910E+03
 1.17090E-02    4.95131E+03
 1.50340E-02    4.41961E+03
 1.93050E-02    4.09737E+03
 2.18750E-02    4.03467E+03
 2.35790E-02    4.00463E+03
 2.41760E-02    3.98935E+03
 2.47880E-02    3.96966E+03
 2.60580E-02    3.94689E+03
 2.70000E-02    3.92189E+03
 2.85000E-02    3.87484E+03
 3.18280E-02    3.82573E+03
 3.43070E-02    3.75759E+03
 4.08680E-02    3.68028E+03
 4.63090E-02    3.61546E+03
 5.24750E-02    3.56425E+03
 5.65620E-02    3.50150E+03
 6.73790E-02    3.44170E+03
 7.20000E-02    3.40195E+03
 7.95000E-02    3.36839E+03
 8.25000E-02    3.34944E+03
 8.65170E-02    3.30801E+03
 9.80370E-02    3.23433E+03
 1.11090E-01    3.16773E+03
 1.16790E-01    3.12901E+03
 1.22770E-01    3.09204E+03
 1.29070E-01    3.05343E+03
 1.35690E-01    3.01727E+03
 1.42640E-01    2.98081E+03
 1.49960E-01    2.94391E+03
 1.57640E-01    2.90944E+03
 1.65730E-01    2.87349E+03
 1.74220E-01    2.83824E+03
 1.83160E-01    2.80457E+03
 1.92550E-01    2.76986E+03
 2.02420E-01    2.73756E+03
 2.12800E-01    2.70434E+03
 2.23710E-01    2.67063E+03
 2.35180E-01    2.63944E+03
 2.47240E-01    2.59082E+03
 2.73240E-01    2.54475E+03
 2.87250E-01    2.52154E+03
 2.94520E-01    2.51070E+03
 2.97200E-01    2.50638E+03
 2.98500E-01    2.50120E+03
 3.01970E-01    2.46782E+03
 3.33730E-01    2.40813E+03
 3.68830E-01    2.36481E+03
 3.87740E-01    2.33580E+03
 4.07620E-01    2.29436E+03
 4.50490E-01    2.23836E+03
 4.97870E-01    2.21536E+03
 5.23400E-01    2.23554E+03
 5.50230E-01    2.25693E+03
 5.78440E-01    2.27941E+03
 6.08100E-01    2.30248E+03
 6.39280E-01    2.32401E+03
 6.72060E-01    2.34629E+03
 7.06510E-01    2.36972E+03
 7.42740E-01    2.39397E+03
 7.80820E-01    2.41653E+03
 8.20850E-01    2.43964E+03
 8.62940E-01    2.46393E+03
 9.07180E-01    2.49154E+03
 9.61640E-01    2.51669E+03
 1.00260E+00    2.51413E+03
 1.10800E+00    2.49630E+03
 1.16480E+00    2.48359E+03
 1.22460E+00    2.47024E+03
 1.28730E+00    2.45622E+03
 1.35340E+00    2.44374E+03
 1.42270E+00    2.43218E+03
 1.49570E+00    2.42002E+03
 1.57240E+00    2.40724E+03
 1.65300E+00    2.39381E+03
 1.73770E+00    2.38005E+03
 1.82680E+00    2.36691E+03
 1.92050E+00    2.35322E+03
 2.01900E+00    2.33748E+03
 2.12250E+00    2.31774E+03
 2.23130E+00    2.30045E+03
 2.30690E+00    2.28972E+03
 2.34570E+00    2.28425E+03
 2.36530E+00    2.28056E+03
 2.38520E+00    2.27118E+03
 2.46600E+00    2.25407E+03
 2.59240E+00    2.23443E+03
 2.72530E+00    2.21377E+03
 2.86500E+00    2.19273E+03
 3.01190E+00    2.17371E+03
 3.16640E+00    2.15412E+03
 3.32870E+00    2.12412E+03
 3.67880E+00    2.08646E+03
 4.06570E+00    2.04703E+03
 4.49330E+00    2.02437E+03
 4.72370E+00    2.01970E+03
 4.96590E+00    2.02618E+03
 5.22050E+00    2.05183E+03
 5.48810E+00    2.09759E+03
 5.76950E+00    2.16851E+03
 6.06530E+00    2.25942E+03
 6.37630E+00    2.34490E+03
 6.59240E+00    2.39684E+03
 6.70320E+00    2.46525E+03
 7.04690E+00    2.54748E+03
 7.40820E+00    2.61585E+03
 7.78800E+00    2.67231E+03
 8.18730E+00    2.70018E+03
 8.60710E+00    2.72338E+03
 9.04840E+00    2.73109E+03
 9.51230E+00    2.72993E+03
 1.00000E+01    2.72586E+03
 1.05130E+01    2.71545E+03
 1.10520E+01    2.69802E+03
 1.16180E+01    2.67192E+03
 1.22140E+01    2.64110E+03
 1.28400E+01    2.60870E+03
 1.34990E+01    2.58696E+03
 1.38400E+01    2.57854E+03
 1.41910E+01    2.57870E+03
 1.45500E+01    2.58480E+03
 1.49180E+01    2.60329E+03
 1.56830E+01    2.63463E+03
 1.64870E+01    2.66529E+03
