# n + Yb171 : (n,n'14)  
# endfb8.0   S.Kunieda, A.Ichihara, K.Shibata+ EVAL-FEB10
# uncertainties: n
# # energies =    48
#   E(MeV)       xs(mb) 
 5.50000E-01    0.00000E+00
 6.00000E-01    3.43900E-05
 6.50000E-01    4.54400E-04
 7.00000E-01    1.52600E-03
 7.50000E-01    3.51400E-03
 8.00000E-01    7.09600E-03
 8.50000E-01    1.24000E-02
 9.00000E-01    1.99800E-02
 9.50000E-01    3.05500E-02
 1.00000E+00    4.37800E-02
 1.20000E+00    1.40800E-01
 1.40000E+00    2.96900E-01
 1.60000E+00    4.88300E-01
 1.80000E+00    6.67300E-01
 2.00000E+00    8.10900E-01
 2.20000E+00    9.06100E-01
 2.40000E+00    9.47400E-01
 2.60000E+00    9.40900E-01
 2.80000E+00    8.96300E-01
 3.00000E+00    8.25100E-01
 3.25000E+00    7.07200E-01
 3.50000E+00    5.95200E-01
 3.75000E+00    4.94800E-01
 4.00000E+00    4.04600E-01
 4.25000E+00    3.27500E-01
 4.50000E+00    2.66100E-01
 4.75000E+00    2.21900E-01
 5.00000E+00    1.86200E-01
 5.50000E+00    1.38100E-01
 6.00000E+00    1.16700E-01
 6.50000E+00    1.02600E-01
 7.00000E+00    9.96300E-02
 7.50000E+00    9.46700E-02
 8.00000E+00    9.58300E-02
 8.50000E+00    9.24900E-02
 9.00000E+00    9.38900E-02
 9.50000E+00    9.05100E-02
 1.00000E+01    9.13800E-02
 1.10000E+01    8.80400E-02
 1.20000E+01    8.40100E-02
 1.30000E+01    7.95900E-02
 1.40000E+01    7.65100E-02
 1.50000E+01    7.33800E-02
 1.60000E+01    7.02200E-02
 1.70000E+01    6.37900E-02
 1.80000E+01    6.09600E-02
 1.90000E+01    5.81400E-02
 2.00000E+01    5.53200E-02
