# n + Yb171 : (n,non)   
# endfb8.0   S.Kunieda, A.Ichihara, K.Shibata+ EVAL-FEB10
# uncertainties: n
# # energies =   131
#   E(MeV)       xs(mb) 
 1.70000E-03    0.00000E+00
 1.70000E-03    6.80880E+03
 2.00000E-03    6.06100E+03
 2.50000E-03    5.16991E+03
 3.00000E-03    4.54000E+03
 3.50000E-03    4.07036E+03
 4.00000E-03    3.70300E+03
 5.00000E-03    3.17600E+03
 6.00000E-03    2.81700E+03
 7.00000E-03    2.55900E+03
 8.00000E-03    2.36300E+03
 9.00000E-03    2.21000E+03
 1.00000E-02    2.08600E+03
 1.25000E-02    1.87023E+03
 1.50000E-02    1.71061E+03
 2.00000E-02    1.48600E+03
 2.50000E-02    1.35346E+03
 3.00000E-02    1.25400E+03
 4.00000E-02    1.12300E+03
 5.00000E-02    1.03600E+03
 6.00000E-02    9.73700E+02
 6.71147E-02    8.97917E+02
 7.00000E-02    1.07970E+03
 7.63257E-02    1.10477E+03
 8.00000E-02    1.14750E+03
 9.00000E-02    1.18834E+03
 9.58342E-02    1.20820E+03
 1.00000E-01    1.22537E+03
 1.20000E-01    1.30074E+03
 1.23140E-01    1.30375E+03
 1.40000E-01    1.39026E+03
 1.60000E-01    1.48424E+03
 1.68647E-01    1.52198E+03
 1.80000E-01    1.57480E+03
 2.00000E-01    1.66063E+03
 2.09235E-01    1.68693E+03
 2.31984E-01    1.77380E+03
 2.48063E-01    1.85419E+03
 2.50000E-01    1.86402E+03
 2.60595E-01    1.90117E+03
 3.00000E-01    2.04370E+03
 3.19175E-01    2.10144E+03
 3.50000E-01    2.19626E+03
 3.71077E-01    2.25043E+03
 4.00000E-01    2.32559E+03
 4.50000E-01    2.43592E+03
 4.52237E-01    2.44007E+03
 4.90105E-01    2.51089E+03
 5.00000E-01    2.52953E+03
 5.04157E-01    2.53617E+03
 5.12104E-01    2.54887E+03
 5.50000E-01    2.60963E+03
 6.00000E-01    2.67850E+03
 6.07866E-01    2.68780E+03
 6.50000E-01    2.73764E+03
 6.51723E-01    2.73941E+03
 7.00000E-01    2.78907E+03
 7.50000E-01    2.83423E+03
 7.70520E-01    2.83515E+03
 7.84100E-01    2.86052E+03
 8.00000E-01    2.89023E+03
 8.30371E-01    2.91381E+03
 8.37412E-01    2.91928E+03
 8.39990E-01    2.92128E+03
 8.50000E-01    2.93606E+03
 8.64572E-01    2.93998E+03
 8.72116E-01    2.94201E+03
 8.81169E-01    2.94469E+03
 9.00000E-01    2.98342E+03
 9.07564E-01    2.97912E+03
 9.12453E-01    2.98158E+03
 9.40751E-01    3.02759E+03
 9.49862E-01    3.04346E+03
 9.50000E-01    3.04553E+03
 9.53937E-01    3.04405E+03
 9.60233E-01    3.04188E+03
 9.63814E-01    3.04328E+03
 9.76730E-01    3.05813E+03
 9.81558E-01    3.06551E+03
 9.86588E-01    3.07320E+03
 9.89806E-01    3.07816E+03
 9.93327E-01    3.08396E+03
 9.97451E-01    3.09749E+03
 1.00000E+00    3.11453E+03
 1.01003E+00    3.12877E+03
 1.02008E+00    3.14306E+03
 1.20000E+00    3.40615E+03
 1.40000E+00    3.45693E+03
 1.60000E+00    3.47706E+03
 1.80000E+00    3.47763E+03
 2.00000E+00    3.46648E+03
 2.20000E+00    3.44860E+03
 2.40000E+00    3.42772E+03
 2.60000E+00    3.40574E+03
 2.80000E+00    3.38348E+03
 3.00000E+00    3.36022E+03
 3.25000E+00    3.32977E+03
 3.50000E+00    3.29906E+03
 3.75000E+00    3.26858E+03
 4.00000E+00    3.23975E+03
 4.25000E+00    3.21349E+03
 4.50000E+00    3.19047E+03
 4.60293E+00    3.18171E+03
 4.75000E+00    3.16919E+03
 4.93964E+00    3.15401E+03
 5.00000E+00    3.14918E+03
 5.27429E+00    3.12803E+03
 5.50000E+00    3.11063E+03
 6.00000E+00    3.07218E+03
 6.50000E+00    3.03351E+03
 6.65353E+00    3.00149E+03
 6.84062E+00    2.99900E+03
 7.00000E+00    2.99695E+03
 7.50000E+00    2.96390E+03
 8.00000E+00    2.93367E+03
 8.50000E+00    2.90805E+03
 9.00000E+00    2.88400E+03
 9.50000E+00    2.86232E+03
 1.00000E+01    2.84350E+03
 1.10000E+01    2.80683E+03
 1.12338E+01    2.79906E+03
 1.20000E+01    2.77358E+03
 1.30000E+01    2.74322E+03
 1.40000E+01    2.71549E+03
 1.50000E+01    2.69201E+03
 1.51735E+01    2.68536E+03
 1.60000E+01    2.67042E+03
 1.70000E+01    2.65200E+03
 1.80000E+01    2.63447E+03
 1.90000E+01    2.61688E+03
 2.00000E+01    2.59984E+03
