# n + Yb171 : (n,n'02)  
# endfb8.0   S.Kunieda, A.Ichihara, K.Shibata+ EVAL-FEB10
# uncertainties: n
# # energies =    63
#   E(MeV)       xs(mb) 
 7.63257E-02    0.00000E+00
 8.00000E-02    2.40000E+01
 9.00000E-02    6.28400E+01
 1.00000E-01    1.02800E+02
 1.20000E-01    1.77200E+02
 1.40000E-01    2.30100E+02
 1.60000E-01    2.79600E+02
 1.80000E-01    3.23600E+02
 2.00000E-01    3.62900E+02
 2.50000E-01    4.35600E+02
 3.00000E-01    4.94000E+02
 3.50000E-01    5.41200E+02
 4.00000E-01    5.78900E+02
 4.50000E-01    6.08600E+02
 5.00000E-01    6.31500E+02
 5.50000E-01    6.48800E+02
 6.00000E-01    6.61400E+02
 6.50000E-01    6.70500E+02
 7.00000E-01    6.76800E+02
 7.50000E-01    6.80900E+02
 8.00000E-01    6.75800E+02
 8.50000E-01    6.70300E+02
 9.00000E-01    6.59700E+02
 9.50000E-01    6.38100E+02
 1.00000E+00    6.09100E+02
 1.20000E+00    5.55300E+02
 1.40000E+00    4.79500E+02
 1.60000E+00    4.21400E+02
 1.80000E+00    3.78700E+02
 2.00000E+00    3.47800E+02
 2.20000E+00    3.25200E+02
 2.40000E+00    3.08400E+02
 2.60000E+00    2.95700E+02
 2.80000E+00    2.85700E+02
 3.00000E+00    2.77800E+02
 3.25000E+00    2.69600E+02
 3.50000E+00    2.63300E+02
 3.75000E+00    2.58100E+02
 4.00000E+00    2.53700E+02
 4.25000E+00    2.50000E+02
 4.50000E+00    2.46800E+02
 4.75000E+00    2.44100E+02
 5.00000E+00    2.41600E+02
 5.50000E+00    2.36900E+02
 6.00000E+00    2.31900E+02
 6.50000E+00    2.26200E+02
 7.00000E+00    2.20000E+02
 7.50000E+00    2.13500E+02
 8.00000E+00    2.07100E+02
 8.50000E+00    2.00900E+02
 9.00000E+00    1.95100E+02
 9.50000E+00    1.89600E+02
 1.00000E+01    1.84500E+02
 1.10000E+01    1.75100E+02
 1.20000E+01    1.66500E+02
 1.30000E+01    1.58600E+02
 1.40000E+01    1.51300E+02
 1.50000E+01    1.44700E+02
 1.60000E+01    1.38700E+02
 1.70000E+01    1.33300E+02
 1.80000E+01    1.28400E+02
 1.90000E+01    1.23900E+02
 2.00000E+01    1.19900E+02
