# n + Yb171 : (n,n'07)  
# endfb8.0   S.Kunieda, A.Ichihara, K.Shibata+ EVAL-FEB10
# uncertainties: n
# # energies =    55
#   E(MeV)       xs(mb) 
 2.31984E-01    0.00000E+00
 2.50000E-01    1.82000E+01
 3.00000E-01    4.39400E+01
 3.50000E-01    6.54800E+01
 4.00000E-01    8.42000E+01
 4.50000E-01    1.01000E+02
 5.00000E-01    1.16200E+02
 5.50000E-01    1.30000E+02
 6.00000E-01    1.42500E+02
 6.50000E-01    1.53700E+02
 7.00000E-01    1.63700E+02
 7.50000E-01    1.72600E+02
 8.00000E-01    1.78500E+02
 8.50000E-01    1.82600E+02
 9.00000E-01    1.83900E+02
 9.50000E-01    1.80300E+02
 1.00000E+00    1.71800E+02
 1.20000E+00    1.58900E+02
 1.40000E+00    1.26200E+02
 1.60000E+00    9.62600E+01
 1.80000E+00    7.22000E+01
 2.00000E+00    5.36900E+01
 2.20000E+00    3.97600E+01
 2.40000E+00    2.93900E+01
 2.60000E+00    2.17200E+01
 2.80000E+00    1.60500E+01
 3.00000E+00    1.18700E+01
 3.25000E+00    8.00500E+00
 3.50000E+00    5.54300E+00
 3.75000E+00    3.86200E+00
 4.00000E+00    2.70000E+00
 4.25000E+00    1.89600E+00
 4.50000E+00    1.35900E+00
 4.75000E+00    1.01000E+00
 5.00000E+00    7.63300E-01
 5.50000E+00    4.73500E-01
 6.00000E+00    3.45600E-01
 6.50000E+00    2.68700E-01
 7.00000E+00    2.34800E-01
 7.50000E+00    2.03100E-01
 8.00000E+00    1.89200E-01
 8.50000E+00    1.69500E-01
 9.00000E+00    1.60900E-01
 9.50000E+00    1.45900E-01
 1.00000E+01    1.39400E-01
 1.10000E+01    1.21800E-01
 1.20000E+01    1.07000E-01
 1.30000E+01    9.44800E-02
 1.40000E+01    8.54100E-02
 1.50000E+01    7.76400E-02
 1.60000E+01    7.08600E-02
 1.70000E+01    6.17400E-02
 1.80000E+01    5.68600E-02
 1.90000E+01    5.24800E-02
 2.00000E+01    4.85300E-02
