# n + Yb171 : (n,n'03)  
# endfb8.0   S.Kunieda, A.Ichihara, K.Shibata+ EVAL-FEB10
# uncertainties: n
# # energies =    61
#   E(MeV)       xs(mb) 
 9.58342E-02    0.00000E+00
 1.00000E-01    6.72600E-01
 1.20000E-01    6.84100E+00
 1.40000E-01    1.36300E+01
 1.60000E-01    2.30400E+01
 1.80000E-01    3.36700E+01
 2.00000E-01    4.51200E+01
 2.50000E-01    6.89600E+01
 3.00000E-01    9.50700E+01
 3.50000E-01    1.20000E+02
 4.00000E-01    1.42200E+02
 4.50000E-01    1.61300E+02
 5.00000E-01    1.77100E+02
 5.50000E-01    1.90000E+02
 6.00000E-01    2.00400E+02
 6.50000E-01    2.08700E+02
 7.00000E-01    2.15500E+02
 7.50000E-01    2.20900E+02
 8.00000E-01    2.21600E+02
 8.50000E-01    2.21900E+02
 9.00000E-01    2.20400E+02
 9.50000E-01    2.14000E+02
 1.00000E+00    2.01800E+02
 1.20000E+00    1.76300E+02
 1.40000E+00    1.36100E+02
 1.60000E+00    1.02600E+02
 1.80000E+00    7.63600E+01
 2.00000E+00    5.64400E+01
 2.20000E+00    4.15800E+01
 2.40000E+00    3.06000E+01
 2.60000E+00    2.25100E+01
 2.80000E+00    1.65700E+01
 3.00000E+00    1.22000E+01
 3.25000E+00    8.19100E+00
 3.50000E+00    5.65000E+00
 3.75000E+00    3.92400E+00
 4.00000E+00    2.73800E+00
 4.25000E+00    1.92200E+00
 4.50000E+00    1.37600E+00
 4.75000E+00    1.02200E+00
 5.00000E+00    7.72600E-01
 5.50000E+00    4.78900E-01
 6.00000E+00    3.49200E-01
 6.50000E+00    2.71300E-01
 7.00000E+00    2.36800E-01
 7.50000E+00    2.04800E-01
 8.00000E+00    1.90800E-01
 8.50000E+00    1.70900E-01
 9.00000E+00    1.62200E-01
 9.50000E+00    1.47100E-01
 1.00000E+01    1.40500E-01
 1.10000E+01    1.22700E-01
 1.20000E+01    1.07700E-01
 1.30000E+01    9.49900E-02
 1.40000E+01    8.58200E-02
 1.50000E+01    7.79800E-02
 1.60000E+01    7.11500E-02
 1.70000E+01    6.19800E-02
 1.80000E+01    5.70800E-02
 1.90000E+01    5.26900E-02
 2.00000E+01    4.87200E-02
