# n + Yb171 : (n,tot)   
# endfb8.0   S.Kunieda, A.Ichihara, K.Shibata+ EVAL-FEB10
# uncertainties: n
# # energies =   171
#   E(MeV)       xs(mb) 
 1.00000E-11    6.57373E+05
 1.00000E-07    3.67133E+04
 4.13990E-07    2.86464E+04
 5.31580E-07    2.67767E+04
 6.82560E-07    2.50435E+04
 8.76420E-07    2.34175E+04
 1.12540E-06    2.18764E+04
 1.44500E-06    2.03956E+04
 1.85540E-06    1.89715E+04
 2.37240E-06    1.75695E+04
 3.05900E-06    1.62178E+04
 3.92790E-06    1.50462E+04
 5.04350E-06    1.48589E+04
 6.47600E-06    4.32238E+05
 8.31530E-06    2.16939E+04
 1.06770E-05    2.50364E+05
 1.37100E-05    1.59322E+04
 1.76030E-05    1.36487E+04
 2.26030E-05    4.26764E+04
 2.92030E-05    5.83679E+04
 3.72670E-05    8.48122E+04
 4.78510E-05    1.41792E+05
 6.14420E-05    6.31969E+04
 7.88930E-05    2.28949E+04
 1.01300E-04    9.71524E+04
 1.30070E-04    8.19825E+04
 1.67020E-04    6.70983E+04
 2.14450E-04    2.90466E+04
 2.75360E-04    4.82313E+04
 3.53580E-04    5.79031E+04
 4.54000E-04    5.08902E+04
 5.82950E-04    3.63437E+04
 7.48520E-04    3.18273E+04
 9.61120E-04    2.92339E+04
 1.23410E-03    3.41099E+04
 1.58460E-03    2.63805E+04
 2.03470E-03    2.51809E+04
 2.24870E-03    2.43247E+04
 2.48520E-03    2.37045E+04
 2.61260E-03    2.33072E+04
 2.74650E-03    2.27239E+04
 3.03540E-03    2.19457E+04
 3.35460E-03    2.11813E+04
 3.70740E-03    2.02746E+04
 4.30740E-03    1.89290E+04
 5.53080E-03    1.74717E+04
 7.10170E-03    1.62696E+04
 9.11880E-03    1.52498E+04
 1.17090E-02    1.43429E+04
 1.50340E-02    1.35004E+04
 1.93050E-02    1.29088E+04
 2.18750E-02    1.26198E+04
 2.35790E-02    1.24782E+04
 2.41760E-02    1.24084E+04
 2.47880E-02    1.23042E+04
 2.60580E-02    1.21865E+04
 2.70000E-02    1.20650E+04
 2.85000E-02    1.18490E+04
 3.18280E-02    1.16284E+04
 3.43070E-02    1.13426E+04
 4.08680E-02    1.10179E+04
 4.63090E-02    1.07620E+04
 5.24750E-02    1.05657E+04
 5.65620E-02    1.02764E+04
 6.73790E-02    1.00668E+04
 7.20000E-02    9.95300E+03
 7.95000E-02    9.84965E+03
 8.25000E-02    9.78056E+03
 8.65170E-02    9.64131E+03
 9.80370E-02    9.45425E+03
 1.11090E-01    9.32686E+03
 1.16790E-01    9.24867E+03
 1.22770E-01    9.17007E+03
 1.29070E-01    9.10784E+03
 1.35690E-01    9.04568E+03
 1.42640E-01    8.98032E+03
 1.49960E-01    8.91160E+03
 1.57640E-01    8.84228E+03
 1.65730E-01    8.78334E+03
 1.74220E-01    8.72319E+03
 1.83160E-01    8.65994E+03
 1.92550E-01    8.59507E+03
 2.02420E-01    8.53106E+03
 2.12800E-01    8.46489E+03
 2.23710E-01    8.40966E+03
 2.35180E-01    8.35969E+03
 2.47240E-01    8.29342E+03
 2.73240E-01    8.22311E+03
 2.87250E-01    8.18587E+03
 2.94520E-01    8.16847E+03
 2.97200E-01    8.16153E+03
 2.98500E-01    8.15323E+03
 3.01970E-01    8.09829E+03
 3.33730E-01    8.01396E+03
 3.68830E-01    7.94764E+03
 3.87740E-01    7.90596E+03
 4.07620E-01    7.85188E+03
 4.50490E-01    7.77368E+03
 4.97870E-01    7.71908E+03
 5.23400E-01    7.68799E+03
 5.50230E-01    7.65532E+03
 5.78440E-01    7.62096E+03
 6.08100E-01    7.58484E+03
 6.39280E-01    7.55031E+03
 6.72060E-01    7.51934E+03
 7.06510E-01    7.48684E+03
 7.42740E-01    7.44749E+03
 7.80820E-01    7.42754E+03
 8.20850E-01    7.39780E+03
 8.62940E-01    7.36555E+03
 9.07180E-01    7.34017E+03
 9.61640E-01    7.30771E+03
 1.00260E+00    7.29825E+03
 1.10800E+00    7.26934E+03
 1.16480E+00    7.24873E+03
 1.22460E+00    7.22708E+03
 1.28730E+00    7.20431E+03
 1.35340E+00    7.18065E+03
 1.42270E+00    7.15695E+03
 1.49570E+00    7.13214E+03
 1.57240E+00    7.10607E+03
 1.65300E+00    7.07867E+03
 1.73770E+00    7.04987E+03
 1.82680E+00    7.01957E+03
 1.92050E+00    6.98771E+03
 2.01900E+00    6.95036E+03
 2.12250E+00    6.90554E+03
 2.23130E+00    6.86646E+03
 2.30690E+00    6.84222E+03
 2.34570E+00    6.82986E+03
 2.36530E+00    6.82151E+03
 2.38520E+00    6.80032E+03
 2.46600E+00    6.75665E+03
 2.59240E+00    6.70131E+03
 2.72530E+00    6.63740E+03
 2.86500E+00    6.56870E+03
 3.01190E+00    6.49645E+03
 3.16640E+00    6.42051E+03
 3.32870E+00    6.29873E+03
 3.67880E+00    6.12217E+03
 4.06570E+00    5.93189E+03
 4.49330E+00    5.79384E+03
 4.72370E+00    5.69801E+03
 4.96590E+00    5.60905E+03
 5.22050E+00    5.52101E+03
 5.48810E+00    5.43474E+03
 5.76950E+00    5.35651E+03
 6.06530E+00    5.27809E+03
 6.37630E+00    5.21550E+03
 6.59240E+00    5.17194E+03
 6.70320E+00    5.14317E+03
 7.04690E+00    5.10353E+03
 7.40820E+00    5.06393E+03
 7.78800E+00    5.03648E+03
 8.18730E+00    5.01988E+03
 8.60710E+00    5.01184E+03
 9.04840E+00    5.01902E+03
 9.51230E+00    5.03453E+03
 1.00000E+01    5.05943E+03
 1.05130E+01    5.09166E+03
 1.10520E+01    5.12931E+03
 1.16180E+01    5.17124E+03
 1.22140E+01    5.21397E+03
 1.28400E+01    5.25538E+03
 1.34990E+01    5.28385E+03
 1.38400E+01    5.30256E+03
 1.41910E+01    5.31784E+03
 1.45500E+01    5.33293E+03
 1.49180E+01    5.34871E+03
 1.56830E+01    5.36422E+03
 1.64870E+01    5.36653E+03
