# n + Yb171 : (n,n'11)  
# endfb8.0   S.Kunieda, A.Ichihara, K.Shibata+ EVAL-FEB10
# uncertainties: n
# # energies =    52
#   E(MeV)       xs(mb) 
 3.71077E-01    0.00000E+00
 4.00000E-01    4.86200E-03
 4.50000E-01    3.07600E-02
 5.00000E-01    8.15700E-02
 5.50000E-01    1.69200E-01
 6.00000E-01    3.01100E-01
 6.50000E-01    4.93000E-01
 7.00000E-01    7.37700E-01
 7.50000E-01    1.03600E+00
 8.00000E-01    1.38900E+00
 8.50000E-01    1.78900E+00
 9.00000E-01    2.21600E+00
 9.50000E-01    2.65500E+00
 1.00000E+00    3.02100E+00
 1.20000E+00    4.67200E+00
 1.40000E+00    5.53500E+00
 1.60000E+00    5.72100E+00
 1.80000E+00    5.45700E+00
 2.00000E+00    4.96900E+00
 2.20000E+00    4.40100E+00
 2.40000E+00    3.82800E+00
 2.60000E+00    3.28200E+00
 2.80000E+00    2.78000E+00
 3.00000E+00    2.32700E+00
 3.25000E+00    1.80900E+00
 3.50000E+00    1.41200E+00
 3.75000E+00    1.09900E+00
 4.00000E+00    8.49700E-01
 4.25000E+00    6.54400E-01
 4.50000E+00    5.09000E-01
 4.75000E+00    4.08100E-01
 5.00000E+00    3.30500E-01
 5.50000E+00    2.30800E-01
 6.00000E+00    1.85700E-01
 6.50000E+00    1.56700E-01
 7.00000E+00    1.46900E-01
 7.50000E+00    1.35300E-01
 8.00000E+00    1.33200E-01
 8.50000E+00    1.25500E-01
 9.00000E+00    1.24600E-01
 9.50000E+00    1.17700E-01
 1.00000E+01    1.16600E-01
 1.10000E+01    1.08700E-01
 1.20000E+01    1.00900E-01
 1.30000E+01    9.32400E-02
 1.40000E+01    8.77000E-02
 1.50000E+01    8.25100E-02
 1.60000E+01    7.76100E-02
 1.70000E+01    6.94300E-02
 1.80000E+01    6.54500E-02
 1.90000E+01    6.16700E-02
 2.00000E+01    5.80500E-02
