# n + Yb171 : (n,n')    
# endfb8.0   S.Kunieda, A.Ichihara, K.Shibata+ EVAL-FEB10
# uncertainties: n
# # energies =   103
#   E(MeV)       xs(mb) 
 6.71147E-02    0.00000E+00
 7.00000E-02    2.08700E+02
 7.63257E-02    2.95489E+02
 8.00000E-02    3.69900E+02
 9.00000E-02    4.83740E+02
 9.58342E-02    5.39141E+02
 1.00000E-01    5.79373E+02
 1.20000E-01    7.42941E+02
 1.23140E-01    7.60290E+02
 1.40000E-01    9.12760E+02
 1.60000E-01    1.06074E+03
 1.68647E-01    1.11670E+03
 1.80000E-01    1.19100E+03
 2.00000E-01    1.30693E+03
 2.09235E-01    1.34589E+03
 2.31984E-01    1.46002E+03
 2.48063E-01    1.55693E+03
 2.50000E-01    1.56862E+03
 2.60595E-01    1.61398E+03
 3.00000E-01    1.78270E+03
 3.19175E-01    1.84930E+03
 3.50000E-01    1.95676E+03
 3.71077E-01    2.01730E+03
 4.00000E-01    2.10039E+03
 4.50000E-01    2.22042E+03
 4.52237E-01    2.22490E+03
 4.90105E-01    2.30099E+03
 5.00000E-01    2.32093E+03
 5.04157E-01    2.32795E+03
 5.12104E-01    2.34136E+03
 5.50000E-01    2.40533E+03
 6.00000E-01    2.47650E+03
 6.07866E-01    2.48596E+03
 6.50000E-01    2.53664E+03
 6.51723E-01    2.53842E+03
 7.00000E-01    2.58827E+03
 7.50000E-01    2.63193E+03
 7.70520E-01    2.63331E+03
 7.84100E-01    2.65898E+03
 8.00000E-01    2.68903E+03
 8.30371E-01    2.71274E+03
 8.37412E-01    2.71823E+03
 8.39990E-01    2.72025E+03
 8.50000E-01    2.73506E+03
 8.64572E-01    2.73955E+03
 8.72116E-01    2.74187E+03
 8.81169E-01    2.74489E+03
 9.00000E-01    2.78432E+03
 9.07564E-01    2.78099E+03
 9.12453E-01    2.78408E+03
 9.40751E-01    2.83358E+03
 9.49862E-01    2.85055E+03
 9.50000E-01    2.85263E+03
 9.53937E-01    2.85192E+03
 9.60233E-01    2.85098E+03
 9.63814E-01    2.85307E+03
 9.76730E-01    2.87038E+03
 9.81558E-01    2.87865E+03
 9.86588E-01    2.88727E+03
 9.89806E-01    2.89282E+03
 9.93327E-01    2.89926E+03
 9.97451E-01    2.91353E+03
 1.00000E+00    2.93103E+03
 1.01003E+00    2.94607E+03
 1.02008E+00    2.96117E+03
 1.20000E+00    3.23685E+03
 1.40000E+00    3.30543E+03
 1.60000E+00    3.34155E+03
 1.80000E+00    3.35652E+03
 2.00000E+00    3.35837E+03
 2.20000E+00    3.35214E+03
 2.40000E+00    3.34181E+03
 2.60000E+00    3.32940E+03
 2.80000E+00    3.31583E+03
 3.00000E+00    3.30047E+03
 3.25000E+00    3.27954E+03
 3.50000E+00    3.25629E+03
 3.75000E+00    3.23290E+03
 4.00000E+00    3.20941E+03
 4.25000E+00    3.18821E+03
 4.50000E+00    3.16931E+03
 4.75000E+00    3.15201E+03
 5.00000E+00    3.13482E+03
 5.50000E+00    3.10080E+03
 6.00000E+00    3.06554E+03
 6.50000E+00    3.02890E+03
 7.00000E+00    2.92617E+03
 7.50000E+00    2.46326E+03
 8.00000E+00    1.89251E+03
 8.50000E+00    1.51391E+03
 9.00000E+00    1.23268E+03
 9.50000E+00    1.06360E+03
 1.00000E+01    9.28176E+02
 1.10000E+01    7.60753E+02
 1.20000E+01    6.54129E+02
 1.30000E+01    5.82172E+02
 1.40000E+01    5.33385E+02
 1.50000E+01    4.96409E+02
 1.60000E+01    4.66334E+02
 1.70000E+01    4.40338E+02
 1.80000E+01    4.18307E+02
 1.90000E+01    3.98626E+02
 2.00000E+01    3.80831E+02
