# n + Yb171 : (n,n'13)  
# endfb8.0   S.Kunieda, A.Ichihara, K.Shibata+ EVAL-FEB10
# uncertainties: n
# # energies =    50
#   E(MeV)       xs(mb) 
 4.90105E-01    0.00000E+00
 5.00000E-01    5.37700E-02
 5.50000E-01    4.01800E-01
 6.00000E-01    1.04600E+00
 6.50000E-01    1.98700E+00
 7.00000E-01    3.18800E+00
 7.50000E-01    4.61500E+00
 8.00000E-01    6.20600E+00
 8.50000E-01    7.83400E+00
 9.00000E-01    9.44900E+00
 9.50000E-01    1.10300E+01
 1.00000E+00    1.20400E+01
 1.20000E+00    1.63300E+01
 1.40000E+00    1.68700E+01
 1.60000E+00    1.57400E+01
 1.80000E+00    1.39800E+01
 2.00000E+00    1.20600E+01
 2.20000E+00    1.02000E+01
 2.40000E+00    8.48100E+00
 2.60000E+00    6.95900E+00
 2.80000E+00    5.64600E+00
 3.00000E+00    4.53500E+00
 3.25000E+00    3.35700E+00
 3.50000E+00    2.51100E+00
 3.75000E+00    1.87600E+00
 4.00000E+00    1.39600E+00
 4.25000E+00    1.03800E+00
 4.50000E+00    7.81800E-01
 4.75000E+00    6.08700E-01
 5.00000E+00    4.80200E-01
 5.50000E+00    3.21200E-01
 6.00000E+00    2.49900E-01
 6.50000E+00    2.05100E-01
 7.00000E+00    1.87700E-01
 7.50000E+00    1.69100E-01
 8.00000E+00    1.63200E-01
 8.50000E+00    1.50900E-01
 9.00000E+00    1.47300E-01
 9.50000E+00    1.37000E-01
 1.00000E+01    1.33800E-01
 1.10000E+01    1.21600E-01
 1.20000E+01    1.10400E-01
 1.30000E+01    1.00100E-01
 1.40000E+01    9.26100E-02
 1.50000E+01    8.58600E-02
 1.60000E+01    7.97300E-02
 1.70000E+01    7.05300E-02
 1.80000E+01    6.58400E-02
 1.90000E+01    6.15000E-02
 2.00000E+01    5.74600E-02
