# n + Yb171 : (n,n'12)  
# endfb8.0   S.Kunieda, A.Ichihara, K.Shibata+ EVAL-FEB10
# uncertainties: n
# # energies =    50
#   E(MeV)       xs(mb) 
 4.52237E-01    0.00000E+00
 5.00000E-01    2.81500E-01
 5.50000E-01    8.46200E-01
 6.00000E-01    1.71600E+00
 6.50000E-01    2.86800E+00
 7.00000E-01    4.26200E+00
 7.50000E-01    5.85200E+00
 8.00000E-01    7.56300E+00
 8.50000E-01    9.25800E+00
 9.00000E-01    1.09100E+01
 9.50000E-01    1.24900E+01
 1.00000E+00    1.34300E+01
 1.20000E+00    1.75800E+01
 1.40000E+00    1.78200E+01
 1.60000E+00    1.64600E+01
 1.80000E+00    1.45100E+01
 2.00000E+00    1.24600E+01
 2.20000E+00    1.04900E+01
 2.40000E+00    8.69200E+00
 2.60000E+00    7.11300E+00
 2.80000E+00    5.75700E+00
 3.00000E+00    4.61600E+00
 3.25000E+00    3.41000E+00
 3.50000E+00    2.54600E+00
 3.75000E+00    1.89900E+00
 4.00000E+00    1.41100E+00
 4.25000E+00    1.04800E+00
 4.50000E+00    7.88800E-01
 4.75000E+00    6.13700E-01
 5.00000E+00    4.83900E-01
 5.50000E+00    3.23400E-01
 6.00000E+00    2.51300E-01
 6.50000E+00    2.06100E-01
 7.00000E+00    1.88500E-01
 7.50000E+00    1.69800E-01
 8.00000E+00    1.63800E-01
 8.50000E+00    1.51400E-01
 9.00000E+00    1.47700E-01
 9.50000E+00    1.37400E-01
 1.00000E+01    1.34200E-01
 1.10000E+01    1.21900E-01
 1.20000E+01    1.10600E-01
 1.30000E+01    1.00300E-01
 1.40000E+01    9.27600E-02
 1.50000E+01    8.59900E-02
 1.60000E+01    7.98400E-02
 1.70000E+01    7.06200E-02
 1.80000E+01    6.59100E-02
 1.90000E+01    6.15600E-02
 2.00000E+01    5.75200E-02
