# n + Yb171 : (n,el)    
# endfb8.0   S.Kunieda, A.Ichihara, K.Shibata+ EVAL-FEB10
# uncertainties: n
# # energies =   171
#   E(MeV)       xs(mb) 
 1.00000E-11    2.50531E+04
 1.00000E-07    1.61638E+04
 4.13990E-07    1.57871E+04
 5.31580E-07    1.55947E+04
 6.82560E-07    1.53542E+04
 8.76420E-07    1.50555E+04
 1.12540E-06    1.46915E+04
 1.44500E-06    1.42448E+04
 1.85540E-06    1.37135E+04
 2.37240E-06    1.30661E+04
 3.05900E-06    1.22841E+04
 3.92790E-06    1.13403E+04
 5.04350E-06    1.00771E+04
 6.47600E-06    2.11772E+04
 8.31530E-06    1.06872E+04
 1.06770E-05    3.39591E+04
 1.37100E-05    1.16558E+04
 1.76030E-05    8.28020E+03
 2.26030E-05    7.81910E+03
 2.92030E-05    9.08849E+03
 3.72670E-05    2.86836E+04
 4.78510E-05    2.83911E+04
 6.14420E-05    1.41653E+04
 7.88930E-05    7.56908E+03
 1.01300E-04    3.92117E+04
 1.30070E-04    3.79966E+04
 1.67020E-04    3.85975E+04
 2.14450E-04    1.30101E+04
 2.75360E-04    2.53405E+04
 3.53580E-04    4.26235E+04
 4.54000E-04    3.62500E+04
 5.82950E-04    2.46444E+04
 7.48520E-04    2.49734E+04
 9.61120E-04    2.29050E+04
 1.23410E-03    2.88987E+04
 1.58460E-03    2.11321E+04
 2.03470E-03    1.93975E+04
 2.24870E-03    1.89390E+04
 2.48520E-03    1.86027E+04
 2.61260E-03    1.83815E+04
 2.74650E-03    1.80556E+04
 3.03540E-03    1.75970E+04
 3.35460E-03    1.71310E+04
 3.70740E-03    1.65646E+04
 4.30740E-03    1.56921E+04
 5.53080E-03    1.47251E+04
 7.10170E-03    1.39101E+04
 9.11880E-03    1.31930E+04
 1.17090E-02    1.25247E+04
 1.50340E-02    1.18912E+04
 1.93050E-02    1.14388E+04
 2.18750E-02    1.12103E+04
 2.35790E-02    1.10980E+04
 2.41760E-02    1.10425E+04
 2.47880E-02    1.09599E+04
 2.60580E-02    1.08659E+04
 2.70000E-02    1.07686E+04
 2.85000E-02    1.05959E+04
 3.18280E-02    1.04194E+04
 3.43070E-02    1.01901E+04
 4.08680E-02    9.92833E+03
 4.63090E-02    9.72035E+03
 5.24750E-02    9.55929E+03
 5.65620E-02    9.32519E+03
 6.73790E-02    9.03308E+03
 7.20000E-02    8.84574E+03
 7.95000E-02    8.69777E+03
 8.25000E-02    8.61374E+03
 8.65170E-02    8.44558E+03
 9.80370E-02    8.21093E+03
 1.11090E-01    8.04498E+03
 1.16790E-01    7.94840E+03
 1.22770E-01    7.85416E+03
 1.29070E-01    7.75503E+03
 1.35690E-01    7.65290E+03
 1.42640E-01    7.55585E+03
 1.49960E-01    7.45531E+03
 1.57640E-01    7.35030E+03
 1.65730E-01    7.25208E+03
 1.74220E-01    7.15338E+03
 1.83160E-01    7.04958E+03
 1.92550E-01    6.94674E+03
 2.02420E-01    6.84817E+03
 2.12800E-01    6.74462E+03
 2.23710E-01    6.64091E+03
 2.35180E-01    6.54505E+03
 2.47240E-01    6.39295E+03
 2.73240E-01    6.24451E+03
 2.87250E-01    6.17160E+03
 2.94520E-01    6.13756E+03
 2.97200E-01    6.12397E+03
 2.98500E-01    6.10771E+03
 3.01970E-01    6.00142E+03
 3.33730E-01    5.81296E+03
 3.68830E-01    5.67805E+03
 3.87740E-01    5.58580E+03
 4.07620E-01    5.45898E+03
 4.50490E-01    5.29224E+03
 4.97870E-01    5.17172E+03
 5.23400E-01    5.09581E+03
 5.50230E-01    5.02154E+03
 5.78440E-01    4.94710E+03
 6.08100E-01    4.87898E+03
 6.39280E-01    4.80838E+03
 6.72060E-01    4.74404E+03
 7.06510E-01    4.68054E+03
 7.42740E-01    4.61378E+03
 7.80820E-01    4.54365E+03
 8.20850E-01    4.47460E+03
 8.62940E-01    4.40536E+03
 9.07180E-01    4.32189E+03
 9.61640E-01    4.23283E+03
 1.00260E+00    4.09619E+03
 1.10800E+00    3.94328E+03
 1.16480E+00    3.84989E+03
 1.22460E+00    3.80335E+03
 1.28730E+00    3.76675E+03
 1.35340E+00    3.72848E+03
 1.42270E+00    3.69649E+03
 1.49570E+00    3.66715E+03
 1.57240E+00    3.63633E+03
 1.65300E+00    3.60699E+03
 1.73770E+00    3.57990E+03
 1.82680E+00    3.55141E+03
 1.92050E+00    3.52146E+03
 2.01900E+00    3.48998E+03
 2.12250E+00    3.45690E+03
 2.23130E+00    3.42808E+03
 2.30690E+00    3.41020E+03
 2.34570E+00    3.40108E+03
 2.36530E+00    3.39493E+03
 2.38520E+00    3.37930E+03
 2.46600E+00    3.34625E+03
 2.59240E+00    3.30141E+03
 2.72530E+00    3.25390E+03
 2.86500E+00    3.20394E+03
 3.01190E+00    3.15021E+03
 3.16640E+00    3.09220E+03
 3.32870E+00    2.99917E+03
 3.67880E+00    2.86429E+03
 4.06570E+00    2.71911E+03
 4.49330E+00    2.60865E+03
 4.72370E+00    2.53547E+03
 4.96590E+00    2.46414E+03
 5.22050E+00    2.39703E+03
 5.48810E+00    2.33286E+03
 5.76950E+00    2.27440E+03
 6.06530E+00    2.22408E+03
 6.37630E+00    2.18552E+03
 6.59240E+00    2.16807E+03
 6.70320E+00    2.14676E+03
 7.04690E+00    2.12105E+03
 7.40820E+00    2.10446E+03
 7.78800E+00    2.09873E+03
 8.18730E+00    2.10450E+03
 8.60710E+00    2.11949E+03
 9.04840E+00    2.14519E+03
 9.51230E+00    2.18003E+03
 1.00000E+01    2.22526E+03
 1.05130E+01    2.27676E+03
 1.10520E+01    2.33361E+03
 1.16180E+01    2.39474E+03
 1.22140E+01    2.45625E+03
 1.28400E+01    2.51689E+03
 1.34990E+01    2.55946E+03
 1.38400E+01    2.58733E+03
 1.41910E+01    2.61130E+03
 1.45500E+01    2.63485E+03
 1.49180E+01    2.66469E+03
 1.56830E+01    2.69531E+03
 1.64870E+01    2.71275E+03
