# n + Pd  0 : (n,p)g
# jendl.ad   N.Iwamoto                         EVAL-Apr14
# uncertainties: n
# # energies =    80
#   E(MeV)          xs(mb) 
 3.71364E-01    0.00000E+00
 5.13507E-01    2.34390E-11
 1.40000E+00    1.69617E-10
 1.50000E+00    2.02641E-09
 1.54966E+00    5.22487E-09
 1.60000E+00    1.16501E-08
 1.60890E+00    1.33287E-08
 1.67451E+00    3.40642E-08
 1.70000E+00    4.81642E-08
 1.73198E+00    7.32842E-08
 1.80000E+00    1.70443E-07
 1.90000E+00    5.44249E-07
 1.93799E+00    8.26360E-07
 1.96370E+00    1.07027E-06
 2.00000E+00    1.50445E-06
 2.13225E+00    4.98648E-06
 2.13255E+00    4.99969E-06
 2.15918E+00    6.25308E-06
 2.25000E+00    1.30724E-05
 2.27096E+00    1.54090E-05
 2.31724E+00    2.16132E-05
 2.32405E+00    2.27018E-05
 2.36613E+00    3.06674E-05
 2.41477E+00    4.23865E-05
 2.45557E+00    5.47210E-05
 2.49882E+00    7.10248E-05
 2.50000E+00    7.14512E-05
 2.50475E+00    7.34971E-05
 2.51454E+00    7.75178E-05
 2.55807E+00    9.93963E-05
 2.57140E+00    1.07050E-04
 2.57878E+00    1.11363E-04
 2.59978E+00    1.24155E-04
 2.60847E+00    1.29292E-04
 2.63230E+00    1.44337E-04
 2.63657E+00    1.46977E-04
 2.67754E+00    1.77394E-04
 2.68704E+00    1.85097E-04
 2.70148E+00    1.97273E-04
 2.72258E+00    2.16223E-04
 2.74319E+00    2.38726E-04
 2.75000E+00    2.45122E-04
 2.76409E+00    2.59477E-04
 2.79641E+00    2.96427E-04
 2.82660E+00    3.35506E-04
 3.00000E+00    7.01119E-04
 3.50000E+00    4.23590E-03
 4.00000E+00    1.63050E-02
 4.50000E+00    4.53787E-02
 5.00000E+00    9.96295E-02
 5.50000E+00    1.83197E-01
 6.00000E+00    2.94277E-01
 6.50000E+00    4.26413E-01
 7.00000E+00    5.72030E-01
 7.50000E+00    7.26195E-01
 8.00000E+00    8.89124E-01
 8.50000E+00    1.06820E+00
 9.00000E+00    1.27026E+00
 9.50000E+00    1.54093E+00
 1.00000E+01    1.89666E+00
 1.05000E+01    2.36992E+00
 1.10000E+01    2.97801E+00
 1.15000E+01    3.67892E+00
 1.20000E+01    4.54352E+00
 1.25000E+01    5.54500E+00
 1.30000E+01    6.64124E+00
 1.35000E+01    7.80918E+00
 1.40000E+01    9.02595E+00
 1.45000E+01    1.02454E+01
 1.50000E+01    1.14598E+01
 1.55000E+01    1.25649E+01
 1.60000E+01    1.38528E+01
 1.65000E+01    1.48796E+01
 1.70000E+01    1.57348E+01
 1.75000E+01    1.66163E+01
 1.80000E+01    1.72773E+01
 1.85000E+01    1.77764E+01
 1.90000E+01    1.86551E+01
 1.95000E+01    1.90248E+01
 2.00000E+01    1.94852E+01
