# n + Pd  0 : (n,d)
# jendl.ad   N.Iwamoto                         EVAL-Apr14
# uncertainties: n
# # energies =    50
#   E(MeV)          xs(mb) 
 7.79764E+00    3.52019E-08
 7.99350E+00    5.79100E-08
 8.06851E+00    2.18666E-07
 8.17542E+00    4.68350E-07
 8.18606E+00    4.93200E-07
 8.20723E+00    5.42641E-07
 8.26457E+00    6.76558E-07
 8.28784E+00    7.30903E-07
 8.34656E+00    8.68041E-07
 8.36284E+00    9.06062E-07
 8.37186E+00    9.27128E-07
 8.37902E+00    9.43850E-07
 8.39206E+00    9.74306E-07
 8.48400E+00    1.18903E-06
 8.48712E+00    1.19631E-06
 8.55722E+00    2.38375E-06
 8.68359E+00    4.93975E-06
 8.71815E+00    5.63877E-06
 8.73835E+00    6.04734E-06
 8.75462E+00    6.37641E-06
 8.76003E+00    6.48584E-06
 8.78119E+00    6.91383E-06
 8.81203E+00    7.53761E-06
 8.81684E+00    7.63491E-06
 8.83121E+00    7.92556E-06
 8.84933E+00    8.29206E-06
 8.88572E+00    9.02810E-06
 9.00000E+00    1.13396E-05
 9.50000E+00    6.13269E-05
 1.00000E+01    2.41103E-04
 1.05000E+01    8.06841E-04
 1.10000E+01    2.54827E-03
 1.15000E+01    7.82621E-03
 1.20000E+01    2.27253E-02
 1.25000E+01    5.94119E-02
 1.30000E+01    1.35355E-01
 1.35000E+01    2.52337E-01
 1.40000E+01    4.66283E-01
 1.45000E+01    7.75205E-01
 1.50000E+01    1.17148E+00
 1.55000E+01    1.72997E+00
 1.60000E+01    2.29845E+00
 1.65000E+01    2.95133E+00
 1.70000E+01    3.68681E+00
 1.75000E+01    4.40856E+00
 1.80000E+01    5.19585E+00
 1.85000E+01    6.01768E+00
 1.90000E+01    6.81907E+00
 1.95000E+01    7.87560E+00
 2.00000E+01    8.78351E+00
