# n + Pd  0 : (n,xa)
# jendl.ad   N.Iwamoto                         EVAL-Apr14
#
# # energies =   113
#   E(MeV)          xs(mb) 
 1.05000E-01    1.60003E-05
 1.10000E-01    1.59929E-05
 1.20000E-01    1.60899E-05
 1.30000E-01    1.62590E-05
 1.40000E-01    1.65110E-05
 1.50000E-01    1.68247E-05
 1.60000E-01    1.71923E-05
 1.70000E-01    1.76100E-05
 1.80000E-01    1.80662E-05
 1.90000E-01    1.85223E-05
 2.00000E-01    1.90858E-05
 2.25000E-01    2.06060E-05
 2.50000E-01    2.23535E-05
 2.75000E-01    2.43319E-05
 3.00000E-01    2.64478E-05
 4.00000E-01    3.91548E-05
 5.00000E-01    5.74616E-05
 5.16726E-01    6.12195E-05
 6.00000E-01    5.66702E-05
 7.00000E-01    6.28746E-05
 8.00000E-01    7.89808E-05
 9.00000E-01    1.03959E-04
 1.00000E+00    1.39524E-04
 1.10000E+00    1.89611E-04
 1.13875E+00    2.16727E-04
 1.14457E+00    2.20800E-04
 1.20000E+00    2.59588E-04
 1.24096E+00    2.97693E-04
 1.30000E+00    3.49281E-04
 1.40000E+00    4.48071E-04
 1.50000E+00    5.89921E-04
 1.57249E+00    6.99106E-04
 1.57713E+00    7.03937E-04
 1.60000E+00    7.27749E-04
 1.70000E+00    8.67757E-04
 1.72264E+00    9.06450E-04
 1.80000E+00    1.03121E-03
 1.90000E+00    1.25841E-03
 1.92245E+00    1.32234E-03
 1.92764E+00    1.33712E-03
 1.95068E+00    1.39612E-03
 2.00000E+00    1.49780E-03
 2.02055E+00    1.55872E-03
 2.09606E+00    1.78277E-03
 2.09607E+00    1.78280E-03
 2.09641E+00    1.78381E-03
 2.10371E+00    1.80548E-03
 2.25000E+00    2.30751E-03
 2.26385E+00    2.37118E-03
 2.29981E+00    2.51534E-03
 2.30468E+00    2.53416E-03
 2.32752E+00    2.62293E-03
 2.33080E+00    2.63603E-03
 2.37320E+00    2.80582E-03
 2.38849E+00    2.86766E-03
 2.42033E+00    2.99294E-03
 2.42034E+00    2.99297E-03
 2.42427E+00    3.00636E-03
 2.46233E+00    3.14048E-03
 2.49625E+00    3.27812E-03
 2.50000E+00    3.29328E-03
 2.50832E+00    3.32277E-03
 2.51876E+00    3.35659E-03
 2.52381E+00    3.37573E-03
 2.52412E+00    3.37691E-03
 2.60298E+00    3.68122E-03
 2.60457E+00    3.68449E-03
 2.61588E+00    3.70778E-03
 2.64940E+00    3.78140E-03
 2.65189E+00    3.78728E-03
 2.67413E+00    3.83992E-03
 2.72507E+00    3.97083E-03
 2.73107E+00    3.98670E-03
 2.73783E+00    4.00458E-03
 2.73944E+00    4.00884E-03
 2.73945E+00    4.00886E-03
 2.74344E+00    4.01939E-03
 2.75000E+00    4.03590E-03
 3.00000E+00    5.31040E-03
 3.50000E+00    1.04886E-02
 4.00000E+00    1.99754E-02
 4.50000E+00    3.57259E-02
 5.00000E+00    5.97992E-02
 5.50000E+00    9.31414E-02
 6.00000E+00    1.33917E-01
 6.50000E+00    1.84181E-01
 7.00000E+00    2.39372E-01
 7.50000E+00    2.97757E-01
 8.00000E+00    3.58450E-01
 8.50000E+00    4.22911E-01
 9.00000E+00    4.95513E-01
 9.50000E+00    5.82180E-01
 1.00000E+01    6.91944E-01
 1.05000E+01    8.47496E-01
 1.10000E+01    1.06226E+00
 1.15000E+01    1.32065E+00
 1.20000E+01    1.66462E+00
 1.25000E+01    2.11004E+00
 1.30000E+01    2.67373E+00
 1.35000E+01    3.36250E+00
 1.40000E+01    4.17854E+00
 1.45000E+01    5.11722E+00
 1.50000E+01    6.17503E+00
 1.55000E+01    7.33599E+00
 1.60000E+01    8.56741E+00
 1.65000E+01    9.84130E+00
 1.70000E+01    1.11740E+01
 1.75000E+01    1.25454E+01
 1.80000E+01    1.39619E+01
 1.85000E+01    1.54172E+01
 1.90000E+01    1.68858E+01
 1.95000E+01    1.83840E+01
 2.00000E+01    1.99079E+01
