# n + Pd  0 : (n,xp)
# jendl.ad   N.Iwamoto                         EVAL-Apr14
#
# # energies =   113
#   E(MeV)          xs(mb) 
 1.05000E-01    0.00000E+00
 1.10000E-01    0.00000E+00
 1.20000E-01    0.00000E+00
 1.30000E-01    0.00000E+00
 1.40000E-01    0.00000E+00
 1.50000E-01    0.00000E+00
 1.60000E-01    0.00000E+00
 1.70000E-01    0.00000E+00
 1.80000E-01    0.00000E+00
 1.90000E-01    0.00000E+00
 2.00000E-01    0.00000E+00
 2.25000E-01    0.00000E+00
 2.50000E-01    0.00000E+00
 2.75000E-01    0.00000E+00
 3.00000E-01    0.00000E+00
 4.00000E-01    4.72200E-12
 5.00000E-01    2.12118E-11
 5.16726E-01    2.40663E-11
 6.00000E-01    3.83396E-11
 7.00000E-01    5.55672E-11
 8.00000E-01    7.27946E-11
 9.00000E-01    9.00222E-11
 1.00000E+00    1.07250E-10
 1.10000E+00    1.24477E-10
 1.13875E+00    1.31153E-10
 1.14457E+00    1.32156E-10
 1.20000E+00    1.41705E-10
 1.24096E+00    1.48761E-10
 1.30000E+00    1.58932E-10
 1.40000E+00    1.76160E-10
 1.50000E+00    2.03367E-09
 1.57249E+00    8.15209E-09
 1.57713E+00    8.74546E-09
 1.60000E+00    1.16702E-08
 1.70000E+00    4.82839E-08
 1.72264E+00    6.61257E-08
 1.80000E+00    1.70985E-07
 1.90000E+00    5.46309E-07
 1.92245E+00    7.13797E-07
 1.92764E+00    7.52516E-07
 1.95068E+00    9.50763E-07
 2.00000E+00    1.51170E-06
 2.02055E+00    2.05663E-06
 2.09606E+00    4.05897E-06
 2.09607E+00    4.05923E-06
 2.09641E+00    4.06825E-06
 2.10371E+00    4.26183E-06
 2.25000E+00    1.31701E-05
 2.26385E+00    1.47274E-05
 2.29981E+00    1.94303E-05
 2.30468E+00    2.00893E-05
 2.32752E+00    2.35503E-05
 2.33080E+00    2.41769E-05
 2.37320E+00    3.26454E-05
 2.38849E+00    3.63635E-05
 2.42033E+00    4.44527E-05
 2.42034E+00    4.44558E-05
 2.42427E+00    4.56564E-05
 2.46233E+00    5.77936E-05
 2.49625E+00    7.07127E-05
 2.50000E+00    7.21224E-05
 2.50832E+00    7.56719E-05
 2.51876E+00    8.04008E-05
 2.52381E+00    8.29691E-05
 2.52412E+00    8.31268E-05
 2.60298E+00    1.27345E-04
 2.60457E+00    1.28297E-04
 2.61588E+00    1.35370E-04
 2.64940E+00    1.58213E-04
 2.65189E+00    1.60089E-04
 2.67413E+00    1.76847E-04
 2.72507E+00    2.21552E-04
 2.73107E+00    2.28223E-04
 2.73783E+00    2.35738E-04
 2.73944E+00    2.37528E-04
 2.73945E+00    2.37540E-04
 2.74344E+00    2.41936E-04
 2.75000E+00    2.48193E-04
 3.00000E+00    7.12294E-04
 3.50000E+00    4.33135E-03
 4.00000E+00    1.67966E-02
 4.50000E+00    4.71817E-02
 5.00000E+00    1.04737E-01
 5.50000E+00    1.95042E-01
 6.00000E+00    3.17863E-01
 6.50000E+00    4.68325E-01
 7.00000E+00    6.40419E-01
 7.50000E+00    8.31021E-01
 8.00000E+00    1.04335E+00
 8.50000E+00    1.29093E+00
 9.00000E+00    1.59117E+00
 9.50000E+00    2.00931E+00
 1.00000E+01    2.58123E+00
 1.05000E+01    3.37301E+00
 1.10000E+01    4.45392E+00
 1.15000E+01    5.84910E+00
 1.20000E+01    7.75419E+00
 1.25000E+01    1.01507E+01
 1.30000E+01    1.31836E+01
 1.35000E+01    1.69006E+01
 1.40000E+01    2.12600E+01
 1.45000E+01    2.62411E+01
 1.50000E+01    3.17074E+01
 1.55000E+01    3.73355E+01
 1.60000E+01    4.35317E+01
 1.65000E+01    4.89606E+01
 1.70000E+01    5.50719E+01
 1.75000E+01    6.11103E+01
 1.80000E+01    6.72462E+01
 1.85000E+01    7.32821E+01
 1.90000E+01    7.90131E+01
 1.95000E+01    8.62001E+01
 2.00000E+01    9.26964E+01
