# n + Dy162 : (n,tot)   
# endfb8.0   Kim,Herman,Oh,Oblozinsky          EVAL-FEB06
# uncertainties: n
# # energies =   171
#   E(MeV)       xs(mb) 
 1.00000E-11    2.07924E+06
 1.00000E-07    7.48176E+04
 4.13990E-07    5.35482E+04
 5.31580E-07    4.99076E+04
 6.82560E-07    4.73564E+04
 8.76420E-07    4.60726E+04
 1.12540E-06    4.64624E+04
 1.44500E-06    4.94099E+04
 1.85540E-06    5.69959E+04
 2.37240E-06    7.59813E+04
 3.05900E-06    1.36676E+05
 3.92790E-06    7.10189E+05
 5.04350E-06    1.06615E+07
 6.47600E-06    1.43247E+05
 8.31530E-06    2.77522E+04
 1.06770E-05    1.01469E+04
 1.37100E-05    4.91377E+03
 1.76030E-05    2.82012E+03
 2.26030E-05    1.78402E+03
 2.92030E-05    1.20015E+03
 3.72670E-05    9.78182E+02
 4.78510E-05    3.50240E+03
 6.14420E-05    1.28516E+06
 7.88930E-05    1.75714E+04
 1.01300E-04    1.68967E+04
 1.30070E-04    3.41429E+03
 1.67020E-04    1.10639E+04
 2.14450E-04    1.49999E+05
 2.75360E-04    8.19033E+03
 3.53580E-04    2.05539E+04
 4.54000E-04    1.83551E+04
 5.82950E-04    9.69069E+04
 7.48520E-04    8.72131E+04
 9.61120E-04    1.04741E+04
 1.23410E-03    3.23232E+04
 1.58460E-03    1.20442E+04
 2.03470E-03    1.32085E+04
 2.24870E-03    2.03803E+04
 2.48520E-03    1.50691E+04
 2.61260E-03    1.14428E+04
 2.74650E-03    3.04772E+04
 3.03540E-03    9.43120E+03
 3.35460E-03    1.45586E+04
 3.70740E-03    2.23629E+04
 4.30740E-03    1.55262E+04
 5.53080E-03    1.75071E+04
 7.10170E-03    1.62596E+04
 9.11880E-03    1.51510E+04
 1.17090E-02    1.41689E+04
 1.50340E-02    1.32928E+04
 1.93050E-02    1.26965E+04
 2.18750E-02    1.23997E+04
 2.35790E-02    1.22583E+04
 2.41760E-02    1.21856E+04
 2.47880E-02    1.20798E+04
 2.60580E-02    1.19639E+04
 2.70000E-02    1.18406E+04
 2.85000E-02    1.16244E+04
 3.18280E-02    1.13887E+04
 3.43070E-02    1.10855E+04
 4.08680E-02    1.07380E+04
 4.63090E-02    1.04632E+04
 5.24750E-02    1.02515E+04
 5.65620E-02    9.99580E+03
 6.73790E-02    9.75764E+03
 7.20000E-02    9.60007E+03
 7.95000E-02    9.47201E+03
 8.25000E-02    9.39534E+03
 8.65170E-02    9.23381E+03
 9.80370E-02    9.01630E+03
 1.11090E-01    8.87306E+03
 1.16790E-01    8.78745E+03
 1.22770E-01    8.71435E+03
 1.29070E-01    8.64635E+03
 1.35690E-01    8.57493E+03
 1.42640E-01    8.49982E+03
 1.49960E-01    8.42777E+03
 1.57640E-01    8.37141E+03
 1.65730E-01    8.31329E+03
 1.74220E-01    8.25220E+03
 1.83160E-01    8.18795E+03
 1.92550E-01    8.12063E+03
 2.02420E-01    8.07259E+03
 2.12800E-01    8.03796E+03
 2.23710E-01    8.00155E+03
 2.35180E-01    7.96328E+03
 2.47240E-01    7.90189E+03
 2.73240E-01    7.83628E+03
 2.87250E-01    7.80152E+03
 2.94520E-01    7.78529E+03
 2.97200E-01    7.77880E+03
 2.98500E-01    7.77105E+03
 3.01970E-01    7.73875E+03
 3.33730E-01    7.68999E+03
 3.68830E-01    7.65037E+03
 3.87740E-01    7.62215E+03
 4.07620E-01    7.59551E+03
 4.50490E-01    7.57145E+03
 4.97870E-01    7.55184E+03
 5.23400E-01    7.53978E+03
 5.50230E-01    7.53118E+03
 5.78440E-01    7.52227E+03
 6.08100E-01    7.51290E+03
 6.39280E-01    7.50305E+03
 6.72060E-01    7.49270E+03
 7.06510E-01    7.48181E+03
 7.42740E-01    7.47037E+03
 7.80820E-01    7.45834E+03
 8.20850E-01    7.44492E+03
 8.62940E-01    7.42329E+03
 9.07180E-01    7.39653E+03
 9.61640E-01    7.37055E+03
 1.00260E+00    7.33121E+03
 1.10800E+00    7.28682E+03
 1.16480E+00    7.25517E+03
 1.22460E+00    7.22191E+03
 1.28730E+00    7.18927E+03
 1.35340E+00    7.15887E+03
 1.42270E+00    7.12697E+03
 1.49570E+00    7.09342E+03
 1.57240E+00    7.05817E+03
 1.65300E+00    7.02112E+03
 1.73770E+00    6.98216E+03
 1.82680E+00    6.94094E+03
 1.92050E+00    6.89745E+03
 2.01900E+00    6.85173E+03
 2.12250E+00    6.80149E+03
 2.23130E+00    6.75375E+03
 2.30690E+00    6.72403E+03
 2.34570E+00    6.70889E+03
 2.36530E+00    6.69865E+03
 2.38520E+00    6.67268E+03
 2.46600E+00    6.61916E+03
 2.59240E+00    6.54895E+03
 2.72530E+00    6.47035E+03
 2.86500E+00    6.38767E+03
 3.01190E+00    6.30072E+03
 3.16640E+00    6.20933E+03
 3.32870E+00    6.06277E+03
 3.67880E+00    5.85049E+03
 4.06570E+00    5.64503E+03
 4.49330E+00    5.49326E+03
 4.72370E+00    5.38513E+03
 4.96590E+00    5.28862E+03
 5.22050E+00    5.21614E+03
 5.48810E+00    5.14038E+03
 5.76950E+00    5.06184E+03
 6.06530E+00    5.01129E+03
 6.37630E+00    4.97962E+03
 6.59240E+00    4.95998E+03
 6.70320E+00    4.93327E+03
 7.04690E+00    4.91688E+03
 7.40820E+00    4.91544E+03
 7.78800E+00    4.91694E+03
 8.18730E+00    4.93991E+03
 8.60710E+00    4.97179E+03
 9.04840E+00    5.01440E+03
 9.51230E+00    5.06383E+03
 1.00000E+01    5.11745E+03
 1.05130E+01    5.17379E+03
 1.10520E+01    5.22869E+03
 1.16180E+01    5.28223E+03
 1.22140E+01    5.32513E+03
 1.28400E+01    5.35937E+03
 1.34990E+01    5.37356E+03
 1.38400E+01    5.38079E+03
 1.41910E+01    5.37777E+03
 1.45500E+01    5.37318E+03
 1.49180E+01    5.35479E+03
 1.56830E+01    5.31102E+03
 1.64870E+01    5.24345E+03
