# n + Dy162 : (n,el)    
# endfb8.0   Kim,Herman,Oh,Oblozinsky          EVAL-FEB06
# uncertainties: n
# # energies =   171
#   E(MeV)       xs(mb) 
 1.00000E-11    2.54855E+02
 1.00000E-07    2.16405E+02
 4.13990E-07    2.88359E+02
 5.31580E-07    3.35363E+02
 6.82560E-07    4.05371E+02
 8.76420E-07    5.14249E+02
 1.12540E-06    6.93759E+02
 1.44500E-06    1.01406E+03
 1.85540E-06    1.64743E+03
 2.37240E-06    3.19240E+03
 3.05900E-06    8.60081E+03
 3.92790E-06    7.04547E+04
 5.04350E-06    1.34353E+06
 6.47600E-06    2.69196E+04
 8.31530E-06    7.62402E+03
 1.06770E-05    3.78157E+03
 1.37100E-05    2.29030E+03
 1.76030E-05    1.49502E+03
 2.26030E-05    9.49897E+02
 2.92030E-05    4.98019E+02
 3.72670E-05    1.07883E+02
 4.78510E-05    1.18745E+03
 6.14420E-05    9.78747E+05
 7.88930E-05    1.56235E+04
 1.01300E-04    6.06982E+03
 1.30070E-04    3.31394E+03
 1.67020E-04    3.51341E+03
 2.14450E-04    1.18700E+05
 2.75360E-04    7.78173E+03
 3.53580E-04    1.19859E+04
 4.54000E-04    1.28093E+04
 5.82950E-04    8.58937E+04
 7.48520E-04    8.05994E+04
 9.61120E-04    8.49625E+03
 1.23410E-03    2.85947E+04
 1.58460E-03    1.02326E+04
 2.03470E-03    1.12013E+04
 2.24870E-03    1.81003E+04
 2.48520E-03    1.20089E+04
 2.61260E-03    1.02694E+04
 2.74650E-03    2.81478E+04
 3.03540E-03    8.29244E+03
 3.35460E-03    1.34548E+04
 3.70740E-03    2.10598E+04
 4.30740E-03    1.46088E+04
 5.53080E-03    1.65181E+04
 7.10170E-03    1.54006E+04
 9.11880E-03    1.43978E+04
 1.17090E-02    1.35034E+04
 1.50340E-02    1.27020E+04
 1.93050E-02    1.21554E+04
 2.18750E-02    1.18829E+04
 2.35790E-02    1.17530E+04
 2.41760E-02    1.16862E+04
 2.47880E-02    1.15890E+04
 2.60580E-02    1.14825E+04
 2.70000E-02    1.13691E+04
 2.85000E-02    1.11702E+04
 3.18280E-02    1.09530E+04
 3.43070E-02    1.06732E+04
 4.08680E-02    1.03515E+04
 4.63090E-02    1.00960E+04
 5.24750E-02    9.89842E+03
 5.65620E-02    9.65867E+03
 6.73790E-02    9.43418E+03
 7.20000E-02    9.28484E+03
 7.95000E-02    9.16184E+03
 8.25000E-02    9.07113E+03
 8.65170E-02    8.87596E+03
 9.80370E-02    8.61915E+03
 1.11090E-01    8.44739E+03
 1.16790E-01    8.34388E+03
 1.22770E-01    8.25004E+03
 1.29070E-01    8.15920E+03
 1.35690E-01    8.06379E+03
 1.42640E-01    7.96346E+03
 1.49960E-01    7.86445E+03
 1.57640E-01    7.77849E+03
 1.65730E-01    7.68918E+03
 1.74220E-01    7.59530E+03
 1.83160E-01    7.49657E+03
 1.92550E-01    7.39302E+03
 2.02420E-01    7.30798E+03
 2.12800E-01    7.23520E+03
 2.23710E-01    7.15869E+03
 2.35180E-01    7.07825E+03
 2.47240E-01    6.94925E+03
 2.73240E-01    6.81136E+03
 2.87250E-01    6.73830E+03
 2.94520E-01    6.70419E+03
 2.97200E-01    6.69057E+03
 2.98500E-01    6.67428E+03
 3.01970E-01    6.59013E+03
 3.33730E-01    6.43626E+03
 3.68830E-01    6.31087E+03
 3.87740E-01    6.22235E+03
 4.07620E-01    6.11519E+03
 4.50490E-01    5.97181E+03
 4.97870E-01    5.86213E+03
 5.23400E-01    5.80281E+03
 5.50230E-01    5.74109E+03
 5.78440E-01    5.67620E+03
 6.08100E-01    5.61710E+03
 6.39280E-01    5.56471E+03
 6.72060E-01    5.50964E+03
 7.06510E-01    5.45593E+03
 7.42740E-01    5.40935E+03
 7.80820E-01    5.36085E+03
 8.20850E-01    5.31740E+03
 8.62940E-01    5.26778E+03
 9.07180E-01    5.18004E+03
 9.61640E-01    5.09113E+03
 1.00260E+00    4.95200E+03
 1.10800E+00    4.86806E+03
 1.16480E+00    4.71918E+03
 1.22460E+00    4.61968E+03
 1.28730E+00    4.46532E+03
 1.35340E+00    4.34874E+03
 1.42270E+00    4.26405E+03
 1.49570E+00    4.15488E+03
 1.57240E+00    4.09232E+03
 1.65300E+00    4.01405E+03
 1.73770E+00    3.93275E+03
 1.82680E+00    3.86698E+03
 1.92050E+00    3.80117E+03
 2.01900E+00    3.73683E+03
 2.12250E+00    3.67619E+03
 2.23130E+00    3.62345E+03
 2.30690E+00    3.59073E+03
 2.34570E+00    3.57404E+03
 2.36530E+00    3.56278E+03
 2.38520E+00    3.53417E+03
 2.46600E+00    3.47523E+03
 2.59240E+00    3.40413E+03
 2.72530E+00    3.33199E+03
 2.86500E+00    3.25616E+03
 3.01190E+00    3.17797E+03
 3.16640E+00    3.10112E+03
 3.32870E+00    2.97854E+03
 3.67880E+00    2.80330E+03
 4.06570E+00    2.63950E+03
 4.49330E+00    2.51893E+03
 4.72370E+00    2.43303E+03
 4.96590E+00    2.35811E+03
 5.22050E+00    2.30529E+03
 5.48810E+00    2.25017E+03
 5.76950E+00    2.19328E+03
 6.06530E+00    2.16430E+03
 6.37630E+00    2.15097E+03
 6.59240E+00    2.14270E+03
 6.70320E+00    2.13165E+03
 7.04690E+00    2.13880E+03
 7.40820E+00    2.16153E+03
 7.78800E+00    2.18729E+03
 8.18730E+00    2.23289E+03
 8.60710E+00    2.29055E+03
 9.04840E+00    2.35579E+03
 9.51230E+00    2.42985E+03
 1.00000E+01    2.50574E+03
 1.05130E+01    2.58331E+03
 1.10520E+01    2.65817E+03
 1.16180E+01    2.73081E+03
 1.22140E+01    2.79124E+03
 1.28400E+01    2.84234E+03
 1.34990E+01    2.86822E+03
 1.38400E+01    2.88347E+03
 1.41910E+01    2.88869E+03
 1.45500E+01    2.89098E+03
 1.49180E+01    2.88213E+03
 1.56830E+01    2.85190E+03
 1.64870E+01    2.79747E+03
