# n + Pd108 : (n,n'04)  
# jendl4.0   N.Iwamoto,K.Shibata               EVAL-Dec09
# uncertainties: n
# # energies =    78
#   E(MeV)       xs(mb) 
 1.06262E+00    0.00000E+00
 1.10000E+00    6.24116E+01
 1.20000E+00    1.71470E+02
 1.30000E+00    2.26522E+02
 1.32650E+00    2.35839E+02
 1.34770E+00    2.38830E+02
 1.40000E+00    2.39416E+02
 1.45465E+00    2.36755E+02
 1.50000E+00    2.27556E+02
 1.55436E+00    2.16734E+02
 1.60000E+00    2.01752E+02
 1.64039E+00    1.90579E+02
 1.70000E+00    1.77954E+02
 1.78772E+00    1.64767E+02
 1.80000E+00    1.63287E+02
 1.90000E+00    1.53539E+02
 1.97529E+00    1.48131E+02
 2.00000E+00    1.46588E+02
 2.00846E+00    1.46021E+02
 2.03384E+00    1.44341E+02
 2.06578E+00    1.40274E+02
 2.11829E+00    1.32779E+02
 2.16101E+00    1.25978E+02
 2.23874E+00    1.14646E+02
 2.25000E+00    1.12913E+02
 2.30253E+00    1.05834E+02
 2.30383E+00    1.05542E+02
 2.34653E+00    9.88647E+01
 2.38408E+00    9.40506E+01
 2.41375E+00    9.01961E+01
 2.41991E+00    8.93093E+01
 2.42657E+00    8.84449E+01
 2.44060E+00    8.65460E+01
 2.44464E+00    8.59747E+01
 2.48905E+00    8.06397E+01
 2.50000E+00    7.94490E+01
 2.50073E+00    7.93681E+01
 2.55466E+00    7.36197E+01
 2.56011E+00    7.30614E+01
 2.56394E+00    7.26350E+01
 2.57222E+00    7.17444E+01
 2.60210E+00    6.87665E+01
 2.75000E+00    5.71727E+01
 3.00000E+00    4.33808E+01
 3.50000E+00    2.23027E+01
 4.00000E+00    1.10374E+01
 4.50000E+00    5.81564E+00
 5.00000E+00    3.08979E+00
 5.50000E+00    1.62918E+00
 6.00000E+00    9.33565E-01
 6.50000E+00    5.74732E-01
 7.00000E+00    3.80351E-01
 7.50000E+00    2.79608E-01
 8.00000E+00    2.23428E-01
 8.50000E+00    1.89329E-01
 9.00000E+00    1.66435E-01
 9.50000E+00    1.49448E-01
 1.00000E+01    1.35771E-01
 1.05000E+01    1.25378E-01
 1.10000E+01    1.17133E-01
 1.15000E+01    1.09923E-01
 1.20000E+01    1.03433E-01
 1.25000E+01    9.75533E-02
 1.30000E+01    9.22091E-02
 1.35000E+01    8.72747E-02
 1.40000E+01    8.27806E-02
 1.45000E+01    7.85361E-02
 1.50000E+01    7.46682E-02
 1.55000E+01    7.07783E-02
 1.60000E+01    7.07651E-02
 1.65000E+01    6.42300E-02
 1.70000E+01    6.10045E-02
 1.75000E+01    6.07731E-02
 1.80000E+01    5.85979E-02
 1.85000E+01    5.30257E-02
 1.90000E+01    5.04976E-02
 1.95000E+01    5.05156E-02
 2.00000E+01    5.01397E-02
