# n + Pd108 : (n,tot)   
# jendl4.0   N.Iwamoto,K.Shibata               EVAL-Dec09
# uncertainties: n
# # energies =   171
#   E(MeV)       xs(mb) 
 1.00000E-11    9.01616E+04
 1.00000E-07    4.88260E+03
 4.13990E-07    3.87245E+03
 5.31580E-07    3.66034E+03
 6.82560E-07    3.47689E+03
 8.76420E-07    3.32211E+03
 1.12540E-06    3.20276E+03
 1.44500E-06    3.14945E+03
 1.85540E-06    3.37184E+03
 2.37240E-06    3.35681E+04
 3.05900E-06    7.74364E+03
 3.92790E-06    2.75650E+03
 5.04350E-06    2.46948E+03
 6.47600E-06    2.30785E+03
 8.31530E-06    2.16386E+03
 1.06770E-05    2.01800E+03
 1.37100E-05    1.89631E+03
 1.76030E-05    2.04500E+03
 2.26030E-05    6.93800E+03
 2.92030E-05    1.84131E+06
 3.72670E-05    1.80316E+04
 4.78510E-05    6.43150E+03
 6.14420E-05    3.34168E+03
 7.88930E-05    4.19448E+05
 1.01300E-04    1.15146E+04
 1.30070E-04    6.54294E+03
 1.67020E-04    5.50149E+03
 2.14450E-04    4.93339E+03
 2.75360E-04    5.05362E+03
 3.53580E-04    3.77870E+04
 4.54000E-04    5.41512E+03
 5.82950E-04    2.10892E+04
 7.48520E-04    3.05619E+04
 9.61120E-04    1.28784E+04
 1.23410E-03    6.69850E+03
 1.58460E-03    1.62384E+04
 2.03470E-03    5.89736E+03
 2.24870E-03    4.91422E+03
 2.48520E-03    1.68771E+04
 2.61260E-03    1.03464E+04
 2.74650E-03    5.85459E+03
 3.03540E-03    1.30896E+04
 3.35460E-03    8.96226E+03
 3.70740E-03    6.04841E+03
 4.30740E-03    1.28138E+04
 5.53080E-03    7.98340E+03
 7.10170E-03    9.34660E+03
 9.11880E-03    8.80419E+03
 1.17090E-02    8.59046E+03
 1.50340E-02    8.39268E+03
 1.93050E-02    8.25652E+03
 2.18750E-02    8.20762E+03
 2.35790E-02    8.18400E+03
 2.41760E-02    8.17268E+03
 2.47880E-02    8.15535E+03
 2.60580E-02    8.13492E+03
 2.70000E-02    8.11442E+03
 2.85000E-02    8.08158E+03
 3.18280E-02    8.06728E+03
 3.43070E-02    8.05381E+03
 4.08680E-02    8.03813E+03
 4.63090E-02    8.02727E+03
 5.24750E-02    8.04004E+03
 5.65620E-02    8.06537E+03
 6.73790E-02    8.09045E+03
 7.20000E-02    8.11004E+03
 7.95000E-02    8.12747E+03
 8.25000E-02    8.13931E+03
 8.65170E-02    8.16429E+03
 9.80370E-02    8.19909E+03
 1.11090E-01    8.22141E+03
 1.16790E-01    8.23433E+03
 1.22770E-01    8.24713E+03
 1.29070E-01    8.25645E+03
 1.35690E-01    8.25937E+03
 1.42640E-01    8.26217E+03
 1.49960E-01    8.26498E+03
 1.57640E-01    8.26768E+03
 1.65730E-01    8.27029E+03
 1.74220E-01    8.27304E+03
 1.83160E-01    8.27593E+03
 1.92550E-01    8.27846E+03
 2.02420E-01    8.26896E+03
 2.12800E-01    8.25375E+03
 2.23710E-01    8.23777E+03
 2.35180E-01    8.22096E+03
 2.47240E-01    8.19400E+03
 2.73240E-01    8.16519E+03
 2.87250E-01    8.14992E+03
 2.94520E-01    8.14280E+03
 2.97200E-01    8.13995E+03
 2.98500E-01    8.13655E+03
 3.01970E-01    8.09386E+03
 3.33730E-01    8.00177E+03
 3.68830E-01    7.92667E+03
 3.87740E-01    7.87455E+03
 4.07620E-01    7.79212E+03
 4.50490E-01    7.67261E+03
 4.97870E-01    7.57522E+03
 5.23400E-01    7.50585E+03
 5.50230E-01    7.43293E+03
 5.78440E-01    7.36228E+03
 6.08100E-01    7.29326E+03
 6.39280E-01    7.22071E+03
 6.72060E-01    7.14444E+03
 7.06510E-01    7.06767E+03
 7.42740E-01    6.99502E+03
 7.80820E-01    6.91899E+03
 8.20850E-01    6.83906E+03
 8.62940E-01    6.75646E+03
 9.07180E-01    6.67251E+03
 9.61640E-01    6.59259E+03
 1.00260E+00    6.47216E+03
 1.10800E+00    6.34829E+03
 1.16480E+00    6.26614E+03
 1.22460E+00    6.17982E+03
 1.28730E+00    6.08913E+03
 1.35340E+00    6.00177E+03
 1.42270E+00    5.91589E+03
 1.49570E+00    5.82554E+03
 1.57240E+00    5.73061E+03
 1.65300E+00    5.63156E+03
 1.73770E+00    5.53905E+03
 1.82680E+00    5.44586E+03
 1.92050E+00    5.34893E+03
 2.01900E+00    5.24930E+03
 2.12250E+00    5.14467E+03
 2.23130E+00    5.05413E+03
 2.30690E+00    5.00349E+03
 2.34570E+00    4.97895E+03
 2.36530E+00    4.96236E+03
 2.38520E+00    4.92027E+03
 2.46600E+00    4.83355E+03
 2.59240E+00    4.72774E+03
 2.72530E+00    4.62720E+03
 2.86500E+00    4.52526E+03
 3.01190E+00    4.43638E+03
 3.16640E+00    4.35734E+03
 3.32870E+00    4.24356E+03
 3.67880E+00    4.13989E+03
 4.06570E+00    4.08252E+03
 4.49330E+00    4.06716E+03
 4.72370E+00    4.07401E+03
 4.96590E+00    4.08237E+03
 5.22050E+00    4.10003E+03
 5.48810E+00    4.12047E+03
 5.76950E+00    4.14197E+03
 6.06530E+00    4.16457E+03
 6.37630E+00    4.18425E+03
 6.59240E+00    4.19646E+03
 6.70320E+00    4.21330E+03
 7.04690E+00    4.23955E+03
 7.40820E+00    4.26715E+03
 7.78800E+00    4.29616E+03
 8.18730E+00    4.32667E+03
 8.60710E+00    4.35808E+03
 9.04840E+00    4.38365E+03
 9.51230E+00    4.40844E+03
 1.00000E+01    4.42903E+03
 1.05130E+01    4.44252E+03
 1.10520E+01    4.44709E+03
 1.16180E+01    4.44439E+03
 1.22140E+01    4.42974E+03
 1.28400E+01    4.40708E+03
 1.34990E+01    4.38193E+03
 1.38400E+01    4.36372E+03
 1.41910E+01    4.33969E+03
 1.45500E+01    4.31497E+03
 1.49180E+01    4.27220E+03
 1.56830E+01    4.20664E+03
 1.64870E+01    4.13166E+03
