# n + Pd108 : (n,n'01)  
# jendl4.0   N.Iwamoto,K.Shibata               EVAL-Dec09
# uncertainties: n
# # energies =    87
#   E(MeV)       xs(mb) 
 4.37994E-01    0.00000E+00
 5.00000E-01    2.62087E+02
 6.00000E-01    5.22083E+02
 7.00000E-01    6.65267E+02
 8.00000E-01    7.49255E+02
 9.00000E-01    8.01658E+02
 9.39844E-01    8.18743E+02
 1.00000E+00    7.98574E+02
 1.05805E+00    7.85861E+02
 1.06262E+00    7.84076E+02
 1.10000E+00    7.59187E+02
 1.20000E+00    7.14550E+02
 1.30000E+00    6.93447E+02
 1.32650E+00    6.90213E+02
 1.34770E+00    6.84694E+02
 1.40000E+00    6.56700E+02
 1.45465E+00    6.37267E+02
 1.50000E+00    6.08544E+02
 1.55436E+00    5.83783E+02
 1.60000E+00    5.60591E+02
 1.64039E+00    5.45793E+02
 1.70000E+00    5.27562E+02
 1.78772E+00    5.09943E+02
 1.80000E+00    5.08175E+02
 1.90000E+00    4.97796E+02
 1.97529E+00    4.92480E+02
 2.00000E+00    4.90458E+02
 2.00846E+00    4.89106E+02
 2.03384E+00    4.84656E+02
 2.06578E+00    4.76808E+02
 2.11829E+00    4.60859E+02
 2.16101E+00    4.46989E+02
 2.23874E+00    4.27982E+02
 2.25000E+00    4.24974E+02
 2.30253E+00    4.14478E+02
 2.30383E+00    4.14143E+02
 2.34653E+00    4.05543E+02
 2.38408E+00    3.99228E+02
 2.41375E+00    3.93941E+02
 2.41991E+00    3.92657E+02
 2.42657E+00    3.91469E+02
 2.44060E+00    3.88960E+02
 2.44464E+00    3.88194E+02
 2.48905E+00    3.80810E+02
 2.50000E+00    3.79103E+02
 2.50073E+00    3.78967E+02
 2.55466E+00    3.69023E+02
 2.56011E+00    3.68102E+02
 2.56394E+00    3.67445E+02
 2.57222E+00    3.66056E+02
 2.60210E+00    3.61382E+02
 2.75000E+00    3.42678E+02
 3.00000E+00    3.17730E+02
 3.50000E+00    2.78662E+02
 4.00000E+00    2.56843E+02
 4.50000E+00    2.47382E+02
 5.00000E+00    2.43167E+02
 5.50000E+00    2.40763E+02
 6.00000E+00    2.37460E+02
 6.50000E+00    2.31821E+02
 7.00000E+00    2.23878E+02
 7.50000E+00    2.14462E+02
 8.00000E+00    2.04482E+02
 8.50000E+00    1.94705E+02
 9.00000E+00    1.85626E+02
 9.50000E+00    1.77467E+02
 1.00000E+01    1.70260E+02
 1.05000E+01    1.64272E+02
 1.10000E+01    1.58285E+02
 1.15000E+01    1.53377E+02
 1.20000E+01    1.48469E+02
 1.25000E+01    1.44144E+02
 1.30000E+01    1.39819E+02
 1.35000E+01    1.35932E+02
 1.40000E+01    1.32044E+02
 1.45000E+01    1.28659E+02
 1.50000E+01    1.25274E+02
 1.55000E+01    1.22431E+02
 1.60000E+01    1.19588E+02
 1.65000E+01    1.17212E+02
 1.70000E+01    1.14837E+02
 1.75000E+01    1.12803E+02
 1.80000E+01    1.10769E+02
 1.85000E+01    1.08991E+02
 1.90000E+01    1.07213E+02
 1.95000E+01    1.05651E+02
 2.00000E+01    1.04090E+02
