# n + Nd142 : (n,n'13)  
# jeff3.3    A.J. Koning and D. Rochman        EVAL-DEC15
# uncertainties: n
# # energies =    75
#   E(MeV)       xs(mb) 
 2.56538E+00    0.00000E+00
 2.60000E+00    6.41490E+01
 2.60145E+00    6.43814E+01
 2.60393E+00    6.47788E+01
 2.67488E+00    7.61482E+01
 2.75672E+00    8.92628E+01
 2.79573E+00    9.55140E+01
 2.80000E+00    9.61982E+01
 2.86609E+00    9.99398E+01
 2.89342E+00    1.01487E+02
 2.90683E+00    1.02246E+02
 2.97903E+00    1.06334E+02
 2.99705E+00    1.07354E+02
 3.00000E+00    1.07521E+02
 3.00430E+00    1.07678E+02
 3.03136E+00    1.08666E+02
 3.06683E+00    1.09960E+02
 3.10296E+00    1.11278E+02
 3.10778E+00    1.11454E+02
 3.15029E+00    1.13006E+02
 3.20000E+00    1.14820E+02
 3.26567E+00    1.13179E+02
 3.40000E+00    1.09823E+02
 3.60000E+00    8.67242E+01
 3.80000E+00    6.31008E+01
 4.00000E+00    4.34635E+01
 4.20000E+00    2.90815E+01
 4.40000E+00    1.93215E+01
 4.60000E+00    1.29161E+01
 4.80000E+00    8.74513E+00
 5.00000E+00    6.00748E+00
 5.20000E+00    4.18687E+00
 5.40000E+00    2.95626E+00
 5.60000E+00    2.11186E+00
 5.80000E+00    1.52368E+00
 6.00000E+00    1.10802E+00
 6.20000E+00    8.09410E-01
 6.40000E+00    5.94775E-01
 6.60000E+00    4.39068E-01
 6.80000E+00    3.25636E-01
 7.00000E+00    2.42518E-01
 7.20000E+00    1.81489E-01
 7.40000E+00    1.36685E-01
 7.60000E+00    1.03183E-01
 7.80000E+00    7.85028E-02
 8.00000E+00    5.98598E-02
 8.50000E+00    3.11226E-02
 9.00000E+00    1.66039E-02
 9.50000E+00    9.05340E-03
 1.00000E+01    5.02236E-03
 1.05000E+01    2.82363E-03
 1.10000E+01    1.60348E-03
 1.15000E+01    9.19112E-04
 1.20000E+01    5.31444E-04
 1.25000E+01    3.09978E-04
 1.30000E+01    1.82551E-04
 1.35000E+01    1.08517E-04
 1.40000E+01    6.50763E-05
 1.45000E+01    3.93925E-05
 1.50000E+01    2.40461E-05
 1.60000E+01    9.16824E-06
 1.70000E+01    3.58033E-06
 1.80000E+01    1.42364E-06
 1.90000E+01    5.72380E-07
 2.00000E+01    2.36070E-07
 2.10000E+01    9.90760E-08
 2.20000E+01    4.24990E-08
 2.30000E+01    1.86150E-08
 2.40000E+01    8.28010E-09
 2.50000E+01    3.73050E-09
 2.60000E+01    1.71150E-09
 2.70000E+01    7.95300E-10
 2.80000E+01    3.73850E-10
 2.90000E+01    1.77570E-10
 3.00000E+01    8.51310E-11
