# n + Nd142 : (n,n'15)  
# jeff3.3    A.J. Koning and D. Rochman        EVAL-DEC15
# uncertainties: n
# # energies =    72
#   E(MeV)       xs(mb) 
 2.60393E+00    0.00000E+00
 2.67488E+00    2.41588E+01
 2.75672E+00    5.20256E+01
 2.79573E+00    6.53087E+01
 2.80000E+00    6.67626E+01
 2.86609E+00    6.87950E+01
 2.89342E+00    6.96355E+01
 2.90683E+00    7.00479E+01
 2.97903E+00    7.22681E+01
 2.99705E+00    7.28223E+01
 3.00000E+00    7.29130E+01
 3.00430E+00    7.29898E+01
 3.03136E+00    7.34728E+01
 3.06683E+00    7.41060E+01
 3.10296E+00    7.47509E+01
 3.10778E+00    7.48369E+01
 3.15029E+00    7.55957E+01
 3.20000E+00    7.64831E+01
 3.26567E+00    7.47678E+01
 3.40000E+00    7.12590E+01
 3.60000E+00    5.42057E+01
 3.80000E+00    3.81848E+01
 4.00000E+00    2.56090E+01
 4.20000E+00    1.67797E+01
 4.40000E+00    1.09761E+01
 4.60000E+00    7.25684E+00
 4.80000E+00    4.87705E+00
 5.00000E+00    3.33350E+00
 5.20000E+00    2.31470E+00
 5.40000E+00    1.62898E+00
 5.60000E+00    1.15942E+00
 5.80000E+00    8.32621E-01
 6.00000E+00    6.01841E-01
 6.20000E+00    4.36320E-01
 6.40000E+00    3.17709E-01
 6.60000E+00    2.32106E-01
 6.80000E+00    1.70200E-01
 7.00000E+00    1.25281E-01
 7.20000E+00    9.26362E-02
 7.40000E+00    6.89867E-02
 7.60000E+00    5.15314E-02
 7.80000E+00    3.88232E-02
 8.00000E+00    2.93622E-02
 8.50000E+00    1.50394E-02
 9.00000E+00    7.96226E-03
 9.50000E+00    4.32634E-03
 1.00000E+01    2.39408E-03
 1.05000E+01    1.34210E-03
 1.10000E+01    7.59143E-04
 1.15000E+01    4.33004E-04
 1.20000E+01    2.49003E-04
 1.25000E+01    1.44377E-04
 1.30000E+01    8.44589E-05
 1.35000E+01    4.98681E-05
 1.40000E+01    2.97136E-05
 1.45000E+01    1.78738E-05
 1.50000E+01    1.08477E-05
 1.60000E+01    4.09705E-06
 1.70000E+01    1.59292E-06
 1.80000E+01    6.33970E-07
 1.90000E+01    2.55610E-07
 2.00000E+01    1.05590E-07
 2.10000E+01    4.42800E-08
 2.20000E+01    1.89270E-08
 2.30000E+01    8.25170E-09
 2.40000E+01    3.66040E-09
 2.50000E+01    1.65240E-09
 2.60000E+01    7.59660E-10
 2.70000E+01    3.53950E-10
 2.80000E+01    1.66680E-10
 2.90000E+01    7.91440E-11
 3.00000E+01    3.78580E-11
