# p + Hg200 : (p,el)    
# endfb8.0   M.CHADWICK,S.CHIBA,P.YOUNG        EVAL-FEB98
# uncertainties: n
# # energies =    82
#   E(MeV)       xs(mb) 
 1.00000E+00   -1.44568E+04
 2.00000E+00   -4.09642E+03
 3.00000E+00   -1.60013E+03
 4.00000E+00   -9.36307E+02
 5.00000E+00   -6.26901E+02
 6.00000E+00   -3.98279E+02
 7.00000E+00   -2.70763E+02
 8.00000E+00   -2.60497E+02
 9.00000E+00   -1.77280E+02
 1.00000E+01   -2.26979E+02
 1.10000E+01   -1.79796E+02
 1.20000E+01   -6.48492E+01
 1.30000E+01   -1.45740E+02
 1.40000E+01   -3.28109E+02
 1.50000E+01   -3.45181E+02
 1.60000E+01   -2.07197E+02
 1.70000E+01   -9.78128E+01
 1.80000E+01   -1.26716E+02
 1.90000E+01   -2.70171E+02
 2.00000E+01   -4.32604E+02
 2.10000E+01   -5.07493E+02
 2.20000E+01   -5.56599E+02
 2.30000E+01   -5.16060E+02
 2.40000E+01   -4.07877E+02
 2.50000E+01   -2.46174E+02
 2.60000E+01   -8.94193E+01
 2.70000E+01    3.87215E+01
 2.80000E+01    1.24754E+02
 2.90000E+01    1.62863E+02
 3.00000E+01    1.53821E+02
 3.10000E+01    1.10232E+02
 3.20000E+01    3.55214E+01
 3.30000E+01   -5.72314E+01
 3.40000E+01   -1.61206E+02
 3.50000E+01   -2.64359E+02
 3.60000E+01   -3.62188E+02
 3.70000E+01   -4.49200E+02
 3.80000E+01   -5.21564E+02
 3.90000E+01   -5.78226E+02
 4.00000E+01   -6.19257E+02
 4.10000E+01   -6.44640E+02
 4.20000E+01   -6.54926E+02
 4.30000E+01   -6.52256E+02
 4.40000E+01   -6.38123E+02
 4.50000E+01   -6.13608E+02
 4.60000E+01   -5.80559E+02
 4.70000E+01   -5.41716E+02
 4.80000E+01   -4.97502E+02
 4.90000E+01   -4.49696E+02
 5.00000E+01   -4.00743E+02
 5.10000E+01   -3.49590E+02
 5.20000E+01   -2.99513E+02
 5.30000E+01   -2.49684E+02
 5.40000E+01   -2.02105E+02
 5.50000E+01   -1.56828E+02
 5.60000E+01   -1.13184E+02
 5.70000E+01   -7.31138E+01
 5.80000E+01   -3.63923E+01
 5.90000E+01   -3.14484E+00
 6.00000E+01    2.69947E+01
 6.10000E+01    5.37368E+01
 6.20000E+01    7.71382E+01
 6.30000E+01    9.67792E+01
 6.40000E+01    1.13310E+02
 6.50000E+01    1.26446E+02
 6.60000E+01    1.36976E+02
 6.70000E+01    1.44573E+02
 6.80000E+01    1.48754E+02
 6.90000E+01    1.51178E+02
 7.00000E+01    1.50361E+02
 7.10000E+01    1.47403E+02
 7.20000E+01    1.43376E+02
 7.30000E+01    1.36637E+02
 7.40000E+01    1.28122E+02
 7.50000E+01    1.17775E+02
 7.60000E+01    1.06437E+02
 7.70000E+01    9.39506E+01
 7.80000E+01    7.91891E+01
 7.90000E+01    6.46402E+01
 8.00000E+01    4.82395E+01
 8.10000E+01    3.13893E+01
 8.20000E+01    1.38490E+01
