# n + Dy162 : (n,xa)    
# jeff3.3    Kim,Herman,Oh,Oblozinsky          EVAL-FEB06
# 
# # energies =    79
#   E(MeV)        xs(mb) 
 8.11625E-02    0.00000E+00
 9.00000E-02    0.00000E+00
 1.00000E-01    0.00000E+00
 1.20000E-01    0.00000E+00
 1.50000E-01    0.00000E+00
 2.00000E-01    0.00000E+00
 2.67315E-01    0.00000E+00
 3.00000E-01    0.00000E+00
 3.96000E-01    0.00000E+00
 4.00000E-01    0.00000E+00
 5.00000E-01    0.00000E+00
 5.51947E-01    0.00000E+00
 6.00000E-01    0.00000E+00
 7.00000E-01    0.00000E+00
 8.00000E-01    0.00000E+00
 8.93723E-01    1.81157E-07
 9.00000E-01    1.93290E-07
 9.26727E-01    2.55460E-07
 9.68969E-01    3.53719E-07
 1.00000E+00    4.25900E-07
 1.06763E+00    6.56234E-07
 1.10000E+00    7.66480E-07
 1.15541E+00    8.99558E-07
 1.19016E+00    9.83017E-07
 1.20000E+00    1.00665E-06
 1.21766E+00    1.06375E-06
 1.28405E+00    1.27843E-06
 1.30000E+00    1.33000E-06
 1.30512E+00    1.34793E-06
 1.33268E+00    1.44443E-06
 1.36623E+00    1.56191E-06
 1.38347E+00    1.62228E-06
 1.39935E+00    1.67788E-06
 1.40000E+00    1.68016E-06
 1.40886E+00    1.72786E-06
 1.41710E+00    1.77223E-06
 1.46249E+00    2.01662E-06
 1.49496E+00    2.19144E-06
 1.49955E+00    2.21616E-06
 1.50000E+00    2.21858E-06
 1.52826E+00    2.43419E-06
 1.53970E+00    2.52147E-06
 1.54543E+00    2.56518E-06
 1.58099E+00    2.83648E-06
 1.58391E+00    2.85876E-06
 1.58593E+00    2.87417E-06
 1.60000E+00    2.98152E-06
 1.64479E+00    3.35426E-06
 1.64730E+00    3.37515E-06
 1.64794E+00    3.38048E-06
 1.64862E+00    3.38614E-06
 1.67529E+00    3.60808E-06
 1.70000E+00    3.81372E-06
 1.80000E+00    4.87271E-06
 1.90000E+00    6.11460E-06
 2.00000E+00    7.08908E-06
 2.50000E+00    1.63429E-05
 3.00000E+00    3.31968E-05
 3.50000E+00    1.31613E-04
 4.00000E+00    2.89075E-04
 5.00000E+00    8.47337E-04
 6.00000E+00    1.76124E-03
 7.00000E+00    3.42199E-03
 8.00000E+00    7.64180E-03
 8.20000E+00    9.12512E-03
 8.30000E+00    9.95630E-03
 9.00000E+00    1.89410E-02
 1.00000E+01    4.98778E-02
 1.10000E+01    1.32394E-01
 1.20000E+01    3.21226E-01
 1.30000E+01    6.82671E-01
 1.40000E+01    1.26853E+00
 1.45000E+01    1.69405E+00
 1.50000E+01    2.23353E+00
 1.60000E+01    3.26136E+00
 1.70000E+01    4.46085E+00
 1.80000E+01    5.82165E+00
 1.90000E+01    7.53254E+00
 2.00000E+01    9.37358E+00
