# n + Pm145 : (n,n'05)  
# tendl.2019 A.J. Koning and D. Rochman        EVAL-NOV19
# uncertainties: n
# # energies =    93
#   E(MeV)       xs(mb) 
 7.18567E-01    0.00000E+00
 7.31557E-01    2.23186E+01
 7.55623E-01    6.36672E+01
 7.78380E-01    1.02767E+02
 8.00000E-01    1.39913E+02
 8.00131E-01    1.39922E+02
 8.29232E-01    1.41881E+02
 8.42322E-01    1.42763E+02
 8.89952E-01    1.45969E+02
 9.00000E-01    1.46646E+02
 9.64668E-01    1.51291E+02
 1.00000E+00    1.53828E+02
 1.06466E+00    1.58497E+02
 1.10947E+00    1.61733E+02
 1.20000E+00    1.68271E+02
 1.21520E+00    1.67798E+02
 1.22366E+00    1.67535E+02
 1.24249E+00    1.66949E+02
 1.26877E+00    1.66132E+02
 1.29294E+00    1.65380E+02
 1.30089E+00    1.65132E+02
 1.32083E+00    1.64512E+02
 1.35628E+00    1.63409E+02
 1.37541E+00    1.62814E+02
 1.39454E+00    1.62219E+02
 1.39816E+00    1.62106E+02
 1.40000E+00    1.62049E+02
 1.40693E+00    1.61408E+02
 1.45799E+00    1.56684E+02
 1.46583E+00    1.55959E+02
 1.49936E+00    1.52857E+02
 1.60000E+00    1.43547E+02
 1.80000E+00    1.20944E+02
 2.00000E+00    9.69380E+01
 2.20000E+00    7.52491E+01
 2.40000E+00    5.73584E+01
 2.60000E+00    4.32938E+01
 2.80000E+00    3.24927E+01
 3.00000E+00    2.42893E+01
 3.20000E+00    1.80866E+01
 3.40000E+00    1.34087E+01
 3.60000E+00    9.89224E+00
 3.80000E+00    7.26460E+00
 4.00000E+00    5.30887E+00
 4.20000E+00    3.86415E+00
 4.40000E+00    2.80556E+00
 4.60000E+00    2.03658E+00
 4.80000E+00    1.48232E+00
 5.00000E+00    1.08537E+00
 5.20000E+00    8.01959E-01
 5.40000E+00    6.00945E-01
 5.60000E+00    4.58846E-01
 5.80000E+00    3.57753E-01
 6.00000E+00    2.86585E-01
 6.20000E+00    2.35333E-01
 6.40000E+00    1.99312E-01
 6.60000E+00    1.73671E-01
 6.80000E+00    1.55322E-01
 7.00000E+00    1.42291E-01
 7.20000E+00    1.32924E-01
 7.40000E+00    1.26216E-01
 7.60000E+00    1.21371E-01
 7.80000E+00    1.17809E-01
 8.00000E+00    1.15169E-01
 8.50000E+00    1.10768E-01
 9.00000E+00    1.07678E-01
 9.50000E+00    1.04819E-01
 1.00000E+01    1.01881E-01
 1.05000E+01    9.88715E-02
 1.10000E+01    9.58954E-02
 1.15000E+01    9.30563E-02
 1.20000E+01    9.04213E-02
 1.25000E+01    8.80068E-02
 1.30000E+01    8.57976E-02
 1.35000E+01    8.37536E-02
 1.40000E+01    8.18300E-02
 1.45000E+01    7.99898E-02
 1.50000E+01    7.82106E-02
 1.60000E+01    7.48087E-02
 1.70000E+01    7.16295E-02
 1.80000E+01    6.87077E-02
 1.90000E+01    6.60942E-02
 2.00000E+01    6.38416E-02
 2.10000E+01    6.19640E-02
 2.20000E+01    6.04294E-02
 2.30000E+01    5.91746E-02
 2.40000E+01    5.81092E-02
 2.50000E+01    5.71228E-02
 2.60000E+01    5.61073E-02
 2.70000E+01    5.49976E-02
 2.80000E+01    5.37942E-02
 2.90000E+01    5.25492E-02
 3.00000E+01    5.13300E-02
