# n + Cd109 : (n,n'13)  
# endfb8.0   A.J. Koning and D. Rochman        EVAL-DEC15
# uncertainties: n
# # energies =    83
#   E(MeV)       xs(mb) 
 9.94951E-01    0.00000E+00
 1.00000E+00    1.84537E-02
 1.00669E+00    5.23559E-02
 1.07597E+00    4.03438E-01
 1.11523E+00    6.02391E-01
 1.12364E+00    6.45009E-01
 1.13155E+00    6.85094E-01
 1.14411E+00    7.48742E-01
 1.18432E+00    9.52510E-01
 1.20000E+00    1.03197E+00
 1.23041E+00    1.25594E+00
 1.33047E+00    1.99289E+00
 1.36471E+00    2.24507E+00
 1.40000E+00    2.50498E+00
 1.40136E+00    2.51512E+00
 1.43100E+00    2.73607E+00
 1.43860E+00    2.79272E+00
 1.44304E+00    2.82582E+00
 1.47223E+00    3.04341E+00
 1.48940E+00    3.17140E+00
 1.49339E+00    3.20115E+00
 1.60000E+00    3.99586E+00
 1.80000E+00    5.12629E+00
 2.00000E+00    5.85859E+00
 2.20000E+00    6.15652E+00
 2.40000E+00    6.10010E+00
 2.60000E+00    5.77166E+00
 2.80000E+00    5.29532E+00
 3.00000E+00    4.74572E+00
 3.20000E+00    4.17629E+00
 3.40000E+00    3.62218E+00
 3.60000E+00    3.10322E+00
 3.80000E+00    2.63114E+00
 4.00000E+00    2.20982E+00
 4.20000E+00    1.84059E+00
 4.40000E+00    1.52172E+00
 4.60000E+00    1.25029E+00
 4.80000E+00    1.02225E+00
 5.00000E+00    8.32924E-01
 5.20000E+00    6.77601E-01
 5.40000E+00    5.51825E-01
 5.60000E+00    4.51095E-01
 5.80000E+00    3.70250E-01
 6.00000E+00    3.07078E-01
 6.20000E+00    2.57304E-01
 6.40000E+00    2.18843E-01
 6.60000E+00    1.89250E-01
 6.80000E+00    1.66082E-01
 7.00000E+00    1.48817E-01
 7.20000E+00    1.35728E-01
 7.40000E+00    1.25877E-01
 7.60000E+00    1.18475E-01
 7.80000E+00    1.12913E-01
 8.00000E+00    1.08816E-01
 8.50000E+00    1.02735E-01
 9.00000E+00    1.00207E-01
 9.50000E+00    9.94447E-02
 1.00000E+01    9.95130E-02
 1.05000E+01    9.99183E-02
 1.10000E+01    1.00400E-01
 1.15000E+01    1.00827E-01
 1.20000E+01    1.01140E-01
 1.25000E+01    1.01317E-01
 1.30000E+01    1.01357E-01
 1.35000E+01    1.01266E-01
 1.40000E+01    1.01050E-01
 1.45000E+01    1.00719E-01
 1.50000E+01    1.00277E-01
 1.60000E+01    9.91032E-02
 1.70000E+01    9.76210E-02
 1.80000E+01    9.59597E-02
 1.90000E+01    9.42455E-02
 2.00000E+01    9.25719E-02
 2.10000E+01    9.09850E-02
 2.20000E+01    8.94843E-02
 2.30000E+01    8.80352E-02
 2.40000E+01    8.65875E-02
 2.50000E+01    8.50988E-02
 2.60000E+01    8.35502E-02
 2.70000E+01    8.19459E-02
 2.80000E+01    8.03095E-02
 2.90000E+01    7.86700E-02
 3.00000E+01    7.70517E-02
