# n + Re  0 : (n,xp)
# endfb8.0   I.J. Thompson and N.C. Summers    EVAL-Jan11
#
# # energies =   120
#   E(MeV)          xs(mb) 
 1.26042E-01    0.00000E+00
 2.00000E-01    0.00000E+00
 2.85649E-01    0.00000E+00
 3.70208E-01    0.00000E+00
 4.00000E-01    0.00000E+00
 4.78194E-01    0.00000E+00
 5.49883E-01    8.23282E-10
 6.00000E-01    2.09944E-09
 6.49643E-01    3.61982E-09
 7.00801E-01    5.18660E-09
 7.21345E-01    5.81579E-09
 7.61531E-01    7.04654E-09
 7.73123E-01    7.40156E-09
 8.00000E-01    8.22470E-09
 8.30505E-01    9.15895E-09
 8.40559E-01    9.46686E-09
 8.79586E-01    1.06621E-08
 8.85083E-01    1.08305E-08
 9.22001E-01    1.19612E-08
 9.36138E-01    1.23941E-08
 9.54678E-01    1.29619E-08
 9.71268E-01    1.34700E-08
 1.00000E+00    1.43500E-08
 1.00545E+00    1.45169E-08
 1.01852E+00    1.49172E-08
 1.20000E+00    2.04752E-08
 1.40000E+00    2.66005E-08
 1.60000E+00    3.27258E-08
 1.80000E+00    3.88510E-08
 2.00000E+00    4.49763E-08
 2.20000E+00    5.11016E-08
 2.40000E+00    5.72268E-08
 2.60000E+00    6.33518E-08
 2.80000E+00    3.24194E-07
 3.00000E+00    7.66620E-07
 3.20000E+00    1.53559E-06
 3.40000E+00    2.86609E-06
 3.60000E+00    4.88694E-06
 3.80000E+00    8.39999E-06
 4.00000E+00    1.30140E-05
 4.20000E+00    1.79386E-05
 4.40000E+00    2.62322E-05
 4.60000E+00    3.27198E-05
 4.80000E+00    4.19523E-05
 5.00000E+00    4.42789E-04
 5.20000E+00    5.90091E-04
 5.40000E+00    8.30076E-04
 5.60000E+00    1.13660E-03
 5.80000E+00    1.61797E-03
 6.00000E+00    2.16330E-03
 6.20000E+00    2.99863E-03
 6.40000E+00    4.95389E-03
 6.60000E+00    6.77601E-03
 6.80000E+00    1.00574E-02
 7.00000E+00    1.30344E-02
 7.20000E+00    1.78915E-02
 7.40000E+00    2.47577E-02
 7.60000E+00    3.21827E-02
 7.80000E+00    4.53964E-02
 8.00000E+00    5.55103E-02
 8.20000E+00    7.28177E-02
 8.40000E+00    9.42997E-02
 8.60000E+00    1.15714E-01
 8.80000E+00    1.53425E-01
 9.00000E+00    1.78791E-01
 9.20000E+00    2.22340E-01
 9.40000E+00    2.73033E-01
 9.60000E+00    3.19019E-01
 9.80000E+00    3.99281E-01
 1.00000E+01    4.49917E-01
 1.02000E+01    5.34695E-01
 1.04000E+01    6.27818E-01
 1.06000E+01    7.11928E-01
 1.08000E+01    8.50752E-01
 1.10000E+01    9.40022E-01
 1.12000E+01    1.07541E+00
 1.14000E+01    1.23488E+00
 1.16000E+01    1.37000E+00
 1.18000E+01    1.58296E+00
 1.20000E+01    1.72914E+00
 1.22000E+01    1.93587E+00
 1.24000E+01    2.17706E+00
 1.26000E+01    2.37779E+00
 1.28000E+01    2.67796E+00
 1.30000E+01    2.90423E+00
 1.32000E+01    3.19893E+00
 1.34000E+01    3.53864E+00
 1.36000E+01    3.82196E+00
 1.38000E+01    4.22534E+00
 1.40000E+01    4.54512E+00
 1.42000E+01    4.94630E+00
 1.44000E+01    5.40154E+00
 1.46000E+01    5.78084E+00
 1.48000E+01    6.30021E+00
 1.50000E+01    6.72792E+00
 1.52000E+01    7.24357E+00
 1.54000E+01    7.82348E+00
 1.56000E+01    8.30860E+00
 1.58000E+01    8.94705E+00
 1.60000E+01    9.49261E+00
 1.62000E+01    1.01235E+01
 1.64000E+01    1.08300E+01
 1.66000E+01    1.14229E+01
 1.68000E+01    1.21783E+01
 1.70000E+01    1.28409E+01
 1.72000E+01    1.35799E+01
 1.74000E+01    1.47961E+01
 1.76000E+01    1.55041E+01
 1.78000E+01    1.63865E+01
 1.80000E+01    1.71746E+01
 1.82000E+01    1.80263E+01
 1.84000E+01    1.89776E+01
 1.86000E+01    1.97694E+01
 1.88000E+01    2.07320E+01
 1.90000E+01    2.16115E+01
 1.92000E+01    2.25347E+01
 1.94000E+01    2.35658E+01
 1.96000E+01    2.44220E+01
 1.98000E+01    2.54427E+01
 2.00000E+01    2.65048E+01
