# n + Re  0 : (n,a)
# endfb8.0   I.J. Thompson and N.C. Summers    EVAL-Jan11
# uncertainties: n
# # energies =    95
#   E(MeV)          xs(mb) 
 1.20000E+00    0.00000E+00
 1.40000E+00    4.61475E-06
 1.60000E+00    5.16505E-06
 1.80000E+00    6.52813E-06
 2.00000E+00    7.94095E-06
 2.20000E+00    8.52615E-06
 2.40000E+00    1.05740E-05
 2.60000E+00    1.18337E-05
 2.80000E+00    1.28178E-05
 3.00000E+00    1.46826E-05
 3.20000E+00    3.89723E-04
 3.40000E+00    4.66524E-04
 3.60000E+00    5.28112E-04
 3.80000E+00    6.12565E-04
 4.00000E+00    6.85709E-04
 4.20000E+00    7.69742E-04
 4.40000E+00    8.45489E-04
 4.60000E+00    9.32688E-04
 4.80000E+00    1.01189E-03
 5.00000E+00    1.09728E-03
 5.20000E+00    1.18496E-03
 5.40000E+00    1.26630E-03
 5.60000E+00    1.35860E-03
 5.80000E+00    1.47195E-03
 6.00000E+00    1.60164E-03
 6.20000E+00    1.77782E-03
 6.40000E+00    1.89886E-03
 6.60000E+00    2.85745E-03
 6.80000E+00    3.20895E-03
 7.00000E+00    3.65201E-03
 7.20000E+00    4.31772E-03
 7.40000E+00    4.69790E-03
 7.60000E+00    5.61228E-03
 7.80000E+00    6.54440E-03
 8.00000E+00    7.60342E-03
 8.20000E+00    9.34904E-03
 8.40000E+00    1.03135E-02
 8.60000E+00    1.25945E-02
 8.80000E+00    1.50246E-02
 9.00000E+00    1.76094E-02
 9.20000E+00    2.19394E-02
 9.40000E+00    2.46074E-02
 9.60000E+00    3.00183E-02
 9.80000E+00    3.65765E-02
 1.00000E+01    4.25582E-02
 1.02000E+01    5.24651E-02
 1.04000E+01    6.00814E-02
 1.06000E+01    7.12378E-02
 1.08000E+01    8.84744E-02
 1.10000E+01    9.96644E-02
 1.12000E+01    1.21575E-01
 1.14000E+01    1.39519E-01
 1.16000E+01    1.62690E-01
 1.18000E+01    1.96960E-01
 1.20000E+01    2.19185E-01
 1.22000E+01    2.58299E-01
 1.24000E+01    2.97658E-01
 1.26000E+01    3.50661E-01
 1.28000E+01    4.05547E-01
 1.30000E+01    4.42727E-01
 1.32000E+01    5.07314E-01
 1.34000E+01    5.75354E-01
 1.36000E+01    6.55220E-01
 1.38000E+01    7.63688E-01
 1.40000E+01    8.24887E-01
 1.42000E+01    9.04371E-01
 1.44000E+01    9.95765E-01
 1.46000E+01    1.10868E+00
 1.48000E+01    1.26173E+00
 1.50000E+01    1.35182E+00
 1.52000E+01    1.46160E+00
 1.54000E+01    1.58484E+00
 1.56000E+01    1.73226E+00
 1.58000E+01    1.92294E+00
 1.60000E+01    2.03480E+00
 1.62000E+01    2.17130E+00
 1.64000E+01    2.32188E+00
 1.66000E+01    2.50068E+00
 1.68000E+01    2.72937E+00
 1.70000E+01    2.86390E+00
 1.72000E+01    3.03141E+00
 1.74000E+01    3.21758E+00
 1.76000E+01    3.43628E+00
 1.78000E+01    3.71313E+00
 1.80000E+01    3.87021E+00
 1.82000E+01    4.06999E+00
 1.84000E+01    4.29906E+00
 1.86000E+01    4.57294E+00
 1.88000E+01    4.89662E+00
 1.90000E+01    5.09793E+00
 1.92000E+01    5.35408E+00
 1.94000E+01    5.65117E+00
 1.96000E+01    6.01379E+00
 1.98000E+01    6.41364E+00
 2.00000E+01    6.71961E+00
