# n + Re  0 : (n,xn)
# endfb8.0   I.J. Thompson and N.C. Summers    EVAL-Jan11
#
# # energies =   120
#   E(MeV)          xs(mb) 
 1.26042E-01    0.00000E+00
 2.00000E-01    3.46220E+02
 2.85649E-01    4.44123E+02
 3.70208E-01    6.41128E+02
 4.00000E-01    7.29369E+02
 4.78194E-01    7.85466E+02
 5.49883E-01    8.56055E+02
 6.00000E-01    9.77323E+02
 6.49643E-01    9.88138E+02
 7.00801E-01    1.03885E+03
 7.21345E-01    1.06487E+03
 7.61531E-01    1.13914E+03
 7.73123E-01    1.16210E+03
 8.00000E-01    1.27393E+03
 8.30505E-01    1.27386E+03
 8.40559E-01    1.27846E+03
 8.79586E-01    1.30361E+03
 8.85083E-01    1.30875E+03
 9.22001E-01    1.34567E+03
 9.36138E-01    1.36237E+03
 9.54678E-01    1.38786E+03
 9.71268E-01    1.41070E+03
 1.00000E+00    1.45873E+03
 1.00545E+00    1.46094E+03
 1.01852E+00    1.46628E+03
 1.20000E+00    1.56255E+03
 1.40000E+00    1.62673E+03
 1.60000E+00    1.67844E+03
 1.80000E+00    1.72901E+03
 2.00000E+00    1.78158E+03
 2.20000E+00    1.83559E+03
 2.40000E+00    1.88945E+03
 2.60000E+00    1.94182E+03
 2.80000E+00    1.99230E+03
 3.00000E+00    2.04139E+03
 3.20000E+00    2.09031E+03
 3.40000E+00    2.14034E+03
 3.60000E+00    2.19227E+03
 3.80000E+00    2.24593E+03
 4.00000E+00    2.30005E+03
 4.20000E+00    2.35256E+03
 4.40000E+00    2.40117E+03
 4.60000E+00    2.44389E+03
 4.80000E+00    2.47963E+03
 5.00000E+00    2.50805E+03
 5.20000E+00    2.52922E+03
 5.40000E+00    2.54372E+03
 5.60000E+00    2.55239E+03
 5.80000E+00    2.55566E+03
 6.00000E+00    2.55432E+03
 6.20000E+00    2.54907E+03
 6.40000E+00    2.54073E+03
 6.60000E+00    2.53026E+03
 6.80000E+00    2.51851E+03
 7.00000E+00    2.50631E+03
 7.20000E+00    2.49439E+03
 7.40000E+00    2.48334E+03
 7.60000E+00    2.48473E+03
 7.80000E+00    2.52347E+03
 8.00000E+00    2.61265E+03
 8.20000E+00    2.74531E+03
 8.40000E+00    2.90369E+03
 8.60000E+00    3.06958E+03
 8.80000E+00    3.23094E+03
 9.00000E+00    3.38143E+03
 9.20000E+00    3.51884E+03
 9.40000E+00    3.64314E+03
 9.60000E+00    3.75369E+03
 9.80000E+00    3.85174E+03
 1.00000E+01    3.93919E+03
 1.02000E+01    4.01582E+03
 1.04000E+01    4.08356E+03
 1.06000E+01    4.14245E+03
 1.08000E+01    4.19346E+03
 1.10000E+01    4.23795E+03
 1.12000E+01    4.27469E+03
 1.14000E+01    4.30738E+03
 1.16000E+01    4.33354E+03
 1.18000E+01    4.35635E+03
 1.20000E+01    4.37478E+03
 1.22000E+01    4.39005E+03
 1.24000E+01    4.40320E+03
 1.26000E+01    4.41365E+03
 1.28000E+01    4.42271E+03
 1.30000E+01    4.43024E+03
 1.32000E+01    4.43664E+03
 1.34000E+01    4.44286E+03
 1.36000E+01    4.44782E+03
 1.38000E+01    4.45320E+03
 1.40000E+01    4.45950E+03
 1.42000E+01    4.46694E+03
 1.44000E+01    4.47927E+03
 1.46000E+01    4.49545E+03
 1.48000E+01    4.51834E+03
 1.50000E+01    4.54853E+03
 1.52000E+01    4.58554E+03
 1.54000E+01    4.63022E+03
 1.56000E+01    4.67957E+03
 1.58000E+01    4.73431E+03
 1.60000E+01    4.79459E+03
 1.62000E+01    4.85652E+03
 1.64000E+01    4.92102E+03
 1.66000E+01    4.98563E+03
 1.68000E+01    5.05102E+03
 1.70000E+01    5.11670E+03
 1.72000E+01    5.18002E+03
 1.74000E+01    5.23502E+03
 1.76000E+01    5.29496E+03
 1.78000E+01    5.35359E+03
 1.80000E+01    5.41008E+03
 1.82000E+01    5.46361E+03
 1.84000E+01    5.51514E+03
 1.86000E+01    5.56311E+03
 1.88000E+01    5.60812E+03
 1.90000E+01    5.65111E+03
 1.92000E+01    5.69048E+03
 1.94000E+01    5.72765E+03
 1.96000E+01    5.76096E+03
 1.98000E+01    5.79200E+03
 2.00000E+01    5.81672E+03
