# n + Ar 36 : (n,g)     
# jendl.ad    T.WATANABE                       EVAL-FEB95
# uncertainties: n
# # energies =    69
#   E(MeV)       xs(mb) 
 1.00000E-10    3.63078E+04
 5.00000E-09    9.88599E+03
 1.00000E-08    7.48707E+03
 1.50000E-08    6.29058E+03
 2.00000E-08    5.53482E+03
 2.50000E-08    5.00095E+03
 3.00000E-08    4.59759E+03
 3.50000E-08    4.22743E+03
 4.20000E-08    3.86677E+03
 5.00000E-08    3.56665E+03
 5.80000E-08    3.31496E+03
 6.70000E-08    3.05924E+03
 8.00000E-08    2.76834E+03
 1.00000E-07    2.40847E+03
 1.40000E-07    2.07828E+03
 1.80000E-07    1.85581E+03
 2.20000E-07    1.70894E+03
 2.50000E-07    1.60900E+03
 2.80000E-07    1.53725E+03
 3.00000E-07    1.48666E+03
 3.20000E-07    1.43049E+03
 3.50000E-07    1.35310E+03
 4.00000E-07    1.23800E+03
 5.00000E-07    1.10738E+03
 6.25000E-07    9.90806E+02
 7.80000E-07    9.17163E+02
 8.50000E-07    8.82407E+02
 9.10000E-07    8.58125E+02
 9.50000E-07    8.44057E+02
 9.72000E-07    8.34133E+02
 9.96000E-07    8.24112E+02
 1.02000E-06    8.14313E+02
 1.04500E-06    8.04521E+02
 1.07100E-06    7.94964E+02
 1.09700E-06    7.85633E+02
 1.12300E-06    7.76499E+02
 1.15000E-06    7.48540E+02
 1.30000E-06    7.00532E+02
 1.50000E-06    6.22119E+02
 2.10000E-06    5.41950E+02
 2.60000E-06    4.84051E+02
 3.30000E-06    4.34511E+02
 4.00000E-06    3.33057E+02
 9.87700E-06    2.34184E+02
 1.59680E-05    1.81106E+02
 2.77000E-05    1.37496E+02
 4.80520E-05    1.06897E+02
 7.55014E-05    8.08079E+01
 1.48728E-04    5.46158E+01
 3.67262E-04    3.47578E+01
 9.06898E-04    2.46069E+01
 1.42510E-03    1.96281E+01
 2.23945E-03    1.56590E+01
 3.51910E-03    1.24910E+01
 5.53000E-03    9.84972E+00
 9.11800E-03    2.60356E+01
 1.50300E-02    2.28251E+01
 2.47800E-02    1.67267E+01
 4.08500E-02    1.22882E+01
 6.73400E-02    9.48807E+00
 1.11000E-01    7.83830E+00
 1.83000E-01    6.64549E+00
 3.02000E-01    5.85443E+00
 5.00000E-01    5.64088E+00
 8.21000E-01    6.20946E+00
 1.35300E+00    7.29311E+00
 2.23100E+00    4.39207E+00
 3.67900E+00    2.31458E+00
 6.06500E+00    8.38655E-01
