# n + Ar 36 : (n,g)     
# jendl.ad    T.WATANABE                       EVAL-FEB95
# uncertainties: n
# # energies =   171
#   E(MeV)       xs(mb) 
 1.00000E-11    5.62318E+04
 1.00000E-07    1.87332E+03
 4.13990E-07    1.20890E+03
 5.31580E-07    1.06692E+03
 6.82560E-07    9.41570E+02
 8.76420E-07    8.30868E+02
 1.12540E-06    7.33365E+02
 1.44500E-06    6.47353E+02
 1.85540E-06    5.71968E+02
 2.37240E-06    5.04781E+02
 3.05900E-06    4.44966E+02
 3.92790E-06    3.92728E+02
 5.04350E-06    3.46558E+02
 6.47600E-06    3.05804E+02
 8.31530E-06    2.69887E+02
 1.06770E-05    2.38189E+02
 1.37100E-05    2.10171E+02
 1.76030E-05    1.85508E+02
 2.26030E-05    1.63448E+02
 2.92030E-05    1.44234E+02
 3.72670E-05    1.27477E+02
 4.78510E-05    1.12499E+02
 6.14420E-05    9.92788E+01
 7.88930E-05    8.76179E+01
 1.01300E-04    7.73190E+01
 1.30070E-04    6.82341E+01
 1.67020E-04    6.02266E+01
 2.14450E-04    5.31369E+01
 2.75360E-04    4.69018E+01
 3.53580E-04    4.13897E+01
 4.54000E-04    3.65300E+01
 5.82950E-04    3.22313E+01
 7.48520E-04    2.84442E+01
 9.61120E-04    2.51050E+01
 1.23410E-03    2.21523E+01
 1.58460E-03    1.95489E+01
 2.03470E-03    1.79028E+01
 2.24870E-03    1.70316E+01
 2.48520E-03    1.64002E+01
 2.61260E-03    1.59946E+01
 2.74650E-03    1.54085E+01
 3.03540E-03    1.46572E+01
 3.35460E-03    1.39422E+01
 3.70740E-03    1.30971E+01
 4.30740E-03    1.18592E+01
 5.53080E-03    1.04642E+01
 7.10170E-03    9.23411E+00
 9.11880E-03    2.35094E+01
 1.17090E-02    2.85690E+01
 1.50340E-02    2.45465E+01
 1.93050E-02    2.18921E+01
 2.18750E-02    2.06038E+01
 2.35790E-02    1.99891E+01
 2.41760E-02    1.96914E+01
 2.47880E-02    1.92300E+01
 2.60580E-02    1.86977E+01
 2.70000E-02    1.81695E+01
 2.85000E-02    1.72354E+01
 3.18280E-02    1.62535E+01
 3.43070E-02    1.50366E+01
 4.08680E-02    1.36797E+01
 4.63090E-02    1.26564E+01
 5.24750E-02    1.19540E+01
 5.65620E-02    1.11642E+01
 6.73790E-02    1.04439E+01
 7.20000E-02    1.00509E+01
 7.95000E-02    9.74308E+00
 8.25000E-02    9.55699E+00
 8.65170E-02    9.18890E+00
 9.80370E-02    8.72057E+00
 1.11090E-01    8.45779E+00
 1.16790E-01    8.31568E+00
 1.22770E-01    8.16932E+00
 1.29070E-01    8.03354E+00
 1.35690E-01    7.89563E+00
 1.42640E-01    7.75728E+00
 1.49960E-01    7.62656E+00
 1.57640E-01    7.49633E+00
 1.65730E-01    7.36915E+00
 1.74220E-01    7.23909E+00
 1.83160E-01    7.11873E+00
 1.92550E-01    6.99450E+00
 2.02420E-01    6.88567E+00
 2.12800E-01    6.78645E+00
 2.23710E-01    6.68335E+00
 2.35180E-01    6.58790E+00
 2.47240E-01    6.44102E+00
 2.73240E-01    6.29998E+00
 2.87250E-01    6.23138E+00
 2.94520E-01    6.19935E+00
 2.97200E-01    6.18656E+00
 2.98500E-01    6.17126E+00
 3.01970E-01    6.09600E+00
 3.33730E-01    5.96105E+00
 3.68830E-01    5.86307E+00
 3.87740E-01    5.79777E+00
 4.07620E-01    5.73544E+00
 4.50490E-01    5.65966E+00
 4.97870E-01    5.60604E+00
 5.23400E-01    5.58926E+00
 5.50230E-01    5.57233E+00
 5.78440E-01    5.55655E+00
 6.08100E-01    5.57963E+00
 6.39280E-01    5.61940E+00
 6.72060E-01    5.66120E+00
 7.06510E-01    5.70259E+00
 7.42740E-01    5.74004E+00
 7.80820E-01    5.77922E+00
 8.20850E-01    5.82908E+00
 8.62940E-01    5.88768E+00
 9.07180E-01    5.95762E+00
 9.61640E-01    6.03410E+00
 1.00260E+00    6.17185E+00
 1.10800E+00    6.33952E+00
 1.16480E+00    6.45416E+00
 1.22460E+00    6.57037E+00
 1.28730E+00    6.69228E+00
 1.35340E+00    6.81577E+00
 1.42270E+00    6.94382E+00
 1.49570E+00    7.08005E+00
 1.57240E+00    7.23172E+00
 1.65300E+00    7.39242E+00
 1.73770E+00    7.56068E+00
 1.82680E+00    7.72980E+00
 1.92050E+00    7.90405E+00
 2.01900E+00    7.57580E+00
 2.12250E+00    6.69674E+00
 2.23130E+00    6.03651E+00
 2.30690E+00    5.67180E+00
 2.34570E+00    5.49793E+00
 2.36530E+00    5.38848E+00
 2.38520E+00    5.11785E+00
 2.46600E+00    4.71987E+00
 2.59240E+00    4.52779E+00
 2.72530E+00    4.35638E+00
 2.86500E+00    4.18907E+00
 3.01190E+00    4.01542E+00
 3.16640E+00    3.83460E+00
 3.32870E+00    3.56614E+00
 3.67880E+00    3.18573E+00
 4.06570E+00    2.97153E+00
 4.49330E+00    2.47978E+00
 4.72370E+00    2.10173E+00
 4.96590E+00    1.83982E+00
 5.22050E+00    1.63133E+00
 5.48810E+00    1.46229E+00
 5.76950E+00    1.31624E+00
 6.06530E+00    1.17745E+00
 6.37630E+00    1.08426E+00
 6.59240E+00    1.03814E+00
 6.70320E+00    9.76218E-01
 7.04690E+00    9.04482E-01
 7.40820E+00    8.52901E-01
 7.78800E+00    7.99342E-01
 8.18730E+00    7.38506E-01
 8.60710E+00    6.80039E-01
 9.04840E+00    6.22129E-01
 9.51230E+00    5.66178E-01
 1.00000E+01    5.05141E-01
 1.05130E+01    4.42016E-01
 1.10520E+01    3.90088E-01
 1.16180E+01    3.47500E-01
 1.22140E+01    3.20954E-01
 1.28400E+01    3.21341E-01
 1.34990E+01    3.49985E-01
 1.38400E+01    3.74703E-01
 1.41910E+01    4.17446E-01
 1.45500E+01    4.66512E-01
 1.49180E+01    5.27164E-01
 1.56830E+01    5.74822E-01
 1.64870E+01    5.59269E-01
