# n + Sc 45 : (n,el)    
# irdff2.0   Z.X.ZHAO                          EVAL-FEB91
# uncertainties: n
# # energies =   171
#   E(MeV)       xs(mb) 
 1.00000E-11    5.14684E+04
 1.00000E-07    2.25431E+04
 4.13990E-07    2.24958E+04
 5.31580E-07    2.24754E+04
 6.82560E-07    2.24491E+04
 8.76420E-07    2.24159E+04
 1.12540E-06    2.23813E+04
 1.44500E-06    2.23398E+04
 1.85540E-06    2.22871E+04
 2.37240E-06    2.22188E+04
 3.05900E-06    2.21303E+04
 3.92790E-06    2.20175E+04
 5.04350E-06    2.18727E+04
 6.47600E-06    2.16868E+04
 8.31530E-06    2.14481E+04
 1.06770E-05    2.11416E+04
 1.37100E-05    2.07730E+04
 1.76030E-05    2.03222E+04
 2.26030E-05    1.97375E+04
 2.92030E-05    1.90525E+04
 3.72670E-05    1.82249E+04
 4.78510E-05    1.72423E+04
 6.14420E-05    1.60994E+04
 7.88930E-05    1.48005E+04
 1.01300E-04    1.33584E+04
 1.30070E-04    1.18074E+04
 1.67020E-04    1.01878E+04
 2.14450E-04    8.55338E+03
 2.75360E-04    6.96091E+03
 3.53580E-04    5.46511E+03
 4.54000E-04    4.11438E+03
 5.82950E-04    2.93507E+03
 7.48520E-04    1.94923E+03
 9.61120E-04    1.16434E+03
 1.23410E-03    5.83079E+02
 1.58460E-03    2.58184E+02
 2.03470E-03    2.71552E+02
 2.24870E-03    5.12951E+02
 2.48520E-03    9.26328E+02
 2.61260E-03    1.47964E+03
 2.74650E-03    3.79598E+03
 3.03540E-03    1.00955E+05
 3.35460E-03    3.59987E+04
 3.70740E-03    1.07648E+05
 4.30740E-03    8.65535E+04
 5.53080E-03    2.28685E+04
 7.10170E-03    3.34889E+04
 9.11880E-03    2.84306E+04
 1.17090E-02    1.32179E+04
 1.50340E-02    5.78602E+03
 1.93050E-02    2.55363E+04
 2.18750E-02    5.97661E+03
 2.35790E-02    7.36974E+03
 2.41760E-02    1.49491E+04
 2.47880E-02    2.71621E+03
 2.60580E-02    6.84080E+03
 2.70000E-02    8.66502E+03
 2.85000E-02    4.96753E+03
 3.18280E-02    1.50579E+04
 3.43070E-02    7.69315E+03
 4.08680E-02    6.93397E+03
 4.63090E-02    8.16489E+03
 5.24750E-02    5.21889E+03
 5.65620E-02    1.12515E+04
 6.73790E-02    1.18665E+04
 7.20000E-02    7.75663E+03
 7.95000E-02    2.12988E+04
 8.25000E-02    1.19676E+04
 8.65170E-02    9.68658E+03
 9.80370E-02    5.11683E+03
 1.11090E-01    4.53322E+03
 1.16790E-01    4.49757E+03
 1.22770E-01    4.46008E+03
 1.29070E-01    4.42064E+03
 1.35690E-01    4.37921E+03
 1.42640E-01    4.33565E+03
 1.49960E-01    4.28986E+03
 1.57640E-01    4.24172E+03
 1.65730E-01    4.19110E+03
 1.74220E-01    4.13790E+03
 1.83160E-01    4.08194E+03
 1.92550E-01    4.02326E+03
 2.02420E-01    3.96675E+03
 2.12800E-01    3.91013E+03
 2.23710E-01    3.85061E+03
 2.35180E-01    3.78803E+03
 2.47240E-01    3.68768E+03
 2.73240E-01    3.58041E+03
 2.87250E-01    3.52357E+03
 2.94520E-01    3.49704E+03
 2.97200E-01    3.48644E+03
 2.98500E-01    3.47502E+03
 3.01970E-01    3.40909E+03
 3.33730E-01    3.28268E+03
 3.68830E-01    3.17912E+03
 3.87740E-01    3.10015E+03
 4.07620E-01    3.02861E+03
 4.50490E-01    2.94160E+03
 4.97870E-01    2.88535E+03
 5.23400E-01    2.86395E+03
 5.50230E-01    2.83347E+03
 5.78440E-01    2.78954E+03
 6.08100E-01    2.75813E+03
 6.39280E-01    2.73116E+03
 6.72060E-01    2.70283E+03
 7.06510E-01    2.67854E+03
 7.42740E-01    2.62648E+03
 7.80820E-01    2.56131E+03
 8.20850E-01    2.53414E+03
 8.62940E-01    2.51293E+03
 9.07180E-01    2.49953E+03
 9.61640E-01    2.48872E+03
 1.00260E+00    2.45663E+03
 1.10800E+00    2.42894E+03
 1.16480E+00    2.40729E+03
 1.22460E+00    2.40764E+03
 1.28730E+00    2.36894E+03
 1.35340E+00    2.31881E+03
 1.42270E+00    2.31701E+03
 1.49570E+00    2.29949E+03
 1.57240E+00    2.28897E+03
 1.65300E+00    2.31444E+03
 1.73770E+00    2.31353E+03
 1.82680E+00    2.30285E+03
 1.92050E+00    2.34062E+03
 2.01900E+00    2.37939E+03
 2.12250E+00    2.39671E+03
 2.23130E+00    2.39931E+03
 2.30690E+00    2.40007E+03
 2.34570E+00    2.40046E+03
 2.36530E+00    2.40072E+03
 2.38520E+00    2.40138E+03
 2.46600E+00    2.40275E+03
 2.59240E+00    2.40447E+03
 2.72530E+00    2.40628E+03
 2.86500E+00    2.40816E+03
 3.01190E+00    2.40723E+03
 3.16640E+00    2.40406E+03
 3.32870E+00    2.39642E+03
 3.67880E+00    2.36994E+03
 4.06570E+00    2.32413E+03
 4.49330E+00    2.27671E+03
 4.72370E+00    2.23655E+03
 4.96590E+00    2.19188E+03
 5.22050E+00    2.14078E+03
 5.48810E+00    2.08509E+03
 5.76950E+00    2.02428E+03
 6.06530E+00    1.96034E+03
 6.37630E+00    1.90465E+03
 6.59240E+00    1.87010E+03
 6.70320E+00    1.82247E+03
 7.04690E+00    1.74836E+03
 7.40820E+00    1.67358E+03
 7.78800E+00    1.59858E+03
 8.18730E+00    1.52108E+03
 8.60710E+00    1.44737E+03
 9.04840E+00    1.37571E+03
 9.51230E+00    1.30536E+03
 1.00000E+01    1.24382E+03
 1.05130E+01    1.19174E+03
 1.10520E+01    1.13474E+03
 1.16180E+01    1.07450E+03
 1.22140E+01    1.02688E+03
 1.28400E+01    9.81396E+02
 1.34990E+01    9.45852E+02
 1.38400E+01    9.23483E+02
 1.41910E+01    9.11476E+02
 1.45500E+01    9.00735E+02
 1.49180E+01    8.84066E+02
 1.56830E+01    8.64708E+02
 1.64870E+01    8.60340E+02
