# n + Te130 : (n,p)     
# jendl.ad   K.Shibata (JAEA)                  EVAL-Dec13
# uncertainties: n
# # energies =    45
#   E(MeV)       xs(mb) 
 4.31067E+00    0.00000E+00
 4.31551E+00    1.24660E-14
 4.37924E+00    1.92970E-12
 4.38607E+00    2.13520E-12
 4.39600E+00    2.43390E-12
 4.42327E+00    3.25430E-12
 4.45671E+00    4.26030E-12
 4.57999E+00    7.96910E-12
 4.65976E+00    1.03690E-11
 5.00505E+00    2.07570E-11
 5.01844E+00    2.11600E-11
 5.04751E+00    2.20340E-11
 5.04976E+00    2.21020E-11
 5.06589E+00    2.25870E-11
 5.13160E+00    2.45640E-11
 5.13556E+00    2.46830E-11
 5.18839E+00    2.62720E-11
 5.20049E+00    2.66360E-11
 5.25566E+00    2.82960E-11
 5.34998E+00    3.11340E-11
 5.36342E+00    3.15380E-11
 5.36620E+00    3.16220E-11
 5.36648E+00    3.16300E-11
 5.41599E+00    3.31190E-11
 5.50000E+00    3.56470E-11
 6.00000E+00    4.48340E-08
 6.50000E+00    3.21569E-06
 7.00000E+00    5.31862E-05
 7.50000E+00    3.71380E-04
 8.00000E+00    1.49415E-03
 8.50000E+00    4.18640E-03
 9.00000E+00    9.23733E-03
 9.50000E+00    1.76405E-02
 1.00000E+01    3.12618E-02
 1.10000E+01    9.09521E-02
 1.20000E+01    2.44355E-01
 1.30000E+01    5.74765E-01
 1.40000E+01    1.16812E+00
 1.45000E+01    1.58271E+00
 1.50000E+01    2.07809E+00
 1.60000E+01    3.30678E+00
 1.70000E+01    4.79457E+00
 1.80000E+01    6.40890E+00
 1.90000E+01    8.00632E+00
 2.00000E+01    9.43087E+00
