# n + Ba138 : (n,na)    
# jendl.ad   N.Iwamoto                         EVAL-Apr14
# uncertainties: n
# # energies =    33
#   E(MeV)       xs(mb) 
 2.58080E+00    0.00000E+00
 4.56067E+00    5.03780E-22
 5.00000E+00    6.56510E-22
 5.50000E+00    3.74600E-17
 6.00000E+00    1.39330E-13
 6.50000E+00    7.10070E-11
 7.00000E+00    8.95910E-09
 7.50000E+00    4.06560E-07
 8.00000E+00    8.50264E-06
 8.50000E+00    9.81023E-05
 9.00000E+00    4.34113E-04
 9.50000E+00    8.68576E-04
 1.00000E+01    1.33725E-03
 1.05000E+01    2.30957E-03
 1.10000E+01    4.81831E-03
 1.15000E+01    1.08029E-02
 1.20000E+01    2.35297E-02
 1.25000E+01    4.85205E-02
 1.30000E+01    9.49803E-02
 1.35000E+01    1.77290E-01
 1.40000E+01    3.16976E-01
 1.45000E+01    5.44755E-01
 1.50000E+01    9.02102E-01
 1.55000E+01    1.43202E+00
 1.60000E+01    2.21290E+00
 1.65000E+01    3.27936E+00
 1.70000E+01    4.68550E+00
 1.75000E+01    6.41807E+00
 1.80000E+01    8.54432E+00
 1.85000E+01    1.09939E+01
 1.90000E+01    1.37971E+01
 1.95000E+01    1.69140E+01
 2.00000E+01    2.03122E+01
