# n + Ba138 : (n,p)m    
# jendl.ad   N.Iwamoto                         EVAL-Apr14
# uncertainties: n
# # energies =    30
#   E(MeV)       xs(mb) 
 4.70595E+00    0.00000E+00
 6.00000E+00    7.73420E-12
 6.50000E+00    5.21980E-09
 7.00000E+00    2.73890E-07
 7.50000E+00    3.72585E-06
 8.00000E+00    2.44158E-05
 8.50000E+00    1.09161E-04
 9.00000E+00    4.04751E-04
 9.50000E+00    1.33383E-03
 1.00000E+01    3.93442E-03
 1.05000E+01    1.03869E-02
 1.10000E+01    2.45944E-02
 1.15000E+01    5.28185E-02
 1.20000E+01    1.04043E-01
 1.25000E+01    1.89906E-01
 1.30000E+01    3.23930E-01
 1.35000E+01    5.20010E-01
 1.40000E+01    7.89711E-01
 1.45000E+01    1.14040E+00
 1.50000E+01    1.57288E+00
 1.55000E+01    2.07275E+00
 1.60000E+01    2.63833E+00
 1.65000E+01    3.26397E+00
 1.70000E+01    3.82276E+00
 1.75000E+01    4.43297E+00
 1.80000E+01    4.94637E+00
 1.85000E+01    5.53147E+00
 1.90000E+01    5.94235E+00
 1.95000E+01    6.28207E+00
 2.00000E+01    6.55690E+00
