# n + Ba138 : (n,d)     
# jendl.ad   N.Iwamoto                         EVAL-Apr14
# uncertainties: n
# # energies =    43
#   E(MeV)       xs(mb) 
 6.83003E+00    0.00000E+00
 7.28885E+00    1.16530E-16
 7.68512E+00    4.51490E-14
 8.00000E+00    1.39350E-13
 8.02338E+00    5.28030E-13
 8.11254E+00    2.23670E-12
 8.33093E+00    6.48350E-12
 8.40558E+00    7.93520E-12
 8.41134E+00    8.04720E-12
 8.41638E+00    8.14530E-12
 8.49334E+00    9.64200E-12
 8.50000E+00    9.77410E-12
 8.51395E+00    1.07130E-10
 8.62653E+00    8.92860E-10
 8.71155E+00    1.48620E-09
 8.73787E+00    1.66990E-09
 8.76032E+00    1.82660E-09
 8.91318E+00    2.89350E-09
 8.94478E+00    3.11400E-09
 8.99575E+00    3.46980E-09
 9.00000E+00    3.49940E-09
 9.50000E+00    2.04090E-07
 1.00000E+01    4.30837E-06
 1.05000E+01    3.83002E-05
 1.10000E+01    3.00778E-04
 1.15000E+01    1.76650E-03
 1.20000E+01    8.04086E-03
 1.25000E+01    2.92798E-02
 1.30000E+01    8.77165E-02
 1.35000E+01    2.21583E-01
 1.40000E+01    4.82258E-01
 1.45000E+01    9.22381E-01
 1.50000E+01    1.58050E+00
 1.55000E+01    2.36084E+00
 1.60000E+01    3.59475E+00
 1.65000E+01    4.90191E+00
 1.70000E+01    6.45993E+00
 1.75000E+01    7.76351E+00
 1.80000E+01    9.74884E+00
 1.85000E+01    1.13534E+01
 1.90000E+01    1.36062E+01
 1.95000E+01    1.54843E+01
 2.00000E+01    1.74699E+01
