# n + Ba138 : (n,na)m   
# jendl.ad   N.Iwamoto                         EVAL-Apr14
# uncertainties: n
# # energies =    28
#   E(MeV)       xs(mb) 
 4.56067E+00    0.00000E+00
 7.00000E+00    2.27340E-22
 7.50000E+00    1.05310E-17
 8.00000E+00    3.08920E-14
 8.50000E+00    1.41380E-11
 9.00000E+00    1.49220E-09
 9.50000E+00    4.47650E-08
 1.00000E+01    3.16060E-07
 1.05000E+01    3.00359E-06
 1.10000E+01    2.35531E-05
 1.15000E+01    1.33721E-04
 1.20000E+01    5.59702E-04
 1.25000E+01    1.87192E-03
 1.30000E+01    5.27354E-03
 1.35000E+01    1.29978E-02
 1.40000E+01    2.88587E-02
 1.45000E+01    5.89750E-02
 1.50000E+01    1.12957E-01
 1.55000E+01    2.02150E-01
 1.60000E+01    3.48944E-01
 1.65000E+01    5.81488E-01
 1.70000E+01    9.23388E-01
 1.75000E+01    1.35501E+00
 1.80000E+01    1.96234E+00
 1.85000E+01    2.65428E+00
 1.90000E+01    3.48116E+00
 1.95000E+01    4.42910E+00
 2.00000E+01    5.48026E+00
