# n + Ba138 : (n,g)     
# jendl.ad   N.Iwamoto                         EVAL-Apr14
# uncertainties: n
# # energies =    69
#   E(MeV)       xs(mb) 
 1.00000E-10    2.82245E+03
 5.00000E-09    7.68639E+02
 1.00000E-08    5.82199E+02
 1.50000E-08    4.89188E+02
 2.00000E-08    4.30384E+02
 2.50000E-08    3.88828E+02
 3.00000E-08    3.57404E+02
 3.50000E-08    3.28592E+02
 4.20000E-08    3.00601E+02
 5.00000E-08    2.77272E+02
 5.80000E-08    2.57677E+02
 6.70000E-08    2.37775E+02
 8.00000E-08    2.15191E+02
 1.00000E-07    1.87218E+02
 1.40000E-07    1.61534E+02
 1.80000E-07    1.44270E+02
 2.20000E-07    1.32842E+02
 2.50000E-07    1.25054E+02
 2.80000E-07    1.19464E+02
 3.00000E-07    1.15537E+02
 3.20000E-07    1.11172E+02
 3.50000E-07    1.05182E+02
 4.00000E-07    9.62294E+01
 5.00000E-07    8.60538E+01
 6.25000E-07    7.70089E+01
 7.80000E-07    7.12824E+01
 8.50000E-07    6.85792E+01
 9.10000E-07    6.66940E+01
 9.50000E-07    6.55978E+01
 9.72000E-07    6.48238E+01
 9.96000E-07    6.40499E+01
 1.02000E-06    6.32847E+01
 1.04500E-06    6.25139E+01
 1.07100E-06    6.17613E+01
 1.09700E-06    6.10315E+01
 1.12300E-06    6.03125E+01
 1.15000E-06    5.81573E+01
 1.30000E-06    5.44248E+01
 1.50000E-06    4.83362E+01
 2.10000E-06    4.20867E+01
 2.60000E-06    3.75899E+01
 3.30000E-06    3.37375E+01
 4.00000E-06    2.58364E+01
 9.87700E-06    1.81306E+01
 1.59680E-05    1.39830E+01
 2.77000E-05    1.05636E+01
 4.80520E-05    8.15220E+00
 7.55014E-05    6.07373E+00
 1.48728E-04    3.94676E+00
 3.67262E-04    5.14585E+01
 9.06898E-04    1.37461E+00
 1.42510E-03    7.62196E+01
 2.23945E-03    5.88644E-01
 3.51910E-03    6.94102E+00
 5.53000E-03    6.85766E+00
 9.11800E-03    4.16866E+00
 1.50300E-02    5.98919E+00
 2.47800E-02    2.74174E+00
 4.08500E-02    4.29451E+00
 6.73400E-02    2.72800E+00
 1.11000E-01    2.17679E+00
 1.83000E-01    1.94169E+00
 3.02000E-01    2.00855E+00
 5.00000E-01    2.49010E+00
 8.21000E-01    3.60027E+00
 1.35300E+00    4.03094E+00
 2.23100E+00    1.75082E+00
 3.67900E+00    1.02835E+00
 6.06500E+00    4.31323E-01
