# n + Ag109 : (n,p)m    
# jendl.ad   N.Iwamoto                         EVAL-Apr14
# uncertainties: n
# # energies =    44
#   E(MeV)       xs(mb) 
 5.27563E-01    0.00000E+00
 1.60000E+00    1.32890E-10
 1.70000E+00    1.14470E-09
 1.80000E+00    5.91430E-09
 1.90000E+00    2.54760E-08
 2.00000E+00    9.29790E-08
 2.25000E+00    1.30938E-06
 2.50000E+00    1.05272E-05
 2.75000E+00    5.31038E-05
 3.00000E+00    2.14538E-04
 3.50000E+00    1.74043E-03
 4.00000E+00    7.02404E-03
 4.50000E+00    2.22098E-02
 5.00000E+00    5.34303E-02
 5.50000E+00    1.03560E-01
 6.00000E+00    1.69091E-01
 6.50000E+00    2.42548E-01
 7.00000E+00    3.20903E-01
 7.50000E+00    4.13162E-01
 8.00000E+00    5.37737E-01
 8.50000E+00    7.16751E-01
 9.00000E+00    9.71672E-01
 9.50000E+00    1.32051E+00
 1.00000E+01    1.77741E+00
 1.05000E+01    2.35129E+00
 1.10000E+01    3.04597E+00
 1.15000E+01    3.85123E+00
 1.20000E+01    4.75257E+00
 1.25000E+01    5.71303E+00
 1.30000E+01    6.69923E+00
 1.35000E+01    7.66773E+00
 1.40000E+01    8.59879E+00
 1.45000E+01    9.49515E+00
 1.50000E+01    1.03326E+01
 1.55000E+01    1.11173E+01
 1.60000E+01    1.18433E+01
 1.65000E+01    1.25839E+01
 1.70000E+01    1.32621E+01
 1.75000E+01    1.39231E+01
 1.80000E+01    1.45255E+01
 1.85000E+01    1.50210E+01
 1.90000E+01    1.54915E+01
 1.95000E+01    1.58690E+01
 2.00000E+01    1.61630E+01
