# n + Ag109 : (n,p)g    
# jendl.ad   N.Iwamoto                         EVAL-Apr14
# uncertainties: n
# # energies =    47
#   E(MeV)       xs(mb) 
 3.36822E-01    0.00000E+00
 5.27563E-01    7.50280E-11
 1.40000E+00    4.18200E-10
 1.50000E+00    2.70550E-09
 1.60000E+00    1.28370E-08
 1.70000E+00    5.19010E-08
 1.80000E+00    1.79640E-07
 1.90000E+00    5.50880E-07
 2.00000E+00    1.51897E-06
 2.25000E+00    1.32537E-05
 2.50000E+00    7.59918E-05
 2.75000E+00    3.13634E-04
 3.00000E+00    1.04133E-03
 3.50000E+00    6.42522E-03
 4.00000E+00    2.14813E-02
 4.50000E+00    5.42105E-02
 5.00000E+00    1.05538E-01
 5.50000E+00    1.68475E-01
 6.00000E+00    2.30326E-01
 6.50000E+00    2.80320E-01
 7.00000E+00    3.18311E-01
 7.50000E+00    3.57377E-01
 8.00000E+00    4.15858E-01
 8.50000E+00    5.11636E-01
 9.00000E+00    6.59745E-01
 9.50000E+00    8.71120E-01
 1.00000E+01    1.15240E+00
 1.05000E+01    1.50574E+00
 1.10000E+01    1.92418E+00
 1.15000E+01    2.39792E+00
 1.20000E+01    2.90845E+00
 1.25000E+01    3.43538E+00
 1.30000E+01    3.95217E+00
 1.35000E+01    4.44421E+00
 1.40000E+01    4.90750E+00
 1.45000E+01    5.32371E+00
 1.50000E+01    5.71823E+00
 1.55000E+01    6.06980E+00
 1.60000E+01    6.39548E+00
 1.65000E+01    6.67592E+00
 1.70000E+01    6.93508E+00
 1.75000E+01    7.12967E+00
 1.80000E+01    7.29394E+00
 1.85000E+01    7.45909E+00
 1.90000E+01    7.55326E+00
 1.95000E+01    7.64504E+00
 2.00000E+01    7.67161E+00
