# n + Sm152 : (n,n'20)  
# jendl4.0   N.Iwamoto                         EVAL-Nov09
# uncertainties: n
# # energies =    63
#   E(MeV)       xs(mb) 
 1.52082E+00    0.00000E+00
 1.53995E+00    3.44236E+01
 1.56994E+00    4.86305E+01
 1.58992E+00    5.53854E+01
 1.60000E+00    5.82214E+01
 1.61991E+00    6.34689E+01
 1.62349E+00    6.42571E+01
 1.66084E+00    7.14350E+01
 1.66981E+00    7.23180E+01
 1.67745E+00    7.31567E+01
 1.69173E+00    7.46159E+01
 1.69326E+00    7.41400E+01
 1.70000E+00    7.41258E+01
 1.73967E+00    7.68416E+01
 1.74173E+00    7.70008E+01
 1.74753E+00    7.74113E+01
 1.76870E+00    7.85714E+01
 1.77591E+00    7.85790E+01
 1.78085E+00    7.86454E+01
 1.78803E+00    7.84520E+01
 1.80000E+00    7.73523E+01
 1.81596E+00    7.71305E+01
 1.83328E+00    7.71415E+01
 1.90000E+00    7.78984E+01
 2.00000E+00    7.62690E+01
 2.25000E+00    6.23616E+01
 2.50000E+00    4.95203E+01
 2.75000E+00    3.46162E+01
 3.00000E+00    2.44228E+01
 3.50000E+00    1.10295E+01
 4.00000E+00    4.87173E+00
 4.50000E+00    2.19340E+00
 5.00000E+00    1.05310E+00
 5.50000E+00    5.69060E-01
 6.00000E+00    3.60418E-01
 6.50000E+00    2.66584E-01
 7.00000E+00    2.20456E-01
 7.50000E+00    1.94270E-01
 8.00000E+00    1.76370E-01
 8.50000E+00    1.62066E-01
 9.00000E+00    1.49616E-01
 9.50000E+00    1.38470E-01
 1.00000E+01    1.28446E-01
 1.05000E+01    1.19506E-01
 1.10000E+01    1.11566E-01
 1.15000E+01    1.04520E-01
 1.20000E+01    9.82435E-02
 1.25000E+01    9.26102E-02
 1.30000E+01    8.75082E-02
 1.35000E+01    8.28458E-02
 1.40000E+01    7.85303E-02
 1.45000E+01    7.45199E-02
 1.50000E+01    7.07869E-02
 1.55000E+01    6.72582E-02
 1.60000E+01    6.40443E-02
 1.65000E+01    6.09235E-02
 1.70000E+01    5.81133E-02
 1.75000E+01    5.54816E-02
 1.80000E+01    5.29652E-02
 1.85000E+01    5.05461E-02
 1.90000E+01    4.83076E-02
 1.95000E+01    4.62116E-02
 2.00000E+01    4.43318E-02
