# n + Sm152 : (n,n'01)  
# jendl4.0   N.Iwamoto                         EVAL-Nov09
# uncertainties: n
# # energies =   106
#   E(MeV)       xs(mb) 
 1.22591E-01    0.00000E+00
 1.30000E-01    1.79371E+02
 1.40000E-01    2.62573E+02
 1.50000E-01    3.37027E+02
 1.60000E-01    4.04102E+02
 1.70000E-01    4.64950E+02
 1.80000E-01    5.21104E+02
 1.90000E-01    5.72516E+02
 2.00000E-01    6.19896E+02
 2.25000E-01    7.28681E+02
 2.50000E-01    8.21049E+02
 2.75000E-01    9.10223E+02
 3.00000E-01    9.88243E+02
 3.68912E-01    1.17366E+03
 4.00000E-01    1.23796E+03
 5.00000E-01    1.41582E+03
 6.00000E-01    1.51722E+03
 6.89247E-01    1.57025E+03
 7.00000E-01    1.54861E+03
 7.11573E-01    1.54561E+03
 8.00000E-01    1.53326E+03
 8.15834E-01    1.53024E+03
 9.00000E-01    1.36569E+03
 9.69750E-01    1.32657E+03
 1.00000E+00    1.27119E+03
 1.02976E+00    1.24675E+03
 1.04802E+00    1.23202E+03
 1.09004E+00    1.18815E+03
 1.09309E+00    1.18004E+03
 1.10000E+00    1.14385E+03
 1.13282E+00    1.08968E+03
 1.20000E+00    1.02126E+03
 1.22959E+00    9.97547E+02
 1.23414E+00    9.94102E+02
 1.24204E+00    9.71532E+02
 1.29850E+00    8.99101E+02
 1.30000E+00    8.93181E+02
 1.30134E+00    8.90528E+02
 1.31920E+00    8.53764E+02
 1.38085E+00    7.96358E+02
 1.40000E+00    7.82024E+02
 1.50000E+00    7.24115E+02
 1.51561E+00    7.16763E+02
 1.52082E+00    7.14339E+02
 1.53995E+00    7.00726E+02
 1.56994E+00    6.80758E+02
 1.58992E+00    6.69830E+02
 1.60000E+00    6.63287E+02
 1.61991E+00    6.52622E+02
 1.62349E+00    6.50788E+02
 1.66084E+00    6.32817E+02
 1.66981E+00    6.27138E+02
 1.67745E+00    6.21928E+02
 1.69173E+00    6.14586E+02
 1.69326E+00    6.13050E+02
 1.70000E+00    6.08595E+02
 1.73967E+00    5.89556E+02
 1.74173E+00    5.88671E+02
 1.74753E+00    5.85557E+02
 1.76870E+00    5.74848E+02
 1.77591E+00    5.69016E+02
 1.78085E+00    5.66319E+02
 1.78803E+00    5.60228E+02
 1.80000E+00    5.52335E+02
 1.81596E+00    5.44348E+02
 1.83328E+00    5.36770E+02
 1.90000E+00    5.12314E+02
 2.00000E+00    4.80550E+02
 2.25000E+00    4.04026E+02
 2.50000E+00    3.57470E+02
 2.75000E+00    3.18657E+02
 3.00000E+00    2.94302E+02
 3.50000E+00    2.64595E+02
 4.00000E+00    2.49041E+02
 4.50000E+00    2.39084E+02
 5.00000E+00    2.31688E+02
 5.50000E+00    2.26002E+02
 6.00000E+00    2.21559E+02
 6.50000E+00    2.17825E+02
 7.00000E+00    2.14125E+02
 7.50000E+00    2.09933E+02
 8.00000E+00    2.05078E+02
 8.50000E+00    1.99563E+02
 9.00000E+00    1.93653E+02
 9.50000E+00    1.87604E+02
 1.00000E+01    1.81670E+02
 1.05000E+01    1.76028E+02
 1.10000E+01    1.70756E+02
 1.15000E+01    1.65855E+02
 1.20000E+01    1.61275E+02
 1.25000E+01    1.56947E+02
 1.30000E+01    1.52811E+02
 1.35000E+01    1.48826E+02
 1.40000E+01    1.44975E+02
 1.45000E+01    1.41262E+02
 1.50000E+01    1.37705E+02
 1.55000E+01    1.34325E+02
 1.60000E+01    1.31142E+02
 1.65000E+01    1.28174E+02
 1.70000E+01    1.25427E+02
 1.75000E+01    1.22900E+02
 1.80000E+01    1.20584E+02
 1.85000E+01    1.18462E+02
 1.90000E+01    1.16517E+02
 1.95000E+01    1.14728E+02
 2.00000E+01    1.13076E+02
