# n + Sm152 : (n,n'24)  
# jendl4.0   N.Iwamoto                         EVAL-Nov09
# uncertainties: n
# # energies =    58
#   E(MeV)       xs(mb) 
 1.61991E+00    0.00000E+00
 1.62349E+00    8.97180E-09
 1.66084E+00    1.43530E-07
 1.66981E+00    2.06370E-07
 1.67745E+00    2.72710E-07
 1.69173E+00    4.01000E-07
 1.69326E+00    4.18150E-07
 1.70000E+00    5.00790E-07
 1.73967E+00    1.34792E-06
 1.74173E+00    1.40756E-06
 1.74753E+00    1.58935E-06
 1.76870E+00    2.40900E-06
 1.77591E+00    2.75320E-06
 1.78085E+00    3.00784E-06
 1.78803E+00    3.40838E-06
 1.80000E+00    4.16460E-06
 1.81596E+00    5.23915E-06
 1.83328E+00    6.64706E-06
 1.90000E+00    1.50644E-05
 2.00000E+00    4.00205E-05
 2.25000E+00    1.94431E-04
 2.50000E+00    6.03762E-04
 2.75000E+00    1.30971E-03
 3.00000E+00    4.54618E-01
 3.50000E+00    4.58131E-01
 4.00000E+00    4.49162E-01
 4.50000E+00    4.32640E-01
 5.00000E+00    4.10725E-01
 5.50000E+00    3.85653E-01
 6.00000E+00    3.59844E-01
 6.50000E+00    3.34914E-01
 7.00000E+00    3.11657E-01
 7.50000E+00    2.90053E-01
 8.00000E+00    2.69848E-01
 8.50000E+00    2.50778E-01
 9.00000E+00    2.32810E-01
 9.50000E+00    2.16112E-01
 1.00000E+01    2.00808E-01
 1.05000E+01    1.87016E-01
 1.10000E+01    1.74691E-01
 1.15000E+01    1.63717E-01
 1.20000E+01    1.53932E-01
 1.25000E+01    1.45135E-01
 1.30000E+01    1.37169E-01
 1.35000E+01    1.29891E-01
 1.40000E+01    1.23161E-01
 1.45000E+01    1.16904E-01
 1.50000E+01    1.11079E-01
 1.55000E+01    1.05570E-01
 1.60000E+01    1.00555E-01
 1.65000E+01    9.56713E-02
 1.70000E+01    9.12876E-02
 1.75000E+01    8.71564E-02
 1.80000E+01    8.32317E-02
 1.85000E+01    7.94548E-02
 1.90000E+01    7.59268E-02
 1.95000E+01    7.26550E-02
 2.00000E+01    6.97193E-02
