# n + Sm152 : (n,n'29)  
# jendl4.0   N.Iwamoto                         EVAL-Nov09
# uncertainties: n
# # energies =    53
#   E(MeV)       xs(mb) 
 1.69173E+00    0.00000E+00
 1.69326E+00    7.69378E+00
 1.70000E+00    1.62184E+01
 1.73967E+00    3.35070E+01
 1.74173E+00    3.40821E+01
 1.74753E+00    3.56529E+01
 1.76870E+00    4.04083E+01
 1.77591E+00    4.17353E+01
 1.78085E+00    4.26455E+01
 1.78803E+00    4.38164E+01
 1.80000E+00    4.46793E+01
 1.81596E+00    4.63894E+01
 1.83328E+00    4.82322E+01
 1.90000E+00    5.34031E+01
 2.00000E+00    5.71144E+01
 2.25000E+00    5.21284E+01
 2.50000E+00    4.33138E+01
 2.75000E+00    3.17075E+01
 3.00000E+00    2.27645E+01
 3.50000E+00    1.04519E+01
 4.00000E+00    4.62920E+00
 4.50000E+00    2.06846E+00
 5.00000E+00    9.73026E-01
 5.50000E+00    5.07934E-01
 6.00000E+00    3.08569E-01
 6.50000E+00    2.20251E-01
 7.00000E+00    1.78096E-01
 7.50000E+00    1.55259E-01
 8.00000E+00    1.40425E-01
 8.50000E+00    1.28997E-01
 9.00000E+00    1.19212E-01
 9.50000E+00    1.10481E-01
 1.00000E+01    1.02608E-01
 1.05000E+01    9.55533E-02
 1.10000E+01    8.92604E-02
 1.15000E+01    8.36579E-02
 1.20000E+01    7.86658E-02
 1.25000E+01    7.41767E-02
 1.30000E+01    7.01129E-02
 1.35000E+01    6.64026E-02
 1.40000E+01    6.29747E-02
 1.45000E+01    5.97897E-02
 1.50000E+01    5.68237E-02
 1.55000E+01    5.40224E-02
 1.60000E+01    5.14573E-02
 1.65000E+01    4.89737E-02
 1.70000E+01    4.67357E-02
 1.75000E+01    4.46251E-02
 1.80000E+01    4.26330E-02
 1.85000E+01    4.06879E-02
 1.90000E+01    3.88941E-02
 1.95000E+01    3.72267E-02
 2.00000E+01    3.57140E-02
