# n + Sm152 : (n,el)    
# jendl4.0   N.Iwamoto                         EVAL-Nov09
# uncertainties: n
# # energies =    69
#   E(MeV)       xs(mb) 
 1.00000E-10    3.61934E+03
 5.00000E-09    3.06550E+03
 1.00000E-08    3.06062E+03
 1.50000E-08    3.06527E+03
 2.00000E-08    3.07272E+03
 2.50000E-08    3.08132E+03
 3.00000E-08    3.09073E+03
 3.50000E-08    3.10223E+03
 4.20000E-08    3.11751E+03
 5.00000E-08    3.13393E+03
 5.80000E-08    3.15192E+03
 6.70000E-08    3.17536E+03
 8.00000E-08    3.21075E+03
 1.00000E-07    3.27583E+03
 1.40000E-07    3.36756E+03
 1.80000E-07    3.46148E+03
 2.20000E-07    3.54611E+03
 2.50000E-07    3.61943E+03
 2.80000E-07    3.68182E+03
 3.00000E-07    3.73231E+03
 3.20000E-07    3.79575E+03
 3.50000E-07    3.89912E+03
 4.00000E-07    4.09801E+03
 5.00000E-07    4.41724E+03
 6.25000E-07    4.84592E+03
 7.80000E-07    5.22467E+03
 8.50000E-07    5.45222E+03
 9.10000E-07    5.63362E+03
 9.50000E-07    5.74868E+03
 9.72000E-07    5.83553E+03
 9.96000E-07    5.92710E+03
 1.02000E-06    6.02217E+03
 1.04500E-06    6.12297E+03
 1.07100E-06    6.22700E+03
 1.09700E-06    6.33306E+03
 1.12300E-06    6.44267E+03
 1.15000E-06    6.81745E+03
 1.30000E-06    7.62828E+03
 1.50000E-06    9.81593E+03
 2.10000E-06    1.40001E+04
 2.60000E-06    2.07088E+04
 3.30000E-06    3.33543E+04
 4.00000E-06    6.25640E+06
 9.87700E-06    1.81686E+05
 1.59680E-05    3.63185E+04
 2.77000E-05    1.64995E+04
 4.80520E-05    9.03092E+03
 7.55014E-05    1.33609E+05
 1.48728E-04    6.63899E+04
 3.67262E-04    3.97524E+04
 9.06898E-04    2.56607E+04
 1.42510E-03    2.46751E+04
 2.23945E-03    2.14837E+04
 3.51910E-03    2.47700E+04
 5.53000E-03    2.78409E+04
 9.11800E-03    2.27059E+04
 1.50300E-02    1.86546E+04
 2.47800E-02    1.54309E+04
 4.08500E-02    1.28655E+04
 6.73400E-02    1.08097E+04
 1.11000E-01    9.00271E+03
 1.83000E-01    7.41063E+03
 3.02000E-01    6.31934E+03
 5.00000E-01    5.64340E+03
 8.21000E-01    4.89497E+03
 1.35300E+00    4.14993E+03
 2.23100E+00    3.28131E+03
 3.67900E+00    2.32341E+03
 6.06500E+00    2.14573E+03
