# n + Sm152 : (n,h)     
# jendl4.0   N.Iwamoto                         EVAL-Nov09
# uncertainties: n
# # energies =    38
#   E(MeV)       xs(mb) 
 7.99171E+00    0.00000E+00
 8.12279E+00    7.57950E-32
 8.37569E+00    2.43380E-31
 8.67156E+00    4.39460E-31
 8.71689E+00    4.69630E-31
 8.84802E+00    5.57290E-31
 8.85031E+00    5.58820E-31
 8.93278E+00    6.13970E-31
 9.06071E+00    6.99510E-31
 9.12821E+00    7.50610E-31
 9.12891E+00    7.51150E-31
 9.13707E+00    7.57540E-31
 9.18187E+00    7.93310E-31
 9.20031E+00    8.08060E-31
 9.25001E+00    8.47930E-31
 9.28415E+00    8.75320E-31
 9.30789E+00    8.94370E-31
 9.31846E+00    9.02850E-31
 1.05000E+01    1.85110E-30
 1.10000E+01    2.98450E-26
 1.15000E+01    4.59990E-23
 1.20000E+01    1.32200E-20
 1.25000E+01    1.13880E-18
 1.30000E+01    4.00300E-17
 1.35000E+01    7.09450E-16
 1.40000E+01    7.39470E-15
 1.45000E+01    5.24210E-14
 1.50000E+01    3.40530E-13
 1.55000E+01    2.65050E-12
 1.60000E+01    3.39460E-11
 1.65000E+01    3.07380E-10
 1.70000E+01    2.26580E-09
 1.75000E+01    1.33670E-08
 1.80000E+01    6.72230E-08
 1.85000E+01    2.46310E-07
 1.90000E+01    8.02510E-07
 1.95000E+01    2.33101E-06
 2.00000E+01    6.11290E-06
