# n + Sm152 : (n,n'23)  
# jendl4.0   N.Iwamoto                         EVAL-Nov09
# uncertainties: n
# # energies =    60
#   E(MeV)       xs(mb) 
 1.58992E+00    0.00000E+00
 1.60000E+00    1.16248E+01
 1.61991E+00    1.91340E+01
 1.62349E+00    2.02033E+01
 1.66084E+00    2.96045E+01
 1.66981E+00    3.13195E+01
 1.67745E+00    3.28647E+01
 1.69173E+00    3.56968E+01
 1.69326E+00    3.59539E+01
 1.70000E+00    3.67585E+01
 1.73967E+00    4.29145E+01
 1.74173E+00    4.32310E+01
 1.74753E+00    4.36545E+01
 1.76870E+00    4.59363E+01
 1.77591E+00    4.64818E+01
 1.78085E+00    4.69622E+01
 1.78803E+00    4.74316E+01
 1.80000E+00    4.84487E+01
 1.81596E+00    4.99148E+01
 1.83328E+00    5.15326E+01
 1.90000E+00    5.60578E+01
 2.00000E+00    6.07496E+01
 2.25000E+00    5.63857E+01
 2.50000E+00    4.81344E+01
 2.75000E+00    3.59497E+01
 3.00000E+00    2.70597E+01
 3.50000E+00    1.34860E+01
 4.00000E+00    6.54757E+00
 4.50000E+00    3.24374E+00
 5.00000E+00    1.72436E+00
 5.50000E+00    1.03357E+00
 6.00000E+00    7.15594E-01
 6.50000E+00    5.61929E-01
 7.00000E+00    4.80145E-01
 7.50000E+00    4.29727E-01
 8.00000E+00    3.92956E-01
 8.50000E+00    3.62391E-01
 9.00000E+00    3.35230E-01
 9.50000E+00    3.10643E-01
 1.00000E+01    2.88385E-01
 1.05000E+01    2.68447E-01
 1.10000E+01    2.50688E-01
 1.15000E+01    2.34900E-01
 1.20000E+01    2.20833E-01
 1.25000E+01    2.08196E-01
 1.30000E+01    1.96751E-01
 1.35000E+01    1.86296E-01
 1.40000E+01    1.76633E-01
 1.45000E+01    1.67653E-01
 1.50000E+01    1.59292E-01
 1.55000E+01    1.51398E-01
 1.60000E+01    1.44178E-01
 1.65000E+01    1.37178E-01
 1.70000E+01    1.30892E-01
 1.75000E+01    1.24941E-01
 1.80000E+01    1.19330E-01
 1.85000E+01    1.13882E-01
 1.90000E+01    1.08829E-01
 1.95000E+01    1.04151E-01
 2.00000E+01    9.99188E-02
