# n + Sm152 : (n,n'18)  
# jendl4.0   N.Iwamoto                         EVAL-Nov09
# uncertainties: n
# # energies =    67
#   E(MeV)       xs(mb) 
 1.38085E+00    0.00000E+00
 1.40000E+00    6.33618E+00
 1.50000E+00    1.88755E+01
 1.51561E+00    2.06950E+01
 1.52082E+00    2.13113E+01
 1.53995E+00    2.36006E+01
 1.56994E+00    2.68233E+01
 1.58992E+00    2.87602E+01
 1.60000E+00    2.94429E+01
 1.61991E+00    3.14372E+01
 1.62349E+00    3.18130E+01
 1.66084E+00    3.54530E+01
 1.66981E+00    3.62536E+01
 1.67745E+00    3.69839E+01
 1.69173E+00    3.83827E+01
 1.69326E+00    3.85310E+01
 1.70000E+00    3.89343E+01
 1.73967E+00    4.26096E+01
 1.74173E+00    4.28095E+01
 1.74753E+00    4.30962E+01
 1.76870E+00    4.49300E+01
 1.77591E+00    4.53677E+01
 1.78085E+00    4.57135E+01
 1.78803E+00    4.59291E+01
 1.80000E+00    4.65559E+01
 1.81596E+00    4.74649E+01
 1.83328E+00    4.84772E+01
 1.90000E+00    5.18674E+01
 2.00000E+00    5.64825E+01
 2.25000E+00    5.20268E+01
 2.50000E+00    4.58505E+01
 2.75000E+00    3.41489E+01
 3.00000E+00    2.73389E+01
 3.50000E+00    1.44901E+01
 4.00000E+00    7.76489E+00
 4.50000E+00    4.46192E+00
 5.00000E+00    2.87895E+00
 5.50000E+00    2.11040E+00
 6.00000E+00    1.71670E+00
 6.50000E+00    1.49239E+00
 7.00000E+00    1.34513E+00
 7.50000E+00    1.23310E+00
 8.00000E+00    1.13782E+00
 8.50000E+00    1.05171E+00
 9.00000E+00    9.72485E-01
 9.50000E+00    9.00057E-01
 1.00000E+01    8.34530E-01
 1.05000E+01    7.76070E-01
 1.10000E+01    7.24214E-01
 1.15000E+01    6.78298E-01
 1.20000E+01    6.37365E-01
 1.25000E+01    6.00623E-01
 1.30000E+01    5.67323E-01
 1.35000E+01    5.36873E-01
 1.40000E+01    5.08717E-01
 1.45000E+01    4.82558E-01
 1.50000E+01    4.58221E-01
 1.55000E+01    4.35280E-01
 1.60000E+01    4.14315E-01
 1.65000E+01    3.93957E-01
 1.70000E+01    3.75745E-01
 1.75000E+01    3.58507E-01
 1.80000E+01    3.42193E-01
 1.85000E+01    3.26522E-01
 1.90000E+01    3.11932E-01
 1.95000E+01    2.98350E-01
 2.00000E+01    2.86177E-01
