# n + Sm152 : (n,n')    
# jendl4.0   N.Iwamoto                         EVAL-Nov09
# uncertainties: n
# # energies =   109
#   E(MeV)       xs(mb) 
 1.05000E-01    0.00000E+00
 1.10000E-01    4.25944E-03
 1.20000E-01    5.95357E-03
 1.22591E-01    6.33738E-03
 1.30000E-01    1.79377E+02
 1.40000E-01    2.62579E+02
 1.50000E-01    3.37033E+02
 1.60000E-01    4.04108E+02
 1.70000E-01    4.64956E+02
 1.80000E-01    5.21110E+02
 1.90000E-01    5.72522E+02
 2.00000E-01    6.19902E+02
 2.25000E-01    7.28712E+02
 2.50000E-01    8.21086E+02
 2.75000E-01    9.10263E+02
 3.00000E-01    9.88285E+02
 3.68912E-01    1.17380E+03
 4.00000E-01    1.24264E+03
 5.00000E-01    1.44832E+03
 6.00000E-01    1.59875E+03
 6.89247E-01    1.70636E+03
 7.00000E-01    1.79077E+03
 7.11573E-01    1.82238E+03
 8.00000E-01    1.94786E+03
 8.15834E-01    1.96194E+03
 9.00000E-01    2.15293E+03
 9.69750E-01    2.22123E+03
 1.00000E+00    2.31192E+03
 1.02976E+00    2.34460E+03
 1.04802E+00    2.36156E+03
 1.09004E+00    2.40276E+03
 1.09309E+00    2.41477E+03
 1.10000E+00    2.44712E+03
 1.13282E+00    2.49686E+03
 1.20000E+00    2.54827E+03
 1.22959E+00    2.56323E+03
 1.23414E+00    2.56548E+03
 1.24204E+00    2.58183E+03
 1.29850E+00    2.62838E+03
 1.30000E+00    2.63412E+03
 1.30134E+00    2.63639E+03
 1.31920E+00    2.66413E+03
 1.38085E+00    2.69865E+03
 1.40000E+00    2.70529E+03
 1.50000E+00    2.72534E+03
 1.51561E+00    2.72687E+03
 1.52082E+00    2.72737E+03
 1.53995E+00    2.73608E+03
 1.56994E+00    2.74497E+03
 1.58992E+00    2.74836E+03
 1.60000E+00    2.75059E+03
 1.61991E+00    2.75369E+03
 1.62349E+00    2.75418E+03
 1.66084E+00    2.75853E+03
 1.66981E+00    2.76082E+03
 1.67745E+00    2.76359E+03
 1.69173E+00    2.76598E+03
 1.69326E+00    2.76720E+03
 1.70000E+00    2.76965E+03
 1.73967E+00    2.77579E+03
 1.74173E+00    2.77600E+03
 1.74753E+00    2.77705E+03
 1.76870E+00    2.78097E+03
 1.77591E+00    2.78390E+03
 1.78085E+00    2.78493E+03
 1.78803E+00    2.78812E+03
 1.80000E+00    2.79226E+03
 1.81596E+00    2.79515E+03
 1.83328E+00    2.79727E+03
 1.90000E+00    2.80192E+03
 2.00000E+00    2.80678E+03
 2.25000E+00    2.82967E+03
 2.50000E+00    2.83942E+03
 2.75000E+00    2.85266E+03
 3.00000E+00    2.85764E+03
 3.50000E+00    2.85371E+03
 4.00000E+00    2.83252E+03
 4.50000E+00    2.80170E+03
 5.00000E+00    2.77256E+03
 5.50000E+00    2.74883E+03
 6.00000E+00    2.73096E+03
 6.50000E+00    2.71435E+03
 7.00000E+00    2.69502E+03
 7.50000E+00    2.67056E+03
 8.00000E+00    2.64166E+03
 8.50000E+00    2.58224E+03
 9.00000E+00    2.09670E+03
 9.50000E+00    1.56109E+03
 1.00000E+01    1.16931E+03
 1.05000E+01    9.18003E+02
 1.10000E+01    7.58463E+02
 1.15000E+01    6.54359E+02
 1.20000E+01    5.82921E+02
 1.25000E+01    5.31201E+02
 1.30000E+01    4.91884E+02
 1.35000E+01    4.60493E+02
 1.40000E+01    4.34474E+02
 1.45000E+01    4.12310E+02
 1.50000E+01    3.92725E+02
 1.55000E+01    3.75741E+02
 1.60000E+01    3.60248E+02
 1.65000E+01    3.45664E+02
 1.70000E+01    3.32790E+02
 1.75000E+01    3.21332E+02
 1.80000E+01    3.10588E+02
 1.85000E+01    3.00731E+02
 1.90000E+01    2.91657E+02
 1.95000E+01    2.83088E+02
 2.00000E+01    2.75071E+02
