# n + Sm152 : (n,n'22)  
# jendl4.0   N.Iwamoto                         EVAL-Nov09
# uncertainties: n
# # energies =    61
#   E(MeV)       xs(mb) 
 1.56994E+00    0.00000E+00
 1.58992E+00    3.63030E+00
 1.60000E+00    4.34646E+00
 1.61991E+00    5.50536E+00
 1.62349E+00    5.69468E+00
 1.66084E+00    7.48422E+00
 1.66981E+00    7.90516E+00
 1.67745E+00    8.22948E+00
 1.69173E+00    8.83937E+00
 1.69326E+00    8.90476E+00
 1.70000E+00    9.13540E+00
 1.73967E+00    1.07341E+01
 1.74173E+00    1.08139E+01
 1.74753E+00    1.09809E+01
 1.76870E+00    1.17681E+01
 1.77591E+00    1.20296E+01
 1.78085E+00    1.22110E+01
 1.78803E+00    1.24659E+01
 1.80000E+00    1.29199E+01
 1.81596E+00    1.35421E+01
 1.83328E+00    1.41505E+01
 1.90000E+00    1.61954E+01
 2.00000E+00    1.92668E+01
 2.25000E+00    2.17648E+01
 2.50000E+00    2.13940E+01
 2.75000E+00    1.75174E+01
 3.00000E+00    1.44512E+01
 3.50000E+00    8.13591E+00
 4.00000E+00    4.39836E+00
 4.50000E+00    2.40428E+00
 5.00000E+00    1.39894E+00
 5.50000E+00    9.05180E-01
 6.00000E+00    6.61886E-01
 6.50000E+00    5.36253E-01
 7.00000E+00    4.64935E-01
 7.50000E+00    4.18481E-01
 8.00000E+00    3.83361E-01
 8.50000E+00    3.53666E-01
 9.00000E+00    3.27122E-01
 9.50000E+00    3.03063E-01
 1.00000E+01    2.81291E-01
 1.05000E+01    2.61803E-01
 1.10000E+01    2.44458E-01
 1.15000E+01    2.29044E-01
 1.20000E+01    2.15312E-01
 1.25000E+01    2.02980E-01
 1.30000E+01    1.91812E-01
 1.35000E+01    1.81609E-01
 1.40000E+01    1.72178E-01
 1.45000E+01    1.63413E-01
 1.50000E+01    1.55254E-01
 1.55000E+01    1.47578E-01
 1.60000E+01    1.40507E-01
 1.65000E+01    1.33699E-01
 1.70000E+01    1.27542E-01
 1.75000E+01    1.21754E-01
 1.80000E+01    1.16292E-01
 1.85000E+01    1.10959E-01
 1.90000E+01    1.06043E-01
 1.95000E+01    1.01489E-01
 2.00000E+01    9.73438E-02
