# n + Sm152 : (n,n'28)  
# jendl4.0   N.Iwamoto                         EVAL-Nov09
# uncertainties: n
# # energies =    54
#   E(MeV)       xs(mb) 
 1.67745E+00    0.00000E+00
 1.69173E+00    4.23891E-05
 1.69326E+00    4.78751E-05
 1.70000E+00    7.53301E-05
 1.73967E+00    3.63263E-04
 1.74173E+00    3.81092E-04
 1.74753E+00    4.40065E-04
 1.76870E+00    7.07996E-04
 1.77591E+00    8.19377E-04
 1.78085E+00    8.97691E-04
 1.78803E+00    1.01890E-03
 1.80000E+00    1.24370E-03
 1.81596E+00    1.59255E-03
 1.83328E+00    2.03522E-03
 1.90000E+00    4.49201E-03
 2.00000E+00    1.07259E-02
 2.25000E+00    3.89126E-02
 2.50000E+00    8.97403E-02
 2.75000E+00    1.49235E-01
 3.00000E+00    5.21016E-01
 3.50000E+00    5.99022E-01
 4.00000E+00    5.74887E-01
 4.50000E+00    4.91097E-01
 5.00000E+00    4.01992E-01
 5.50000E+00    3.31737E-01
 6.00000E+00    2.82403E-01
 6.50000E+00    2.48325E-01
 7.00000E+00    2.23832E-01
 7.50000E+00    2.04934E-01
 8.00000E+00    1.89174E-01
 8.50000E+00    1.75200E-01
 9.00000E+00    1.62427E-01
 9.50000E+00    1.50715E-01
 1.00000E+01    1.40035E-01
 1.05000E+01    1.30426E-01
 1.10000E+01    1.21840E-01
 1.15000E+01    1.14192E-01
 1.20000E+01    1.07376E-01
 1.25000E+01    1.01246E-01
 1.30000E+01    9.56956E-02
 1.35000E+01    9.06280E-02
 1.40000E+01    8.59458E-02
 1.45000E+01    8.15953E-02
 1.50000E+01    7.75441E-02
 1.55000E+01    7.37271E-02
 1.60000E+01    7.02165E-02
 1.65000E+01    6.68319E-02
 1.70000E+01    6.37683E-02
 1.75000E+01    6.08919E-02
 1.80000E+01    5.81650E-02
 1.85000E+01    5.55139E-02
 1.90000E+01    5.30690E-02
 1.95000E+01    5.07862E-02
 2.00000E+01    4.87246E-02
