# n + Sm152 : (n,n'35)  
# jendl4.0   N.Iwamoto                         EVAL-Nov09
# uncertainties: n
# # energies =    46
#   E(MeV)       xs(mb) 
 1.77591E+00    0.00000E+00
 1.78085E+00    1.58494E-01
 1.78803E+00    2.92779E-01
 1.80000E+00    5.26490E-01
 1.81596E+00    8.71481E-01
 1.83328E+00    1.26357E+00
 1.90000E+00    2.89235E+00
 2.00000E+00    5.43460E+00
 2.25000E+00    9.69831E+00
 2.50000E+00    1.16792E+01
 2.75000E+00    1.07095E+01
 3.00000E+00    9.33204E+00
 3.50000E+00    5.69760E+00
 4.00000E+00    3.17112E+00
 4.50000E+00    1.69219E+00
 5.00000E+00    9.00543E-01
 5.50000E+00    4.99334E-01
 6.00000E+00    3.02775E-01
 6.50000E+00    2.07283E-01
 7.00000E+00    1.59920E-01
 7.50000E+00    1.34824E-01
 8.00000E+00    1.19675E-01
 8.50000E+00    1.08924E-01
 9.00000E+00    1.00250E-01
 9.50000E+00    9.27554E-02
 1.00000E+01    8.60973E-02
 1.05000E+01    8.01674E-02
 1.10000E+01    7.48890E-02
 1.15000E+01    7.01919E-02
 1.20000E+01    6.60081E-02
 1.25000E+01    6.22467E-02
 1.30000E+01    5.88439E-02
 1.35000E+01    5.57393E-02
 1.40000E+01    5.28724E-02
 1.45000E+01    5.02092E-02
 1.50000E+01    4.77287E-02
 1.55000E+01    4.53920E-02
 1.60000E+01    4.32401E-02
 1.65000E+01    4.11681E-02
 1.70000E+01    3.92866E-02
 1.75000E+01    3.75262E-02
 1.80000E+01    3.58469E-02
 1.85000E+01    3.42237E-02
 1.90000E+01    3.27215E-02
 1.95000E+01    3.13151E-02
 2.00000E+01    3.00523E-02
