# n + Sm152 : (n,n'11)  
# jendl4.0   N.Iwamoto                         EVAL-Nov09
# uncertainties: n
# # energies =    76
#   E(MeV)       xs(mb) 
 1.13282E+00    0.00000E+00
 1.20000E+00    2.22586E-04
 1.22959E+00    4.66094E-04
 1.23414E+00    5.10853E-04
 1.24204E+00    5.96603E-04
 1.29850E+00    1.52087E-03
 1.30000E+00    1.55388E-03
 1.30134E+00    1.58412E-03
 1.31920E+00    2.02795E-03
 1.38085E+00    3.78119E-03
 1.40000E+00    4.56994E-03
 1.50000E+00    1.14430E-02
 1.51561E+00    1.30408E-02
 1.52082E+00    1.35094E-02
 1.53995E+00    1.55893E-02
 1.56994E+00    1.92651E-02
 1.58992E+00    2.16851E-02
 1.60000E+00    2.31241E-02
 1.61991E+00    2.62409E-02
 1.62349E+00    2.68368E-02
 1.66084E+00    3.31398E-02
 1.66981E+00    3.49198E-02
 1.67745E+00    3.65064E-02
 1.69173E+00    3.96290E-02
 1.69326E+00    3.99744E-02
 1.70000E+00    4.14623E-02
 1.73967E+00    5.16194E-02
 1.74173E+00    5.17584E-02
 1.74753E+00    5.30618E-02
 1.76870E+00    5.87437E-02
 1.77591E+00    6.07303E-02
 1.78085E+00    6.17880E-02
 1.78803E+00    6.37201E-02
 1.80000E+00    6.71558E-02
 1.81596E+00    7.20897E-02
 1.83328E+00    7.72309E-02
 1.90000E+00    1.00329E-01
 2.00000E+00    1.44723E-01
 2.25000E+00    2.69054E-01
 2.50000E+00    4.32492E-01
 2.75000E+00    5.51782E-01
 3.00000E+00    1.52998E+00
 3.50000E+00    1.52799E+00
 4.00000E+00    1.37949E+00
 4.50000E+00    1.19862E+00
 5.00000E+00    1.05282E+00
 5.50000E+00    9.54850E-01
 6.00000E+00    8.96075E-01
 6.50000E+00    8.62438E-01
 7.00000E+00    8.41690E-01
 7.50000E+00    8.24524E-01
 8.00000E+00    8.06119E-01
 8.50000E+00    7.84088E-01
 9.00000E+00    7.59435E-01
 9.50000E+00    7.33451E-01
 1.00000E+01    7.08081E-01
 1.05000E+01    6.84513E-01
 1.10000E+01    6.63391E-01
 1.15000E+01    6.44747E-01
 1.20000E+01    6.28214E-01
 1.25000E+01    6.13419E-01
 1.30000E+01    6.00009E-01
 1.35000E+01    5.87747E-01
 1.40000E+01    5.76419E-01
 1.45000E+01    5.65840E-01
 1.50000E+01    5.55787E-01
 1.55000E+01    5.45929E-01
 1.60000E+01    5.36215E-01
 1.65000E+01    5.26324E-01
 1.70000E+01    5.16807E-01
 1.75000E+01    5.07415E-01
 1.80000E+01    4.98349E-01
 1.85000E+01    4.89478E-01
 1.90000E+01    4.80835E-01
 1.95000E+01    4.72203E-01
 2.00000E+01    4.63601E-01
