# n + Sm152 :  n        
# jendl4.0   N.Iwamoto                         EVAL-Nov09
# uncertainties: n
# # energies =   109
#   E(MeV)       xs(mb) 
 1.05000E-01    0.00000E+00
 1.10000E-01    4.25944E-03
 1.20000E-01    5.95357E-03
 1.22591E-01    6.33738E-03
 1.30000E-01    5.82277E-03
 1.40000E-01    5.99409E-03
 1.50000E-01    6.03291E-03
 1.60000E-01    6.06747E-03
 1.70000E-01    6.10568E-03
 1.80000E-01    6.13755E-03
 1.90000E-01    6.15648E-03
 2.00000E-01    6.19078E-03
 2.25000E-01    3.06267E-02
 2.50000E-01    3.64726E-02
 2.75000E-01    3.94512E-02
 3.00000E-01    4.15514E-02
 3.68912E-01    1.36485E-01
 4.00000E-01    1.45755E-01
 5.00000E-01    3.70795E-01
 6.00000E-01    7.65628E-01
 6.89247E-01    1.38396E+00
 7.00000E-01    1.37454E+00
 7.11573E-01    1.52026E+00
 8.00000E-01    2.25181E+00
 8.15834E-01    2.49982E+00
 9.00000E-01    3.12559E+00
 9.69750E-01    4.25515E+00
 1.00000E+00    4.20654E+00
 1.02976E+00    4.85922E+00
 1.04802E+00    5.17471E+00
 1.09004E+00    5.42337E+00
 1.09309E+00    5.41082E+00
 1.10000E+00    5.29030E+00
 1.13282E+00    5.87888E+00
 1.20000E+00    6.57242E+00
 1.22959E+00    7.05636E+00
 1.23414E+00    7.43167E+00
 1.24204E+00    7.46597E+00
 1.29850E+00    7.85678E+00
 1.30000E+00    7.82430E+00
 1.30134E+00    7.81876E+00
 1.31920E+00    7.90153E+00
 1.38085E+00    8.93158E+00
 1.40000E+00    9.05811E+00
 1.50000E+00    1.10481E+01
 1.51561E+00    1.13953E+01
 1.52082E+00    1.15169E+01
 1.53995E+00    1.21048E+01
 1.56994E+00    1.25648E+01
 1.58992E+00    1.29006E+01
 1.60000E+00    1.29309E+01
 1.61991E+00    1.33148E+01
 1.62349E+00    1.33893E+01
 1.66084E+00    1.45867E+01
 1.66981E+00    1.46816E+01
 1.67745E+00    1.47614E+01
 1.69173E+00    1.50541E+01
 1.69326E+00    1.50286E+01
 1.70000E+00    1.50305E+01
 1.73967E+00    1.61692E+01
 1.74173E+00    1.62316E+01
 1.74753E+00    1.63337E+01
 1.76870E+00    1.67458E+01
 1.77591E+00    1.67662E+01
 1.78085E+00    1.68940E+01
 1.78803E+00    1.69039E+01
 1.80000E+00    1.69314E+01
 1.81596E+00    1.71985E+01
 1.83328E+00    1.75397E+01
 1.90000E+00    1.94083E+01
 2.00000E+00    8.26443E+01
 2.25000E+00    5.53362E+02
 2.50000E+00    9.54380E+02
 2.75000E+00    1.42205E+03
 3.00000E+00    1.73565E+03
 3.50000E+00    2.17056E+03
 4.00000E+00    2.36551E+03
 4.50000E+00    2.43842E+03
 5.00000E+00    2.46015E+03
 5.50000E+00    2.46276E+03
 6.00000E+00    2.45969E+03
 6.50000E+00    2.45250E+03
 7.00000E+00    2.44038E+03
 7.50000E+00    2.42254E+03
 8.00000E+00    2.40041E+03
 8.50000E+00    2.34814E+03
 9.00000E+00    1.87000E+03
 9.50000E+00    1.34184E+03
 1.00000E+01    9.57298E+02
 1.05000E+01    7.12854E+02
 1.10000E+01    5.59702E+02
 1.15000E+01    4.61502E+02
 1.20000E+01    3.95532E+02
 1.25000E+01    3.48916E+02
 1.30000E+01    3.14411E+02
 1.35000E+01    2.87597E+02
 1.40000E+01    2.65956E+02
 1.45000E+01    2.47984E+02
 1.50000E+01    2.32401E+02
 1.55000E+01    2.19224E+02
 1.60000E+01    2.07320E+02
 1.65000E+01    1.96094E+02
 1.70000E+01    1.86344E+02
 1.75000E+01    1.77779E+02
 1.80000E+01    1.69694E+02
 1.85000E+01    1.62285E+02
 1.90000E+01    1.55460E+02
 1.95000E+01    1.48959E+02
 2.00000E+01    1.42854E+02
