# n + Sm152 : (n,n'06)  
# jendl4.0   N.Iwamoto                         EVAL-Nov09
# uncertainties: n
# # energies =    83
#   E(MeV)       xs(mb) 
 9.69750E-01    0.00000E+00
 1.00000E+00    1.44632E+02
 1.02976E+00    1.84225E+02
 1.04802E+00    2.02086E+02
 1.09004E+00    2.33447E+02
 1.09309E+00    2.33940E+02
 1.10000E+00    2.34413E+02
 1.13282E+00    2.44662E+02
 1.20000E+00    2.57187E+02
 1.22959E+00    2.61398E+02
 1.23414E+00    2.61724E+02
 1.24204E+00    2.59501E+02
 1.29850E+00    2.55491E+02
 1.30000E+00    2.53901E+02
 1.30134E+00    2.53350E+02
 1.31920E+00    2.46943E+02
 1.38085E+00    2.37279E+02
 1.40000E+00    2.33973E+02
 1.50000E+00    2.21940E+02
 1.51561E+00    2.20698E+02
 1.52082E+00    2.20287E+02
 1.53995E+00    2.13024E+02
 1.56994E+00    2.05167E+02
 1.58992E+00    2.02394E+02
 1.60000E+00    2.00573E+02
 1.61991E+00    1.96930E+02
 1.62349E+00    1.96315E+02
 1.66084E+00    1.90518E+02
 1.66981E+00    1.87584E+02
 1.67745E+00    1.85309E+02
 1.69173E+00    1.82485E+02
 1.69326E+00    1.81074E+02
 1.70000E+00    1.78521E+02
 1.73967E+00    1.70676E+02
 1.74173E+00    1.70353E+02
 1.74753E+00    1.69118E+02
 1.76870E+00    1.64929E+02
 1.77591E+00    1.63073E+02
 1.78085E+00    1.62140E+02
 1.78803E+00    1.60209E+02
 1.80000E+00    1.55984E+02
 1.81596E+00    1.52631E+02
 1.83328E+00    1.49601E+02
 1.90000E+00    1.40299E+02
 2.00000E+00    1.27127E+02
 2.25000E+00    8.88723E+01
 2.50000E+00    6.38984E+01
 2.75000E+00    4.22765E+01
 3.00000E+00    2.92087E+01
 3.50000E+00    1.28798E+01
 4.00000E+00    5.72183E+00
 4.50000E+00    2.67125E+00
 5.00000E+00    1.37944E+00
 5.50000E+00    8.25078E-01
 6.00000E+00    5.80224E-01
 6.50000E+00    4.63102E-01
 7.00000E+00    3.98942E-01
 7.50000E+00    3.56955E-01
 8.00000E+00    3.24560E-01
 8.50000E+00    2.96945E-01
 9.00000E+00    2.72499E-01
 9.50000E+00    2.50775E-01
 1.00000E+01    2.31539E-01
 1.05000E+01    2.15841E-01
 1.10000E+01    2.02246E-01
 1.15000E+01    1.90138E-01
 1.20000E+01    1.79260E-01
 1.25000E+01    1.69377E-01
 1.30000E+01    1.60295E-01
 1.35000E+01    1.51876E-01
 1.40000E+01    1.43990E-01
 1.45000E+01    1.36578E-01
 1.50000E+01    1.29608E-01
 1.55000E+01    1.18800E-01
 1.60000E+01    1.12445E-01
 1.65000E+01    1.11351E-01
 1.70000E+01    1.05944E-01
 1.75000E+01    9.68513E-02
 1.80000E+01    9.24406E-02
 1.85000E+01    9.20475E-02
 1.90000E+01    8.91226E-02
 1.95000E+01    8.38083E-02
 2.00000E+01    7.70031E-02
