# n + N  14 : (n,a04)   
# endfb8.0   M.B.Chadwick,P.G.Young            EVAL-JUN97
# uncertainties: n
# # energies =   102
#   E(MeV)       xs(mb) 
 7.39830E+00    0.00000E+00
 7.40000E+00    1.56829E-05
 7.44000E+00    3.85127E-04
 7.45000E+00    4.73869E-04
 7.45067E+00    4.79797E-04
 7.50000E+00    9.12443E-04
 7.55000E+00    1.34287E-03
 7.60000E+00    1.76520E-03
 7.65000E+00    2.20000E-03
 7.70000E+00    2.63480E-03
 7.75000E+00    3.06955E-03
 7.76000E+00    3.15650E-03
 7.80000E+00    3.50438E-03
 7.82000E+00    3.67830E-03
 7.85000E+00    3.93915E-03
 7.86000E+00    4.02610E-03
 7.90000E+00    4.37390E-03
 7.92000E+00    4.54780E-03
 7.94000E+00    4.72170E-03
 7.95000E+00    4.80869E-03
 7.96000E+00    4.89570E-03
 7.98000E+00    5.06957E-03
 7.99000E+00    5.15650E-03
 8.00000E+00    5.24350E-03
 8.05000E+00    5.67830E-03
 8.10000E+00    6.11300E-03
 8.15000E+00    6.54780E-03
 8.20000E+00    6.98260E-03
 8.25000E+00    7.41740E-03
 8.30000E+00    7.85220E-03
 8.35000E+00    8.28696E-03
 8.40000E+00    8.72170E-03
 8.45000E+00    9.15656E-03
 8.50000E+00    9.59130E-03
 8.55000E+00    9.89458E-03
 8.60000E+00    1.00920E-02
 8.65000E+00    1.03160E-02
 8.70000E+00    1.05310E-02
 8.72220E+00    1.06200E-02
 8.75000E+00    1.07273E-02
 8.80000E+00    1.09080E-02
 8.85000E+00    1.10722E-02
 8.90000E+00    1.12211E-02
 8.95000E+00    1.13562E-02
 9.00000E+00    1.14790E-02
 9.05000E+00    1.15852E-02
 9.10000E+00    1.16730E-02
 9.15000E+00    1.17426E-02
 9.20000E+00    1.18050E-02
 9.25000E+00    1.18353E-02
 9.30000E+00    1.18392E-02
 9.34661E+00    1.18786E-02
 9.40000E+00    2.45428E-02
 9.50000E+00    1.12623E-01
 9.60000E+00    2.41080E-01
 9.70000E+00    3.87940E-01
 9.73244E+00    4.47173E-01
 9.80000E+00    5.89680E-01
 9.90000E+00    8.48770E-01
 1.00000E+01    1.14240E+00
 1.00163E+01    1.18719E+00
 1.01000E+01    1.41816E+00
 1.02000E+01    1.68680E+00
 1.03000E+01    1.90211E+00
 1.04000E+01    2.08330E+00
 1.05000E+01    2.27357E+00
 1.06000E+01    2.45580E+00
 1.07000E+01    2.61532E+00
 1.08000E+01    2.75230E+00
 1.09000E+01    2.87814E+00
 1.10000E+01    2.98955E+00
 1.11000E+01    3.08907E+00
 1.12000E+01    3.18020E+00
 1.13000E+01    3.25842E+00
 1.14000E+01    3.32426E+00
 1.15000E+01    3.38040E+00
 1.16000E+01    3.42502E+00
 1.17000E+01    3.45919E+00
 1.18000E+01    3.48231E+00
 1.19000E+01    3.49670E+00
 1.20000E+01    3.50828E+00
 1.22000E+01    3.52796E+00
 1.24000E+01    3.54045E+00
 1.26000E+01    3.53853E+00
 1.28000E+01    3.52612E+00
 1.30000E+01    3.50867E+00
 1.32000E+01    3.48699E+00
 1.34000E+01    3.46128E+00
 1.36000E+01    3.44648E+00
 1.38000E+01    3.44245E+00
 1.40000E+01    3.43334E+00
 1.42000E+01    3.41576E+00
 1.44000E+01    3.38797E+00
 1.46000E+01    3.35227E+00
 1.48000E+01    3.31099E+00
 1.50000E+01    3.26644E+00
 1.55000E+01    3.10968E+00
 1.60000E+01    2.84807E+00
 1.70000E+01    2.28755E+00
 1.80000E+01    1.81933E+00
 1.90000E+01    1.37042E+00
 2.00000E+01    1.01861E+00
