# n + N  14 : (n,a05)   
# endfb8.0   M.B.Chadwick,P.G.Young            EVAL-JUN97
# uncertainties: n
# # energies =    98
#   E(MeV)       xs(mb) 
 7.45067E+00    0.00000E+00
 7.50000E+00    1.00000E-09
 7.55000E+00    1.79000E-07
 7.60000E+00    2.66910E-07
 7.65000E+00    3.56480E-07
 7.70000E+00    4.46050E-07
 7.75000E+00    5.35620E-07
 7.76000E+00    5.53530E-07
 7.80000E+00    6.25180E-07
 7.82000E+00    6.61010E-07
 7.85000E+00    7.14760E-07
 7.86000E+00    7.32670E-07
 7.90000E+00    8.04320E-07
 7.92000E+00    8.40150E-07
 7.94000E+00    8.75970E-07
 7.95000E+00    8.93890E-07
 7.96000E+00    9.11800E-07
 7.98000E+00    9.47630E-07
 7.99000E+00    9.65540E-07
 8.00000E+00    9.83460E-07
 8.05000E+00    1.07300E-06
 8.10000E+00    1.16260E-06
 8.15000E+00    1.25220E-06
 8.20000E+00    1.34170E-06
 8.25000E+00    1.43130E-06
 8.30000E+00    1.52090E-06
 8.35000E+00    1.61046E-06
 8.40000E+00    1.70000E-06
 8.45000E+00    3.02687E-03
 8.50000E+00    1.70000E-02
 8.55000E+00    7.60802E-02
 8.60000E+00    1.44650E-01
 8.65000E+00    1.81037E-01
 8.70000E+00    2.19100E-01
 8.72220E+00    2.39118E-01
 8.75000E+00    2.65456E-01
 8.80000E+00    3.19200E-01
 8.85000E+00    3.86837E-01
 8.90000E+00    4.57289E-01
 8.95000E+00    5.29572E-01
 9.00000E+00    6.02700E-01
 9.05000E+00    6.75979E-01
 9.10000E+00    7.49650E-01
 9.15000E+00    8.25413E-01
 9.20000E+00    9.00480E-01
 9.25000E+00    9.71177E-01
 9.30000E+00    1.03918E+00
 9.34661E+00    1.10167E+00
 9.40000E+00    1.17203E+00
 9.50000E+00    1.30006E+00
 9.60000E+00    1.43500E+00
 9.70000E+00    1.58020E+00
 9.73244E+00    1.62697E+00
 9.80000E+00    1.72370E+00
 9.90000E+00    1.86470E+00
 1.00000E+01    1.99360E+00
 1.00163E+01    2.01072E+00
 1.01000E+01    2.09446E+00
 1.02000E+01    2.18740E+00
 1.03000E+01    2.26441E+00
 1.04000E+01    2.32970E+00
 1.05000E+01    2.39022E+00
 1.06000E+01    2.44440E+00
 1.07000E+01    2.48943E+00
 1.08000E+01    2.52630E+00
 1.09000E+01    2.55670E+00
 1.10000E+01    2.56686E+00
 1.11000E+01    2.55857E+00
 1.12000E+01    2.54509E+00
 1.13000E+01    2.52985E+00
 1.14000E+01    2.51097E+00
 1.15000E+01    2.48474E+00
 1.16000E+01    2.45153E+00
 1.17000E+01    2.41420E+00
 1.18000E+01    2.37466E+00
 1.19000E+01    2.33360E+00
 1.20000E+01    2.28910E+00
 1.22000E+01    2.18717E+00
 1.24000E+01    2.08439E+00
 1.26000E+01    1.99043E+00
 1.28000E+01    1.90225E+00
 1.30000E+01    1.82212E+00
 1.32000E+01    1.76175E+00
 1.34000E+01    1.71689E+00
 1.36000E+01    1.68093E+00
 1.38000E+01    1.65282E+00
 1.40000E+01    1.62415E+00
 1.42000E+01    1.59522E+00
 1.44000E+01    1.56644E+00
 1.46000E+01    1.53744E+00
 1.48000E+01    1.50781E+00
 1.50000E+01    1.47716E+00
 1.55000E+01    1.39117E+00
 1.60000E+01    1.30182E+00
 1.70000E+01    1.12136E+00
 1.80000E+01    9.48718E-01
 1.90000E+01    7.84400E-01
 2.00000E+01    6.04351E-01
