# n + U 232 : (n,n'04)  
# endfb8.0   O.Iwamoto, T.Nakagawa, et al.     EVAL-JAN10
# uncertainties: y
# # energies =    67
#   E(MeV)       xs(mb)       xslow(mb)      xsupp(mb)
 5.43352E-01    0.00000E+00    0.00000E+00    0.00000E+00
 5.65642E-01    1.79116E-07    2.23894E-08    3.35843E-07
 6.00000E-01    2.96852E-06    3.71063E-07    5.56598E-06
 6.31701E-01    1.28454E-05    1.60567E-06    2.40851E-05
 6.94215E-01    8.60743E-05    1.07592E-05    1.61389E-04
 7.00000E-01    1.29996E-04    1.62494E-05    2.43743E-04
 7.37753E-01    6.34030E-04    7.92533E-05    1.18881E-03
 7.50147E-01    8.26470E-04    1.03308E-04    1.54963E-03
 8.00000E-01    1.71012E-03    6.61810E-04    2.75843E-03
 8.09303E-01    1.90644E-03    7.37786E-04    3.07509E-03
 8.36691E-01    2.55805E-03    9.89956E-04    4.12614E-03
 8.70560E-01    3.52747E-03    1.36512E-03    5.68982E-03
 9.00000E-01    4.55939E-03    1.76447E-03    7.35431E-03
 9.15382E-01    5.18216E-03    2.00548E-03    8.35884E-03
 9.19078E-01    5.34062E-03    2.06680E-03    8.61444E-03
 9.74900E-01    8.24397E-03    3.19039E-03    1.32976E-02
 9.89081E-01    9.14714E-03    3.53991E-03    1.47544E-02
 1.00000E+00    1.49726E-02    5.71953E-03    2.42257E-02
 1.02127E+00    2.24950E-02    8.59308E-03    3.63969E-02
 1.10000E+00    2.87652E-02    1.09883E-02    4.65421E-02
 1.20000E+00    5.10206E-02    2.07138E-02    8.13273E-02
 1.30000E+00    9.02515E-02    3.66412E-02    1.43862E-01
 1.40000E+00    1.34637E-01    5.46613E-02    2.14613E-01
 1.50000E+00    2.07413E-01    8.69021E-02    3.27924E-01
 1.60000E+00    2.83346E-01    1.18717E-01    4.47975E-01
 1.70000E+00    3.91351E-01    1.63969E-01    6.18733E-01
 1.80000E+00    4.97905E-01    2.08613E-01    7.87197E-01
 1.90000E+00    6.38856E-01    2.67669E-01    1.01004E+00
 2.00000E+00    7.74787E-01    2.74272E-01    1.27530E+00
 2.30000E+00    1.29098E+00    4.57002E-01    2.12496E+00
 2.50000E+00    1.70066E+00    4.21762E-01    2.97956E+00
 2.70000E+00    2.52358E+00    6.25845E-01    4.42131E+00
 3.00000E+00    3.50748E+00    1.33633E+00    5.67863E+00
 3.50000E+00    4.45800E+00    1.99251E+00    6.92349E+00
 4.00000E+00    5.40379E+00    2.58287E+00    8.22471E+00
 4.50000E+00    5.67183E+00    2.71099E+00    8.63267E+00
 5.00000E+00    5.87544E+00    3.33119E+00    8.41969E+00
 5.50000E+00    6.03715E+00    3.42287E+00    8.65143E+00
 6.00000E+00    6.16554E+00    3.67439E+00    8.65668E+00
 6.50000E+00    6.21079E+00    3.70136E+00    8.72022E+00
 7.00000E+00    6.20341E+00    3.82112E+00    8.58570E+00
 7.50000E+00    6.00979E+00    3.70186E+00    8.31772E+00
 8.00000E+00    5.76809E+00    3.77765E+00    7.75853E+00
 8.50000E+00    5.46482E+00    3.57904E+00    7.35060E+00
 9.00000E+00    5.13938E+00    3.59221E+00    6.68656E+00
 9.50000E+00    4.84997E+00    3.38992E+00    6.31002E+00
 1.00000E+01    4.54329E+00    3.31184E+00    5.77474E+00
 1.05000E+01    4.27508E+00    3.11633E+00    5.43383E+00
 1.10000E+01    4.00386E+00    2.91862E+00    5.08910E+00
 1.15000E+01    3.74723E+00    2.73155E+00    4.76291E+00
 1.20000E+01    3.48110E+00    2.61427E+00    4.34793E+00
 1.25000E+01    3.24517E+00    2.43709E+00    4.05325E+00
 1.30000E+01    3.01431E+00    2.26371E+00    3.76491E+00
 1.35000E+01    2.81162E+00    2.11150E+00    3.51174E+00
 1.40000E+01    2.60818E+00    1.97688E+00    3.23948E+00
 1.45000E+01    2.42296E+00    1.83649E+00    3.00943E+00
 1.50000E+01    2.24129E+00    1.69428E+00    2.78830E+00
 1.55000E+01    2.08395E+00    1.57534E+00    2.59256E+00
 1.60000E+01    1.93796E+00    1.45920E+00    2.41672E+00
 1.65000E+01    1.80956E+00    1.36252E+00    2.25660E+00
 1.70000E+01    1.69666E+00    1.27751E+00    2.11581E+00
 1.75000E+01    1.59532E+00    1.20121E+00    1.98943E+00
 1.80000E+01    1.49983E+00    1.12931E+00    1.87035E+00
 1.85000E+01    1.41414E+00    1.06479E+00    1.76349E+00
 1.90000E+01    1.33398E+00    1.00443E+00    1.66353E+00
 1.95000E+01    1.26265E+00    9.50720E-01    1.57458E+00
 2.00000E+01    1.19597E+00    9.00513E-01    1.49143E+00
