# n + U 232 : (n,n'11)  
# endfb8.0   O.Iwamoto, T.Nakagawa, et al.     EVAL-JAN10
# uncertainties: y
# # energies =    57
#   E(MeV)       xs(mb)       xslow(mb)      xsupp(mb)
 8.36691E-01    0.00000E+00    0.00000E+00    0.00000E+00
 8.70560E-01    1.91634E+00    6.32391E-01    3.20029E+00
 9.00000E-01    4.18002E+00    1.37940E+00    6.98064E+00
 9.15382E-01    5.42610E+00    1.79061E+00    9.06159E+00
 9.19078E-01    5.72442E+00    1.88906E+00    9.55978E+00
 9.74900E-01    1.00866E+01    3.32857E+00    1.68446E+01
 9.89081E-01    1.11655E+01    3.68461E+00    1.86464E+01
 1.00000E+00    1.20383E+01    3.97263E+00    2.01040E+01
 1.02127E+00    1.36162E+01    4.49334E+00    2.27391E+01
 1.10000E+00    1.85044E+01    6.10644E+00    3.09024E+01
 1.20000E+00    2.28970E+01    7.76206E+00    3.80319E+01
 1.30000E+00    2.56271E+01    8.68756E+00    4.25666E+01
 1.40000E+00    2.66446E+01    9.03249E+00    4.42567E+01
 1.50000E+00    2.63896E+01    1.12683E+01    4.15109E+01
 1.60000E+00    2.50927E+01    1.07146E+01    3.94708E+01
 1.70000E+00    2.31749E+01    9.89567E+00    3.64541E+01
 1.80000E+00    2.11691E+01    9.03919E+00    3.32990E+01
 1.90000E+00    1.89056E+01    8.07268E+00    2.97385E+01
 2.00000E+00    1.66100E+01    9.45109E+00    2.37689E+01
 2.30000E+00    1.04805E+01    5.96340E+00    1.49976E+01
 2.50000E+00    7.39549E+00    4.76270E+00    1.00283E+01
 2.70000E+00    5.19240E+00    3.34391E+00    7.04089E+00
 3.00000E+00    3.06865E+00    2.31681E+00    3.82049E+00
 3.50000E+00    1.49299E+00    1.26901E+00    1.71697E+00
 4.00000E+00    1.00391E+00    9.21085E-01    1.08673E+00
 4.50000E+00    8.88782E-01    8.15456E-01    9.62108E-01
 5.00000E+00    8.86152E-01    8.54120E-01    9.18184E-01
 5.50000E+00    9.10662E-01    8.77744E-01    9.43580E-01
 6.00000E+00    9.43993E-01    9.19628E-01    9.68358E-01
 6.50000E+00    9.72263E-01    9.47168E-01    9.97358E-01
 7.00000E+00    9.90163E-01    9.68570E-01    1.01176E+00
 7.50000E+00    9.93101E-01    9.71444E-01    1.01476E+00
 8.00000E+00    9.84215E-01    9.64431E-01    1.00400E+00
 8.50000E+00    9.66274E-01    9.46851E-01    9.85697E-01
 9.00000E+00    9.42866E-01    9.25224E-01    9.60508E-01
 9.50000E+00    9.14346E-01    8.97238E-01    9.31454E-01
 1.00000E+01    8.81427E-01    8.66084E-01    8.96771E-01
 1.05000E+01    8.43948E-01    8.29257E-01    8.58639E-01
 1.10000E+01    8.03177E-01    7.89196E-01    8.17158E-01
 1.15000E+01    7.60674E-01    7.47433E-01    7.73915E-01
 1.20000E+01    7.17664E-01    7.06106E-01    7.29222E-01
 1.25000E+01    6.74578E-01    6.63714E-01    6.85442E-01
 1.30000E+01    6.32269E-01    6.22086E-01    6.42452E-01
 1.35000E+01    5.90311E-01    5.80804E-01    5.99818E-01
 1.40000E+01    5.50712E-01    5.41787E-01    5.59637E-01
 1.45000E+01    5.13551E-01    5.05228E-01    5.21874E-01
 1.50000E+01    4.79095E-01    4.71043E-01    4.87147E-01
 1.55000E+01    4.47358E-01    4.39839E-01    4.54877E-01
 1.60000E+01    4.16910E-01    4.09610E-01    4.24210E-01
 1.65000E+01    3.88547E-01    3.81744E-01    3.95350E-01
 1.70000E+01    3.63390E-01    3.57028E-01    3.69752E-01
 1.75000E+01    3.41087E-01    3.35115E-01    3.47059E-01
 1.80000E+01    3.21010E-01    3.15262E-01    3.26758E-01
 1.85000E+01    3.03776E-01    2.98336E-01    3.09216E-01
 1.90000E+01    2.88863E-01    2.83690E-01    2.94036E-01
 1.95000E+01    2.75444E-01    2.70512E-01    2.80376E-01
 2.00000E+01    2.63302E-01    2.58587E-01    2.68017E-01
