# n + Ag107 : (n,el)    
# endfb8.0   Liu+, Mughabghab                  EVAL-MAR05
# uncertainties: n
# # energies =   171
#   E(MeV)       xs(mb) 
 1.00000E-11    1.26525E+04
 1.00000E-07    7.28680E+03
 4.13990E-07    7.21451E+03
 5.31580E-07    7.17761E+03
 6.82560E-07    7.13239E+03
 8.76420E-07    7.07570E+03
 1.12540E-06    7.00682E+03
 1.44500E-06    6.92108E+03
 1.85540E-06    6.82259E+03
 2.37240E-06    6.69640E+03
 3.05900E-06    6.54904E+03
 3.92790E-06    6.37595E+03
 5.04350E-06    6.17865E+03
 6.47600E-06    5.94144E+03
 8.31530E-06    5.65291E+03
 1.06770E-05    5.22695E+03
 1.37100E-05    1.89991E+04
 1.76030E-05    6.35078E+03
 2.26030E-05    5.34182E+03
 2.92030E-05    4.74359E+03
 3.72670E-05    5.72958E+03
 4.78510E-05    2.19289E+04
 6.14420E-05    5.70027E+03
 7.88930E-05    5.16127E+03
 1.01300E-04    4.80437E+03
 1.30070E-04    4.79941E+03
 1.67020E-04    3.34398E+04
 2.14450E-04    6.39877E+03
 2.75360E-04    1.12154E+04
 3.53580E-04    5.69950E+03
 4.54000E-04    1.32395E+04
 5.82950E-04    6.75903E+03
 7.48520E-04    7.73216E+03
 9.61120E-04    7.23878E+03
 1.23410E-03    8.19831E+03
 1.58460E-03    8.08259E+03
 2.03470E-03    1.02532E+04
 2.24870E-03    8.74228E+03
 2.48520E-03    6.26871E+03
 2.61260E-03    1.08174E+04
 2.74650E-03    7.12054E+03
 3.03540E-03    6.18313E+03
 3.35460E-03    7.47113E+03
 3.70740E-03    6.65344E+03
 4.30740E-03    7.19802E+03
 5.53080E-03    7.57579E+03
 7.10170E-03    7.33244E+03
 9.11880E-03    7.24693E+03
 1.17090E-02    7.10647E+03
 1.50340E-02    6.96285E+03
 1.93050E-02    6.95105E+03
 2.18750E-02    6.96900E+03
 2.35790E-02    6.98139E+03
 2.41760E-02    6.98824E+03
 2.47880E-02    7.00074E+03
 2.60580E-02    7.01579E+03
 2.70000E-02    7.03239E+03
 2.85000E-02    7.06889E+03
 3.18280E-02    7.11744E+03
 3.43070E-02    7.19004E+03
 4.08680E-02    7.27305E+03
 4.63090E-02    7.32458E+03
 5.24750E-02    7.35376E+03
 5.65620E-02    7.39304E+03
 6.73790E-02    7.43948E+03
 7.20000E-02    7.43420E+03
 7.95000E-02    7.42240E+03
 8.25000E-02    7.40873E+03
 8.65170E-02    7.37858E+03
 9.80370E-02    7.17337E+03
 1.11090E-01    7.12311E+03
 1.16790E-01    7.14350E+03
 1.22770E-01    7.16760E+03
 1.29070E-01    7.19295E+03
 1.35690E-01    7.21958E+03
 1.42640E-01    7.24759E+03
 1.49960E-01    7.27702E+03
 1.57640E-01    7.30797E+03
 1.65730E-01    7.34050E+03
 1.74220E-01    7.37471E+03
 1.83160E-01    7.40673E+03
 1.92550E-01    7.42004E+03
 2.02420E-01    7.43116E+03
 2.12800E-01    7.43463E+03
 2.23710E-01    7.42961E+03
 2.35180E-01    7.42433E+03
 2.47240E-01    7.41326E+03
 2.73240E-01    7.38725E+03
 2.87250E-01    7.37110E+03
 2.94520E-01    7.36357E+03
 2.97200E-01    7.36056E+03
 2.98500E-01    7.35696E+03
 3.01970E-01    7.31718E+03
 3.33730E-01    7.11710E+03
 3.68830E-01    6.92483E+03
 3.87740E-01    6.80557E+03
 4.07620E-01    6.61822E+03
 4.50490E-01    6.36566E+03
 4.97870E-01    6.19562E+03
 5.23400E-01    6.13302E+03
 5.50230E-01    6.06751E+03
 5.78440E-01    5.99864E+03
 6.08100E-01    5.92341E+03
 6.39280E-01    5.83623E+03
 6.72060E-01    5.74409E+03
 7.06510E-01    5.64723E+03
 7.42740E-01    5.55486E+03
 7.80820E-01    5.47278E+03
 8.20850E-01    5.35354E+03
 8.62940E-01    5.22529E+03
 9.07180E-01    5.07885E+03
 9.61640E-01    4.92756E+03
 1.00260E+00    4.73865E+03
 1.10800E+00    4.54408E+03
 1.16480E+00    4.40125E+03
 1.22460E+00    4.26878E+03
 1.28730E+00    4.14597E+03
 1.35340E+00    4.01707E+03
 1.42270E+00    3.89321E+03
 1.49570E+00    3.78793E+03
 1.57240E+00    3.67777E+03
 1.65300E+00    3.56529E+03
 1.73770E+00    3.45080E+03
 1.82680E+00    3.33369E+03
 1.92050E+00    3.22332E+03
 2.01900E+00    3.11376E+03
 2.12250E+00    3.00345E+03
 2.23130E+00    2.91513E+03
 2.30690E+00    2.86422E+03
 2.34570E+00    2.83827E+03
 2.36530E+00    2.82073E+03
 2.38520E+00    2.77623E+03
 2.46600E+00    2.68704E+03
 2.59240E+00    2.58569E+03
 2.72530E+00    2.48101E+03
 2.86500E+00    2.37717E+03
 3.01190E+00    2.26969E+03
 3.16640E+00    2.16546E+03
 3.32870E+00    2.03024E+03
 3.67880E+00    1.89786E+03
 4.06570E+00    1.84044E+03
 4.49330E+00    1.83119E+03
 4.72370E+00    1.83660E+03
 4.96590E+00    1.84822E+03
 5.22050E+00    1.87044E+03
 5.48810E+00    1.89781E+03
 5.76950E+00    1.92878E+03
 6.06530E+00    1.96903E+03
 6.37630E+00    2.01200E+03
 6.59240E+00    2.03866E+03
 6.70320E+00    2.07505E+03
 7.04690E+00    2.12933E+03
 7.40820E+00    2.18406E+03
 7.78800E+00    2.23453E+03
 8.18730E+00    2.28619E+03
 8.60710E+00    2.32906E+03
 9.04840E+00    2.38407E+03
 9.51230E+00    2.43125E+03
 1.00000E+01    2.44968E+03
 1.05130E+01    2.48417E+03
 1.10520E+01    2.51058E+03
 1.16180E+01    2.52634E+03
 1.22140E+01    2.53076E+03
 1.28400E+01    2.53062E+03
 1.34990E+01    2.52565E+03
 1.38400E+01    2.51344E+03
 1.41910E+01    2.50100E+03
 1.45500E+01    2.48196E+03
 1.49180E+01    2.44425E+03
 1.56830E+01    2.38438E+03
 1.64870E+01    2.31669E+03
