# n + Sm  0 : (n,xp)
# jendl.ad   N.Iwamoto                         EVAL-Apr14
#
# # energies =   118
#   E(MeV)          xs(mb) 
 2.26594E-02    0.00000E+00
 3.00000E-02    0.00000E+00
 4.00000E-02    0.00000E+00
 5.00000E-02    0.00000E+00
 6.00000E-02    0.00000E+00
 7.00000E-02    0.00000E+00
 8.00000E-02    0.00000E+00
 9.00000E-02    0.00000E+00
 1.00000E-01    0.00000E+00
 1.05000E-01    2.10672E-14
 1.10000E-01    2.25756E-14
 1.20000E-01    2.59722E-14
 1.30000E-01    2.95296E-14
 1.40000E-01    3.32935E-14
 1.50000E-01    3.70573E-14
 1.60000E-01    4.08212E-14
 1.70000E-01    4.45850E-14
 1.80000E-01    4.83488E-14
 1.90000E-01    5.21127E-14
 2.00000E-01    5.58765E-14
 2.25000E-01    6.52861E-14
 2.50000E-01    7.46957E-14
 2.75000E-01    8.41055E-14
 2.78952E-01    8.55930E-14
 2.87876E-01    8.89518E-14
 3.00000E-01    9.35539E-14
 3.52412E-01    1.13490E-13
 4.00000E-01    1.31591E-13
 4.01793E-01    1.36824E-13
 5.00000E-01    4.25120E-13
 5.32176E-01    1.26663E-12
 5.62157E-01    2.05100E-12
 5.94888E-01    2.90747E-12
 6.00000E-01    3.04125E-12
 6.40771E-01    1.12999E-11
 6.63061E-01    1.58150E-11
 6.68548E-01    1.69265E-11
 7.00000E-01    2.32976E-11
 7.01721E-01    2.42596E-11
 7.14668E-01    3.14968E-11
 7.52613E-01    7.42418E-11
 7.90549E-01    1.25846E-10
 7.94817E-01    1.31652E-10
 8.00000E-01    1.38703E-10
 8.36035E-01    2.84171E-10
 8.38874E-01    2.98336E-10
 8.41250E-01    3.10191E-10
 8.84591E-01    5.26435E-10
 8.87914E-01    5.43015E-10
 9.00000E-01    6.44954E-10
 9.31749E-01    9.86434E-10
 9.59233E-01    1.50436E-09
 9.59234E-01    1.50438E-09
 9.73550E-01    1.79346E-09
 1.00000E+00    2.45931E-09
 1.00134E+00    2.51322E-09
 1.01885E+00    3.21771E-09
 1.01886E+00    3.21811E-09
 1.04604E+00    4.42355E-09
 1.05510E+00    4.93944E-09
 1.09034E+00    7.32263E-09
 1.10000E+00    8.05781E-09
 1.12054E+00    1.04069E-08
 1.13061E+00    1.18742E-08
 1.14012E+00    1.32598E-08
 1.16182E+00    1.64217E-08
 1.18115E+00    1.98725E-08
 1.18900E+00    2.15933E-08
 1.19504E+00    2.28688E-08
 1.20000E+00    2.39163E-08
 1.20080E+00    2.41595E-08
 1.20309E+00    2.48560E-08
 1.30000E+00    6.68313E-08
 1.40000E+00    1.70021E-07
 1.50000E+00    4.15106E-07
 1.60000E+00    9.72940E-07
 1.70000E+00    2.11761E-06
 1.80000E+00    4.44978E-06
 1.90000E+00    8.47057E-06
 2.00000E+00    1.59357E-05
 2.25000E+00    6.55712E-05
 2.50000E+00    2.31299E-04
 2.75000E+00    6.55201E-04
 3.00000E+00    1.65230E-03
 3.50000E+00    6.55365E-03
 4.00000E+00    1.86426E-02
 4.50000E+00    4.17418E-02
 5.00000E+00    7.76407E-02
 5.50000E+00    1.25588E-01
 6.00000E+00    1.83559E-01
 6.50000E+00    2.49987E-01
 7.00000E+00    3.25076E-01
 7.50000E+00    4.12589E-01
 8.00000E+00    5.13860E-01
 8.50000E+00    6.61239E-01
 9.00000E+00    8.68750E-01
 9.50000E+00    1.16638E+00
 1.00000E+01    1.59682E+00
 1.05000E+01    2.22842E+00
 1.10000E+01    3.12390E+00
 1.15000E+01    4.27849E+00
 1.20000E+01    5.69095E+00
 1.25000E+01    7.32035E+00
 1.30000E+01    9.14917E+00
 1.35000E+01    1.11321E+01
 1.40000E+01    1.32419E+01
 1.45000E+01    1.54649E+01
 1.50000E+01    1.78746E+01
 1.55000E+01    2.04669E+01
 1.60000E+01    2.32638E+01
 1.65000E+01    2.62155E+01
 1.70000E+01    2.93349E+01
 1.75000E+01    3.26207E+01
 1.80000E+01    3.60301E+01
 1.85000E+01    3.95717E+01
 1.90000E+01    4.32099E+01
 1.95000E+01    4.69861E+01
 2.00000E+01    5.08584E+01
