# n + Sm  0 : (n,xn)
# jendl.ad   N.Iwamoto                         EVAL-Apr14
#
# # energies =   118
#   E(MeV)          xs(mb) 
 2.26594E-02    0.00000E+00
 3.00000E-02    2.27413E+02
 4.00000E-02    2.33282E+02
 5.00000E-02    2.25115E+02
 6.00000E-02    2.16178E+02
 7.00000E-02    2.08379E+02
 8.00000E-02    2.02033E+02
 9.00000E-02    1.96795E+02
 1.00000E-01    1.92398E+02
 1.05000E-01    1.90816E+02
 1.10000E-01    1.89246E+02
 1.20000E-01    1.86793E+02
 1.30000E-01    2.63196E+02
 1.40000E-01    2.80111E+02
 1.50000E-01    2.89373E+02
 1.60000E-01    2.95885E+02
 1.70000E-01    3.01851E+02
 1.80000E-01    3.06883E+02
 1.90000E-01    3.10604E+02
 2.00000E-01    3.16161E+02
 2.25000E-01    3.27761E+02
 2.50000E-01    3.36568E+02
 2.75000E-01    3.50024E+02
 2.78952E-01    3.51710E+02
 2.87876E-01    3.75525E+02
 3.00000E-01    4.47231E+02
 3.52412E-01    5.38502E+02
 4.00000E-01    6.57114E+02
 4.01793E-01    6.59488E+02
 5.00000E-01    7.76736E+02
 5.32176E-01    8.03226E+02
 5.62157E-01    8.53427E+02
 5.94888E-01    9.90621E+02
 6.00000E-01    1.02332E+03
 6.40771E-01    1.09296E+03
 6.63061E-01    1.14073E+03
 6.68548E-01    1.15278E+03
 7.00000E-01    1.22192E+03
 7.01721E-01    1.22426E+03
 7.14668E-01    1.24215E+03
 7.52613E-01    1.32766E+03
 7.90549E-01    1.40841E+03
 7.94817E-01    1.41708E+03
 8.00000E-01    1.42935E+03
 8.36035E-01    1.48698E+03
 8.38874E-01    1.49477E+03
 8.41250E-01    1.50178E+03
 8.84591E-01    1.58607E+03
 8.87914E-01    1.59224E+03
 9.00000E-01    1.61128E+03
 9.31749E-01    1.66218E+03
 9.59233E-01    1.70062E+03
 9.59234E-01    1.70063E+03
 9.73550E-01    1.72121E+03
 1.00000E+00    1.75658E+03
 1.00134E+00    1.75769E+03
 1.01885E+00    1.77366E+03
 1.01886E+00    1.77367E+03
 1.04604E+00    1.80664E+03
 1.05510E+00    1.81805E+03
 1.09034E+00    1.87681E+03
 1.10000E+00    1.89111E+03
 1.12054E+00    1.91166E+03
 1.13061E+00    1.92147E+03
 1.14012E+00    1.93069E+03
 1.16182E+00    1.95145E+03
 1.18115E+00    1.97570E+03
 1.18900E+00    1.98820E+03
 1.19504E+00    1.99802E+03
 1.20000E+00    2.00641E+03
 1.20080E+00    2.00711E+03
 1.20309E+00    2.00940E+03
 1.30000E+00    2.09060E+03
 1.40000E+00    2.14905E+03
 1.50000E+00    2.26143E+03
 1.60000E+00    2.31599E+03
 1.70000E+00    2.37654E+03
 1.80000E+00    2.42536E+03
 1.90000E+00    2.46810E+03
 2.00000E+00    2.50362E+03
 2.25000E+00    2.56931E+03
 2.50000E+00    2.62106E+03
 2.75000E+00    2.65665E+03
 3.00000E+00    2.68523E+03
 3.50000E+00    2.69788E+03
 4.00000E+00    2.67316E+03
 4.50000E+00    2.62884E+03
 5.00000E+00    2.58503E+03
 5.50000E+00    2.54992E+03
 6.00000E+00    2.53215E+03
 6.50000E+00    2.53063E+03
 7.00000E+00    2.58624E+03
 7.50000E+00    2.67501E+03
 8.00000E+00    2.79064E+03
 8.50000E+00    2.97824E+03
 9.00000E+00    3.25760E+03
 9.50000E+00    3.50810E+03
 1.00000E+01    3.69645E+03
 1.05000E+01    3.82865E+03
 1.10000E+01    3.92081E+03
 1.15000E+01    3.98925E+03
 1.20000E+01    4.04170E+03
 1.25000E+01    4.08129E+03
 1.30000E+01    4.10975E+03
 1.35000E+01    4.13255E+03
 1.40000E+01    4.14920E+03
 1.45000E+01    4.16040E+03
 1.50000E+01    4.17497E+03
 1.55000E+01    4.20027E+03
 1.60000E+01    4.24682E+03
 1.65000E+01    4.31745E+03
 1.70000E+01    4.40931E+03
 1.75000E+01    4.51481E+03
 1.80000E+01    4.62293E+03
 1.85000E+01    4.73631E+03
 1.90000E+01    4.83864E+03
 1.95000E+01    4.92879E+03
 2.00000E+01    5.00896E+03
