# n + Sm  0 : (n,xa)
# jendl.ad   N.Iwamoto                         EVAL-Apr14
#
# # energies =   118
#   E(MeV)          xs(mb) 
 2.26594E-02    8.99304E-04
 3.00000E-02    6.46653E-04
 4.00000E-02    5.44243E-04
 5.00000E-02    4.83848E-04
 6.00000E-02    4.42946E-04
 7.00000E-02    4.13768E-04
 8.00000E-02    3.92641E-04
 9.00000E-02    3.76331E-04
 1.00000E-01    3.64230E-04
 1.05000E-01    5.07862E-03
 1.10000E-01    5.02507E-03
 1.20000E-01    4.93466E-03
 1.30000E-01    4.38475E-03
 1.40000E-01    4.18993E-03
 1.50000E-01    4.04713E-03
 1.60000E-01    3.93964E-03
 1.70000E-01    3.87670E-03
 1.80000E-01    3.82379E-03
 1.90000E-01    3.77987E-03
 2.00000E-01    3.56909E-03
 2.25000E-01    3.36344E-03
 2.50000E-01    3.27631E-03
 2.75000E-01    3.28928E-03
 2.78952E-01    3.29541E-03
 2.87876E-01    3.29535E-03
 3.00000E-01    3.29239E-03
 3.52412E-01    3.38625E-03
 4.00000E-01    3.45896E-03
 4.01793E-01    3.46885E-03
 5.00000E-01    4.01061E-03
 5.32176E-01    4.22254E-03
 5.62157E-01    4.38141E-03
 5.94888E-01    4.44452E-03
 6.00000E-01    4.44970E-03
 6.40771E-01    4.76543E-03
 6.63061E-01    4.93291E-03
 6.68548E-01    4.97025E-03
 7.00000E-01    5.20728E-03
 7.01721E-01    5.22325E-03
 7.14668E-01    5.34411E-03
 7.52613E-01    5.52387E-03
 7.90549E-01    5.78721E-03
 7.94817E-01    5.81455E-03
 8.00000E-01    5.84775E-03
 8.36035E-01    6.06998E-03
 8.38874E-01    6.08429E-03
 8.41250E-01    6.09343E-03
 8.84591E-01    6.33405E-03
 8.87914E-01    6.35256E-03
 9.00000E-01    6.44200E-03
 9.31749E-01    6.55343E-03
 9.59233E-01    6.67749E-03
 9.59234E-01    6.67749E-03
 9.73550E-01    6.74174E-03
 1.00000E+00    6.84944E-03
 1.00134E+00    6.86124E-03
 1.01885E+00    7.01611E-03
 1.01886E+00    7.01620E-03
 1.04604E+00    7.18102E-03
 1.05510E+00    7.23201E-03
 1.09034E+00    7.22760E-03
 1.10000E+00    7.21660E-03
 1.12054E+00    7.30636E-03
 1.13061E+00    7.34494E-03
 1.14012E+00    7.38137E-03
 1.16182E+00    7.46544E-03
 1.18115E+00    7.49161E-03
 1.18900E+00    7.49020E-03
 1.19504E+00    7.49507E-03
 1.20000E+00    7.49908E-03
 1.20080E+00    7.50484E-03
 1.20309E+00    7.52133E-03
 1.30000E+00    8.24510E-03
 1.40000E+00    9.05908E-03
 1.50000E+00    9.73659E-03
 1.60000E+00    1.07705E-02
 1.70000E+00    1.16180E-02
 1.80000E+00    1.25436E-02
 1.90000E+00    1.34612E-02
 2.00000E+00    1.46178E-02
 2.25000E+00    1.83513E-02
 2.50000E+00    2.22879E-02
 2.75000E+00    2.77214E-02
 3.00000E+00    3.32432E-02
 3.50000E+00    4.70623E-02
 4.00000E+00    6.25010E-02
 4.50000E+00    7.99107E-02
 5.00000E+00    9.97501E-02
 5.50000E+00    1.23987E-01
 6.00000E+00    1.56861E-01
 6.50000E+00    2.02882E-01
 7.00000E+00    2.62602E-01
 7.50000E+00    3.45880E-01
 8.00000E+00    4.47820E-01
 8.50000E+00    5.67741E-01
 9.00000E+00    7.08427E-01
 9.50000E+00    8.84423E-01
 1.00000E+01    1.20626E+00
 1.05000E+01    1.80384E+00
 1.10000E+01    2.63615E+00
 1.15000E+01    3.61885E+00
 1.20000E+01    4.70592E+00
 1.25000E+01    5.87208E+00
 1.30000E+01    7.09832E+00
 1.35000E+01    8.36612E+00
 1.40000E+01    9.65798E+00
 1.45000E+01    1.09558E+01
 1.50000E+01    1.22639E+01
 1.55000E+01    1.35974E+01
 1.60000E+01    1.49381E+01
 1.65000E+01    1.61945E+01
 1.70000E+01    1.75007E+01
 1.75000E+01    1.86285E+01
 1.80000E+01    1.97496E+01
 1.85000E+01    2.07164E+01
 1.90000E+01    2.16122E+01
 1.95000E+01    2.22352E+01
 2.00000E+01    2.26198E+01
