# n + Sm  0 : (n,h)
# jendl.ad   N.Iwamoto                         EVAL-Apr14
# uncertainties: n
# # energies =    61
#   E(MeV)          xs(mb) 
 2.89682E+00    0.00000E+00
 4.48365E+00    8.64836E-31
 4.99537E+00    1.61761E-30
 5.00000E+00    2.10956E-29
 5.01234E+00    9.36995E-27
 5.12162E+00    9.24203E-26
 5.12986E+00    9.86827E-26
 5.15655E+00    1.18971E-25
 5.25322E+00    1.92462E-25
 5.29787E+00    2.26392E-25
 5.35108E+00    2.66850E-25
 5.42833E+00    3.25564E-25
 5.42945E+00    3.26414E-25
 5.44355E+00    3.37140E-25
 5.46196E+00    3.51130E-25
 5.49802E+00    3.78550E-25
 5.50000E+00    3.80046E-25
 5.50050E+00    3.79942E-24
 5.57144E+00    4.88939E-22
 5.65327E+00    1.04856E-21
 5.69228E+00    1.31534E-21
 5.76263E+00    1.79644E-21
 5.78996E+00    1.98343E-21
 5.80336E+00    2.07505E-21
 5.87556E+00    2.56870E-21
 5.89358E+00    2.69194E-21
 5.90083E+00    2.74158E-21
 5.92789E+00    2.92670E-21
 5.96337E+00    3.16927E-21
 5.99948E+00    3.41627E-21
 6.00000E+00    3.41984E-21
 6.00430E+00    3.00421E-20
 6.04681E+00    2.93231E-19
 6.50000E+00    3.09907E-18
 7.00000E+00    5.77520E-16
 7.50000E+00    3.43718E-14
 8.00000E+00    8.67624E-13
 8.50000E+00    1.13248E-11
 9.00000E+00    8.81768E-11
 9.50000E+00    4.55523E-10
 1.00000E+01    1.69146E-09
 1.05000E+01    4.81626E-09
 1.10000E+01    1.11257E-08
 1.15000E+01    2.21259E-08
 1.20000E+01    4.09556E-08
 1.25000E+01    7.86809E-08
 1.30000E+01    1.74873E-07
 1.35000E+01    4.44149E-07
 1.40000E+01    1.19491E-06
 1.45000E+01    3.15912E-06
 1.50000E+01    7.74156E-06
 1.55000E+01    1.77155E-05
 1.60000E+01    4.00393E-05
 1.65000E+01    8.15497E-05
 1.70000E+01    1.62125E-04
 1.75000E+01    2.90233E-04
 1.80000E+01    5.19025E-04
 1.85000E+01    8.82203E-04
 1.90000E+01    1.42192E-03
 1.95000E+01    2.22358E-03
 2.00000E+01    3.37168E-03
