# n + Ge 73 : (n,xa)    
# jendl4.0   Iwamoto,Herman,Mughabghab+        EVAL-AUG04
# 
# # energies =    80
#   E(MeV)        xs(mb) 
 1.34840E-02    4.01156E-03
 2.00000E-02    2.92201E-03
 5.00000E-02    1.68711E-03
 6.76226E-02    1.46034E-03
 6.97516E-02    1.43295E-03
 7.00000E-02    1.42975E-03
 1.00000E-01    9.87238E-04
 2.00000E-01    8.19566E-04
 3.00000E-01    9.56104E-04
 3.58491E-01    1.08210E-03
 3.69035E-01    1.10481E-03
 3.97929E-01    1.16705E-03
 4.00000E-01    1.17151E-03
 5.00000E-01    1.45387E-03
 5.06004E-01    1.47146E-03
 5.08335E-01    1.47829E-03
 5.58621E-01    1.62564E-03
 5.62575E-01    1.63723E-03
 6.00000E-01    1.74689E-03
 6.05866E-01    1.76484E-03
 6.68115E-01    1.95529E-03
 7.00000E-01    2.05284E-03
 7.51959E-01    2.29434E-03
 7.87747E-01    2.46068E-03
 8.00000E-01    2.51763E-03
 8.20190E-01    2.60640E-03
 8.31342E-01    2.65543E-03
 8.37222E-01    2.68129E-03
 8.80006E-01    2.86940E-03
 9.00000E-01    2.95731E-03
 9.06467E-01    2.98860E-03
 9.16504E-01    3.03717E-03
 9.28163E-01    3.09359E-03
 9.44587E-01    3.17307E-03
 1.00000E+00    3.44122E-03
 1.00744E+00    3.50954E-03
 1.04019E+00    3.81027E-03
 1.05337E+00    3.93130E-03
 1.05763E+00    3.97041E-03
 1.14614E+00    4.78316E-03
 1.14756E+00    4.79620E-03
 1.14766E+00    4.79712E-03
 1.14867E+00    4.80640E-03
 1.16895E+00    4.99262E-03
 1.20000E+00    5.27774E-03
 1.20849E+00    5.40132E-03
 1.28189E+00    6.46978E-03
 1.32913E+00    7.15743E-03
 1.33623E+00    7.26078E-03
 1.35843E+00    7.58393E-03
 1.40000E+00    8.18905E-03
 1.60000E+00    1.30483E-02
 1.80000E+00    1.80469E-02
 2.00000E+00    2.31299E-02
 2.20000E+00    3.35939E-02
 2.40000E+00    4.69904E-02
 2.60000E+00    5.82457E-02
 2.80000E+00    7.90193E-02
 3.00000E+00    1.04433E-01
 3.20000E+00    1.26742E-01
 3.50000E+00    1.89182E-01
 3.70000E+00    2.21903E-01
 4.00000E+00    3.10898E-01
 4.50000E+00    4.67429E-01
 5.00000E+00    6.59868E-01
 6.00000E+00    9.31999E-01
 7.00000E+00    1.15056E+00
 8.00000E+00    1.39736E+00
 9.00000E+00    1.87506E+00
 1.00000E+01    2.63291E+00
 1.10000E+01    3.76435E+00
 1.20000E+01    4.99307E+00
 1.30000E+01    6.71491E+00
 1.40000E+01    8.42275E+00
 1.50000E+01    1.05456E+01
 1.60000E+01    1.28312E+01
 1.70000E+01    1.56455E+01
 1.80000E+01    1.85195E+01
 1.90000E+01    2.15157E+01
 2.00000E+01    2.49069E+01
