# n + Rb 85 : (n,n'19)  
# jeff3.3    A.J. Koning and D. Rochman        EVAL-JAN16
# uncertainties: n
# # energies =    73
#   E(MeV)       xs(mb) 
 1.68845E+00    0.00000E+00
 1.76856E+00    4.64895E+00
 1.80000E+00    6.47347E+00
 1.80816E+00    6.88857E+00
 1.81357E+00    7.16378E+00
 1.82361E+00    7.67451E+00
 1.87463E+00    1.02699E+01
 1.91346E+00    1.22452E+01
 1.95262E+00    1.42373E+01
 1.97319E+00    1.52837E+01
 2.00000E+00    1.66475E+01
 2.02366E+00    1.69973E+01
 2.05220E+00    1.74192E+01
 2.06373E+00    1.75896E+01
 2.20000E+00    1.96041E+01
 2.40000E+00    1.85044E+01
 2.60000E+00    1.62522E+01
 2.80000E+00    1.38947E+01
 3.00000E+00    1.17543E+01
 3.20000E+00    9.88021E+00
 3.40000E+00    8.23860E+00
 3.60000E+00    6.79481E+00
 3.80000E+00    5.53512E+00
 4.00000E+00    4.45584E+00
 4.20000E+00    3.55179E+00
 4.40000E+00    2.80654E+00
 4.60000E+00    2.20480E+00
 4.80000E+00    1.72532E+00
 5.00000E+00    1.34751E+00
 5.20000E+00    1.05186E+00
 5.40000E+00    8.22073E-01
 5.60000E+00    6.44053E-01
 5.80000E+00    5.06285E-01
 6.00000E+00    3.99685E-01
 6.20000E+00    3.17097E-01
 6.40000E+00    2.52281E-01
 6.60000E+00    2.02165E-01
 6.80000E+00    1.62327E-01
 7.00000E+00    1.31202E-01
 7.20000E+00    1.06467E-01
 7.40000E+00    8.61748E-02
 7.60000E+00    7.03470E-02
 7.80000E+00    5.75429E-02
 8.00000E+00    4.72843E-02
 8.50000E+00    2.92847E-02
 9.00000E+00    1.83881E-02
 9.50000E+00    1.16640E-02
 1.00000E+01    7.46465E-03
 1.05000E+01    4.81759E-03
 1.10000E+01    3.13339E-03
 1.15000E+01    2.04984E-03
 1.20000E+01    1.34686E-03
 1.25000E+01    8.88790E-04
 1.30000E+01    5.88997E-04
 1.35000E+01    3.92111E-04
 1.40000E+01    2.62088E-04
 1.45000E+01    1.75926E-04
 1.50000E+01    1.18574E-04
 1.60000E+01    5.44728E-05
 1.70000E+01    2.54258E-05
 1.80000E+01    1.20587E-05
 1.90000E+01    5.82147E-06
 2.00000E+01    2.85845E-06
 2.10000E+01    1.42787E-06
 2.20000E+01    7.20300E-07
 2.30000E+01    3.63580E-07
 2.40000E+01    1.86790E-07
 2.50000E+01    9.68010E-08
 2.60000E+01    5.06140E-08
 2.70000E+01    2.66350E-08
 2.80000E+01    1.41800E-08
 2.90000E+01    7.62760E-09
 3.00000E+01    4.13410E-09
