# n + Rb 85 : (n,n'13)  
# jeff3.3    A.J. Koning and D. Rochman        EVAL-JAN16
# uncertainties: n
# # energies =    81
#   E(MeV)       xs(mb) 
 1.31133E+00    0.00000E+00
 1.40000E+00    2.22354E+01
 1.40065E+00    2.23628E+01
 1.46223E+00    3.44313E+01
 1.46643E+00    3.52544E+01
 1.51406E+00    4.45889E+01
 1.60000E+00    6.14315E+01
 1.65084E+00    6.42277E+01
 1.68845E+00    6.62962E+01
 1.76856E+00    7.07022E+01
 1.80000E+00    7.24314E+01
 1.80816E+00    7.23720E+01
 1.81357E+00    7.23327E+01
 1.82361E+00    7.22597E+01
 1.87463E+00    7.18885E+01
 1.91346E+00    7.16060E+01
 1.95262E+00    7.13212E+01
 1.97319E+00    7.11715E+01
 2.00000E+00    7.09765E+01
 2.02366E+00    7.02179E+01
 2.05220E+00    6.93029E+01
 2.06373E+00    6.89332E+01
 2.20000E+00    6.45641E+01
 2.40000E+00    5.50821E+01
 2.60000E+00    4.57253E+01
 2.80000E+00    3.76313E+01
 3.00000E+00    3.08180E+01
 3.20000E+00    2.50552E+01
 3.40000E+00    2.01637E+01
 3.60000E+00    1.60458E+01
 3.80000E+00    1.26374E+01
 4.00000E+00    9.86558E+00
 4.20000E+00    7.65452E+00
 4.40000E+00    5.91149E+00
 4.60000E+00    4.55802E+00
 4.80000E+00    3.51562E+00
 5.00000E+00    2.71776E+00
 5.20000E+00    2.10837E+00
 5.40000E+00    1.64407E+00
 5.60000E+00    1.29029E+00
 5.80000E+00    1.01919E+00
 6.00000E+00    8.11322E-01
 6.20000E+00    6.51738E-01
 6.40000E+00    5.26616E-01
 6.60000E+00    4.30399E-01
 6.80000E+00    3.54063E-01
 7.00000E+00    2.94336E-01
 7.20000E+00    2.46901E-01
 7.40000E+00    2.07927E-01
 7.60000E+00    1.77467E-01
 7.80000E+00    1.52797E-01
 8.00000E+00    1.33009E-01
 8.50000E+00    9.81757E-02
 9.00000E+00    7.70093E-02
 9.50000E+00    6.38957E-02
 1.00000E+01    5.56576E-02
 1.05000E+01    5.04109E-02
 1.10000E+01    4.70145E-02
 1.15000E+01    4.47705E-02
 1.20000E+01    4.32544E-02
 1.25000E+01    4.22050E-02
 1.30000E+01    4.14560E-02
 1.35000E+01    4.09021E-02
 1.40000E+01    4.04777E-02
 1.45000E+01    4.01434E-02
 1.50000E+01    3.98753E-02
 1.60000E+01    3.94882E-02
 1.70000E+01    3.92532E-02
 1.80000E+01    3.91230E-02
 1.90000E+01    3.90425E-02
 2.00000E+01    3.89483E-02
 2.10000E+01    3.87868E-02
 2.20000E+01    3.85272E-02
 2.30000E+01    3.81661E-02
 2.40000E+01    3.77214E-02
 2.50000E+01    3.72195E-02
 2.60000E+01    3.66861E-02
 2.70000E+01    3.61384E-02
 2.80000E+01    3.55849E-02
 2.90000E+01    3.50275E-02
 3.00000E+01    3.44633E-02
