# n + Rb 85 : (n,n'09)  
# jeff3.3    A.J. Koning and D. Rochman        EVAL-JAN16
# uncertainties: n
# # energies =    87
#   E(MeV)       xs(mb) 
 9.62246E-01    0.00000E+00
 1.00000E+00    3.19048E+01
 1.18896E+00    1.10231E+02
 1.20000E+00    1.14807E+02
 1.24911E+00    1.19601E+02
 1.30873E+00    1.25422E+02
 1.31133E+00    1.25676E+02
 1.40000E+00    1.34332E+02
 1.40065E+00    1.34303E+02
 1.46223E+00    1.31516E+02
 1.46643E+00    1.31326E+02
 1.51406E+00    1.29170E+02
 1.60000E+00    1.25281E+02
 1.65084E+00    1.22146E+02
 1.68845E+00    1.19827E+02
 1.76856E+00    1.14887E+02
 1.80000E+00    1.12948E+02
 1.80816E+00    1.12368E+02
 1.81357E+00    1.11984E+02
 1.82361E+00    1.11271E+02
 1.87463E+00    1.07646E+02
 1.91346E+00    1.04888E+02
 1.95262E+00    1.02106E+02
 1.97319E+00    1.00644E+02
 2.00000E+00    9.87396E+01
 2.02366E+00    9.70818E+01
 2.05220E+00    9.50820E+01
 2.06373E+00    9.42741E+01
 2.20000E+00    8.47259E+01
 2.40000E+00    6.80281E+01
 2.60000E+00    5.30203E+01
 2.80000E+00    4.11761E+01
 3.00000E+00    3.20730E+01
 3.20000E+00    2.50453E+01
 3.40000E+00    1.95745E+01
 3.60000E+00    1.52934E+01
 3.80000E+00    1.19447E+01
 4.00000E+00    9.32953E+00
 4.20000E+00    7.29698E+00
 4.40000E+00    5.71630E+00
 4.60000E+00    4.49309E+00
 4.80000E+00    3.54611E+00
 5.00000E+00    2.81244E+00
 5.20000E+00    2.24250E+00
 5.40000E+00    1.79814E+00
 5.60000E+00    1.45052E+00
 5.80000E+00    1.17780E+00
 6.00000E+00    9.62299E-01
 6.20000E+00    7.92388E-01
 6.40000E+00    6.55523E-01
 6.60000E+00    5.47284E-01
 6.80000E+00    4.59154E-01
 7.00000E+00    3.88608E-01
 7.20000E+00    3.31225E-01
 7.40000E+00    2.82997E-01
 7.60000E+00    2.44692E-01
 7.80000E+00    2.13073E-01
 8.00000E+00    1.87369E-01
 8.50000E+00    1.41162E-01
 9.00000E+00    1.12419E-01
 9.50000E+00    9.43276E-02
 1.00000E+01    8.28409E-02
 1.05000E+01    7.54725E-02
 1.10000E+01    7.06789E-02
 1.15000E+01    6.74986E-02
 1.20000E+01    6.53391E-02
 1.25000E+01    6.38337E-02
 1.30000E+01    6.27495E-02
 1.35000E+01    6.19403E-02
 1.40000E+01    6.13156E-02
 1.45000E+01    6.08217E-02
 1.50000E+01    6.04259E-02
 1.60000E+01    5.98579E-02
 1.70000E+01    5.95198E-02
 1.80000E+01    5.93384E-02
 1.90000E+01    5.92249E-02
 2.00000E+01    5.90774E-02
 2.10000E+01    5.88106E-02
 2.20000E+01    5.83819E-02
 2.30000E+01    5.77943E-02
 2.40000E+01    5.70834E-02
 2.50000E+01    5.62945E-02
 2.60000E+01    5.54670E-02
 2.70000E+01    5.46255E-02
 2.80000E+01    5.37799E-02
 2.90000E+01    5.29301E-02
 3.00000E+01    5.20694E-02
