# n + Rb 85 : (n,n'11)  
# jeff3.3    A.J. Koning and D. Rochman        EVAL-JAN16
# uncertainties: n
# # energies =    83
#   E(MeV)       xs(mb) 
 1.24911E+00    0.00000E+00
 1.30873E+00    1.65777E+01
 1.31133E+00    1.73006E+01
 1.40000E+00    4.19558E+01
 1.40065E+00    4.20581E+01
 1.46223E+00    5.17452E+01
 1.46643E+00    5.24059E+01
 1.51406E+00    5.98986E+01
 1.60000E+00    7.34178E+01
 1.65084E+00    7.46628E+01
 1.68845E+00    7.55838E+01
 1.76856E+00    7.75456E+01
 1.80000E+00    7.83155E+01
 1.80816E+00    7.81559E+01
 1.81357E+00    7.80500E+01
 1.82361E+00    7.78536E+01
 1.87463E+00    7.68555E+01
 1.91346E+00    7.60958E+01
 1.95262E+00    7.53297E+01
 1.97319E+00    7.49273E+01
 2.00000E+00    7.44028E+01
 2.02366E+00    7.35420E+01
 2.05220E+00    7.25037E+01
 2.06373E+00    7.20843E+01
 2.20000E+00    6.71266E+01
 2.40000E+00    5.72310E+01
 2.60000E+00    4.75496E+01
 2.80000E+00    3.91295E+01
 3.00000E+00    3.19875E+01
 3.20000E+00    2.59217E+01
 3.40000E+00    2.07755E+01
 3.60000E+00    1.64635E+01
 3.80000E+00    1.29145E+01
 4.00000E+00    1.00453E+01
 4.20000E+00    7.76915E+00
 4.40000E+00    5.98387E+00
 4.60000E+00    4.60370E+00
 4.80000E+00    3.54477E+00
 5.00000E+00    2.73680E+00
 5.20000E+00    2.12124E+00
 5.40000E+00    1.65330E+00
 5.60000E+00    1.29701E+00
 5.80000E+00    1.02412E+00
 6.00000E+00    8.15494E-01
 6.20000E+00    6.55064E-01
 6.40000E+00    5.29447E-01
 6.60000E+00    4.32771E-01
 6.80000E+00    3.56053E-01
 7.00000E+00    2.96038E-01
 7.20000E+00    2.48348E-01
 7.40000E+00    2.09137E-01
 7.60000E+00    1.78491E-01
 7.80000E+00    1.53666E-01
 8.00000E+00    1.33730E-01
 8.50000E+00    9.86439E-02
 9.00000E+00    7.73194E-02
 9.50000E+00    6.41101E-02
 1.00000E+01    5.58154E-02
 1.05000E+01    5.05354E-02
 1.10000E+01    4.71192E-02
 1.15000E+01    4.48629E-02
 1.20000E+01    4.33387E-02
 1.25000E+01    4.22836E-02
 1.30000E+01    4.15301E-02
 1.35000E+01    4.09727E-02
 1.40000E+01    4.05457E-02
 1.45000E+01    4.02096E-02
 1.50000E+01    3.99405E-02
 1.60000E+01    3.95533E-02
 1.70000E+01    3.93196E-02
 1.80000E+01    3.91912E-02
 1.90000E+01    3.91120E-02
 2.00000E+01    3.90179E-02
 2.10000E+01    3.88542E-02
 2.20000E+01    3.85906E-02
 2.30000E+01    3.82244E-02
 2.40000E+01    3.77747E-02
 2.50000E+01    3.72686E-02
 2.60000E+01    3.67320E-02
 2.70000E+01    3.61821E-02
 2.80000E+01    3.56269E-02
 2.90000E+01    3.50681E-02
 3.00000E+01    3.45023E-02
