# n + Rb 85 : (n,n'12)  
# jeff3.3    A.J. Koning and D. Rochman        EVAL-JAN16
# uncertainties: n
# # energies =    82
#   E(MeV)       xs(mb) 
 1.30873E+00    0.00000E+00
 1.31133E+00    4.82628E-01
 1.40000E+00    1.69424E+01
 1.40065E+00    1.69856E+01
 1.46223E+00    2.10740E+01
 1.46643E+00    2.13528E+01
 1.51406E+00    2.45151E+01
 1.60000E+00    3.02208E+01
 1.65084E+00    3.21860E+01
 1.68845E+00    3.36398E+01
 1.76856E+00    3.67364E+01
 1.80000E+00    3.79517E+01
 1.80816E+00    3.80260E+01
 1.81357E+00    3.80752E+01
 1.82361E+00    3.81665E+01
 1.87463E+00    3.86308E+01
 1.91346E+00    3.89842E+01
 1.95262E+00    3.93405E+01
 1.97319E+00    3.95277E+01
 2.00000E+00    3.97717E+01
 2.02366E+00    3.97023E+01
 2.05220E+00    3.96186E+01
 2.06373E+00    3.95848E+01
 2.20000E+00    3.91852E+01
 2.40000E+00    3.26709E+01
 2.60000E+00    2.57190E+01
 2.80000E+00    2.03044E+01
 3.00000E+00    1.62202E+01
 3.20000E+00    1.30611E+01
 3.40000E+00    1.05525E+01
 3.60000E+00    8.53144E+00
 3.80000E+00    6.89612E+00
 4.00000E+00    5.57349E+00
 4.20000E+00    4.50851E+00
 4.40000E+00    3.64988E+00
 4.60000E+00    2.96167E+00
 4.80000E+00    2.41016E+00
 5.00000E+00    1.96812E+00
 5.20000E+00    1.61314E+00
 5.40000E+00    1.32810E+00
 5.60000E+00    1.09902E+00
 5.80000E+00    9.13689E-01
 6.00000E+00    7.63821E-01
 6.20000E+00    6.42832E-01
 6.40000E+00    5.42926E-01
 6.60000E+00    4.62563E-01
 6.80000E+00    3.95804E-01
 7.00000E+00    3.41469E-01
 7.20000E+00    2.96615E-01
 7.40000E+00    2.58276E-01
 7.60000E+00    2.27427E-01
 7.80000E+00    2.01693E-01
 8.00000E+00    1.80516E-01
 8.50000E+00    1.41784E-01
 9.00000E+00    1.17066E-01
 9.50000E+00    1.01117E-01
 1.00000E+01    9.07418E-02
 1.05000E+01    8.39255E-02
 1.10000E+01    7.93843E-02
 1.15000E+01    7.63009E-02
 1.20000E+01    7.41531E-02
 1.25000E+01    7.26097E-02
 1.30000E+01    7.14547E-02
 1.35000E+01    7.05498E-02
 1.40000E+01    6.98084E-02
 1.45000E+01    6.91793E-02
 1.50000E+01    6.86315E-02
 1.60000E+01    6.77157E-02
 1.70000E+01    6.69819E-02
 1.80000E+01    6.63679E-02
 1.90000E+01    6.57963E-02
 2.00000E+01    6.51760E-02
 2.10000E+01    6.44306E-02
 2.20000E+01    6.35228E-02
 2.30000E+01    6.24597E-02
 2.40000E+01    6.12811E-02
 2.50000E+01    6.00385E-02
 2.60000E+01    5.87784E-02
 2.70000E+01    5.75318E-02
 2.80000E+01    5.63145E-02
 2.90000E+01    5.51297E-02
 3.00000E+01    5.39729E-02
