# n + Rb 85 : (n,n'10)  
# jeff3.3    A.J. Koning and D. Rochman        EVAL-JAN16
# uncertainties: n
# # energies =    85
#   E(MeV)       xs(mb) 
 1.18896E+00    0.00000E+00
 1.20000E+00    9.27890E+00
 1.24911E+00    2.34160E+01
 1.30873E+00    4.05786E+01
 1.31133E+00    4.13270E+01
 1.40000E+00    6.68521E+01
 1.40065E+00    6.69178E+01
 1.46223E+00    7.31407E+01
 1.46643E+00    7.35651E+01
 1.51406E+00    7.83784E+01
 1.60000E+00    8.70630E+01
 1.65084E+00    8.89446E+01
 1.68845E+00    9.03366E+01
 1.76856E+00    9.33016E+01
 1.80000E+00    9.44652E+01
 1.80816E+00    9.43495E+01
 1.81357E+00    9.42728E+01
 1.82361E+00    9.41305E+01
 1.87463E+00    9.34071E+01
 1.91346E+00    9.28566E+01
 1.95262E+00    9.23014E+01
 1.97319E+00    9.20097E+01
 2.00000E+00    9.16296E+01
 2.02366E+00    9.08536E+01
 2.05220E+00    8.99176E+01
 2.06373E+00    8.95394E+01
 2.20000E+00    8.50701E+01
 2.40000E+00    7.04030E+01
 2.60000E+00    5.49711E+01
 2.80000E+00    4.24994E+01
 3.00000E+00    3.29862E+01
 3.20000E+00    2.57312E+01
 3.40000E+00    2.01369E+01
 3.60000E+00    1.57851E+01
 3.80000E+00    1.23889E+01
 4.00000E+00    9.73456E+00
 4.20000E+00    7.66449E+00
 4.40000E+00    6.04554E+00
 4.60000E+00    4.78399E+00
 4.80000E+00    3.79976E+00
 5.00000E+00    3.03093E+00
 5.20000E+00    2.42826E+00
 5.40000E+00    1.95549E+00
 5.60000E+00    1.58282E+00
 5.80000E+00    1.28757E+00
 6.00000E+00    1.05350E+00
 6.20000E+00    8.67303E-01
 6.40000E+00    7.16530E-01
 6.60000E+00    5.96786E-01
 6.80000E+00    4.98785E-01
 7.00000E+00    4.20013E-01
 7.20000E+00    3.55803E-01
 7.40000E+00    3.01601E-01
 7.60000E+00    2.58439E-01
 7.80000E+00    2.22803E-01
 8.00000E+00    1.93707E-01
 8.50000E+00    1.41336E-01
 9.00000E+00    1.08638E-01
 9.50000E+00    8.79915E-02
 1.00000E+01    7.48501E-02
 1.05000E+01    6.64106E-02
 1.10000E+01    6.09228E-02
 1.15000E+01    5.72931E-02
 1.20000E+01    5.48417E-02
 1.25000E+01    5.31456E-02
 1.30000E+01    5.19335E-02
 1.35000E+01    5.10334E-02
 1.40000E+01    5.03366E-02
 1.45000E+01    4.97765E-02
 1.50000E+01    4.93119E-02
 1.60000E+01    4.85762E-02
 1.70000E+01    4.80152E-02
 1.80000E+01    4.75591E-02
 1.90000E+01    4.71405E-02
 2.00000E+01    4.66873E-02
 2.10000E+01    4.61425E-02
 2.20000E+01    4.54789E-02
 2.30000E+01    4.47037E-02
 2.40000E+01    4.38477E-02
 2.50000E+01    4.29489E-02
 2.60000E+01    4.20404E-02
 2.70000E+01    4.11442E-02
 2.80000E+01    4.02706E-02
 2.90000E+01    3.94209E-02
 3.00000E+01    3.85915E-02
