# n + Rb 85 : (n,n'08)  
# jeff3.3    A.J. Koning and D. Rochman        EVAL-JAN16
# uncertainties: n
# # energies =    88
#   E(MeV)       xs(mb) 
 9.46441E-01    0.00000E+00
 9.62246E-01    1.60941E+01
 1.00000E+00    5.45386E+01
 1.18896E+00    1.83522E+02
 1.20000E+00    1.91058E+02
 1.24911E+00    1.98925E+02
 1.30873E+00    2.08475E+02
 1.31133E+00    2.08891E+02
 1.40000E+00    2.23095E+02
 1.40065E+00    2.23013E+02
 1.46223E+00    2.15286E+02
 1.46643E+00    2.14759E+02
 1.51406E+00    2.08782E+02
 1.60000E+00    1.97997E+02
 1.65084E+00    1.91245E+02
 1.68845E+00    1.86250E+02
 1.76856E+00    1.75611E+02
 1.80000E+00    1.71436E+02
 1.80816E+00    1.70664E+02
 1.81357E+00    1.70152E+02
 1.82361E+00    1.69202E+02
 1.87463E+00    1.64374E+02
 1.91346E+00    1.60700E+02
 1.95262E+00    1.56995E+02
 1.97319E+00    1.55049E+02
 2.00000E+00    1.52512E+02
 2.02366E+00    1.50574E+02
 2.05220E+00    1.48236E+02
 2.06373E+00    1.47291E+02
 2.20000E+00    1.36128E+02
 2.40000E+00    1.13376E+02
 2.60000E+00    9.06049E+01
 2.80000E+00    7.13879E+01
 3.00000E+00    5.58845E+01
 3.20000E+00    4.34862E+01
 3.40000E+00    3.36132E+01
 3.60000E+00    2.58035E+01
 3.80000E+00    1.96946E+01
 4.00000E+00    1.49683E+01
 4.20000E+00    1.13561E+01
 4.40000E+00    8.61123E+00
 4.60000E+00    6.54458E+00
 4.80000E+00    4.99314E+00
 5.00000E+00    3.83003E+00
 5.20000E+00    2.95710E+00
 5.40000E+00    2.29919E+00
 5.60000E+00    1.80193E+00
 5.80000E+00    1.42453E+00
 6.00000E+00    1.13550E+00
 6.20000E+00    9.14512E-01
 6.40000E+00    7.41539E-01
 6.60000E+00    6.08129E-01
 6.80000E+00    5.02210E-01
 7.00000E+00    4.19177E-01
 7.20000E+00    3.52969E-01
 7.40000E+00    2.98397E-01
 7.60000E+00    2.55662E-01
 7.80000E+00    2.20894E-01
 8.00000E+00    1.92966E-01
 8.50000E+00    1.43608E-01
 9.00000E+00    1.13523E-01
 9.50000E+00    9.48633E-02
 1.00000E+01    8.31395E-02
 1.05000E+01    7.56707E-02
 1.10000E+01    7.08301E-02
 1.15000E+01    6.76223E-02
 1.20000E+01    6.54423E-02
 1.25000E+01    6.39198E-02
 1.30000E+01    6.28211E-02
 1.35000E+01    6.20001E-02
 1.40000E+01    6.13662E-02
 1.45000E+01    6.08654E-02
 1.50000E+01    6.04646E-02
 1.60000E+01    5.98907E-02
 1.70000E+01    5.95502E-02
 1.80000E+01    5.93681E-02
 1.90000E+01    5.92543E-02
 2.00000E+01    5.91058E-02
 2.10000E+01    5.88375E-02
 2.20000E+01    5.84067E-02
 2.30000E+01    5.78169E-02
 2.40000E+01    5.71040E-02
 2.50000E+01    5.63135E-02
 2.60000E+01    5.54848E-02
 2.70000E+01    5.46424E-02
 2.80000E+01    5.37961E-02
 2.90000E+01    5.29456E-02
 3.00000E+01    5.20842E-02
