# n + Rb 85 : (n,xa)    
# jeff3.3    A.J. Koning and D. Rochman        EVAL-JAN16
# 
# # energies =   133
#   E(MeV)        xs(mb) 
 1.52957E-01    1.00000E-17
 2.00000E-01    1.00000E-17
 2.84324E-01    1.00000E-17
 3.00000E-01    1.00000E-17
 4.00000E-01    1.00000E-17
 5.00000E-01    1.00000E-17
 5.20114E-01    1.00000E-17
 6.00000E-01    1.00000E-17
 7.00000E-01    1.00000E-17
 7.40515E-01    1.00000E-17
 8.00000E-01    1.00000E-17
 8.79303E-01    1.00000E-17
 8.96343E-01    1.00000E-17
 9.00000E-01    1.00000E-17
 9.30625E-01    1.00000E-17
 9.46441E-01    1.00000E-17
 9.62246E-01    1.00000E-17
 1.00000E+00    1.00500E-17
 1.18896E+00    9.72945E-16
 1.20000E+00    1.03060E-15
 1.24911E+00    7.66423E-15
 1.30873E+00    1.57175E-14
 1.31133E+00    1.60687E-14
 1.40000E+00    2.80460E-14
 1.40065E+00    2.93481E-14
 1.46223E+00    1.52694E-13
 1.46643E+00    1.61107E-13
 1.51406E+00    2.56510E-13
 1.60000E+00    4.28650E-13
 1.65084E+00    1.69689E-12
 1.68845E+00    2.63510E-12
 1.76856E+00    4.63351E-12
 1.80000E+00    5.41780E-12
 1.80816E+00    7.10607E-12
 1.81357E+00    8.22539E-12
 1.82361E+00    1.03026E-11
 1.87463E+00    2.08584E-11
 1.91346E+00    2.88922E-11
 1.95262E+00    3.69943E-11
 1.97319E+00    4.12501E-11
 2.00000E+00    4.67970E-11
 2.02366E+00    7.90293E-11
 2.05220E+00    1.17910E-10
 2.06373E+00    1.33617E-10
 2.20000E+00    3.19260E-10
 2.40000E+00    1.60120E-09
 2.60000E+00    6.57530E-09
 2.80000E+00    2.36200E-08
 3.00000E+00    7.62080E-08
 3.20000E+00    3.06670E-07
 3.40000E+00    8.69820E-07
 3.60000E+00    1.69421E-06
 3.80000E+00    5.36184E-06
 4.00000E+00    1.00435E-05
 4.20000E+00    2.09573E-05
 4.40000E+00    4.21404E-05
 4.60000E+00    7.16630E-05
 4.80000E+00    1.42349E-04
 5.00000E+00    2.39154E-04
 5.20000E+00    4.00749E-04
 5.40000E+00    6.77892E-04
 5.60000E+00    1.07067E-03
 5.80000E+00    1.71204E-03
 6.00000E+00    2.64676E-03
 6.20000E+00    3.92885E-03
 6.40000E+00    5.86773E-03
 6.60000E+00    8.76682E-03
 6.80000E+00    1.22027E-02
 7.00000E+00    1.77554E-02
 7.20000E+00    2.44127E-02
 7.40000E+00    3.28676E-02
 7.60000E+00    4.70734E-02
 7.80000E+00    5.90097E-02
 8.00000E+00    8.22792E-02
 8.50000E+00    1.58958E-01
 9.00000E+00    2.87017E-01
 9.50000E+00    4.84911E-01
 1.00000E+01    7.76142E-01
 1.05000E+01    1.15995E+00
 1.10000E+01    1.64515E+00
 1.15000E+01    2.18592E+00
 1.20000E+01    2.87791E+00
 1.25000E+01    3.67357E+00
 1.30000E+01    4.56802E+00
 1.35000E+01    5.55609E+00
 1.40000E+01    6.63199E+00
 1.45000E+01    7.79166E+00
 1.50000E+01    9.03869E+00
 1.60000E+01    1.18333E+01
 1.70000E+01    1.51993E+01
 1.80000E+01    1.89782E+01
 1.90000E+01    2.24689E+01
 2.00000E+01    2.56940E+01
 2.10000E+01    2.74447E+01
 2.20000E+01    2.96635E+01
 2.30000E+01    3.17693E+01
 2.40000E+01    3.38439E+01
 2.50000E+01    3.57811E+01
 2.60000E+01    3.75962E+01
 2.70000E+01    3.92047E+01
 2.80000E+01    4.06900E+01
 2.90000E+01    4.20666E+01
 3.00000E+01    4.33067E+01
 3.00000E+01    4.33082E+01
 3.20000E+01    4.55966E+01
 3.40000E+01    4.76274E+01
 3.60000E+01    4.94727E+01
 3.80000E+01    5.13103E+01
 4.00000E+01    5.30797E+01
 4.20000E+01    5.52429E+01
 4.40000E+01    5.72107E+01
 4.60000E+01    5.95082E+01
 4.80000E+01    6.17429E+01
 5.00000E+01    6.39537E+01
 5.20000E+01    6.60792E+01
 5.40000E+01    6.81353E+01
 5.60000E+01    7.01307E+01
 5.80000E+01    7.17404E+01
 6.00000E+01    7.34595E+01
 6.50000E+01    7.69243E+01
 7.00000E+01    7.78879E+01
 7.50000E+01    7.71459E+01
 8.00000E+01    7.49470E+01
 9.00000E+01    7.88222E+01
 1.00000E+02    8.83306E+01
 1.10000E+02    9.81583E+01
 1.20000E+02    1.06618E+02
 1.30000E+02    1.16410E+02
 1.40000E+02    1.28176E+02
 1.50000E+02    1.41408E+02
 1.60000E+02    1.56645E+02
 1.80000E+02    1.95299E+02
 2.00000E+02    2.46529E+02
