# n + Rb 85 : (n,n'07)  
# jeff3.3    A.J. Koning and D. Rochman        EVAL-JAN16
# uncertainties: n
# # energies =    89
#   E(MeV)       xs(mb) 
 9.30625E-01    0.00000E+00
 9.46441E-01    2.92836E+00
 9.62246E-01    5.85468E+00
 1.00000E+00    1.28449E+01
 1.18896E+00    3.96007E+01
 1.20000E+00    4.11639E+01
 1.24911E+00    4.29966E+01
 1.30873E+00    4.52214E+01
 1.31133E+00    4.53185E+01
 1.40000E+00    4.86274E+01
 1.40065E+00    4.86198E+01
 1.46223E+00    4.78984E+01
 1.46643E+00    4.78492E+01
 1.51406E+00    4.72912E+01
 1.60000E+00    4.62844E+01
 1.65084E+00    4.54261E+01
 1.68845E+00    4.47912E+01
 1.76856E+00    4.34388E+01
 1.80000E+00    4.29080E+01
 1.80816E+00    4.27816E+01
 1.81357E+00    4.26978E+01
 1.82361E+00    4.25422E+01
 1.87463E+00    4.17517E+01
 1.91346E+00    4.11501E+01
 1.95262E+00    4.05434E+01
 1.97319E+00    4.02247E+01
 2.00000E+00    3.98093E+01
 2.02366E+00    3.94080E+01
 2.05220E+00    3.89239E+01
 2.06373E+00    3.87283E+01
 2.20000E+00    3.64168E+01
 2.40000E+00    3.21375E+01
 2.60000E+00    2.75767E+01
 2.80000E+00    2.30986E+01
 3.00000E+00    1.89460E+01
 3.20000E+00    1.52596E+01
 3.40000E+00    1.20999E+01
 3.60000E+00    9.46842E+00
 3.80000E+00    7.33362E+00
 4.00000E+00    5.63732E+00
 4.20000E+00    4.31455E+00
 4.40000E+00    3.29342E+00
 4.60000E+00    2.51480E+00
 4.80000E+00    1.92411E+00
 5.00000E+00    1.47740E+00
 5.20000E+00    1.13959E+00
 5.40000E+00    8.83303E-01
 5.60000E+00    6.88618E-01
 5.80000E+00    5.40116E-01
 6.00000E+00    4.25955E-01
 6.20000E+00    3.38405E-01
 6.40000E+00    2.69700E-01
 6.60000E+00    2.16606E-01
 6.80000E+00    1.74405E-01
 7.00000E+00    1.41288E-01
 7.20000E+00    1.14874E-01
 7.40000E+00    9.31219E-02
 7.60000E+00    7.60862E-02
 7.80000E+00    6.22444E-02
 8.00000E+00    5.11378E-02
 8.50000E+00    3.15677E-02
 9.00000E+00    1.97175E-02
 9.50000E+00    1.24368E-02
 1.00000E+01    7.91942E-03
 1.05000E+01    5.09051E-03
 1.10000E+01    3.30021E-03
 1.15000E+01    2.15304E-03
 1.20000E+01    1.41104E-03
 1.25000E+01    9.28817E-04
 1.30000E+01    6.14032E-04
 1.35000E+01    4.07845E-04
 1.40000E+01    2.72031E-04
 1.45000E+01    1.82248E-04
 1.50000E+01    1.22617E-04
 1.60000E+01    5.61524E-05
 1.70000E+01    2.61459E-05
 1.80000E+01    1.23816E-05
 1.90000E+01    5.97286E-06
 2.00000E+01    2.93078E-06
 2.10000E+01    1.46219E-06
 2.20000E+01    7.36190E-07
 2.30000E+01    3.70770E-07
 2.40000E+01    1.90080E-07
 2.50000E+01    9.83440E-08
 2.60000E+01    5.13650E-08
 2.70000E+01    2.70130E-08
 2.80000E+01    1.43760E-08
 2.90000E+01    7.73150E-09
 3.00000E+01    4.18950E-09
