# n + Rb 85 : (n,n'05)  
# jeff3.3    A.J. Koning and D. Rochman        EVAL-JAN16
# uncertainties: n
# # energies =    92
#   E(MeV)       xs(mb) 
 8.79303E-01    0.00000E+00
 8.96343E-01    2.26509E+01
 9.00000E-01    2.75120E+01
 9.30625E-01    6.79707E+01
 9.46441E-01    8.88652E+01
 9.62246E-01    1.09745E+02
 1.00000E+00    1.59622E+02
 1.18896E+00    2.74648E+02
 1.20000E+00    2.81369E+02
 1.24911E+00    2.85819E+02
 1.30873E+00    2.91222E+02
 1.31133E+00    2.91458E+02
 1.40000E+00    2.99493E+02
 1.40065E+00    2.99367E+02
 1.46223E+00    2.87407E+02
 1.46643E+00    2.86592E+02
 1.51406E+00    2.77341E+02
 1.60000E+00    2.60651E+02
 1.65084E+00    2.51979E+02
 1.68845E+00    2.45564E+02
 1.76856E+00    2.31899E+02
 1.80000E+00    2.26536E+02
 1.80816E+00    2.25598E+02
 1.81357E+00    2.24976E+02
 1.82361E+00    2.23822E+02
 1.87463E+00    2.17958E+02
 1.91346E+00    2.13495E+02
 1.95262E+00    2.08995E+02
 1.97319E+00    2.06630E+02
 2.00000E+00    2.03549E+02
 2.02366E+00    2.01194E+02
 2.05220E+00    1.98353E+02
 2.06373E+00    1.97205E+02
 2.20000E+00    1.83641E+02
 2.40000E+00    1.50577E+02
 2.60000E+00    1.17043E+02
 2.80000E+00    8.97578E+01
 3.00000E+00    6.86609E+01
 3.20000E+00    5.24338E+01
 3.40000E+00    3.99157E+01
 3.60000E+00    3.02616E+01
 3.80000E+00    2.28625E+01
 4.00000E+00    1.72327E+01
 4.20000E+00    1.29888E+01
 4.40000E+00    9.80076E+00
 4.60000E+00    7.42279E+00
 4.80000E+00    5.65116E+00
 5.00000E+00    4.33120E+00
 5.20000E+00    3.34455E+00
 5.40000E+00    2.60291E+00
 5.60000E+00    2.04474E+00
 5.80000E+00    1.62079E+00
 6.00000E+00    1.29652E+00
 6.20000E+00    1.04839E+00
 6.40000E+00    8.53906E-01
 6.60000E+00    7.03772E-01
 6.80000E+00    5.84334E-01
 7.00000E+00    4.90511E-01
 7.20000E+00    4.15556E-01
 7.40000E+00    3.53651E-01
 7.60000E+00    3.05049E-01
 7.80000E+00    2.65470E-01
 8.00000E+00    2.33615E-01
 8.50000E+00    1.77181E-01
 9.00000E+00    1.42664E-01
 9.50000E+00    1.21178E-01
 1.00000E+01    1.07622E-01
 1.05000E+01    9.89411E-02
 1.10000E+01    9.32779E-02
 1.15000E+01    8.94951E-02
 1.20000E+01    8.68986E-02
 1.25000E+01    8.50628E-02
 1.30000E+01    8.37194E-02
 1.35000E+01    8.27010E-02
 1.40000E+01    8.19039E-02
 1.45000E+01    8.12669E-02
 1.50000E+01    8.07524E-02
 1.60000E+01    8.00094E-02
 1.70000E+01    7.95665E-02
 1.80000E+01    7.93291E-02
 1.90000E+01    7.91786E-02
 2.00000E+01    7.89770E-02
 2.10000E+01    7.86109E-02
 2.20000E+01    7.80247E-02
 2.30000E+01    7.72256E-02
 2.40000E+01    7.62635E-02
 2.50000E+01    7.52003E-02
 2.60000E+01    7.40886E-02
 2.70000E+01    7.29603E-02
 2.80000E+01    7.18278E-02
 2.90000E+01    7.06898E-02
 3.00000E+01    6.95372E-02
