# n + Rb 85 : (n,xp)    
# jeff3.3    A.J. Koning and D. Rochman        EVAL-JAN16
# 
# # energies =   133
#   E(MeV)        xs(mb) 
 1.52957E-01    1.00000E-17
 2.00000E-01    1.00000E-17
 2.84324E-01    1.00000E-17
 3.00000E-01    2.32300E-16
 4.00000E-01    4.16870E-12
 5.00000E-01    2.71810E-10
 5.20114E-01    1.13880E-09
 6.00000E-01    4.63645E-09
 7.00000E-01    5.55490E-08
 7.40515E-01    2.15106E-07
 8.00000E-01    4.49370E-07
 8.79303E-01    2.11908E-06
 8.96343E-01    2.47785E-06
 9.00000E-01    2.55485E-06
 9.30625E-01    4.70962E-06
 9.46441E-01    5.82243E-06
 9.62246E-01    6.93447E-06
 1.00000E+00    9.59084E-06
 1.18896E+00    8.43415E-05
 1.20000E+00    8.87088E-05
 1.24911E+00    1.99769E-04
 1.30873E+00    3.34597E-04
 1.31133E+00    3.40477E-04
 1.40000E+00    5.41000E-04
 1.40065E+00    5.46349E-04
 1.46223E+00    1.05305E-03
 1.46643E+00    1.08761E-03
 1.51406E+00    1.47953E-03
 1.60000E+00    2.18668E-03
 1.65084E+00    3.43474E-03
 1.68845E+00    4.35803E-03
 1.76856E+00    6.32464E-03
 1.80000E+00    7.09645E-03
 1.80816E+00    7.59249E-03
 1.81357E+00    7.92136E-03
 1.82361E+00    8.53168E-03
 1.87463E+00    1.16332E-02
 1.91346E+00    1.39936E-02
 1.95262E+00    1.63741E-02
 1.97319E+00    1.76245E-02
 2.00000E+00    1.92543E-02
 2.02366E+00    2.21542E-02
 2.05220E+00    2.56523E-02
 2.06373E+00    2.70655E-02
 2.20000E+00    4.37678E-02
 2.40000E+00    7.68534E-02
 2.60000E+00    1.15497E-01
 2.80000E+00    1.59630E-01
 3.00000E+00    2.09121E-01
 3.20000E+00    2.63427E-01
 3.40000E+00    3.21888E-01
 3.60000E+00    3.84124E-01
 3.80000E+00    4.50508E-01
 4.00000E+00    5.21781E-01
 4.20000E+00    6.01643E-01
 4.40000E+00    6.84667E-01
 4.60000E+00    7.77047E-01
 4.80000E+00    8.80084E-01
 5.00000E+00    9.96866E-01
 5.20000E+00    1.12699E+00
 5.40000E+00    1.28876E+00
 5.60000E+00    1.46035E+00
 5.80000E+00    1.68296E+00
 6.00000E+00    1.93975E+00
 6.20000E+00    2.25538E+00
 6.40000E+00    2.60974E+00
 6.60000E+00    3.11552E+00
 6.80000E+00    3.47857E+00
 7.00000E+00    4.15159E+00
 7.20000E+00    4.84757E+00
 7.40000E+00    5.41285E+00
 7.60000E+00    6.42810E+00
 7.80000E+00    6.95957E+00
 8.00000E+00    8.07192E+00
 8.50000E+00    1.07409E+01
 9.00000E+00    1.39121E+01
 9.50000E+00    1.81291E+01
 1.00000E+01    2.53243E+01
 1.05000E+01    3.81983E+01
 1.10000E+01    5.27525E+01
 1.15000E+01    5.96930E+01
 1.20000E+01    6.46768E+01
 1.25000E+01    6.67564E+01
 1.30000E+01    6.98671E+01
 1.35000E+01    7.33537E+01
 1.40000E+01    7.73297E+01
 1.45000E+01    8.19347E+01
 1.50000E+01    8.72840E+01
 1.60000E+01    9.99117E+01
 1.70000E+01    1.13394E+02
 1.80000E+01    1.28135E+02
 1.90000E+01    1.43486E+02
 2.00000E+01    1.59791E+02
 2.10000E+01    1.75760E+02
 2.20000E+01    1.91017E+02
 2.30000E+01    2.06071E+02
 2.40000E+01    2.20011E+02
 2.50000E+01    2.33471E+02
 2.60000E+01    2.46622E+02
 2.70000E+01    2.59061E+02
 2.80000E+01    2.71682E+02
 2.90000E+01    2.83628E+02
 3.00000E+01    2.96372E+02
 3.00000E+01    2.95442E+02
 3.20000E+01    3.21363E+02
 3.40000E+01    3.46524E+02
 3.60000E+01    3.66594E+02
 3.80000E+01    3.82377E+02
 4.00000E+01    3.96199E+02
 4.20000E+01    4.09492E+02
 4.40000E+01    4.19874E+02
 4.60000E+01    4.30099E+02
 4.80000E+01    4.38306E+02
 5.00000E+01    4.45546E+02
 5.20000E+01    4.51952E+02
 5.40000E+01    4.57987E+02
 5.60000E+01    4.63590E+02
 5.80000E+01    4.68012E+02
 6.00000E+01    4.71963E+02
 6.50000E+01    4.81573E+02
 7.00000E+01    4.84798E+02
 7.50000E+01    4.85450E+02
 8.00000E+01    4.82025E+02
 9.00000E+01    5.04956E+02
 1.00000E+02    5.39781E+02
 1.10000E+02    5.83153E+02
 1.20000E+02    6.33868E+02
 1.30000E+02    6.89940E+02
 1.40000E+02    7.68766E+02
 1.50000E+02    8.64403E+02
 1.60000E+02    9.73300E+02
 1.80000E+02    1.24654E+03
 2.00000E+02    1.64513E+03
