# n + Rb 85 : (n,n'06)  
# jeff3.3    A.J. Koning and D. Rochman        EVAL-JAN16
# uncertainties: n
# # energies =    91
#   E(MeV)       xs(mb) 
 8.96343E-01    0.00000E+00
 9.00000E-01    9.84271E-01
 9.30625E-01    7.25335E+00
 9.46441E-01    1.04910E+01
 9.62246E-01    1.37263E+01
 1.00000E+00    2.14547E+01
 1.18896E+00    4.50035E+01
 1.20000E+00    4.63794E+01
 1.24911E+00    4.75334E+01
 1.30873E+00    4.89344E+01
 1.31133E+00    4.89955E+01
 1.40000E+00    5.10791E+01
 1.40065E+00    5.10682E+01
 1.46223E+00    5.00319E+01
 1.46643E+00    4.99612E+01
 1.51406E+00    4.91596E+01
 1.60000E+00    4.77134E+01
 1.65084E+00    4.67726E+01
 1.68845E+00    4.60766E+01
 1.76856E+00    4.45942E+01
 1.80000E+00    4.40124E+01
 1.80816E+00    4.38825E+01
 1.81357E+00    4.37964E+01
 1.82361E+00    4.36367E+01
 1.87463E+00    4.28247E+01
 1.91346E+00    4.22067E+01
 1.95262E+00    4.15835E+01
 1.97319E+00    4.12562E+01
 2.00000E+00    4.08295E+01
 2.02366E+00    4.04238E+01
 2.05220E+00    3.99343E+01
 2.06373E+00    3.97366E+01
 2.20000E+00    3.73996E+01
 2.40000E+00    3.29962E+01
 2.60000E+00    2.82571E+01
 2.80000E+00    2.36017E+01
 3.00000E+00    1.92985E+01
 3.20000E+00    1.54988E+01
 3.40000E+00    1.22580E+01
 3.60000E+00    9.57048E+00
 3.80000E+00    7.39831E+00
 4.00000E+00    5.67782E+00
 4.20000E+00    4.33982E+00
 4.40000E+00    3.30928E+00
 4.60000E+00    2.52494E+00
 4.80000E+00    1.93080E+00
 5.00000E+00    1.48205E+00
 5.20000E+00    1.14290E+00
 5.40000E+00    8.85672E-01
 5.60000E+00    6.90565E-01
 5.80000E+00    5.41629E-01
 6.00000E+00    4.27213E-01
 6.20000E+00    3.39438E-01
 6.40000E+00    2.70547E-01
 6.60000E+00    2.17316E-01
 6.80000E+00    1.74995E-01
 7.00000E+00    1.41774E-01
 7.20000E+00    1.15275E-01
 7.40000E+00    9.34519E-02
 7.60000E+00    7.63511E-02
 7.80000E+00    6.24602E-02
 8.00000E+00    5.13121E-02
 8.50000E+00    3.16684E-02
 9.00000E+00    1.97752E-02
 9.50000E+00    1.24701E-02
 1.00000E+01    7.93914E-03
 1.05000E+01    5.10244E-03
 1.10000E+01    3.30754E-03
 1.15000E+01    2.15758E-03
 1.20000E+01    1.41386E-03
 1.25000E+01    9.30572E-04
 1.30000E+01    6.15128E-04
 1.35000E+01    4.08534E-04
 1.40000E+01    2.72467E-04
 1.45000E+01    1.82525E-04
 1.50000E+01    1.22794E-04
 1.60000E+01    5.62260E-05
 1.70000E+01    2.61776E-05
 1.80000E+01    1.23960E-05
 1.90000E+01    5.97961E-06
 2.00000E+01    2.93399E-06
 2.10000E+01    1.46370E-06
 2.20000E+01    7.36880E-07
 2.30000E+01    3.71080E-07
 2.40000E+01    1.90220E-07
 2.50000E+01    9.84120E-08
 2.60000E+01    5.13980E-08
 2.70000E+01    2.70300E-08
 2.80000E+01    1.43850E-08
 2.90000E+01    7.73620E-09
 3.00000E+01    4.19200E-09
