# n + Cm245 : (n,tot)   
# jendl.ad   O.Iwamoto,T.Nakagawa,T.Ohsawa,+   EVAL-JAN10
# uncertainties: n
# # energies =   171
#   E(MeV)       xs(mb) 
 1.00000E-11    3.11584E+07
 1.00000E-07    3.93318E+05
 4.13990E-07    2.06593E+05
 5.31580E-07    2.14306E+05
 6.82560E-07    2.25617E+05
 8.76420E-07    1.88544E+05
 1.12540E-06    1.20994E+05
 1.44500E-06    1.54919E+05
 1.85540E-06    3.98175E+05
 2.37240E-06    1.22849E+05
 3.05900E-06    6.30052E+04
 3.92790E-06    6.37697E+05
 5.04350E-06    1.27444E+05
 6.47600E-06    3.51196E+05
 8.31530E-06    1.23595E+05
 1.06770E-05    6.75735E+04
 1.37100E-05    3.95139E+04
 1.76030E-05    4.73661E+04
 2.26030E-05    6.21319E+04
 2.92030E-05    8.84336E+04
 3.72670E-05    6.74444E+04
 4.78510E-05    9.89160E+04
 6.14420E-05    6.68029E+04
 7.88930E-05    5.54700E+04
 1.01300E-04    5.52483E+04
 1.30070E-04    4.03633E+04
 1.67020E-04    2.96619E+04
 2.14450E-04    2.55520E+04
 2.75360E-04    2.34713E+04
 3.53580E-04    2.15345E+04
 4.54000E-04    1.87821E+04
 5.82950E-04    1.67104E+04
 7.48520E-04    1.43298E+04
 9.61120E-04    1.22889E+04
 1.23410E-03    1.17811E+04
 1.58460E-03    9.88114E+03
 2.03470E-03    8.74181E+03
 2.24870E-03    8.54145E+03
 2.48520E-03    8.39700E+03
 2.61260E-03    8.30138E+03
 2.74650E-03    8.15623E+03
 3.03540E-03    7.76236E+03
 3.35460E-03    7.25204E+03
 3.70740E-03    6.73766E+03
 4.30740E-03    6.58830E+03
 5.53080E-03    6.08943E+03
 7.10170E-03    5.28053E+03
 9.11880E-03    4.84203E+03
 1.17090E-02    4.30373E+03
 1.50340E-02    3.86940E+03
 1.93050E-02    3.62466E+03
 2.18750E-02    3.52548E+03
 2.35790E-02    3.47882E+03
 2.41760E-02    3.45562E+03
 2.47880E-02    3.41971E+03
 2.60580E-02    3.37843E+03
 2.70000E-02    3.33797E+03
 2.85000E-02    3.27280E+03
 3.18280E-02    3.23992E+03
 3.43070E-02    3.20434E+03
 4.08680E-02    3.12013E+03
 4.63090E-02    3.02285E+03
 5.24750E-02    2.95466E+03
 5.65620E-02    2.86657E+03
 6.73790E-02    2.78366E+03
 7.20000E-02    2.72727E+03
 7.95000E-02    2.68813E+03
 8.25000E-02    2.68182E+03
 8.65170E-02    2.67013E+03
 9.80370E-02    2.64807E+03
 1.11090E-01    2.62498E+03
 1.16790E-01    2.61137E+03
 1.22770E-01    2.59694E+03
 1.29070E-01    2.58149E+03
 1.35690E-01    2.56556E+03
 1.42640E-01    2.55090E+03
 1.49960E-01    2.53328E+03
 1.57640E-01    2.51206E+03
 1.65730E-01    2.48991E+03
 1.74220E-01    2.46767E+03
 1.83160E-01    2.44540E+03
 1.92550E-01    2.42356E+03
 2.02420E-01    2.39112E+03
 2.12800E-01    2.35292E+03
 2.23710E-01    2.31504E+03
 2.35180E-01    2.27878E+03
 2.47240E-01    2.22348E+03
 2.73240E-01    2.16766E+03
 2.87250E-01    2.13986E+03
 2.94520E-01    2.12753E+03
 2.97200E-01    2.12235E+03
 2.98500E-01    2.11655E+03
 3.01970E-01    2.09151E+03
 3.33730E-01    2.04589E+03
 3.68830E-01    2.01111E+03
 3.87740E-01    1.98677E+03
 4.07620E-01    1.94986E+03
 4.50490E-01    1.90070E+03
 4.97870E-01    1.86299E+03
 5.23400E-01    1.83376E+03
 5.50230E-01    1.80295E+03
 5.78440E-01    1.77293E+03
 6.08100E-01    1.75072E+03
 6.39280E-01    1.73134E+03
 6.72060E-01    1.71174E+03
 7.06510E-01    1.70191E+03
 7.42740E-01    1.69726E+03
 7.80820E-01    1.69434E+03
 8.20850E-01    1.70024E+03
 8.62940E-01    1.70830E+03
 9.07180E-01    1.71782E+03
 9.61640E-01    1.72744E+03
 1.00260E+00    1.73798E+03
 1.10800E+00    1.74889E+03
 1.16480E+00    1.75833E+03
 1.22460E+00    1.77881E+03
 1.28730E+00    1.80294E+03
 1.35340E+00    1.82820E+03
 1.42270E+00    1.85422E+03
 1.49570E+00    1.87968E+03
 1.57240E+00    1.90647E+03
 1.65300E+00    1.92838E+03
 1.73770E+00    1.90327E+03
 1.82680E+00    1.86668E+03
 1.92050E+00    1.83141E+03
 2.01900E+00    1.80941E+03
 2.12250E+00    1.79372E+03
 2.23130E+00    1.78042E+03
 2.30690E+00    1.77225E+03
 2.34570E+00    1.76808E+03
 2.36530E+00    1.76528E+03
 2.38520E+00    1.75893E+03
 2.46600E+00    1.74706E+03
 2.59240E+00    1.73248E+03
 2.72530E+00    1.71741E+03
 2.86500E+00    1.70217E+03
 3.01190E+00    1.68736E+03
 3.16640E+00    1.67224E+03
 3.32870E+00    1.64853E+03
 3.67880E+00    1.61842E+03
 4.06570E+00    1.61285E+03
 4.49330E+00    1.61915E+03
 4.72370E+00    1.62373E+03
 4.96590E+00    1.61518E+03
 5.22050E+00    1.58362E+03
 5.48810E+00    1.58618E+03
 5.76950E+00    1.63639E+03
 6.06530E+00    1.80862E+03
 6.37630E+00    1.99773E+03
 6.59240E+00    2.07329E+03
 6.70320E+00    2.15977E+03
 7.04690E+00    2.29765E+03
 7.40820E+00    2.44707E+03
 7.78800E+00    2.60119E+03
 8.18730E+00    2.69524E+03
 8.60710E+00    2.75039E+03
 9.04840E+00    2.78693E+03
 9.51230E+00    2.82244E+03
 1.00000E+01    2.85887E+03
 1.05130E+01    2.89024E+03
 1.10520E+01    2.91453E+03
 1.16180E+01    2.92836E+03
 1.22140E+01    2.91162E+03
 1.28400E+01    2.86236E+03
 1.34990E+01    2.81456E+03
 1.38400E+01    2.78121E+03
 1.41910E+01    2.75044E+03
 1.45500E+01    2.72413E+03
 1.49180E+01    2.69836E+03
 1.56830E+01    2.67727E+03
 1.64870E+01    2.66866E+03
