# n + Cm245 : (n,f)     
# jendl.ad   O.Iwamoto,T.Nakagawa,T.Ohsawa,+   EVAL-JAN10
# uncertainties: n
# # energies =   171
#   E(MeV)       xs(mb) 
 1.00000E-11    2.65780E+07
 1.00000E-07    3.45614E+05
 4.13990E-07    1.89542E+05
 5.31580E-07    1.98630E+05
 6.82560E-07    2.10348E+05
 8.76420E-07    1.75390E+05
 1.12540E-06    1.10259E+05
 1.44500E-06    1.30989E+05
 1.85540E-06    3.26922E+05
 2.37240E-06    1.09259E+05
 3.05900E-06    5.68425E+04
 3.92790E-06    5.78758E+05
 5.04350E-06    1.15790E+05
 6.47600E-06    3.00997E+05
 8.31530E-06    1.11546E+05
 1.06770E-05    5.63150E+04
 1.37100E-05    3.53139E+04
 1.76030E-05    4.48352E+04
 2.26030E-05    5.23293E+04
 2.92030E-05    7.41941E+04
 3.72670E-05    6.01419E+04
 4.78510E-05    9.27887E+04
 6.14420E-05    6.15200E+04
 7.88930E-05    5.27032E+04
 1.01300E-04    4.78330E+04
 1.30070E-04    3.38610E+04
 1.67020E-04    2.39541E+04
 2.14450E-04    2.05451E+04
 2.75360E-04    1.90873E+04
 3.53580E-04    1.76943E+04
 4.54000E-04    1.54185E+04
 5.82950E-04    1.37633E+04
 7.48520E-04    1.17440E+04
 9.61120E-04    1.00256E+04
 1.23410E-03    9.79375E+03
 1.58460E-03    8.13334E+03
 2.03470E-03    7.14752E+03
 2.24870E-03    7.02474E+03
 2.48520E-03    6.93685E+03
 2.61260E-03    6.87718E+03
 2.74650E-03    6.78537E+03
 3.03540E-03    6.45373E+03
 3.35460E-03    6.00390E+03
 3.70740E-03    5.56121E+03
 4.30740E-03    5.51672E+03
 5.53080E-03    5.12748E+03
 7.10170E-03    4.41145E+03
 9.11880E-03    4.04910E+03
 1.17090E-02    3.57041E+03
 1.50340E-02    3.19201E+03
 1.93050E-02    2.98457E+03
 2.18750E-02    2.90137E+03
 2.35790E-02    2.86235E+03
 2.41760E-02    2.84327E+03
 2.47880E-02    2.81370E+03
 2.60580E-02    2.77886E+03
 2.70000E-02    2.74512E+03
 2.85000E-02    2.69242E+03
 3.18280E-02    2.67279E+03
 3.43070E-02    2.65443E+03
 4.08680E-02    2.59105E+03
 4.63090E-02    2.50988E+03
 5.24750E-02    2.45437E+03
 5.65620E-02    2.38856E+03
 6.73790E-02    2.32794E+03
 7.20000E-02    2.28674E+03
 7.95000E-02    2.25864E+03
 8.25000E-02    2.25958E+03
 8.65170E-02    2.26226E+03
 9.80370E-02    2.26009E+03
 1.11090E-01    2.25025E+03
 1.16790E-01    2.24406E+03
 1.22770E-01    2.23756E+03
 1.29070E-01    2.23072E+03
 1.35690E-01    2.22353E+03
 1.42640E-01    2.21597E+03
 1.49960E-01    2.20732E+03
 1.57640E-01    2.19500E+03
 1.65730E-01    2.18164E+03
 1.74220E-01    2.16760E+03
 1.83160E-01    2.15283E+03
 1.92550E-01    2.13680E+03
 2.02420E-01    2.11179E+03
 2.12800E-01    2.08070E+03
 2.23710E-01    2.04848E+03
 2.35180E-01    2.01836E+03
 2.47240E-01    1.97265E+03
 2.73240E-01    1.92875E+03
 2.87250E-01    1.90606E+03
 2.94520E-01    1.89546E+03
 2.97200E-01    1.89143E+03
 2.98500E-01    1.88863E+03
 3.01970E-01    1.87037E+03
 3.33730E-01    1.83859E+03
 3.68830E-01    1.81402E+03
 3.87740E-01    1.79933E+03
 4.07620E-01    1.77592E+03
 4.50490E-01    1.74272E+03
 4.97870E-01    1.71658E+03
 5.23400E-01    1.69494E+03
 5.50230E-01    1.67149E+03
 5.78440E-01    1.64731E+03
 6.08100E-01    1.63111E+03
 6.39280E-01    1.61768E+03
 6.72060E-01    1.60383E+03
 7.06510E-01    1.59962E+03
 7.42740E-01    1.60056E+03
 7.80820E-01    1.60229E+03
 8.20850E-01    1.61209E+03
 8.62940E-01    1.62456E+03
 9.07180E-01    1.63879E+03
 9.61640E-01    1.65261E+03
 1.00260E+00    1.67010E+03
 1.10800E+00    1.68691E+03
 1.16480E+00    1.69994E+03
 1.22460E+00    1.72348E+03
 1.28730E+00    1.75063E+03
 1.35340E+00    1.77917E+03
 1.42270E+00    1.80912E+03
 1.49570E+00    1.83866E+03
 1.57240E+00    1.86861E+03
 1.65300E+00    1.89400E+03
 1.73770E+00    1.87267E+03
 1.82680E+00    1.83994E+03
 1.92050E+00    1.80659E+03
 2.01900E+00    1.78777E+03
 2.12250E+00    1.77536E+03
 2.23130E+00    1.76454E+03
 2.30690E+00    1.75783E+03
 2.34570E+00    1.75441E+03
 2.36530E+00    1.75209E+03
 2.38520E+00    1.74623E+03
 2.46600E+00    1.73523E+03
 2.59240E+00    1.72306E+03
 2.72530E+00    1.71030E+03
 2.86500E+00    1.69688E+03
 3.01190E+00    1.68277E+03
 3.16640E+00    1.66804E+03
 3.32870E+00    1.64632E+03
 3.67880E+00    1.61657E+03
 4.06570E+00    1.61151E+03
 4.49330E+00    1.61814E+03
 4.72370E+00    1.62287E+03
 4.96590E+00    1.61442E+03
 5.22050E+00    1.58291E+03
 5.48810E+00    1.58549E+03
 5.76950E+00    1.63220E+03
 6.06530E+00    1.69922E+03
 6.37630E+00    1.76448E+03
 6.59240E+00    1.80497E+03
 6.70320E+00    1.86116E+03
 7.04690E+00    1.97518E+03
 7.40820E+00    2.11151E+03
 7.78800E+00    2.24667E+03
 8.18730E+00    2.32915E+03
 8.60710E+00    2.36788E+03
 9.04840E+00    2.38556E+03
 9.51230E+00    2.39508E+03
 1.00000E+01    2.40008E+03
 1.05130E+01    2.40022E+03
 1.10520E+01    2.39589E+03
 1.16180E+01    2.38816E+03
 1.22140E+01    2.38003E+03
 1.28400E+01    2.37116E+03
 1.34990E+01    2.36408E+03
 1.38400E+01    2.35921E+03
 1.41910E+01    2.35499E+03
 1.45500E+01    2.35210E+03
 1.49180E+01    2.35189E+03
 1.56830E+01    2.35701E+03
 1.64870E+01    2.36867E+03
