# n + Cf250 : (n,xn)    
# jeff3.3    O.Iwamoto,T.Nakagawa,+            EVAL-FEB10
# 
# # energies =    70
#   E(MeV)        xs(mb) 
 4.28943E-02    0.00000E+00
 5.00000E-02    1.35358E+02
 7.00000E-02    4.51533E+02
 1.00000E-01    7.53757E+02
 1.10000E-01    8.18957E+02
 1.20000E-01    8.84167E+02
 1.40000E-01    9.96007E+02
 1.42457E-01    1.00923E+03
 1.70000E-01    1.13786E+03
 2.00000E-01    1.27667E+03
 2.50000E-01    1.41913E+03
 2.97425E-01    1.54076E+03
 3.00000E-01    1.54773E+03
 4.00000E-01    1.65566E+03
 5.00000E-01    1.79717E+03
 5.02017E-01    1.79827E+03
 6.00000E-01    1.85194E+03
 7.00000E-01    1.94028E+03
 8.00000E-01    2.02394E+03
 9.00000E-01    2.08777E+03
 1.00000E+00    2.11829E+03
 1.10000E+00    2.10757E+03
 1.20000E+00    2.07817E+03
 1.30000E+00    2.04408E+03
 1.40000E+00    2.01938E+03
 1.50000E+00    1.99252E+03
 1.60000E+00    1.97209E+03
 1.70000E+00    1.94469E+03
 1.80000E+00    1.91940E+03
 1.90000E+00    1.88609E+03
 2.00000E+00    1.85330E+03
 2.10000E+00    1.81398E+03
 2.30000E+00    1.73599E+03
 2.50000E+00    1.65346E+03
 2.70000E+00    1.57352E+03
 3.00000E+00    1.46144E+03
 3.50000E+00    1.32138E+03
 4.00000E+00    1.22601E+03
 4.50000E+00    1.19156E+03
 5.00000E+00    1.18338E+03
 5.50000E+00    1.19061E+03
 6.00000E+00    1.17266E+03
 6.50000E+00    1.09376E+03
 7.00000E+00    1.01312E+03
 7.50000E+00    1.06121E+03
 8.00000E+00    1.17450E+03
 8.50000E+00    1.25040E+03
 9.00000E+00    1.28230E+03
 9.50000E+00    1.27429E+03
 1.00000E+01    1.25398E+03
 1.05000E+01    1.22586E+03
 1.10000E+01    1.20745E+03
 1.15000E+01    1.19631E+03
 1.20000E+01    1.19068E+03
 1.25000E+01    1.18344E+03
 1.30000E+01    1.17136E+03
 1.35000E+01    1.16121E+03
 1.40000E+01    1.14767E+03
 1.45000E+01    1.12806E+03
 1.50000E+01    1.10435E+03
 1.55000E+01    1.07581E+03
 1.60000E+01    1.06047E+03
 1.65000E+01    1.03151E+03
 1.70000E+01    1.01667E+03
 1.75000E+01    9.97090E+02
 1.80000E+01    9.85538E+02
 1.85000E+01    9.73020E+02
 1.90000E+01    9.62076E+02
 1.95000E+01    9.44732E+02
 2.00000E+01    9.26431E+02
