# n + Pt196 : (n,n'18)  
# tendl.2019 A.J. Koning and D. Rochman        EVAL-NOV19
# uncertainties: n
# # energies =    74
#   E(MeV)       xs(mb) 
 1.68846E+00    0.00000E+00
 1.76369E+00    9.76385E-01
 1.80000E+00    1.44764E+00
 1.80433E+00    1.51183E+00
 1.81158E+00    1.61931E+00
 1.81409E+00    1.65652E+00
 1.83006E+00    1.89327E+00
 1.83261E+00    1.93108E+00
 1.83511E+00    1.96814E+00
 1.84142E+00    2.06169E+00
 1.85686E+00    2.29058E+00
 1.86320E+00    2.38457E+00
 1.89303E+00    2.82679E+00
 1.89786E+00    2.89840E+00
 2.00000E+00    4.41260E+00
 2.20000E+00    6.49742E+00
 2.40000E+00    7.15670E+00
 2.60000E+00    6.92740E+00
 2.80000E+00    6.31034E+00
 3.00000E+00    5.56788E+00
 3.20000E+00    4.81000E+00
 3.40000E+00    4.08137E+00
 3.60000E+00    3.40255E+00
 3.80000E+00    2.78849E+00
 4.00000E+00    2.25065E+00
 4.20000E+00    1.79493E+00
 4.40000E+00    1.41915E+00
 4.60000E+00    1.11582E+00
 4.80000E+00    8.74435E-01
 5.00000E+00    6.83940E-01
 5.20000E+00    5.34182E-01
 5.40000E+00    4.16626E-01
 5.60000E+00    3.22959E-01
 5.80000E+00    2.50638E-01
 6.00000E+00    1.94611E-01
 6.20000E+00    1.51074E-01
 6.40000E+00    1.17590E-01
 6.60000E+00    9.15379E-02
 6.80000E+00    7.14151E-02
 7.00000E+00    5.57960E-02
 7.20000E+00    4.36045E-02
 7.40000E+00    3.41771E-02
 7.60000E+00    2.67822E-02
 7.80000E+00    2.10205E-02
 8.00000E+00    1.65216E-02
 8.50000E+00    9.05808E-03
 9.00000E+00    4.96569E-03
 9.50000E+00    2.72148E-03
 1.00000E+01    1.49241E-03
 1.05000E+01    8.19744E-04
 1.10000E+01    4.51367E-04
 1.15000E+01    2.49411E-04
 1.20000E+01    1.38479E-04
 1.25000E+01    7.73636E-05
 1.30000E+01    4.35307E-05
 1.35000E+01    2.46854E-05
 1.40000E+01    1.41143E-05
 1.45000E+01    8.13576E-06
 1.50000E+01    4.72629E-06
 1.60000E+01    1.62900E-06
 1.70000E+01    5.72370E-07
 1.80000E+01    2.05900E-07
 1.90000E+01    7.53270E-08
 2.00000E+01    2.80280E-08
 2.10000E+01    1.06170E-08
 2.20000E+01    4.09740E-09
 2.30000E+01    1.61050E-09
 2.40000E+01    6.44480E-10
 2.50000E+01    2.62700E-10
 2.60000E+01    1.08760E-10
 2.70000E+01    4.58690E-11
 2.80000E+01    1.95220E-11
 2.90000E+01    8.40600E-12
 3.00000E+01    3.66260E-12
