# n + Sr 88 : (n,n'11)  
# jendl4.0   K.Shibata, A.Ichihara, S.Kunieda  EVAL-AUG09
# uncertainties: n
# # energies =    24
#   E(MeV)       xs(mb) 
 4.06576E+00    0.00000E+00
 4.50000E+00    2.97200E+01
 5.00000E+00    3.15200E+01
 5.50000E+00    2.75200E+01
 6.00000E+00    2.12300E+01
 6.50000E+00    1.59600E+01
 7.00000E+00    1.10700E+01
 7.50000E+00    7.91400E+00
 8.00000E+00    5.47200E+00
 8.50000E+00    3.84100E+00
 9.00000E+00    3.10500E+00
 9.50000E+00    2.39300E+00
 1.00000E+01    2.20000E+00
 1.10000E+01    1.80400E+00
 1.20000E+01    1.57100E+00
 1.30000E+01    1.39300E+00
 1.40000E+01    1.24600E+00
 1.45000E+01    1.07500E+00
 1.50000E+01    1.12500E+00
 1.60000E+01    1.03300E+00
 1.70000E+01    7.84300E-01
 1.80000E+01    7.24800E-01
 1.90000E+01    6.72000E-01
 2.00000E+01    6.23700E-01
