# n + Sr 88 : (n,n'14)  
# jendl4.0   K.Shibata, A.Ichihara, S.Kunieda  EVAL-AUG09
# uncertainties: n
# # energies =    24
#   E(MeV)       xs(mb) 
 4.21827E+00    0.00000E+00
 4.50000E+00    5.29500E+01
 5.00000E+00    5.92400E+01
 5.50000E+00    4.55200E+01
 6.00000E+00    3.22400E+01
 6.50000E+00    2.30400E+01
 7.00000E+00    1.52600E+01
 7.50000E+00    1.05800E+01
 8.00000E+00    7.07200E+00
 8.50000E+00    4.78600E+00
 9.00000E+00    3.72700E+00
 9.50000E+00    2.76600E+00
 1.00000E+01    2.45600E+00
 1.10000E+01    1.90000E+00
 1.20000E+01    1.58400E+00
 1.30000E+01    1.35800E+00
 1.40000E+01    1.18000E+00
 1.45000E+01    1.00400E+00
 1.50000E+01    1.03800E+00
 1.60000E+01    9.31800E-01
 1.70000E+01    6.93600E-01
 1.80000E+01    6.29500E-01
 1.90000E+01    5.74400E-01
 2.00000E+01    5.25900E-01
