# n + Sr 88 : (n,n'13)  
# jendl4.0   K.Shibata, A.Ichihara, S.Kunieda  EVAL-AUG09
# uncertainties: n
# # energies =    24
#   E(MeV)       xs(mb) 
 4.08542E+00    0.00000E+00
 4.50000E+00    8.97800E+01
 5.00000E+00    7.42500E+01
 5.50000E+00    5.50600E+01
 6.00000E+00    3.79700E+01
 6.50000E+00    2.56200E+01
 7.00000E+00    1.63800E+01
 7.50000E+00    1.08600E+01
 8.00000E+00    6.99100E+00
 8.50000E+00    4.57700E+00
 9.00000E+00    3.46500E+00
 9.50000E+00    2.51400E+00
 1.00000E+01    2.18900E+00
 1.10000E+01    1.64600E+00
 1.20000E+01    1.34600E+00
 1.30000E+01    1.14000E+00
 1.40000E+01    9.83800E-01
 1.45000E+01    8.35200E-01
 1.50000E+01    8.61600E-01
 1.60000E+01    7.69600E-01
 1.70000E+01    5.69000E-01
 1.80000E+01    5.11900E-01
 1.90000E+01    4.62500E-01
 2.00000E+01    4.19900E-01
