# n + Sr 88 : (n,n'02)  
# jendl4.0   K.Shibata, A.Ichihara, S.Kunieda  EVAL-AUG09
# uncertainties: n
# # energies =    27
#   E(MeV)       xs(mb) 
 2.76551E+00    0.00000E+00
 3.00000E+00    2.14700E+02
 3.50000E+00    3.21500E+02
 4.00000E+00    2.67100E+02
 4.50000E+00    1.82100E+02
 5.00000E+00    1.20000E+02
 5.50000E+00    8.27700E+01
 6.00000E+00    5.17600E+01
 6.50000E+00    3.28500E+01
 7.00000E+00    1.97800E+01
 7.50000E+00    1.28100E+01
 8.00000E+00    8.30700E+00
 8.50000E+00    5.56800E+00
 9.00000E+00    4.33400E+00
 9.50000E+00    3.21700E+00
 1.00000E+01    2.84600E+00
 1.10000E+01    2.16200E+00
 1.20000E+01    1.76100E+00
 1.30000E+01    1.48300E+00
 1.40000E+01    1.27300E+00
 1.45000E+01    1.07900E+00
 1.50000E+01    1.11100E+00
 1.60000E+01    9.92000E-01
 1.70000E+01    7.35400E-01
 1.80000E+01    6.64800E-01
 1.90000E+01    6.04200E-01
 2.00000E+01    5.51000E-01
