# n + Sr 88 : (n,el)    
# jendl4.0   K.Shibata, A.Ichihara, S.Kunieda  EVAL-AUG09
# uncertainties: n
# # energies =    69
#   E(MeV)       xs(mb) 
 1.00000E-10    7.44811E+03
 5.00000E-09    5.73385E+03
 1.00000E-08    5.68335E+03
 1.50000E-08    5.66356E+03
 2.00000E-08    5.65285E+03
 2.50000E-08    5.64619E+03
 3.00000E-08    5.64146E+03
 3.50000E-08    5.63778E+03
 4.20000E-08    5.63406E+03
 5.00000E-08    5.63166E+03
 5.80000E-08    5.62953E+03
 6.70000E-08    5.62740E+03
 8.00000E-08    5.62568E+03
 1.00000E-07    5.62321E+03
 1.40000E-07    5.62171E+03
 1.80000E-07    5.62039E+03
 2.20000E-07    5.61965E+03
 2.50000E-07    5.61946E+03
 2.80000E-07    5.61930E+03
 3.00000E-07    5.61917E+03
 3.20000E-07    5.61901E+03
 3.50000E-07    5.61875E+03
 4.00000E-07    5.61828E+03
 5.00000E-07    5.61760E+03
 6.25000E-07    5.61740E+03
 7.80000E-07    5.61738E+03
 8.50000E-07    5.61738E+03
 9.10000E-07    5.61738E+03
 9.50000E-07    5.61737E+03
 9.72000E-07    5.61737E+03
 9.96000E-07    5.61737E+03
 1.02000E-06    5.61737E+03
 1.04500E-06    5.61736E+03
 1.07100E-06    5.61736E+03
 1.09700E-06    5.61736E+03
 1.12300E-06    5.61736E+03
 1.15000E-06    5.61735E+03
 1.30000E-06    5.61733E+03
 1.50000E-06    5.61730E+03
 2.10000E-06    5.61725E+03
 2.60000E-06    5.61720E+03
 3.30000E-06    5.61713E+03
 4.00000E-06    5.61688E+03
 9.87700E-06    5.61633E+03
 1.59680E-05    5.61557E+03
 2.77000E-05    5.61434E+03
 4.80520E-05    5.61316E+03
 7.55014E-05    5.61090E+03
 1.48728E-04    5.60451E+03
 3.67262E-04    5.58755E+03
 9.06898E-04    5.56132E+03
 1.42510E-03    5.53004E+03
 2.23945E-03    5.47683E+03
 3.51910E-03    5.36623E+03
 5.53000E-03    5.06517E+03
 9.11800E-03    1.30558E+04
 1.50300E-02    9.63700E+03
 2.47800E-02    7.56633E+03
 4.08500E-02    6.33045E+03
 6.73400E-02    7.31000E+03
 1.11000E-01    6.65164E+03
 1.83000E-01    6.14684E+03
 3.02000E-01    8.14065E+03
 5.00000E-01    7.21360E+03
 8.21000E-01    5.89090E+03
 1.35300E+00    4.53867E+03
 2.23100E+00    2.94722E+03
 3.67900E+00    2.14975E+03
 6.06500E+00    2.31409E+03
