# n + Sr 88 : (n,n'04)  
# jendl4.0   K.Shibata, A.Ichihara, S.Kunieda  EVAL-AUG09
# uncertainties: n
# # energies =    26
#   E(MeV)       xs(mb) 
 3.25544E+00    0.00000E+00
 3.50000E+00    2.21800E+02
 4.00000E+00    2.43400E+02
 4.50000E+00    1.63800E+02
 5.00000E+00    1.07000E+02
 5.50000E+00    7.64400E+01
 6.00000E+00    4.90300E+01
 6.50000E+00    3.16000E+01
 7.00000E+00    1.89000E+01
 7.50000E+00    1.19600E+01
 8.00000E+00    7.53700E+00
 8.50000E+00    4.90900E+00
 9.00000E+00    3.72800E+00
 9.50000E+00    2.71500E+00
 1.00000E+01    2.36900E+00
 1.10000E+01    1.77200E+00
 1.20000E+01    1.43300E+00
 1.30000E+01    1.20300E+00
 1.40000E+01    1.03200E+00
 1.45000E+01    8.73700E-01
 1.50000E+01    8.99100E-01
 1.60000E+01    8.00100E-01
 1.70000E+01    5.89600E-01
 1.80000E+01    5.28800E-01
 1.90000E+01    4.76600E-01
 2.00000E+01    4.31800E-01
