# n + Sr 88 : (n,n'08)  
# jendl4.0   K.Shibata, A.Ichihara, S.Kunieda  EVAL-AUG09
# uncertainties: n
# # energies =    25
#   E(MeV)       xs(mb) 
 3.67682E+00    0.00000E+00
 4.00000E+00    1.39400E+02
 4.50000E+00    1.34400E+02
 5.00000E+00    8.88100E+01
 5.50000E+00    6.58300E+01
 6.00000E+00    4.34900E+01
 6.50000E+00    2.87700E+01
 7.00000E+00    1.78200E+01
 7.50000E+00    1.14700E+01
 8.00000E+00    7.27600E+00
 8.50000E+00    4.73900E+00
 9.00000E+00    3.59100E+00
 9.50000E+00    2.61000E+00
 1.00000E+01    2.27700E+00
 1.10000E+01    1.70900E+00
 1.20000E+01    1.39000E+00
 1.30000E+01    1.17200E+00
 1.40000E+01    1.00800E+00
 1.45000E+01    8.54500E-01
 1.50000E+01    8.80400E-01
 1.60000E+01    7.84800E-01
 1.70000E+01    5.79300E-01
 1.80000E+01    5.20400E-01
 1.90000E+01    4.69600E-01
 2.00000E+01    4.25800E-01
