# n + Sr 88 : (n,n'01)  
# jendl4.0   K.Shibata, A.Ichihara, S.Kunieda  EVAL-AUG09
# uncertainties: n
# # energies =    29
#   E(MeV)       xs(mb) 
 1.85716E+00    0.00000E+00
 2.00000E+00    4.73500E+02
 2.50000E+00    1.00500E+03
 3.00000E+00    9.98700E+02
 3.50000E+00    8.36900E+02
 4.00000E+00    5.53500E+02
 4.50000E+00    3.63800E+02
 5.00000E+00    2.33700E+02
 5.50000E+00    1.69400E+02
 6.00000E+00    1.20900E+02
 6.50000E+00    9.11000E+01
 7.00000E+00    7.22400E+01
 7.50000E+00    6.10200E+01
 8.00000E+00    5.41300E+01
 8.50000E+00    4.95800E+01
 9.00000E+00    4.63600E+01
 9.50000E+00    4.39100E+01
 1.00000E+01    4.18500E+01
 1.10000E+01    3.83700E+01
 1.20000E+01    3.54500E+01
 1.30000E+01    3.30200E+01
 1.40000E+01    3.10300E+01
 1.45000E+01    3.01800E+01
 1.50000E+01    2.94000E+01
 1.60000E+01    2.80100E+01
 1.70000E+01    2.67800E+01
 1.80000E+01    2.56700E+01
 1.90000E+01    2.46900E+01
 2.00000E+01    2.38200E+01
