# n + Sr 88 : (n,n'26)  
# jendl4.0   K.Shibata, A.Ichihara, S.Kunieda  EVAL-AUG09
# uncertainties: n
# # energies =    23
#   E(MeV)       xs(mb) 
 4.56582E+00    0.00000E+00
 5.00000E+00    3.89200E+01
 5.50000E+00    3.58600E+01
 6.00000E+00    2.52600E+01
 6.50000E+00    1.85200E+01
 7.00000E+00    1.24200E+01
 7.50000E+00    8.77800E+00
 8.00000E+00    5.96900E+00
 8.50000E+00    4.04900E+00
 9.00000E+00    3.13700E+00
 9.50000E+00    2.30600E+00
 1.00000E+01    2.02600E+00
 1.10000E+01    1.54300E+00
 1.20000E+01    1.27700E+00
 1.30000E+01    1.09000E+00
 1.40000E+01    9.43100E-01
 1.45000E+01    8.00800E-01
 1.50000E+01    8.25900E-01
 1.60000E+01    7.37700E-01
 1.70000E+01    5.46700E-01
 1.80000E+01    4.94300E-01
 1.90000E+01    4.49800E-01
 2.00000E+01    4.10900E-01
