# n + Sr 88 : (n,n'12)  
# jendl4.0   K.Shibata, A.Ichihara, S.Kunieda  EVAL-AUG09
# uncertainties: n
# # energies =    24
#   E(MeV)       xs(mb) 
 4.08191E+00    0.00000E+00
 4.50000E+00    9.03600E+01
 5.00000E+00    7.43800E+01
 5.50000E+00    5.51400E+01
 6.00000E+00    3.80300E+01
 6.50000E+00    2.56400E+01
 7.00000E+00    1.63900E+01
 7.50000E+00    1.08700E+01
 8.00000E+00    6.99400E+00
 8.50000E+00    4.57800E+00
 9.00000E+00    3.46600E+00
 9.50000E+00    2.51400E+00
 1.00000E+01    2.19000E+00
 1.10000E+01    1.64700E+00
 1.20000E+01    1.34700E+00
 1.30000E+01    1.14000E+00
 1.40000E+01    9.84000E-01
 1.45000E+01    8.35400E-01
 1.50000E+01    8.61800E-01
 1.60000E+01    7.69700E-01
 1.70000E+01    5.69100E-01
 1.80000E+01    5.12000E-01
 1.90000E+01    4.62600E-01
 2.00000E+01    4.19900E-01
