# n + Sr 88 : (n,n'22)  
# jendl4.0   K.Shibata, A.Ichihara, S.Kunieda  EVAL-AUG09
# uncertainties: n
# # energies =    24
#   E(MeV)       xs(mb) 
 4.46460E+00    0.00000E+00
 4.50000E+00    6.27000E+00
 5.00000E+00    5.60300E+01
 5.50000E+00    4.67300E+01
 6.00000E+00    3.22700E+01
 6.50000E+00    2.27600E+01
 7.00000E+00    1.47300E+01
 7.50000E+00    1.01200E+01
 8.00000E+00    6.67000E+00
 8.50000E+00    4.41400E+00
 9.00000E+00    3.35300E+00
 9.50000E+00    2.42900E+00
 1.00000E+01    2.11100E+00
 1.10000E+01    1.58600E+00
 1.20000E+01    1.30300E+00
 1.30000E+01    1.10900E+00
 1.40000E+01    9.60600E-01
 1.45000E+01    8.16700E-01
 1.50000E+01    8.43500E-01
 1.60000E+01    7.55000E-01
 1.70000E+01    5.59100E-01
 1.80000E+01    5.03800E-01
 1.90000E+01    4.55800E-01
 2.00000E+01    4.14200E-01
