# n + Sr 88 : (n,n'07)  
# jendl4.0   K.Shibata, A.Ichihara, S.Kunieda  EVAL-AUG09
# uncertainties: n
# # energies =    25
#   E(MeV)       xs(mb) 
 3.62591E+00    0.00000E+00
 4.00000E+00    5.17800E+01
 4.50000E+00    4.88600E+01
 5.00000E+00    4.19800E+01
 5.50000E+00    3.58900E+01
 6.00000E+00    2.56000E+01
 6.50000E+00    1.84900E+01
 7.00000E+00    1.22800E+01
 7.50000E+00    8.51100E+00
 8.00000E+00    5.80600E+00
 8.50000E+00    4.05600E+00
 9.00000E+00    3.28000E+00
 9.50000E+00    2.52900E+00
 1.00000E+01    2.32400E+00
 1.10000E+01    1.89400E+00
 1.20000E+01    1.63400E+00
 1.30000E+01    1.43900E+00
 1.40000E+01    1.28200E+00
 1.45000E+01    1.10300E+00
 1.50000E+01    1.15300E+00
 1.60000E+01    1.05600E+00
 1.70000E+01    8.00800E-01
 1.80000E+01    7.38900E-01
 1.90000E+01    6.83900E-01
 2.00000E+01    6.33900E-01
