# n + Sr 88 : (n,n'21)  
# jendl4.0   K.Shibata, A.Ichihara, S.Kunieda  EVAL-AUG09
# uncertainties: n
# # energies =    24
#   E(MeV)       xs(mb) 
 4.41836E+00    0.00000E+00
 4.50000E+00    2.07600E-01
 5.00000E+00    1.34000E+00
 5.50000E+00    2.31300E+00
 6.00000E+00    3.13800E+00
 6.50000E+00    3.57500E+00
 7.00000E+00    3.11500E+00
 7.50000E+00    2.63400E+00
 8.00000E+00    2.04600E+00
 8.50000E+00    1.57300E+00
 9.00000E+00    1.37100E+00
 9.50000E+00    1.12800E+00
 1.00000E+01    1.10000E+00
 1.10000E+01    9.98000E-01
 1.20000E+01    9.41500E-01
 1.30000E+01    8.90200E-01
 1.40000E+01    8.40100E-01
 1.45000E+01    7.42300E-01
 1.50000E+01    7.95100E-01
 1.60000E+01    7.62000E-01
 1.70000E+01    6.02200E-01
 1.80000E+01    5.77300E-01
 1.90000E+01    5.53400E-01
 2.00000E+01    5.29300E-01
