# n + Sr 88 : (n,n'18)  
# jendl4.0   K.Shibata, A.Ichihara, S.Kunieda  EVAL-AUG09
# uncertainties: n
# # energies =    24
#   E(MeV)       xs(mb) 
 4.31769E+00    0.00000E+00
 4.50000E+00    4.04900E+01
 5.00000E+00    6.45000E+01
 5.50000E+00    4.97100E+01
 6.00000E+00    3.44200E+01
 6.50000E+00    2.39000E+01
 7.00000E+00    1.53700E+01
 7.50000E+00    1.04300E+01
 8.00000E+00    6.80400E+00
 8.50000E+00    4.47900E+00
 9.00000E+00    3.39700E+00
 9.50000E+00    2.46100E+00
 1.00000E+01    2.14100E+00
 1.10000E+01    1.61000E+00
 1.20000E+01    1.32000E+00
 1.30000E+01    1.12100E+00
 1.40000E+01    9.69700E-01
 1.45000E+01    8.23900E-01
 1.50000E+01    8.50600E-01
 1.60000E+01    7.60700E-01
 1.70000E+01    5.63000E-01
 1.80000E+01    5.07000E-01
 1.90000E+01    4.58400E-01
 2.00000E+01    4.16400E-01
