# n + O  16 :  n        
# jendl4.0   Y.KANDA(KYU) T.MURATA(NAIG)+      EVAL-DEC83
# uncertainties: y
# # energies =    41
#   E(MeV)       xs(mb)       xslow(mb)      xsupp(mb)
 1.53081E+01    0.00000E+00    0.00000E+00    0.00000E+00
 1.53134E+01    1.17190E+00    1.17190E+00    1.17190E+00
 1.53239E+01    3.49736E+00    3.49736E+00    3.49736E+00
 1.53342E+01    5.78648E+00    5.78648E+00    5.78648E+00
 1.53546E+01    1.02932E+01    1.02932E+01    1.02932E+01
 1.53744E+01    1.46590E+01    1.46590E+01    1.46590E+01
 1.53936E+01    1.88885E+01    1.88885E+01    1.88885E+01
 1.54122E+01    2.29857E+01    2.29857E+01    2.29857E+01
 1.54483E+01    3.09241E+01    3.09241E+01    3.09241E+01
 1.54822E+01    3.83664E+01    3.83664E+01    3.83664E+01
 1.55140E+01    4.53435E+01    4.53435E-01    9.02336E+01
 1.55440E+01    5.18846E+01    5.18845E-01    1.03250E+02
 1.56003E+01    6.41490E+01    6.41490E-01    1.27657E+02
 1.56497E+01    7.48804E+01    7.48803E-01    1.49012E+02
 1.56930E+01    8.42704E+01    8.42703E-01    1.67698E+02
 1.57311E+01    9.24866E+01    9.24865E-01    1.84048E+02
 1.57979E+01    1.06865E+02    1.06865E+00    2.12661E+02
 1.58482E+01    1.17649E+02    1.17649E+00    2.34121E+02
 1.59239E+01    1.33824E+02    1.33824E+00    2.66310E+02
 1.60000E+01    1.50000E+02    1.50000E+00    2.98500E+02
 1.61217E+01    1.63750E+02    1.63750E+00    3.25863E+02
 1.62290E+01    1.75781E+02    1.75781E+00    3.49805E+02
 1.63234E+01    1.86309E+02    1.86308E+00    3.70754E+02
 1.64065E+01    1.95520E+02    1.95520E+00    3.89085E+02
 1.65529E+01    2.11640E+02    2.11640E+00    4.21164E+02
 1.66636E+01    2.23730E+02    2.23730E+00    4.45223E+02
 1.68309E+01    2.41865E+02    2.41865E+00    4.81311E+02
 1.70000E+01    2.60000E+02    2.60000E+00    5.17400E+02
 1.71219E+01    2.75000E+02    2.75000E+00    5.47250E+02
 1.72293E+01    2.88125E+02    2.88125E+00    5.73369E+02
 1.73238E+01    2.99609E+02    2.99609E+00    5.96223E+02
 1.74904E+01    3.19707E+02    3.19707E+00    6.36217E+02
 1.76164E+01    3.34780E+02    4.85265E+01    6.21034E+02
 1.78072E+01    3.57390E+02    5.18038E+01    6.62977E+02
 1.80000E+01    3.80000E+02    5.50811E+01    7.04919E+02
 1.82450E+01    3.98750E+02    5.77989E+01    7.39701E+02
 1.84309E+01    4.12812E+02    5.98373E+01    7.65788E+02
 1.87133E+01    4.33906E+02    8.41560E+01    7.83656E+02
 1.90000E+01    4.55000E+02    8.82471E+01    8.21753E+02
 1.94936E+01    4.62500E+02    8.97018E+01    8.35298E+02
 2.00000E+01    4.70000E+02    9.46109E+01    8.45389E+02
