# n + Gd156 : (n,t)     
# jendl.ad   N.Iwamoto                         EVAL-Apr14
# uncertainties: n
# # energies =    64
#   E(MeV)       xs(mb) 
 7.72597E+00    0.00000E+00
 7.79458E+00    5.90360E-25
 7.79834E+00    6.22710E-25
 7.80714E+00    6.98430E-25
 7.80817E+00    7.07300E-25
 7.80932E+00    7.17190E-25
 7.82656E+00    8.65540E-25
 7.82701E+00    8.69410E-25
 7.82748E+00    8.73450E-25
 7.84932E+00    1.06140E-24
 7.85422E+00    1.10350E-24
 7.85649E+00    1.12310E-24
 7.86162E+00    1.16720E-24
 7.86355E+00    1.18380E-24
 7.87221E+00    1.25830E-24
 7.88056E+00    1.33060E-24
 7.88945E+00    1.40760E-24
 7.90069E+00    1.50490E-24
 7.90258E+00    1.52130E-24
 7.90788E+00    1.56710E-24
 7.90794E+00    1.56770E-24
 7.91221E+00    1.60460E-24
 7.91950E+00    1.66770E-24
 7.92336E+00    1.70110E-24
 7.93110E+00    1.76820E-24
 7.94143E+00    1.85760E-24
 7.94687E+00    1.90470E-24
 7.95725E+00    1.99450E-24
 7.95834E+00    2.00400E-24
 7.96277E+00    2.04230E-24
 7.96680E+00    2.07720E-24
 7.97700E+00    2.16550E-24
 7.97942E+00    2.18650E-24
 7.98283E+00    2.21600E-24
 7.98583E+00    2.24200E-24
 8.00058E+00    2.36960E-24
 8.00446E+00    2.40320E-24
 8.00632E+00    2.41930E-24
 8.00681E+00    2.42360E-24
 8.00715E+00    2.42650E-24
 8.00947E+00    2.44660E-24
 9.00000E+00    1.10220E-23
 9.50000E+00    1.09890E-17
 1.00000E+01    6.39910E-14
 1.05000E+01    2.43030E-11
 1.10000E+01    1.85590E-09
 1.15000E+01    5.10290E-08
 1.20000E+01    7.02140E-07
 1.25000E+01    5.90719E-06
 1.30000E+01    2.90411E-05
 1.35000E+01    1.34774E-04
 1.40000E+01    4.98053E-04
 1.45000E+01    1.53056E-03
 1.50000E+01    4.22875E-03
 1.55000E+01    9.32072E-03
 1.60000E+01    1.87677E-02
 1.65000E+01    3.43380E-02
 1.70000E+01    5.76471E-02
 1.75000E+01    8.83179E-02
 1.80000E+01    1.27830E-01
 1.85000E+01    1.76066E-01
 1.90000E+01    2.32663E-01
 1.95000E+01    2.95223E-01
 2.00000E+01    3.66190E-01
