# n + Gd156 : (n,xa)    
# jendl.ad   N.Iwamoto                         EVAL-Apr14
# 
# # energies =   114
#   E(MeV)        xs(mb) 
 8.95455E-02    1.12982E-07
 9.00000E-02    1.07990E-07
 1.00000E-01    9.95890E-08
 1.05000E-01    9.71705E-08
 1.10000E-01    9.47520E-08
 1.20000E-01    9.15150E-08
 1.30000E-01    8.94690E-08
 1.40000E-01    8.84200E-08
 1.50000E-01    8.79540E-08
 1.60000E-01    8.82450E-08
 1.70000E-01    8.94734E-08
 1.80000E-01    9.09360E-08
 1.90000E-01    9.52140E-08
 2.00000E-01    9.74560E-08
 2.25000E-01    1.04324E-07
 2.50000E-01    1.12570E-07
 2.75000E-01    1.23820E-07
 2.90051E-01    1.35200E-07
 3.00000E-01    1.40250E-07
 4.00000E-01    2.14370E-07
 5.00000E-01    3.41730E-07
 5.88498E-01    5.21055E-07
 6.00000E-01    5.46710E-07
 7.00000E-01    8.75260E-07
 8.00000E-01    1.41063E-06
 9.00000E-01    2.25195E-06
 9.71377E-01    3.02189E-06
 9.71378E-01    3.02190E-06
 1.00000E+00    3.55973E-06
 1.05628E+00    4.46333E-06
 1.10000E+00    5.47925E-06
 1.13675E+00    6.27958E-06
 1.16162E+00    6.65332E-06
 1.17575E+00    6.79237E-06
 1.20000E+00    7.52488E-06
 1.25052E+00    8.57435E-06
 1.25608E+00    8.60330E-06
 1.26621E+00    8.70237E-06
 1.28440E+00    8.88027E-06
 1.30000E+00    9.51165E-06
 1.30622E+00    9.61195E-06
 1.32820E+00    9.96637E-06
 1.36419E+00    1.05467E-05
 1.37530E+00    1.07698E-05
 1.40000E+00    1.18308E-05
 1.41724E+00    1.22311E-05
 1.42524E+00    1.24169E-05
 1.47176E+00    1.37640E-05
 1.47801E+00    1.39536E-05
 1.50000E+00    1.54790E-05
 1.51661E+00    1.60591E-05
 1.52036E+00    1.61901E-05
 1.54880E+00    1.72192E-05
 1.55015E+00    1.72700E-05
 1.58707E+00    1.87087E-05
 1.60000E+00    2.04349E-05
 1.60532E+00    2.06760E-05
 1.63304E+00    2.19324E-05
 1.64860E+00    2.26969E-05
 1.65428E+00    2.29831E-05
 1.70000E+00    2.72825E-05
 1.71683E+00    2.83984E-05
 1.71684E+00    2.83991E-05
 1.72629E+00    2.90256E-05
 1.76499E+00    3.17663E-05
 1.77703E+00    3.27272E-05
 1.78255E+00    3.31678E-05
 1.79201E+00    3.60739E-05
 1.80000E+00    3.66283E-05
 1.81036E+00    3.73977E-05
 1.81567E+00    3.78181E-05
 1.83966E+00    3.97171E-05
 1.86029E+00    4.13524E-05
 1.86181E+00    4.14734E-05
 1.90000E+00    4.81645E-05
 2.00000E+00    6.30170E-05
 2.25000E+00    1.11535E-04
 2.50000E+00    1.83968E-04
 2.75000E+00    2.90724E-04
 3.00000E+00    4.43493E-04
 3.50000E+00    8.79936E-04
 4.00000E+00    1.69560E-03
 4.50000E+00    2.95372E-03
 5.00000E+00    4.71925E-03
 5.50000E+00    7.00267E-03
 6.00000E+00    9.80852E-03
 6.50000E+00    1.31586E-02
 7.00000E+00    1.72058E-02
 7.50000E+00    2.22859E-02
 8.00000E+00    2.94105E-02
 8.50000E+00    4.03272E-02
 9.00000E+00    5.78201E-02
 9.50000E+00    8.61431E-02
 1.00000E+01    1.31586E-01
 1.05000E+01    2.03101E-01
 1.10000E+01    3.12658E-01
 1.15000E+01    4.75088E-01
 1.20000E+01    7.07071E-01
 1.25000E+01    1.02527E+00
 1.30000E+01    1.44405E+00
 1.35000E+01    1.97357E+00
 1.40000E+01    2.61861E+00
 1.45000E+01    3.37851E+00
 1.50000E+01    4.24411E+00
 1.55000E+01    5.21777E+00
 1.60000E+01    6.27632E+00
 1.65000E+01    7.41061E+00
 1.70000E+01    8.61082E+00
 1.75000E+01    9.85748E+00
 1.80000E+01    1.11435E+01
 1.85000E+01    1.24570E+01
 1.90000E+01    1.37852E+01
 1.95000E+01    1.51233E+01
 2.00000E+01    1.64591E+01
