# n + In113 : (n,xh)    
# jeff3.3    S.Kunieda, A.Ichihara, K.Shibata+ EVAL-FEB22
# 
# # energies =    61
#   E(MeV)        xs(mb) 
 3.95190E-01    0.00000E+00
 4.00000E-01    0.00000E+00
 4.50000E-01    0.00000E+00
 5.00000E-01    0.00000E+00
 5.50000E-01    0.00000E+00
 6.00000E-01    0.00000E+00
 6.50000E-01    0.00000E+00
 6.52538E-01    0.00000E+00
 7.00000E-01    0.00000E+00
 7.50000E-01    0.00000E+00
 8.00000E-01    0.00000E+00
 8.50000E-01    0.00000E+00
 9.00000E-01    0.00000E+00
 9.50000E-01    0.00000E+00
 1.00000E+00    0.00000E+00
 1.03340E+00    0.00000E+00
 1.03891E+00    0.00000E+00
 1.07367E+00    0.00000E+00
 1.11624E+00    0.00000E+00
 1.14157E+00    0.00000E+00
 1.18358E+00    0.00000E+00
 1.20000E+00    0.00000E+00
 1.20171E+00    0.00000E+00
 1.21180E+00    0.00000E+00
 1.40000E+00    0.00000E+00
 1.60000E+00    0.00000E+00
 1.80000E+00    0.00000E+00
 2.00000E+00    0.00000E+00
 2.20000E+00    0.00000E+00
 2.40000E+00    0.00000E+00
 2.60000E+00    0.00000E+00
 2.80000E+00    0.00000E+00
 3.00000E+00    0.00000E+00
 3.25000E+00    0.00000E+00
 3.50000E+00    0.00000E+00
 3.75000E+00    0.00000E+00
 4.00000E+00    0.00000E+00
 4.25000E+00    0.00000E+00
 4.50000E+00    0.00000E+00
 4.75000E+00    0.00000E+00
 5.00000E+00    0.00000E+00
 5.50000E+00    0.00000E+00
 6.00000E+00    0.00000E+00
 6.50000E+00    0.00000E+00
 7.00000E+00    0.00000E+00
 7.50000E+00    0.00000E+00
 8.00000E+00    0.00000E+00
 8.50000E+00    0.00000E+00
 9.00000E+00    2.68900E-29
 9.50000E+00    1.31500E-24
 1.00000E+01    1.94900E-21
 1.10000E+01    3.43300E-17
 1.20000E+01    2.64900E-14
 1.30000E+01    1.18700E-11
 1.40000E+01    1.23100E-08
 1.50000E+01    3.07300E-07
 1.60000E+01    3.71300E-06
 1.70000E+01    2.84700E-05
 1.80000E+01    1.54500E-04
 1.90000E+01    5.89800E-04
 2.00000E+01    2.00600E-03
