# n + Cs135 :  n        
# jendl4.0   N.Iwamoto,H.Matsunobu             EVAL-Apr09
# uncertainties: n
# # energies =    76
#   E(MeV)       xs(mb) 
 1.05000E-01    0.00000E+00
 1.10000E-01    1.75075E-03
 1.20000E-01    2.03839E-03
 1.30000E-01    2.10987E-03
 1.40000E-01    2.13593E-03
 1.50000E-01    2.13581E-03
 1.60000E-01    2.12259E-03
 1.70000E-01    2.10517E-03
 1.80000E-01    2.08313E-03
 1.90000E-01    2.06210E-03
 2.00000E-01    2.04036E-03
 2.25000E-01    1.54050E-02
 2.50000E-01    1.65211E-02
 2.51634E-01    1.65492E-02
 2.75000E-01    1.52606E-02
 3.00000E-01    1.48417E-02
 4.00000E-01    4.63876E-02
 4.11077E-01    7.84308E-02
 5.00000E-01    1.02794E-01
 6.00000E-01    1.90848E-01
 6.12700E-01    2.50737E-01
 7.00000E-01    3.04447E-01
 7.92721E-01    4.55187E-01
 8.00000E-01    4.33016E-01
 9.00000E-01    5.35413E-01
 9.88734E-01    6.95039E-01
 1.00000E+00    7.00263E-01
 1.07033E+00    8.85665E-01
 1.10000E+00    9.08837E-01
 1.20000E+00    2.64471E+01
 1.30000E+00    8.85048E+01
 1.40000E+00    1.67074E+02
 1.50000E+00    2.54263E+02
 1.60000E+00    3.43003E+02
 1.70000E+00    4.33463E+02
 1.80000E+00    5.24769E+02
 1.90000E+00    6.17115E+02
 2.00000E+00    7.08783E+02
 2.25000E+00    8.93898E+02
 2.50000E+00    1.11308E+03
 2.75000E+00    1.28412E+03
 3.00000E+00    1.46855E+03
 3.50000E+00    1.76026E+03
 4.00000E+00    1.94148E+03
 4.50000E+00    2.01025E+03
 5.00000E+00    1.99758E+03
 5.50000E+00    1.94590E+03
 6.00000E+00    1.88934E+03
 6.50000E+00    1.84729E+03
 7.00000E+00    1.82725E+03
 7.50000E+00    1.82755E+03
 8.00000E+00    1.84079E+03
 8.50000E+00    1.85841E+03
 9.00000E+00    1.85936E+03
 9.50000E+00    1.63413E+03
 1.00000E+01    1.31272E+03
 1.05000E+01    1.00411E+03
 1.10000E+01    7.54917E+02
 1.15000E+01    5.78952E+02
 1.20000E+01    4.44559E+02
 1.25000E+01    3.50462E+02
 1.30000E+01    2.84093E+02
 1.35000E+01    2.33294E+02
 1.40000E+01    2.01504E+02
 1.45000E+01    1.78808E+02
 1.50000E+01    1.62855E+02
 1.55000E+01    1.50929E+02
 1.60000E+01    1.41726E+02
 1.65000E+01    1.35135E+02
 1.70000E+01    1.30202E+02
 1.75000E+01    1.24555E+02
 1.80000E+01    1.20890E+02
 1.85000E+01    1.17166E+02
 1.90000E+01    1.12802E+02
 1.95000E+01    1.09206E+02
 2.00000E+01    1.05868E+02
