# n + Cs135 : (n,n')    
# jendl4.0   N.Iwamoto,H.Matsunobu             EVAL-Apr09
# uncertainties: n
# # energies =    76
#   E(MeV)       xs(mb) 
 1.05000E-01    0.00000E+00
 1.10000E-01    1.75075E-03
 1.20000E-01    2.03839E-03
 1.30000E-01    2.10987E-03
 1.40000E-01    2.13593E-03
 1.50000E-01    2.13581E-03
 1.60000E-01    2.12259E-03
 1.70000E-01    2.10517E-03
 1.80000E-01    2.08313E-03
 1.90000E-01    2.06210E-03
 2.00000E-01    2.04036E-03
 2.25000E-01    1.54050E-02
 2.50000E-01    1.65211E-02
 2.51634E-01    1.65492E-02
 2.75000E-01    7.10486E+01
 3.00000E-01    1.04924E+02
 4.00000E-01    1.74816E+02
 4.11077E-01    1.79978E+02
 5.00000E-01    2.15637E+02
 6.00000E-01    2.44482E+02
 6.12700E-01    2.48417E+02
 7.00000E-01    3.14774E+02
 7.92721E-01    3.59544E+02
 8.00000E-01    3.87147E+02
 9.00000E-01    4.93321E+02
 9.88734E-01    5.53403E+02
 1.00000E+00    5.60530E+02
 1.07033E+00    6.02602E+02
 1.10000E+00    6.19650E+02
 1.20000E+00    6.85016E+02
 1.30000E+00    7.65187E+02
 1.40000E+00    8.48719E+02
 1.50000E+00    9.30946E+02
 1.60000E+00    1.00037E+03
 1.70000E+00    1.06809E+03
 1.80000E+00    1.13393E+03
 1.90000E+00    1.19737E+03
 2.00000E+00    1.25998E+03
 2.25000E+00    1.36887E+03
 2.50000E+00    1.49908E+03
 2.75000E+00    1.60793E+03
 3.00000E+00    1.73270E+03
 3.50000E+00    1.93908E+03
 4.00000E+00    2.05659E+03
 4.50000E+00    2.07873E+03
 5.00000E+00    2.03569E+03
 5.50000E+00    1.96662E+03
 6.00000E+00    1.90087E+03
 6.50000E+00    1.85420E+03
 7.00000E+00    1.83187E+03
 7.50000E+00    1.83103E+03
 8.00000E+00    1.84369E+03
 8.50000E+00    1.86100E+03
 9.00000E+00    1.86176E+03
 9.50000E+00    1.63640E+03
 1.00000E+01    1.31489E+03
 1.05000E+01    1.00618E+03
 1.10000E+01    7.56880E+02
 1.15000E+01    5.80819E+02
 1.20000E+01    4.46334E+02
 1.25000E+01    3.52143E+02
 1.30000E+01    2.85685E+02
 1.35000E+01    2.34812E+02
 1.40000E+01    2.02952E+02
 1.45000E+01    1.80194E+02
 1.50000E+01    1.64182E+02
 1.55000E+01    1.52206E+02
 1.60000E+01    1.42964E+02
 1.65000E+01    1.36336E+02
 1.70000E+01    1.31369E+02
 1.75000E+01    1.25689E+02
 1.80000E+01    1.21993E+02
 1.85000E+01    1.18237E+02
 1.90000E+01    1.13842E+02
 1.95000E+01    1.10220E+02
 2.00000E+01    1.06856E+02
