# n + Cs135 : (n,xh)    
# jendl4.0   N.Iwamoto,H.Matsunobu             EVAL-Apr09
# 
# # energies =    76
#   E(MeV)        xs(mb) 
 1.05000E-01    0.00000E+00
 1.10000E-01    0.00000E+00
 1.20000E-01    0.00000E+00
 1.30000E-01    0.00000E+00
 1.40000E-01    0.00000E+00
 1.50000E-01    0.00000E+00
 1.60000E-01    0.00000E+00
 1.70000E-01    0.00000E+00
 1.80000E-01    0.00000E+00
 1.90000E-01    0.00000E+00
 2.00000E-01    0.00000E+00
 2.25000E-01    0.00000E+00
 2.50000E-01    0.00000E+00
 2.51634E-01    0.00000E+00
 2.75000E-01    0.00000E+00
 3.00000E-01    0.00000E+00
 4.00000E-01    0.00000E+00
 4.11077E-01    0.00000E+00
 5.00000E-01    0.00000E+00
 6.00000E-01    0.00000E+00
 6.12700E-01    0.00000E+00
 7.00000E-01    0.00000E+00
 7.92721E-01    0.00000E+00
 8.00000E-01    0.00000E+00
 9.00000E-01    0.00000E+00
 9.88734E-01    0.00000E+00
 1.00000E+00    0.00000E+00
 1.07033E+00    0.00000E+00
 1.10000E+00    0.00000E+00
 1.20000E+00    0.00000E+00
 1.30000E+00    0.00000E+00
 1.40000E+00    0.00000E+00
 1.50000E+00    0.00000E+00
 1.60000E+00    0.00000E+00
 1.70000E+00    0.00000E+00
 1.80000E+00    0.00000E+00
 1.90000E+00    0.00000E+00
 2.00000E+00    0.00000E+00
 2.25000E+00    0.00000E+00
 2.50000E+00    0.00000E+00
 2.75000E+00    0.00000E+00
 3.00000E+00    0.00000E+00
 3.50000E+00    0.00000E+00
 4.00000E+00    0.00000E+00
 4.50000E+00    0.00000E+00
 5.00000E+00    0.00000E+00
 5.50000E+00    0.00000E+00
 6.00000E+00    0.00000E+00
 6.50000E+00    0.00000E+00
 7.00000E+00    0.00000E+00
 7.50000E+00    0.00000E+00
 8.00000E+00    0.00000E+00
 8.50000E+00    0.00000E+00
 9.00000E+00    2.57313E-26
 9.50000E+00    5.95395E-26
 1.00000E+01    2.14027E-25
 1.05000E+01    5.49142E-25
 1.10000E+01    1.24490E-24
 1.15000E+01    1.60630E-21
 1.20000E+01    1.37390E-18
 1.25000E+01    2.31020E-16
 1.30000E+01    1.23570E-14
 1.35000E+01    2.86400E-13
 1.40000E+01    3.53200E-12
 1.45000E+01    2.72270E-11
 1.50000E+01    1.51900E-10
 1.55000E+01    7.53900E-10
 1.60000E+01    3.79740E-09
 1.65000E+01    1.93590E-08
 1.70000E+01    9.18030E-08
 1.75000E+01    3.80760E-07
 1.80000E+01    1.35872E-06
 1.85000E+01    4.15134E-06
 1.90000E+01    1.13058E-05
 1.95000E+01    2.73505E-05
 2.00000E+01    6.13477E-05
