# n + Sr 87 : (n,tot)   
# tendl.2019 A.J. Koning and D. Rochman        EVAL-NOV19
# uncertainties: y
# # energies =    69
#   E(MeV)       xs(mb)       xslow(mb)      xsupp(mb)
 1.00000E-10    1.21871E+05    1.07257E+05    1.36484E+05
 5.00000E-09    3.63538E+04    3.25383E+04    4.01693E+04
 1.00000E-08    2.86980E+04    2.56860E+04    3.17100E+04
 1.50000E-08    2.48912E+04    2.22788E+04    2.75037E+04
 2.00000E-08    2.24918E+04    2.01312E+04    2.48524E+04
 2.50000E-08    2.07998E+04    1.87772E+04    2.28223E+04
 3.00000E-08    1.95236E+04    1.76779E+04    2.13693E+04
 3.50000E-08    1.83560E+04    1.66207E+04    2.00913E+04
 4.20000E-08    1.72224E+04    1.56326E+04    1.88121E+04
 5.00000E-08    1.62824E+04    1.48061E+04    1.77588E+04
 5.80000E-08    1.54966E+04    1.40916E+04    1.69017E+04
 6.70000E-08    1.47015E+04    1.33894E+04    1.60136E+04
 8.00000E-08    1.38022E+04    1.25995E+04    1.50049E+04
 1.00000E-07    1.27012E+04    1.16414E+04    1.37611E+04
 1.40000E-07    1.17061E+04    1.07293E+04    1.26829E+04
 1.80000E-07    1.10502E+04    1.01282E+04    1.19723E+04
 2.20000E-07    1.06270E+04    9.76806E+03    1.14860E+04
 2.50000E-07    1.03448E+04    9.50864E+03    1.11810E+04
 2.80000E-07    1.01463E+04    9.32613E+03    1.09664E+04
 3.00000E-07    1.00090E+04    9.20869E+03    1.08093E+04
 3.20000E-07    9.85952E+03    9.07117E+03    1.06479E+04
 3.50000E-07    9.65936E+03    8.88701E+03    1.04317E+04
 4.00000E-07    9.37952E+03    8.63204E+03    1.01270E+04
 5.00000E-07    9.09798E+03    8.37004E+03    9.82592E+03
 6.25000E-07    8.90533E+03    8.19281E+03    9.61786E+03
 7.80000E-07    8.82954E+03    8.11039E+03    9.54870E+03
 8.50000E-07    8.81606E+03    8.09800E+03    9.53412E+03
 9.10000E-07    8.81761E+03    8.09942E+03    9.53579E+03
 9.50000E-07    8.82361E+03    8.10494E+03    9.54229E+03
 9.72000E-07    8.82999E+03    8.11079E+03    9.54918E+03
 9.96000E-07    8.83928E+03    8.11933E+03    9.55923E+03
 1.02000E-06    8.85103E+03    8.04755E+03    9.65451E+03
 1.04500E-06    8.86534E+03    8.06056E+03    9.67011E+03
 1.07100E-06    8.88246E+03    8.07613E+03    9.68879E+03
 1.09700E-06    8.90231E+03    8.09417E+03    9.71044E+03
 1.12300E-06    8.92373E+03    8.11365E+03    9.73381E+03
 1.15000E-06    9.01911E+03    8.20038E+03    9.83785E+03
 1.30000E-06    9.29220E+03    8.44867E+03    1.01357E+04
 1.50000E-06    1.05344E+04    9.57813E+03    1.14907E+04
 2.10000E-06    1.51818E+04    1.30952E+04    1.72683E+04
 2.60000E-06    5.50315E+04    4.74681E+04    6.25948E+04
 3.30000E-06    4.16725E+05    3.56202E+05    4.77249E+05
 4.00000E-06    1.00720E+04    8.66853E+03    1.14754E+04
 9.87700E-06    4.83603E+03    4.39263E+03    5.27943E+03
 1.59680E-05    4.58209E+03    4.13409E+03    5.03009E+03
 2.77000E-05    4.58347E+03    4.12631E+03    5.04063E+03
 4.80520E-05    4.27437E+03    3.83740E+03    4.71135E+03
 7.55014E-05    4.16181E+03    3.72948E+03    4.59415E+03
 1.48728E-04    4.12055E+03    3.68574E+03    4.55536E+03
 3.67262E-04    9.15018E+03    8.23389E+03    1.00665E+04
 9.06898E-04    1.33317E+04    1.19845E+04    1.46789E+04
 1.42510E-03    5.31628E+03    4.97652E+03    5.65605E+03
 2.23945E-03    4.93527E+03    4.52955E+03    5.34100E+03
 3.51910E-03    7.13833E+03    6.60063E+03    7.67603E+03
 5.53000E-03    7.02019E+03    6.56994E+03    7.47043E+03
 9.11800E-03    6.14249E+03    5.57247E+03    6.71252E+03
 1.50300E-02    8.49178E+03    6.38420E+03    1.05993E+04
 2.47800E-02    8.23407E+03    6.19046E+03    1.02777E+04
 4.08500E-02    8.12407E+03    7.06480E+03    9.18335E+03
 6.73400E-02    8.08878E+03    7.03411E+03    9.14346E+03
 1.11000E-01    8.08605E+03    7.03174E+03    9.14037E+03
 1.83000E-01    8.03714E+03    6.98920E+03    9.08508E+03
 3.02000E-01    7.67257E+03    5.96160E+03    9.38354E+03
 5.00000E-01    6.81862E+03    5.29808E+03    8.33916E+03
 8.21000E-01    5.57591E+03    4.30984E+03    6.84198E+03
 1.35300E+00    4.46553E+03    3.59320E+03    5.33786E+03
 2.23100E+00    3.90291E+03    3.41106E+03    4.39476E+03
 3.67900E+00    3.77140E+03    3.57028E+03    3.97252E+03
 6.06500E+00    4.05621E+03    3.89824E+03    4.21418E+03
