# n + Sr 87 : (n,n'18)  
# tendl.2019 A.J. Koning and D. Rochman        EVAL-NOV19
# uncertainties: n
# # energies =    70
#   E(MeV)       xs(mb) 
 2.56574E+00    0.00000E+00
 2.56847E+00    1.16688E+00
 2.57960E+00    5.92439E+00
 2.58465E+00    8.08297E+00
 2.60000E+00    1.46442E+01
 2.62613E+00    2.07063E+01
 2.66154E+00    2.89213E+01
 2.68683E+00    3.47885E+01
 2.70791E+00    3.96790E+01
 2.71009E+00    4.01847E+01
 2.71313E+00    4.08900E+01
 2.73892E+00    4.68732E+01
 2.80000E+00    6.10436E+01
 2.83568E+00    6.32060E+01
 2.85161E+00    6.41714E+01
 3.00000E+00    7.31646E+01
 3.20000E+00    7.04149E+01
 3.40000E+00    6.20322E+01
 3.60000E+00    5.24033E+01
 3.80000E+00    4.33756E+01
 4.00000E+00    3.55784E+01
 4.20000E+00    2.90830E+01
 4.40000E+00    2.36865E+01
 4.60000E+00    1.92279E+01
 4.80000E+00    1.55631E+01
 5.00000E+00    1.25780E+01
 5.20000E+00    1.01450E+01
 5.40000E+00    8.17354E+00
 5.60000E+00    6.58339E+00
 5.80000E+00    5.30557E+00
 6.00000E+00    4.28172E+00
 6.20000E+00    3.46508E+00
 6.40000E+00    2.81526E+00
 6.60000E+00    2.29820E+00
 6.80000E+00    1.88734E+00
 7.00000E+00    1.56163E+00
 7.20000E+00    1.29680E+00
 7.40000E+00    1.08724E+00
 7.60000E+00    9.17705E-01
 7.80000E+00    7.83540E-01
 8.00000E+00    6.75434E-01
 8.50000E+00    4.86978E-01
 9.00000E+00    3.73630E-01
 9.50000E+00    3.03481E-01
 1.00000E+01    2.58798E-01
 1.05000E+01    2.29366E-01
 1.10000E+01    2.09205E-01
 1.15000E+01    1.94795E-01
 1.20000E+01    1.84042E-01
 1.25000E+01    1.75678E-01
 1.30000E+01    1.68925E-01
 1.35000E+01    1.63293E-01
 1.40000E+01    1.58463E-01
 1.45000E+01    1.54223E-01
 1.50000E+01    1.50427E-01
 1.60000E+01    1.43790E-01
 1.70000E+01    1.38047E-01
 1.80000E+01    1.32949E-01
 1.90000E+01    1.28409E-01
 2.00000E+01    1.24370E-01
 2.10000E+01    1.20730E-01
 2.20000E+01    1.17327E-01
 2.30000E+01    1.14015E-01
 2.40000E+01    1.10723E-01
 2.50000E+01    1.07475E-01
 2.60000E+01    1.04351E-01
 2.70000E+01    1.01442E-01
 2.80000E+01    9.88005E-02
 2.90000E+01    9.64401E-02
 3.00000E+01    9.43311E-02
