# n + Sr 87 : (n,n'07)  
# tendl.2019 A.J. Koning and D. Rochman        EVAL-NOV19
# uncertainties: n
# # energies =    85
#   E(MeV)       xs(mb) 
 1.79101E+00    0.00000E+00
 1.80000E+00    1.60201E+00
 1.94277E+00    3.83893E+01
 2.00000E+00    5.31357E+01
 2.13454E+00    6.90195E+01
 2.17849E+00    7.42082E+01
 2.19460E+00    7.61102E+01
 2.20000E+00    7.67477E+01
 2.26165E+00    7.77944E+01
 2.28825E+00    7.82460E+01
 2.40000E+00    8.01433E+01
 2.44252E+00    7.94575E+01
 2.44849E+00    7.93613E+01
 2.51688E+00    7.82583E+01
 2.56220E+00    7.75273E+01
 2.56574E+00    7.74703E+01
 2.56847E+00    7.74262E+01
 2.57960E+00    7.72467E+01
 2.58465E+00    7.71653E+01
 2.60000E+00    7.69177E+01
 2.62613E+00    7.58274E+01
 2.66154E+00    7.43500E+01
 2.68683E+00    7.32948E+01
 2.70791E+00    7.24152E+01
 2.71009E+00    7.23243E+01
 2.71313E+00    7.21974E+01
 2.73892E+00    7.11213E+01
 2.80000E+00    6.85728E+01
 2.83568E+00    6.69176E+01
 2.85161E+00    6.61785E+01
 3.00000E+00    5.92945E+01
 3.20000E+00    5.06836E+01
 3.40000E+00    4.33896E+01
 3.60000E+00    3.68496E+01
 3.80000E+00    3.08278E+01
 4.00000E+00    2.53586E+01
 4.20000E+00    2.05308E+01
 4.40000E+00    1.63954E+01
 4.60000E+00    1.29586E+01
 4.80000E+00    1.01748E+01
 5.00000E+00    7.96307E+00
 5.20000E+00    6.22846E+00
 5.40000E+00    4.87899E+00
 5.60000E+00    3.83616E+00
 5.80000E+00    3.03125E+00
 6.00000E+00    2.41085E+00
 6.20000E+00    1.93051E+00
 6.40000E+00    1.55756E+00
 6.60000E+00    1.26761E+00
 6.80000E+00    1.04002E+00
 7.00000E+00    8.61910E-01
 7.20000E+00    7.18191E-01
 7.40000E+00    6.04528E-01
 7.60000E+00    5.12657E-01
 7.80000E+00    4.39721E-01
 8.00000E+00    3.80590E-01
 8.50000E+00    2.76216E-01
 9.00000E+00    2.11930E-01
 9.50000E+00    1.71077E-01
 1.00000E+01    1.44479E-01
 1.05000E+01    1.26694E-01
 1.10000E+01    1.14413E-01
 1.15000E+01    1.05624E-01
 1.20000E+01    9.90897E-02
 1.25000E+01    9.40416E-02
 1.30000E+01    9.00005E-02
 1.35000E+01    8.66618E-02
 1.40000E+01    8.38268E-02
 1.45000E+01    8.13637E-02
 1.50000E+01    7.91780E-02
 1.60000E+01    7.53954E-02
 1.70000E+01    7.21516E-02
 1.80000E+01    6.93035E-02
 1.90000E+01    6.67966E-02
 2.00000E+01    6.45762E-02
 2.10000E+01    6.25515E-02
 2.20000E+01    6.06212E-02
 2.30000E+01    5.87198E-02
 2.40000E+01    5.68411E-02
 2.50000E+01    5.50223E-02
 2.60000E+01    5.33152E-02
 2.70000E+01    5.17601E-02
 2.80000E+01    5.03718E-02
 2.90000E+01    4.91415E-02
 3.00000E+01    4.80419E-02
