# n + Fe 58 : (n,n'13)  
# endfb8.0   Nobre,Herman,Leal,Trkov,Brown,... EVAL-Oct16
# uncertainties: n
# # energies =    72
#   E(MeV)       xs(mb) 
 3.28955E+00    0.00000E+00
 3.50000E+00    5.04122E+01
 3.60000E+00    5.59243E+01
 3.80000E+00    6.12283E+01
 4.00000E+00    6.51510E+01
 4.15000E+00    6.54606E+01
 4.30000E+00    6.50370E+01
 4.40000E+00    6.32948E+01
 4.50000E+00    6.04006E+01
 4.60000E+00    5.80103E+01
 4.70000E+00    5.55166E+01
 4.80000E+00    5.29412E+01
 5.00000E+00    4.71839E+01
 5.20000E+00    4.22067E+01
 5.40000E+00    3.76297E+01
 5.50000E+00    3.55100E+01
 5.70000E+00    3.16038E+01
 6.00000E+00    2.65219E+01
 6.30000E+00    2.22593E+01
 6.50000E+00    1.98127E+01
 6.70000E+00    1.78072E+01
 7.00000E+00    1.49535E+01
 7.25000E+00    1.29827E+01
 7.50000E+00    1.12668E+01
 8.00000E+00    8.50605E+00
 8.50000E+00    6.23315E+00
 9.00000E+00    4.59643E+00
 9.50000E+00    3.37434E+00
 1.00000E+01    2.48058E+00
 1.05000E+01    1.82495E+00
 1.10000E+01    1.34087E+00
 1.12500E+01    1.14920E+00
 1.15000E+01    9.85067E-01
 1.20000E+01    7.24529E-01
 1.25000E+01    5.34989E-01
 1.30000E+01    3.96773E-01
 1.35000E+01    2.96067E-01
 1.40000E+01    2.22676E-01
 1.45000E+01    1.69522E-01
 1.50000E+01    1.31066E-01
 1.60000E+01    8.32695E-02
 1.65000E+01    6.88223E-02
 1.80000E+01    4.51081E-02
 1.90000E+01    3.78841E-02
 2.00000E+01    3.37231E-02
 2.10000E+01    3.11456E-02
 2.20000E+01    2.93969E-02
 2.40000E+01    2.69371E-02
 2.57000E+01    2.52319E-02
 2.80000E+01    2.31963E-02
 3.00000E+01    2.16900E-02
 3.20000E+01    2.04138E-02
 3.40000E+01    1.93102E-02
 3.60000E+01    1.83220E-02
 3.80000E+01    1.74127E-02
 4.00000E+01    1.65655E-02
 4.50000E+01    1.46886E-02
 5.00000E+01    1.30972E-02
 5.50000E+01    1.17178E-02
 6.00000E+01    1.05143E-02
 6.50000E+01    9.46121E-03
 7.00000E+01    8.53766E-03
 7.50000E+01    7.72504E-03
 8.00000E+01    7.00784E-03
 9.00000E+01    5.80959E-03
 9.60000E+01    5.21493E-03
 1.00000E+02    4.86129E-03
 1.10000E+02    4.10304E-03
 1.20000E+02    3.49166E-03
 1.30000E+02    2.99517E-03
 1.40000E+02    2.58934E-03
 1.50000E+02    2.25576E-03
