# n + Fe 58 : (n,n'20)  
# endfb8.0   Nobre,Herman,Leal,Trkov,Brown,... EVAL-Oct16
# uncertainties: n
# # energies =    70
#   E(MeV)       xs(mb) 
 3.69279E+00    0.00000E+00
 3.80000E+00    2.57961E+01
 4.00000E+00    3.45623E+01
 4.15000E+00    3.82284E+01
 4.30000E+00    4.15235E+01
 4.40000E+00    4.25335E+01
 4.50000E+00    4.25290E+01
 4.60000E+00    4.26117E+01
 4.70000E+00    4.23341E+01
 4.80000E+00    4.17088E+01
 5.00000E+00    3.91588E+01
 5.20000E+00    3.63472E+01
 5.40000E+00    3.32538E+01
 5.50000E+00    3.16870E+01
 5.70000E+00    2.86151E+01
 6.00000E+00    2.43324E+01
 6.30000E+00    2.05632E+01
 6.50000E+00    1.83496E+01
 6.70000E+00    1.65160E+01
 7.00000E+00    1.38905E+01
 7.25000E+00    1.20727E+01
 7.50000E+00    1.04911E+01
 8.00000E+00    7.95265E+00
 8.50000E+00    5.86241E+00
 9.00000E+00    4.35329E+00
 9.50000E+00    3.21733E+00
 1.00000E+01    2.37888E+00
 1.05000E+01    1.75778E+00
 1.10000E+01    1.29561E+00
 1.12500E+01    1.11178E+00
 1.15000E+01    9.54030E-01
 1.20000E+01    7.02961E-01
 1.25000E+01    5.19543E-01
 1.30000E+01    3.86083E-01
 1.35000E+01    2.88712E-01
 1.40000E+01    2.17616E-01
 1.45000E+01    1.66024E-01
 1.50000E+01    1.28599E-01
 1.60000E+01    8.19403E-02
 1.65000E+01    6.77959E-02
 1.80000E+01    4.45228E-02
 1.90000E+01    3.74142E-02
 2.00000E+01    3.33120E-02
 2.10000E+01    3.07756E-02
 2.20000E+01    2.90665E-02
 2.40000E+01    2.67013E-02
 2.57000E+01    2.50693E-02
 2.80000E+01    2.30937E-02
 3.00000E+01    2.16106E-02
 3.20000E+01    2.03467E-02
 3.40000E+01    1.92542E-02
 3.60000E+01    1.82773E-02
 3.80000E+01    1.73790E-02
 4.00000E+01    1.65415E-02
 4.50000E+01    1.46794E-02
 5.00000E+01    1.30966E-02
 5.50000E+01    1.17228E-02
 6.00000E+01    1.05225E-02
 6.50000E+01    9.47106E-03
 7.00000E+01    8.54817E-03
 7.50000E+01    7.73569E-03
 8.00000E+01    7.01830E-03
 9.00000E+01    5.81902E-03
 9.60000E+01    5.22359E-03
 1.00000E+02    4.86948E-03
 1.10000E+02    4.11015E-03
 1.20000E+02    3.49773E-03
 1.30000E+02    3.00028E-03
 1.40000E+02    2.59366E-03
 1.50000E+02    2.25941E-03
