# n + Fe 58 : (n,n'06)  
# endfb8.0   Nobre,Herman,Leal,Trkov,Brown,... EVAL-Oct16
# uncertainties: n
# # energies =    76
#   E(MeV)       xs(mb) 
 2.64567E+00    0.00000E+00
 2.70000E+00    7.72815E+00
 2.80000E+00    1.65005E+01
 3.00000E+00    3.40384E+01
 3.20000E+00    4.97542E+01
 3.50000E+00    6.35059E+01
 3.60000E+00    6.56973E+01
 3.80000E+00    6.76484E+01
 4.00000E+00    6.53907E+01
 4.15000E+00    6.32687E+01
 4.30000E+00    6.11827E+01
 4.40000E+00    5.84894E+01
 4.50000E+00    5.57948E+01
 4.60000E+00    5.35777E+01
 4.70000E+00    5.14371E+01
 4.80000E+00    4.93556E+01
 5.00000E+00    4.48878E+01
 5.20000E+00    4.12323E+01
 5.40000E+00    3.78990E+01
 5.50000E+00    3.63433E+01
 5.70000E+00    3.34296E+01
 6.00000E+00    2.94970E+01
 6.30000E+00    2.60154E+01
 6.50000E+00    2.39171E+01
 6.70000E+00    2.21929E+01
 7.00000E+00    1.95130E+01
 7.25000E+00    1.75816E+01
 7.50000E+00    1.58196E+01
 8.00000E+00    1.28260E+01
 8.50000E+00    1.01687E+01
 9.00000E+00    8.12903E+00
 9.50000E+00    6.51619E+00
 1.00000E+01    5.26683E+00
 1.05000E+01    4.29696E+00
 1.10000E+01    3.53331E+00
 1.12500E+01    3.21453E+00
 1.15000E+01    2.93021E+00
 1.20000E+01    2.45550E+00
 1.25000E+01    2.08254E+00
 1.30000E+01    1.78308E+00
 1.35000E+01    1.54392E+00
 1.40000E+01    1.35162E+00
 1.45000E+01    1.19604E+00
 1.50000E+01    1.06921E+00
 1.60000E+01    8.78320E-01
 1.65000E+01    8.05830E-01
 1.80000E+01    6.47012E-01
 1.90000E+01    5.73551E-01
 2.00000E+01    5.16716E-01
 2.10000E+01    4.72104E-01
 2.20000E+01    4.36862E-01
 2.40000E+01    3.86083E-01
 2.57000E+01    3.55597E-01
 2.80000E+01    3.23524E-01
 3.00000E+01    3.00363E-01
 3.20000E+01    2.80290E-01
 3.40000E+01    2.62779E-01
 3.60000E+01    2.47373E-01
 3.80000E+01    2.33616E-01
 4.00000E+01    2.21157E-01
 4.50000E+01    1.94331E-01
 5.00000E+01    1.71994E-01
 5.50000E+01    1.52845E-01
 6.00000E+01    1.36303E-01
 6.50000E+01    1.21945E-01
 7.00000E+01    1.09454E-01
 7.50000E+01    9.85592E-02
 8.00000E+01    8.90192E-02
 9.00000E+01    7.32449E-02
 9.60000E+01    6.54900E-02
 1.00000E+02    6.09080E-02
 1.10000E+02    5.11538E-02
 1.20000E+02    4.33592E-02
 1.30000E+02    3.70788E-02
 1.40000E+02    3.19881E-02
 1.50000E+02    2.78334E-02
