# n + Fe 58 : (n,n'16)  
# endfb8.0   Nobre,Herman,Leal,Trkov,Brown,... EVAL-Oct16
# uncertainties: n
# # energies =    71
#   E(MeV)       xs(mb) 
 3.50976E+00    0.00000E+00
 3.60000E+00    7.40515E+00
 3.80000E+00    1.53476E+01
 4.00000E+00    2.16671E+01
 4.15000E+00    2.57950E+01
 4.30000E+00    2.90689E+01
 4.40000E+00    3.01361E+01
 4.50000E+00    3.07097E+01
 4.60000E+00    3.11636E+01
 4.70000E+00    3.12949E+01
 4.80000E+00    3.11390E+01
 5.00000E+00    2.98278E+01
 5.20000E+00    2.83090E+01
 5.40000E+00    2.65321E+01
 5.50000E+00    2.56000E+01
 5.70000E+00    2.37120E+01
 6.00000E+00    2.09369E+01
 6.30000E+00    1.83397E+01
 6.50000E+00    1.67401E+01
 6.70000E+00    1.54286E+01
 7.00000E+00    1.33688E+01
 7.25000E+00    1.18982E+01
 7.50000E+00    1.05655E+01
 8.00000E+00    8.33070E+00
 8.50000E+00    6.33790E+00
 9.00000E+00    4.82539E+00
 9.50000E+00    3.63758E+00
 1.00000E+01    2.73221E+00
 1.05000E+01    2.04706E+00
 1.10000E+01    1.52471E+00
 1.12500E+01    1.31353E+00
 1.15000E+01    1.12939E+00
 1.20000E+01    8.35030E-01
 1.25000E+01    6.18705E-01
 1.30000E+01    4.56713E-01
 1.35000E+01    3.37445E-01
 1.40000E+01    2.49859E-01
 1.45000E+01    1.85881E-01
 1.50000E+01    1.39383E-01
 1.60000E+01    8.13197E-02
 1.65000E+01    6.37825E-02
 1.80000E+01    3.53510E-02
 1.90000E+01    2.70678E-02
 2.00000E+01    2.25805E-02
 2.10000E+01    2.00437E-02
 2.20000E+01    1.85222E-02
 2.40000E+01    1.67820E-02
 2.57000E+01    1.57919E-02
 2.80000E+01    1.46891E-02
 3.00000E+01    1.38790E-02
 3.20000E+01    1.31826E-02
 3.40000E+01    1.25646E-02
 3.60000E+01    1.19961E-02
 3.80000E+01    1.14578E-02
 4.00000E+01    1.09443E-02
 4.50000E+01    9.76779E-03
 5.00000E+01    8.73509E-03
 5.50000E+01    7.82087E-03
 6.00000E+01    7.01270E-03
 6.50000E+01    6.29943E-03
 7.00000E+01    5.67097E-03
 7.50000E+01    5.11628E-03
 8.00000E+01    4.62642E-03
 9.00000E+01    3.80971E-03
 9.60000E+01    3.40546E-03
 1.00000E+02    3.16598E-03
 1.10000E+02    2.65426E-03
 1.20000E+02    2.24442E-03
 1.30000E+02    1.91376E-03
 1.40000E+02    1.64521E-03
 1.50000E+02    1.42571E-03
