# n + Fe 58 : (n,n'22)  
# endfb8.0   Nobre,Herman,Leal,Trkov,Brown,... EVAL-Oct16
# uncertainties: n
# # energies =    69
#   E(MeV)       xs(mb) 
 3.85547E+00    0.00000E+00
 4.00000E+00    1.92995E+00
 4.15000E+00    4.24291E+00
 4.30000E+00    7.48313E+00
 4.40000E+00    9.58441E+00
 4.50000E+00    1.17461E+01
 4.60000E+00    1.36309E+01
 4.70000E+00    1.52267E+01
 4.80000E+00    1.65006E+01
 5.00000E+00    1.77994E+01
 5.20000E+00    1.81964E+01
 5.40000E+00    1.78076E+01
 5.50000E+00    1.74187E+01
 5.70000E+00    1.64162E+01
 6.00000E+00    1.46739E+01
 6.30000E+00    1.29540E+01
 6.50000E+00    1.18912E+01
 6.70000E+00    1.10582E+01
 7.00000E+00    9.69742E+00
 7.25000E+00    8.73995E+00
 7.50000E+00    7.86348E+00
 8.00000E+00    6.37714E+00
 8.50000E+00    4.97910E+00
 9.00000E+00    3.87662E+00
 9.50000E+00    2.97501E+00
 1.00000E+01    2.26406E+00
 1.05000E+01    1.71263E+00
 1.10000E+01    1.28233E+00
 1.12500E+01    1.10605E+00
 1.15000E+01    9.50620E-01
 1.20000E+01    7.01821E-01
 1.25000E+01    5.15673E-01
 1.30000E+01    3.77922E-01
 1.35000E+01    2.76183E-01
 1.40000E+01    2.01271E-01
 1.45000E+01    1.46270E-01
 1.50000E+01    1.06138E-01
 1.60000E+01    5.56048E-02
 1.65000E+01    4.02198E-02
 1.80000E+01    1.51783E-02
 1.90000E+01    7.98123E-03
 2.00000E+01    4.22472E-03
 2.10000E+01    2.24574E-03
 2.20000E+01    1.20095E-03
 2.40000E+01    3.50364E-04
 2.57000E+01    1.25446E-04
 2.80000E+01    3.19348E-05
 3.00000E+01    1.00384E-05
 3.20000E+01    3.24730E-06
 3.40000E+01    1.06938E-06
 3.60000E+01    3.63050E-07
 3.80000E+01    1.24360E-07
 4.00000E+01    4.37310E-08
 4.50000E+01    3.51820E-09
 5.00000E+01    3.10350E-10
 5.50000E+01    3.09420E-11
 6.00000E+01    3.42980E-12
 6.50000E+01    4.01600E-13
 7.00000E+01    5.24390E-14
 7.50000E+01    7.44480E-15
 8.00000E+01    1.08280E-15
 9.00000E+01    2.99090E-17
 9.60000E+01    3.60180E-18
 1.00000E+02    9.71410E-19
 1.10000E+02    3.84190E-20
 1.20000E+02    2.47170E-21
 1.30000E+02    1.35970E-22
 1.40000E+02    8.01420E-24
 1.50000E+02    5.85130E-25
