# n + Fe 58 : (n,n'15)  
# endfb8.0   Nobre,Herman,Leal,Trkov,Brown,... EVAL-Oct16
# uncertainties: n
# # energies =    72
#   E(MeV)       xs(mb) 
 3.44800E+00    0.00000E+00
 3.50000E+00    2.44144E+01
 3.60000E+00    3.92262E+01
 3.80000E+00    4.68468E+01
 4.00000E+00    5.25241E+01
 4.15000E+00    5.46062E+01
 4.30000E+00    5.59964E+01
 4.40000E+00    5.54728E+01
 4.50000E+00    5.37811E+01
 4.60000E+00    5.23851E+01
 4.70000E+00    5.07495E+01
 4.80000E+00    4.89044E+01
 5.00000E+00    4.43022E+01
 5.20000E+00    4.00823E+01
 5.40000E+00    3.60184E+01
 5.50000E+00    3.40880E+01
 5.70000E+00    3.04697E+01
 6.00000E+00    2.56711E+01
 6.30000E+00    2.15891E+01
 6.50000E+00    1.92313E+01
 6.70000E+00    1.72919E+01
 7.00000E+00    1.45294E+01
 7.25000E+00    1.26205E+01
 7.50000E+00    1.09597E+01
 8.00000E+00    8.28912E+00
 8.50000E+00    6.08918E+00
 9.00000E+00    4.50272E+00
 9.50000E+00    3.31395E+00
 1.00000E+01    2.44146E+00
 1.05000E+01    1.79900E+00
 1.10000E+01    1.32330E+00
 1.12500E+01    1.13464E+00
 1.15000E+01    9.72977E-01
 1.20000E+01    7.16116E-01
 1.25000E+01    5.28972E-01
 1.30000E+01    3.92625E-01
 1.35000E+01    2.93221E-01
 1.40000E+01    2.20725E-01
 1.45000E+01    1.68175E-01
 1.50000E+01    1.30119E-01
 1.60000E+01    8.27599E-02
 1.65000E+01    6.84291E-02
 1.80000E+01    4.48840E-02
 1.90000E+01    3.77042E-02
 2.00000E+01    3.35653E-02
 2.10000E+01    3.10039E-02
 2.20000E+01    2.92711E-02
 2.40000E+01    2.68484E-02
 2.57000E+01    2.51712E-02
 2.80000E+01    2.31580E-02
 3.00000E+01    2.16601E-02
 3.20000E+01    2.03885E-02
 3.40000E+01    1.92889E-02
 3.60000E+01    1.83053E-02
 3.80000E+01    1.73998E-02
 4.00000E+01    1.65564E-02
 4.50000E+01    1.46851E-02
 5.00000E+01    1.30971E-02
 5.50000E+01    1.17199E-02
 6.00000E+01    1.05176E-02
 6.50000E+01    9.46508E-03
 7.00000E+01    8.54176E-03
 7.50000E+01    7.72929E-03
 8.00000E+01    7.01192E-03
 9.00000E+01    5.81335E-03
 9.60000E+01    5.21832E-03
 1.00000E+02    4.86448E-03
 1.10000E+02    4.10581E-03
 1.20000E+02    3.49407E-03
 1.30000E+02    2.99720E-03
 1.40000E+02    2.59106E-03
 1.50000E+02    2.25715E-03
