# n + Fe 58 : (n,n'04)  
# endfb8.0   Nobre,Herman,Leal,Trkov,Brown,... EVAL-Oct16
# uncertainties: n
# # energies =    78
#   E(MeV)       xs(mb) 
 2.17105E+00    0.00000E+00
 2.40000E+00    1.13212E+02
 2.55000E+00    1.37212E+02
 2.70000E+00    1.57880E+02
 2.80000E+00    1.69593E+02
 3.00000E+00    1.75576E+02
 3.20000E+00    1.74776E+02
 3.50000E+00    1.57737E+02
 3.60000E+00    1.51607E+02
 3.80000E+00    1.35483E+02
 4.00000E+00    1.19899E+02
 4.15000E+00    1.09126E+02
 4.30000E+00    1.00507E+02
 4.40000E+00    9.36521E+01
 4.50000E+00    8.68601E+01
 4.60000E+00    8.12990E+01
 4.70000E+00    7.62332E+01
 4.80000E+00    7.15736E+01
 5.00000E+00    6.25213E+01
 5.20000E+00    5.54579E+01
 5.40000E+00    4.93776E+01
 5.50000E+00    4.66468E+01
 5.70000E+00    4.16984E+01
 6.00000E+00    3.53373E+01
 6.30000E+00    2.99919E+01
 6.50000E+00    2.68933E+01
 6.70000E+00    2.43549E+01
 7.00000E+00    2.06383E+01
 7.25000E+00    1.80376E+01
 7.50000E+00    1.57429E+01
 8.00000E+00    1.20097E+01
 8.50000E+00    8.91710E+00
 9.00000E+00    6.68260E+00
 9.50000E+00    5.01230E+00
 1.00000E+01    3.78329E+00
 1.05000E+01    2.87198E+00
 1.10000E+01    2.18614E+00
 1.12500E+01    1.90966E+00
 1.15000E+01    1.66917E+00
 1.20000E+01    1.28088E+00
 1.25000E+01    9.91004E-01
 1.30000E+01    7.70794E-01
 1.35000E+01    6.05024E-01
 1.40000E+01    4.80019E-01
 1.45000E+01    3.85602E-01
 1.50000E+01    3.14262E-01
 1.60000E+01    2.18829E-01
 1.65000E+01    1.87058E-01
 1.80000E+01    1.26398E-01
 1.90000E+01    1.01597E-01
 2.00000E+01    8.30088E-02
 2.10000E+01    6.85956E-02
 2.20000E+01    5.74838E-02
 2.40000E+01    4.28773E-02
 2.57000E+01    3.57969E-02
 2.80000E+01    3.00922E-02
 3.00000E+01    2.67380E-02
 3.20000E+01    2.40751E-02
 3.40000E+01    2.18587E-02
 3.60000E+01    1.99751E-02
 3.80000E+01    1.83457E-02
 4.00000E+01    1.69066E-02
 4.50000E+01    1.38810E-02
 5.00000E+01    1.14327E-02
 5.50000E+01    9.43391E-03
 6.00000E+01    7.82217E-03
 6.50000E+01    6.52700E-03
 7.00000E+01    5.47717E-03
 7.50000E+01    4.61404E-03
 8.00000E+01    3.89674E-03
 9.00000E+01    2.79519E-03
 9.60000E+01    2.29725E-03
 1.00000E+02    2.01803E-03
 1.10000E+02    1.46533E-03
 1.20000E+02    1.07079E-03
 1.30000E+02    7.88320E-04
 1.40000E+02    5.85396E-04
 1.50000E+02    4.38897E-04
