# n + Fe 58 : (n,n'17)  
# endfb8.0   Nobre,Herman,Leal,Trkov,Brown,... EVAL-Oct16
# uncertainties: n
# # energies =    70
#   E(MeV)       xs(mb) 
 3.59957E+00    0.00000E+00
 3.80000E+00    2.85164E+01
 4.00000E+00    3.39005E+01
 4.15000E+00    3.59172E+01
 4.30000E+00    3.71259E+01
 4.40000E+00    3.74583E+01
 4.50000E+00    3.66471E+01
 4.60000E+00    3.60094E+01
 4.70000E+00    3.51462E+01
 4.80000E+00    3.40700E+01
 5.00000E+00    3.11022E+01
 5.20000E+00    2.82202E+01
 5.40000E+00    2.53409E+01
 5.50000E+00    2.39537E+01
 5.70000E+00    2.13345E+01
 6.00000E+00    1.78488E+01
 6.30000E+00    1.48992E+01
 6.50000E+00    1.32071E+01
 6.70000E+00    1.18082E+01
 7.00000E+00    9.85634E+00
 7.25000E+00    8.51392E+00
 7.50000E+00    7.35540E+00
 8.00000E+00    5.50692E+00
 8.50000E+00    4.00889E+00
 9.00000E+00    2.94021E+00
 9.50000E+00    2.14681E+00
 1.00000E+01    1.56887E+00
 1.05000E+01    1.14517E+00
 1.10000E+01    8.33418E-01
 1.12500E+01    7.10287E-01
 1.15000E+01    6.05330E-01
 1.20000E+01    4.38383E-01
 1.25000E+01    3.16874E-01
 1.30000E+01    2.28821E-01
 1.35000E+01    1.64766E-01
 1.40000E+01    1.18130E-01
 1.45000E+01    8.44584E-02
 1.50000E+01    6.01840E-02
 1.60000E+01    3.03530E-02
 1.65000E+01    2.15291E-02
 1.80000E+01    7.69258E-03
 1.90000E+01    3.92437E-03
 2.00000E+01    2.02746E-03
 2.10000E+01    1.05738E-03
 2.20000E+01    5.56820E-04
 2.40000E+01    1.58261E-04
 2.57000E+01    5.54574E-05
 2.80000E+01    1.37194E-05
 3.00000E+01    4.21778E-06
 3.20000E+01    1.33903E-06
 3.40000E+01    4.33990E-07
 3.60000E+01    1.45270E-07
 3.80000E+01    4.91180E-08
 4.00000E+01    1.70630E-08
 4.50000E+01    1.33630E-09
 5.00000E+01    1.15280E-10
 5.50000E+01    1.12780E-11
 6.00000E+01    1.23000E-12
 6.50000E+01    1.41990E-13
 7.00000E+01    1.83100E-14
 7.50000E+01    2.57090E-15
 8.00000E+01    3.70210E-16
 9.00000E+01    1.00520E-17
 9.60000E+01    1.19980E-18
 1.00000E+02    3.21840E-19
 1.10000E+02    1.25730E-20
 1.20000E+02    8.00220E-22
 1.30000E+02    4.36020E-23
 1.40000E+02    2.54790E-24
 1.50000E+02    1.84570E-25
