# n + Fe 58 : (n,n'18)  
# endfb8.0   Nobre,Herman,Leal,Trkov,Brown,... EVAL-Oct16
# uncertainties: n
# # energies =    70
#   E(MeV)       xs(mb) 
 3.60469E+00    0.00000E+00
 3.80000E+00    3.37163E+01
 4.00000E+00    4.07437E+01
 4.15000E+00    4.39710E+01
 4.30000E+00    4.67250E+01
 4.40000E+00    4.72514E+01
 4.50000E+00    4.66853E+01
 4.60000E+00    4.62621E+01
 4.70000E+00    4.55057E+01
 4.80000E+00    4.44387E+01
 5.00000E+00    4.11140E+01
 5.20000E+00    3.77635E+01
 5.40000E+00    3.42938E+01
 5.50000E+00    3.25862E+01
 5.70000E+00    2.93025E+01
 6.00000E+00    2.48201E+01
 6.30000E+00    2.09324E+01
 6.50000E+00    1.86651E+01
 6.70000E+00    1.67929E+01
 7.00000E+00    1.41183E+01
 7.25000E+00    1.22681E+01
 7.50000E+00    1.06586E+01
 8.00000E+00    8.07376E+00
 8.50000E+00    5.94463E+00
 9.00000E+00    4.40771E+00
 9.50000E+00    3.25257E+00
 1.00000E+01    2.40167E+00
 1.05000E+01    1.77282E+00
 1.10000E+01    1.30568E+00
 1.12500E+01    1.12007E+00
 1.15000E+01    9.60897E-01
 1.20000E+01    7.07717E-01
 1.25000E+01    5.22953E-01
 1.30000E+01    3.88457E-01
 1.35000E+01    2.90350E-01
 1.40000E+01    2.18750E-01
 1.45000E+01    1.66807E-01
 1.50000E+01    1.29155E-01
 1.60000E+01    8.22399E-02
 1.65000E+01    6.80271E-02
 1.80000E+01    4.46548E-02
 1.90000E+01    3.75202E-02
 2.00000E+01    3.34054E-02
 2.10000E+01    3.08596E-02
 2.20000E+01    2.91417E-02
 2.40000E+01    2.67554E-02
 2.57000E+01    2.51073E-02
 2.80000E+01    2.31177E-02
 3.00000E+01    2.16289E-02
 3.20000E+01    2.03623E-02
 3.40000E+01    1.92669E-02
 3.60000E+01    1.82879E-02
 3.80000E+01    1.73869E-02
 4.00000E+01    1.65470E-02
 4.50000E+01    1.46816E-02
 5.00000E+01    1.30969E-02
 5.50000E+01    1.17218E-02
 6.00000E+01    1.05207E-02
 6.50000E+01    9.46889E-03
 7.00000E+01    8.54588E-03
 7.50000E+01    7.73337E-03
 8.00000E+01    7.01603E-03
 9.00000E+01    5.81707E-03
 9.60000E+01    5.22169E-03
 1.00000E+02    4.86773E-03
 1.10000E+02    4.10856E-03
 1.20000E+02    3.49639E-03
 1.30000E+02    2.99915E-03
 1.40000E+02    2.59278E-03
 1.50000E+02    2.25861E-03
