# n + Fe 58 : (n,n'09)  
# endfb8.0   Nobre,Herman,Leal,Trkov,Brown,... EVAL-Oct16
# uncertainties: n
# # energies =    74
#   E(MeV)       xs(mb) 
 2.92642E+00    0.00000E+00
 3.00000E+00    6.03017E+01
 3.20000E+00    8.23959E+01
 3.50000E+00    9.51311E+01
 3.60000E+00    9.82624E+01
 3.80000E+00    9.68026E+01
 4.00000E+00    9.34162E+01
 4.15000E+00    8.82001E+01
 4.30000E+00    8.31025E+01
 4.40000E+00    7.85851E+01
 4.50000E+00    7.31735E+01
 4.60000E+00    6.87842E+01
 4.70000E+00    6.46402E+01
 4.80000E+00    6.07085E+01
 5.00000E+00    5.28563E+01
 5.20000E+00    4.65381E+01
 5.40000E+00    4.10483E+01
 5.50000E+00    3.85815E+01
 5.70000E+00    3.41323E+01
 6.00000E+00    2.84868E+01
 6.30000E+00    2.38364E+01
 6.50000E+00    2.11885E+01
 6.70000E+00    1.90254E+01
 7.00000E+00    1.59504E+01
 7.25000E+00    1.38259E+01
 7.50000E+00    1.19749E+01
 8.00000E+00    8.99485E+00
 8.50000E+00    6.55141E+00
 9.00000E+00    4.80190E+00
 9.50000E+00    3.50637E+00
 1.00000E+01    2.56685E+00
 1.05000E+01    1.88272E+00
 1.10000E+01    1.38033E+00
 1.12500E+01    1.18200E+00
 1.15000E+01    1.01235E+00
 1.20000E+01    7.43501E-01
 1.25000E+01    5.48477E-01
 1.30000E+01    4.06006E-01
 1.35000E+01    3.02355E-01
 1.40000E+01    2.26959E-01
 1.45000E+01    1.72470E-01
 1.50000E+01    1.33133E-01
 1.60000E+01    8.43752E-02
 1.65000E+01    6.96746E-02
 1.80000E+01    4.55915E-02
 1.90000E+01    3.82746E-02
 2.00000E+01    3.40639E-02
 2.10000E+01    3.14517E-02
 2.20000E+01    2.96656E-02
 2.40000E+01    2.71226E-02
 2.57000E+01    2.53575E-02
 2.80000E+01    2.32759E-02
 3.00000E+01    2.17527E-02
 3.20000E+01    2.04673E-02
 3.40000E+01    1.93549E-02
 3.60000E+01    1.83572E-02
 3.80000E+01    1.74386E-02
 4.00000E+01    1.65840E-02
 4.50000E+01    1.46950E-02
 5.00000E+01    1.30967E-02
 5.50000E+01    1.17126E-02
 6.00000E+01    1.05064E-02
 6.50000E+01    9.45210E-03
 7.00000E+01    8.52805E-03
 7.50000E+01    7.71544E-03
 8.00000E+01    6.99855E-03
 9.00000E+01    5.80116E-03
 9.60000E+01    5.20705E-03
 1.00000E+02    4.85384E-03
 1.10000E+02    4.09667E-03
 1.20000E+02    3.48628E-03
 1.30000E+02    2.99063E-03
 1.40000E+02    2.58553E-03
 1.50000E+02    2.25248E-03
