# n + Fe 58 : (n,n'26)  
# endfb8.0   Nobre,Herman,Leal,Trkov,Brown,... EVAL-Oct16
# uncertainties: n
# # energies =    69
#   E(MeV)       xs(mb) 
 3.95407E+00    0.00000E+00
 4.00000E+00    5.67682E-02
 4.15000E+00    3.18868E-01
 4.30000E+00    7.90616E-01
 4.40000E+00    1.19215E+00
 4.50000E+00    1.62194E+00
 4.60000E+00    2.07894E+00
 4.70000E+00    2.52895E+00
 4.80000E+00    2.95560E+00
 5.00000E+00    3.65944E+00
 5.20000E+00    4.22043E+00
 5.40000E+00    4.61897E+00
 5.50000E+00    4.76451E+00
 5.70000E+00    4.96361E+00
 6.00000E+00    5.07423E+00
 6.30000E+00    5.02198E+00
 6.50000E+00    4.92448E+00
 6.70000E+00    4.86150E+00
 7.00000E+00    4.60598E+00
 7.25000E+00    4.39331E+00
 7.50000E+00    4.15520E+00
 8.00000E+00    3.66984E+00
 8.50000E+00    3.06832E+00
 9.00000E+00    2.52449E+00
 9.50000E+00    2.02630E+00
 1.00000E+01    1.60051E+00
 1.05000E+01    1.25051E+00
 1.10000E+01    9.63277E-01
 1.12500E+01    8.41666E-01
 1.15000E+01    7.31809E-01
 1.20000E+01    5.52752E-01
 1.25000E+01    4.17056E-01
 1.30000E+01    3.10922E-01
 1.35000E+01    2.30641E-01
 1.40000E+01    1.70299E-01
 1.45000E+01    1.25089E-01
 1.50000E+01    9.16011E-02
 1.60000E+01    4.86505E-02
 1.65000E+01    3.53808E-02
 1.80000E+01    1.35419E-02
 1.90000E+01    7.19106E-03
 2.00000E+01    3.84876E-03
 2.10000E+01    2.07044E-03
 2.20000E+01    1.12071E-03
 2.40000E+01    3.34292E-04
 2.57000E+01    1.21518E-04
 2.80000E+01    3.14257E-05
 3.00000E+01    9.99037E-06
 3.20000E+01    3.26435E-06
 3.40000E+01    1.08471E-06
 3.60000E+01    3.71190E-07
 3.80000E+01    1.28030E-07
 4.00000E+01    4.52900E-08
 4.50000E+01    3.68840E-09
 5.00000E+01    3.28500E-10
 5.50000E+01    3.30080E-11
 6.00000E+01    3.68280E-12
 6.50000E+01    4.33660E-13
 7.00000E+01    5.69050E-14
 7.50000E+01    8.11420E-15
 8.00000E+01    1.18470E-15
 9.00000E+01    3.29490E-17
 9.60000E+01    3.98200E-18
 1.00000E+02    1.07630E-18
 1.10000E+02    4.27750E-20
 1.20000E+02    2.76370E-21
 1.30000E+02    1.52610E-22
 1.40000E+02    9.02490E-24
 1.50000E+02    6.60930E-25
