# n + Fe 58 : (n,n'12)  
# endfb8.0   Nobre,Herman,Leal,Trkov,Brown,... EVAL-Oct16
# uncertainties: n
# # energies =    73
#   E(MeV)       xs(mb) 
 3.18857E+00    0.00000E+00
 3.20000E+00    1.40248E+00
 3.50000E+00    1.98458E+01
 3.60000E+00    2.42507E+01
 3.80000E+00    3.26573E+01
 4.00000E+00    3.73880E+01
 4.15000E+00    3.96938E+01
 4.30000E+00    4.10527E+01
 4.40000E+00    4.06036E+01
 4.50000E+00    3.97728E+01
 4.60000E+00    3.90428E+01
 4.70000E+00    3.81387E+01
 4.80000E+00    3.70905E+01
 5.00000E+00    3.43173E+01
 5.20000E+00    3.18157E+01
 5.40000E+00    2.93517E+01
 5.50000E+00    2.81558E+01
 5.70000E+00    2.58546E+01
 6.00000E+00    2.26508E+01
 6.30000E+00    1.97574E+01
 6.50000E+00    1.80022E+01
 6.70000E+00    1.65697E+01
 7.00000E+00    1.43308E+01
 7.25000E+00    1.27325E+01
 7.50000E+00    1.12826E+01
 8.00000E+00    8.84772E+00
 8.50000E+00    6.68703E+00
 9.00000E+00    5.05710E+00
 9.50000E+00    3.78948E+00
 1.00000E+01    2.83256E+00
 1.05000E+01    2.11453E+00
 1.10000E+01    1.57082E+00
 1.12500E+01    1.35184E+00
 1.15000E+01    1.16125E+00
 1.20000E+01    8.57166E-01
 1.25000E+01    6.34281E-01
 1.30000E+01    4.67380E-01
 1.35000E+01    3.44671E-01
 1.40000E+01    2.54723E-01
 1.45000E+01    1.89149E-01
 1.50000E+01    1.41592E-01
 1.60000E+01    8.23698E-02
 1.65000E+01    6.45298E-02
 1.80000E+01    3.56715E-02
 1.90000E+01    2.72847E-02
 2.00000E+01    2.27477E-02
 2.10000E+01    2.01830E-02
 2.20000E+01    1.86397E-02
 2.40000E+01    1.68584E-02
 2.57000E+01    1.58393E-02
 2.80000E+01    1.47148E-02
 3.00000E+01    1.38983E-02
 3.20000E+01    1.31991E-02
 3.40000E+01    1.25778E-02
 3.60000E+01    1.20054E-02
 3.80000E+01    1.14636E-02
 4.00000E+01    1.09468E-02
 4.50000E+01    9.76572E-03
 5.00000E+01    8.73045E-03
 5.50000E+01    7.81457E-03
 6.00000E+01    7.00578E-03
 6.50000E+01    6.29231E-03
 7.00000E+01    5.66398E-03
 7.50000E+01    5.10962E-03
 8.00000E+01    4.62015E-03
 9.00000E+01    3.80429E-03
 9.60000E+01    3.40052E-03
 1.00000E+02    3.16134E-03
 1.10000E+02    2.65043E-03
 1.20000E+02    2.24125E-03
 1.30000E+02    1.91103E-03
 1.40000E+02    1.64294E-03
 1.50000E+02    1.42385E-03
