# n + Fe 58 : (n,n'23)  
# endfb8.0   Nobre,Herman,Leal,Trkov,Brown,... EVAL-Oct16
# uncertainties: n
# # energies =    69
#   E(MeV)       xs(mb) 
 3.92110E+00    0.00000E+00
 4.00000E+00    1.84705E+01
 4.15000E+00    2.46608E+01
 4.30000E+00    2.88352E+01
 4.40000E+00    3.06569E+01
 4.50000E+00    3.17346E+01
 4.60000E+00    3.28653E+01
 4.70000E+00    3.36627E+01
 4.80000E+00    3.41024E+01
 5.00000E+00    3.35553E+01
 5.20000E+00    3.22840E+01
 5.40000E+00    3.03173E+01
 5.50000E+00    2.91801E+01
 5.70000E+00    2.67593E+01
 6.00000E+00    2.30882E+01
 6.30000E+00    1.96653E+01
 6.50000E+00    1.76024E+01
 6.70000E+00    1.58734E+01
 7.00000E+00    1.33754E+01
 7.25000E+00    1.16377E+01
 7.50000E+00    1.01249E+01
 8.00000E+00    7.69988E+00
 8.50000E+00    5.70704E+00
 9.00000E+00    4.26880E+00
 9.50000E+00    3.18257E+00
 1.00000E+01    2.37621E+00
 1.05000E+01    1.77492E+00
 1.10000E+01    1.32465E+00
 1.12500E+01    1.14479E+00
 1.15000E+01    9.90107E-01
 1.20000E+01    7.43150E-01
 1.25000E+01    5.61854E-01
 1.30000E+01    4.29759E-01
 1.35000E+01    3.32967E-01
 1.40000E+01    2.61905E-01
 1.45000E+01    2.09946E-01
 1.50000E+01    1.71904E-01
 1.60000E+01    1.23599E-01
 1.65000E+01    1.08555E-01
 1.80000E+01    8.26424E-02
 1.90000E+01    7.39457E-02
 2.00000E+01    6.84408E-02
 2.10000E+01    6.46840E-02
 2.20000E+01    6.18962E-02
 2.40000E+01    5.75653E-02
 2.57000E+01    5.42891E-02
 2.80000E+01    5.01457E-02
 3.00000E+01    4.69665E-02
 3.20000E+01    4.42344E-02
 3.40000E+01    4.18711E-02
 3.60000E+01    3.97584E-02
 3.80000E+01    3.78159E-02
 4.00000E+01    3.60034E-02
 4.50000E+01    3.19675E-02
 5.00000E+01    2.85302E-02
 5.50000E+01    2.55450E-02
 6.00000E+01    2.29339E-02
 6.50000E+01    2.06460E-02
 7.00000E+01    1.86361E-02
 7.50000E+01    1.68661E-02
 8.00000E+01    1.53031E-02
 9.00000E+01    1.26894E-02
 9.60000E+01    1.13911E-02
 1.00000E+02    1.06192E-02
 1.10000E+02    8.96321E-03
 1.20000E+02    7.62786E-03
 1.30000E+02    6.54295E-03
 1.40000E+02    5.65623E-03
 1.50000E+02    4.92705E-03
