# n + Fe 58 : (n,n'11)  
# endfb8.0   Nobre,Herman,Leal,Trkov,Brown,... EVAL-Oct16
# uncertainties: n
# # energies =    73
#   E(MeV)       xs(mb) 
 3.13738E+00    0.00000E+00
 3.20000E+00    4.32905E+01
 3.50000E+00    6.81820E+01
 3.60000E+00    7.28020E+01
 3.80000E+00    7.60070E+01
 4.00000E+00    7.73627E+01
 4.15000E+00    7.54958E+01
 4.30000E+00    7.31119E+01
 4.40000E+00    7.01646E+01
 4.50000E+00    6.61487E+01
 4.60000E+00    6.28582E+01
 4.70000E+00    5.96122E+01
 4.80000E+00    5.64129E+01
 5.00000E+00    4.96881E+01
 5.20000E+00    4.40902E+01
 5.40000E+00    3.90949E+01
 5.50000E+00    3.68179E+01
 5.70000E+00    3.26687E+01
 6.00000E+00    2.73396E+01
 6.30000E+00    2.29120E+01
 6.50000E+00    2.03820E+01
 6.70000E+00    1.83113E+01
 7.00000E+00    1.53676E+01
 7.25000E+00    1.33342E+01
 7.50000E+00    1.15635E+01
 8.00000E+00    8.71261E+00
 8.50000E+00    6.36847E+00
 9.00000E+00    4.68424E+00
 9.50000E+00    3.43062E+00
 1.00000E+01    2.51728E+00
 1.05000E+01    1.84943E+00
 1.10000E+01    1.35754E+00
 1.12500E+01    1.16304E+00
 1.15000E+01    9.96568E-01
 1.20000E+01    7.32532E-01
 1.25000E+01    5.40695E-01
 1.30000E+01    4.00690E-01
 1.35000E+01    2.98742E-01
 1.40000E+01    2.24503E-01
 1.45000E+01    1.70780E-01
 1.50000E+01    1.31949E-01
 1.60000E+01    8.37426E-02
 1.65000E+01    6.91879E-02
 1.80000E+01    4.53156E-02
 1.90000E+01    3.80518E-02
 2.00000E+01    3.38690E-02
 2.10000E+01    3.12767E-02
 2.20000E+01    2.95125E-02
 2.40000E+01    2.70183E-02
 2.57000E+01    2.52868E-02
 2.80000E+01    2.32313E-02
 3.00000E+01    2.17175E-02
 3.20000E+01    2.04373E-02
 3.40000E+01    1.93295E-02
 3.60000E+01    1.83375E-02
 3.80000E+01    1.74238E-02
 4.00000E+01    1.65735E-02
 4.50000E+01    1.46915E-02
 5.00000E+01    1.30971E-02
 5.50000E+01    1.17157E-02
 6.00000E+01    1.05110E-02
 6.50000E+01    9.45748E-03
 7.00000E+01    8.53363E-03
 7.50000E+01    7.72109E-03
 8.00000E+01    7.00401E-03
 9.00000E+01    5.80610E-03
 9.60000E+01    5.21156E-03
 1.00000E+02    4.85815E-03
 1.10000E+02    4.10038E-03
 1.20000E+02    3.48942E-03
 1.30000E+02    2.99328E-03
 1.40000E+02    2.58776E-03
 1.50000E+02    2.25436E-03
