# n + Fe 58 : (n,a)     
# endfb8.0   Nobre,Herman,Leal,Trkov,Brown,... EVAL-Oct16
# uncertainties: n
# # energies =   153
#   E(MeV)       xs(mb) 
 1.42387E+00    0.00000E+00
 1.50000E+00    8.28294E-09
 1.60000E+00    1.91625E-08
 1.66999E+00    2.67770E-08
 1.70000E+00    3.22566E-08
 1.70389E+00    3.29668E-08
 1.80000E+00    5.05151E-08
 1.90000E+00    6.87737E-08
 1.95058E+00    7.80090E-08
 1.99963E+00    8.86929E-08
 2.00000E+00    8.87739E-08
 2.11267E+00    1.13440E-07
 2.17105E+00    1.26218E-07
 2.29726E+00    1.53848E-07
 2.31991E+00    1.58806E-07
 2.37600E+00    1.76088E-07
 2.40000E+00    1.83482E-07
 2.50000E+00    2.14293E-07
 2.55000E+00    2.29698E-07
 2.57456E+00    2.37265E-07
 2.64567E+00    2.62796E-07
 2.65977E+00    2.67856E-07
 2.70000E+00    2.82633E-07
 2.80000E+00    3.19359E-07
 2.83058E+00    3.30590E-07
 2.88774E+00    3.51583E-07
 2.91460E+00    3.61585E-07
 2.92373E+00    3.64988E-07
 2.92642E+00    3.65989E-07
 2.92865E+00    3.66821E-07
 3.00000E+00    3.95031E-07
 3.02171E+00    4.03615E-07
 3.13738E+00    4.49348E-07
 3.18857E+00    4.69585E-07
 3.20000E+00    4.74105E-07
 3.28956E+00    5.09513E-07
 3.30045E+00    5.13821E-07
 3.44801E+00    5.72160E-07
 3.50000E+00    5.92717E-07
 3.50976E+00    5.96577E-07
 3.59957E+00    6.32084E-07
 3.60000E+00    6.32254E-07
 3.60469E+00    6.34107E-07
 3.65953E+00    6.55789E-07
 3.69280E+00    6.68942E-07
 3.80000E+00    7.11328E-07
 3.81957E+00    7.19064E-07
 3.85547E+00    7.33259E-07
 3.92110E+00    7.59209E-07
 3.92812E+00    7.61984E-07
 3.94766E+00    7.69708E-07
 3.95407E+00    7.72242E-07
 3.96955E+00    7.78364E-07
 4.00000E+00    7.90403E-07
 4.08063E+00    1.18449E-06
 4.08492E+00    1.20543E-06
 4.15000E+00    1.52352E-06
 4.15968E+00    1.65521E-06
 4.21131E+00    2.35801E-06
 4.23039E+00    2.61781E-06
 4.28802E+00    3.40219E-06
 4.30000E+00    3.56524E-06
 4.30365E+00    3.68858E-06
 4.31077E+00    3.92932E-06
 4.37263E+00    6.02023E-06
 4.38801E+00    6.54021E-06
 4.39776E+00    6.86967E-06
 4.40000E+00    6.94542E-06
 4.41556E+00    7.89339E-06
 4.50000E+00    1.30362E-05
 4.60000E+00    2.39278E-05
 4.70000E+00    4.21047E-05
 4.80000E+00    7.42666E-05
 5.00000E+00    2.10899E-04
 5.20000E+00    5.40437E-04
 5.40000E+00    1.30742E-03
 5.50000E+00    1.98171E-03
 5.55974E+00    2.66928E-03
 5.63276E+00    3.50962E-03
 5.68762E+00    4.14095E-03
 5.70000E+00    4.28340E-03
 5.73262E+00    5.15028E-03
 5.74593E+00    5.50384E-03
 5.85418E+00    8.38032E-03
 5.99689E+00    1.21724E-02
 6.00000E+00    1.22549E-02
 6.01557E+00    1.32573E-02
 6.03121E+00    1.42635E-02
 6.16126E+00    2.26325E-02
 6.22208E+00    2.65465E-02
 6.23237E+00    2.72085E-02
 6.25474E+00    2.86482E-02
 6.30000E+00    3.15610E-02
 6.30793E+00    3.25194E-02
 6.32077E+00    3.40716E-02
 6.38354E+00    4.16608E-02
 6.39097E+00    4.25586E-02
 6.39138E+00    4.26078E-02
 6.50000E+00    5.57398E-02
 6.70000E+00    9.64826E-02
 7.00000E+00    2.00842E-01
 7.25000E+00    3.49493E-01
 7.50000E+00    5.81010E-01
 8.00000E+00    1.37906E+00
 8.50000E+00    2.62003E+00
 9.00000E+00    4.15557E+00
 9.50000E+00    5.56997E+00
 1.00000E+01    6.48542E+00
 1.02189E+01    6.57284E+00
 1.05000E+01    6.68511E+00
 1.10000E+01    6.22235E+00
 1.12500E+01    5.82324E+00
 1.15000E+01    5.36012E+00
 1.20000E+01    4.37045E+00
 1.25000E+01    3.43224E+00
 1.30000E+01    2.61759E+00
 1.35000E+01    1.95735E+00
 1.40000E+01    1.44130E+00
 1.45000E+01    1.04955E+00
 1.50000E+01    7.58536E-01
 1.60000E+01    3.90756E-01
 1.65000E+01    2.79554E-01
 1.65462E+01    2.74079E-01
 1.80000E+01    1.01649E-01
 1.90000E+01    5.21161E-02
 2.00000E+01    2.69164E-02
 2.10000E+01    1.39702E-02
 2.20000E+01    7.30322E-03
 2.40000E+01    2.04657E-03
 2.57000E+01    7.12711E-04
 2.80000E+01    1.76187E-04
 3.00000E+01    5.43107E-05
 3.20000E+01    1.72846E-05
 3.40000E+01    5.61438E-06
 3.60000E+01    1.88521E-06
 3.80000E+01    6.39797E-07
 4.00000E+01    2.23296E-07
 4.50000E+01    1.77495E-08
 5.00000E+01    1.55631E-09
 5.50000E+01    1.54713E-10
 6.00000E+01    1.71657E-11
 6.50000E+01    2.01591E-12
 7.00000E+01    2.64069E-13
 7.50000E+01    3.77020E-14
 8.00000E+01    5.50999E-15
 9.00000E+01    1.54473E-16
 9.60000E+01    1.87478E-17
 1.00000E+02    5.08203E-18
 1.10000E+02    2.04178E-19
 1.20000E+02    1.33542E-20
 1.30000E+02    7.47246E-22
 1.40000E+02    4.48157E-23
 1.50000E+02    3.32019E-24
