# n + Fe 58 : (n,n'27)  
# endfb8.0   Nobre,Herman,Leal,Trkov,Brown,... EVAL-Oct16
# uncertainties: n
# # energies =    69
#   E(MeV)       xs(mb) 
 3.96955E+00    0.00000E+00
 4.00000E+00    5.61576E+00
 4.15000E+00    1.71216E+01
 4.30000E+00    2.17874E+01
 4.40000E+00    2.40589E+01
 4.50000E+00    2.58262E+01
 4.60000E+00    2.74971E+01
 4.70000E+00    2.88397E+01
 4.80000E+00    2.98169E+01
 5.00000E+00    3.03526E+01
 5.20000E+00    3.00136E+01
 5.40000E+00    2.88244E+01
 5.50000E+00    2.80140E+01
 5.70000E+00    2.61298E+01
 6.00000E+00    2.30166E+01
 6.30000E+00    1.99328E+01
 6.50000E+00    1.80085E+01
 6.70000E+00    1.63916E+01
 7.00000E+00    1.39614E+01
 7.25000E+00    1.22505E+01
 7.50000E+00    1.07393E+01
 8.00000E+00    8.28395E+00
 8.50000E+00    6.20926E+00
 9.00000E+00    4.68381E+00
 9.50000E+00    3.51015E+00
 1.00000E+01    2.62515E+00
 1.05000E+01    1.95740E+00
 1.10000E+01    1.45094E+00
 1.12500E+01    1.24700E+00
 1.15000E+01    1.07033E+00
 1.20000E+01    7.87795E-01
 1.25000E+01    5.80344E-01
 1.30000E+01    4.27290E-01
 1.35000E+01    3.15326E-01
 1.40000E+01    2.33483E-01
 1.45000E+01    1.73986E-01
 1.50000E+01    1.30835E-01
 1.60000E+01    7.70743E-02
 1.65000E+01    6.08462E-02
 1.80000E+01    3.45188E-02
 1.90000E+01    2.68195E-02
 2.00000E+01    2.26399E-02
 2.10000E+01    2.02843E-02
 2.20000E+01    1.88968E-02
 2.40000E+01    1.74011E-02
 2.57000E+01    1.65967E-02
 2.80000E+01    1.56563E-02
 3.00000E+01    1.49046E-02
 3.20000E+01    1.42159E-02
 3.40000E+01    1.35853E-02
 3.60000E+01    1.29958E-02
 3.80000E+01    1.24377E-02
 4.00000E+01    1.19032E-02
 4.50000E+01    1.06717E-02
 5.00000E+01    9.57830E-03
 5.50000E+01    8.60129E-03
 6.00000E+01    7.73099E-03
 6.50000E+01    6.95889E-03
 7.00000E+01    6.27516E-03
 7.50000E+01    5.67000E-03
 8.00000E+01    5.13390E-03
 9.00000E+01    4.23576E-03
 9.60000E+01    3.78939E-03
 1.00000E+02    3.52419E-03
 1.10000E+02    2.95615E-03
 1.20000E+02    2.49952E-03
 1.30000E+02    2.13020E-03
 1.40000E+02    1.82967E-03
 1.50000E+02    1.58388E-03
