# n + Cs135 : (n,p)g    
# jendl.ad   N.Iwamoto                         EVAL-Apr14
# uncertainties: n
# # energies =    47
#   E(MeV)       xs(mb) 
 3.85333E-01    0.00000E+00
 9.15821E-01    1.36650E-12
 1.40000E+00    2.61370E-12
 1.50000E+00    2.55310E-11
 1.60000E+00    1.82000E-10
 1.70000E+00    1.01470E-09
 1.80000E+00    4.62030E-09
 1.90000E+00    1.77970E-08
 2.00000E+00    5.94940E-08
 2.25000E+00    7.49480E-07
 2.50000E+00    5.31697E-06
 2.75000E+00    2.68470E-05
 3.00000E+00    9.72588E-05
 3.50000E+00    7.12386E-04
 4.00000E+00    2.84376E-03
 4.50000E+00    7.46736E-03
 5.00000E+00    1.47249E-02
 5.50000E+00    2.40379E-02
 6.00000E+00    3.45963E-02
 6.50000E+00    4.63105E-02
 7.00000E+00    6.02206E-02
 7.50000E+00    7.90464E-02
 8.00000E+00    1.07475E-01
 8.50000E+00    1.52274E-01
 9.00000E+00    2.21071E-01
 9.50000E+00    3.26632E-01
 1.00000E+01    4.77231E-01
 1.05000E+01    6.79487E-01
 1.10000E+01    9.40271E-01
 1.15000E+01    1.26684E+00
 1.20000E+01    1.65274E+00
 1.25000E+01    2.09026E+00
 1.30000E+01    2.55007E+00
 1.35000E+01    3.06670E+00
 1.40000E+01    3.59882E+00
 1.45000E+01    4.17702E+00
 1.50000E+01    4.70426E+00
 1.55000E+01    5.19742E+00
 1.60000E+01    5.69149E+00
 1.65000E+01    6.16044E+00
 1.70000E+01    6.56465E+00
 1.75000E+01    6.91779E+00
 1.80000E+01    7.22861E+00
 1.85000E+01    7.44725E+00
 1.90000E+01    7.75046E+00
 1.95000E+01    7.82517E+00
 2.00000E+01    8.04083E+00
