# n + Cs135 : (n,xd)    
# jendl.ad   N.Iwamoto                         EVAL-Apr14
# 
# # energies =    76
#   E(MeV)        xs(mb) 
 1.05000E-01    0.00000E+00
 1.10000E-01    0.00000E+00
 1.20000E-01    0.00000E+00
 1.30000E-01    0.00000E+00
 1.40000E-01    0.00000E+00
 1.50000E-01    0.00000E+00
 1.60000E-01    0.00000E+00
 1.70000E-01    0.00000E+00
 1.80000E-01    0.00000E+00
 1.90000E-01    0.00000E+00
 2.00000E-01    0.00000E+00
 2.25000E-01    0.00000E+00
 2.50000E-01    0.00000E+00
 2.51634E-01    0.00000E+00
 2.75000E-01    0.00000E+00
 3.00000E-01    0.00000E+00
 4.00000E-01    0.00000E+00
 4.11077E-01    0.00000E+00
 5.00000E-01    0.00000E+00
 6.00000E-01    0.00000E+00
 6.12700E-01    0.00000E+00
 7.00000E-01    0.00000E+00
 7.92721E-01    0.00000E+00
 8.00000E-01    0.00000E+00
 9.00000E-01    0.00000E+00
 9.88734E-01    0.00000E+00
 1.00000E+00    0.00000E+00
 1.07033E+00    0.00000E+00
 1.10000E+00    0.00000E+00
 1.20000E+00    0.00000E+00
 1.30000E+00    0.00000E+00
 1.40000E+00    0.00000E+00
 1.50000E+00    0.00000E+00
 1.60000E+00    0.00000E+00
 1.70000E+00    0.00000E+00
 1.80000E+00    0.00000E+00
 1.90000E+00    0.00000E+00
 2.00000E+00    0.00000E+00
 2.25000E+00    0.00000E+00
 2.50000E+00    0.00000E+00
 2.75000E+00    0.00000E+00
 3.00000E+00    0.00000E+00
 3.50000E+00    0.00000E+00
 4.00000E+00    0.00000E+00
 4.50000E+00    0.00000E+00
 5.00000E+00    3.77999E-14
 5.50000E+00    8.03265E-14
 6.00000E+00    1.22850E-13
 6.50000E+00    1.80150E-10
 7.00000E+00    1.61830E-08
 7.50000E+00    3.17570E-07
 8.00000E+00    2.50752E-06
 8.50000E+00    1.13595E-05
 9.00000E+00    3.93251E-05
 9.50000E+00    1.41047E-04
 1.00000E+01    5.76168E-04
 1.05000E+01    2.09500E-03
 1.10000E+01    7.19989E-03
 1.15000E+01    1.75362E-02
 1.20000E+01    3.93289E-02
 1.25000E+01    8.04955E-02
 1.30000E+01    1.49790E-01
 1.35000E+01    2.55598E-01
 1.40000E+01    3.59045E-01
 1.45000E+01    4.87563E-01
 1.50000E+01    6.40936E-01
 1.55000E+01    8.21018E-01
 1.60000E+01    1.02727E+00
 1.65000E+01    1.26013E+00
 1.70000E+01    1.42410E+00
 1.75000E+01    1.69966E+00
 1.80000E+01    1.89235E+00
 1.85000E+01    2.20709E+00
 1.90000E+01    2.42521E+00
 1.95000E+01    2.64546E+00
 2.00000E+01    2.87786E+00
