# n + Cs135 : (n,d)     
# jendl.ad   N.Iwamoto                         EVAL-Apr14
# uncertainties: n
# # energies =    49
#   E(MeV)       xs(mb) 
 4.55558E+00    0.00000E+00
 5.40895E+00    7.25830E-14
 6.00000E+00    1.22850E-13
 6.18141E+00    6.54400E-11
 6.20401E+00    7.35770E-11
 6.29969E+00    1.08030E-10
 6.48953E+00    1.76380E-10
 6.50000E+00    1.80150E-10
 6.51693E+00    7.21990E-10
 6.53577E+00    1.32500E-09
 6.65314E+00    5.08150E-09
 6.68780E+00    6.19080E-09
 6.70815E+00    6.84220E-09
 6.70816E+00    6.84250E-09
 6.77998E+00    9.14110E-09
 6.83519E+00    1.09080E-08
 6.84457E+00    1.12080E-08
 6.86693E+00    1.19240E-08
 6.87504E+00    1.21840E-08
 6.92614E+00    1.38190E-08
 6.96254E+00    1.49840E-08
 6.98208E+00    1.56100E-08
 7.00000E+00    1.61830E-08
 7.50000E+00    3.17570E-07
 8.00000E+00    2.50752E-06
 8.50000E+00    1.13595E-05
 9.00000E+00    3.93251E-05
 9.50000E+00    1.41047E-04
 1.00000E+01    5.76168E-04
 1.05000E+01    2.09500E-03
 1.10000E+01    7.19989E-03
 1.15000E+01    1.75362E-02
 1.20000E+01    3.93289E-02
 1.25000E+01    8.04955E-02
 1.30000E+01    1.49790E-01
 1.35000E+01    2.55598E-01
 1.40000E+01    3.59045E-01
 1.45000E+01    4.87563E-01
 1.50000E+01    6.40936E-01
 1.55000E+01    8.21018E-01
 1.60000E+01    1.02727E+00
 1.65000E+01    1.26012E+00
 1.70000E+01    1.42404E+00
 1.75000E+01    1.69931E+00
 1.80000E+01    1.89087E+00
 1.85000E+01    2.20171E+00
 1.90000E+01    2.41031E+00
 1.95000E+01    2.61314E+00
 2.00000E+01    2.81538E+00
