# n + Cs135 : (n,p)m    
# jendl.ad   N.Iwamoto                         EVAL-Apr14
# uncertainties: n
# # energies =    40
#   E(MeV)       xs(mb) 
 9.15821E-01    0.00000E+00
 2.00000E+00    2.28230E-11
 2.25000E+00    2.45590E-09
 2.50000E+00    7.34860E-08
 2.75000E+00    1.01990E-06
 3.00000E+00    7.86756E-06
 3.50000E+00    1.54558E-04
 4.00000E+00    1.07742E-03
 4.50000E+00    3.79751E-03
 5.00000E+00    8.43638E-03
 5.50000E+00    1.38744E-02
 6.00000E+00    1.90626E-02
 6.50000E+00    2.44462E-02
 7.00000E+00    3.18489E-02
 7.50000E+00    4.39896E-02
 8.00000E+00    6.44054E-02
 8.50000E+00    9.77213E-02
 9.00000E+00    1.46508E-01
 9.50000E+00    2.23835E-01
 1.00000E+01    3.34353E-01
 1.05000E+01    4.86641E-01
 1.10000E+01    6.87994E-01
 1.15000E+01    9.30984E-01
 1.20000E+01    1.22348E+00
 1.25000E+01    1.56190E+00
 1.30000E+01    1.96552E+00
 1.35000E+01    2.38002E+00
 1.40000E+01    2.81988E+00
 1.45000E+01    3.21852E+00
 1.50000E+01    3.66452E+00
 1.55000E+01    4.11140E+00
 1.60000E+01    4.55040E+00
 1.65000E+01    4.87785E+00
 1.70000E+01    5.26487E+00
 1.75000E+01    5.65176E+00
 1.80000E+01    5.85330E+00
 1.85000E+01    6.17659E+00
 1.90000E+01    6.30020E+00
 1.95000E+01    6.51631E+00
 2.00000E+01    6.61110E+00
