# n + Cs135 : (n,t)m    
# jendl.ad   N.Iwamoto                         EVAL-Apr14
# uncertainties: n
# # energies =    25
#   E(MeV)       xs(mb) 
 7.10268E+00    0.00000E+00
 8.50000E+00    3.92190E-17
 9.00000E+00    4.78470E-13
 9.50000E+00    1.53990E-10
 1.00000E+01    7.03840E-09
 1.05000E+01    1.00990E-07
 1.10000E+01    6.98280E-07
 1.15000E+01    3.02942E-06
 1.20000E+01    9.63426E-06
 1.25000E+01    2.64866E-05
 1.30000E+01    7.07395E-05
 1.35000E+01    2.00358E-04
 1.40000E+01    5.71587E-04
 1.45000E+01    1.51114E-03
 1.50000E+01    3.57736E-03
 1.55000E+01    7.48766E-03
 1.60000E+01    1.44078E-02
 1.65000E+01    2.52719E-02
 1.70000E+01    4.04817E-02
 1.75000E+01    6.08083E-02
 1.80000E+01    8.69654E-02
 1.85000E+01    1.19314E-01
 1.90000E+01    1.59398E-01
 1.95000E+01    2.06744E-01
 2.00000E+01    2.49753E-01
