# n + Gd152 : (n,tot)   
# jendl4.0   N.Iwamoto,A.Zukeran,K.Shibata     EVAL-Dec09
# uncertainties: n
# # energies =   171
#   E(MeV)       xs(mb) 
 1.00000E-11    7.99493E+06
 1.00000E-07    2.67210E+05
 4.13990E-07    1.68786E+05
 5.31580E-07    1.47035E+05
 6.82560E-07    1.27518E+05
 8.76420E-07    1.09978E+05
 1.12540E-06    9.42114E+04
 1.44500E-06    8.00305E+04
 1.85540E-06    6.74501E+04
 2.37240E-06    5.67298E+04
 3.05900E-06    7.16581E+04
 3.92790E-06    3.76375E+04
 5.04350E-06    3.23636E+04
 6.47600E-06    1.29226E+06
 8.31530E-06    7.37685E+04
 1.06770E-05    5.03624E+05
 1.37100E-05    1.54679E+04
 1.76030E-05    3.32462E+04
 2.26030E-05    5.30332E+03
 2.92030E-05    1.03111E+06
 3.72670E-05    5.51674E+05
 4.78510E-05    1.03846E+04
 6.14420E-05    1.70636E+05
 7.88930E-05    1.75104E+05
 1.01300E-04    1.30869E+04
 1.30070E-04    1.01182E+05
 1.67020E-04    1.29310E+05
 2.14450E-04    2.00227E+05
 2.75360E-04    1.23072E+05
 3.53580E-04    1.21427E+05
 4.54000E-04    8.78684E+04
 5.82950E-04    4.59078E+04
 7.48520E-04    6.32554E+04
 9.61120E-04    4.33450E+04
 1.23410E-03    2.54194E+04
 1.58460E-03    3.64961E+04
 2.03470E-03    4.63602E+04
 2.24870E-03    2.98926E+04
 2.48520E-03    1.61524E+04
 2.61260E-03    2.83933E+04
 2.74650E-03    3.12627E+04
 3.03540E-03    2.99498E+04
 3.35460E-03    2.86914E+04
 3.70740E-03    2.72107E+04
 4.30740E-03    2.51209E+04
 5.53080E-03    2.27430E+04
 7.10170E-03    2.06279E+04
 9.11880E-03    1.87583E+04
 1.17090E-02    1.71298E+04
 1.50340E-02    1.56487E+04
 1.93050E-02    1.46271E+04
 2.18750E-02    1.41311E+04
 2.35790E-02    1.38902E+04
 2.41760E-02    1.37713E+04
 2.47880E-02    1.35952E+04
 2.60580E-02    1.33971E+04
 2.70000E-02    1.31924E+04
 2.85000E-02    1.28274E+04
 3.18280E-02    1.24337E+04
 3.43070E-02    1.19264E+04
 4.08680E-02    1.13554E+04
 4.63090E-02    1.09100E+04
 5.24750E-02    1.05657E+04
 5.65620E-02    1.01566E+04
 6.73790E-02    9.78239E+03
 7.20000E-02    9.53850E+03
 7.95000E-02    9.34233E+03
 8.25000E-02    9.22310E+03
 8.65170E-02    8.98402E+03
 9.80370E-02    8.65733E+03
 1.11090E-01    8.44642E+03
 1.16790E-01    8.32853E+03
 1.22770E-01    8.21223E+03
 1.29070E-01    8.09739E+03
 1.35690E-01    7.98443E+03
 1.42640E-01    7.87291E+03
 1.49960E-01    7.76426E+03
 1.57640E-01    7.66204E+03
 1.65730E-01    7.57162E+03
 1.74220E-01    7.48288E+03
 1.83160E-01    7.39522E+03
 1.92550E-01    7.30886E+03
 2.02420E-01    7.22311E+03
 2.12800E-01    7.13852E+03
 2.23710E-01    7.05473E+03
 2.35180E-01    6.97220E+03
 2.47240E-01    6.87252E+03
 2.73240E-01    6.79438E+03
 2.87250E-01    6.75669E+03
 2.94520E-01    6.73969E+03
 2.97200E-01    6.73290E+03
 2.98500E-01    6.72502E+03
 3.01970E-01    6.67403E+03
 3.33730E-01    6.57628E+03
 3.68830E-01    6.50390E+03
 3.87740E-01    6.46081E+03
 4.07620E-01    6.44131E+03
 4.50490E-01    6.43012E+03
 4.97870E-01    6.42099E+03
 5.23400E-01    6.41450E+03
 5.50230E-01    6.40767E+03
 5.78440E-01    6.40048E+03
 6.08100E-01    6.39771E+03
 6.39280E-01    6.41281E+03
 6.72060E-01    6.43039E+03
 7.06510E-01    6.44888E+03
 7.42740E-01    6.46831E+03
 7.80820E-01    6.48874E+03
 8.20850E-01    6.51022E+03
 8.62940E-01    6.53280E+03
 9.07180E-01    6.55858E+03
 9.61640E-01    6.58354E+03
 1.00260E+00    6.61540E+03
 1.10800E+00    6.64972E+03
 1.16480E+00    6.67419E+03
 1.22460E+00    6.69615E+03
 1.28730E+00    6.70974E+03
 1.35340E+00    6.72358E+03
 1.42270E+00    6.73788E+03
 1.49570E+00    6.74540E+03
 1.57240E+00    6.74702E+03
 1.65300E+00    6.73951E+03
 1.73770E+00    6.73082E+03
 1.82680E+00    6.72130E+03
 1.92050E+00    6.69963E+03
 2.01900E+00    6.67140E+03
 2.12250E+00    6.64173E+03
 2.23130E+00    6.61300E+03
 2.30690E+00    6.58947E+03
 2.34570E+00    6.57732E+03
 2.36530E+00    6.56911E+03
 2.38520E+00    6.54827E+03
 2.46600E+00    6.50532E+03
 2.59240E+00    6.44576E+03
 2.72530E+00    6.37792E+03
 2.86500E+00    6.30659E+03
 3.01190E+00    6.22747E+03
 3.16640E+00    6.13901E+03
 3.32870E+00    5.99677E+03
 3.67880E+00    5.78901E+03
 4.06570E+00    5.56618E+03
 4.49330E+00    5.39832E+03
 4.72370E+00    5.28649E+03
 4.96590E+00    5.17933E+03
 5.22050E+00    5.07838E+03
 5.48810E+00    4.98147E+03
 5.76950E+00    4.89434E+03
 6.06530E+00    4.81702E+03
 6.37630E+00    4.75946E+03
 6.59240E+00    4.72731E+03
 6.70320E+00    4.69345E+03
 7.04690E+00    4.64953E+03
 7.40820E+00    4.61940E+03
 7.78800E+00    4.60257E+03
 8.18730E+00    4.60465E+03
 8.60710E+00    4.61749E+03
 9.04840E+00    4.64359E+03
 9.51230E+00    4.68208E+03
 1.00000E+01    4.72955E+03
 1.05130E+01    4.78769E+03
 1.10520E+01    4.85299E+03
 1.16180E+01    4.92350E+03
 1.22140E+01    4.99650E+03
 1.28400E+01    5.06863E+03
 1.34990E+01    5.11972E+03
 1.38400E+01    5.15158E+03
 1.41910E+01    5.18064E+03
 1.45500E+01    5.20635E+03
 1.49180E+01    5.23800E+03
 1.56830E+01    5.26452E+03
 1.64870E+01    5.26988E+03
