# n + Gd152 : (n,n'10)  
# jendl4.0   N.Iwamoto,A.Zukeran,K.Shibata     EVAL-Dec09
# uncertainties: n
# # energies =    69
#   E(MeV)       xs(mb) 
 1.32338E+00    0.00000E+00
 1.32717E+00    2.49737E+01
 1.40000E+00    7.87729E+01
 1.44354E+00    9.16145E+01
 1.47023E+00    9.74796E+01
 1.48024E+00    9.88365E+01
 1.50000E+00    1.01485E+02
 1.56050E+00    1.08534E+02
 1.60000E+00    1.11800E+02
 1.61626E+00    1.12856E+02
 1.65432E+00    1.14099E+02
 1.67914E+00    1.13374E+02
 1.70000E+00    1.13727E+02
 1.70365E+00    1.13805E+02
 1.75838E+00    1.13702E+02
 1.76764E+00    1.13680E+02
 1.78333E+00    1.11657E+02
 1.80000E+00    1.10801E+02
 1.81966E+00    1.10203E+02
 1.85183E+00    1.09517E+02
 1.87394E+00    1.08571E+02
 1.87441E+00    1.08558E+02
 1.89278E+00    1.07616E+02
 1.90000E+00    1.07362E+02
 1.92814E+00    1.06496E+02
 1.95405E+00    1.05572E+02
 1.97503E+00    1.04006E+02
 1.98879E+00    1.02586E+02
 2.00000E+00    1.01485E+02
 2.01116E+00    1.00630E+02
 2.02499E+00    9.96517E+01
 2.25000E+00    8.44040E+01
 2.50000E+00    6.76765E+01
 2.75000E+00    4.95349E+01
 3.00000E+00    3.60675E+01
 3.50000E+00    1.71915E+01
 4.00000E+00    7.76504E+00
 4.50000E+00    3.47218E+00
 5.00000E+00    1.59724E+00
 5.50000E+00    7.89387E-01
 6.00000E+00    4.40183E-01
 6.50000E+00    2.85623E-01
 7.00000E+00    2.13632E-01
 7.50000E+00    1.76758E-01
 8.00000E+00    1.54972E-01
 8.50000E+00    1.40003E-01
 9.00000E+00    1.28432E-01
 9.50000E+00    1.18823E-01
 1.00000E+01    1.10505E-01
 1.05000E+01    1.03155E-01
 1.10000E+01    9.65615E-02
 1.15000E+01    9.06390E-02
 1.20000E+01    8.53072E-02
 1.25000E+01    8.04967E-02
 1.30000E+01    7.61400E-02
 1.35000E+01    7.21737E-02
 1.40000E+01    6.85499E-02
 1.45000E+01    6.52219E-02
 1.50000E+01    6.21486E-02
 1.55000E+01    5.93626E-02
 1.60000E+01    5.67054E-02
 1.65000E+01    5.41994E-02
 1.70000E+01    5.18226E-02
 1.75000E+01    4.96375E-02
 1.80000E+01    4.75364E-02
 1.85000E+01    4.55905E-02
 1.90000E+01    4.37849E-02
 1.95000E+01    4.20420E-02
 2.00000E+01    4.04028E-02
