# n + Gd152 : (n,n'08)  
# jendl4.0   N.Iwamoto,A.Zukeran,K.Shibata     EVAL-Dec09
# uncertainties: n
# # energies =    72
#   E(MeV)       xs(mb) 
 1.23553E+00    0.00000E+00
 1.29077E+00    6.48862E-02
 1.30000E+00    8.29365E-02
 1.32338E+00    1.43184E-01
 1.32717E+00    1.54861E-01
 1.40000E+00    4.82779E-01
 1.44354E+00    7.80684E-01
 1.47023E+00    9.94605E-01
 1.48024E+00    1.08496E+00
 1.50000E+00    1.25234E+00
 1.56050E+00    1.87989E+00
 1.60000E+00    2.26819E+00
 1.61626E+00    2.46696E+00
 1.65432E+00    2.95268E+00
 1.67914E+00    3.28113E+00
 1.70000E+00    3.56890E+00
 1.70365E+00    3.62123E+00
 1.75838E+00    4.41366E+00
 1.76764E+00    4.55990E+00
 1.78333E+00    4.81323E+00
 1.80000E+00    5.07704E+00
 1.81966E+00    5.40419E+00
 1.85183E+00    5.93446E+00
 1.87394E+00    6.29144E+00
 1.87441E+00    6.28206E+00
 1.89278E+00    6.47166E+00
 1.90000E+00    6.56231E+00
 1.92814E+00    6.93756E+00
 1.95405E+00    7.28403E+00
 1.97503E+00    7.57753E+00
 1.98879E+00    7.77386E+00
 2.00000E+00    7.93286E+00
 2.01116E+00    8.09404E+00
 2.02499E+00    8.29143E+00
 2.25000E+00    1.10357E+01
 2.50000E+00    1.26031E+01
 2.75000E+00    1.25413E+01
 3.00000E+00    1.31560E+01
 3.50000E+00    1.12478E+01
 4.00000E+00    9.51684E+00
 4.50000E+00    8.31703E+00
 5.00000E+00    7.58638E+00
 5.50000E+00    7.15285E+00
 6.00000E+00    6.91040E+00
 6.50000E+00    6.76446E+00
 7.00000E+00    6.64759E+00
 7.50000E+00    6.50650E+00
 8.00000E+00    6.32515E+00
 8.50000E+00    6.10185E+00
 9.00000E+00    5.85411E+00
 9.50000E+00    5.59659E+00
 1.00000E+01    5.34331E+00
 1.05000E+01    5.10279E+00
 1.10000E+01    4.87855E+00
 1.15000E+01    4.67122E+00
 1.20000E+01    4.47998E+00
 1.25000E+01    4.30368E+00
 1.30000E+01    4.14111E+00
 1.35000E+01    3.99080E+00
 1.40000E+01    3.85090E+00
 1.45000E+01    3.71961E+00
 1.50000E+01    3.59587E+00
 1.55000E+01    3.48010E+00
 1.60000E+01    3.37268E+00
 1.65000E+01    3.27494E+00
 1.70000E+01    3.18716E+00
 1.75000E+01    3.10876E+00
 1.80000E+01    3.03803E+00
 1.85000E+01    2.97348E+00
 1.90000E+01    2.91304E+00
 1.95000E+01    2.85498E+00
 2.00000E+01    2.79830E+00
