# n + Gd152 : (n,n'04)  
# jendl4.0   N.Iwamoto,A.Zukeran,K.Shibata     EVAL-Dec09
# uncertainties: n
# # energies =    79
#   E(MeV)       xs(mb) 
 9.36723E-01    0.00000E+00
 1.00000E+00    1.98820E+02
 1.05481E+00    2.44104E+02
 1.10000E+00    2.70345E+02
 1.11653E+00    2.77714E+02
 1.13065E+00    2.72188E+02
 1.20000E+00    2.83714E+02
 1.23553E+00    2.89178E+02
 1.29077E+00    2.97768E+02
 1.30000E+00    2.99077E+02
 1.32338E+00    3.02314E+02
 1.32717E+00    3.00629E+02
 1.40000E+00    2.88156E+02
 1.44354E+00    2.87804E+02
 1.47023E+00    2.84022E+02
 1.48024E+00    2.80682E+02
 1.50000E+00    2.78553E+02
 1.56050E+00    2.75558E+02
 1.60000E+00    2.71750E+02
 1.61626E+00    2.70030E+02
 1.65432E+00    2.60968E+02
 1.67914E+00    2.55734E+02
 1.70000E+00    2.52589E+02
 1.70365E+00    2.52073E+02
 1.75838E+00    2.42437E+02
 1.76764E+00    2.41300E+02
 1.78333E+00    2.38295E+02
 1.80000E+00    2.35384E+02
 1.81966E+00    2.32528E+02
 1.85183E+00    2.28266E+02
 1.87394E+00    2.23124E+02
 1.87441E+00    2.23034E+02
 1.89278E+00    2.18173E+02
 1.90000E+00    2.16877E+02
 1.92814E+00    2.12465E+02
 1.95405E+00    2.07822E+02
 1.97503E+00    2.02681E+02
 1.98879E+00    1.99936E+02
 2.00000E+00    1.96758E+02
 2.01116E+00    1.94486E+02
 2.02499E+00    1.91929E+02
 2.25000E+00    1.52309E+02
 2.50000E+00    1.15643E+02
 2.75000E+00    8.22482E+01
 3.00000E+00    5.88272E+01
 3.50000E+00    2.74847E+01
 4.00000E+00    1.22943E+01
 4.50000E+00    5.47892E+00
 5.00000E+00    2.53659E+00
 5.50000E+00    1.28248E+00
 6.00000E+00    7.42375E-01
 6.50000E+00    5.00426E-01
 7.00000E+00    3.83651E-01
 7.50000E+00    3.20168E-01
 8.00000E+00    2.80077E-01
 8.50000E+00    2.51013E-01
 9.00000E+00    2.27775E-01
 9.50000E+00    2.08093E-01
 1.00000E+01    1.90846E-01
 1.05000E+01    1.75480E-01
 1.10000E+01    1.63624E-01
 1.15000E+01    1.53154E-01
 1.20000E+01    1.43794E-01
 1.25000E+01    1.35399E-01
 1.30000E+01    1.29037E-01
 1.35000E+01    1.23566E-01
 1.40000E+01    1.18447E-01
 1.45000E+01    1.13629E-01
 1.50000E+01    1.09069E-01
 1.55000E+01    9.93235E-02
 1.60000E+01    1.02346E-01
 1.65000E+01    9.83879E-02
 1.70000E+01    8.89810E-02
 1.75000E+01    8.38168E-02
 1.80000E+01    8.59895E-02
 1.85000E+01    8.41337E-02
 1.90000E+01    7.89792E-02
 1.95000E+01    7.10690E-02
 2.00000E+01    6.80551E-02
