# n + Gd152 : (n,n'02)  
# jendl4.0   N.Iwamoto,A.Zukeran,K.Shibata     EVAL-Dec09
# uncertainties: n
# # energies =    84
#   E(MeV)       xs(mb) 
 6.19485E-01    0.00000E+00
 7.00000E-01    1.70560E+02
 7.60411E-01    1.94018E+02
 8.00000E-01    2.03724E+02
 9.00000E-01    2.19014E+02
 9.36723E-01    2.22281E+02
 1.00000E+00    2.20668E+02
 1.05481E+00    2.21404E+02
 1.10000E+00    2.10270E+02
 1.11653E+00    2.09289E+02
 1.13065E+00    2.05512E+02
 1.20000E+00    1.98965E+02
 1.23553E+00    1.96639E+02
 1.29077E+00    1.91191E+02
 1.30000E+00    1.90177E+02
 1.32338E+00    1.87672E+02
 1.32717E+00    1.85092E+02
 1.40000E+00    1.69034E+02
 1.44354E+00    1.63301E+02
 1.47023E+00    1.58838E+02
 1.48024E+00    1.54978E+02
 1.50000E+00    1.51256E+02
 1.56050E+00    1.43055E+02
 1.60000E+00    1.38780E+02
 1.61626E+00    1.37133E+02
 1.65432E+00    1.30754E+02
 1.67914E+00    1.26720E+02
 1.70000E+00    1.23928E+02
 1.70365E+00    1.23463E+02
 1.75838E+00    1.15822E+02
 1.76764E+00    1.14730E+02
 1.78333E+00    1.12029E+02
 1.80000E+00    1.09788E+02
 1.81966E+00    1.07356E+02
 1.85183E+00    1.03469E+02
 1.87394E+00    1.00083E+02
 1.87441E+00    1.00023E+02
 1.89278E+00    9.70707E+01
 1.90000E+00    9.61368E+01
 1.92814E+00    9.27539E+01
 1.95405E+00    8.97823E+01
 1.97503E+00    8.69771E+01
 1.98879E+00    8.52148E+01
 2.00000E+00    8.35418E+01
 2.01116E+00    8.22203E+01
 2.02499E+00    8.06780E+01
 2.25000E+00    5.91377E+01
 2.50000E+00    4.18906E+01
 2.75000E+00    2.82703E+01
 3.00000E+00    1.91908E+01
 3.50000E+00    8.34155E+00
 4.00000E+00    3.48393E+00
 4.50000E+00    1.42338E+00
 5.00000E+00    5.75861E-01
 5.50000E+00    2.32777E-01
 6.00000E+00    9.46130E-02
 6.50000E+00    3.86921E-02
 7.00000E+00    1.59594E-02
 7.50000E+00    6.68613E-03
 8.00000E+00    2.85972E-03
 8.50000E+00    1.25126E-03
 9.00000E+00    5.60202E-04
 9.50000E+00    2.56510E-04
 1.00000E+01    1.20002E-04
 1.05000E+01    5.73044E-05
 1.10000E+01    2.79018E-05
 1.15000E+01    1.38460E-05
 1.20000E+01    6.99537E-06
 1.25000E+01    3.59510E-06
 1.30000E+01    1.87771E-06
 1.35000E+01    9.95740E-07
 1.40000E+01    5.35610E-07
 1.45000E+01    2.92000E-07
 1.50000E+01    1.61210E-07
 1.55000E+01    9.00960E-08
 1.60000E+01    5.09130E-08
 1.65000E+01    2.90770E-08
 1.70000E+01    1.67720E-08
 1.75000E+01    9.76340E-09
 1.80000E+01    5.73250E-09
 1.85000E+01    3.39350E-09
 1.90000E+01    2.02530E-09
 1.95000E+01    1.21840E-09
 2.00000E+01    7.38510E-10
