# n + Gd152 : (n,n'05)  
# jendl4.0   N.Iwamoto,A.Zukeran,K.Shibata     EVAL-Dec09
# uncertainties: n
# # energies =    77
#   E(MeV)       xs(mb) 
 1.05481E+00    0.00000E+00
 1.10000E+00    5.55842E+01
 1.11653E+00    6.17810E+01
 1.13065E+00    6.59384E+01
 1.20000E+00    7.97525E+01
 1.23553E+00    8.42105E+01
 1.29077E+00    8.94040E+01
 1.30000E+00    9.01648E+01
 1.32338E+00    9.16201E+01
 1.32717E+00    9.07408E+01
 1.40000E+00    9.03541E+01
 1.44354E+00    9.08453E+01
 1.47023E+00    9.04166E+01
 1.48024E+00    8.83584E+01
 1.50000E+00    8.71121E+01
 1.56050E+00    8.52366E+01
 1.60000E+00    8.45361E+01
 1.61626E+00    8.42964E+01
 1.65432E+00    8.29531E+01
 1.67914E+00    8.18461E+01
 1.70000E+00    8.08921E+01
 1.70365E+00    8.07083E+01
 1.75838E+00    7.77020E+01
 1.76764E+00    7.72901E+01
 1.78333E+00    7.59221E+01
 1.80000E+00    7.49458E+01
 1.81966E+00    7.39017E+01
 1.85183E+00    7.23148E+01
 1.87394E+00    7.07800E+01
 1.87441E+00    7.07542E+01
 1.89278E+00    6.93588E+01
 1.90000E+00    6.89312E+01
 1.92814E+00    6.74088E+01
 1.95405E+00    6.61145E+01
 1.97503E+00    6.47721E+01
 1.98879E+00    6.38728E+01
 2.00000E+00    6.29944E+01
 2.01116E+00    6.23354E+01
 2.02499E+00    6.15821E+01
 2.25000E+00    4.85099E+01
 2.50000E+00    3.61269E+01
 2.75000E+00    2.52320E+01
 3.00000E+00    1.82264E+01
 3.50000E+00    8.49596E+00
 4.00000E+00    3.96383E+00
 4.50000E+00    1.98120E+00
 5.00000E+00    1.12509E+00
 5.50000E+00    7.45981E-01
 6.00000E+00    5.67008E-01
 6.50000E+00    4.72241E-01
 7.00000E+00    4.14123E-01
 7.50000E+00    3.72864E-01
 8.00000E+00    3.40296E-01
 8.50000E+00    3.12867E-01
 9.00000E+00    2.89075E-01
 9.50000E+00    2.68104E-01
 1.00000E+01    2.49406E-01
 1.05000E+01    2.32657E-01
 1.10000E+01    2.17551E-01
 1.15000E+01    2.03971E-01
 1.20000E+01    1.91768E-01
 1.25000E+01    1.80783E-01
 1.30000E+01    1.70854E-01
 1.35000E+01    1.61838E-01
 1.40000E+01    1.53604E-01
 1.45000E+01    1.46046E-01
 1.50000E+01    1.39071E-01
 1.55000E+01    1.32818E-01
 1.60000E+01    1.26774E-01
 1.65000E+01    1.21025E-01
 1.70000E+01    1.15703E-01
 1.75000E+01    1.10805E-01
 1.80000E+01    1.05963E-01
 1.85000E+01    1.01581E-01
 1.90000E+01    9.75347E-02
 1.95000E+01    9.36450E-02
 2.00000E+01    8.99414E-02
