# n + Gd152 : (n,el)    
# jendl4.0   N.Iwamoto,A.Zukeran,K.Shibata     EVAL-Dec09
# uncertainties: n
# # energies =   171
#   E(MeV)       xs(mb) 
 1.00000E-11    1.63465E+04
 1.00000E-07    1.01438E+04
 4.13990E-07    9.79796E+03
 5.31580E-07    9.61913E+03
 6.82560E-07    9.39505E+03
 8.76420E-07    9.11525E+03
 1.12540E-06    8.76771E+03
 1.44500E-06    8.33737E+03
 1.85540E-06    7.80036E+03
 2.37240E-06    7.10504E+03
 3.05900E-06    6.41007E+03
 3.92790E-06    5.31641E+03
 5.04350E-06    3.59103E+03
 6.47600E-06    1.05486E+05
 8.31530E-06    1.26495E+04
 1.06770E-05    3.40815E+04
 1.37100E-05    6.38748E+03
 1.76030E-05    3.63863E+03
 2.26030E-05    1.32485E+03
 2.92030E-05    5.66924E+05
 3.72670E-05    2.44033E+05
 4.78510E-05    9.17418E+03
 6.14420E-05    9.34704E+04
 7.88930E-05    9.87516E+04
 1.01300E-04    5.88991E+03
 1.30070E-04    6.61433E+04
 1.67020E-04    8.63390E+04
 2.14450E-04    1.44751E+05
 2.75360E-04    9.25933E+04
 3.53580E-04    9.98717E+04
 4.54000E-04    7.31944E+04
 5.82950E-04    3.71418E+04
 7.48520E-04    5.22836E+04
 9.61120E-04    3.53725E+04
 1.23410E-03    2.07998E+04
 1.58460E-03    3.26714E+04
 2.03470E-03    4.38967E+04
 2.24870E-03    2.68780E+04
 2.48520E-03    1.51146E+04
 2.61260E-03    2.45907E+04
 2.74650E-03    2.69479E+04
 3.03540E-03    2.59665E+04
 3.35460E-03    2.50129E+04
 3.70740E-03    2.38804E+04
 4.30740E-03    2.22561E+04
 5.53080E-03    2.03689E+04
 7.10170E-03    1.86470E+04
 9.11880E-03    1.70862E+04
 1.17090E-02    1.56908E+04
 1.50340E-02    1.44076E+04
 1.93050E-02    1.35137E+04
 2.18750E-02    1.30706E+04
 2.35790E-02    1.28547E+04
 2.41760E-02    1.27487E+04
 2.47880E-02    1.25901E+04
 2.60580E-02    1.24124E+04
 2.70000E-02    1.22285E+04
 2.85000E-02    1.18996E+04
 3.18280E-02    1.15414E+04
 3.43070E-02    1.10784E+04
 4.08680E-02    1.05548E+04
 4.63090E-02    1.01444E+04
 5.24750E-02    9.82487E+03
 5.65620E-02    9.44355E+03
 6.73790E-02    9.09348E+03
 7.20000E-02    8.86392E+03
 7.95000E-02    8.67880E+03
 8.25000E-02    8.56540E+03
 8.65170E-02    8.33726E+03
 9.80370E-02    8.02293E+03
 1.11090E-01    7.81929E+03
 1.16790E-01    7.70518E+03
 1.22770E-01    7.59192E+03
 1.29070E-01    7.47963E+03
 1.35690E-01    7.36856E+03
 1.42640E-01    7.25824E+03
 1.49960E-01    7.15023E+03
 1.57640E-01    7.04820E+03
 1.65730E-01    6.95779E+03
 1.74220E-01    6.86868E+03
 1.83160E-01    6.78019E+03
 1.92550E-01    6.69236E+03
 2.02420E-01    6.60474E+03
 2.12800E-01    6.51768E+03
 2.23710E-01    6.43127E+03
 2.35180E-01    6.34583E+03
 2.47240E-01    6.24031E+03
 2.73240E-01    6.15474E+03
 2.87250E-01    6.11308E+03
 2.94520E-01    6.09430E+03
 2.97200E-01    6.08680E+03
 2.98500E-01    6.07798E+03
 3.01970E-01    6.01805E+03
 3.33730E-01    5.88315E+03
 3.68830E-01    5.71784E+03
 3.87740E-01    5.60557E+03
 4.07620E-01    5.51792E+03
 4.50490E-01    5.41058E+03
 4.97870E-01    5.33318E+03
 5.23400E-01    5.28087E+03
 5.50230E-01    5.22589E+03
 5.78440E-01    5.16960E+03
 6.08100E-01    5.11036E+03
 6.39280E-01    5.03190E+03
 6.72060E-01    4.94755E+03
 7.06510E-01    4.89707E+03
 7.42740E-01    4.86382E+03
 7.80820E-01    4.82994E+03
 8.20850E-01    4.80053E+03
 8.62940E-01    4.77062E+03
 9.07180E-01    4.73095E+03
 9.61640E-01    4.65875E+03
 1.00260E+00    4.58346E+03
 1.10800E+00    4.49150E+03
 1.16480E+00    4.43434E+03
 1.22460E+00    4.38685E+03
 1.28730E+00    4.34260E+03
 1.35340E+00    4.28102E+03
 1.42270E+00    4.22523E+03
 1.49570E+00    4.17652E+03
 1.57240E+00    4.13323E+03
 1.65300E+00    4.09159E+03
 1.73770E+00    4.04780E+03
 1.82680E+00    4.00174E+03
 1.92050E+00    3.95332E+03
 2.01900E+00    3.90242E+03
 2.12250E+00    3.84938E+03
 2.23130E+00    3.80457E+03
 2.30690E+00    3.77687E+03
 2.34570E+00    3.76275E+03
 2.36530E+00    3.75321E+03
 2.38520E+00    3.72900E+03
 2.46600E+00    3.67876E+03
 2.59240E+00    3.61150E+03
 2.72530E+00    3.53952E+03
 2.86500E+00    3.46384E+03
 3.01190E+00    3.38405E+03
 3.16640E+00    3.29959E+03
 3.32870E+00    3.16825E+03
 3.67880E+00    2.98632E+03
 4.06570E+00    2.80225E+03
 4.49330E+00    2.66683E+03
 4.72370E+00    2.57812E+03
 4.96590E+00    2.49364E+03
 5.22050E+00    2.41510E+03
 5.48810E+00    2.34129E+03
 5.76950E+00    2.27498E+03
 6.06530E+00    2.21829E+03
 6.37630E+00    2.17672E+03
 6.59240E+00    2.15722E+03
 6.70320E+00    2.13539E+03
 7.04690E+00    2.11236E+03
 7.40820E+00    2.10336E+03
 7.78800E+00    2.10924E+03
 8.18730E+00    2.13167E+03
 8.60710E+00    2.17199E+03
 9.04840E+00    2.21499E+03
 9.51230E+00    2.27460E+03
 1.00000E+01    2.34503E+03
 1.05130E+01    2.42400E+03
 1.10520E+01    2.50881E+03
 1.16180E+01    2.59701E+03
 1.22140E+01    2.68578E+03
 1.28400E+01    2.77200E+03
 1.34990E+01    2.83285E+03
 1.38400E+01    2.87093E+03
 1.41910E+01    2.90604E+03
 1.45500E+01    2.93767E+03
 1.49180E+01    2.97823E+03
 1.56830E+01    3.01691E+03
 1.64870E+01    3.03528E+03
