# n + Gd152 : (n,n'01)  
# jendl4.0   N.Iwamoto,A.Zukeran,K.Shibata     EVAL-Dec09
# uncertainties: n
# # energies =    88
#   E(MeV)       xs(mb) 
 3.46565E-01    0.00000E+00
 4.00000E-01    3.38909E+02
 5.00000E-01    5.59032E+02
 6.00000E-01    7.21415E+02
 6.19485E-01    7.47140E+02
 7.00000E-01    8.27381E+02
 7.60411E-01    8.84042E+02
 8.00000E-01    9.13620E+02
 9.00000E-01    9.76365E+02
 9.36723E-01    9.95130E+02
 1.00000E+00    9.46611E+02
 1.05481E+00    9.42458E+02
 1.10000E+00    9.30449E+02
 1.11653E+00    9.28207E+02
 1.13065E+00    9.00576E+02
 1.20000E+00    8.63291E+02
 1.23553E+00    8.52110E+02
 1.29077E+00    8.38030E+02
 1.30000E+00    8.35386E+02
 1.32338E+00    8.29203E+02
 1.32717E+00    8.23879E+02
 1.40000E+00    7.68955E+02
 1.44354E+00    7.50771E+02
 1.47023E+00    7.33204E+02
 1.48024E+00    7.22526E+02
 1.50000E+00    7.11027E+02
 1.56050E+00    6.83870E+02
 1.60000E+00    6.68320E+02
 1.61626E+00    6.62278E+02
 1.65432E+00    6.40819E+02
 1.67914E+00    6.27884E+02
 1.70000E+00    6.19291E+02
 1.70365E+00    6.17835E+02
 1.75838E+00    5.93823E+02
 1.76764E+00    5.90547E+02
 1.78333E+00    5.83437E+02
 1.80000E+00    5.76417E+02
 1.81966E+00    5.69086E+02
 1.85183E+00    5.58030E+02
 1.87394E+00    5.47445E+02
 1.87441E+00    5.47243E+02
 1.89278E+00    5.37861E+02
 1.90000E+00    5.35069E+02
 1.92814E+00    5.25093E+02
 1.95405E+00    5.16195E+02
 1.97503E+00    5.07633E+02
 1.98879E+00    5.02899E+02
 2.00000E+00    4.97888E+02
 2.01116E+00    4.94034E+02
 2.02499E+00    4.89649E+02
 2.25000E+00    4.28879E+02
 2.50000E+00    3.80262E+02
 2.75000E+00    3.40168E+02
 3.00000E+00    3.13032E+02
 3.50000E+00    2.79111E+02
 4.00000E+00    2.62804E+02
 4.50000E+00    2.54787E+02
 5.00000E+00    2.50508E+02
 5.50000E+00    2.48081E+02
 6.00000E+00    2.46683E+02
 6.50000E+00    2.45736E+02
 7.00000E+00    2.44695E+02
 7.50000E+00    2.43079E+02
 8.00000E+00    2.40709E+02
 8.50000E+00    2.37529E+02
 9.00000E+00    2.33756E+02
 9.50000E+00    2.29566E+02
 1.00000E+01    2.25185E+02
 1.05000E+01    2.20774E+02
 1.10000E+01    2.16485E+02
 1.15000E+01    2.12436E+02
 1.20000E+01    2.08702E+02
 1.25000E+01    2.05307E+02
 1.30000E+01    2.02222E+02
 1.35000E+01    1.99387E+02
 1.40000E+01    1.96732E+02
 1.45000E+01    1.94202E+02
 1.50000E+01    1.91761E+02
 1.55000E+01    1.89392E+02
 1.60000E+01    1.87091E+02
 1.65000E+01    1.84861E+02
 1.70000E+01    1.82704E+02
 1.75000E+01    1.80624E+02
 1.80000E+01    1.78617E+02
 1.85000E+01    1.76674E+02
 1.90000E+01    1.74777E+02
 1.95000E+01    1.72901E+02
 2.00000E+01    1.71021E+02
