# n + Gd152 : (n,d)     
# jendl4.0   N.Iwamoto,A.Zukeran,K.Shibata     EVAL-Dec09
# uncertainties: n
# # energies =    66
#   E(MeV)       xs(mb) 
 5.15351E+00    0.00000E+00
 5.17519E+00    1.49310E-19
 5.35105E+00    2.05410E-18
 5.35135E+00    2.05740E-18
 5.37167E+00    2.28100E-18
 5.39841E+00    2.57600E-18
 5.41571E+00    2.76700E-18
 5.46181E+00    3.27610E-18
 5.46282E+00    3.28720E-18
 5.46308E+00    3.29010E-18
 5.46341E+00    3.29370E-18
 5.48789E+00    3.56410E-18
 5.49196E+00    3.60910E-18
 5.50568E+00    3.76070E-18
 5.50950E+00    4.31220E-18
 5.57206E+00    2.95070E-17
 5.65652E+00    7.58340E-17
 5.65911E+00    7.72900E-17
 5.66027E+00    7.79430E-17
 5.66803E+00    8.23350E-17
 5.67916E+00    8.86670E-17
 5.67982E+00    8.90440E-17
 5.70346E+00    1.02600E-16
 5.73737E+00    1.22110E-16
 5.74446E+00    1.26190E-16
 5.75797E+00    1.33980E-16
 5.75824E+00    1.34140E-16
 5.76899E+00    1.40340E-16
 5.79041E+00    1.52710E-16
 5.81225E+00    1.65320E-16
 5.85545E+00    1.90270E-16
 5.85632E+00    1.90770E-16
 5.87313E+00    2.00480E-16
 5.87325E+00    2.00550E-16
 5.87746E+00    2.02980E-16
 5.89340E+00    2.12190E-16
 5.91088E+00    2.22290E-16
 5.91628E+00    2.25400E-16
 6.50000E+00    5.62570E-16
 7.00000E+00    2.57100E-13
 7.50000E+00    1.48960E-10
 8.00000E+00    1.56470E-08
 8.50000E+00    3.62110E-07
 9.00000E+00    6.12613E-06
 9.50000E+00    5.99677E-05
 1.00000E+01    3.88153E-04
 1.05000E+01    1.83355E-03
 1.10000E+01    6.76327E-03
 1.15000E+01    2.04361E-02
 1.20000E+01    5.22976E-02
 1.25000E+01    1.16108E-01
 1.30000E+01    2.27944E-01
 1.35000E+01    4.02461E-01
 1.40000E+01    6.49299E-01
 1.45000E+01    9.71533E-01
 1.50000E+01    1.36635E+00
 1.55000E+01    1.84501E+00
 1.60000E+01    2.33175E+00
 1.65000E+01    2.90115E+00
 1.70000E+01    3.52144E+00
 1.75000E+01    4.11352E+00
 1.80000E+01    4.75018E+00
 1.85000E+01    5.42913E+00
 1.90000E+01    6.14697E+00
 1.95000E+01    6.77274E+00
 2.00000E+01    7.54411E+00
