# n + Hg202 : (n,n'08)  
# tendl.2019 A.J. Koning and D. Rochman        EVAL-NOV19
# uncertainties: n
# # energies =    85
#   E(MeV)       xs(mb) 
 1.41842E+00    0.00000E+00
 1.46428E+00    8.17007E+00
 1.53161E+00    2.01651E+01
 1.56978E+00    2.69651E+01
 1.57259E+00    2.74657E+01
 1.58326E+00    2.93666E+01
 1.60000E+00    3.23489E+01
 1.63211E+00    3.35190E+01
 1.65183E+00    3.42375E+01
 1.68694E+00    3.55169E+01
 1.73342E+00    3.72106E+01
 1.75467E+00    3.79849E+01
 1.79731E+00    3.95387E+01
 1.80000E+00    3.96367E+01
 1.80289E+00    3.95965E+01
 1.80999E+00    3.94976E+01
 1.83263E+00    3.91823E+01
 1.86147E+00    3.87807E+01
 1.87087E+00    3.86498E+01
 1.91039E+00    3.80995E+01
 1.96927E+00    3.72796E+01
 1.97544E+00    3.71937E+01
 1.98727E+00    3.70290E+01
 1.99852E+00    3.68723E+01
 2.00000E+00    3.68517E+01
 2.00135E+00    3.68080E+01
 2.20000E+00    3.03721E+01
 2.40000E+00    2.48926E+01
 2.60000E+00    2.05914E+01
 2.80000E+00    1.71829E+01
 3.00000E+00    1.43480E+01
 3.20000E+00    1.18858E+01
 3.40000E+00    9.70940E+00
 3.60000E+00    7.80233E+00
 3.80000E+00    6.17456E+00
 4.00000E+00    4.82485E+00
 4.20000E+00    3.73521E+00
 4.40000E+00    2.87292E+00
 4.60000E+00    2.20140E+00
 4.80000E+00    1.68388E+00
 5.00000E+00    1.28777E+00
 5.20000E+00    9.85670E-01
 5.40000E+00    7.55446E-01
 5.60000E+00    5.77709E-01
 5.80000E+00    4.43030E-01
 6.00000E+00    3.40004E-01
 6.20000E+00    2.60776E-01
 6.40000E+00    2.00100E-01
 6.60000E+00    1.53424E-01
 6.80000E+00    1.17426E-01
 7.00000E+00    9.00307E-02
 7.20000E+00    6.89759E-02
 7.40000E+00    5.29098E-02
 7.60000E+00    4.06692E-02
 7.80000E+00    3.12905E-02
 8.00000E+00    2.41642E-02
 8.50000E+00    1.27491E-02
 9.00000E+00    6.79213E-03
 9.50000E+00    3.64381E-03
 1.00000E+01    1.96162E-03
 1.05000E+01    1.05743E-03
 1.10000E+01    5.70639E-04
 1.15000E+01    3.08581E-04
 1.20000E+01    1.67505E-04
 1.25000E+01    9.14316E-05
 1.30000E+01    5.02491E-05
 1.35000E+01    2.78335E-05
 1.40000E+01    1.55452E-05
 1.45000E+01    8.75358E-06
 1.50000E+01    4.96708E-06
 1.60000E+01    1.63060E-06
 1.70000E+01    5.43980E-07
 1.80000E+01    1.85460E-07
 1.90000E+01    6.43780E-08
 2.00000E+01    2.28050E-08
 2.10000E+01    8.25710E-09
 2.20000E+01    3.05540E-09
 2.30000E+01    1.15370E-09
 2.40000E+01    4.42760E-10
 2.50000E+01    1.72240E-10
 2.60000E+01    6.78030E-11
 2.70000E+01    2.69950E-11
 2.80000E+01    1.08890E-11
 2.90000E+01    4.45160E-12
 3.00000E+01    1.84640E-12
