# n + Dy163 : (n,n'17)  
# tendl.2019 A.J. Koning and D. Rochman        EVAL-NOV19
# uncertainties: n
# # energies =    83
#   E(MeV)       xs(mb) 
 5.56444E-01    0.00000E+00
 5.69504E-01    1.61702E+01
 5.72311E-01    1.96457E+01
 5.91569E-01    4.34899E+01
 6.00000E-01    5.39287E+01
 6.15789E-01    5.92884E+01
 6.28084E-01    6.34620E+01
 6.50250E-01    7.09865E+01
 6.64086E-01    7.56832E+01
 7.00000E-01    8.78745E+01
 7.09365E-01    8.82148E+01
 7.15877E-01    8.84514E+01
 7.19542E-01    8.85845E+01
 7.22676E-01    8.86984E+01
 7.32104E-01    8.90409E+01
 7.39460E-01    8.93082E+01
 8.00000E-01    9.15078E+01
 9.00000E-01    8.39025E+01
 1.00000E+00    7.42990E+01
 1.20000E+00    5.62498E+01
 1.40000E+00    4.14648E+01
 1.60000E+00    2.98208E+01
 1.80000E+00    2.10621E+01
 2.00000E+00    1.47756E+01
 2.20000E+00    1.03579E+01
 2.40000E+00    7.29370E+00
 2.60000E+00    5.18753E+00
 2.80000E+00    3.73443E+00
 3.00000E+00    2.72280E+00
 3.20000E+00    2.05955E+00
 3.40000E+00    1.54122E+00
 3.60000E+00    1.18878E+00
 3.80000E+00    9.07417E-01
 4.00000E+00    7.01766E-01
 4.20000E+00    5.50540E-01
 4.40000E+00    4.39252E-01
 4.60000E+00    3.57443E-01
 4.80000E+00    2.97660E-01
 5.00000E+00    2.54143E-01
 5.20000E+00    2.23005E-01
 5.40000E+00    2.00966E-01
 5.60000E+00    1.85739E-01
 5.80000E+00    1.75628E-01
 6.00000E+00    1.68908E-01
 6.20000E+00    1.64967E-01
 6.40000E+00    1.62727E-01
 6.60000E+00    1.61510E-01
 6.80000E+00    1.60818E-01
 7.00000E+00    1.60252E-01
 7.20000E+00    1.59586E-01
 7.40000E+00    1.58661E-01
 7.60000E+00    1.57414E-01
 7.80000E+00    1.55834E-01
 8.00000E+00    1.53936E-01
 8.50000E+00    1.48108E-01
 9.00000E+00    1.41398E-01
 9.50000E+00    1.34567E-01
 1.00000E+01    1.28152E-01
 1.05000E+01    1.22425E-01
 1.10000E+01    1.17430E-01
 1.15000E+01    1.13055E-01
 1.20000E+01    1.09119E-01
 1.25000E+01    1.05457E-01
 1.30000E+01    1.01959E-01
 1.35000E+01    9.85780E-02
 1.40000E+01    9.53139E-02
 1.45000E+01    9.21900E-02
 1.50000E+01    8.92366E-02
 1.60000E+01    8.39764E-02
 1.70000E+01    7.97172E-02
 1.80000E+01    7.64415E-02
 1.90000E+01    7.39464E-02
 2.00000E+01    7.19637E-02
 2.10000E+01    7.02475E-02
 2.20000E+01    6.85723E-02
 2.30000E+01    6.67466E-02
 2.40000E+01    6.47073E-02
 2.50000E+01    6.25578E-02
 2.60000E+01    6.04773E-02
 2.70000E+01    5.86097E-02
 2.80000E+01    5.70114E-02
 2.90000E+01    5.56591E-02
 3.00000E+01    5.44703E-02
