# n + Dy163 : (n,n'14)  
# tendl.2019 A.J. Koning and D. Rochman        EVAL-NOV19
# uncertainties: n
# # energies =    87
#   E(MeV)       xs(mb) 
 4.78331E-01    0.00000E+00
 5.00000E-01    6.28669E+01
 5.00097E-01    6.29210E+01
 5.17738E-01    7.27615E+01
 5.56444E-01    9.43525E+01
 5.69504E-01    1.01638E+02
 5.72311E-01    1.03203E+02
 5.91569E-01    1.13946E+02
 6.00000E-01    1.18649E+02
 6.15789E-01    1.20009E+02
 6.28084E-01    1.21068E+02
 6.50250E-01    1.22978E+02
 6.64086E-01    1.24170E+02
 7.00000E-01    1.27264E+02
 7.09365E-01    1.26266E+02
 7.15877E-01    1.25572E+02
 7.19542E-01    1.25181E+02
 7.22676E-01    1.24847E+02
 7.32104E-01    1.23842E+02
 7.39460E-01    1.23058E+02
 8.00000E-01    1.16606E+02
 9.00000E-01    1.01093E+02
 1.00000E+00    8.64885E+01
 1.20000E+00    6.25648E+01
 1.40000E+00    4.46721E+01
 1.60000E+00    3.13610E+01
 1.80000E+00    2.17268E+01
 2.00000E+00    1.49906E+01
 2.20000E+00    1.03465E+01
 2.40000E+00    7.17277E+00
 2.60000E+00    5.01842E+00
 2.80000E+00    3.54801E+00
 3.00000E+00    2.53467E+00
 3.20000E+00    1.86951E+00
 3.40000E+00    1.37183E+00
 3.60000E+00    1.01961E+00
 3.80000E+00    7.46898E-01
 4.00000E+00    5.49863E-01
 4.20000E+00    4.05689E-01
 4.40000E+00    2.99861E-01
 4.60000E+00    2.21990E-01
 4.80000E+00    1.64706E-01
 5.00000E+00    1.22389E-01
 5.20000E+00    9.12746E-02
 5.40000E+00    6.82216E-02
 5.60000E+00    5.11391E-02
 5.80000E+00    3.85038E-02
 6.00000E+00    2.88610E-02
 6.20000E+00    2.18135E-02
 6.40000E+00    1.65337E-02
 6.60000E+00    1.25738E-02
 6.80000E+00    9.60607E-03
 7.00000E+00    7.35472E-03
 7.20000E+00    5.65222E-03
 7.40000E+00    4.35276E-03
 7.60000E+00    3.35819E-03
 7.80000E+00    2.59858E-03
 8.00000E+00    2.01349E-03
 8.50000E+00    1.07503E-03
 9.00000E+00    5.81744E-04
 9.50000E+00    3.18960E-04
 1.00000E+01    1.77004E-04
 1.05000E+01    9.93926E-05
 1.10000E+01    5.64507E-05
 1.15000E+01    3.24079E-05
 1.20000E+01    1.88022E-05
 1.25000E+01    1.10245E-05
 1.30000E+01    6.51918E-06
 1.35000E+01    3.89327E-06
 1.40000E+01    2.34647E-06
 1.45000E+01    1.42474E-06
 1.50000E+01    8.71080E-07
 1.60000E+01    3.33690E-07
 1.70000E+01    1.31140E-07
 1.80000E+01    5.26200E-08
 1.90000E+01    2.15480E-08
 2.00000E+01    9.04590E-09
 2.10000E+01    3.87950E-09
 2.20000E+01    1.69310E-09
 2.30000E+01    7.52520E-10
 2.40000E+01    3.40940E-10
 2.50000E+01    1.56810E-10
 2.60000E+01    7.31790E-11
 2.70000E+01    3.46080E-11
 2.80000E+01    1.65670E-11
 2.90000E+01    8.02390E-12
 3.00000E+01    3.93080E-12
