# n + Dy163 : (n,n'13)  
# tendl.2019 A.J. Koning and D. Rochman        EVAL-NOV19
# uncertainties: n
# # energies =    88
#   E(MeV)       xs(mb) 
 4.52786E-01    0.00000E+00
 4.78331E-01    5.36264E+01
 5.00000E-01    9.91160E+01
 5.00097E-01    9.91501E+01
 5.17738E-01    1.05346E+02
 5.56444E-01    1.18939E+02
 5.69504E-01    1.23526E+02
 5.72311E-01    1.24512E+02
 5.91569E-01    1.31275E+02
 6.00000E-01    1.34236E+02
 6.15789E-01    1.34652E+02
 6.28084E-01    1.34976E+02
 6.50250E-01    1.35561E+02
 6.64086E-01    1.35925E+02
 7.00000E-01    1.36872E+02
 7.09365E-01    1.35607E+02
 7.15877E-01    1.34727E+02
 7.19542E-01    1.34232E+02
 7.22676E-01    1.33809E+02
 7.32104E-01    1.32535E+02
 7.39460E-01    1.31542E+02
 8.00000E-01    1.23364E+02
 9.00000E-01    1.06128E+02
 1.00000E+00    9.03201E+01
 1.20000E+00    6.47645E+01
 1.40000E+00    4.58922E+01
 1.60000E+00    3.20227E+01
 1.80000E+00    2.20850E+01
 2.00000E+00    1.51879E+01
 2.20000E+00    1.04585E+01
 2.40000E+00    7.23907E+00
 2.60000E+00    5.05959E+00
 2.80000E+00    3.57483E+00
 3.00000E+00    2.55278E+00
 3.20000E+00    1.88234E+00
 3.40000E+00    1.38512E+00
 3.60000E+00    1.02576E+00
 3.80000E+00    7.51194E-01
 4.00000E+00    5.52756E-01
 4.20000E+00    4.07631E-01
 4.40000E+00    3.01162E-01
 4.60000E+00    2.22863E-01
 4.80000E+00    1.65292E-01
 5.00000E+00    1.22787E-01
 5.20000E+00    9.15459E-02
 5.40000E+00    6.84064E-02
 5.60000E+00    5.12706E-02
 5.80000E+00    3.85963E-02
 6.00000E+00    2.89268E-02
 6.20000E+00    2.18620E-02
 6.40000E+00    1.65689E-02
 6.60000E+00    1.26003E-02
 6.80000E+00    9.62585E-03
 7.00000E+00    7.36956E-03
 7.20000E+00    5.66351E-03
 7.40000E+00    4.36132E-03
 7.60000E+00    3.36470E-03
 7.80000E+00    2.60354E-03
 8.00000E+00    2.01727E-03
 8.50000E+00    1.07696E-03
 9.00000E+00    5.82734E-04
 9.50000E+00    3.19472E-04
 1.00000E+01    1.77271E-04
 1.05000E+01    9.95340E-05
 1.10000E+01    5.65265E-05
 1.15000E+01    3.24491E-05
 1.20000E+01    1.88249E-05
 1.25000E+01    1.10372E-05
 1.30000E+01    6.52639E-06
 1.35000E+01    3.89739E-06
 1.40000E+01    2.34886E-06
 1.45000E+01    1.42613E-06
 1.50000E+01    8.71890E-07
 1.60000E+01    3.33980E-07
 1.70000E+01    1.31250E-07
 1.80000E+01    5.26580E-08
 1.90000E+01    2.15620E-08
 2.00000E+01    9.05150E-09
 2.10000E+01    3.88180E-09
 2.20000E+01    1.69400E-09
 2.30000E+01    7.52930E-10
 2.40000E+01    3.41120E-10
 2.50000E+01    1.56890E-10
 2.60000E+01    7.32150E-11
 2.70000E+01    3.46240E-11
 2.80000E+01    1.65740E-11
 2.90000E+01    8.02720E-12
 3.00000E+01    3.93230E-12
