# n + Dy163 : (n,n'24)  
# tendl.2019 A.J. Koning and D. Rochman        EVAL-NOV19
# uncertainties: n
# # energies =    75
#   E(MeV)       xs(mb) 
 6.64086E-01    0.00000E+00
 7.00000E-01    8.57190E+00
 7.09365E-01    9.43051E+00
 7.15877E-01    1.00275E+01
 7.19542E-01    1.03636E+01
 7.22676E-01    1.06509E+01
 7.32104E-01    1.15153E+01
 7.39460E-01    1.21897E+01
 8.00000E-01    1.77402E+01
 9.00000E-01    1.97093E+01
 1.00000E+00    1.89555E+01
 1.20000E+00    1.55607E+01
 1.40000E+00    1.20611E+01
 1.60000E+00    9.03440E+00
 1.80000E+00    6.60452E+00
 2.00000E+00    4.76416E+00
 2.20000E+00    3.40813E+00
 2.40000E+00    2.42846E+00
 2.60000E+00    1.73269E+00
 2.80000E+00    1.24096E+00
 3.00000E+00    8.93268E-01
 3.20000E+00    6.56703E-01
 3.40000E+00    4.78181E-01
 3.60000E+00    3.52811E-01
 3.80000E+00    2.62141E-01
 4.00000E+00    1.93064E-01
 4.20000E+00    1.42901E-01
 4.40000E+00    1.06070E-01
 4.60000E+00    7.89255E-02
 4.80000E+00    5.88943E-02
 5.00000E+00    4.40367E-02
 5.20000E+00    3.30454E-02
 5.40000E+00    2.48588E-02
 5.60000E+00    1.87482E-02
 5.80000E+00    1.41946E-02
 6.00000E+00    1.06975E-02
 6.20000E+00    8.12035E-03
 6.40000E+00    6.18000E-03
 6.60000E+00    4.71592E-03
 6.80000E+00    3.61241E-03
 7.00000E+00    2.77196E-03
 7.20000E+00    2.13367E-03
 7.40000E+00    1.64505E-03
 7.60000E+00    1.27013E-03
 7.80000E+00    9.83210E-04
 8.00000E+00    7.61895E-04
 8.50000E+00    4.06467E-04
 9.00000E+00    2.19566E-04
 9.50000E+00    1.20096E-04
 1.00000E+01    6.64608E-05
 1.05000E+01    3.72067E-05
 1.10000E+01    2.10648E-05
 1.15000E+01    1.20540E-05
 1.20000E+01    6.97102E-06
 1.25000E+01    4.07476E-06
 1.30000E+01    2.40256E-06
 1.35000E+01    1.43101E-06
 1.40000E+01    8.60430E-07
 1.45000E+01    5.21350E-07
 1.50000E+01    3.18170E-07
 1.60000E+01    1.21510E-07
 1.70000E+01    4.76260E-08
 1.80000E+01    1.90620E-08
 1.90000E+01    7.78710E-09
 2.00000E+01    3.26190E-09
 2.10000E+01    1.39610E-09
 2.20000E+01    6.08150E-10
 2.30000E+01    2.69830E-10
 2.40000E+01    1.22050E-10
 2.50000E+01    5.60460E-11
 2.60000E+01    2.61180E-11
 2.70000E+01    1.23360E-11
 2.80000E+01    5.89810E-12
 2.90000E+01    2.85360E-12
 3.00000E+01    1.39640E-12
