# n + Dy163 : (n,n'23)  
# tendl.2019 A.J. Koning and D. Rochman        EVAL-NOV19
# uncertainties: n
# # energies =    76
#   E(MeV)       xs(mb) 
 6.50250E-01    0.00000E+00
 6.64086E-01    8.57333E+00
 7.00000E-01    3.08271E+01
 7.09365E-01    3.24582E+01
 7.15877E-01    3.35925E+01
 7.19542E-01    3.42308E+01
 7.22676E-01    3.47767E+01
 7.32104E-01    3.64188E+01
 7.39460E-01    3.77001E+01
 8.00000E-01    4.82446E+01
 9.00000E-01    5.05813E+01
 1.00000E+00    4.80779E+01
 1.20000E+00    3.96231E+01
 1.40000E+00    3.08880E+01
 1.60000E+00    2.31374E+01
 1.80000E+00    1.68481E+01
 2.00000E+00    1.21004E+01
 2.20000E+00    8.63909E+00
 2.40000E+00    6.16726E+00
 2.60000E+00    4.42634E+00
 2.80000E+00    3.19979E+00
 3.00000E+00    2.33012E+00
 3.20000E+00    1.75985E+00
 3.40000E+00    1.29767E+00
 3.60000E+00    9.74106E-01
 3.80000E+00    7.33377E-01
 4.00000E+00    5.44652E-01
 4.20000E+00    4.06008E-01
 4.40000E+00    3.03013E-01
 4.60000E+00    2.26388E-01
 4.80000E+00    1.69463E-01
 5.00000E+00    1.27015E-01
 5.20000E+00    9.55052E-02
 5.40000E+00    7.19823E-02
 5.60000E+00    5.43926E-02
 5.80000E+00    4.12700E-02
 6.00000E+00    3.11797E-02
 6.20000E+00    2.37356E-02
 6.40000E+00    1.81236E-02
 6.60000E+00    1.38815E-02
 6.80000E+00    1.06779E-02
 7.00000E+00    8.23159E-03
 7.20000E+00    6.36785E-03
 7.40000E+00    4.93584E-03
 7.60000E+00    3.83229E-03
 7.80000E+00    2.98381E-03
 8.00000E+00    2.32593E-03
 8.50000E+00    1.25986E-03
 9.00000E+00    6.91021E-04
 9.50000E+00    3.83700E-04
 1.00000E+01    2.15484E-04
 1.05000E+01    1.22370E-04
 1.10000E+01    7.02455E-05
 1.15000E+01    4.07362E-05
 1.20000E+01    2.38606E-05
 1.25000E+01    1.41170E-05
 1.30000E+01    8.41910E-06
 1.35000E+01    5.06821E-06
 1.40000E+01    3.07758E-06
 1.45000E+01    1.88183E-06
 1.50000E+01    1.15812E-06
 1.60000E+01    4.48940E-07
 1.70000E+01    1.78260E-07
 1.80000E+01    7.21640E-08
 1.90000E+01    2.97810E-08
 2.00000E+01    1.25890E-08
 2.10000E+01    5.43250E-09
 2.20000E+01    2.38440E-09
 2.30000E+01    1.06540E-09
 2.40000E+01    4.85050E-10
 2.50000E+01    2.24090E-10
 2.60000E+01    1.05000E-10
 2.70000E+01    4.98360E-11
 2.80000E+01    2.39350E-11
 2.90000E+01    1.16280E-11
 3.00000E+01    5.71250E-12
