# n + Dy163 : (n,n'21)  
# tendl.2019 A.J. Koning and D. Rochman        EVAL-NOV19
# uncertainties: n
# # energies =    78
#   E(MeV)       xs(mb) 
 6.15789E-01    0.00000E+00
 6.28084E-01    6.44231E+00
 6.50250E-01    1.80568E+01
 6.64086E-01    2.53066E+01
 7.00000E-01    4.41247E+01
 7.09365E-01    4.49738E+01
 7.15877E-01    4.55642E+01
 7.19542E-01    4.58965E+01
 7.22676E-01    4.61807E+01
 7.32104E-01    4.70355E+01
 7.39460E-01    4.77025E+01
 8.00000E-01    5.31915E+01
 9.00000E-01    5.11371E+01
 1.00000E+00    4.64673E+01
 1.20000E+00    3.66812E+01
 1.40000E+00    2.80539E+01
 1.60000E+00    2.07621E+01
 1.80000E+00    1.49515E+01
 2.00000E+00    1.06048E+01
 2.20000E+00    7.46127E+00
 2.40000E+00    5.23928E+00
 2.60000E+00    3.69484E+00
 2.80000E+00    2.62428E+00
 3.00000E+00    1.87923E+00
 3.20000E+00    1.38537E+00
 3.40000E+00    1.00792E+00
 3.60000E+00    7.50492E-01
 3.80000E+00    5.55481E-01
 4.00000E+00    4.08929E-01
 4.20000E+00    3.02104E-01
 4.40000E+00    2.23551E-01
 4.60000E+00    1.65645E-01
 4.80000E+00    1.22972E-01
 5.00000E+00    9.14068E-02
 5.20000E+00    6.81550E-02
 5.40000E+00    5.09260E-02
 5.60000E+00    3.81428E-02
 5.80000E+00    2.86871E-02
 6.00000E+00    2.14788E-02
 6.20000E+00    1.62051E-02
 6.40000E+00    1.22634E-02
 6.60000E+00    9.30954E-03
 6.80000E+00    7.09868E-03
 7.00000E+00    5.42500E-03
 7.20000E+00    4.16100E-03
 7.40000E+00    3.19840E-03
 7.60000E+00    2.46305E-03
 7.80000E+00    1.90251E-03
 8.00000E+00    1.47160E-03
 8.50000E+00    7.82600E-04
 9.00000E+00    4.22025E-04
 9.50000E+00    2.30682E-04
 1.00000E+01    1.27667E-04
 1.05000E+01    7.15114E-05
 1.10000E+01    4.05224E-05
 1.15000E+01    2.32133E-05
 1.20000E+01    1.34401E-05
 1.25000E+01    7.86512E-06
 1.30000E+01    4.64235E-06
 1.35000E+01    2.76761E-06
 1.40000E+01    1.66533E-06
 1.45000E+01    1.00963E-06
 1.50000E+01    6.16410E-07
 1.60000E+01    2.35540E-07
 1.70000E+01    9.23650E-08
 1.80000E+01    3.69890E-08
 1.90000E+01    1.51210E-08
 2.00000E+01    6.33810E-09
 2.10000E+01    2.71430E-09
 2.20000E+01    1.18300E-09
 2.30000E+01    5.25080E-10
 2.40000E+01    2.37600E-10
 2.50000E+01    1.09150E-10
 2.60000E+01    5.08860E-11
 2.70000E+01    2.40440E-11
 2.80000E+01    1.15010E-11
 2.90000E+01    5.56650E-12
 3.00000E+01    2.72520E-12
