# n + Dy163 : (n,n'27)  
# tendl.2019 A.J. Koning and D. Rochman        EVAL-NOV19
# uncertainties: n
# # energies =    71
#   E(MeV)       xs(mb) 
 7.19542E-01    0.00000E+00
 7.22676E-01    1.61300E+00
 7.32104E-01    6.46546E+00
 7.39460E-01    1.02515E+01
 8.00000E-01    4.14105E+01
 9.00000E-01    5.17605E+01
 1.00000E+00    5.00458E+01
 1.20000E+00    3.91492E+01
 1.40000E+00    2.90727E+01
 1.60000E+00    2.12321E+01
 1.80000E+00    1.53202E+01
 2.00000E+00    1.09854E+01
 2.20000E+00    7.84319E+00
 2.40000E+00    5.59086E+00
 2.60000E+00    3.99624E+00
 2.80000E+00    2.86966E+00
 3.00000E+00    2.07210E+00
 3.20000E+00    1.53123E+00
 3.40000E+00    1.11898E+00
 3.60000E+00    8.24917E-01
 3.80000E+00    6.17807E-01
 4.00000E+00    4.56947E-01
 4.20000E+00    3.39597E-01
 4.40000E+00    2.53096E-01
 4.60000E+00    1.89082E-01
 4.80000E+00    1.41659E-01
 5.00000E+00    1.06343E-01
 5.20000E+00    8.01172E-02
 5.40000E+00    6.05026E-02
 5.60000E+00    4.58092E-02
 5.80000E+00    3.48124E-02
 6.00000E+00    2.63349E-02
 6.20000E+00    2.00658E-02
 6.40000E+00    1.53247E-02
 6.60000E+00    1.17360E-02
 6.80000E+00    9.02087E-03
 7.00000E+00    6.94587E-03
 7.20000E+00    5.36456E-03
 7.40000E+00    4.14960E-03
 7.60000E+00    3.21419E-03
 7.80000E+00    2.49593E-03
 8.00000E+00    1.93999E-03
 8.50000E+00    1.04244E-03
 9.00000E+00    5.66807E-04
 9.50000E+00    3.11863E-04
 1.00000E+01    1.73504E-04
 1.05000E+01    9.76004E-05
 1.10000E+01    5.54995E-05
 1.15000E+01    3.18872E-05
 1.20000E+01    1.85101E-05
 1.25000E+01    1.08577E-05
 1.30000E+01    6.42317E-06
 1.35000E+01    3.83772E-06
 1.40000E+01    2.31431E-06
 1.45000E+01    1.40616E-06
 1.50000E+01    8.60360E-07
 1.60000E+01    3.30090E-07
 1.70000E+01    1.29900E-07
 1.80000E+01    5.21660E-08
 1.90000E+01    2.13740E-08
 2.00000E+01    8.97740E-09
 2.10000E+01    3.85170E-09
 2.20000E+01    1.68160E-09
 2.30000E+01    7.47630E-10
 2.40000E+01    3.38800E-10
 2.50000E+01    1.55860E-10
 2.60000E+01    7.27470E-11
 2.70000E+01    3.44110E-11
 2.80000E+01    1.64760E-11
 2.90000E+01    7.98190E-12
 3.00000E+01    3.91110E-12
