# n + Dy163 : (n,n'18)  
# tendl.2019 A.J. Koning and D. Rochman        EVAL-NOV19
# uncertainties: n
# # energies =    82
#   E(MeV)       xs(mb) 
 5.69504E-01    0.00000E+00
 5.72311E-01    2.77463E+00
 5.91569E-01    2.18108E+01
 6.00000E-01    3.01447E+01
 6.15789E-01    3.44692E+01
 6.28084E-01    3.78367E+01
 6.50250E-01    4.39078E+01
 6.64086E-01    4.76973E+01
 7.00000E-01    5.75339E+01
 7.09365E-01    5.79657E+01
 7.15877E-01    5.82660E+01
 7.19542E-01    5.84350E+01
 7.22676E-01    5.85795E+01
 7.32104E-01    5.90142E+01
 7.39460E-01    5.93534E+01
 8.00000E-01    6.21450E+01
 9.00000E-01    5.70409E+01
 1.00000E+00    4.99086E+01
 1.20000E+00    3.66515E+01
 1.40000E+00    2.64592E+01
 1.60000E+00    1.88806E+01
 1.80000E+00    1.33504E+01
 2.00000E+00    9.41076E+00
 2.20000E+00    6.62467E+00
 2.40000E+00    4.66812E+00
 2.60000E+00    3.30569E+00
 2.80000E+00    2.35594E+00
 3.00000E+00    1.69076E+00
 3.20000E+00    1.24131E+00
 3.40000E+00    9.03538E-01
 3.60000E+00    6.71828E-01
 3.80000E+00    4.93475E-01
 4.00000E+00    3.63907E-01
 4.20000E+00    2.69240E-01
 4.40000E+00    1.99783E-01
 4.60000E+00    1.48623E-01
 4.80000E+00    1.10894E-01
 5.00000E+00    8.29193E-02
 5.20000E+00    6.22373E-02
 5.40000E+00    4.68302E-02
 5.60000E+00    3.53294E-02
 5.80000E+00    2.67671E-02
 6.00000E+00    2.01836E-02
 6.20000E+00    1.53338E-02
 6.40000E+00    1.16786E-02
 6.60000E+00    8.91869E-03
 6.80000E+00    6.83832E-03
 7.00000E+00    5.25195E-03
 7.20000E+00    4.04638E-03
 7.40000E+00    3.12260E-03
 7.60000E+00    2.41313E-03
 7.80000E+00    1.86969E-03
 8.00000E+00    1.45011E-03
 8.50000E+00    7.75231E-04
 9.00000E+00    4.19547E-04
 9.50000E+00    2.29859E-04
 1.00000E+01    1.27389E-04
 1.05000E+01    7.14085E-05
 1.10000E+01    4.04759E-05
 1.15000E+01    2.31872E-05
 1.20000E+01    1.34233E-05
 1.25000E+01    7.85406E-06
 1.30000E+01    4.63528E-06
 1.35000E+01    2.76333E-06
 1.40000E+01    1.66291E-06
 1.45000E+01    1.00837E-06
 1.50000E+01    6.15820E-07
 1.60000E+01    2.35470E-07
 1.70000E+01    9.23860E-08
 1.80000E+01    3.70070E-08
 1.90000E+01    1.51290E-08
 2.00000E+01    6.34190E-09
 2.10000E+01    2.71620E-09
 2.20000E+01    1.18400E-09
 2.30000E+01    5.25620E-10
 2.40000E+01    2.37880E-10
 2.50000E+01    1.09300E-10
 2.60000E+01    5.09560E-11
 2.70000E+01    2.40780E-11
 2.80000E+01    1.15170E-11
 2.90000E+01    5.57440E-12
 3.00000E+01    2.72900E-12
