# n + Dy163 : (n,n'12)  
# tendl.2019 A.J. Koning and D. Rochman        EVAL-NOV19
# uncertainties: n
# # energies =    89
#   E(MeV)       xs(mb) 
 4.30328E-01    0.00000E+00
 4.52786E-01    4.07017E+01
 4.78331E-01    8.69982E+01
 5.00000E-01    1.26270E+02
 5.00097E-01    1.26290E+02
 5.17738E-01    1.29932E+02
 5.56444E-01    1.37923E+02
 5.69504E-01    1.40619E+02
 5.72311E-01    1.41199E+02
 5.91569E-01    1.45174E+02
 6.00000E-01    1.46915E+02
 6.15789E-01    1.46619E+02
 6.28084E-01    1.46389E+02
 6.50250E-01    1.45974E+02
 6.64086E-01    1.45715E+02
 7.00000E-01    1.45042E+02
 7.09365E-01    1.43568E+02
 7.15877E-01    1.42544E+02
 7.19542E-01    1.41967E+02
 7.22676E-01    1.41474E+02
 7.32104E-01    1.39990E+02
 7.39460E-01    1.38833E+02
 8.00000E-01    1.29306E+02
 9.00000E-01    1.10607E+02
 1.00000E+00    9.37306E+01
 1.20000E+00    6.67054E+01
 1.40000E+00    4.69590E+01
 1.60000E+00    3.25982E+01
 1.80000E+00    2.23956E+01
 2.00000E+00    1.53589E+01
 2.20000E+00    1.05558E+01
 2.40000E+00    7.29683E+00
 2.60000E+00    5.09554E+00
 2.80000E+00    3.59832E+00
 3.00000E+00    2.56870E+00
 3.20000E+00    1.89362E+00
 3.40000E+00    1.39724E+00
 3.60000E+00    1.03088E+00
 3.80000E+00    7.54954E-01
 4.00000E+00    5.55285E-01
 4.20000E+00    4.09326E-01
 4.40000E+00    3.02297E-01
 4.60000E+00    2.23624E-01
 4.80000E+00    1.65803E-01
 5.00000E+00    1.23134E-01
 5.20000E+00    9.17822E-02
 5.40000E+00    6.85674E-02
 5.60000E+00    5.13855E-02
 5.80000E+00    3.86770E-02
 6.00000E+00    2.89853E-02
 6.20000E+00    2.19044E-02
 6.40000E+00    1.65997E-02
 6.60000E+00    1.26236E-02
 6.80000E+00    9.64319E-03
 7.00000E+00    7.38267E-03
 7.20000E+00    5.67343E-03
 7.40000E+00    4.36883E-03
 7.60000E+00    3.37042E-03
 7.80000E+00    2.60789E-03
 8.00000E+00    2.02059E-03
 8.50000E+00    1.07865E-03
 9.00000E+00    5.83602E-04
 9.50000E+00    3.19921E-04
 1.00000E+01    1.77506E-04
 1.05000E+01    9.96581E-05
 1.10000E+01    5.65930E-05
 1.15000E+01    3.24853E-05
 1.20000E+01    1.88449E-05
 1.25000E+01    1.10484E-05
 1.30000E+01    6.53271E-06
 1.35000E+01    3.90101E-06
 1.40000E+01    2.35095E-06
 1.45000E+01    1.42734E-06
 1.50000E+01    8.72600E-07
 1.60000E+01    3.34220E-07
 1.70000E+01    1.31340E-07
 1.80000E+01    5.26910E-08
 1.90000E+01    2.15750E-08
 2.00000E+01    9.05640E-09
 2.10000E+01    3.88380E-09
 2.20000E+01    1.69490E-09
 2.30000E+01    7.53290E-10
 2.40000E+01    3.41280E-10
 2.50000E+01    1.56960E-10
 2.60000E+01    7.32450E-11
 2.70000E+01    3.46380E-11
 2.80000E+01    1.65800E-11
 2.90000E+01    8.03010E-12
 3.00000E+01    3.93370E-12
