# n + Dy163 : (n,n'20)  
# tendl.2019 A.J. Koning and D. Rochman        EVAL-NOV19
# uncertainties: n
# # energies =    80
#   E(MeV)       xs(mb) 
 5.91569E-01    0.00000E+00
 6.00000E-01    1.47868E+01
 6.15789E-01    2.03280E+01
 6.28084E-01    2.46430E+01
 6.50250E-01    3.24222E+01
 6.64086E-01    3.72780E+01
 7.00000E-01    4.98821E+01
 7.09365E-01    5.07898E+01
 7.15877E-01    5.14209E+01
 7.19542E-01    5.17761E+01
 7.22676E-01    5.20799E+01
 7.32104E-01    5.29936E+01
 7.39460E-01    5.37066E+01
 8.00000E-01    5.95741E+01
 9.00000E-01    5.87813E+01
 1.00000E+00    5.45535E+01
 1.20000E+00    4.37684E+01
 1.40000E+00    3.34096E+01
 1.60000E+00    2.46097E+01
 1.80000E+00    1.77091E+01
 2.00000E+00    1.26282E+01
 2.20000E+00    8.99050E+00
 2.40000E+00    6.42725E+00
 2.60000E+00    4.63960E+00
 2.80000E+00    3.38875E+00
 3.00000E+00    2.50595E+00
 3.20000E+00    1.92847E+00
 3.40000E+00    1.46024E+00
 3.60000E+00    1.14117E+00
 3.80000E+00    8.86530E-01
 4.00000E+00    6.96211E-01
 4.20000E+00    5.55683E-01
 4.40000E+00    4.51762E-01
 4.60000E+00    3.75107E-01
 4.80000E+00    3.19016E-01
 5.00000E+00    2.78229E-01
 5.20000E+00    2.49191E-01
 5.40000E+00    2.28873E-01
 5.60000E+00    2.15127E-01
 5.80000E+00    2.06342E-01
 6.00000E+00    2.00854E-01
 6.20000E+00    1.98047E-01
 6.40000E+00    1.96841E-01
 6.60000E+00    1.96536E-01
 6.80000E+00    1.96611E-01
 7.00000E+00    1.96646E-01
 7.20000E+00    1.96409E-01
 7.40000E+00    1.95733E-01
 7.60000E+00    1.94568E-01
 7.80000E+00    1.92912E-01
 8.00000E+00    1.90803E-01
 8.50000E+00    1.83987E-01
 9.00000E+00    1.75884E-01
 9.50000E+00    1.67517E-01
 1.00000E+01    1.59596E-01
 1.05000E+01    1.52494E-01
 1.10000E+01    1.46283E-01
 1.15000E+01    1.40841E-01
 1.20000E+01    1.35948E-01
 1.25000E+01    1.31398E-01
 1.30000E+01    1.27053E-01
 1.35000E+01    1.22856E-01
 1.40000E+01    1.18801E-01
 1.45000E+01    1.14917E-01
 1.50000E+01    1.11242E-01
 1.60000E+01    1.04688E-01
 1.70000E+01    9.93732E-02
 1.80000E+01    9.52813E-02
 1.90000E+01    9.21648E-02
 2.00000E+01    8.96914E-02
 2.10000E+01    8.75541E-02
 2.20000E+01    8.54726E-02
 2.30000E+01    8.32072E-02
 2.40000E+01    8.06756E-02
 2.50000E+01    7.80027E-02
 2.60000E+01    7.54108E-02
 2.70000E+01    7.30803E-02
 2.80000E+01    7.10842E-02
 2.90000E+01    6.93952E-02
 3.00000E+01    6.79120E-02
