# n + Ni 62 : (n,n'11)  
# jeff3.3    A.J. Koning and D. Rochman        EVAL-DEC15
# uncertainties: n
# # energies =    73
#   E(MeV)       xs(mb) 
 3.32323E+00    0.00000E+00
 3.33108E+00    3.19478E+00
 3.40000E+00    3.12440E+01
 3.42487E+00    3.27178E+01
 3.43302E+00    3.32007E+01
 3.51839E+00    3.82597E+01
 3.54278E+00    3.97051E+01
 3.57553E+00    4.16458E+01
 3.57991E+00    4.19054E+01
 3.58180E+00    4.20174E+01
 3.60000E+00    4.30959E+01
 3.80000E+00    4.93257E+01
 3.81768E+00    4.94812E+01
 3.91210E+00    5.03115E+01
 3.92246E+00    5.04026E+01
 4.00000E+00    5.10844E+01
 4.03161E+00    5.05953E+01
 4.03761E+00    5.05025E+01
 4.06566E+00    5.00685E+01
 4.07633E+00    4.99033E+01
 4.08434E+00    4.97794E+01
 4.10072E+00    4.95260E+01
 4.12135E+00    4.92068E+01
 4.12857E+00    4.90950E+01
 4.20000E+00    4.79898E+01
 4.40000E+00    4.32309E+01
 4.60000E+00    3.80043E+01
 4.80000E+00    3.29263E+01
 5.00000E+00    2.83407E+01
 5.20000E+00    2.43548E+01
 5.40000E+00    2.09524E+01
 5.60000E+00    1.80736E+01
 5.80000E+00    1.56386E+01
 6.00000E+00    1.35750E+01
 6.20000E+00    1.18311E+01
 6.40000E+00    1.03298E+01
 6.60000E+00    9.03653E+00
 6.80000E+00    7.91971E+00
 7.00000E+00    6.94889E+00
 7.20000E+00    6.10188E+00
 7.40000E+00    5.35942E+00
 7.60000E+00    4.70600E+00
 7.80000E+00    4.13247E+00
 8.00000E+00    3.62661E+00
 8.50000E+00    2.59744E+00
 9.00000E+00    1.86045E+00
 9.50000E+00    1.33136E+00
 1.00000E+01    9.53447E-01
 1.05000E+01    6.83812E-01
 1.10000E+01    4.91403E-01
 1.15000E+01    3.53003E-01
 1.20000E+01    2.53278E-01
 1.25000E+01    1.81348E-01
 1.30000E+01    1.29553E-01
 1.35000E+01    9.24014E-02
 1.40000E+01    6.57746E-02
 1.45000E+01    4.67782E-02
 1.50000E+01    3.32557E-02
 1.60000E+01    1.68147E-02
 1.70000E+01    8.53177E-03
 1.80000E+01    4.35615E-03
 1.90000E+01    2.24211E-03
 2.00000E+01    1.16323E-03
 2.10000E+01    6.08773E-04
 2.20000E+01    3.17901E-04
 2.30000E+01    1.66948E-04
 2.40000E+01    8.81255E-05
 2.50000E+01    4.54813E-05
 2.60000E+01    2.40516E-05
 2.70000E+01    1.28191E-05
 2.80000E+01    6.85462E-06
 2.90000E+01    3.67751E-06
 3.00000E+01    1.97040E-06
