# n + Ni 62 : (n,n'06)  
# jeff3.3    A.J. Koning and D. Rochman        EVAL-DEC15
# uncertainties: n
# # energies =    79
#   E(MeV)       xs(mb) 
 3.10858E+00    0.00000E+00
 3.20000E+00    4.18268E+01
 3.20940E+00    4.29417E+01
 3.22844E+00    4.51998E+01
 3.31068E+00    5.49537E+01
 3.31513E+00    5.54814E+01
 3.32323E+00    5.64421E+01
 3.33108E+00    5.73731E+01
 3.40000E+00    6.55472E+01
 3.42487E+00    6.69831E+01
 3.43302E+00    6.74537E+01
 3.51839E+00    7.23826E+01
 3.54278E+00    7.37907E+01
 3.57553E+00    7.56816E+01
 3.57991E+00    7.59345E+01
 3.58180E+00    7.60436E+01
 3.60000E+00    7.70944E+01
 3.80000E+00    8.38730E+01
 3.81768E+00    8.38550E+01
 3.91210E+00    8.37591E+01
 3.92246E+00    8.37486E+01
 4.00000E+00    8.36698E+01
 4.03161E+00    8.26785E+01
 4.03761E+00    8.24903E+01
 4.06566E+00    8.16107E+01
 4.07633E+00    8.12761E+01
 4.08434E+00    8.10249E+01
 4.10072E+00    8.05112E+01
 4.12135E+00    7.98643E+01
 4.12857E+00    7.96378E+01
 4.20000E+00    7.73978E+01
 4.40000E+00    6.91568E+01
 4.60000E+00    6.06909E+01
 4.80000E+00    5.26901E+01
 5.00000E+00    4.55420E+01
 5.20000E+00    3.93461E+01
 5.40000E+00    3.40455E+01
 5.60000E+00    2.95394E+01
 5.80000E+00    2.57062E+01
 6.00000E+00    2.24357E+01
 6.20000E+00    1.96536E+01
 6.40000E+00    1.72421E+01
 6.60000E+00    1.51517E+01
 6.80000E+00    1.33362E+01
 7.00000E+00    1.17499E+01
 7.20000E+00    1.03590E+01
 7.40000E+00    9.13306E+00
 7.60000E+00    8.05255E+00
 7.80000E+00    7.09868E+00
 8.00000E+00    6.25301E+00
 8.50000E+00    4.52087E+00
 9.00000E+00    3.26665E+00
 9.50000E+00    2.35599E+00
 1.00000E+01    1.69849E+00
 1.05000E+01    1.22480E+00
 1.10000E+01    8.83955E-01
 1.15000E+01    6.37224E-01
 1.20000E+01    4.58581E-01
 1.25000E+01    3.29258E-01
 1.30000E+01    2.35870E-01
 1.35000E+01    1.68728E-01
 1.40000E+01    1.20501E-01
 1.45000E+01    8.60140E-02
 1.50000E+01    6.13989E-02
 1.60000E+01    3.13264E-02
 1.70000E+01    1.60432E-02
 1.80000E+01    8.25887E-03
 1.90000E+01    4.27788E-03
 2.00000E+01    2.22951E-03
 2.10000E+01    1.17083E-03
 2.20000E+01    6.13364E-04
 2.30000E+01    3.23264E-04
 2.40000E+01    1.71345E-04
 2.50000E+01    8.88362E-05
 2.60000E+01    4.72012E-05
 2.70000E+01    2.52725E-05
 2.80000E+01    1.35706E-05
 2.90000E+01    7.30775E-06
 3.00000E+01    3.92830E-06
