# n + Ni 62 : (n,n'05)  
# jeff3.3    A.J. Koning and D. Rochman        EVAL-DEC15
# uncertainties: n
# # energies =    81
#   E(MeV)       xs(mb) 
 2.93771E+00    0.00000E+00
 3.00000E+00    1.81071E+01
 3.10858E+00    2.57679E+01
 3.20000E+00    3.22179E+01
 3.20940E+00    3.25042E+01
 3.22844E+00    3.30842E+01
 3.31068E+00    3.55891E+01
 3.31513E+00    3.57247E+01
 3.32323E+00    3.59714E+01
 3.33108E+00    3.62105E+01
 3.40000E+00    3.83098E+01
 3.42487E+00    3.80357E+01
 3.43302E+00    3.79459E+01
 3.51839E+00    3.70050E+01
 3.54278E+00    3.67362E+01
 3.57553E+00    3.63753E+01
 3.57991E+00    3.63270E+01
 3.58180E+00    3.63062E+01
 3.60000E+00    3.61056E+01
 3.80000E+00    3.38820E+01
 3.81768E+00    3.35798E+01
 3.91210E+00    3.19660E+01
 3.92246E+00    3.17890E+01
 4.00000E+00    3.04637E+01
 4.03161E+00    2.97443E+01
 4.03761E+00    2.96078E+01
 4.06566E+00    2.89695E+01
 4.07633E+00    2.87267E+01
 4.08434E+00    2.85444E+01
 4.10072E+00    2.81716E+01
 4.12135E+00    2.77021E+01
 4.12857E+00    2.75378E+01
 4.20000E+00    2.59123E+01
 4.40000E+00    2.16433E+01
 4.60000E+00    1.80557E+01
 4.80000E+00    1.51067E+01
 5.00000E+00    1.27131E+01
 5.20000E+00    1.07737E+01
 5.40000E+00    9.19310E+00
 5.60000E+00    7.89559E+00
 5.80000E+00    6.81794E+00
 6.00000E+00    5.91272E+00
 6.20000E+00    5.14937E+00
 6.40000E+00    4.49073E+00
 6.60000E+00    3.92066E+00
 6.80000E+00    3.42571E+00
 7.00000E+00    2.99344E+00
 7.20000E+00    2.61467E+00
 7.40000E+00    2.28291E+00
 7.60000E+00    1.99192E+00
 7.80000E+00    1.73668E+00
 8.00000E+00    1.51315E+00
 8.50000E+00    1.06412E+00
 9.00000E+00    7.49558E-01
 9.50000E+00    5.28790E-01
 1.00000E+01    3.74254E-01
 1.05000E+01    2.65819E-01
 1.10000E+01    1.89468E-01
 1.15000E+01    1.35145E-01
 1.20000E+01    9.63710E-02
 1.25000E+01    6.86398E-02
 1.30000E+01    4.88230E-02
 1.35000E+01    3.47033E-02
 1.40000E+01    2.46407E-02
 1.45000E+01    1.74946E-02
 1.50000E+01    1.24258E-02
 1.60000E+01    6.28439E-03
 1.70000E+01    3.19742E-03
 1.80000E+01    1.63960E-03
 1.90000E+01    8.47625E-04
 2.00000E+01    4.41022E-04
 2.10000E+01    2.30902E-04
 2.20000E+01    1.20338E-04
 2.30000E+01    6.29698E-05
 2.40000E+01    3.31011E-05
 2.50000E+01    1.70171E-05
 2.60000E+01    8.97131E-06
 2.70000E+01    4.77141E-06
 2.80000E+01    2.54811E-06
 2.90000E+01    1.36607E-06
 3.00000E+01    7.31570E-07
