# n + W 183 : (n,a)m    
# endfb8.0                                     EVAL-AUG14
# uncertainties: n
# # energies =    71
#   E(MeV)       xs(mb) 
 1.00000E-11    0.00000E+00
 6.00000E-01    0.00000E+00
 7.00000E-01    0.00000E+00
 7.50000E-01    2.08410E-12
 8.50000E-01    5.32470E-12
 1.10000E+00    3.92800E-11
 1.30000E+00    1.25920E-10
 1.40000E+00    2.14070E-10
 1.50000E+00    3.59280E-10
 1.60000E+00    5.48970E-10
 1.70000E+00    8.49080E-10
 1.80000E+00    1.29040E-09
 1.90000E+00    1.91710E-09
 2.00000E+00    2.81500E-09
 2.10000E+00    3.62200E-09
 2.20000E+00    5.08880E-09
 2.30000E+00    5.42200E-08
 2.50000E+00    9.60840E-07
 2.75000E+00    2.22545E-06
 3.00000E+00    3.55857E-06
 3.50000E+00    8.17725E-06
 4.00000E+00    1.62279E-05
 4.50000E+00    2.87253E-05
 5.00000E+00    4.55733E-05
 5.50000E+00    6.47291E-05
 6.00000E+00    9.22189E-05
 6.50000E+00    1.33267E-04
 7.00000E+00    1.96605E-04
 8.00000E+00    4.41599E-04
 8.20000E+00    5.16250E-04
 8.40000E+00    6.36757E-04
 8.60000E+00    7.51345E-04
 9.00000E+00    1.01671E-03
 9.30000E+00    1.28785E-03
 9.60000E+00    1.78245E-03
 1.00000E+01    2.47464E-03
 1.05000E+01    3.60487E-03
 1.10000E+01    5.99980E-03
 1.15000E+01    8.64246E-03
 1.20000E+01    1.18854E-02
 1.25000E+01    1.89304E-02
 1.30000E+01    2.54513E-02
 1.35000E+01    3.33231E-02
 1.40000E+01    4.80821E-02
 1.45000E+01    5.88096E-02
 1.50000E+01    7.11640E-02
 1.55000E+01    8.45968E-02
 1.60000E+01    1.06008E-01
 1.70000E+01    1.36070E-01
 1.80000E+01    1.62384E-01
 1.90000E+01    1.99361E-01
 2.00000E+01    2.12442E-01
 2.20000E+01    2.12777E-01
 2.40000E+01    2.16073E-01
 2.80000E+01    1.63626E-01
 3.00000E+01    1.52655E-01
 3.20000E+01    1.27807E-01
 3.40000E+01    1.18722E-01
 3.80000E+01    8.37324E-02
 4.20000E+01    5.49933E-02
 4.60000E+01    4.85647E-02
 4.80000E+01    4.38094E-02
 5.50000E+01    3.02983E-02
 6.00000E+01    1.93839E-02
 7.00000E+01    6.49091E-03
 8.00000E+01    3.47658E-03
 9.00000E+01    1.78659E-03
 1.00000E+02    8.31324E-04
 1.15000E+02    1.34156E-04
 1.30000E+02    5.43474E-06
 1.50000E+02    1.43266E-06
