# n + W 183 : (n,xa)    
# endfb8.0                                     EVAL-AUG14
# 
# # energies =   110
#   E(MeV)        xs(mb) 
 4.67363E-02    3.48949E-12
 5.00000E-02    3.66819E-12
 5.50000E-02    3.96405E-12
 6.00000E-02    4.28376E-12
 6.50000E-02    4.62925E-12
 7.00000E-02    5.00262E-12
 8.00000E-02    5.84213E-12
 9.00000E-02    6.82251E-12
 9.50000E-02    7.37275E-12
 9.96263E-02    8.01915E-12
 1.20000E-01    1.08658E-11
 1.30000E-01    1.26892E-11
 1.40000E-01    1.48186E-11
 1.50000E-01    1.73054E-11
 1.60000E-01    2.02094E-11
 1.70000E-01    2.36008E-11
 1.80000E-01    2.75613E-11
 1.90000E-01    3.21864E-11
 2.00000E-01    3.75877E-11
 2.08151E-01    4.31604E-11
 2.09961E-01    4.43979E-11
 2.20000E-01    5.12615E-11
 2.50000E-01    8.16414E-11
 2.70000E-01    1.11341E-10
 2.93328E-01    1.62652E-10
 3.00000E-01    1.77327E-10
 3.10653E-01    2.11688E-10
 3.11196E-01    2.13439E-10
 3.20000E-01    2.41836E-10
 3.50000E-01    3.85159E-10
 4.00000E-01    8.36574E-10
 4.14362E-01    1.05512E-09
 4.20000E-01    1.14091E-09
 4.50000E-01    1.81706E-09
 4.55568E-01    2.05422E-09
 4.78021E-01    3.01055E-09
 4.89685E-01    3.50735E-09
 5.00000E-01    3.94669E-09
 5.20000E-01    5.38244E-09
 5.50000E-01    8.57230E-09
 6.00000E-01    1.86192E-08
 7.00000E-01    1.17588E-04
 7.50000E-01    1.25434E-04
 8.50000E-01    1.28212E-04
 1.10000E+00    1.51437E-04
 1.30000E+00    2.64355E-04
 1.40000E+00    2.85404E-04
 1.50000E+00    3.42771E-04
 1.60000E+00    3.50108E-04
 1.70000E+00    3.67359E-04
 1.80000E+00    3.85490E-04
 1.90000E+00    4.05672E-04
 2.00000E+00    4.22388E-04
 2.10000E+00    4.34678E-04
 2.20000E+00    4.48646E-04
 2.30000E+00    4.73822E-04
 2.50000E+00    5.54476E-04
 2.75000E+00    6.57391E-04
 3.00000E+00    7.53213E-04
 3.50000E+00    9.56932E-04
 4.00000E+00    1.17658E-03
 4.50000E+00    1.54874E-03
 5.00000E+00    2.00846E-03
 5.50000E+00    2.66161E-03
 6.00000E+00    3.60174E-03
 6.50000E+00    4.68307E-03
 7.00000E+00    5.63036E-03
 8.00000E+00    8.77745E-03
 8.20000E+00    9.98885E-03
 8.40000E+00    1.22474E-02
 8.60000E+00    1.42078E-02
 9.00000E+00    1.86800E-02
 9.30000E+00    2.35423E-02
 9.60000E+00    3.36220E-02
 1.00000E+01    4.71989E-02
 1.05000E+01    6.93147E-02
 1.10000E+01    1.21425E-01
 1.15000E+01    1.78204E-01
 1.20000E+01    2.47628E-01
 1.25000E+01    4.08270E-01
 1.30000E+01    5.84271E-01
 1.35000E+01    8.19748E-01
 1.40000E+01    1.27725E+00
 1.45000E+01    1.65511E+00
 1.50000E+01    2.12859E+00
 1.55000E+01    2.67577E+00
 1.60000E+01    3.55706E+00
 1.70000E+01    4.36424E+00
 1.80000E+01    5.20178E+00
 1.90000E+01    6.54788E+00
 2.00000E+01    7.45184E+00
 2.20000E+01    9.81023E+00
 2.40000E+01    1.25444E+01
 2.80000E+01    1.90261E+01
 3.00000E+01    2.27909E+01
 3.20000E+01    2.61864E+01
 3.40000E+01    2.95762E+01
 3.80000E+01    3.19922E+01
 4.20000E+01    3.52320E+01
 4.60000E+01    3.98096E+01
 4.80000E+01    4.09253E+01
 5.50000E+01    4.23285E+01
 6.00000E+01    4.65322E+01
 7.00000E+01    4.73071E+01
 8.00000E+01    4.98691E+01
 9.00000E+01    5.51415E+01
 1.00000E+02    6.71545E+01
 1.15000E+02    8.14282E+01
 1.30000E+02    1.00613E+02
 1.50000E+02    1.33630E+02
