# n + V  50 : (n,g)     
# jendl.ad   N.Iwamoto                         EVAL-Mar10
# uncertainties: n
# # energies =    69
#   E(MeV)       xs(mb) 
 1.00000E-10    3.11914E+05
 5.00000E-09    8.49292E+04
 1.00000E-08    6.43214E+04
 1.50000E-08    5.40461E+04
 2.00000E-08    4.75563E+04
 2.50000E-08    4.29678E+04
 3.00000E-08    3.94998E+04
 3.50000E-08    3.63199E+04
 4.20000E-08    3.32213E+04
 5.00000E-08    3.06409E+04
 5.80000E-08    2.84767E+04
 6.70000E-08    2.62799E+04
 8.00000E-08    2.37841E+04
 1.00000E-07    2.06912E+04
 1.40000E-07    1.78570E+04
 1.80000E-07    1.59457E+04
 2.20000E-07    1.46836E+04
 2.50000E-07    1.38236E+04
 2.80000E-07    1.32067E+04
 3.00000E-07    1.27747E+04
 3.20000E-07    1.22945E+04
 3.50000E-07    1.16286E+04
 4.00000E-07    1.06394E+04
 5.00000E-07    9.51683E+03
 6.25000E-07    8.51871E+03
 7.80000E-07    7.88479E+03
 8.50000E-07    7.58651E+03
 9.10000E-07    7.37832E+03
 9.50000E-07    7.25780E+03
 9.72000E-07    7.17262E+03
 9.96000E-07    7.08667E+03
 1.02000E-06    7.00219E+03
 1.04500E-06    6.91761E+03
 1.07100E-06    6.83438E+03
 1.09700E-06    6.75387E+03
 1.12300E-06    6.67535E+03
 1.15000E-06    6.43921E+03
 1.30000E-06    6.02712E+03
 1.50000E-06    5.35371E+03
 2.10000E-06    4.66505E+03
 2.60000E-06    4.17109E+03
 3.30000E-06    3.74669E+03
 4.00000E-06    2.88095E+03
 9.87700E-06    2.04412E+03
 1.59680E-05    1.60625E+03
 2.77000E-05    1.27459E+03
 4.80520E-05    1.11725E+03
 7.55014E-05    2.27557E+03
 1.48728E-04    4.22516E+04
 3.67262E-04    1.43117E+02
 9.06898E-04    7.57319E+02
 1.42510E-03    5.41006E+02
 2.23945E-03    1.48421E+01
 3.51910E-03    7.44355E+00
 5.53000E-03    1.36863E+02
 9.11800E-03    2.72641E+01
 1.50300E-02    3.25475E+01
 2.47800E-02    1.17964E+01
 4.08500E-02    1.31170E+01
 6.73400E-02    9.84813E+00
 1.11000E-01    7.06771E+00
 1.83000E-01    4.58063E+00
 3.02000E-01    2.27242E+00
 5.00000E-01    1.49793E+00
 8.21000E-01    1.02403E+00
 1.35300E+00    7.01530E-01
 2.23100E+00    4.96025E-01
 3.67900E+00    3.79329E-01
 6.06500E+00    4.56718E-01
