# n + Pu238 : (n,f)     
# jendl.ad   O.Iwamoto,T.Nakagawa +            EVAL-JAN10
# uncertainties: n
# # energies =   171
#   E(MeV)       xs(mb) 
 1.00000E-11    2.38118E+05
 1.00000E-07    2.40773E+03
 4.13990E-07    5.79739E+02
 5.31580E-07    3.82520E+02
 6.82560E-07    2.53894E+02
 8.76420E-07    1.71927E+02
 1.12540E-06    1.20946E+02
 1.44500E-06    9.08953E+01
 1.85540E-06    8.16147E+01
 2.37240E-06    1.94425E+03
 3.05900E-06    9.12931E+01
 3.92790E-06    3.81658E+01
 5.04350E-06    3.27208E+01
 6.47600E-06    3.57385E+01
 8.31530E-06    3.49299E+03
 1.06770E-05    4.39737E+01
 1.37100E-05    4.29863E+01
 1.76030E-05    4.19024E+03
 2.26030E-05    1.67652E+01
 2.92030E-05    1.94492E+02
 3.72670E-05    1.34809E+01
 4.78510E-05    1.26092E+02
 6.14420E-05    1.45286E+03
 7.88930E-05    3.04188E+03
 1.01300E-04    7.13689E+03
 1.30070E-04    3.20566E+03
 1.67020E-04    7.57489E+03
 2.14450E-04    5.34996E+03
 2.75360E-04    1.48529E+04
 3.53580E-04    2.49686E+03
 4.54000E-04    1.55024E+03
 5.82950E-04    2.74235E+03
 7.48520E-04    2.25357E+03
 9.61120E-04    1.33749E+03
 1.23410E-03    1.12119E+03
 1.58460E-03    1.27039E+03
 2.03470E-03    8.99330E+02
 2.24870E-03    6.87802E+02
 2.48520E-03    1.10316E+03
 2.61260E-03    1.64020E+03
 2.74650E-03    2.14025E+03
 3.03540E-03    1.47433E+03
 3.35460E-03    6.18127E+02
 3.70740E-03    9.44005E+02
 4.30740E-03    7.29112E+02
 5.53080E-03    1.27626E+03
 7.10170E-03    5.96709E+02
 9.11880E-03    6.60396E+02
 1.17090E-02    7.58216E+02
 1.50340E-02    8.42989E+02
 1.93050E-02    8.10700E+02
 2.18750E-02    7.35617E+02
 2.35790E-02    6.98580E+02
 2.41760E-02    6.81120E+02
 2.47880E-02    6.73833E+02
 2.60580E-02    6.90872E+02
 2.70000E-02    7.10466E+02
 2.85000E-02    7.45002E+02
 3.18280E-02    7.71094E+02
 3.43070E-02    7.41938E+02
 4.08680E-02    6.87715E+02
 4.63090E-02    6.67790E+02
 5.24750E-02    6.41001E+02
 5.65620E-02    6.04715E+02
 6.73790E-02    5.71307E+02
 7.20000E-02    5.57444E+02
 7.95000E-02    5.69359E+02
 8.25000E-02    5.79967E+02
 8.65170E-02    6.02633E+02
 9.80370E-02    6.32557E+02
 1.11090E-01    6.49293E+02
 1.16790E-01    6.59486E+02
 1.22770E-01    6.69816E+02
 1.29070E-01    6.79716E+02
 1.35690E-01    6.90068E+02
 1.42640E-01    7.00942E+02
 1.49960E-01    7.10523E+02
 1.57640E-01    7.19232E+02
 1.65730E-01    7.28388E+02
 1.74220E-01    7.37712E+02
 1.83160E-01    7.46864E+02
 1.92550E-01    7.56909E+02
 2.02420E-01    7.78313E+02
 2.12800E-01    8.05471E+02
 2.23710E-01    8.34020E+02
 2.35180E-01    8.64036E+02
 2.47240E-01    8.93064E+02
 2.73240E-01    9.06946E+02
 2.87250E-01    9.14148E+02
 2.94520E-01    9.17511E+02
 2.97200E-01    9.18853E+02
 2.98500E-01    9.20982E+02
 3.01970E-01    9.48646E+02
 3.33730E-01    1.00237E+03
 3.68830E-01    1.04472E+03
 3.87740E-01    1.07503E+03
 4.07620E-01    1.13569E+03
 4.50490E-01    1.22631E+03
 4.97870E-01    1.31507E+03
 5.23400E-01    1.40428E+03
 5.50230E-01    1.49820E+03
 5.78440E-01    1.59578E+03
 6.08100E-01    1.65309E+03
 6.39280E-01    1.69530E+03
 6.72060E-01    1.73990E+03
 7.06510E-01    1.79594E+03
 7.42740E-01    1.85958E+03
 7.80820E-01    1.92648E+03
 8.20850E-01    1.99386E+03
 8.62940E-01    2.01812E+03
 9.07180E-01    2.02819E+03
 9.61640E-01    2.03797E+03
 1.00260E+00    2.05305E+03
 1.10800E+00    2.07197E+03
 1.16480E+00    2.08598E+03
 1.22460E+00    2.10069E+03
 1.28730E+00    2.11617E+03
 1.35340E+00    2.13209E+03
 1.42270E+00    2.14705E+03
 1.49570E+00    2.16253E+03
 1.57240E+00    2.17880E+03
 1.65300E+00    2.19590E+03
 1.73770E+00    2.21387E+03
 1.82680E+00    2.23278E+03
 1.92050E+00    2.25238E+03
 2.01900E+00    2.26280E+03
 2.12250E+00    2.26853E+03
 2.23130E+00    2.27352E+03
 2.30690E+00    2.27662E+03
 2.34570E+00    2.27820E+03
 2.36530E+00    2.27926E+03
 2.38520E+00    2.28197E+03
 2.46600E+00    2.28468E+03
 2.59240E+00    2.28093E+03
 2.72530E+00    2.27656E+03
 2.86500E+00    2.27197E+03
 3.01190E+00    2.26093E+03
 3.16640E+00    2.24132E+03
 3.32870E+00    2.20984E+03
 3.67880E+00    2.16801E+03
 4.06570E+00    2.12948E+03
 4.49330E+00    2.10276E+03
 4.72370E+00    2.08424E+03
 4.96590E+00    2.03915E+03
 5.22050E+00    1.95196E+03
 5.48810E+00    1.94852E+03
 5.76950E+00    2.04447E+03
 6.06530E+00    2.22198E+03
 6.37630E+00    2.40934E+03
 6.59240E+00    2.53114E+03
 6.70320E+00    2.70347E+03
 7.04690E+00    2.81032E+03
 7.40820E+00    2.82070E+03
 7.78800E+00    2.82961E+03
 8.18730E+00    2.82478E+03
 8.60710E+00    2.81692E+03
 9.04840E+00    2.80586E+03
 9.51230E+00    2.78885E+03
 1.00000E+01    2.76661E+03
 1.05130E+01    2.73894E+03
 1.10520E+01    2.70987E+03
 1.16180E+01    2.67975E+03
 1.22140E+01    2.65340E+03
 1.28400E+01    2.62780E+03
 1.34990E+01    2.61173E+03
 1.38400E+01    2.60168E+03
 1.41910E+01    2.59287E+03
 1.45500E+01    2.58657E+03
 1.49180E+01    2.57814E+03
 1.56830E+01    2.57225E+03
 1.64870E+01    2.57120E+03
