# n + Pu238 : (n,g)     
# jendl.ad   O.Iwamoto,T.Nakagawa +            EVAL-JAN10
# uncertainties: n
# # energies =    69
#   E(MeV)       xs(mb) 
 1.00000E-10    3.58928E+06
 5.00000E-09    9.21515E+05
 1.00000E-08    6.65927E+05
 1.50000E-08    5.34957E+05
 2.00000E-08    4.50601E+05
 2.50000E-08    3.90133E+05
 3.00000E-08    3.44037E+05
 3.50000E-08    3.01458E+05
 4.20000E-08    2.59913E+05
 5.00000E-08    2.25451E+05
 5.80000E-08    1.96780E+05
 6.70000E-08    1.68101E+05
 8.00000E-08    1.36253E+05
 1.00000E-07    9.89936E+04
 1.40000E-07    6.78209E+04
 1.80000E-07    4.93437E+04
 2.20000E-07    3.85178E+04
 2.50000E-07    3.18830E+04
 2.80000E-07    2.75002E+04
 3.00000E-07    2.46311E+04
 3.20000E-07    2.16476E+04
 3.50000E-07    1.78892E+04
 4.00000E-07    1.30921E+04
 5.00000E-07    8.69626E+03
 6.25000E-07    5.72692E+03
 7.80000E-07    4.26056E+03
 8.50000E-07    3.68779E+03
 9.10000E-07    3.32666E+03
 9.50000E-07    3.13152E+03
 9.72000E-07    3.00034E+03
 9.96000E-07    2.87363E+03
 1.02000E-06    2.75448E+03
 1.04500E-06    2.63981E+03
 1.07100E-06    2.53122E+03
 1.09700E-06    2.43091E+03
 1.12300E-06    2.33652E+03
 1.15000E-06    2.08208E+03
 1.30000E-06    1.72918E+03
 1.50000E-06    1.53755E+03
 2.10000E-06    3.54076E+03
 2.60000E-06    1.47568E+05
 3.30000E-06    1.53370E+03
 4.00000E-06    1.04720E+03
 9.87700E-06    1.46897E+04
 1.59680E-05    7.79424E+04
 2.77000E-05    5.74414E+02
 4.80520E-05    6.79722E+03
 7.55014E-05    3.04593E+04
 1.48728E-04    1.56821E+04
 3.67262E-04    7.40065E+03
 9.06898E-04    4.52891E+03
 1.42510E-03    3.31367E+03
 2.23945E-03    2.44204E+03
 3.51910E-03    1.83005E+03
 5.53000E-03    1.38836E+03
 9.11800E-03    1.08571E+03
 1.50300E-02    8.77854E+02
 2.47800E-02    7.25168E+02
 4.08500E-02    5.87806E+02
 6.73400E-02    4.44742E+02
 1.11000E-01    3.28069E+02
 1.83000E-01    2.58608E+02
 3.02000E-01    1.99951E+02
 5.00000E-01    1.68906E+02
 8.21000E-01    1.45433E+02
 1.35300E+00    1.05150E+02
 2.23100E+00    4.21022E+01
 3.67900E+00    6.28139E+00
 6.06500E+00    1.47880E+00
