# n + Pu238 : (n,tot)   
# jendl.ad   O.Iwamoto,T.Nakagawa +            EVAL-JAN10
# uncertainties: n
# # energies =   171
#   E(MeV)       xs(mb) 
 1.00000E-11    5.79236E+06
 1.00000E-07    5.67051E+04
 4.13990E-07    1.26081E+04
 5.31580E-07    7.96232E+03
 6.82560E-07    4.98806E+03
 8.76420E-07    3.15426E+03
 1.12540E-06    2.09178E+03
 1.44500E-06    1.60746E+03
 1.85540E-06    2.03969E+03
 2.37240E-06    1.39480E+05
 3.05900E-06    4.01078E+03
 3.92790E-06    4.56557E+02
 5.04350E-06    2.48000E+02
 6.47600E-06    2.57493E+02
 8.31530E-06    3.40440E+04
 1.06770E-05    4.17624E+02
 1.37100E-05    1.10011E+03
 1.76030E-05    1.75034E+05
 2.26030E-05    1.39995E+02
 2.92030E-05    1.45166E+03
 3.72670E-05    3.97874E+01
 4.78510E-05    5.84293E+03
 6.14420E-05    8.11652E+03
 7.88930E-05    3.22604E+04
 1.01300E-04    5.77841E+04
 1.30070E-04    1.58865E+04
 1.67020E-04    2.90046E+04
 2.14450E-04    1.78649E+04
 2.75360E-04    2.74713E+04
 3.53580E-04    9.21768E+03
 4.54000E-04    1.07888E+04
 5.82950E-04    9.32129E+03
 7.48520E-04    7.78650E+03
 9.61120E-04    5.99068E+03
 1.23410E-03    5.03501E+03
 1.58460E-03    4.56345E+03
 2.03470E-03    3.81691E+03
 2.24870E-03    3.41570E+03
 2.48520E-03    3.69747E+03
 2.61260E-03    4.14831E+03
 2.74650E-03    4.52524E+03
 3.03540E-03    3.71131E+03
 3.35460E-03    2.71789E+03
 3.70740E-03    2.88503E+03
 4.30740E-03    2.44311E+03
 5.53080E-03    2.75823E+03
 7.10170E-03    1.89182E+03
 9.11880E-03    1.80506E+03
 1.17090E-02    1.78531E+03
 1.50340E-02    1.76563E+03
 1.93050E-02    1.66330E+03
 2.18750E-02    1.55648E+03
 2.35790E-02    1.50414E+03
 2.41760E-02    1.47954E+03
 2.47880E-02    1.46160E+03
 2.60580E-02    1.46628E+03
 2.70000E-02    1.47270E+03
 2.85000E-02    1.48405E+03
 3.18280E-02    1.48514E+03
 3.43070E-02    1.42378E+03
 4.08680E-02    1.33179E+03
 4.63090E-02    1.27589E+03
 5.24750E-02    1.21729E+03
 5.65620E-02    1.14271E+03
 6.73790E-02    1.07370E+03
 7.20000E-02    1.03705E+03
 7.95000E-02    1.03049E+03
 8.25000E-02    1.02975E+03
 8.65170E-02    1.03026E+03
 9.80370E-02    1.02859E+03
 1.11090E-01    1.02306E+03
 1.16790E-01    1.02101E+03
 1.22770E-01    1.01912E+03
 1.29070E-01    1.01817E+03
 1.35690E-01    1.01919E+03
 1.42640E-01    1.02090E+03
 1.49960E-01    1.02304E+03
 1.57640E-01    1.02482E+03
 1.65730E-01    1.02687E+03
 1.74220E-01    1.03018E+03
 1.83160E-01    1.03385E+03
 1.92550E-01    1.03848E+03
 2.02420E-01    1.05381E+03
 2.12800E-01    1.07431E+03
 2.23710E-01    1.09607E+03
 2.35180E-01    1.11928E+03
 2.47240E-01    1.13834E+03
 2.73240E-01    1.14299E+03
 2.87250E-01    1.14562E+03
 2.94520E-01    1.14698E+03
 2.97200E-01    1.14753E+03
 2.98500E-01    1.14865E+03
 3.01970E-01    1.16922E+03
 3.33730E-01    1.21085E+03
 3.68830E-01    1.24410E+03
 3.87740E-01    1.26896E+03
 4.07620E-01    1.32574E+03
 4.50490E-01    1.41181E+03
 4.97870E-01    1.49615E+03
 5.23400E-01    1.58191E+03
 5.50230E-01    1.67373E+03
 5.78440E-01    1.76902E+03
 6.08100E-01    1.82356E+03
 6.39280E-01    1.86251E+03
 6.72060E-01    1.90455E+03
 7.06510E-01    1.95807E+03
 7.42740E-01    2.01898E+03
 7.80820E-01    2.08402E+03
 8.20850E-01    2.15051E+03
 8.62940E-01    2.17361E+03
 9.07180E-01    2.18286E+03
 9.61640E-01    2.19041E+03
 1.00260E+00    2.19979E+03
 1.10800E+00    2.21285E+03
 1.16480E+00    2.22307E+03
 1.22460E+00    2.23406E+03
 1.28730E+00    2.24551E+03
 1.35340E+00    2.25743E+03
 1.42270E+00    2.26926E+03
 1.49570E+00    2.28160E+03
 1.57240E+00    2.29452E+03
 1.65300E+00    2.30700E+03
 1.73770E+00    2.32038E+03
 1.82680E+00    2.33357E+03
 1.92050E+00    2.34581E+03
 2.01900E+00    2.34848E+03
 2.12250E+00    2.34704E+03
 2.23130E+00    2.34645E+03
 2.30690E+00    2.34602E+03
 2.34570E+00    2.34569E+03
 2.36530E+00    2.34554E+03
 2.38520E+00    2.34524E+03
 2.46600E+00    2.34222E+03
 2.59240E+00    2.33203E+03
 2.72530E+00    2.32125E+03
 2.86500E+00    2.31081E+03
 3.01190E+00    2.29192E+03
 3.16640E+00    2.26645E+03
 3.32870E+00    2.22783E+03
 3.67880E+00    2.18000E+03
 4.06570E+00    2.13691E+03
 4.49330E+00    2.10780E+03
 4.72370E+00    2.08788E+03
 4.96590E+00    2.04206E+03
 5.22050E+00    1.95453E+03
 5.48810E+00    1.95087E+03
 5.76950E+00    2.04641E+03
 6.06530E+00    2.22267E+03
 6.37630E+00    2.41016E+03
 6.59240E+00    2.53188E+03
 6.70320E+00    2.70487E+03
 7.04690E+00    2.81319E+03
 7.40820E+00    2.82975E+03
 7.78800E+00    2.85370E+03
 8.18730E+00    2.86668E+03
 8.60710E+00    2.87398E+03
 9.04840E+00    2.87406E+03
 9.51230E+00    2.87480E+03
 1.00000E+01    2.87020E+03
 1.05130E+01    2.86157E+03
 1.10520E+01    2.86026E+03
 1.16180E+01    2.86059E+03
 1.22140E+01    2.86838E+03
 1.28400E+01    2.87772E+03
 1.34990E+01    2.88081E+03
 1.38400E+01    2.87550E+03
 1.41910E+01    2.86531E+03
 1.45500E+01    2.85243E+03
 1.49180E+01    2.82798E+03
 1.56830E+01    2.79880E+03
 1.64870E+01    2.77325E+03
