# n + Xe129 : (n,n'03)  
# jeff3.3    S.Kunieda, A.Ichihara, K.Shibata+ EVAL-FEB22
# uncertainties: n
# # energies =    54
#   E(MeV)       xs(mb) 
 2.76426E-01    0.00000E+00
 3.00000E-01    6.81700E+00
 3.50000E-01    1.55000E+01
 4.00000E-01    2.28900E+01
 4.50000E-01    2.79600E+01
 5.00000E-01    3.13600E+01
 5.50000E-01    3.11900E+01
 6.00000E-01    3.49200E+01
 6.50000E-01    3.62000E+01
 7.00000E-01    3.46800E+01
 7.50000E-01    3.69500E+01
 8.00000E-01    3.48200E+01
 8.50000E-01    3.69800E+01
 9.00000E-01    3.47000E+01
 9.50000E-01    3.66100E+01
 1.00000E+00    3.44400E+01
 1.20000E+00    3.37500E+01
 1.40000E+00    3.23300E+01
 1.60000E+00    3.19100E+01
 1.80000E+00    2.83600E+01
 2.00000E+00    2.46900E+01
 2.20000E+00    2.12500E+01
 2.40000E+00    1.81500E+01
 2.60000E+00    1.54400E+01
 2.80000E+00    1.30800E+01
 3.00000E+00    1.10200E+01
 3.25000E+00    8.74100E+00
 3.50000E+00    6.93300E+00
 3.75000E+00    5.36800E+00
 4.00000E+00    4.13300E+00
 4.25000E+00    3.12600E+00
 4.50000E+00    2.34800E+00
 4.75000E+00    1.74100E+00
 5.00000E+00    1.28200E+00
 5.50000E+00    6.80500E-01
 6.00000E+00    3.54700E-01
 6.50000E+00    1.83300E-01
 7.00000E+00    9.43400E-02
 7.50000E+00    4.84600E-02
 8.00000E+00    2.49600E-02
 8.50000E+00    1.29700E-02
 9.00000E+00    6.81300E-03
 9.50000E+00    3.62000E-03
 1.00000E+01    1.94500E-03
 1.10000E+01    5.79300E-04
 1.20000E+01    1.79700E-04
 1.30000E+01    5.80000E-05
 1.40000E+01    1.94700E-05
 1.50000E+01    6.78900E-06
 1.60000E+01    2.45100E-06
 1.70000E+01    9.13700E-07
 1.80000E+01    3.50400E-07
 1.90000E+01    1.37800E-07
 2.00000E+01    5.53800E-08
