# n + Xe129 : (n,xd)    
# jeff3.3    S.Kunieda, A.Ichihara, K.Shibata+ EVAL-FEB22
# 
# # energies =    78
#   E(MeV)        xs(mb) 
 3.98877E-02    0.00000E+00
 4.00000E-02    0.00000E+00
 5.00000E-02    0.00000E+00
 6.00000E-02    0.00000E+00
 7.00000E-02    0.00000E+00
 8.00000E-02    0.00000E+00
 9.00000E-02    0.00000E+00
 1.00000E-01    0.00000E+00
 1.20000E-01    0.00000E+00
 1.40000E-01    0.00000E+00
 1.60000E-01    0.00000E+00
 1.80000E-01    0.00000E+00
 2.00000E-01    0.00000E+00
 2.37988E-01    0.00000E+00
 2.50000E-01    0.00000E+00
 2.76426E-01    0.00000E+00
 3.00000E-01    0.00000E+00
 3.20669E-01    0.00000E+00
 3.24228E-01    0.00000E+00
 3.50000E-01    0.00000E+00
 4.00000E-01    0.00000E+00
 4.14716E-01    0.00000E+00
 4.45660E-01    0.00000E+00
 4.50000E-01    0.00000E+00
 5.00000E-01    0.00000E+00
 5.22759E-01    0.00000E+00
 5.29370E-01    0.00000E+00
 5.50000E-01    0.00000E+00
 5.77161E-01    0.00000E+00
 5.93138E-01    0.00000E+00
 6.00000E-01    0.00000E+00
 6.03216E-01    0.00000E+00
 6.50000E-01    0.00000E+00
 7.00000E-01    0.00000E+00
 7.50000E-01    0.00000E+00
 8.00000E-01    0.00000E+00
 8.50000E-01    0.00000E+00
 9.00000E-01    0.00000E+00
 9.50000E-01    0.00000E+00
 1.00000E+00    0.00000E+00
 1.20000E+00    0.00000E+00
 1.40000E+00    0.00000E+00
 1.60000E+00    0.00000E+00
 1.80000E+00    0.00000E+00
 2.00000E+00    0.00000E+00
 2.20000E+00    0.00000E+00
 2.40000E+00    0.00000E+00
 2.60000E+00    0.00000E+00
 2.80000E+00    0.00000E+00
 3.00000E+00    0.00000E+00
 3.25000E+00    0.00000E+00
 3.50000E+00    0.00000E+00
 3.75000E+00    0.00000E+00
 4.00000E+00    0.00000E+00
 4.25000E+00    0.00000E+00
 4.50000E+00    0.00000E+00
 4.75000E+00    0.00000E+00
 5.00000E+00    0.00000E+00
 5.50000E+00    0.00000E+00
 6.00000E+00    0.00000E+00
 6.50000E+00    4.31300E-23
 7.00000E+00    8.45300E-17
 7.50000E+00    2.64500E-13
 8.00000E+00    1.05900E-10
 8.50000E+00    2.86200E-08
 9.00000E+00    2.93700E-06
 9.50000E+00    4.98700E-05
 1.00000E+01    4.65300E-04
 1.10000E+01    9.70800E-03
 1.20000E+01    9.14500E-02
 1.30000E+01    4.33700E-01
 1.40000E+01    1.25000E+00
 1.50000E+01    2.58400E+00
 1.60000E+01    4.32900E+00
 1.70000E+01    6.35231E+00
 1.80000E+01    8.54235E+00
 1.90000E+01    1.08220E+01
 2.00000E+01    1.31176E+01
