# n + Xe129 : (n,tot)   
# jeff3.3    S.Kunieda, A.Ichihara, K.Shibata+ EVAL-FEB22
# uncertainties: n
# # energies =   171
#   E(MeV)       xs(mb) 
 1.00000E-11    2.45642E+05
 1.00000E-07    1.30891E+04
 4.13990E-07    1.03401E+04
 5.31580E-07    9.76332E+03
 6.82560E-07    9.26079E+03
 8.76420E-07    8.82645E+03
 1.12540E-06    8.45787E+03
 1.44500E-06    8.15384E+03
 1.85540E-06    7.92077E+03
 2.37240E-06    7.77841E+03
 3.05900E-06    7.78692E+03
 3.92790E-06    8.12909E+03
 5.04350E-06    9.53089E+03
 6.47600E-06    1.84991E+04
 8.31530E-06    9.99707E+05
 1.06770E-05    2.14604E+04
 1.37100E-05    7.07629E+03
 1.76030E-05    5.31766E+03
 2.26030E-05    4.58944E+03
 2.92030E-05    4.10531E+03
 3.72670E-05    3.68908E+03
 4.78510E-05    3.25202E+03
 6.14420E-05    2.68738E+03
 7.88930E-05    1.24653E+05
 1.01300E-04    8.55264E+04
 1.30070E-04    3.65877E+04
 1.67020E-04    3.20595E+04
 2.14450E-04    1.89582E+04
 2.75360E-04    3.47907E+03
 3.53580E-04    2.09489E+04
 4.54000E-04    3.41705E+04
 5.82950E-04    2.83016E+04
 7.48520E-04    1.91236E+04
 9.61120E-04    1.53602E+04
 1.23410E-03    9.48633E+03
 1.58460E-03    1.29306E+04
 2.03470E-03    1.14155E+04
 2.24870E-03    1.10918E+04
 2.48520E-03    3.57225E+04
 2.61260E-03    1.38751E+04
 2.74650E-03    1.33147E+04
 3.03540E-03    1.28344E+04
 3.35460E-03    1.23659E+04
 3.70740E-03    1.18066E+04
 4.30740E-03    1.09840E+04
 5.53080E-03    1.01076E+04
 7.10170E-03    9.39703E+03
 9.11880E-03    8.81298E+03
 1.17090E-02    8.31941E+03
 1.50340E-02    7.85995E+03
 1.93050E-02    7.54216E+03
 2.18750E-02    7.40094E+03
 2.35790E-02    7.33208E+03
 2.41760E-02    7.29814E+03
 2.47880E-02    7.24738E+03
 2.60580E-02    7.19025E+03
 2.70000E-02    7.13119E+03
 2.85000E-02    7.02480E+03
 3.18280E-02    6.91106E+03
 3.43070E-02    6.76989E+03
 4.08680E-02    6.67565E+03
 4.63090E-02    6.57769E+03
 5.24750E-02    6.50694E+03
 5.65620E-02    6.42562E+03
 6.73790E-02    6.35442E+03
 7.20000E-02    6.31166E+03
 7.95000E-02    6.27809E+03
 8.25000E-02    6.25957E+03
 8.65170E-02    6.22349E+03
 9.80370E-02    6.17746E+03
 1.11090E-01    6.14968E+03
 1.16790E-01    6.13408E+03
 1.22770E-01    6.12133E+03
 1.29070E-01    6.10906E+03
 1.35690E-01    6.09712E+03
 1.42640E-01    6.08830E+03
 1.49960E-01    6.08006E+03
 1.57640E-01    6.07240E+03
 1.65730E-01    6.06734E+03
 1.74220E-01    6.06244E+03
 1.83160E-01    6.06031E+03
 1.92550E-01    6.05911E+03
 2.02420E-01    6.06167E+03
 2.12800E-01    6.06607E+03
 2.23710E-01    6.07069E+03
 2.35180E-01    6.07554E+03
 2.47240E-01    6.08334E+03
 2.73240E-01    6.09363E+03
 2.87250E-01    6.10296E+03
 2.94520E-01    6.10739E+03
 2.97200E-01    6.10916E+03
 2.98500E-01    6.10909E+03
 3.01970E-01    6.07380E+03
 3.33730E-01    6.14729E+03
 3.68830E-01    6.18680E+03
 3.87740E-01    6.20321E+03
 4.07620E-01    6.21369E+03
 4.50490E-01    6.28511E+03
 4.97870E-01    6.31101E+03
 5.23400E-01    6.33435E+03
 5.50230E-01    6.35708E+03
 5.78440E-01    6.38402E+03
 6.08100E-01    6.43075E+03
 6.39280E-01    6.45819E+03
 6.72060E-01    6.48703E+03
 7.06510E-01    6.51735E+03
 7.42740E-01    6.54778E+03
 7.80820E-01    6.57174E+03
 8.20850E-01    6.59571E+03
 8.62940E-01    6.62091E+03
 9.07180E-01    6.64623E+03
 9.61640E-01    6.66102E+03
 1.00260E+00    6.67768E+03
 1.10800E+00    6.68767E+03
 1.16480E+00    6.69225E+03
 1.22460E+00    6.68017E+03
 1.28730E+00    6.66336E+03
 1.35340E+00    6.64567E+03
 1.42270E+00    6.61513E+03
 1.49570E+00    6.57269E+03
 1.57240E+00    6.52679E+03
 1.65300E+00    6.46450E+03
 1.73770E+00    6.39516E+03
 1.82680E+00    6.31723E+03
 1.92050E+00    6.22768E+03
 2.01900E+00    6.13349E+03
 2.12250E+00    6.03482E+03
 2.23130E+00    5.94899E+03
 2.30690E+00    5.89575E+03
 2.34570E+00    5.86860E+03
 2.36530E+00    5.85027E+03
 2.38520E+00    5.80372E+03
 2.46600E+00    5.70794E+03
 2.59240E+00    5.59759E+03
 2.72530E+00    5.48799E+03
 2.86500E+00    5.37855E+03
 3.01190E+00    5.27697E+03
 3.16640E+00    5.17501E+03
 3.32870E+00    5.03571E+03
 3.67880E+00    4.86300E+03
 4.06570E+00    4.71025E+03
 4.49330E+00    4.60793E+03
 4.72370E+00    4.54334E+03
 4.96590E+00    4.48628E+03
 5.22050E+00    4.43153E+03
 5.48810E+00    4.38412E+03
 5.76950E+00    4.34536E+03
 6.06530E+00    4.31740E+03
 6.37630E+00    4.30130E+03
 6.59240E+00    4.29910E+03
 6.70320E+00    4.29956E+03
 7.04690E+00    4.31497E+03
 7.40820E+00    4.34249E+03
 7.78800E+00    4.38533E+03
 8.18730E+00    4.43565E+03
 8.60710E+00    4.49412E+03
 9.04840E+00    4.55575E+03
 9.51230E+00    4.62055E+03
 1.00000E+01    4.68121E+03
 1.05130E+01    4.73618E+03
 1.10520E+01    4.78087E+03
 1.16180E+01    4.81687E+03
 1.22140E+01    4.83735E+03
 1.28400E+01    4.84749E+03
 1.34990E+01    4.84393E+03
 1.38400E+01    4.83975E+03
 1.41910E+01    4.82891E+03
 1.45500E+01    4.81689E+03
 1.49180E+01    4.79129E+03
 1.56830E+01    4.74614E+03
 1.64870E+01    4.68911E+03
