# n + N  14 : (n,n'03)  
# jendl4.0   Y.KANDA(KYU) T.MURATA(NAIG)+      EVAL-JUN89
# uncertainties: n
# # energies =    93
#   E(MeV)       xs(mb) 
 5.27000E+00    0.00000E+00
 5.27940E+00    2.08639E-01
 5.30760E+00    8.34558E-01
 5.35820E+00    2.18310E+00
 5.40890E+00    3.88275E+00
 5.45960E+00    6.08614E+00
 5.48700E+00    7.57187E+00
 5.51450E+00    9.11502E+00
 5.54190E+00    1.07935E+01
 5.56940E+00    1.28946E+01
 5.62850E+00    1.91208E+01
 5.68760E+00    2.75027E+01
 5.74670E+00    3.54618E+01
 5.80580E+00    3.86243E+01
 5.85650E+00    3.67920E+01
 5.90720E+00    3.28251E+01
 5.95780E+00    2.85901E+01
 6.00850E+00    2.48890E+01
 6.02330E+00    2.39373E+01
 6.03810E+00    2.30471E+01
 6.05290E+00    2.22158E+01
 6.06760E+00    2.14459E+01
 6.10770E+00    1.96024E+01
 6.14790E+00    1.80796E+01
 6.18800E+00    1.68241E+01
 6.22810E+00    1.57809E+01
 6.27030E+00    1.48675E+01
 6.31250E+00    1.41062E+01
 6.35480E+00    1.34662E+01
 6.39700E+00    1.29277E+01
 6.43080E+00    1.25563E+01
 6.46450E+00    1.22310E+01
 6.49830E+00    1.19438E+01
 6.53210E+00    1.17108E+01
 6.61660E+00    1.12536E+01
 6.70100E+00    1.09339E+01
 6.78550E+00    1.07178E+01
 6.86990E+00    1.05836E+01
 6.95440E+00    1.05165E+01
 7.03880E+00    1.05430E+01
 7.12330E+00    1.06662E+01
 7.20770E+00    1.08479E+01
 7.26260E+00    1.09992E+01
 7.37240E+00    1.13648E+01
 7.47800E+00    1.17417E+01
 7.52860E+00    1.19519E+01
 7.57930E+00    1.21958E+01
 7.63000E+00    1.24655E+01
 7.69750E+00    1.28721E+01
 7.76510E+00    1.33389E+01
 7.83260E+00    1.38669E+01
 7.94240E+00    1.48428E+01
 8.06910E+00    1.60259E+01
 8.14510E+00    1.66465E+01
 8.50000E+00    1.91667E+01
 9.00000E+00    2.00551E+01
 9.50000E+00    2.06159E+01
 9.55181E+00    2.05792E+01
 9.83020E+00    2.10995E+01
 1.00000E+01    2.12258E+01
 1.01950E+01    2.17626E+01
 1.02435E+01    2.18631E+01
 1.02550E+01    2.20469E+01
 1.03449E+01    2.20717E+01
 1.04462E+01    2.22027E+01
 1.05138E+01    2.22231E+01
 1.09669E+01    2.27504E+01
 1.10000E+01    2.26427E+01
 1.15887E+01    2.21944E+01
 1.18460E+01    2.17824E+01
 1.18674E+01    2.16561E+01
 1.20000E+01    2.11392E+01
 1.20496E+01    2.10110E+01
 1.21032E+01    2.06104E+01
 1.21751E+01    2.03673E+01
 1.23290E+01    1.99608E+01
 1.24730E+01    1.92930E+01
 1.25000E+01    1.92172E+01
 1.25970E+01    1.89702E+01
 1.27356E+01    1.83322E+01
 1.28650E+01    1.80100E+01
 1.30000E+01    1.74711E+01
 1.31330E+01    1.71788E+01
 1.32716E+01    1.67064E+01
 1.34010E+01    1.64585E+01
 1.35000E+01    1.61442E+01
 1.40750E+01    1.51310E+01
 1.42600E+01    1.48318E+01
 1.57289E+01    1.47681E+01
 1.65000E+01    1.46725E+01
 1.75000E+01    1.44549E+01
 1.90000E+01    1.39902E+01
 2.00000E+01    1.36277E+01
