# n + N  14 : (n,el)    
# jendl4.0   Y.KANDA(KYU) T.MURATA(NAIG)+      EVAL-JUN89
# uncertainties: n
# # energies =    69
#   E(MeV)       xs(mb) 
 1.00000E-10    2.36295E+04
 5.00000E-09    1.13114E+04
 1.00000E-08    1.07487E+04
 1.50000E-08    1.05278E+04
 2.00000E-08    1.04084E+04
 2.50000E-08    1.03333E+04
 3.00000E-08    1.02818E+04
 3.50000E-08    1.02382E+04
 4.20000E-08    1.01995E+04
 5.00000E-08    1.01698E+04
 5.80000E-08    1.01467E+04
 6.70000E-08    1.01251E+04
 8.00000E-08    1.01026E+04
 1.00000E-07    1.00780E+04
 1.40000E-07    1.00581E+04
 1.80000E-07    1.00464E+04
 2.20000E-07    1.00397E+04
 2.50000E-07    1.00347E+04
 2.80000E-07    1.00322E+04
 3.00000E-07    1.00303E+04
 3.20000E-07    1.00281E+04
 3.50000E-07    1.00246E+04
 4.00000E-07    1.00212E+04
 5.00000E-07    1.00168E+04
 6.25000E-07    1.00129E+04
 7.80000E-07    1.00103E+04
 8.50000E-07    1.00081E+04
 9.10000E-07    9.99939E+03
 9.50000E-07    9.98596E+03
 9.72000E-07    9.97057E+03
 9.96000E-07    9.95114E+03
 1.02000E-06    9.93060E+03
 1.04500E-06    9.91024E+03
 1.07100E-06    9.89501E+03
 1.09700E-06    9.88549E+03
 1.12300E-06    9.87973E+03
 1.15000E-06    9.87802E+03
 1.30000E-06    9.88147E+03
 1.50000E-06    9.88941E+03
 2.10000E-06    9.90089E+03
 2.60000E-06    9.91313E+03
 3.30000E-06    9.92759E+03
 4.00000E-06    9.95833E+03
 9.87700E-06    9.98114E+03
 1.59680E-05    9.96663E+03
 2.77000E-05    9.94061E+03
 4.80520E-05    9.91652E+03
 7.55014E-05    9.85377E+03
 1.48728E-04    9.55308E+03
 3.67262E-04    9.12580E+03
 9.06898E-04    8.69225E+03
 1.42510E-03    8.44440E+03
 2.23945E-03    8.20767E+03
 3.51910E-03    8.02959E+03
 5.53000E-03    7.82927E+03
 9.11800E-03    7.47856E+03
 1.50300E-02    6.91631E+03
 2.47800E-02    6.40085E+03
 4.08500E-02    5.74025E+03
 6.73400E-02    4.69048E+03
 1.11000E-01    3.89018E+03
 1.83000E-01    3.26941E+03
 3.02000E-01    2.79873E+03
 5.00000E-01    1.94328E+03
 8.21000E-01    1.72907E+03
 1.35300E+00    1.86731E+03
 2.23100E+00    1.31582E+03
 3.67900E+00    1.20868E+03
 6.06500E+00    9.14881E+02
