# n + N  14 : (n,n'01)  
# jendl4.0   Y.KANDA(KYU) T.MURATA(NAIG)+      EVAL-JUN89
# uncertainties: n
# # energies =   175
#   E(MeV)       xs(mb) 
 2.47950E+00    0.00000E+00
 2.48100E+00    7.73979E-02
 2.49490E+00    8.31323E-01
 2.50880E+00    1.36441E+00
 2.51900E+00    2.62565E+00
 2.52910E+00    4.65258E+00
 2.53920E+00    1.86463E+00
 2.54940E+00    1.46400E+00
 2.57470E+00    1.38055E+00
 2.60000E+00    1.45699E+00
 2.62540E+00    1.56136E+00
 2.65070E+00    1.67591E+00
 2.69250E+00    1.87824E+00
 2.73180E+00    2.08006E+00
 2.75710E+00    2.21611E+00
 2.77740E+00    2.32940E+00
 2.79770E+00    2.44736E+00
 2.81790E+00    2.57097E+00
 2.83820E+00    2.70445E+00
 2.85720E+00    2.84304E+00
 2.87620E+00    3.00580E+00
 2.89520E+00    3.22031E+00
 2.91420E+00    3.57529E+00
 2.92050E+00    3.76949E+00
 2.92690E+00    4.05095E+00
 2.93950E+00    5.15806E+00
 2.95220E+00    7.85379E+00
 2.95850E+00    8.72495E+00
 2.96490E+00    7.83980E+00
 2.97630E+00    5.74532E+00
 2.98770E+00    4.92035E+00
 2.99910E+00    4.70339E+00
 3.01050E+00    4.73249E+00
 3.02820E+00    5.20712E+00
 3.04590E+00    6.50561E+00
 3.06370E+00    8.47414E+00
 3.08140E+00    7.77979E+00
 3.08650E+00    7.30526E+00
 3.09150E+00    6.90657E+00
 3.09660E+00    6.59098E+00
 3.10170E+00    6.36463E+00
 3.12950E+00    6.23727E+00
 3.15740E+00    7.48201E+00
 3.18530E+00    1.04166E+01
 3.21320E+00    1.39242E+01
 3.22580E+00    1.42226E+01
 3.23850E+00    1.34589E+01
 3.26380E+00    1.08978E+01
 3.28920E+00    8.95957E+00
 3.31450E+00    7.83236E+00
 3.33980E+00    7.19307E+00
 3.36520E+00    6.83268E+00
 3.39050E+00    6.64605E+00
 3.41580E+00    6.58453E+00
 3.44120E+00    6.65858E+00
 3.46650E+00    7.03181E+00
 3.47280E+00    7.24358E+00
 3.47920E+00    7.56254E+00
 3.49180E+00    8.72726E+00
 3.50450E+00    1.06130E+01
 3.51080E+00    1.10223E+01
 3.51720E+00    1.06471E+01
 3.52350E+00    9.91249E+00
 3.52980E+00    9.23749E+00
 3.53620E+00    8.75347E+00
 3.54250E+00    8.47999E+00
 3.55010E+00    8.41919E+00
 3.55770E+00    8.76662E+00
 3.56530E+00    9.83418E+00
 3.57290E+00    1.11332E+01
 3.58680E+00    9.45747E+00
 3.60080E+00    8.33378E+00
 3.61470E+00    7.97691E+00
 3.62870E+00    7.85399E+00
 3.67430E+00    7.90901E+00
 3.71990E+00    8.17685E+00
 3.76550E+00    8.52439E+00
 3.81110E+00    8.91586E+00
 3.91750E+00    9.91236E+00
 3.95290E+00    1.02694E+01
 3.96810E+00    1.04381E+01
 3.98330E+00    1.06322E+01
 3.99850E+00    1.08882E+01
 4.01370E+00    1.13275E+01
 4.02390E+00    1.19358E+01
 4.03400E+00    1.32765E+01
 4.04410E+00    1.57695E+01
 4.05430E+00    1.61929E+01
 4.06320E+00    1.47707E+01
 4.07200E+00    1.38905E+01
 4.08090E+00    1.35279E+01
 4.08980E+00    1.34674E+01
 4.11510E+00    1.41813E+01
 4.14040E+00    1.58759E+01
 4.16580E+00    1.82563E+01
 4.19110E+00    2.02000E+01
 4.22660E+00    2.06958E+01
 4.26200E+00    1.99065E+01
 4.29750E+00    1.91565E+01
 4.33300E+00    1.86906E+01
 4.36590E+00    1.84680E+01
 4.39880E+00    1.83905E+01
 4.43180E+00    1.84253E+01
 4.47230E+00    1.86199E+01
 4.49510E+00    1.88415E+01
 4.51410E+00    1.91578E+01
 4.52050E+00    1.93088E+01
 4.53950E+00    1.99714E+01
 4.55850E+00    2.10375E+01
 4.57750E+00    2.19546E+01
 4.59650E+00    2.17438E+01
 4.61670E+00    2.09976E+01
 4.63700E+00    2.04313E+01
 4.65730E+00    2.00555E+01
 4.71300E+00    1.92584E+01
 4.74850E+00    1.86027E+01
 4.78390E+00    1.77404E+01
 4.81940E+00    1.66884E+01
 4.84470E+00    1.58503E+01
 4.87010E+00    1.49390E+01
 4.89540E+00    1.39372E+01
 4.92070E+00    1.27917E+01
 4.93720E+00    1.19440E+01
 4.95370E+00    1.10180E+01
 4.97020E+00    1.00472E+01
 4.98660E+00    9.11158E+00
 5.02040E+00    7.73580E+00
 5.07960E+00    8.05233E+00
 5.13870E+00    9.69293E+00
 5.19780E+00    1.10215E+01
 5.25690E+00    1.19637E+01
 5.30760E+00    1.25748E+01
 5.35820E+00    1.30723E+01
 5.40890E+00    1.34986E+01
 5.48700E+00    1.40715E+01
 5.68760E+00    1.53944E+01
 5.74670E+00    1.57325E+01
 5.80580E+00    1.59906E+01
 5.90720E+00    1.63326E+01
 5.95780E+00    1.65301E+01
 6.02330E+00    1.68770E+01
 6.06760E+00    1.72303E+01
 6.10770E+00    1.77299E+01
 6.14790E+00    1.85264E+01
 6.18800E+00    1.95097E+01
 6.22810E+00    1.97738E+01
 6.27030E+00    1.90965E+01
 6.31250E+00    1.84750E+01
 6.35480E+00    1.81330E+01
 6.39700E+00    1.79470E+01
 6.43080E+00    1.78370E+01
 6.46450E+00    1.77848E+01
 6.53210E+00    1.82412E+01
 6.61660E+00    1.84057E+01
 6.95440E+00    1.88605E+01
 7.03880E+00    1.89233E+01
 7.12330E+00    1.89456E+01
 7.26260E+00    1.88960E+01
 7.37240E+00    1.87701E+01
 7.47800E+00    1.85731E+01
 7.63000E+00    1.81594E+01
 7.76510E+00    1.77305E+01
 7.83260E+00    1.75461E+01
 7.94240E+00    1.73527E+01
 8.02680E+00    1.72552E+01
 8.06910E+00    1.72338E+01
 8.14510E+00    1.72643E+01
 8.50000E+00    1.72247E+01
 9.00000E+00    1.65706E+01
 9.50000E+00    1.59694E+01
 1.00000E+01    1.58000E+01
 1.20000E+01    1.56000E+01
 1.25000E+01    1.52855E+01
 1.55000E+01    1.44613E+01
 2.00000E+01    1.32632E+01
