# n + N  14 : (n,tot)   
# jendl4.0   Y.KANDA(KYU) T.MURATA(NAIG)+      EVAL-JUN89
# uncertainties: n
# # energies =   171
#   E(MeV)       xs(mb) 
 1.00000E-11    5.81489E+04
 1.00000E-07    1.08023E+04
 4.13990E-07    1.05343E+04
 5.31580E-07    1.04650E+04
 6.82560E-07    1.03969E+04
 8.76420E-07    1.02796E+04
 1.12540E-06    1.01669E+04
 1.44500E-06    1.01493E+04
 1.85540E-06    1.01309E+04
 2.37240E-06    1.01157E+04
 3.05900E-06    1.01110E+04
 3.92790E-06    1.01052E+04
 5.04350E-06    1.00977E+04
 6.47600E-06    1.00892E+04
 8.31530E-06    1.00857E+04
 1.06770E-05    1.00748E+04
 1.37100E-05    1.00594E+04
 1.76030E-05    1.00397E+04
 2.26030E-05    1.00153E+04
 2.92030E-05    1.00013E+04
 3.72670E-05    9.98878E+03
 4.78510E-05    9.97258E+03
 6.14420E-05    9.95188E+03
 7.88930E-05    9.93022E+03
 1.01300E-04    9.87802E+03
 1.30070E-04    9.76932E+03
 1.67020E-04    9.66451E+03
 2.14450E-04    9.55563E+03
 2.75360E-04    9.45438E+03
 3.53580E-04    9.34551E+03
 4.54000E-04    9.22645E+03
 5.82950E-04    9.06077E+03
 7.48520E-04    8.88733E+03
 9.61120E-04    8.72588E+03
 1.23410E-03    8.58542E+03
 1.58460E-03    8.44745E+03
 2.03470E-03    8.35639E+03
 2.24870E-03    8.29992E+03
 2.48520E-03    8.25668E+03
 2.61260E-03    8.23329E+03
 2.74650E-03    8.19615E+03
 3.03540E-03    8.14989E+03
 3.35460E-03    8.11771E+03
 3.70740E-03    8.07357E+03
 4.30740E-03    7.99545E+03
 5.53080E-03    7.89111E+03
 7.10170E-03    7.77500E+03
 9.11880E-03    7.62347E+03
 1.17090E-02    7.33914E+03
 1.50340E-02    7.05102E+03
 1.93050E-02    6.84632E+03
 2.18750E-02    6.74888E+03
 2.35790E-02    6.70118E+03
 2.41760E-02    6.67632E+03
 2.47880E-02    6.63778E+03
 2.60580E-02    6.59419E+03
 2.70000E-02    6.55194E+03
 2.85000E-02    6.46919E+03
 3.18280E-02    6.36815E+03
 3.43070E-02    6.22213E+03
 4.08680E-02    6.05103E+03
 4.63090E-02    5.90056E+03
 5.24750E-02    5.69945E+03
 5.65620E-02    5.42266E+03
 6.73790E-02    5.16423E+03
 7.20000E-02    4.97926E+03
 7.95000E-02    4.83150E+03
 8.25000E-02    4.74000E+03
 8.65170E-02    4.56247E+03
 9.80370E-02    4.27378E+03
 1.11090E-01    4.07122E+03
 1.16790E-01    4.03351E+03
 1.22770E-01    3.99584E+03
 1.29070E-01    3.95624E+03
 1.35690E-01    3.91840E+03
 1.42640E-01    3.88126E+03
 1.49960E-01    3.84218E+03
 1.57640E-01    3.78866E+03
 1.65730E-01    3.72221E+03
 1.74220E-01    3.65235E+03
 1.83160E-01    3.57890E+03
 1.92550E-01    3.50656E+03
 2.02420E-01    3.43463E+03
 2.12800E-01    3.35901E+03
 2.23710E-01    3.27952E+03
 2.35180E-01    3.20097E+03
 2.47240E-01    3.11461E+03
 2.73240E-01    3.06572E+03
 2.87250E-01    3.04432E+03
 2.94520E-01    3.02768E+03
 2.97200E-01    3.02101E+03
 2.98500E-01    3.01304E+03
 3.01970E-01    2.94335E+03
 3.33730E-01    2.75430E+03
 3.68830E-01    2.64477E+03
 3.87740E-01    2.59559E+03
 4.07620E-01    3.29396E+03
 4.50490E-01    2.46583E+03
 4.97870E-01    2.22957E+03
 5.23400E-01    2.08645E+03
 5.50230E-01    1.93335E+03
 5.78440E-01    1.63441E+03
 6.08100E-01    1.56593E+03
 6.39280E-01    2.47196E+03
 6.72060E-01    2.25877E+03
 7.06510E-01    2.05622E+03
 7.42740E-01    1.91509E+03
 7.80820E-01    1.77503E+03
 8.20850E-01    1.61129E+03
 8.62940E-01    1.46675E+03
 9.07180E-01    1.20116E+03
 9.61640E-01    1.41892E+03
 1.00260E+00    2.21207E+03
 1.10800E+00    2.17692E+03
 1.16480E+00    1.59387E+03
 1.22460E+00    1.46806E+03
 1.28730E+00    2.13042E+03
 1.35340E+00    2.52558E+03
 1.42270E+00    2.06016E+03
 1.49570E+00    1.91657E+03
 1.57240E+00    2.31385E+03
 1.65300E+00    1.86823E+03
 1.73770E+00    2.38208E+03
 1.82680E+00    1.72125E+03
 1.92050E+00    1.58575E+03
 2.01900E+00    1.51106E+03
 2.12250E+00    1.60009E+03
 2.23130E+00    1.63460E+03
 2.30690E+00    1.47678E+03
 2.34570E+00    1.46047E+03
 2.36530E+00    1.44823E+03
 2.38520E+00    1.42321E+03
 2.46600E+00    1.43342E+03
 2.59240E+00    1.41482E+03
 2.72530E+00    1.35651E+03
 2.86500E+00    1.61128E+03
 3.01190E+00    1.65947E+03
 3.16640E+00    1.70605E+03
 3.32870E+00    1.66637E+03
 3.67880E+00    1.83518E+03
 4.06570E+00    1.97080E+03
 4.49330E+00    1.55564E+03
 4.72370E+00    1.06659E+03
 4.96590E+00    1.33303E+03
 5.22050E+00    1.48807E+03
 5.48810E+00    1.44504E+03
 5.76950E+00    1.35364E+03
 6.06530E+00    1.43757E+03
 6.37630E+00    1.34120E+03
 6.59240E+00    1.29700E+03
 6.70320E+00    1.20924E+03
 7.04690E+00    1.48055E+03
 7.40820E+00    1.49584E+03
 7.78800E+00    1.46098E+03
 8.18730E+00    1.27460E+03
 8.60710E+00    1.30823E+03
 9.04840E+00    1.31058E+03
 9.51230E+00    1.37446E+03
 1.00000E+01    1.47955E+03
 1.05130E+01    1.47299E+03
 1.10520E+01    1.42707E+03
 1.16180E+01    1.53709E+03
 1.22140E+01    1.61188E+03
 1.28400E+01    1.61727E+03
 1.34990E+01    1.62188E+03
 1.38400E+01    1.62860E+03
 1.41910E+01    1.63407E+03
 1.45500E+01    1.63510E+03
 1.49180E+01    1.63030E+03
 1.56830E+01    1.62280E+03
 1.64870E+01    1.62136E+03
