# n + N  14 : (n,el)    
# jendl4.0   Y.KANDA(KYU) T.MURATA(NAIG)+      EVAL-JUN89
# uncertainties: n
# # energies =   171
#   E(MeV)       xs(mb) 
 1.00000E-11    3.62096E+04
 1.00000E-07    1.00492E+04
 4.13990E-07    1.00203E+04
 5.31580E-07    1.00153E+04
 6.82560E-07    1.00112E+04
 8.76420E-07    9.95481E+03
 1.12540E-06    9.87938E+03
 1.44500E-06    9.88650E+03
 1.85540E-06    9.89600E+03
 2.37240E-06    9.90830E+03
 3.05900E-06    9.92423E+03
 3.92790E-06    9.94196E+03
 5.04350E-06    9.95270E+03
 6.47600E-06    9.96502E+03
 8.31530E-06    9.98020E+03
 1.06770E-05    9.98210E+03
 1.37100E-05    9.97629E+03
 1.76030E-05    9.96883E+03
 2.26030E-05    9.95910E+03
 2.92030E-05    9.94677E+03
 3.72670E-05    9.93190E+03
 4.78510E-05    9.92119E+03
 6.14420E-05    9.90990E+03
 7.88930E-05    9.89540E+03
 1.01300E-04    9.84807E+03
 1.30070E-04    9.74316E+03
 1.67020E-04    9.64128E+03
 2.14450E-04    9.53512E+03
 2.75360E-04    9.43665E+03
 3.53580E-04    9.32917E+03
 4.54000E-04    9.21297E+03
 5.82950E-04    9.04816E+03
 7.48520E-04    8.87616E+03
 9.61120E-04    8.71584E+03
 1.23410E-03    8.57728E+03
 1.58460E-03    8.44028E+03
 2.03470E-03    8.34872E+03
 2.24870E-03    8.29100E+03
 2.48520E-03    8.25355E+03
 2.61260E-03    8.22940E+03
 2.74650E-03    8.19065E+03
 3.03540E-03    8.14432E+03
 3.35460E-03    8.11246E+03
 3.70740E-03    8.06829E+03
 4.30740E-03    7.99068E+03
 5.53080E-03    7.88702E+03
 7.10170E-03    7.77142E+03
 9.11880E-03    7.62032E+03
 1.17090E-02    7.33636E+03
 1.50340E-02    7.04856E+03
 1.93050E-02    6.84409E+03
 2.18750E-02    6.74675E+03
 2.35790E-02    6.69910E+03
 2.41760E-02    6.67427E+03
 2.47880E-02    6.63578E+03
 2.60580E-02    6.59223E+03
 2.70000E-02    6.55002E+03
 2.85000E-02    6.46734E+03
 3.18280E-02    6.36638E+03
 3.43070E-02    6.22048E+03
 4.08680E-02    6.04950E+03
 4.63090E-02    5.89912E+03
 5.24750E-02    5.69808E+03
 5.65620E-02    5.42135E+03
 6.73790E-02    5.16295E+03
 7.20000E-02    4.97798E+03
 7.95000E-02    4.83023E+03
 8.25000E-02    4.73873E+03
 8.65170E-02    4.56121E+03
 9.80370E-02    4.27502E+03
 1.11090E-01    4.07102E+03
 1.16790E-01    4.03578E+03
 1.22770E-01    4.00095E+03
 1.29070E-01    3.96431E+03
 1.35690E-01    3.92582E+03
 1.42640E-01    3.88535E+03
 1.49960E-01    3.84278E+03
 1.57640E-01    3.78851E+03
 1.65730E-01    3.72365E+03
 1.74220E-01    3.65548E+03
 1.83160E-01    3.58378E+03
 1.92550E-01    3.50845E+03
 2.02420E-01    3.43330E+03
 2.12800E-01    3.35912E+03
 2.23710E-01    3.28115E+03
 2.35180E-01    3.20037E+03
 2.47240E-01    3.11349E+03
 2.73240E-01    3.06448E+03
 2.87250E-01    3.04308E+03
 2.94520E-01    3.02643E+03
 2.97200E-01    3.01977E+03
 2.98500E-01    3.01180E+03
 3.01970E-01    2.94211E+03
 3.33730E-01    2.75310E+03
 3.68830E-01    2.64353E+03
 3.87740E-01    2.59428E+03
 4.07620E-01    3.29444E+03
 4.50490E-01    2.40755E+03
 4.97870E-01    2.19669E+03
 5.23400E-01    2.08148E+03
 5.50230E-01    1.92790E+03
 5.78440E-01    1.61438E+03
 6.08100E-01    1.42743E+03
 6.39280E-01    2.32458E+03
 6.72060E-01    2.20156E+03
 7.06510E-01    2.02669E+03
 7.42740E-01    1.89745E+03
 7.80820E-01    1.76413E+03
 8.20850E-01    1.60387E+03
 8.62940E-01    1.46025E+03
 9.07180E-01    1.19269E+03
 9.61640E-01    1.40004E+03
 1.00260E+00    2.20550E+03
 1.10800E+00    2.17014E+03
 1.16480E+00    1.57920E+03
 1.22460E+00    1.45307E+03
 1.28730E+00    2.06239E+03
 1.35340E+00    2.31248E+03
 1.42270E+00    1.96982E+03
 1.49570E+00    1.88771E+03
 1.57240E+00    2.28500E+03
 1.65300E+00    1.83510E+03
 1.73770E+00    2.24260E+03
 1.82680E+00    1.65348E+03
 1.92050E+00    1.54175E+03
 2.01900E+00    1.46287E+03
 2.12250E+00    1.47502E+03
 2.23130E+00    1.49235E+03
 2.30690E+00    1.39969E+03
 2.34570E+00    1.38552E+03
 2.36530E+00    1.37075E+03
 2.38520E+00    1.34307E+03
 2.46600E+00    1.32535E+03
 2.59240E+00    1.24794E+03
 2.72530E+00    1.14894E+03
 2.86500E+00    1.37250E+03
 3.01190E+00    1.37003E+03
 3.16640E+00    1.35889E+03
 3.32870E+00    1.25876E+03
 3.67880E+00    1.40185E+03
 4.06570E+00    1.52060E+03
 4.49330E+00    1.13428E+03
 4.72370E+00    7.59455E+02
 4.96590E+00    1.01103E+03
 5.22050E+00    1.26651E+03
 5.48810E+00    1.10617E+03
 5.76950E+00    9.64477E+02
 6.06530E+00    1.05318E+03
 6.37630E+00    1.01661E+03
 6.59240E+00    9.78910E+02
 6.70320E+00    8.83958E+02
 7.04690E+00    1.05630E+03
 7.40820E+00    1.04834E+03
 7.78800E+00    9.20198E+02
 8.18730E+00    7.95110E+02
 8.60710E+00    8.21442E+02
 9.04840E+00    7.71742E+02
 9.51230E+00    7.94391E+02
 1.00000E+01    8.77311E+02
 1.05130E+01    8.64359E+02
 1.10520E+01    8.19587E+02
 1.16180E+01    9.25319E+02
 1.22140E+01    9.86566E+02
 1.28400E+01    9.71096E+02
 1.34990E+01    9.67293E+02
 1.38400E+01    9.84280E+02
 1.41910E+01    9.98770E+02
 1.45500E+01    1.00043E+03
 1.49180E+01    1.00299E+03
 1.56830E+01    1.01163E+03
 1.64870E+01    1.02197E+03
