# n + Re187 : (n,xd)    
# jendl.ad   N.Iwamoto                         EVAL-Apr14
# 
# # energies =    99
#   E(MeV)        xs(mb) 
 1.05000E-01    0.00000E+00
 1.10000E-01    0.00000E+00
 1.20000E-01    0.00000E+00
 1.30000E-01    0.00000E+00
 1.34967E-01    0.00000E+00
 1.40000E-01    0.00000E+00
 1.50000E-01    0.00000E+00
 1.60000E-01    0.00000E+00
 1.70000E-01    0.00000E+00
 1.80000E-01    0.00000E+00
 1.90000E-01    0.00000E+00
 2.00000E-01    0.00000E+00
 2.07357E-01    0.00000E+00
 2.25000E-01    0.00000E+00
 2.50000E-01    0.00000E+00
 2.75000E-01    0.00000E+00
 3.00000E-01    0.00000E+00
 3.04765E-01    0.00000E+00
 3.92104E-01    0.00000E+00
 4.00000E-01    0.00000E+00
 5.00000E-01    0.00000E+00
 5.14527E-01    0.00000E+00
 5.85130E-01    0.00000E+00
 5.92314E-01    0.00000E+00
 5.92315E-01    0.00000E+00
 6.00000E-01    0.00000E+00
 6.21698E-01    0.00000E+00
 6.28888E-01    0.00000E+00
 6.50722E-01    0.00000E+00
 6.89475E-01    0.00000E+00
 7.00000E-01    0.00000E+00
 7.22608E-01    0.00000E+00
 7.47009E-01    0.00000E+00
 7.71942E-01    0.00000E+00
 7.77070E-01    0.00000E+00
 8.00000E-01    0.00000E+00
 8.20970E-01    0.00000E+00
 8.21408E-01    0.00000E+00
 8.31251E-01    0.00000E+00
 8.49418E-01    0.00000E+00
 8.69305E-01    0.00000E+00
 8.84204E-01    0.00000E+00
 9.00000E-01    0.00000E+00
 9.38657E-01    0.00000E+00
 9.53115E-01    0.00000E+00
 9.65360E-01    0.00000E+00
 9.74530E-01    0.00000E+00
 9.84282E-01    0.00000E+00
 1.00000E+00    0.00000E+00
 1.00633E+00    0.00000E+00
 1.00855E+00    0.00000E+00
 1.10000E+00    0.00000E+00
 1.20000E+00    0.00000E+00
 1.30000E+00    0.00000E+00
 1.40000E+00    0.00000E+00
 1.50000E+00    0.00000E+00
 1.60000E+00    0.00000E+00
 1.70000E+00    0.00000E+00
 1.80000E+00    0.00000E+00
 1.90000E+00    0.00000E+00
 2.00000E+00    0.00000E+00
 2.25000E+00    0.00000E+00
 2.50000E+00    0.00000E+00
 2.75000E+00    0.00000E+00
 3.00000E+00    0.00000E+00
 3.50000E+00    0.00000E+00
 4.00000E+00    1.37996E-24
 4.50000E+00    1.40741E-22
 5.00000E+00    9.00770E-21
 5.50000E+00    6.24930E-18
 6.00000E+00    2.31620E-14
 6.50000E+00    5.40510E-12
 7.00000E+00    2.42400E-10
 7.50000E+00    3.91620E-09
 8.00000E+00    4.01570E-08
 8.50000E+00    4.57790E-07
 9.00000E+00    5.06182E-06
 9.50000E+00    4.12247E-05
 1.00000E+01    2.41905E-04
 1.05000E+01    1.07709E-03
 1.10000E+01    3.65495E-03
 1.15000E+01    9.11872E-03
 1.20000E+01    2.39253E-02
 1.25000E+01    5.48836E-02
 1.30000E+01    1.12016E-01
 1.35000E+01    2.06319E-01
 1.40000E+01    3.47367E-01
 1.45000E+01    5.41217E-01
 1.50000E+01    7.89607E-01
 1.55000E+01    1.11561E+00
 1.60000E+01    1.46604E+00
 1.65000E+01    1.87557E+00
 1.70000E+01    2.27746E+00
 1.75000E+01    2.71968E+00
 1.80000E+01    3.28034E+00
 1.85000E+01    3.64009E+00
 1.90000E+01    4.18682E+00
 1.95000E+01    4.76633E+00
 2.00000E+01    5.28750E+00
