# n + Re187 : (n,xt)    
# jendl.ad   N.Iwamoto                         EVAL-Apr14
# 
# # energies =    99
#   E(MeV)        xs(mb) 
 1.05000E-01    0.00000E+00
 1.10000E-01    0.00000E+00
 1.20000E-01    0.00000E+00
 1.30000E-01    0.00000E+00
 1.34967E-01    0.00000E+00
 1.40000E-01    0.00000E+00
 1.50000E-01    0.00000E+00
 1.60000E-01    0.00000E+00
 1.70000E-01    0.00000E+00
 1.80000E-01    0.00000E+00
 1.90000E-01    0.00000E+00
 2.00000E-01    0.00000E+00
 2.07357E-01    0.00000E+00
 2.25000E-01    0.00000E+00
 2.50000E-01    0.00000E+00
 2.75000E-01    0.00000E+00
 3.00000E-01    0.00000E+00
 3.04765E-01    0.00000E+00
 3.92104E-01    0.00000E+00
 4.00000E-01    0.00000E+00
 5.00000E-01    0.00000E+00
 5.14527E-01    0.00000E+00
 5.85130E-01    0.00000E+00
 5.92314E-01    0.00000E+00
 5.92315E-01    0.00000E+00
 6.00000E-01    0.00000E+00
 6.21698E-01    0.00000E+00
 6.28888E-01    0.00000E+00
 6.50722E-01    0.00000E+00
 6.89475E-01    0.00000E+00
 7.00000E-01    0.00000E+00
 7.22608E-01    0.00000E+00
 7.47009E-01    0.00000E+00
 7.71942E-01    0.00000E+00
 7.77070E-01    0.00000E+00
 8.00000E-01    0.00000E+00
 8.20970E-01    0.00000E+00
 8.21408E-01    0.00000E+00
 8.31251E-01    0.00000E+00
 8.49418E-01    0.00000E+00
 8.69305E-01    0.00000E+00
 8.84204E-01    0.00000E+00
 9.00000E-01    0.00000E+00
 9.38657E-01    0.00000E+00
 9.53115E-01    0.00000E+00
 9.65360E-01    0.00000E+00
 9.74530E-01    0.00000E+00
 9.84282E-01    0.00000E+00
 1.00000E+00    0.00000E+00
 1.00633E+00    0.00000E+00
 1.00855E+00    0.00000E+00
 1.10000E+00    0.00000E+00
 1.20000E+00    0.00000E+00
 1.30000E+00    0.00000E+00
 1.40000E+00    0.00000E+00
 1.50000E+00    0.00000E+00
 1.60000E+00    0.00000E+00
 1.70000E+00    0.00000E+00
 1.80000E+00    0.00000E+00
 1.90000E+00    0.00000E+00
 2.00000E+00    0.00000E+00
 2.25000E+00    0.00000E+00
 2.50000E+00    0.00000E+00
 2.75000E+00    0.00000E+00
 3.00000E+00    0.00000E+00
 3.50000E+00    0.00000E+00
 4.00000E+00    0.00000E+00
 4.50000E+00    0.00000E+00
 5.00000E+00    4.25775E-28
 5.50000E+00    1.21402E-27
 6.00000E+00    2.00230E-27
 6.50000E+00    1.18520E-20
 7.00000E+00    1.73690E-16
 7.50000E+00    1.10760E-13
 8.00000E+00    1.08170E-11
 8.50000E+00    3.09840E-10
 9.00000E+00    3.80110E-09
 9.50000E+00    2.73440E-08
 1.00000E+01    1.64230E-07
 1.05000E+01    1.03420E-06
 1.10000E+01    6.20668E-06
 1.15000E+01    3.11713E-05
 1.20000E+01    1.25766E-04
 1.25000E+01    4.31672E-04
 1.30000E+01    1.26846E-03
 1.35000E+01    3.26417E-03
 1.40000E+01    7.47469E-03
 1.45000E+01    1.54011E-02
 1.50000E+01    2.88141E-02
 1.55000E+01    4.94984E-02
 1.60000E+01    7.80677E-02
 1.65000E+01    1.17130E-01
 1.70000E+01    1.64806E-01
 1.75000E+01    2.21964E-01
 1.80000E+01    2.86245E-01
 1.85000E+01    3.59841E-01
 1.90000E+01    4.38668E-01
 1.95000E+01    5.23288E-01
 2.00000E+01    6.12608E-01
