# n + Co 59 : (n,n'08)  
# jendl4.0   T.WATANABE                        EVAL-AUG88
# uncertainties: n
# # energies =   157
#   E(MeV)       xs(mb) 
 2.09830E+00    0.00000E+00
 2.09831E+00    5.11650E-05
 2.09910E+00    5.99579E-01
 2.10063E+00    1.76116E+00
 2.10207E+00    2.85014E+00
 2.10477E+00    4.89196E+00
 2.10713E+00    6.67856E+00
 2.11127E+00    9.80510E+00
 2.11438E+00    1.21500E+01
 2.11905E+00    1.56674E+01
 2.12374E+00    1.91847E+01
 2.13834E+00    2.14528E+01
 2.14935E+00    2.31538E+01
 2.15765E+00    2.44296E+01
 2.17015E+00    2.63432E+01
 2.18273E+00    2.82569E+01
 2.19015E+00    2.86946E+01
 2.20520E+00    3.00215E+01
 2.22036E+00    3.13483E+01
 2.24274E+00    3.23562E+01
 2.25000E+00    3.23442E+01
 2.27270E+00    3.37582E+01
 2.29275E+00    3.49955E+01
 2.31044E+00    3.60781E+01
 2.34172E+00    3.79727E+01
 2.36546E+00    3.93937E+01
 2.40152E+00    4.15251E+01
 2.43813E+00    4.36565E+01
 2.46887E+00    4.50998E+01
 2.50000E+00    4.65430E+01
 2.52143E+00    4.79400E+01
 2.55075E+00    4.89785E+01
 2.58042E+00    5.00169E+01
 2.58398E+00    5.00415E+01
 2.62579E+00    5.11740E+01
 2.62823E+00    5.11142E+01
 3.00000E+00    5.13901E+01
 3.05443E+00    5.00278E+01
 3.10635E+00    4.87506E+01
 3.15583E+00    4.75533E+01
 3.20293E+00    4.64308E+01
 3.24773E+00    4.53784E+01
 3.29029E+00    4.43919E+01
 3.33071E+00    4.34669E+01
 3.36904E+00    4.25998E+01
 3.40539E+00    4.17869E+01
 3.47459E+00    4.02627E+01
 3.53629E+00    3.89290E+01
 3.59118E+00    3.77620E+01
 3.63990E+00    3.67409E+01
 3.68308E+00    3.58475E+01
 3.72128E+00    3.50657E+01
 3.78908E+00    3.36976E+01
 3.84075E+00    3.26715E+01
 3.87995E+00    3.19019E+01
 3.93952E+00    3.07476E+01
 4.00000E+00    2.95932E+01
 4.05618E+00    2.88010E+01
 4.10956E+00    2.80583E+01
 4.16024E+00    2.73620E+01
 4.20833E+00    2.67093E+01
 4.25391E+00    2.60973E+01
 4.29709E+00    2.55236E+01
 4.33797E+00    2.49858E+01
 4.41568E+00    2.39773E+01
 4.48481E+00    2.30949E+01
 4.54618E+00    2.23228E+01
 4.60058E+00    2.16472E+01
 4.64871E+00    2.10560E+01
 4.69123E+00    2.05388E+01
 4.76659E+00    1.96336E+01
 4.82390E+00    1.89547E+01
 4.86733E+00    1.84455E+01
 4.93322E+00    1.76818E+01
 5.00000E+00    1.69180E+01
 5.05730E+00    1.65691E+01
 5.11162E+00    1.62420E+01
 5.21504E+00    1.56286E+01
 5.30725E+00    1.50919E+01
 5.38926E+00    1.46223E+01
 5.46207E+00    1.42115E+01
 5.52658E+00    1.38519E+01
 5.58365E+00    1.35373E+01
 5.68495E+00    1.29868E+01
 5.76213E+00    1.25739E+01
 5.82069E+00    1.22642E+01
 5.90967E+00    1.17997E+01
 6.00000E+00    1.13352E+01
 6.11673E+00    1.09911E+01
 6.22074E+00    1.06900E+01
 6.31319E+00    1.04265E+01
 6.39521E+00    1.01960E+01
 6.46786E+00    9.99426E+00
 6.59697E+00    9.64126E+00
 6.69550E+00    9.37651E+00
 6.77036E+00    9.17794E+00
 6.88422E+00    8.88010E+00
 7.00000E+00    8.58225E+00
 7.11782E+00    8.36876E+00
 7.22254E+00    8.18196E+00
 7.31543E+00    8.01851E+00
 7.39769E+00    7.87549E+00
 7.54388E+00    7.62520E+00
 7.65541E+00    7.43748E+00
 7.74014E+00    7.29670E+00
 7.86900E+00    7.08552E+00
 8.00000E+00    6.87434E+00
 8.11865E+00    6.75627E+00
 8.22392E+00    6.65296E+00
 8.41143E+00    6.47217E+00
 8.55486E+00    6.33658E+00
 8.66404E+00    6.23489E+00
 8.83042E+00    6.08234E+00
 9.00000E+00    5.92980E+00
 9.11932E+00    5.83606E+00
 9.33193E+00    5.67202E+00
 9.49465E+00    5.54899E+00
 9.61854E+00    5.45672E+00
 9.80741E+00    5.31831E+00
 1.00000E+01    5.17990E+00
 1.02411E+01    5.03523E+00
 1.04258E+01    4.92673E+00
 1.05665E+01    4.84535E+00
 1.07811E+01    4.72328E+00
 1.10000E+01    4.60122E+00
 1.12419E+01    4.47651E+00
 1.14268E+01    4.38297E+00
 1.17099E+01    4.24267E+00
 1.18541E+01    4.17252E+00
 1.20000E+01    4.10237E+00
 1.22425E+01    4.02743E+00
 1.24277E+01    3.97123E+00
 1.27106E+01    3.88692E+00
 1.30000E+01    3.80262E+00
 1.32431E+01    3.73255E+00
 1.36163E+01    3.62744E+00
 1.38068E+01    3.57489E+00
 1.40000E+01    3.52234E+00
 1.42436E+01    3.45382E+00
 1.46169E+01    3.35105E+00
 1.48072E+01    3.29966E+00
 1.50000E+01    3.24827E+00
 1.52440E+01    3.20151E+00
 1.56174E+01    3.13138E+00
 1.60000E+01    3.06125E+00
 1.62443E+01    3.01468E+00
 1.66179E+01    2.94482E+00
 1.70000E+01    2.87496E+00
 1.72447E+01    2.82845E+00
 1.76183E+01    2.75869E+00
 1.80000E+01    2.68892E+00
 1.82386E+01    2.64245E+00
 1.86639E+01    2.56112E+00
 1.89893E+01    2.50012E+00
 1.92371E+01    2.45438E+00
 1.96148E+01    2.38576E+00
 2.00000E+01    2.31714E+00
