# n + Co 59 : (n,n'07)  
# jendl4.0   T.WATANABE                        EVAL-AUG88
# uncertainties: n
# # energies =   171
#   E(MeV)       xs(mb) 
 1.77487E+00    0.00000E+00
 1.77490E+00    1.39383E-02
 1.77531E+00    2.17525E-01
 1.77614E+00    6.23899E-01
 1.77779E+00    1.43347E+00
 1.77943E+00    2.23671E+00
 1.78105E+00    3.03368E+00
 1.78428E+00    4.61516E+00
 1.78746E+00    6.17193E+00
 1.79061E+00    7.70437E+00
 1.79370E+00    9.21287E+00
 1.79676E+00    1.06978E+01
 1.79977E+00    1.21595E+01
 1.80571E+00    1.50373E+01
 1.81149E+00    1.78251E+01
 1.81710E+00    2.05259E+01
 1.82255E+00    2.31422E+01
 1.82785E+00    2.56767E+01
 1.83300E+00    2.81321E+01
 1.83800E+00    3.05107E+01
 1.84773E+00    3.51193E+01
 1.85690E+00    3.94398E+01
 1.86553E+00    4.34904E+01
 1.87367E+00    4.72877E+01
 1.88132E+00    5.08477E+01
 1.88853E+00    5.41853E+01
 1.90212E+00    6.04431E+01
 1.91409E+00    6.59187E+01
 1.92462E+00    7.07099E+01
 1.93388E+00    7.49022E+01
 1.95021E+00    8.22386E+01
 1.96254E+00    8.77410E+01
 1.97184E+00    9.18677E+01
 1.98587E+00    9.80579E+01
 2.00000E+00    1.04248E+02
 2.02414E+00    1.07690E+02
 2.04243E+00    1.10271E+02
 2.07018E+00    1.14143E+02
 2.09831E+00    1.18015E+02
 2.12374E+00    1.19846E+02
 2.18273E+00    1.22064E+02
 2.19015E+00    1.20992E+02
 2.22036E+00    1.22195E+02
 2.24274E+00    1.22675E+02
 2.25000E+00    1.22128E+02
 2.29563E+00    1.24600E+02
 2.33045E+00    1.26453E+02
 2.38368E+00    1.29234E+02
 2.43813E+00    1.32014E+02
 2.50000E+00    1.31916E+02
 2.52143E+00    1.32038E+02
 2.58042E+00    1.30998E+02
 2.58398E+00    1.30307E+02
 2.62579E+00    1.29076E+02
 2.62823E+00    1.28327E+02
 2.67206E+00    1.25326E+02
 2.71100E+00    1.22700E+02
 2.74555E+00    1.20402E+02
 2.80706E+00    1.16382E+02
 2.85410E+00    1.13366E+02
 2.88990E+00    1.11104E+02
 2.94443E+00    1.07712E+02
 3.00000E+00    1.04319E+02
 3.05443E+00    1.01137E+02
 3.10635E+00    9.81534E+01
 3.15583E+00    9.53565E+01
 3.20293E+00    9.27344E+01
 3.24773E+00    9.02762E+01
 3.29029E+00    8.79716E+01
 3.33071E+00    8.58111E+01
 3.36904E+00    8.37856E+01
 3.40539E+00    8.18867E+01
 3.43981E+00    8.01064E+01
 3.47240E+00    7.84375E+01
 3.53434E+00    7.53082E+01
 3.58945E+00    7.25700E+01
 3.63837E+00    7.01741E+01
 3.68172E+00    6.80777E+01
 3.72008E+00    6.62434E+01
 3.75397E+00    6.46383E+01
 3.81402E+00    6.18295E+01
 3.85969E+00    5.97229E+01
 3.89430E+00    5.81429E+01
 3.94679E+00    5.57730E+01
 4.00000E+00    5.34030E+01
 4.05618E+00    5.22340E+01
 4.10956E+00    5.11381E+01
 4.16024E+00    5.01107E+01
 4.20833E+00    4.91475E+01
 4.25391E+00    4.82445E+01
 4.34071E+00    4.65514E+01
 4.41812E+00    4.50699E+01
 4.48698E+00    4.37736E+01
 4.54811E+00    4.26393E+01
 4.60228E+00    4.16469E+01
 4.65021E+00    4.07784E+01
 4.73529E+00    3.92587E+01
 4.80013E+00    3.81189E+01
 4.84933E+00    3.72640E+01
 4.92409E+00    3.59818E+01
 5.00000E+00    3.46995E+01
 5.11526E+00    3.38101E+01
 5.21829E+00    3.30319E+01
 5.31014E+00    3.23510E+01
 5.39184E+00    3.17552E+01
 5.46435E+00    3.12338E+01
 5.59360E+00    3.03215E+01
 5.69255E+00    2.96373E+01
 5.76790E+00    2.91241E+01
 5.88281E+00    2.83543E+01
 6.00000E+00    2.75845E+01
 6.11673E+00    2.71226E+01
 6.22074E+00    2.67184E+01
 6.40702E+00    2.60111E+01
 6.55038E+00    2.54806E+01
 6.66000E+00    2.50827E+01
 6.82789E+00    2.44859E+01
 7.00000E+00    2.38891E+01
 7.11782E+00    2.34955E+01
 7.22254E+00    2.31511E+01
 7.40952E+00    2.25483E+01
 7.55292E+00    2.20963E+01
 7.66229E+00    2.17572E+01
 7.82933E+00    2.12487E+01
 8.00000E+00    2.07401E+01
 8.23907E+00    2.02164E+01
 8.42305E+00    1.98237E+01
 8.56372E+00    1.95291E+01
 8.77915E+00    1.90873E+01
 9.00000E+00    1.86454E+01
 9.24021E+00    1.81796E+01
 9.42457E+00    1.78302E+01
 9.56524E+00    1.75682E+01
 9.78021E+00    1.71751E+01
 1.00000E+01    1.67821E+01
 1.02411E+01    1.63718E+01
 1.04258E+01    1.60642E+01
 1.07091E+01    1.56026E+01
 1.08536E+01    1.53719E+01
 1.10000E+01    1.51411E+01
 1.12419E+01    1.47568E+01
 1.14268E+01    1.44686E+01
 1.17099E+01    1.40362E+01
 1.20000E+01    1.36039E+01
 1.22425E+01    1.33666E+01
 1.24277E+01    1.31885E+01
 1.27106E+01    1.29215E+01
 1.30000E+01    1.26545E+01
 1.32431E+01    1.24234E+01
 1.36163E+01    1.20768E+01
 1.38068E+01    1.19034E+01
 1.40000E+01    1.17301E+01
 1.42436E+01    1.15010E+01
 1.46169E+01    1.11573E+01
 1.48072E+01    1.09854E+01
 1.50000E+01    1.08136E+01
 1.52440E+01    1.06570E+01
 1.56174E+01    1.04221E+01
 1.60000E+01    1.01872E+01
 1.62443E+01    1.00308E+01
 1.66179E+01    9.79627E+00
 1.70000E+01    9.56171E+00
 1.72447E+01    9.40541E+00
 1.76183E+01    9.17097E+00
 1.80000E+01    8.93653E+00
 1.82386E+01    8.78028E+00
 1.86639E+01    8.50685E+00
 1.89893E+01    8.30178E+00
 1.92371E+01    8.14797E+00
 1.96148E+01    7.91727E+00
 2.00000E+01    7.68656E+00
