# n + Co 59 :  n        
# jendl4.0   T.WATANABE                        EVAL-AUG88
# uncertainties: n
# # energies =   145
#   E(MeV)       xs(mb) 
 2.62823E+00    0.00000E+00
 2.62891E+00    4.31225E-01
 2.63027E+00    1.29198E+00
 2.63162E+00    2.14938E+00
 2.63431E+00    3.85747E+00
 2.63699E+00    5.55222E+00
 2.63965E+00    7.23372E+00
 2.64493E+00    1.05704E+01
 2.65014E+00    1.38550E+01
 2.65528E+00    1.70883E+01
 2.66035E+00    2.02711E+01
 2.66535E+00    2.34041E+01
 2.67028E+00    2.64882E+01
 2.68001E+00    3.25599E+01
 2.68948E+00    3.84419E+01
 2.69867E+00    4.41401E+01
 2.70762E+00    4.96602E+01
 2.71631E+00    5.50079E+01
 2.72475E+00    6.01884E+01
 2.73296E+00    6.52070E+01
 2.74093E+00    7.00688E+01
 2.75645E+00    7.94885E+01
 2.77107E+00    8.83195E+01
 2.78486E+00    9.65985E+01
 2.79784E+00    1.04360E+02
 2.81006E+00    1.11637E+02
 2.82157E+00    1.18458E+02
 2.84328E+00    1.31249E+02
 2.86242E+00    1.42441E+02
 2.87926E+00    1.52234E+02
 2.89409E+00    1.60803E+02
 2.90712E+00    1.68300E+02
 2.93007E+00    1.81421E+02
 2.94739E+00    1.91262E+02
 2.97358E+00    2.06023E+02
 3.00000E+00    2.20784E+02
 3.02709E+00    2.40624E+02
 3.05357E+00    2.59844E+02
 3.07944E+00    2.78464E+02
 3.10471E+00    2.96502E+02
 3.12940E+00    3.13976E+02
 3.15349E+00    3.30903E+02
 3.17701E+00    3.47302E+02
 3.19996E+00    3.63189E+02
 3.22236E+00    3.78579E+02
 3.24420E+00    3.93488E+02
 3.26550E+00    4.07931E+02
 3.28627E+00    4.21923E+02
 3.32689E+00    4.49032E+02
 3.36542E+00    4.74447E+02
 3.40195E+00    4.98273E+02
 3.43656E+00    5.20611E+02
 3.46933E+00    5.41552E+02
 3.50033E+00    5.61184E+02
 3.52964E+00    5.79589E+02
 3.55734E+00    5.96844E+02
 3.60988E+00    6.29197E+02
 3.65648E+00    6.57506E+02
 3.69776E+00    6.82277E+02
 3.73425E+00    7.03951E+02
 3.76648E+00    7.22916E+02
 3.82355E+00    7.56104E+02
 3.86692E+00    7.80995E+02
 3.93290E+00    8.18332E+02
 4.00000E+00    8.55669E+02
 4.05618E+00    8.75567E+02
 4.10956E+00    8.94222E+02
 4.16024E+00    9.11710E+02
 4.20833E+00    9.28106E+02
 4.29998E+00    9.58848E+02
 4.38182E+00    9.85747E+02
 4.45471E+00    1.00928E+03
 4.51948E+00    1.02988E+03
 4.57692E+00    1.04790E+03
 4.67921E+00    1.07943E+03
 4.75742E+00    1.10309E+03
 4.87720E+00    1.13856E+03
 5.00000E+00    1.17404E+03
 5.11526E+00    1.18798E+03
 5.21829E+00    1.20018E+03
 5.40361E+00    1.22152E+03
 5.54691E+00    1.23753E+03
 5.76901E+00    1.26154E+03
 6.00000E+00    1.28555E+03
 6.23574E+00    1.29328E+03
 6.60683E+00    1.30487E+03
 7.00000E+00    1.31646E+03
 7.48331E+00    1.32256E+03
 8.00000E+00    1.32866E+03
 9.00000E+00    1.32750E+03
 9.48683E+00    1.31702E+03
 1.00000E+01    1.30653E+03
 1.02411E+01    1.28256E+03
 1.04258E+01    1.26458E+03
 1.07091E+01    1.23762E+03
 1.10000E+01    1.21065E+03
 1.11203E+01    1.17305E+03
 1.12266E+01    1.14015E+03
 1.13205E+01    1.11136E+03
 1.14867E+01    1.06098E+03
 1.16129E+01    1.02320E+03
 1.17085E+01    9.94862E+02
 1.18534E+01    9.52356E+02
 1.20000E+01    9.09849E+02
 1.21207E+01    8.76003E+02
 1.22272E+01    8.46389E+02
 1.23213E+01    8.20476E+02
 1.24876E+01    7.75128E+02
 1.26137E+01    7.41117E+02
 1.27092E+01    7.15609E+02
 1.28538E+01    6.77347E+02
 1.30000E+01    6.39085E+02
 1.31210E+01    6.17926E+02
 1.32278E+01    5.99411E+02
 1.34167E+01    5.67011E+02
 1.35602E+01    5.42711E+02
 1.36689E+01    5.24486E+02
 1.38334E+01    4.97149E+02
 1.40000E+01    4.69811E+02
 1.41213E+01    4.56390E+02
 1.43360E+01    4.32903E+02
 1.44992E+01    4.15288E+02
 1.46228E+01    4.02076E+02
 1.48102E+01    3.82259E+02
 1.50000E+01    3.62442E+02
 1.52440E+01    3.46921E+02
 1.54296E+01    3.35280E+02
 1.55702E+01    3.26549E+02
 1.57837E+01    3.13453E+02
 1.60000E+01    3.00357E+02
 1.62443E+01    2.92345E+02
 1.64300E+01    2.86337E+02
 1.67126E+01    2.77324E+02
 1.70000E+01    2.68311E+02
 1.72447E+01    2.59885E+02
 1.74305E+01    2.53565E+02
 1.77129E+01    2.44085E+02
 1.80000E+01    2.34605E+02
 1.82386E+01    2.29149E+02
 1.84500E+01    2.24375E+02
 1.88259E+01    2.16020E+02
 1.91128E+01    2.09755E+02
 1.93308E+01    2.05055E+02
 1.96626E+01    1.98006E+02
 2.00000E+01    1.90957E+02
