# n + Co 59 : (n,tot)   
# jendl4.0   T.WATANABE                        EVAL-AUG88
# uncertainties: y
# # energies =    69
#   E(MeV)       xs(mb)       xslow(mb)      xsupp(mb)
 1.00000E-10    2.68433E+05    2.35147E+05    3.01718E+05
 5.00000E-09    7.69127E+04    6.73755E+04    8.64499E+04
 1.00000E-08    5.96777E+04    5.22777E+04    6.70778E+04
 1.50000E-08    5.10899E+04    4.75090E+04    5.46708E+04
 2.00000E-08    4.56671E+04    4.24663E+04    4.88679E+04
 2.50000E-08    4.18356E+04    3.89034E+04    4.47679E+04
 3.00000E-08    3.89412E+04    3.62118E+04    4.16706E+04
 3.50000E-08    3.62872E+04    3.37438E+04    3.88305E+04
 4.20000E-08    3.37044E+04    3.13420E+04    3.60667E+04
 5.00000E-08    3.15560E+04    2.93019E+04    3.38100E+04
 5.80000E-08    2.97544E+04    2.76290E+04    3.18797E+04
 6.70000E-08    2.79243E+04    2.59297E+04    2.99189E+04
 8.00000E-08    2.58434E+04    2.40408E+04    2.76460E+04
 1.00000E-07    2.32704E+04    2.16473E+04    2.48935E+04
 1.40000E-07    2.09103E+04    1.94544E+04    2.23663E+04
 1.80000E-07    1.93212E+04    1.80167E+04    2.06258E+04
 2.20000E-07    1.82735E+04    1.70344E+04    1.95127E+04
 2.50000E-07    1.75595E+04    1.63688E+04    1.87502E+04
 2.80000E-07    1.70472E+04    1.58772E+04    1.82171E+04
 3.00000E-07    1.66872E+04    1.55419E+04    1.78324E+04
 3.20000E-07    1.62870E+04    1.51692E+04    1.74047E+04
 3.50000E-07    1.57348E+04    1.46688E+04    1.68008E+04
 4.00000E-07    1.49155E+04    1.39050E+04    1.59261E+04
 5.00000E-07    1.39853E+04    1.30732E+04    1.48974E+04
 6.25000E-07    1.31574E+04    1.22758E+04    1.40391E+04
 7.80000E-07    1.26343E+04    1.17772E+04    1.34914E+04
 8.50000E-07    1.23881E+04    1.15477E+04    1.32285E+04
 9.10000E-07    1.22165E+04    1.14576E+04    1.29754E+04
 9.50000E-07    1.21173E+04    1.13646E+04    1.28700E+04
 9.72000E-07    1.20466E+04    1.12983E+04    1.27949E+04
 9.96000E-07    1.19761E+04    1.12321E+04    1.27200E+04
 1.02000E-06    1.19068E+04    1.11672E+04    1.26465E+04
 1.04500E-06    1.18376E+04    1.11022E+04    1.25729E+04
 1.07100E-06    1.17683E+04    1.10372E+04    1.24993E+04
 1.09700E-06    1.17033E+04    1.09763E+04    1.24303E+04
 1.12300E-06    1.16374E+04    1.09145E+04    1.23603E+04
 1.15000E-06    1.14421E+04    1.06622E+04    1.22220E+04
 1.30000E-06    1.11043E+04    1.03474E+04    1.18612E+04
 1.50000E-06    1.05547E+04    9.83906E+03    1.12703E+04
 2.10000E-06    9.99455E+03    9.13892E+03    1.08502E+04
 2.60000E-06    9.59095E+03    8.77044E+03    1.04115E+04
 3.30000E-06    9.25221E+03    8.46059E+03    1.00438E+04
 4.00000E-06    8.58006E+03    7.84603E+03    9.31408E+03
 9.87700E-06    8.01572E+03    7.33022E+03    8.70123E+03
 1.59680E-05    7.95831E+03    7.27779E+03    8.63882E+03
 2.77000E-05    8.82272E+03    8.06890E+03    9.57653E+03
 4.80520E-05    1.35555E+04    1.26581E+04    1.44528E+04
 7.55014E-05    9.91129E+05    9.24565E+05    1.05769E+06
 1.48728E-04    4.49246E+04    4.09313E+04    4.89180E+04
 3.67262E-04    4.95245E+03    4.52644E+03    5.37846E+03
 9.06898E-04    2.54224E+03    2.32396E+03    2.76052E+03
 1.42510E-03    1.59857E+03    1.46119E+03    1.73595E+03
 2.23945E-03    3.92903E+03    3.61015E+03    4.24791E+03
 3.51910E-03    1.07138E+05    9.87219E+04    1.15553E+05
 5.53000E-03    2.62034E+04    2.39578E+04    2.84490E+04
 9.11800E-03    8.53339E+03    7.80472E+03    9.26205E+03
 1.50300E-02    1.41508E+04    1.29232E+04    1.53784E+04
 2.47800E-02    1.31053E+04    1.20193E+04    1.41913E+04
 4.08500E-02    7.52623E+03    6.87025E+03    8.18222E+03
 6.73400E-02    7.07583E+03    6.59382E+03    7.55783E+03
 1.11000E-01    5.98547E+03    5.62269E+03    6.34825E+03
 1.83000E-01    5.39893E+03    5.08644E+03    5.71142E+03
 3.02000E-01    4.36054E+03    4.08679E+03    4.63430E+03
 5.00000E-01    3.82208E+03    3.60475E+03    4.03940E+03
 8.21000E-01    3.41659E+03    3.21874E+03    3.61445E+03
 1.35300E+00    3.26552E+03    3.07857E+03    3.45247E+03
 2.23100E+00    3.40982E+03    3.20936E+03    3.61028E+03
 3.67900E+00    3.71522E+03    3.50732E+03    3.92313E+03
 6.06500E+00    3.52121E+03    3.32473E+03    3.71769E+03
