# n + Yb171 : (n,n'24)  
# tendl.2019 A.J. Koning and D. Rochman        EVAL-NOV19
# uncertainties: n
# # energies =    73
#   E(MeV)       xs(mb) 
 8.72116E-01    0.00000E+00
 8.81169E-01    6.68590E+00
 9.00000E-01    2.05931E+01
 9.07574E-01    2.38028E+01
 9.12553E-01    2.59128E+01
 9.40780E-01    3.78747E+01
 9.49922E-01    4.17489E+01
 9.53967E-01    4.34631E+01
 1.00000E+00    6.29708E+01
 1.20000E+00    9.04078E+01
 1.40000E+00    7.58704E+01
 1.60000E+00    5.59748E+01
 1.80000E+00    3.93814E+01
 2.00000E+00    2.69941E+01
 2.20000E+00    1.82096E+01
 2.40000E+00    1.22048E+01
 2.60000E+00    8.18274E+00
 2.80000E+00    5.51182E+00
 3.00000E+00    3.74115E+00
 3.20000E+00    2.56622E+00
 3.40000E+00    1.77076E+00
 3.60000E+00    1.23276E+00
 3.80000E+00    8.66530E-01
 4.00000E+00    6.14422E-01
 4.20000E+00    4.37932E-01
 4.40000E+00    3.14190E-01
 4.60000E+00    2.26684E-01
 4.80000E+00    1.64434E-01
 5.00000E+00    1.19919E-01
 5.20000E+00    8.78487E-02
 5.40000E+00    6.47758E-02
 5.60000E+00    4.79740E-02
 5.80000E+00    3.54580E-02
 6.00000E+00    2.64519E-02
 6.20000E+00    1.97859E-02
 6.40000E+00    1.49079E-02
 6.60000E+00    1.12894E-02
 6.80000E+00    8.58664E-03
 7.00000E+00    6.56681E-03
 7.20000E+00    5.02720E-03
 7.40000E+00    3.86459E-03
 7.60000E+00    2.97452E-03
 7.80000E+00    2.29236E-03
 8.00000E+00    1.77214E-03
 8.50000E+00    9.35634E-04
 9.00000E+00    4.99095E-04
 9.50000E+00    2.69059E-04
 1.00000E+01    1.46611E-04
 1.05000E+01    8.07667E-05
 1.10000E+01    4.49922E-05
 1.15000E+01    2.53335E-05
 1.20000E+01    1.44204E-05
 1.25000E+01    8.29187E-06
 1.30000E+01    4.81830E-06
 1.35000E+01    2.82708E-06
 1.40000E+01    1.67357E-06
 1.45000E+01    9.99500E-07
 1.50000E+01    6.01650E-07
 1.60000E+01    2.22580E-07
 1.70000E+01    8.44830E-08
 1.80000E+01    3.25440E-08
 1.90000E+01    1.28810E-08
 2.00000E+01    5.22680E-09
 2.10000E+01    2.16980E-09
 2.20000E+01    9.22540E-10
 2.30000E+01    3.99370E-10
 2.40000E+01    1.75830E-10
 2.50000E+01    7.87440E-11
 2.60000E+01    3.57760E-11
 2.70000E+01    1.64610E-11
 2.80000E+01    7.66400E-12
 2.90000E+01    3.60920E-12
 3.00000E+01    1.72000E-12
