# n + Yb171 : (n,n'18)  
# tendl.2019 A.J. Koning and D. Rochman        EVAL-NOV19
# uncertainties: n
# # energies =    80
#   E(MeV)       xs(mb) 
 7.70822E-01    0.00000E+00
 7.84925E-01    2.33140E+01
 8.00000E-01    4.82349E+01
 8.30985E-01    7.05274E+01
 8.37996E-01    7.55715E+01
 8.40010E-01    7.70205E+01
 8.65236E-01    9.51697E+01
 8.72116E-01    1.00120E+02
 8.81169E-01    1.06633E+02
 9.00000E-01    1.20181E+02
 9.07574E-01    1.22336E+02
 9.12553E-01    1.23753E+02
 9.40780E-01    1.31785E+02
 9.49922E-01    1.34387E+02
 9.53967E-01    1.35538E+02
 1.00000E+00    1.48637E+02
 1.20000E+00    1.34100E+02
 1.40000E+00    9.70005E+01
 1.60000E+00    6.58747E+01
 1.80000E+00    4.35184E+01
 2.00000E+00    2.83490E+01
 2.20000E+00    1.83642E+01
 2.40000E+00    1.19166E+01
 2.60000E+00    7.78104E+00
 2.80000E+00    5.12659E+00
 3.00000E+00    3.41454E+00
 3.20000E+00    2.30489E+00
 3.40000E+00    1.56860E+00
 3.60000E+00    1.07895E+00
 3.80000E+00    7.51028E-01
 4.00000E+00    5.26206E-01
 4.20000E+00    3.71562E-01
 4.40000E+00    2.64161E-01
 4.60000E+00    1.88971E-01
 4.80000E+00    1.35995E-01
 5.00000E+00    9.84603E-02
 5.20000E+00    7.16364E-02
 5.40000E+00    5.25004E-02
 5.60000E+00    3.86552E-02
 5.80000E+00    2.84135E-02
 6.00000E+00    2.10954E-02
 6.20000E+00    1.57057E-02
 6.40000E+00    1.17833E-02
 6.60000E+00    8.88772E-03
 6.80000E+00    6.73490E-03
 7.00000E+00    5.13283E-03
 7.20000E+00    3.91687E-03
 7.40000E+00    3.00187E-03
 7.60000E+00    2.30402E-03
 7.80000E+00    1.77102E-03
 8.00000E+00    1.36561E-03
 8.50000E+00    7.16961E-04
 9.00000E+00    3.80591E-04
 9.50000E+00    2.04299E-04
 1.00000E+01    1.10896E-04
 1.05000E+01    6.08748E-05
 1.10000E+01    3.37974E-05
 1.15000E+01    1.89689E-05
 1.20000E+01    1.07642E-05
 1.25000E+01    6.17119E-06
 1.30000E+01    3.57587E-06
 1.35000E+01    2.09244E-06
 1.40000E+01    1.23548E-06
 1.45000E+01    7.36030E-07
 1.50000E+01    4.41990E-07
 1.60000E+01    1.62770E-07
 1.70000E+01    6.15280E-08
 1.80000E+01    2.36160E-08
 1.90000E+01    9.31980E-09
 2.00000E+01    3.77250E-09
 2.10000E+01    1.56270E-09
 2.20000E+01    6.63140E-10
 2.30000E+01    2.86500E-10
 2.40000E+01    1.25890E-10
 2.50000E+01    5.62750E-11
 2.60000E+01    2.55260E-11
 2.70000E+01    1.17290E-11
 2.80000E+01    5.45480E-12
 2.90000E+01    2.56640E-12
 3.00000E+01    1.22200E-12
