# n + Yb171 : (n,n'14)  
# tendl.2019 A.J. Koning and D. Rochman        EVAL-NOV19
# uncertainties: n
# # energies =    86
#   E(MeV)       xs(mb) 
 5.04329E-01    0.00000E+00
 5.12325E-01    1.63235E-05
 6.00000E-01    1.95309E-04
 6.07946E-01    3.35855E-04
 6.52045E-01    1.11587E-03
 7.00000E-01    1.96408E-03
 7.70822E-01    7.06916E-03
 7.84925E-01    8.08574E-03
 8.00000E-01    9.17240E-03
 8.30985E-01    1.52734E-02
 8.37996E-01    1.66539E-02
 8.40010E-01    1.70504E-02
 8.65236E-01    2.20174E-02
 8.72116E-01    2.33721E-02
 8.81169E-01    2.51547E-02
 9.00000E-01    2.88625E-02
 9.07574E-01    3.18670E-02
 9.12553E-01    3.38421E-02
 9.40780E-01    4.50394E-02
 9.49922E-01    4.86659E-02
 9.53967E-01    5.02705E-02
 1.00000E+00    6.85311E-02
 1.20000E+00    2.03675E-01
 1.40000E+00    3.76743E-01
 1.60000E+00    5.31420E-01
 1.80000E+00    6.24557E-01
 2.00000E+00    6.46734E-01
 2.20000E+00    6.12856E-01
 2.40000E+00    5.46570E-01
 2.60000E+00    4.68061E-01
 2.80000E+00    3.90571E-01
 3.00000E+00    3.20935E-01
 3.20000E+00    2.58352E-01
 3.40000E+00    2.08311E-01
 3.60000E+00    1.67086E-01
 3.80000E+00    1.34023E-01
 4.00000E+00    1.07149E-01
 4.20000E+00    8.54291E-02
 4.40000E+00    6.79568E-02
 4.60000E+00    5.39721E-02
 4.80000E+00    4.28342E-02
 5.00000E+00    3.39804E-02
 5.20000E+00    2.69493E-02
 5.40000E+00    2.14192E-02
 5.60000E+00    1.70185E-02
 5.80000E+00    1.34441E-02
 6.00000E+00    1.06783E-02
 6.20000E+00    8.47001E-03
 6.40000E+00    6.74360E-03
 6.60000E+00    5.37638E-03
 6.80000E+00    4.28929E-03
 7.00000E+00    3.42979E-03
 7.20000E+00    2.73582E-03
 7.40000E+00    2.18449E-03
 7.60000E+00    1.74178E-03
 7.80000E+00    1.38642E-03
 8.00000E+00    1.10449E-03
 8.50000E+00    6.23060E-04
 9.00000E+00    3.51822E-04
 9.50000E+00    1.99564E-04
 1.00000E+01    1.13985E-04
 1.05000E+01    6.56642E-05
 1.10000E+01    3.81948E-05
 1.15000E+01    2.24330E-05
 1.20000E+01    1.33076E-05
 1.25000E+01    7.96597E-06
 1.30000E+01    4.81229E-06
 1.35000E+01    2.93044E-06
 1.40000E+01    1.79687E-06
 1.45000E+01    1.10915E-06
 1.50000E+01    6.88460E-07
 1.60000E+01    2.68880E-07
 1.70000E+01    1.06720E-07
 1.80000E+01    4.26400E-08
 1.90000E+01    1.74030E-08
 2.00000E+01    7.25600E-09
 2.10000E+01    3.08910E-09
 2.20000E+01    1.34530E-09
 2.30000E+01    5.95830E-10
 2.40000E+01    2.67970E-10
 2.50000E+01    1.22340E-10
 2.60000E+01    5.65290E-11
 2.70000E+01    2.63890E-11
 2.80000E+01    1.24430E-11
 2.90000E+01    5.92660E-12
 3.00000E+01    2.85470E-12
