# n + Yb171 : (n,n'22)  
# tendl.2019 A.J. Koning and D. Rochman        EVAL-NOV19
# uncertainties: n
# # energies =    75
#   E(MeV)       xs(mb) 
 8.40010E-01    0.00000E+00
 8.65236E-01    8.71636E+00
 8.72116E-01    1.10936E+01
 8.81169E-01    1.42217E+01
 9.00000E-01    2.07284E+01
 9.07574E-01    2.22603E+01
 9.12553E-01    2.32674E+01
 9.40780E-01    2.89767E+01
 9.49922E-01    3.08258E+01
 9.53967E-01    3.16440E+01
 1.00000E+00    4.09548E+01
 1.20000E+00    5.48299E+01
 1.40000E+00    4.96880E+01
 1.60000E+00    4.00702E+01
 1.80000E+00    3.02447E+01
 2.00000E+00    2.17760E+01
 2.20000E+00    1.52103E+01
 2.40000E+00    1.04770E+01
 2.60000E+00    7.19616E+00
 2.80000E+00    4.96071E+00
 3.00000E+00    3.44446E+00
 3.20000E+00    2.43432E+00
 3.40000E+00    1.71316E+00
 3.60000E+00    1.21436E+00
 3.80000E+00    8.71854E-01
 4.00000E+00    6.28270E-01
 4.20000E+00    4.52200E-01
 4.40000E+00    3.27170E-01
 4.60000E+00    2.37653E-01
 4.80000E+00    1.73358E-01
 5.00000E+00    1.27050E-01
 5.20000E+00    9.34867E-02
 5.40000E+00    6.92306E-02
 5.60000E+00    5.14928E-02
 5.80000E+00    3.82187E-02
 6.00000E+00    2.86347E-02
 6.20000E+00    2.15092E-02
 6.40000E+00    1.62737E-02
 6.60000E+00    1.23736E-02
 6.80000E+00    9.44785E-03
 7.00000E+00    7.25221E-03
 7.20000E+00    5.57149E-03
 7.40000E+00    4.29727E-03
 7.60000E+00    3.31789E-03
 7.80000E+00    2.56457E-03
 8.00000E+00    1.98805E-03
 8.50000E+00    1.05626E-03
 9.00000E+00    5.66604E-04
 9.50000E+00    3.07021E-04
 1.00000E+01    1.68101E-04
 1.05000E+01    9.30272E-05
 1.10000E+01    5.20491E-05
 1.15000E+01    2.94315E-05
 1.20000E+01    1.68225E-05
 1.25000E+01    9.71208E-06
 1.30000E+01    5.66554E-06
 1.35000E+01    3.33654E-06
 1.40000E+01    1.98208E-06
 1.45000E+01    1.18761E-06
 1.50000E+01    7.17050E-07
 1.60000E+01    2.66690E-07
 1.70000E+01    1.01680E-07
 1.80000E+01    3.93150E-08
 1.90000E+01    1.56100E-08
 2.00000E+01    6.35110E-09
 2.10000E+01    2.64310E-09
 2.20000E+01    1.12650E-09
 2.30000E+01    4.88830E-10
 2.40000E+01    2.15700E-10
 2.50000E+01    9.67990E-11
 2.60000E+01    4.40610E-11
 2.70000E+01    2.03060E-11
 2.80000E+01    9.46840E-12
 2.90000E+01    4.46510E-12
 3.00000E+01    2.13070E-12
