# n + Yb171 : (n,n'23)  
# tendl.2019 A.J. Koning and D. Rochman        EVAL-NOV19
# uncertainties: n
# # energies =    74
#   E(MeV)       xs(mb) 
 8.65236E-01    0.00000E+00
 8.72116E-01    3.59740E-07
 8.81169E-01    8.33110E-07
 9.00000E-01    1.81774E-06
 9.07574E-01    5.07184E-06
 9.12553E-01    7.21102E-06
 9.40780E-01    1.93384E-05
 9.49922E-01    2.32662E-05
 9.53967E-01    2.50041E-05
 1.00000E+00    4.47817E-05
 1.20000E+00    9.09503E-04
 1.40000E+00    4.76829E-03
 1.60000E+00    1.33624E-02
 1.80000E+00    2.60809E-02
 2.00000E+00    4.04095E-02
 2.20000E+00    5.35073E-02
 2.40000E+00    6.33746E-02
 2.60000E+00    6.90099E-02
 2.80000E+00    7.03172E-02
 3.00000E+00    6.79525E-02
 3.20000E+00    6.18985E-02
 3.40000E+00    5.56428E-02
 3.60000E+00    4.88320E-02
 3.80000E+00    4.23642E-02
 4.00000E+00    3.62500E-02
 4.20000E+00    3.04809E-02
 4.40000E+00    2.54840E-02
 4.60000E+00    2.12034E-02
 4.80000E+00    1.75834E-02
 5.00000E+00    1.45521E-02
 5.20000E+00    1.20149E-02
 5.40000E+00    9.92034E-03
 5.60000E+00    8.17876E-03
 5.80000E+00    6.68760E-03
 6.00000E+00    5.48660E-03
 6.20000E+00    4.48633E-03
 6.40000E+00    3.67411E-03
 6.60000E+00    3.00641E-03
 6.80000E+00    2.45748E-03
 7.00000E+00    2.00919E-03
 7.20000E+00    1.63608E-03
 7.40000E+00    1.33192E-03
 7.60000E+00    1.08063E-03
 7.80000E+00    8.74522E-04
 8.00000E+00    7.07388E-04
 8.50000E+00    4.12586E-04
 9.00000E+00    2.39502E-04
 9.50000E+00    1.39049E-04
 1.00000E+01    8.10353E-05
 1.05000E+01    4.75286E-05
 1.10000E+01    2.81040E-05
 1.15000E+01    1.67614E-05
 1.20000E+01    1.00887E-05
 1.25000E+01    6.12384E-06
 1.30000E+01    3.74959E-06
 1.35000E+01    2.31331E-06
 1.40000E+01    1.43653E-06
 1.45000E+01    8.97640E-07
 1.50000E+01    5.63770E-07
 1.60000E+01    2.25070E-07
 1.70000E+01    9.11070E-08
 1.80000E+01    3.70220E-08
 1.90000E+01    1.53290E-08
 2.00000E+01    6.47030E-09
 2.10000E+01    2.78520E-09
 2.20000E+01    1.22560E-09
 2.30000E+01    5.48270E-10
 2.40000E+01    2.48950E-10
 2.50000E+01    1.14680E-10
 2.60000E+01    5.34290E-11
 2.70000E+01    2.51270E-11
 2.80000E+01    1.19240E-11
 2.90000E+01    5.71170E-12
 3.00000E+01    2.76490E-12
