# n + Sr 86 : (n,xp)    
# jeff3.3    A.J. Koning and D. Rochman        EVAL-DEC15
# 
# # energies =   124
#   E(MeV)        xs(mb) 
 1.08932E+00    1.21030E-11
 1.20000E+00    2.80862E-11
 1.40000E+00    5.69681E-11
 1.60000E+00    8.58500E-11
 1.80000E+00    3.54090E-08
 1.87594E+00    7.17799E-07
 2.00000E+00    1.83259E-06
 2.13073E+00    2.09637E-05
 2.20000E+00    3.11008E-05
 2.22887E+00    6.43078E-05
 2.25592E+00    9.54216E-05
 2.39277E+00    2.52831E-04
 2.40000E+00    2.61147E-04
 2.51105E+00    8.29836E-04
 2.52632E+00    9.08034E-04
 2.60000E+00    1.28535E-03
 2.67321E+00    2.46860E-03
 2.70422E+00    2.96980E-03
 2.80000E+00    4.51783E-03
 2.82124E+00    5.41310E-03
 2.89054E+00    8.33412E-03
 2.91207E+00    9.24162E-03
 2.99038E+00    1.25424E-02
 3.00000E+00    1.29479E-02
 3.03255E+00    1.60532E-02
 3.08075E+00    2.06515E-02
 3.09166E+00    2.16924E-02
 3.14044E+00    2.63460E-02
 3.20000E+00    3.20281E-02
 3.22240E+00    3.61449E-02
 3.27629E+00    4.60493E-02
 3.32994E+00    5.59096E-02
 3.35657E+00    6.08038E-02
 3.40000E+00    6.87858E-02
 3.40154E+00    6.92745E-02
 3.43183E+00    7.88870E-02
 3.47027E+00    9.10860E-02
 3.52308E+00    1.07845E-01
 3.54100E+00    1.13532E-01
 3.56956E+00    1.22596E-01
 3.59753E+00    1.31472E-01
 3.60000E+00    1.32256E-01
 3.68778E+00    1.76839E-01
 3.80000E+00    2.33836E-01
 4.00000E+00    3.73580E-01
 4.20000E+00    5.49927E-01
 4.40000E+00    7.67506E-01
 4.60000E+00    1.03328E+00
 4.80000E+00    1.35454E+00
 5.00000E+00    1.73756E+00
 5.20000E+00    2.19110E+00
 5.40000E+00    2.71137E+00
 5.60000E+00    3.29688E+00
 5.80000E+00    3.97637E+00
 6.00000E+00    4.69056E+00
 6.20000E+00    5.45265E+00
 6.40000E+00    6.31974E+00
 6.60000E+00    7.16946E+00
 6.80000E+00    8.14151E+00
 7.00000E+00    9.05476E+00
 7.20000E+00    9.92282E+00
 7.40000E+00    1.09301E+01
 7.60000E+00    1.18415E+01
 7.80000E+00    1.28240E+01
 8.00000E+00    1.36633E+01
 8.50000E+00    1.58135E+01
 9.00000E+00    1.78399E+01
 9.50000E+00    1.98090E+01
 1.00000E+01    2.17801E+01
 1.05000E+01    2.38010E+01
 1.10000E+01    2.59046E+01
 1.15000E+01    2.81125E+01
 1.20000E+01    3.05135E+01
 1.25000E+01    3.30320E+01
 1.30000E+01    3.57349E+01
 1.35000E+01    3.86652E+01
 1.40000E+01    4.19131E+01
 1.45000E+01    4.54179E+01
 1.50000E+01    4.91568E+01
 1.60000E+01    5.71834E+01
 1.70000E+01    6.57235E+01
 1.80000E+01    7.48806E+01
 1.90000E+01    8.46092E+01
 2.00000E+01    9.49244E+01
 2.10000E+01    1.05186E+02
 2.20000E+01    1.15469E+02
 2.30000E+01    1.26537E+02
 2.40000E+01    1.35881E+02
 2.50000E+01    1.44802E+02
 2.60000E+01    1.53687E+02
 2.70000E+01    1.63401E+02
 2.80000E+01    1.73712E+02
 2.90000E+01    1.84560E+02
 3.00000E+01    1.95488E+02
 3.00000E+01    1.95521E+02
 3.20000E+01    2.16733E+02
 3.40000E+01    2.36942E+02
 3.60000E+01    2.56562E+02
 3.80000E+01    2.74977E+02
 4.00000E+01    2.92123E+02
 4.20000E+01    3.08197E+02
 4.40000E+01    3.23734E+02
 4.60000E+01    3.38345E+02
 4.80000E+01    3.52757E+02
 5.00000E+01    3.67584E+02
 5.20000E+01    3.83041E+02
 5.40000E+01    3.98456E+02
 5.60000E+01    4.12802E+02
 5.80000E+01    4.25770E+02
 6.00000E+01    4.39884E+02
 6.50000E+01    4.72972E+02
 7.00000E+01    4.97530E+02
 7.50000E+01    5.16827E+02
 8.00000E+01    5.32119E+02
 9.00000E+01    5.68694E+02
 1.00000E+02    6.08647E+02
 1.10000E+02    6.56459E+02
 1.20000E+02    7.07270E+02
 1.30000E+02    7.68653E+02
 1.40000E+02    8.50045E+02
 1.50000E+02    9.45718E+02
 1.60000E+02    1.05876E+03
 1.80000E+02    1.34163E+03
 2.00000E+02    1.72555E+03
