# n + Sr 86 : (n,n'06)  
# jeff3.3    A.J. Koning and D. Rochman        EVAL-DEC15
# uncertainties: n
# # energies =    83
#   E(MeV)       xs(mb) 
 2.39277E+00    0.00000E+00
 2.40000E+00    7.59606E+00
 2.51105E+00    8.04954E+01
 2.52632E+00    9.05194E+01
 2.60000E+00    1.38887E+02
 2.67321E+00    1.62183E+02
 2.70422E+00    1.72050E+02
 2.80000E+00    2.02528E+02
 2.82124E+00    2.03312E+02
 2.89054E+00    2.05871E+02
 2.91207E+00    2.06666E+02
 2.99038E+00    2.09557E+02
 3.00000E+00    2.09912E+02
 3.03255E+00    2.07538E+02
 3.08075E+00    2.04023E+02
 3.09166E+00    2.03227E+02
 3.14044E+00    1.99670E+02
 3.20000E+00    1.95326E+02
 3.22240E+00    1.93549E+02
 3.27629E+00    1.89275E+02
 3.32994E+00    1.85020E+02
 3.35657E+00    1.82908E+02
 3.40000E+00    1.79463E+02
 3.40154E+00    1.79316E+02
 3.43183E+00    1.76422E+02
 3.47027E+00    1.72750E+02
 3.52308E+00    1.67705E+02
 3.54100E+00    1.65993E+02
 3.56956E+00    1.63264E+02
 3.59753E+00    1.60592E+02
 3.60000E+00    1.60356E+02
 3.68778E+00    1.51430E+02
 3.80000E+00    1.40019E+02
 4.00000E+00    1.17505E+02
 4.20000E+00    9.53079E+01
 4.40000E+00    7.60558E+01
 4.60000E+00    6.02158E+01
 4.80000E+00    4.74397E+01
 5.00000E+00    3.72221E+01
 5.20000E+00    2.91024E+01
 5.40000E+00    2.26913E+01
 5.60000E+00    1.76598E+01
 5.80000E+00    1.37325E+01
 6.00000E+00    1.06853E+01
 6.20000E+00    8.32675E+00
 6.40000E+00    6.50285E+00
 6.60000E+00    5.09506E+00
 6.80000E+00    4.00485E+00
 7.00000E+00    3.15891E+00
 7.20000E+00    2.50241E+00
 7.40000E+00    1.98340E+00
 7.60000E+00    1.58065E+00
 7.80000E+00    1.26617E+00
 8.00000E+00    1.01617E+00
 8.50000E+00    5.97486E-01
 9.00000E+00    3.58257E-01
 9.50000E+00    2.18474E-01
 1.00000E+01    1.35091E-01
 1.05000E+01    8.45229E-02
 1.10000E+01    5.34295E-02
 1.15000E+01    3.40970E-02
 1.20000E+01    2.19459E-02
 1.25000E+01    1.42274E-02
 1.30000E+01    9.28294E-03
 1.35000E+01    6.09414E-03
 1.40000E+01    4.02250E-03
 1.45000E+01    2.66906E-03
 1.50000E+01    1.77997E-03
 1.60000E+01    8.02715E-04
 1.70000E+01    3.68889E-04
 1.80000E+01    1.72627E-04
 1.90000E+01    8.23764E-05
 2.00000E+01    3.99701E-05
 2.10000E+01    1.97489E-05
 2.20000E+01    9.89070E-06
 2.30000E+01    4.97145E-06
 2.40000E+01    2.55157E-06
 2.50000E+01    1.32367E-06
 2.60000E+01    6.93480E-07
 2.70000E+01    3.67110E-07
 2.80000E+01    1.96390E-07
 2.90000E+01    1.06130E-07
 3.00000E+01    5.79620E-08
