# n + Sr 86 : (n,xa)    
# jeff3.3    A.J. Koning and D. Rochman        EVAL-DEC15
# 
# # energies =   124
#   E(MeV)        xs(mb) 
 1.08932E+00    1.08937E-14
 1.20000E+00    2.43970E-14
 1.40000E+00    3.90900E-13
 1.60000E+00    8.71320E-12
 1.80000E+00    9.11070E-11
 1.87594E+00    3.16559E-10
 2.00000E+00    6.84870E-10
 2.13073E+00    2.98698E-09
 2.20000E+00    4.20680E-09
 2.22887E+00    6.26222E-09
 2.25592E+00    8.18807E-09
 2.39277E+00    1.79312E-08
 2.40000E+00    1.84460E-08
 2.51105E+00    4.57887E-08
 2.52632E+00    4.95485E-08
 2.60000E+00    6.76900E-08
 2.67321E+00    1.22323E-07
 2.70422E+00    1.45464E-07
 2.80000E+00    2.16940E-07
 2.82124E+00    2.92852E-07
 2.89054E+00    5.40530E-07
 2.91207E+00    6.17478E-07
 2.99038E+00    8.97358E-07
 3.00000E+00    9.31740E-07
 3.03255E+00    1.27432E-06
 3.08075E+00    1.78161E-06
 3.09166E+00    1.89643E-06
 3.14044E+00    2.40982E-06
 3.20000E+00    3.03667E-06
 3.22240E+00    3.31495E-06
 3.27629E+00    3.98443E-06
 3.32994E+00    4.65094E-06
 3.35657E+00    4.98177E-06
 3.40000E+00    5.52131E-06
 3.40154E+00    5.63704E-06
 3.43183E+00    7.91342E-06
 3.47027E+00    1.08023E-05
 3.52308E+00    1.47711E-05
 3.54100E+00    1.61179E-05
 3.56956E+00    1.82643E-05
 3.59753E+00    2.03663E-05
 3.60000E+00    2.05519E-05
 3.68778E+00    2.91028E-05
 3.80000E+00    4.00345E-05
 4.00000E+00    7.61299E-05
 4.20000E+00    1.69458E-04
 4.40000E+00    2.50686E-04
 4.60000E+00    4.93241E-04
 4.80000E+00    7.96430E-04
 5.00000E+00    1.15944E-03
 5.20000E+00    2.00340E-03
 5.40000E+00    2.81827E-03
 5.60000E+00    4.30622E-03
 5.80000E+00    6.30896E-03
 6.00000E+00    8.39384E-03
 6.20000E+00    1.23786E-02
 6.40000E+00    1.66812E-02
 6.60000E+00    2.23772E-02
 6.80000E+00    3.04073E-02
 7.00000E+00    3.84266E-02
 7.20000E+00    5.13127E-02
 7.40000E+00    6.66956E-02
 7.60000E+00    8.22512E-02
 7.80000E+00    1.06552E-01
 8.00000E+00    1.30852E-01
 8.50000E+00    2.22222E-01
 9.00000E+00    3.61481E-01
 9.50000E+00    5.68721E-01
 1.00000E+01    8.64795E-01
 1.05000E+01    1.27322E+00
 1.10000E+01    1.81285E+00
 1.15000E+01    2.49441E+00
 1.20000E+01    3.32384E+00
 1.25000E+01    4.29589E+00
 1.30000E+01    5.41088E+00
 1.35000E+01    6.66015E+00
 1.40000E+01    8.03467E+00
 1.45000E+01    9.53202E+00
 1.50000E+01    1.11476E+01
 1.60000E+01    1.47528E+01
 1.70000E+01    1.89364E+01
 1.80000E+01    2.38657E+01
 1.90000E+01    2.85426E+01
 2.00000E+01    3.33329E+01
 2.10000E+01    3.63390E+01
 2.20000E+01    3.95471E+01
 2.30000E+01    4.25499E+01
 2.40000E+01    4.55774E+01
 2.50000E+01    4.84528E+01
 2.60000E+01    5.11350E+01
 2.70000E+01    5.36150E+01
 2.80000E+01    5.58300E+01
 2.90000E+01    5.78899E+01
 3.00000E+01    5.97877E+01
 3.00000E+01    5.95415E+01
 3.20000E+01    6.29046E+01
 3.40000E+01    6.58532E+01
 3.60000E+01    6.85931E+01
 3.80000E+01    7.11630E+01
 4.00000E+01    7.34581E+01
 4.20000E+01    7.57050E+01
 4.40000E+01    7.73709E+01
 4.60000E+01    7.91508E+01
 4.80000E+01    8.05559E+01
 5.00000E+01    8.16806E+01
 5.20000E+01    8.27557E+01
 5.40000E+01    8.36457E+01
 5.60000E+01    8.41824E+01
 5.80000E+01    8.42573E+01
 6.00000E+01    8.44292E+01
 6.50000E+01    8.46914E+01
 7.00000E+01    8.40613E+01
 7.50000E+01    8.27782E+01
 8.00000E+01    8.02800E+01
 9.00000E+01    8.42535E+01
 1.00000E+02    9.28407E+01
 1.10000E+02    1.00049E+02
 1.20000E+02    1.08298E+02
 1.30000E+02    1.16452E+02
 1.40000E+02    1.23704E+02
 1.50000E+02    1.31855E+02
 1.60000E+02    1.42084E+02
 1.80000E+02    1.66713E+02
 2.00000E+02    2.06180E+02
