# n + Hg199 : (n,n'17)  
# jeff3.3    A.J. Koning and D. Rochman        EVAL-DEC15
# uncertainties: n
# # energies =    80
#   E(MeV)       xs(mb) 
 8.26167E-01    0.00000E+00
 8.28057E-01    2.85593E-01
 9.00000E-01    1.11567E+01
 9.73912E-01    1.85413E+01
 1.00000E+00    2.11478E+01
 1.00919E+00    2.19224E+01
 1.04125E+00    2.46246E+01
 1.10960E+00    3.03855E+01
 1.20000E+00    3.80050E+01
 1.22736E+00    3.95849E+01
 1.27413E+00    4.22857E+01
 1.28056E+00    4.26570E+01
 1.32438E+00    4.51874E+01
 1.33453E+00    4.57735E+01
 1.36408E+00    4.74799E+01
 1.36579E+00    4.75786E+01
 1.40000E+00    4.95541E+01
 1.44680E+00    5.00545E+01
 1.60000E+00    5.16924E+01
 1.80000E+00    4.27718E+01
 2.00000E+00    3.23350E+01
 2.20000E+00    2.38790E+01
 2.40000E+00    1.76059E+01
 2.60000E+00    1.30224E+01
 2.80000E+00    9.66517E+00
 3.00000E+00    7.18609E+00
 3.20000E+00    5.34531E+00
 3.40000E+00    3.97483E+00
 3.60000E+00    2.95579E+00
 3.80000E+00    2.19889E+00
 4.00000E+00    1.63815E+00
 4.20000E+00    1.22254E+00
 4.40000E+00    9.14297E-01
 4.60000E+00    6.85101E-01
 4.80000E+00    5.14321E-01
 5.00000E+00    3.86729E-01
 5.20000E+00    2.91113E-01
 5.40000E+00    2.19388E-01
 5.60000E+00    1.64840E-01
 5.80000E+00    1.24216E-01
 6.00000E+00    9.37990E-02
 6.20000E+00    7.08182E-02
 6.40000E+00    5.36619E-02
 6.60000E+00    4.06793E-02
 6.80000E+00    3.08748E-02
 7.00000E+00    2.34907E-02
 7.20000E+00    1.78581E-02
 7.40000E+00    1.36067E-02
 7.60000E+00    1.03697E-02
 7.80000E+00    7.90526E-03
 8.00000E+00    6.03876E-03
 8.50000E+00    3.08807E-03
 9.00000E+00    1.58820E-03
 9.50000E+00    8.21159E-04
 1.00000E+01    4.26704E-04
 1.05000E+01    2.22915E-04
 1.10000E+01    1.17168E-04
 1.15000E+01    6.20053E-05
 1.20000E+01    3.30626E-05
 1.25000E+01    1.77755E-05
 1.30000E+01    9.63908E-06
 1.35000E+01    5.27195E-06
 1.40000E+01    2.90778E-06
 1.45000E+01    1.61668E-06
 1.50000E+01    9.05390E-07
 1.60000E+01    2.89520E-07
 1.70000E+01    9.41770E-08
 1.80000E+01    3.13630E-08
 1.90000E+01    1.06410E-08
 2.00000E+01    3.68200E-09
 2.10000E+01    1.30030E-09
 2.20000E+01    4.68160E-10
 2.30000E+01    1.72170E-10
 2.40000E+01    6.44600E-11
 2.50000E+01    2.45710E-11
 2.60000E+01    9.49500E-12
 2.70000E+01    3.71760E-12
 2.80000E+01    1.47480E-12
 2.90000E+01    5.93090E-13
 3.00000E+01    2.41800E-13
