# n + Hg199 : (n,n'19)  
# jeff3.3    A.J. Koning and D. Rochman        EVAL-DEC15
# uncertainties: n
# # energies =    77
#   E(MeV)       xs(mb) 
 9.73912E-01    0.00000E+00
 1.00000E+00    1.12447E-01
 1.00919E+00    2.05759E-01
 1.04125E+00    5.31286E-01
 1.10960E+00    1.22529E+00
 1.20000E+00    2.14318E+00
 1.22736E+00    2.64122E+00
 1.27413E+00    3.49258E+00
 1.28056E+00    3.60963E+00
 1.32438E+00    4.40730E+00
 1.33453E+00    4.59206E+00
 1.36408E+00    5.12996E+00
 1.36579E+00    5.16109E+00
 1.40000E+00    5.78382E+00
 1.44680E+00    6.46436E+00
 1.60000E+00    8.69212E+00
 1.80000E+00    8.94578E+00
 2.00000E+00    7.95978E+00
 2.20000E+00    6.72396E+00
 2.40000E+00    5.57196E+00
 2.60000E+00    4.57751E+00
 2.80000E+00    3.73889E+00
 3.00000E+00    3.03330E+00
 3.20000E+00    2.44015E+00
 3.40000E+00    1.94476E+00
 3.60000E+00    1.53682E+00
 3.80000E+00    1.20589E+00
 4.00000E+00    9.41671E-01
 4.20000E+00    7.32794E-01
 4.40000E+00    5.68894E-01
 4.60000E+00    4.40728E-01
 4.80000E+00    3.40856E-01
 5.00000E+00    2.63206E-01
 5.20000E+00    2.02957E-01
 5.40000E+00    1.56367E-01
 5.60000E+00    1.19924E-01
 5.80000E+00    9.21160E-02
 6.00000E+00    7.08748E-02
 6.20000E+00    5.44679E-02
 6.40000E+00    4.19873E-02
 6.60000E+00    3.23712E-02
 6.80000E+00    2.49811E-02
 7.00000E+00    1.93095E-02
 7.20000E+00    1.49176E-02
 7.40000E+00    1.15472E-02
 7.60000E+00    8.93385E-03
 7.80000E+00    6.91560E-03
 8.00000E+00    5.36012E-03
 8.50000E+00    2.83800E-03
 9.00000E+00    1.50557E-03
 9.50000E+00    7.99523E-04
 1.00000E+01    4.24922E-04
 1.05000E+01    2.26199E-04
 1.10000E+01    1.20793E-04
 1.15000E+01    6.48041E-05
 1.20000E+01    3.49793E-05
 1.25000E+01    1.90192E-05
 1.30000E+01    1.04244E-05
 1.35000E+01    5.76039E-06
 1.40000E+01    3.20888E-06
 1.45000E+01    1.80116E-06
 1.50000E+01    1.01786E-06
 1.60000E+01    3.30830E-07
 1.70000E+01    1.09100E-07
 1.80000E+01    3.67470E-08
 1.90000E+01    1.25870E-08
 2.00000E+01    4.39220E-09
 2.10000E+01    1.56330E-09
 2.20000E+01    5.67040E-10
 2.30000E+01    2.10020E-10
 2.40000E+01    7.91550E-11
 2.50000E+01    3.03560E-11
 2.60000E+01    1.17940E-11
 2.70000E+01    4.64000E-12
 2.80000E+01    1.84860E-12
 2.90000E+01    7.46250E-13
 3.00000E+01    3.05330E-13
