# n + Hg199 : (n,n'21)  
# jeff3.3    A.J. Koning and D. Rochman        EVAL-DEC15
# uncertainties: n
# # energies =    74
#   E(MeV)       xs(mb) 
 1.04125E+00    0.00000E+00
 1.10960E+00    9.28978E+00
 1.20000E+00    2.15765E+01
 1.22736E+00    2.30321E+01
 1.27413E+00    2.55203E+01
 1.28056E+00    2.58623E+01
 1.32438E+00    2.81936E+01
 1.33453E+00    2.87336E+01
 1.36408E+00    3.03056E+01
 1.36579E+00    3.03966E+01
 1.40000E+00    3.22166E+01
 1.44680E+00    3.26824E+01
 1.60000E+00    3.42071E+01
 1.80000E+00    2.79003E+01
 2.00000E+00    2.02041E+01
 2.20000E+00    1.41023E+01
 2.40000E+00    9.82182E+00
 2.60000E+00    6.90394E+00
 2.80000E+00    4.90990E+00
 3.00000E+00    3.52665E+00
 3.20000E+00    2.55110E+00
 3.40000E+00    1.85378E+00
 3.60000E+00    1.35124E+00
 3.80000E+00    9.86952E-01
 4.00000E+00    7.22486E-01
 4.20000E+00    5.30077E-01
 4.40000E+00    3.89945E-01
 4.60000E+00    2.87645E-01
 4.80000E+00    2.12798E-01
 5.00000E+00    1.57875E-01
 5.20000E+00    1.17426E-01
 5.40000E+00    8.75687E-02
 5.60000E+00    6.51938E-02
 5.80000E+00    4.87213E-02
 6.00000E+00    3.65292E-02
 6.20000E+00    2.73975E-02
 6.40000E+00    2.06253E-02
 6.60000E+00    1.55353E-02
 6.80000E+00    1.17141E-02
 7.00000E+00    8.84855E-03
 7.20000E+00    6.67630E-03
 7.40000E+00    5.04798E-03
 7.60000E+00    3.81405E-03
 7.80000E+00    2.88369E-03
 8.00000E+00    2.18406E-03
 8.50000E+00    1.09421E-03
 9.00000E+00    5.52823E-04
 9.50000E+00    2.81812E-04
 1.00000E+01    1.44885E-04
 1.05000E+01    7.50815E-05
 1.10000E+01    3.92070E-05
 1.15000E+01    2.06260E-05
 1.20000E+01    1.09337E-05
 1.25000E+01    5.84252E-06
 1.30000E+01    3.14829E-06
 1.35000E+01    1.71102E-06
 1.40000E+01    9.37930E-07
 1.45000E+01    5.18460E-07
 1.50000E+01    2.88800E-07
 1.60000E+01    9.14820E-08
 1.70000E+01    2.95210E-08
 1.80000E+01    9.76480E-09
 1.90000E+01    3.29360E-09
 2.00000E+01    1.13330E-09
 2.10000E+01    3.97900E-10
 2.20000E+01    1.42320E-10
 2.30000E+01    5.19680E-11
 2.40000E+01    1.93190E-11
 2.50000E+01    7.31820E-12
 2.60000E+01    2.81470E-12
 2.70000E+01    1.09860E-12
 2.80000E+01    4.34920E-13
 2.90000E+01    1.74600E-13
 3.00000E+01    7.10460E-14
