# n + Hg199 : (n,n'09)  
# jeff3.3    A.J. Koning and D. Rochman        EVAL-DEC15
# uncertainties: n
# # energies =    90
#   E(MeV)       xs(mb) 
 6.70381E-01    0.00000E+00
 6.84653E-01    6.26350E+00
 6.98523E-01    1.23506E+01
 7.00000E-01    1.29988E+01
 7.02544E-01    1.33015E+01
 7.15006E-01    1.47840E+01
 7.39731E-01    1.77256E+01
 7.54204E-01    1.94474E+01
 7.62848E-01    2.04758E+01
 8.00000E-01    2.48957E+01
 8.26167E-01    2.71269E+01
 8.28057E-01    2.72881E+01
 9.00000E-01    3.34226E+01
 9.73912E-01    3.89335E+01
 1.00000E+00    4.08787E+01
 1.00919E+00    4.13752E+01
 1.04125E+00    4.31073E+01
 1.10960E+00    4.67999E+01
 1.20000E+00    5.16838E+01
 1.22736E+00    5.26365E+01
 1.27413E+00    5.42650E+01
 1.28056E+00    5.44889E+01
 1.32438E+00    5.60146E+01
 1.33453E+00    5.63681E+01
 1.36408E+00    5.73970E+01
 1.36579E+00    5.74565E+01
 1.40000E+00    5.86477E+01
 1.44680E+00    5.83728E+01
 1.60000E+00    5.74728E+01
 1.80000E+00    4.67082E+01
 2.00000E+00    3.55729E+01
 2.20000E+00    2.69147E+01
 2.40000E+00    2.05184E+01
 2.60000E+00    1.57290E+01
 2.80000E+00    1.20674E+01
 3.00000E+00    9.23277E+00
 3.20000E+00    7.03007E+00
 3.40000E+00    5.32439E+00
 3.60000E+00    4.01516E+00
 3.80000E+00    3.01782E+00
 4.00000E+00    2.26411E+00
 4.20000E+00    1.69689E+00
 4.40000E+00    1.27139E+00
 4.60000E+00    9.52482E-01
 4.80000E+00    7.13602E-01
 5.00000E+00    5.34507E-01
 5.20000E+00    4.00037E-01
 5.40000E+00    2.99085E-01
 5.60000E+00    2.22552E-01
 5.80000E+00    1.65709E-01
 6.00000E+00    1.23392E-01
 6.20000E+00    9.17477E-02
 6.40000E+00    6.83626E-02
 6.60000E+00    5.09123E-02
 6.80000E+00    3.79533E-02
 7.00000E+00    2.83590E-02
 7.20000E+00    2.11689E-02
 7.40000E+00    1.58583E-02
 7.60000E+00    1.18845E-02
 7.80000E+00    8.91928E-03
 8.00000E+00    6.71585E-03
 8.50000E+00    3.33038E-03
 9.00000E+00    1.67495E-03
 9.50000E+00    8.53279E-04
 1.00000E+01    4.39420E-04
 1.05000E+01    2.28391E-04
 1.10000E+01    1.19717E-04
 1.15000E+01    6.32638E-05
 1.20000E+01    3.37081E-05
 1.25000E+01    1.81148E-05
 1.30000E+01    9.82014E-06
 1.35000E+01    5.36931E-06
 1.40000E+01    2.96017E-06
 1.45000E+01    1.64468E-06
 1.50000E+01    9.20150E-07
 1.60000E+01    2.93400E-07
 1.70000E+01    9.51270E-08
 1.80000E+01    3.15950E-08
 1.90000E+01    1.07020E-08
 2.00000E+01    3.70000E-09
 2.10000E+01    1.30600E-09
 2.20000E+01    4.69910E-10
 2.30000E+01    1.72680E-10
 2.40000E+01    6.46050E-11
 2.50000E+01    2.46160E-11
 2.60000E+01    9.51210E-12
 2.70000E+01    3.72470E-12
 2.80000E+01    1.47770E-12
 2.90000E+01    5.94190E-13
 3.00000E+01    2.42190E-13
