# n + Br  0 : (n,p)g
# jendl.ad   K.Shibata, A.Ichihara, S.Kunieda  EVAL-APR13
# uncertainties: n
# # energies =    75
#   E(MeV)          xs(mb) 
 1.00000E-11    0.00000E+00
 5.00000E-01    0.00000E+00
 5.00000E-01    0.00000E+00
 5.32848E-01    4.91613E-01
 5.64883E-01    5.29540E-01
 6.06686E-01    5.75919E-01
 6.45793E-01    6.16500E-01
 6.99697E-01    6.68580E-01
 7.65037E-01    7.26577E-01
 8.38816E-01    7.86387E-01
 9.27440E-01    8.51633E-01
 1.00000E+00    9.00570E-01
 1.05199E+00    9.44604E-01
 1.14956E+00    1.02165E+00
 1.22863E+00    1.07944E+00
 1.35755E+00    1.16613E+00
 1.50000E+00    1.25281E+00
 1.61186E+00    1.37355E+00
 1.70119E+00    1.46410E+00
 1.84455E+00    1.59993E+00
 2.00000E+00    1.73576E+00
 2.11474E+00    1.90075E+00
 2.27539E+00    2.11731E+00
 2.42277E+00    2.30294E+00
 2.50000E+00    2.39575E+00
 2.66170E+00    2.70413E+00
 2.85004E+00    3.04054E+00
 3.00000E+00    3.29285E+00
 3.11787E+00    3.59518E+00
 3.30341E+00    4.04867E+00
 3.50000E+00    4.50216E+00
 3.61881E+00    4.91806E+00
 3.80464E+00    5.54189E+00
 4.00000E+00    6.16573E+00
 4.21152E+00    7.09543E+00
 4.40171E+00    7.89230E+00
 4.50000E+00    8.29076E+00
 4.71228E+00    9.48647E+00
 4.90219E+00    1.05113E+01
 5.00000E+00    1.10237E+01
 5.24404E+00    1.27381E+01
 5.50000E+00    1.44525E+01
 5.74456E+00    1.65354E+01
 6.00000E+00    1.86182E+01
 6.37122E+00    2.14869E+01
 6.50000E+00    2.24433E+01
 6.74537E+00    2.53656E+01
 7.00000E+00    2.82880E+01
 7.37175E+00    3.26633E+01
 7.87196E+00    3.84064E+01
 8.00000E+00    3.98346E+01
 8.50000E+00    4.50285E+01
 9.00000E+00    4.92434E+01
 9.50000E+00    5.20585E+01
 1.00000E+01    5.31688E+01
 1.05000E+01    5.25494E+01
 1.10000E+01    5.03743E+01
 1.15000E+01    4.70227E+01
 1.20000E+01    4.29544E+01
 1.27476E+01    3.64709E+01
 1.30000E+01    3.43330E+01
 1.35000E+01    3.03658E+01
 1.40000E+01    2.68386E+01
 1.45000E+01    2.38032E+01
 1.50000E+01    2.12500E+01
 1.55000E+01    1.91366E+01
 1.60000E+01    1.74037E+01
 1.65000E+01    1.59856E+01
 1.70000E+01    1.48176E+01
 1.75000E+01    1.38433E+01
 1.80000E+01    1.30180E+01
 1.85000E+01    1.23024E+01
 1.90000E+01    1.16704E+01
 1.95000E+01    1.11021E+01
 2.00000E+01    1.05854E+01
