# n + U 238 :  n        
# tendl.2019 IAEA Consortium                   EVAL-DEC14
# uncertainties: y
# # energies =    42
#   E(MeV)       xs(mb)       xslow(mb)      xsupp(mb)
 2.68935E+00    0.00000E+00    0.00000E+00    0.00000E+00
 4.70000E+00    3.51950E-17    3.51950E-17    3.51950E-17
 5.00000E+00    1.79820E-15    1.79820E-15    1.79820E-15
 5.50000E+00    7.65110E-13    7.65110E-13    7.65110E-13
 5.70000E+00    4.24520E-12    4.24520E-12    4.24520E-12
 6.00000E+00    3.40880E-11    3.40880E-11    3.40880E-11
 6.30000E+00    2.02780E-10    2.02780E-10    2.02780E-10
 6.40000E+00    3.38180E-10    3.38180E-10    3.38180E-10
 6.50000E+00    5.74210E-10    5.74210E-10    5.74210E-10
 7.00000E+00    8.09070E-09    8.09070E-09    8.09070E-09
 7.50000E+00    8.88310E-08    8.88310E-08    8.88310E-08
 8.00000E+00    8.70460E-07    8.70460E-07    8.70460E-07
 8.50000E+00    5.60220E-06    5.60220E-06    5.60220E-06
 9.00000E+00    2.87207E-05    2.87207E-05    2.87207E-05
 9.60000E+00    1.63084E-04    1.63084E-04    1.63084E-04
 1.00000E+01    4.39134E-04    4.39134E-04    4.39134E-04
 1.05000E+01    1.30031E-03    1.30031E-03    1.30031E-03
 1.10000E+01    3.68114E-03    3.68114E-03    3.68114E-03
 1.15000E+01    8.31522E-03    8.31522E-03    8.31522E-03
 1.20000E+01    1.79826E-02    1.79826E-02    1.79826E-02
 1.25000E+01    3.52765E-02    3.52765E-02    3.52765E-02
 1.27500E+01    5.21038E-02    5.21038E-02    5.21038E-02
 1.30000E+01    6.98776E-02    6.98776E-02    6.98776E-02
 1.35000E+01    1.17481E-01    1.17481E-01    1.17481E-01
 1.40000E+01    2.03684E-01    2.03684E-01    2.03684E-01
 1.45000E+01    3.27757E-01    3.27757E-01    3.27757E-01
 1.50000E+01    5.00439E-01    5.00439E-01    5.00439E-01
 1.60000E+01    1.06485E+00    1.06485E+00    1.06485E+00
 1.70000E+01    1.92048E+00    1.92048E+00    1.92048E+00
 1.80000E+01    3.09416E+00    3.09416E+00    3.09416E+00
 1.90000E+01    4.42693E+00    4.42693E+00    4.42693E+00
 2.00000E+01    5.60900E+00    5.60900E+00    5.60900E+00
 2.10000E+01    6.69223E+00    6.69223E+00    6.69223E+00
 2.20000E+01    7.67706E+00    7.67706E+00    7.67706E+00
 2.30000E+01    8.29571E+00    8.29571E+00    8.29571E+00
 2.40000E+01    8.78444E+00    8.78444E+00    8.78444E+00
 2.50000E+01    8.93143E+00    8.93143E+00    8.93143E+00
 2.60000E+01    9.22428E+00    9.22428E+00    9.22428E+00
 2.70000E+01    9.27642E+00    9.27642E+00    9.27642E+00
 2.80000E+01    9.31214E+00    9.31214E+00    9.31214E+00
 2.90000E+01    9.11947E+00    9.11947E+00    9.11947E+00
 3.00000E+01    8.92423E+00    8.92423E+00    8.92423E+00
