# n + B  10 : (n,el)    
# endfb8.0   G.M.Hale                          EVAL-FEB17
# uncertainties: y
# # energies =    69
#   E(MeV)       xs(mb)       xslow(mb)      xsupp(mb)
 1.00000E-10    5.67103E+03    5.18962E+03    6.15244E+03
 5.00000E-09    2.47022E+03    2.26053E+03    2.67991E+03
 1.00000E-08    2.30722E+03    2.11137E+03    2.50308E+03
 1.50000E-08    2.24277E+03    2.05238E+03    2.43315E+03
 2.00000E-08    2.20786E+03    2.02044E+03    2.39528E+03
 2.50000E-08    2.18595E+03    2.00039E+03    2.37150E+03
 3.00000E-08    2.17083E+03    1.98656E+03    2.35511E+03
 3.50000E-08    2.15816E+03    1.97496E+03    2.34136E+03
 4.20000E-08    2.14678E+03    1.96455E+03    2.32901E+03
 5.00000E-08    2.13811E+03    1.95662E+03    2.31961E+03
 5.80000E-08    2.13136E+03    1.95044E+03    2.31229E+03
 6.70000E-08    2.12503E+03    1.94464E+03    2.30541E+03
 8.00000E-08    2.11841E+03    1.93859E+03    2.29823E+03
 1.00000E-07    2.11119E+03    1.93198E+03    2.29039E+03
 1.40000E-07    2.10534E+03    1.92663E+03    2.28405E+03
 1.80000E-07    2.10190E+03    1.92349E+03    2.28032E+03
 2.20000E-07    2.09977E+03    1.92153E+03    2.27800E+03
 2.50000E-07    2.09856E+03    1.92043E+03    2.27669E+03
 2.80000E-07    2.09763E+03    1.91958E+03    2.27568E+03
 3.00000E-07    2.09690E+03    1.91891E+03    2.27490E+03
 3.20000E-07    2.09632E+03    1.91838E+03    2.27426E+03
 3.50000E-07    2.09553E+03    1.91766E+03    2.27340E+03
 4.00000E-07    2.09423E+03    1.91647E+03    2.27198E+03
 5.00000E-07    2.09306E+03    1.91540E+03    2.27071E+03
 6.25000E-07    2.09194E+03    1.91438E+03    2.26950E+03
 7.80000E-07    2.09144E+03    1.91393E+03    2.26895E+03
 8.50000E-07    2.09117E+03    1.91368E+03    2.26866E+03
 9.10000E-07    2.09096E+03    1.91349E+03    2.26843E+03
 9.50000E-07    2.09084E+03    1.91338E+03    2.26830E+03
 9.72000E-07    2.09074E+03    1.91329E+03    2.26819E+03
 9.96000E-07    2.09064E+03    1.91320E+03    2.26809E+03
 1.02000E-06    2.09054E+03    1.91311E+03    2.26798E+03
 1.04500E-06    2.09044E+03    1.91301E+03    2.26786E+03
 1.07100E-06    2.09033E+03    1.91292E+03    2.26775E+03
 1.09700E-06    2.09026E+03    1.91285E+03    2.26767E+03
 1.12300E-06    2.09025E+03    1.91284E+03    2.26766E+03
 1.15000E-06    2.09023E+03    1.91282E+03    2.26764E+03
 1.30000E-06    2.09019E+03    1.91279E+03    2.26759E+03
 1.50000E-06    2.09010E+03    1.91272E+03    2.26749E+03
 2.10000E-06    2.08998E+03    1.91261E+03    2.26735E+03
 2.60000E-06    2.08985E+03    1.91249E+03    2.26721E+03
 3.30000E-06    2.08969E+03    1.91235E+03    2.26704E+03
 4.00000E-06    2.08906E+03    1.91180E+03    2.26632E+03
 9.87700E-06    2.08769E+03    1.91059E+03    2.26480E+03
 1.59680E-05    2.08579E+03    1.90891E+03    2.26267E+03
 2.77000E-05    2.08427E+03    1.90752E+03    2.26101E+03
 4.80520E-05    2.08369E+03    1.90715E+03    2.26022E+03
 7.55014E-05    2.08253E+03    1.90634E+03    2.25873E+03
 1.48728E-04    2.07926E+03    1.90334E+03    2.25518E+03
 3.67262E-04    2.07447E+03    1.90055E+03    2.24839E+03
 9.06898E-04    2.07263E+03    1.90066E+03    2.24460E+03
 1.42510E-03    2.07404E+03    1.90195E+03    2.24612E+03
 2.23945E-03    2.07639E+03    1.90751E+03    2.24527E+03
 3.51910E-03    2.08296E+03    1.91993E+03    2.24599E+03
 5.53000E-03    2.09983E+03    1.94156E+03    2.25810E+03
 9.11800E-03    2.13187E+03    1.98272E+03    2.28103E+03
 1.50300E-02    2.19312E+03    2.06554E+03    2.32070E+03
 2.47800E-02    2.29900E+03    2.16526E+03    2.43274E+03
 4.08500E-02    2.47963E+03    2.37979E+03    2.57947E+03
 6.73400E-02    2.77610E+03    2.70901E+03    2.84318E+03
 1.11000E-01    3.22690E+03    3.18047E+03    3.27333E+03
 1.83000E-01    3.76030E+03    3.72685E+03    3.79376E+03
 3.02000E-01    3.83592E+03    3.81760E+03    3.85424E+03
 5.00000E-01    3.13708E+03    3.12102E+03    3.15315E+03
 8.21000E-01    2.22756E+03    2.20841E+03    2.24672E+03
 1.35300E+00    1.60798E+03    1.59542E+03    1.62053E+03
 2.23100E+00    1.62412E+03    1.61144E+03    1.63680E+03
 3.67900E+00    1.09543E+03    1.08688E+03    1.10398E+03
 6.06500E+00    9.36802E+02    9.29490E+02    9.44115E+02
