# n + Ge 72 : (n,xa)    
# jeff3.3    A.J. Koning and D. Rochman        EVAL-JAN16
# 
# # energies =   127
#   E(MeV)        xs(mb) 
 7.01127E-01    1.70713E-11
 8.00000E-01    8.88580E-11
 8.45708E-01    1.17221E-10
 9.00000E-01    1.50910E-10
 1.00000E+00    5.32640E-10
 1.20000E+00    3.67540E-09
 1.40000E+00    2.27320E-08
 1.48452E+00    6.00890E-08
 1.60000E+00    1.11130E-07
 1.75254E+00    3.96571E-07
 1.80000E+00    4.85380E-07
 2.00000E+00    1.95059E-06
 2.05746E+00    3.24673E-06
 2.07774E+00    3.70419E-06
 2.09389E+00    4.06849E-06
 2.14659E+00    5.25726E-06
 2.20000E+00    6.46204E-06
 2.40000E+00    1.94180E-05
 2.42970E+00    2.52017E-05
 2.43599E+00    2.64267E-05
 2.49845E+00    3.85901E-05
 2.54013E+00    4.67068E-05
 2.55006E+00    4.86406E-05
 2.60000E+00    5.83659E-05
 2.60807E+00    6.25505E-05
 2.61963E+00    6.85449E-05
 2.79290E+00    1.58392E-04
 2.80000E+00    1.62074E-04
 2.81091E+00    1.69024E-04
 2.91594E+00    2.35927E-04
 2.93763E+00    2.49743E-04
 2.98119E+00    2.77490E-04
 2.98475E+00    2.79758E-04
 2.99178E+00    2.84236E-04
 3.00000E+00    2.89472E-04
 3.07655E+00    4.68764E-04
 3.07821E+00    4.72652E-04
 3.12354E+00    5.78822E-04
 3.13273E+00    6.00347E-04
 3.13757E+00    6.11683E-04
 3.17274E+00    6.94057E-04
 3.17491E+00    6.99139E-04
 3.18302E+00    7.18134E-04
 3.20000E+00    7.57904E-04
 3.40000E+00    1.34863E-03
 3.60000E+00    2.18723E-03
 3.80000E+00    4.44218E-03
 4.00000E+00    6.52207E-03
 4.20000E+00    1.14093E-02
 4.40000E+00    1.74683E-02
 4.60000E+00    2.49856E-02
 4.80000E+00    3.96602E-02
 5.00000E+00    5.45026E-02
 5.20000E+00    7.86100E-02
 5.40000E+00    1.07435E-01
 5.60000E+00    1.42515E-01
 5.80000E+00    1.95586E-01
 6.00000E+00    2.53763E-01
 6.20000E+00    3.28439E-01
 6.40000E+00    4.08214E-01
 6.60000E+00    5.18657E-01
 6.80000E+00    6.44563E-01
 7.00000E+00    7.58713E-01
 7.20000E+00    9.56460E-01
 7.40000E+00    1.09357E+00
 7.60000E+00    1.34135E+00
 7.80000E+00    1.54860E+00
 8.00000E+00    1.70771E+00
 8.50000E+00    2.35238E+00
 9.00000E+00    3.11921E+00
 9.50000E+00    4.00355E+00
 1.00000E+01    5.02633E+00
 1.05000E+01    6.25438E+00
 1.10000E+01    7.80352E+00
 1.15000E+01    9.31564E+00
 1.20000E+01    1.06265E+01
 1.25000E+01    1.19993E+01
 1.30000E+01    1.33355E+01
 1.35000E+01    1.47910E+01
 1.40000E+01    1.62605E+01
 1.45000E+01    1.77798E+01
 1.50000E+01    1.93660E+01
 1.60000E+01    2.25368E+01
 1.70000E+01    2.54951E+01
 1.80000E+01    2.79827E+01
 1.90000E+01    2.97157E+01
 2.00000E+01    3.15588E+01
 2.10000E+01    3.31600E+01
 2.20000E+01    3.45083E+01
 2.30000E+01    3.56777E+01
 2.40000E+01    3.64435E+01
 2.50000E+01    3.72728E+01
 2.60000E+01    3.79976E+01
 2.70000E+01    3.86542E+01
 2.80000E+01    3.92858E+01
 2.90000E+01    3.98581E+01
 3.00000E+01    4.05012E+01
 3.00000E+01    4.03014E+01
 3.20000E+01    4.22718E+01
 3.40000E+01    4.46612E+01
 3.60000E+01    4.63742E+01
 3.80000E+01    4.75459E+01
 4.00000E+01    4.81705E+01
 4.20000E+01    4.89366E+01
 4.40000E+01    4.98040E+01
 4.60000E+01    5.08289E+01
 4.80000E+01    5.23092E+01
 5.00000E+01    5.38078E+01
 5.20000E+01    5.52733E+01
 5.40000E+01    5.67536E+01
 5.60000E+01    5.83038E+01
 5.80000E+01    6.04609E+01
 6.00000E+01    6.25936E+01
 6.50000E+01    6.90755E+01
 7.00000E+01    7.54424E+01
 7.50000E+01    8.18952E+01
 8.00000E+01    8.84959E+01
 9.00000E+01    1.02389E+02
 1.00000E+02    1.16698E+02
 1.10000E+02    1.29118E+02
 1.20000E+02    1.42122E+02
 1.30000E+02    1.54417E+02
 1.40000E+02    1.66399E+02
 1.50000E+02    1.78196E+02
 1.60000E+02    1.90100E+02
 1.80000E+02    2.17099E+02
 2.00000E+02    2.56617E+02
