# n + Ge 72 : (n,tot)   
# jeff3.3    A.J. Koning and D. Rochman        EVAL-JAN16
# uncertainties: y
# # energies =    69
#   E(MeV)       xs(mb)       xslow(mb)      xsupp(mb)
 1.00000E-10    1.15638E+04    1.15638E+04    1.15638E+04
 5.00000E-09    5.66205E+03    5.66205E+03    5.66205E+03
 1.00000E-08    5.21098E+03    5.21098E+03    5.21098E+03
 1.50000E-08    4.99054E+03    4.99054E+03    4.99054E+03
 2.00000E-08    4.85277E+03    4.85277E+03    4.85277E+03
 2.50000E-08    4.75608E+03    4.75608E+03    4.75608E+03
 3.00000E-08    4.68343E+03    4.68343E+03    4.68343E+03
 3.50000E-08    4.61709E+03    4.61709E+03    4.61709E+03
 4.20000E-08    4.55271E+03    4.55271E+03    4.55271E+03
 5.00000E-08    4.49933E+03    4.49933E+03    4.49933E+03
 5.80000E-08    4.45472E+03    4.45472E+03    4.45472E+03
 6.70000E-08    4.40954E+03    4.40954E+03    4.40954E+03
 8.00000E-08    4.35824E+03    4.35824E+03    4.35824E+03
 1.00000E-07    4.29500E+03    4.29500E+03    4.29500E+03
 1.40000E-07    4.23710E+03    4.23710E+03    4.23710E+03
 1.80000E-07    4.19817E+03    4.19817E+03    4.19817E+03
 2.20000E-07    4.17249E+03    4.17249E+03    4.17249E+03
 2.50000E-07    4.15497E+03    4.15497E+03    4.15497E+03
 2.80000E-07    4.14234E+03    4.14234E+03    4.14234E+03
 3.00000E-07    4.13367E+03    4.13367E+03    4.13367E+03
 3.20000E-07    4.12368E+03    4.12368E+03    4.12368E+03
 3.50000E-07    4.11015E+03    4.11015E+03    4.11015E+03
 4.00000E-07    4.08995E+03    4.08995E+03    4.08995E+03
 5.00000E-07    4.06683E+03    4.06683E+03    4.06683E+03
 6.25000E-07    4.04615E+03    4.04615E+03    4.04615E+03
 7.80000E-07    4.03282E+03    4.03282E+03    4.03282E+03
 8.50000E-07    4.02674E+03    4.02674E+03    4.02674E+03
 9.10000E-07    4.02213E+03    4.02213E+03    4.02213E+03
 9.50000E-07    4.01952E+03    4.01952E+03    4.01952E+03
 9.72000E-07    4.01789E+03    4.01789E+03    4.01789E+03
 9.96000E-07    4.01618E+03    4.01618E+03    4.01618E+03
 1.02000E-06    4.01444E+03    4.01444E+03    4.01444E+03
 1.04500E-06    4.01262E+03    4.01262E+03    4.01262E+03
 1.07100E-06    4.01077E+03    4.01077E+03    4.01077E+03
 1.09700E-06    4.00892E+03    4.00892E+03    4.00892E+03
 1.12300E-06    4.00704E+03    4.00704E+03    4.00704E+03
 1.15000E-06    4.00259E+03    4.00259E+03    4.00259E+03
 1.30000E-06    3.99433E+03    3.99433E+03    3.99433E+03
 1.50000E-06    3.97904E+03    3.97904E+03    3.97904E+03
 2.10000E-06    3.96495E+03    3.96495E+03    3.96495E+03
 2.60000E-06    3.95080E+03    3.95080E+03    3.95080E+03
 3.30000E-06    3.93832E+03    3.93832E+03    3.93832E+03
 4.00000E-06    3.90917E+03    3.90917E+03    3.90917E+03
 9.87700E-06    3.86583E+03    3.86583E+03    3.86583E+03
 1.59680E-05    3.81751E+03    3.81751E+03    3.81751E+03
 2.77000E-05    3.74601E+03    3.74601E+03    3.74601E+03
 4.80520E-05    3.64480E+03    3.64480E+03    3.64480E+03
 7.55014E-05    3.47002E+03    3.47002E+03    3.47002E+03
 1.48728E-04    3.09932E+03    3.09932E+03    3.09932E+03
 3.67262E-04    2.42679E+03    2.42679E+03    2.42679E+03
 9.06898E-04    1.80027E+03    1.80027E+03    1.80027E+03
 1.42510E-03    1.42165E+03    1.42165E+03    1.42165E+03
 2.23945E-03    2.82660E+03    2.82660E+03    2.82660E+03
 3.51910E-03    1.77576E+04    1.77576E+04    1.77576E+04
 5.53000E-03    4.26162E+03    4.26162E+03    4.26162E+03
 9.11800E-03    2.42394E+04    2.42394E+04    2.42394E+04
 1.50300E-02    2.22826E+04    2.22826E+04    2.22826E+04
 2.47800E-02    2.08944E+04    2.08944E+04    2.08944E+04
 4.08500E-02    2.05686E+04    2.05686E+04    2.05686E+04
 6.73400E-02    8.17803E+03    7.41056E+03    8.94551E+03
 1.11000E-01    7.73725E+03    7.01114E+03    8.46336E+03
 1.83000E-01    7.26696E+03    6.58499E+03    7.94893E+03
 3.02000E-01    6.69447E+03    5.77323E+03    7.61570E+03
 5.00000E-01    5.88616E+03    5.07616E+03    6.69617E+03
 8.21000E-01    4.80395E+03    4.30142E+03    5.30648E+03
 1.35300E+00    3.72133E+03    3.41470E+03    4.02796E+03
 2.23100E+00    3.40183E+03    3.15042E+03    3.65324E+03
 3.67900E+00    3.72517E+03    3.59024E+03    3.86011E+03
 6.06500E+00    3.83226E+03    3.70894E+03    3.95558E+03
