# n + Hf177 : (n,a)     
# endfb8.0   R.Q. Wright, T. Kawano            EVAL-OCT16
# uncertainties: n
# # energies =    79
#   E(MeV)       xs(mb) 
 5.00000E-02    0.00000E+00
 5.00000E-02    1.05080E-04
 6.00000E-02    1.02013E-04
 8.00000E-02    9.82228E-05
 1.00000E-01    9.63862E-05
 1.20000E-01    9.32006E-05
 1.50000E-01    8.93589E-05
 2.00000E-01    8.77876E-05
 2.50000E-01    9.00053E-05
 3.00000E-01    9.16259E-05
 3.50000E-01    8.88205E-05
 4.00000E-01    8.86892E-05
 4.50000E-01    9.07378E-05
 5.00000E-01    8.82016E-05
 6.00000E-01    8.44850E-05
 7.00000E-01    8.07662E-05
 8.00000E-01    8.10688E-05
 9.00000E-01    8.65197E-05
 1.00000E+00    9.66764E-05
 1.10000E+00    1.07663E-04
 1.20000E+00    1.21378E-04
 1.30000E+00    1.37412E-04
 1.40000E+00    1.55748E-04
 1.50000E+00    1.76698E-04
 1.60000E+00    2.00659E-04
 1.70000E+00    2.27952E-04
 1.80000E+00    2.58809E-04
 1.90000E+00    2.93127E-04
 2.00000E+00    3.31133E-04
 2.10000E+00    3.69821E-04
 2.20000E+00    4.14822E-04
 2.30000E+00    4.62797E-04
 2.40000E+00    5.12422E-04
 2.50000E+00    5.59206E-04
 2.60000E+00    6.06726E-04
 2.70000E+00    6.51252E-04
 2.80000E+00    6.97903E-04
 2.90000E+00    7.45576E-04
 3.00000E+00    7.93867E-04
 3.10000E+00    8.45323E-04
 3.20000E+00    9.00257E-04
 3.30000E+00    9.58172E-04
 3.40000E+00    1.01969E-03
 3.50000E+00    1.08520E-03
 3.60000E+00    1.15474E-03
 3.80000E+00    1.30351E-03
 4.00000E+00    1.46245E-03
 4.50000E+00    1.89712E-03
 5.00000E+00    2.39946E-03
 5.50000E+00    2.99620E-03
 6.00000E+00    3.79299E-03
 6.50000E+00    5.02880E-03
 7.00000E+00    7.37336E-03
 7.50000E+00    1.22301E-02
 8.00000E+00    2.23609E-02
 8.50000E+00    4.28626E-02
 9.00000E+00    8.17288E-02
 9.50000E+00    1.50577E-01
 1.00000E+01    2.64603E-01
 1.05000E+01    4.40819E-01
 1.10000E+01    6.94076E-01
 1.15000E+01    1.03238E+00
 1.20000E+01    1.46019E+00
 1.25000E+01    1.97659E+00
 1.30000E+01    2.57546E+00
 1.35000E+01    3.24484E+00
 1.40000E+01    3.96593E+00
 1.45000E+01    4.71282E+00
 1.50000E+01    5.45341E+00
 1.55000E+01    6.14545E+00
 1.60000E+01    6.74934E+00
 1.65000E+01    7.23950E+00
 1.70000E+01    7.60890E+00
 1.75000E+01    7.86185E+00
 1.80000E+01    8.00577E+00
 1.85000E+01    8.05427E+00
 1.90000E+01    8.02335E+00
 1.95000E+01    7.90240E+00
 2.00000E+01    7.75827E+00
