# n + Hf177 : (n,el)    
# endfb8.0   R.Q. Wright, T. Kawano            EVAL-OCT16
# uncertainties: n
# # energies =   171
#   E(MeV)       xs(mb) 
 1.00000E-11    2.97364E+02
 1.00000E-07    5.08348E+02
 4.13990E-07    1.42748E+03
 5.31580E-07    2.83753E+03
 6.82560E-07    8.97783E+03
 8.76420E-07    2.65736E+05
 1.12540E-06    1.22889E+05
 1.44500E-06    2.22934E+04
 1.85540E-06    5.88004E+05
 2.37240E-06    8.74647E+05
 3.05900E-06    1.40114E+04
 3.92790E-06    3.10868E+03
 5.04350E-06    1.61857E+05
 6.47600E-06    1.82606E+05
 8.31530E-06    6.89436E+04
 1.06770E-05    6.85671E+03
 1.37100E-05    1.10695E+04
 1.76030E-05    4.93626E+03
 2.26030E-05    5.75232E+03
 2.92030E-05    1.28876E+04
 3.72670E-05    7.85066E+03
 4.78510E-05    4.73220E+04
 6.14420E-05    1.31724E+05
 7.88930E-05    1.85223E+04
 1.01300E-04    2.40124E+04
 1.30070E-04    2.91109E+04
 1.67020E-04    2.41392E+04
 2.14450E-04    3.23341E+04
 2.75360E-04    4.79581E+04
 3.53580E-04    4.08570E+04
 4.54000E-04    3.81687E+04
 5.82950E-04    3.06346E+04
 7.48520E-04    2.86628E+04
 9.61120E-04    2.67933E+04
 1.23410E-03    2.50269E+04
 1.58460E-03    2.33656E+04
 2.03470E-03    2.22567E+04
 2.24870E-03    2.16459E+04
 2.48520E-03    2.11981E+04
 2.61260E-03    2.09050E+04
 2.74650E-03    2.04734E+04
 3.03540E-03    1.99127E+04
 3.35460E-03    1.93693E+04
 3.70740E-03    1.87090E+04
 4.30740E-03    1.77035E+04
 5.53080E-03    1.65307E+04
 7.10170E-03    1.54365E+04
 9.11880E-03    1.44233E+04
 1.17090E-02    1.34908E+04
 1.50340E-02    1.26300E+04
 1.93050E-02    1.20265E+04
 2.18750E-02    1.17231E+04
 2.35790E-02    1.15744E+04
 2.41760E-02    1.15017E+04
 2.47880E-02    1.13926E+04
 2.60580E-02    1.12697E+04
 2.70000E-02    1.11435E+04
 2.85000E-02    1.09159E+04
 3.18280E-02    1.06674E+04
 3.43070E-02    1.03442E+04
 4.08680E-02    9.97037E+03
 4.63090E-02    9.28200E+03
 5.24750E-02    8.50617E+03
 5.65620E-02    8.35905E+03
 6.73790E-02    8.22729E+03
 7.20000E-02    8.13131E+03
 7.95000E-02    8.04727E+03
 8.25000E-02    8.00298E+03
 8.65170E-02    7.91369E+03
 9.80370E-02    7.78547E+03
 1.11090E-01    7.69380E+03
 1.16790E-01    7.54658E+03
 1.22770E-01    7.46683E+03
 1.29070E-01    7.40053E+03
 1.35690E-01    7.33089E+03
 1.42640E-01    7.25766E+03
 1.49960E-01    7.18657E+03
 1.57640E-01    7.12839E+03
 1.65730E-01    7.06819E+03
 1.74220E-01    7.00490E+03
 1.83160E-01    6.93834E+03
 1.92550E-01    6.86841E+03
 2.02420E-01    6.80373E+03
 2.12800E-01    6.74622E+03
 2.23710E-01    6.68579E+03
 2.35180E-01    6.62224E+03
 2.47240E-01    6.52033E+03
 2.73240E-01    6.41141E+03
 2.87250E-01    6.35369E+03
 2.94520E-01    6.32675E+03
 2.97200E-01    6.31599E+03
 2.98500E-01    6.30312E+03
 3.01970E-01    6.24225E+03
 3.33730E-01    5.99600E+03
 3.68830E-01    5.87978E+03
 3.87740E-01    5.72844E+03
 4.07620E-01    5.59011E+03
 4.50490E-01    5.37400E+03
 4.97870E-01    5.19222E+03
 5.23400E-01    5.09152E+03
 5.50230E-01    4.97669E+03
 5.78440E-01    4.84209E+03
 6.08100E-01    4.75665E+03
 6.39280E-01    4.66074E+03
 6.72060E-01    4.48770E+03
 7.06510E-01    4.40451E+03
 7.42740E-01    4.32284E+03
 7.80820E-01    4.17480E+03
 8.20850E-01    4.14799E+03
 8.62940E-01    4.03099E+03
 9.07180E-01    3.94682E+03
 9.61640E-01    3.89184E+03
 1.00260E+00    3.82344E+03
 1.10800E+00    3.77024E+03
 1.16480E+00    3.74372E+03
 1.22460E+00    3.72152E+03
 1.28730E+00    3.70420E+03
 1.35340E+00    3.69175E+03
 1.42270E+00    3.68264E+03
 1.49570E+00    3.67354E+03
 1.57240E+00    3.66885E+03
 1.65300E+00    3.66521E+03
 1.73770E+00    3.66138E+03
 1.82680E+00    3.65735E+03
 1.92050E+00    3.65312E+03
 2.01900E+00    3.64867E+03
 2.12250E+00    3.64367E+03
 2.23130E+00    3.63484E+03
 2.30690E+00    3.62809E+03
 2.34570E+00    3.62465E+03
 2.36530E+00    3.62233E+03
 2.38520E+00    3.61643E+03
 2.46600E+00    3.60330E+03
 2.59240E+00    3.57967E+03
 2.72530E+00    3.55329E+03
 2.86500E+00    3.52190E+03
 3.01190E+00    3.48194E+03
 3.16640E+00    3.43957E+03
 3.32870E+00    3.35962E+03
 3.67880E+00    3.23747E+03
 4.06570E+00    3.09559E+03
 4.49330E+00    2.97943E+03
 4.72370E+00    2.89906E+03
 4.96590E+00    2.81858E+03
 5.22050E+00    2.74048E+03
 5.48810E+00    2.66356E+03
 5.76950E+00    2.59149E+03
 6.06530E+00    2.52476E+03
 6.37630E+00    2.47243E+03
 6.59240E+00    2.44470E+03
 6.70320E+00    2.41110E+03
 7.04690E+00    2.36722E+03
 7.40820E+00    2.33319E+03
 7.78800E+00    2.31098E+03
 8.18730E+00    2.30010E+03
 8.60710E+00    2.30363E+03
 9.04840E+00    2.31840E+03
 9.51230E+00    2.34508E+03
 1.00000E+01    2.38365E+03
 1.05130E+01    2.43216E+03
 1.10520E+01    2.48849E+03
 1.16180E+01    2.55020E+03
 1.22140E+01    2.61455E+03
 1.28400E+01    2.67864E+03
 1.34990E+01    2.72479E+03
 1.38400E+01    2.75403E+03
 1.41910E+01    2.78140E+03
 1.45500E+01    2.80676E+03
 1.49180E+01    2.83992E+03
 1.56830E+01    2.87434E+03
 1.64870E+01    2.89525E+03
