# n + Hf177 : (n,n'05)  
# endfb8.0   R.Q. Wright, T. Kawano            EVAL-OCT16
# uncertainties: n
# # energies =    69
#   E(MeV)       xs(mb) 
 3.92223E-01    0.00000E+00
 4.00000E-01    1.41603E+00
 4.50000E-01    8.49985E+00
 5.00000E-01    1.96588E+01
 6.00000E-01    3.77742E+01
 7.00000E-01    4.54678E+01
 8.00000E-01    4.70552E+01
 9.00000E-01    4.58216E+01
 1.00000E+00    4.05570E+01
 1.10000E+00    3.42361E+01
 1.20000E+00    2.84754E+01
 1.30000E+00    2.34295E+01
 1.40000E+00    1.92257E+01
 1.50000E+00    1.58434E+01
 1.60000E+00    1.31567E+01
 1.70000E+00    1.10151E+01
 1.80000E+00    9.28770E+00
 1.90000E+00    7.87446E+00
 2.00000E+00    6.70253E+00
 2.10000E+00    5.67928E+00
 2.20000E+00    4.86194E+00
 2.30000E+00    4.16407E+00
 2.40000E+00    3.56613E+00
 2.50000E+00    3.05265E+00
 2.60000E+00    2.61125E+00
 2.70000E+00    2.23178E+00
 2.80000E+00    1.90569E+00
 2.90000E+00    1.62568E+00
 3.00000E+00    1.38549E+00
 3.10000E+00    1.17978E+00
 3.20000E+00    1.00383E+00
 3.30000E+00    8.53974E-01
 3.40000E+00    7.26455E-01
 3.50000E+00    6.18023E-01
 3.60000E+00    5.25889E-01
 3.80000E+00    3.81061E-01
 4.00000E+00    2.76332E-01
 4.50000E+00    1.23922E-01
 5.00000E+00    5.54896E-02
 5.50000E+00    2.46468E-02
 6.00000E+00    1.07744E-02
 6.50000E+00    4.61860E-03
 7.00000E+00    1.96650E-03
 7.50000E+00    8.43614E-04
 8.00000E+00    3.67490E-04
 8.50000E+00    1.63142E-04
 9.00000E+00    7.38891E-05
 9.50000E+00    8.25430E-05
 1.00000E+01    5.94588E-05
 1.05000E+01    4.66267E-05
 1.10000E+01    3.85361E-05
 1.15000E+01    3.28808E-05
 1.20000E+01    2.83935E-05
 1.25000E+01    2.44645E-05
 1.30000E+01    2.10410E-05
 1.35000E+01    1.79076E-05
 1.40000E+01    1.49678E-05
 1.45000E+01    1.22471E-05
 1.50000E+01    9.68440E-06
 1.55000E+01    7.31670E-06
 1.60000E+01    5.10311E-06
 1.65000E+01    3.03534E-06
 1.70000E+01    1.09037E-06
 1.75000E+01    8.92180E-10
 1.80000E+01    4.96140E-10
 1.85000E+01    2.80230E-10
 1.90000E+01    1.59550E-10
 1.95000E+01    9.13670E-11
 2.00000E+01    5.26780E-11
