# n + U 237 : (n,n'31)  
# jeff3.3    P. Romain, B. Morillon, H. Duarte EVAL-JUL08
# uncertainties: n
# # energies =   231
#   E(MeV)       xs(mb) 
 9.80000E-01    0.00000E+00
 9.90000E-01    1.02710E-09
 1.00000E+00    5.73720E-09
 1.01000E+00    8.42360E-09
 1.02000E+00    8.58020E-09
 1.03000E+00    1.03320E-08
 1.04000E+00    1.47910E-08
 1.05000E+00    1.73920E-08
 1.06000E+00    2.02510E-08
 1.07000E+00    2.33930E-08
 1.08000E+00    2.68530E-08
 1.09000E+00    3.25810E-08
 1.10000E+00    3.81160E-08
 1.11000E+00    4.47960E-08
 1.12000E+00    5.42490E-08
 1.13000E+00    6.28330E-08
 1.14000E+00    7.22640E-08
 1.15000E+00    7.08650E-08
 1.16000E+00    8.04900E-08
 1.17000E+00    7.39210E-08
 1.18000E+00    8.30480E-08
 1.19000E+00    1.14360E-07
 1.20000E+00    1.29250E-07
 1.21000E+00    1.46340E-07
 1.22000E+00    1.55910E-07
 1.23000E+00    1.74980E-07
 1.24000E+00    1.95640E-07
 1.25000E+00    2.10160E-07
 1.26000E+00    2.33920E-07
 1.27000E+00    2.59710E-07
 1.28000E+00    2.87520E-07
 1.29000E+00    3.28450E-07
 1.30000E+00    4.26730E-07
 1.31000E+00    4.74580E-07
 1.32000E+00    4.34650E-07
 1.33000E+00    4.80000E-07
 1.34000E+00    5.28530E-07
 1.35000E+00    5.80430E-07
 1.36000E+00    6.35880E-07
 1.37000E+00    6.94680E-07
 1.38000E+00    7.56980E-07
 1.39000E+00    8.22860E-07
 1.40000E+00    8.98040E-07
 1.41000E+00    9.81720E-07
 1.42000E+00    1.22649E-06
 1.43000E+00    1.33440E-06
 1.44000E+00    1.71334E-06
 1.44613E+00    1.80016E-06
 1.45000E+00    1.85503E-06
 1.46000E+00    2.00386E-06
 1.47000E+00    2.16037E-06
 1.48000E+00    2.32523E-06
 1.49000E+00    2.49930E-06
 1.50000E+00    2.69315E-06
 1.60000E+00    3.90265E-06
 1.70000E+00    9.00697E-06
 1.75745E+00    1.24496E-05
 1.80000E+00    1.49998E-05
 1.90000E+00    2.35213E-05
 1.95830E+00    3.02059E-05
 2.00000E+00    3.49877E-05
 2.10000E+00    4.96566E-05
 2.15915E+00    6.02693E-05
 2.20000E+00    6.75991E-05
 2.30000E+00    8.86091E-05
 2.30979E+00    9.09623E-05
 2.40000E+00    1.12654E-04
 2.50000E+00    1.38317E-04
 2.60000E+00    1.65086E-04
 2.70000E+00    1.92206E-04
 2.80000E+00    2.18474E-04
 2.90000E+00    2.42137E-04
 3.00000E+00    2.63362E-04
 3.10000E+00    2.70123E-04
 3.20000E+00    2.82740E-04
 3.30000E+00    2.90550E-04
 3.40000E+00    2.94238E-04
 3.50000E+00    2.93582E-04
 3.60000E+00    2.90693E-04
 3.70000E+00    2.85491E-04
 3.80000E+00    2.74549E-04
 3.90000E+00    2.59926E-04
 4.00000E+00    2.43968E-04
 4.10000E+00    2.27926E-04
 4.20000E+00    2.18940E-04
 4.30000E+00    2.11463E-04
 4.40000E+00    2.05572E-04
 4.50000E+00    2.00267E-04
 4.60000E+00    1.88266E-04
 4.70000E+00    1.82506E-04
 4.80000E+00    1.76050E-04
 4.90000E+00    1.63748E-04
 5.00000E+00    1.56092E-04
 5.10000E+00    1.44080E-04
 5.20000E+00    1.35701E-04
 5.30000E+00    1.24198E-04
 5.40000E+00    1.13241E-04
 5.50000E+00    1.02836E-04
 5.60000E+00    9.47530E-05
 5.70000E+00    8.53717E-05
 5.80000E+00    7.67130E-05
 5.90000E+00    6.87088E-05
 6.00000E+00    6.13389E-05
 6.10000E+00    5.46522E-05
 6.20000E+00    4.85475E-05
 6.30000E+00    4.30251E-05
 6.40000E+00    3.78176E-05
 6.50000E+00    3.33977E-05
 6.60000E+00    2.94665E-05
 6.70000E+00    2.59476E-05
 6.80000E+00    2.27335E-05
 6.90000E+00    1.99682E-05
 7.00000E+00    1.75160E-05
 7.10000E+00    1.53633E-05
 7.20000E+00    1.34360E-05
 7.30000E+00    1.17635E-05
 7.40000E+00    1.02759E-05
 7.50000E+00    8.98525E-06
 7.60000E+00    7.85944E-06
 7.70000E+00    6.86501E-06
 7.80000E+00    5.99882E-06
 7.90000E+00    5.23557E-06
 8.00000E+00    4.57114E-06
 8.10000E+00    3.99159E-06
 8.20000E+00    3.48640E-06
 8.30000E+00    3.04315E-06
 8.40000E+00    2.65675E-06
 8.50000E+00    2.31836E-06
 8.60000E+00    2.02517E-06
 8.70000E+00    1.76848E-06
 8.80000E+00    1.54409E-06
 8.90000E+00    1.34828E-06
 9.00000E+00    1.17708E-06
 9.10000E+00    1.02857E-06
 9.20000E+00    8.98700E-07
 9.30000E+00    7.85210E-07
 9.40000E+00    6.86100E-07
 9.50000E+00    5.99450E-07
 9.60000E+00    5.24160E-07
 9.70000E+00    4.58390E-07
 9.80000E+00    4.00870E-07
 9.90000E+00    3.50590E-07
 1.00000E+01    3.06650E-07
 1.01000E+01    2.68420E-07
 1.02000E+01    2.34990E-07
 1.03000E+01    2.05730E-07
 1.04000E+01    1.80130E-07
 1.05000E+01    1.57730E-07
 1.06000E+01    1.38230E-07
 1.07000E+01    1.21150E-07
 1.08000E+01    1.06200E-07
 1.09000E+01    9.30950E-08
 1.10000E+01    8.16210E-08
 1.11000E+01    7.16190E-08
 1.12000E+01    6.28540E-08
 1.13000E+01    5.51690E-08
 1.14000E+01    4.84290E-08
 1.15000E+01    4.25190E-08
 1.16000E+01    3.73580E-08
 1.17000E+01    3.28300E-08
 1.18000E+01    2.88560E-08
 1.19000E+01    2.53670E-08
 1.20000E+01    2.23030E-08
 1.21000E+01    1.96240E-08
 1.22000E+01    1.72710E-08
 1.23000E+01    1.52030E-08
 1.24000E+01    1.33850E-08
 1.25000E+01    1.17860E-08
 1.26000E+01    1.03860E-08
 1.27000E+01    9.15580E-09
 1.28000E+01    8.07250E-09
 1.29000E+01    7.11890E-09
 1.30000E+01    6.27930E-09
 1.31000E+01    5.54270E-09
 1.32000E+01    4.89420E-09
 1.33000E+01    4.32260E-09
 1.34000E+01    3.81870E-09
 1.35000E+01    3.37450E-09
 1.36000E+01    2.98420E-09
 1.37000E+01    2.64010E-09
 1.38000E+01    2.33620E-09
 1.39000E+01    2.06790E-09
 1.40000E+01    1.83080E-09
 1.41000E+01    1.62220E-09
 1.42000E+01    1.43780E-09
 1.43000E+01    1.27480E-09
 1.44000E+01    1.13060E-09
 1.45000E+01    1.00300E-09
 1.46000E+01    8.90390E-10
 1.47000E+01    7.90850E-10
 1.48000E+01    7.02630E-10
 1.49000E+01    6.24430E-10
 1.50000E+01    5.55110E-10
 1.51000E+01    4.93860E-10
 1.52000E+01    4.39570E-10
 1.53000E+01    3.91370E-10
 1.54000E+01    3.48570E-10
 1.55000E+01    3.10540E-10
 1.56000E+01    2.76860E-10
 1.57000E+01    2.46960E-10
 1.58000E+01    2.20360E-10
 1.59000E+01    1.96690E-10
 1.60000E+01    1.74740E-10
 1.65000E+01    9.98930E-11
 1.70000E+01    5.77540E-11
 1.75000E+01    3.37820E-11
 1.80000E+01    1.99940E-11
 1.85000E+01    1.19700E-11
 1.90000E+01    7.24970E-12
 1.95000E+01    4.44090E-12
 2.00000E+01    2.75120E-12
 2.05000E+01    1.72300E-12
 2.10000E+01    1.09070E-12
 2.15000E+01    6.96970E-13
 2.20000E+01    4.49990E-13
 2.25000E+01    2.93470E-13
 2.30000E+01    1.93450E-13
 2.35000E+01    1.28980E-13
 2.40000E+01    8.69670E-14
 2.45000E+01    5.92900E-14
 2.50000E+01    4.08980E-14
 2.55000E+01    2.85630E-14
 2.60000E+01    2.02110E-14
 2.65000E+01    1.44540E-14
 2.70000E+01    1.04780E-14
 2.75000E+01    7.68110E-15
 2.80000E+01    5.71050E-15
 2.85000E+01    4.29470E-15
 2.90000E+01    3.27110E-15
 2.95000E+01    2.52090E-15
 3.00000E+01    1.96600E-15
