# n + Al 27 : (n,g)     
# jendl.ad   Y.HARIMA,H.KITAZAWA,T.FUKAHORI    EVAL-MAR88
# uncertainties: n
# # energies =    69
#   E(MeV)       xs(mb) 
 1.00000E-10    1.61070E+03
 5.00000E-09    4.38945E+02
 1.00000E-08    3.32506E+02
 1.50000E-08    2.79298E+02
 2.00000E-08    2.45441E+02
 2.50000E-08    2.21241E+02
 3.00000E-08    2.02769E+02
 3.50000E-08    1.85740E+02
 4.20000E-08    1.69160E+02
 5.00000E-08    1.55410E+02
 5.80000E-08    1.43923E+02
 6.70000E-08    1.32300E+02
 8.00000E-08    1.19133E+02
 1.00000E-07    1.02945E+02
 1.40000E-07    8.82009E+01
 1.80000E-07    7.83265E+01
 2.20000E-07    7.18434E+01
 2.50000E-07    6.74442E+01
 2.80000E-07    6.43002E+01
 3.00000E-07    6.20919E+01
 3.20000E-07    5.96359E+01
 3.50000E-07    5.62570E+01
 4.00000E-07    5.12593E+01
 5.00000E-07    4.56138E+01
 6.25000E-07    4.06029E+01
 7.80000E-07    3.74474E+01
 8.50000E-07    3.59661E+01
 9.10000E-07    3.49325E+01
 9.50000E-07    3.43342E+01
 9.72000E-07    3.39123E+01
 9.96000E-07    3.34886E+01
 1.02000E-06    3.30738E+01
 1.04500E-06    3.26557E+01
 1.07100E-06    3.22454E+01
 1.09700E-06    3.18518E+01
 1.12300E-06    3.14600E+01
 1.15000E-06    3.02870E+01
 1.30000E-06    2.82564E+01
 1.50000E-06    2.49594E+01
 2.10000E-06    2.16055E+01
 2.60000E-06    1.92045E+01
 3.30000E-06    1.71575E+01
 4.00000E-06    1.30055E+01
 9.87700E-06    9.00729E+00
 1.59680E-05    6.89318E+00
 2.77000E-05    5.17697E+00
 4.80520E-05    3.98637E+00
 7.55014E-05    2.98453E+00
 1.48728E-04    1.99464E+00
 3.67262E-04    1.26127E+00
 9.06898E-04    9.06913E-01
 1.42510E-03    7.59879E-01
 2.23945E-03    6.56457E-01
 3.51910E-03    8.62546E-01
 5.53000E-03    4.34516E+01
 9.11800E-03    4.75069E-01
 1.50300E-02    6.20017E-01
 2.47800E-02    6.52549E+00
 4.08500E-02    6.23844E-01
 6.73400E-02    1.56039E+00
 1.11000E-01    2.66303E+00
 1.83000E-01    1.34330E+00
 3.02000E-01    9.77315E-01
 5.00000E-01    8.11291E-01
 8.21000E-01    7.02834E-01
 1.35300E+00    5.88023E-01
 2.23100E+00    4.49783E-01
 3.67900E+00    3.32095E-01
 6.06500E+00    2.77547E-01
