# n + Gd154 : (n,xh)    
# jendl4.0   N.Iwamoto,A.Zukeran,K.Shibata     EVAL-Dec09
# 
# # energies =    96
#   E(MeV)        xs(mb) 
 1.05000E-01    0.00000E+00
 1.10000E-01    0.00000E+00
 1.20000E-01    0.00000E+00
 1.23876E-01    0.00000E+00
 1.30000E-01    0.00000E+00
 1.40000E-01    0.00000E+00
 1.50000E-01    0.00000E+00
 1.60000E-01    0.00000E+00
 1.70000E-01    0.00000E+00
 1.80000E-01    0.00000E+00
 1.90000E-01    0.00000E+00
 2.00000E-01    0.00000E+00
 2.25000E-01    0.00000E+00
 2.50000E-01    0.00000E+00
 2.75000E-01    0.00000E+00
 3.00000E-01    0.00000E+00
 3.73426E-01    0.00000E+00
 4.00000E-01    0.00000E+00
 5.00000E-01    0.00000E+00
 6.00000E-01    0.00000E+00
 6.85116E-01    0.00000E+00
 7.00000E-01    0.00000E+00
 7.22358E-01    0.00000E+00
 8.00000E-01    0.00000E+00
 8.20824E-01    0.00000E+00
 9.00000E-01    0.00000E+00
 1.00000E+00    0.00000E+00
 1.00278E+00    0.00000E+00
 1.05444E+00    0.00000E+00
 1.10000E+00    0.00000E+00
 1.13517E+00    0.00000E+00
 1.14340E+00    0.00000E+00
 1.15193E+00    0.00000E+00
 1.18983E+00    0.00000E+00
 1.20000E+00    0.00000E+00
 1.24118E+00    0.00000E+00
 1.24940E+00    0.00000E+00
 1.25982E+00    0.00000E+00
 1.27206E+00    0.00000E+00
 1.28536E+00    0.00000E+00
 1.30000E+00    0.00000E+00
 1.30265E+00    0.00000E+00
 1.30396E+00    0.00000E+00
 1.37394E+00    0.00000E+00
 1.37395E+00    0.00000E+00
 1.37482E+00    0.00000E+00
 1.40000E+00    0.00000E+00
 1.40668E+00    0.00000E+00
 1.41327E+00    0.00000E+00
 1.42369E+00    0.00000E+00
 1.42743E+00    0.00000E+00
 1.44197E+00    0.00000E+00
 1.50000E+00    0.00000E+00
 1.60000E+00    0.00000E+00
 1.70000E+00    0.00000E+00
 1.80000E+00    0.00000E+00
 1.90000E+00    0.00000E+00
 2.00000E+00    0.00000E+00
 2.25000E+00    0.00000E+00
 2.50000E+00    0.00000E+00
 2.75000E+00    0.00000E+00
 3.00000E+00    0.00000E+00
 3.50000E+00    0.00000E+00
 4.00000E+00    0.00000E+00
 4.50000E+00    0.00000E+00
 5.00000E+00    0.00000E+00
 5.50000E+00    0.00000E+00
 6.00000E+00    4.35802E-35
 6.50000E+00    7.37512E-33
 7.00000E+00    4.27326E-31
 7.50000E+00    1.13720E-30
 8.00000E+00    2.58230E-30
 8.50000E+00    2.15990E-28
 9.00000E+00    2.20130E-24
 9.50000E+00    2.38750E-21
 1.00000E+01    5.41490E-19
 1.05000E+01    3.95260E-17
 1.10000E+01    1.23310E-15
 1.15000E+01    2.00040E-14
 1.20000E+01    1.94420E-13
 1.25000E+01    1.26060E-12
 1.30000E+01    5.99890E-12
 1.35000E+01    2.40240E-11
 1.40000E+01    1.04880E-10
 1.45000E+01    5.97660E-10
 1.50000E+01    3.68830E-09
 1.55000E+01    1.97620E-08
 1.60000E+01    9.56990E-08
 1.65000E+01    3.65790E-07
 1.70000E+01    1.12087E-06
 1.75000E+01    3.38824E-06
 1.80000E+01    8.56348E-06
 1.85000E+01    2.00507E-05
 1.90000E+01    4.16028E-05
 1.95000E+01    8.51209E-05
 2.00000E+01    1.59207E-04
