# n + Gd154 : (n,tot)   
# jendl4.0   N.Iwamoto,A.Zukeran,K.Shibata     EVAL-Dec09
# uncertainties: n
# # energies =   171
#   E(MeV)       xs(mb) 
 1.00000E-11    9.43581E+05
 1.00000E-07    3.39997E+04
 4.13990E-07    2.15847E+04
 5.31580E-07    1.87965E+04
 6.82560E-07    1.63097E+04
 8.76420E-07    1.41116E+04
 1.12540E-06    1.21949E+04
 1.44500E-06    1.05504E+04
 1.85540E-06    9.17358E+03
 2.37240E-06    8.02649E+03
 3.05900E-06    7.09120E+03
 3.92790E-06    6.35418E+03
 5.04350E-06    5.77402E+03
 6.47600E-06    5.32857E+03
 8.31530E-06    5.18623E+03
 1.06770E-05    2.88331E+04
 1.37100E-05    4.74941E+03
 1.76030E-05    4.92819E+05
 2.26030E-05    1.62689E+05
 2.92030E-05    6.30720E+03
 3.72670E-05    2.19813E+04
 4.78510E-05    2.46200E+04
 6.14420E-05    1.34257E+05
 7.88930E-05    7.70270E+04
 1.01300E-04    1.82380E+05
 1.30070E-04    1.68285E+05
 1.67020E-04    6.32073E+04
 2.14450E-04    7.29115E+04
 2.75360E-04    1.21578E+04
 3.53580E-04    3.85779E+04
 4.54000E-04    2.42020E+04
 5.82950E-04    2.87638E+04
 7.48520E-04    5.96774E+04
 9.61120E-04    3.75537E+04
 1.23410E-03    1.87670E+04
 1.58460E-03    2.22323E+04
 2.03470E-03    2.47543E+04
 2.24870E-03    1.51366E+04
 2.48520E-03    1.61298E+04
 2.61260E-03    3.13169E+04
 2.74650E-03    2.18280E+04
 3.03540E-03    2.11433E+04
 3.35460E-03    2.03556E+04
 3.70740E-03    1.94324E+04
 4.30740E-03    1.81865E+04
 5.53080E-03    1.67593E+04
 7.10170E-03    1.54918E+04
 9.11880E-03    1.43837E+04
 1.17090E-02    1.34501E+04
 1.50340E-02    1.25855E+04
 1.93050E-02    1.19841E+04
 2.18750E-02    1.17039E+04
 2.35790E-02    1.15671E+04
 2.41760E-02    1.14996E+04
 2.47880E-02    1.13992E+04
 2.60580E-02    1.12851E+04
 2.70000E-02    1.11672E+04
 2.85000E-02    1.09566E+04
 3.18280E-02    1.07341E+04
 3.43070E-02    1.04452E+04
 4.08680E-02    1.01266E+04
 4.63090E-02    9.88194E+03
 5.24750E-02    9.69028E+03
 5.65620E-02    9.46138E+03
 6.73790E-02    9.25442E+03
 7.20000E-02    9.12031E+03
 7.95000E-02    9.01191E+03
 8.25000E-02    8.94522E+03
 8.65170E-02    8.81085E+03
 9.80370E-02    8.62684E+03
 1.11090E-01    8.50955E+03
 1.16790E-01    8.44347E+03
 1.22770E-01    8.37801E+03
 1.29070E-01    8.31281E+03
 1.35690E-01    8.24832E+03
 1.42640E-01    8.18426E+03
 1.49960E-01    8.12191E+03
 1.57640E-01    8.06241E+03
 1.65730E-01    8.00976E+03
 1.74220E-01    7.95788E+03
 1.83160E-01    7.90631E+03
 1.92550E-01    7.85511E+03
 2.02420E-01    7.80434E+03
 2.12800E-01    7.75382E+03
 2.23710E-01    7.70351E+03
 2.35180E-01    7.65361E+03
 2.47240E-01    7.59129E+03
 2.73240E-01    7.54062E+03
 2.87250E-01    7.51603E+03
 2.94520E-01    7.50456E+03
 2.97200E-01    7.49998E+03
 2.98500E-01    7.49470E+03
 3.01970E-01    7.46204E+03
 3.33730E-01    7.39949E+03
 3.68830E-01    7.34851E+03
 3.87740E-01    7.31935E+03
 4.07620E-01    7.29816E+03
 4.50490E-01    7.26850E+03
 4.97870E-01    7.24919E+03
 5.23400E-01    7.23842E+03
 5.50230E-01    7.22709E+03
 5.78440E-01    7.21518E+03
 6.08100E-01    7.20266E+03
 6.39280E-01    7.19402E+03
 6.72060E-01    7.18941E+03
 7.06510E-01    7.18456E+03
 7.42740E-01    7.17946E+03
 7.80820E-01    7.17410E+03
 8.20850E-01    7.16847E+03
 8.62940E-01    7.16255E+03
 9.07180E-01    7.15579E+03
 9.61640E-01    7.14922E+03
 1.00260E+00    7.13904E+03
 1.10800E+00    7.11893E+03
 1.16480E+00    7.09886E+03
 1.22460E+00    7.07777E+03
 1.28730E+00    7.05560E+03
 1.35340E+00    7.02965E+03
 1.42270E+00    6.99357E+03
 1.49570E+00    6.95493E+03
 1.57240E+00    6.91433E+03
 1.65300E+00    6.87166E+03
 1.73770E+00    6.82186E+03
 1.82680E+00    6.76481E+03
 1.92050E+00    6.70483E+03
 2.01900E+00    6.64178E+03
 2.12250E+00    6.57552E+03
 2.23130E+00    6.51781E+03
 2.30690E+00    6.48200E+03
 2.34570E+00    6.46375E+03
 2.36530E+00    6.45141E+03
 2.38520E+00    6.42011E+03
 2.46600E+00    6.35562E+03
 2.59240E+00    6.27469E+03
 2.72530E+00    6.18961E+03
 2.86500E+00    6.10085E+03
 3.01190E+00    6.01424E+03
 3.16640E+00    5.92495E+03
 3.32870E+00    5.78798E+03
 3.67880E+00    5.60557E+03
 4.06570E+00    5.42608E+03
 4.49330E+00    5.29505E+03
 4.72370E+00    5.21476E+03
 4.96590E+00    5.13585E+03
 5.22050E+00    5.06783E+03
 5.48810E+00    5.00057E+03
 5.76950E+00    4.94484E+03
 6.06530E+00    4.89454E+03
 6.37630E+00    4.86053E+03
 6.59240E+00    4.84209E+03
 6.70320E+00    4.82511E+03
 7.04690E+00    4.80394E+03
 7.40820E+00    4.79426E+03
 7.78800E+00    4.79338E+03
 8.18730E+00    4.80797E+03
 8.60710E+00    4.82819E+03
 9.04840E+00    4.86130E+03
 9.51230E+00    4.89777E+03
 1.00000E+01    4.94138E+03
 1.05130E+01    4.99275E+03
 1.10520E+01    5.04784E+03
 1.16180E+01    5.10462E+03
 1.22140E+01    5.16058E+03
 1.28400E+01    5.21280E+03
 1.34990E+01    5.24752E+03
 1.38400E+01    5.26773E+03
 1.41910E+01    5.28469E+03
 1.45500E+01    5.29817E+03
 1.49180E+01    5.31111E+03
 1.56830E+01    5.31351E+03
 1.64870E+01    5.29712E+03
