# n + Gd154 : (n,el)    
# jendl4.0   N.Iwamoto,A.Zukeran,K.Shibata     EVAL-Dec09
# uncertainties: n
# # energies =   171
#   E(MeV)       xs(mb) 
 1.00000E-11    1.02343E+04
 1.00000E-07    6.37153E+03
 4.13990E-07    6.17277E+03
 5.31580E-07    6.07925E+03
 6.82560E-07    5.96907E+03
 8.76420E-07    5.84135E+03
 1.12540E-06    5.69709E+03
 1.44500E-06    5.53644E+03
 1.85540E-06    5.36197E+03
 2.37240E-06    5.17299E+03
 3.05900E-06    4.97097E+03
 3.92790E-06    4.75898E+03
 5.04350E-06    4.53040E+03
 6.47600E-06    4.26918E+03
 8.31530E-06    3.91838E+03
 1.06770E-05    3.70098E+03
 1.37100E-05    2.89879E+03
 1.76030E-05    7.71679E+04
 2.26030E-05    3.88172E+04
 2.92030E-05    5.63434E+03
 3.72670E-05    4.53219E+03
 4.78510E-05    4.30774E+03
 6.14420E-05    3.47371E+04
 7.88930E-05    2.77933E+04
 1.01300E-04    9.78351E+04
 1.30070E-04    8.25852E+04
 1.67020E-04    3.42216E+04
 2.14450E-04    3.54335E+04
 2.75360E-04    8.53807E+03
 3.53580E-04    2.34882E+04
 4.54000E-04    1.46554E+04
 5.82950E-04    2.07200E+04
 7.48520E-04    4.74596E+04
 9.61120E-04    2.87311E+04
 1.23410E-03    1.30478E+04
 1.58460E-03    1.67730E+04
 2.03470E-03    2.13504E+04
 2.24870E-03    1.21948E+04
 2.48520E-03    1.28164E+04
 2.61260E-03    2.87853E+04
 2.74650E-03    1.84671E+04
 3.03540E-03    1.80625E+04
 3.35460E-03    1.74937E+04
 3.70740E-03    1.68186E+04
 4.30740E-03    1.58738E+04
 5.53080E-03    1.47768E+04
 7.10170E-03    1.37748E+04
 9.11880E-03    1.28740E+04
 1.17090E-02    1.20978E+04
 1.50340E-02    1.13744E+04
 1.93050E-02    1.08689E+04
 2.18750E-02    1.06321E+04
 2.35790E-02    1.05164E+04
 2.41760E-02    1.04592E+04
 2.47880E-02    1.03742E+04
 2.60580E-02    1.02775E+04
 2.70000E-02    1.01776E+04
 2.85000E-02    9.99894E+03
 3.18280E-02    9.81110E+03
 3.43070E-02    9.56640E+03
 4.08680E-02    9.29774E+03
 4.63090E-02    9.09177E+03
 5.24750E-02    8.92966E+03
 5.65620E-02    8.73556E+03
 6.73790E-02    8.55986E+03
 7.20000E-02    8.44527E+03
 7.95000E-02    8.35209E+03
 8.25000E-02    8.29366E+03
 8.65170E-02    8.17566E+03
 9.80370E-02    8.01366E+03
 1.11090E-01    7.90985E+03
 1.16790E-01    7.85076E+03
 1.22770E-01    7.78566E+03
 1.29070E-01    7.70668E+03
 1.35690E-01    7.62448E+03
 1.42640E-01    7.53954E+03
 1.49960E-01    7.45422E+03
 1.57640E-01    7.37129E+03
 1.65730E-01    7.29452E+03
 1.74220E-01    7.21819E+03
 1.83160E-01    7.14165E+03
 1.92550E-01    7.06593E+03
 2.02420E-01    6.99013E+03
 2.12800E-01    6.91478E+03
 2.23710E-01    6.84023E+03
 2.35180E-01    6.76614E+03
 2.47240E-01    6.66556E+03
 2.73240E-01    6.57457E+03
 2.87250E-01    6.53002E+03
 2.94520E-01    6.50993E+03
 2.97200E-01    6.50191E+03
 2.98500E-01    6.49253E+03
 3.01970E-01    6.42988E+03
 3.33730E-01    6.31012E+03
 3.68830E-01    6.22357E+03
 3.87740E-01    6.16773E+03
 4.07620E-01    6.09635E+03
 4.50490E-01    6.00707E+03
 4.97870E-01    5.93630E+03
 5.23400E-01    5.89386E+03
 5.50230E-01    5.84993E+03
 5.78440E-01    5.80373E+03
 6.08100E-01    5.75582E+03
 6.39280E-01    5.71078E+03
 6.72060E-01    5.64881E+03
 7.06510E-01    5.56536E+03
 7.42740E-01    5.50228E+03
 7.80820E-01    5.44211E+03
 8.20850E-01    5.37549E+03
 8.62940E-01    5.29619E+03
 9.07180E-01    5.22009E+03
 9.61640E-01    5.15747E+03
 1.00260E+00    5.04949E+03
 1.10800E+00    4.93128E+03
 1.16480E+00    4.83804E+03
 1.22460E+00    4.74034E+03
 1.28730E+00    4.63913E+03
 1.35340E+00    4.53301E+03
 1.42270E+00    4.42909E+03
 1.49570E+00    4.33944E+03
 1.57240E+00    4.25074E+03
 1.65300E+00    4.16629E+03
 1.73770E+00    4.08136E+03
 1.82680E+00    3.99526E+03
 1.92050E+00    3.91258E+03
 2.01900E+00    3.82603E+03
 2.12250E+00    3.73708E+03
 2.23130E+00    3.66646E+03
 2.30690E+00    3.62321E+03
 2.34570E+00    3.60115E+03
 2.36530E+00    3.58626E+03
 2.38520E+00    3.54863E+03
 2.46600E+00    3.47595E+03
 2.59240E+00    3.38649E+03
 2.72530E+00    3.29307E+03
 2.86500E+00    3.20122E+03
 3.01190E+00    3.10630E+03
 3.16640E+00    3.01170E+03
 3.32870E+00    2.87501E+03
 3.67880E+00    2.69697E+03
 4.06570E+00    2.53281E+03
 4.49330E+00    2.41999E+03
 4.72370E+00    2.35243E+03
 4.96590E+00    2.29024E+03
 5.22050E+00    2.23713E+03
 5.48810E+00    2.18933E+03
 5.76950E+00    2.15021E+03
 6.06530E+00    2.12025E+03
 6.37630E+00    2.10063E+03
 6.59240E+00    2.09265E+03
 6.70320E+00    2.08569E+03
 7.04690E+00    2.08530E+03
 7.40820E+00    2.09375E+03
 7.78800E+00    2.11308E+03
 8.18730E+00    2.14388E+03
 8.60710E+00    2.18088E+03
 9.04840E+00    2.22581E+03
 9.51230E+00    2.29018E+03
 1.00000E+01    2.35502E+03
 1.05130E+01    2.42468E+03
 1.10520E+01    2.49705E+03
 1.16180E+01    2.56976E+03
 1.22140E+01    2.64014E+03
 1.28400E+01    2.70544E+03
 1.34990E+01    2.74938E+03
 1.38400E+01    2.77564E+03
 1.41910E+01    2.79870E+03
 1.45500E+01    2.81843E+03
 1.49180E+01    2.84129E+03
 1.56830E+01    2.85795E+03
 1.64870E+01    2.85714E+03
