# n + Gd154 : (n,xp)    
# jendl4.0   N.Iwamoto,A.Zukeran,K.Shibata     EVAL-Dec09
# 
# # energies =    96
#   E(MeV)        xs(mb) 
 1.05000E-01    0.00000E+00
 1.10000E-01    0.00000E+00
 1.20000E-01    0.00000E+00
 1.23876E-01    0.00000E+00
 1.30000E-01    0.00000E+00
 1.40000E-01    0.00000E+00
 1.50000E-01    0.00000E+00
 1.60000E-01    0.00000E+00
 1.70000E-01    0.00000E+00
 1.80000E-01    0.00000E+00
 1.90000E-01    0.00000E+00
 2.00000E-01    0.00000E+00
 2.25000E-01    0.00000E+00
 2.50000E-01    0.00000E+00
 2.75000E-01    0.00000E+00
 3.00000E-01    0.00000E+00
 3.73426E-01    0.00000E+00
 4.00000E-01    0.00000E+00
 5.00000E-01    0.00000E+00
 6.00000E-01    0.00000E+00
 6.85116E-01    0.00000E+00
 7.00000E-01    0.00000E+00
 7.22358E-01    0.00000E+00
 8.00000E-01    0.00000E+00
 8.20824E-01    0.00000E+00
 9.00000E-01    0.00000E+00
 1.00000E+00    0.00000E+00
 1.00278E+00    0.00000E+00
 1.05444E+00    0.00000E+00
 1.10000E+00    0.00000E+00
 1.13517E+00    0.00000E+00
 1.14340E+00    0.00000E+00
 1.15193E+00    0.00000E+00
 1.18983E+00    0.00000E+00
 1.20000E+00    2.44332E-17
 1.24118E+00    2.00027E-16
 1.24940E+00    2.35078E-16
 1.25982E+00    2.79509E-16
 1.27206E+00    3.51922E-15
 1.28536E+00    1.34126E-14
 1.30000E+00    2.81148E-14
 1.30265E+00    3.12803E-14
 1.30396E+00    3.28451E-14
 1.37394E+00    1.27684E-13
 1.37395E+00    1.27698E-13
 1.37482E+00    1.28967E-13
 1.40000E+00    1.66656E-13
 1.40668E+00    1.76744E-13
 1.41327E+00    1.86725E-13
 1.42369E+00    2.02603E-13
 1.42743E+00    2.08312E-13
 1.44197E+00    2.30598E-13
 1.50000E+00    3.20074E-13
 1.60000E+00    4.74504E-13
 1.70000E+00    6.28934E-13
 1.80000E+00    7.83364E-13
 1.90000E+00    9.37794E-13
 2.00000E+00    1.09222E-12
 2.25000E+00    1.47830E-12
 2.50000E+00    3.13970E-12
 2.75000E+00    2.69780E-10
 3.00000E+00    7.90830E-09
 3.50000E+00    1.01702E-06
 4.00000E+00    2.65308E-05
 4.50000E+00    2.62558E-04
 5.00000E+00    1.16695E-03
 5.50000E+00    4.01470E-03
 6.00000E+00    1.02211E-02
 6.50000E+00    2.10158E-02
 7.00000E+00    3.73956E-02
 7.50000E+00    6.10269E-02
 8.00000E+00    9.60419E-02
 8.50000E+00    1.51489E-01
 9.00000E+00    2.42354E-01
 9.50000E+00    3.89722E-01
 1.00000E+01    6.19637E-01
 1.05000E+01    9.60966E-01
 1.10000E+01    1.44196E+00
 1.15000E+01    2.08711E+00
 1.20000E+01    2.91498E+00
 1.25000E+01    3.93782E+00
 1.30000E+01    5.16191E+00
 1.35000E+01    6.58862E+00
 1.40000E+01    8.21519E+00
 1.45000E+01    1.00360E+01
 1.50000E+01    1.20432E+01
 1.55000E+01    1.42284E+01
 1.60000E+01    1.65842E+01
 1.65000E+01    1.91013E+01
 1.70000E+01    2.17700E+01
 1.75000E+01    2.45856E+01
 1.80000E+01    2.75350E+01
 1.85000E+01    3.06152E+01
 1.90000E+01    3.38138E+01
 1.95000E+01    3.71199E+01
 2.00000E+01    4.05203E+01
