# n + Gd154 : (n,n'01)  
# jendl4.0   N.Iwamoto,A.Zukeran,K.Shibata     EVAL-Dec09
# uncertainties: n
# # energies =    92
#   E(MeV)       xs(mb) 
 1.23876E-01    0.00000E+00
 1.30000E-01    6.13555E+01
 1.40000E-01    1.21081E+02
 1.50000E-01    1.78607E+02
 1.60000E-01    2.31617E+02
 1.70000E-01    2.79666E+02
 1.80000E-01    3.23510E+02
 1.90000E-01    3.63403E+02
 2.00000E-01    3.99365E+02
 2.25000E-01    4.80307E+02
 2.50000E-01    5.46198E+02
 2.75000E-01    6.07204E+02
 3.00000E-01    6.58581E+02
 3.73426E-01    7.85607E+02
 4.00000E-01    8.20052E+02
 5.00000E-01    9.41215E+02
 6.00000E-01    1.02011E+03
 6.85116E-01    1.07282E+03
 7.00000E-01    1.06875E+03
 7.22358E-01    1.07326E+03
 8.00000E-01    1.08413E+03
 8.20824E-01    1.08594E+03
 9.00000E-01    1.02165E+03
 1.00000E+00    9.98986E+02
 1.00278E+00    9.98525E+02
 1.05444E+00    9.56001E+02
 1.10000E+00    9.37790E+02
 1.13517E+00    9.25629E+02
 1.14340E+00    9.16543E+02
 1.15193E+00    9.00943E+02
 1.18983E+00    8.69998E+02
 1.20000E+00    8.59440E+02
 1.24118E+00    8.31409E+02
 1.24940E+00    8.24609E+02
 1.25982E+00    8.12007E+02
 1.27206E+00    7.99580E+02
 1.28536E+00    7.87875E+02
 1.30000E+00    7.75703E+02
 1.30265E+00    7.73595E+02
 1.30396E+00    7.70163E+02
 1.37394E+00    7.05043E+02
 1.37482E+00    7.03169E+02
 1.40000E+00    6.81923E+02
 1.40668E+00    6.77309E+02
 1.41327E+00    6.71135E+02
 1.42369E+00    6.63473E+02
 1.42743E+00    6.59297E+02
 1.44197E+00    6.43373E+02
 1.50000E+00    6.03388E+02
 1.60000E+00    5.49004E+02
 1.70000E+00    5.00815E+02
 1.80000E+00    4.60382E+02
 1.90000E+00    4.26551E+02
 2.00000E+00    3.98288E+02
 2.25000E+00    3.42600E+02
 2.50000E+00    3.13485E+02
 2.75000E+00    2.93772E+02
 3.00000E+00    2.78849E+02
 3.50000E+00    2.65089E+02
 4.00000E+00    2.59825E+02
 4.50000E+00    2.58882E+02
 5.00000E+00    2.61007E+02
 5.50000E+00    2.65641E+02
 6.00000E+00    2.71754E+02
 6.50000E+00    2.78318E+02
 7.00000E+00    2.84496E+02
 7.50000E+00    2.89779E+02
 8.00000E+00    2.94098E+02
 8.50000E+00    2.97382E+02
 9.00000E+00    2.99778E+02
 9.50000E+00    3.01322E+02
 1.00000E+01    3.02216E+02
 1.05000E+01    3.02586E+02
 1.10000E+01    3.02605E+02
 1.15000E+01    3.02398E+02
 1.20000E+01    3.02048E+02
 1.25000E+01    3.01596E+02
 1.30000E+01    3.01049E+02
 1.35000E+01    3.00394E+02
 1.40000E+01    2.99602E+02
 1.45000E+01    2.98638E+02
 1.50000E+01    2.97472E+02
 1.55000E+01    2.96085E+02
 1.60000E+01    2.94482E+02
 1.65000E+01    2.92689E+02
 1.70000E+01    2.90764E+02
 1.75000E+01    2.88782E+02
 1.80000E+01    2.86830E+02
 1.85000E+01    2.84993E+02
 1.90000E+01    2.83336E+02
 1.95000E+01    2.81901E+02
 2.00000E+01    2.80698E+02
