# n + Gd154 : (n,n'03)  
# jendl4.0   N.Iwamoto,A.Zukeran,K.Shibata     EVAL-Dec09
# uncertainties: n
# # energies =    75
#   E(MeV)       xs(mb) 
 6.85116E-01    0.00000E+00
 7.00000E-01    5.90342E+01
 7.22358E-01    8.83279E+01
 8.00000E-01    1.45459E+02
 8.20824E-01    1.55236E+02
 9.00000E-01    1.75126E+02
 1.00000E+00    1.83638E+02
 1.00278E+00    1.83804E+02
 1.05444E+00    1.83069E+02
 1.10000E+00    1.81560E+02
 1.13517E+00    1.79692E+02
 1.14340E+00    1.78850E+02
 1.15193E+00    1.77375E+02
 1.18983E+00    1.73071E+02
 1.20000E+00    1.69267E+02
 1.24118E+00    1.62804E+02
 1.24940E+00    1.61750E+02
 1.25982E+00    1.58020E+02
 1.27206E+00    1.55499E+02
 1.28536E+00    1.53104E+02
 1.30000E+00    1.50689E+02
 1.30265E+00    1.50281E+02
 1.30396E+00    1.49812E+02
 1.37394E+00    1.33260E+02
 1.37482E+00    1.32644E+02
 1.40000E+00    1.26604E+02
 1.40668E+00    1.25347E+02
 1.41327E+00    1.23692E+02
 1.42369E+00    1.21648E+02
 1.42743E+00    1.20256E+02
 1.44197E+00    1.16318E+02
 1.50000E+00    1.05826E+02
 1.60000E+00    9.19686E+01
 1.70000E+00    7.97951E+01
 1.80000E+00    6.84944E+01
 1.90000E+00    5.86775E+01
 2.00000E+00    5.01417E+01
 2.25000E+00    3.25712E+01
 2.50000E+00    2.23229E+01
 2.75000E+00    1.51235E+01
 3.00000E+00    9.68318E+00
 3.50000E+00    4.23841E+00
 4.00000E+00    1.86797E+00
 4.50000E+00    8.25036E-01
 5.00000E+00    3.63665E-01
 5.50000E+00    1.60078E-01
 6.00000E+00    7.02756E-02
 6.50000E+00    3.03395E-02
 7.00000E+00    1.26209E-02
 7.50000E+00    5.45836E-03
 8.00000E+00    2.36317E-03
 8.50000E+00    1.03335E-03
 9.00000E+00    4.59230E-04
 9.50000E+00    2.08269E-04
 1.00000E+01    9.64427E-05
 1.05000E+01    4.56116E-05
 1.10000E+01    2.20051E-05
 1.15000E+01    1.08272E-05
 1.20000E+01    5.42623E-06
 1.25000E+01    2.76731E-06
 1.30000E+01    1.43479E-06
 1.35000E+01    7.55580E-07
 1.40000E+01    4.03780E-07
 1.45000E+01    2.18770E-07
 1.50000E+01    1.20060E-07
 1.55000E+01    6.67120E-08
 1.60000E+01    3.74840E-08
 1.65000E+01    1.73078E-03
 1.70000E+01    1.22160E-08
 1.75000E+01    7.07610E-09
 1.80000E+01    4.13670E-09
 1.85000E+01    2.43970E-09
 1.90000E+01    1.28799E-03
 1.95000E+01    2.77106E-03
 2.00000E+01    1.77196E-03
