# n + Ru102 : (n,el)    
# tendl.2019 A.J. Koning and D. Rochman        EVAL-NOV19
# uncertainties: y
# # energies =    69
#   E(MeV)       xs(mb)       xslow(mb)      xsupp(mb)
 1.00000E-10    1.15871E+04    1.06988E+04    1.24755E+04
 5.00000E-09    9.16820E+03    8.46527E+03    9.87112E+03
 1.00000E-08    9.09823E+03    8.40066E+03    9.79579E+03
 1.50000E-08    9.07078E+03    8.37532E+03    9.76624E+03
 2.00000E-08    9.05576E+03    8.36145E+03    9.75006E+03
 2.50000E-08    9.04657E+03    8.35296E+03    9.74018E+03
 3.00000E-08    9.04001E+03    8.34690E+03    9.73312E+03
 3.50000E-08    9.03471E+03    8.34200E+03    9.72742E+03
 4.20000E-08    9.02962E+03    8.33730E+03    9.72195E+03
 5.00000E-08    9.02583E+03    8.33379E+03    9.71786E+03
 5.80000E-08    9.02316E+03    8.33133E+03    9.71500E+03
 6.70000E-08    9.01980E+03    8.32822E+03    9.71139E+03
 8.00000E-08    9.01704E+03    8.32566E+03    9.70842E+03
 1.00000E-07    9.01341E+03    8.32226E+03    9.70455E+03
 1.40000E-07    9.01026E+03    8.31935E+03    9.70116E+03
 1.80000E-07    9.00848E+03    8.31771E+03    9.69925E+03
 2.20000E-07    9.00691E+03    8.31620E+03    9.69762E+03
 2.50000E-07    9.00558E+03    8.31497E+03    9.69619E+03
 2.80000E-07    9.00446E+03    8.31394E+03    9.69499E+03
 3.00000E-07    9.00380E+03    8.31326E+03    9.69433E+03
 3.20000E-07    9.00330E+03    8.31280E+03    9.69380E+03
 3.50000E-07    9.00251E+03    8.31207E+03    9.69295E+03
 4.00000E-07    9.00104E+03    8.31065E+03    9.69143E+03
 5.00000E-07    8.99881E+03    8.30850E+03    9.68912E+03
 6.25000E-07    8.99603E+03    8.30593E+03    9.68613E+03
 7.80000E-07    8.99374E+03    8.30366E+03    9.68382E+03
 8.50000E-07    8.99244E+03    8.30246E+03    9.68242E+03
 9.10000E-07    8.99144E+03    8.30154E+03    9.68134E+03
 9.50000E-07    8.99082E+03    8.30096E+03    9.68068E+03
 9.72000E-07    8.99036E+03    8.30054E+03    9.68019E+03
 9.96000E-07    8.98988E+03    8.30010E+03    9.67967E+03
 1.02000E-06    8.98940E+03    8.29924E+03    9.67955E+03
 1.04500E-06    8.98889E+03    8.29877E+03    9.67901E+03
 1.07100E-06    8.98837E+03    8.29829E+03    9.67845E+03
 1.09700E-06    8.98785E+03    8.29781E+03    9.67789E+03
 1.12300E-06    8.98733E+03    8.29733E+03    9.67733E+03
 1.15000E-06    8.98597E+03    8.29608E+03    9.67587E+03
 1.30000E-06    8.98331E+03    8.29362E+03    9.67300E+03
 1.50000E-06    8.97743E+03    8.28819E+03    9.66667E+03
 2.10000E-06    8.96891E+03    8.27970E+03    9.65812E+03
 2.60000E-06    8.95983E+03    8.27132E+03    9.64835E+03
 3.30000E-06    8.94911E+03    8.26080E+03    9.63742E+03
 4.00000E-06    8.90542E+03    8.21985E+03    9.59098E+03
 9.87700E-06    8.81113E+03    8.12983E+03    9.49243E+03
 1.59680E-05    8.67973E+03    8.00396E+03    9.35550E+03
 2.77000E-05    8.47889E+03    7.81468E+03    9.14310E+03
 4.80520E-05    8.17827E+03    7.52820E+03    8.82834E+03
 7.55014E-05    7.71799E+03    7.09124E+03    8.34473E+03
 1.48728E-04    6.87492E+03    6.29368E+03    7.45615E+03
 3.67262E-04    5.86063E+03    5.32800E+03    6.39325E+03
 9.06898E-04    8.52310E+03    7.70059E+03    9.34561E+03
 1.42510E-03    6.33358E+03    5.74084E+03    6.92631E+03
 2.23945E-03    6.55738E+03    5.85905E+03    7.25571E+03
 3.51910E-03    1.13170E+04    1.07354E+04    1.18987E+04
 5.53000E-03    9.22776E+03    8.80527E+03    9.65024E+03
 9.11800E-03    8.66472E+03    8.14389E+03    9.18554E+03
 1.50300E-02    9.87382E+03    9.04368E+03    1.07040E+04
 2.47800E-02    9.54096E+03    8.73882E+03    1.03431E+04
 4.08500E-02    9.42467E+03    8.11714E+03    1.07322E+04
 6.73400E-02    9.37491E+03    8.07428E+03    1.06755E+04
 1.11000E-01    9.28066E+03    7.99311E+03    1.05682E+04
 1.83000E-01    9.03419E+03    7.78084E+03    1.02875E+04
 3.02000E-01    8.41051E+03    7.44953E+03    9.37150E+03
 5.00000E-01    6.84197E+03    6.06021E+03    7.62374E+03
 8.21000E-01    5.21084E+03    4.61693E+03    5.80476E+03
 1.35300E+00    3.53448E+03    3.05834E+03    4.01063E+03
 2.23100E+00    2.16464E+03    1.90757E+03    2.42172E+03
 3.67900E+00    1.70527E+03    1.56026E+03    1.85027E+03
 6.06500E+00    2.06438E+03    1.81839E+03    2.31038E+03
