# n + Pm145 : (n,n'05)  
# endfb8.0   A.J. Koning and D. Rochman        EVAL-DEC15
# uncertainties: n
# # energies =    93
#   E(MeV)       xs(mb) 
 7.18567E-01    0.00000E+00
 7.31557E-01    2.22948E+01
 7.55623E-01    6.35994E+01
 7.78380E-01    1.02657E+02
 8.00000E-01    1.39764E+02
 8.00131E-01    1.39773E+02
 8.29232E-01    1.41735E+02
 8.42322E-01    1.42618E+02
 8.89952E-01    1.45829E+02
 9.00000E-01    1.46507E+02
 9.64668E-01    1.51149E+02
 1.00000E+00    1.53685E+02
 1.06466E+00    1.58353E+02
 1.10947E+00    1.61588E+02
 1.20000E+00    1.68124E+02
 1.21520E+00    1.67653E+02
 1.22366E+00    1.67391E+02
 1.24249E+00    1.66808E+02
 1.26877E+00    1.65993E+02
 1.29294E+00    1.65245E+02
 1.30089E+00    1.64998E+02
 1.32083E+00    1.64381E+02
 1.35628E+00    1.63283E+02
 1.37541E+00    1.62690E+02
 1.39454E+00    1.62097E+02
 1.39816E+00    1.61985E+02
 1.40000E+00    1.61928E+02
 1.40693E+00    1.61288E+02
 1.45799E+00    1.56570E+02
 1.46583E+00    1.55845E+02
 1.49936E+00    1.52747E+02
 1.60000E+00    1.43448E+02
 1.80000E+00    1.20863E+02
 2.00000E+00    9.68727E+01
 2.20000E+00    7.51984E+01
 2.40000E+00    5.73197E+01
 2.60000E+00    4.32648E+01
 2.80000E+00    3.24713E+01
 3.00000E+00    2.42736E+01
 3.20000E+00    1.80752E+01
 3.40000E+00    1.34005E+01
 3.60000E+00    9.88640E+00
 3.80000E+00    7.26052E+00
 4.00000E+00    5.30602E+00
 4.20000E+00    3.86219E+00
 4.40000E+00    2.80422E+00
 4.60000E+00    2.03568E+00
 4.80000E+00    1.48170E+00
 5.00000E+00    1.08495E+00
 5.20000E+00    8.01693E-01
 5.40000E+00    6.00765E-01
 5.60000E+00    4.58720E-01
 5.80000E+00    3.57666E-01
 6.00000E+00    2.86527E-01
 6.20000E+00    2.35294E-01
 6.40000E+00    1.99286E-01
 6.60000E+00    1.73655E-01
 6.80000E+00    1.55311E-01
 7.00000E+00    1.42282E-01
 7.20000E+00    1.32918E-01
 7.40000E+00    1.26212E-01
 7.60000E+00    1.21368E-01
 7.80000E+00    1.17806E-01
 8.00000E+00    1.15168E-01
 8.50000E+00    1.10767E-01
 9.00000E+00    1.07678E-01
 9.50000E+00    1.04819E-01
 1.00000E+01    1.01881E-01
 1.05000E+01    9.88716E-02
 1.10000E+01    9.58955E-02
 1.15000E+01    9.30563E-02
 1.20000E+01    9.04213E-02
 1.25000E+01    8.80069E-02
 1.30000E+01    8.57977E-02
 1.35000E+01    8.37536E-02
 1.40000E+01    8.18300E-02
 1.45000E+01    7.99898E-02
 1.50000E+01    7.82106E-02
 1.60000E+01    7.48087E-02
 1.70000E+01    7.16295E-02
 1.80000E+01    6.87077E-02
 1.90000E+01    6.60942E-02
 2.00000E+01    6.38416E-02
 2.10000E+01    6.19640E-02
 2.20000E+01    6.04294E-02
 2.30000E+01    5.91746E-02
 2.40000E+01    5.81092E-02
 2.50000E+01    5.71228E-02
 2.60000E+01    5.61073E-02
 2.70000E+01    5.49976E-02
 2.80000E+01    5.37942E-02
 2.90000E+01    5.25492E-02
 3.00000E+01    5.13300E-02
