# n + Pm145 : (n,xa)    
# endfb8.0   A.J. Koning and D. Rochman        EVAL-DEC15
# 
# # energies =   134
#   E(MeV)        xs(mb) 
 6.16763E-02    3.21500E-02
 1.00000E-01    2.28136E-02
 2.00000E-01    1.91945E-02
 3.00000E-01    1.91181E-02
 4.00000E-01    2.06603E-02
 4.95737E-01    2.34040E-02
 5.00000E-01    2.35262E-02
 6.00000E-01    2.71842E-02
 6.65097E-01    2.86830E-02
 6.74361E-01    2.88963E-02
 7.00000E-01    2.94866E-02
 7.18567E-01    2.90553E-02
 7.31557E-01    2.87535E-02
 7.55623E-01    2.81944E-02
 7.78380E-01    2.76657E-02
 8.00000E-01    2.71634E-02
 8.00131E-01    2.71617E-02
 8.29232E-01    2.67936E-02
 8.42322E-01    2.66280E-02
 8.89952E-01    2.60255E-02
 9.00000E-01    2.58984E-02
 9.64668E-01    2.71577E-02
 1.00000E+00    2.78457E-02
 1.06466E+00    2.97476E-02
 1.10947E+00    3.10656E-02
 1.20000E+00    3.37284E-02
 1.21520E+00    3.39111E-02
 1.22366E+00    3.40128E-02
 1.24249E+00    3.42392E-02
 1.26877E+00    3.45551E-02
 1.29294E+00    3.48457E-02
 1.30089E+00    3.49412E-02
 1.32083E+00    3.51810E-02
 1.35628E+00    3.56071E-02
 1.37541E+00    3.58371E-02
 1.39454E+00    3.60671E-02
 1.39816E+00    3.61106E-02
 1.40000E+00    3.61327E-02
 1.40693E+00    3.63100E-02
 1.45799E+00    3.76163E-02
 1.46583E+00    3.78169E-02
 1.49936E+00    3.86747E-02
 1.60000E+00    4.12494E-02
 1.80000E+00    4.57300E-02
 2.00000E+00    5.13171E-02
 2.20000E+00    5.93956E-02
 2.40000E+00    6.64992E-02
 2.60000E+00    7.63463E-02
 2.80000E+00    8.59917E-02
 3.00000E+00    9.52951E-02
 3.20000E+00    1.06677E-01
 3.40000E+00    1.15634E-01
 3.60000E+00    1.25875E-01
 3.80000E+00    1.35626E-01
 4.00000E+00    1.42987E-01
 4.20000E+00    1.53081E-01
 4.40000E+00    1.61287E-01
 4.60000E+00    1.70864E-01
 4.80000E+00    1.83463E-01
 5.00000E+00    1.93583E-01
 5.20000E+00    2.12253E-01
 5.40000E+00    2.33320E-01
 5.60000E+00    2.59835E-01
 5.80000E+00    2.95473E-01
 6.00000E+00    3.38906E-01
 6.20000E+00    4.00525E-01
 6.40000E+00    4.74614E-01
 6.60000E+00    5.59058E-01
 6.80000E+00    6.68273E-01
 7.00000E+00    7.94197E-01
 7.20000E+00    9.61157E-01
 7.40000E+00    1.15149E+00
 7.60000E+00    1.35167E+00
 7.80000E+00    1.60056E+00
 8.00000E+00    1.86323E+00
 8.50000E+00    2.20690E+00
 9.00000E+00    2.26602E+00
 9.50000E+00    2.30662E+00
 1.00000E+01    2.58222E+00
 1.05000E+01    3.05649E+00
 1.10000E+01    3.73329E+00
 1.15000E+01    4.56928E+00
 1.20000E+01    5.52317E+00
 1.25000E+01    6.67425E+00
 1.30000E+01    7.83964E+00
 1.35000E+01    9.30295E+00
 1.40000E+01    1.06524E+01
 1.45000E+01    1.23991E+01
 1.50000E+01    1.40696E+01
 1.60000E+01    1.85185E+01
 1.70000E+01    2.48332E+01
 1.80000E+01    3.18887E+01
 1.90000E+01    3.62525E+01
 2.00000E+01    3.90035E+01
 2.10000E+01    3.55858E+01
 2.20000E+01    3.59612E+01
 2.30000E+01    3.67341E+01
 2.40000E+01    3.83972E+01
 2.50000E+01    3.92386E+01
 2.60000E+01    4.00844E+01
 2.70000E+01    4.09054E+01
 2.80000E+01    4.16701E+01
 2.90000E+01    4.23793E+01
 3.00000E+01    4.30352E+01
 3.00000E+01    4.30377E+01
 3.20000E+01    4.40778E+01
 3.40000E+01    4.50810E+01
 3.60000E+01    4.58717E+01
 3.80000E+01    4.65216E+01
 4.00000E+01    4.70690E+01
 4.20000E+01    4.75684E+01
 4.40000E+01    4.80117E+01
 4.60000E+01    4.84416E+01
 4.80000E+01    4.88929E+01
 5.00000E+01    4.93732E+01
 5.20000E+01    4.98715E+01
 5.40000E+01    5.04211E+01
 5.60000E+01    5.09969E+01
 5.80000E+01    5.16433E+01
 6.00000E+01    5.24146E+01
 6.50000E+01    5.45696E+01
 7.00000E+01    5.70735E+01
 7.50000E+01    5.98464E+01
 8.00000E+01    6.24609E+01
 9.00000E+01    6.82346E+01
 1.00000E+02    7.40928E+01
 1.10000E+02    7.55926E+01
 1.20000E+02    8.12298E+01
 1.30000E+02    8.63232E+01
 1.40000E+02    9.14832E+01
 1.50000E+02    9.74517E+01
 1.60000E+02    1.05522E+02
 1.80000E+02    1.34671E+02
 2.00000E+02    2.06281E+02
