# n + Pm145 : (n,n'09)  
# endfb8.0   A.J. Koning and D. Rochman        EVAL-DEC15
# uncertainties: n
# # energies =    88
#   E(MeV)       xs(mb) 
 8.00131E-01    0.00000E+00
 8.29232E-01    4.87970E+00
 8.42322E-01    7.07466E+00
 8.89952E-01    1.50613E+01
 9.00000E-01    1.67462E+01
 9.64668E-01    2.39294E+01
 1.00000E+00    2.78540E+01
 1.06466E+00    3.32771E+01
 1.10947E+00    3.70353E+01
 1.20000E+00    4.46281E+01
 1.21520E+00    4.48343E+01
 1.22366E+00    4.49490E+01
 1.24249E+00    4.52045E+01
 1.26877E+00    4.55609E+01
 1.29294E+00    4.58888E+01
 1.30089E+00    4.59966E+01
 1.32083E+00    4.62671E+01
 1.35628E+00    4.67480E+01
 1.37541E+00    4.70075E+01
 1.39454E+00    4.72669E+01
 1.39816E+00    4.73160E+01
 1.40000E+00    4.73410E+01
 1.40693E+00    4.73157E+01
 1.45799E+00    4.71290E+01
 1.46583E+00    4.71003E+01
 1.49936E+00    4.69777E+01
 1.60000E+00    4.66097E+01
 1.80000E+00    4.09614E+01
 2.00000E+00    3.38438E+01
 2.20000E+00    2.71492E+01
 2.40000E+00    2.15053E+01
 2.60000E+00    1.69427E+01
 2.80000E+00    1.33037E+01
 3.00000E+00    1.04128E+01
 3.20000E+00    8.11711E+00
 3.40000E+00    6.29822E+00
 3.60000E+00    4.86464E+00
 3.80000E+00    3.74441E+00
 4.00000E+00    2.87336E+00
 4.20000E+00    2.20118E+00
 4.40000E+00    1.68607E+00
 4.60000E+00    1.29407E+00
 4.80000E+00    9.97575E-01
 5.00000E+00    7.74556E-01
 5.20000E+00    6.07346E-01
 5.40000E+00    4.82524E-01
 5.60000E+00    3.90122E-01
 5.80000E+00    3.21171E-01
 6.00000E+00    2.70426E-01
 6.20000E+00    2.32326E-01
 6.40000E+00    2.04508E-01
 6.60000E+00    1.84043E-01
 6.80000E+00    1.68965E-01
 7.00000E+00    1.57999E-01
 7.20000E+00    1.49969E-01
 7.40000E+00    1.44147E-01
 7.60000E+00    1.39900E-01
 7.80000E+00    1.36763E-01
 8.00000E+00    1.34429E-01
 8.50000E+00    1.30465E-01
 9.00000E+00    1.27493E-01
 9.50000E+00    1.24515E-01
 1.00000E+01    1.21282E-01
 1.05000E+01    1.17861E-01
 1.10000E+01    1.14414E-01
 1.15000E+01    1.11088E-01
 1.20000E+01    1.07979E-01
 1.25000E+01    1.05119E-01
 1.30000E+01    1.02497E-01
 1.35000E+01    1.00070E-01
 1.40000E+01    9.77888E-02
 1.45000E+01    9.56076E-02
 1.50000E+01    9.34988E-02
 1.60000E+01    8.94632E-02
 1.70000E+01    8.56846E-02
 1.80000E+01    8.22057E-02
 1.90000E+01    7.90874E-02
 2.00000E+01    7.63933E-02
 2.10000E+01    7.41435E-02
 2.20000E+01    7.23027E-02
 2.30000E+01    7.07979E-02
 2.40000E+01    6.95228E-02
 2.50000E+01    6.83472E-02
 2.60000E+01    6.71420E-02
 2.70000E+01    6.58261E-02
 2.80000E+01    6.43969E-02
 2.90000E+01    6.29138E-02
 3.00000E+01    6.14573E-02
