# n + Zn 66 : (n,xp)    
# tendl.2019 A.J. Koning and D. Rochman        EVAL-NOV19
# 
# # energies =   124
#   E(MeV)        xs(mb) 
 1.05513E+00    0.00000E+00
 1.20000E+00    0.00000E+00
 1.40000E+00    0.00000E+00
 1.60000E+00    0.00000E+00
 1.80000E+00    0.00000E+00
 1.90142E+00    3.38864E-10
 2.00000E+00    2.65065E-09
 2.20000E+00    7.34083E-09
 2.40000E+00    1.20310E-08
 2.40865E+00    1.22465E-07
 2.48851E+00    1.14205E-06
 2.60000E+00    2.56547E-06
 2.74496E+00    7.55460E-05
 2.80000E+00    1.03256E-04
 2.80507E+00    1.32524E-04
 2.80787E+00    1.48687E-04
 2.82269E+00    2.34239E-04
 2.86994E+00    5.07000E-04
 2.98303E+00    1.15984E-03
 3.00000E+00    1.25780E-03
 3.07636E+00    3.79119E-03
 3.12482E+00    5.39895E-03
 3.15255E+00    6.31895E-03
 3.20000E+00    7.89320E-03
 3.26173E+00    1.51384E-02
 3.27556E+00    1.67616E-02
 3.27829E+00    1.70821E-02
 3.29079E+00    1.85492E-02
 3.38241E+00    2.93026E-02
 3.40000E+00    3.13671E-02
 3.43267E+00    4.15827E-02
 3.47985E+00    5.63355E-02
 3.48492E+00    5.79209E-02
 3.56091E+00    8.16823E-02
 3.57751E+00    8.68730E-02
 3.58573E+00    8.94433E-02
 3.60000E+00    9.39054E-02
 3.63109E+00    1.14228E-01
 3.72688E+00    1.76842E-01
 3.74545E+00    1.88980E-01
 3.76615E+00    2.02511E-01
 3.78230E+00    2.13067E-01
 3.78869E+00    2.17244E-01
 3.80000E+00    2.24637E-01
 4.00000E+00    4.61727E-01
 4.20000E+00    8.43310E-01
 4.40000E+00    1.38804E+00
 4.60000E+00    2.10856E+00
 4.80000E+00    3.00805E+00
 5.00000E+00    4.07604E+00
 5.20000E+00    5.29558E+00
 5.40000E+00    6.64636E+00
 5.60000E+00    8.10358E+00
 5.80000E+00    9.64448E+00
 6.00000E+00    1.12559E+01
 6.20000E+00    1.28989E+01
 6.40000E+00    1.45618E+01
 6.60000E+00    1.62312E+01
 6.80000E+00    1.78956E+01
 7.00000E+00    1.96246E+01
 7.20000E+00    2.12177E+01
 7.40000E+00    2.26554E+01
 7.60000E+00    2.46091E+01
 7.80000E+00    2.59694E+01
 8.00000E+00    2.78935E+01
 8.50000E+00    3.20442E+01
 9.00000E+00    3.62996E+01
 9.50000E+00    4.06862E+01
 1.00000E+01    4.52077E+01
 1.05000E+01    5.01290E+01
 1.10000E+01    5.92609E+01
 1.15000E+01    7.34424E+01
 1.20000E+01    8.19952E+01
 1.25000E+01    8.60967E+01
 1.30000E+01    9.02974E+01
 1.35000E+01    9.37672E+01
 1.40000E+01    9.74059E+01
 1.45000E+01    1.01335E+02
 1.50000E+01    1.06503E+02
 1.60000E+01    1.17165E+02
 1.70000E+01    1.27801E+02
 1.80000E+01    1.38953E+02
 1.90000E+01    1.49496E+02
 2.00000E+01    1.60667E+02
 2.10000E+01    1.70718E+02
 2.20000E+01    1.80394E+02
 2.30000E+01    1.90164E+02
 2.40000E+01    2.00442E+02
 2.50000E+01    2.11318E+02
 2.60000E+01    2.21698E+02
 2.70000E+01    2.31494E+02
 2.80000E+01    2.39920E+02
 2.90000E+01    2.49147E+02
 3.00000E+01    2.57255E+02
 3.00000E+01    2.57305E+02
 3.20000E+01    2.74179E+02
 3.40000E+01    2.94057E+02
 3.60000E+01    3.15825E+02
 3.80000E+01    3.35873E+02
 4.00000E+01    3.52632E+02
 4.20000E+01    3.67565E+02
 4.40000E+01    3.81019E+02
 4.60000E+01    3.94807E+02
 4.80000E+01    4.09931E+02
 5.00000E+01    4.28327E+02
 5.20000E+01    4.43947E+02
 5.40000E+01    4.60702E+02
 5.60000E+01    4.74499E+02
 5.80000E+01    4.87439E+02
 6.00000E+01    4.99230E+02
 6.50000E+01    5.29617E+02
 7.00000E+01    5.58266E+02
 7.50000E+01    5.83167E+02
 8.00000E+01    6.06522E+02
 9.00000E+01    6.51634E+02
 1.00000E+02    6.93131E+02
 1.10000E+02    7.36831E+02
 1.20000E+02    7.83528E+02
 1.30000E+02    8.33717E+02
 1.40000E+02    8.90439E+02
 1.50000E+02    9.58352E+02
 1.60000E+02    1.03766E+03
 1.80000E+02    1.21612E+03
 2.00000E+02    1.40728E+03
