# n + Zn 66 : (n,xa)    
# tendl.2019 A.J. Koning and D. Rochman        EVAL-NOV19
# 
# # energies =   124
#   E(MeV)        xs(mb) 
 1.05513E+00    1.93973E-05
 1.20000E+00    3.44880E-05
 1.40000E+00    1.11509E-04
 1.60000E+00    3.61964E-04
 1.80000E+00    1.18717E-03
 1.90142E+00    2.75777E-03
 2.00000E+00    4.28438E-03
 2.20000E+00    9.60338E-03
 2.40000E+00    2.24090E-02
 2.40865E+00    2.38868E-02
 2.48851E+00    3.75311E-02
 2.60000E+00    5.65795E-02
 2.74496E+00    8.35844E-02
 2.80000E+00    9.38379E-02
 2.80507E+00    9.56500E-02
 2.80787E+00    9.66508E-02
 2.82269E+00    1.01948E-01
 2.86994E+00    1.18836E-01
 2.98303E+00    1.59258E-01
 3.00000E+00    1.65323E-01
 3.07636E+00    2.04193E-01
 3.12482E+00    2.28861E-01
 3.15255E+00    2.42977E-01
 3.20000E+00    2.67131E-01
 3.26173E+00    2.95217E-01
 3.27556E+00    3.01509E-01
 3.27829E+00    3.02751E-01
 3.29079E+00    3.08439E-01
 3.38241E+00    3.50124E-01
 3.40000E+00    3.58127E-01
 3.43267E+00    3.82634E-01
 3.47985E+00    4.18027E-01
 3.48492E+00    4.21830E-01
 3.56091E+00    4.78835E-01
 3.57751E+00    4.91287E-01
 3.58573E+00    4.97453E-01
 3.60000E+00    5.08158E-01
 3.63109E+00    5.32922E-01
 3.72688E+00    6.09219E-01
 3.74545E+00    6.24010E-01
 3.76615E+00    6.40498E-01
 3.78230E+00    6.53362E-01
 3.78869E+00    6.58452E-01
 3.80000E+00    6.67460E-01
 4.00000E+00    9.28717E-01
 4.20000E+00    1.26644E+00
 4.40000E+00    1.61101E+00
 4.60000E+00    2.17234E+00
 4.80000E+00    2.70807E+00
 5.00000E+00    3.36673E+00
 5.20000E+00    4.12860E+00
 5.40000E+00    4.88747E+00
 5.60000E+00    5.73418E+00
 5.80000E+00    6.57107E+00
 6.00000E+00    7.38410E+00
 6.20000E+00    8.10602E+00
 6.40000E+00    8.99167E+00
 6.60000E+00    9.57314E+00
 6.80000E+00    1.01828E+01
 7.00000E+00    1.07127E+01
 7.20000E+00    1.09830E+01
 7.40000E+00    1.17871E+01
 7.60000E+00    1.20201E+01
 7.80000E+00    1.24365E+01
 8.00000E+00    1.28623E+01
 8.50000E+00    1.39570E+01
 9.00000E+00    1.53132E+01
 9.50000E+00    1.73967E+01
 1.00000E+01    2.05081E+01
 1.05000E+01    2.62290E+01
 1.10000E+01    3.65193E+01
 1.15000E+01    4.86858E+01
 1.20000E+01    5.38891E+01
 1.25000E+01    5.57300E+01
 1.30000E+01    5.65907E+01
 1.35000E+01    5.62094E+01
 1.40000E+01    5.67825E+01
 1.45000E+01    5.69282E+01
 1.50000E+01    5.79115E+01
 1.60000E+01    6.09201E+01
 1.70000E+01    6.39272E+01
 1.80000E+01    6.76425E+01
 1.90000E+01    7.07989E+01
 2.00000E+01    7.34848E+01
 2.10000E+01    7.55260E+01
 2.20000E+01    7.68173E+01
 2.30000E+01    7.77464E+01
 2.40000E+01    7.83993E+01
 2.50000E+01    7.82257E+01
 2.60000E+01    7.83285E+01
 2.70000E+01    7.77819E+01
 2.80000E+01    7.67713E+01
 2.90000E+01    7.61521E+01
 3.00000E+01    7.48661E+01
 3.00000E+01    7.45798E+01
 3.20000E+01    7.25815E+01
 3.40000E+01    7.15357E+01
 3.60000E+01    7.14527E+01
 3.80000E+01    7.12545E+01
 4.00000E+01    7.06066E+01
 4.20000E+01    6.97791E+01
 4.40000E+01    6.86023E+01
 4.60000E+01    6.75172E+01
 4.80000E+01    6.78822E+01
 5.00000E+01    6.87397E+01
 5.20000E+01    6.98431E+01
 5.40000E+01    7.06131E+01
 5.60000E+01    7.16785E+01
 5.80000E+01    7.25616E+01
 6.00000E+01    7.31650E+01
 6.50000E+01    7.57591E+01
 7.00000E+01    7.91202E+01
 7.50000E+01    8.32288E+01
 8.00000E+01    8.79384E+01
 9.00000E+01    9.91639E+01
 1.00000E+02    1.11469E+02
 1.10000E+02    1.21851E+02
 1.20000E+02    1.30824E+02
 1.30000E+02    1.37318E+02
 1.40000E+02    1.42519E+02
 1.50000E+02    1.48926E+02
 1.60000E+02    1.57374E+02
 1.80000E+02    1.77882E+02
 2.00000E+02    2.01798E+02
