# n + Zn 66 : (n,el)    
# tendl.2019 A.J. Koning and D. Rochman        EVAL-NOV19
# uncertainties: y
# # energies =    69
#   E(MeV)       xs(mb)       xslow(mb)      xsupp(mb)
 1.00000E-10    7.63561E+03    6.89907E+03    8.37215E+03
 5.00000E-09    5.53972E+03    5.00535E+03    6.07409E+03
 1.00000E-08    5.47504E+03    4.94691E+03    6.00317E+03
 1.50000E-08    5.44982E+03    4.92412E+03    5.97552E+03
 2.00000E-08    5.43605E+03    4.91168E+03    5.96041E+03
 2.50000E-08    5.42753E+03    4.90398E+03    5.95108E+03
 3.00000E-08    5.42149E+03    4.89853E+03    5.94446E+03
 3.50000E-08    5.41669E+03    4.89419E+03    5.93919E+03
 4.20000E-08    5.41214E+03    4.89008E+03    5.93420E+03
 5.00000E-08    5.40878E+03    4.88704E+03    5.93052E+03
 5.80000E-08    5.40602E+03    4.88454E+03    5.92749E+03
 6.70000E-08    5.40375E+03    4.88249E+03    5.92500E+03
 8.00000E-08    5.40091E+03    4.87993E+03    5.92189E+03
 1.00000E-07    5.39820E+03    4.87747E+03    5.91892E+03
 1.40000E-07    5.39584E+03    4.87535E+03    5.91634E+03
 1.80000E-07    5.39462E+03    4.87424E+03    5.91500E+03
 2.20000E-07    5.39355E+03    4.87327E+03    5.91383E+03
 2.50000E-07    5.39283E+03    4.87262E+03    5.91304E+03
 2.80000E-07    5.39262E+03    4.87243E+03    5.91281E+03
 3.00000E-07    5.39247E+03    4.87229E+03    5.91265E+03
 3.20000E-07    5.39228E+03    4.87212E+03    5.91245E+03
 3.50000E-07    5.39199E+03    4.87185E+03    5.91212E+03
 4.00000E-07    5.39144E+03    4.87135E+03    5.91153E+03
 5.00000E-07    5.39060E+03    4.87059E+03    5.91062E+03
 6.25000E-07    5.38995E+03    4.87000E+03    5.90990E+03
 7.80000E-07    5.38980E+03    4.86985E+03    5.90976E+03
 8.50000E-07    5.38972E+03    4.86978E+03    5.90967E+03
 9.10000E-07    5.38966E+03    4.86972E+03    5.90960E+03
 9.50000E-07    5.38962E+03    4.86969E+03    5.90955E+03
 9.72000E-07    5.38959E+03    4.86966E+03    5.90952E+03
 9.96000E-07    5.38956E+03    4.86963E+03    5.90949E+03
 1.02000E-06    5.38953E+03    4.86957E+03    5.90949E+03
 1.04500E-06    5.38950E+03    4.86954E+03    5.90946E+03
 1.07100E-06    5.38947E+03    4.86951E+03    5.90942E+03
 1.09700E-06    5.38943E+03    4.86948E+03    5.90938E+03
 1.12300E-06    5.38940E+03    4.86945E+03    5.90935E+03
 1.15000E-06    5.38929E+03    4.86935E+03    5.90923E+03
 1.30000E-06    5.38907E+03    4.86916E+03    5.90899E+03
 1.50000E-06    5.38859E+03    4.86872E+03    5.90846E+03
 2.10000E-06    5.38789E+03    4.86804E+03    5.90775E+03
 2.60000E-06    5.38715E+03    4.86736E+03    5.90693E+03
 3.30000E-06    5.38627E+03    4.86651E+03    5.90602E+03
 4.00000E-06    5.38268E+03    4.86322E+03    5.90214E+03
 9.87700E-06    5.37516E+03    4.85617E+03    5.89416E+03
 1.59680E-05    5.36549E+03    4.84700E+03    5.88398E+03
 2.77000E-05    5.34796E+03    4.83077E+03    5.86515E+03
 4.80520E-05    5.32130E+03    4.80564E+03    5.83696E+03
 7.55014E-05    5.26835E+03    4.75626E+03    5.78044E+03
 1.48728E-04    5.15450E+03    4.64960E+03    5.65940E+03
 3.67262E-04    4.84441E+03    4.37009E+03    5.31872E+03
 9.06898E-04    4.40713E+03    3.94614E+03    4.86813E+03
 1.42510E-03    3.97368E+03    3.54581E+03    4.40155E+03
 2.23945E-03    3.33181E+03    2.93431E+03    3.72930E+03
 3.51910E-03    5.74050E+03    5.27313E+03    6.20787E+03
 5.53000E-03    1.62522E+03    1.38461E+03    1.86582E+03
 9.11800E-03    2.69329E+04    2.15593E+04    3.23066E+04
 1.50300E-02    1.81417E+04    1.76058E+04    1.86776E+04
 2.47800E-02    9.85520E+03    9.44763E+03    1.02628E+04
 4.08500E-02    6.66544E+03    6.19406E+03    7.13682E+03
 6.73400E-02    7.45752E+03    6.93820E+03    7.97683E+03
 1.11000E-01    7.86078E+03    7.48122E+03    8.24034E+03
 1.83000E-01    6.67686E+03    6.35447E+03    6.99926E+03
 3.02000E-01    5.65721E+03    5.38405E+03    5.93038E+03
 5.00000E-01    4.75740E+03    4.52768E+03    4.98711E+03
 8.21000E-01    3.81576E+03    3.73528E+03    3.89624E+03
 1.35300E+00    2.69975E+03    2.59724E+03    2.80226E+03
 2.23100E+00    2.07241E+03    1.96360E+03    2.18122E+03
 3.67900E+00    1.94759E+03    1.85352E+03    2.04165E+03
 6.06500E+00    2.01631E+03    1.87291E+03    2.15971E+03
