# n + Zn 66 : (n,na)    
# tendl.2019 A.J. Koning and D. Rochman        EVAL-NOV19
# uncertainties: y
# # energies =    39
#   E(MeV)       xs(mb)       xslow(mb)      xsupp(mb)
 4.64779E+00    0.00000E+00    0.00000E+00    0.00000E+00
 6.40000E+00    6.01330E-14    6.01330E-14    6.01330E-14
 6.60000E+00    4.92490E-12    0.00000E+00    1.01113E-11
 6.80000E+00    2.20360E-10    0.00000E+00    4.52421E-10
 7.00000E+00    3.90890E-09    0.00000E+00    8.02536E-09
 7.20000E+00    4.33910E-08    0.00000E+00    8.90861E-08
 7.40000E+00    3.78780E-07    0.00000E+00    7.77673E-07
 7.60000E+00    2.57815E-06    0.00000E+00    5.29320E-06
 7.80000E+00    1.44563E-05    0.00000E+00    2.96802E-05
 8.00000E+00    6.85889E-05    0.00000E+00    1.40820E-04
 8.50000E+00    1.83338E-03    0.00000E+00    3.76411E-03
 9.00000E+00    3.22799E-02    1.77993E-02    4.67604E-02
 9.50000E+00    2.86400E-01    1.57923E-01    4.14877E-01
 1.00000E+01    1.46008E+00    8.05098E-01    2.11506E+00
 1.05000E+01    4.97580E+00    2.74369E+00    7.20791E+00
 1.10000E+01    1.30271E+01    7.18323E+00    1.88710E+01
 1.15000E+01    2.28025E+01    1.25734E+01    3.30316E+01
 1.20000E+01    2.57500E+01    1.41987E+01    3.73013E+01
 1.25000E+01    2.56060E+01    1.41193E+01    3.70927E+01
 1.30000E+01    2.52040E+01    1.58232E+01    3.45848E+01
 1.35000E+01    2.39302E+01    1.50235E+01    3.28369E+01
 1.40000E+01    2.45342E+01    1.54027E+01    3.36657E+01
 1.45000E+01    2.49360E+01    1.56550E+01    3.42170E+01
 1.50000E+01    2.71214E+01    1.70270E+01    3.72158E+01
 1.60000E+01    3.26913E+01    2.13176E+01    4.40650E+01
 1.70000E+01    3.87648E+01    2.52780E+01    5.22516E+01
 1.80000E+01    4.54639E+01    2.96465E+01    6.12814E+01
 1.90000E+01    5.13361E+01    3.34756E+01    6.91966E+01
 2.00000E+01    5.61798E+01    3.52876E+01    7.70720E+01
 2.10000E+01    6.01325E+01    3.77704E+01    8.24946E+01
 2.20000E+01    6.29138E+01    3.95174E+01    8.63102E+01
 2.30000E+01    6.46622E+01    4.06156E+01    8.87088E+01
 2.40000E+01    6.54295E+01    3.65629E+01    9.42961E+01
 2.50000E+01    6.45655E+01    3.60801E+01    9.30509E+01
 2.60000E+01    6.27201E+01    3.50489E+01    9.03913E+01
 2.70000E+01    5.94042E+01    3.31959E+01    8.56125E+01
 2.80000E+01    5.51186E+01    3.08011E+01    7.94362E+01
 2.90000E+01    5.12917E+01    2.86625E+01    7.39209E+01
 3.00000E+01    4.67931E+01    2.61486E+01    6.74376E+01
