# n + Cr 53 : (n,xa)    
# jeff3.3    P.Pereslavtsev, A. Konobeyev      EVAL-MAR10
# 
# # energies =   144
#   E(MeV)        xs(mb) 
 5.74776E-01    0.00000E+00
 6.00000E-01    0.00000E+00
 6.50000E-01    0.00000E+00
 7.00000E-01    0.00000E+00
 7.50000E-01    0.00000E+00
 8.00000E-01    0.00000E+00
 8.50000E-01    2.86715E-05
 9.00000E-01    4.40964E-05
 9.50000E-01    6.17526E-05
 1.00000E+00    8.12874E-05
 1.02544E+00    1.10471E-04
 1.10000E+00    1.95989E-04
 1.20000E+00    3.36335E-04
 1.30000E+00    6.20347E-04
 1.31409E+00    6.73556E-04
 1.40000E+00    9.97985E-04
 1.50000E+00    1.69637E-03
 1.56590E+00    2.36171E-03
 1.60000E+00    2.70602E-03
 1.70000E+00    4.34577E-03
 1.80000E+00    6.77995E-03
 1.90000E+00    1.04779E-02
 2.00000E+00    1.58923E-02
 2.01127E+00    1.67331E-02
 2.10000E+00    2.33560E-02
 2.20000E+00    3.41517E-02
 2.21372E+00    3.64972E-02
 2.27571E+00    4.70944E-02
 2.30000E+00    5.12470E-02
 2.36493E+00    6.77982E-02
 2.40000E+00    7.67390E-02
 2.49984E+00    1.07150E-01
 2.50000E+00    1.07199E-01
 2.60000E+00    1.41419E-01
 2.70000E+00    1.78402E-01
 2.70701E+00    1.81337E-01
 2.72077E+00    1.87095E-01
 2.75743E+00    2.02438E-01
 2.76010E+00    2.03560E-01
 2.77488E+00    2.09745E-01
 2.80000E+00    2.20258E-01
 2.82380E+00    2.38939E-01
 2.88035E+00    2.83338E-01
 2.90000E+00    2.98761E-01
 3.00000E+00    3.83927E-01
 3.04992E+00    4.21689E-01
 3.14287E+00    4.91993E-01
 3.19687E+00    5.32837E-01
 3.23254E+00    5.59814E-01
 3.23254E+00    5.59815E-01
 3.30000E+00    6.10842E-01
 3.40000E+00    7.55815E-01
 3.50000E+00    8.96863E-01
 3.60000E+00    1.03031E+00
 3.70000E+00    1.15036E+00
 3.80000E+00    1.27357E+00
 3.90000E+00    1.48035E+00
 4.00000E+00    1.69945E+00
 4.20000E+00    2.12917E+00
 4.40000E+00    2.60380E+00
 4.60000E+00    3.17799E+00
 4.80000E+00    3.71399E+00
 5.00000E+00    4.28510E+00
 5.20000E+00    4.90493E+00
 5.40000E+00    5.45859E+00
 5.60000E+00    6.14376E+00
 5.80000E+00    6.75113E+00
 6.00000E+00    7.35668E+00
 6.20000E+00    8.08398E+00
 6.40000E+00    8.71987E+00
 6.60000E+00    9.36051E+00
 6.80000E+00    1.00494E+01
 7.00000E+00    1.06892E+01
 7.20000E+00    1.12712E+01
 7.40000E+00    1.18995E+01
 7.60000E+00    1.26018E+01
 7.80000E+00    1.33696E+01
 8.00000E+00    1.42951E+01
 8.09039E+00    1.48405E+01
 8.50000E+00    1.73118E+01
 9.00000E+00    2.14646E+01
 9.50000E+00    2.66605E+01
 1.00000E+01    3.18395E+01
 1.05000E+01    3.61178E+01
 1.10000E+01    3.93287E+01
 1.15000E+01    4.07348E+01
 1.20000E+01    4.16705E+01
 1.25000E+01    4.25846E+01
 1.30000E+01    4.28676E+01
 1.35000E+01    4.36335E+01
 1.40000E+01    4.45566E+01
 1.45000E+01    4.52991E+01
 1.50000E+01    4.64853E+01
 1.55000E+01    4.78032E+01
 1.60000E+01    4.94696E+01
 1.65000E+01    5.10160E+01
 1.70000E+01    5.26692E+01
 1.75000E+01    5.44172E+01
 1.80000E+01    5.62572E+01
 1.85000E+01    5.80741E+01
 1.90000E+01    6.00028E+01
 1.95000E+01    6.20176E+01
 2.00000E+01    6.32664E+01
 2.03592E+01    6.49944E+01
 2.20000E+01    7.28866E+01
 2.40000E+01    8.62678E+01
 2.60000E+01    1.00105E+02
 2.80000E+01    1.11173E+02
 3.00000E+01    1.18591E+02
 3.20000E+01    1.23757E+02
 3.40000E+01    1.27579E+02
 3.60000E+01    1.30705E+02
 3.80000E+01    1.37120E+02
 4.00000E+01    1.47831E+02
 4.20000E+01    1.59716E+02
 4.40000E+01    1.67288E+02
 4.60000E+01    1.74129E+02
 4.80000E+01    1.79431E+02
 5.00000E+01    1.81544E+02
 5.50000E+01    1.93912E+02
 6.00000E+01    2.00347E+02
 6.50000E+01    1.98690E+02
 7.00000E+01    2.00800E+02
 7.50000E+01    2.01372E+02
 8.00000E+01    2.02456E+02
 8.50000E+01    2.04505E+02
 9.00000E+01    2.06559E+02
 9.50000E+01    2.10454E+02
 1.00000E+02    2.13640E+02
 1.05000E+02    2.17494E+02
 1.10000E+02    2.20494E+02
 1.15000E+02    2.23463E+02
 1.20000E+02    2.25406E+02
 1.25000E+02    2.29129E+02
 1.30000E+02    2.31054E+02
 1.35000E+02    2.33485E+02
 1.40000E+02    2.36025E+02
 1.45000E+02    2.40367E+02
 1.50000E+02    2.40864E+02
 1.60000E+02    2.45511E+02
 1.70000E+02    2.52135E+02
 1.80000E+02    2.56924E+02
 1.90000E+02    2.59908E+02
 2.00000E+02    2.67657E+02
