# n + Cr 53 : (n,xg)    
# jeff3.3    P.Pereslavtsev, A. Konobeyev      EVAL-MAR10
# 
# # energies =   144
#   E(MeV)        xs(mb) 
 5.74776E-01    0.00000E+00
 6.00000E-01    0.00000E+00
 6.50000E-01    0.00000E+00
 7.00000E-01    0.00000E+00
 7.50000E-01    0.00000E+00
 8.00000E-01    0.00000E+00
 8.50000E-01    4.62392E+00
 9.00000E-01    4.63683E+00
 9.50000E-01    4.65908E+00
 1.00000E+00    4.68777E+00
 1.02544E+00    4.50582E+00
 1.10000E+00    3.97263E+00
 1.20000E+00    3.73379E+00
 1.30000E+00    3.70909E+00
 1.31409E+00    3.58379E+00
 1.40000E+00    2.81985E+00
 1.50000E+00    2.55121E+00
 1.56590E+00    2.38287E+00
 1.60000E+00    2.29575E+00
 1.70000E+00    2.13456E+00
 1.80000E+00    2.09257E+00
 1.90000E+00    2.05008E+00
 2.00000E+00    2.02962E+00
 2.01127E+00    2.02206E+00
 2.10000E+00    1.96254E+00
 2.20000E+00    1.96336E+00
 2.21372E+00    1.95267E+00
 2.27571E+00    1.90438E+00
 2.30000E+00    1.88546E+00
 2.36493E+00    1.83967E+00
 2.40000E+00    1.81494E+00
 2.49984E+00    1.79095E+00
 2.50000E+00    1.79091E+00
 2.60000E+00    1.76967E+00
 2.70000E+00    1.78039E+00
 2.70701E+00    1.77489E+00
 2.72077E+00    1.76411E+00
 2.75743E+00    1.73537E+00
 2.76010E+00    1.73327E+00
 2.77488E+00    1.72169E+00
 2.80000E+00    1.70200E+00
 2.82380E+00    1.69090E+00
 2.88035E+00    1.66454E+00
 2.90000E+00    1.65538E+00
 3.00000E+00    1.63184E+00
 3.04992E+00    4.72942E+00
 3.14287E+00    1.04965E+01
 3.19687E+00    1.38469E+01
 3.23254E+00    1.60598E+01
 3.23254E+00    1.60599E+01
 3.30000E+00    2.02457E+01
 3.40000E+00    5.58572E+01
 3.50000E+00    1.03288E+02
 3.60000E+00    1.43825E+02
 3.70000E+00    1.91915E+02
 3.80000E+00    2.35445E+02
 3.90000E+00    2.84370E+02
 4.00000E+00    3.30826E+02
 4.20000E+00    4.40008E+02
 4.40000E+00    5.45096E+02
 4.60000E+00    6.49646E+02
 4.80000E+00    7.51062E+02
 5.00000E+00    8.45740E+02
 5.20000E+00    9.41284E+02
 5.40000E+00    1.02657E+03
 5.60000E+00    1.10809E+03
 5.80000E+00    1.18548E+03
 6.00000E+00    1.25315E+03
 6.20000E+00    1.32245E+03
 6.40000E+00    1.38581E+03
 6.60000E+00    1.44418E+03
 6.80000E+00    1.50109E+03
 7.00000E+00    1.55294E+03
 7.20000E+00    1.60654E+03
 7.40000E+00    1.65641E+03
 7.60000E+00    1.70206E+03
 7.80000E+00    1.74832E+03
 8.00000E+00    1.79376E+03
 8.09039E+00    1.80435E+03
 8.50000E+00    1.85233E+03
 9.00000E+00    1.82755E+03
 9.50000E+00    1.74207E+03
 1.00000E+01    1.65907E+03
 1.05000E+01    1.60332E+03
 1.10000E+01    1.60438E+03
 1.15000E+01    1.65942E+03
 1.20000E+01    1.76868E+03
 1.25000E+01    1.91819E+03
 1.30000E+01    2.08119E+03
 1.35000E+01    2.24047E+03
 1.40000E+01    2.38395E+03
 1.45000E+01    2.50517E+03
 1.50000E+01    2.60749E+03
 1.55000E+01    2.69497E+03
 1.60000E+01    2.76776E+03
 1.65000E+01    2.83369E+03
 1.70000E+01    2.89141E+03
 1.75000E+01    2.94630E+03
 1.80000E+01    2.99845E+03
 1.85000E+01    3.04806E+03
 1.90000E+01    3.09662E+03
 1.95000E+01    3.14281E+03
 2.00000E+01    3.18499E+03
 2.03592E+01    3.19346E+03
 2.20000E+01    3.23217E+03
 2.40000E+01    2.91601E+03
 2.60000E+01    2.58574E+03
 2.80000E+01    2.41495E+03
 3.00000E+01    2.35115E+03
 3.20000E+01    2.34103E+03
 3.40000E+01    2.33447E+03
 3.60000E+01    2.30662E+03
 3.80000E+01    2.26397E+03
 4.00000E+01    2.23803E+03
 4.20000E+01    2.21290E+03
 4.40000E+01    2.20817E+03
 4.60000E+01    2.20308E+03
 4.80000E+01    2.18870E+03
 5.00000E+01    2.15814E+03
 5.50000E+01    2.06866E+03
 6.00000E+01    1.96847E+03
 6.50000E+01    1.89871E+03
 7.00000E+01    1.84133E+03
 7.50000E+01    1.76106E+03
 8.00000E+01    1.73006E+03
 8.50000E+01    1.66817E+03
 9.00000E+01    1.61179E+03
 9.50000E+01    1.56066E+03
 1.00000E+02    1.50739E+03
 1.05000E+02    1.47128E+03
 1.10000E+02    1.42901E+03
 1.15000E+02    1.36792E+03
 1.20000E+02    1.33199E+03
 1.25000E+02    1.26672E+03
 1.30000E+02    1.23139E+03
 1.35000E+02    1.18008E+03
 1.40000E+02    1.13178E+03
 1.45000E+02    1.10062E+03
 1.50000E+02    1.06987E+03
 1.60000E+02    9.89566E+02
 1.70000E+02    9.18306E+02
 1.80000E+02    8.94253E+02
 1.90000E+02    8.39164E+02
 2.00000E+02    7.95131E+02
