# n + Hf177 : (n,xn)    
# jendl4.0   K. Shibata (JAEA)                 EVAL-JUL09
# 
# # energies =    55
#   E(MeV)        xs(mb) 
 1.13594E-01    0.00000E+00
 2.00000E-01    4.29300E+02
 2.51097E-01    5.27407E+02
 3.00000E-01    7.26700E+02
 3.23148E-01    7.64153E+02
 3.77138E-01    9.93347E+02
 3.92223E-01    1.05779E+03
 4.00000E-01    1.11978E+03
 4.11743E-01    1.14427E+03
 4.29107E-01    1.18766E+03
 4.61616E-01    1.29804E+03
 5.00000E-01    1.51978E+03
 5.10996E-01    1.54592E+03
 5.58343E-01    1.71924E+03
 5.62589E-01    1.73560E+03
 5.94689E-01    1.87037E+03
 6.00000E-01    1.89280E+03
 6.07845E-01    1.92246E+03
 6.11466E-01    1.94107E+03
 6.27557E-01    2.03247E+03
 6.37614E-01    2.09521E+03
 7.00000E-01    2.48903E+03
 8.00000E-01    2.64477E+03
 9.00000E-01    2.85041E+03
 1.00000E+00    2.90267E+03
 1.25000E+00    3.12870E+03
 1.50000E+00    3.19304E+03
 2.00000E+00    3.24307E+03
 2.50000E+00    3.22692E+03
 3.00000E+00    3.16491E+03
 3.50000E+00    3.09840E+03
 4.00000E+00    3.04572E+03
 4.50000E+00    3.00936E+03
 5.00000E+00    2.97802E+03
 5.50000E+00    2.94379E+03
 6.00000E+00    2.90710E+03
 6.50000E+00    2.87086E+03
 7.00000E+00    2.98211E+03
 7.50000E+00    3.34067E+03
 8.00000E+00    3.75408E+03
 8.50000E+00    4.05836E+03
 9.00000E+00    4.28422E+03
 9.50000E+00    4.42966E+03
 1.00000E+01    4.52202E+03
 1.10000E+01    4.65773E+03
 1.20000E+01    4.72613E+03
 1.30000E+01    4.75083E+03
 1.40000E+01    4.75189E+03
 1.45000E+01    4.74768E+03
 1.50000E+01    4.74341E+03
 1.60000E+01    4.79326E+03
 1.70000E+01    5.04715E+03
 1.80000E+01    5.36241E+03
 1.90000E+01    5.61861E+03
 2.00000E+01    5.81213E+03
