# n + Hf177 : (n,xt)    
# jendl4.0   K. Shibata (JAEA)                 EVAL-JUL09
# 
# # energies =    55
#   E(MeV)        xs(mb) 
 1.13594E-01    0.00000E+00
 2.00000E-01    0.00000E+00
 2.51097E-01    0.00000E+00
 3.00000E-01    0.00000E+00
 3.23148E-01    0.00000E+00
 3.77138E-01    0.00000E+00
 3.92223E-01    0.00000E+00
 4.00000E-01    0.00000E+00
 4.11743E-01    0.00000E+00
 4.29107E-01    0.00000E+00
 4.61616E-01    0.00000E+00
 5.00000E-01    0.00000E+00
 5.10996E-01    0.00000E+00
 5.58343E-01    0.00000E+00
 5.62589E-01    0.00000E+00
 5.94689E-01    0.00000E+00
 6.00000E-01    0.00000E+00
 6.07845E-01    0.00000E+00
 6.11466E-01    0.00000E+00
 6.27557E-01    0.00000E+00
 6.37614E-01    0.00000E+00
 7.00000E-01    0.00000E+00
 8.00000E-01    0.00000E+00
 9.00000E-01    0.00000E+00
 1.00000E+00    0.00000E+00
 1.25000E+00    0.00000E+00
 1.50000E+00    0.00000E+00
 2.00000E+00    0.00000E+00
 2.50000E+00    0.00000E+00
 3.00000E+00    0.00000E+00
 3.50000E+00    0.00000E+00
 4.00000E+00    0.00000E+00
 4.50000E+00    0.00000E+00
 5.00000E+00    0.00000E+00
 5.50000E+00    0.00000E+00
 6.00000E+00    0.00000E+00
 6.50000E+00    0.00000E+00
 7.00000E+00    0.00000E+00
 7.50000E+00    0.00000E+00
 8.00000E+00    0.00000E+00
 8.50000E+00    0.00000E+00
 9.00000E+00    0.00000E+00
 9.50000E+00    2.14700E-08
 1.00000E+01    1.17200E-07
 1.10000E+01    4.27700E-04
 1.20000E+01    3.39800E-03
 1.30000E+01    1.66000E-02
 1.40000E+01    5.22100E-02
 1.45000E+01    7.53900E-02
 1.50000E+01    1.20300E-01
 1.60000E+01    2.27300E-01
 1.70000E+01    3.73200E-01
 1.80000E+01    5.52200E-01
 1.90000E+01    7.55800E-01
 2.00000E+01    9.74400E-01
