# n + Hf177 : (n,xp)    
# jendl4.0   K. Shibata (JAEA)                 EVAL-JUL09
# 
# # energies =    55
#   E(MeV)        xs(mb) 
 1.13594E-01    0.00000E+00
 2.00000E-01    0.00000E+00
 2.51097E-01    0.00000E+00
 3.00000E-01    0.00000E+00
 3.23148E-01    0.00000E+00
 3.77138E-01    0.00000E+00
 3.92223E-01    0.00000E+00
 4.00000E-01    0.00000E+00
 4.11743E-01    0.00000E+00
 4.29107E-01    0.00000E+00
 4.61616E-01    0.00000E+00
 5.00000E-01    0.00000E+00
 5.10996E-01    0.00000E+00
 5.58343E-01    0.00000E+00
 5.62589E-01    0.00000E+00
 5.94689E-01    0.00000E+00
 6.00000E-01    0.00000E+00
 6.07845E-01    0.00000E+00
 6.11466E-01    0.00000E+00
 6.27557E-01    0.00000E+00
 6.37614E-01    0.00000E+00
 7.00000E-01    0.00000E+00
 8.00000E-01    0.00000E+00
 9.00000E-01    0.00000E+00
 1.00000E+00    0.00000E+00
 1.25000E+00    0.00000E+00
 1.50000E+00    0.00000E+00
 2.00000E+00    0.00000E+00
 2.50000E+00    0.00000E+00
 3.00000E+00    0.00000E+00
 3.50000E+00    0.00000E+00
 4.00000E+00    4.78100E-05
 4.50000E+00    1.62300E-04
 5.00000E+00    4.73600E-04
 5.50000E+00    5.55400E-03
 6.00000E+00    1.14600E-02
 6.50000E+00    2.34900E-02
 7.00000E+00    4.08700E-02
 7.50000E+00    1.12900E-01
 8.00000E+00    1.69600E-01
 8.50000E+00    3.85000E-01
 9.00000E+00    5.24400E-01
 9.50000E+00    1.01100E+00
 1.00000E+01    1.28300E+00
 1.10000E+01    2.60602E+00
 1.20000E+01    4.58181E+00
 1.30000E+01    7.48447E+00
 1.40000E+01    1.09522E+01
 1.45000E+01    1.32806E+01
 1.50000E+01    1.52195E+01
 1.60000E+01    2.01910E+01
 1.70000E+01    2.58070E+01
 1.80000E+01    3.19570E+01
 1.90000E+01    3.85500E+01
 2.00000E+01    4.54900E+01
