# n + Hf177 : (n,tot)   
# jendl4.0   K. Shibata (JAEA)                 EVAL-JUL09
# uncertainties: n
# # energies =   171
#   E(MeV)       xs(mb) 
 1.00000E-11    3.88894E+06
 1.00000E-07    1.80737E+05
 4.13990E-07    2.01424E+05
 5.31580E-07    2.67909E+05
 6.82560E-07    5.31120E+05
 8.76420E-07    8.89625E+06
 1.12540E-06    3.54584E+06
 1.44500E-06    3.30801E+05
 1.85540E-06    5.42898E+06
 2.37240E-06    7.27920E+06
 3.05900E-06    9.08208E+04
 3.92790E-06    3.83221E+04
 5.04350E-06    1.28529E+06
 6.47600E-06    1.57226E+06
 8.31530E-06    6.94948E+05
 1.06770E-05    6.05644E+04
 1.37100E-05    1.14356E+05
 1.76030E-05    4.98535E+04
 2.26030E-05    5.96031E+04
 2.92030E-05    9.58813E+04
 3.72670E-05    7.75265E+04
 4.78510E-05    2.49702E+05
 6.14420E-05    2.94048E+05
 7.88930E-05    6.41146E+04
 1.01300E-04    6.00935E+04
 1.30070E-04    8.07265E+04
 1.67020E-04    5.82661E+04
 2.14450E-04    6.49650E+04
 2.75360E-04    4.88112E+04
 3.53580E-04    4.38064E+04
 4.54000E-04    3.93972E+04
 5.82950E-04    3.55193E+04
 7.48520E-04    3.21239E+04
 9.61120E-04    2.94681E+04
 1.23410E-03    2.73259E+04
 1.58460E-03    2.46026E+04
 2.03470E-03    2.28061E+04
 2.24870E-03    2.21241E+04
 2.48520E-03    2.15684E+04
 2.61260E-03    2.11727E+04
 2.74650E-03    2.05402E+04
 3.03540E-03    1.98519E+04
 3.35460E-03    1.92442E+04
 3.70740E-03    1.84336E+04
 4.30740E-03    1.73245E+04
 5.53080E-03    1.60646E+04
 7.10170E-03    1.49571E+04
 9.11880E-03    1.40410E+04
 1.17090E-02    1.33668E+04
 1.50340E-02    1.25393E+04
 1.93050E-02    1.18568E+04
 2.18750E-02    1.16338E+04
 2.35790E-02    1.15201E+04
 2.41760E-02    1.14609E+04
 2.47880E-02    1.13691E+04
 2.60580E-02    1.12604E+04
 2.70000E-02    1.11412E+04
 2.85000E-02    1.09253E+04
 3.18280E-02    1.07369E+04
 3.43070E-02    1.04714E+04
 4.08680E-02    1.01710E+04
 4.63090E-02    9.93178E+03
 5.24750E-02    9.76019E+03
 5.65620E-02    9.54537E+03
 6.73790E-02    9.34846E+03
 7.20000E-02    9.21848E+03
 7.95000E-02    9.11508E+03
 8.25000E-02    9.04957E+03
 8.65170E-02    8.92646E+03
 9.80370E-02    8.77344E+03
 1.11090E-01    8.69094E+03
 1.16790E-01    8.64023E+03
 1.22770E-01    8.58704E+03
 1.29070E-01    8.53300E+03
 1.35690E-01    8.47688E+03
 1.42640E-01    8.41786E+03
 1.49960E-01    8.35583E+03
 1.57640E-01    8.29061E+03
 1.65730E-01    8.22205E+03
 1.74220E-01    8.14997E+03
 1.83160E-01    8.07416E+03
 1.92550E-01    7.99474E+03
 2.02420E-01    7.93895E+03
 2.12800E-01    7.89964E+03
 2.23710E-01    7.85831E+03
 2.35180E-01    7.81486E+03
 2.47240E-01    7.74517E+03
 2.73240E-01    7.67069E+03
 2.87250E-01    7.63122E+03
 2.94520E-01    7.61279E+03
 2.97200E-01    7.60544E+03
 2.98500E-01    7.59664E+03
 3.01970E-01    7.55398E+03
 3.33730E-01    7.48377E+03
 3.68830E-01    7.42666E+03
 3.87740E-01    7.38598E+03
 4.07620E-01    7.33627E+03
 4.50490E-01    7.27636E+03
 4.97870E-01    7.22777E+03
 5.23400E-01    7.20097E+03
 5.50230E-01    7.17662E+03
 5.78440E-01    7.15102E+03
 6.08100E-01    7.12412E+03
 6.39280E-01    7.10111E+03
 6.72060E-01    7.08131E+03
 7.06510E-01    7.06050E+03
 7.42740E-01    7.03865E+03
 7.80820E-01    7.02217E+03
 8.20850E-01    7.00964E+03
 8.62940E-01    6.99648E+03
 9.07180E-01    6.98145E+03
 9.61640E-01    6.97105E+03
 1.00260E+00    6.96695E+03
 1.10800E+00    6.96237E+03
 1.16480E+00    6.95911E+03
 1.22460E+00    6.95682E+03
 1.28730E+00    6.95939E+03
 1.35340E+00    6.96266E+03
 1.42270E+00    6.96610E+03
 1.49570E+00    6.96971E+03
 1.57240E+00    6.97351E+03
 1.65300E+00    6.97724E+03
 1.73770E+00    6.97895E+03
 1.82680E+00    6.98022E+03
 1.92050E+00    6.98119E+03
 2.01900E+00    6.96825E+03
 2.12250E+00    6.94751E+03
 2.23130E+00    6.92944E+03
 2.30690E+00    6.91823E+03
 2.34570E+00    6.91251E+03
 2.36530E+00    6.90865E+03
 2.38520E+00    6.89885E+03
 2.46600E+00    6.87645E+03
 2.59240E+00    6.83190E+03
 2.72530E+00    6.78154E+03
 2.86500E+00    6.72859E+03
 3.01190E+00    6.66997E+03
 3.16640E+00    6.59841E+03
 3.32870E+00    6.48240E+03
 3.67880E+00    6.31422E+03
 4.06570E+00    6.12835E+03
 4.49330E+00    5.98316E+03
 4.72370E+00    5.88903E+03
 4.96590E+00    5.79009E+03
 5.22050E+00    5.69048E+03
 5.48810E+00    5.59349E+03
 5.76950E+00    5.49906E+03
 6.06530E+00    5.40748E+03
 6.37630E+00    5.33554E+03
 6.59240E+00    5.29456E+03
 6.70320E+00    5.24649E+03
 7.04690E+00    5.17913E+03
 7.40820E+00    5.12386E+03
 7.78800E+00    5.08178E+03
 8.18730E+00    5.05284E+03
 8.60710E+00    5.03594E+03
 9.04840E+00    5.03677E+03
 9.51230E+00    5.04581E+03
 1.00000E+01    5.06750E+03
 1.05130E+01    5.09751E+03
 1.10520E+01    5.13395E+03
 1.16180E+01    5.17577E+03
 1.22140E+01    5.21976E+03
 1.28400E+01    5.26470E+03
 1.34990E+01    5.29747E+03
 1.38400E+01    5.31950E+03
 1.41910E+01    5.33968E+03
 1.45500E+01    5.35819E+03
 1.49180E+01    5.38165E+03
 1.56830E+01    5.40718E+03
 1.64870E+01    5.42106E+03
