# n + Hf177 : (n,g)     
# jendl4.0   K. Shibata (JAEA)                 EVAL-JUL09
# uncertainties: n
# # energies =   171
#   E(MeV)       xs(mb) 
 1.00000E-11    3.88850E+06
 1.00000E-07    1.80241E+05
 4.13990E-07    2.00036E+05
 5.31580E-07    2.65125E+05
 6.82560E-07    5.22189E+05
 8.76420E-07    8.61974E+06
 1.12540E-06    3.40977E+06
 1.44500E-06    3.07260E+05
 1.85540E-06    4.82113E+06
 2.37240E-06    6.40542E+06
 3.05900E-06    7.64813E+04
 3.92790E-06    3.50442E+04
 5.04350E-06    1.18207E+06
 6.47600E-06    1.36097E+06
 8.31530E-06    6.21930E+05
 1.06770E-05    5.37738E+04
 1.37100E-05    1.03649E+05
 1.76030E-05    4.49964E+04
 2.26030E-05    5.40161E+04
 2.92030E-05    8.44571E+04
 3.72670E-05    6.87526E+04
 4.78510E-05    1.78936E+05
 6.14420E-05    1.69895E+05
 7.88930E-05    4.65174E+04
 1.01300E-04    3.36622E+04
 1.30070E-04    5.15149E+04
 1.67020E-04    3.76947E+04
 2.14450E-04    3.43880E+04
 2.75360E-04    2.63698E+04
 3.53580E-04    2.22998E+04
 4.54000E-04    1.88104E+04
 5.82950E-04    1.58456E+04
 7.48520E-04    1.33373E+04
 9.61120E-04    1.14646E+04
 1.23410E-03    1.00366E+04
 1.58460E-03    8.22399E+03
 2.03470E-03    7.05745E+03
 2.24870E-03    6.65121E+03
 2.48520E-03    6.32019E+03
 2.61260E-03    6.08442E+03
 2.74650E-03    5.70787E+03
 3.03540E-03    5.31439E+03
 3.35460E-03    4.98169E+03
 3.70740E-03    4.54100E+03
 4.30740E-03    3.96933E+03
 5.53080E-03    3.35769E+03
 7.10170E-03    2.86237E+03
 9.11880E-03    2.48696E+03
 1.17090E-02    2.24243E+03
 1.50340E-02    1.94659E+03
 1.93050E-02    1.70621E+03
 2.18750E-02    1.63787E+03
 2.35790E-02    1.60365E+03
 2.41760E-02    1.58582E+03
 2.47880E-02    1.55818E+03
 2.60580E-02    1.52548E+03
 2.70000E-02    1.48957E+03
 2.85000E-02    1.42541E+03
 3.18280E-02    1.37295E+03
 3.43070E-02    1.30043E+03
 4.08680E-02    1.22050E+03
 4.63090E-02    1.15882E+03
 5.24750E-02    1.11528E+03
 5.65620E-02    1.06277E+03
 6.73790E-02    1.01585E+03
 7.20000E-02    9.87121E+02
 7.95000E-02    9.63322E+02
 8.25000E-02    9.50215E+02
 8.65170E-02    9.23718E+02
 9.80370E-02    8.87542E+02
 1.11090E-01    8.61958E+02
 1.16790E-01    8.46374E+02
 1.22770E-01    8.29991E+02
 1.29070E-01    8.12753E+02
 1.35690E-01    7.94648E+02
 1.42640E-01    7.75609E+02
 1.49960E-01    7.55596E+02
 1.57640E-01    7.34556E+02
 1.65730E-01    7.12434E+02
 1.74220E-01    6.89180E+02
 1.83160E-01    6.64723E+02
 1.92550E-01    6.39467E+02
 2.02420E-01    6.23487E+02
 2.12800E-01    6.11227E+02
 2.23710E-01    5.98338E+02
 2.35180E-01    5.84787E+02
 2.47240E-01    5.63055E+02
 2.73240E-01    5.39827E+02
 2.87250E-01    5.27519E+02
 2.94520E-01    5.21773E+02
 2.97200E-01    5.19478E+02
 2.98500E-01    5.16881E+02
 3.01970E-01    5.01386E+02
 3.33730E-01    4.71726E+02
 3.68830E-01    4.47557E+02
 3.87740E-01    4.30399E+02
 4.07620E-01    4.05516E+02
 4.50490E-01    3.70348E+02
 4.97870E-01    3.43685E+02
 5.23400E-01    3.28173E+02
 5.50230E-01    3.11884E+02
 5.78440E-01    2.94959E+02
 6.08100E-01    2.81112E+02
 6.39280E-01    2.68098E+02
 6.72060E-01    2.54532E+02
 7.06510E-01    2.44571E+02
 7.42740E-01    2.36322E+02
 7.80820E-01    2.26625E+02
 8.20850E-01    2.10528E+02
 8.62940E-01    1.92888E+02
 9.07180E-01    1.85753E+02
 9.61640E-01    1.84828E+02
 1.00260E+00    1.73854E+02
 1.10800E+00    1.57867E+02
 1.16480E+00    1.46466E+02
 1.22460E+00    1.36093E+02
 1.28730E+00    1.32181E+02
 1.35340E+00    1.28878E+02
 1.42270E+00    1.25406E+02
 1.49570E+00    1.21314E+02
 1.57240E+00    1.16456E+02
 1.65300E+00    1.11349E+02
 1.73770E+00    1.05980E+02
 1.82680E+00    1.00332E+02
 1.92050E+00    9.43813E+01
 2.01900E+00    8.76269E+01
 2.12250E+00    8.02723E+01
 2.23130E+00    7.38661E+01
 2.30690E+00    6.98913E+01
 2.34570E+00    6.78650E+01
 2.36530E+00    6.64964E+01
 2.38520E+00    6.30217E+01
 2.46600E+00    5.68788E+01
 2.59240E+00    5.17020E+01
 2.72530E+00    4.64092E+01
 2.86500E+00    4.08497E+01
 3.01190E+00    3.59626E+01
 3.16640E+00    3.15473E+01
 3.32870E+00    2.49864E+01
 3.67880E+00    1.85656E+01
 4.06570E+00    1.32347E+01
 4.49330E+00    9.94436E+00
 4.72370E+00    8.41434E+00
 4.96590E+00    6.96184E+00
 5.22050E+00    5.69715E+00
 5.48810E+00    4.69565E+00
 5.76950E+00    4.03580E+00
 6.06530E+00    3.43876E+00
 6.37630E+00    2.97352E+00
 6.59240E+00    2.79077E+00
 6.70320E+00    2.58575E+00
 7.04690E+00    2.40349E+00
 7.40820E+00    2.30086E+00
 7.78800E+00    2.22077E+00
 8.18730E+00    2.24521E+00
 8.60710E+00    2.25126E+00
 9.04840E+00    2.31668E+00
 9.51230E+00    2.37706E+00
 1.00000E+01    2.39830E+00
 1.05130E+01    2.43357E+00
 1.10520E+01    2.40576E+00
 1.16180E+01    2.32485E+00
 1.22140E+01    2.17584E+00
 1.28400E+01    2.00272E+00
 1.34990E+01    1.87144E+00
 1.38400E+01    1.78347E+00
 1.41910E+01    1.70488E+00
 1.45500E+01    1.60936E+00
 1.49180E+01    1.45423E+00
 1.56830E+01    1.25006E+00
 1.64870E+01    1.04421E+00
