# n + Hf177 : (n,xa)    
# jendl4.0   K. Shibata (JAEA)                 EVAL-JUL09
# 
# # energies =    55
#   E(MeV)        xs(mb) 
 1.13594E-01    0.00000E+00
 2.00000E-01    0.00000E+00
 2.51097E-01    0.00000E+00
 3.00000E-01    0.00000E+00
 3.23148E-01    0.00000E+00
 3.77138E-01    0.00000E+00
 3.92223E-01    0.00000E+00
 4.00000E-01    0.00000E+00
 4.11743E-01    0.00000E+00
 4.29107E-01    0.00000E+00
 4.61616E-01    0.00000E+00
 5.00000E-01    0.00000E+00
 5.10996E-01    0.00000E+00
 5.58343E-01    0.00000E+00
 5.62589E-01    0.00000E+00
 5.94689E-01    0.00000E+00
 6.00000E-01    0.00000E+00
 6.07845E-01    0.00000E+00
 6.11466E-01    0.00000E+00
 6.27557E-01    0.00000E+00
 6.37614E-01    0.00000E+00
 7.00000E-01    0.00000E+00
 8.00000E-01    0.00000E+00
 9.00000E-01    0.00000E+00
 1.00000E+00    0.00000E+00
 1.25000E+00    0.00000E+00
 1.50000E+00    0.00000E+00
 2.00000E+00    0.00000E+00
 2.50000E+00    1.92800E-03
 3.00000E+00    2.82200E-03
 3.50000E+00    2.88700E-03
 4.00000E+00    3.77200E-03
 4.50000E+00    8.65200E-03
 5.00000E+00    1.03600E-02
 5.50000E+00    1.31900E-02
 6.00000E+00    1.76500E-02
 6.50000E+00    2.35700E-02
 7.00000E+00    3.26400E-02
 7.50000E+00    4.62400E-02
 8.00000E+00    6.47500E-02
 8.50000E+00    9.24700E-02
 9.00000E+00    1.26500E-01
 9.50000E+00    1.78100E-01
 1.00000E+01    2.35688E-01
 1.10000E+01    4.10571E-01
 1.20000E+01    6.58960E-01
 1.30000E+01    9.75410E-01
 1.40000E+01    1.34348E+00
 1.45000E+01    1.52673E+00
 1.50000E+01    1.74090E+00
 1.60000E+01    2.15000E+00
 1.70000E+01    2.55530E+00
 1.80000E+01    2.94690E+00
 1.90000E+01    3.31900E+00
 2.00000E+01    3.66700E+00
