# n + Cs137 : (n,xa)    
# jendl4.0   N.Iwamoto                         EVAL-Apr09
# 
# # energies =    85
#   E(MeV)        xs(mb) 
 1.05000E-01    1.15690E-16
 1.10000E-01    1.21980E-16
 1.20000E-01    1.32770E-16
 1.30000E-01    1.44680E-16
 1.40000E-01    1.60460E-16
 1.50000E-01    1.77630E-16
 1.60000E-01    1.96820E-16
 1.70000E-01    2.17930E-16
 1.80000E-01    2.41120E-16
 1.90000E-01    2.66540E-16
 2.00000E-01    2.94370E-16
 2.25000E-01    4.02570E-16
 2.50000E-01    5.30700E-16
 2.75000E-01    6.96050E-16
 3.00000E-01    9.07010E-16
 4.00000E-01    2.86250E-15
 4.58847E-01    5.73250E-15
 5.00000E-01    8.36310E-15
 6.00000E-01    2.43510E-14
 7.00000E-01    7.01216E-14
 8.00000E-01    1.96100E-13
 8.55134E-01    3.48870E-13
 9.00000E-01    5.26900E-13
 1.00000E+00    1.37260E-12
 1.10000E+00    3.48540E-12
 1.19342E+00    8.03730E-12
 1.20000E+00    8.12130E-12
 1.28258E+00    1.47180E-11
 1.30000E+00    1.60590E-11
 1.40000E+00    3.21450E-11
 1.50000E+00    6.62550E-11
 1.50098E+00    6.66880E-11
 1.57563E+00    1.16400E-10
 1.58140E+00    1.20328E-10
 1.58643E+00    1.23752E-10
 1.60000E+00    1.32990E-10
 1.66340E+00    2.07670E-10
 1.68401E+00    2.33150E-10
 1.70000E+00    2.49140E-10
 1.79660E+00    4.61550E-10
 1.80000E+00    4.70440E-10
 1.88162E+00    8.06780E-10
 1.90000E+00    8.82520E-10
 1.90794E+00    9.20620E-10
 1.93039E+00    1.13470E-09
 2.00000E+00    1.59740E-09
 2.08326E+00    2.66760E-09
 2.25000E+00    7.22810E-09
 2.50000E+00    2.49030E-08
 2.75000E+00    9.04550E-08
 3.00000E+00    2.50775E-07
 3.50000E+00    1.77300E-06
 4.00000E+00    9.03544E-06
 4.50000E+00    3.59476E-05
 5.00000E+00    1.13225E-04
 5.50000E+00    3.02997E-04
 6.00000E+00    7.12439E-04
 6.50000E+00    1.50811E-03
 7.00000E+00    2.93019E-03
 7.50000E+00    5.28889E-03
 8.00000E+00    8.93409E-03
 8.50000E+00    1.42079E-02
 9.00000E+00    2.14138E-02
 9.50000E+00    3.08178E-02
 1.00000E+01    4.26160E-02
 1.05000E+01    5.59818E-02
 1.10000E+01    7.49082E-02
 1.15000E+01    9.59870E-02
 1.20000E+01    1.25229E-01
 1.25000E+01    1.62170E-01
 1.30000E+01    2.06928E-01
 1.35000E+01    2.64128E-01
 1.40000E+01    3.32595E-01
 1.45000E+01    4.13006E-01
 1.50000E+01    5.03999E-01
 1.55000E+01    6.05994E-01
 1.60000E+01    7.17055E-01
 1.65000E+01    8.36098E-01
 1.70000E+01    9.61869E-01
 1.75000E+01    1.09249E+00
 1.80000E+01    1.22739E+00
 1.85000E+01    1.36403E+00
 1.90000E+01    1.50286E+00
 1.95000E+01    1.64031E+00
 2.00000E+01    1.77836E+00
