# n + Cs137 : (n,xh)    
# jendl4.0   N.Iwamoto                         EVAL-Apr09
# 
# # energies =    85
#   E(MeV)        xs(mb) 
 1.05000E-01    0.00000E+00
 1.10000E-01    0.00000E+00
 1.20000E-01    0.00000E+00
 1.30000E-01    0.00000E+00
 1.40000E-01    0.00000E+00
 1.50000E-01    0.00000E+00
 1.60000E-01    0.00000E+00
 1.70000E-01    0.00000E+00
 1.80000E-01    0.00000E+00
 1.90000E-01    0.00000E+00
 2.00000E-01    0.00000E+00
 2.25000E-01    0.00000E+00
 2.50000E-01    0.00000E+00
 2.75000E-01    0.00000E+00
 3.00000E-01    0.00000E+00
 4.00000E-01    0.00000E+00
 4.58847E-01    0.00000E+00
 5.00000E-01    0.00000E+00
 6.00000E-01    0.00000E+00
 7.00000E-01    0.00000E+00
 8.00000E-01    0.00000E+00
 8.55134E-01    0.00000E+00
 9.00000E-01    0.00000E+00
 1.00000E+00    0.00000E+00
 1.10000E+00    0.00000E+00
 1.19342E+00    0.00000E+00
 1.20000E+00    0.00000E+00
 1.28258E+00    0.00000E+00
 1.30000E+00    0.00000E+00
 1.40000E+00    0.00000E+00
 1.50000E+00    0.00000E+00
 1.50098E+00    0.00000E+00
 1.57563E+00    0.00000E+00
 1.58140E+00    0.00000E+00
 1.58643E+00    0.00000E+00
 1.60000E+00    0.00000E+00
 1.66340E+00    0.00000E+00
 1.68401E+00    0.00000E+00
 1.70000E+00    0.00000E+00
 1.79660E+00    0.00000E+00
 1.80000E+00    0.00000E+00
 1.88162E+00    0.00000E+00
 1.90000E+00    0.00000E+00
 1.90794E+00    0.00000E+00
 1.93039E+00    0.00000E+00
 2.00000E+00    0.00000E+00
 2.08326E+00    0.00000E+00
 2.25000E+00    0.00000E+00
 2.50000E+00    0.00000E+00
 2.75000E+00    0.00000E+00
 3.00000E+00    0.00000E+00
 3.50000E+00    0.00000E+00
 4.00000E+00    0.00000E+00
 4.50000E+00    0.00000E+00
 5.00000E+00    0.00000E+00
 5.50000E+00    0.00000E+00
 6.00000E+00    0.00000E+00
 6.50000E+00    0.00000E+00
 7.00000E+00    0.00000E+00
 7.50000E+00    0.00000E+00
 8.00000E+00    0.00000E+00
 8.50000E+00    0.00000E+00
 9.00000E+00    0.00000E+00
 9.50000E+00    0.00000E+00
 1.00000E+01    4.82681E-27
 1.05000E+01    1.26341E-26
 1.10000E+01    5.71918E-26
 1.15000E+01    1.07456E-25
 1.20000E+01    1.57720E-25
 1.25000E+01    5.59730E-22
 1.30000E+01    6.42160E-19
 1.35000E+01    1.31630E-16
 1.40000E+01    8.05760E-15
 1.45000E+01    2.04910E-13
 1.50000E+01    2.68590E-12
 1.55000E+01    2.14550E-11
 1.60000E+01    1.20350E-10
 1.65000E+01    5.70140E-10
 1.70000E+01    2.65910E-09
 1.75000E+01    1.29550E-08
 1.80000E+01    6.09780E-08
 1.85000E+01    2.55280E-07
 1.90000E+01    9.20330E-07
 1.95000E+01    2.82980E-06
 2.00000E+01    7.78026E-06
