# n + Cs137 : (n,d)     
# jendl4.0   N.Iwamoto                         EVAL-Apr09
# uncertainties: n
# # energies =    42
#   E(MeV)       xs(mb) 
 5.22307E+00    0.00000E+00
 6.50000E+00    4.05050E-15
 6.54577E+00    2.50770E-12
 6.92994E+00    2.35970E-11
 7.00000E+00    2.74430E-11
 7.12870E+00    1.40140E-09
 7.36441E+00    3.91780E-09
 7.50000E+00    5.36530E-09
 7.50126E+00    5.77360E-09
 7.52946E+00    1.49120E-08
 7.65560E+00    5.57890E-08
 7.68546E+00    6.54660E-08
 7.70626E+00    7.22060E-08
 7.80180E+00    1.03170E-07
 7.82449E+00    1.10520E-07
 7.85071E+00    1.19020E-07
 7.87663E+00    1.27420E-07
 8.00000E+00    1.67400E-07
 8.50000E+00    1.75831E-06
 9.00000E+00    9.22736E-06
 9.50000E+00    3.20869E-05
 1.00000E+01    1.04153E-04
 1.05000E+01    4.57448E-04
 1.10000E+01    1.79836E-03
 1.15000E+01    5.04297E-03
 1.20000E+01    1.71586E-02
 1.25000E+01    4.00970E-02
 1.30000E+01    8.49017E-02
 1.35000E+01    1.63055E-01
 1.40000E+01    2.45859E-01
 1.45000E+01    4.04801E-01
 1.50000E+01    5.53811E-01
 1.55000E+01    7.34260E-01
 1.60000E+01    9.45700E-01
 1.65000E+01    1.18864E+00
 1.70000E+01    1.35809E+00
 1.75000E+01    1.65082E+00
 1.80000E+01    1.97399E+00
 1.85000E+01    2.18655E+00
 1.90000E+01    2.40989E+00
 1.95000E+01    2.76769E+00
 2.00000E+01    2.99089E+00
