# n + Cs137 : (n,el)    
# jendl4.0   N.Iwamoto                         EVAL-Apr09
# uncertainties: n
# # energies =   171
#   E(MeV)       xs(mb) 
 1.00000E-11    5.67808E+03
 1.00000E-07    3.53199E+03
 4.13990E-07    3.53104E+03
 5.31580E-07    3.53080E+03
 6.82560E-07    3.53049E+03
 8.76420E-07    3.53040E+03
 1.12540E-06    3.53040E+03
 1.44500E-06    3.53040E+03
 1.85540E-06    3.53040E+03
 2.37240E-06    3.53040E+03
 3.05900E-06    3.53040E+03
 3.92790E-06    3.53039E+03
 5.04350E-06    3.53039E+03
 6.47600E-06    3.53039E+03
 8.31530E-06    3.53038E+03
 1.06770E-05    3.53038E+03
 1.37100E-05    3.53037E+03
 1.76030E-05    3.53036E+03
 2.26030E-05    3.53035E+03
 2.92030E-05    3.53033E+03
 3.72670E-05    3.53032E+03
 4.78510E-05    3.53029E+03
 6.14420E-05    3.53026E+03
 7.88930E-05    3.53022E+03
 1.01300E-04    3.53016E+03
 1.30070E-04    3.53010E+03
 1.67020E-04    3.53002E+03
 2.14450E-04    3.53000E+03
 2.75360E-04    3.53000E+03
 3.53580E-04    3.53000E+03
 4.54000E-04    3.53000E+03
 5.82950E-04    9.97460E+03
 7.48520E-04    1.26526E+04
 9.61120E-04    1.14224E+04
 1.23410E-03    1.04323E+04
 1.58460E-03    9.53037E+03
 2.03470E-03    8.94322E+03
 2.24870E-03    8.62557E+03
 2.48520E-03    8.39429E+03
 2.61260E-03    8.24382E+03
 2.74650E-03    8.02357E+03
 3.03540E-03    7.73853E+03
 3.35460E-03    7.46370E+03
 3.70740E-03    7.14065E+03
 4.30740E-03    6.70391E+03
 5.53080E-03    6.20187E+03
 7.10170E-03    5.76398E+03
 9.11880E-03    5.39077E+03
 1.17090E-02    5.08946E+03
 1.50340E-02    4.80927E+03
 1.93050E-02    4.61361E+03
 2.18750E-02    4.52396E+03
 2.35790E-02    4.48016E+03
 2.41760E-02    4.45851E+03
 2.47880E-02    4.42626E+03
 2.60580E-02    4.38960E+03
 2.70000E-02    4.35174E+03
 2.85000E-02    4.28544E+03
 3.18280E-02    4.22250E+03
 3.43070E-02    4.14184E+03
 4.08680E-02    4.04696E+03
 4.63090E-02    3.97191E+03
 5.24750E-02    3.93068E+03
 5.65620E-02    3.88740E+03
 6.73790E-02    3.84655E+03
 7.20000E-02    3.82580E+03
 7.95000E-02    3.81115E+03
 8.25000E-02    3.80594E+03
 8.65170E-02    3.79511E+03
 9.80370E-02    3.78879E+03
 1.11090E-01    3.79600E+03
 1.16790E-01    3.80039E+03
 1.22770E-01    3.80473E+03
 1.29070E-01    3.81488E+03
 1.35690E-01    3.83519E+03
 1.42640E-01    3.85570E+03
 1.49960E-01    3.87555E+03
 1.57640E-01    3.89500E+03
 1.65730E-01    3.91544E+03
 1.74220E-01    3.93694E+03
 1.83160E-01    3.95955E+03
 1.92550E-01    3.98337E+03
 2.02420E-01    4.01714E+03
 2.12800E-01    4.05873E+03
 2.23710E-01    4.10245E+03
 2.35180E-01    4.14841E+03
 2.47240E-01    4.21641E+03
 2.73240E-01    4.28510E+03
 2.87250E-01    4.32148E+03
 2.94520E-01    4.33847E+03
 2.97200E-01    4.34525E+03
 2.98500E-01    4.35337E+03
 3.01970E-01    4.41859E+03
 3.33730E-01    4.54753E+03
 3.68830E-01    4.64955E+03
 3.87740E-01    4.71825E+03
 4.07620E-01    4.82844E+03
 4.50490E-01    4.97033E+03
 4.97870E-01    5.05560E+03
 5.23400E-01    5.12504E+03
 5.50230E-01    5.19889E+03
 5.78440E-01    5.27654E+03
 6.08100E-01    5.35708E+03
 6.39280E-01    5.43508E+03
 6.72060E-01    5.51593E+03
 7.06510E-01    5.60059E+03
 7.42740E-01    5.68131E+03
 7.80820E-01    5.76257E+03
 8.20850E-01    5.84151E+03
 8.62940E-01    5.91299E+03
 9.07180E-01    5.99073E+03
 9.61640E-01    6.05593E+03
 1.00260E+00    6.13697E+03
 1.10800E+00    6.21461E+03
 1.16480E+00    6.25640E+03
 1.22460E+00    6.23848E+03
 1.28730E+00    6.20665E+03
 1.35340E+00    6.18836E+03
 1.42270E+00    6.17305E+03
 1.49570E+00    6.13116E+03
 1.57240E+00    6.03416E+03
 1.65300E+00    5.92145E+03
 1.73770E+00    5.81440E+03
 1.82680E+00    5.71171E+03
 1.92050E+00    5.60305E+03
 2.01900E+00    5.45935E+03
 2.12250E+00    5.29323E+03
 2.23130E+00    5.15002E+03
 2.30690E+00    5.06263E+03
 2.34570E+00    5.01808E+03
 2.36530E+00    4.98798E+03
 2.38520E+00    4.91174E+03
 2.46600E+00    4.76393E+03
 2.59240E+00    4.58297E+03
 2.72530E+00    4.39624E+03
 2.86500E+00    4.20378E+03
 3.01190E+00    4.02507E+03
 3.16640E+00    3.85111E+03
 3.32870E+00    3.59917E+03
 3.67880E+00    3.29696E+03
 4.06570E+00    3.03991E+03
 4.49330E+00    2.87168E+03
 4.72370E+00    2.77476E+03
 4.96590E+00    2.68738E+03
 5.22050E+00    2.61363E+03
 5.48810E+00    2.55126E+03
 5.76950E+00    2.50140E+03
 6.06530E+00    2.46849E+03
 6.37630E+00    2.44903E+03
 6.59240E+00    2.44757E+03
 6.70320E+00    2.45010E+03
 7.04690E+00    2.46880E+03
 7.40820E+00    2.50558E+03
 7.78800E+00    2.56195E+03
 8.18730E+00    2.63551E+03
 8.60710E+00    2.71180E+03
 9.04840E+00    2.79716E+03
 9.51230E+00    2.88617E+03
 1.00000E+01    2.96785E+03
 1.05130E+01    3.04503E+03
 1.10520E+01    3.10990E+03
 1.16180E+01    3.16482E+03
 1.22140E+01    3.20105E+03
 1.28400E+01    3.22528E+03
 1.34990E+01    3.23061E+03
 1.38400E+01    3.23205E+03
 1.41910E+01    3.22500E+03
 1.45500E+01    3.21656E+03
 1.49180E+01    3.19490E+03
 1.56830E+01    3.15300E+03
 1.64870E+01    3.09364E+03
