# n + Cs137 : (n,t)     
# jendl4.0   N.Iwamoto                         EVAL-Apr09
# uncertainties: n
# # energies =    44
#   E(MeV)       xs(mb) 
 7.05868E+00    0.00000E+00
 7.34926E+00    4.21870E-17
 7.58911E+00    7.70140E-17
 8.19853E+00    2.05740E-16
 8.32839E+00    2.33400E-16
 8.50000E+00    2.69960E-16
 8.51771E+00    5.95980E-14
 8.52699E+00    9.06860E-14
 8.61375E+00    3.81350E-13
 8.63550E+00    4.54210E-13
 8.74910E+00    8.34790E-13
 8.85319E+00    1.18350E-12
 8.86309E+00    1.21670E-12
 8.96709E+00    1.56510E-12
 9.00000E+00    1.67540E-12
 9.00017E+00    1.82520E-12
 9.04150E+00    3.82510E-11
 9.11964E+00    1.07120E-10
 9.12232E+00    1.09480E-10
 9.16704E+00    1.48890E-10
 9.18664E+00    1.66170E-10
 9.22605E+00    2.00900E-10
 9.50000E+00    4.42340E-10
 1.00000E+01    1.85070E-08
 1.05000E+01    2.58090E-07
 1.10000E+01    1.77107E-06
 1.15000E+01    7.54515E-06
 1.20000E+01    2.32559E-05
 1.25000E+01    6.01752E-05
 1.30000E+01    1.52154E-04
 1.35000E+01    4.25417E-04
 1.40000E+01    1.23436E-03
 1.45000E+01    3.43272E-03
 1.50000E+01    8.57496E-03
 1.55000E+01    1.90551E-02
 1.60000E+01    3.72024E-02
 1.65000E+01    6.51468E-02
 1.70000E+01    1.04225E-01
 1.75000E+01    1.55364E-01
 1.80000E+01    2.18522E-01
 1.85000E+01    2.92726E-01
 1.90000E+01    3.76535E-01
 1.95000E+01    4.68186E-01
 2.00000E+01    5.65553E-01
