# n + Cs137 : (n,xd)    
# jendl4.0   N.Iwamoto                         EVAL-Apr09
# 
# # energies =    85
#   E(MeV)        xs(mb) 
 1.05000E-01    0.00000E+00
 1.10000E-01    0.00000E+00
 1.20000E-01    0.00000E+00
 1.30000E-01    0.00000E+00
 1.40000E-01    0.00000E+00
 1.50000E-01    0.00000E+00
 1.60000E-01    0.00000E+00
 1.70000E-01    0.00000E+00
 1.80000E-01    0.00000E+00
 1.90000E-01    0.00000E+00
 2.00000E-01    0.00000E+00
 2.25000E-01    0.00000E+00
 2.50000E-01    0.00000E+00
 2.75000E-01    0.00000E+00
 3.00000E-01    0.00000E+00
 4.00000E-01    0.00000E+00
 4.58847E-01    0.00000E+00
 5.00000E-01    0.00000E+00
 6.00000E-01    0.00000E+00
 7.00000E-01    0.00000E+00
 8.00000E-01    0.00000E+00
 8.55134E-01    0.00000E+00
 9.00000E-01    0.00000E+00
 1.00000E+00    0.00000E+00
 1.10000E+00    0.00000E+00
 1.19342E+00    0.00000E+00
 1.20000E+00    0.00000E+00
 1.28258E+00    0.00000E+00
 1.30000E+00    0.00000E+00
 1.40000E+00    0.00000E+00
 1.50000E+00    0.00000E+00
 1.50098E+00    0.00000E+00
 1.57563E+00    0.00000E+00
 1.58140E+00    0.00000E+00
 1.58643E+00    0.00000E+00
 1.60000E+00    0.00000E+00
 1.66340E+00    0.00000E+00
 1.68401E+00    0.00000E+00
 1.70000E+00    0.00000E+00
 1.79660E+00    0.00000E+00
 1.80000E+00    0.00000E+00
 1.88162E+00    0.00000E+00
 1.90000E+00    0.00000E+00
 1.90794E+00    0.00000E+00
 1.93039E+00    0.00000E+00
 2.00000E+00    0.00000E+00
 2.08326E+00    0.00000E+00
 2.25000E+00    0.00000E+00
 2.50000E+00    0.00000E+00
 2.75000E+00    0.00000E+00
 3.00000E+00    0.00000E+00
 3.50000E+00    0.00000E+00
 4.00000E+00    0.00000E+00
 4.50000E+00    0.00000E+00
 5.00000E+00    0.00000E+00
 5.50000E+00    8.78439E-16
 6.00000E+00    2.46447E-15
 6.50000E+00    4.05050E-15
 7.00000E+00    2.74430E-11
 7.50000E+00    5.36530E-09
 8.00000E+00    1.67400E-07
 8.50000E+00    1.75831E-06
 9.00000E+00    9.22736E-06
 9.50000E+00    3.20869E-05
 1.00000E+01    1.04153E-04
 1.05000E+01    4.57448E-04
 1.10000E+01    1.79836E-03
 1.15000E+01    5.04297E-03
 1.20000E+01    1.71586E-02
 1.25000E+01    4.00970E-02
 1.30000E+01    8.49017E-02
 1.35000E+01    1.63055E-01
 1.40000E+01    2.45859E-01
 1.45000E+01    4.04801E-01
 1.50000E+01    5.53811E-01
 1.55000E+01    7.34260E-01
 1.60000E+01    9.45700E-01
 1.65000E+01    1.18864E+00
 1.70000E+01    1.35811E+00
 1.75000E+01    1.65102E+00
 1.80000E+01    1.97482E+00
 1.85000E+01    2.19043E+00
 1.90000E+01    2.42013E+00
 1.95000E+01    2.79105E+00
 2.00000E+01    3.03855E+00
