# n + Cs137 : (n,xt)    
# jendl4.0   N.Iwamoto                         EVAL-Apr09
# 
# # energies =    85
#   E(MeV)        xs(mb) 
 1.05000E-01    0.00000E+00
 1.10000E-01    0.00000E+00
 1.20000E-01    0.00000E+00
 1.30000E-01    0.00000E+00
 1.40000E-01    0.00000E+00
 1.50000E-01    0.00000E+00
 1.60000E-01    0.00000E+00
 1.70000E-01    0.00000E+00
 1.80000E-01    0.00000E+00
 1.90000E-01    0.00000E+00
 2.00000E-01    0.00000E+00
 2.25000E-01    0.00000E+00
 2.50000E-01    0.00000E+00
 2.75000E-01    0.00000E+00
 3.00000E-01    0.00000E+00
 4.00000E-01    0.00000E+00
 4.58847E-01    0.00000E+00
 5.00000E-01    0.00000E+00
 6.00000E-01    0.00000E+00
 7.00000E-01    0.00000E+00
 8.00000E-01    0.00000E+00
 8.55134E-01    0.00000E+00
 9.00000E-01    0.00000E+00
 1.00000E+00    0.00000E+00
 1.10000E+00    0.00000E+00
 1.19342E+00    0.00000E+00
 1.20000E+00    0.00000E+00
 1.28258E+00    0.00000E+00
 1.30000E+00    0.00000E+00
 1.40000E+00    0.00000E+00
 1.50000E+00    0.00000E+00
 1.50098E+00    0.00000E+00
 1.57563E+00    0.00000E+00
 1.58140E+00    0.00000E+00
 1.58643E+00    0.00000E+00
 1.60000E+00    0.00000E+00
 1.66340E+00    0.00000E+00
 1.68401E+00    0.00000E+00
 1.70000E+00    0.00000E+00
 1.79660E+00    0.00000E+00
 1.80000E+00    0.00000E+00
 1.88162E+00    0.00000E+00
 1.90000E+00    0.00000E+00
 1.90794E+00    0.00000E+00
 1.93039E+00    0.00000E+00
 2.00000E+00    0.00000E+00
 2.08326E+00    0.00000E+00
 2.25000E+00    0.00000E+00
 2.50000E+00    0.00000E+00
 2.75000E+00    0.00000E+00
 3.00000E+00    0.00000E+00
 3.50000E+00    0.00000E+00
 4.00000E+00    0.00000E+00
 4.50000E+00    0.00000E+00
 5.00000E+00    0.00000E+00
 5.50000E+00    0.00000E+00
 6.00000E+00    0.00000E+00
 6.50000E+00    0.00000E+00
 7.00000E+00    0.00000E+00
 7.50000E+00    6.40750E-17
 8.00000E+00    1.63805E-16
 8.50000E+00    2.69960E-16
 9.00000E+00    1.67540E-12
 9.50000E+00    4.42340E-10
 1.00000E+01    1.85070E-08
 1.05000E+01    2.58090E-07
 1.10000E+01    1.77107E-06
 1.15000E+01    7.54515E-06
 1.20000E+01    2.32559E-05
 1.25000E+01    6.01752E-05
 1.30000E+01    1.52154E-04
 1.35000E+01    4.25417E-04
 1.40000E+01    1.23436E-03
 1.45000E+01    3.43272E-03
 1.50000E+01    8.57496E-03
 1.55000E+01    1.90551E-02
 1.60000E+01    3.72024E-02
 1.65000E+01    6.51468E-02
 1.70000E+01    1.04226E-01
 1.75000E+01    1.55373E-01
 1.80000E+01    2.18592E-01
 1.85000E+01    2.93015E-01
 1.90000E+01    3.77546E-01
 1.95000E+01    4.72006E-01
 2.00000E+01    5.74689E-01
