# n + Cs137 : (n,p)     
# jendl4.0   N.Iwamoto                         EVAL-Apr09
# uncertainties: n
# # energies =    57
#   E(MeV)       xs(mb) 
 3.40883E+00    0.00000E+00
 4.01431E+00    1.10370E-12
 4.40230E+00    9.94190E-11
 4.50000E+00    1.24190E-10
 4.63581E+00    1.75490E-09
 4.63789E+00    1.77990E-09
 4.72116E+00    2.78590E-09
 4.88088E+00    4.71640E-09
 4.93213E+00    5.33590E-09
 4.95446E+00    5.60580E-09
 5.00000E+00    6.15630E-09
 5.04188E+00    5.19540E-08
 5.08925E+00    1.03760E-07
 5.13702E+00    1.56000E-07
 5.17430E+00    1.96770E-07
 5.18802E+00    2.11770E-07
 5.21815E+00    2.44730E-07
 5.23091E+00    2.58680E-07
 5.24281E+00    2.71700E-07
 5.26389E+00    2.94750E-07
 5.27215E+00    3.03780E-07
 5.29576E+00    3.29600E-07
 5.30194E+00    3.36360E-07
 5.32112E+00    3.57340E-07
 5.34943E+00    3.88300E-07
 5.35829E+00    3.97990E-07
 5.35915E+00    3.98930E-07
 5.50000E+00    5.52970E-07
 6.00000E+00    9.57983E-06
 6.50000E+00    6.32895E-05
 7.00000E+00    2.30445E-04
 7.50000E+00    5.72917E-04
 8.00000E+00    1.12735E-03
 8.50000E+00    1.98790E-03
 9.00000E+00    3.52297E-03
 9.50000E+00    6.72736E-03
 1.00000E+01    1.37088E-02
 1.05000E+01    2.82578E-02
 1.10000E+01    5.57716E-02
 1.15000E+01    1.05886E-01
 1.20000E+01    1.87429E-01
 1.25000E+01    3.13740E-01
 1.30000E+01    4.91843E-01
 1.35000E+01    7.36988E-01
 1.40000E+01    1.03266E+00
 1.45000E+01    1.39334E+00
 1.50000E+01    1.80347E+00
 1.55000E+01    2.24706E+00
 1.60000E+01    2.71541E+00
 1.65000E+01    3.15102E+00
 1.70000E+01    3.62848E+00
 1.75000E+01    3.97323E+00
 1.80000E+01    4.37194E+00
 1.85000E+01    4.73453E+00
 1.90000E+01    4.94495E+00
 1.95000E+01    5.13853E+00
 2.00000E+01    5.33426E+00
