# n + Pm147 : (n,t)     
# jendl4.0   N.Iwamoto                         EVAL-Dec09
# uncertainties: n
# # energies =    55
#   E(MeV)       xs(mb) 
 4.52011E+00    0.00000E+00
 4.58779E+00    2.14500E-19
 4.59311E+00    2.33010E-19
 5.18230E+00    2.50450E-18
 5.27353E+00    2.85760E-18
 5.30592E+00    2.98290E-18
 5.44626E+00    3.52610E-18
 5.44715E+00    3.52960E-18
 5.46360E+00    3.59320E-18
 5.53828E+00    3.88230E-18
 5.57874E+00    4.05620E-18
 5.61281E+00    4.20750E-18
 5.63894E+00    4.32490E-18
 5.67827E+00    4.50300E-18
 5.68913E+00    4.55230E-18
 5.69041E+00    4.55810E-18
 5.74215E+00    4.79350E-18
 5.77842E+00    4.95870E-18
 5.81454E+00    5.12310E-18
 5.84595E+00    5.26610E-18
 5.85552E+00    5.30970E-18
 5.86790E+00    5.36600E-18
 5.93063E+00    5.65160E-18
 5.93103E+00    5.65350E-18
 5.93367E+00    5.66550E-18
 5.95751E+00    5.77400E-18
 6.00000E+00    5.96750E-18
 6.50000E+00    1.02940E-13
 7.00000E+00    4.71650E-11
 7.50000E+00    2.76900E-09
 8.00000E+00    4.62320E-08
 8.50000E+00    3.45270E-07
 9.00000E+00    1.56475E-06
 9.50000E+00    5.70410E-06
 1.00000E+01    2.17393E-05
 1.05000E+01    9.04315E-05
 1.10000E+01    3.57911E-04
 1.15000E+01    1.23492E-03
 1.20000E+01    3.59214E-03
 1.25000E+01    9.20714E-03
 1.30000E+01    2.06112E-02
 1.35000E+01    4.08500E-02
 1.40000E+01    7.27707E-02
 1.45000E+01    1.18395E-01
 1.50000E+01    1.78635E-01
 1.55000E+01    2.53743E-01
 1.60000E+01    3.40089E-01
 1.65000E+01    4.38997E-01
 1.70000E+01    5.47462E-01
 1.75000E+01    6.61853E-01
 1.80000E+01    7.77869E-01
 1.85000E+01    8.87633E-01
 1.90000E+01    9.90049E-01
 1.95000E+01    1.08201E+00
 2.00000E+01    1.16147E+00
