# n + Pm147 : (n,tot)   
# jendl4.0   N.Iwamoto                         EVAL-Dec09
# uncertainties: n
# # energies =   171
#   E(MeV)       xs(mb) 
 1.00000E-11    1.86118E+06
 1.00000E-07    7.66406E+04
 4.13990E-07    5.29961E+04
 5.31580E-07    4.80033E+04
 6.82560E-07    4.38544E+04
 8.76420E-07    4.06806E+04
 1.12540E-06    3.87534E+04
 1.44500E-06    3.86278E+04
 1.85540E-06    4.16477E+04
 2.37240E-06    5.20961E+04
 3.05900E-06    9.04842E+04
 3.92790E-06    5.57247E+05
 5.04350E-06    9.36270E+06
 6.47600E-06    1.04807E+06
 8.31530E-06    3.26068E+04
 1.06770E-05    1.54300E+04
 1.37100E-05    5.37236E+04
 1.76030E-05    9.83859E+04
 2.26030E-05    1.20839E+04
 2.92030E-05    2.56564E+04
 3.72670E-05    3.29109E+05
 4.78510E-05    8.46766E+04
 6.14420E-05    1.23993E+05
 7.88930E-05    1.26179E+05
 1.01300E-04    2.13557E+05
 1.30070E-04    1.94418E+05
 1.67020E-04    1.72079E+05
 2.14450E-04    1.52308E+05
 2.75360E-04    1.34806E+05
 3.53580E-04    1.19341E+05
 4.54000E-04    1.05777E+05
 5.82950E-04    9.37775E+04
 7.48520E-04    8.31843E+04
 9.61120E-04    7.38647E+04
 1.23410E-03    6.56919E+04
 1.58460E-03    5.84251E+04
 2.03470E-03    5.37950E+04
 2.24870E-03    5.13317E+04
 2.48520E-03    4.95545E+04
 2.61260E-03    4.84060E+04
 2.74650E-03    4.67358E+04
 3.03540E-03    4.45957E+04
 3.35460E-03    4.25527E+04
 3.70740E-03    4.01436E+04
 4.30740E-03    3.66422E+04
 5.53080E-03    3.26877E+04
 7.10170E-03    2.91779E+04
 9.11880E-03    2.60658E+04
 1.17090E-02    2.33114E+04
 1.50340E-02    2.08501E+04
 1.93050E-02    1.91702E+04
 2.18750E-02    1.83371E+04
 2.35790E-02    1.79345E+04
 2.41760E-02    1.77365E+04
 2.47880E-02    1.74442E+04
 2.60580E-02    1.71172E+04
 2.70000E-02    1.67803E+04
 2.85000E-02    1.61810E+04
 3.18280E-02    1.55294E+04
 3.43070E-02    1.46969E+04
 4.08680E-02    1.37528E+04
 4.63090E-02    1.30147E+04
 5.24750E-02    1.24522E+04
 5.65620E-02    1.17885E+04
 6.73790E-02    1.11812E+04
 7.20000E-02    1.07869E+04
 7.95000E-02    1.04723E+04
 8.25000E-02    1.02820E+04
 8.65170E-02    9.90494E+03
 9.80370E-02    9.39915E+03
 1.11090E-01    9.07034E+03
 1.16790E-01    8.89323E+03
 1.22770E-01    8.71064E+03
 1.29070E-01    8.54033E+03
 1.35690E-01    8.36652E+03
 1.42640E-01    8.20145E+03
 1.49960E-01    8.03742E+03
 1.57640E-01    7.88890E+03
 1.65730E-01    7.76502E+03
 1.74220E-01    7.64075E+03
 1.83160E-01    7.51719E+03
 1.92550E-01    7.40194E+03
 2.02420E-01    7.28123E+03
 2.12800E-01    7.16625E+03
 2.23710E-01    7.05469E+03
 2.35180E-01    6.93865E+03
 2.47240E-01    6.81548E+03
 2.73240E-01    6.73023E+03
 2.87250E-01    6.68592E+03
 2.94520E-01    6.66576E+03
 2.97200E-01    6.65910E+03
 2.98500E-01    6.65128E+03
 3.01970E-01    6.59432E+03
 3.33730E-01    6.48545E+03
 3.68830E-01    6.40795E+03
 3.87740E-01    6.36244E+03
 4.07620E-01    6.37306E+03
 4.50490E-01    6.40709E+03
 4.97870E-01    6.43483E+03
 5.23400E-01    6.45458E+03
 5.50230E-01    6.47535E+03
 5.78440E-01    6.49692E+03
 6.08100E-01    6.51902E+03
 6.39280E-01    6.55417E+03
 6.72060E-01    6.60052E+03
 7.06510E-01    6.64925E+03
 7.42740E-01    6.70048E+03
 7.80820E-01    6.75428E+03
 8.20850E-01    6.80471E+03
 8.62940E-01    6.85334E+03
 9.07180E-01    6.90886E+03
 9.61640E-01    6.96276E+03
 1.00260E+00    7.02176E+03
 1.10800E+00    7.07372E+03
 1.16480E+00    7.09742E+03
 1.22460E+00    7.11887E+03
 1.28730E+00    7.13362E+03
 1.35340E+00    7.14048E+03
 1.42270E+00    7.13571E+03
 1.49570E+00    7.12680E+03
 1.57240E+00    7.11500E+03
 1.65300E+00    7.08848E+03
 1.73770E+00    7.05829E+03
 1.82680E+00    7.02612E+03
 1.92050E+00    6.97962E+03
 2.01900E+00    6.92481E+03
 2.12250E+00    6.86720E+03
 2.23130E+00    6.81653E+03
 2.30690E+00    6.78064E+03
 2.34570E+00    6.76133E+03
 2.36530E+00    6.74828E+03
 2.38520E+00    6.71516E+03
 2.46600E+00    6.64693E+03
 2.59240E+00    6.55730E+03
 2.72530E+00    6.45846E+03
 2.86500E+00    6.35455E+03
 3.01190E+00    6.24128E+03
 3.16640E+00    6.11709E+03
 3.32870E+00    5.92116E+03
 3.67880E+00    5.64953E+03
 4.06570E+00    5.36604E+03
 4.49330E+00    5.15982E+03
 4.72370E+00    5.03138E+03
 4.96590E+00    4.91001E+03
 5.22050E+00    4.80605E+03
 5.48810E+00    4.71141E+03
 5.76950E+00    4.63487E+03
 6.06530E+00    4.58105E+03
 6.37630E+00    4.54461E+03
 6.59240E+00    4.52896E+03
 6.70320E+00    4.51581E+03
 7.04690E+00    4.51166E+03
 7.40820E+00    4.51943E+03
 7.78800E+00    4.54055E+03
 8.18730E+00    4.57087E+03
 8.60710E+00    4.61106E+03
 9.04840E+00    4.65339E+03
 9.51230E+00    4.70098E+03
 1.00000E+01    4.75423E+03
 1.05130E+01    4.80984E+03
 1.10520E+01    4.86641E+03
 1.16180E+01    4.92242E+03
 1.22140E+01    4.97539E+03
 1.28400E+01    5.02292E+03
 1.34990E+01    5.05329E+03
 1.38400E+01    5.07039E+03
 1.41910E+01    5.08423E+03
 1.45500E+01    5.09471E+03
 1.49180E+01    5.10349E+03
 1.56830E+01    5.10107E+03
 1.64870E+01    5.08032E+03
