# n + Pm147 : (n,g)     
# jendl4.0   N.Iwamoto                         EVAL-Dec09
# uncertainties: n
# # energies =    69
#   E(MeV)       xs(mb) 
 1.00000E-10    1.18018E+06
 5.00000E-09    3.20672E+05
 1.00000E-08    2.42454E+05
 1.50000E-08    2.03374E+05
 2.00000E-08    1.78645E+05
 2.50000E-08    1.61146E+05
 3.00000E-08    1.47903E+05
 3.50000E-08    1.35741E+05
 4.20000E-08    1.23885E+05
 5.00000E-08    1.14010E+05
 5.80000E-08    1.05714E+05
 6.70000E-08    9.72713E+04
 8.00000E-08    8.76546E+04
 1.00000E-07    7.57446E+04
 1.40000E-07    6.48106E+04
 1.80000E-07    5.74648E+04
 2.20000E-07    5.26473E+04
 2.50000E-07    4.93854E+04
 2.80000E-07    4.70592E+04
 3.00000E-07    4.54354E+04
 3.20000E-07    4.36429E+04
 3.50000E-07    4.11991E+04
 4.00000E-07    3.76613E+04
 5.00000E-07    3.38278E+04
 6.25000E-07    3.06939E+04
 7.80000E-07    2.89177E+04
 8.50000E-07    2.81729E+04
 9.10000E-07    2.76940E+04
 9.50000E-07    2.74340E+04
 9.72000E-07    2.72601E+04
 9.96000E-07    2.70935E+04
 1.02000E-06    2.69362E+04
 1.04500E-06    2.67879E+04
 1.07100E-06    2.66502E+04
 1.09700E-06    2.65279E+04
 1.12300E-06    2.64162E+04
 1.15000E-06    2.61572E+04
 1.30000E-06    2.59744E+04
 1.50000E-06    2.71207E+04
 2.10000E-06    3.17468E+04
 2.60000E-06    4.30592E+04
 3.30000E-06    7.60829E+04
 4.00000E-06    2.09114E+06
 9.87700E-06    2.57714E+04
 1.59680E-05    4.01369E+04
 2.77000E-05    1.24747E+05
 4.80520E-05    6.08560E+04
 7.55014E-05    6.01024E+04
 1.48728E-04    3.08074E+04
 3.67262E-04    1.44761E+04
 9.06898E-04    7.96522E+03
 1.42510E-03    5.42242E+03
 2.23945E-03    3.69170E+03
 3.51910E-03    2.52808E+03
 5.53000E-03    1.73646E+03
 9.11800E-03    1.20524E+03
 1.50300E-02    8.64642E+02
 2.47800E-02    6.42718E+02
 4.08500E-02    4.97122E+02
 6.73400E-02    3.92737E+02
 1.11000E-01    2.97098E+02
 1.83000E-01    2.47198E+02
 3.02000E-01    1.94560E+02
 5.00000E-01    1.08963E+02
 8.21000E-01    5.49378E+01
 1.35300E+00    3.48361E+01
 2.23100E+00    2.26159E+01
 3.67900E+00    8.51764E+00
 6.06500E+00    1.63302E+00
