# n + Pm147 : (n,xh)    
# jendl4.0   N.Iwamoto                         EVAL-Dec09
# 
# # energies =    88
#   E(MeV)        xs(mb) 
 9.17255E-02    0.00000E+00
 1.00000E-01    0.00000E+00
 1.05000E-01    0.00000E+00
 1.10000E-01    0.00000E+00
 1.20000E-01    0.00000E+00
 1.30000E-01    0.00000E+00
 1.40000E-01    0.00000E+00
 1.50000E-01    0.00000E+00
 1.60000E-01    0.00000E+00
 1.70000E-01    0.00000E+00
 1.80000E-01    0.00000E+00
 1.90000E-01    0.00000E+00
 2.00000E-01    0.00000E+00
 2.25000E-01    0.00000E+00
 2.50000E-01    0.00000E+00
 2.75000E-01    0.00000E+00
 3.00000E-01    0.00000E+00
 3.52403E-01    0.00000E+00
 3.82609E-01    0.00000E+00
 4.00000E-01    0.00000E+00
 4.11002E-01    0.00000E+00
 4.11003E-01    0.00000E+00
 4.13328E-01    0.00000E+00
 4.92609E-01    0.00000E+00
 5.00000E-01    0.00000E+00
 5.03433E-01    0.00000E+00
 5.34656E-01    0.00000E+00
 6.00000E-01    0.00000E+00
 6.24257E-01    0.00000E+00
 6.37145E-01    0.00000E+00
 6.45703E-01    0.00000E+00
 6.53758E-01    0.00000E+00
 6.64531E-01    0.00000E+00
 6.71781E-01    0.00000E+00
 6.85132E-01    0.00000E+00
 6.90599E-01    0.00000E+00
 7.00000E-01    0.00000E+00
 8.00000E-01    0.00000E+00
 9.00000E-01    0.00000E+00
 1.00000E+00    0.00000E+00
 1.10000E+00    0.00000E+00
 1.20000E+00    0.00000E+00
 1.30000E+00    0.00000E+00
 1.40000E+00    0.00000E+00
 1.50000E+00    0.00000E+00
 1.60000E+00    0.00000E+00
 1.70000E+00    0.00000E+00
 1.80000E+00    0.00000E+00
 1.90000E+00    0.00000E+00
 2.00000E+00    0.00000E+00
 2.25000E+00    0.00000E+00
 2.50000E+00    0.00000E+00
 2.75000E+00    0.00000E+00
 3.00000E+00    0.00000E+00
 3.50000E+00    0.00000E+00
 4.00000E+00    0.00000E+00
 4.50000E+00    0.00000E+00
 5.00000E+00    0.00000E+00
 5.50000E+00    0.00000E+00
 6.00000E+00    0.00000E+00
 6.50000E+00    1.51852E-32
 7.00000E+00    3.89561E-29
 7.50000E+00    9.05583E-29
 8.00000E+00    1.43854E-28
 8.50000E+00    1.97150E-28
 9.00000E+00    2.85770E-26
 9.50000E+00    1.60280E-22
 1.00000E+01    1.07650E-19
 1.05000E+01    1.67330E-17
 1.10000E+01    9.05650E-16
 1.15000E+01    2.24910E-14
 1.20000E+01    3.20110E-13
 1.25000E+01    3.31020E-12
 1.30000E+01    3.11580E-11
 1.35000E+01    2.79220E-10
 1.40000E+01    2.15590E-09
 1.45000E+01    1.34590E-08
 1.50000E+01    6.76880E-08
 1.55000E+01    2.48980E-07
 1.60000E+01    9.04990E-07
 1.65000E+01    2.92930E-06
 1.70000E+01    7.55363E-06
 1.75000E+01    1.81848E-05
 1.80000E+01    4.06156E-05
 1.85000E+01    8.48584E-05
 1.90000E+01    1.67246E-04
 1.95000E+01    3.01739E-04
 2.00000E+01    5.22730E-04
