# n + Dy158 : (n,tot)   
# endfb8.0   Kim,Mughabghab,Herman,Oblozinsky  EVAL-FEB06
# uncertainties: n
# # energies =   171
#   E(MeV)       xs(mb) 
 1.00000E-11    4.86571E+05
 1.00000E-07    1.97228E+04
 4.13990E-07    1.32592E+04
 5.31580E-07    1.18448E+04
 6.82560E-07    1.06124E+04
 8.76420E-07    9.55593E+03
 1.12540E-06    8.66977E+03
 1.44500E-06    7.94324E+03
 1.85540E-06    7.36394E+03
 2.37240E-06    6.90425E+03
 3.05900E-06    6.54543E+03
 3.92790E-06    6.26937E+03
 5.04350E-06    6.05366E+03
 6.47600E-06    5.87389E+03
 8.31530E-06    5.71286E+03
 1.06770E-05    5.54597E+03
 1.37100E-05    5.34986E+03
 1.76030E-05    5.08814E+03
 2.26030E-05    4.66442E+03
 2.92030E-05    7.80142E+03
 3.72670E-05    5.57925E+05
 4.78510E-05    1.27412E+04
 6.14420E-05    6.41571E+03
 7.88930E-05    2.01420E+05
 1.01300E-04    8.42882E+04
 1.30070E-04    7.51868E+04
 1.67020E-04    6.71724E+04
 2.14450E-04    6.00842E+04
 2.75360E-04    5.38315E+04
 3.53580E-04    4.83236E+04
 4.54000E-04    4.34505E+04
 5.82950E-04    3.91550E+04
 7.48520E-04    3.53677E+04
 9.61120E-04    3.20206E+04
 1.23410E-03    2.90666E+04
 1.58460E-03    2.64642E+04
 2.03470E-03    2.48136E+04
 2.24870E-03    2.39385E+04
 2.48520E-03    2.33091E+04
 2.61260E-03    2.29034E+04
 2.74650E-03    2.23147E+04
 3.03540E-03    2.15627E+04
 3.35460E-03    2.08490E+04
 3.70740E-03    2.00022E+04
 4.30740E-03    1.87559E+04
 5.53080E-03    1.73573E+04
 7.10170E-03    1.61189E+04
 9.11880E-03    1.50213E+04
 1.17090E-02    1.40496E+04
 1.50340E-02    1.31829E+04
 1.93050E-02    1.25926E+04
 2.18750E-02    1.22990E+04
 2.35790E-02    1.21571E+04
 2.41760E-02    1.20862E+04
 2.47880E-02    1.19819E+04
 2.60580E-02    1.18656E+04
 2.70000E-02    1.17459E+04
 2.85000E-02    1.15314E+04
 3.18280E-02    1.12975E+04
 3.43070E-02    1.09963E+04
 4.08680E-02    1.06515E+04
 4.63090E-02    1.03755E+04
 5.24750E-02    1.01625E+04
 5.65620E-02    9.90512E+03
 6.73790E-02    9.66324E+03
 7.20000E-02    9.50173E+03
 7.95000E-02    9.37073E+03
 8.25000E-02    9.29012E+03
 8.65170E-02    9.12787E+03
 9.80370E-02    8.89044E+03
 1.11090E-01    8.71082E+03
 1.16790E-01    8.60075E+03
 1.22770E-01    8.50378E+03
 1.29070E-01    8.41165E+03
 1.35690E-01    8.31487E+03
 1.42640E-01    8.21311E+03
 1.49960E-01    8.11884E+03
 1.57640E-01    8.04192E+03
 1.65730E-01    7.96144E+03
 1.74220E-01    7.87683E+03
 1.83160E-01    7.78785E+03
 1.92550E-01    7.69457E+03
 2.02420E-01    7.62316E+03
 2.12800E-01    7.56668E+03
 2.23710E-01    7.50732E+03
 2.35180E-01    7.44490E+03
 2.47240E-01    7.34479E+03
 2.73240E-01    7.23780E+03
 2.87250E-01    7.18110E+03
 2.94520E-01    7.15463E+03
 2.97200E-01    7.14406E+03
 2.98500E-01    7.13142E+03
 3.01970E-01    7.08853E+03
 3.33730E-01    7.01751E+03
 3.68830E-01    6.95964E+03
 3.87740E-01    6.91852E+03
 4.07620E-01    6.87935E+03
 4.50490E-01    6.83644E+03
 4.97870E-01    6.80500E+03
 5.23400E-01    6.79690E+03
 5.50230E-01    6.78960E+03
 5.78440E-01    6.78231E+03
 6.08100E-01    6.78223E+03
 6.39280E-01    6.78511E+03
 6.72060E-01    6.78814E+03
 7.06510E-01    6.79132E+03
 7.42740E-01    6.79667E+03
 7.80820E-01    6.80499E+03
 8.20850E-01    6.81376E+03
 8.62940E-01    6.82297E+03
 9.07180E-01    6.83349E+03
 9.61640E-01    6.84371E+03
 1.00260E+00    6.85909E+03
 1.10800E+00    6.86535E+03
 1.16480E+00    6.85962E+03
 1.22460E+00    6.85360E+03
 1.28730E+00    6.84721E+03
 1.35340E+00    6.83363E+03
 1.42270E+00    6.81463E+03
 1.49570E+00    6.79465E+03
 1.57240E+00    6.77365E+03
 1.65300E+00    6.74631E+03
 1.73770E+00    6.71109E+03
 1.82680E+00    6.67403E+03
 1.92050E+00    6.63371E+03
 2.01900E+00    6.58349E+03
 2.12250E+00    6.52945E+03
 2.23130E+00    6.48238E+03
 2.30690E+00    6.45318E+03
 2.34570E+00    6.43829E+03
 2.36530E+00    6.42823E+03
 2.38520E+00    6.40270E+03
 2.46600E+00    6.35011E+03
 2.59240E+00    6.28251E+03
 2.72530E+00    6.20743E+03
 2.86500E+00    6.12829E+03
 3.01190E+00    6.04507E+03
 3.16640E+00    5.95760E+03
 3.32870E+00    5.81732E+03
 3.67880E+00    5.61916E+03
 4.06570E+00    5.43067E+03
 4.49330E+00    5.29080E+03
 4.72370E+00    5.19116E+03
 4.96590E+00    5.10378E+03
 5.22050E+00    5.04124E+03
 5.48810E+00    4.97594E+03
 5.76950E+00    4.90834E+03
 6.06530E+00    4.86801E+03
 6.37630E+00    4.84474E+03
 6.59240E+00    4.83031E+03
 6.70320E+00    4.81074E+03
 7.04690E+00    4.80333E+03
 7.40820E+00    4.80996E+03
 7.78800E+00    4.81826E+03
 8.18730E+00    4.84567E+03
 8.60710E+00    4.88054E+03
 9.04840E+00    4.91948E+03
 9.51230E+00    4.96741E+03
 1.00000E+01    5.01830E+03
 1.05130E+01    5.07174E+03
 1.10520E+01    5.12055E+03
 1.16180E+01    5.16545E+03
 1.22140E+01    5.19848E+03
 1.28400E+01    5.22234E+03
 1.34990E+01    5.22888E+03
 1.38400E+01    5.23104E+03
 1.41910E+01    5.22374E+03
 1.45500E+01    5.21492E+03
 1.49180E+01    5.19135E+03
 1.56830E+01    5.14279E+03
 1.64870E+01    5.07349E+03
