# n + Dy163 : (n,xn)    
# endfb8.0   Kim,Herman,Oh,Oblozinsky          EVAL-FEB06
# 
# # energies =    74
#   E(MeV)        xs(mb) 
 7.38947E-02    0.00000E+00
 8.00000E-02    2.02083E+02
 9.00000E-02    3.67183E+02
 1.00000E-01    4.63765E+02
 1.20000E-01    5.76242E+02
 1.50000E-01    6.48616E+02
 1.68376E-01    6.57080E+02
 2.00000E-01    7.63684E+02
 2.52433E-01    8.47830E+02
 2.83303E-01    1.16487E+03
 2.87348E-01    1.21121E+03
 2.97000E-01    1.43604E+03
 3.00000E-01    1.50599E+03
 3.38623E-01    1.62548E+03
 3.53314E-01    1.70116E+03
 3.92153E-01    1.93981E+03
 4.00000E-01    2.02890E+03
 4.14943E-01    2.00996E+03
 4.17811E-01    2.00688E+03
 4.24441E-01    1.99996E+03
 4.30318E-01    2.00220E+03
 4.52786E-01    2.07014E+03
 4.65444E-01    2.14085E+03
 4.78323E-01    2.25440E+03
 5.00000E-01    2.51167E+03
 5.00077E-01    2.51163E+03
 5.17726E-01    2.50369E+03
 5.17786E-01    2.50373E+03
 5.56434E-01    2.56273E+03
 5.72231E-01    2.61123E+03
 5.77544E-01    2.62758E+03
 5.94659E-01    2.70016E+03
 6.00000E-01    2.72987E+03
 6.15789E-01    2.72395E+03
 6.21122E-01    2.72544E+03
 6.48993E-01    2.75897E+03
 6.55030E-01    2.77085E+03
 7.00000E-01    2.86232E+03
 8.00000E-01    2.97077E+03
 9.00000E-01    3.02935E+03
 1.00000E+00    3.06779E+03
 1.10000E+00    3.10768E+03
 1.20000E+00    3.12173E+03
 1.30000E+00    3.12776E+03
 1.40000E+00    3.13727E+03
 1.50000E+00    3.13417E+03
 1.60000E+00    3.12793E+03
 1.70000E+00    3.11977E+03
 1.80000E+00    3.10975E+03
 1.90000E+00    3.09842E+03
 2.00000E+00    3.08642E+03
 2.50000E+00    3.02493E+03
 3.00000E+00    2.96592E+03
 3.50000E+00    2.90391E+03
 4.00000E+00    2.84677E+03
 5.00000E+00    2.75844E+03
 6.00000E+00    2.69703E+03
 6.20000E+00    2.68497E+03
 6.40000E+00    2.67289E+03
 7.00000E+00    2.88699E+03
 8.00000E+00    3.67434E+03
 9.00000E+00    4.13954E+03
 1.00000E+01    4.33712E+03
 1.10000E+01    4.40931E+03
 1.20000E+01    4.42883E+03
 1.30000E+01    4.42731E+03
 1.40000E+01    4.41576E+03
 1.45000E+01    4.41255E+03
 1.50000E+01    4.41160E+03
 1.60000E+01    4.51022E+03
 1.70000E+01    4.86889E+03
 1.80000E+01    5.23774E+03
 1.90000E+01    5.57265E+03
 2.00000E+01    5.79192E+03
