# n + Dy163 : (n,tot)   
# endfb8.0   Kim,Herman,Oh,Oblozinsky          EVAL-FEB06
# uncertainties: n
# # energies =   171
#   E(MeV)       xs(mb) 
 1.00000E-11    1.31630E+06
 1.00000E-07    5.55035E+04
 4.13990E-07    4.89904E+04
 5.31580E-07    5.26302E+04
 6.82560E-07    6.28782E+04
 8.76420E-07    9.25731E+04
 1.12540E-06    2.38699E+05
 1.44500E-06    4.01185E+06
 1.85540E-06    3.62462E+05
 2.37240E-06    3.94689E+04
 3.05900E-06    1.44335E+04
 3.92790E-06    8.53247E+03
 5.04350E-06    1.26262E+04
 6.47600E-06    5.54645E+03
 8.31530E-06    5.18295E+03
 1.06770E-05    6.49895E+03
 1.37100E-05    6.58724E+05
 1.76030E-05    3.46891E+04
 2.26030E-05    5.98454E+03
 2.92030E-05    5.80062E+04
 3.72670E-05    4.89426E+03
 4.78510E-05    2.79272E+05
 6.14420E-05    3.96028E+04
 7.88930E-05    3.84970E+04
 1.01300E-04    9.30888E+04
 1.30070E-04    6.50845E+04
 1.67020E-04    2.40559E+04
 2.14450E-04    6.93162E+04
 2.75360E-04    9.63859E+04
 3.53580E-04    5.31801E+04
 4.54000E-04    4.30008E+04
 5.82950E-04    3.85838E+04
 7.48520E-04    2.94252E+04
 9.61120E-04    3.21400E+04
 1.23410E-03    2.96566E+04
 1.58460E-03    2.69998E+04
 2.03470E-03    2.53144E+04
 2.24870E-03    2.44206E+04
 2.48520E-03    2.37776E+04
 2.61260E-03    2.33632E+04
 2.74650E-03    2.27617E+04
 3.03540E-03    2.19932E+04
 3.35460E-03    2.12637E+04
 3.70740E-03    2.03980E+04
 4.30740E-03    1.91234E+04
 5.53080E-03    1.76913E+04
 7.10170E-03    1.64242E+04
 9.11880E-03    1.53001E+04
 1.17090E-02    1.43028E+04
 1.50340E-02    1.34153E+04
 1.93050E-02    1.28089E+04
 2.18750E-02    1.25065E+04
 2.35790E-02    1.23598E+04
 2.41760E-02    1.22886E+04
 2.47880E-02    1.21821E+04
 2.60580E-02    1.20628E+04
 2.70000E-02    1.19412E+04
 2.85000E-02    1.17231E+04
 3.18280E-02    1.14836E+04
 3.43070E-02    1.11758E+04
 4.08680E-02    1.08239E+04
 4.63090E-02    1.05458E+04
 5.24750E-02    1.03318E+04
 5.65620E-02    1.00737E+04
 6.73790E-02    9.83474E+03
 7.20000E-02    9.69082E+03
 7.95000E-02    9.60006E+03
 8.25000E-02    9.54195E+03
 8.65170E-02    9.43217E+03
 9.80370E-02    9.27599E+03
 1.11090E-01    9.16655E+03
 1.16790E-01    9.10326E+03
 1.22770E-01    9.03929E+03
 1.29070E-01    8.98200E+03
 1.35690E-01    8.92283E+03
 1.42640E-01    8.86060E+03
 1.49960E-01    8.79677E+03
 1.57640E-01    8.74236E+03
 1.65730E-01    8.68793E+03
 1.74220E-01    8.63071E+03
 1.83160E-01    8.57054E+03
 1.92550E-01    8.50731E+03
 2.02420E-01    8.45299E+03
 2.12800E-01    8.41031E+03
 2.23710E-01    8.36546E+03
 2.35180E-01    8.31831E+03
 2.47240E-01    8.24270E+03
 2.73240E-01    8.16188E+03
 2.87250E-01    8.11905E+03
 2.94520E-01    8.09906E+03
 2.97200E-01    8.09108E+03
 2.98500E-01    8.08153E+03
 3.01970E-01    8.03369E+03
 3.33730E-01    7.95365E+03
 3.68830E-01    7.88854E+03
 3.87740E-01    7.84216E+03
 4.07620E-01    7.78640E+03
 4.50490E-01    7.72012E+03
 4.97870E-01    7.66641E+03
 5.23400E-01    7.63715E+03
 5.50230E-01    7.61057E+03
 5.78440E-01    7.58263E+03
 6.08100E-01    7.55432E+03
 6.39280E-01    7.53341E+03
 6.72060E-01    7.51340E+03
 7.06510E-01    7.49237E+03
 7.42740E-01    7.47410E+03
 7.80820E-01    7.46012E+03
 8.20850E-01    7.44545E+03
 8.62940E-01    7.43002E+03
 9.07180E-01    7.41241E+03
 9.61640E-01    7.39532E+03
 1.00260E+00    7.36942E+03
 1.10800E+00    7.34021E+03
 1.16480E+00    7.31938E+03
 1.22460E+00    7.29749E+03
 1.28730E+00    7.27448E+03
 1.35340E+00    7.25028E+03
 1.42270E+00    7.22486E+03
 1.49570E+00    7.19811E+03
 1.57240E+00    7.17001E+03
 1.65300E+00    7.14047E+03
 1.73770E+00    7.10942E+03
 1.82680E+00    7.07537E+03
 1.92050E+00    7.02939E+03
 2.01900E+00    6.97901E+03
 2.12250E+00    6.92607E+03
 2.23130E+00    6.87995E+03
 2.30690E+00    6.85121E+03
 2.34570E+00    6.83541E+03
 2.36530E+00    6.82437E+03
 2.38520E+00    6.79634E+03
 2.46600E+00    6.73860E+03
 2.59240E+00    6.66579E+03
 2.72530E+00    6.58434E+03
 2.86500E+00    6.49713E+03
 3.01190E+00    6.40541E+03
 3.16640E+00    6.30901E+03
 3.32870E+00    6.15442E+03
 3.67880E+00    5.93049E+03
 4.06570E+00    5.71201E+03
 4.49330E+00    5.54954E+03
 4.72370E+00    5.43378E+03
 4.96590E+00    5.32971E+03
 5.22050E+00    5.25005E+03
 5.48810E+00    5.16675E+03
 5.76950E+00    5.07929E+03
 6.06530E+00    5.00824E+03
 6.37630E+00    4.96308E+03
 6.59240E+00    4.94372E+03
 6.70320E+00    4.91812E+03
 7.04690E+00    4.89318E+03
 7.40820E+00    4.88262E+03
 7.78800E+00    4.87517E+03
 8.18730E+00    4.89329E+03
 8.60710E+00    4.91741E+03
 9.04840E+00    4.95251E+03
 9.51230E+00    5.00067E+03
 1.00000E+01    5.05472E+03
 1.05130E+01    5.11498E+03
 1.10520E+01    5.17828E+03
 1.16180E+01    5.24368E+03
 1.22140E+01    5.29854E+03
 1.28400E+01    5.34517E+03
 1.34990E+01    5.36902E+03
 1.38400E+01    5.38281E+03
 1.41910E+01    5.38597E+03
 1.45500E+01    5.38765E+03
 1.49180E+01    5.37802E+03
 1.56830E+01    5.34477E+03
 1.64870E+01    5.28573E+03
