# n + Pb204 : (n,xa)    
# jeff3.3    D.Rochman, A.J. Koning            EVAL-DEC07
# 
# # energies =   104
#   E(MeV)        xs(mb) 
 9.03617E-01    7.05084E-05
 1.00000E+00    6.72817E-05
 1.20000E+00    9.05309E-05
 1.28030E+00    9.94890E-05
 1.35785E+00    1.08108E-04
 1.40000E+00    1.12923E-04
 1.57100E+00    1.49444E-04
 1.59033E+00    1.53873E-04
 1.59059E+00    1.53932E-04
 1.60000E+00    1.56088E-04
 1.61270E+00    1.56536E-04
 1.67351E+00    1.58680E-04
 1.68951E+00    1.59244E-04
 1.72067E+00    1.60343E-04
 1.73852E+00    1.60972E-04
 1.76979E+00    1.62075E-04
 1.80000E+00    1.63140E-04
 1.82644E+00    1.69225E-04
 1.88137E+00    1.81885E-04
 1.94285E+00    1.96988E-04
 1.95798E+00    2.00705E-04
 1.97005E+00    2.03731E-04
 2.00000E+00    2.11557E-04
 2.07541E+00    2.32733E-04
 2.11589E+00    2.44614E-04
 2.16860E+00    2.60534E-04
 2.19660E+00    2.69263E-04
 2.20000E+00    2.70331E-04
 2.40000E+00    3.56601E-04
 2.60000E+00    4.89236E-04
 2.80000E+00    6.22803E-04
 3.00000E+00    8.46098E-04
 3.20000E+00    1.09277E-03
 3.40000E+00    1.40104E-03
 3.60000E+00    1.83393E-03
 3.80000E+00    2.28867E-03
 4.00000E+00    2.95449E-03
 4.20000E+00    3.71031E-03
 4.40000E+00    4.60474E-03
 4.60000E+00    5.78176E-03
 4.80000E+00    7.01314E-03
 5.00000E+00    8.62524E-03
 5.20000E+00    1.03857E-02
 5.40000E+00    1.23225E-02
 5.60000E+00    1.46577E-02
 5.80000E+00    1.70693E-02
 6.00000E+00    1.99604E-02
 6.20000E+00    2.30932E-02
 6.40000E+00    2.64387E-02
 6.60000E+00    3.03936E-02
 6.80000E+00    3.44785E-02
 7.00000E+00    3.91411E-02
 7.20000E+00    4.41801E-02
 7.40000E+00    4.94545E-02
 7.60000E+00    5.56457E-02
 7.80000E+00    6.19767E-02
 8.00000E+00    6.90427E-02
 8.50000E+00    8.98249E-02
 9.00000E+00    1.13634E-01
 9.50000E+00    1.39930E-01
 1.00000E+01    1.68287E-01
 1.05000E+01    1.99901E-01
 1.10000E+01    2.37413E-01
 1.15000E+01    2.89019E-01
 1.20000E+01    3.58563E-01
 1.25000E+01    4.51577E-01
 1.30000E+01    5.97455E-01
 1.35000E+01    7.26029E-01
 1.40000E+01    9.61313E-01
 1.45000E+01    1.16610E+00
 1.50000E+01    1.49561E+00
 1.60000E+01    2.21353E+00
 1.70000E+01    3.11537E+00
 1.80000E+01    4.21535E+00
 1.90000E+01    5.54772E+00
 2.00000E+01    7.17174E+00
 2.00000E+01    7.17177E+00
 2.20000E+01    1.16612E+01
 2.40000E+01    1.64148E+01
 2.60000E+01    1.82636E+01
 2.80000E+01    1.84852E+01
 3.00000E+01    1.96328E+01
 3.50000E+01    2.37516E+01
 4.00000E+01    2.93802E+01
 4.50000E+01    3.63981E+01
 5.00000E+01    4.45662E+01
 5.50000E+01    5.35522E+01
 6.00000E+01    6.32404E+01
 6.50000E+01    7.30546E+01
 7.00000E+01    8.29506E+01
 7.50000E+01    9.23515E+01
 8.00000E+01    1.00957E+02
 8.50000E+01    1.08563E+02
 9.00000E+01    1.15674E+02
 9.50000E+01    1.22743E+02
 1.00000E+02    1.29793E+02
 1.10000E+02    1.44776E+02
 1.20000E+02    1.62494E+02
 1.30000E+02    1.82798E+02
 1.40000E+02    2.04202E+02
 1.50000E+02    2.27072E+02
 1.60000E+02    2.50322E+02
 1.80000E+02    3.01776E+02
 2.00000E+02    3.48107E+02
