# n + Sn  0 : (n,d)m
# jendl.ad   N.Iwamoto                         EVAL-Apr14
# uncertainties: n
# # energies =    28
#   E(MeV)          xs(mb) 
 5.91982E+00    0.00000E+00
 7.00000E+00    1.79637E-14
 7.50000E+00    1.83890E-11
 8.00000E+00    2.73153E-09
 8.50000E+00    9.32284E-08
 9.00000E+00    1.41960E-06
 9.50000E+00    1.03590E-05
 1.00000E+01    5.00603E-05
 1.05000E+01    1.47317E-04
 1.10000E+01    4.79190E-04
 1.15000E+01    1.42330E-03
 1.20000E+01    4.01083E-03
 1.25000E+01    1.06516E-02
 1.30000E+01    2.61284E-02
 1.35000E+01    5.75179E-02
 1.40000E+01    1.12749E-01
 1.45000E+01    1.96553E-01
 1.50000E+01    3.13429E-01
 1.55000E+01    4.60825E-01
 1.60000E+01    6.35068E-01
 1.65000E+01    8.28845E-01
 1.70000E+01    1.03594E+00
 1.75000E+01    1.24875E+00
 1.80000E+01    1.46291E+00
 1.85000E+01    1.67568E+00
 1.90000E+01    1.87108E+00
 1.95000E+01    2.06752E+00
 2.00000E+01    2.24518E+00
