# n + Sn  0 : (n,xa)
# jendl.ad   N.Iwamoto                         EVAL-Apr14
#
# # energies =   111
#   E(MeV)          xs(mb) 
 1.05000E-01    3.83995E-06
 1.10000E-01    3.82551E-06
 1.20000E-01    3.81329E-06
 1.30000E-01    3.82128E-06
 1.40000E-01    3.84310E-06
 1.50000E-01    3.87533E-06
 1.60000E-01    3.92060E-06
 1.70000E-01    3.97545E-06
 1.80000E-01    4.03658E-06
 1.90000E-01    4.10681E-06
 2.00000E-01    4.18216E-06
 2.25000E-01    4.46713E-06
 2.50000E-01    4.79066E-06
 2.75000E-01    5.14661E-06
 3.00000E-01    5.53292E-06
 4.00000E-01    7.69905E-06
 5.00000E-01    1.08639E-05
 6.00000E-01    1.37063E-05
 7.00000E-01    1.84526E-05
 8.00000E-01    2.57257E-05
 9.00000E-01    3.60900E-05
 1.00000E+00    5.04401E-05
 1.10000E+00    6.98331E-05
 1.20000E+00    9.70158E-05
 1.30000E+00    1.16527E-04
 1.30482E+00    1.17418E-04
 1.40000E+00    1.34936E-04
 1.50000E+00    1.67313E-04
 1.60000E+00    2.12286E-04
 1.70000E+00    2.72128E-04
 1.77215E+00    3.28361E-04
 1.80000E+00    3.50067E-04
 1.90000E+00    4.52192E-04
 2.00000E+00    5.85658E-04
 2.04512E+00    6.65973E-04
 2.13070E+00    8.19068E-04
 2.24475E+00    1.00001E-03
 2.25000E+00    1.00886E-03
 2.28588E+00    1.06818E-03
 2.38657E+00    1.23205E-03
 2.41169E+00    1.27505E-03
 2.50000E+00    1.41964E-03
 2.55121E+00    1.50073E-03
 2.56786E+00    1.53020E-03
 2.60806E+00    1.59300E-03
 2.67351E+00    1.71411E-03
 2.75000E+00    1.88110E-03
 2.79747E+00    2.00421E-03
 2.81484E+00    2.04216E-03
 2.82566E+00    2.07008E-03
 2.86857E+00    2.18098E-03
 2.93416E+00    2.34722E-03
 2.93417E+00    2.34725E-03
 2.98579E+00    2.48987E-03
 3.00000E+00    2.50497E-03
 3.02235E+00    2.56039E-03
 3.04269E+00    2.62551E-03
 3.05909E+00    2.67802E-03
 3.07291E+00    2.72225E-03
 3.11551E+00    2.85918E-03
 3.12388E+00    2.88582E-03
 3.13220E+00    2.91053E-03
 3.18521E+00    3.13644E-03
 3.20735E+00    3.23240E-03
 3.21171E+00    3.25130E-03
 3.22212E+00    3.29657E-03
 3.23794E+00    3.36545E-03
 3.25554E+00    3.44165E-03
 3.25604E+00    3.44386E-03
 3.25615E+00    3.44434E-03
 3.26418E+00    3.47909E-03
 3.28602E+00    3.57412E-03
 3.30612E+00    3.66196E-03
 3.31761E+00    3.71219E-03
 3.33780E+00    3.80049E-03
 3.34384E+00    3.82690E-03
 3.36279E+00    3.90990E-03
 3.50000E+00    4.51186E-03
 4.00000E+00    7.75349E-03
 4.50000E+00    1.28290E-02
 5.00000E+00    2.00573E-02
 5.50000E+00    2.94840E-02
 6.00000E+00    4.12828E-02
 6.50000E+00    5.43160E-02
 7.00000E+00    6.88456E-02
 7.50000E+00    8.48496E-02
 8.00000E+00    1.03259E-01
 8.50000E+00    1.23458E-01
 9.00000E+00    1.53132E-01
 9.50000E+00    1.93329E-01
 1.00000E+01    2.49648E-01
 1.05000E+01    3.27987E-01
 1.10000E+01    4.35189E-01
 1.15000E+01    5.69522E-01
 1.20000E+01    7.35256E-01
 1.25000E+01    9.45172E-01
 1.30000E+01    1.20767E+00
 1.35000E+01    1.53166E+00
 1.40000E+01    1.92466E+00
 1.45000E+01    2.39257E+00
 1.50000E+01    2.94149E+00
 1.55000E+01    3.57211E+00
 1.60000E+01    4.28985E+00
 1.65000E+01    5.09236E+00
 1.70000E+01    5.98625E+00
 1.75000E+01    6.96334E+00
 1.80000E+01    8.03349E+00
 1.85000E+01    9.18570E+00
 1.90000E+01    1.04280E+01
 1.95000E+01    1.17477E+01
 2.00000E+01    1.31514E+01
