# n + Sn  0 : (n,xp)
# jendl.ad   N.Iwamoto                         EVAL-Apr14
#
# # energies =   111
#   E(MeV)          xs(mb) 
 1.05000E-01    0.00000E+00
 1.10000E-01    0.00000E+00
 1.20000E-01    0.00000E+00
 1.30000E-01    0.00000E+00
 1.40000E-01    0.00000E+00
 1.50000E-01    0.00000E+00
 1.60000E-01    0.00000E+00
 1.70000E-01    0.00000E+00
 1.80000E-01    0.00000E+00
 1.90000E-01    0.00000E+00
 2.00000E-01    0.00000E+00
 2.25000E-01    0.00000E+00
 2.50000E-01    0.00000E+00
 2.75000E-01    0.00000E+00
 3.00000E-01    0.00000E+00
 4.00000E-01    0.00000E+00
 5.00000E-01    0.00000E+00
 6.00000E-01    0.00000E+00
 7.00000E-01    0.00000E+00
 8.00000E-01    0.00000E+00
 9.00000E-01    0.00000E+00
 1.00000E+00    0.00000E+00
 1.10000E+00    0.00000E+00
 1.20000E+00    0.00000E+00
 1.30000E+00    0.00000E+00
 1.30482E+00    0.00000E+00
 1.40000E+00    0.00000E+00
 1.50000E+00    0.00000E+00
 1.60000E+00    0.00000E+00
 1.70000E+00    0.00000E+00
 1.77215E+00    2.43500E-07
 1.80000E+00    2.85024E-07
 1.90000E+00    4.71128E-06
 2.00000E+00    8.95134E-06
 2.04512E+00    1.72626E-05
 2.13070E+00    3.35681E-05
 2.24475E+00    6.00194E-05
 2.25000E+00    6.14785E-05
 2.28588E+00    7.63083E-05
 2.38657E+00    1.29400E-04
 2.41169E+00    1.47945E-04
 2.50000E+00    2.12448E-04
 2.55121E+00    2.63486E-04
 2.56786E+00    2.80201E-04
 2.60806E+00    3.25876E-04
 2.67351E+00    4.14692E-04
 2.75000E+00    5.33959E-04
 2.79747E+00    6.31683E-04
 2.81484E+00    6.70767E-04
 2.82566E+00    6.97844E-04
 2.86857E+00    8.05230E-04
 2.93416E+00    9.90413E-04
 2.93417E+00    9.90443E-04
 2.98579E+00    1.15389E-03
 3.00000E+00    1.19070E-03
 3.02235E+00    1.27440E-03
 3.04269E+00    1.35967E-03
 3.05909E+00    1.42842E-03
 3.07291E+00    1.48636E-03
 3.11551E+00    1.66926E-03
 3.12388E+00    1.70841E-03
 3.13220E+00    1.74737E-03
 3.18521E+00    2.04016E-03
 3.20735E+00    2.20990E-03
 3.21171E+00    2.24332E-03
 3.22212E+00    2.32598E-03
 3.23794E+00    2.44754E-03
 3.25554E+00    2.58280E-03
 3.25604E+00    2.58664E-03
 3.25615E+00    2.58749E-03
 3.26418E+00    2.64921E-03
 3.28602E+00    2.81738E-03
 3.30612E+00    2.97233E-03
 3.31761E+00    3.06090E-03
 3.33780E+00    3.21655E-03
 3.34384E+00    3.26311E-03
 3.36279E+00    3.40920E-03
 3.50000E+00    4.46695E-03
 4.00000E+00    1.26567E-02
 4.50000E+00    2.93842E-02
 5.00000E+00    5.76456E-02
 5.50000E+00    9.85858E-02
 6.00000E+00    1.52602E-01
 6.50000E+00    2.05546E-01
 7.00000E+00    2.73267E-01
 7.50000E+00    3.48732E-01
 8.00000E+00    4.36199E-01
 8.50000E+00    5.45033E-01
 9.00000E+00    6.89796E-01
 9.50000E+00    8.90580E-01
 1.00000E+01    1.17330E+00
 1.05000E+01    1.57471E+00
 1.10000E+01    2.14803E+00
 1.15000E+01    2.93281E+00
 1.20000E+01    3.96420E+00
 1.25000E+01    5.29301E+00
 1.30000E+01    6.93235E+00
 1.35000E+01    8.89660E+00
 1.40000E+01    1.12301E+01
 1.45000E+01    1.38789E+01
 1.50000E+01    1.68587E+01
 1.55000E+01    2.01122E+01
 1.60000E+01    2.35926E+01
 1.65000E+01    2.72339E+01
 1.70000E+01    3.10596E+01
 1.75000E+01    3.49688E+01
 1.80000E+01    3.90316E+01
 1.85000E+01    4.31293E+01
 1.90000E+01    4.72417E+01
 1.95000E+01    5.15007E+01
 2.00000E+01    5.58790E+01
