# n + Sn  0 : (n,d)
# jendl.ad   N.Iwamoto                         EVAL-Apr14
# uncertainties: n
# # energies =    69
#   E(MeV)          xs(mb) 
 5.37799E+00    0.00000E+00
 5.91982E+00    1.16890E-16
 6.18814E+00    2.34998E-15
 6.48972E+00    4.88697E-15
 6.50000E+00    4.97406E-15
 6.54123E+00    2.94481E-13
 6.57631E+00    5.40811E-13
 6.60647E+00    7.52606E-13
 6.66921E+00    1.19317E-12
 6.73485E+00    1.65504E-12
 6.74076E+00    1.69674E-12
 6.79178E+00    2.05665E-12
 6.85286E+00    2.48751E-12
 6.89196E+00    2.76331E-12
 6.93451E+00    3.06339E-12
 7.00000E+00    3.52538E-12
 7.00258E+00    7.97326E-12
 7.06428E+00    1.14348E-10
 7.14638E+00    2.55880E-10
 7.22607E+00    3.93275E-10
 7.24061E+00    4.18335E-10
 7.24405E+00    4.24272E-10
 7.26165E+00    4.54607E-10
 7.31013E+00    5.38193E-10
 7.31266E+00    5.42554E-10
 7.31428E+00    5.45349E-10
 7.33083E+00    5.73876E-10
 7.36537E+00    6.33422E-10
 7.39061E+00    6.76943E-10
 7.39866E+00    6.90824E-10
 7.42848E+00    7.42226E-10
 7.43091E+00    7.46418E-10
 7.46363E+00    8.02832E-10
 7.47921E+00    8.29689E-10
 7.48178E+00    8.34123E-10
 7.48694E+00    8.43013E-10
 7.50000E+00    8.65530E-10
 7.50400E+00    1.10044E-09
 7.50928E+00    1.41062E-09
 7.53936E+00    3.17722E-09
 7.57715E+00    5.39670E-09
 7.59896E+00    6.67765E-09
 7.61017E+00    7.33604E-09
 7.62621E+00    8.27813E-09
 8.00000E+00    3.02315E-08
 8.50000E+00    3.77707E-07
 9.00000E+00    2.88975E-06
 9.50000E+00    1.55791E-05
 1.00000E+01    6.69707E-05
 1.05000E+01    1.96731E-04
 1.10000E+01    6.41994E-04
 1.15000E+01    1.92848E-03
 1.20000E+01    5.49315E-03
 1.25000E+01    1.49858E-02
 1.30000E+01    3.89179E-02
 1.35000E+01    9.35794E-02
 1.40000E+01    2.05018E-01
 1.45000E+01    4.05198E-01
 1.50000E+01    7.30911E-01
 1.55000E+01    1.20621E+00
 1.60000E+01    1.84679E+00
 1.65000E+01    2.65080E+00
 1.70000E+01    3.61512E+00
 1.75000E+01    4.72062E+00
 1.80000E+01    5.95403E+00
 1.85000E+01    7.29579E+00
 1.90000E+01    8.65633E+00
 1.95000E+01    1.01190E+01
 2.00000E+01    1.15689E+01
