# n + Tb158 : (n,g)     
# jendl.ad   N.Iwamoto                         EVAL-Apr14
# uncertainties: n
# # energies =   171
#   E(MeV)       xs(mb) 
 1.00000E-11    1.15874E+06
 1.00000E-07    1.39878E+06
 4.13990E-07    9.02735E+05
 5.31580E-07    7.96606E+05
 6.82560E-07    7.02857E+05
 8.76420E-07    6.20169E+05
 1.12540E-06    5.47086E+05
 1.44500E-06    4.82638E+05
 1.85540E-06    4.26231E+05
 2.37240E-06    3.75959E+05
 3.05900E-06    3.31268E+05
 3.92790E-06    2.92173E+05
 5.04350E-06    2.57727E+05
 6.47600E-06    2.27302E+05
 8.31530E-06    2.00499E+05
 1.06770E-05    1.76736E+05
 1.37100E-05    1.55800E+05
 1.76030E-05    1.37318E+05
 2.26030E-05    1.20857E+05
 2.92030E-05    1.06511E+05
 3.72670E-05    9.40130E+04
 4.78510E-05    8.28315E+04
 6.14420E-05    7.29689E+04
 7.88930E-05    6.42467E+04
 1.01300E-04    5.65215E+04
 1.30070E-04    4.97089E+04
 1.67020E-04    4.37357E+04
 2.14450E-04    3.84598E+04
 2.75360E-04    3.38304E+04
 3.53580E-04    2.97539E+04
 4.54000E-04    2.61495E+04
 5.82950E-04    2.29824E+04
 7.48520E-04    2.01716E+04
 9.61120E-04    1.77017E+04
 1.23410E-03    1.55437E+04
 1.58460E-03    1.36518E+04
 2.03470E-03    1.24557E+04
 2.24870E-03    1.18232E+04
 2.48520E-03    1.13697E+04
 2.61260E-03    1.10797E+04
 2.74650E-03    1.06567E+04
 3.03540E-03    1.01154E+04
 3.35460E-03    9.60547E+03
 3.70740E-03    9.00425E+03
 4.30740E-03    8.14466E+03
 5.53080E-03    7.18696E+03
 7.10170E-03    6.35101E+03
 9.11880E-03    5.63410E+03
 1.17090E-02    5.04850E+03
 1.50340E-02    4.52803E+03
 1.93050E-02    4.18010E+03
 2.18750E-02    4.02480E+03
 2.35790E-02    3.95104E+03
 2.41760E-02    3.91383E+03
 2.47880E-02    3.86045E+03
 2.60580E-02    3.79922E+03
 2.70000E-02    3.73523E+03
 2.85000E-02    3.62494E+03
 3.18280E-02    3.51526E+03
 3.43070E-02    3.37530E+03
 4.08680E-02    3.22745E+03
 4.63090E-02    3.11810E+03
 5.24750E-02    3.03353E+03
 5.65620E-02    2.92087E+03
 6.73790E-02    2.82201E+03
 7.20000E-02    2.76211E+03
 7.95000E-02    2.71115E+03
 8.25000E-02    2.67666E+03
 8.65170E-02    2.60445E+03
 9.80370E-02    2.51354E+03
 1.11090E-01    2.45267E+03
 1.16790E-01    2.41946E+03
 1.22770E-01    2.38644E+03
 1.29070E-01    2.35223E+03
 1.35690E-01    2.31704E+03
 1.42640E-01    2.28456E+03
 1.49960E-01    2.25364E+03
 1.57640E-01    2.22113E+03
 1.65730E-01    2.18308E+03
 1.74220E-01    2.13749E+03
 1.83160E-01    2.09157E+03
 1.92550E-01    2.04873E+03
 2.02420E-01    2.00716E+03
 2.12800E-01    1.95199E+03
 2.23710E-01    1.90687E+03
 2.35180E-01    1.86519E+03
 2.47240E-01    1.78933E+03
 2.73240E-01    1.71987E+03
 2.87250E-01    1.68929E+03
 2.94520E-01    1.67519E+03
 2.97200E-01    1.66956E+03
 2.98500E-01    1.66282E+03
 3.01970E-01    1.61341E+03
 3.33730E-01    1.52476E+03
 3.68830E-01    1.46062E+03
 3.87740E-01    1.41480E+03
 4.07620E-01    1.34871E+03
 4.50490E-01    1.27029E+03
 4.97870E-01    1.21328E+03
 5.23400E-01    1.18043E+03
 5.50230E-01    1.14940E+03
 5.78440E-01    1.11680E+03
 6.08100E-01    1.08443E+03
 6.39280E-01    1.05964E+03
 6.72060E-01    1.03524E+03
 7.06510E-01    1.01151E+03
 7.42740E-01    9.87455E+02
 7.80820E-01    9.63381E+02
 8.20850E-01    9.34442E+02
 8.62940E-01    9.03606E+02
 9.07180E-01    8.69286E+02
 9.61640E-01    8.36698E+02
 1.00260E+00    7.90637E+02
 1.10800E+00    7.42322E+02
 1.16480E+00    7.11115E+02
 1.22460E+00    6.80736E+02
 1.28730E+00    6.51414E+02
 1.35340E+00    6.22952E+02
 1.42270E+00    5.95153E+02
 1.49570E+00    5.68628E+02
 1.57240E+00    5.42543E+02
 1.65300E+00    5.17033E+02
 1.73770E+00    4.91901E+02
 1.82680E+00    4.67150E+02
 1.92050E+00    4.42253E+02
 2.01900E+00    4.16019E+02
 2.12250E+00    3.89736E+02
 2.23130E+00    3.69263E+02
 2.30690E+00    3.58102E+02
 2.34570E+00    3.52453E+02
 2.36530E+00    3.48638E+02
 2.38520E+00    3.39665E+02
 2.46600E+00    3.20594E+02
 2.59240E+00    2.95255E+02
 2.72530E+00    2.70590E+02
 2.86500E+00    2.46388E+02
 3.01190E+00    2.22266E+02
 3.16640E+00    1.99039E+02
 3.32870E+00    1.67769E+02
 3.67880E+00    1.27227E+02
 4.06570E+00    9.22274E+01
 4.49330E+00    7.03241E+01
 4.72370E+00    5.79514E+01
 4.96590E+00    4.74843E+01
 5.22050E+00    3.84773E+01
 5.48810E+00    3.09876E+01
 5.76950E+00    2.47834E+01
 6.06530E+00    1.97604E+01
 6.37630E+00    1.63335E+01
 6.59240E+00    1.46130E+01
 6.70320E+00    1.26467E+01
 7.04690E+00    1.02575E+01
 7.40820E+00    8.43393E+00
 7.78800E+00    7.08086E+00
 8.18730E+00    6.09462E+00
 8.60710E+00    5.37945E+00
 9.04840E+00    4.86362E+00
 9.51230E+00    4.49190E+00
 1.00000E+01    4.22114E+00
 1.05130E+01    4.01758E+00
 1.10520E+01    3.84908E+00
 1.16180E+01    3.68243E+00
 1.22140E+01    3.49388E+00
 1.28400E+01    3.28818E+00
 1.34990E+01    3.13578E+00
 1.38400E+01    3.03643E+00
 1.41910E+01    2.92505E+00
 1.45500E+01    2.80482E+00
 1.49180E+01    2.59460E+00
 1.56830E+01    2.29649E+00
 1.64870E+01    1.99593E+00
