# n + Tb158 : (n,xa)    
# jendl.ad   N.Iwamoto                         EVAL-Apr14
# 
# # energies =   118
#   E(MeV)        xs(mb) 
 5.53915E-02    1.09946E-04
 6.00000E-02    1.07954E-04
 7.00000E-02    1.05169E-04
 8.00000E-02    1.03171E-04
 8.04103E-02    1.03093E-04
 9.00000E-02    1.01096E-04
 1.00000E-01    9.96763E-05
 1.05000E-01    1.01812E-04
 1.10000E-01    1.03947E-04
 1.11004E-01    1.03876E-04
 1.16238E-01    1.03507E-04
 1.20000E-01    1.03242E-04
 1.29119E-01    1.02615E-04
 1.30000E-01    1.02563E-04
 1.40000E-01    1.01975E-04
 1.50000E-01    1.01650E-04
 1.60000E-01    1.01437E-04
 1.68469E-01    1.01257E-04
 1.70000E-01    1.00917E-04
 1.80000E-01    1.00146E-04
 1.80043E-01    1.00143E-04
 1.90000E-01    9.92774E-05
 2.00000E-01    9.87370E-05
 2.09127E-01    1.03826E-04
 2.18688E-01    1.02351E-04
 2.25000E-01    1.02035E-04
 2.43546E-01    1.01295E-04
 2.50000E-01    1.00398E-04
 2.75000E-01    9.90717E-05
 2.82392E-01    9.89028E-05
 3.00000E-01    9.86897E-05
 3.00406E-01    9.87669E-05
 3.00407E-01    9.87671E-05
 3.24660E-01    1.03376E-04
 3.26069E-01    1.03337E-04
 3.40259E-01    1.02950E-04
 3.62098E-01    1.02428E-04
 3.73571E-01    1.02297E-04
 3.83534E-01    1.02344E-04
 3.90881E-01    1.02052E-04
 4.00000E-01    1.01914E-04
 4.08593E-01    1.01946E-04
 4.10706E-01    1.07537E-04
 4.10707E-01    1.07537E-04
 4.21978E-01    1.07351E-04
 4.41804E-01    1.07094E-04
 4.47238E-01    1.07177E-04
 4.63844E-01    1.07430E-04
 4.72700E-01    1.07565E-04
 4.87091E-01    1.07785E-04
 4.90412E-01    1.07835E-04
 4.98564E-01    1.07964E-04
 5.00000E-01    1.07991E-04
 5.09131E-01    1.08164E-04
 5.34391E-01    1.15325E-04
 5.34392E-01    1.15325E-04
 5.39423E-01    1.15556E-04
 5.43449E-01    1.15741E-04
 5.59551E-01    1.16482E-04
 5.74647E-01    1.17176E-04
 5.90749E-01    1.17812E-04
 5.93768E-01    1.17911E-04
 6.00000E-01    1.18109E-04
 6.05342E-01    1.18273E-04
 6.13997E-01    1.25657E-04
 6.16915E-01    1.25882E-04
 7.00000E-01    1.32278E-04
 8.00000E-01    1.49204E-04
 9.00000E-01    1.65508E-04
 1.00000E+00    1.81684E-04
 1.10000E+00    1.99293E-04
 1.20000E+00    2.18741E-04
 1.30000E+00    2.40546E-04
 1.40000E+00    2.64805E-04
 1.50000E+00    2.91877E-04
 1.60000E+00    3.21942E-04
 1.70000E+00    3.55054E-04
 1.80000E+00    3.91290E-04
 1.90000E+00    4.30859E-04
 2.00000E+00    4.73616E-04
 2.25000E+00    6.08884E-04
 2.50000E+00    7.45043E-04
 2.75000E+00    9.41353E-04
 3.00000E+00    1.20014E-03
 3.50000E+00    1.71111E-03
 4.00000E+00    2.30707E-03
 4.50000E+00    3.01470E-03
 5.00000E+00    3.94827E-03
 5.50000E+00    5.28972E-03
 6.00000E+00    7.33903E-03
 6.50000E+00    1.05763E-02
 7.00000E+00    1.57460E-02
 7.50000E+00    2.39645E-02
 8.00000E+00    3.68243E-02
 8.50000E+00    5.65144E-02
 9.00000E+00    8.56831E-02
 9.50000E+00    1.27247E-01
 1.00000E+01    1.84468E-01
 1.05000E+01    2.59834E-01
 1.10000E+01    3.55068E-01
 1.15000E+01    4.70704E-01
 1.20000E+01    6.06117E-01
 1.25000E+01    7.59689E-01
 1.30000E+01    9.29093E-01
 1.35000E+01    1.11158E+00
 1.40000E+01    1.30425E+00
 1.45000E+01    1.50427E+00
 1.50000E+01    1.70881E+00
 1.55000E+01    1.91628E+00
 1.60000E+01    2.12349E+00
 1.65000E+01    2.33010E+00
 1.70000E+01    2.53377E+00
 1.75000E+01    2.73444E+00
 1.80000E+01    2.93035E+00
 1.85000E+01    3.12244E+00
 1.90000E+01    3.31021E+00
 1.95000E+01    3.49343E+00
 2.00000E+01    3.67255E+00
