# n + Tb158 : (n,t)     
# jendl.ad   N.Iwamoto                         EVAL-Apr14
# uncertainties: n
# # energies =    72
#   E(MeV)       xs(mb) 
 3.83786E+00    0.00000E+00
 3.92740E+00    1.70000E-26
 4.12789E+00    5.84560E-26
 4.42631E+00    2.17410E-22
 4.80916E+00    4.96260E-22
 4.89406E+00    5.58110E-22
 4.97452E+00    6.16730E-22
 4.99939E+00    6.34850E-22
 5.00000E+00    6.37780E-22
 5.01352E+00    2.17880E-20
 5.08828E+00    1.38790E-19
 5.09385E+00    1.47510E-19
 5.10397E+00    1.63350E-19
 5.12216E+00    1.91830E-19
 5.14397E+00    2.25980E-19
 5.16595E+00    2.60400E-19
 5.20194E+00    3.16760E-19
 5.21305E+00    3.34160E-19
 5.25499E+00    3.99840E-19
 5.26299E+00    4.12370E-19
 5.30950E+00    4.85200E-19
 5.31575E+00    4.94990E-19
 5.35435E+00    5.55440E-19
 5.35810E+00    5.61310E-19
 5.38654E+00    6.05850E-19
 5.38789E+00    6.07960E-19
 5.42481E+00    6.65780E-19
 5.44305E+00    6.94340E-19
 5.47077E+00    7.37750E-19
 5.48633E+00    7.62120E-19
 5.49201E+00    7.71010E-19
 5.50000E+00    7.83530E-19
 5.55456E+00    6.25990E-16
 5.56401E+00    7.34280E-16
 5.60272E+00    1.17790E-15
 5.61475E+00    1.31570E-15
 5.62027E+00    1.37900E-15
 5.62973E+00    1.48740E-15
 5.64807E+00    1.69750E-15
 5.65339E+00    1.75850E-15
 5.67738E+00    2.03340E-15
 5.69800E+00    2.26970E-15
 5.69952E+00    2.28710E-15
 6.00000E+00    5.73030E-15
 6.50000E+00    1.86230E-12
 7.00000E+00    9.81630E-11
 7.50000E+00    1.63120E-09
 8.00000E+00    1.25120E-08
 8.50000E+00    5.66700E-08
 9.00000E+00    1.88330E-07
 9.50000E+00    6.77350E-07
 1.00000E+01    3.69903E-06
 1.05000E+01    2.21382E-05
 1.10000E+01    1.09985E-04
 1.15000E+01    4.28567E-04
 1.20000E+01    1.41817E-03
 1.25000E+01    3.98145E-03
 1.30000E+01    9.69476E-03
 1.35000E+01    2.08063E-02
 1.40000E+01    3.99048E-02
 1.45000E+01    6.93588E-02
 1.50000E+01    1.10831E-01
 1.55000E+01    1.63303E-01
 1.60000E+01    2.30983E-01
 1.65000E+01    3.09091E-01
 1.70000E+01    3.98548E-01
 1.75000E+01    4.97808E-01
 1.80000E+01    6.05688E-01
 1.85000E+01    7.16808E-01
 1.90000E+01    8.32350E-01
 1.95000E+01    9.48637E-01
 2.00000E+01    1.06211E+00
