# n + Tb158 : (n,tot)   
# jendl.ad   N.Iwamoto                         EVAL-Apr14
# uncertainties: n
# # energies =   171
#   E(MeV)       xs(mb) 
 1.00000E-11    1.15921E+06
 1.00000E-07    1.39880E+06
 4.13990E-07    9.02824E+05
 5.31580E-07    7.96744E+05
 6.82560E-07    7.03032E+05
 8.76420E-07    6.20387E+05
 1.12540E-06    5.47191E+05
 1.44500E-06    4.82602E+05
 1.85540E-06    4.26097E+05
 2.37240E-06    3.75931E+05
 3.05900E-06    3.31132E+05
 3.92790E-06    2.92061E+05
 5.04350E-06    2.57655E+05
 6.47600E-06    2.27292E+05
 8.31530E-06    2.00452E+05
 1.06770E-05    1.76671E+05
 1.37100E-05    1.55779E+05
 1.76030E-05    1.37270E+05
 2.26030E-05    1.20828E+05
 2.92030E-05    1.06476E+05
 3.72670E-05    9.39780E+04
 4.78510E-05    8.28131E+04
 6.14420E-05    7.29480E+04
 7.88930E-05    6.42317E+04
 1.01300E-04    5.64984E+04
 1.30070E-04    4.97104E+04
 1.67020E-04    4.37194E+04
 2.14450E-04    3.84465E+04
 2.75360E-04    3.38311E+04
 3.53580E-04    2.97434E+04
 4.54000E-04    2.61456E+04
 5.82950E-04    2.29754E+04
 7.48520E-04    2.01678E+04
 9.61120E-04    1.76953E+04
 1.23410E-03    1.55402E+04
 1.58460E-03    1.36465E+04
 2.03470E-03    1.24505E+04
 2.24870E-03    1.18199E+04
 2.48520E-03    1.13663E+04
 2.61260E-03    1.10756E+04
 2.74650E-03    1.06621E+04
 3.03540E-03    1.01117E+04
 3.35460E-03    9.60301E+03
 3.70740E-03    9.00102E+03
 4.30740E-03    8.14287E+03
 5.53080E-03    7.18438E+03
 7.10170E-03    6.35027E+03
 9.11880E-03    5.63221E+03
 1.17090E-02    5.04752E+03
 1.50340E-02    4.52602E+03
 1.93050E-02    4.17906E+03
 2.18750E-02    4.02347E+03
 2.35790E-02    3.94828E+03
 2.41760E-02    3.91311E+03
 2.47880E-02    3.86029E+03
 2.60580E-02    3.79968E+03
 2.70000E-02    3.73512E+03
 2.85000E-02    3.62371E+03
 3.18280E-02    3.51383E+03
 3.43070E-02    3.37531E+03
 4.08680E-02    3.22634E+03
 4.63090E-02    3.11702E+03
 5.24750E-02    3.03522E+03
 5.65620E-02    2.91946E+03
 6.73790E-02    2.82167E+03
 7.20000E-02    2.76326E+03
 7.95000E-02    2.71293E+03
 8.25000E-02    2.67641E+03
 8.65170E-02    2.60346E+03
 9.80370E-02    2.51211E+03
 1.11090E-01    2.45175E+03
 1.16790E-01    2.41841E+03
 1.22770E-01    2.38510E+03
 1.29070E-01    2.35073E+03
 1.35690E-01    2.31575E+03
 1.42640E-01    2.28376E+03
 1.49960E-01    2.25309E+03
 1.57640E-01    2.22184E+03
 1.65730E-01    2.18261E+03
 1.74220E-01    2.13886E+03
 1.83160E-01    2.09117E+03
 1.92550E-01    2.04778E+03
 2.02420E-01    2.00677E+03
 2.12800E-01    1.95241E+03
 2.23710E-01    1.90632E+03
 2.35180E-01    1.86510E+03
 2.47240E-01    1.78889E+03
 2.73240E-01    1.72019E+03
 2.87250E-01    1.69039E+03
 2.94520E-01    1.67653E+03
 2.97200E-01    1.67099E+03
 2.98500E-01    1.69028E+03
 3.01970E-01    2.39695E+03
 3.33730E-01    2.53869E+03
 3.68830E-01    2.55111E+03
 3.87740E-01    2.56178E+03
 4.07620E-01    2.57048E+03
 4.50490E-01    2.58037E+03
 4.97870E-01    2.58985E+03
 5.23400E-01    2.59655E+03
 5.50230E-01    2.60375E+03
 5.78440E-01    2.61313E+03
 6.08100E-01    2.62252E+03
 6.39280E-01    2.62870E+03
 6.72060E-01    2.63667E+03
 7.06510E-01    2.64417E+03
 7.42740E-01    2.65224E+03
 7.80820E-01    2.66213E+03
 8.20850E-01    2.67234E+03
 8.62940E-01    2.68517E+03
 9.07180E-01    2.69912E+03
 9.61640E-01    2.71389E+03
 1.00260E+00    2.73205E+03
 1.10800E+00    2.75007E+03
 1.16480E+00    2.76210E+03
 1.22460E+00    2.77247E+03
 1.28730E+00    2.78289E+03
 1.35340E+00    2.79214E+03
 1.42270E+00    2.80017E+03
 1.49570E+00    2.80774E+03
 1.57240E+00    2.81382E+03
 1.65300E+00    2.81874E+03
 1.73770E+00    2.82256E+03
 1.82680E+00    2.82537E+03
 1.92050E+00    2.82724E+03
 2.01900E+00    2.82683E+03
 2.12250E+00    2.82757E+03
 2.23130E+00    2.82929E+03
 2.30690E+00    2.82918E+03
 2.34570E+00    2.82909E+03
 2.36530E+00    2.82913E+03
 2.38520E+00    2.83005E+03
 2.46600E+00    2.83124E+03
 2.59240E+00    2.83248E+03
 2.72530E+00    2.83503E+03
 2.86500E+00    2.83771E+03
 3.01190E+00    2.83762E+03
 3.16640E+00    2.83668E+03
 3.32870E+00    2.83804E+03
 3.67880E+00    2.82683E+03
 4.06570E+00    2.80530E+03
 4.49330E+00    2.78418E+03
 4.72370E+00    2.76712E+03
 4.96590E+00    2.74981E+03
 5.22050E+00    2.73044E+03
 5.48810E+00    2.71109E+03
 5.76950E+00    2.69129E+03
 6.06530E+00    2.67209E+03
 6.37630E+00    2.65626E+03
 6.59240E+00    2.64634E+03
 6.70320E+00    2.63522E+03
 7.04690E+00    2.62318E+03
 7.40820E+00    2.61092E+03
 7.78800E+00    2.59998E+03
 8.18730E+00    2.58887E+03
 8.60710E+00    2.57613E+03
 9.04840E+00    2.56083E+03
 9.51230E+00    2.54277E+03
 1.00000E+01    2.52244E+03
 1.05130E+01    2.50077E+03
 1.10520E+01    2.47885E+03
 1.16180E+01    2.45764E+03
 1.22140E+01    2.43801E+03
 1.28400E+01    2.42060E+03
 1.34990E+01    2.40921E+03
 1.38400E+01    2.40245E+03
 1.41910E+01    2.39637E+03
 1.45500E+01    2.39083E+03
 1.49180E+01    2.38330E+03
 1.56830E+01    2.37407E+03
 1.64870E+01    2.36496E+03
