# n + Tb158 : (n,na)m   
# jendl.ad   N.Iwamoto                         EVAL-Apr14
# uncertainties: n
# # energies =    38
#   E(MeV)       xs(mb) 
 3.04989E-01    0.00000E+00
 2.50000E+00    4.14430E-34
 2.75000E+00    2.87350E-30
 3.00000E+00    1.27560E-27
 3.50000E+00    6.48930E-23
 4.00000E+00    2.37220E-19
 4.50000E+00    1.37880E-16
 5.00000E+00    2.18310E-14
 5.50000E+00    1.32960E-12
 6.00000E+00    3.93630E-11
 6.50000E+00    6.67810E-10
 7.00000E+00    7.28200E-09
 7.50000E+00    4.82920E-08
 8.00000E+00    2.02280E-07
 8.50000E+00    7.30840E-07
 9.00000E+00    2.39822E-06
 9.50000E+00    7.11714E-06
 1.00000E+01    1.69108E-05
 1.05000E+01    4.11215E-05
 1.10000E+01    9.16810E-05
 1.15000E+01    1.90484E-04
 1.20000E+01    3.72946E-04
 1.25000E+01    6.95086E-04
 1.30000E+01    1.24411E-03
 1.35000E+01    2.15451E-03
 1.40000E+01    3.63351E-03
 1.45000E+01    5.99684E-03
 1.50000E+01    9.63286E-03
 1.55000E+01    1.57374E-02
 1.60000E+01    2.46575E-02
 1.65000E+01    3.63301E-02
 1.70000E+01    5.37083E-02
 1.75000E+01    7.74718E-02
 1.80000E+01    1.03474E-01
 1.85000E+01    1.42385E-01
 1.90000E+01    1.90741E-01
 1.95000E+01    2.36796E-01
 2.00000E+01    2.93063E-01
