# n + Tb158 : (n,xp)    
# jendl.ad   N.Iwamoto                         EVAL-Apr14
# 
# # energies =   118
#   E(MeV)        xs(mb) 
 5.53915E-02    1.31366E-06
 6.00000E-02    1.31873E-06
 7.00000E-02    1.34462E-06
 8.00000E-02    1.38418E-06
 8.04103E-02    1.38583E-06
 9.00000E-02    1.42464E-06
 1.00000E-01    1.48054E-06
 1.05000E-01    1.51477E-06
 1.10000E-01    1.54996E-06
 1.11004E-01    1.55703E-06
 1.16238E-01    1.59612E-06
 1.20000E-01    1.62491E-06
 1.29119E-01    1.70192E-06
 1.30000E-01    1.70952E-06
 1.40000E-01    1.80367E-06
 1.50000E-01    1.90792E-06
 1.60000E-01    2.02242E-06
 1.68469E-01    2.12168E-06
 1.70000E-01    2.12632E-06
 1.80000E-01    2.23047E-06
 1.80043E-01    2.23091E-06
 1.90000E-01    2.32278E-06
 2.00000E-01    2.44705E-06
 2.09127E-01    2.56693E-06
 2.18688E-01    2.69311E-06
 2.25000E-01    2.78507E-06
 2.43546E-01    3.08298E-06
 2.50000E-01    3.18799E-06
 2.75000E-01    3.64173E-06
 2.82392E-01    3.79582E-06
 3.00000E-01    4.19128E-06
 3.00406E-01    4.20048E-06
 3.00407E-01    4.20050E-06
 3.24660E-01    4.80384E-06
 3.26069E-01    4.84010E-06
 3.40259E-01    5.21463E-06
 3.62098E-01    5.82882E-06
 3.73571E-01    6.19757E-06
 3.83534E-01    6.52956E-06
 3.90881E-01    6.77725E-06
 4.00000E-01    7.10576E-06
 4.08593E-01    7.42454E-06
 4.10706E-01    7.47978E-06
 4.10707E-01    7.47982E-06
 4.21978E-01    7.89933E-06
 4.41804E-01    8.69839E-06
 4.47238E-01    8.94688E-06
 4.63844E-01    9.73323E-06
 4.72700E-01    1.01817E-05
 4.87091E-01    1.09395E-05
 4.90412E-01    1.11143E-05
 4.98564E-01    1.15404E-05
 5.00000E-01    1.16153E-05
 5.09131E-01    1.21164E-05
 5.34391E-01    1.37277E-05
 5.34392E-01    1.37278E-05
 5.39423E-01    1.40722E-05
 5.43449E-01    1.43478E-05
 5.59551E-01    1.55611E-05
 5.74647E-01    1.66985E-05
 5.90749E-01    1.80725E-05
 5.93768E-01    1.83301E-05
 6.00000E-01    1.88881E-05
 6.05342E-01    1.93664E-05
 6.13997E-01    2.01989E-05
 6.16915E-01    2.04796E-05
 7.00000E-01    3.07905E-05
 8.00000E-01    4.88187E-05
 9.00000E-01    7.33053E-05
 1.00000E+00    1.05783E-04
 1.10000E+00    1.48216E-04
 1.20000E+00    2.02290E-04
 1.30000E+00    2.70497E-04
 1.40000E+00    3.54457E-04
 1.50000E+00    4.56232E-04
 1.60000E+00    5.77675E-04
 1.70000E+00    7.20184E-04
 1.80000E+00    8.84891E-04
 1.90000E+00    1.07268E-03
 2.00000E+00    1.28437E-03
 2.25000E+00    1.90507E-03
 2.50000E+00    2.71849E-03
 2.75000E+00    3.65822E-03
 3.00000E+00    4.65473E-03
 3.50000E+00    6.97158E-03
 4.00000E+00    9.28994E-03
 4.50000E+00    1.15754E-02
 5.00000E+00    1.43827E-02
 5.50000E+00    1.92035E-02
 6.00000E+00    2.93438E-02
 6.50000E+00    5.12021E-02
 7.00000E+00    9.58955E-02
 7.50000E+00    1.80830E-01
 8.00000E+00    3.30607E-01
 8.50000E+00    5.74732E-01
 9.00000E+00    9.45880E-01
 9.50000E+00    1.47395E+00
 1.00000E+01    2.18108E+00
 1.05000E+01    3.08949E+00
 1.10000E+01    4.20450E+00
 1.15000E+01    5.53258E+00
 1.20000E+01    7.07502E+00
 1.25000E+01    8.83093E+00
 1.30000E+01    1.07980E+01
 1.35000E+01    1.29728E+01
 1.40000E+01    1.53509E+01
 1.45000E+01    1.79270E+01
 1.50000E+01    2.06948E+01
 1.55000E+01    2.36469E+01
 1.60000E+01    2.67708E+01
 1.65000E+01    3.00631E+01
 1.70000E+01    3.35085E+01
 1.75000E+01    3.70962E+01
 1.80000E+01    4.08159E+01
 1.85000E+01    4.46622E+01
 1.90000E+01    4.86169E+01
 1.95000E+01    5.26703E+01
 2.00000E+01    5.67967E+01
