# n + Tb158 : (n,xn)    
# jendl.ad   N.Iwamoto                         EVAL-Apr14
# 
# # energies =   118
#   E(MeV)        xs(mb) 
 5.53915E-02    0.00000E+00
 6.00000E-02    2.60580E+01
 7.00000E-02    4.94571E+01
 8.00000E-02    6.77369E+01
 8.04103E-02    6.84342E+01
 9.00000E-02    1.20955E+02
 1.00000E-01    1.57079E+02
 1.05000E-01    1.70154E+02
 1.10000E-01    1.83232E+02
 1.11004E-01    1.85705E+02
 1.16238E-01    1.98655E+02
 1.20000E-01    2.08548E+02
 1.29119E-01    2.30984E+02
 1.30000E-01    2.36751E+02
 1.40000E-01    2.69677E+02
 1.50000E-01    2.98027E+02
 1.60000E-01    3.24481E+02
 1.68469E-01    3.45389E+02
 1.70000E-01    3.56889E+02
 1.80000E-01    3.93851E+02
 1.80043E-01    3.93990E+02
 1.90000E-01    4.41519E+02
 2.00000E-01    4.77660E+02
 2.09127E-01    5.08469E+02
 2.18688E-01    5.67329E+02
 2.25000E-01    5.93831E+02
 2.43546E-01    6.61124E+02
 2.50000E-01    7.00887E+02
 2.75000E-01    7.88985E+02
 2.82392E-01    8.10489E+02
 3.00000E-01    8.56972E+02
 3.00406E-01    8.57988E+02
 3.00407E-01    8.57990E+02
 3.24660E-01    9.36066E+02
 3.26069E-01    9.39671E+02
 3.40259E-01    9.84105E+02
 3.62098E-01    1.04704E+03
 3.73571E-01    1.07858E+03
 3.83534E-01    1.10396E+03
 3.90881E-01    1.13015E+03
 4.00000E-01    1.15410E+03
 4.08593E-01    1.17294E+03
 4.10706E-01    1.18099E+03
 4.10707E-01    1.18100E+03
 4.21978E-01    1.20893E+03
 4.41804E-01    1.25167E+03
 4.47238E-01    1.26210E+03
 4.63844E-01    1.29158E+03
 4.72700E-01    1.30901E+03
 4.87091E-01    1.33461E+03
 4.90412E-01    1.34040E+03
 4.98564E-01    1.35703E+03
 5.00000E-01    1.35981E+03
 5.09131E-01    1.37554E+03
 5.34391E-01    1.41364E+03
 5.34392E-01    1.41365E+03
 5.39423E-01    1.42072E+03
 5.43449E-01    1.42625E+03
 5.59551E-01    1.44714E+03
 5.74647E-01    1.46769E+03
 5.90749E-01    1.49255E+03
 5.93768E-01    1.49669E+03
 6.00000E-01    1.50813E+03
 6.05342E-01    1.51589E+03
 6.13997E-01    1.52871E+03
 6.16915E-01    1.53290E+03
 7.00000E-01    1.61237E+03
 8.00000E-01    1.69709E+03
 9.00000E-01    1.79628E+03
 1.00000E+00    1.89529E+03
 1.10000E+00    1.98099E+03
 1.20000E+00    2.05609E+03
 1.30000E+00    2.12065E+03
 1.40000E+00    2.17678E+03
 1.50000E+00    2.22517E+03
 1.60000E+00    2.26719E+03
 1.70000E+00    2.30411E+03
 1.80000E+00    2.33695E+03
 1.90000E+00    2.36639E+03
 2.00000E+00    2.39314E+03
 2.25000E+00    2.45658E+03
 2.50000E+00    2.50476E+03
 2.75000E+00    2.55614E+03
 3.00000E+00    2.60298E+03
 3.50000E+00    2.67316E+03
 4.00000E+00    2.70947E+03
 4.50000E+00    2.71599E+03
 5.00000E+00    2.70605E+03
 5.50000E+00    2.68609E+03
 6.00000E+00    2.66252E+03
 6.50000E+00    2.63919E+03
 7.00000E+00    2.62541E+03
 7.50000E+00    2.78448E+03
 8.00000E+00    3.11074E+03
 8.50000E+00    3.42899E+03
 9.00000E+00    3.67318E+03
 9.50000E+00    3.84476E+03
 1.00000E+01    3.96244E+03
 1.05000E+01    4.04401E+03
 1.10000E+01    4.10128E+03
 1.15000E+01    4.14223E+03
 1.20000E+01    4.17190E+03
 1.25000E+01    4.19375E+03
 1.30000E+01    4.21019E+03
 1.35000E+01    4.22260E+03
 1.40000E+01    4.23191E+03
 1.45000E+01    4.23868E+03
 1.50000E+01    4.24321E+03
 1.55000E+01    4.24527E+03
 1.60000E+01    4.24671E+03
 1.65000E+01    4.25377E+03
 1.70000E+01    4.28563E+03
 1.75000E+01    4.35238E+03
 1.80000E+01    4.45424E+03
 1.85000E+01    4.56796E+03
 1.90000E+01    4.70850E+03
 1.95000E+01    4.83707E+03
 2.00000E+01    4.95927E+03
