# n + Tb158 : (n,na)    
# jendl.ad   N.Iwamoto                         EVAL-Apr14
# uncertainties: n
# # energies =    39
#   E(MeV)       xs(mb) 
 3.04989E-01    0.00000E+00
 2.25000E+00    3.67230E-34
 2.50000E+00    6.49480E-31
 2.75000E+00    4.68320E-28
 3.00000E+00    3.26380E-25
 3.50000E+00    7.19110E-21
 4.00000E+00    1.69110E-17
 4.50000E+00    7.66590E-15
 5.00000E+00    1.02720E-12
 5.50000E+00    5.48220E-11
 6.00000E+00    1.44320E-09
 6.50000E+00    2.19230E-08
 7.00000E+00    2.09030E-07
 7.50000E+00    8.96970E-07
 8.00000E+00    2.81781E-06
 8.50000E+00    9.05232E-06
 9.00000E+00    2.74383E-05
 9.50000E+00    7.52581E-05
 1.00000E+01    1.71285E-04
 1.05000E+01    3.91070E-04
 1.10000E+01    8.22862E-04
 1.15000E+01    1.61420E-03
 1.20000E+01    2.98485E-03
 1.25000E+01    5.25869E-03
 1.30000E+01    8.90323E-03
 1.35000E+01    1.46078E-02
 1.40000E+01    2.34036E-02
 1.45000E+01    3.69393E-02
 1.50000E+01    5.72272E-02
 1.55000E+01    8.93008E-02
 1.60000E+01    1.34768E-01
 1.65000E+01    1.98165E-01
 1.70000E+01    2.84706E-01
 1.75000E+01    3.98677E-01
 1.80000E+01    5.35819E-01
 1.85000E+01    6.98089E-01
 1.90000E+01    8.85050E-01
 1.95000E+01    1.08267E+00
 2.00000E+01    1.29495E+00
