# n + Si  0 : (n,p00)
# jendl4.0   K.Shibata, S.Kunieda              EVAL-AUG07
# uncertainties: n
# # energies =   182
#   E(MeV)          xs(mb) 
 4.00020E+00    4.77706E-02
 4.50000E+00    8.55547E-01
 5.00000E+00    2.53720E+00
 5.50000E+00    2.50764E+01
 5.51300E+00    2.54114E+01
 5.51300E+00    2.54114E+01
 5.52800E+00    2.35056E+01
 5.54300E+00    1.17134E+01
 5.55800E+00    8.63869E+01
 5.57300E+00    5.62870E+01
 5.58800E+00    4.29730E+01
 5.60300E+00    2.51398E+01
 5.61800E+00    4.93634E+01
 5.63300E+00    4.43501E+01
 5.64900E+00    3.66631E+01
 5.66400E+00    2.15967E+01
 5.67900E+00    2.30395E+01
 5.69500E+00    4.11308E+01
 5.71100E+00    4.12833E+01
 5.72600E+00    5.35631E+01
 5.74200E+00    2.20346E+01
 5.75800E+00    2.20487E+01
 5.77300E+00    3.14233E+01
 5.78900E+00    5.10824E+01
 5.80500E+00    6.36860E+01
 5.82100E+00    3.61695E+01
 5.83700E+00    3.16643E+01
 5.85300E+00    6.94928E+01
 5.87000E+00    6.69715E+01
 5.88600E+00    5.11682E+01
 5.90200E+00    2.51273E+01
 5.91900E+00    2.32977E+01
 5.93500E+00    3.61319E+01
 5.95200E+00    7.07331E+01
 5.96800E+00    7.79412E+01
 5.98500E+00    4.29549E+01
 6.00200E+00    1.92187E+01
 6.01900E+00    1.52048E+01
 6.03600E+00    2.04138E+01
 6.05300E+00    3.33701E+01
 6.07000E+00    3.31375E+01
 6.08700E+00    2.55266E+01
 6.10400E+00    2.94905E+01
 6.12100E+00    2.88890E+01
 6.13900E+00    2.54283E+01
 6.15600E+00    2.44118E+01
 6.17300E+00    2.20118E+01
 6.19100E+00    2.28859E+01
 6.20900E+00    2.52818E+01
 6.22600E+00    2.37580E+01
 6.24400E+00    2.46321E+01
 6.26200E+00    3.36685E+01
 6.28000E+00    2.77637E+01
 6.29800E+00    1.46650E+01
 6.31600E+00    1.64152E+01
 6.33400E+00    2.64662E+01
 6.35300E+00    3.11216E+01
 6.37100E+00    4.48157E+01
 6.38900E+00    6.82861E+01
 6.40800E+00    6.07671E+01
 6.42600E+00    5.28333E+01
 6.44500E+00    4.88190E+01
 6.46400E+00    5.91466E+01
 6.48300E+00    6.46782E+01
 6.50200E+00    4.09261E+01
 6.52100E+00    4.21632E+01
 6.54000E+00    3.45001E+01
 6.55900E+00    3.02956E+01
 6.57800E+00    3.08871E+01
 6.59700E+00    2.89884E+01
 6.61700E+00    3.27614E+01
 6.63600E+00    3.35373E+01
 6.65600E+00    3.33445E+01
 6.67600E+00    3.84087E+01
 6.69500E+00    4.20899E+01
 6.71500E+00    3.95912E+01
 6.73500E+00    3.62164E+01
 6.75500E+00    4.63994E+01
 6.77500E+00    5.51067E+01
 6.79500E+00    6.08626E+01
 6.81600E+00    4.94173E+01
 6.83600E+00    3.83874E+01
 6.85700E+00    4.65870E+01
 6.87700E+00    4.01686E+01
 6.89800E+00    3.47181E+01
 6.91900E+00    3.11123E+01
 6.93900E+00    3.45164E+01
 6.96000E+00    4.93566E+01
 6.98100E+00    4.03092E+01
 7.00300E+00    8.31398E+01
 7.02400E+00    8.72744E+01
 7.04500E+00    8.74431E+01
 7.06700E+00    9.18997E+01
 7.08800E+00    8.67191E+01
 7.11000E+00    5.64973E+01
 7.13200E+00    5.58351E+01
 7.15300E+00    5.05623E+01
 7.17500E+00    7.60474E+01
 7.19700E+00    8.83897E+01
 7.21900E+00    8.07181E+01
 7.24200E+00    8.60041E+01
 7.26400E+00    8.94462E+01
 7.28600E+00    8.46337E+01
 7.30900E+00    7.78376E+01
 7.33200E+00    6.42625E+01
 7.35400E+00    5.58992E+01
 7.37700E+00    5.52824E+01
 7.40000E+00    5.48501E+01
 7.42300E+00    5.72770E+01
 7.44700E+00    7.67195E+01
 7.47000E+00    5.59966E+01
 7.49300E+00    4.44506E+01
 7.51700E+00    5.66102E+01
 7.54000E+00    6.45753E+01
 7.56400E+00    7.88114E+01
 7.58800E+00    7.48322E+01
 7.61200E+00    8.57019E+01
 7.63600E+00    7.61427E+01
 7.66000E+00    8.55368E+01
 7.68500E+00    7.29335E+01
 7.70900E+00    7.61481E+01
 7.73400E+00    5.55669E+01
 7.75800E+00    6.89269E+01
 7.78300E+00    6.96508E+01
 7.80800E+00    7.34644E+01
 7.83300E+00    5.87397E+01
 7.85800E+00    7.56961E+01
 7.88300E+00    7.35609E+01
 7.90900E+00    6.76898E+01
 7.93400E+00    5.83145E+01
 7.96000E+00    5.94067E+01
 7.98600E+00    5.60258E+01
 8.01200E+00    3.66438E+01
 8.03800E+00    3.85679E+01
 8.06400E+00    3.48660E+01
 8.09000E+00    2.90427E+01
 8.11600E+00    2.46952E+01
 8.14300E+00    3.01235E+01
 8.17000E+00    3.33844E+01
 8.19600E+00    3.80754E+01
 8.22300E+00    4.55789E+01
 8.25000E+00    2.43989E+01
 8.27800E+00    2.47541E+01
 8.30500E+00    2.45564E+01
 8.33200E+00    2.75868E+01
 8.36000E+00    3.85484E+01
 8.38800E+00    3.82119E+01
 8.41600E+00    4.69139E+01
 8.44400E+00    5.06355E+01
 8.47200E+00    4.62869E+01
 8.50000E+00    4.18000E+01
 8.52900E+00    4.61219E+01
 8.55700E+00    4.38036E+01
 8.58600E+00    4.35601E+01
 8.61500E+00    3.93967E+01
 8.64400E+00    4.87451E+01
 8.67300E+00    5.27903E+01
 8.70200E+00    4.39232E+01
 8.73200E+00    3.56552E+01
 8.76100E+00    3.68873E+01
 8.79100E+00    4.00559E+01
 8.82100E+00    4.35011E+01
 8.85100E+00    4.75458E+01
 8.88100E+00    3.95544E+01
 8.91200E+00    3.74654E+01
 8.94200E+00    2.75373E+01
 8.97300E+00    2.70622E+01
 8.97300E+00    2.70622E+01
 9.00000E+00    3.34509E+01
 9.50000E+00    2.79288E+01
 1.00000E+01    2.37153E+01
 1.10000E+01    1.75002E+01
 1.20000E+01    1.28067E+01
 1.30000E+01    9.17712E+00
 1.40000E+01    6.44277E+00
 1.45000E+01    5.34478E+00
 1.50000E+01    4.45315E+00
 1.60000E+01    3.16443E+00
 1.70000E+01    2.33864E+00
 1.80000E+01    1.79991E+00
 1.90000E+01    1.44288E+00
 2.00000E+01    1.16764E+00
