# n + Zn 68 : (n,n'12)  
# jeff3.3    A.J. Koning and D. Rochman        EVAL-DEC15
# uncertainties: n
# # energies =    73
#   E(MeV)       xs(mb) 
 3.05396E+00    0.00000E+00
 3.14858E+00    1.73265E+01
 3.20000E+00    2.67423E+01
 3.20063E+00    2.67878E+01
 3.20703E+00    2.72504E+01
 3.21139E+00    2.75654E+01
 3.23146E+00    2.90159E+01
 3.23392E+00    2.91937E+01
 3.33031E+00    3.61598E+01
 3.33590E+00    3.65638E+01
 3.38422E+00    4.00559E+01
 3.39578E+00    4.08913E+01
 3.40000E+00    4.11963E+01
 3.43628E+00    4.25179E+01
 3.45140E+00    4.30686E+01
 3.47593E+00    4.39622E+01
 3.48039E+00    4.41247E+01
 3.50225E+00    4.49210E+01
 3.51019E+00    4.52102E+01
 3.53949E+00    4.62775E+01
 3.54800E+00    4.65875E+01
 3.60000E+00    4.84817E+01
 3.80000E+00    5.02470E+01
 4.00000E+00    4.86918E+01
 4.20000E+00    4.54008E+01
 4.40000E+00    4.13203E+01
 4.60000E+00    3.69875E+01
 4.80000E+00    3.27190E+01
 5.00000E+00    2.86978E+01
 5.20000E+00    2.50234E+01
 5.40000E+00    2.17289E+01
 5.60000E+00    1.88169E+01
 5.80000E+00    1.62601E+01
 6.00000E+00    1.40255E+01
 6.20000E+00    1.20784E+01
 6.40000E+00    1.03833E+01
 6.60000E+00    8.90982E+00
 6.80000E+00    7.63035E+00
 7.00000E+00    6.52222E+00
 7.20000E+00    5.56505E+00
 7.40000E+00    4.74046E+00
 7.60000E+00    4.03412E+00
 7.80000E+00    3.42824E+00
 8.00000E+00    2.90993E+00
 8.50000E+00    1.93088E+00
 9.00000E+00    1.28352E+00
 9.50000E+00    8.57028E-01
 1.00000E+01    5.75794E-01
 1.05000E+01    3.89533E-01
 1.10000E+01    2.65049E-01
 1.15000E+01    1.81144E-01
 1.20000E+01    1.24309E-01
 1.25000E+01    8.56845E-02
 1.30000E+01    5.93389E-02
 1.35000E+01    4.12900E-02
 1.40000E+01    2.88695E-02
 1.45000E+01    2.02825E-02
 1.50000E+01    1.43199E-02
 1.60000E+01    7.24441E-03
 1.70000E+01    3.73113E-03
 1.80000E+01    1.95705E-03
 1.90000E+01    1.04169E-03
 2.00000E+01    5.61685E-04
 2.10000E+01    3.06335E-04
 2.20000E+01    1.68886E-04
 2.30000E+01    9.41924E-05
 2.40000E+01    5.31574E-05
 2.50000E+01    3.01161E-05
 2.60000E+01    1.73516E-05
 2.70000E+01    1.01020E-05
 2.80000E+01    5.93648E-06
 2.90000E+01    3.51570E-06
 3.00000E+01    2.09948E-06
