# n + Zn 68 : (n,xn)    
# jeff3.3    A.J. Koning and D. Rochman        EVAL-DEC15
# 
# # energies =   124
#   E(MeV)        xs(mb) 
 1.09337E+00    0.00000E+00
 1.20000E+00    3.16588E+02
 1.40000E+00    4.95796E+02
 1.60000E+00    6.14718E+02
 1.68050E+00    6.41370E+02
 1.80000E+00    7.38583E+02
 1.91117E+00    7.49802E+02
 2.00000E+00    8.72443E+02
 2.20000E+00    9.67158E+02
 2.37318E+00    1.00161E+03
 2.40000E+00    1.04641E+03
 2.40550E+00    1.04568E+03
 2.45330E+00    1.05903E+03
 2.54748E+00    1.10392E+03
 2.60000E+00    1.17355E+03
 2.79161E+00    1.24577E+03
 2.80000E+00    1.26430E+03
 2.86369E+00    1.27721E+03
 2.99979E+00    1.34865E+03
 3.00000E+00    1.34876E+03
 3.00344E+00    1.34906E+03
 3.05396E+00    1.35812E+03
 3.14858E+00    1.39243E+03
 3.20000E+00    1.41939E+03
 3.20063E+00    1.41908E+03
 3.20703E+00    1.41675E+03
 3.21139E+00    1.41586E+03
 3.23146E+00    1.41539E+03
 3.23392E+00    1.41576E+03
 3.33031E+00    1.44680E+03
 3.33590E+00    1.44906E+03
 3.38422E+00    1.48049E+03
 3.39578E+00    1.49364E+03
 3.40000E+00    1.50236E+03
 3.43628E+00    1.49551E+03
 3.45140E+00    1.49440E+03
 3.47593E+00    1.49537E+03
 3.48039E+00    1.49611E+03
 3.50225E+00    1.50275E+03
 3.51019E+00    1.50626E+03
 3.53949E+00    1.51983E+03
 3.54800E+00    1.52535E+03
 3.60000E+00    1.57156E+03
 3.80000E+00    1.62026E+03
 4.00000E+00    1.65554E+03
 4.20000E+00    1.68065E+03
 4.40000E+00    1.69799E+03
 4.60000E+00    1.70927E+03
 4.80000E+00    1.71572E+03
 5.00000E+00    1.71835E+03
 5.20000E+00    1.71795E+03
 5.40000E+00    1.71519E+03
 5.60000E+00    1.71069E+03
 5.80000E+00    1.70492E+03
 6.00000E+00    1.69825E+03
 6.20000E+00    1.69107E+03
 6.40000E+00    1.68360E+03
 6.60000E+00    1.67599E+03
 6.80000E+00    1.66844E+03
 7.00000E+00    1.66104E+03
 7.20000E+00    1.65386E+03
 7.40000E+00    1.64692E+03
 7.60000E+00    1.64031E+03
 7.80000E+00    1.63398E+03
 8.00000E+00    1.62799E+03
 8.50000E+00    1.61423E+03
 9.00000E+00    1.60199E+03
 9.50000E+00    1.59067E+03
 1.00000E+01    1.57981E+03
 1.05000E+01    1.58326E+03
 1.10000E+01    1.68286E+03
 1.15000E+01    1.83940E+03
 1.20000E+01    2.00122E+03
 1.25000E+01    2.13386E+03
 1.30000E+01    2.26031E+03
 1.35000E+01    2.35055E+03
 1.40000E+01    2.43028E+03
 1.45000E+01    2.48948E+03
 1.50000E+01    2.53636E+03
 1.60000E+01    2.59145E+03
 1.70000E+01    2.60603E+03
 1.80000E+01    2.60209E+03
 1.90000E+01    2.58516E+03
 2.00000E+01    2.58137E+03
 2.10000E+01    2.60179E+03
 2.20000E+01    2.63993E+03
 2.30000E+01    2.68870E+03
 2.40000E+01    2.73976E+03
 2.50000E+01    2.77965E+03
 2.60000E+01    2.81762E+03
 2.70000E+01    2.84562E+03
 2.80000E+01    2.86174E+03
 2.90000E+01    2.86628E+03
 3.00000E+01    2.86165E+03
 3.00000E+01    2.86329E+03
 3.20000E+01    2.84519E+03
 3.40000E+01    2.84270E+03
 3.60000E+01    2.86422E+03
 3.80000E+01    2.89852E+03
 4.00000E+01    2.92878E+03
 4.20000E+01    2.94468E+03
 4.40000E+01    2.95390E+03
 4.60000E+01    2.95983E+03
 4.80000E+01    2.96528E+03
 5.00000E+01    2.97897E+03
 5.20000E+01    2.99782E+03
 5.40000E+01    3.01460E+03
 5.60000E+01    3.02850E+03
 5.80000E+01    3.03802E+03
 6.00000E+01    3.04559E+03
 6.50000E+01    3.07134E+03
 7.00000E+01    3.09548E+03
 7.50000E+01    3.11442E+03
 8.00000E+01    3.13175E+03
 9.00000E+01    3.16672E+03
 1.00000E+02    3.18139E+03
 1.10000E+02    3.32003E+03
 1.20000E+02    3.50001E+03
 1.30000E+02    3.67844E+03
 1.40000E+02    3.86810E+03
 1.50000E+02    4.08372E+03
 1.60000E+02    4.27935E+03
 1.80000E+02    4.62485E+03
 2.00000E+02    4.97496E+03
