# n + Zn 68 : (n,xp)    
# jeff3.3    A.J. Koning and D. Rochman        EVAL-DEC15
# 
# # energies =   124
#   E(MeV)        xs(mb) 
 1.09337E+00    0.00000E+00
 1.20000E+00    0.00000E+00
 1.40000E+00    0.00000E+00
 1.60000E+00    0.00000E+00
 1.68050E+00    0.00000E+00
 1.80000E+00    0.00000E+00
 1.91117E+00    0.00000E+00
 2.00000E+00    0.00000E+00
 2.20000E+00    0.00000E+00
 2.37318E+00    0.00000E+00
 2.40000E+00    0.00000E+00
 2.40550E+00    0.00000E+00
 2.45330E+00    0.00000E+00
 2.54748E+00    0.00000E+00
 2.60000E+00    0.00000E+00
 2.79161E+00    0.00000E+00
 2.80000E+00    0.00000E+00
 2.86369E+00    0.00000E+00
 2.99979E+00    0.00000E+00
 3.00000E+00    0.00000E+00
 3.00344E+00    0.00000E+00
 3.05396E+00    0.00000E+00
 3.14858E+00    0.00000E+00
 3.20000E+00    0.00000E+00
 3.20063E+00    0.00000E+00
 3.20703E+00    0.00000E+00
 3.21139E+00    0.00000E+00
 3.23146E+00    0.00000E+00
 3.23392E+00    0.00000E+00
 3.33031E+00    0.00000E+00
 3.33590E+00    0.00000E+00
 3.38422E+00    0.00000E+00
 3.39578E+00    0.00000E+00
 3.40000E+00    0.00000E+00
 3.43628E+00    0.00000E+00
 3.45140E+00    0.00000E+00
 3.47593E+00    0.00000E+00
 3.48039E+00    0.00000E+00
 3.50225E+00    0.00000E+00
 3.51019E+00    0.00000E+00
 3.53949E+00    0.00000E+00
 3.54800E+00    0.00000E+00
 3.60000E+00    0.00000E+00
 3.80000E+00    1.19750E-11
 4.00000E+00    3.91200E-11
 4.20000E+00    6.62650E-11
 4.40000E+00    2.71200E-08
 4.60000E+00    1.28332E-06
 4.80000E+00    1.91920E-05
 5.00000E+00    1.40829E-04
 5.20000E+00    6.43697E-04
 5.40000E+00    2.11513E-03
 5.60000E+00    5.48284E-03
 5.80000E+00    1.19782E-02
 6.00000E+00    2.29248E-02
 6.20000E+00    3.95426E-02
 6.40000E+00    6.30493E-02
 6.60000E+00    9.44613E-02
 6.80000E+00    1.34547E-01
 7.00000E+00    1.84297E-01
 7.20000E+00    2.45499E-01
 7.40000E+00    3.21321E-01
 7.60000E+00    4.17039E-01
 7.80000E+00    5.39051E-01
 8.00000E+00    6.95186E-01
 8.50000E+00    1.30127E+00
 9.00000E+00    2.29950E+00
 9.50000E+00    3.75510E+00
 1.00000E+01    5.66521E+00
 1.05000E+01    7.95987E+00
 1.10000E+01    1.05441E+01
 1.15000E+01    1.33201E+01
 1.20000E+01    1.62947E+01
 1.25000E+01    1.92723E+01
 1.30000E+01    2.23095E+01
 1.35000E+01    2.54109E+01
 1.40000E+01    2.85911E+01
 1.45000E+01    3.18566E+01
 1.50000E+01    3.52215E+01
 1.60000E+01    4.22965E+01
 1.70000E+01    4.98891E+01
 1.80000E+01    5.80269E+01
 1.90000E+01    6.65771E+01
 2.00000E+01    7.56054E+01
 2.10000E+01    8.48632E+01
 2.20000E+01    9.43223E+01
 2.30000E+01    1.03883E+02
 2.40000E+01    1.13634E+02
 2.50000E+01    1.23806E+02
 2.60000E+01    1.33742E+02
 2.70000E+01    1.43473E+02
 2.80000E+01    1.53197E+02
 2.90000E+01    1.62617E+02
 3.00000E+01    1.71942E+02
 3.00000E+01    1.71865E+02
 3.20000E+01    1.89873E+02
 3.40000E+01    2.06443E+02
 3.60000E+01    2.21783E+02
 3.80000E+01    2.36132E+02
 4.00000E+01    2.49269E+02
 4.20000E+01    2.61448E+02
 4.40000E+01    2.72931E+02
 4.60000E+01    2.83788E+02
 4.80000E+01    2.93389E+02
 5.00000E+01    3.02728E+02
 5.20000E+01    3.11937E+02
 5.40000E+01    3.20819E+02
 5.60000E+01    3.29690E+02
 5.80000E+01    3.38410E+02
 6.00000E+01    3.46953E+02
 6.50000E+01    3.66267E+02
 7.00000E+01    3.82074E+02
 7.50000E+01    3.95678E+02
 8.00000E+01    4.03463E+02
 9.00000E+01    4.07879E+02
 1.00000E+02    3.87793E+02
 1.10000E+02    4.12356E+02
 1.20000E+02    4.45716E+02
 1.30000E+02    4.84378E+02
 1.40000E+02    5.33487E+02
 1.50000E+02    5.95294E+02
 1.60000E+02    6.69791E+02
 1.80000E+02    8.60354E+02
 2.00000E+02    1.07850E+03
