# n + Zn 68 : (n,n'14)  
# jeff3.3    A.J. Koning and D. Rochman        EVAL-DEC15
# uncertainties: n
# # energies =    70
#   E(MeV)       xs(mb) 
 3.20063E+00    0.00000E+00
 3.20703E+00    7.92423E-01
 3.21139E+00    1.33225E+00
 3.23146E+00    3.81720E+00
 3.23392E+00    4.12178E+00
 3.33031E+00    1.60562E+01
 3.33590E+00    1.67483E+01
 3.38422E+00    2.27310E+01
 3.39578E+00    2.41623E+01
 3.40000E+00    2.46848E+01
 3.43628E+00    2.60316E+01
 3.45140E+00    2.65928E+01
 3.47593E+00    2.75034E+01
 3.48039E+00    2.76690E+01
 3.50225E+00    2.84805E+01
 3.51019E+00    2.87752E+01
 3.53949E+00    2.98629E+01
 3.54800E+00    3.01788E+01
 3.60000E+00    3.21091E+01
 3.80000E+00    3.55553E+01
 4.00000E+00    3.62829E+01
 4.20000E+00    3.51446E+01
 4.40000E+00    3.28475E+01
 4.60000E+00    2.99252E+01
 4.80000E+00    2.67598E+01
 5.00000E+00    2.36109E+01
 5.20000E+00    2.06376E+01
 5.40000E+00    1.79247E+01
 5.60000E+00    1.55059E+01
 5.80000E+00    1.33775E+01
 6.00000E+00    1.15215E+01
 6.20000E+00    9.91200E+00
 6.40000E+00    8.51915E+00
 6.60000E+00    7.31532E+00
 6.80000E+00    6.27523E+00
 7.00000E+00    5.37777E+00
 7.20000E+00    4.60436E+00
 7.40000E+00    3.93850E+00
 7.60000E+00    3.36726E+00
 7.80000E+00    2.87666E+00
 8.00000E+00    2.45570E+00
 8.50000E+00    1.65487E+00
 9.00000E+00    1.11847E+00
 9.50000E+00    7.59713E-01
 1.00000E+01    5.19273E-01
 1.05000E+01    3.57352E-01
 1.10000E+01    2.47318E-01
 1.15000E+01    1.71911E-01
 1.20000E+01    1.19983E-01
 1.25000E+01    8.41066E-02
 1.30000E+01    5.92237E-02
 1.35000E+01    4.18842E-02
 1.40000E+01    2.97422E-02
 1.45000E+01    2.11982E-02
 1.50000E+01    1.51609E-02
 1.60000E+01    7.82781E-03
 1.70000E+01    4.08426E-03
 1.80000E+01    2.15785E-03
 1.90000E+01    1.15344E-03
 2.00000E+01    6.24186E-04
 2.10000E+01    3.41882E-04
 2.20000E+01    1.89471E-04
 2.30000E+01    1.06285E-04
 2.40000E+01    6.03256E-05
 2.50000E+01    3.43529E-05
 2.60000E+01    1.98769E-05
 2.70000E+01    1.16108E-05
 2.80000E+01    6.84062E-06
 2.90000E+01    4.05949E-06
 3.00000E+01    2.42858E-06
