# n + Sr 90 : (n,tot)   
# jendl4.0   K.Shibata, A.Ichihara, S.Kunieda  EVAL-AUG09
# uncertainties: n
# # energies =   615
#   E(MeV)       xs(mb) 
 1.00000E-11    3.58087E+04
 1.03223E-11    3.52581E+04
 1.06549E-11    3.47166E+04
 1.09984E-11    3.41836E+04
 1.13527E-11    3.36594E+04
 1.17186E-11    3.31434E+04
 1.20962E-11    3.26360E+04
 1.24861E-11    3.21366E+04
 1.28884E-11    3.16454E+04
 1.33038E-11    3.11620E+04
 1.37325E-11    3.06867E+04
 1.41751E-11    3.02189E+04
 1.46318E-11    2.97588E+04
 1.51034E-11    2.93061E+04
 1.55901E-11    2.88608E+04
 1.60926E-11    2.84227E+04
 1.66111E-11    2.79919E+04
 1.71465E-11    2.75680E+04
 1.76990E-11    2.71511E+04
 1.82694E-11    2.67409E+04
 1.88581E-11    2.63376E+04
 1.94659E-11    2.59407E+04
 2.00931E-11    2.55505E+04
 2.07407E-11    2.51666E+04
 2.14090E-11    2.47891E+04
 2.20991E-11    2.44178E+04
 2.28111E-11    2.40527E+04
 2.35464E-11    2.36935E+04
 2.43051E-11    2.33404E+04
 2.50884E-11    2.29930E+04
 2.58968E-11    2.26515E+04
 2.67315E-11    2.23156E+04
 2.75928E-11    2.19854E+04
 2.84822E-11    2.16606E+04
 2.93999E-11    2.13413E+04
 3.03475E-11    2.10273E+04
 3.13253E-11    2.07187E+04
 3.23350E-11    2.04152E+04
 3.33769E-11    2.01168E+04
 3.44526E-11    1.98235E+04
 3.55627E-11    1.95351E+04
 3.67089E-11    1.92516E+04
 3.78918E-11    1.89730E+04
 3.91130E-11    1.86991E+04
 4.03734E-11    1.84299E+04
 4.16746E-11    1.81653E+04
 4.30174E-11    1.79053E+04
 4.44039E-11    1.76497E+04
 4.58347E-11    1.73986E+04
 4.74119E-11    1.71355E+04
 4.90434E-11    1.68772E+04
 5.07311E-11    1.66238E+04
 5.24768E-11    1.63751E+04
 5.42826E-11    1.61310E+04
 5.61505E-11    1.58915E+04
 5.80827E-11    1.56565E+04
 6.00814E-11    1.54260E+04
 6.21489E-11    1.51998E+04
 6.42875E-11    1.49779E+04
 6.64997E-11    1.47603E+04
 6.87880E-11    1.45468E+04
 7.11551E-11    1.43375E+04
 7.36036E-11    1.41322E+04
 7.61364E-11    1.39309E+04
 7.87564E-11    1.37335E+04
 8.14665E-11    1.35399E+04
 8.42698E-11    1.33502E+04
 8.71696E-11    1.31642E+04
 9.01692E-11    1.29820E+04
 9.32721E-11    1.28033E+04
 9.64817E-11    1.26282E+04
 9.98017E-11    1.24567E+04
 1.03236E-10    1.22887E+04
 1.06789E-10    1.21240E+04
 1.10463E-10    1.19627E+04
 1.14264E-10    1.18048E+04
 1.18196E-10    1.16501E+04
 1.22264E-10    1.14987E+04
 1.26471E-10    1.13504E+04
 1.31101E-10    1.11962E+04
 1.35898E-10    1.10456E+04
 1.40873E-10    1.08983E+04
 1.46028E-10    1.07545E+04
 1.51374E-10    1.06139E+04
 1.56913E-10    1.04766E+04
 1.62657E-10    1.03424E+04
 1.68610E-10    1.02115E+04
 1.74782E-10    1.00836E+04
 1.81178E-10    9.95878E+03
 1.87810E-10    9.83693E+03
 1.94683E-10    9.71807E+03
 2.01810E-10    9.60206E+03
 2.09195E-10    9.48894E+03
 2.16853E-10    9.37859E+03
 2.25266E-10    9.26476E+03
 2.34005E-10    9.15397E+03
 2.43083E-10    9.04616E+03
 2.52514E-10    8.94126E+03
 2.62310E-10    8.83924E+03
 2.72486E-10    8.74003E+03
 2.83057E-10    8.64358E+03
 2.94038E-10    8.54985E+03
 3.06091E-10    8.45379E+03
 3.18640E-10    8.36062E+03
 3.31701E-10    8.27030E+03
 3.45300E-10    8.18275E+03
 3.59454E-10    8.09793E+03
 3.74191E-10    8.01575E+03
 3.89529E-10    7.93619E+03
 4.06356E-10    7.85518E+03
 4.23909E-10    7.77692E+03
 4.42221E-10    7.70134E+03
 4.61324E-10    7.62838E+03
 4.82272E-10    7.55450E+03
 5.04168E-10    7.48337E+03
 5.27062E-10    7.41489E+03
 5.50992E-10    7.34899E+03
 5.77229E-10    7.28264E+03
 6.04716E-10    7.21896E+03
 6.33512E-10    7.15785E+03
 6.65085E-10    7.09664E+03
 6.98228E-10    7.03807E+03
 7.33028E-10    6.98203E+03
 7.71188E-10    6.92618E+03
 8.11334E-10    6.87289E+03
 8.55375E-10    6.82000E+03
 9.01812E-10    6.76967E+03
 9.52780E-10    6.71994E+03
 1.00663E-09    6.67273E+03
 1.06577E-09    6.62627E+03
 1.12839E-09    6.58229E+03
 1.19721E-09    6.53916E+03
 1.27292E-09    6.49702E+03
 1.35629E-09    6.45599E+03
 1.44817E-09    6.41616E+03
 1.54628E-09    6.37880E+03
 1.65453E-09    6.34265E+03
 1.77411E-09    6.30778E+03
 1.91038E-09    6.27330E+03
 2.06148E-09    6.24032E+03
 2.22925E-09    6.20886E+03
 2.41577E-09    6.17895E+03
 2.62899E-09    6.14986E+03
 2.87315E-09    6.12177E+03
 3.14663E-09    6.09539E+03
 3.46076E-09    6.07015E+03
 3.82236E-09    6.04615E+03
 4.24862E-09    6.02303E+03
 4.74242E-09    6.00139E+03
 5.32733E-09    5.98090E+03
 6.02243E-09    5.96167E+03
 6.86607E-09    5.94350E+03
 7.89437E-09    5.92652E+03
 9.17314E-09    5.91063E+03
 1.07724E-08    5.89602E+03
 1.28390E-08    5.88249E+03
 1.55962E-08    5.86985E+03
 1.93094E-08    5.85822E+03
 2.42632E-08    5.84809E+03
 2.52522E-08    5.84656E+03
 2.53000E-08    5.84649E+03
 3.30940E-08    5.83769E+03
 4.57353E-08    5.82937E+03
 6.42840E-08    5.82306E+03
 1.01071E-07    5.81697E+03
 1.83482E-07    5.81225E+03
 4.15895E-07    5.80828E+03
 1.25072E-06    5.80587E+03
 5.50000E-03    5.80372E+03
 6.00000E-03    5.80372E+03
 6.00000E-03    8.79000E+03
 6.08465E-03    8.78137E+03
 6.17049E-03    8.77261E+03
 6.25755E-03    8.76373E+03
 6.34583E-03    8.75473E+03
 6.43536E-03    8.74559E+03
 6.52615E-03    8.73633E+03
 6.61822E-03    8.72694E+03
 6.71159E-03    8.71742E+03
 6.80628E-03    8.70776E+03
 6.90231E-03    8.69796E+03
 6.99968E-03    8.68803E+03
 7.00000E-03    8.68800E+03
 7.09876E-03    8.68049E+03
 7.19891E-03    8.67288E+03
 7.30047E-03    8.66516E+03
 7.40347E-03    8.65734E+03
 7.50792E-03    8.64940E+03
 7.61384E-03    8.64135E+03
 7.72126E-03    8.63318E+03
 7.83019E-03    8.62491E+03
 7.94066E-03    8.61651E+03
 8.00000E-03    8.61200E+03
 8.11287E-03    8.60568E+03
 8.22732E-03    8.59927E+03
 8.34340E-03    8.59277E+03
 8.46111E-03    8.58618E+03
 8.58048E-03    8.57949E+03
 8.70153E-03    8.57271E+03
 8.82430E-03    8.56584E+03
 8.94879E-03    8.55887E+03
 9.00000E-03    8.55600E+03
 9.12697E-03    8.55054E+03
 9.25574E-03    8.54500E+03
 9.38632E-03    8.53939E+03
 9.51875E-03    8.53369E+03
 9.65304E-03    8.52792E+03
 9.78922E-03    8.52206E+03
 9.92733E-03    8.51612E+03
 1.00000E-02    8.51300E+03
 1.01411E-02    8.51153E+03
 1.02842E-02    8.51004E+03
 1.04292E-02    8.50854E+03
 1.05764E-02    8.50701E+03
 1.07256E-02    8.50545E+03
 1.08769E-02    8.50388E+03
 1.10304E-02    8.50228E+03
 1.11860E-02    8.50067E+03
 1.13438E-02    8.49902E+03
 1.15038E-02    8.49736E+03
 1.16661E-02    8.49567E+03
 1.18307E-02    8.49396E+03
 1.19976E-02    8.49222E+03
 1.21669E-02    8.49046E+03
 1.23386E-02    8.48868E+03
 1.25126E-02    8.48687E+03
 1.26892E-02    8.48503E+03
 1.28682E-02    8.48317E+03
 1.30497E-02    8.48128E+03
 1.32338E-02    8.47937E+03
 1.34205E-02    8.47743E+03
 1.36099E-02    8.47546E+03
 1.38019E-02    8.47346E+03
 1.39966E-02    8.47144E+03
 1.41941E-02    8.46938E+03
 1.43943E-02    8.46730E+03
 1.45974E-02    8.46519E+03
 1.48034E-02    8.46304E+03
 1.50122E-02    8.46087E+03
 1.52240E-02    8.45867E+03
 1.54388E-02    8.45644E+03
 1.56566E-02    8.45417E+03
 1.58775E-02    8.45187E+03
 1.61015E-02    8.44954E+03
 1.63287E-02    8.44718E+03
 1.65590E-02    8.44479E+03
 1.67926E-02    8.44236E+03
 1.70295E-02    8.43989E+03
 1.72698E-02    8.43739E+03
 1.75135E-02    8.43486E+03
 1.77605E-02    8.43229E+03
 1.80111E-02    8.42968E+03
 1.82652E-02    8.42704E+03
 1.85229E-02    8.42436E+03
 1.87842E-02    8.42164E+03
 1.90492E-02    8.41889E+03
 1.93180E-02    8.41609E+03
 1.95905E-02    8.41326E+03
 1.98669E-02    8.41038E+03
 2.00000E-02    8.40900E+03
 2.02822E-02    8.41123E+03
 2.05683E-02    8.41349E+03
 2.08585E-02    8.41578E+03
 2.11528E-02    8.41811E+03
 2.14512E-02    8.42046E+03
 2.17538E-02    8.42286E+03
 2.20607E-02    8.42528E+03
 2.23720E-02    8.42774E+03
 2.26876E-02    8.43023E+03
 2.30077E-02    8.43276E+03
 2.33323E-02    8.43532E+03
 2.36615E-02    8.43793E+03
 2.39953E-02    8.44056E+03
 2.43338E-02    8.44324E+03
 2.46771E-02    8.44595E+03
 2.50253E-02    8.44870E+03
 2.53783E-02    8.45149E+03
 2.57364E-02    8.45432E+03
 2.60995E-02    8.45719E+03
 2.64677E-02    8.46009E+03
 2.68411E-02    8.46304E+03
 2.72198E-02    8.46604E+03
 2.76038E-02    8.46907E+03
 2.79932E-02    8.47215E+03
 2.83882E-02    8.47527E+03
 2.87887E-02    8.47843E+03
 2.91948E-02    8.48164E+03
 2.96067E-02    8.48489E+03
 3.00000E-02    8.48800E+03
 3.04232E-02    8.49312E+03
 3.08525E-02    8.49831E+03
 3.12877E-02    8.50358E+03
 3.17292E-02    8.50892E+03
 3.21768E-02    8.51434E+03
 3.26307E-02    8.51983E+03
 3.30911E-02    8.52540E+03
 3.35580E-02    8.53105E+03
 3.40314E-02    8.53678E+03
 3.45115E-02    8.54259E+03
 3.49984E-02    8.54848E+03
 3.54922E-02    8.55446E+03
 3.59929E-02    8.56051E+03
 3.65007E-02    8.56666E+03
 3.70157E-02    8.57289E+03
 3.75379E-02    8.57921E+03
 3.80675E-02    8.58562E+03
 3.86046E-02    8.59212E+03
 3.91492E-02    8.59871E+03
 3.97015E-02    8.60539E+03
 4.00000E-02    8.60900E+03
 4.05643E-02    8.61645E+03
 4.11366E-02    8.62400E+03
 4.17170E-02    8.63166E+03
 4.23055E-02    8.63943E+03
 4.29024E-02    8.64731E+03
 4.35077E-02    8.65530E+03
 4.41215E-02    8.66340E+03
 4.47440E-02    8.67162E+03
 4.53752E-02    8.67995E+03
 4.60154E-02    8.68840E+03
 4.66646E-02    8.69697E+03
 4.73229E-02    8.70566E+03
 4.79906E-02    8.71448E+03
 4.86676E-02    8.72341E+03
 4.93542E-02    8.73248E+03
 5.00000E-02    8.74100E+03
 5.07054E-02    8.75024E+03
 5.14208E-02    8.75961E+03
 5.21462E-02    8.76912E+03
 5.28819E-02    8.77875E+03
 5.36280E-02    8.78853E+03
 5.43846E-02    8.79844E+03
 5.51518E-02    8.80849E+03
 5.59299E-02    8.81868E+03
 5.67190E-02    8.82902E+03
 5.75192E-02    8.83950E+03
 5.83307E-02    8.85013E+03
 5.91536E-02    8.86091E+03
 5.99882E-02    8.87185E+03
 6.00000E-02    8.87200E+03
 6.08465E-02    8.88283E+03
 6.17049E-02    8.89382E+03
 6.25755E-02    8.90497E+03
 6.34583E-02    8.91627E+03
 6.43536E-02    8.92773E+03
 6.52615E-02    8.93935E+03
 6.61822E-02    8.95113E+03
 6.71159E-02    8.96308E+03
 6.80628E-02    8.97520E+03
 6.90231E-02    8.98750E+03
 6.99968E-02    8.99996E+03
 7.00000E-02    9.00000E+03
 7.09876E-02    9.01205E+03
 7.19891E-02    9.02427E+03
 7.30047E-02    9.03666E+03
 7.40347E-02    9.04922E+03
 7.50792E-02    9.06197E+03
 7.61384E-02    9.07489E+03
 7.72126E-02    9.08799E+03
 7.83019E-02    9.10128E+03
 7.94066E-02    9.11476E+03
 8.00000E-02    9.12200E+03
 8.11287E-02    9.13498E+03
 8.22732E-02    9.14814E+03
 8.34340E-02    9.16149E+03
 8.46111E-02    9.17503E+03
 8.58048E-02    9.18875E+03
 8.70153E-02    9.20268E+03
 8.82430E-02    9.21679E+03
 8.94879E-02    9.23111E+03
 9.00000E-02    9.23700E+03
 9.12697E-02    9.25059E+03
 9.25574E-02    9.26436E+03
 9.38632E-02    9.27834E+03
 9.51874E-02    9.29250E+03
 9.65304E-02    9.30688E+03
 9.78922E-02    9.32145E+03
 9.92733E-02    9.33622E+03
 1.00000E-01    9.34400E+03
 1.01411E-01    9.35303E+03
 1.02842E-01    9.36219E+03
 1.04292E-01    9.37147E+03
 1.05764E-01    9.38089E+03
 1.07256E-01    9.39044E+03
 1.08769E-01    9.40012E+03
 1.10304E-01    9.40994E+03
 1.11860E-01    9.41990E+03
 1.13438E-01    9.43000E+03
 1.15038E-01    9.44025E+03
 1.16661E-01    9.45063E+03
 1.18307E-01    9.46117E+03
 1.19976E-01    9.47185E+03
 1.21669E-01    9.48268E+03
 1.23386E-01    9.49367E+03
 1.25126E-01    9.50481E+03
 1.26892E-01    9.51611E+03
 1.28682E-01    9.52756E+03
 1.30497E-01    9.53918E+03
 1.32338E-01    9.55096E+03
 1.34205E-01    9.56292E+03
 1.36099E-01    9.57503E+03
 1.38019E-01    9.58732E+03
 1.39966E-01    9.59978E+03
 1.41941E-01    9.61242E+03
 1.43943E-01    9.62524E+03
 1.45974E-01    9.63823E+03
 1.48034E-01    9.65142E+03
 1.50122E-01    9.66478E+03
 1.52240E-01    9.67834E+03
 1.54388E-01    9.69208E+03
 1.56566E-01    9.70602E+03
 1.58775E-01    9.72016E+03
 1.61015E-01    9.73450E+03
 1.63287E-01    9.74903E+03
 1.65590E-01    9.76378E+03
 1.67926E-01    9.77873E+03
 1.70296E-01    9.79389E+03
 1.72698E-01    9.80927E+03
 1.75135E-01    9.82486E+03
 1.77605E-01    9.84067E+03
 1.80111E-01    9.85671E+03
 1.82652E-01    9.87297E+03
 1.85229E-01    9.88946E+03
 1.87842E-01    9.90619E+03
 1.90492E-01    9.92315E+03
 1.93180E-01    9.94035E+03
 1.95905E-01    9.95779E+03
 1.98669E-01    9.97548E+03
 2.00000E-01    9.98400E+03
 2.02822E-01    9.98375E+03
 2.05683E-01    9.98349E+03
 2.08585E-01    9.98323E+03
 2.11528E-01    9.98296E+03
 2.14512E-01    9.98269E+03
 2.17538E-01    9.98242E+03
 2.20607E-01    9.98215E+03
 2.23720E-01    9.98187E+03
 2.26876E-01    9.98158E+03
 2.30077E-01    9.98129E+03
 2.33323E-01    9.98100E+03
 2.36615E-01    9.98070E+03
 2.39953E-01    9.98040E+03
 2.43338E-01    9.98010E+03
 2.46771E-01    9.97979E+03
 2.50253E-01    9.97948E+03
 2.53783E-01    9.97916E+03
 2.57364E-01    9.97884E+03
 2.60995E-01    9.97851E+03
 2.64677E-01    9.97818E+03
 2.68411E-01    9.97784E+03
 2.72198E-01    9.97750E+03
 2.76038E-01    9.97716E+03
 2.79932E-01    9.97681E+03
 2.83882E-01    9.97645E+03
 2.87887E-01    9.97609E+03
 2.91948E-01    9.97572E+03
 2.96067E-01    9.97535E+03
 3.00000E-01    9.97500E+03
 3.04232E-01    9.95913E+03
 3.08525E-01    9.94303E+03
 3.12877E-01    9.92671E+03
 3.17291E-01    9.91016E+03
 3.21768E-01    9.89337E+03
 3.26307E-01    9.87635E+03
 3.30911E-01    9.85908E+03
 3.35580E-01    9.84158E+03
 3.40314E-01    9.82382E+03
 3.45115E-01    9.80582E+03
 3.49984E-01    9.78756E+03
 3.54922E-01    9.76904E+03
 3.59929E-01    9.75026E+03
 3.65007E-01    9.73122E+03
 3.70157E-01    9.71191E+03
 3.75379E-01    9.69233E+03
 3.80675E-01    9.67247E+03
 3.86046E-01    9.65233E+03
 3.91492E-01    9.63191E+03
 3.97015E-01    9.61119E+03
 4.00000E-01    9.60000E+03
 4.05643E-01    9.57020E+03
 4.11366E-01    9.53999E+03
 4.17170E-01    9.50934E+03
 4.23055E-01    9.47827E+03
 4.29024E-01    9.44675E+03
 4.35077E-01    9.41479E+03
 4.41215E-01    9.38239E+03
 4.47440E-01    9.34952E+03
 4.53752E-01    9.31619E+03
 4.60154E-01    9.28239E+03
 4.66646E-01    9.24811E+03
 4.73229E-01    9.21335E+03
 4.79906E-01    9.17810E+03
 4.86676E-01    9.14235E+03
 4.93542E-01    9.10610E+03
 5.00000E-01    9.07200E+03
 5.07054E-01    9.03179E+03
 5.14208E-01    8.99102E+03
 5.21462E-01    8.94967E+03
 5.28819E-01    8.90773E+03
 5.36280E-01    8.86521E+03
 5.43846E-01    8.82208E+03
 5.51518E-01    8.77834E+03
 5.59299E-01    8.73399E+03
 5.67190E-01    8.68902E+03
 5.75192E-01    8.64341E+03
 5.83307E-01    8.59715E+03
 5.91537E-01    8.55024E+03
 5.99882E-01    8.50267E+03
 6.00000E-01    8.50200E+03
 6.08465E-01    8.45451E+03
 6.17049E-01    8.40635E+03
 6.25755E-01    8.35752E+03
 6.34583E-01    8.30799E+03
 6.43536E-01    8.25776E+03
 6.52615E-01    8.20683E+03
 6.61822E-01    8.15518E+03
 6.71159E-01    8.10280E+03
 6.80628E-01    8.04968E+03
 6.90231E-01    7.99581E+03
 6.99969E-01    7.94118E+03
 7.00000E-01    7.94100E+03
 7.09876E-01    7.88777E+03
 7.19891E-01    7.83379E+03
 7.30047E-01    7.77905E+03
 7.40347E-01    7.72353E+03
 7.50792E-01    7.66723E+03
 7.61384E-01    7.61014E+03
 7.72126E-01    7.55224E+03
 7.83019E-01    7.49353E+03
 7.94066E-01    7.43398E+03
 8.00000E-01    7.40200E+03
 8.11287E-01    7.33902E+03
 8.22732E-01    7.27515E+03
 8.34340E-01    7.21038E+03
 8.41011E-01    7.17316E+03
 8.52876E-01    7.10695E+03
 8.64908E-01    7.03981E+03
 8.77110E-01    6.97172E+03
 8.89485E-01    6.90267E+03
 9.00000E-01    6.84400E+03
 1.00000E+00    6.34000E+03
 1.00000E+00    6.33994E+03
 1.50000E+00    5.03202E+03
 2.00000E+00    4.51301E+03
 2.51267E+00    4.20591E+03
 3.02565E+00    4.00287E+03
 3.52469E+00    3.86700E+03
 4.02822E+00    3.78870E+03
 4.50000E+00    3.76700E+03
 5.03527E+00    3.79516E+03
 5.57759E+00    3.86242E+03
 7.04938E+00    4.10052E+03
 7.65946E+00    4.17563E+03
 8.17009E+00    4.21989E+03
 8.68073E+00    4.24642E+03
 9.25574E+00    4.25651E+03
 9.50000E+00    4.25700E+03
 1.00000E+01    4.24500E+03
 1.01411E+01    4.23696E+03
 1.02842E+01    4.22880E+03
 1.03257E+01    4.22644E+03
 1.04713E+01    4.21813E+03
 1.06191E+01    4.20971E+03
 1.07689E+01    4.20117E+03
 1.09208E+01    4.19251E+03
 1.10000E+01    4.18800E+03
 1.11552E+01    4.17434E+03
 1.13126E+01    4.16049E+03
 1.14722E+01    4.14645E+03
 1.16340E+01    4.13221E+03
 1.16473E+01    4.13104E+03
 1.18116E+01    4.11658E+03
 1.19783E+01    4.10191E+03
 1.20000E+01    4.10000E+03
 1.21693E+01    4.08188E+03
 1.23410E+01    4.06351E+03
 1.25151E+01    4.04488E+03
 1.26917E+01    4.02599E+03
 1.28707E+01    4.00683E+03
 1.30000E+01    3.99300E+03
 1.31834E+01    3.97136E+03
 1.32564E+01    3.96274E+03
 1.34435E+01    3.94067E+03
 1.36331E+01    3.91829E+03
 1.38255E+01    3.89559E+03
 1.40000E+01    3.87500E+03
 1.41975E+01    3.85090E+03
 1.43214E+01    3.83579E+03
 1.45000E+01    3.81400E+03
 1.47046E+01    3.78863E+03
 1.49120E+01    3.76291E+03
 1.50000E+01    3.75200E+03
 1.52116E+01    3.72639E+03
 1.54262E+01    3.70043E+03
 1.56439E+01    3.67409E+03
 1.58646E+01    3.64739E+03
 1.60000E+01    3.63100E+03
 1.62257E+01    3.60504E+03
 1.64546E+01    3.57872E+03
 1.66531E+01    3.55590E+03
 1.68880E+01    3.52888E+03
 1.70000E+01    3.51600E+03
 1.72398E+01    3.49082E+03
 1.74831E+01    3.46528E+03
 1.77297E+01    3.43938E+03
 1.79799E+01    3.41312E+03
 1.80000E+01    3.41100E+03
 1.82539E+01    3.38637E+03
 1.85115E+01    3.36139E+03
 1.87726E+01    3.33605E+03
 1.90000E+01    3.31400E+03
 1.92681E+01    3.29014E+03
 1.95399E+01    3.26595E+03
 1.98156E+01    3.24141E+03
 2.00000E+01    3.22500E+03
