# n + Sr 90 : (n,a)     
# jendl4.0   K.Shibata, A.Ichihara, S.Kunieda  EVAL-AUG09
# uncertainties: n
# # energies =    21
#   E(MeV)       xs(mb) 
 5.50000E+00    0.00000E+00
 6.00000E+00    2.03800E-04
 6.50000E+00    1.27600E-03
 7.00000E+00    4.06200E-03
 7.50000E+00    7.86100E-03
 8.00000E+00    1.23300E-02
 8.50000E+00    1.88300E-02
 9.00000E+00    3.04300E-02
 9.50000E+00    4.64000E-02
 1.00000E+01    4.75300E-02
 1.10000E+01    7.00100E-02
 1.20000E+01    1.10500E-01
 1.30000E+01    1.71900E-01
 1.40000E+01    2.86300E-01
 1.45000E+01    3.73400E-01
 1.50000E+01    4.46000E-01
 1.60000E+01    6.16500E-01
 1.70000E+01    7.56500E-01
 1.80000E+01    8.48400E-01
 1.90000E+01    8.89100E-01
 2.00000E+01    8.89600E-01
