# n + Sr 90 : (n,n'02)  
# jendl4.0   K.Shibata, A.Ichihara, S.Kunieda  EVAL-AUG09
# uncertainties: n
# # energies =    29
#   E(MeV)       xs(mb) 
 1.67449E+00    0.00000E+00
 2.00000E+00    2.89500E+02
 2.50000E+00    3.20500E+02
 3.00000E+00    2.17400E+02
 3.50000E+00    1.92900E+02
 4.00000E+00    1.34300E+02
 4.50000E+00    8.83500E+01
 5.00000E+00    5.56100E+01
 5.50000E+00    3.31800E+01
 6.00000E+00    1.92600E+01
 6.50000E+00    1.14000E+01
 7.00000E+00    6.98400E+00
 7.50000E+00    4.49300E+00
 8.00000E+00    3.10700E+00
 8.50000E+00    2.30200E+00
 9.00000E+00    1.82700E+00
 9.50000E+00    1.51800E+00
 1.00000E+01    1.31000E+00
 1.10000E+01    1.04200E+00
 1.20000E+01    8.78100E-01
 1.30000E+01    7.64400E-01
 1.40000E+01    6.77100E-01
 1.45000E+01    6.40300E-01
 1.50000E+01    6.06900E-01
 1.60000E+01    5.48500E-01
 1.70000E+01    4.98500E-01
 1.80000E+01    4.55200E-01
 1.90000E+01    4.18100E-01
 2.00000E+01    3.86400E-01
