# n + Sr 90 : (n,xp)    
# jendl4.0   K.Shibata, A.Ichihara, S.Kunieda  EVAL-AUG09
# 
# # energies =    52
#   E(MeV)        xs(mb) 
 8.41011E-01    0.00000E+00
 9.00000E-01    0.00000E+00
 1.00000E+00    0.00000E+00
 1.50000E+00    0.00000E+00
 1.67449E+00    0.00000E+00
 1.91359E+00    0.00000E+00
 2.00000E+00    0.00000E+00
 2.23178E+00    0.00000E+00
 2.50000E+00    0.00000E+00
 2.52534E+00    0.00000E+00
 2.55628E+00    0.00000E+00
 2.59944E+00    0.00000E+00
 2.61501E+00    0.00000E+00
 2.70400E+00    0.00000E+00
 2.96055E+00    0.00000E+00
 3.00000E+00    0.00000E+00
 3.00445E+00    0.00000E+00
 3.06690E+00    0.00000E+00
 3.07208E+00    0.00000E+00
 3.07336E+00    0.00000E+00
 3.18018E+00    0.00000E+00
 3.18129E+00    0.00000E+00
 3.30466E+00    0.00000E+00
 3.42135E+00    0.00000E+00
 3.43208E+00    0.00000E+00
 3.48852E+00    0.00000E+00
 3.49864E+00    0.00000E+00
 3.50000E+00    0.00000E+00
 4.00000E+00    0.00000E+00
 4.50000E+00    0.00000E+00
 5.00000E+00    0.00000E+00
 5.50000E+00    0.00000E+00
 6.00000E+00    0.00000E+00
 6.50000E+00    0.00000E+00
 7.00000E+00    0.00000E+00
 7.50000E+00    0.00000E+00
 8.00000E+00    4.90400E-05
 8.50000E+00    5.12000E-04
 9.00000E+00    6.23500E-03
 9.50000E+00    1.77600E-02
 1.00000E+01    6.10700E-02
 1.10000E+01    3.10200E-01
 1.20000E+01    9.85500E-01
 1.30000E+01    2.25700E+00
 1.40000E+01    4.20120E+00
 1.45000E+01    5.01778E+00
 1.50000E+01    6.22164E+00
 1.60000E+01    9.53560E+00
 1.70000E+01    1.35728E+01
 1.80000E+01    1.81940E+01
 1.90000E+01    2.33190E+01
 2.00000E+01    2.88190E+01
