# n + Sr 90 : (n,n'07)  
# jendl4.0   K.Shibata, A.Ichihara, S.Kunieda  EVAL-AUG09
# uncertainties: n
# # energies =    27
#   E(MeV)       xs(mb) 
 2.59944E+00    0.00000E+00
 3.00000E+00    5.36500E+01
 3.50000E+00    3.63900E+01
 4.00000E+00    2.62800E+01
 4.50000E+00    2.14600E+01
 5.00000E+00    1.59200E+01
 5.50000E+00    1.05900E+01
 6.00000E+00    6.38900E+00
 6.50000E+00    4.01300E+00
 7.00000E+00    2.49700E+00
 7.50000E+00    1.77700E+00
 8.00000E+00    1.25600E+00
 8.50000E+00    1.06000E+00
 9.00000E+00    8.40000E-01
 9.50000E+00    7.86400E-01
 1.00000E+01    6.54100E-01
 1.10000E+01    5.36800E-01
 1.20000E+01    4.50200E-01
 1.30000E+01    3.83200E-01
 1.40000E+01    3.30300E-01
 1.45000E+01    2.84600E-01
 1.50000E+01    2.87800E-01
 1.60000E+01    2.55500E-01
 1.70000E+01    2.30000E-01
 1.80000E+01    2.08200E-01
 1.90000E+01    1.89800E-01
 2.00000E+01    1.74100E-01
