# n + Sr 90 : (n,n'10)  
# jendl4.0   K.Shibata, A.Ichihara, S.Kunieda  EVAL-AUG09
# uncertainties: n
# # energies =    27
#   E(MeV)       xs(mb) 
 2.96055E+00    0.00000E+00
 3.00000E+00    1.41400E+01
 3.50000E+00    1.11500E+02
 4.00000E+00    7.59000E+01
 4.50000E+00    5.06600E+01
 5.00000E+00    3.82700E+01
 5.50000E+00    2.74500E+01
 6.00000E+00    1.79600E+01
 6.50000E+00    1.21400E+01
 7.00000E+00    8.01900E+00
 7.50000E+00    5.97500E+00
 8.00000E+00    4.36400E+00
 8.50000E+00    3.76800E+00
 9.00000E+00    3.03900E+00
 9.50000E+00    2.88800E+00
 1.00000E+01    2.43500E+00
 1.10000E+01    2.04800E+00
 1.20000E+01    1.74900E+00
 1.30000E+01    1.50900E+00
 1.40000E+01    1.31300E+00
 1.45000E+01    1.13600E+00
 1.50000E+01    1.15300E+00
 1.60000E+01    1.03000E+00
 1.70000E+01    9.34200E-01
 1.80000E+01    8.51900E-01
 1.90000E+01    7.80200E-01
 2.00000E+01    7.16400E-01
