# n + Sr 90 : (n,n'11)  
# jendl4.0   K.Shibata, A.Ichihara, S.Kunieda  EVAL-AUG09
# uncertainties: n
# # energies =    26
#   E(MeV)       xs(mb) 
 3.00445E+00    0.00000E+00
 3.50000E+00    2.87100E+01
 4.00000E+00    2.16400E+01
 4.50000E+00    1.67100E+01
 5.00000E+00    1.34100E+01
 5.50000E+00    9.57500E+00
 6.00000E+00    6.04300E+00
 6.50000E+00    3.86700E+00
 7.00000E+00    2.41300E+00
 7.50000E+00    1.71300E+00
 8.00000E+00    1.20400E+00
 8.50000E+00    1.01200E+00
 9.00000E+00    8.01700E-01
 9.50000E+00    7.52100E-01
 1.00000E+01    6.27900E-01
 1.10000E+01    5.19300E-01
 1.20000E+01    4.37700E-01
 1.30000E+01    3.73800E-01
 1.40000E+01    3.22800E-01
 1.45000E+01    2.78300E-01
 1.50000E+01    2.81600E-01
 1.60000E+01    2.50400E-01
 1.70000E+01    2.25600E-01
 1.80000E+01    2.04500E-01
 1.90000E+01    1.86500E-01
 2.00000E+01    1.71200E-01
