# n + Cs137 : (n,el)    
# endfb8.0   JNDC FP Nuclear Data W.G.         EVAL-MAR90
# uncertainties: n
# # energies =   171
#   E(MeV)       xs(mb) 
 1.00000E-11    5.67807E+03
 1.00000E-07    3.53196E+03
 4.13990E-07    3.53090E+03
 5.31580E-07    3.53082E+03
 6.82560E-07    3.53072E+03
 8.76420E-07    3.53059E+03
 1.12540E-06    3.53043E+03
 1.44500E-06    3.53024E+03
 1.85540E-06    3.53019E+03
 2.37240E-06    3.53019E+03
 3.05900E-06    3.53019E+03
 3.92790E-06    3.53019E+03
 5.04350E-06    3.53019E+03
 6.47600E-06    3.53019E+03
 8.31530E-06    3.53019E+03
 1.06770E-05    3.53019E+03
 1.37100E-05    3.53019E+03
 1.76030E-05    3.53019E+03
 2.26030E-05    3.53019E+03
 2.92030E-05    3.53019E+03
 3.72670E-05    3.53018E+03
 4.78510E-05    3.53018E+03
 6.14420E-05    3.53017E+03
 7.88930E-05    3.53017E+03
 1.01300E-04    3.53016E+03
 1.30070E-04    3.53015E+03
 1.67020E-04    3.53014E+03
 2.14450E-04    3.53012E+03
 2.75360E-04    3.53010E+03
 3.53580E-04    3.53007E+03
 4.54000E-04    3.53004E+03
 5.82950E-04    3.53000E+03
 7.48520E-04    3.53000E+03
 9.61120E-04    3.53000E+03
 1.23410E-03    3.53000E+03
 1.58460E-03    1.57361E+04
 2.03470E-03    1.93514E+04
 2.24870E-03    1.85749E+04
 2.48520E-03    1.80166E+04
 2.61260E-03    1.76568E+04
 2.74650E-03    1.71351E+04
 3.03540E-03    1.64719E+04
 3.35460E-03    1.58370E+04
 3.70740E-03    1.50881E+04
 4.30740E-03    1.39876E+04
 5.53080E-03    1.27544E+04
 7.10170E-03    1.16687E+04
 9.11880E-03    1.07114E+04
 1.17090E-02    9.86826E+03
 1.50340E-02    9.12684E+03
 1.93050E-02    8.62653E+03
 2.18750E-02    8.37931E+03
 2.35790E-02    8.25998E+03
 2.41760E-02    8.20229E+03
 2.47880E-02    8.11618E+03
 2.60580E-02    8.02009E+03
 2.70000E-02    7.92185E+03
 2.85000E-02    7.74802E+03
 3.18280E-02    7.55931E+03
 3.43070E-02    7.31909E+03
 4.08680E-02    7.04837E+03
 4.63090E-02    6.83840E+03
 5.24750E-02    6.67925E+03
 5.65620E-02    6.49090E+03
 6.73790E-02    6.31764E+03
 7.20000E-02    6.20503E+03
 7.95000E-02    6.11488E+03
 8.25000E-02    6.06043E+03
 8.65170E-02    5.95259E+03
 9.80370E-02    5.82114E+03
 1.11090E-01    5.75580E+03
 1.16790E-01    5.71637E+03
 1.22770E-01    5.67613E+03
 1.29070E-01    5.64095E+03
 1.35690E-01    5.60517E+03
 1.42640E-01    5.56755E+03
 1.49960E-01    5.53667E+03
 1.57640E-01    5.51936E+03
 1.65730E-01    5.50141E+03
 1.74220E-01    5.48255E+03
 1.83160E-01    5.46271E+03
 1.92550E-01    5.44196E+03
 2.02420E-01    5.43124E+03
 2.12800E-01    5.42774E+03
 2.23710E-01    5.42405E+03
 2.35180E-01    5.42017E+03
 2.47240E-01    5.42595E+03
 2.73240E-01    5.44291E+03
 2.87250E-01    5.45198E+03
 2.94520E-01    5.45622E+03
 2.97200E-01    5.45792E+03
 2.98500E-01    5.45994E+03
 3.01970E-01    5.48818E+03
 3.33730E-01    5.55003E+03
 3.68830E-01    5.60049E+03
 3.87740E-01    5.63604E+03
 4.07620E-01    5.68541E+03
 4.50490E-01    5.72292E+03
 4.97870E-01    5.72585E+03
 5.23400E-01    5.76464E+03
 5.50230E-01    5.80560E+03
 5.78440E-01    5.84867E+03
 6.08100E-01    5.89396E+03
 6.39280E-01    5.93867E+03
 6.72060E-01    5.98236E+03
 7.06510E-01    6.02829E+03
 7.42740E-01    6.07658E+03
 7.80820E-01    6.12733E+03
 8.20850E-01    6.17864E+03
 8.62940E-01    6.21277E+03
 9.07180E-01    6.24630E+03
 9.61640E-01    6.27567E+03
 1.00260E+00    6.26978E+03
 1.10800E+00    6.26711E+03
 1.16480E+00    6.26540E+03
 1.22460E+00    6.26085E+03
 1.28730E+00    6.23522E+03
 1.35340E+00    6.20397E+03
 1.42270E+00    6.17112E+03
 1.49570E+00    6.12888E+03
 1.57240E+00    6.06776E+03
 1.65300E+00    6.00295E+03
 1.73770E+00    5.93396E+03
 1.82680E+00    5.85074E+03
 1.92050E+00    5.72299E+03
 2.01900E+00    5.58591E+03
 2.12250E+00    5.45509E+03
 2.23130E+00    5.34137E+03
 2.30690E+00    5.25808E+03
 2.34570E+00    5.18858E+03
 2.36530E+00    5.14057E+03
 2.38520E+00    5.01966E+03
 2.46600E+00    4.79005E+03
 2.59240E+00    4.52809E+03
 2.72530E+00    4.27953E+03
 2.86500E+00    4.04369E+03
 3.01190E+00    3.83090E+03
 3.16640E+00    3.62570E+03
 3.32870E+00    3.33622E+03
 3.67880E+00    2.96200E+03
 4.06570E+00    2.67995E+03
 4.49330E+00    2.50848E+03
 4.72370E+00    2.39816E+03
 4.96590E+00    2.31019E+03
 5.22050E+00    2.25969E+03
 5.48810E+00    2.20824E+03
 5.76950E+00    2.15992E+03
 6.06530E+00    2.14687E+03
 6.37630E+00    2.14987E+03
 6.59240E+00    2.15173E+03
 6.70320E+00    2.15465E+03
 7.04690E+00    2.18399E+03
 7.40820E+00    2.23029E+03
 7.78800E+00    2.29267E+03
 8.18730E+00    2.42052E+03
 8.60710E+00    2.44394E+03
 9.04840E+00    2.48934E+03
 9.51230E+00    2.56393E+03
 1.00000E+01    2.61818E+03
 1.05130E+01    2.63304E+03
 1.10520E+01    2.70840E+03
 1.16180E+01    2.82074E+03
 1.22140E+01    2.86151E+03
 1.28400E+01    2.88475E+03
 1.34990E+01    2.91421E+03
 1.38400E+01    2.93424E+03
 1.41910E+01    2.93654E+03
 1.45500E+01    2.93729E+03
 1.49180E+01    2.93059E+03
 1.56830E+01    2.90508E+03
 1.64870E+01    2.85251E+03
