# n + Cs137 : (n,tot)   
# endfb8.0   JNDC FP Nuclear Data W.G.         EVAL-MAR90
# uncertainties: n
# # energies =   171
#   E(MeV)       xs(mb) 
 1.00000E-11    8.41739E+03
 1.00000E-07    3.64055E+03
 4.13990E-07    3.59113E+03
 5.31580E-07    3.58656E+03
 6.82560E-07    3.58229E+03
 8.76420E-07    3.57812E+03
 1.12540E-06    3.57399E+03
 1.44500E-06    3.56979E+03
 1.85540E-06    3.56719E+03
 2.37240E-06    3.56395E+03
 3.05900E-06    3.55974E+03
 3.92790E-06    3.55438E+03
 5.04350E-06    3.54918E+03
 6.47600E-06    3.54845E+03
 8.31530E-06    3.54803E+03
 1.06770E-05    3.54748E+03
 1.37100E-05    3.54678E+03
 1.76030E-05    3.54588E+03
 2.26030E-05    3.54471E+03
 2.92030E-05    3.54322E+03
 3.72670E-05    3.54135E+03
 4.78510E-05    3.54045E+03
 6.14420E-05    3.54035E+03
 7.88930E-05    3.54023E+03
 1.01300E-04    3.54007E+03
 1.30070E-04    3.53986E+03
 1.67020E-04    3.53960E+03
 2.14450E-04    3.53926E+03
 2.75360E-04    3.53883E+03
 3.53580E-04    3.53827E+03
 4.54000E-04    3.53755E+03
 5.82950E-04    3.53664E+03
 7.48520E-04    3.53546E+03
 9.61120E-04    3.53394E+03
 1.23410E-03    3.53204E+03
 1.58460E-03    1.58495E+04
 2.03470E-03    1.94946E+04
 2.24870E-03    1.87087E+04
 2.48520E-03    1.81438E+04
 2.61260E-03    1.77797E+04
 2.74650E-03    1.72518E+04
 3.03540E-03    1.65807E+04
 3.35460E-03    1.59384E+04
 3.70740E-03    1.51808E+04
 4.30740E-03    1.40677E+04
 5.53080E-03    1.28213E+04
 7.10170E-03    1.17240E+04
 9.11880E-03    1.07571E+04
 1.17090E-02    9.90613E+03
 1.50340E-02    9.15839E+03
 1.93050E-02    8.65414E+03
 2.18750E-02    8.40509E+03
 2.35790E-02    8.28491E+03
 2.41760E-02    8.22681E+03
 2.47880E-02    8.14010E+03
 2.60580E-02    8.04335E+03
 2.70000E-02    7.94443E+03
 2.85000E-02    7.76942E+03
 3.18280E-02    7.57946E+03
 3.43070E-02    7.33767E+03
 4.08680E-02    7.06522E+03
 4.63090E-02    6.85393E+03
 5.24750E-02    6.69379E+03
 5.65620E-02    6.50429E+03
 6.73790E-02    6.32997E+03
 7.20000E-02    6.21669E+03
 7.95000E-02    6.12602E+03
 8.25000E-02    6.07129E+03
 8.65170E-02    5.96289E+03
 9.80370E-02    5.83069E+03
 1.11090E-01    5.76490E+03
 1.16790E-01    5.72520E+03
 1.22770E-01    5.68467E+03
 1.29070E-01    5.64925E+03
 1.35690E-01    5.61323E+03
 1.42640E-01    5.57534E+03
 1.49960E-01    5.54424E+03
 1.57640E-01    5.52676E+03
 1.65730E-01    5.50865E+03
 1.74220E-01    5.48961E+03
 1.83160E-01    5.46958E+03
 1.92550E-01    5.44863E+03
 2.02420E-01    5.43777E+03
 2.12800E-01    5.43413E+03
 2.23710E-01    5.43031E+03
 2.35180E-01    5.42629E+03
 2.47240E-01    5.43193E+03
 2.73240E-01    5.44879E+03
 2.87250E-01    5.45782E+03
 2.94520E-01    5.46203E+03
 2.97200E-01    5.46372E+03
 2.98500E-01    5.46573E+03
 3.01970E-01    5.49393E+03
 3.33730E-01    5.55571E+03
 3.68830E-01    5.60613E+03
 3.87740E-01    5.64175E+03
 4.07620E-01    5.69349E+03
 4.50490E-01    5.77190E+03
 4.97870E-01    5.85019E+03
 5.23400E-01    5.90746E+03
 5.50230E-01    5.96767E+03
 5.78440E-01    6.03096E+03
 6.08100E-01    6.09726E+03
 6.39280E-01    6.15998E+03
 6.72060E-01    6.22266E+03
 7.06510E-01    6.28856E+03
 7.42740E-01    6.35784E+03
 7.80820E-01    6.42959E+03
 8.20850E-01    6.49352E+03
 8.62940E-01    6.55760E+03
 9.07180E-01    6.62672E+03
 9.61640E-01    6.68240E+03
 1.00260E+00    6.74662E+03
 1.10800E+00    6.80338E+03
 1.16480E+00    6.84364E+03
 1.22460E+00    6.87895E+03
 1.28730E+00    6.88559E+03
 1.35340E+00    6.88904E+03
 1.42270E+00    6.89267E+03
 1.49570E+00    6.88082E+03
 1.57240E+00    6.84850E+03
 1.65300E+00    6.81447E+03
 1.73770E+00    6.77486E+03
 1.82680E+00    6.71587E+03
 1.92050E+00    6.65171E+03
 2.01900E+00    6.57504E+03
 2.12250E+00    6.48665E+03
 2.23130E+00    6.40965E+03
 2.30690E+00    6.36158E+03
 2.34570E+00    6.33412E+03
 2.36530E+00    6.31463E+03
 2.38520E+00    6.26516E+03
 2.46600E+00    6.16325E+03
 2.59240E+00    6.04183E+03
 2.72530E+00    5.92649E+03
 2.86500E+00    5.80545E+03
 3.01190E+00    5.67674E+03
 3.16640E+00    5.53852E+03
 3.32870E+00    5.33133E+03
 3.67880E+00    5.06849E+03
 4.06570E+00    4.83036E+03
 4.49330E+00    4.66315E+03
 4.72370E+00    4.55594E+03
 4.96590E+00    4.46648E+03
 5.22050E+00    4.41165E+03
 5.48810E+00    4.35460E+03
 5.76950E+00    4.29790E+03
 6.06530E+00    4.28426E+03
 6.37630E+00    4.28851E+03
 6.59240E+00    4.29115E+03
 6.70320E+00    4.29483E+03
 7.04690E+00    4.32057E+03
 7.40820E+00    4.36458E+03
 7.78800E+00    4.41085E+03
 8.18730E+00    4.46070E+03
 8.60710E+00    4.51498E+03
 9.04840E+00    4.57153E+03
 9.51230E+00    4.62947E+03
 1.00000E+01    4.68182E+03
 1.05130E+01    4.73420E+03
 1.10520E+01    4.78708E+03
 1.16180E+01    4.83990E+03
 1.22140E+01    4.88651E+03
 1.28400E+01    4.93297E+03
 1.34990E+01    4.96747E+03
 1.38400E+01    4.98911E+03
 1.41910E+01    5.00341E+03
 1.45500E+01    5.01668E+03
 1.49180E+01    5.02380E+03
 1.56830E+01    5.00796E+03
 1.64870E+01    4.94919E+03
