# n + Sn118 : (n,n'13)  
# tendl.2019 A.J. Koning and D. Rochman        EVAL-NOV19
# uncertainties: n
# # energies =    75
#   E(MeV)       xs(mb) 
 2.51824E+00    0.00000E+00
 2.55164E+00    5.53042E+00
 2.59694E+00    1.30312E+01
 2.59905E+00    1.33806E+01
 2.60000E+00    1.35379E+01
 2.70026E+00    1.88485E+01
 2.74831E+00    2.13937E+01
 2.75718E+00    2.18635E+01
 2.76143E+00    2.20886E+01
 2.79767E+00    2.40082E+01
 2.80000E+00    2.41316E+01
 2.84110E+00    2.43055E+01
 2.87230E+00    2.44374E+01
 2.90333E+00    2.45687E+01
 2.91372E+00    2.46126E+01
 2.92871E+00    2.46760E+01
 2.95478E+00    2.47863E+01
 2.95910E+00    2.48046E+01
 2.98879E+00    2.49302E+01
 2.99743E+00    2.49667E+01
 3.00000E+00    2.49776E+01
 3.20000E+00    2.20643E+01
 3.40000E+00    1.81328E+01
 3.60000E+00    1.43768E+01
 3.80000E+00    1.11564E+01
 4.00000E+00    8.53789E+00
 4.20000E+00    6.47857E+00
 4.40000E+00    4.89487E+00
 4.60000E+00    3.69520E+00
 4.80000E+00    2.79460E+00
 5.00000E+00    2.12171E+00
 5.20000E+00    1.61956E+00
 5.40000E+00    1.24320E+00
 5.60000E+00    9.59956E-01
 5.80000E+00    7.45137E-01
 6.00000E+00    5.80861E-01
 6.20000E+00    4.54143E-01
 6.40000E+00    3.55647E-01
 6.60000E+00    2.77810E-01
 6.80000E+00    2.17205E-01
 7.00000E+00    1.69962E-01
 7.20000E+00    1.32909E-01
 7.40000E+00    1.03898E-01
 7.60000E+00    8.12555E-02
 7.80000E+00    6.34062E-02
 8.00000E+00    4.96563E-02
 8.50000E+00    2.69737E-02
 9.00000E+00    1.48100E-02
 9.50000E+00    8.24797E-03
 1.00000E+01    4.66017E-03
 1.05000E+01    2.66519E-03
 1.10000E+01    1.54233E-03
 1.15000E+01    9.02612E-04
 1.20000E+01    5.33669E-04
 1.25000E+01    3.18472E-04
 1.30000E+01    1.91647E-04
 1.35000E+01    1.16243E-04
 1.40000E+01    7.10388E-05
 1.45000E+01    4.37360E-05
 1.50000E+01    2.71217E-05
 1.60000E+01    1.06536E-05
 1.70000E+01    4.30177E-06
 1.80000E+01    1.78365E-06
 1.90000E+01    7.58380E-07
 2.00000E+01    3.29960E-07
 2.10000E+01    1.45720E-07
 2.20000E+01    6.60950E-08
 2.30000E+01    3.05300E-08
 2.40000E+01    1.43500E-08
 2.50000E+01    6.80900E-09
 2.60000E+01    3.26910E-09
 2.70000E+01    1.58770E-09
 2.80000E+01    7.80740E-10
 2.90000E+01    3.89000E-10
 3.00000E+01    1.96270E-10
