# n + Ho165 : (n,xn)    
# endfb8.0   P.G.Young+, Mughabghab            EVAL-JAN05
# 
# # energies =    95
#   E(MeV)        xs(mb) 
 9.52790E-02    0.00000E+00
 1.00000E-01    1.72370E+02
 1.25000E-01    3.44930E+02
 1.50000E-01    4.49740E+02
 1.75000E-01    5.24484E+02
 2.00000E-01    5.82400E+02
 2.11080E-01    5.98183E+02
 2.25000E-01    6.53337E+02
 2.50000E-01    7.30173E+02
 2.75000E-01    7.93080E+02
 3.00000E-01    8.49640E+02
 3.25000E-01    9.01475E+02
 3.47110E-01    9.43605E+02
 3.50000E-01    9.55981E+02
 3.63910E-01    9.87282E+02
 3.75000E-01    1.04197E+03
 4.00000E-01    1.12466E+03
 4.22070E-01    1.17541E+03
 4.25000E-01    1.19824E+03
 4.32030E-01    1.24477E+03
 4.50000E-01    1.32500E+03
 4.51950E-01    1.33109E+03
 4.75000E-01    1.41816E+03
 4.94000E-01    1.46692E+03
 5.00000E-01    1.52511E+03
 5.02250E-01    1.53462E+03
 5.18650E-01    1.59707E+03
 5.42300E-01    1.68164E+03
 5.50000E-01    1.72488E+03
 5.70270E-01    1.78029E+03
 5.93410E-01    1.86994E+03
 6.00000E-01    1.91732E+03
 6.50000E-01    2.04050E+03
 7.00000E-01    2.24416E+03
 7.50000E-01    2.25555E+03
 8.00000E-01    2.47728E+03
 9.00000E-01    2.65308E+03
 1.00000E+00    2.78678E+03
 1.25000E+00    2.90573E+03
 1.50000E+00    3.01820E+03
 1.75000E+00    3.02892E+03
 2.00000E+00    3.02698E+03
 2.50000E+00    3.03200E+03
 3.00000E+00    2.97511E+03
 3.50000E+00    2.90757E+03
 4.00000E+00    2.86974E+03
 4.50000E+00    2.83744E+03
 5.00000E+00    2.79822E+03
 5.50000E+00    2.76981E+03
 6.00000E+00    2.74421E+03
 6.50000E+00    2.70898E+03
 7.00000E+00    2.67509E+03
 7.50000E+00    2.64137E+03
 8.00000E+00    2.60554E+03
 8.00010E+00    2.60564E+03
 8.10000E+00    2.59812E+03
 8.25000E+00    2.59345E+03
 8.50000E+00    2.65008E+03
 8.75000E+00    2.78979E+03
 9.00000E+00    2.99039E+03
 9.25000E+00    3.18485E+03
 9.50000E+00    3.39364E+03
 1.00000E+01    3.72032E+03
 1.05000E+01    3.93580E+03
 1.10000E+01    4.08341E+03
 1.15000E+01    4.19332E+03
 1.20000E+01    4.27062E+03
 1.25000E+01    4.32048E+03
 1.30000E+01    4.35800E+03
 1.35000E+01    4.38517E+03
 1.40000E+01    4.40793E+03
 1.45000E+01    4.42625E+03
 1.47500E+01    4.43591E+03
 1.50000E+01    4.44659E+03
 1.52500E+01    4.45819E+03
 1.55000E+01    4.47954E+03
 1.60000E+01    4.53643E+03
 1.65000E+01    4.64307E+03
 1.70000E+01    4.79036E+03
 1.75000E+01    4.97076E+03
 1.80000E+01    5.15235E+03
 1.85000E+01    5.32880E+03
 1.90000E+01    5.50098E+03
 1.95000E+01    5.65063E+03
 2.00000E+01    5.76782E+03
 2.10000E+01    5.94738E+03
 2.20000E+01    6.09231E+03
 2.30000E+01    6.20128E+03
 2.40000E+01    6.28371E+03
 2.50000E+01    6.37538E+03
 2.60000E+01    6.43369E+03
 2.70000E+01    6.54648E+03
 2.80000E+01    6.73181E+03
 2.90000E+01    6.92622E+03
 3.00000E+01    7.14848E+03
