# n + Zn 64 : (n,n'06)  
# jendl4.0   N.Iwamoto                         EVAL-Dec09
# uncertainties: n
# # energies =    70
#   E(MeV)       xs(mb) 
 2.77971E+00    0.00000E+00
 2.83788E+00    1.38637E+01
 3.00000E+00    3.94169E+01
 3.02680E+00    4.32869E+01
 3.04569E+00    4.54984E+01
 3.05311E+00    4.49591E+01
 3.11966E+00    5.04346E+01
 3.12633E+00    5.10133E+01
 3.14341E+00    5.15384E+01
 3.23706E+00    5.78790E+01
 3.24724E+00    5.84789E+01
 3.25649E+00    5.90720E+01
 3.29112E+00    6.06319E+01
 3.31346E+00    6.16317E+01
 3.33683E+00    6.25931E+01
 3.34920E+00    6.31460E+01
 3.35902E+00    6.34101E+01
 3.37421E+00    6.33523E+01
 3.41906E+00    6.41387E+01
 3.42299E+00    6.41836E+01
 3.46888E+00    6.45638E+01
 3.47919E+00    6.47116E+01
 3.50000E+00    6.48636E+01
 3.50677E+00    6.49223E+01
 3.51309E+00    6.49766E+01
 3.51967E+00    6.50340E+01
 3.55522E+00    6.53781E+01
 3.59453E+00    6.55002E+01
 3.60296E+00    6.55230E+01
 3.60835E+00    6.55389E+01
 3.64360E+00    6.50124E+01
 3.65396E+00    6.49756E+01
 3.65883E+00    6.49651E+01
 3.66340E+00    6.49608E+01
 3.67783E+00    6.49509E+01
 3.68423E+00    6.49308E+01
 3.68565E+00    6.49255E+01
 4.00000E+00    5.46040E+01
 4.50000E+00    3.45592E+01
 5.00000E+00    2.37496E+01
 5.50000E+00    1.63413E+01
 6.00000E+00    1.18588E+01
 6.50000E+00    8.84470E+00
 7.00000E+00    6.76038E+00
 7.50000E+00    5.25665E+00
 8.00000E+00    4.16924E+00
 8.50000E+00    3.36771E+00
 9.00000E+00    2.77838E+00
 9.50000E+00    2.34146E+00
 1.00000E+01    2.01345E+00
 1.05000E+01    1.76108E+00
 1.10000E+01    1.57083E+00
 1.15000E+01    1.41705E+00
 1.20000E+01    1.29660E+00
 1.25000E+01    1.19505E+00
 1.30000E+01    1.11167E+00
 1.35000E+01    1.03861E+00
 1.40000E+01    9.76394E-01
 1.45000E+01    9.20003E-01
 1.50000E+01    8.70997E-01
 1.55000E+01    8.25495E-01
 1.60000E+01    7.85184E-01
 1.65000E+01    7.47276E-01
 1.70000E+01    7.13171E-01
 1.75000E+01    6.80654E-01
 1.80000E+01    6.50911E-01
 1.85000E+01    6.22229E-01
 1.90000E+01    5.95758E-01
 1.95000E+01    5.70172E-01
 2.00000E+01    5.46209E-01
