# n + Zn 64 : (n,n'23)  
# jendl4.0   N.Iwamoto                         EVAL-Dec09
# uncertainties: n
# # energies =    52
#   E(MeV)       xs(mb) 
 3.41906E+00    0.00000E+00
 3.42299E+00    4.19294E+00
 3.46888E+00    1.32049E+01
 3.47919E+00    1.43094E+01
 3.50000E+00    1.61424E+01
 3.50677E+00    1.67325E+01
 3.51309E+00    1.72167E+01
 3.51967E+00    1.76903E+01
 3.55522E+00    2.01032E+01
 3.59453E+00    2.22957E+01
 3.60296E+00    2.27103E+01
 3.60835E+00    2.29503E+01
 3.64360E+00    2.45212E+01
 3.65396E+00    2.48992E+01
 3.65883E+00    2.50550E+01
 3.66340E+00    2.51882E+01
 3.67783E+00    2.56367E+01
 3.68423E+00    2.58187E+01
 3.68565E+00    2.58472E+01
 4.00000E+00    2.87323E+01
 4.50000E+00    2.29443E+01
 5.00000E+00    1.64255E+01
 5.50000E+00    1.09380E+01
 6.00000E+00    7.51986E+00
 6.50000E+00    5.35484E+00
 7.00000E+00    3.86765E+00
 7.50000E+00    2.84686E+00
 8.00000E+00    2.13479E+00
 8.50000E+00    1.62716E+00
 9.00000E+00    1.26893E+00
 9.50000E+00    1.01617E+00
 1.00000E+01    8.36188E-01
 1.05000E+01    7.05504E-01
 1.10000E+01    6.11206E-01
 1.15000E+01    5.39641E-01
 1.20000E+01    4.86074E-01
 1.25000E+01    4.43387E-01
 1.30000E+01    4.09842E-01
 1.35000E+01    3.81483E-01
 1.40000E+01    3.57769E-01
 1.45000E+01    3.36952E-01
 1.50000E+01    3.18796E-01
 1.55000E+01    3.02173E-01
 1.60000E+01    2.87414E-01
 1.65000E+01    2.73559E-01
 1.70000E+01    2.61180E-01
 1.75000E+01    2.49351E-01
 1.80000E+01    2.38657E-01
 1.85000E+01    2.28322E-01
 1.90000E+01    2.18852E-01
 1.95000E+01    2.09714E-01
 2.00000E+01    2.01139E-01
