# n + Zn 64 : (n,n'26)  
# jendl4.0   N.Iwamoto                         EVAL-Dec09
# uncertainties: n
# # energies =    49
#   E(MeV)       xs(mb) 
 3.47919E+00    0.00000E+00
 3.50000E+00    7.76108E+00
 3.50677E+00    8.81138E+00
 3.51309E+00    9.64739E+00
 3.51967E+00    1.04068E+01
 3.55522E+00    1.37954E+01
 3.59453E+00    1.66043E+01
 3.60296E+00    1.71144E+01
 3.60835E+00    1.74150E+01
 3.64360E+00    1.93525E+01
 3.65396E+00    1.98549E+01
 3.65883E+00    2.00701E+01
 3.66340E+00    2.02595E+01
 3.67783E+00    2.08793E+01
 3.68423E+00    2.11057E+01
 3.68565E+00    2.11430E+01
 4.00000E+00    2.61346E+01
 4.50000E+00    2.19172E+01
 5.00000E+00    1.59827E+01
 5.50000E+00    1.06363E+01
 6.00000E+00    7.27445E+00
 6.50000E+00    5.15440E+00
 7.00000E+00    3.69408E+00
 7.50000E+00    2.69282E+00
 8.00000E+00    1.99506E+00
 8.50000E+00    1.49827E+00
 9.00000E+00    1.14876E+00
 9.50000E+00    9.03400E-01
 1.00000E+01    7.29951E-01
 1.05000E+01    6.05321E-01
 1.10000E+01    5.16254E-01
 1.15000E+01    4.49752E-01
 1.20000E+01    4.00632E-01
 1.25000E+01    3.62257E-01
 1.30000E+01    3.32594E-01
 1.35000E+01    3.08042E-01
 1.40000E+01    2.87801E-01
 1.45000E+01    2.70351E-01
 1.50000E+01    2.55285E-01
 1.55000E+01    2.41655E-01
 1.60000E+01    2.29636E-01
 1.65000E+01    2.18415E-01
 1.70000E+01    2.08445E-01
 1.75000E+01    1.98937E-01
 1.80000E+01    1.90372E-01
 1.85000E+01    1.82104E-01
 1.90000E+01    1.74539E-01
 1.95000E+01    1.67253E-01
 2.00000E+01    1.60416E-01
