# n + Zn 64 : (n,el)    
# jendl4.0   N.Iwamoto                         EVAL-Dec09
# uncertainties: n
# # energies =    69
#   E(MeV)       xs(mb) 
 1.00000E-10    5.56330E+03
 5.00000E-09    4.00892E+03
 1.00000E-08    3.96071E+03
 1.50000E-08    3.94187E+03
 2.00000E-08    3.93157E+03
 2.50000E-08    3.92526E+03
 3.00000E-08    3.92076E+03
 3.50000E-08    3.91715E+03
 4.20000E-08    3.91380E+03
 5.00000E-08    3.91122E+03
 5.80000E-08    3.90925E+03
 6.70000E-08    3.90748E+03
 8.00000E-08    3.90541E+03
 1.00000E-07    3.90331E+03
 1.40000E-07    3.90163E+03
 1.80000E-07    3.90058E+03
 2.20000E-07    3.89970E+03
 2.50000E-07    3.89937E+03
 2.80000E-07    3.89919E+03
 3.00000E-07    3.89905E+03
 3.20000E-07    3.89887E+03
 3.50000E-07    3.89858E+03
 4.00000E-07    3.89806E+03
 5.00000E-07    3.89734E+03
 6.25000E-07    3.89700E+03
 7.80000E-07    3.89679E+03
 8.50000E-07    3.89666E+03
 9.10000E-07    3.89657E+03
 9.50000E-07    3.89651E+03
 9.72000E-07    3.89647E+03
 9.96000E-07    3.89643E+03
 1.02000E-06    3.89638E+03
 1.04500E-06    3.89633E+03
 1.07100E-06    3.89628E+03
 1.09700E-06    3.89624E+03
 1.12300E-06    3.89619E+03
 1.15000E-06    3.89602E+03
 1.30000E-06    3.89570E+03
 1.50000E-06    3.89498E+03
 2.10000E-06    3.89395E+03
 2.60000E-06    3.89295E+03
 3.30000E-06    3.89199E+03
 4.00000E-06    3.88811E+03
 9.87700E-06    3.87974E+03
 1.59680E-05    3.86806E+03
 2.77000E-05    3.84685E+03
 4.80520E-05    3.81460E+03
 7.55014E-05    3.75055E+03
 1.48728E-04    3.57469E+03
 3.67262E-04    3.05160E+03
 9.06898E-04    2.13048E+03
 1.42510E-03    6.94182E+02
 2.23945E-03    9.11685E+04
 3.51910E-03    1.66942E+04
 5.53000E-03    3.93967E+03
 9.11800E-03    1.72427E+04
 1.50300E-02    1.19877E+04
 2.47800E-02    1.13134E+04
 4.08500E-02    7.43043E+03
 6.73400E-02    6.49060E+03
 1.11000E-01    6.37163E+03
 1.83000E-01    6.09378E+03
 3.02000E-01    5.21242E+03
 5.00000E-01    4.44987E+03
 8.21000E-01    3.55913E+03
 1.35300E+00    2.47688E+03
 2.23100E+00    1.92492E+03
 3.67900E+00    1.90255E+03
 6.06500E+00    1.96137E+03
