# n + Zn 64 : (n,n'04)  
# jendl4.0   N.Iwamoto                         EVAL-Dec09
# uncertainties: n
# # energies =    74
#   E(MeV)       xs(mb) 
 2.34310E+00    0.00000E+00
 2.50000E+00    3.93456E+01
 2.65060E+00    7.06454E+01
 2.75000E+00    9.03079E+01
 2.77971E+00    9.58451E+01
 2.83788E+00    1.01902E+02
 3.00000E+00    1.21860E+02
 3.02680E+00    1.24420E+02
 3.04569E+00    1.24599E+02
 3.05311E+00    1.21409E+02
 3.11966E+00    1.19231E+02
 3.12633E+00    1.19267E+02
 3.14341E+00    1.18001E+02
 3.23706E+00    1.17550E+02
 3.24724E+00    1.17344E+02
 3.25649E+00    1.17301E+02
 3.29112E+00    1.16119E+02
 3.31346E+00    1.15771E+02
 3.33683E+00    1.15274E+02
 3.34920E+00    1.15066E+02
 3.35902E+00    1.14424E+02
 3.37421E+00    1.13031E+02
 3.41906E+00    1.10891E+02
 3.42299E+00    1.10660E+02
 3.46888E+00    1.08112E+02
 3.47919E+00    1.07682E+02
 3.50000E+00    1.06789E+02
 3.50677E+00    1.06519E+02
 3.51309E+00    1.06266E+02
 3.51967E+00    1.06010E+02
 3.55522E+00    1.04603E+02
 3.59453E+00    1.02469E+02
 3.60296E+00    1.02075E+02
 3.60835E+00    1.01833E+02
 3.64360E+00    9.95319E+01
 3.65396E+00    9.90188E+01
 3.65883E+00    9.87913E+01
 3.66340E+00    9.85875E+01
 3.67783E+00    9.79544E+01
 3.68423E+00    9.76775E+01
 3.68565E+00    9.76170E+01
 4.00000E+00    7.66289E+01
 4.50000E+00    5.06224E+01
 5.00000E+00    3.84150E+01
 5.50000E+00    3.03005E+01
 6.00000E+00    2.52172E+01
 6.50000E+00    2.16882E+01
 7.00000E+00    1.89645E+01
 7.50000E+00    1.67676E+01
 8.00000E+00    1.50012E+01
 8.50000E+00    1.35718E+01
 9.00000E+00    1.24218E+01
 9.50000E+00    1.14922E+01
 1.00000E+01    1.07294E+01
 1.05000E+01    1.00906E+01
 1.10000E+01    9.53301E+00
 1.15000E+01    9.03302E+00
 1.20000E+01    8.57972E+00
 1.25000E+01    8.14852E+00
 1.30000E+01    7.74614E+00
 1.35000E+01    7.36240E+00
 1.40000E+01    6.99763E+00
 1.45000E+01    6.66258E+00
 1.50000E+01    6.34288E+00
 1.55000E+01    6.06290E+00
 1.60000E+01    5.79518E+00
 1.65000E+01    5.56534E+00
 1.70000E+01    5.34518E+00
 1.75000E+01    5.15146E+00
 1.80000E+01    4.96495E+00
 1.85000E+01    4.78994E+00
 1.90000E+01    4.62062E+00
 1.95000E+01    4.45396E+00
 2.00000E+01    4.29145E+00
