# n + Zn 64 : (n,n'17)  
# jendl4.0   N.Iwamoto                         EVAL-Dec09
# uncertainties: n
# # energies =    58
#   E(MeV)       xs(mb) 
 3.29112E+00    0.00000E+00
 3.31346E+00    5.05925E+00
 3.33683E+00    6.76446E+00
 3.34920E+00    7.37175E+00
 3.35902E+00    7.87358E+00
 3.37421E+00    8.60524E+00
 3.41906E+00    1.02334E+01
 3.42299E+00    1.02912E+01
 3.46888E+00    1.15900E+01
 3.47919E+00    1.17722E+01
 3.50000E+00    1.21029E+01
 3.50677E+00    1.22304E+01
 3.51309E+00    1.22769E+01
 3.51967E+00    1.23044E+01
 3.55522E+00    1.26929E+01
 3.59453E+00    1.32383E+01
 3.60296E+00    1.32706E+01
 3.60835E+00    1.32674E+01
 3.64360E+00    1.35305E+01
 3.65396E+00    1.35642E+01
 3.65883E+00    1.35595E+01
 3.66340E+00    1.35435E+01
 3.67783E+00    1.35413E+01
 3.68423E+00    1.35291E+01
 3.68565E+00    1.35141E+01
 4.00000E+00    1.29106E+01
 4.50000E+00    9.98116E+00
 5.00000E+00    7.10521E+00
 5.50000E+00    4.88453E+00
 6.00000E+00    3.50743E+00
 6.50000E+00    2.61907E+00
 7.00000E+00    2.00717E+00
 7.50000E+00    1.58137E+00
 8.00000E+00    1.27829E+00
 8.50000E+00    1.05702E+00
 9.00000E+00    8.95885E-01
 9.50000E+00    7.77436E-01
 1.00000E+01    6.88573E-01
 1.05000E+01    6.19430E-01
 1.10000E+01    5.66430E-01
 1.15000E+01    5.22296E-01
 1.20000E+01    4.86854E-01
 1.25000E+01    4.55820E-01
 1.30000E+01    4.29623E-01
 1.35000E+01    4.05577E-01
 1.40000E+01    3.84400E-01
 1.45000E+01    3.64633E-01
 1.50000E+01    3.46852E-01
 1.55000E+01    3.29991E-01
 1.60000E+01    3.14717E-01
 1.65000E+01    3.00138E-01
 1.70000E+01    2.86912E-01
 1.75000E+01    2.74182E-01
 1.80000E+01    2.62556E-01
 1.85000E+01    2.51273E-01
 1.90000E+01    2.40890E-01
 1.95000E+01    2.30823E-01
 2.00000E+01    2.21386E-01
