# n + Zn 64 : (n,n'20)  
# jendl4.0   N.Iwamoto                         EVAL-Dec09
# uncertainties: n
# # energies =    55
#   E(MeV)       xs(mb) 
 3.34920E+00    0.00000E+00
 3.35902E+00    1.13086E+01
 3.37421E+00    1.70683E+01
 3.41906E+00    2.64347E+01
 3.42299E+00    2.69897E+01
 3.46888E+00    3.27810E+01
 3.47919E+00    3.39742E+01
 3.50000E+00    3.59239E+01
 3.50677E+00    3.65749E+01
 3.51309E+00    3.71723E+01
 3.51967E+00    3.77838E+01
 3.55522E+00    4.08560E+01
 3.59453E+00    4.30181E+01
 3.60296E+00    4.35145E+01
 3.60835E+00    4.38254E+01
 3.64360E+00    4.57597E+01
 3.65396E+00    4.62570E+01
 3.65883E+00    4.64605E+01
 3.66340E+00    4.66476E+01
 3.67783E+00    4.72175E+01
 3.68423E+00    4.74592E+01
 3.68565E+00    4.75111E+01
 4.00000E+00    4.75709E+01
 4.50000E+00    3.43532E+01
 5.00000E+00    2.33074E+01
 5.50000E+00    1.50354E+01
 6.00000E+00    1.00854E+01
 6.50000E+00    6.97898E+00
 7.00000E+00    4.88178E+00
 7.50000E+00    3.45145E+00
 8.00000E+00    2.46370E+00
 8.50000E+00    1.76756E+00
 9.00000E+00    1.28249E+00
 9.50000E+00    9.45392E-01
 1.00000E+01    7.10421E-01
 1.05000E+01    5.45313E-01
 1.10000E+01    4.30166E-01
 1.15000E+01    3.47857E-01
 1.20000E+01    2.89478E-01
 1.25000E+01    2.46741E-01
 1.30000E+01    2.15638E-01
 1.35000E+01    1.91939E-01
 1.40000E+01    1.73892E-01
 1.45000E+01    1.59530E-01
 1.50000E+01    1.48019E-01
 1.55000E+01    1.38308E-01
 1.60000E+01    1.30186E-01
 1.65000E+01    1.22991E-01
 1.70000E+01    1.16787E-01
 1.75000E+01    1.11072E-01
 1.80000E+01    1.06007E-01
 1.85000E+01    1.01212E-01
 1.90000E+01    9.68694E-02
 1.95000E+01    9.27181E-02
 2.00000E+01    8.88520E-02
