# n + Zn 64 : (n,n'31)  
# jendl4.0   N.Iwamoto                         EVAL-Dec09
# uncertainties: n
# # energies =    43
#   E(MeV)       xs(mb) 
 3.59453E+00    0.00000E+00
 3.60296E+00    1.44690E+00
 3.60835E+00    1.80389E+00
 3.64360E+00    3.26344E+00
 3.65396E+00    3.55232E+00
 3.65883E+00    3.66834E+00
 3.66340E+00    3.76654E+00
 3.67783E+00    4.07718E+00
 3.68423E+00    4.19775E+00
 3.68565E+00    4.21618E+00
 4.00000E+00    7.85248E+00
 4.50000E+00    8.00232E+00
 5.00000E+00    6.35504E+00
 5.50000E+00    4.46876E+00
 6.00000E+00    3.21187E+00
 6.50000E+00    2.41435E+00
 7.00000E+00    1.86376E+00
 7.50000E+00    1.47751E+00
 8.00000E+00    1.20164E+00
 8.50000E+00    9.97426E-01
 9.00000E+00    8.46763E-01
 9.50000E+00    7.35167E-01
 1.00000E+01    6.51152E-01
 1.05000E+01    5.85703E-01
 1.10000E+01    5.35519E-01
 1.15000E+01    4.93831E-01
 1.20000E+01    4.60504E-01
 1.25000E+01    4.31490E-01
 1.30000E+01    4.07150E-01
 1.35000E+01    3.84943E-01
 1.40000E+01    3.65232E-01
 1.45000E+01    3.46930E-01
 1.50000E+01    3.30340E-01
 1.55000E+01    3.14542E-01
 1.60000E+01    3.00194E-01
 1.65000E+01    2.86398E-01
 1.70000E+01    2.73912E-01
 1.75000E+01    2.61833E-01
 1.80000E+01    2.50834E-01
 1.85000E+01    2.40160E-01
 1.90000E+01    2.30340E-01
 1.95000E+01    2.20852E-01
 2.00000E+01    2.11929E-01
