# n + Zn 64 : (n,n'15)  
# jendl4.0   N.Iwamoto                         EVAL-Dec09
# uncertainties: n
# # energies =    60
#   E(MeV)       xs(mb) 
 3.24724E+00    0.00000E+00
 3.25649E+00    3.88982E+00
 3.29112E+00    7.58444E+00
 3.31346E+00    8.84906E+00
 3.33683E+00    9.85218E+00
 3.34920E+00    1.02429E+01
 3.35902E+00    1.06136E+01
 3.37421E+00    1.11941E+01
 3.41906E+00    1.24588E+01
 3.42299E+00    1.24901E+01
 3.46888E+00    1.35515E+01
 3.47919E+00    1.36575E+01
 3.50000E+00    1.38687E+01
 3.50677E+00    1.39758E+01
 3.51309E+00    1.40003E+01
 3.51967E+00    1.40043E+01
 3.55522E+00    1.42624E+01
 3.59453E+00    1.45895E+01
 3.60296E+00    1.45994E+01
 3.60835E+00    1.45814E+01
 3.64360E+00    1.47631E+01
 3.65396E+00    1.47561E+01
 3.65883E+00    1.47271E+01
 3.66340E+00    1.46882E+01
 3.67783E+00    1.46156E+01
 3.68423E+00    1.45726E+01
 3.68565E+00    1.45505E+01
 4.00000E+00    1.32041E+01
 4.50000E+00    9.69869E+00
 5.00000E+00    6.68249E+00
 5.50000E+00    4.42564E+00
 6.00000E+00    3.03650E+00
 6.50000E+00    2.13882E+00
 7.00000E+00    1.53024E+00
 7.50000E+00    1.11335E+00
 8.00000E+00    8.25076E-01
 8.50000E+00    6.22361E-01
 9.00000E+00    4.81142E-01
 9.50000E+00    3.82649E-01
 1.00000E+01    3.13252E-01
 1.05000E+01    2.63357E-01
 1.10000E+01    2.27581E-01
 1.15000E+01    2.00596E-01
 1.20000E+01    1.80435E-01
 1.25000E+01    1.64392E-01
 1.30000E+01    1.51775E-01
 1.35000E+01    1.41086E-01
 1.40000E+01    1.32219E-01
 1.45000E+01    1.24382E-01
 1.50000E+01    1.17615E-01
 1.55000E+01    1.11418E-01
 1.60000E+01    1.05933E-01
 1.65000E+01    1.00807E-01
 1.70000E+01    9.62131E-02
 1.75000E+01    9.18473E-02
 1.80000E+01    8.78819E-02
 1.85000E+01    8.40575E-02
 1.90000E+01    8.05497E-02
 1.95000E+01    7.71561E-02
 2.00000E+01    7.39813E-02
