# n + Zn 64 : (n,2p)    
# jendl4.0   N.Iwamoto                         EVAL-Dec09
# uncertainties: n
# # energies =    23
#   E(MeV)       xs(mb) 
 7.10807E+00    0.00000E+00
 9.50000E+00    3.43470E-08
 1.00000E+01    4.96100E-06
 1.05000E+01    1.24447E-04
 1.10000E+01    1.24953E-03
 1.15000E+01    7.09955E-03
 1.20000E+01    2.79680E-02
 1.25000E+01    8.45334E-02
 1.30000E+01    2.07784E-01
 1.35000E+01    4.27687E-01
 1.40000E+01    7.58820E-01
 1.45000E+01    1.21686E+00
 1.50000E+01    1.75127E+00
 1.55000E+01    2.34439E+00
 1.60000E+01    2.97361E+00
 1.65000E+01    3.62170E+00
 1.70000E+01    4.27882E+00
 1.75000E+01    4.93488E+00
 1.80000E+01    5.58880E+00
 1.85000E+01    6.23199E+00
 1.90000E+01    6.86873E+00
 1.95000E+01    7.49138E+00
 2.00000E+01    7.93537E+00
