# n + Zn 64 : (n,tot)   
# jendl4.0   N.Iwamoto                         EVAL-Dec09
# uncertainties: n
# # energies =    69
#   E(MeV)       xs(mb) 
 1.00000E-10    1.10595E+04
 5.00000E-09    5.50543E+03
 1.00000E-08    5.09410E+03
 1.50000E-08    4.89409E+03
 2.00000E-08    4.76945E+03
 2.50000E-08    4.68211E+03
 3.00000E-08    4.61660E+03
 3.50000E-08    4.55682E+03
 4.20000E-08    4.49891E+03
 5.00000E-08    4.45097E+03
 5.80000E-08    4.41091E+03
 6.70000E-08    4.37032E+03
 8.00000E-08    4.32439E+03
 1.00000E-07    4.26778E+03
 1.40000E-07    4.21606E+03
 1.80000E-07    4.18134E+03
 2.20000E-07    4.15850E+03
 2.50000E-07    4.14292E+03
 2.80000E-07    4.13186E+03
 3.00000E-07    4.12388E+03
 3.20000E-07    4.11527E+03
 3.50000E-07    4.10324E+03
 4.00000E-07    4.08537E+03
 5.00000E-07    4.06513E+03
 6.25000E-07    4.04698E+03
 7.80000E-07    4.03564E+03
 8.50000E-07    4.03006E+03
 9.10000E-07    4.02631E+03
 9.50000E-07    4.02426E+03
 9.72000E-07    4.02274E+03
 9.96000E-07    4.02116E+03
 1.02000E-06    4.01955E+03
 1.04500E-06    4.01787E+03
 1.07100E-06    4.01628E+03
 1.09700E-06    4.01509E+03
 1.12300E-06    4.01391E+03
 1.15000E-06    4.01003E+03
 1.30000E-06    4.00228E+03
 1.50000E-06    3.99110E+03
 2.10000E-06    3.97951E+03
 2.60000E-06    3.96757E+03
 3.30000E-06    3.95999E+03
 4.00000E-06    3.94099E+03
 9.87700E-06    3.91876E+03
 1.59680E-05    3.89692E+03
 2.77000E-05    3.87100E+03
 4.80520E-05    3.83413E+03
 7.55014E-05    3.76399E+03
 1.48728E-04    3.93314E+03
 3.67262E-04    3.05919E+03
 9.06898E-04    2.13822E+03
 1.42510E-03    7.15810E+02
 2.23945E-03    9.18149E+04
 3.51910E-03    1.71341E+04
 5.53000E-03    4.00669E+03
 9.11800E-03    1.73484E+04
 1.50300E-02    1.20720E+04
 2.47800E-02    1.13774E+04
 4.08500E-02    7.46566E+03
 6.73400E-02    6.52320E+03
 1.11000E-01    6.39937E+03
 1.83000E-01    6.11690E+03
 3.02000E-01    5.23271E+03
 5.00000E-01    4.46966E+03
 8.21000E-01    3.84467E+03
 1.35300E+00    3.41695E+03
 2.23100E+00    3.36891E+03
 3.67900E+00    3.69510E+03
 6.06500E+00    3.67589E+03
