# n + Zn 64 : (n,n'19)  
# jendl4.0   N.Iwamoto                         EVAL-Dec09
# uncertainties: n
# # energies =    56
#   E(MeV)       xs(mb) 
 3.33683E+00    0.00000E+00
 3.34920E+00    3.34959E+00
 3.35902E+00    4.33817E+00
 3.37421E+00    5.45440E+00
 3.41906E+00    7.62301E+00
 3.42299E+00    7.72056E+00
 3.46888E+00    9.29554E+00
 3.47919E+00    9.50996E+00
 3.50000E+00    9.92937E+00
 3.50677E+00    1.00950E+01
 3.51309E+00    1.01816E+01
 3.51967E+00    1.02513E+01
 3.55522E+00    1.07817E+01
 3.59453E+00    1.14109E+01
 3.60296E+00    1.14850E+01
 3.60835E+00    1.15091E+01
 3.64360E+00    1.19117E+01
 3.65396E+00    1.19627E+01
 3.65883E+00    1.19664E+01
 3.66340E+00    1.19585E+01
 3.67783E+00    1.19791E+01
 3.68423E+00    1.19770E+01
 3.68565E+00    1.19646E+01
 4.00000E+00    1.19740E+01
 4.50000E+00    9.44688E+00
 5.00000E+00    6.73042E+00
 5.50000E+00    4.55365E+00
 6.00000E+00    3.19627E+00
 6.50000E+00    2.32641E+00
 7.00000E+00    1.72850E+00
 7.50000E+00    1.31593E+00
 8.00000E+00    1.02595E+00
 8.50000E+00    8.17545E-01
 9.00000E+00    6.68756E-01
 9.50000E+00    5.62028E-01
 1.00000E+01    4.84268E-01
 1.05000E+01    4.25912E-01
 1.10000E+01    3.82488E-01
 1.15000E+01    3.47825E-01
 1.20000E+01    3.20806E-01
 1.25000E+01    2.98018E-01
 1.30000E+01    2.79289E-01
 1.35000E+01    2.62590E-01
 1.40000E+01    2.48129E-01
 1.45000E+01    2.34890E-01
 1.50000E+01    2.23090E-01
 1.55000E+01    2.12024E-01
 1.60000E+01    2.02058E-01
 1.65000E+01    1.92590E-01
 1.70000E+01    1.84043E-01
 1.75000E+01    1.75834E-01
 1.80000E+01    1.68360E-01
 1.85000E+01    1.61115E-01
 1.90000E+01    1.54455E-01
 1.95000E+01    1.48007E-01
 2.00000E+01    1.41960E-01
