# n + Zn 64 : (n,n'05)  
# jendl4.0   N.Iwamoto                         EVAL-Dec09
# uncertainties: n
# # energies =    72
#   E(MeV)       xs(mb) 
 2.65060E+00    0.00000E+00
 2.75000E+00    2.59587E+01
 2.77971E+00    2.93551E+01
 2.83788E+00    3.52028E+01
 3.00000E+00    4.84506E+01
 3.02680E+00    5.01071E+01
 3.04569E+00    5.10015E+01
 3.05311E+00    5.12290E+01
 3.11966E+00    5.35422E+01
 3.12633E+00    5.31103E+01
 3.14341E+00    5.32123E+01
 3.23706E+00    5.28921E+01
 3.24724E+00    5.23496E+01
 3.25649E+00    5.17796E+01
 3.29112E+00    5.08988E+01
 3.31346E+00    5.00594E+01
 3.33683E+00    4.90376E+01
 3.34920E+00    4.84376E+01
 3.35902E+00    4.79512E+01
 3.37421E+00    4.74244E+01
 3.41906E+00    4.56009E+01
 3.42299E+00    4.53105E+01
 3.46888E+00    4.35134E+01
 3.47919E+00    4.30151E+01
 3.50000E+00    4.20128E+01
 3.50677E+00    4.17710E+01
 3.51309E+00    4.14504E+01
 3.51967E+00    4.10984E+01
 3.55522E+00    3.96410E+01
 3.59453E+00    3.81741E+01
 3.60296E+00    3.78251E+01
 3.60835E+00    3.75805E+01
 3.64360E+00    3.64275E+01
 3.65396E+00    3.60482E+01
 3.65883E+00    3.58403E+01
 3.66340E+00    3.56343E+01
 3.67783E+00    3.50507E+01
 3.68423E+00    3.47833E+01
 3.68565E+00    3.47098E+01
 4.00000E+00    2.54190E+01
 4.50000E+00    1.68045E+01
 5.00000E+00    1.24556E+01
 5.50000E+00    9.63166E+00
 6.00000E+00    7.82245E+00
 6.50000E+00    6.59027E+00
 7.00000E+00    5.70407E+00
 7.50000E+00    5.02663E+00
 8.00000E+00    4.49922E+00
 8.50000E+00    4.07925E+00
 9.00000E+00    3.73983E+00
 9.50000E+00    3.45910E+00
 1.00000E+01    3.22103E+00
 1.05000E+01    3.01034E+00
 1.10000E+01    2.83288E+00
 1.15000E+01    2.66597E+00
 1.20000E+01    2.52048E+00
 1.25000E+01    2.38128E+00
 1.30000E+01    2.25602E+00
 1.35000E+01    2.13690E+00
 1.40000E+01    2.02840E+00
 1.45000E+01    1.92517E+00
 1.50000E+01    1.83198E+00
 1.55000E+01    1.74270E+00
 1.60000E+01    1.66214E+00
 1.65000E+01    1.58473E+00
 1.70000E+01    1.51452E+00
 1.75000E+01    1.44673E+00
 1.80000E+01    1.38437E+00
 1.85000E+01    1.32387E+00
 1.90000E+01    1.26766E+00
 1.95000E+01    1.21330E+00
 2.00000E+01    1.16209E+00
