# n + Eu154 : (n,n'14)  
# tendl.2019 A.J. Koning and D. Rochman        EVAL-NOV19
# uncertainties: n
# # energies =    90
#   E(MeV)       xs(mb) 
 1.63494E-01    0.00000E+00
 1.74740E-01    4.90165E+00
 1.76632E-01    5.72629E+00
 1.81928E-01    8.03458E+00
 1.84129E-01    8.99391E+00
 1.86264E-01    9.92446E+00
 1.93554E-01    1.31019E+01
 1.97406E-01    1.47808E+01
 2.00000E-01    1.59114E+01
 2.05153E-01    1.65425E+01
 2.15478E-01    1.78071E+01
 2.20918E-01    1.84734E+01
 2.31301E-01    1.97452E+01
 2.32394E-01    1.98790E+01
 2.36821E-01    2.04212E+01
 2.40857E-01    2.09156E+01
 2.51053E-01    2.21644E+01
 2.53475E-01    2.24610E+01
 3.00000E-01    2.81594E+01
 4.00000E-01    3.15341E+01
 5.00000E-01    3.36863E+01
 6.00000E-01    3.43267E+01
 7.00000E-01    3.31071E+01
 8.00000E-01    3.02586E+01
 9.00000E-01    2.64184E+01
 1.00000E+00    2.20818E+01
 1.20000E+00    1.47647E+01
 1.40000E+00    9.59162E+00
 1.60000E+00    6.27492E+00
 1.80000E+00    4.21909E+00
 2.00000E+00    2.94497E+00
 2.20000E+00    2.14025E+00
 2.40000E+00    1.61853E+00
 2.60000E+00    1.26909E+00
 2.80000E+00    1.02747E+00
 3.00000E+00    8.56665E-01
 3.20000E+00    7.34762E-01
 3.40000E+00    6.47384E-01
 3.60000E+00    5.85455E-01
 3.80000E+00    5.42286E-01
 4.00000E+00    5.12941E-01
 4.20000E+00    4.93790E-01
 4.40000E+00    4.82178E-01
 4.60000E+00    4.76110E-01
 4.80000E+00    4.74302E-01
 5.00000E+00    4.75694E-01
 5.20000E+00    4.79563E-01
 5.40000E+00    4.85313E-01
 5.60000E+00    4.92450E-01
 5.80000E+00    5.00568E-01
 6.00000E+00    5.09278E-01
 6.20000E+00    5.18276E-01
 6.40000E+00    5.27261E-01
 6.60000E+00    5.35991E-01
 6.80000E+00    5.44268E-01
 7.00000E+00    5.51934E-01
 7.20000E+00    5.58892E-01
 7.40000E+00    5.65078E-01
 7.60000E+00    5.70474E-01
 7.80000E+00    5.75084E-01
 8.00000E+00    5.78946E-01
 8.50000E+00    5.85658E-01
 9.00000E+00    5.88938E-01
 9.50000E+00    5.89740E-01
 1.00000E+01    5.88835E-01
 1.05000E+01    5.86848E-01
 1.10000E+01    5.84281E-01
 1.15000E+01    5.81562E-01
 1.20000E+01    5.79040E-01
 1.25000E+01    5.76968E-01
 1.30000E+01    5.75498E-01
 1.35000E+01    5.74668E-01
 1.40000E+01    5.74450E-01
 1.45000E+01    5.74767E-01
 1.50000E+01    5.75506E-01
 1.60000E+01    5.77668E-01
 1.70000E+01    5.79797E-01
 1.80000E+01    5.81315E-01
 1.90000E+01    5.82587E-01
 2.00000E+01    5.84636E-01
 2.10000E+01    5.88593E-01
 2.20000E+01    5.95224E-01
 2.30000E+01    6.04619E-01
 2.40000E+01    6.16134E-01
 2.50000E+01    6.28644E-01
 2.60000E+01    6.41010E-01
 2.70000E+01    6.52471E-01
 2.80000E+01    6.62750E-01
 2.90000E+01    6.71920E-01
 3.00000E+01    6.80198E-01
