# n + Eu154 : (n,n'25)  
# tendl.2019 A.J. Koning and D. Rochman        EVAL-NOV19
# uncertainties: n
# # energies =    78
#   E(MeV)       xs(mb) 
 2.31301E-01    0.00000E+00
 2.32394E-01    4.27325E-01
 2.36821E-01    2.15813E+00
 2.40857E-01    3.73606E+00
 2.51053E-01    7.72234E+00
 2.53475E-01    8.66926E+00
 3.00000E-01    2.68589E+01
 4.00000E-01    3.14129E+01
 5.00000E-01    3.29470E+01
 6.00000E-01    3.36996E+01
 7.00000E-01    3.33374E+01
 8.00000E-01    3.15106E+01
 9.00000E-01    2.84005E+01
 1.00000E+00    2.43500E+01
 1.20000E+00    1.67950E+01
 1.40000E+00    1.10472E+01
 1.60000E+00    7.23227E+00
 1.80000E+00    4.81775E+00
 2.00000E+00    3.29284E+00
 2.20000E+00    2.30775E+00
 2.40000E+00    1.65119E+00
 2.60000E+00    1.19690E+00
 2.80000E+00    8.71847E-01
 3.00000E+00    6.34318E-01
 3.20000E+00    4.59505E-01
 3.40000E+00    3.30494E-01
 3.60000E+00    2.36279E-01
 3.80000E+00    1.68167E-01
 4.00000E+00    1.19402E-01
 4.20000E+00    8.47369E-02
 4.40000E+00    6.02025E-02
 4.60000E+00    4.27872E-02
 4.80000E+00    3.05179E-02
 5.00000E+00    2.18289E-02
 5.20000E+00    1.56862E-02
 5.40000E+00    1.13318E-02
 5.60000E+00    8.22777E-03
 5.80000E+00    6.01379E-03
 6.00000E+00    4.40229E-03
 6.20000E+00    3.24806E-03
 6.40000E+00    2.40667E-03
 6.60000E+00    1.78964E-03
 6.80000E+00    1.33765E-03
 7.00000E+00    1.00185E-03
 7.20000E+00    7.52850E-04
 7.40000E+00    5.66921E-04
 7.60000E+00    4.27184E-04
 7.80000E+00    3.22781E-04
 8.00000E+00    2.44086E-04
 8.50000E+00    1.22273E-04
 9.00000E+00    6.19943E-05
 9.50000E+00    3.18676E-05
 1.00000E+01    1.66436E-05
 1.05000E+01    8.83233E-06
 1.10000E+01    4.76301E-06
 1.15000E+01    2.60789E-06
 1.20000E+01    1.44756E-06
 1.25000E+01    8.12970E-07
 1.30000E+01    4.61210E-07
 1.35000E+01    2.63960E-07
 1.40000E+01    1.52260E-07
 1.45000E+01    8.84430E-08
 1.50000E+01    5.17080E-08
 1.60000E+01    1.80330E-08
 1.70000E+01    6.45150E-09
 1.80000E+01    2.36690E-09
 1.90000E+01    8.85910E-10
 2.00000E+01    3.42960E-10
 2.10000E+01    1.36260E-10
 2.20000E+01    5.55830E-11
 2.30000E+01    2.31280E-11
 2.40000E+01    9.80430E-12
 2.50000E+01    4.22430E-12
 2.60000E+01    1.84760E-12
 2.70000E+01    8.20970E-13
 2.80000E+01    3.70430E-13
 2.90000E+01    1.69780E-13
 3.00000E+01    7.89960E-14
