# n + Eu154 : (n,n'29)  
# tendl.2019 A.J. Koning and D. Rochman        EVAL-NOV19
# uncertainties: n
# # energies =    74
#   E(MeV)       xs(mb) 
 2.51053E-01    0.00000E+00
 2.53475E-01    2.95429E-01
 3.00000E-01    5.97041E+00
 4.00000E-01    7.32203E+00
 5.00000E-01    7.74789E+00
 6.00000E-01    7.78303E+00
 7.00000E-01    7.47718E+00
 8.00000E-01    6.90823E+00
 9.00000E-01    6.18105E+00
 1.00000E+00    5.35007E+00
 1.20000E+00    3.91149E+00
 1.40000E+00    2.80758E+00
 1.60000E+00    2.02053E+00
 1.80000E+00    1.47093E+00
 2.00000E+00    1.08534E+00
 2.20000E+00    8.10151E-01
 2.40000E+00    6.10276E-01
 2.60000E+00    4.62089E-01
 2.80000E+00    3.50153E-01
 3.00000E+00    2.64671E-01
 3.20000E+00    1.99210E-01
 3.40000E+00    1.48929E-01
 3.60000E+00    1.10651E-01
 3.80000E+00    8.17527E-02
 4.00000E+00    6.01240E-02
 4.20000E+00    4.40609E-02
 4.40000E+00    3.22098E-02
 4.60000E+00    2.34570E-02
 4.80000E+00    1.70665E-02
 5.00000E+00    1.23908E-02
 5.20000E+00    8.99283E-03
 5.40000E+00    6.52820E-03
 5.60000E+00    4.74083E-03
 5.80000E+00    3.45110E-03
 6.00000E+00    2.50689E-03
 6.20000E+00    1.82987E-03
 6.40000E+00    1.33851E-03
 6.60000E+00    9.81095E-04
 6.80000E+00    7.22149E-04
 7.00000E+00    5.32542E-04
 7.20000E+00    3.94050E-04
 7.40000E+00    2.92345E-04
 7.60000E+00    2.17185E-04
 7.80000E+00    1.61924E-04
 8.00000E+00    1.20927E-04
 8.50000E+00    5.89304E-05
 9.00000E+00    2.91894E-05
 9.50000E+00    1.46983E-05
 1.00000E+01    7.53027E-06
 1.05000E+01    3.92191E-06
 1.10000E+01    2.07595E-06
 1.15000E+01    1.11589E-06
 1.20000E+01    6.08430E-07
 1.25000E+01    3.35980E-07
 1.30000E+01    1.87660E-07
 1.35000E+01    1.05880E-07
 1.40000E+01    6.02850E-08
 1.45000E+01    3.46010E-08
 1.50000E+01    2.00040E-08
 1.60000E+01    6.83350E-09
 1.70000E+01    2.39840E-09
 1.80000E+01    8.64180E-10
 1.90000E+01    3.17950E-10
 2.00000E+01    1.21100E-10
 2.10000E+01    4.73850E-11
 2.20000E+01    1.90520E-11
 2.30000E+01    7.82050E-12
 2.40000E+01    3.27390E-12
 2.50000E+01    1.39480E-12
 2.60000E+01    6.04050E-13
 2.70000E+01    2.66100E-13
 2.80000E+01    1.19150E-13
 2.90000E+01    5.42260E-14
 3.00000E+01    2.50610E-14
