# n + Kr 86 : (n,tot)   
# jendl4.0   K.Shibata, A.Ichihara, S.Kunieda  EVAL-AUG09
# uncertainties: n
# # energies =   171
#   E(MeV)       xs(mb) 
 1.00000E-11    1.13416E+04
 1.00000E-07    6.15596E+03
 4.13990E-07    6.15237E+03
 5.31580E-07    6.15214E+03
 6.82560E-07    6.15189E+03
 8.76420E-07    6.15158E+03
 1.12540E-06    6.15117E+03
 1.44500E-06    6.15065E+03
 1.85540E-06    6.15045E+03
 2.37240E-06    6.15044E+03
 3.05900E-06    6.15043E+03
 3.92790E-06    6.15042E+03
 5.04350E-06    6.15040E+03
 6.47600E-06    6.15039E+03
 8.31530E-06    6.15036E+03
 1.06770E-05    6.15033E+03
 1.37100E-05    6.15029E+03
 1.76030E-05    6.15024E+03
 2.26030E-05    6.15017E+03
 2.92030E-05    6.15009E+03
 3.72670E-05    6.14998E+03
 4.78510E-05    6.14985E+03
 6.14420E-05    6.14967E+03
 7.88930E-05    6.14944E+03
 1.01300E-04    6.14915E+03
 1.30070E-04    6.14878E+03
 1.67020E-04    6.14829E+03
 2.14450E-04    6.14768E+03
 2.75360E-04    6.14688E+03
 3.53580E-04    6.14587E+03
 4.54000E-04    6.14456E+03
 5.82950E-04    6.14288E+03
 7.48520E-04    6.14072E+03
 9.61120E-04    6.13796E+03
 1.23410E-03    6.13440E+03
 1.58460E-03    6.12984E+03
 2.03470E-03    6.12595E+03
 2.24870E-03    6.12337E+03
 2.48520E-03    6.12126E+03
 2.61260E-03    6.11977E+03
 2.74650E-03    6.11737E+03
 3.03540E-03    6.11388E+03
 3.35460E-03    6.11004E+03
 3.70740E-03    6.10463E+03
 4.30740E-03    6.09439E+03
 5.53080E-03    6.09605E+03
 7.10170E-03    6.05991E+03
 9.11880E-03    6.03538E+03
 1.17090E-02    5.99597E+03
 1.50340E-02    6.68292E+03
 1.93050E-02    5.96859E+03
 2.18750E-02    5.87034E+03
 2.35790E-02    5.84794E+03
 2.41760E-02    5.83627E+03
 2.47880E-02    6.00689E+03
 2.60580E-02    5.79862E+03
 2.70000E-02    6.66432E+03
 2.85000E-02    5.69694E+03
 3.18280E-02    5.53421E+03
 3.43070E-02    6.57304E+03
 4.08680E-02    8.01054E+03
 4.63090E-02    6.30887E+03
 5.24750E-02    1.31281E+04
 5.65620E-02    5.68055E+03
 6.73790E-02    5.87917E+03
 7.20000E-02    6.05789E+03
 7.95000E-02    5.33466E+03
 8.25000E-02    5.24154E+03
 8.65170E-02    7.46671E+03
 9.80370E-02    4.72018E+03
 1.11090E-01    4.29114E+03
 1.16790E-01    3.89025E+03
 1.22770E-01    5.30736E+03
 1.29070E-01    1.34424E+03
 1.35690E-01    1.32279E+04
 1.42640E-01    7.33679E+03
 1.49960E-01    6.74092E+03
 1.57640E-01    1.05799E+04
 1.65730E-01    8.16620E+03
 1.74220E-01    5.49302E+03
 1.83160E-01    7.62793E+03
 1.92550E-01    3.65061E+03
 2.02420E-01    1.17840E+04
 2.12800E-01    1.01677E+04
 2.23710E-01    9.22564E+03
 2.35180E-01    9.73604E+03
 2.47240E-01    7.91481E+03
 2.73240E-01    7.18999E+03
 2.87250E-01    1.45737E+04
 2.94520E-01    1.75308E+04
 2.97200E-01    1.15832E+04
 2.98500E-01    8.21171E+03
 3.01970E-01    5.65673E+03
 3.33730E-01    8.54468E+03
 3.68830E-01    1.06291E+04
 3.87740E-01    7.69926E+03
 4.07620E-01    1.02244E+04
 4.50490E-01    5.92685E+03
 4.97870E-01    8.12037E+03
 5.23400E-01    8.68490E+03
 5.50230E-01    7.70911E+03
 5.78440E-01    7.90954E+03
 6.08100E-01    1.11938E+04
 6.39280E-01    6.52494E+03
 6.72060E-01    6.42416E+03
 7.06510E-01    6.31372E+03
 7.42740E-01    6.19762E+03
 7.80820E-01    6.07558E+03
 8.20850E-01    5.95258E+03
 8.62940E-01    5.82972E+03
 9.07180E-01    5.69146E+03
 9.61640E-01    5.56590E+03
 1.00260E+00    5.41263E+03
 1.10800E+00    5.26019E+03
 1.16480E+00    5.15155E+03
 1.22460E+00    5.03740E+03
 1.28730E+00    4.91739E+03
 1.35340E+00    4.79122E+03
 1.42270E+00    4.65863E+03
 1.49570E+00    4.55313E+03
 1.57240E+00    4.48538E+03
 1.65300E+00    4.41431E+03
 1.73770E+00    4.33959E+03
 1.82680E+00    4.26100E+03
 1.92050E+00    4.17920E+03
 2.01900E+00    4.12388E+03
 2.12250E+00    4.08143E+03
 2.23130E+00    4.04445E+03
 2.30690E+00    4.02151E+03
 2.34570E+00    4.00981E+03
 2.36530E+00    4.00191E+03
 2.38520E+00    3.98185E+03
 2.46600E+00    3.94932E+03
 2.59240E+00    3.93042E+03
 2.72530E+00    3.91184E+03
 2.86500E+00    3.89230E+03
 3.01190E+00    3.87588E+03
 3.16640E+00    3.86766E+03
 3.32870E+00    3.85766E+03
 3.67880E+00    3.85907E+03
 4.06570E+00    3.87032E+03
 4.49330E+00    3.88774E+03
 4.72370E+00    3.90615E+03
 4.96590E+00    3.92776E+03
 5.22050E+00    3.95192E+03
 5.48810E+00    3.98101E+03
 5.76950E+00    4.01177E+03
 6.06530E+00    4.04411E+03
 6.37630E+00    4.07229E+03
 6.59240E+00    4.08976E+03
 6.70320E+00    4.11233E+03
 7.04690E+00    4.13876E+03
 7.40820E+00    4.16414E+03
 7.78800E+00    4.18077E+03
 8.18730E+00    4.19236E+03
 8.60710E+00    4.18997E+03
 9.04840E+00    4.18102E+03
 9.51230E+00    4.16168E+03
 1.00000E+01    4.13116E+03
 1.05130E+01    4.09008E+03
 1.10520E+01    4.03874E+03
 1.16180E+01    3.97823E+03
 1.22140E+01    3.90655E+03
 1.28400E+01    3.82752E+03
 1.34990E+01    3.76339E+03
 1.38400E+01    3.71890E+03
 1.41910E+01    3.67220E+03
 1.45500E+01    3.62468E+03
 1.49180E+01    3.55195E+03
 1.56830E+01    3.45300E+03
 1.64870E+01    3.35574E+03
