# n + Kr 86 : (n,el)    
# jendl4.0   K.Shibata, A.Ichihara, S.Kunieda  EVAL-AUG09
# uncertainties: n
# # energies =   171
#   E(MeV)       xs(mb) 
 1.00000E-11    1.13092E+04
 1.00000E-07    6.15488E+03
 4.13990E-07    6.15183E+03
 5.31580E-07    6.15127E+03
 6.82560E-07    6.15120E+03
 8.76420E-07    6.15112E+03
 1.12540E-06    6.15101E+03
 1.44500E-06    6.15087E+03
 1.85540E-06    6.15069E+03
 2.37240E-06    6.15046E+03
 3.05900E-06    6.15016E+03
 3.92790E-06    6.14981E+03
 5.04350E-06    6.14973E+03
 6.47600E-06    6.14971E+03
 8.31530E-06    6.14969E+03
 1.06770E-05    6.14966E+03
 1.37100E-05    6.14962E+03
 1.76030E-05    6.14957E+03
 2.26030E-05    6.14950E+03
 2.92030E-05    6.14942E+03
 3.72670E-05    6.14932E+03
 4.78510E-05    6.14918E+03
 6.14420E-05    6.14900E+03
 7.88930E-05    6.14878E+03
 1.01300E-04    6.14849E+03
 1.30070E-04    6.14811E+03
 1.67020E-04    6.14764E+03
 2.14450E-04    6.14702E+03
 2.75360E-04    6.14623E+03
 3.53580E-04    6.14522E+03
 4.54000E-04    6.14392E+03
 5.82950E-04    6.14225E+03
 7.48520E-04    6.14011E+03
 9.61120E-04    6.13736E+03
 1.23410E-03    6.13382E+03
 1.58460E-03    6.12929E+03
 2.03470E-03    6.12542E+03
 2.24870E-03    6.12285E+03
 2.48520E-03    6.12077E+03
 2.61260E-03    6.11928E+03
 2.74650E-03    6.11689E+03
 3.03540E-03    6.11343E+03
 3.35460E-03    6.10960E+03
 3.70740E-03    6.10423E+03
 4.30740E-03    6.09405E+03
 5.53080E-03    6.08009E+03
 7.10170E-03    6.05815E+03
 9.11880E-03    6.03108E+03
 1.17090E-02    5.99595E+03
 1.50340E-02    6.67550E+03
 1.93050E-02    5.96623E+03
 2.18750E-02    5.86793E+03
 2.35790E-02    5.84657E+03
 2.41760E-02    5.83544E+03
 2.47880E-02    5.97795E+03
 2.60580E-02    5.79711E+03
 2.70000E-02    6.64282E+03
 2.85000E-02    5.69688E+03
 3.18280E-02    5.53417E+03
 3.43070E-02    6.56773E+03
 4.08680E-02    8.00386E+03
 4.63090E-02    6.30140E+03
 5.24750E-02    1.31081E+04
 5.65620E-02    5.68032E+03
 6.73790E-02    5.87727E+03
 7.20000E-02    6.05340E+03
 7.95000E-02    5.33427E+03
 8.25000E-02    5.24147E+03
 8.65170E-02    7.46073E+03
 9.80370E-02    4.72013E+03
 1.11090E-01    4.29110E+03
 1.16790E-01    3.89013E+03
 1.22770E-01    5.29509E+03
 1.29070E-01    1.34379E+03
 1.35690E-01    1.32228E+04
 1.42640E-01    7.33615E+03
 1.49960E-01    6.73722E+03
 1.57640E-01    1.05769E+04
 1.65730E-01    8.16329E+03
 1.74220E-01    5.49042E+03
 1.83160E-01    7.62691E+03
 1.92550E-01    3.64934E+03
 2.02420E-01    1.17818E+04
 2.12800E-01    1.01665E+04
 2.23710E-01    9.22295E+03
 2.35180E-01    9.73443E+03
 2.47240E-01    7.91258E+03
 2.73240E-01    7.18880E+03
 2.87250E-01    1.45728E+04
 2.94520E-01    1.75297E+04
 2.97200E-01    1.15826E+04
 2.98500E-01    8.21138E+03
 3.01970E-01    5.65439E+03
 3.33730E-01    8.54288E+03
 3.68830E-01    1.06282E+04
 3.87740E-01    7.69703E+03
 4.07620E-01    1.02232E+04
 4.50490E-01    5.92588E+03
 4.97870E-01    8.11865E+03
 5.23400E-01    8.68206E+03
 5.50230E-01    7.70801E+03
 5.78440E-01    7.90838E+03
 6.08100E-01    1.11927E+04
 6.39280E-01    6.52298E+03
 6.72060E-01    6.42214E+03
 7.06510E-01    6.31169E+03
 7.42740E-01    6.19557E+03
 7.80820E-01    6.07352E+03
 8.20850E-01    5.95049E+03
 8.62940E-01    5.82759E+03
 9.07180E-01    5.68927E+03
 9.61640E-01    5.56363E+03
 1.00260E+00    5.41023E+03
 1.10800E+00    5.25766E+03
 1.16480E+00    5.14892E+03
 1.22460E+00    5.03467E+03
 1.28730E+00    4.91455E+03
 1.35340E+00    4.78827E+03
 1.42270E+00    4.65556E+03
 1.49570E+00    4.55006E+03
 1.57240E+00    4.42482E+03
 1.65300E+00    4.19587E+03
 1.73770E+00    3.95363E+03
 1.82680E+00    3.69885E+03
 1.92050E+00    3.43488E+03
 2.01900E+00    3.30272E+03
 2.12250E+00    3.23818E+03
 2.23130E+00    3.17756E+03
 2.30690E+00    3.11064E+03
 2.34570E+00    3.07140E+03
 2.36530E+00    3.04313E+03
 2.38520E+00    2.92073E+03
 2.46600E+00    2.72629E+03
 2.59240E+00    2.64920E+03
 2.72530E+00    2.56984E+03
 2.86500E+00    2.42630E+03
 3.01190E+00    2.31395E+03
 3.16640E+00    2.25691E+03
 3.32870E+00    2.11301E+03
 3.67880E+00    1.97458E+03
 4.06570E+00    1.95562E+03
 4.49330E+00    1.99930E+03
 4.72370E+00    2.03718E+03
 4.96590E+00    2.07714E+03
 5.22050E+00    2.11914E+03
 5.48810E+00    2.16330E+03
 5.76950E+00    2.20952E+03
 6.06530E+00    2.25214E+03
 6.37630E+00    2.28696E+03
 6.59240E+00    2.30712E+03
 6.70320E+00    2.33110E+03
 7.04690E+00    2.36289E+03
 7.40820E+00    2.38934E+03
 7.78800E+00    2.40921E+03
 8.18730E+00    2.42108E+03
 8.60710E+00    2.42188E+03
 9.04840E+00    2.41501E+03
 9.51230E+00    2.39942E+03
 1.00000E+01    2.37180E+03
 1.05130E+01    2.33543E+03
 1.10520E+01    2.28991E+03
 1.16180E+01    2.23621E+03
 1.22140E+01    2.17265E+03
 1.28400E+01    2.10273E+03
 1.34990E+01    2.04625E+03
 1.38400E+01    2.00712E+03
 1.41910E+01    1.96636E+03
 1.45500E+01    1.92488E+03
 1.49180E+01    1.86141E+03
 1.56830E+01    1.77496E+03
 1.64870E+01    1.68933E+03
