# n + Kr 86 : (n,xn)    
# jendl4.0   K.Shibata, A.Ichihara, S.Kunieda  EVAL-AUG09
# 
# # energies =    41
#   E(MeV)        xs(mb) 
 1.58324E+00    0.00000E+00
 2.00000E+00    8.04600E+02
 2.27659E+00    8.62518E+02
 2.37752E+00    9.57743E+02
 2.50000E+00    1.21890E+03
 2.75598E+00    1.31581E+03
 2.88424E+00    1.38933E+03
 2.96088E+00    1.48420E+03
 3.00000E+00    1.55979E+03
 3.04635E+00    1.55405E+03
 3.13567E+00    1.56405E+03
 3.36100E+00    1.65492E+03
 3.36910E+00    1.66006E+03
 3.50000E+00    1.77322E+03
 3.58156E+00    1.78144E+03
 3.61697E+00    1.78724E+03
 3.62709E+00    1.78947E+03
 4.00000E+00    1.93451E+03
 4.50000E+00    1.89558E+03
 5.00000E+00    1.85211E+03
 5.50000E+00    1.82070E+03
 6.00000E+00    1.79843E+03
 6.50000E+00    1.78656E+03
 7.00000E+00    1.77996E+03
 7.50000E+00    1.77623E+03
 8.00000E+00    1.77308E+03
 8.50000E+00    1.77079E+03
 9.00000E+00    1.76792E+03
 9.50000E+00    1.76515E+03
 1.00000E+01    1.76149E+03
 1.10000E+01    2.11685E+03
 1.20000E+01    2.48347E+03
 1.30000E+01    2.70765E+03
 1.40000E+01    2.83655E+03
 1.45000E+01    2.87525E+03
 1.50000E+01    2.89775E+03
 1.60000E+01    2.92130E+03
 1.70000E+01    2.92732E+03
 1.80000E+01    2.92970E+03
 1.90000E+01    2.95234E+03
 2.00000E+01    3.01091E+03
