# n + Ge 73 : (n,n'10)  
# jeff3.3    A.J. Koning and D. Rochman        EVAL-DEC15
# uncertainties: n
# # energies =    90
#   E(MeV)       xs(mb) 
 5.62616E-01    0.00000E+00
 6.00000E-01    1.64400E-02
 6.06059E-01    2.46517E-02
 6.68014E-01    1.08619E-01
 7.00000E-01    1.51969E-01
 7.52091E-01    2.79057E-01
 7.88356E-01    3.67534E-01
 8.00000E-01    3.95942E-01
 8.20190E-01    4.52782E-01
 8.31342E-01    4.84178E-01
 8.37131E-01    5.00475E-01
 8.80026E-01    6.21235E-01
 9.00000E-01    6.77467E-01
 9.06467E-01    6.92962E-01
 9.16504E-01    7.17011E-01
 9.19221E-01    7.23521E-01
 9.28487E-01    7.45723E-01
 9.44455E-01    7.83983E-01
 1.00000E+00    9.17071E-01
 1.00777E+00    9.34131E-01
 1.02412E+00    9.70029E-01
 1.04019E+00    1.00531E+00
 1.05337E+00    1.03425E+00
 1.05770E+00    1.04376E+00
 1.14590E+00    1.23741E+00
 1.14721E+00    1.24029E+00
 1.20000E+00    1.35619E+00
 1.40000E+00    1.67758E+00
 1.60000E+00    1.87100E+00
 1.80000E+00    1.96749E+00
 2.00000E+00    1.99621E+00
 2.20000E+00    1.97794E+00
 2.40000E+00    1.92532E+00
 2.60000E+00    1.84472E+00
 2.80000E+00    1.74208E+00
 3.00000E+00    1.61941E+00
 3.20000E+00    1.48328E+00
 3.40000E+00    1.33698E+00
 3.60000E+00    1.18762E+00
 3.80000E+00    1.04049E+00
 4.00000E+00    9.00459E-01
 4.20000E+00    7.71058E-01
 4.40000E+00    6.54563E-01
 4.60000E+00    5.51890E-01
 4.80000E+00    4.62962E-01
 5.00000E+00    3.86958E-01
 5.20000E+00    3.22744E-01
 5.40000E+00    2.68861E-01
 5.60000E+00    2.23951E-01
 5.80000E+00    1.86682E-01
 6.00000E+00    1.55645E-01
 6.20000E+00    1.30144E-01
 6.40000E+00    1.08924E-01
 6.60000E+00    9.14005E-02
 6.80000E+00    7.69009E-02
 7.00000E+00    6.47750E-02
 7.20000E+00    5.47676E-02
 7.40000E+00    4.63505E-02
 7.60000E+00    3.93093E-02
 7.80000E+00    3.32844E-02
 8.00000E+00    2.82541E-02
 8.50000E+00    1.89368E-02
 9.00000E+00    1.28064E-02
 9.50000E+00    8.72289E-03
 1.00000E+01    5.96953E-03
 1.05000E+01    4.10233E-03
 1.10000E+01    2.83054E-03
 1.15000E+01    1.96111E-03
 1.20000E+01    1.36577E-03
 1.25000E+01    9.56054E-04
 1.30000E+01    6.73198E-04
 1.35000E+01    4.76728E-04
 1.40000E+01    3.39441E-04
 1.45000E+01    2.42881E-04
 1.50000E+01    1.74549E-04
 1.60000E+01    9.11570E-05
 1.70000E+01    4.81057E-05
 1.80000E+01    2.56527E-05
 1.90000E+01    1.38299E-05
 2.00000E+01    7.56127E-06
 2.10000E+01    4.18304E-06
 2.20000E+01    2.34147E-06
 2.30000E+01    1.32781E-06
 2.40000E+01    7.54910E-07
 2.50000E+01    4.37230E-07
 2.60000E+01    2.55480E-07
 2.70000E+01    1.50510E-07
 2.80000E+01    8.93480E-08
 2.90000E+01    5.33290E-08
 3.00000E+01    3.20990E-08
