# n + Ge 73 : (n,n'11)  
# jeff3.3    A.J. Koning and D. Rochman        EVAL-DEC15
# uncertainties: n
# # energies =    88
#   E(MeV)       xs(mb) 
 6.06059E-01    0.00000E+00
 6.68014E-01    3.28592E+01
 7.00000E-01    4.98237E+01
 7.52091E-01    6.01602E+01
 7.88356E-01    6.73564E+01
 8.00000E-01    6.96669E+01
 8.20190E-01    7.20837E+01
 8.31342E-01    7.34187E+01
 8.37131E-01    7.41117E+01
 8.80026E-01    7.92464E+01
 9.00000E-01    8.16374E+01
 9.06467E-01    8.20492E+01
 9.16504E-01    8.26884E+01
 9.19221E-01    8.28614E+01
 9.28487E-01    8.34514E+01
 9.44455E-01    8.44683E+01
 1.00000E+00    8.80053E+01
 1.00777E+00    8.78470E+01
 1.02412E+00    8.75138E+01
 1.04019E+00    8.71864E+01
 1.05337E+00    8.69179E+01
 1.05770E+00    8.68296E+01
 1.14590E+00    8.50325E+01
 1.14721E+00    8.50058E+01
 1.20000E+00    8.39302E+01
 1.40000E+00    7.26312E+01
 1.60000E+00    5.98897E+01
 1.80000E+00    4.82970E+01
 2.00000E+00    3.86444E+01
 2.20000E+00    3.09236E+01
 2.40000E+00    2.48434E+01
 2.60000E+00    2.00552E+01
 2.80000E+00    1.62746E+01
 3.00000E+00    1.32471E+01
 3.20000E+00    1.08152E+01
 3.40000E+00    8.83431E+00
 3.60000E+00    7.22002E+00
 3.80000E+00    5.89896E+00
 4.00000E+00    4.81743E+00
 4.20000E+00    3.93276E+00
 4.40000E+00    3.21059E+00
 4.60000E+00    2.62249E+00
 4.80000E+00    2.14409E+00
 5.00000E+00    1.75585E+00
 5.20000E+00    1.44098E+00
 5.40000E+00    1.18549E+00
 5.60000E+00    9.78608E-01
 5.80000E+00    8.10461E-01
 6.00000E+00    6.73292E-01
 6.20000E+00    5.62331E-01
 6.40000E+00    4.71294E-01
 6.60000E+00    3.97069E-01
 6.80000E+00    3.36280E-01
 7.00000E+00    2.86005E-01
 7.20000E+00    2.44909E-01
 7.40000E+00    2.10688E-01
 7.60000E+00    1.82334E-01
 7.80000E+00    1.58311E-01
 8.00000E+00    1.38435E-01
 8.50000E+00    1.02155E-01
 9.00000E+00    7.87867E-02
 9.50000E+00    6.35320E-02
 1.00000E+01    5.34417E-02
 1.05000E+01    4.67259E-02
 1.10000E+01    4.22396E-02
 1.15000E+01    3.92431E-02
 1.20000E+01    3.72545E-02
 1.25000E+01    3.59469E-02
 1.30000E+01    3.51036E-02
 1.35000E+01    3.45734E-02
 1.40000E+01    3.42511E-02
 1.45000E+01    3.40625E-02
 1.50000E+01    3.39553E-02
 1.60000E+01    3.38515E-02
 1.70000E+01    3.37758E-02
 1.80000E+01    3.36771E-02
 1.90000E+01    3.35540E-02
 2.00000E+01    3.34186E-02
 2.10000E+01    3.32784E-02
 2.20000E+01    3.31316E-02
 2.30000E+01    3.29683E-02
 2.40000E+01    3.27755E-02
 2.50000E+01    3.25423E-02
 2.60000E+01    3.22631E-02
 2.70000E+01    3.19374E-02
 2.80000E+01    3.15696E-02
 2.90000E+01    3.11669E-02
 3.00000E+01    3.07370E-02
