# n + Ge 73 : (n,n'19)  
# jeff3.3    A.J. Koning and D. Rochman        EVAL-DEC15
# uncertainties: n
# # energies =    77
#   E(MeV)       xs(mb) 
 9.06467E-01    0.00000E+00
 9.16504E-01    9.08062E-02
 9.19221E-01    1.15387E-01
 9.28487E-01    1.99218E-01
 9.44455E-01    3.43683E-01
 1.00000E+00    8.46206E-01
 1.00777E+00    9.25819E-01
 1.02412E+00    1.09335E+00
 1.04019E+00    1.25800E+00
 1.05337E+00    1.39305E+00
 1.05770E+00    1.43741E+00
 1.14590E+00    2.34113E+00
 1.14721E+00    2.35455E+00
 1.20000E+00    2.89545E+00
 1.40000E+00    4.30152E+00
 1.60000E+00    4.92743E+00
 1.80000E+00    5.02873E+00
 2.00000E+00    4.84212E+00
 2.20000E+00    4.51868E+00
 2.40000E+00    4.14062E+00
 2.60000E+00    3.74717E+00
 2.80000E+00    3.36067E+00
 3.00000E+00    2.98682E+00
 3.20000E+00    2.63481E+00
 3.40000E+00    2.30450E+00
 3.60000E+00    2.00061E+00
 3.80000E+00    1.72405E+00
 4.00000E+00    1.47569E+00
 4.20000E+00    1.25550E+00
 4.40000E+00    1.06281E+00
 4.60000E+00    8.96107E-01
 4.80000E+00    7.53214E-01
 5.00000E+00    6.31892E-01
 5.20000E+00    5.29656E-01
 5.40000E+00    4.43574E-01
 5.60000E+00    3.71867E-01
 5.80000E+00    3.11917E-01
 6.00000E+00    2.61642E-01
 6.20000E+00    2.20218E-01
 6.40000E+00    1.85379E-01
 6.60000E+00    1.56451E-01
 6.80000E+00    1.32331E-01
 7.00000E+00    1.11993E-01
 7.20000E+00    9.51295E-02
 7.40000E+00    8.08319E-02
 7.60000E+00    6.88052E-02
 7.80000E+00    5.84562E-02
 8.00000E+00    4.97711E-02
 8.50000E+00    3.35814E-02
 9.00000E+00    2.28461E-02
 9.50000E+00    1.56562E-02
 1.00000E+01    1.07870E-02
 1.05000E+01    7.46983E-03
 1.10000E+01    5.19763E-03
 1.15000E+01    3.63298E-03
 1.20000E+01    2.55218E-03
 1.25000E+01    1.80094E-03
 1.30000E+01    1.27693E-03
 1.35000E+01    9.09300E-04
 1.40000E+01    6.50106E-04
 1.45000E+01    4.66457E-04
 1.50000E+01    3.35776E-04
 1.60000E+01    1.75561E-04
 1.70000E+01    9.26671E-05
 1.80000E+01    4.94521E-05
 1.90000E+01    2.67087E-05
 2.00000E+01    1.46420E-05
 2.10000E+01    8.12513E-06
 2.20000E+01    4.56125E-06
 2.30000E+01    2.59261E-06
 2.40000E+01    1.47638E-06
 2.50000E+01    8.56000E-07
 2.60000E+01    5.00500E-07
 2.70000E+01    2.95010E-07
 2.80000E+01    1.75230E-07
 2.90000E+01    1.04650E-07
 3.00000E+01    6.30340E-08
