# n + Ge 73 : (n,n'06)  
# jeff3.3    A.J. Koning and D. Rochman        EVAL-DEC15
# uncertainties: n
# # energies =    96
#   E(MeV)       xs(mb) 
 3.97888E-01    0.00000E+00
 4.00000E-01    3.82065E-02
 5.00000E-01    2.82588E+00
 5.05993E-01    2.98315E+00
 5.08305E-01    3.04382E+00
 5.58621E-01    4.36422E+00
 5.62616E-01    4.46906E+00
 6.00000E-01    5.45010E+00
 6.06059E-01    5.60421E+00
 6.68014E-01    7.17999E+00
 7.00000E-01    7.99353E+00
 7.52091E-01    9.01798E+00
 7.88356E-01    9.73118E+00
 8.00000E-01    9.96018E+00
 8.20190E-01    1.02179E+01
 8.31342E-01    1.03603E+01
 8.37131E-01    1.04342E+01
 8.80026E-01    1.09817E+01
 9.00000E-01    1.12367E+01
 9.06467E-01    1.12719E+01
 9.16504E-01    1.13266E+01
 9.19221E-01    1.13414E+01
 9.28487E-01    1.13918E+01
 9.44455E-01    1.14788E+01
 1.00000E+00    1.17812E+01
 1.00777E+00    1.17868E+01
 1.02412E+00    1.17987E+01
 1.04019E+00    1.18104E+01
 1.05337E+00    1.18200E+01
 1.05770E+00    1.18232E+01
 1.14590E+00    1.18873E+01
 1.14721E+00    1.18882E+01
 1.20000E+00    1.19266E+01
 1.40000E+00    1.11899E+01
 1.60000E+00    1.01643E+01
 1.80000E+00    9.09257E+00
 2.00000E+00    8.07403E+00
 2.20000E+00    7.13880E+00
 2.40000E+00    6.28742E+00
 2.60000E+00    5.50873E+00
 2.80000E+00    4.79893E+00
 3.00000E+00    4.14837E+00
 3.20000E+00    3.56132E+00
 3.40000E+00    3.03272E+00
 3.60000E+00    2.56550E+00
 3.80000E+00    2.15728E+00
 4.00000E+00    1.80516E+00
 4.20000E+00    1.50480E+00
 4.40000E+00    1.25119E+00
 4.60000E+00    1.03879E+00
 4.80000E+00    8.61758E-01
 5.00000E+00    7.14909E-01
 5.20000E+00    5.93781E-01
 5.40000E+00    4.93428E-01
 5.60000E+00    4.10986E-01
 5.80000E+00    3.42889E-01
 6.00000E+00    2.86356E-01
 6.20000E+00    2.40098E-01
 6.40000E+00    2.01472E-01
 6.60000E+00    1.69567E-01
 6.80000E+00    1.43077E-01
 7.00000E+00    1.20839E-01
 7.20000E+00    1.02445E-01
 7.40000E+00    8.68999E-02
 7.60000E+00    7.38551E-02
 7.80000E+00    6.26536E-02
 8.00000E+00    5.32725E-02
 8.50000E+00    3.58258E-02
 9.00000E+00    2.42942E-02
 9.50000E+00    1.65934E-02
 1.00000E+01    1.13938E-02
 1.05000E+01    7.86362E-03
 1.10000E+01    5.45435E-03
 1.15000E+01    3.80159E-03
 1.20000E+01    2.66397E-03
 1.25000E+01    1.87572E-03
 1.30000E+01    1.32732E-03
 1.35000E+01    9.43391E-04
 1.40000E+01    6.73191E-04
 1.45000E+01    4.82067E-04
 1.50000E+01    3.46309E-04
 1.60000E+01    1.80347E-04
 1.70000E+01    9.48659E-05
 1.80000E+01    5.04949E-05
 1.90000E+01    2.72243E-05
 2.00000E+01    1.49075E-05
 2.10000E+01    8.26577E-06
 2.20000E+01    4.63685E-06
 2.30000E+01    2.63360E-06
 2.40000E+01    1.49846E-06
 2.50000E+01    8.67990E-07
 2.60000E+01    5.07040E-07
 2.70000E+01    2.98590E-07
 2.80000E+01    1.77210E-07
 2.90000E+01    1.05760E-07
 3.00000E+01    6.36660E-08
