# n + Ge 73 : (n,n'08)  
# jeff3.3    A.J. Koning and D. Rochman        EVAL-DEC15
# uncertainties: n
# # energies =    92
#   E(MeV)       xs(mb) 
 5.08305E-01    0.00000E+00
 5.58621E-01    8.72824E+00
 5.62616E-01    9.42125E+00
 6.00000E-01    1.59062E+01
 6.06059E-01    1.65321E+01
 6.68014E-01    2.29322E+01
 7.00000E-01    2.62364E+01
 7.52091E-01    2.97557E+01
 7.88356E-01    3.22057E+01
 8.00000E-01    3.29924E+01
 8.20190E-01    3.38159E+01
 8.31342E-01    3.42708E+01
 8.37131E-01    3.45069E+01
 8.80026E-01    3.62566E+01
 9.00000E-01    3.70713E+01
 9.06467E-01    3.72020E+01
 9.16504E-01    3.74048E+01
 9.19221E-01    3.74597E+01
 9.28487E-01    3.76470E+01
 9.44455E-01    3.79697E+01
 1.00000E+00    3.90921E+01
 1.00777E+00    3.90363E+01
 1.02412E+00    3.89188E+01
 1.04019E+00    3.88033E+01
 1.05337E+00    3.87086E+01
 1.05770E+00    3.86775E+01
 1.14590E+00    3.80437E+01
 1.14721E+00    3.80343E+01
 1.20000E+00    3.76550E+01
 1.40000E+00    3.32154E+01
 1.60000E+00    2.82473E+01
 1.80000E+00    2.36813E+01
 2.00000E+00    1.98159E+01
 2.20000E+00    1.66595E+01
 2.40000E+00    1.41072E+01
 2.60000E+00    1.20227E+01
 2.80000E+00    1.02968E+01
 3.00000E+00    8.82666E+00
 3.20000E+00    7.55987E+00
 3.40000E+00    6.44469E+00
 3.60000E+00    5.46408E+00
 3.80000E+00    4.60243E+00
 4.00000E+00    3.85129E+00
 4.20000E+00    3.20320E+00
 4.40000E+00    2.65061E+00
 4.60000E+00    2.18466E+00
 4.80000E+00    1.79540E+00
 5.00000E+00    1.47274E+00
 5.20000E+00    1.20750E+00
 5.40000E+00    9.89745E-01
 5.60000E+00    8.12062E-01
 5.80000E+00    6.67418E-01
 6.00000E+00    5.48931E-01
 6.20000E+00    4.53192E-01
 6.40000E+00    3.74661E-01
 6.60000E+00    3.10700E-01
 6.80000E+00    2.58532E-01
 7.00000E+00    2.15443E-01
 7.20000E+00    1.80322E-01
 7.40000E+00    1.51145E-01
 7.60000E+00    1.27018E-01
 7.80000E+00    1.06635E-01
 8.00000E+00    8.97928E-02
 8.50000E+00    5.91092E-02
 9.00000E+00    3.93725E-02
 9.50000E+00    2.64813E-02
 1.00000E+01    1.79344E-02
 1.05000E+01    1.22202E-02
 1.10000E+01    8.37409E-03
 1.15000E+01    5.77035E-03
 1.20000E+01    4.00159E-03
 1.25000E+01    2.79209E-03
 1.30000E+01    1.96128E-03
 1.35000E+01    1.38645E-03
 1.40000E+01    9.85936E-04
 1.45000E+01    7.04822E-04
 1.50000E+01    5.06178E-04
 1.60000E+01    2.64075E-04
 1.70000E+01    1.39240E-04
 1.80000E+01    7.41960E-05
 1.90000E+01    3.99794E-05
 2.00000E+01    2.18534E-05
 2.10000E+01    1.20915E-05
 2.20000E+01    6.77165E-06
 2.30000E+01    3.84302E-06
 2.40000E+01    2.18687E-06
 2.50000E+01    1.26780E-06
 2.60000E+01    7.41440E-07
 2.70000E+01    4.37130E-07
 2.80000E+01    2.59680E-07
 2.90000E+01    1.55080E-07
 3.00000E+01    9.33890E-08
