# n + Ge 73 : (n,n'16)  
# jeff3.3    A.J. Koning and D. Rochman        EVAL-DEC15
# uncertainties: n
# # energies =    81
#   E(MeV)       xs(mb) 
 8.31342E-01    0.00000E+00
 8.37131E-01    5.80389E-02
 8.80026E-01    4.88089E-01
 9.00000E-01    6.88341E-01
 9.06467E-01    7.64507E-01
 9.16504E-01    8.82719E-01
 9.19221E-01    9.14718E-01
 9.28487E-01    1.02385E+00
 9.44455E-01    1.21191E+00
 1.00000E+00    1.86610E+00
 1.00777E+00    1.94917E+00
 1.02412E+00    2.12397E+00
 1.04019E+00    2.29577E+00
 1.05337E+00    2.43668E+00
 1.05770E+00    2.48297E+00
 1.14590E+00    3.42592E+00
 1.14721E+00    3.43992E+00
 1.20000E+00    4.00430E+00
 1.40000E+00    5.21953E+00
 1.60000E+00    5.63516E+00
 1.80000E+00    5.57162E+00
 2.00000E+00    5.26678E+00
 2.20000E+00    4.85894E+00
 2.40000E+00    4.41878E+00
 2.60000E+00    3.97702E+00
 2.80000E+00    3.55113E+00
 3.00000E+00    3.14378E+00
 3.20000E+00    2.76286E+00
 3.40000E+00    2.40750E+00
 3.60000E+00    2.08226E+00
 3.80000E+00    1.78786E+00
 4.00000E+00    1.52496E+00
 4.20000E+00    1.29318E+00
 4.40000E+00    1.09148E+00
 4.60000E+00    9.17864E-01
 4.80000E+00    7.69751E-01
 5.00000E+00    6.44538E-01
 5.20000E+00    5.39356E-01
 5.40000E+00    4.51036E-01
 5.60000E+00    3.77748E-01
 5.80000E+00    3.16507E-01
 6.00000E+00    2.65322E-01
 6.20000E+00    2.23152E-01
 6.40000E+00    1.87720E-01
 6.60000E+00    1.58376E-01
 6.80000E+00    1.33897E-01
 7.00000E+00    1.13285E-01
 7.20000E+00    9.61951E-02
 7.40000E+00    8.17114E-02
 7.60000E+00    6.95398E-02
 7.80000E+00    5.90661E-02
 8.00000E+00    5.02802E-02
 8.50000E+00    3.39082E-02
 9.00000E+00    2.30577E-02
 9.50000E+00    1.57938E-02
 1.00000E+01    1.08765E-02
 1.05000E+01    7.52807E-03
 1.10000E+01    5.23563E-03
 1.15000E+01    3.65791E-03
 1.20000E+01    2.56867E-03
 1.25000E+01    1.81196E-03
 1.30000E+01    1.28436E-03
 1.35000E+01    9.14336E-04
 1.40000E+01    6.53529E-04
 1.45000E+01    4.68781E-04
 1.50000E+01    3.37351E-04
 1.60000E+01    1.76280E-04
 1.70000E+01    9.29971E-05
 1.80000E+01    4.96080E-05
 1.90000E+01    2.67854E-05
 2.00000E+01    1.46813E-05
 2.10000E+01    8.14592E-06
 2.20000E+01    4.57244E-06
 2.30000E+01    2.59869E-06
 2.40000E+01    1.47967E-06
 2.50000E+01    8.57790E-07
 2.60000E+01    5.01480E-07
 2.70000E+01    2.95540E-07
 2.80000E+01    1.75520E-07
 2.90000E+01    1.04820E-07
 3.00000E+01    6.31280E-08
