# n + Xe134 : (n,tot)   
# jeff3.3    B.S.Yu+, Mughabghab               EVAL-JAN05
# uncertainties: n
# # energies =   171
#   E(MeV)       xs(mb) 
 1.00000E-11    1.01428E+04
 1.00000E-07    4.59480E+03
 4.13990E-07    4.55869E+03
 5.31580E-07    4.55080E+03
 6.82560E-07    4.54373E+03
 8.76420E-07    4.53731E+03
 1.12540E-06    4.53184E+03
 1.44500E-06    4.52843E+03
 1.85540E-06    4.52427E+03
 2.37240E-06    4.51889E+03
 3.05900E-06    4.51192E+03
 3.92790E-06    4.50492E+03
 5.04350E-06    4.50084E+03
 6.47600E-06    4.49583E+03
 8.31530E-06    4.48940E+03
 1.06770E-05    4.48113E+03
 1.37100E-05    4.47052E+03
 1.76030E-05    4.45832E+03
 2.26030E-05    4.44837E+03
 2.92030E-05    4.43636E+03
 3.72670E-05    4.42114E+03
 4.78510E-05    4.40248E+03
 6.14420E-05    4.38745E+03
 7.88930E-05    4.37013E+03
 1.01300E-04    4.34959E+03
 1.30070E-04    4.33408E+03
 1.67020E-04    4.31608E+03
 2.14450E-04    4.29426E+03
 2.75360E-04    4.62125E+03
 3.53580E-04    4.28576E+03
 4.54000E-04    4.26318E+03
 5.82950E-04    4.24565E+03
 7.48520E-04    4.21168E+03
 9.61120E-04    5.04021E+03
 1.23410E-03    4.25909E+03
 1.58460E-03    4.24502E+03
 2.03470E-03    6.49595E+03
 2.24870E-03    4.24154E+03
 2.48520E-03    4.23970E+03
 2.61260E-03    4.23861E+03
 2.74650E-03    4.23686E+03
 3.03540E-03    4.23432E+03
 3.35460E-03    4.23152E+03
 3.70740E-03    4.22762E+03
 4.30740E-03    4.22348E+03
 5.53080E-03    4.38595E+03
 7.10170E-03    4.27897E+03
 9.11880E-03    6.54380E+03
 1.17090E-02    7.56320E+03
 1.50340E-02    7.19200E+03
 1.93050E-02    6.94574E+03
 2.18750E-02    6.82608E+03
 2.35790E-02    6.76880E+03
 2.41760E-02    6.74126E+03
 2.47880E-02    6.70028E+03
 2.60580E-02    6.65477E+03
 2.70000E-02    6.60892E+03
 2.85000E-02    6.52775E+03
 3.18280E-02    6.44006E+03
 3.43070E-02    6.33064E+03
 4.08680E-02    6.20949E+03
 4.63090E-02    6.11772E+03
 5.24750E-02    6.04817E+03
 5.65620E-02    5.96874E+03
 6.73790E-02    5.89494E+03
 7.20000E-02    5.84828E+03
 7.95000E-02    5.80973E+03
 8.25000E-02    5.78777E+03
 8.65170E-02    5.74228E+03
 9.80370E-02    5.69864E+03
 1.11090E-01    5.72771E+03
 1.16790E-01    5.74859E+03
 1.22770E-01    5.77075E+03
 1.29070E-01    5.79674E+03
 1.35690E-01    5.82485E+03
 1.42640E-01    5.85441E+03
 1.49960E-01    5.88017E+03
 1.57640E-01    5.89232E+03
 1.65730E-01    5.90421E+03
 1.74220E-01    5.91671E+03
 1.83160E-01    5.92985E+03
 1.92550E-01    5.94367E+03
 2.02420E-01    5.95819E+03
 2.12800E-01    5.97345E+03
 2.23710E-01    5.98927E+03
 2.35180E-01    6.00485E+03
 2.47240E-01    6.02965E+03
 2.73240E-01    6.05615E+03
 2.87250E-01    6.07019E+03
 2.94520E-01    6.07675E+03
 2.97200E-01    6.07936E+03
 2.98500E-01    6.08250E+03
 3.01970E-01    6.10607E+03
 3.33730E-01    6.15703E+03
 3.68830E-01    6.19957E+03
 3.87740E-01    6.22988E+03
 4.07620E-01    6.27849E+03
 4.50490E-01    6.34896E+03
 4.97870E-01    6.40639E+03
 5.23400E-01    6.44633E+03
 5.50230E-01    6.48271E+03
 5.78440E-01    6.52006E+03
 6.08100E-01    6.55933E+03
 6.39280E-01    6.59738E+03
 6.72060E-01    6.63201E+03
 7.06510E-01    6.66832E+03
 7.42740E-01    6.70100E+03
 7.80820E-01    6.73100E+03
 8.20850E-01    6.76213E+03
 8.62940E-01    6.78357E+03
 9.07180E-01    6.80246E+03
 9.61640E-01    6.82076E+03
 1.00260E+00    6.83119E+03
 1.10800E+00    6.82485E+03
 1.16480E+00    6.80962E+03
 1.22460E+00    6.79255E+03
 1.28730E+00    6.75817E+03
 1.35340E+00    6.71643E+03
 1.42270E+00    6.67257E+03
 1.49570E+00    6.62149E+03
 1.57240E+00    6.55126E+03
 1.65300E+00    6.47613E+03
 1.73770E+00    6.39195E+03
 1.82680E+00    6.29638E+03
 1.92050E+00    6.19587E+03
 2.01900E+00    6.09023E+03
 2.12250E+00    5.97920E+03
 2.23130E+00    5.88249E+03
 2.30690E+00    5.82249E+03
 2.34570E+00    5.79190E+03
 2.36530E+00    5.77124E+03
 2.38520E+00    5.72098E+03
 2.46600E+00    5.62658E+03
 2.59240E+00    5.50968E+03
 2.72530E+00    5.40020E+03
 2.86500E+00    5.29362E+03
 3.01190E+00    5.19520E+03
 3.16640E+00    5.10060E+03
 3.32870E+00    4.97612E+03
 3.67880E+00    4.83205E+03
 4.06570E+00    4.70625E+03
 4.49330E+00    4.62488E+03
 4.72370E+00    4.58190E+03
 4.96590E+00    4.54231E+03
 5.22050E+00    4.51514E+03
 5.48810E+00    4.49113E+03
 5.76950E+00    4.47829E+03
 6.06530E+00    4.47926E+03
 6.37630E+00    4.48535E+03
 6.59240E+00    4.49189E+03
 6.70320E+00    4.50825E+03
 7.04690E+00    4.53622E+03
 7.40820E+00    4.57696E+03
 7.78800E+00    4.62119E+03
 8.18730E+00    4.66753E+03
 8.60710E+00    4.71511E+03
 9.04840E+00    4.76492E+03
 9.51230E+00    4.81285E+03
 1.00000E+01    4.85028E+03
 1.05130E+01    4.87735E+03
 1.10520E+01    4.89222E+03
 1.16180E+01    4.89561E+03
 1.22140E+01    4.88725E+03
 1.28400E+01    4.86834E+03
 1.34990E+01    4.84854E+03
 1.38400E+01    4.83301E+03
 1.41910E+01    4.81585E+03
 1.45500E+01    4.79754E+03
 1.49180E+01    4.76795E+03
 1.56830E+01    4.72550E+03
 1.64870E+01    4.67900E+03
