# n + Cm244 : (n,g)     
# jendl.ad   O.Iwamoto,T.Nakagawa,T.Ohsawa+    EVAL-JAN10
# uncertainties: n
# # energies =    69
#   E(MeV)       xs(mb) 
 1.00000E-10    1.06209E+05
 5.00000E-09    2.89365E+04
 1.00000E-08    2.19196E+04
 1.50000E-08    1.84227E+04
 2.00000E-08    1.62120E+04
 2.50000E-08    1.46518E+04
 3.00000E-08    1.34709E+04
 3.50000E-08    1.23876E+04
 4.20000E-08    1.13340E+04
 5.00000E-08    1.04609E+04
 5.80000E-08    9.72711E+03
 6.70000E-08    8.98076E+03
 8.00000E-08    8.13344E+03
 1.00000E-07    7.08954E+03
 1.40000E-07    6.13128E+03
 1.80000E-07    5.48918E+03
 2.20000E-07    5.06743E+03
 2.50000E-07    4.78096E+03
 2.80000E-07    4.57612E+03
 3.00000E-07    4.43333E+03
 3.20000E-07    4.27522E+03
 3.50000E-07    4.05671E+03
 4.00000E-07    3.73575E+03
 5.00000E-07    3.37922E+03
 6.25000E-07    3.07106E+03
 7.80000E-07    2.88360E+03
 8.50000E-07    2.79879E+03
 9.10000E-07    2.74111E+03
 9.50000E-07    2.70828E+03
 9.72000E-07    2.68551E+03
 9.96000E-07    2.66287E+03
 1.02000E-06    2.64091E+03
 1.04500E-06    2.61908E+03
 1.07100E-06    2.59815E+03
 1.09700E-06    2.57801E+03
 1.12300E-06    2.55902E+03
 1.15000E-06    2.50390E+03
 1.30000E-06    2.41820E+03
 1.50000E-06    2.32753E+03
 2.10000E-06    2.33853E+03
 2.60000E-06    2.52736E+03
 3.30000E-06    2.99865E+03
 4.00000E-06    5.88050E+05
 9.87700E-06    2.05337E+03
 1.59680E-05    5.82022E+04
 2.77000E-05    2.29454E+04
 4.80520E-05    2.96457E+03
 7.55014E-05    2.02477E+04
 1.48728E-04    1.37090E+04
 3.67262E-04    8.00224E+03
 9.06898E-04    3.86565E+03
 1.42510E-03    2.86691E+03
 2.23945E-03    2.19909E+03
 3.51910E-03    1.75764E+03
 5.53000E-03    1.43933E+03
 9.11800E-03    1.19810E+03
 1.50300E-02    9.97741E+02
 2.47800E-02    8.20233E+02
 4.08500E-02    6.15537E+02
 6.73400E-02    4.13944E+02
 1.11000E-01    3.13413E+02
 1.83000E-01    2.49460E+02
 3.02000E-01    2.13213E+02
 5.00000E-01    1.81768E+02
 8.21000E-01    1.56061E+02
 1.35300E+00    1.05624E+02
 2.23100E+00    3.49717E+01
 3.67900E+00    4.07232E+00
 6.06500E+00    1.11388E+00
