# n + Ni 63 : (n,n'05)  
# jeff3.3    A.J. Koning and D. Rochman        EVAL-DEC15
# uncertainties: n
# # energies =    90
#   E(MeV)       xs(mb) 
 1.08612E+00    0.00000E+00
 1.20000E+00    1.10016E+02
 1.27115E+00    1.25264E+02
 1.31254E+00    1.34135E+02
 1.34526E+00    1.41147E+02
 1.40000E+00    1.52878E+02
 1.47497E+00    1.62682E+02
 1.60000E+00    1.79031E+02
 1.68356E+00    1.86785E+02
 1.70388E+00    1.88671E+02
 1.80000E+00    1.97591E+02
 1.81564E+00    1.97676E+02
 1.92944E+00    1.98297E+02
 2.00000E+00    1.98681E+02
 2.18345E+00    1.98636E+02
 2.20000E+00    1.98632E+02
 2.21850E+00    1.97904E+02
 2.29795E+00    1.94778E+02
 2.33382E+00    1.93366E+02
 2.39082E+00    1.91123E+02
 2.40000E+00    1.90762E+02
 2.55938E+00    1.84329E+02
 2.60000E+00    1.82689E+02
 2.61424E+00    1.82054E+02
 2.71788E+00    1.77431E+02
 2.73982E+00    1.76452E+02
 2.80000E+00    1.73768E+02
 2.85961E+00    1.71155E+02
 2.86723E+00    1.70821E+02
 3.00000E+00    1.65000E+02
 3.00033E+00    1.64985E+02
 3.02776E+00    1.63745E+02
 3.06129E+00    1.62229E+02
 3.07044E+00    1.61815E+02
 3.12429E+00    1.59381E+02
 3.15375E+00    1.58049E+02
 3.20000E+00    1.55958E+02
 3.40000E+00    1.45967E+02
 3.60000E+00    1.35801E+02
 3.80000E+00    1.25932E+02
 4.00000E+00    1.16597E+02
 4.20000E+00    1.08216E+02
 4.40000E+00    1.00988E+02
 4.60000E+00    9.47972E+01
 4.80000E+00    8.95301E+01
 5.00000E+00    8.50464E+01
 5.20000E+00    8.12168E+01
 5.40000E+00    7.78967E+01
 5.60000E+00    7.49894E+01
 5.80000E+00    7.24124E+01
 6.00000E+00    7.00996E+01
 6.20000E+00    6.80057E+01
 6.40000E+00    6.60857E+01
 6.60000E+00    6.43150E+01
 6.80000E+00    6.26689E+01
 7.00000E+00    6.11377E+01
 7.20000E+00    5.96975E+01
 7.40000E+00    5.83419E+01
 7.60000E+00    5.70678E+01
 7.80000E+00    5.58641E+01
 8.00000E+00    5.47203E+01
 8.50000E+00    5.21311E+01
 9.00000E+00    4.98739E+01
 9.50000E+00    4.78918E+01
 1.00000E+01    4.61399E+01
 1.05000E+01    4.45806E+01
 1.10000E+01    4.31773E+01
 1.15000E+01    4.19000E+01
 1.20000E+01    4.07219E+01
 1.25000E+01    3.96211E+01
 1.30000E+01    3.85823E+01
 1.35000E+01    3.75974E+01
 1.40000E+01    3.66639E+01
 1.45000E+01    3.57833E+01
 1.50000E+01    3.49586E+01
 1.60000E+01    3.34838E+01
 1.70000E+01    3.22247E+01
 1.80000E+01    3.11237E+01
 1.90000E+01    3.01073E+01
 2.00000E+01    2.91215E+01
 2.10000E+01    2.81481E+01
 2.20000E+01    2.71967E+01
 2.30000E+01    2.62900E+01
 2.40000E+01    2.54491E+01
 2.50000E+01    2.46860E+01
 2.60000E+01    2.40014E+01
 2.70000E+01    2.33879E+01
 2.80000E+01    2.28317E+01
 2.90000E+01    2.23181E+01
 3.00000E+01    2.18336E+01
