# n + Ni 63 : (n,n'10)  
# jeff3.3    A.J. Koning and D. Rochman        EVAL-DEC15
# uncertainties: n
# # energies =    82
#   E(MeV)       xs(mb) 
 1.68356E+00    0.00000E+00
 1.70388E+00    3.15779E+00
 1.80000E+00    1.80952E+01
 1.81564E+00    1.91781E+01
 1.92944E+00    2.70575E+01
 2.00000E+00    3.19430E+01
 2.18345E+00    4.40621E+01
 2.20000E+00    4.51554E+01
 2.21850E+00    4.60667E+01
 2.29795E+00    4.99804E+01
 2.33382E+00    5.17473E+01
 2.39082E+00    5.45551E+01
 2.40000E+00    5.50073E+01
 2.55938E+00    6.03732E+01
 2.60000E+00    6.17408E+01
 2.61424E+00    6.19069E+01
 2.71788E+00    6.31154E+01
 2.73982E+00    6.33712E+01
 2.80000E+00    6.40730E+01
 2.85961E+00    6.42729E+01
 2.86723E+00    6.42985E+01
 3.00000E+00    6.47437E+01
 3.00033E+00    6.47411E+01
 3.02776E+00    6.45277E+01
 3.06129E+00    6.42668E+01
 3.07044E+00    6.41956E+01
 3.12429E+00    6.37766E+01
 3.15375E+00    6.35473E+01
 3.20000E+00    6.31874E+01
 3.40000E+00    5.97204E+01
 3.60000E+00    5.47844E+01
 3.80000E+00    4.91313E+01
 4.00000E+00    4.31993E+01
 4.20000E+00    3.74796E+01
 4.40000E+00    3.22724E+01
 4.60000E+00    2.76167E+01
 4.80000E+00    2.35308E+01
 5.00000E+00    1.99890E+01
 5.20000E+00    1.69509E+01
 5.40000E+00    1.43499E+01
 5.60000E+00    1.21296E+01
 5.80000E+00    1.02432E+01
 6.00000E+00    8.64179E+00
 6.20000E+00    7.29049E+00
 6.40000E+00    6.14658E+00
 6.60000E+00    5.18260E+00
 6.80000E+00    4.36961E+00
 7.00000E+00    3.68903E+00
 7.20000E+00    3.11337E+00
 7.40000E+00    2.62672E+00
 7.60000E+00    2.22064E+00
 7.80000E+00    1.87728E+00
 8.00000E+00    1.58255E+00
 8.50000E+00    1.03794E+00
 9.00000E+00    6.87052E-01
 9.50000E+00    4.58111E-01
 1.00000E+01    3.07657E-01
 1.05000E+01    2.08014E-01
 1.10000E+01    1.41428E-01
 1.15000E+01    9.67005E-02
 1.20000E+01    6.64818E-02
 1.25000E+01    4.59523E-02
 1.30000E+01    3.19263E-02
 1.35000E+01    2.22949E-02
 1.40000E+01    1.56372E-02
 1.45000E+01    1.10205E-02
 1.50000E+01    7.79966E-03
 1.60000E+01    3.95055E-03
 1.70000E+01    2.02738E-03
 1.80000E+01    1.05213E-03
 1.90000E+01    5.52918E-04
 2.00000E+01    2.92826E-04
 2.10000E+01    1.56600E-04
 2.20000E+01    8.45019E-05
 2.30000E+01    4.60741E-05
 2.40000E+01    2.52868E-05
 2.50000E+01    1.38712E-05
 2.60000E+01    7.78437E-06
 2.70000E+01    4.41280E-06
 2.80000E+01    2.52412E-06
 2.90000E+01    1.45444E-06
 3.00000E+01    8.44160E-07
