# n + Ni 63 : (n,n'09)  
# jeff3.3    A.J. Koning and D. Rochman        EVAL-DEC15
# uncertainties: n
# # energies =    84
#   E(MeV)       xs(mb) 
 1.47497E+00    0.00000E+00
 1.60000E+00    2.86762E+01
 1.68356E+00    3.48354E+01
 1.70388E+00    3.63332E+01
 1.80000E+00    4.34182E+01
 1.81564E+00    4.42208E+01
 1.92944E+00    5.00607E+01
 2.00000E+00    5.36816E+01
 2.18345E+00    6.28402E+01
 2.20000E+00    6.36664E+01
 2.21850E+00    6.41101E+01
 2.29795E+00    6.60156E+01
 2.33382E+00    6.68759E+01
 2.39082E+00    6.82429E+01
 2.40000E+00    6.84631E+01
 2.55938E+00    7.03708E+01
 2.60000E+00    7.08570E+01
 2.61424E+00    7.08396E+01
 2.71788E+00    7.07132E+01
 2.73982E+00    7.06865E+01
 2.80000E+00    7.06131E+01
 2.85961E+00    7.02071E+01
 2.86723E+00    7.01552E+01
 3.00000E+00    6.92509E+01
 3.00033E+00    6.92464E+01
 3.02776E+00    6.88714E+01
 3.06129E+00    6.84129E+01
 3.07044E+00    6.82878E+01
 3.12429E+00    6.75516E+01
 3.15375E+00    6.71488E+01
 3.20000E+00    6.65164E+01
 3.40000E+00    6.19947E+01
 3.60000E+00    5.64391E+01
 3.80000E+00    5.03613E+01
 4.00000E+00    4.41155E+01
 4.20000E+00    3.81755E+01
 4.40000E+00    3.28291E+01
 4.60000E+00    2.80928E+01
 4.80000E+00    2.39624E+01
 5.00000E+00    2.03941E+01
 5.20000E+00    1.73356E+01
 5.40000E+00    1.47141E+01
 5.60000E+00    1.24703E+01
 5.80000E+00    1.05571E+01
 6.00000E+00    8.93097E+00
 6.20000E+00    7.55123E+00
 6.40000E+00    6.38045E+00
 6.60000E+00    5.39185E+00
 6.80000E+00    4.55458E+00
 7.00000E+00    3.85276E+00
 7.20000E+00    3.25782E+00
 7.40000E+00    2.75370E+00
 7.60000E+00    2.33208E+00
 7.80000E+00    1.97537E+00
 8.00000E+00    1.66810E+00
 8.50000E+00    1.09888E+00
 9.00000E+00    7.30331E-01
 9.50000E+00    4.88631E-01
 1.00000E+01    3.28981E-01
 1.05000E+01    2.22746E-01
 1.10000E+01    1.51467E-01
 1.15000E+01    1.03440E-01
 1.20000E+01    7.09319E-02
 1.25000E+01    4.88374E-02
 1.30000E+01    3.37594E-02
 1.35000E+01    2.34347E-02
 1.40000E+01    1.63295E-02
 1.45000E+01    1.14314E-02
 1.50000E+01    8.03820E-03
 1.60000E+01    4.02708E-03
 1.70000E+01    2.05236E-03
 1.80000E+01    1.06194E-03
 1.90000E+01    5.57896E-04
 2.00000E+01    2.95659E-04
 2.10000E+01    1.58179E-04
 2.20000E+01    8.53185E-05
 2.30000E+01    4.64633E-05
 2.40000E+01    2.54576E-05
 2.50000E+01    1.39407E-05
 2.60000E+01    7.81195E-06
 2.70000E+01    4.42391E-06
 2.80000E+01    2.52906E-06
 2.90000E+01    1.45702E-06
 3.00000E+01    8.45700E-07
