# n + Ni 63 : (n,xa)    
# jeff3.3    A.J. Koning and D. Rochman        EVAL-DEC15
# 
# # energies =   134
#   E(MeV)        xs(mb) 
 8.85469E-02    7.33209E-13
 1.00000E-01    8.22600E-13
 1.58043E-01    1.49462E-12
 2.00000E-01    1.98040E-12
 3.00000E-01    7.16900E-12
 4.00000E-01    2.77040E-11
 5.00000E-01    1.40980E-10
 5.25846E-01    2.10308E-10
 6.00000E-01    4.09997E-10
 7.00000E-01    1.34350E-09
 8.00000E-01    3.80660E-09
 9.00000E-01    1.02120E-08
 1.00000E+00    2.75520E-08
 1.01715E+00    3.78702E-08
 1.08612E+00    7.93652E-08
 1.20000E+00    1.47880E-07
 1.27115E+00    3.22923E-07
 1.31254E+00    4.24751E-07
 1.34526E+00    5.05249E-07
 1.40000E+00    6.39920E-07
 1.47497E+00    1.31359E-06
 1.60000E+00    2.43708E-06
 1.68356E+00    4.90779E-06
 1.70388E+00    5.50861E-06
 1.80000E+00    8.35070E-06
 1.81564E+00    9.70125E-06
 1.92944E+00    1.95281E-05
 2.00000E+00    2.56211E-05
 2.18345E+00    6.79473E-05
 2.20000E+00    7.17658E-05
 2.21850E+00    8.18825E-05
 2.29795E+00    1.25330E-04
 2.33382E+00    1.44945E-04
 2.39082E+00    1.76116E-04
 2.40000E+00    1.81136E-04
 2.55938E+00    4.39169E-04
 2.60000E+00    5.04932E-04
 2.61424E+00    5.49831E-04
 2.71788E+00    8.76607E-04
 2.73982E+00    9.45783E-04
 2.80000E+00    1.13553E-03
 2.85961E+00    1.35298E-03
 2.86723E+00    1.38078E-03
 3.00000E+00    1.86512E-03
 3.00033E+00    1.86941E-03
 3.02776E+00    2.22564E-03
 3.06129E+00    2.66110E-03
 3.07044E+00    2.77993E-03
 3.12429E+00    3.47928E-03
 3.15375E+00    3.86188E-03
 3.20000E+00    4.46253E-03
 3.40000E+00    7.48309E-03
 3.60000E+00    1.30195E-02
 3.80000E+00    2.15441E-02
 4.00000E+00    3.13714E-02
 4.20000E+00    4.95817E-02
 4.40000E+00    6.89784E-02
 4.60000E+00    9.60117E-02
 4.80000E+00    1.29384E-01
 5.00000E+00    1.67491E-01
 5.20000E+00    2.17795E-01
 5.40000E+00    2.68099E-01
 5.60000E+00    3.30903E-01
 5.80000E+00    3.94511E-01
 6.00000E+00    4.63535E-01
 6.20000E+00    5.37017E-01
 6.40000E+00    6.03306E-01
 6.60000E+00    6.78584E-01
 6.80000E+00    7.48166E-01
 7.00000E+00    8.12289E-01
 7.20000E+00    8.89009E-01
 7.40000E+00    9.52794E-01
 7.60000E+00    1.00820E+00
 7.80000E+00    1.11618E+00
 8.00000E+00    1.18177E+00
 8.50000E+00    1.46563E+00
 9.00000E+00    1.91579E+00
 9.50000E+00    2.55419E+00
 1.00000E+01    3.38540E+00
 1.05000E+01    4.39980E+00
 1.10000E+01    5.58025E+00
 1.15000E+01    6.90981E+00
 1.20000E+01    8.37080E+00
 1.25000E+01    9.94308E+00
 1.30000E+01    1.16056E+01
 1.35000E+01    1.33447E+01
 1.40000E+01    1.52211E+01
 1.45000E+01    1.70553E+01
 1.50000E+01    1.89426E+01
 1.60000E+01    2.28742E+01
 1.70000E+01    2.67841E+01
 1.80000E+01    3.07275E+01
 1.90000E+01    3.44995E+01
 2.00000E+01    3.82234E+01
 2.10000E+01    4.21503E+01
 2.20000E+01    4.57001E+01
 2.30000E+01    4.90268E+01
 2.40000E+01    5.22238E+01
 2.50000E+01    5.51177E+01
 2.60000E+01    5.81354E+01
 2.70000E+01    6.10494E+01
 2.80000E+01    6.37763E+01
 2.90000E+01    6.63887E+01
 3.00000E+01    6.88105E+01
 3.00000E+01    6.88141E+01
 3.20000E+01    7.31908E+01
 3.40000E+01    7.67239E+01
 3.60000E+01    7.95482E+01
 3.80000E+01    8.18001E+01
 4.00000E+01    8.34781E+01
 4.20000E+01    8.50603E+01
 4.40000E+01    8.62807E+01
 4.60000E+01    8.71504E+01
 4.80000E+01    8.68078E+01
 5.00000E+01    8.65947E+01
 5.20000E+01    8.63402E+01
 5.40000E+01    8.60832E+01
 5.60000E+01    8.54775E+01
 5.80000E+01    8.46217E+01
 6.00000E+01    8.34022E+01
 6.50000E+01    7.98891E+01
 7.00000E+01    7.81010E+01
 7.50000E+01    7.88667E+01
 8.00000E+01    7.99351E+01
 9.00000E+01    8.39846E+01
 1.00000E+02    8.95269E+01
 1.10000E+02    9.31701E+01
 1.20000E+02    9.72684E+01
 1.30000E+02    1.02364E+02
 1.40000E+02    1.07544E+02
 1.50000E+02    1.13170E+02
 1.60000E+02    1.20522E+02
 1.80000E+02    1.44446E+02
 2.00000E+02    1.77149E+02
