# n + Ni 63 : (n,xn)    
# jeff3.3    A.J. Koning and D. Rochman        EVAL-DEC15
# 
# # energies =   134
#   E(MeV)        xs(mb) 
 8.85469E-02    0.00000E+00
 1.00000E-01    6.58451E+01
 1.58043E-01    1.42087E+02
 2.00000E-01    6.01523E+02
 3.00000E-01    7.69191E+02
 4.00000E-01    8.82128E+02
 5.00000E-01    9.75956E+02
 5.25846E-01    9.70507E+02
 6.00000E-01    1.13978E+03
 7.00000E-01    1.22020E+03
 8.00000E-01    1.27575E+03
 9.00000E-01    1.31437E+03
 1.00000E+00    1.33928E+03
 1.01715E+00    1.32963E+03
 1.08612E+00    1.32462E+03
 1.20000E+00    1.42635E+03
 1.27115E+00    1.39436E+03
 1.31254E+00    1.40066E+03
 1.34526E+00    1.40962E+03
 1.40000E+00    1.48146E+03
 1.47497E+00    1.47684E+03
 1.60000E+00    1.49782E+03
 1.68356E+00    1.48890E+03
 1.70388E+00    1.48990E+03
 1.80000E+00    1.49498E+03
 1.81564E+00    1.48935E+03
 1.92944E+00    1.47632E+03
 2.00000E+00    1.49738E+03
 2.18345E+00    1.48078E+03
 2.20000E+00    1.49350E+03
 2.21850E+00    1.48946E+03
 2.29795E+00    1.47228E+03
 2.33382E+00    1.47247E+03
 2.39082E+00    1.48520E+03
 2.40000E+00    1.49600E+03
 2.55938E+00    1.49523E+03
 2.60000E+00    1.49952E+03
 2.61424E+00    1.49742E+03
 2.71788E+00    1.49060E+03
 2.73982E+00    1.49235E+03
 2.80000E+00    1.50631E+03
 2.85961E+00    1.50263E+03
 2.86723E+00    1.50281E+03
 3.00000E+00    1.51719E+03
 3.00033E+00    1.51713E+03
 3.02776E+00    1.51383E+03
 3.06129E+00    1.51100E+03
 3.07044E+00    1.51093E+03
 3.12429E+00    1.51626E+03
 3.15375E+00    1.51918E+03
 3.20000E+00    1.53130E+03
 3.40000E+00    1.54770E+03
 3.60000E+00    1.56566E+03
 3.80000E+00    1.58380E+03
 4.00000E+00    1.60113E+03
 4.20000E+00    1.61644E+03
 4.40000E+00    1.62908E+03
 4.60000E+00    1.63886E+03
 4.80000E+00    1.64583E+03
 5.00000E+00    1.65012E+03
 5.20000E+00    1.65202E+03
 5.40000E+00    1.65190E+03
 5.60000E+00    1.65014E+03
 5.80000E+00    1.64709E+03
 6.00000E+00    1.64307E+03
 6.20000E+00    1.63844E+03
 6.40000E+00    1.63343E+03
 6.60000E+00    1.62821E+03
 6.80000E+00    1.62300E+03
 7.00000E+00    1.62330E+03
 7.20000E+00    1.63880E+03
 7.40000E+00    1.66803E+03
 7.60000E+00    1.70886E+03
 7.80000E+00    1.76089E+03
 8.00000E+00    1.81537E+03
 8.50000E+00    1.96249E+03
 9.00000E+00    2.10056E+03
 9.50000E+00    2.22044E+03
 1.00000E+01    2.32120E+03
 1.05000E+01    2.40250E+03
 1.10000E+01    2.45979E+03
 1.15000E+01    2.50217E+03
 1.20000E+01    2.52905E+03
 1.25000E+01    2.54535E+03
 1.30000E+01    2.55328E+03
 1.35000E+01    2.55543E+03
 1.40000E+01    2.55253E+03
 1.45000E+01    2.54730E+03
 1.50000E+01    2.54141E+03
 1.60000E+01    2.52585E+03
 1.70000E+01    2.50708E+03
 1.80000E+01    2.48412E+03
 1.90000E+01    2.46937E+03
 2.00000E+01    2.47334E+03
 2.10000E+01    2.49652E+03
 2.20000E+01    2.53245E+03
 2.30000E+01    2.56339E+03
 2.40000E+01    2.58967E+03
 2.50000E+01    2.60047E+03
 2.60000E+01    2.60829E+03
 2.70000E+01    2.60891E+03
 2.80000E+01    2.60600E+03
 2.90000E+01    2.59434E+03
 3.00000E+01    2.58516E+03
 3.00000E+01    2.58455E+03
 3.20000E+01    2.56837E+03
 3.40000E+01    2.56009E+03
 3.60000E+01    2.55746E+03
 3.80000E+01    2.55470E+03
 4.00000E+01    2.55424E+03
 4.20000E+01    2.55294E+03
 4.40000E+01    2.55372E+03
 4.60000E+01    2.56116E+03
 4.80000E+01    2.55392E+03
 5.00000E+01    2.55785E+03
 5.20000E+01    2.55834E+03
 5.40000E+01    2.56616E+03
 5.60000E+01    2.56863E+03
 5.80000E+01    2.57478E+03
 6.00000E+01    2.57515E+03
 6.50000E+01    2.57717E+03
 7.00000E+01    2.60209E+03
 7.50000E+01    2.64439E+03
 8.00000E+01    2.68141E+03
 9.00000E+01    2.77010E+03
 1.00000E+02    2.86854E+03
 1.10000E+02    2.96729E+03
 1.20000E+02    3.06090E+03
 1.30000E+02    3.16631E+03
 1.40000E+02    3.28545E+03
 1.50000E+02    3.40169E+03
 1.60000E+02    3.52766E+03
 1.80000E+02    3.78602E+03
 2.00000E+02    4.04863E+03
