# n + Ni 63 : (n,xp)    
# jeff3.3    A.J. Koning and D. Rochman        EVAL-DEC15
# 
# # energies =   134
#   E(MeV)        xs(mb) 
 8.85469E-02    0.00000E+00
 1.00000E-01    0.00000E+00
 1.58043E-01    0.00000E+00
 2.00000E-01    0.00000E+00
 3.00000E-01    0.00000E+00
 4.00000E-01    0.00000E+00
 5.00000E-01    0.00000E+00
 5.25846E-01    0.00000E+00
 6.00000E-01    0.00000E+00
 7.00000E-01    0.00000E+00
 8.00000E-01    0.00000E+00
 9.00000E-01    0.00000E+00
 1.00000E+00    0.00000E+00
 1.01715E+00    0.00000E+00
 1.08612E+00    0.00000E+00
 1.20000E+00    0.00000E+00
 1.27115E+00    0.00000E+00
 1.31254E+00    0.00000E+00
 1.34526E+00    0.00000E+00
 1.40000E+00    0.00000E+00
 1.47497E+00    0.00000E+00
 1.60000E+00    0.00000E+00
 1.68356E+00    0.00000E+00
 1.70388E+00    0.00000E+00
 1.80000E+00    0.00000E+00
 1.81564E+00    0.00000E+00
 1.92944E+00    0.00000E+00
 2.00000E+00    0.00000E+00
 2.18345E+00    0.00000E+00
 2.20000E+00    0.00000E+00
 2.21850E+00    0.00000E+00
 2.29795E+00    0.00000E+00
 2.33382E+00    0.00000E+00
 2.39082E+00    0.00000E+00
 2.40000E+00    0.00000E+00
 2.55938E+00    0.00000E+00
 2.60000E+00    0.00000E+00
 2.61424E+00    0.00000E+00
 2.71788E+00    0.00000E+00
 2.73982E+00    0.00000E+00
 2.80000E+00    0.00000E+00
 2.85961E+00    0.00000E+00
 2.86723E+00    0.00000E+00
 3.00000E+00    8.74790E-11
 3.00033E+00    8.78645E-11
 3.02776E+00    1.19906E-10
 3.06129E+00    1.59072E-10
 3.07044E+00    1.69760E-10
 3.12429E+00    2.32662E-10
 3.15375E+00    2.67075E-10
 3.20000E+00    3.21100E-10
 3.40000E+00    5.54720E-10
 3.60000E+00    1.60850E-07
 3.80000E+00    6.05511E-06
 4.00000E+00    7.68945E-05
 4.20000E+00    5.02209E-04
 4.40000E+00    2.11373E-03
 4.60000E+00    6.52993E-03
 4.80000E+00    1.60804E-02
 5.00000E+00    3.34772E-02
 5.20000E+00    6.06670E-02
 5.40000E+00    9.83706E-02
 5.60000E+00    1.46029E-01
 5.80000E+00    2.01591E-01
 6.00000E+00    2.62386E-01
 6.20000E+00    3.26413E-01
 6.40000E+00    3.93203E-01
 6.60000E+00    4.64500E-01
 6.80000E+00    5.42738E-01
 7.00000E+00    6.32165E-01
 7.20000E+00    7.34572E-01
 7.40000E+00    8.48710E-01
 7.60000E+00    9.84080E-01
 7.80000E+00    1.13680E+00
 8.00000E+00    1.45886E+00
 8.50000E+00    2.05259E+00
 9.00000E+00    2.79920E+00
 9.50000E+00    3.76138E+00
 1.00000E+01    4.98262E+00
 1.05000E+01    6.05689E+00
 1.10000E+01    7.69782E+00
 1.15000E+01    9.53545E+00
 1.20000E+01    1.15433E+01
 1.25000E+01    1.37295E+01
 1.30000E+01    1.60822E+01
 1.35000E+01    1.85915E+01
 1.40000E+01    2.13326E+01
 1.45000E+01    2.41498E+01
 1.50000E+01    2.71164E+01
 1.60000E+01    3.35026E+01
 1.70000E+01    4.04167E+01
 1.80000E+01    4.77473E+01
 1.90000E+01    5.55170E+01
 2.00000E+01    6.42423E+01
 2.10000E+01    7.29122E+01
 2.20000E+01    8.19858E+01
 2.30000E+01    9.13394E+01
 2.40000E+01    1.00954E+02
 2.50000E+01    1.12066E+02
 2.60000E+01    1.22715E+02
 2.70000E+01    1.33057E+02
 2.80000E+01    1.43381E+02
 2.90000E+01    1.53757E+02
 3.00000E+01    1.63765E+02
 3.00000E+01    1.63157E+02
 3.20000E+01    1.82655E+02
 3.40000E+01    2.00710E+02
 3.60000E+01    2.17204E+02
 3.80000E+01    2.32503E+02
 4.00000E+01    2.47130E+02
 4.20000E+01    2.60896E+02
 4.40000E+01    2.74334E+02
 4.60000E+01    2.87243E+02
 4.80000E+01    2.97849E+02
 5.00000E+01    3.08148E+02
 5.20000E+01    3.17785E+02
 5.40000E+01    3.26372E+02
 5.60000E+01    3.34271E+02
 5.80000E+01    3.41762E+02
 6.00000E+01    3.48690E+02
 6.50000E+01    3.63367E+02
 7.00000E+01    3.79448E+02
 7.50000E+01    3.98018E+02
 8.00000E+01    4.15478E+02
 9.00000E+01    4.54128E+02
 1.00000E+02    4.93561E+02
 1.10000E+02    5.37111E+02
 1.20000E+02    5.78477E+02
 1.30000E+02    6.24660E+02
 1.40000E+02    6.75626E+02
 1.50000E+02    7.29917E+02
 1.60000E+02    7.87745E+02
 1.80000E+02    9.16205E+02
 2.00000E+02    1.06101E+03
