# n + Ni 63 : (n,n'11)  
# jeff3.3    A.J. Koning and D. Rochman        EVAL-DEC15
# uncertainties: n
# # energies =    81
#   E(MeV)       xs(mb) 
 1.70388E+00    0.00000E+00
 1.80000E+00    4.03488E-01
 1.81564E+00    5.49238E-01
 1.92944E+00    1.60974E+00
 2.00000E+00    2.26729E+00
 2.18345E+00    5.09446E+00
 2.20000E+00    5.34951E+00
 2.21850E+00    5.67068E+00
 2.29795E+00    7.04999E+00
 2.33382E+00    7.67273E+00
 2.39082E+00    8.66229E+00
 2.40000E+00    8.82166E+00
 2.55938E+00    1.12632E+01
 2.60000E+00    1.18854E+01
 2.61424E+00    1.20314E+01
 2.71788E+00    1.30942E+01
 2.73982E+00    1.33192E+01
 2.80000E+00    1.39363E+01
 2.85961E+00    1.44325E+01
 2.86723E+00    1.44960E+01
 3.00000E+00    1.56012E+01
 3.00033E+00    1.56024E+01
 3.02776E+00    1.57060E+01
 3.06129E+00    1.58325E+01
 3.07044E+00    1.58670E+01
 3.12429E+00    1.60703E+01
 3.15375E+00    1.61814E+01
 3.20000E+00    1.63560E+01
 3.40000E+00    1.66469E+01
 3.60000E+00    1.63030E+01
 3.80000E+00    1.55038E+01
 4.00000E+00    1.43896E+01
 4.20000E+00    1.31360E+01
 4.40000E+00    1.18713E+01
 4.60000E+00    1.06386E+01
 4.80000E+00    9.47368E+00
 5.00000E+00    8.39458E+00
 5.20000E+00    7.41151E+00
 5.40000E+00    6.52025E+00
 5.60000E+00    5.71723E+00
 5.80000E+00    4.99968E+00
 6.00000E+00    4.36040E+00
 6.20000E+00    3.79684E+00
 6.40000E+00    3.29921E+00
 6.60000E+00    2.86275E+00
 6.80000E+00    2.48069E+00
 7.00000E+00    2.14904E+00
 7.20000E+00    1.85944E+00
 7.40000E+00    1.60650E+00
 7.60000E+00    1.38929E+00
 7.80000E+00    1.20009E+00
 8.00000E+00    1.03275E+00
 8.50000E+00    7.10151E-01
 9.00000E+00    4.90147E-01
 9.50000E+00    3.39128E-01
 1.00000E+01    2.35349E-01
 1.05000E+01    1.63863E-01
 1.10000E+01    1.14404E-01
 1.15000E+01    8.01477E-02
 1.20000E+01    5.63590E-02
 1.25000E+01    3.97909E-02
 1.30000E+01    2.82084E-02
 1.35000E+01    2.00820E-02
 1.40000E+01    1.43479E-02
 1.45000E+01    1.02927E-02
 1.50000E+01    7.40903E-03
 1.60000E+01    3.87216E-03
 1.70000E+01    2.04269E-03
 1.80000E+01    1.08539E-03
 1.90000E+01    5.81813E-04
 2.00000E+01    3.13281E-04
 2.10000E+01    1.69905E-04
 2.20000E+01    9.28002E-05
 2.30000E+01    5.11480E-05
 2.40000E+01    2.83491E-05
 2.50000E+01    1.56936E-05
 2.60000E+01    8.88267E-06
 2.70000E+01    5.07589E-06
 2.80000E+01    2.92526E-06
 2.90000E+01    1.69743E-06
 3.00000E+01    9.91630E-07
