# n + Ni 63 : (n,n'14)  
# jeff3.3    A.J. Koning and D. Rochman        EVAL-DEC15
# uncertainties: n
# # energies =    76
#   E(MeV)       xs(mb) 
 2.18345E+00    0.00000E+00
 2.20000E+00    1.42154E+01
 2.21850E+00    1.62413E+01
 2.29795E+00    2.49419E+01
 2.33382E+00    2.88700E+01
 2.39082E+00    3.51120E+01
 2.40000E+00    3.61173E+01
 2.55938E+00    4.41102E+01
 2.60000E+00    4.61473E+01
 2.61424E+00    4.66950E+01
 2.71788E+00    5.06812E+01
 2.73982E+00    5.15251E+01
 2.80000E+00    5.38397E+01
 2.85961E+00    5.51263E+01
 2.86723E+00    5.52908E+01
 3.00000E+00    5.81564E+01
 3.00033E+00    5.81575E+01
 3.02776E+00    5.82534E+01
 3.06129E+00    5.83705E+01
 3.07044E+00    5.84024E+01
 3.12429E+00    5.85905E+01
 3.15375E+00    5.86934E+01
 3.20000E+00    5.88549E+01
 3.40000E+00    5.64124E+01
 3.60000E+00    5.18239E+01
 3.80000E+00    4.60768E+01
 4.00000E+00    3.98762E+01
 4.20000E+00    3.39039E+01
 4.40000E+00    2.85581E+01
 4.60000E+00    2.39108E+01
 4.80000E+00    1.99641E+01
 5.00000E+00    1.66580E+01
 5.20000E+00    1.39132E+01
 5.40000E+00    1.16324E+01
 5.60000E+00    9.73522E+00
 5.80000E+00    8.15750E+00
 6.00000E+00    6.84137E+00
 6.20000E+00    5.74342E+00
 6.40000E+00    4.82282E+00
 6.60000E+00    4.05241E+00
 6.80000E+00    3.40588E+00
 7.00000E+00    2.86666E+00
 7.20000E+00    2.41150E+00
 7.40000E+00    2.02749E+00
 7.60000E+00    1.70761E+00
 7.80000E+00    1.43789E+00
 8.00000E+00    1.20701E+00
 8.50000E+00    7.82772E-01
 9.00000E+00    5.12177E-01
 9.50000E+00    3.37719E-01
 1.00000E+01    2.24472E-01
 1.05000E+01    1.50335E-01
 1.10000E+01    1.01299E-01
 1.15000E+01    6.86530E-02
 1.20000E+01    4.67706E-02
 1.25000E+01    3.20154E-02
 1.30000E+01    2.20116E-02
 1.35000E+01    1.51991E-02
 1.40000E+01    1.05342E-02
 1.45000E+01    7.33355E-03
 1.50000E+01    5.12706E-03
 1.60000E+01    2.53862E-03
 1.70000E+01    1.27978E-03
 1.80000E+01    6.56408E-04
 1.90000E+01    3.42684E-04
 2.00000E+01    1.80805E-04
 2.10000E+01    9.63854E-05
 2.20000E+01    5.18005E-05
 2.30000E+01    2.80951E-05
 2.40000E+01    1.53236E-05
 2.50000E+01    8.35097E-06
 2.60000E+01    4.65744E-06
 2.70000E+01    2.62587E-06
 2.80000E+01    1.49525E-06
 2.90000E+01    8.58480E-07
 3.00000E+01    4.96790E-07
