# n + Br 81 : (n,n'11)  
# tendl.2019 A.J. Koning and D. Rochman        EVAL-NOV19
# uncertainties: n
# # energies =    85
#   E(MeV)       xs(mb) 
 9.87154E-01    0.00000E+00
 1.00000E+00    8.43194E+00
 1.03646E+00    1.54660E+01
 1.08962E+00    2.57220E+01
 1.11908E+00    3.14056E+01
 1.18458E+00    4.40423E+01
 1.19147E+00    4.53715E+01
 1.20000E+00    4.70172E+01
 1.20473E+00    4.73513E+01
 1.25331E+00    5.07826E+01
 1.28219E+00    5.28225E+01
 1.29940E+00    5.40381E+01
 1.31621E+00    5.52254E+01
 1.33949E+00    5.68697E+01
 1.34385E+00    5.71777E+01
 1.36663E+00    5.87867E+01
 1.38860E+00    6.03385E+01
 1.40000E+00    6.11437E+01
 1.41836E+00    6.12826E+01
 1.50017E+00    6.19015E+01
 1.53176E+00    6.21405E+01
 1.54128E+00    6.22125E+01
 1.55505E+00    6.23167E+01
 1.60000E+00    6.26567E+01
 1.80000E+00    5.70749E+01
 2.00000E+00    4.83720E+01
 2.20000E+00    3.97410E+01
 2.40000E+00    3.22618E+01
 2.60000E+00    2.60595E+01
 2.80000E+00    2.09939E+01
 3.00000E+00    1.68726E+01
 3.20000E+00    1.35207E+01
 3.40000E+00    1.08202E+01
 3.60000E+00    8.64821E+00
 3.80000E+00    6.90079E+00
 4.00000E+00    5.50229E+00
 4.20000E+00    4.38761E+00
 4.40000E+00    3.50268E+00
 4.60000E+00    2.80087E+00
 4.80000E+00    2.24581E+00
 5.00000E+00    1.80779E+00
 5.20000E+00    1.46139E+00
 5.40000E+00    1.18758E+00
 5.60000E+00    9.70920E-01
 5.80000E+00    7.98654E-01
 6.00000E+00    6.62675E-01
 6.20000E+00    5.54034E-01
 6.40000E+00    4.66430E-01
 6.60000E+00    3.97680E-01
 6.80000E+00    3.41481E-01
 7.00000E+00    2.96706E-01
 7.20000E+00    2.60473E-01
 7.40000E+00    2.30467E-01
 7.60000E+00    2.06694E-01
 7.80000E+00    1.87016E-01
 8.00000E+00    1.71146E-01
 8.50000E+00    1.42891E-01
 9.00000E+00    1.25564E-01
 9.50000E+00    1.14806E-01
 1.00000E+01    1.08085E-01
 1.05000E+01    1.03879E-01
 1.10000E+01    1.01253E-01
 1.15000E+01    9.96298E-02
 1.20000E+01    9.86485E-02
 1.25000E+01    9.80691E-02
 1.30000E+01    9.77297E-02
 1.35000E+01    9.75212E-02
 1.40000E+01    9.73731E-02
 1.45000E+01    9.72418E-02
 1.50000E+01    9.71064E-02
 1.60000E+01    9.68035E-02
 1.70000E+01    9.64939E-02
 1.80000E+01    9.62365E-02
 1.90000E+01    9.60538E-02
 2.00000E+01    9.59191E-02
 2.10000E+01    9.57644E-02
 2.20000E+01    9.55109E-02
 2.30000E+01    9.50958E-02
 2.40000E+01    9.44887E-02
 2.50000E+01    9.36932E-02
 2.60000E+01    9.27371E-02
 2.70000E+01    9.16584E-02
 2.80000E+01    9.04929E-02
 2.90000E+01    8.92692E-02
 3.00000E+01    8.80053E-02
