# n + Br 81 : (n,n'09)  
# tendl.2019 A.J. Koning and D. Rochman        EVAL-NOV19
# uncertainties: n
# # energies =    88
#   E(MeV)       xs(mb) 
 8.47211E-01    0.00000E+00
 9.00000E-01    2.78206E+01
 9.17294E-01    3.35090E+01
 9.87154E-01    5.64874E+01
 1.00000E+00    6.07127E+01
 1.03646E+00    6.71000E+01
 1.08962E+00    7.64129E+01
 1.11908E+00    8.15739E+01
 1.18458E+00    9.30486E+01
 1.19147E+00    9.42557E+01
 1.20000E+00    9.57500E+01
 1.20473E+00    9.59162E+01
 1.25331E+00    9.76236E+01
 1.28219E+00    9.86386E+01
 1.29940E+00    9.92434E+01
 1.31621E+00    9.98342E+01
 1.33949E+00    1.00652E+02
 1.34385E+00    1.00806E+02
 1.36663E+00    1.01606E+02
 1.38860E+00    1.02378E+02
 1.40000E+00    1.02779E+02
 1.41836E+00    1.02381E+02
 1.50017E+00    1.00605E+02
 1.53176E+00    9.99192E+01
 1.54128E+00    9.97125E+01
 1.55505E+00    9.94137E+01
 1.60000E+00    9.84380E+01
 1.80000E+00    8.70617E+01
 2.00000E+00    7.35387E+01
 2.20000E+00    6.07625E+01
 2.40000E+00    4.97269E+01
 2.60000E+00    4.05233E+01
 2.80000E+00    3.29329E+01
 3.00000E+00    2.66596E+01
 3.20000E+00    2.14556E+01
 3.40000E+00    1.71743E+01
 3.60000E+00    1.36652E+01
 3.80000E+00    1.08035E+01
 4.00000E+00    8.49749E+00
 4.20000E+00    6.65932E+00
 4.40000E+00    5.20895E+00
 4.60000E+00    4.07193E+00
 4.80000E+00    3.18679E+00
 5.00000E+00    2.50172E+00
 5.20000E+00    1.97142E+00
 5.40000E+00    1.56121E+00
 5.60000E+00    1.24554E+00
 5.80000E+00    9.99880E-01
 6.00000E+00    8.10756E-01
 6.20000E+00    6.63347E-01
 6.40000E+00    5.47064E-01
 6.60000E+00    4.57848E-01
 6.80000E+00    3.86380E-01
 7.00000E+00    3.30475E-01
 7.20000E+00    2.86045E-01
 7.40000E+00    2.49868E-01
 7.60000E+00    2.21582E-01
 7.80000E+00    1.98497E-01
 8.00000E+00    1.80080E-01
 8.50000E+00    1.47836E-01
 9.00000E+00    1.28459E-01
 9.50000E+00    1.16620E-01
 1.00000E+01    1.09319E-01
 1.05000E+01    1.04802E-01
 1.10000E+01    1.02008E-01
 1.15000E+01    1.00296E-01
 1.20000E+01    9.92646E-02
 1.25000E+01    9.86545E-02
 1.30000E+01    9.82919E-02
 1.35000E+01    9.80618E-02
 1.40000E+01    9.78918E-02
 1.45000E+01    9.77383E-02
 1.50000E+01    9.75814E-02
 1.60000E+01    9.72424E-02
 1.70000E+01    9.69083E-02
 1.80000E+01    9.66373E-02
 1.90000E+01    9.64477E-02
 2.00000E+01    9.63074E-02
 2.10000E+01    9.61445E-02
 2.20000E+01    9.58772E-02
 2.30000E+01    9.54427E-02
 2.40000E+01    9.48123E-02
 2.50000E+01    9.39924E-02
 2.60000E+01    9.30134E-02
 2.70000E+01    9.19147E-02
 2.80000E+01    9.07323E-02
 2.90000E+01    8.94946E-02
 3.00000E+01    8.82187E-02
