# n + Sc 45 : (n,a)     
# jendl4.0   T.WATANABE                        EVAL-AUG88
# uncertainties: n
# # energies =    26
#   E(MeV)       xs(mb) 
 4.05900E-01    0.00000E+00
 1.00000E+00    1.00000E+00
 2.00000E+00    2.50000E+00
 3.00000E+00    4.00000E+00
 4.00000E+00    5.00000E+00
 5.00000E+00    7.00000E+00
 6.00000E+00    8.00000E+00
 7.00000E+00    1.00000E+01
 8.00000E+00    1.10000E+01
 9.00000E+00    1.40000E+01
 1.00000E+01    1.90000E+01
 1.10000E+01    2.60000E+01
 1.15000E+01    3.00000E+01
 1.20000E+01    3.60000E+01
 1.25000E+01    4.25000E+01
 1.30000E+01    4.70000E+01
 1.35000E+01    5.10000E+01
 1.40000E+01    5.35000E+01
 1.45000E+01    5.30000E+01
 1.50000E+01    5.10000E+01
 1.55000E+01    4.70000E+01
 1.60000E+01    4.00000E+01
 1.70000E+01    2.95000E+01
 1.80000E+01    2.65000E+01
 1.90000E+01    2.50000E+01
 2.00000E+01    2.34000E+01
