# n + Sc 45 : (n,el)    
# jendl4.0   T.WATANABE                        EVAL-AUG88
# uncertainties: n
# # energies =    69
#   E(MeV)       xs(mb) 
 1.00000E-10    3.53097E+04
 5.00000E-09    2.34055E+04
 1.00000E-08    2.30093E+04
 1.50000E-08    2.28541E+04
 2.00000E-08    2.27695E+04
 2.50000E-08    2.27167E+04
 3.00000E-08    2.26797E+04
 3.50000E-08    2.26485E+04
 4.20000E-08    2.26206E+04
 5.00000E-08    2.25991E+04
 5.80000E-08    2.25814E+04
 6.70000E-08    2.25655E+04
 8.00000E-08    2.25471E+04
 1.00000E-07    2.25266E+04
 1.40000E-07    2.25082E+04
 1.80000E-07    2.24947E+04
 2.20000E-07    2.24849E+04
 2.50000E-07    2.24793E+04
 2.80000E-07    2.24745E+04
 3.00000E-07    2.24707E+04
 3.20000E-07    2.24660E+04
 3.50000E-07    2.24585E+04
 4.00000E-07    2.24461E+04
 5.00000E-07    2.24309E+04
 6.25000E-07    2.24122E+04
 7.80000E-07    2.23968E+04
 8.50000E-07    2.23880E+04
 9.10000E-07    2.23813E+04
 9.50000E-07    2.23771E+04
 9.72000E-07    2.23740E+04
 9.96000E-07    2.23708E+04
 1.02000E-06    2.23675E+04
 1.04500E-06    2.23641E+04
 1.07100E-06    2.23606E+04
 1.09700E-06    2.23574E+04
 1.12300E-06    2.23544E+04
 1.15000E-06    2.23445E+04
 1.30000E-06    2.23246E+04
 1.50000E-06    2.22806E+04
 2.10000E-06    2.22169E+04
 2.60000E-06    2.21490E+04
 3.30000E-06    2.20688E+04
 4.00000E-06    2.17421E+04
 9.87700E-06    2.10416E+04
 1.59680E-05    2.01480E+04
 2.77000E-05    1.86658E+04
 4.80520E-05    1.67251E+04
 7.55014E-05    1.37616E+04
 1.48728E-04    8.78748E+03
 3.67262E-04    3.61127E+03
 9.06898E-04    1.04568E+03
 1.42510E-03    2.91220E+02
 2.23945E-03    3.00140E+04
 3.51910E-03    8.61501E+04
 5.53000E-03    2.81724E+04
 9.11800E-03    2.08666E+04
 1.50300E-02    1.12930E+04
 2.47800E-02    7.72593E+03
 4.08500E-02    8.52408E+03
 6.73400E-02    9.75428E+03
 1.11000E-01    4.84761E+03
 1.83000E-01    3.80199E+03
 3.02000E-01    3.06291E+03
 5.00000E-01    2.63348E+03
 8.21000E-01    2.46544E+03
 1.35300E+00    2.41754E+03
 2.23100E+00    2.44021E+03
 3.67900E+00    2.32720E+03
 6.06500E+00    1.86965E+03
