# n + Sc 45 : (n,n'10)  
# jendl4.0   T.WATANABE                        EVAL-AUG88
# uncertainties: n
# # energies =    27
#   E(MeV)       xs(mb) 
 1.44051E+00    0.00000E+00
 1.46587E+00    6.35939E+01
 1.50000E+00    7.93488E+01
 1.59132E+00    9.35426E+01
 1.69960E+00    9.90246E+01
 1.75000E+00    9.57581E+01
 1.84080E+00    9.67312E+01
 1.94263E+00    9.84660E+01
 2.00000E+00    9.89050E+01
 3.00000E+00    8.84161E+01
 4.00000E+00    5.14262E+01
 5.00000E+00    2.44146E+01
 6.00000E+00    1.09974E+01
 7.00000E+00    4.94230E+00
 8.00000E+00    2.28238E+00
 9.00000E+00    1.09062E+00
 1.00000E+01    5.27772E-01
 1.10000E+01    2.53899E-01
 1.20000E+01    1.19499E-01
 1.30000E+01    5.21889E-02
 1.40000E+01    2.19357E-02
 1.50000E+01    9.66137E-03
 1.60000E+01    4.65598E-03
 1.70000E+01    2.32361E-03
 1.80000E+01    1.17325E-03
 1.90000E+01    6.19263E-04
 2.00000E+01    3.18578E-04
