# n + Sc 45 : (n,n'01)  
# jendl4.0   T.WATANABE                        EVAL-AUG88
# uncertainties: n
# # energies =    47
#   E(MeV)       xs(mb) 
 1.26782E-02    0.00000E+00
 2.00000E-02    6.88448E+00
 3.00000E-02    1.04533E+01
 5.00000E-02    1.62642E+01
 7.00000E-02    2.07961E+01
 1.00000E-01    2.65515E+01
 2.00000E-01    4.18368E+01
 3.00000E-01    5.43204E+01
 3.85050E-01    6.33443E+01
 4.50000E-01    6.16371E+01
 5.55183E-01    6.75747E+01
 7.00000E-01    6.21926E+01
 7.36359E-01    6.30330E+01
 9.60273E-01    5.96944E+01
 9.96467E-01    5.97924E+01
 1.00000E+00    5.57765E+01
 1.09114E+00    5.16233E+01
 1.25000E+00    4.89195E+01
 1.26496E+00    4.88277E+01
 1.33264E+00    4.80524E+01
 1.44051E+00    4.62768E+01
 1.46587E+00    4.50813E+01
 1.50000E+00    4.28307E+01
 1.59132E+00    4.11692E+01
 1.69960E+00    3.89430E+01
 1.75000E+00    3.79185E+01
 1.84080E+00    3.66121E+01
 1.94263E+00    3.41648E+01
 2.00000E+00    3.30786E+01
 3.00000E+00    1.76249E+01
 4.00000E+00    1.00345E+01
 5.00000E+00    5.81417E+00
 6.00000E+00    3.20590E+00
 7.00000E+00    1.73198E+00
 8.00000E+00    9.40896E-01
 9.00000E+00    5.07738E-01
 1.00000E+01    2.68382E-01
 1.10000E+01    1.38319E-01
 1.20000E+01    6.84800E-02
 1.30000E+01    3.06132E-02
 1.40000E+01    1.27379E-02
 1.50000E+01    5.39886E-03
 1.60000E+01    2.46843E-03
 1.70000E+01    1.17050E-03
 1.80000E+01    5.68535E-04
 1.90000E+01    2.93542E-04
 2.00000E+01    1.50058E-04
