# n + Sc 45 : (n,n'02)  
# jendl4.0   T.WATANABE                        EVAL-AUG88
# uncertainties: n
# # energies =    41
#   E(MeV)       xs(mb) 
 3.85050E-01    0.00000E+00
 3.85440E-01    1.12618E-01
 4.50000E-01    1.93898E+01
 5.00000E-01    2.52845E+01
 5.55183E-01    3.17422E+01
 7.00000E-01    4.75832E+01
 7.36359E-01    5.23453E+01
 9.60273E-01    7.21251E+01
 9.96467E-01    7.63752E+01
 1.00000E+00    7.64599E+01
 1.09114E+00    8.63009E+01
 1.25000E+00    9.66673E+01
 1.26496E+00    9.80365E+01
 1.33264E+00    1.03864E+02
 1.44051E+00    1.12036E+02
 1.46587E+00    1.08012E+02
 1.50000E+00    1.08578E+02
 1.59132E+00    1.12179E+02
 1.69960E+00    1.13088E+02
 1.75000E+00    1.11923E+02
 1.84080E+00    1.13504E+02
 1.94263E+00    1.14681E+02
 2.00000E+00    1.14353E+02
 3.00000E+00    7.89516E+01
 4.00000E+00    4.93147E+01
 5.00000E+00    3.48314E+01
 6.00000E+00    2.74687E+01
 7.00000E+00    2.36372E+01
 8.00000E+00    2.19343E+01
 9.00000E+00    2.12516E+01
 1.00000E+01    2.08493E+01
 1.10000E+01    2.03907E+01
 1.20000E+01    1.98573E+01
 1.30000E+01    1.93524E+01
 1.40000E+01    1.89498E+01
 1.50000E+01    1.86306E+01
 1.60000E+01    1.83107E+01
 1.70000E+01    1.83093E+01
 1.80000E+01    1.83087E+01
 1.90000E+01    1.83083E+01
 2.00000E+01    1.83082E+01
