# n + Sc 45 : (n,n'11)  
# jendl4.0   T.WATANABE                        EVAL-AUG88
# uncertainties: n
# # energies =    26
#   E(MeV)       xs(mb) 
 1.46587E+00    0.00000E+00
 1.50000E+00    1.98747E+01
 1.59132E+00    2.89116E+01
 1.69960E+00    3.58008E+01
 1.75000E+00    3.66784E+01
 1.84080E+00    3.94940E+01
 1.94263E+00    4.19205E+01
 2.00000E+00    4.25060E+01
 3.00000E+00    3.16482E+01
 4.00000E+00    1.87614E+01
 5.00000E+00    1.05874E+01
 6.00000E+00    5.84580E+00
 7.00000E+00    3.16522E+00
 8.00000E+00    1.69859E+00
 9.00000E+00    9.10964E-01
 1.00000E+01    4.84798E-01
 1.10000E+01    2.53164E-01
 1.20000E+01    1.26950E-01
 1.30000E+01    5.73525E-02
 1.40000E+01    2.40944E-02
 1.50000E+01    1.03157E-02
 1.60000E+01    4.77000E-03
 1.70000E+01    2.28910E-03
 1.80000E+01    1.12500E-03
 1.90000E+01    5.87075E-04
 2.00000E+01    3.02930E-04
