# n + Sc 45 : (n,n')    
# jendl4.0   T.WATANABE                        EVAL-AUG88
# uncertainties: n
# # energies =    54
#   E(MeV)       xs(mb) 
 1.26782E-02    0.00000E+00
 2.00000E-02    6.88448E+00
 3.00000E-02    1.04533E+01
 5.00000E-02    1.62642E+01
 7.00000E-02    2.07961E+01
 1.00000E-01    2.65515E+01
 2.00000E-01    4.18368E+01
 3.00000E-01    5.43204E+01
 3.85050E-01    6.33443E+01
 3.85440E-01    6.34467E+01
 4.50000E-01    8.10269E+01
 5.00000E-01    8.97441E+01
 5.55183E-01    9.93169E+01
 7.00000E-01    1.57985E+02
 7.36130E-01    1.67931E+02
 7.36359E-01    1.67996E+02
 9.60030E-01    3.01266E+02
 9.60273E-01    3.01415E+02
 9.96467E-01    3.12034E+02
 1.00000E+00    3.22410E+02
 1.09090E+00    3.61202E+02
 1.09114E+00    3.61306E+02
 1.25000E+00    4.21792E+02
 1.26470E+00    4.26471E+02
 1.26496E+00    4.26563E+02
 1.33264E+00    5.38011E+02
 1.44051E+00    5.87309E+02
 1.46587E+00    6.40327E+02
 1.50000E+00    6.70989E+02
 1.59132E+00    7.11909E+02
 1.69920E+00    7.51657E+02
 1.69960E+00    7.51817E+02
 1.75000E+00    8.05995E+02
 1.84080E+00    8.37371E+02
 1.94263E+00    8.64289E+02
 2.00000E+00    8.82273E+02
 3.00000E+00    1.07908E+03
 4.00000E+00    1.10513E+03
 5.00000E+00    1.07973E+03
 6.00000E+00    1.01583E+03
 7.00000E+00    9.60242E+02
 8.00000E+00    9.35245E+02
 9.00000E+00    9.25498E+02
 1.00000E+01    9.17972E+02
 1.10000E+01    9.08502E+02
 1.20000E+01    8.81573E+02
 1.30000E+01    7.87927E+02
 1.40000E+01    6.63163E+02
 1.50000E+01    5.66525E+02
 1.60000E+01    5.12392E+02
 1.70000E+01    4.73476E+02
 1.80000E+01    4.40508E+02
 1.90000E+01    4.24487E+02
 2.00000E+01    4.00368E+02
