# n + Sc 45 : (n,n'03)  
# jendl4.0   T.WATANABE                        EVAL-AUG88
# uncertainties: n
# # energies =    37
#   E(MeV)       xs(mb) 
 5.55183E-01    0.00000E+00
 7.00000E-01    4.82088E+01
 7.36359E-01    5.26162E+01
 9.60273E-01    6.57825E+01
 9.96467E-01    6.77382E+01
 1.00000E+00    6.48112E+01
 1.09114E+00    6.46563E+01
 1.25000E+00    6.67614E+01
 1.26496E+00    6.69417E+01
 1.33264E+00    6.70906E+01
 1.44051E+00    6.64857E+01
 1.46587E+00    6.39176E+01
 1.50000E+00    5.93435E+01
 1.59132E+00    5.73718E+01
 1.69960E+00    5.54932E+01
 1.75000E+00    5.39545E+01
 1.84080E+00    5.25169E+01
 1.94263E+00    4.96996E+01
 2.00000E+00    4.83135E+01
 3.00000E+00    2.58396E+01
 4.00000E+00    1.40383E+01
 5.00000E+00    7.97409E+00
 6.00000E+00    4.42531E+00
 7.00000E+00    2.38354E+00
 8.00000E+00    1.28825E+00
 9.00000E+00    6.94671E-01
 1.00000E+01    3.67976E-01
 1.10000E+01    1.90040E-01
 1.20000E+01    9.42034E-02
 1.30000E+01    4.21722E-02
 1.40000E+01    1.75972E-02
 1.50000E+01    7.49341E-03
 1.60000E+01    3.44677E-03
 1.70000E+01    1.64489E-03
 1.80000E+01    8.03647E-04
 1.90000E+01    4.16920E-04
 2.00000E+01    2.13895E-04
