# n + Sc 45 : (n,n'05)  
# jendl4.0   T.WATANABE                        EVAL-AUG88
# uncertainties: n
# # energies =    35
#   E(MeV)       xs(mb) 
 9.60030E-01    0.00000E+00
 9.60273E-01    4.37923E-03
 9.96467E-01    9.43316E-01
 1.00000E+00    1.03031E+00
 1.09114E+00    2.22220E+00
 1.25000E+00    4.06181E+00
 1.26496E+00    4.23471E+00
 1.33264E+00    5.01842E+00
 1.44051E+00    6.15311E+00
 1.46587E+00    6.41660E+00
 1.50000E+00    6.77102E+00
 1.59132E+00    7.69573E+00
 1.69960E+00    8.45222E+00
 1.75000E+00    8.87747E+00
 1.84080E+00    9.62960E+00
 1.94263E+00    1.01954E+01
 2.00000E+00    1.05465E+01
 3.00000E+00    1.31307E+01
 4.00000E+00    1.24222E+01
 5.00000E+00    1.14836E+01
 6.00000E+00    1.08042E+01
 7.00000E+00    1.01436E+01
 8.00000E+00    9.70840E+00
 9.00000E+00    9.52738E+00
 1.00000E+01    9.43620E+00
 1.10000E+01    9.30180E+00
 1.20000E+01    9.10394E+00
 1.30000E+01    8.89103E+00
 1.40000E+01    8.71055E+00
 1.50000E+01    8.56933E+00
 1.60000E+01    8.43761E+00
 1.70000E+01    8.43698E+00
 1.80000E+01    8.43668E+00
 1.90000E+01    8.43655E+00
 2.00000E+01    8.43647E+00
