# n + Sc 45 : (n,n'09)  
# jendl4.0   T.WATANABE                        EVAL-AUG88
# uncertainties: n
# # energies =    28
#   E(MeV)       xs(mb) 
 1.33264E+00    0.00000E+00
 1.44051E+00    3.33693E+00
 1.46587E+00    3.73185E+00
 1.50000E+00    4.27335E+00
 1.59132E+00    5.65006E+00
 1.69960E+00    6.87038E+00
 1.75000E+00    7.44306E+00
 1.84080E+00    8.39354E+00
 1.94263E+00    9.08359E+00
 2.00000E+00    9.43698E+00
 3.00000E+00    9.59162E+00
 4.00000E+00    6.51139E+00
 5.00000E+00    4.06311E+00
 6.00000E+00    2.43757E+00
 7.00000E+00    1.39309E+00
 8.00000E+00    7.74224E-01
 9.00000E+00    4.25473E-01
 1.00000E+01    2.30073E-01
 1.10000E+01    1.21346E-01
 1.20000E+01    6.12659E-02
 1.30000E+01    2.78229E-02
 1.40000E+01    1.17374E-02
 1.50000E+01    5.03930E-03
 1.60000E+01    2.33204E-03
 1.70000E+01    1.11741E-03
 1.80000E+01    5.47024E-04
 1.90000E+01    2.83829E-04
 2.00000E+01    1.45464E-04
