# n + Se  0 : (n,non)
# jendl4.0   S.Kamada, K.Shibata, A.Ichihara+  EVAL-MAY09
# uncertainties: n
# # energies =   103
#   E(MeV)          xs(mb) 
 2.70000E-03    9.41914E+00
 2.70000E-03    9.41914E+00
 3.00000E-03    1.62440E+02
 4.00000E-03    1.33339E+02
 5.00000E-03    1.15268E+02
 6.00000E-03    1.02825E+02
 7.00000E-03    9.36742E+01
 8.00000E-03    8.66083E+01
 9.00000E-03    8.09071E+01
 1.00000E-02    1.07284E+02
 2.00000E-02    1.20472E+02
 3.00000E-02    9.43345E+01
 4.00000E-02    7.94305E+01
 5.00000E-02    7.00481E+01
 6.00000E-02    6.37654E+01
 7.00000E-02    5.92370E+01
 8.00000E-02    5.56500E+01
 9.00000E-02    5.27534E+01
 1.00000E-01    5.04602E+01
 1.64045E-01    4.27034E+01
 1.77605E-01    4.18470E+01
 2.00000E-01    4.08168E+01
 2.42133E-01    3.86396E+01
 2.53063E-01    4.39636E+01
 3.00000E-01    7.90717E+01
 3.05099E-01    8.05093E+01
 4.00000E-01    1.26196E+02
 4.45215E-01    1.33570E+02
 5.00000E-01    1.49209E+02
 5.27466E-01    1.51012E+02
 5.88630E-01    1.81533E+02
 6.00000E-01    1.93254E+02
 6.89023E-01    3.79092E+02
 7.00000E-01    4.48446E+02
 8.00000E-01    7.18705E+02
 8.06592E-01    7.28908E+02
 8.18783E-01    7.47913E+02
 8.28581E-01    7.63348E+02
 8.35242E-01    7.74379E+02
 9.00000E-01    8.85079E+02
 9.23484E-01    9.08144E+02
 9.59401E-01    9.45991E+02
 9.82760E-01    9.72279E+02
 9.91129E-01    9.81698E+02
 1.00000E+00    9.91690E+02
 1.01230E+00    9.93227E+02
 1.01836E+00    9.94053E+02
 1.03757E+00    9.96999E+02
 1.14141E+00    1.01312E+03
 1.14290E+00    1.01342E+03
 1.14731E+00    1.01435E+03
 1.18786E+00    1.02321E+03
 1.19476E+00    1.02474E+03
 1.20255E+00    1.02648E+03
 1.20875E+00    1.02798E+03
 1.24676E+00    1.03890E+03
 1.26939E+00    1.04728E+03
 1.29962E+00    1.05899E+03
 1.36929E+00    1.10375E+03
 1.38216E+00    1.11404E+03
 1.42088E+00    1.14560E+03
 1.43014E+00    1.15349E+03
 1.45787E+00    1.17868E+03
 1.50000E+00    1.26444E+03
 1.50776E+00    1.26472E+03
 1.53083E+00    1.26709E+03
 1.54096E+00    1.26890E+03
 2.00000E+00    1.58467E+03
 2.50000E+00    1.82781E+03
 3.00000E+00    1.99494E+03
 3.50000E+00    2.11548E+03
 4.00000E+00    2.11308E+03
 4.50000E+00    2.07416E+03
 5.00000E+00    2.02604E+03
 5.50000E+00    1.98113E+03
 5.80207E+00    1.95834E+03
 6.00000E+00    1.94341E+03
 6.50000E+00    1.91516E+03
 7.00000E+00    1.89420E+03
 7.47120E+00    1.87902E+03
 7.50000E+00    1.87810E+03
 7.51614E+00    1.87755E+03
 8.00000E+00    1.86483E+03
 8.50000E+00    1.85292E+03
 8.55642E+00    1.85167E+03
 9.00000E+00    1.84192E+03
 9.50000E+00    1.83152E+03
 9.72493E+00    1.82716E+03
 9.72899E+00    1.82708E+03
 1.00000E+01    1.82183E+03
 1.10000E+01    1.80379E+03
 1.20000E+01    1.78724E+03
 1.30000E+01    1.77234E+03
 1.40000E+01    1.75701E+03
 1.45000E+01    1.74874E+03
 1.48957E+01    1.74225E+03
 1.50000E+01    1.74054E+03
 1.60000E+01    1.72285E+03
 1.70000E+01    1.70447E+03
 1.80000E+01    1.68712E+03
 1.88168E+01    1.67441E+03
 1.90000E+01    1.67157E+03
 2.00000E+01    1.65732E+03
