# n + Se  0 : (n,xa)
# jendl4.0   S.Kamada, K.Shibata, A.Ichihara+  EVAL-MAY09
#
# # energies =    76
#   E(MeV)          xs(mb) 
 1.64045E-01    0.00000E+00
 1.77605E-01    0.00000E+00
 2.00000E-01    0.00000E+00
 2.42133E-01    0.00000E+00
 2.53063E-01    0.00000E+00
 3.00000E-01    0.00000E+00
 3.05099E-01    0.00000E+00
 4.00000E-01    0.00000E+00
 4.45215E-01    0.00000E+00
 5.00000E-01    0.00000E+00
 5.27466E-01    0.00000E+00
 5.88630E-01    0.00000E+00
 6.00000E-01    0.00000E+00
 6.89023E-01    0.00000E+00
 7.00000E-01    0.00000E+00
 8.00000E-01    0.00000E+00
 8.06592E-01    0.00000E+00
 8.18783E-01    0.00000E+00
 8.28581E-01    0.00000E+00
 8.35242E-01    0.00000E+00
 9.00000E-01    0.00000E+00
 9.23484E-01    0.00000E+00
 9.59401E-01    0.00000E+00
 9.82760E-01    0.00000E+00
 9.91129E-01    0.00000E+00
 1.00000E+00    0.00000E+00
 1.01230E+00    1.35532E-06
 1.01836E+00    2.02268E-06
 1.03757E+00    4.13879E-06
 1.14141E+00    1.55785E-05
 1.14290E+00    1.57424E-05
 1.14731E+00    1.62279E-05
 1.18786E+00    2.06945E-05
 1.19476E+00    2.14556E-05
 1.20255E+00    2.23128E-05
 1.20875E+00    2.29958E-05
 1.24676E+00    2.71832E-05
 1.26939E+00    2.96765E-05
 1.29962E+00    3.30069E-05
 1.36929E+00    4.06820E-05
 1.38216E+00    4.20995E-05
 1.42088E+00    4.63651E-05
 1.43014E+00    4.73851E-05
 1.45787E+00    5.04399E-05
 1.50000E+00    5.50810E-05
 1.50776E+00    8.92008E-05
 1.53083E+00    1.90725E-04
 1.54096E+00    2.35292E-04
 2.00000E+00    2.25466E-03
 2.50000E+00    7.41026E-03
 3.00000E+00    1.63805E-02
 3.50000E+00    3.45296E-02
 4.00000E+00    6.17746E-02
 4.50000E+00    1.03780E-01
 5.00000E+00    1.58166E-01
 5.50000E+00    2.25034E-01
 6.00000E+00    3.11366E-01
 6.50000E+00    4.03020E-01
 7.00000E+00    5.14424E-01
 7.50000E+00    6.19437E-01
 8.00000E+00    7.19283E-01
 8.50000E+00    8.27258E-01
 9.00000E+00    9.01124E-01
 9.50000E+00    9.92157E-01
 1.00000E+01    1.05594E+00
 1.10000E+01    1.26459E+00
 1.20000E+01    1.67897E+00
 1.30000E+01    2.31877E+00
 1.40000E+01    3.27270E+00
 1.45000E+01    3.85548E+00
 1.50000E+01    4.60046E+00
 1.60000E+01    6.31442E+00
 1.70000E+01    8.29899E+00
 1.80000E+01    1.03765E+01
 1.90000E+01    1.25041E+01
 2.00000E+01    1.45843E+01
