# n + Pb204 : (n,n'10)  
# tendl.2019 A.J. Koning and D. Rochman        EVAL-NOV19
# uncertainties: n
# # energies =    82
#   E(MeV)       xs(mb) 
 1.72072E+00    0.00000E+00
 1.73854E+00    7.97325E+00
 1.76981E+00    2.19644E+01
 1.80000E+00    3.54724E+01
 1.82653E+00    4.21580E+01
 1.88137E+00    5.59778E+01
 1.94285E+00    7.14710E+01
 1.95797E+00    7.52812E+01
 1.97008E+00    7.83330E+01
 2.00000E+00    8.58729E+01
 2.07554E+00    9.43557E+01
 2.11591E+00    9.88891E+01
 2.16869E+00    1.04816E+02
 2.19669E+00    1.07960E+02
 2.20000E+00    1.08332E+02
 2.21282E+00    1.08580E+02
 2.24954E+00    1.09292E+02
 2.26932E+00    1.09675E+02
 2.27562E+00    1.09797E+02
 2.28023E+00    1.09886E+02
 2.31531E+00    1.10566E+02
 2.32303E+00    1.10715E+02
 2.32774E+00    1.10806E+02
 2.35000E+00    1.11238E+02
 2.40000E+00    1.12206E+02
 2.60000E+00    1.03070E+02
 2.80000E+00    9.06399E+01
 3.00000E+00    7.85499E+01
 3.20000E+00    6.79142E+01
 3.40000E+00    5.86479E+01
 3.60000E+00    5.03689E+01
 3.80000E+00    4.28107E+01
 4.00000E+00    3.59157E+01
 4.20000E+00    2.97243E+01
 4.40000E+00    2.42911E+01
 4.60000E+00    1.96301E+01
 4.80000E+00    1.57130E+01
 5.00000E+00    1.24782E+01
 5.20000E+00    9.84662E+00
 5.40000E+00    7.71848E+00
 5.60000E+00    6.03091E+00
 5.80000E+00    4.70335E+00
 6.00000E+00    3.66402E+00
 6.20000E+00    2.85288E+00
 6.40000E+00    2.21918E+00
 6.60000E+00    1.72394E+00
 6.80000E+00    1.33994E+00
 7.00000E+00    1.03970E+00
 7.20000E+00    8.06338E-01
 7.40000E+00    6.26009E-01
 7.60000E+00    4.85688E-01
 7.80000E+00    3.77591E-01
 8.00000E+00    2.93924E-01
 8.50000E+00    1.58351E-01
 9.00000E+00    8.62187E-02
 9.50000E+00    4.72197E-02
 1.00000E+01    2.59475E-02
 1.05000E+01    1.42833E-02
 1.10000E+01    7.87301E-03
 1.15000E+01    4.34679E-03
 1.20000E+01    2.40659E-03
 1.25000E+01    1.33783E-03
 1.30000E+01    7.47375E-04
 1.35000E+01    4.19849E-04
 1.40000E+01    2.37227E-04
 1.45000E+01    1.34811E-04
 1.50000E+01    7.70339E-05
 1.60000E+01    2.55345E-05
 1.70000E+01    8.58984E-06
 1.80000E+01    2.94757E-06
 1.90000E+01    1.02931E-06
 2.00000E+01    3.65990E-07
 2.10000E+01    1.32550E-07
 2.20000E+01    4.88790E-08
 2.30000E+01    1.83250E-08
 2.40000E+01    6.98880E-09
 2.50000E+01    2.70430E-09
 2.60000E+01    1.06160E-09
 2.70000E+01    4.22170E-10
 2.80000E+01    1.69860E-10
 2.90000E+01    6.91930E-11
 3.00000E+01    2.85440E-11
