# n + Cr  0 : (n,xd)
# endfb8.0   S.Chiba,M.Chadwick,D.Hetrick      EVAL-OCT97
#
# # energies =    71
#   E(MeV)          xs(mb) 
 5.74746E-01    0.00000E+00
 8.00000E-01    0.00000E+00
 9.00000E-01    0.00000E+00
 1.00000E+00    0.00000E+00
 1.02520E+00    0.00000E+00
 1.25000E+00    0.00000E+00
 1.31460E+00    0.00000E+00
 1.50000E+00    0.00000E+00
 1.56630E+00    0.00000E+00
 1.75000E+00    0.00000E+00
 2.00000E+00    0.00000E+00
 2.01160E+00    0.00000E+00
 2.21340E+00    0.00000E+00
 2.25000E+00    0.00000E+00
 2.27550E+00    0.00000E+00
 2.36520E+00    0.00000E+00
 2.49970E+00    0.00000E+00
 2.50000E+00    0.00000E+00
 2.70660E+00    0.00000E+00
 2.72090E+00    0.00000E+00
 2.75000E+00    0.00000E+00
 2.75760E+00    0.00000E+00
 2.75860E+00    0.00000E+00
 2.82480E+00    0.00000E+00
 3.00000E+00    0.00000E+00
 3.50000E+00    0.00000E+00
 4.00000E+00    0.00000E+00
 4.50000E+00    0.00000E+00
 5.00000E+00    0.00000E+00
 5.50000E+00    0.00000E+00
 6.00000E+00    0.00000E+00
 6.50000E+00    0.00000E+00
 7.00000E+00    0.00000E+00
 7.50000E+00    0.00000E+00
 8.00000E+00    8.54158E-03
 8.50000E+00    1.73058E-02
 9.00000E+00    2.60700E-02
 9.50000E+00    3.47600E-02
 1.00000E+01    4.34500E-02
 1.10000E+01    1.30350E-01
 1.20000E+01    2.60700E-01
 1.30000E+01    3.91050E-01
 1.45000E+01    4.99675E-01
 1.60000E+01    5.11372E-01
 1.75000E+01    4.98841E-01
 2.00000E+01    4.77950E-01
 2.00000E+01    4.77950E-01
 2.20000E+01    3.10688E+01
 2.40000E+01    3.60997E+01
 2.60000E+01    4.15706E+01
 2.80000E+01    4.64668E+01
 3.00000E+01    5.08141E+01
 3.50000E+01    5.84493E+01
 4.00000E+01    6.27696E+01
 4.50000E+01    6.54486E+01
 5.00000E+01    6.61741E+01
 5.50000E+01    6.68201E+01
 6.00000E+01    6.68192E+01
 6.50000E+01    6.63071E+01
 7.00000E+01    6.65525E+01
 7.50000E+01    6.57537E+01
 8.00000E+01    6.56654E+01
 8.50000E+01    6.56873E+01
 9.00000E+01    6.60405E+01
 9.50000E+01    6.59691E+01
 1.00000E+02    6.64314E+01
 1.10000E+02    6.77768E+01
 1.20000E+02    6.91354E+01
 1.30000E+02    7.01831E+01
 1.40000E+02    7.19466E+01
 1.50000E+02    7.34739E+01
