# n + Cr  0 : (n,xn)
# endfb8.0   S.Chiba,M.Chadwick,D.Hetrick      EVAL-OCT97
#
# # energies =    71
#   E(MeV)          xs(mb) 
 5.74746E-01    0.00000E+00
 8.00000E-01    2.57063E+01
 9.00000E-01    5.06249E+01
 1.00000E+00    6.00712E+01
 1.02520E+00    6.14452E+01
 1.25000E+00    1.05135E+02
 1.31460E+00    1.08357E+02
 1.50000E+00    4.52622E+02
 1.56630E+00    4.98536E+02
 1.75000E+00    6.39234E+02
 2.00000E+00    7.37858E+02
 2.01160E+00    7.40932E+02
 2.21340E+00    8.03565E+02
 2.25000E+00    8.15418E+02
 2.27550E+00    8.17711E+02
 2.36520E+00    8.27276E+02
 2.49970E+00    8.72064E+02
 2.50000E+00    8.72201E+02
 2.70660E+00    9.03311E+02
 2.72090E+00    9.14983E+02
 2.75000E+00    9.40172E+02
 2.75760E+00    9.40587E+02
 2.75860E+00    9.40643E+02
 2.82480E+00    9.46185E+02
 3.00000E+00    9.97087E+02
 3.50000E+00    1.18303E+03
 4.00000E+00    1.28333E+03
 4.50000E+00    1.35540E+03
 5.00000E+00    1.39256E+03
 5.50000E+00    1.40707E+03
 6.00000E+00    1.41260E+03
 6.50000E+00    1.41052E+03
 7.00000E+00    1.39922E+03
 7.50000E+00    1.37737E+03
 8.00000E+00    1.35809E+03
 8.50000E+00    1.34393E+03
 9.00000E+00    1.33825E+03
 9.50000E+00    1.33878E+03
 1.00000E+01    1.34480E+03
 1.10000E+01    1.36915E+03
 1.20000E+01    1.38449E+03
 1.30000E+01    1.44129E+03
 1.45000E+01    1.62365E+03
 1.60000E+01    1.75012E+03
 1.75000E+01    1.82438E+03
 2.00000E+01    1.84399E+03
 2.00000E+01    1.84399E+03
 2.20000E+01    1.81893E+03
 2.40000E+01    1.77976E+03
 2.60000E+01    1.76144E+03
 2.80000E+01    1.76713E+03
 3.00000E+01    1.77921E+03
 3.50000E+01    1.78274E+03
 4.00000E+01    1.75795E+03
 4.50000E+01    1.76171E+03
 5.00000E+01    1.77509E+03
 5.50000E+01    1.78193E+03
 6.00000E+01    1.78749E+03
 6.50000E+01    1.79917E+03
 7.00000E+01    1.81362E+03
 7.50000E+01    1.82861E+03
 8.00000E+01    1.83785E+03
 8.50000E+01    1.85035E+03
 9.00000E+01    1.86626E+03
 9.50000E+01    1.88386E+03
 1.00000E+02    1.90064E+03
 1.10000E+02    1.93758E+03
 1.20000E+02    1.97544E+03
 1.30000E+02    2.00851E+03
 1.40000E+02    2.04008E+03
 1.50000E+02    2.07778E+03
