# n + Cr  0 : (n,any)
# endfb8.0   S.Chiba,M.Chadwick,D.Hetrick      EVAL-OCT97
# uncertainties: n
# # energies =   154
#   E(MeV)          xs(mb) 
 2.00000E+01    0.00000E+00
 2.00000E+01    0.00000E+00
 2.10000E+01    1.26543E+03
 2.13863E+01    1.25986E+03
 2.17135E+01    1.25511E+03
 2.19697E+01    1.25137E+03
 2.20000E+01    1.25093E+03
 2.24277E+01    1.24483E+03
 2.28433E+01    1.23907E+03
 2.30000E+01    1.23692E+03
 2.34049E+01    1.23139E+03
 2.40000E+01    1.22321E+03
 2.41316E+01    1.22137E+03
 2.50000E+01    1.20900E+03
 2.51522E+01    1.20679E+03
 2.60000E+01    1.19430E+03
 2.70000E+01    1.17961E+03
 2.75774E+01    1.17135E+03
 2.80000E+01    1.16540E+03
 2.81870E+01    1.16278E+03
 2.90000E+01    1.15146E+03
 2.90523E+01    1.15074E+03
 2.92937E+01    1.14748E+03
 3.00000E+01    1.13838E+03
 3.04365E+01    1.13311E+03
 3.05082E+01    1.13225E+03
 3.10000E+01    1.12649E+03
 3.20000E+01    1.11530E+03
 3.23357E+01    1.11169E+03
 3.27457E+01    1.10735E+03
 3.30000E+01    1.10469E+03
 3.40000E+01    1.09457E+03
 3.46205E+01    1.08849E+03
 3.49663E+01    1.08517E+03
 3.50000E+01    1.08484E+03
 3.60000E+01    1.07553E+03
 3.70000E+01    1.06659E+03
 3.80000E+01    1.05797E+03
 3.82481E+01    1.05587E+03
 3.85952E+01    1.05295E+03
 3.86878E+01    1.05218E+03
 3.89395E+01    1.05009E+03
 3.90000E+01    1.04959E+03
 4.00000E+01    1.04140E+03
 4.04258E+01    1.03796E+03
 4.05417E+01    1.03703E+03
 4.10000E+01    1.03338E+03
 4.16614E+01    1.02817E+03
 4.20000E+01    1.02554E+03
 4.30000E+01    1.01787E+03
 4.38806E+01    1.01127E+03
 4.38830E+01    1.01125E+03
 4.40000E+01    1.01038E+03
 4.49735E+01    1.00328E+03
 4.50000E+01    1.00309E+03
 4.53673E+01    1.00046E+03
 4.57535E+01    9.97715E+02
 4.60000E+01    9.95977E+02
 4.67682E+01    9.90639E+02
 4.70000E+01    9.89047E+02
 4.80000E+01    9.82282E+02
 4.90000E+01    9.75666E+02
 5.00000E+01    9.69190E+02
 5.02991E+01    9.67282E+02
 5.07172E+01    9.64635E+02
 5.10000E+01    9.62858E+02
 5.20000E+01    9.56673E+02
 5.30000E+01    9.50621E+02
 5.35976E+01    9.47062E+02
 5.37685E+01    9.46051E+02
 5.40000E+01    9.44685E+02
 5.50000E+01    9.38857E+02
 5.60000E+01    9.33145E+02
 5.70000E+01    9.27566E+02
 5.70412E+01    9.27340E+02
 5.72795E+01    9.26032E+02
 5.80000E+01    9.22116E+02
 5.86202E+01    9.18800E+02
 5.86682E+01    9.18545E+02
 5.88242E+01    9.17719E+02
 5.90000E+01    9.16791E+02
 6.00000E+01    9.11587E+02
 6.10000E+01    9.06499E+02
 6.20000E+01    9.01522E+02
 6.30000E+01    8.96652E+02
 6.40000E+01    8.91886E+02
 6.50000E+01    8.87218E+02
 6.60000E+01    8.82663E+02
 6.60012E+01    8.82658E+02
 6.60259E+01    8.82547E+02
 6.61415E+01    8.82029E+02
 6.70000E+01    8.78229E+02
 6.80000E+01    8.73903E+02
 6.90000E+01    8.69675E+02
 7.00000E+01    8.65536E+02
 7.02138E+01    8.64664E+02
 7.10000E+01    8.61496E+02
 7.19978E+01    8.57577E+02
 7.20000E+01    8.57568E+02
 7.30000E+01    8.53740E+02
 7.40000E+01    8.50004E+02
 7.47698E+01    8.47187E+02
 7.50000E+01    8.46352E+02
 7.60000E+01    8.42792E+02
 7.70000E+01    8.39331E+02
 7.79160E+01    8.36242E+02
 7.80000E+01    8.35962E+02
 7.90000E+01    8.32677E+02
 8.00000E+01    8.29471E+02
 8.10000E+01    8.26348E+02
 8.20000E+01    8.23312E+02
 8.30000E+01    8.20359E+02
 8.40000E+01    8.17483E+02
 8.50000E+01    8.14677E+02
 8.60000E+01    8.11946E+02
 8.70000E+01    8.09292E+02
 8.80000E+01    8.06711E+02
 8.90000E+01    8.04202E+02
 9.00000E+01    8.01761E+02
 9.10000E+01    7.99393E+02
 9.20000E+01    7.97097E+02
 9.30000E+01    7.94863E+02
 9.40000E+01    7.92684E+02
 9.50000E+01    7.90554E+02
 9.60000E+01    7.88478E+02
 9.70000E+01    7.86468E+02
 9.80000E+01    7.84519E+02
 9.90000E+01    7.82627E+02
 1.00000E+02    7.80788E+02
 1.02000E+02    7.77285E+02
 1.04000E+02    7.74007E+02
 1.06000E+02    7.70925E+02
 1.08000E+02    7.68014E+02
 1.10000E+02    7.65250E+02
 1.12000E+02    7.62644E+02
 1.14000E+02    7.60210E+02
 1.16000E+02    7.57935E+02
 1.18000E+02    7.55806E+02
 1.20000E+02    7.53811E+02
 1.22000E+02    7.51952E+02
 1.24000E+02    7.50225E+02
 1.26000E+02    7.48620E+02
 1.28000E+02    7.47120E+02
 1.30000E+02    7.45715E+02
 1.32000E+02    7.44414E+02
 1.34000E+02    7.43228E+02
 1.36000E+02    7.42153E+02
 1.38000E+02    7.41185E+02
 1.40000E+02    7.40320E+02
 1.42000E+02    7.39576E+02
 1.44000E+02    7.38964E+02
 1.46000E+02    7.38471E+02
 1.48000E+02    7.38083E+02
 1.50000E+02    7.37790E+02
