# n + Eu150 : (n,h)m    
# jendl.ad   N.Iwamoto                         EVAL-Apr14
# uncertainties: n
# # energies =    28
#   E(MeV)       xs(mb) 
 4.95630E+00    0.00000E+00
 7.00000E+00    2.45030E-35
 7.50000E+00    1.68230E-28
 8.00000E+00    3.35030E-24
 8.50000E+00    6.75100E-21
 9.00000E+00    2.84220E-18
 9.50000E+00    3.86140E-16
 1.00000E+01    2.23990E-14
 1.05000E+01    6.71400E-13
 1.10000E+01    1.04440E-11
 1.15000E+01    1.25500E-10
 1.20000E+01    1.05240E-09
 1.25000E+01    6.60310E-09
 1.30000E+01    3.25910E-08
 1.35000E+01    1.31490E-07
 1.40000E+01    4.47910E-07
 1.45000E+01    1.32349E-06
 1.50000E+01    3.47196E-06
 1.55000E+01    8.23920E-06
 1.60000E+01    1.79201E-05
 1.65000E+01    3.60731E-05
 1.70000E+01    6.86593E-05
 1.75000E+01    1.23908E-04
 1.80000E+01    2.12793E-04
 1.85000E+01    3.51362E-04
 1.90000E+01    5.54092E-04
 1.95000E+01    8.48522E-04
 2.00000E+01    1.24078E-03
