# n + Eu150 : (n,2na)   
# jendl.ad   N.Iwamoto                         EVAL-Apr14
# uncertainties: n
# # energies =    29
#   E(MeV)       xs(mb) 
 4.04679E+00    0.00000E+00
 6.50000E+00    2.00720E-29
 7.00000E+00    4.87540E-24
 7.50000E+00    3.78410E-20
 8.00000E+00    1.43620E-12
 8.50000E+00    2.00500E-11
 9.00000E+00    3.48360E-10
 9.50000E+00    7.31600E-09
 1.00000E+01    1.09670E-07
 1.05000E+01    1.13470E-06
 1.10000E+01    8.49638E-06
 1.15000E+01    4.84770E-05
 1.20000E+01    2.20135E-04
 1.25000E+01    8.40490E-04
 1.30000E+01    2.69807E-03
 1.35000E+01    7.45835E-03
 1.40000E+01    1.82199E-02
 1.45000E+01    3.97042E-02
 1.50000E+01    7.97508E-02
 1.55000E+01    1.45030E-01
 1.60000E+01    2.35045E-01
 1.65000E+01    3.37117E-01
 1.70000E+01    4.33515E-01
 1.75000E+01    5.17637E-01
 1.80000E+01    5.94172E-01
 1.85000E+01    6.72120E-01
 1.90000E+01    7.41057E-01
 1.95000E+01    8.32447E-01
 2.00000E+01    9.59480E-01
