# n + Eu150 : (n,xp)    
# jendl.ad   N.Iwamoto                         EVAL-Apr14
# 
# # energies =   110
#   E(MeV)        xs(mb) 
 4.23833E-02    2.42119E-04
 4.32893E-02    2.40242E-04
 5.00000E-02    2.29064E-04
 6.00000E-02    2.19303E-04
 7.00000E-02    2.14162E-04
 7.04710E-02    2.13932E-04
 8.00000E-02    2.11215E-04
 9.00000E-02    2.11882E-04
 1.00000E-01    2.14796E-04
 1.05000E-01    2.16896E-04
 1.10000E-01    2.19219E-04
 1.19801E-01    2.24766E-04
 1.20000E-01    2.24610E-04
 1.30000E-01    2.30531E-04
 1.40000E-01    2.38338E-04
 1.50000E-01    2.47375E-04
 1.60000E-01    2.57613E-04
 1.70000E-01    2.69632E-04
 1.80000E-01    2.82347E-04
 1.82218E-01    2.85230E-04
 1.90000E-01    2.89264E-04
 1.91278E-01    2.90614E-04
 1.96312E-01    2.93346E-04
 2.00000E-01    2.92590E-04
 2.25000E-01    3.18288E-04
 2.38594E-01    3.36510E-04
 2.38595E-01    3.36511E-04
 2.49669E-01    3.52392E-04
 2.50000E-01    3.52144E-04
 2.70810E-01    3.84055E-04
 2.75000E-01    3.82687E-04
 3.00000E-01    4.20182E-04
 3.23160E-01    4.64159E-04
 3.45308E-01    4.93882E-04
 3.62422E-01    5.27830E-04
 4.00000E-01    6.00411E-04
 4.09738E-01    6.26831E-04
 4.13765E-01    6.37757E-04
 4.19806E-01    6.48003E-04
 4.23832E-01    6.57798E-04
 4.23833E-01    6.57799E-04
 4.30880E-01    6.66325E-04
 4.61081E-01    7.28027E-04
 4.68128E-01    7.47638E-04
 4.68129E-01    7.47641E-04
 4.91283E-01    8.12076E-04
 4.99337E-01    8.27360E-04
 5.00000E-01    8.28618E-04
 5.14438E-01    8.70460E-04
 5.35579E-01    9.32821E-04
 5.65781E-01    1.02344E-03
 5.92761E-01    1.12089E-03
 5.92762E-01    1.12090E-03
 5.97996E-01    1.13934E-03
 6.00000E-01    1.14623E-03
 6.02023E-01    1.15318E-03
 6.05044E-01    1.16408E-03
 6.06050E-01    1.16788E-03
 7.00000E-01    1.54740E-03
 8.00000E-01    2.05050E-03
 9.00000E-01    2.59260E-03
 1.00000E+00    3.20742E-03
 1.10000E+00    3.87760E-03
 1.20000E+00    4.61517E-03
 1.30000E+00    5.41306E-03
 1.40000E+00    6.26222E-03
 1.50000E+00    7.18527E-03
 1.60000E+00    8.16282E-03
 1.70000E+00    9.18853E-03
 1.80000E+00    1.02580E-02
 1.90000E+00    1.13856E-02
 2.00000E+00    1.25497E-02
 2.25000E+00    1.55673E-02
 2.50000E+00    1.87698E-02
 2.75000E+00    2.20355E-02
 3.00000E+00    2.43293E-02
 3.50000E+00    2.91026E-02
 4.00000E+00    3.41436E-02
 4.50000E+00    4.27651E-02
 5.00000E+00    6.07610E-02
 5.50000E+00    9.75834E-02
 6.00000E+00    1.68105E-01
 6.50000E+00    2.93389E-01
 7.00000E+00    5.00049E-01
 7.50000E+00    8.19678E-01
 8.00000E+00    1.28420E+00
 8.50000E+00    1.92639E+00
 9.00000E+00    2.77200E+00
 9.50000E+00    3.84378E+00
 1.00000E+01    5.15122E+00
 1.05000E+01    6.70594E+00
 1.10000E+01    8.49955E+00
 1.15000E+01    1.05256E+01
 1.20000E+01    1.27747E+01
 1.25000E+01    1.52401E+01
 1.30000E+01    1.79181E+01
 1.35000E+01    2.08057E+01
 1.40000E+01    2.38955E+01
 1.45000E+01    2.71719E+01
 1.50000E+01    3.06111E+01
 1.55000E+01    3.41877E+01
 1.60000E+01    3.78824E+01
 1.65000E+01    4.16721E+01
 1.70000E+01    4.55445E+01
 1.75000E+01    4.94871E+01
 1.80000E+01    5.35094E+01
 1.85000E+01    5.76209E+01
 1.90000E+01    6.18293E+01
 1.95000E+01    6.61666E+01
 2.00000E+01    7.06437E+01
