# n + Eu150 : (n,t)     
# jendl.ad   N.Iwamoto                         EVAL-Apr14
# uncertainties: n
# # energies =    75
#   E(MeV)       xs(mb) 
 2.34929E+00    0.00000E+00
 2.90325E+00    2.23000E-24
 3.50000E+00    5.16380E-24
 3.51864E+00    2.83980E-19
 3.53750E+00    5.72820E-19
 3.78334E+00    4.35320E-18
 3.79294E+00    4.50080E-18
 3.81319E+00    4.81220E-18
 3.82022E+00    4.92030E-18
 3.82429E+00    4.98290E-18
 3.95427E+00    6.98160E-18
 4.00000E+00    7.68490E-18
 4.01986E+00    1.17150E-15
 4.02477E+00    1.45920E-15
 4.07865E+00    4.61650E-15
 4.09442E+00    5.54060E-15
 4.25686E+00    1.50590E-14
 4.26587E+00    1.55870E-14
 4.26803E+00    1.57140E-14
 4.28319E+00    1.66020E-14
 4.33505E+00    1.96410E-14
 4.39436E+00    2.31170E-14
 4.40403E+00    2.36830E-14
 4.42110E+00    2.46840E-14
 4.45898E+00    2.69030E-14
 4.47455E+00    2.78160E-14
 4.49226E+00    2.88540E-14
 4.50000E+00    2.93070E-14
 4.50621E+00    9.84650E-14
 4.51009E+00    1.41680E-13
 4.51124E+00    1.54480E-13
 4.55812E+00    6.76560E-13
 4.56912E+00    7.99070E-13
 4.57301E+00    8.42390E-13
 4.57841E+00    9.02530E-13
 4.59232E+00    1.05740E-12
 4.64161E+00    1.60640E-12
 4.64907E+00    1.68940E-12
 4.67843E+00    2.01640E-12
 4.68339E+00    2.07160E-12
 4.69204E+00    2.16800E-12
 4.69257E+00    2.17390E-12
 4.70424E+00    2.30380E-12
 4.70907E+00    2.35760E-12
 5.00000E+00    5.59760E-12
 5.50000E+00    1.93640E-10
 6.00000E+00    2.37510E-09
 6.50000E+00    1.49880E-08
 7.00000E+00    6.10230E-08
 7.50000E+00    2.10510E-07
 8.00000E+00    1.09906E-06
 8.50000E+00    8.44181E-06
 9.00000E+00    5.54927E-05
 9.50000E+00    2.76258E-04
 1.00000E+01    1.05031E-03
 1.05000E+01    3.37265E-03
 1.10000E+01    9.15681E-03
 1.15000E+01    2.15196E-02
 1.20000E+01    4.45334E-02
 1.25000E+01    8.23929E-02
 1.30000E+01    1.38392E-01
 1.35000E+01    2.14274E-01
 1.40000E+01    3.10162E-01
 1.45000E+01    4.24866E-01
 1.50000E+01    5.56316E-01
 1.55000E+01    6.99952E-01
 1.60000E+01    8.56385E-01
 1.65000E+01    1.02164E+00
 1.70000E+01    1.19255E+00
 1.75000E+01    1.35899E+00
 1.80000E+01    1.51923E+00
 1.85000E+01    1.66623E+00
 1.90000E+01    1.79710E+00
 1.95000E+01    1.90632E+00
 2.00000E+01    1.99184E+00
