# n + Eu150 : (n,d)     
# jendl.ad   N.Iwamoto                         EVAL-Apr14
# uncertainties: n
# # energies =    72
#   E(MeV)       xs(mb) 
 2.73805E+00    0.00000E+00
 2.76071E+00    3.66880E-20
 3.01699E+00    6.03650E-19
 3.02592E+00    1.52330E-18
 3.09045E+00    1.73550E-17
 3.13983E+00    3.00490E-17
 3.27021E+00    6.37800E-17
 3.30019E+00    7.15390E-17
 3.33292E+00    8.00120E-17
 3.37880E+00    9.18910E-17
 3.40109E+00    9.76620E-17
 3.40657E+00    9.90810E-17
 3.43974E+00    1.07670E-16
 3.45269E+00    1.11020E-16
 3.49063E+00    1.20850E-16
 3.52857E+00    1.30670E-16
 3.53284E+00    1.31900E-16
 3.57405E+00    1.45730E-16
 3.57689E+00    1.46730E-16
 3.57927E+00    1.47600E-16
 3.62261E+00    1.63990E-16
 3.62593E+00    1.65260E-16
 3.66976E+00    1.82250E-16
 3.69724E+00    1.92940E-16
 3.71156E+00    1.98510E-16
 3.73935E+00    2.09330E-16
 3.75686E+00    2.16150E-16
 3.78405E+00    2.26740E-16
 3.79311E+00    2.30280E-16
 3.82834E+00    2.44010E-16
 3.85854E+00    2.55790E-16
 3.86861E+00    2.59720E-16
 3.87812E+00    2.63430E-16
 3.89982E+00    2.71890E-16
 3.91915E+00    2.79430E-16
 3.92700E+00    2.82500E-16
 3.93304E+00    2.84850E-16
 3.93880E+00    2.87100E-16
 3.94109E+00    2.87990E-16
 4.00000E+00    3.10970E-16
 4.50000E+00    7.60790E-14
 5.00000E+00    3.27180E-11
 5.50000E+00    1.71130E-09
 6.00000E+00    2.67570E-08
 6.50000E+00    2.25410E-07
 7.00000E+00    2.15185E-06
 7.50000E+00    2.45730E-05
 8.00000E+00    2.09477E-04
 8.50000E+00    1.23539E-03
 9.00000E+00    5.36799E-03
 9.50000E+00    1.82838E-02
 1.00000E+01    5.11379E-02
 1.05000E+01    1.21300E-01
 1.10000E+01    2.49878E-01
 1.15000E+01    4.56104E-01
 1.20000E+01    7.09424E-01
 1.25000E+01    1.08493E+00
 1.30000E+01    1.54820E+00
 1.35000E+01    2.09036E+00
 1.40000E+01    2.69997E+00
 1.45000E+01    3.36405E+00
 1.50000E+01    4.06834E+00
 1.55000E+01    4.85359E+00
 1.60000E+01    5.56708E+00
 1.65000E+01    6.30139E+00
 1.70000E+01    6.90716E+00
 1.75000E+01    7.64223E+00
 1.80000E+01    8.24555E+00
 1.85000E+01    8.78898E+00
 1.90000E+01    9.33965E+00
 1.95000E+01    9.81561E+00
 2.00000E+01    1.03042E+01
