# n + Os186 : (n,n'13)  
# jeff3.3    A.J. Koning and D. Rochman        EVAL-DEC15
# uncertainties: n
# # energies =    80
#   E(MeV)       xs(mb) 
 1.46390E+00    0.00000E+00
 1.46884E+00    1.71222E+00
 1.48810E+00    8.38779E+00
 1.49938E+00    1.22974E+01
 1.56829E+00    3.61818E+01
 1.57952E+00    4.00741E+01
 1.60000E+00    4.71725E+01
 1.63200E+00    4.90796E+01
 1.63737E+00    4.93997E+01
 1.64971E+00    5.01351E+01
 1.66255E+00    5.09003E+01
 1.71385E+00    5.39577E+01
 1.76030E+00    5.67260E+01
 1.76402E+00    5.69477E+01
 1.78151E+00    5.79901E+01
 1.78428E+00    5.81551E+01
 1.78543E+00    5.82237E+01
 1.80000E+00    5.90920E+01
 1.82245E+00    5.81608E+01
 1.85845E+00    5.66675E+01
 2.00000E+00    5.07961E+01
 2.20000E+00    3.51088E+01
 2.40000E+00    2.22053E+01
 2.60000E+00    1.36565E+01
 2.80000E+00    8.37248E+00
 3.00000E+00    5.16578E+00
 3.20000E+00    3.20574E+00
 3.40000E+00    2.01498E+00
 3.60000E+00    1.27865E+00
 3.80000E+00    8.19190E-01
 4.00000E+00    5.30159E-01
 4.20000E+00    3.46664E-01
 4.40000E+00    2.28937E-01
 4.60000E+00    1.52691E-01
 4.80000E+00    1.02944E-01
 5.00000E+00    7.00625E-02
 5.20000E+00    4.81396E-02
 5.40000E+00    3.33782E-02
 5.60000E+00    2.32224E-02
 5.80000E+00    1.63040E-02
 6.00000E+00    1.15412E-02
 6.20000E+00    8.22039E-03
 6.40000E+00    5.90329E-03
 6.60000E+00    4.25822E-03
 6.80000E+00    3.09228E-03
 7.00000E+00    2.25493E-03
 7.20000E+00    1.65030E-03
 7.40000E+00    1.21419E-03
 7.60000E+00    8.95390E-04
 7.80000E+00    6.63530E-04
 8.00000E+00    4.93231E-04
 8.50000E+00    2.38303E-04
 9.00000E+00    1.16867E-04
 9.50000E+00    5.79624E-05
 1.00000E+01    2.90951E-05
 1.05000E+01    1.47912E-05
 1.10000E+01    7.61508E-06
 1.15000E+01    3.96798E-06
 1.20000E+01    2.09064E-06
 1.25000E+01    1.11390E-06
 1.30000E+01    6.00130E-07
 1.35000E+01    3.26950E-07
 1.40000E+01    1.80050E-07
 1.45000E+01    1.00220E-07
 1.50000E+01    5.63560E-08
 1.60000E+01    1.83350E-08
 1.70000E+01    6.16930E-09
 1.80000E+01    2.12690E-09
 1.90000E+01    7.57160E-10
 2.00000E+01    2.76350E-10
 2.10000E+01    1.03350E-10
 2.20000E+01    3.96280E-11
 2.30000E+01    1.55580E-11
 2.40000E+01    6.25830E-12
 2.50000E+01    2.56370E-12
 2.60000E+01    1.06810E-12
 2.70000E+01    4.51660E-13
 2.80000E+01    1.93670E-13
 2.90000E+01    8.41840E-14
 3.00000E+01    3.70970E-14
