# n + Os186 : (n,n'17)  
# jeff3.3    A.J. Koning and D. Rochman        EVAL-DEC15
# uncertainties: n
# # energies =    76
#   E(MeV)       xs(mb) 
 1.56829E+00    0.00000E+00
 1.57952E+00    1.08067E+00
 1.60000E+00    3.05149E+00
 1.63200E+00    5.55192E+00
 1.63737E+00    5.97153E+00
 1.64971E+00    6.93576E+00
 1.66255E+00    7.93905E+00
 1.71385E+00    1.19476E+01
 1.76030E+00    1.55771E+01
 1.76402E+00    1.58678E+01
 1.78151E+00    1.72344E+01
 1.78428E+00    1.74509E+01
 1.78543E+00    1.75407E+01
 1.80000E+00    1.86792E+01
 1.82245E+00    1.94004E+01
 1.85845E+00    2.05568E+01
 2.00000E+00    2.51037E+01
 2.20000E+00    2.24412E+01
 2.40000E+00    1.73490E+01
 2.60000E+00    1.27312E+01
 2.80000E+00    9.17079E+00
 3.00000E+00    6.55730E+00
 3.20000E+00    4.68030E+00
 3.40000E+00    3.30965E+00
 3.60000E+00    2.33644E+00
 3.80000E+00    1.64894E+00
 4.00000E+00    1.16538E+00
 4.20000E+00    8.25566E-01
 4.40000E+00    5.86783E-01
 4.60000E+00    4.19200E-01
 4.80000E+00    2.99558E-01
 5.00000E+00    2.14828E-01
 5.20000E+00    1.54686E-01
 5.40000E+00    1.11845E-01
 5.60000E+00    8.08053E-02
 5.80000E+00    5.86904E-02
 6.00000E+00    4.28409E-02
 6.20000E+00    3.13852E-02
 6.40000E+00    2.31229E-02
 6.60000E+00    1.70823E-02
 6.80000E+00    1.26821E-02
 7.00000E+00    9.44173E-03
 7.20000E+00    7.04755E-03
 7.40000E+00    5.28326E-03
 7.60000E+00    3.96652E-03
 7.80000E+00    2.99068E-03
 8.00000E+00    2.26046E-03
 8.50000E+00    1.13583E-03
 9.00000E+00    5.77377E-04
 9.50000E+00    2.95794E-04
 1.00000E+01    1.52834E-04
 1.05000E+01    7.97356E-05
 1.10000E+01    4.20350E-05
 1.15000E+01    2.23957E-05
 1.20000E+01    1.20541E-05
 1.25000E+01    6.55652E-06
 1.30000E+01    3.60367E-06
 1.35000E+01    2.00116E-06
 1.40000E+01    1.12202E-06
 1.45000E+01    6.35020E-07
 1.50000E+01    3.62510E-07
 1.60000E+01    1.21000E-07
 1.70000E+01    4.15700E-08
 1.80000E+01    1.45910E-08
 1.90000E+01    5.28100E-09
 2.00000E+01    1.95770E-09
 2.10000E+01    7.42800E-10
 2.20000E+01    2.88470E-10
 2.30000E+01    1.14480E-10
 2.40000E+01    4.64450E-11
 2.50000E+01    1.91580E-11
 2.60000E+01    8.02980E-12
 2.70000E+01    3.41580E-12
 2.80000E+01    1.47390E-12
 2.90000E+01    6.45010E-13
 3.00000E+01    2.86160E-13
