# n + Os186 : (n,n'09)  
# jeff3.3    A.J. Koning and D. Rochman        EVAL-DEC15
# uncertainties: n
# # energies =    85
#   E(MeV)       xs(mb) 
 1.28253E+00    0.00000E+00
 1.35926E+00    9.45699E+00
 1.40000E+00    1.44782E+01
 1.42865E+00    1.74033E+01
 1.46078E+00    2.06838E+01
 1.46390E+00    2.10023E+01
 1.46884E+00    2.15067E+01
 1.48810E+00    2.34731E+01
 1.49938E+00    2.46248E+01
 1.56829E+00    3.16604E+01
 1.57952E+00    3.28069E+01
 1.60000E+00    3.48979E+01
 1.63200E+00    3.61724E+01
 1.63737E+00    3.63863E+01
 1.64971E+00    3.68778E+01
 1.66255E+00    3.73891E+01
 1.71385E+00    3.94323E+01
 1.76030E+00    4.12823E+01
 1.76402E+00    4.14305E+01
 1.78151E+00    4.21271E+01
 1.78428E+00    4.22374E+01
 1.78543E+00    4.22832E+01
 1.80000E+00    4.28635E+01
 1.82245E+00    4.26768E+01
 1.85845E+00    4.23775E+01
 2.00000E+00    4.12004E+01
 2.20000E+00    3.22266E+01
 2.40000E+00    2.31577E+01
 2.60000E+00    1.62137E+01
 2.80000E+00    1.12745E+01
 3.00000E+00    7.82555E+00
 3.20000E+00    5.43989E+00
 3.40000E+00    3.76524E+00
 3.60000E+00    2.61260E+00
 3.80000E+00    1.81935E+00
 4.00000E+00    1.27281E+00
 4.20000E+00    8.95413E-01
 4.40000E+00    6.33005E-01
 4.60000E+00    4.48327E-01
 4.80000E+00    3.19023E-01
 5.00000E+00    2.28036E-01
 5.20000E+00    1.63766E-01
 5.40000E+00    1.18136E-01
 5.60000E+00    8.51590E-02
 5.80000E+00    6.17270E-02
 6.00000E+00    4.49493E-02
 6.20000E+00    3.28555E-02
 6.40000E+00    2.41552E-02
 6.60000E+00    1.78029E-02
 6.80000E+00    1.31914E-02
 7.00000E+00    9.80280E-03
 7.20000E+00    7.30458E-03
 7.40000E+00    5.46764E-03
 7.60000E+00    4.09961E-03
 7.80000E+00    3.08715E-03
 8.00000E+00    2.33081E-03
 8.50000E+00    1.16837E-03
 9.00000E+00    5.92756E-04
 9.50000E+00    3.03176E-04
 1.00000E+01    1.56416E-04
 1.05000E+01    8.14806E-05
 1.10000E+01    4.28860E-05
 1.15000E+01    2.28124E-05
 1.20000E+01    1.22604E-05
 1.25000E+01    6.66065E-06
 1.30000E+01    3.65746E-06
 1.35000E+01    2.02957E-06
 1.40000E+01    1.13731E-06
 1.45000E+01    6.43350E-07
 1.50000E+01    3.67090E-07
 1.60000E+01    1.22400E-07
 1.70000E+01    4.20040E-08
 1.80000E+01    1.47290E-08
 1.90000E+01    5.32670E-09
 2.00000E+01    1.97350E-09
 2.10000E+01    7.48490E-10
 2.20000E+01    2.90590E-10
 2.30000E+01    1.15290E-10
 2.40000E+01    4.67620E-11
 2.50000E+01    1.92820E-11
 2.60000E+01    8.07870E-12
 2.70000E+01    3.43520E-12
 2.80000E+01    1.48180E-12
 2.90000E+01    6.48260E-13
 3.00000E+01    2.87540E-13
