# n + Os186 : (n,xp)    
# jeff3.3    A.J. Koning and D. Rochman        EVAL-DEC15
# 
# # energies =   133
#   E(MeV)        xs(mb) 
 1.37903E-01    1.00010E-17
 2.00000E-01    1.00010E-17
 3.00000E-01    1.02839E-17
 4.00000E-01    1.34091E-17
 4.36442E-01    1.45479E-17
 5.00000E-01    1.65342E-17
 6.00000E-01    1.96594E-17
 7.00000E-01    2.27846E-17
 7.71641E-01    2.50235E-17
 8.00000E-01    2.59097E-17
 8.73653E-01    2.82115E-17
 9.00000E-01    2.90349E-17
 9.15410E-01    2.95165E-17
 1.00000E+00    3.21601E-17
 1.06676E+00    3.42465E-17
 1.07629E+00    3.45443E-17
 1.20000E+00    3.84104E-17
 1.21499E+00    3.88789E-17
 1.28253E+00    4.09896E-17
 1.35926E+00    4.33876E-17
 1.40000E+00    4.46608E-17
 1.42865E+00    9.12963E-16
 1.46078E+00    1.88673E-15
 1.46390E+00    1.98129E-15
 1.46884E+00    2.13101E-15
 1.48810E+00    2.71473E-15
 1.49938E+00    3.05659E-15
 1.56829E+00    5.14506E-15
 1.57952E+00    5.48541E-15
 1.60000E+00    6.10610E-15
 1.63200E+00    5.34395E-14
 1.63737E+00    6.13826E-14
 1.64971E+00    7.96355E-14
 1.66255E+00    9.86281E-14
 1.71385E+00    1.74510E-13
 1.76030E+00    2.43217E-13
 1.76402E+00    2.48719E-13
 1.78151E+00    2.74590E-13
 1.78428E+00    2.78687E-13
 1.78543E+00    2.80389E-13
 1.80000E+00    3.01940E-13
 1.82245E+00    1.58620E-12
 1.85845E+00    3.64559E-12
 2.00000E+00    1.17430E-11
 2.20000E+00    1.45280E-10
 2.40000E+00    1.32900E-09
 2.60000E+00    7.46370E-09
 2.80000E+00    3.15490E-08
 3.00000E+00    1.10470E-07
 3.20000E+00    3.32820E-07
 3.40000E+00    8.86540E-07
 3.60000E+00    2.12619E-06
 3.80000E+00    4.66350E-06
 4.00000E+00    9.47551E-06
 4.20000E+00    1.80252E-05
 4.40000E+00    3.27343E-05
 4.60000E+00    5.83874E-05
 4.80000E+00    9.79238E-05
 5.00000E+00    1.53236E-04
 5.20000E+00    2.43469E-04
 5.40000E+00    3.64753E-04
 5.60000E+00    5.01951E-04
 5.80000E+00    7.86405E-04
 6.00000E+00    1.06341E-03
 6.20000E+00    1.54804E-03
 6.40000E+00    2.27244E-03
 6.60000E+00    2.70057E-03
 6.80000E+00    4.40700E-03
 7.00000E+00    5.72289E-03
 7.20000E+00    8.04655E-03
 7.40000E+00    1.20282E-02
 7.60000E+00    1.35698E-02
 7.80000E+00    2.16450E-02
 8.00000E+00    2.77105E-02
 8.50000E+00    5.70037E-02
 9.00000E+00    1.10536E-01
 9.50000E+00    2.02482E-01
 1.00000E+01    3.45477E-01
 1.05000E+01    5.55610E-01
 1.10000E+01    8.47943E-01
 1.15000E+01    1.23624E+00
 1.20000E+01    1.73928E+00
 1.25000E+01    2.35813E+00
 1.30000E+01    3.10826E+00
 1.35000E+01    3.99857E+00
 1.40000E+01    5.03461E+00
 1.45000E+01    6.22103E+00
 1.50000E+01    7.55588E+00
 1.60000E+01    1.06662E+01
 1.70000E+01    1.43446E+01
 1.80000E+01    1.89728E+01
 1.90000E+01    2.36827E+01
 2.00000E+01    2.95641E+01
 2.10000E+01    3.54769E+01
 2.20000E+01    4.18385E+01
 2.30000E+01    4.86094E+01
 2.40000E+01    5.56808E+01
 2.50000E+01    6.29587E+01
 2.60000E+01    7.03451E+01
 2.70000E+01    7.77951E+01
 2.80000E+01    8.53268E+01
 2.90000E+01    9.29113E+01
 3.00000E+01    1.00611E+02
 3.00000E+01    1.00804E+02
 3.20000E+01    1.16431E+02
 3.40000E+01    1.33073E+02
 3.60000E+01    1.48847E+02
 3.80000E+01    1.64106E+02
 4.00000E+01    1.79807E+02
 4.20000E+01    1.95641E+02
 4.40000E+01    2.11517E+02
 4.60000E+01    2.27412E+02
 4.80000E+01    2.42985E+02
 5.00000E+01    2.58328E+02
 5.20000E+01    2.73708E+02
 5.40000E+01    2.89158E+02
 5.60000E+01    3.04717E+02
 5.80000E+01    3.19539E+02
 6.00000E+01    3.34617E+02
 6.50000E+01    3.70067E+02
 7.00000E+01    4.04779E+02
 7.50000E+01    4.37586E+02
 8.00000E+01    4.69040E+02
 9.00000E+01    5.26424E+02
 1.00000E+02    5.76090E+02
 1.10000E+02    6.28020E+02
 1.20000E+02    6.87246E+02
 1.30000E+02    7.48800E+02
 1.40000E+02    8.10665E+02
 1.50000E+02    9.32555E+02
 1.60000E+02    1.11424E+03
 1.80000E+02    1.61391E+03
 2.00000E+02    2.59211E+03
