# n + Os186 : (n,n'12)  
# jeff3.3    A.J. Koning and D. Rochman        EVAL-DEC15
# uncertainties: n
# # energies =    81
#   E(MeV)       xs(mb) 
 1.46078E+00    0.00000E+00
 1.46390E+00    1.79012E+00
 1.46884E+00    4.62454E+00
 1.48810E+00    1.56753E+01
 1.49938E+00    2.21473E+01
 1.56829E+00    6.16855E+01
 1.57952E+00    6.81289E+01
 1.60000E+00    7.98796E+01
 1.63200E+00    8.64416E+01
 1.63737E+00    8.75428E+01
 1.64971E+00    9.00732E+01
 1.66255E+00    9.27062E+01
 1.71385E+00    1.03226E+02
 1.76030E+00    1.12751E+02
 1.76402E+00    1.13514E+02
 1.78151E+00    1.17100E+02
 1.78428E+00    1.17668E+02
 1.78543E+00    1.17904E+02
 1.80000E+00    1.20892E+02
 1.82245E+00    1.20375E+02
 1.85845E+00    1.19546E+02
 2.00000E+00    1.16286E+02
 2.20000E+00    8.67775E+01
 2.40000E+00    5.84795E+01
 2.60000E+00    3.80425E+01
 2.80000E+00    2.45329E+01
 3.00000E+00    1.58475E+01
 3.20000E+00    1.02989E+01
 3.40000E+00    6.71702E+00
 3.60000E+00    4.41204E+00
 3.80000E+00    2.92083E+00
 4.00000E+00    1.95039E+00
 4.20000E+00    1.31368E+00
 4.40000E+00    8.92459E-01
 4.60000E+00    6.10958E-01
 4.80000E+00    4.21131E-01
 5.00000E+00    2.92286E-01
 5.20000E+00    2.04261E-01
 5.40000E+00    1.43698E-01
 5.60000E+00    1.01229E-01
 5.80000E+00    7.18366E-02
 6.00000E+00    5.13198E-02
 6.20000E+00    3.68549E-02
 6.40000E+00    2.66603E-02
 6.60000E+00    1.93603E-02
 6.80000E+00    1.41486E-02
 7.00000E+00    1.03797E-02
 7.20000E+00    7.64141E-03
 7.40000E+00    5.65463E-03
 7.60000E+00    4.19374E-03
 7.80000E+00    3.12534E-03
 8.00000E+00    2.33615E-03
 8.50000E+00    1.14403E-03
 9.00000E+00    5.68141E-04
 9.50000E+00    2.84962E-04
 1.00000E+01    1.44447E-04
 1.05000E+01    7.40708E-05
 1.10000E+01    3.84451E-05
 1.15000E+01    2.01959E-05
 1.20000E+01    1.07311E-05
 1.25000E+01    5.76839E-06
 1.30000E+01    3.13611E-06
 1.35000E+01    1.72396E-06
 1.40000E+01    9.57530E-07
 1.45000E+01    5.37180E-07
 1.50000E+01    3.04160E-07
 1.60000E+01    1.00050E-07
 1.70000E+01    3.39440E-08
 1.80000E+01    1.17850E-08
 1.90000E+01    4.22480E-09
 2.00000E+01    1.55280E-09
 2.10000E+01    5.84580E-10
 2.20000E+01    2.25380E-10
 2.30000E+01    8.88390E-11
 2.40000E+01    3.58220E-11
 2.50000E+01    1.46950E-11
 2.60000E+01    6.12950E-12
 2.70000E+01    2.59630E-12
 2.80000E+01    1.11600E-12
 2.90000E+01    4.86650E-13
 3.00000E+01    2.15180E-13
