# n + Th232 : (n,el)    
# irdff2.0   O.Iwamoto,T.Nakagawa,et al.       EVAL-JAN10
# uncertainties: n
# # energies =   171
#   E(MeV)       xs(mb) 
 1.00000E-11    1.84434E+04
 1.00000E-07    1.29458E+04
 4.13990E-07    1.28492E+04
 5.31580E-07    1.28035E+04
 6.82560E-07    1.27520E+04
 8.76420E-07    1.26859E+04
 1.12540E-06    1.26076E+04
 1.44500E-06    1.25251E+04
 1.85540E-06    1.24212E+04
 2.37240E-06    1.23088E+04
 3.05900E-06    1.21836E+04
 3.92790E-06    1.20387E+04
 5.04350E-06    1.18877E+04
 6.47600E-06    1.17010E+04
 8.31530E-06    1.14828E+04
 1.06770E-05    1.12025E+04
 1.37100E-05    1.07278E+04
 1.76030E-05    1.42405E+04
 2.26030E-05    2.67441E+04
 2.92030E-05    1.16565E+04
 3.72670E-05    1.08091E+04
 4.78510E-05    1.17664E+04
 6.14420E-05    1.06567E+05
 7.88930E-05    1.24565E+04
 1.01300E-04    2.90294E+04
 1.30070E-04    1.09121E+04
 1.67020E-04    4.03862E+04
 2.14450E-04    2.41120E+04
 2.75360E-04    2.98037E+04
 3.53580E-04    1.59286E+04
 4.54000E-04    1.93613E+04
 5.82950E-04    2.63048E+04
 7.48520E-04    1.81881E+04
 9.61120E-04    1.57068E+04
 1.23410E-03    1.86221E+04
 1.58460E-03    2.26150E+04
 2.03470E-03    1.56456E+04
 2.24870E-03    1.72008E+04
 2.48520E-03    2.09595E+04
 2.61260E-03    2.41861E+04
 2.74650E-03    1.65965E+04
 3.03540E-03    1.71797E+04
 3.35460E-03    1.37973E+04
 3.70740E-03    1.58386E+04
 4.30740E-03    1.63254E+04
 5.53080E-03    1.58336E+04
 7.10170E-03    1.53996E+04
 9.11880E-03    1.50033E+04
 1.17090E-02    1.46720E+04
 1.50340E-02    1.43484E+04
 1.93050E-02    1.41111E+04
 2.18750E-02    1.40007E+04
 2.35790E-02    1.39422E+04
 2.41760E-02    1.39124E+04
 2.47880E-02    1.38736E+04
 2.60580E-02    1.38287E+04
 2.70000E-02    1.37793E+04
 2.85000E-02    1.36857E+04
 3.18280E-02    1.35849E+04
 3.43070E-02    1.34382E+04
 4.08680E-02    1.32715E+04
 4.63090E-02    1.31199E+04
 5.24750E-02    1.29643E+04
 5.65620E-02    1.27432E+04
 6.73790E-02    1.25189E+04
 7.20000E-02    1.23559E+04
 7.95000E-02    1.22136E+04
 8.25000E-02    1.21228E+04
 8.65170E-02    1.19413E+04
 9.80370E-02    1.16539E+04
 1.11090E-01    1.14348E+04
 1.16790E-01    1.13012E+04
 1.22770E-01    1.11782E+04
 1.29070E-01    1.10546E+04
 1.35690E-01    1.09247E+04
 1.42640E-01    1.07925E+04
 1.49960E-01    1.06674E+04
 1.57640E-01    1.05368E+04
 1.65730E-01    1.03996E+04
 1.74220E-01    1.02625E+04
 1.83160E-01    1.01277E+04
 1.92550E-01    9.98608E+03
 2.02420E-01    9.83722E+03
 2.12800E-01    9.68071E+03
 2.23710E-01    9.52026E+03
 2.35180E-01    9.36932E+03
 2.47240E-01    9.13041E+03
 2.73240E-01    8.87884E+03
 2.87250E-01    8.76090E+03
 2.94520E-01    8.70716E+03
 2.97200E-01    8.68570E+03
 2.98500E-01    8.66004E+03
 3.01970E-01    8.47309E+03
 3.33730E-01    8.12856E+03
 3.68830E-01    7.86900E+03
 3.87740E-01    7.69688E+03
 4.07620E-01    7.42305E+03
 4.50490E-01    7.05860E+03
 4.97870E-01    6.79558E+03
 5.23400E-01    6.63145E+03
 5.50230E-01    6.46398E+03
 5.78440E-01    6.29683E+03
 6.08100E-01    6.12243E+03
 6.39280E-01    5.94105E+03
 6.72060E-01    5.76621E+03
 7.06510E-01    5.60295E+03
 7.42740E-01    5.40719E+03
 7.80820E-01    5.20208E+03
 8.20850E-01    4.99036E+03
 8.62940E-01    4.78667E+03
 9.07180E-01    4.58233E+03
 9.61640E-01    4.39260E+03
 1.00260E+00    4.19038E+03
 1.10800E+00    3.99228E+03
 1.16480E+00    3.87405E+03
 1.22460E+00    3.78306E+03
 1.28730E+00    3.69419E+03
 1.35340E+00    3.60608E+03
 1.42270E+00    3.56650E+03
 1.49570E+00    3.52287E+03
 1.57240E+00    3.49616E+03
 1.65300E+00    3.53853E+03
 1.73770E+00    3.57241E+03
 1.82680E+00    3.57623E+03
 1.92050E+00    3.62314E+03
 2.01900E+00    3.67322E+03
 2.12250E+00    3.73058E+03
 2.23130E+00    3.80036E+03
 2.30690E+00    3.84915E+03
 2.34570E+00    3.87225E+03
 2.36530E+00    3.88329E+03
 2.38520E+00    3.91095E+03
 2.46600E+00    3.96795E+03
 2.59240E+00    4.03947E+03
 2.72530E+00    4.10880E+03
 2.86500E+00    4.17659E+03
 3.01190E+00    4.21990E+03
 3.16640E+00    4.24436E+03
 3.32870E+00    4.28359E+03
 3.67880E+00    4.33829E+03
 4.06570E+00    4.29113E+03
 4.49330E+00    4.20753E+03
 4.72370E+00    4.14797E+03
 4.96590E+00    4.06749E+03
 5.22050E+00    3.95263E+03
 5.48810E+00    3.82738E+03
 5.76950E+00    3.69361E+03
 6.06530E+00    3.55237E+03
 6.37630E+00    3.42289E+03
 6.59240E+00    3.34527E+03
 6.70320E+00    3.25233E+03
 7.04690E+00    3.12766E+03
 7.40820E+00    2.99894E+03
 7.78800E+00    2.86418E+03
 8.18730E+00    2.75465E+03
 8.60710E+00    2.64620E+03
 9.04840E+00    2.57233E+03
 9.51230E+00    2.51922E+03
 1.00000E+01    2.49378E+03
 1.05130E+01    2.49366E+03
 1.10520E+01    2.51414E+03
 1.16180E+01    2.55078E+03
 1.22140E+01    2.58926E+03
 1.28400E+01    2.63947E+03
 1.34990E+01    2.69765E+03
 1.38400E+01    2.74143E+03
 1.41910E+01    2.78512E+03
 1.45500E+01    2.83414E+03
 1.49180E+01    2.90161E+03
 1.56830E+01    2.97869E+03
 1.64870E+01    3.07962E+03
