# n + Cl 35 : (n,tot)   
# jendl4.0   T.WATANABE                        EVAL-MAR94
# uncertainties: n
# # energies =    69
#   E(MeV)       xs(mb) 
 1.00000E-10    3.42914E+05
 5.00000E-09    1.05538E+05
 1.00000E-08    8.47189E+04
 1.50000E-08    7.43828E+04
 2.00000E-08    6.78675E+04
 2.50000E-08    6.32694E+04
 3.00000E-08    5.97986E+04
 3.50000E-08    5.66181E+04
 4.20000E-08    5.35228E+04
 5.00000E-08    5.09498E+04
 5.80000E-08    4.87926E+04
 6.70000E-08    4.66016E+04
 8.00000E-08    4.41090E+04
 1.00000E-07    4.10247E+04
 1.40000E-07    3.81925E+04
 1.80000E-07    3.62812E+04
 2.20000E-07    3.50179E+04
 2.50000E-07    3.41555E+04
 2.80000E-07    3.35354E+04
 3.00000E-07    3.30984E+04
 3.20000E-07    3.26127E+04
 3.50000E-07    3.19396E+04
 4.00000E-07    3.09366E+04
 5.00000E-07    2.97892E+04
 6.25000E-07    2.87552E+04
 7.80000E-07    2.80934E+04
 8.50000E-07    2.77790E+04
 9.10000E-07    2.75577E+04
 9.50000E-07    2.74302E+04
 9.72000E-07    2.73377E+04
 9.96000E-07    2.72469E+04
 1.02000E-06    2.71565E+04
 1.04500E-06    2.70639E+04
 1.07100E-06    2.69767E+04
 1.09700E-06    2.68906E+04
 1.12300E-06    2.68028E+04
 1.15000E-06    2.65434E+04
 1.30000E-06    2.60884E+04
 1.50000E-06    2.53215E+04
 2.10000E-06    2.44888E+04
 2.60000E-06    2.38422E+04
 3.30000E-06    2.32387E+04
 4.00000E-06    2.16972E+04
 9.87700E-06    1.95340E+04
 1.59680E-05    1.75364E+04
 2.77000E-05    1.49566E+04
 4.80520E-05    1.22843E+04
 7.55014E-05    9.23265E+03
 1.48728E-04    5.75918E+03
 3.67262E-04    4.81765E+03
 9.06898E-04    2.54938E+03
 1.42510E-03    2.23544E+03
 2.23945E-03    2.03795E+03
 3.51910E-03    2.05857E+03
 5.53000E-03    1.80313E+03
 9.11800E-03    2.46417E+03
 1.50300E-02    2.39131E+03
 2.47800E-02    3.18863E+03
 4.08500E-02    2.10011E+03
 6.73400E-02    2.04563E+03
 1.11000E-01    1.97732E+03
 1.83000E-01    2.78974E+03
 3.02000E-01    2.08347E+03
 5.00000E-01    2.19206E+03
 8.21000E-01    2.44893E+03
 1.35300E+00    2.86588E+03
 2.23100E+00    3.21771E+03
 3.67900E+00    3.07596E+03
 6.06500E+00    2.53413E+03
