# n + Cl 35 : (n,el)    
# jendl4.0   T.WATANABE                        EVAL-MAR94
# uncertainties: n
# # energies =    69
#   E(MeV)       xs(mb) 
 1.00000E-10    3.49304E+04
 5.00000E-09    2.16883E+04
 1.00000E-08    2.12211E+04
 1.50000E-08    2.10376E+04
 2.00000E-08    2.09376E+04
 2.50000E-08    2.08746E+04
 3.00000E-08    2.08310E+04
 3.50000E-08    2.07936E+04
 4.20000E-08    2.07595E+04
 5.00000E-08    2.07331E+04
 5.80000E-08    2.07124E+04
 6.70000E-08    2.06912E+04
 8.00000E-08    2.06692E+04
 1.00000E-07    2.06415E+04
 1.40000E-07    2.06151E+04
 1.80000E-07    2.05959E+04
 2.20000E-07    2.05805E+04
 2.50000E-07    2.05706E+04
 2.80000E-07    2.05624E+04
 3.00000E-07    2.05558E+04
 3.20000E-07    2.05477E+04
 3.50000E-07    2.05347E+04
 4.00000E-07    2.05136E+04
 5.00000E-07    2.04840E+04
 6.25000E-07    2.04471E+04
 7.80000E-07    2.04167E+04
 8.50000E-07    2.04001E+04
 9.10000E-07    2.03882E+04
 9.50000E-07    2.03809E+04
 9.72000E-07    2.03755E+04
 9.96000E-07    2.03699E+04
 1.02000E-06    2.03641E+04
 1.04500E-06    2.03581E+04
 1.07100E-06    2.03520E+04
 1.09700E-06    2.03459E+04
 1.12300E-06    2.03396E+04
 1.15000E-06    2.03192E+04
 1.30000E-06    2.02782E+04
 1.50000E-06    2.01874E+04
 2.10000E-06    2.00561E+04
 2.60000E-06    1.99161E+04
 3.30000E-06    1.97507E+04
 4.00000E-06    1.91342E+04
 9.87700E-06    1.78933E+04
 1.59680E-05    1.64105E+04
 2.77000E-05    1.42547E+04
 4.80520E-05    1.18685E+04
 7.55014E-05    9.02680E+03
 1.48728E-04    5.69472E+03
 3.67262E-04    3.53286E+03
 9.06898E-04    2.54313E+03
 1.42510E-03    2.23463E+03
 2.23945E-03    2.03764E+03
 3.51910E-03    1.98690E+03
 5.53000E-03    1.80310E+03
 9.11800E-03    2.45435E+03
 1.50300E-02    2.35119E+03
 2.47800E-02    3.18191E+03
 4.08500E-02    2.09275E+03
 6.73400E-02    2.04422E+03
 1.11000E-01    1.97341E+03
 1.83000E-01    2.78524E+03
 3.02000E-01    2.07863E+03
 5.00000E-01    2.17938E+03
 8.21000E-01    2.41082E+03
 1.35300E+00    2.71926E+03
 2.23100E+00    2.77188E+03
 3.67900E+00    2.17370E+03
 6.06500E+00    1.47260E+03
