# n + Sr 90 : (n,n'14)  
# tendl.2019 A.J. Koning and D. Rochman        EVAL-NOV19
# uncertainties: n
# # energies =    71
#   E(MeV)       xs(mb) 
 3.07336E+00    0.00000E+00
 3.18018E+00    7.97292E+00
 3.18129E+00    8.05576E+00
 3.20000E+00    9.45226E+00
 3.30466E+00    1.32860E+01
 3.40000E+00    1.67783E+01
 3.42135E+00    1.69149E+01
 3.43208E+00    1.69835E+01
 3.48852E+00    1.73446E+01
 3.51803E+00    1.75334E+01
 3.54736E+00    1.77210E+01
 3.59569E+00    1.80302E+01
 3.60000E+00    1.80578E+01
 3.62463E+00    1.79289E+01
 3.63432E+00    1.78782E+01
 3.66770E+00    1.77036E+01
 3.76173E+00    1.72116E+01
 3.80000E+00    1.70113E+01
 3.82645E+00    1.68158E+01
 3.84668E+00    1.66662E+01
 3.88814E+00    1.63598E+01
 4.00000E+00    1.55329E+01
 4.20000E+00    1.35643E+01
 4.40000E+00    1.15262E+01
 4.60000E+00    9.69497E+00
 4.80000E+00    8.12513E+00
 5.00000E+00    6.79137E+00
 5.20000E+00    5.65491E+00
 5.40000E+00    4.68376E+00
 5.60000E+00    3.85417E+00
 5.80000E+00    3.14868E+00
 6.00000E+00    2.55319E+00
 6.20000E+00    2.05799E+00
 6.40000E+00    1.64965E+00
 6.60000E+00    1.31628E+00
 6.80000E+00    1.04670E+00
 7.00000E+00    8.29934E-01
 7.20000E+00    6.55093E-01
 7.40000E+00    5.16490E-01
 7.60000E+00    4.07060E-01
 7.80000E+00    3.21125E-01
 8.00000E+00    2.54135E-01
 8.50000E+00    1.41771E-01
 9.00000E+00    7.98492E-02
 9.50000E+00    4.54325E-02
 1.00000E+01    2.60904E-02
 1.05000E+01    1.50943E-02
 1.10000E+01    8.79269E-03
 1.15000E+01    5.15981E-03
 1.20000E+01    3.05338E-03
 1.25000E+01    1.82358E-03
 1.30000E+01    1.09967E-03
 1.35000E+01    6.69939E-04
 1.40000E+01    4.12271E-04
 1.45000E+01    2.56108E-04
 1.50000E+01    1.60550E-04
 1.60000E+01    6.46234E-05
 1.70000E+01    2.67491E-05
 1.80000E+01    1.13341E-05
 1.90000E+01    4.90308E-06
 2.00000E+01    2.16284E-06
 2.10000E+01    9.72930E-07
 2.20000E+01    4.41800E-07
 2.30000E+01    2.05830E-07
 2.40000E+01    9.74720E-08
 2.50000E+01    4.69400E-08
 2.60000E+01    2.28630E-08
 2.70000E+01    1.12840E-08
 2.80000E+01    5.63860E-09
 2.90000E+01    2.85220E-09
 3.00000E+01    1.46020E-09
