# n + Sr 90 : (n,n'15)  
# tendl.2019 A.J. Koning and D. Rochman        EVAL-NOV19
# uncertainties: n
# # energies =    70
#   E(MeV)       xs(mb) 
 3.18018E+00    0.00000E+00
 3.18129E+00    2.61576E-01
 3.20000E+00    4.67133E+00
 3.30466E+00    2.03576E+01
 3.40000E+00    3.46471E+01
 3.42135E+00    3.60593E+01
 3.43208E+00    3.67691E+01
 3.48852E+00    4.05024E+01
 3.51803E+00    4.24544E+01
 3.54736E+00    4.43945E+01
 3.59569E+00    4.75914E+01
 3.60000E+00    4.78765E+01
 3.62463E+00    4.81210E+01
 3.63432E+00    4.82172E+01
 3.66770E+00    4.85486E+01
 3.76173E+00    4.94820E+01
 3.80000E+00    4.98619E+01
 3.82645E+00    4.96688E+01
 3.84668E+00    4.95212E+01
 3.88814E+00    4.92185E+01
 4.00000E+00    4.84020E+01
 4.20000E+00    4.41297E+01
 4.40000E+00    3.86599E+01
 4.60000E+00    3.33428E+01
 4.80000E+00    2.85905E+01
 5.00000E+00    2.44202E+01
 5.20000E+00    2.07563E+01
 5.40000E+00    1.75248E+01
 5.60000E+00    1.46781E+01
 5.80000E+00    1.21852E+01
 6.00000E+00    1.00224E+01
 6.20000E+00    8.17822E+00
 6.40000E+00    6.62288E+00
 6.60000E+00    5.32785E+00
 6.80000E+00    4.26314E+00
 7.00000E+00    3.39534E+00
 7.20000E+00    2.68776E+00
 7.40000E+00    2.12268E+00
 7.60000E+00    1.67435E+00
 7.80000E+00    1.32013E+00
 8.00000E+00    1.04386E+00
 8.50000E+00    5.79929E-01
 9.00000E+00    3.25242E-01
 9.50000E+00    1.84674E-01
 1.00000E+01    1.06198E-01
 1.05000E+01    6.17410E-02
 1.10000E+01    3.62425E-02
 1.15000E+01    2.14680E-02
 1.20000E+01    1.28307E-02
 1.25000E+01    7.73671E-03
 1.30000E+01    4.70572E-03
 1.35000E+01    2.88760E-03
 1.40000E+01    1.78724E-03
 1.45000E+01    1.11517E-03
 1.50000E+01    7.01473E-04
 1.60000E+01    2.83931E-04
 1.70000E+01    1.18291E-04
 1.80000E+01    5.05633E-05
 1.90000E+01    2.21006E-05
 2.00000E+01    9.84851E-06
 2.10000E+01    4.46802E-06
 2.20000E+01    2.04145E-06
 2.30000E+01    9.54940E-07
 2.40000E+01    4.53380E-07
 2.50000E+01    2.18750E-07
 2.60000E+01    1.06740E-07
 2.70000E+01    5.27890E-08
 2.80000E+01    2.64360E-08
 2.90000E+01    1.34010E-08
 3.00000E+01    6.87400E-09
