# n + Ba138 : (n,el)    
# jeff3.3    JNDC FP NUCLEAR DATA W.G.         EVAL-MAR90
# uncertainties: n
# # energies =   171
#   E(MeV)       xs(mb) 
 1.00000E-11    9.66235E+03
 1.00000E-07    6.02183E+03
 4.13990E-07    6.02007E+03
 5.31580E-07    6.01959E+03
 6.82560E-07    6.01897E+03
 8.76420E-07    6.01863E+03
 1.12540E-06    6.01846E+03
 1.44500E-06    6.01824E+03
 1.85540E-06    6.01797E+03
 2.37240E-06    6.01761E+03
 3.05900E-06    6.01715E+03
 3.92790E-06    6.01656E+03
 5.04350E-06    6.01581E+03
 6.47600E-06    6.01484E+03
 8.31530E-06    6.01359E+03
 1.06770E-05    6.01199E+03
 1.37100E-05    6.00994E+03
 1.76030E-05    6.00730E+03
 2.26030E-05    6.00387E+03
 2.92030E-05    5.99951E+03
 3.72670E-05    5.99398E+03
 4.78510E-05    5.98682E+03
 6.14420E-05    5.97761E+03
 7.88930E-05    5.96580E+03
 1.01300E-04    5.95062E+03
 1.30070E-04    5.93114E+03
 1.67020E-04    5.90612E+03
 2.14450E-04    5.87400E+03
 2.75360E-04    5.83275E+03
 3.53580E-04    5.77979E+03
 4.54000E-04    5.71564E+03
 5.82950E-04    5.65998E+03
 7.48520E-04    5.54925E+03
 9.61120E-04    5.43408E+03
 1.23410E-03    5.30352E+03
 1.58460E-03    5.45248E+03
 2.03470E-03    5.02670E+03
 2.24870E-03    4.95473E+03
 2.48520E-03    4.89838E+03
 2.61260E-03    4.85825E+03
 2.74650E-03    4.79578E+03
 3.03540E-03    4.71533E+03
 3.35460E-03    4.62810E+03
 3.70740E-03    4.51742E+03
 4.30740E-03    4.91801E+03
 5.53080E-03    4.03531E+03
 7.10170E-03    5.29250E+03
 9.11880E-03    3.81242E+03
 1.17090E-02    3.54263E+03
 1.50340E-02    3.53681E+03
 1.93050E-02    3.95868E+03
 2.18750E-02    2.97261E+03
 2.35790E-02    2.88233E+03
 2.41760E-02    2.85171E+03
 2.47880E-02    2.75184E+03
 2.60580E-02    2.63113E+03
 2.70000E-02    2.42883E+03
 2.85000E-02    6.55690E+03
 3.18280E-02    3.81874E+03
 3.43070E-02    3.57639E+03
 4.08680E-02    2.89903E+03
 4.63090E-02    5.06641E+03
 5.24750E-02    4.19854E+03
 5.65620E-02    4.20831E+03
 6.73790E-02    8.17466E+03
 7.20000E-02    4.79506E+03
 7.95000E-02    6.91024E+03
 8.25000E-02    4.02062E+03
 8.65170E-02    3.37068E+03
 9.80370E-02    4.28775E+03
 1.11090E-01    4.60232E+03
 1.16790E-01    4.61305E+03
 1.22770E-01    4.62433E+03
 1.29070E-01    4.63620E+03
 1.35690E-01    4.64866E+03
 1.42640E-01    4.66177E+03
 1.49960E-01    4.67698E+03
 1.57640E-01    4.69958E+03
 1.65730E-01    4.72416E+03
 1.74220E-01    4.75000E+03
 1.83160E-01    4.77717E+03
 1.92550E-01    4.80572E+03
 2.02420E-01    4.83643E+03
 2.12800E-01    4.87234E+03
 2.23710E-01    4.91061E+03
 2.35180E-01    4.95085E+03
 2.47240E-01    5.01537E+03
 2.73240E-01    5.08548E+03
 2.87250E-01    5.12368E+03
 2.94520E-01    5.14151E+03
 2.97200E-01    5.14863E+03
 2.98500E-01    5.15715E+03
 3.01970E-01    5.22014E+03
 3.33730E-01    5.34327E+03
 3.68830E-01    5.44311E+03
 3.87740E-01    5.50635E+03
 4.07620E-01    5.60425E+03
 4.50490E-01    5.74401E+03
 4.97870E-01    5.85081E+03
 5.23400E-01    5.92608E+03
 5.50230E-01    6.00520E+03
 5.78440E-01    6.08839E+03
 6.08100E-01    6.17134E+03
 6.39280E-01    6.25099E+03
 6.72060E-01    6.33459E+03
 7.06510E-01    6.42242E+03
 7.42740E-01    6.50712E+03
 7.80820E-01    6.59076E+03
 8.20850E-01    6.67841E+03
 8.62940E-01    6.76093E+03
 9.07180E-01    6.84992E+03
 9.61640E-01    6.93270E+03
 1.00260E+00    7.03170E+03
 1.10800E+00    7.12846E+03
 1.16480E+00    7.19476E+03
 1.22460E+00    7.26061E+03
 1.28730E+00    7.30099E+03
 1.35340E+00    7.33748E+03
 1.42270E+00    7.32887E+03
 1.49570E+00    7.21375E+03
 1.57240E+00    7.14098E+03
 1.65300E+00    7.06469E+03
 1.73770E+00    6.97860E+03
 1.82680E+00    6.87149E+03
 1.92050E+00    6.71134E+03
 2.01900E+00    6.51734E+03
 2.12250E+00    6.32385E+03
 2.23130E+00    6.10757E+03
 2.30690E+00    5.95686E+03
 2.34570E+00    5.88002E+03
 2.36530E+00    5.82813E+03
 2.38520E+00    5.70375E+03
 2.46600E+00    5.45105E+03
 2.59240E+00    5.13892E+03
 2.72530E+00    4.82750E+03
 2.86500E+00    4.52679E+03
 3.01190E+00    4.23919E+03
 3.16640E+00    3.97866E+03
 3.32870E+00    3.63037E+03
 3.67880E+00    3.21192E+03
 4.06570E+00    2.88425E+03
 4.49330E+00    2.67591E+03
 4.72370E+00    2.54239E+03
 4.96590E+00    2.43437E+03
 5.22050E+00    2.36742E+03
 5.48810E+00    2.30292E+03
 5.76950E+00    2.24064E+03
 6.06530E+00    2.21974E+03
 6.37630E+00    2.21875E+03
 6.59240E+00    2.21813E+03
 6.70320E+00    2.21757E+03
 7.04690E+00    2.23652E+03
 7.40820E+00    2.26883E+03
 7.78800E+00    2.30508E+03
 8.18730E+00    2.35947E+03
 8.60710E+00    2.41029E+03
 9.04840E+00    2.46475E+03
 9.51230E+00    2.51017E+03
 1.00000E+01    2.53600E+03
 1.05130E+01    2.54201E+03
 1.10520E+01    2.61596E+03
 1.16180E+01    2.73124E+03
 1.22140E+01    2.76424E+03
 1.28400E+01    2.80591E+03
 1.34990E+01    2.85618E+03
 1.38400E+01    2.88639E+03
 1.41910E+01    2.89693E+03
 1.45500E+01    2.90742E+03
 1.49180E+01    2.91663E+03
 1.56830E+01    2.91867E+03
 1.64870E+01    2.90875E+03
