# n + Te124 : (n,el)    
# jendl4.0   JNDC FP NUCLEAR DATA W.G.         EVAL-MAR90
# uncertainties: n
# # energies =   171
#   E(MeV)       xs(mb) 
 1.00000E-11    6.03761E+03
 1.00000E-07    3.64794E+03
 4.13990E-07    3.63796E+03
 5.31580E-07    3.63347E+03
 6.82560E-07    3.62784E+03
 8.76420E-07    3.62062E+03
 1.12540E-06    3.61236E+03
 1.44500E-06    3.60314E+03
 1.85540E-06    3.59143E+03
 2.37240E-06    3.57625E+03
 3.05900E-06    3.55661E+03
 3.92790E-06    3.53502E+03
 5.04350E-06    3.51339E+03
 6.47600E-06    3.48584E+03
 8.31530E-06    3.45880E+03
 1.06770E-05    3.42927E+03
 1.37100E-05    3.40016E+03
 1.76030E-05    3.37025E+03
 2.26030E-05    3.34270E+03
 2.92030E-05    3.31453E+03
 3.72670E-05    3.29106E+03
 4.78510E-05    3.26575E+03
 6.14420E-05    3.24464E+03
 7.88930E-05    3.22051E+03
 1.01300E-04    3.19911E+03
 1.30070E-04    3.17327E+03
 1.67020E-04    3.14067E+03
 2.14450E-04    3.10037E+03
 2.75360E-04    3.05115E+03
 3.53580E-04    2.95444E+03
 4.54000E-04    5.01388E+03
 5.82950E-04    4.30215E+03
 7.48520E-04    7.05497E+03
 9.61120E-04    3.51608E+03
 1.23410E-03    2.82085E+04
 1.58460E-03    2.01419E+04
 2.03470E-03    6.60099E+03
 2.24870E-03    3.96746E+03
 2.48520E-03    2.04079E+04
 2.61260E-03    5.73632E+03
 2.74650E-03    1.54430E+04
 3.03540E-03    4.83719E+03
 3.35460E-03    6.92772E+03
 3.70740E-03    1.24987E+04
 4.30740E-03    8.49522E+03
 5.53080E-03    8.99093E+03
 7.10170E-03    5.91928E+03
 9.11880E-03    7.38916E+03
 1.17090E-02    7.49466E+03
 1.50340E-02    6.93318E+03
 1.93050E-02    7.03604E+03
 2.18750E-02    6.56038E+03
 2.35790E-02    1.00581E+04
 2.41760E-02    6.08876E+03
 2.47880E-02    9.73991E+03
 2.60580E-02    8.46020E+03
 2.70000E-02    7.45948E+03
 2.85000E-02    6.01274E+03
 3.18280E-02    5.93949E+03
 3.43070E-02    5.89024E+03
 4.08680E-02    5.84147E+03
 4.63090E-02    5.80064E+03
 5.24750E-02    5.77206E+03
 5.65620E-02    5.73801E+03
 6.73790E-02    5.70756E+03
 7.20000E-02    5.68868E+03
 7.95000E-02    5.67314E+03
 8.25000E-02    5.66434E+03
 8.65170E-02    5.64513E+03
 9.80370E-02    5.61757E+03
 1.11090E-01    5.60079E+03
 1.16790E-01    5.59129E+03
 1.22770E-01    5.58201E+03
 1.29070E-01    5.57238E+03
 1.35690E-01    5.56306E+03
 1.42640E-01    5.55356E+03
 1.49960E-01    5.54903E+03
 1.57640E-01    5.54992E+03
 1.65730E-01    5.55086E+03
 1.74220E-01    5.55185E+03
 1.83160E-01    5.55289E+03
 1.92550E-01    5.55422E+03
 2.02420E-01    5.56146E+03
 2.12800E-01    5.57156E+03
 2.23710E-01    5.58163E+03
 2.35180E-01    5.59166E+03
 2.47240E-01    5.61293E+03
 2.73240E-01    5.63961E+03
 2.87250E-01    5.65297E+03
 2.94520E-01    5.65921E+03
 2.97200E-01    5.66170E+03
 2.98500E-01    5.66495E+03
 3.01970E-01    5.69541E+03
 3.33730E-01    5.75439E+03
 3.68830E-01    5.80245E+03
 3.87740E-01    5.83593E+03
 4.07620E-01    5.88171E+03
 4.50490E-01    5.94688E+03
 4.97870E-01    5.99999E+03
 5.23400E-01    6.03782E+03
 5.50230E-01    6.07759E+03
 5.78440E-01    6.11940E+03
 6.08100E-01    6.11496E+03
 6.39280E-01    6.06398E+03
 6.72060E-01    6.01139E+03
 7.06510E-01    5.99445E+03
 7.42740E-01    5.99652E+03
 7.80820E-01    5.99871E+03
 8.20850E-01    6.00100E+03
 8.62940E-01    6.00341E+03
 9.07180E-01    6.00617E+03
 9.61640E-01    6.00882E+03
 1.00260E+00    5.99655E+03
 1.10800E+00    5.97658E+03
 1.16480E+00    5.94960E+03
 1.22460E+00    5.89807E+03
 1.28730E+00    5.84219E+03
 1.35340E+00    5.75690E+03
 1.42270E+00    5.65637E+03
 1.49570E+00    5.55592E+03
 1.57240E+00    5.46144E+03
 1.65300E+00    5.35968E+03
 1.73770E+00    5.23146E+03
 1.82680E+00    5.08065E+03
 1.92050E+00    4.92716E+03
 2.01900E+00    4.77393E+03
 2.12250E+00    4.60541E+03
 2.23130E+00    4.45560E+03
 2.30690E+00    4.36179E+03
 2.34570E+00    4.31393E+03
 2.36530E+00    4.28160E+03
 2.38520E+00    4.20275E+03
 2.46600E+00    4.05314E+03
 2.59240E+00    3.87919E+03
 2.72530E+00    3.71221E+03
 2.86500E+00    3.55176E+03
 3.01190E+00    3.39194E+03
 3.16640E+00    3.23153E+03
 3.32870E+00    3.00647E+03
 3.67880E+00    2.73016E+03
 4.06570E+00    2.51729E+03
 4.49330E+00    2.38232E+03
 4.72370E+00    2.29703E+03
 4.96590E+00    2.23407E+03
 5.22050E+00    2.20746E+03
 5.48810E+00    2.18009E+03
 5.76950E+00    2.15332E+03
 6.06530E+00    2.16486E+03
 6.37630E+00    2.18953E+03
 6.59240E+00    2.20483E+03
 6.70320E+00    2.22630E+03
 7.04690E+00    2.28528E+03
 7.40820E+00    2.36320E+03
 7.78800E+00    2.44717E+03
 8.18730E+00    2.54843E+03
 8.60710E+00    2.65821E+03
 9.04840E+00    2.79895E+03
 9.51230E+00    2.91146E+03
 1.00000E+01    2.97556E+03
 1.05130E+01    3.03810E+03
 1.10520E+01    3.14141E+03
 1.16180E+01    3.26676E+03
 1.22140E+01    3.31134E+03
 1.28400E+01    3.34963E+03
 1.34990E+01    3.40991E+03
 1.38400E+01    3.44727E+03
 1.41910E+01    3.46033E+03
 1.45500E+01    3.47011E+03
 1.49180E+01    3.47781E+03
 1.56830E+01    3.47248E+03
 1.64870E+01    3.43977E+03
