# n + Ba136 : (n,tot)   
# endfb8.0   JNDC FPND W.G., Mughabghab        EVAL-JAN05
# uncertainties: n
# # energies =   171
#   E(MeV)       xs(mb) 
 1.00000E-11    1.21745E+04
 1.00000E-07    3.23781E+03
 4.13990E-07    3.14828E+03
 5.31580E-07    3.12864E+03
 6.82560E-07    3.11101E+03
 8.76420E-07    3.09512E+03
 1.12540E-06    3.08077E+03
 1.44500E-06    3.06859E+03
 1.85540E-06    3.05518E+03
 2.37240E-06    3.04367E+03
 3.05900E-06    3.03231E+03
 3.92790E-06    3.01822E+03
 5.04350E-06    3.00642E+03
 6.47600E-06    2.99354E+03
 8.31530E-06    2.97706E+03
 1.06770E-05    2.96078E+03
 1.37100E-05    2.94332E+03
 1.76030E-05    2.92094E+03
 2.26030E-05    2.89731E+03
 2.92030E-05    2.87146E+03
 3.72670E-05    2.84124E+03
 4.78510E-05    2.81066E+03
 6.14420E-05    2.77541E+03
 7.88930E-05    2.74004E+03
 1.01300E-04    2.70254E+03
 1.30070E-04    2.66301E+03
 1.67020E-04    2.62286E+03
 2.14450E-04    2.57451E+03
 2.75360E-04    2.51316E+03
 3.53580E-04    2.62484E+03
 4.54000E-04    1.29686E+04
 5.82950E-04    2.64406E+03
 7.48520E-04    2.50958E+03
 9.61120E-04    2.41491E+03
 1.23410E-03    2.30085E+03
 1.58460E-03    2.62063E+03
 2.03470E-03    7.65395E+03
 2.24870E-03    1.29986E+04
 2.48520E-03    2.39941E+03
 2.61260E-03    2.19623E+03
 2.74650E-03    2.80817E+03
 3.03540E-03    1.24167E+03
 3.35460E-03    2.57943E+04
 3.70740E-03    2.43112E+03
 4.30740E-03    3.43289E+03
 5.53080E-03    7.01337E+03
 7.10170E-03    4.28267E+04
 9.11880E-03    7.48932E+03
 1.17090E-02    7.84177E+03
 1.50340E-02    6.25030E+03
 1.93050E-02    5.34823E+03
 2.18750E-02    4.37280E+03
 2.35790E-02    7.17471E+03
 2.41760E-02    7.67121E+03
 2.47880E-02    6.26262E+03
 2.60580E-02    4.29590E+03
 2.70000E-02    5.12576E+03
 2.85000E-02    5.25692E+03
 3.18280E-02    5.94721E+03
 3.43070E-02    4.84652E+03
 4.08680E-02    4.85656E+03
 4.63090E-02    4.80476E+03
 5.24750E-02    4.76564E+03
 5.65620E-02    4.71937E+03
 6.73790E-02    4.67671E+03
 7.20000E-02    4.64879E+03
 7.95000E-02    4.62644E+03
 8.25000E-02    4.61317E+03
 8.65170E-02    4.58550E+03
 9.80370E-02    4.58735E+03
 1.11090E-01    4.60759E+03
 1.16790E-01    4.61833E+03
 1.22770E-01    4.62962E+03
 1.29070E-01    4.64150E+03
 1.35690E-01    4.65398E+03
 1.42640E-01    4.66710E+03
 1.49960E-01    4.68232E+03
 1.57640E-01    4.70492E+03
 1.65730E-01    4.72950E+03
 1.74220E-01    4.75533E+03
 1.83160E-01    4.78250E+03
 1.92550E-01    4.81105E+03
 2.02420E-01    4.84177E+03
 2.12800E-01    4.87768E+03
 2.23710E-01    4.91597E+03
 2.35180E-01    4.95621E+03
 2.47240E-01    5.02076E+03
 2.73240E-01    5.09104E+03
 2.87250E-01    5.12948E+03
 2.94520E-01    5.14743E+03
 2.97200E-01    5.15460E+03
 2.98500E-01    5.16317E+03
 3.01970E-01    5.22607E+03
 3.33730E-01    5.34842E+03
 3.68830E-01    5.44811E+03
 3.87740E-01    5.51241E+03
 4.07620E-01    5.60968E+03
 4.50490E-01    5.74909E+03
 4.97870E-01    5.85601E+03
 5.23400E-01    5.93116E+03
 5.50230E-01    6.01015E+03
 5.78440E-01    6.09320E+03
 6.08100E-01    6.17602E+03
 6.39280E-01    6.25555E+03
 6.72060E-01    6.33903E+03
 7.06510E-01    6.42674E+03
 7.42740E-01    6.51122E+03
 7.80820E-01    6.59458E+03
 8.20850E-01    6.68220E+03
 8.62940E-01    6.76570E+03
 9.07180E-01    6.85267E+03
 9.61640E-01    6.93706E+03
 1.00260E+00    7.03361E+03
 1.10800E+00    7.13078E+03
 1.16480E+00    7.20007E+03
 1.22460E+00    7.26485E+03
 1.28730E+00    7.29800E+03
 1.35340E+00    7.32881E+03
 1.42270E+00    7.36119E+03
 1.49570E+00    7.38564E+03
 1.57240E+00    7.37656E+03
 1.65300E+00    7.35696E+03
 1.73770E+00    7.33133E+03
 1.82680E+00    7.28167E+03
 1.92050E+00    7.21502E+03
 2.01900E+00    7.13119E+03
 2.12250E+00    7.02190E+03
 2.23130E+00    6.92199E+03
 2.30690E+00    6.85126E+03
 2.34570E+00    6.80942E+03
 2.36530E+00    6.78116E+03
 2.38520E+00    6.70942E+03
 2.46600E+00    6.56381E+03
 2.59240E+00    6.40017E+03
 2.72530E+00    6.23418E+03
 2.86500E+00    6.07488E+03
 3.01190E+00    5.91147E+03
 3.16640E+00    5.74027E+03
 3.32870E+00    5.49576E+03
 3.67880E+00    5.18535E+03
 4.06570E+00    4.90968E+03
 4.49330E+00    4.71903E+03
 4.72370E+00    4.59799E+03
 4.96590E+00    4.50035E+03
 5.22050E+00    4.44652E+03
 5.48810E+00    4.39068E+03
 5.76950E+00    4.33513E+03
 6.06530E+00    4.33005E+03
 6.37630E+00    4.34479E+03
 6.59240E+00    4.35393E+03
 6.70320E+00    4.36653E+03
 7.04690E+00    4.39120E+03
 7.40820E+00    4.42588E+03
 7.78800E+00    4.46249E+03
 8.18730E+00    4.50098E+03
 8.60710E+00    4.54144E+03
 9.04840E+00    4.58498E+03
 9.51230E+00    4.63545E+03
 1.00000E+01    4.69214E+03
 1.05130E+01    4.76169E+03
 1.10520E+01    4.83146E+03
 1.16180E+01    4.90322E+03
 1.22140E+01    4.96047E+03
 1.28400E+01    5.01280E+03
 1.34990E+01    5.05234E+03
 1.38400E+01    5.07645E+03
 1.41910E+01    5.08784E+03
 1.45500E+01    5.09741E+03
 1.49180E+01    5.10476E+03
 1.56830E+01    5.10313E+03
 1.64870E+01    5.08857E+03
