# n + Se 79 : (n,g)     
# jendl4.0   S.Kamada, K.Shibata, A.Ichihara+  EVAL-MAY09
# uncertainties: n
# # energies =    69
#   E(MeV)       xs(mb) 
 1.00000E-10    3.49116E+05
 5.00000E-09    9.50580E+04
 1.00000E-08    7.19924E+04
 1.50000E-08    6.04878E+04
 2.00000E-08    5.32178E+04
 2.50000E-08    4.80791E+04
 3.00000E-08    4.41959E+04
 3.50000E-08    4.06343E+04
 4.20000E-08    3.71666E+04
 5.00000E-08    3.42822E+04
 5.80000E-08    3.18631E+04
 6.70000E-08    2.94047E+04
 8.00000E-08    2.66084E+04
 1.00000E-07    2.31496E+04
 1.40000E-07    1.99755E+04
 1.80000E-07    1.78369E+04
 2.20000E-07    1.64264E+04
 2.50000E-07    1.54649E+04
 2.80000E-07    1.47743E+04
 3.00000E-07    1.42892E+04
 3.20000E-07    1.37496E+04
 3.50000E-07    1.30049E+04
 4.00000E-07    1.18993E+04
 5.00000E-07    1.06431E+04
 6.25000E-07    9.52318E+03
 7.80000E-07    8.81475E+03
 8.50000E-07    8.48105E+03
 9.10000E-07    8.24821E+03
 9.50000E-07    8.11350E+03
 9.72000E-07    8.01828E+03
 9.96000E-07    7.92215E+03
 1.02000E-06    7.82757E+03
 1.04500E-06    7.73288E+03
 1.07100E-06    7.63967E+03
 1.09700E-06    7.54949E+03
 1.12300E-06    7.46158E+03
 1.15000E-06    7.19451E+03
 1.30000E-06    6.73316E+03
 1.50000E-06    5.97959E+03
 2.10000E-06    5.20800E+03
 2.60000E-06    4.65236E+03
 3.30000E-06    4.17631E+03
 4.00000E-06    3.20106E+03
 9.87700E-06    2.25082E+03
 1.59680E-05    1.74060E+03
 2.77000E-05    2.76676E+04
 4.80520E-05    4.84740E+04
 7.55014E-05    3.20962E+04
 1.48728E-04    1.72751E+04
 3.67262E-04    7.95801E+03
 9.06898E-04    4.62513E+03
 1.42510E-03    3.26447E+03
 2.23945E-03    2.22093E+03
 3.51910E-03    1.58773E+03
 5.53000E-03    1.16355E+03
 9.11800E-03    8.89831E+02
 1.50300E-02    6.70599E+02
 2.47800E-02    4.93190E+02
 4.08500E-02    3.62472E+02
 6.73400E-02    2.67367E+02
 1.11000E-01    1.93373E+02
 1.83000E-01    1.16944E+02
 3.02000E-01    7.57686E+01
 5.00000E-01    4.90252E+01
 8.21000E-01    3.81444E+01
 1.35300E+00    3.64008E+01
 2.23100E+00    2.92670E+01
 3.67900E+00    6.09300E+00
 6.06500E+00    1.33378E+00
