# n + Se 79 : (n,tot)   
# jendl4.0   S.Kamada, K.Shibata, A.Ichihara+  EVAL-MAY09
# uncertainties: n
# # energies =   171
#   E(MeV)       xs(mb) 
 1.00000E-11    5.53871E+05
 1.00000E-07    2.43896E+04
 4.13990E-07    1.79875E+04
 5.31580E-07    1.66555E+04
 6.82560E-07    1.54224E+04
 8.76420E-07    1.43115E+04
 1.12540E-06    1.34199E+04
 1.44500E-06    1.26039E+04
 1.85540E-06    1.18434E+04
 2.37240E-06    1.11819E+04
 3.05900E-06    1.06429E+04
 3.92790E-06    1.01340E+04
 5.04350E-06    9.65338E+03
 6.47600E-06    9.27539E+03
 8.31530E-06    8.94523E+03
 1.06770E-05    8.62639E+03
 1.37100E-05    8.33419E+03
 1.76030E-05    8.11552E+03
 2.26030E-05    7.90709E+03
 2.92030E-05    7.70549E+03
 3.72670E-05    1.61298E+05
 4.78510E-05    1.54976E+05
 6.14420E-05    1.37322E+05
 7.88930E-05    1.21690E+05
 1.01300E-04    1.10335E+05
 1.30070E-04    9.97923E+04
 1.67020E-04    8.66144E+04
 2.14450E-04    7.67186E+04
 2.75360E-04    6.78243E+04
 3.53580E-04    6.03781E+04
 4.54000E-04    5.38188E+04
 5.82950E-04    4.80464E+04
 7.48520E-04    4.29908E+04
 9.61120E-04    3.90409E+04
 1.23410E-03    3.58571E+04
 1.58460E-03    3.18099E+04
 2.03470E-03    2.91390E+04
 2.24870E-03    2.81239E+04
 2.48520E-03    2.72969E+04
 2.61260E-03    2.67077E+04
 2.74650E-03    2.57664E+04
 3.03540E-03    2.47426E+04
 3.35460E-03    2.38395E+04
 3.70740E-03    2.26347E+04
 4.30740E-03    2.09841E+04
 5.53080E-03    1.91069E+04
 7.10170E-03    1.74731E+04
 9.11880E-03    1.61294E+04
 1.17090E-02    1.51433E+04
 1.50340E-02    1.39342E+04
 1.93050E-02    1.29383E+04
 2.18750E-02    1.26170E+04
 2.35790E-02    1.24534E+04
 2.41760E-02    1.23682E+04
 2.47880E-02    1.22361E+04
 2.60580E-02    1.20798E+04
 2.70000E-02    1.19082E+04
 2.85000E-02    1.15988E+04
 3.18280E-02    1.13336E+04
 3.43070E-02    1.09621E+04
 4.08680E-02    1.05487E+04
 4.63090E-02    1.02258E+04
 5.24750E-02    9.99444E+03
 5.65620E-02    9.71419E+03
 6.73790E-02    9.45945E+03
 7.20000E-02    9.29925E+03
 7.95000E-02    9.16719E+03
 8.25000E-02    9.09276E+03
 8.65170E-02    8.93922E+03
 9.80370E-02    8.75515E+03
 1.11090E-01    8.66146E+03
 1.16790E-01    8.60458E+03
 1.22770E-01    8.54479E+03
 1.29070E-01    8.48189E+03
 1.35690E-01    8.41581E+03
 1.42640E-01    8.34633E+03
 1.49960E-01    8.27330E+03
 1.57640E-01    8.19652E+03
 1.65730E-01    8.11579E+03
 1.74220E-01    8.03092E+03
 1.83160E-01    7.94167E+03
 1.92550E-01    7.84926E+03
 2.02420E-01    7.78471E+03
 2.12800E-01    7.73086E+03
 2.23710E-01    7.67425E+03
 2.35180E-01    7.61473E+03
 2.47240E-01    7.51928E+03
 2.73240E-01    7.41726E+03
 2.87250E-01    7.36320E+03
 2.94520E-01    7.33796E+03
 2.97200E-01    7.32788E+03
 2.98500E-01    7.31638E+03
 3.01970E-01    7.24560E+03
 3.33730E-01    7.10999E+03
 3.68830E-01    6.99948E+03
 3.87740E-01    6.92129E+03
 4.07620E-01    6.80510E+03
 4.50490E-01    6.63873E+03
 4.97870E-01    6.50657E+03
 5.23400E-01    6.41853E+03
 5.50230E-01    6.32602E+03
 5.78440E-01    6.22876E+03
 6.08100E-01    6.12737E+03
 6.39280E-01    6.02787E+03
 6.72060E-01    5.92488E+03
 7.06510E-01    5.81787E+03
 7.42740E-01    5.71355E+03
 7.80820E-01    5.60538E+03
 8.20850E-01    5.49714E+03
 8.62940E-01    5.38999E+03
 9.07180E-01    5.27245E+03
 9.61640E-01    5.16727E+03
 1.00260E+00    5.04078E+03
 1.10800E+00    4.91712E+03
 1.16480E+00    4.82899E+03
 1.22460E+00    4.73640E+03
 1.28730E+00    4.63905E+03
 1.35340E+00    4.53671E+03
 1.42270E+00    4.42916E+03
 1.49570E+00    4.34431E+03
 1.57240E+00    4.29105E+03
 1.65300E+00    4.23519E+03
 1.73770E+00    4.17646E+03
 1.82680E+00    4.11468E+03
 1.92050E+00    4.05050E+03
 2.01900E+00    4.01159E+03
 2.12250E+00    3.98530E+03
 2.23130E+00    3.96241E+03
 2.30690E+00    3.94820E+03
 2.34570E+00    3.94096E+03
 2.36530E+00    3.93607E+03
 2.38520E+00    3.92365E+03
 2.46600E+00    3.90215E+03
 2.59240E+00    3.89235E+03
 2.72530E+00    3.88417E+03
 2.86500E+00    3.87556E+03
 3.01190E+00    3.86853E+03
 3.16640E+00    3.86800E+03
 3.32870E+00    3.87181E+03
 3.67880E+00    3.88014E+03
 4.06570E+00    3.89489E+03
 4.49330E+00    3.91078E+03
 4.72370E+00    3.92211E+03
 4.96590E+00    3.93401E+03
 5.22050E+00    3.94652E+03
 5.48810E+00    3.95968E+03
 5.76950E+00    3.97351E+03
 6.06530E+00    3.98804E+03
 6.37630E+00    4.00067E+03
 6.59240E+00    4.00611E+03
 6.70320E+00    4.00989E+03
 7.04690E+00    4.01578E+03
 7.40820E+00    4.01796E+03
 7.78800E+00    4.01133E+03
 8.18730E+00    4.00227E+03
 8.60710E+00    3.98292E+03
 9.04840E+00    3.95953E+03
 9.51230E+00    3.92723E+03
 1.00000E+01    3.88685E+03
 1.05130E+01    3.83896E+03
 1.10520E+01    3.78441E+03
 1.16180E+01    3.72373E+03
 1.22140E+01    3.65679E+03
 1.28400E+01    3.58530E+03
 1.34990E+01    3.52910E+03
 1.38400E+01    3.49035E+03
 1.41910E+01    3.45059E+03
 1.45500E+01    3.41034E+03
 1.49180E+01    3.34890E+03
 1.56830E+01    3.26491E+03
 1.64870E+01    3.18021E+03
