# n + Se 79 : (n,el)    
# jendl4.0   S.Kamada, K.Shibata, A.Ichihara+  EVAL-MAY09
# uncertainties: n
# # energies =   171
#   E(MeV)       xs(mb) 
 1.00000E-11    1.18960E+04
 1.00000E-07    6.30577E+03
 4.13990E-07    6.30263E+03
 5.31580E-07    6.30182E+03
 6.82560E-07    6.30164E+03
 8.76420E-07    6.30162E+03
 1.12540E-06    6.30161E+03
 1.44500E-06    6.30158E+03
 1.85540E-06    6.30156E+03
 2.37240E-06    6.30152E+03
 3.05900E-06    6.30148E+03
 3.92790E-06    6.30142E+03
 5.04350E-06    6.30135E+03
 6.47600E-06    6.30126E+03
 8.31530E-06    6.30114E+03
 1.06770E-05    6.30098E+03
 1.37100E-05    6.30078E+03
 1.76030E-05    6.30053E+03
 2.26030E-05    6.30020E+03
 2.92030E-05    6.30003E+03
 3.72670E-05    1.02965E+05
 4.78510E-05    1.02557E+05
 6.14420E-05    9.41756E+04
 7.88930E-05    8.62792E+04
 1.01300E-04    8.01121E+04
 1.30070E-04    7.40710E+04
 1.67020E-04    6.65025E+04
 2.14450E-04    6.04708E+04
 2.75360E-04    5.47815E+04
 3.53580E-04    4.97971E+04
 4.54000E-04    4.52458E+04
 5.82950E-04    4.10983E+04
 7.48520E-04    3.73469E+04
 9.61120E-04    3.43178E+04
 1.23410E-03    3.17928E+04
 1.58460E-03    2.85807E+04
 2.03470E-03    2.64352E+04
 2.24870E-03    2.55879E+04
 2.48520E-03    2.48974E+04
 2.61260E-03    2.44056E+04
 2.74650E-03    2.36197E+04
 3.03540E-03    2.27535E+04
 3.35460E-03    2.19793E+04
 3.70740E-03    2.09446E+04
 4.30740E-03    1.95080E+04
 5.53080E-03    1.78540E+04
 7.10170E-03    1.63991E+04
 9.11880E-03    1.51924E+04
 1.17090E-02    1.43007E+04
 1.50340E-02    1.32068E+04
 1.93050E-02    1.23056E+04
 2.18750E-02    1.20148E+04
 2.35790E-02    1.18668E+04
 2.41760E-02    1.17896E+04
 2.47880E-02    1.16700E+04
 2.60580E-02    1.15286E+04
 2.70000E-02    1.13732E+04
 2.85000E-02    1.10932E+04
 3.18280E-02    1.08532E+04
 3.43070E-02    1.05171E+04
 4.08680E-02    1.01430E+04
 4.63090E-02    9.85081E+03
 5.24750E-02    9.64150E+03
 5.65620E-02    9.38772E+03
 6.73790E-02    9.15658E+03
 7.20000E-02    9.01090E+03
 7.95000E-02    8.89073E+03
 8.25000E-02    8.82290E+03
 8.65170E-02    8.68290E+03
 9.80370E-02    8.51583E+03
 1.11090E-01    8.43220E+03
 1.16790E-01    8.38147E+03
 1.22770E-01    8.32814E+03
 1.29070E-01    8.27181E+03
 1.35690E-01    8.20423E+03
 1.42640E-01    8.09363E+03
 1.49960E-01    7.97212E+03
 1.57640E-01    7.84437E+03
 1.65730E-01    7.71005E+03
 1.74220E-01    7.56885E+03
 1.83160E-01    7.42036E+03
 1.92550E-01    7.26692E+03
 2.02420E-01    7.16766E+03
 2.12800E-01    7.08996E+03
 2.23710E-01    7.00828E+03
 2.35180E-01    6.92240E+03
 2.47240E-01    6.78468E+03
 2.73240E-01    6.63747E+03
 2.87250E-01    6.55947E+03
 2.94520E-01    6.52305E+03
 2.97200E-01    6.50851E+03
 2.98500E-01    6.49233E+03
 3.01970E-01    6.40280E+03
 3.33730E-01    6.23185E+03
 3.68830E-01    6.04985E+03
 3.87740E-01    5.86209E+03
 4.07620E-01    5.67589E+03
 4.50490E-01    5.43159E+03
 4.97870E-01    5.24988E+03
 5.23400E-01    5.14755E+03
 5.50230E-01    4.99890E+03
 5.78440E-01    4.79306E+03
 6.08100E-01    4.63051E+03
 6.39280E-01    4.48795E+03
 6.72060E-01    4.32030E+03
 7.06510E-01    4.10917E+03
 7.42740E-01    3.85646E+03
 7.80820E-01    3.60222E+03
 8.20850E-01    3.47612E+03
 8.62940E-01    3.36610E+03
 9.07180E-01    3.24125E+03
 9.61640E-01    3.12339E+03
 1.00260E+00    3.00200E+03
 1.10800E+00    2.88623E+03
 1.16480E+00    2.80368E+03
 1.22460E+00    2.71695E+03
 1.28730E+00    2.62577E+03
 1.35340E+00    2.52991E+03
 1.42270E+00    2.42917E+03
 1.49570E+00    2.34584E+03
 1.57240E+00    2.28703E+03
 1.65300E+00    2.22531E+03
 1.73770E+00    2.16042E+03
 1.82680E+00    2.09217E+03
 1.92050E+00    2.02119E+03
 2.01900E+00    1.97578E+03
 2.12250E+00    1.94298E+03
 2.23130E+00    1.91442E+03
 2.30690E+00    1.89670E+03
 2.34570E+00    1.88766E+03
 2.36530E+00    1.88156E+03
 2.38520E+00    1.86607E+03
 2.46600E+00    1.83908E+03
 2.59240E+00    1.81749E+03
 2.72530E+00    1.79552E+03
 2.86500E+00    1.77252E+03
 3.01190E+00    1.76555E+03
 3.16640E+00    1.77118E+03
 3.32870E+00    1.78439E+03
 3.67880E+00    1.82832E+03
 4.06570E+00    1.88928E+03
 4.49330E+00    1.94318E+03
 4.72370E+00    1.98159E+03
 4.96590E+00    2.02139E+03
 5.22050E+00    2.05883E+03
 5.48810E+00    2.09571E+03
 5.76950E+00    2.12957E+03
 6.06530E+00    2.16131E+03
 6.37630E+00    2.18519E+03
 6.59240E+00    2.19787E+03
 6.70320E+00    2.21204E+03
 7.04690E+00    2.22956E+03
 7.40820E+00    2.23946E+03
 7.78800E+00    2.24468E+03
 8.18730E+00    2.24078E+03
 8.60710E+00    2.23070E+03
 9.04840E+00    2.21210E+03
 9.51230E+00    2.18640E+03
 1.00000E+01    2.15193E+03
 1.05130E+01    2.11058E+03
 1.10520E+01    2.06258E+03
 1.16180E+01    2.00855E+03
 1.22140E+01    1.94816E+03
 1.28400E+01    1.88349E+03
 1.34990E+01    1.83273E+03
 1.38400E+01    1.79784E+03
 1.41910E+01    1.76258E+03
 1.45500E+01    1.72715E+03
 1.49180E+01    1.67382E+03
 1.56830E+01    1.60206E+03
 1.64870E+01    1.53162E+03
