# n + Ba135 : (n,xt)    
# jendl.ad   N.Iwamoto                         EVAL-Apr14
# 
# # energies =    88
#   E(MeV)        xs(mb) 
 1.05000E-01    0.00000E+00
 1.10000E-01    0.00000E+00
 1.20000E-01    0.00000E+00
 1.30000E-01    0.00000E+00
 1.40000E-01    0.00000E+00
 1.50000E-01    0.00000E+00
 1.60000E-01    0.00000E+00
 1.70000E-01    0.00000E+00
 1.80000E-01    0.00000E+00
 1.90000E-01    0.00000E+00
 2.00000E-01    0.00000E+00
 2.22620E-01    0.00000E+00
 2.25000E-01    0.00000E+00
 2.50000E-01    0.00000E+00
 2.70225E-01    0.00000E+00
 2.75000E-01    0.00000E+00
 3.00000E-01    0.00000E+00
 4.00000E-01    0.00000E+00
 4.84125E-01    0.00000E+00
 5.00000E-01    0.00000E+00
 5.92222E-01    0.00000E+00
 6.00000E-01    0.00000E+00
 7.00000E-01    0.00000E+00
 7.19540E-01    0.00000E+00
 8.00000E-01    0.00000E+00
 8.61405E-01    0.00000E+00
 8.81057E-01    0.00000E+00
 9.00000E-01    0.00000E+00
 9.17096E-01    0.00000E+00
 9.58010E-01    0.00000E+00
 9.87292E-01    0.00000E+00
 1.00000E+00    0.00000E+00
 1.01554E+00    0.00000E+00
 1.10000E+00    0.00000E+00
 1.13845E+00    0.00000E+00
 1.17391E+00    0.00000E+00
 1.20000E+00    0.00000E+00
 1.20946E+00    0.00000E+00
 1.22280E+00    0.00000E+00
 1.23503E+00    0.00000E+00
 1.24767E+00    0.00000E+00
 1.30000E+00    0.00000E+00
 1.30825E+00    0.00000E+00
 1.40000E+00    0.00000E+00
 1.50000E+00    0.00000E+00
 1.60000E+00    0.00000E+00
 1.70000E+00    0.00000E+00
 1.80000E+00    0.00000E+00
 1.90000E+00    0.00000E+00
 2.00000E+00    0.00000E+00
 2.25000E+00    0.00000E+00
 2.50000E+00    0.00000E+00
 2.75000E+00    0.00000E+00
 3.00000E+00    0.00000E+00
 3.50000E+00    0.00000E+00
 4.00000E+00    0.00000E+00
 4.50000E+00    0.00000E+00
 5.00000E+00    0.00000E+00
 5.50000E+00    0.00000E+00
 6.00000E+00    0.00000E+00
 6.50000E+00    0.00000E+00
 7.00000E+00    1.41887E-19
 7.50000E+00    2.00156E-18
 8.00000E+00    2.34850E-17
 8.50000E+00    3.45540E-14
 9.00000E+00    2.54770E-11
 9.50000E+00    1.95600E-09
 1.00000E+01    3.94300E-08
 1.05000E+01    3.47020E-07
 1.10000E+01    1.85514E-06
 1.15000E+01    7.87608E-06
 1.20000E+01    3.22650E-05
 1.25000E+01    1.30996E-04
 1.30000E+01    4.88226E-04
 1.35000E+01    1.58418E-03
 1.40000E+01    4.34740E-03
 1.45000E+01    1.05022E-02
 1.50000E+01    2.21455E-02
 1.55000E+01    4.20452E-02
 1.60000E+01    7.05368E-02
 1.65000E+01    1.09838E-01
 1.70000E+01    1.58162E-01
 1.75000E+01    2.19631E-01
 1.80000E+01    2.88868E-01
 1.85000E+01    3.64569E-01
 1.90000E+01    4.50633E-01
 1.95000E+01    5.43889E-01
 2.00000E+01    6.39703E-01
