# n + Ba135 : (n,na)    
# jendl.ad   N.Iwamoto                         EVAL-Apr14
# uncertainties: n
# # energies =    35
#   E(MeV)       xs(mb) 
 1.87413E+00    0.00000E+00
 2.03928E+00    2.13870E-26
 4.00000E+00    2.58920E-21
 4.50000E+00    1.37170E-19
 5.00000E+00    1.80370E-15
 5.50000E+00    2.37760E-12
 6.00000E+00    6.51560E-10
 6.50000E+00    5.41940E-08
 7.00000E+00    1.84701E-06
 7.50000E+00    2.38068E-05
 8.00000E+00    1.65339E-04
 8.50000E+00    7.70323E-04
 9.00000E+00    2.43172E-03
 9.50000E+00    6.08068E-03
 1.00000E+01    1.15267E-02
 1.05000E+01    2.09556E-02
 1.10000E+01    3.82339E-02
 1.15000E+01    6.85698E-02
 1.20000E+01    1.19056E-01
 1.25000E+01    1.99420E-01
 1.30000E+01    3.19187E-01
 1.35000E+01    5.02353E-01
 1.40000E+01    7.68433E-01
 1.45000E+01    1.13899E+00
 1.50000E+01    1.62739E+00
 1.55000E+01    2.22145E+00
 1.60000E+01    2.92031E+00
 1.65000E+01    3.69775E+00
 1.70000E+01    4.47636E+00
 1.75000E+01    5.30450E+00
 1.80000E+01    6.12239E+00
 1.85000E+01    6.93675E+00
 1.90000E+01    7.74744E+00
 1.95000E+01    8.57865E+00
 2.00000E+01    9.36091E+00
