# n + Ni 64 : (n,tot)   
# jendl4.0   S.IIJIMA                          EVAL-MAR87
# uncertainties: n
# # energies =   171
#   E(MeV)       xs(mb) 
 1.00000E-11    1.60744E+04
 1.00000E-07    5.67613E+02
 4.13990E-07    3.78601E+02
 5.31580E-07    3.38185E+02
 6.82560E-07    3.02531E+02
 8.76420E-07    2.71070E+02
 1.12540E-06    2.43355E+02
 1.44500E-06    2.18928E+02
 1.85540E-06    1.97538E+02
 2.37240E-06    1.78460E+02
 3.05900E-06    1.61464E+02
 3.92790E-06    1.46666E+02
 5.04350E-06    1.33598E+02
 6.47600E-06    1.22106E+02
 8.31530E-06    1.12013E+02
 1.06770E-05    1.03119E+02
 1.37100E-05    9.53572E+01
 1.76030E-05    8.85787E+01
 2.26030E-05    8.26301E+01
 2.92030E-05    7.75722E+01
 3.72670E-05    7.33386E+01
 4.78510E-05    6.97612E+01
 6.14420E-05    6.68921E+01
 7.88930E-05    6.47214E+01
 1.01300E-04    6.33063E+01
 1.30070E-04    6.26910E+01
 1.67020E-04    6.30552E+01
 2.14450E-04    6.45473E+01
 2.75360E-04    6.75201E+01
 3.53580E-04    7.24160E+01
 4.54000E-04    8.00207E+01
 5.82950E-04    9.08683E+01
 7.48520E-04    1.06470E+02
 9.61120E-04    1.30415E+02
 1.23410E-03    1.67532E+02
 1.58460E-03    2.23640E+02
 2.03470E-03    2.81023E+02
 2.24870E-03    3.25297E+02
 2.48520E-03    3.63156E+02
 2.61260E-03    3.92082E+02
 2.74650E-03    4.43208E+02
 3.03540E-03    5.27213E+02
 3.35460E-03    6.35232E+02
 3.70740E-03    8.11127E+02
 4.30740E-03    1.26900E+03
 5.53080E-03    2.43150E+03
 7.10170E-03    5.59523E+03
 9.11880E-03    2.16494E+04
 1.17090E-02    1.17623E+05
 1.50340E-02    5.12611E+04
 1.93050E-02    7.10939E+03
 2.18750E-02    2.57363E+03
 2.35790E-02    1.72393E+03
 2.41760E-02    1.68178E+03
 2.47880E-02    2.20733E+03
 2.60580E-02    3.80597E+03
 2.70000E-02    7.63656E+03
 2.85000E-02    2.66987E+04
 3.18280E-02    6.85868E+04
 3.43070E-02    6.95837E+04
 4.08680E-02    3.69914E+04
 4.63090E-02    2.40609E+04
 5.24750E-02    1.84676E+04
 5.65620E-02    1.44588E+04
 6.73790E-02    1.18059E+04
 7.20000E-02    1.04687E+04
 7.95000E-02    9.52041E+03
 8.25000E-02    8.98946E+03
 8.65170E-02    7.99547E+03
 9.80370E-02    6.98492E+03
 1.11090E-01    5.65349E+03
 1.16790E-01    4.68473E+03
 1.22770E-01    2.47251E+03
 1.29070E-01    1.08191E+04
 1.35690E-01    5.88174E+03
 1.42640E-01    3.11584E+03
 1.49960E-01    7.71780E+03
 1.57640E-01    1.16136E+04
 1.65730E-01    7.66265E+03
 1.74220E-01    7.44767E+03
 1.83160E-01    6.75038E+03
 1.92550E-01    5.56166E+03
 2.02420E-01    4.83474E+03
 2.12800E-01    3.80414E+03
 2.23710E-01    4.51888E+03
 2.35180E-01    7.90683E+03
 2.47240E-01    4.81614E+03
 2.73240E-01    6.04335E+03
 2.87250E-01    4.72098E+03
 2.94520E-01    3.21927E+03
 2.97200E-01    1.50913E+03
 2.98500E-01    5.98282E+03
 3.01970E-01    5.08413E+03
 3.33730E-01    4.62327E+03
 3.68830E-01    3.97041E+03
 3.87740E-01    4.83765E+03
 4.07620E-01    5.27846E+03
 4.50490E-01    4.48662E+03
 4.97870E-01    3.62421E+03
 5.23400E-01    3.95501E+03
 5.50230E-01    3.19322E+03
 5.78440E-01    2.92590E+03
 6.08100E-01    3.87660E+03
 6.39280E-01    3.72519E+03
 6.72060E-01    4.02332E+03
 7.06510E-01    2.64748E+03
 7.42740E-01    3.22768E+03
 7.80820E-01    3.14728E+03
 8.20850E-01    3.44129E+03
 8.62940E-01    3.36822E+03
 9.07180E-01    3.25308E+03
 9.61640E-01    3.12479E+03
 1.00260E+00    2.96392E+03
 1.10800E+00    3.24707E+03
 1.16480E+00    3.20890E+03
 1.22460E+00    3.47429E+03
 1.28730E+00    3.90248E+03
 1.35340E+00    3.15981E+03
 1.42270E+00    3.52980E+03
 1.49570E+00    3.30115E+03
 1.57240E+00    3.14801E+03
 1.65300E+00    3.35909E+03
 1.73770E+00    3.25493E+03
 1.82680E+00    2.94421E+03
 1.92050E+00    2.93092E+03
 2.01900E+00    3.12724E+03
 2.12250E+00    3.18820E+03
 2.23130E+00    3.21245E+03
 2.30690E+00    3.33395E+03
 2.34570E+00    3.60495E+03
 2.36530E+00    2.97666E+03
 2.38520E+00    3.31601E+03
 2.46600E+00    3.24122E+03
 2.59240E+00    3.17652E+03
 2.72530E+00    3.35669E+03
 2.86500E+00    3.40564E+03
 3.01190E+00    3.24462E+03
 3.16640E+00    3.37403E+03
 3.32870E+00    3.52809E+03
 3.67880E+00    3.50044E+03
 4.06570E+00    3.59084E+03
 4.49330E+00    3.64692E+03
 4.72370E+00    3.64858E+03
 4.96590E+00    3.74861E+03
 5.22050E+00    3.75896E+03
 5.48810E+00    3.77214E+03
 5.76950E+00    3.78401E+03
 6.06530E+00    3.78073E+03
 6.37630E+00    3.71845E+03
 6.59240E+00    3.74621E+03
 6.70320E+00    3.68935E+03
 7.04690E+00    3.66835E+03
 7.40820E+00    3.61008E+03
 7.78800E+00    3.56776E+03
 8.18730E+00    3.49292E+03
 8.60710E+00    3.44537E+03
 9.04840E+00    3.36803E+03
 9.51230E+00    3.33072E+03
 1.00000E+01    3.27028E+03
 1.05130E+01    3.19755E+03
 1.10520E+01    3.11863E+03
 1.16180E+01    3.02516E+03
 1.22140E+01    2.93722E+03
 1.28400E+01    2.87336E+03
 1.34990E+01    2.79557E+03
 1.38400E+01    2.75971E+03
 1.41910E+01    2.72179E+03
 1.45500E+01    2.68213E+03
 1.49180E+01    2.61823E+03
 1.56830E+01    2.55559E+03
 1.64870E+01    2.49518E+03
