# n + Ce140 : (n,xa)    
# jeff3.3    A.J. Koning and D. Rochman        EVAL-DEC15
# 
# # energies =   121
#   E(MeV)        xs(mb) 
 1.60775E+00    6.54892E-05
 1.80000E+00    8.84376E-05
 1.91704E+00    1.25281E-04
 2.00000E+00    1.51396E-04
 2.09828E+00    1.73406E-04
 2.12306E+00    1.78955E-04
 2.20000E+00    1.96186E-04
 2.36481E+00    3.03653E-04
 2.36675E+00    3.04918E-04
 2.40000E+00    3.26599E-04
 2.42941E+00    3.32747E-04
 2.48186E+00    3.43713E-04
 2.49882E+00    3.47258E-04
 2.53390E+00    3.54592E-04
 2.53961E+00    3.55786E-04
 2.56559E+00    3.61217E-04
 2.60000E+00    3.68411E-04
 2.64784E+00    3.95757E-04
 2.67747E+00    4.12693E-04
 2.80000E+00    4.82732E-04
 2.92057E+00    6.10961E-04
 3.00000E+00    6.95436E-04
 3.02276E+00    7.19592E-04
 3.03865E+00    7.35988E-04
 3.06192E+00    7.59998E-04
 3.14103E+00    8.41627E-04
 3.19114E+00    8.93333E-04
 3.20000E+00    9.02475E-04
 3.24926E+00    1.01021E-03
 3.27927E+00    1.07585E-03
 3.34434E+00    1.21816E-03
 3.35502E+00    1.24152E-03
 3.40000E+00    1.33990E-03
 3.41575E+00    1.37435E-03
 3.41918E+00    1.38185E-03
 3.43443E+00    1.41520E-03
 3.44929E+00    1.44767E-03
 3.45755E+00    1.46557E-03
 3.49862E+00    1.55456E-03
 3.60000E+00    1.77423E-03
 3.80000E+00    2.17387E-03
 4.00000E+00    2.68853E-03
 4.20000E+00    3.11433E-03
 4.40000E+00    3.74455E-03
 4.60000E+00    4.32728E-03
 4.80000E+00    4.95531E-03
 5.00000E+00    5.80685E-03
 5.20000E+00    6.65840E-03
 5.40000E+00    7.80928E-03
 5.60000E+00    9.15597E-03
 5.80000E+00    1.06267E-02
 6.00000E+00    1.24684E-02
 6.20000E+00    1.44892E-02
 6.40000E+00    1.68573E-02
 6.60000E+00    2.02372E-02
 6.80000E+00    2.36734E-02
 7.00000E+00    2.75238E-02
 7.20000E+00    3.24970E-02
 7.40000E+00    3.85775E-02
 7.60000E+00    4.62747E-02
 7.80000E+00    5.48166E-02
 8.00000E+00    6.33605E-02
 8.50000E+00    9.81279E-02
 9.00000E+00    1.53692E-01
 9.50000E+00    2.41625E-01
 1.00000E+01    3.75951E-01
 1.05000E+01    5.71843E-01
 1.10000E+01    8.42858E-01
 1.15000E+01    1.19878E+00
 1.20000E+01    1.64468E+00
 1.25000E+01    2.18338E+00
 1.30000E+01    2.81452E+00
 1.35000E+01    3.53995E+00
 1.40000E+01    4.36055E+00
 1.45000E+01    5.25585E+00
 1.50000E+01    6.25631E+00
 1.60000E+01    8.68041E+00
 1.70000E+01    1.18246E+01
 1.80000E+01    1.60183E+01
 1.90000E+01    2.21273E+01
 2.00000E+01    2.82796E+01
 2.10000E+01    3.23756E+01
 2.20000E+01    3.46473E+01
 2.30000E+01    3.16932E+01
 2.40000E+01    3.22380E+01
 2.50000E+01    3.32370E+01
 2.60000E+01    3.44637E+01
 2.70000E+01    3.58016E+01
 2.80000E+01    3.71726E+01
 2.90000E+01    3.85589E+01
 3.00000E+01    3.99310E+01
 3.00000E+01    3.98236E+01
 3.20000E+01    4.25202E+01
 3.40000E+01    4.50256E+01
 3.60000E+01    4.74962E+01
 3.80000E+01    4.97633E+01
 4.00000E+01    5.18524E+01
 4.20000E+01    5.37766E+01
 4.40000E+01    5.56123E+01
 4.60000E+01    5.72459E+01
 4.80000E+01    5.87100E+01
 5.00000E+01    6.01598E+01
 5.20000E+01    6.14326E+01
 5.40000E+01    6.25661E+01
 5.60000E+01    6.38088E+01
 5.80000E+01    6.52101E+01
 6.00000E+01    6.64771E+01
 6.50000E+01    6.87056E+01
 7.00000E+01    7.19210E+01
 7.50000E+01    7.38615E+01
 8.00000E+01    7.33882E+01
 9.00000E+01    7.32641E+01
 1.00000E+02    6.89758E+01
 1.10000E+02    7.80702E+01
 1.20000E+02    9.01746E+01
 1.30000E+02    1.06219E+02
 1.40000E+02    1.25645E+02
 1.50000E+02    1.49304E+02
 1.60000E+02    1.80138E+02
 1.80000E+02    2.69231E+02
 2.00000E+02    4.06962E+02
