# n + Ce140 : (n,n'07)  
# jeff3.3    A.J. Koning and D. Rochman        EVAL-DEC15
# uncertainties: n
# # energies =    81
#   E(MeV)       xs(mb) 
 2.42941E+00    0.00000E+00
 2.48186E+00    3.01239E+01
 2.49882E+00    3.98647E+01
 2.53390E+00    6.00124E+01
 2.53961E+00    6.32918E+01
 2.56559E+00    7.82130E+01
 2.60000E+00    9.79759E+01
 2.64784E+00    1.02064E+02
 2.67747E+00    1.04597E+02
 2.80000E+00    1.15068E+02
 2.92057E+00    1.26550E+02
 3.00000E+00    1.34115E+02
 3.02276E+00    1.35284E+02
 3.03865E+00    1.36100E+02
 3.06192E+00    1.37294E+02
 3.14103E+00    1.41356E+02
 3.19114E+00    1.43929E+02
 3.20000E+00    1.44384E+02
 3.24926E+00    1.45510E+02
 3.27927E+00    1.46197E+02
 3.34434E+00    1.47684E+02
 3.35502E+00    1.47929E+02
 3.40000E+00    1.48957E+02
 3.41575E+00    1.48116E+02
 3.41918E+00    1.47933E+02
 3.43443E+00    1.47119E+02
 3.44929E+00    1.46325E+02
 3.45755E+00    1.45884E+02
 3.49862E+00    1.43691E+02
 3.60000E+00    1.38278E+02
 3.80000E+00    1.16040E+02
 4.00000E+00    9.19566E+01
 4.20000E+00    6.96645E+01
 4.40000E+00    5.11205E+01
 4.60000E+00    3.68922E+01
 4.80000E+00    2.65125E+01
 5.00000E+00    1.91316E+01
 5.20000E+00    1.39174E+01
 5.40000E+00    1.02204E+01
 5.60000E+00    7.57278E+00
 5.80000E+00    5.65630E+00
 6.00000E+00    4.25028E+00
 6.20000E+00    3.20152E+00
 6.40000E+00    2.42029E+00
 6.60000E+00    1.83441E+00
 6.80000E+00    1.39330E+00
 7.00000E+00    1.06069E+00
 7.20000E+00    8.10491E-01
 7.40000E+00    6.20982E-01
 7.60000E+00    4.78419E-01
 7.80000E+00    3.69081E-01
 8.00000E+00    2.86899E-01
 8.50000E+00    1.54936E-01
 9.00000E+00    8.56826E-02
 9.50000E+00    4.83142E-02
 1.00000E+01    2.75897E-02
 1.05000E+01    1.58634E-02
 1.10000E+01    9.15839E-03
 1.15000E+01    5.30727E-03
 1.20000E+01    3.09155E-03
 1.25000E+01    1.81211E-03
 1.30000E+01    1.06926E-03
 1.35000E+01    6.35411E-04
 1.40000E+01    3.80374E-04
 1.45000E+01    2.29361E-04
 1.50000E+01    1.39263E-04
 1.60000E+01    5.23367E-05
 1.70000E+01    2.01127E-05
 1.80000E+01    7.88184E-06
 1.90000E+01    3.12078E-06
 2.00000E+01    1.26503E-06
 2.10000E+01    5.22650E-07
 2.20000E+01    2.19900E-07
 2.30000E+01    9.46560E-08
 2.40000E+01    4.13240E-08
 2.50000E+01    1.83350E-08
 2.60000E+01    8.25770E-09
 2.70000E+01    3.77150E-09
 2.80000E+01    1.74320E-09
 2.90000E+01    8.15270E-10
 3.00000E+01    3.85250E-10
