# n + C   0 : (n,a)
# jendl.ad   N.Iwamoto, F.Minato               EVAL-Feb17
# uncertainties: n
# # energies =    81
#   E(MeV)          xs(mb) 
 6.18075E+00    5.48191E-02
 7.26547E+00    8.11717E-01
 7.44282E+00    2.62044E+01
 7.60671E+00    4.85671E+01
 7.61858E+00    4.93255E+01
 7.64234E+00    5.35902E+01
 7.66609E+00    6.10435E+01
 7.68984E+00    7.11152E+01
 7.73734E+00    9.68326E+01
 7.78485E+00    1.26182E+02
 7.83235E+00    1.54600E+02
 7.87985E+00    1.77527E+02
 7.92736E+00    1.90400E+02
 7.95111E+00    1.91642E+02
 7.97486E+00    1.88659E+02
 8.11420E+00    1.52778E+02
 8.25355E+00    1.15338E+02
 8.32322E+00    9.98762E+01
 8.39289E+00    8.86359E+01
 8.46256E+00    8.31556E+01
 8.49739E+00    8.30554E+01
 8.53224E+00    8.49728E+01
 8.65258E+00    9.43177E+01
 8.77292E+00    1.05864E+02
 8.83309E+00    1.14416E+02
 8.89326E+00    1.25862E+02
 8.95343E+00    1.40984E+02
 9.01360E+00    1.60564E+02
 9.05794E+00    1.80038E+02
 9.10228E+00    2.04221E+02
 9.19095E+00    2.56358E+02
 9.23528E+00    2.79140E+02
 9.27962E+00    2.96288E+02
 9.32396E+00    3.05210E+02
 9.36830E+00    3.03322E+02
 9.44430E+00    2.84901E+02
 9.52031E+00    2.59700E+02
 9.59631E+00    2.30882E+02
 9.67232E+00    2.01609E+02
 9.70398E+00    1.92231E+02
 9.73566E+00    1.87118E+02
 9.79899E+00    1.85618E+02
 9.86233E+00    1.88949E+02
 9.92567E+00    1.88955E+02
 1.00333E+01    1.77273E+02
 1.01410E+01    1.60376E+02
 1.02487E+01    1.43164E+02
 1.03564E+01    1.30538E+02
 1.05654E+01    1.12940E+02
 1.07744E+01    9.63593E+01
 1.09834E+01    8.44669E+01
 1.10879E+01    8.14260E+01
 1.11924E+01    8.09336E+01
 1.16168E+01    8.85258E+01
 1.20412E+01    9.81468E+01
 1.22533E+01    1.01112E+02
 1.24655E+01    1.01451E+02
 1.26777E+01    9.81190E+01
 1.28899E+01    9.00700E+01
 1.31274E+01    8.03075E+01
 1.33649E+01    7.45159E+01
 1.36024E+01    7.18225E+01
 1.38400E+01    7.13524E+01
 1.43150E+01    7.35866E+01
 1.47900E+01    7.42314E+01
 1.54329E+01    6.78502E+01
 1.60758E+01    5.70122E+01
 1.73615E+01    3.15232E+01
 1.76830E+01    2.60988E+01
 1.80044E+01    2.16509E+01
 1.83259E+01    1.84771E+01
 1.84866E+01    1.74615E+01
 1.86473E+01    1.68769E+01
 1.88080E+01    1.67602E+01
 1.89687E+01    1.71488E+01
 1.91295E+01    1.80800E+01
 1.92902E+01    1.95911E+01
 1.94509E+01    2.17193E+01
 1.96116E+01    2.45022E+01
 1.97723E+01    2.79771E+01
 2.00000E+01    3.21794E+01
