# n + Kr 85 : (n,n'15)  
# jendl4.0   K.Shibata, A.Ichihara, S.Kunieda  EVAL-AUG09
# uncertainties: n
# # energies =    28
#   E(MeV)       xs(mb) 
 2.01546E+00    0.00000E+00
 2.50000E+00    8.01000E+01
 3.00000E+00    1.14600E+02
 3.50000E+00    8.95600E+01
 4.00000E+00    5.92300E+01
 4.50000E+00    2.99400E+01
 5.00000E+00    1.55300E+01
 5.50000E+00    8.14000E+00
 6.00000E+00    4.56000E+00
 6.50000E+00    2.98500E+00
 7.00000E+00    2.01800E+00
 7.50000E+00    1.67400E+00
 8.00000E+00    1.31700E+00
 8.50000E+00    1.26300E+00
 9.00000E+00    1.06800E+00
 9.50000E+00    1.08900E+00
 1.00000E+01    9.46300E-01
 1.10000E+01    8.64700E-01
 1.20000E+01    8.08200E-01
 1.30000E+01    7.58800E-01
 1.40000E+01    7.10300E-01
 1.45000E+01    6.24900E-01
 1.50000E+01    6.61700E-01
 1.60000E+01    6.14700E-01
 1.70000E+01    5.70900E-01
 1.80000E+01    5.31600E-01
 1.90000E+01    4.97400E-01
 2.00000E+01    4.67500E-01
