# n + Kr 85 : (n,n'04)  
# jendl4.0   K.Shibata, A.Ichihara, S.Kunieda  EVAL-AUG09
# uncertainties: n
# # energies =    30
#   E(MeV)       xs(mb) 
 1.18055E+00    0.00000E+00
 1.50000E+00    9.69900E+01
 2.00000E+00    1.10300E+02
 2.50000E+00    7.75000E+01
 3.00000E+00    6.47200E+01
 3.50000E+00    4.42000E+01
 4.00000E+00    2.87000E+01
 4.50000E+00    1.60300E+01
 5.00000E+00    9.06100E+00
 5.50000E+00    5.02400E+00
 6.00000E+00    2.85900E+00
 6.50000E+00    1.91000E+00
 7.00000E+00    1.30900E+00
 7.50000E+00    1.09800E+00
 8.00000E+00    8.68900E-01
 8.50000E+00    8.33700E-01
 9.00000E+00    7.03300E-01
 9.50000E+00    7.12300E-01
 1.00000E+01    6.13600E-01
 1.10000E+01    5.49700E-01
 1.20000E+01    5.04700E-01
 1.30000E+01    4.67400E-01
 1.40000E+01    4.32300E-01
 1.45000E+01    3.78300E-01
 1.50000E+01    3.98500E-01
 1.60000E+01    3.66300E-01
 1.70000E+01    3.36500E-01
 1.80000E+01    3.09800E-01
 1.90000E+01    2.86500E-01
 2.00000E+01    2.66300E-01
