# n + Kr 85 : (n,n'11)  
# jendl4.0   K.Shibata, A.Ichihara, S.Kunieda  EVAL-AUG09
# uncertainties: n
# # energies =    29
#   E(MeV)       xs(mb) 
 1.89577E+00    0.00000E+00
 2.00000E+00    1.32800E+01
 2.50000E+00    4.01000E+01
 3.00000E+00    3.71700E+01
 3.50000E+00    2.78400E+01
 4.00000E+00    2.04100E+01
 4.50000E+00    1.26700E+01
 5.00000E+00    7.74000E+00
 5.50000E+00    4.48900E+00
 6.00000E+00    2.60700E+00
 6.50000E+00    1.74900E+00
 7.00000E+00    1.19600E+00
 7.50000E+00    9.98800E-01
 8.00000E+00    7.88900E-01
 8.50000E+00    7.57800E-01
 9.00000E+00    6.41700E-01
 9.50000E+00    6.53200E-01
 1.00000E+01    5.65900E-01
 1.10000E+01    5.11900E-01
 1.20000E+01    4.73400E-01
 1.30000E+01    4.41100E-01
 1.40000E+01    4.10700E-01
 1.45000E+01    3.60500E-01
 1.50000E+01    3.81000E-01
 1.60000E+01    3.52100E-01
 1.70000E+01    3.24800E-01
 1.80000E+01    2.99800E-01
 1.90000E+01    2.77700E-01
 2.00000E+01    2.58400E-01
