# n + Kr 85 : (n,n'08)  
# jendl4.0   K.Shibata, A.Ichihara, S.Kunieda  EVAL-AUG09
# uncertainties: n
# # energies =    30
#   E(MeV)       xs(mb) 
 1.44759E+00    0.00000E+00
 1.50000E+00    6.48400E-01
 2.00000E+00    7.44600E+00
 2.50000E+00    9.30100E+00
 3.00000E+00    1.03600E+01
 3.50000E+00    8.52900E+00
 4.00000E+00    6.30200E+00
 4.50000E+00    3.89400E+00
 5.00000E+00    2.34600E+00
 5.50000E+00    1.35900E+00
 6.00000E+00    7.98100E-01
 6.50000E+00    5.47300E-01
 7.00000E+00    3.84300E-01
 7.50000E+00    3.29300E-01
 8.00000E+00    2.65800E-01
 8.50000E+00    2.59600E-01
 9.00000E+00    2.22400E-01
 9.50000E+00    2.28200E-01
 1.00000E+01    1.98700E-01
 1.10000E+01    1.80800E-01
 1.20000E+01    1.67700E-01
 1.30000E+01    1.56500E-01
 1.40000E+01    1.45600E-01
 1.45000E+01    1.27700E-01
 1.50000E+01    1.34800E-01
 1.60000E+01    1.24400E-01
 1.70000E+01    1.14600E-01
 1.80000E+01    1.05700E-01
 1.90000E+01    9.77900E-02
 2.00000E+01    9.09100E-02
