# n + Kr 85 : (n,n'09)  
# jendl4.0   K.Shibata, A.Ichihara, S.Kunieda  EVAL-AUG09
# uncertainties: n
# # energies =    29
#   E(MeV)       xs(mb) 
 1.63074E+00    0.00000E+00
 2.00000E+00    3.07000E+02
 2.50000E+00    2.70100E+02
 3.00000E+00    2.27900E+02
 3.50000E+00    1.57600E+02
 4.00000E+00    1.15800E+02
 4.50000E+00    8.32500E+01
 5.00000E+00    6.50100E+01
 5.50000E+00    5.30700E+01
 6.00000E+00    4.49700E+01
 6.50000E+00    3.94000E+01
 7.00000E+00    3.54800E+01
 7.50000E+00    3.26500E+01
 8.00000E+00    3.05700E+01
 8.50000E+00    2.89800E+01
 9.00000E+00    2.76700E+01
 9.50000E+00    2.65200E+01
 1.00000E+01    2.54500E+01
 1.10000E+01    2.34500E+01
 1.20000E+01    2.16800E+01
 1.30000E+01    2.01800E+01
 1.40000E+01    1.88900E+01
 1.45000E+01    1.83100E+01
 1.50000E+01    1.77600E+01
 1.60000E+01    1.67600E+01
 1.70000E+01    1.58900E+01
 1.80000E+01    1.51200E+01
 1.90000E+01    1.44600E+01
 2.00000E+01    1.39000E+01
