# n + Kr 85 : (n,a)     
# jendl4.0   K.Shibata, A.Ichihara, S.Kunieda  EVAL-AUG09
# uncertainties: n
# # energies =    24
#   E(MeV)       xs(mb) 
 4.00000E+00    0.00000E+00
 4.50000E+00    7.50500E-05
 5.00000E+00    3.85200E-04
 5.50000E+00    1.00500E-03
 6.00000E+00    2.16100E-03
 6.50000E+00    3.78200E-03
 7.00000E+00    6.01500E-03
 7.50000E+00    8.56100E-03
 8.00000E+00    1.14400E-02
 8.50000E+00    2.47400E-02
 9.00000E+00    3.00800E-02
 9.50000E+00    3.50700E-02
 1.00000E+01    4.17000E-02
 1.10000E+01    6.31800E-02
 1.20000E+01    1.00400E-01
 1.30000E+01    1.70500E-01
 1.40000E+01    2.86000E-01
 1.45000E+01    3.83900E-01
 1.50000E+01    4.49000E-01
 1.60000E+01    6.48700E-01
 1.70000E+01    8.54600E-01
 1.80000E+01    1.02100E+00
 1.90000E+01    1.13000E+00
 2.00000E+01    1.16700E+00
