# n + Kr 85 : (n,n'02)  
# jendl4.0   K.Shibata, A.Ichihara, S.Kunieda  EVAL-AUG09
# uncertainties: n
# # energies =    30
#   E(MeV)       xs(mb) 
 1.12047E+00    0.00000E+00
 1.50000E+00    4.96000E+00
 2.00000E+00    8.17700E+00
 2.50000E+00    9.20000E+00
 3.00000E+00    8.57600E+00
 3.50000E+00    6.40800E+00
 4.00000E+00    4.60000E+00
 4.50000E+00    2.86300E+00
 5.00000E+00    1.80000E+00
 5.50000E+00    1.10800E+00
 6.00000E+00    6.92500E-01
 6.50000E+00    5.01800E-01
 7.00000E+00    3.67500E-01
 7.50000E+00    3.24500E-01
 8.00000E+00    2.67200E-01
 8.50000E+00    2.64100E-01
 9.00000E+00    2.28000E-01
 9.50000E+00    2.34900E-01
 1.00000E+01    2.05000E-01
 1.10000E+01    1.86700E-01
 1.20000E+01    1.72500E-01
 1.30000E+01    1.59700E-01
 1.40000E+01    1.47300E-01
 1.45000E+01    1.28800E-01
 1.50000E+01    1.35600E-01
 1.60000E+01    1.24700E-01
 1.70000E+01    1.15000E-01
 1.80000E+01    1.06300E-01
 1.90000E+01    9.87600E-02
 2.00000E+01    9.20500E-02
