# n + Kr 85 : (n,n'06)  
# jendl4.0   K.Shibata, A.Ichihara, S.Kunieda  EVAL-AUG09
# uncertainties: n
# # energies =    30
#   E(MeV)       xs(mb) 
 1.35856E+00    0.00000E+00
 1.50000E+00    1.18200E+01
 2.00000E+00    3.09900E+01
 2.50000E+00    2.84300E+01
 3.00000E+00    2.77600E+01
 3.50000E+00    2.13700E+01
 4.00000E+00    1.50500E+01
 4.50000E+00    8.96000E+00
 5.00000E+00    5.26300E+00
 5.50000E+00    2.99200E+00
 6.00000E+00    1.73200E+00
 6.50000E+00    1.17200E+00
 7.00000E+00    8.13000E-01
 7.50000E+00    6.89000E-01
 8.00000E+00    5.50900E-01
 8.50000E+00    5.33400E-01
 9.00000E+00    4.53800E-01
 9.50000E+00    4.62800E-01
 1.00000E+01    4.01200E-01
 1.10000E+01    3.62800E-01
 1.20000E+01    3.35200E-01
 1.30000E+01    3.12000E-01
 1.40000E+01    2.89700E-01
 1.45000E+01    2.54000E-01
 1.50000E+01    2.68000E-01
 1.60000E+01    2.46900E-01
 1.70000E+01    2.27200E-01
 1.80000E+01    2.09500E-01
 1.90000E+01    1.93800E-01
 2.00000E+01    1.80200E-01
