# n + Kr 85 : (n,g)     
# jendl4.0   K.Shibata, A.Ichihara, S.Kunieda  EVAL-AUG09
# uncertainties: n
# # energies =    69
#   E(MeV)       xs(mb) 
 1.00000E-10    1.15906E+04
 5.00000E-09    3.15592E+03
 1.00000E-08    2.39016E+03
 1.50000E-08    2.00820E+03
 2.00000E-08    1.76683E+03
 2.50000E-08    1.59623E+03
 3.00000E-08    1.46731E+03
 3.50000E-08    1.34907E+03
 4.20000E-08    1.23394E+03
 5.00000E-08    1.13818E+03
 5.80000E-08    1.05787E+03
 6.70000E-08    9.76253E+02
 8.00000E-08    8.83417E+02
 1.00000E-07    7.68586E+02
 1.40000E-07    6.63204E+02
 1.80000E-07    5.92203E+02
 2.20000E-07    5.45374E+02
 2.50000E-07    5.13452E+02
 2.80000E-07    4.90524E+02
 3.00000E-07    4.74419E+02
 3.20000E-07    4.56505E+02
 3.50000E-07    4.31780E+02
 4.00000E-07    3.95074E+02
 5.00000E-07    3.53366E+02
 6.25000E-07    3.16186E+02
 7.80000E-07    2.92665E+02
 8.50000E-07    2.81586E+02
 9.10000E-07    2.73856E+02
 9.50000E-07    2.69383E+02
 9.72000E-07    2.66222E+02
 9.96000E-07    2.63030E+02
 1.02000E-06    2.59890E+02
 1.04500E-06    2.56746E+02
 1.07100E-06    2.53652E+02
 1.09700E-06    2.50658E+02
 1.12300E-06    2.47739E+02
 1.15000E-06    2.38872E+02
 1.30000E-06    2.23554E+02
 1.50000E-06    1.98535E+02
 2.10000E-06    1.72918E+02
 2.60000E-06    1.54470E+02
 3.30000E-06    1.38664E+02
 4.00000E-06    1.06284E+02
 9.87700E-06    7.47344E+01
 1.59680E-05    5.77939E+01
 2.77000E-05    4.38808E+01
 4.80520E-05    3.41153E+01
 7.55014E-05    2.57892E+01
 1.48728E-04    1.74300E+01
 3.67262E-04    1.10919E+01
 9.06898E-04    1.28519E+03
 1.42510E-03    1.22484E+03
 2.23945E-03    8.73227E+02
 3.51910E-03    6.54602E+02
 5.53000E-03    4.94976E+02
 9.11800E-03    3.78333E+02
 1.50300E-02    2.76733E+02
 2.47800E-02    1.94296E+02
 4.08500E-02    1.36712E+02
 6.73400E-02    9.83764E+01
 1.11000E-01    7.67332E+01
 1.83000E-01    5.76900E+01
 3.02000E-01    4.68729E+01
 5.00000E-01    4.20507E+01
 8.21000E-01    4.28010E+01
 1.35300E+00    3.91287E+01
 2.23100E+00    1.93986E+01
 3.67900E+00    5.92409E+00
 6.06500E+00    8.86315E-01
