# n + Kr 85 : (n,el)    
# jendl4.0   K.Shibata, A.Ichihara, S.Kunieda  EVAL-AUG09
# uncertainties: n
# # energies =   171
#   E(MeV)       xs(mb) 
 1.00000E-11    1.15458E+04
 1.00000E-07    6.26109E+03
 4.13990E-07    6.25792E+03
 5.31580E-07    6.25747E+03
 6.82560E-07    6.25737E+03
 8.76420E-07    6.25723E+03
 1.12540E-06    6.25705E+03
 1.44500E-06    6.25683E+03
 1.85540E-06    6.25654E+03
 2.37240E-06    6.25618E+03
 3.05900E-06    6.25602E+03
 3.92790E-06    6.25602E+03
 5.04350E-06    6.25602E+03
 6.47600E-06    6.25602E+03
 8.31530E-06    6.25601E+03
 1.06770E-05    6.25601E+03
 1.37100E-05    6.25601E+03
 1.76030E-05    6.25601E+03
 2.26030E-05    6.25601E+03
 2.92030E-05    6.25600E+03
 3.72670E-05    6.25600E+03
 4.78510E-05    6.25600E+03
 6.14420E-05    6.25599E+03
 7.88930E-05    6.25598E+03
 1.01300E-04    6.25597E+03
 1.30070E-04    6.25596E+03
 1.67020E-04    6.25594E+03
 2.14450E-04    6.25592E+03
 2.75360E-04    6.25589E+03
 3.53580E-04    6.25585E+03
 4.54000E-04    6.25580E+03
 5.82950E-04    6.25574E+03
 7.48520E-04    6.25570E+03
 9.61120E-04    1.63681E+04
 1.23410E-03    1.73113E+04
 1.58460E-03    1.59866E+04
 2.03470E-03    1.51050E+04
 2.24870E-03    1.47608E+04
 2.48520E-03    1.44803E+04
 2.61260E-03    1.42805E+04
 2.74650E-03    1.39613E+04
 3.03540E-03    1.36131E+04
 3.35460E-03    1.33051E+04
 3.70740E-03    1.28933E+04
 4.30740E-03    1.23218E+04
 5.53080E-03    1.16724E+04
 7.10170E-03    1.11058E+04
 9.11880E-03    1.06520E+04
 1.17090E-02    1.03193E+04
 1.50340E-02    9.91018E+03
 1.93050E-02    9.57419E+03
 2.18750E-02    9.46850E+03
 2.35790E-02    9.41486E+03
 2.41760E-02    9.38691E+03
 2.47880E-02    9.34358E+03
 2.60580E-02    9.29233E+03
 2.70000E-02    9.23605E+03
 2.85000E-02    9.13477E+03
 3.18280E-02    9.04872E+03
 3.43070E-02    8.92846E+03
 4.08680E-02    8.79492E+03
 4.63090E-02    8.69077E+03
 5.24750E-02    8.61558E+03
 5.65620E-02    8.52410E+03
 6.73790E-02    8.44074E+03
 7.20000E-02    8.38760E+03
 7.95000E-02    8.34366E+03
 8.25000E-02    8.31886E+03
 8.65170E-02    8.26705E+03
 9.80370E-02    8.20079E+03
 1.11090E-01    8.16296E+03
 1.16790E-01    8.13990E+03
 1.22770E-01    8.11566E+03
 1.29070E-01    8.09015E+03
 1.35690E-01    8.06335E+03
 1.42640E-01    8.03518E+03
 1.49960E-01    8.00556E+03
 1.57640E-01    7.97443E+03
 1.65730E-01    7.94169E+03
 1.74220E-01    7.90728E+03
 1.83160E-01    7.87108E+03
 1.92550E-01    7.83329E+03
 2.02420E-01    7.79910E+03
 2.12800E-01    7.76554E+03
 2.23710E-01    7.73026E+03
 2.35180E-01    7.69317E+03
 2.47240E-01    7.63369E+03
 2.73240E-01    7.57011E+03
 2.87250E-01    7.53642E+03
 2.94520E-01    7.52069E+03
 2.97200E-01    7.51441E+03
 2.98500E-01    7.50681E+03
 3.01970E-01    7.44900E+03
 3.33730E-01    7.33715E+03
 3.68830E-01    7.24600E+03
 3.87740E-01    7.18079E+03
 4.07620E-01    7.07162E+03
 4.50490E-01    6.91233E+03
 4.97870E-01    6.78229E+03
 5.23400E-01    6.68926E+03
 5.50230E-01    6.59146E+03
 5.78440E-01    6.48876E+03
 6.08100E-01    6.38313E+03
 6.39280E-01    6.27301E+03
 6.72060E-01    6.15736E+03
 7.06510E-01    6.04018E+03
 7.42740E-01    5.91926E+03
 7.80820E-01    5.79345E+03
 8.20850E-01    5.66866E+03
 8.62940E-01    5.53881E+03
 9.07180E-01    5.39947E+03
 9.61640E-01    5.26838E+03
 1.00260E+00    5.11648E+03
 1.10800E+00    4.96270E+03
 1.16480E+00    4.83848E+03
 1.22460E+00    4.68445E+03
 1.28730E+00    4.50933E+03
 1.35340E+00    4.32295E+03
 1.42270E+00    4.11903E+03
 1.49570E+00    3.95816E+03
 1.57240E+00    3.87247E+03
 1.65300E+00    3.73441E+03
 1.73770E+00    3.57056E+03
 1.82680E+00    3.39218E+03
 1.92050E+00    3.15864E+03
 2.01900E+00    3.00087E+03
 2.12250E+00    2.87882E+03
 2.23130E+00    2.72513E+03
 2.30690E+00    2.62667E+03
 2.34570E+00    2.57641E+03
 2.36530E+00    2.54168E+03
 2.38520E+00    2.45140E+03
 2.46600E+00    2.31459E+03
 2.59240E+00    2.26936E+03
 2.72530E+00    2.15662E+03
 2.86500E+00    2.02119E+03
 3.01190E+00    1.95025E+03
 3.16640E+00    1.92946E+03
 3.32870E+00    1.90484E+03
 3.67880E+00    1.92111E+03
 4.06570E+00    1.96996E+03
 4.49330E+00    2.02141E+03
 4.72370E+00    2.06401E+03
 4.96590E+00    2.10891E+03
 5.22050E+00    2.15611E+03
 5.48810E+00    2.20193E+03
 5.76950E+00    2.24555E+03
 6.06530E+00    2.28743E+03
 6.37630E+00    2.31964E+03
 6.59240E+00    2.33791E+03
 6.70320E+00    2.35861E+03
 7.04690E+00    2.38882E+03
 7.40820E+00    2.40994E+03
 7.78800E+00    2.42460E+03
 8.18730E+00    2.43259E+03
 8.60710E+00    2.42940E+03
 9.04840E+00    2.41881E+03
 9.51230E+00    2.39988E+03
 1.00000E+01    2.36936E+03
 1.05130E+01    2.33052E+03
 1.10520E+01    2.28260E+03
 1.16180E+01    2.22659E+03
 1.22140E+01    2.16132E+03
 1.28400E+01    2.09003E+03
 1.34990E+01    2.03286E+03
 1.38400E+01    1.99337E+03
 1.41910E+01    1.95270E+03
 1.45500E+01    1.91100E+03
 1.49180E+01    1.84761E+03
 1.56830E+01    1.76205E+03
 1.64870E+01    1.67680E+03
