# n + Kr 85 : (n,n'10)  
# jendl4.0   K.Shibata, A.Ichihara, S.Kunieda  EVAL-AUG09
# uncertainties: n
# # energies =    29
#   E(MeV)       xs(mb) 
 1.86894E+00    0.00000E+00
 2.00000E+00    4.51900E+01
 2.50000E+00    8.56700E+01
 3.00000E+00    7.07900E+01
 3.50000E+00    4.85300E+01
 4.00000E+00    3.33800E+01
 4.50000E+00    1.95300E+01
 5.00000E+00    1.15300E+01
 5.50000E+00    6.53200E+00
 6.00000E+00    3.73400E+00
 6.50000E+00    2.47100E+00
 7.00000E+00    1.66800E+00
 7.50000E+00    1.37800E+00
 8.00000E+00    1.07800E+00
 8.50000E+00    1.02600E+00
 9.00000E+00    8.62400E-01
 9.50000E+00    8.72300E-01
 1.00000E+01    7.51600E-01
 1.10000E+01    6.74100E-01
 1.20000E+01    6.19600E-01
 1.30000E+01    5.75000E-01
 1.40000E+01    5.33800E-01
 1.45000E+01    4.68000E-01
 1.50000E+01    4.94100E-01
 1.60000E+01    4.55900E-01
 1.70000E+01    4.20100E-01
 1.80000E+01    3.87500E-01
 1.90000E+01    3.58700E-01
 2.00000E+01    3.33700E-01
