# n + Cd114 : (n,el)    
# endfb8.0   I.Sirakov,S.Kopecky+,J.McCabe+    EVAL-OCT10
# uncertainties: n
# # energies =   171
#   E(MeV)       xs(mb) 
 1.00000E-11    9.61969E+03
 1.00000E-07    5.68812E+03
 4.13990E-07    5.68447E+03
 5.31580E-07    5.68365E+03
 6.82560E-07    5.68260E+03
 8.76420E-07    5.68125E+03
 1.12540E-06    5.67951E+03
 1.44500E-06    5.67728E+03
 1.85540E-06    5.67445E+03
 2.37240E-06    5.67078E+03
 3.05900E-06    5.66604E+03
 3.92790E-06    5.66000E+03
 5.04350E-06    5.65225E+03
 6.47600E-06    5.64230E+03
 8.31530E-06    5.62952E+03
 1.06770E-05    5.61311E+03
 1.37100E-05    5.59204E+03
 1.76030E-05    5.56498E+03
 2.26030E-05    5.52973E+03
 2.92030E-05    5.48502E+03
 3.72670E-05    5.41952E+03
 4.78510E-05    5.32544E+03
 6.14420E-05    5.16401E+03
 7.88930E-05    4.80136E+03
 1.01300E-04    4.31572E+04
 1.30070E-04    6.20206E+03
 1.67020E-04    5.34124E+03
 2.14450E-04    4.81285E+03
 2.75360E-04    3.57294E+03
 3.53580E-04    1.00708E+05
 4.54000E-04    6.93950E+03
 5.82950E-04    1.80934E+04
 7.48520E-04    1.65823E+04
 9.61120E-04    9.31053E+03
 1.23410E-03    2.03473E+04
 1.58460E-03    8.35641E+03
 2.03470E-03    8.25533E+03
 2.24870E-03    5.94602E+03
 2.48520E-03    5.27942E+03
 2.61260E-03    2.23330E+04
 2.74650E-03    7.96590E+03
 3.03540E-03    2.03795E+04
 3.35460E-03    6.67728E+03
 3.70740E-03    1.12436E+04
 4.30740E-03    7.75770E+03
 5.53080E-03    7.19554E+03
 7.10170E-03    8.34075E+03
 9.11880E-03    7.95685E+03
 1.17090E-02    7.78718E+03
 1.50340E-02    7.66054E+03
 1.93050E-02    7.58890E+03
 2.18750E-02    7.55907E+03
 2.35790E-02    7.54604E+03
 2.41760E-02    7.54020E+03
 2.47880E-02    7.53182E+03
 2.60580E-02    7.52309E+03
 2.70000E-02    7.51492E+03
 2.85000E-02    7.50241E+03
 3.18280E-02    7.49143E+03
 3.43070E-02    7.48253E+03
 4.08680E-02    7.47851E+03
 4.63090E-02    7.48076E+03
 5.24750E-02    7.48545E+03
 5.65620E-02    7.49480E+03
 6.73790E-02    7.50610E+03
 7.20000E-02    7.51510E+03
 7.95000E-02    7.52293E+03
 8.25000E-02    7.52796E+03
 8.65170E-02    7.53833E+03
 9.80370E-02    7.55713E+03
 1.11090E-01    7.57165E+03
 1.16790E-01    7.58036E+03
 1.22770E-01    7.58951E+03
 1.29070E-01    7.59915E+03
 1.35690E-01    7.60926E+03
 1.42640E-01    7.61990E+03
 1.49960E-01    7.63097E+03
 1.57640E-01    7.63673E+03
 1.65730E-01    7.63938E+03
 1.74220E-01    7.64217E+03
 1.83160E-01    7.64510E+03
 1.92550E-01    7.64787E+03
 2.02420E-01    7.64336E+03
 2.12800E-01    7.63544E+03
 2.23710E-01    7.62711E+03
 2.35180E-01    7.61835E+03
 2.47240E-01    7.60431E+03
 2.73240E-01    7.58929E+03
 2.87250E-01    7.58134E+03
 2.94520E-01    7.57763E+03
 2.97200E-01    7.57614E+03
 2.98500E-01    7.57437E+03
 3.01970E-01    7.56145E+03
 3.33730E-01    7.53658E+03
 3.68830E-01    7.51631E+03
 3.87740E-01    7.50188E+03
 4.07620E-01    7.47686E+03
 4.50490E-01    7.43198E+03
 4.97870E-01    7.39449E+03
 5.23400E-01    7.36778E+03
 5.50230E-01    7.30141E+03
 5.78440E-01    7.02009E+03
 6.08100E-01    6.82528E+03
 6.39280E-01    6.67755E+03
 6.72060E-01    6.52225E+03
 7.06510E-01    6.35900E+03
 7.42740E-01    6.18735E+03
 7.80820E-01    6.01864E+03
 8.20850E-01    5.90873E+03
 8.62940E-01    5.80396E+03
 9.07180E-01    5.68435E+03
 9.61640E-01    5.56823E+03
 1.00260E+00    5.42917E+03
 1.10800E+00    5.28735E+03
 1.16480E+00    5.14229E+03
 1.22460E+00    5.03681E+03
 1.28730E+00    4.88914E+03
 1.35340E+00    4.65023E+03
 1.42270E+00    4.45257E+03
 1.49570E+00    4.29709E+03
 1.57240E+00    4.14187E+03
 1.65300E+00    4.00713E+03
 1.73770E+00    3.86140E+03
 1.82680E+00    3.75848E+03
 1.92050E+00    3.57524E+03
 2.01900E+00    3.42997E+03
 2.12250E+00    3.31071E+03
 2.23130E+00    3.20684E+03
 2.30690E+00    3.14239E+03
 2.34570E+00    3.10953E+03
 2.36530E+00    3.08734E+03
 2.38520E+00    3.03100E+03
 2.46600E+00    2.92075E+03
 2.59240E+00    2.79692E+03
 2.72530E+00    2.66760E+03
 2.86500E+00    2.53176E+03
 3.01190E+00    2.41186E+03
 3.16640E+00    2.30311E+03
 3.32870E+00    2.14140E+03
 3.67880E+00    1.98329E+03
 4.06570E+00    1.88781E+03
 4.49330E+00    1.85724E+03
 4.72370E+00    1.86474E+03
 4.96590E+00    1.88559E+03
 5.22050E+00    1.92937E+03
 5.48810E+00    1.97574E+03
 5.76950E+00    2.02518E+03
 6.06530E+00    2.09736E+03
 6.37630E+00    2.16803E+03
 6.59240E+00    2.21186E+03
 6.70320E+00    2.27229E+03
 7.04690E+00    2.35786E+03
 7.40820E+00    2.43871E+03
 7.78800E+00    2.52290E+03
 8.18730E+00    2.60003E+03
 8.60710E+00    2.67721E+03
 9.04840E+00    2.73682E+03
 9.51230E+00    2.78485E+03
 1.00000E+01    2.81291E+03
 1.05130E+01    2.82052E+03
 1.10520E+01    2.82842E+03
 1.16180E+01    2.83289E+03
 1.22140E+01    2.79013E+03
 1.28400E+01    2.73112E+03
 1.34990E+01    2.68468E+03
 1.38400E+01    2.65092E+03
 1.41910E+01    2.60730E+03
 1.45500E+01    2.56137E+03
 1.49180E+01    2.48995E+03
 1.56830E+01    2.38956E+03
 1.64870E+01    2.27883E+03
