# n + W 184 : (n,xd)    
# jendl.ad   N.Iwamoto                         EVAL-Apr14
# 
# # energies =   100
#   E(MeV)        xs(mb) 
 1.05000E-01    0.00000E+00
 1.10000E-01    0.00000E+00
 1.11818E-01    0.00000E+00
 1.20000E-01    0.00000E+00
 1.30000E-01    0.00000E+00
 1.40000E-01    0.00000E+00
 1.50000E-01    0.00000E+00
 1.60000E-01    0.00000E+00
 1.70000E-01    0.00000E+00
 1.80000E-01    0.00000E+00
 1.90000E-01    0.00000E+00
 2.00000E-01    0.00000E+00
 2.25000E-01    0.00000E+00
 2.50000E-01    0.00000E+00
 2.75000E-01    0.00000E+00
 3.00000E-01    0.00000E+00
 3.66052E-01    0.00000E+00
 4.00000E-01    0.00000E+00
 5.00000E-01    0.00000E+00
 6.00000E-01    0.00000E+00
 7.00000E-01    0.00000E+00
 7.52413E-01    0.00000E+00
 8.00000E-01    0.00000E+00
 9.00000E-01    0.00000E+00
 9.08234E-01    0.00000E+00
 1.00000E+00    0.00000E+00
 1.00798E+00    0.00000E+00
 1.01149E+00    0.00000E+00
 1.10000E+00    0.00000E+00
 1.12759E+00    0.00000E+00
 1.13623E+00    0.00000E+00
 1.14006E+00    0.00000E+00
 1.20000E+00    0.00000E+00
 1.22799E+00    0.00000E+00
 1.25917E+00    0.00000E+00
 1.29064E+00    0.00000E+00
 1.29204E+00    0.00000E+00
 1.30000E+00    0.00000E+00
 1.30202E+00    0.00000E+00
 1.32938E+00    0.00000E+00
 1.35276E+00    0.00000E+00
 1.36783E+00    0.00000E+00
 1.39391E+00    0.00000E+00
 1.40000E+00    0.00000E+00
 1.43280E+00    0.00000E+00
 1.43885E+00    0.00000E+00
 1.45419E+00    0.00000E+00
 1.48510E+00    0.00000E+00
 1.50000E+00    0.00000E+00
 1.50018E+00    0.00000E+00
 1.50977E+00    0.00000E+00
 1.53163E+00    0.00000E+00
 1.54529E+00    0.00000E+00
 1.57885E+00    0.00000E+00
 1.59012E+00    0.00000E+00
 1.60000E+00    0.00000E+00
 1.62241E+00    0.00000E+00
 1.62372E+00    0.00000E+00
 1.70000E+00    0.00000E+00
 1.80000E+00    0.00000E+00
 1.90000E+00    0.00000E+00
 2.00000E+00    0.00000E+00
 2.25000E+00    0.00000E+00
 2.50000E+00    0.00000E+00
 2.75000E+00    0.00000E+00
 3.00000E+00    0.00000E+00
 3.50000E+00    0.00000E+00
 4.00000E+00    0.00000E+00
 4.50000E+00    0.00000E+00
 5.00000E+00    0.00000E+00
 5.50000E+00    0.00000E+00
 6.00000E+00    3.90960E-20
 6.50000E+00    1.46236E-19
 7.00000E+00    2.63480E-19
 7.50000E+00    2.46980E-15
 8.00000E+00    2.43110E-12
 8.50000E+00    4.71800E-10
 9.00000E+00    3.27070E-08
 9.50000E+00    7.55670E-07
 1.00000E+01    9.24178E-06
 1.05000E+01    7.10081E-05
 1.10000E+01    3.84739E-04
 1.15000E+01    1.59397E-03
 1.20000E+01    5.33789E-03
 1.25000E+01    1.50305E-02
 1.30000E+01    3.65952E-02
 1.35000E+01    7.86012E-02
 1.40000E+01    1.51252E-01
 1.45000E+01    2.64286E-01
 1.50000E+01    4.24670E-01
 1.55000E+01    6.35320E-01
 1.60000E+01    8.95212E-01
 1.65000E+01    1.20044E+00
 1.70000E+01    1.50210E+00
 1.75000E+01    1.87522E+00
 1.80000E+01    2.22514E+00
 1.85000E+01    2.64796E+00
 1.90000E+01    3.09030E+00
 1.95000E+01    3.54824E+00
 2.00000E+01    4.01845E+00
