# n + W 184 : (n,2na)m  
# jendl.ad   N.Iwamoto                         EVAL-Apr14
# uncertainties: n
# # energies =    25
#   E(MeV)       xs(mb) 
 6.14012E+00    0.00000E+00
 8.50000E+00    0.00000E+00
 9.00000E+00    5.25450E-30
 9.50000E+00    4.75460E-25
 1.00000E+01    3.73740E-21
 1.05000E+01    4.85940E-18
 1.10000E+01    1.65350E-15
 1.15000E+01    2.01210E-13
 1.20000E+01    1.09030E-11
 1.25000E+01    3.08840E-10
 1.30000E+01    5.21000E-09
 1.35000E+01    5.72210E-08
 1.40000E+01    4.23880E-07
 1.45000E+01    1.69370E-06
 1.50000E+01    3.98162E-06
 1.55000E+01    7.84375E-06
 1.60000E+01    1.52010E-05
 1.65000E+01    2.94924E-05
 1.70000E+01    5.75833E-05
 1.75000E+01    1.09063E-04
 1.80000E+01    1.98563E-04
 1.85000E+01    3.47013E-04
 1.90000E+01    5.80256E-04
 1.95000E+01    9.36906E-04
 2.00000E+01    1.44512E-03
