# n + W 184 : (n,d)     
# jendl.ad   N.Iwamoto                         EVAL-Apr14
# uncertainties: n
# # energies =    40
#   E(MeV)       xs(mb) 
 5.50562E+00    0.00000E+00
 5.57919E+00    5.16010E-21
 5.64960E+00    1.07130E-20
 5.87592E+00    2.90440E-20
 5.96720E+00    3.64390E-20
 6.05418E+00    4.34850E-20
 6.08157E+00    4.82610E-20
 6.24054E+00    8.54040E-20
 6.24471E+00    8.63800E-20
 6.31646E+00    1.03200E-19
 6.36724E+00    1.15110E-19
 6.45096E+00    1.34740E-19
 6.45946E+00    1.36730E-19
 7.00000E+00    2.63480E-19
 7.50000E+00    2.46980E-15
 8.00000E+00    2.43110E-12
 8.50000E+00    4.71800E-10
 9.00000E+00    3.27070E-08
 9.50000E+00    7.55670E-07
 1.00000E+01    9.24178E-06
 1.05000E+01    7.10081E-05
 1.10000E+01    3.84739E-04
 1.15000E+01    1.59397E-03
 1.20000E+01    5.33789E-03
 1.25000E+01    1.50305E-02
 1.30000E+01    3.65952E-02
 1.35000E+01    7.86012E-02
 1.40000E+01    1.51252E-01
 1.45000E+01    2.64286E-01
 1.50000E+01    4.24670E-01
 1.55000E+01    6.35320E-01
 1.60000E+01    8.95212E-01
 1.65000E+01    1.20044E+00
 1.70000E+01    1.50209E+00
 1.75000E+01    1.87514E+00
 1.80000E+01    2.22476E+00
 1.85000E+01    2.64647E+00
 1.90000E+01    3.08550E+00
 1.95000E+01    3.53517E+00
 2.00000E+01    3.98758E+00
