# n + W 184 : (n,xt)    
# jendl.ad   N.Iwamoto                         EVAL-Apr14
# 
# # energies =   100
#   E(MeV)        xs(mb) 
 1.05000E-01    0.00000E+00
 1.10000E-01    0.00000E+00
 1.11818E-01    0.00000E+00
 1.20000E-01    0.00000E+00
 1.30000E-01    0.00000E+00
 1.40000E-01    0.00000E+00
 1.50000E-01    0.00000E+00
 1.60000E-01    0.00000E+00
 1.70000E-01    0.00000E+00
 1.80000E-01    0.00000E+00
 1.90000E-01    0.00000E+00
 2.00000E-01    0.00000E+00
 2.25000E-01    0.00000E+00
 2.50000E-01    0.00000E+00
 2.75000E-01    0.00000E+00
 3.00000E-01    0.00000E+00
 3.66052E-01    0.00000E+00
 4.00000E-01    0.00000E+00
 5.00000E-01    0.00000E+00
 6.00000E-01    0.00000E+00
 7.00000E-01    0.00000E+00
 7.52413E-01    0.00000E+00
 8.00000E-01    0.00000E+00
 9.00000E-01    0.00000E+00
 9.08234E-01    0.00000E+00
 1.00000E+00    0.00000E+00
 1.00798E+00    0.00000E+00
 1.01149E+00    0.00000E+00
 1.10000E+00    0.00000E+00
 1.12759E+00    0.00000E+00
 1.13623E+00    0.00000E+00
 1.14006E+00    0.00000E+00
 1.20000E+00    0.00000E+00
 1.22799E+00    0.00000E+00
 1.25917E+00    0.00000E+00
 1.29064E+00    0.00000E+00
 1.29204E+00    0.00000E+00
 1.30000E+00    0.00000E+00
 1.30202E+00    0.00000E+00
 1.32938E+00    0.00000E+00
 1.35276E+00    0.00000E+00
 1.36783E+00    0.00000E+00
 1.39391E+00    0.00000E+00
 1.40000E+00    0.00000E+00
 1.43280E+00    0.00000E+00
 1.43885E+00    0.00000E+00
 1.45419E+00    0.00000E+00
 1.48510E+00    0.00000E+00
 1.50000E+00    0.00000E+00
 1.50018E+00    0.00000E+00
 1.50977E+00    0.00000E+00
 1.53163E+00    0.00000E+00
 1.54529E+00    0.00000E+00
 1.57885E+00    0.00000E+00
 1.59012E+00    0.00000E+00
 1.60000E+00    0.00000E+00
 1.62241E+00    0.00000E+00
 1.62372E+00    0.00000E+00
 1.70000E+00    0.00000E+00
 1.80000E+00    0.00000E+00
 1.90000E+00    0.00000E+00
 2.00000E+00    0.00000E+00
 2.25000E+00    0.00000E+00
 2.50000E+00    0.00000E+00
 2.75000E+00    0.00000E+00
 3.00000E+00    0.00000E+00
 3.50000E+00    0.00000E+00
 4.00000E+00    0.00000E+00
 4.50000E+00    0.00000E+00
 5.00000E+00    0.00000E+00
 5.50000E+00    0.00000E+00
 6.00000E+00    0.00000E+00
 6.50000E+00    4.38586E-27
 7.00000E+00    1.24701E-26
 7.50000E+00    2.12580E-26
 8.00000E+00    4.09040E-20
 8.50000E+00    4.27390E-16
 9.00000E+00    2.97270E-13
 9.50000E+00    4.12570E-11
 1.00000E+01    1.93900E-09
 1.05000E+01    4.18780E-08
 1.10000E+01    5.08280E-07
 1.15000E+01    3.99290E-06
 1.20000E+01    2.24799E-05
 1.25000E+01    9.77626E-05
 1.30000E+01    3.47068E-04
 1.35000E+01    1.03327E-03
 1.40000E+01    2.71262E-03
 1.45000E+01    6.31132E-03
 1.50000E+01    1.31734E-02
 1.55000E+01    2.49098E-02
 1.60000E+01    4.31002E-02
 1.65000E+01    6.90034E-02
 1.70000E+01    1.03343E-01
 1.75000E+01    1.46329E-01
 1.80000E+01    1.97725E-01
 1.85000E+01    2.56971E-01
 1.90000E+01    3.23296E-01
 1.95000E+01    3.95818E-01
 2.00000E+01    4.73610E-01
