# n + W 184 : (n,t)g    
# jendl.ad   N.Iwamoto                         EVAL-Apr14
# uncertainties: n
# # energies =    29
#   E(MeV)       xs(mb) 
 6.18628E+00    0.00000E+00
 6.20263E+00    1.61820E-28
 6.70870E+00    5.17050E-27
 7.50000E+00    1.30020E-26
 8.00000E+00    2.69180E-20
 8.50000E+00    2.83280E-16
 9.00000E+00    2.01060E-13
 9.50000E+00    2.79320E-11
 1.00000E+01    1.29590E-09
 1.05000E+01    2.75980E-08
 1.10000E+01    3.31830E-07
 1.15000E+01    2.59555E-06
 1.20000E+01    1.46008E-05
 1.25000E+01    6.35631E-05
 1.30000E+01    2.26089E-04
 1.35000E+01    6.78397E-04
 1.40000E+01    1.78305E-03
 1.45000E+01    4.15403E-03
 1.50000E+01    8.68265E-03
 1.55000E+01    1.64399E-02
 1.60000E+01    2.84759E-02
 1.65000E+01    4.56210E-02
 1.70000E+01    6.83384E-02
 1.75000E+01    9.67361E-02
 1.80000E+01    1.30601E-01
 1.85000E+01    1.69453E-01
 1.90000E+01    2.12550E-01
 1.95000E+01    2.59766E-01
 2.00000E+01    3.07813E-01
