# n + W 184 : (n,t)n    
# jendl.ad   N.Iwamoto                         EVAL-Apr14
# uncertainties: n
# # energies =    26
#   E(MeV)       xs(mb) 
 6.70870E+00    0.00000E+00
 8.00000E+00    4.35360E-27
 8.50000E+00    1.74640E-20
 9.00000E+00    2.45290E-16
 9.50000E+00    1.75740E-13
 1.00000E+01    2.08450E-11
 1.05000E+01    7.63100E-10
 1.10000E+01    1.24480E-08
 1.15000E+01    1.14250E-07
 1.20000E+01    6.90120E-07
 1.25000E+01    3.05956E-06
 1.30000E+01    1.07413E-05
 1.35000E+01    3.12091E-05
 1.40000E+01    7.89340E-05
 1.45000E+01    1.75766E-04
 1.50000E+01    3.48863E-04
 1.55000E+01    6.23584E-04
 1.60000E+01    1.01712E-03
 1.65000E+01    1.53821E-03
 1.70000E+01    2.19077E-03
 1.75000E+01    2.97655E-03
 1.80000E+01    3.89704E-03
 1.85000E+01    4.95642E-03
 1.90000E+01    6.17219E-03
 1.95000E+01    7.86798E-03
 2.00000E+01    9.66956E-03
