# n + W 184 : (n,tot)   
# jendl.ad   N.Iwamoto                         EVAL-Apr14
# uncertainties: n
# # energies =   171
#   E(MeV)       xs(mb) 
 1.00000E-11    1.83602E+04
 1.00000E-07    6.11627E+02
 4.13990E-07    3.95019E+02
 5.31580E-07    3.48583E+02
 6.82560E-07    3.07790E+02
 8.76420E-07    2.71736E+02
 1.12540E-06    2.39865E+02
 1.44500E-06    2.11842E+02
 1.85540E-06    1.87299E+02
 2.37240E-06    1.65420E+02
 3.05900E-06    1.46082E+02
 3.92790E-06    1.29145E+02
 5.04350E-06    1.14236E+02
 6.47600E-06    1.01190E+02
 8.31530E-06    8.97183E+01
 1.06770E-05    7.96957E+01
 1.37100E-05    7.10247E+01
 1.76030E-05    6.35607E+01
 2.26030E-05    5.72064E+01
 2.92030E-05    5.21536E+01
 3.72670E-05    4.84887E+01
 4.78510E-05    4.65417E+01
 6.14420E-05    4.78301E+01
 7.88930E-05    2.60533E+02
 1.01300E-04    5.27831E+03
 1.30070E-04    2.65158E+02
 1.67020E-04    2.62074E+04
 2.14450E-04    6.58949E+02
 2.75360E-04    5.24365E+03
 3.53580E-04    2.46309E+03
 4.54000E-04    1.45185E+01
 5.82950E-04    2.69179E+03
 7.48520E-04    3.81330E+03
 9.61120E-04    6.04197E+03
 1.23410E-03    2.43368E+03
 1.58460E-03    9.55884E+02
 2.03470E-03    1.48986E+03
 2.24870E-03    1.10540E+03
 2.48520E-03    1.03212E+03
 2.61260E-03    6.42660E+02
 2.74650E-03    5.04863E+02
 3.03540E-03    9.27295E+02
 3.35460E-03    5.59475E+02
 3.70740E-03    6.10781E+02
 4.30740E-03    5.41628E+02
 5.53080E-03    4.67815E+02
 7.10170E-03    4.07697E+02
 9.11880E-03    3.58948E+02
 1.17090E-02    3.19782E+02
 1.50340E-02    2.85078E+02
 1.93050E-02    2.62120E+02
 2.18750E-02    2.51903E+02
 2.35790E-02    2.46974E+02
 2.41760E-02    2.44671E+02
 2.47880E-02    2.41215E+02
 2.60580E-02    2.37250E+02
 2.70000E-02    2.33028E+02
 2.85000E-02    2.25844E+02
 3.18280E-02    2.19145E+02
 3.43070E-02    2.10805E+02
 4.08680E-02    2.02121E+02
 4.63090E-02    1.96037E+02
 5.24750E-02    1.92088E+02
 5.65620E-02    1.87507E+02
 6.73790E-02    1.83507E+02
 7.20000E-02    1.81055E+02
 7.95000E-02    1.79183E+02
 8.25000E-02    1.78524E+02
 8.65170E-02    1.76931E+02
 9.80370E-02    1.73687E+02
 1.11090E-01    1.54081E+02
 1.16790E-01    1.17734E+02
 1.22770E-01    1.06366E+02
 1.29070E-01    9.99586E+01
 1.35690E-01    9.47422E+01
 1.42640E-01    9.02719E+01
 1.49960E-01    8.62985E+01
 1.57640E-01    8.26182E+01
 1.65730E-01    7.92826E+01
 1.74220E-01    7.63342E+01
 1.83160E-01    7.41087E+01
 1.92550E-01    7.18498E+01
 2.02420E-01    6.97552E+01
 2.12800E-01    6.78053E+01
 2.23710E-01    6.60704E+01
 2.35180E-01    6.46099E+01
 2.47240E-01    6.25257E+01
 2.73240E-01    6.08015E+01
 2.87250E-01    6.02964E+01
 2.94520E-01    6.00633E+01
 2.97200E-01    5.99702E+01
 2.98500E-01    5.98647E+01
 3.01970E-01    5.92322E+01
 3.33730E-01    5.80989E+01
 3.68830E-01    5.71743E+01
 3.87740E-01    5.64952E+01
 4.07620E-01    5.58055E+01
 4.50490E-01    5.49587E+01
 4.97870E-01    5.46085E+01
 5.23400E-01    5.48870E+01
 5.50230E-01    5.51824E+01
 5.78440E-01    5.55080E+01
 6.08100E-01    5.61417E+01
 6.39280E-01    5.69220E+01
 6.72060E-01    5.77434E+01
 7.06510E-01    5.86545E+01
 7.42740E-01    5.99386E+01
 7.80820E-01    6.19119E+01
 8.20850E-01    6.40208E+01
 8.62940E-01    6.62373E+01
 9.07180E-01    6.71603E+01
 9.61640E-01    6.67235E+01
 1.00260E+00    6.56972E+01
 1.10800E+00    6.36203E+01
 1.16480E+00    6.06495E+01
 1.22460E+00    5.80767E+01
 1.28730E+00    5.56809E+01
 1.35340E+00    5.31273E+01
 1.42270E+00    5.02135E+01
 1.49570E+00    4.81059E+01
 1.57240E+00    4.63117E+01
 1.65300E+00    4.47527E+01
 1.73770E+00    4.35883E+01
 1.82680E+00    4.23096E+01
 1.92050E+00    4.09531E+01
 2.01900E+00    3.90948E+01
 2.12250E+00    3.70407E+01
 2.23130E+00    3.55749E+01
 2.30690E+00    3.50948E+01
 2.34570E+00    3.48623E+01
 2.36530E+00    3.47089E+01
 2.38520E+00    3.43396E+01
 2.46600E+00    3.32268E+01
 2.59240E+00    3.10239E+01
 2.72530E+00    2.90227E+01
 2.86500E+00    2.73680E+01
 3.01190E+00    2.54379E+01
 3.16640E+00    2.33707E+01
 3.32870E+00    2.04837E+01
 3.67880E+00    1.65006E+01
 4.06570E+00    1.26329E+01
 4.49330E+00    9.90106E+00
 4.72370E+00    8.16767E+00
 4.96590E+00    6.62783E+00
 5.22050E+00    5.22480E+00
 5.48810E+00    4.07738E+00
 5.76950E+00    3.14357E+00
 6.06530E+00    2.42968E+00
 6.37630E+00    1.16387E+03
 6.59240E+00    2.80703E+03
 6.70320E+00    2.79377E+03
 7.04690E+00    2.77422E+03
 7.40820E+00    2.74602E+03
 7.78800E+00    2.73128E+03
 8.18730E+00    2.77741E+03
 8.60710E+00    2.79473E+03
 9.04840E+00    2.77377E+03
 9.51230E+00    2.73222E+03
 1.00000E+01    2.68989E+03
 1.05130E+01    2.65172E+03
 1.10520E+01    2.61654E+03
 1.16180E+01    2.58295E+03
 1.22140E+01    2.55019E+03
 1.28400E+01    2.51782E+03
 1.34990E+01    2.49348E+03
 1.38400E+01    2.47725E+03
 1.41910E+01    2.46132E+03
 1.45500E+01    2.44551E+03
 1.49180E+01    2.41993E+03
 1.56830E+01    2.38127E+03
 1.64870E+01    2.34247E+03
