# n + W 186 : (n,tot)   
# jendl.ad   N.Iwamoto                         EVAL-Apr14
# uncertainties: n
# # energies =    69
#   E(MeV)       xs(mb) 
 1.00000E-10    2.65448E+05
 5.00000E-09    7.23185E+04
 1.00000E-08    5.47939E+04
 1.50000E-08    4.60626E+04
 2.00000E-08    4.05412E+04
 2.50000E-08    3.66431E+04
 3.00000E-08    3.37040E+04
 3.50000E-08    3.10064E+04
 4.20000E-08    2.83775E+04
 5.00000E-08    2.61915E+04
 5.80000E-08    2.43625E+04
 6.70000E-08    2.25097E+04
 8.00000E-08    2.03983E+04
 1.00000E-07    1.77922E+04
 1.40000E-07    1.54131E+04
 1.80000E-07    1.38129E+04
 2.20000E-07    1.27621E+04
 2.50000E-07    1.20483E+04
 2.80000E-07    1.15368E+04
 3.00000E-07    1.11811E+04
 3.20000E-07    1.07862E+04
 3.50000E-07    1.02390E+04
 4.00000E-07    9.43259E+03
 5.00000E-07    8.53055E+03
 6.25000E-07    7.73544E+03
 7.80000E-07    7.24330E+03
 8.50000E-07    7.01297E+03
 9.10000E-07    6.85184E+03
 9.50000E-07    6.76221E+03
 9.72000E-07    6.69637E+03
 9.96000E-07    6.63075E+03
 1.02000E-06    6.56965E+03
 1.04500E-06    6.50618E+03
 1.07100E-06    6.44243E+03
 1.09700E-06    6.38552E+03
 1.12300E-06    6.32888E+03
 1.15000E-06    6.15428E+03
 1.30000E-06    5.86304E+03
 1.50000E-06    5.41299E+03
 2.10000E-06    5.00610E+03
 2.60000E-06    4.77856E+03
 3.30000E-06    4.66194E+03
 4.00000E-06    5.41081E+03
 9.87700E-06    1.86694E+04
 1.59680E-05    7.83798E+05
 2.77000E-05    1.48685E+03
 4.80520E-05    1.93458E+02
 7.55014E-05    5.64268E+01
 1.48728E-04    9.46618E+03
 3.67262E-04    4.02341E+03
 9.06898E-04    1.97180E+03
 1.42510E-03    6.82951E+02
 2.23945E-03    6.09378E+02
 3.51910E-03    4.52250E+02
 5.53000E-03    3.43001E+02
 9.11800E-03    2.65256E+02
 1.50300E-02    2.10917E+02
 2.47800E-02    1.75041E+02
 4.08500E-02    1.54458E+02
 6.73400E-02    1.41901E+02
 1.11000E-01    8.46715E+01
 1.83000E-01    4.81906E+01
 3.02000E-01    4.18675E+01
 5.00000E-01    4.14788E+01
 8.21000E-01    3.55028E+01
 1.35300E+00    2.67105E+01
 2.23100E+00    1.92509E+01
 3.67900E+00    6.43295E+00
 6.06500E+00    2.33077E+03
