# n + Pt  0 : (n,xa)
# jeff3.3    A.J. Koning and D. Rochman        EVAL-DEC15
#
# # energies =   133
#   E(MeV)          xs(mb) 
 9.93936E-02    3.86700E-06
 1.30448E-01    3.52942E-06
 2.00000E-01    2.75950E-06
 2.00558E-01    2.75466E-06
 2.12492E-01    2.65098E-06
 2.23375E-01    2.55644E-06
 2.40507E-01    2.40762E-06
 2.60642E-01    2.23271E-06
 3.00000E-01    2.09931E-06
 3.91173E-01    2.39141E-06
 4.00000E-01    2.38672E-06
 4.21874E-01    2.38997E-06
 4.34235E-01    2.39084E-06
 4.43211E-01    2.39146E-06
 4.51986E-01    2.39208E-06
 4.57555E-01    2.39247E-06
 5.00000E-01    2.39545E-06
 5.10709E-01    2.40801E-06
 5.27563E-01    2.42778E-06
 5.41789E-01    2.44446E-06
 5.47015E-01    2.45059E-06
 5.50101E-01    2.45421E-06
 5.65722E-01    2.47253E-06
 5.93953E-01    2.50564E-06
 6.00000E-01    2.51269E-06
 6.15890E-01    2.51340E-06
 6.33398E-01    2.51418E-06
 6.35370E-01    2.51426E-06
 6.67636E-01    2.51571E-06
 6.70551E-01    2.51583E-06
 6.81508E-01    2.51633E-06
 6.98897E-01    2.51710E-06
 7.00000E-01    2.51715E-06
 7.43372E-01    2.59795E-06
 7.69762E-01    2.64712E-06
 7.97103E-01    2.69806E-06
 8.00000E-01    2.70345E-06
 9.00000E-01    3.02630E-06
 1.00000E+00    3.39209E-06
 1.20000E+00    4.51967E-06
 1.40000E+00    6.28920E-06
 1.60000E+00    8.78672E-06
 1.80000E+00    1.17416E-05
 2.00000E+00    1.58378E-05
 2.20000E+00    1.99314E-05
 2.40000E+00    2.41957E-05
 2.60000E+00    2.90143E-05
 2.80000E+00    3.41234E-05
 3.00000E+00    4.09466E-05
 3.20000E+00    4.94013E-05
 3.40000E+00    5.97355E-05
 3.60000E+00    7.30418E-05
 3.80000E+00    8.85642E-05
 4.00000E+00    1.08300E-04
 4.20000E+00    1.31768E-04
 4.40000E+00    1.60457E-04
 4.60000E+00    1.95804E-04
 4.80000E+00    2.37326E-04
 5.00000E+00    2.89628E-04
 5.20000E+00    3.49576E-04
 5.40000E+00    4.24434E-04
 5.60000E+00    5.10999E-04
 5.80000E+00    6.12759E-04
 6.00000E+00    7.42220E-04
 6.20000E+00    8.88756E-04
 6.40000E+00    1.06707E-03
 6.60000E+00    1.29062E-03
 6.80000E+00    1.54651E-03
 7.00000E+00    1.84441E-03
 7.20000E+00    2.20647E-03
 7.40000E+00    2.61650E-03
 7.60000E+00    3.17669E-03
 7.80000E+00    3.72182E-03
 8.00000E+00    4.47933E-03
 8.50000E+00    6.92832E-03
 9.00000E+00    1.05457E-02
 9.50000E+00    1.61500E-02
 1.00000E+01    2.47363E-02
 1.05000E+01    3.79021E-02
 1.10000E+01    5.79826E-02
 1.15000E+01    8.77244E-02
 1.20000E+01    1.32550E-01
 1.25000E+01    1.97416E-01
 1.30000E+01    2.86593E-01
 1.35000E+01    4.05338E-01
 1.40000E+01    5.60616E-01
 1.45000E+01    7.42443E-01
 1.50000E+01    9.87361E-01
 1.60000E+01    1.60975E+00
 1.70000E+01    2.47215E+00
 1.80000E+01    3.65068E+00
 1.90000E+01    5.29481E+00
 2.00000E+01    7.62627E+00
 2.10000E+01    1.09997E+01
 2.20000E+01    1.50144E+01
 2.30000E+01    1.95137E+01
 2.40000E+01    2.25053E+01
 2.50000E+01    2.40330E+01
 2.60000E+01    2.40464E+01
 2.70000E+01    2.36199E+01
 2.80000E+01    2.39994E+01
 2.90000E+01    2.48425E+01
 3.00000E+01    2.60146E+01
 3.00000E+01    2.60146E+01
 3.20000E+01    2.88975E+01
 3.40000E+01    3.26966E+01
 3.60000E+01    3.73873E+01
 3.80000E+01    4.25829E+01
 4.00000E+01    4.81955E+01
 4.20000E+01    5.42200E+01
 4.40000E+01    6.04201E+01
 4.60000E+01    6.67821E+01
 4.80000E+01    7.31074E+01
 5.00000E+01    7.92920E+01
 5.20000E+01    8.52635E+01
 5.40000E+01    9.09422E+01
 5.60000E+01    9.63741E+01
 5.80000E+01    1.01676E+02
 6.00000E+01    1.06844E+02
 6.50000E+01    1.17825E+02
 7.00000E+01    1.26598E+02
 7.50000E+01    1.32904E+02
 8.00000E+01    1.33033E+02
 9.00000E+01    1.37800E+02
 1.00000E+02    1.42383E+02
 1.10000E+02    1.35992E+02
 1.20000E+02    1.27132E+02
 1.30000E+02    1.20571E+02
 1.40000E+02    1.16443E+02
 1.50000E+02    1.12211E+02
 1.60000E+02    1.11072E+02
 1.80000E+02    1.34635E+02
 2.00000E+02    2.05194E+02
