# n + Pb208 : (n,n'06)  
# jendl4.0   O.Iwamoto, N.Iwamoto              EVAL-MAR10
# uncertainties: n
# # energies =    53
#   E(MeV)       xs(mb) 
 3.96558E+00    0.00000E+00
 3.98017E+00    1.74655E+01
 4.00000E+00    2.65287E+01
 4.01508E+00    3.20318E+01
 4.05658E+00    4.45853E+01
 4.06462E+00    4.68672E+01
 4.07014E+00    4.84005E+01
 4.10521E+00    5.69838E+01
 4.12591E+00    6.18535E+01
 4.14532E+00    6.56831E+01
 4.16108E+00    6.81908E+01
 4.17917E+00    7.13345E+01
 4.20068E+00    7.48933E+01
 4.22580E+00    7.84731E+01
 4.25001E+00    8.18143E+01
 4.25052E+00    8.18469E+01
 4.27413E+00    8.39081E+01
 4.28307E+00    8.44325E+01
 4.31701E+00    8.68436E+01
 4.33894E+00    8.81247E+01
 4.34417E+00    8.83975E+01
 4.50000E+00    9.33168E+01
 5.00000E+00    8.44140E+01
 5.50000E+00    6.60057E+01
 6.00000E+00    4.69558E+01
 6.50000E+00    3.09325E+01
 7.00000E+00    1.92536E+01
 7.50000E+00    1.16161E+01
 8.00000E+00    7.00528E+00
 8.50000E+00    4.33243E+00
 9.00000E+00    2.79753E+00
 9.50000E+00    1.91862E+00
 1.00000E+01    1.41660E+00
 1.05000E+01    1.12794E+00
 1.10000E+01    9.57963E-01
 1.15000E+01    8.53351E-01
 1.20000E+01    7.84058E-01
 1.25000E+01    7.33155E-01
 1.30000E+01    6.91439E-01
 1.35000E+01    6.54497E-01
 1.40000E+01    6.20527E-01
 1.45000E+01    5.88981E-01
 1.50000E+01    5.59576E-01
 1.55000E+01    5.32209E-01
 1.60000E+01    5.06788E-01
 1.65000E+01    4.83325E-01
 1.70000E+01    4.61655E-01
 1.75000E+01    4.41689E-01
 1.80000E+01    4.23183E-01
 1.85000E+01    4.06074E-01
 1.90000E+01    3.89905E-01
 1.95000E+01    3.74615E-01
 2.00000E+01    3.60165E-01
