# n + Pb208 : (n,n'07)  
# jendl4.0   O.Iwamoto, N.Iwamoto              EVAL-MAR10
# uncertainties: n
# # energies =    52
#   E(MeV)       xs(mb) 
 3.98017E+00    0.00000E+00
 4.00000E+00    1.69619E+01
 4.01508E+00    2.21069E+01
 4.05658E+00    3.15603E+01
 4.06462E+00    3.32010E+01
 4.07014E+00    3.40457E+01
 4.10521E+00    4.02123E+01
 4.12591E+00    4.37284E+01
 4.14532E+00    4.68401E+01
 4.16108E+00    4.89919E+01
 4.17917E+00    5.15815E+01
 4.20068E+00    5.45657E+01
 4.22580E+00    5.70505E+01
 4.25001E+00    5.92940E+01
 4.25052E+00    5.93366E+01
 4.27413E+00    6.12698E+01
 4.28307E+00    6.19531E+01
 4.31701E+00    6.39004E+01
 4.33894E+00    6.47668E+01
 4.34417E+00    6.50464E+01
 4.50000E+00    7.07441E+01
 5.00000E+00    6.72424E+01
 5.50000E+00    5.36869E+01
 6.00000E+00    3.90892E+01
 6.50000E+00    2.66139E+01
 7.00000E+00    1.72988E+01
 7.50000E+00    1.10176E+01
 8.00000E+00    7.09800E+00
 8.50000E+00    4.74424E+00
 9.00000E+00    3.33787E+00
 9.50000E+00    2.49602E+00
 1.00000E+01    1.99146E+00
 1.05000E+01    1.68631E+00
 1.10000E+01    1.49744E+00
 1.15000E+01    1.37569E+00
 1.20000E+01    1.29149E+00
 1.25000E+01    1.22689E+00
 1.30000E+01    1.17166E+00
 1.35000E+01    1.12079E+00
 1.40000E+01    1.07254E+00
 1.45000E+01    1.02667E+00
 1.50000E+01    9.83224E-01
 1.55000E+01    9.42398E-01
 1.60000E+01    9.04317E-01
 1.65000E+01    8.69146E-01
 1.70000E+01    8.36741E-01
 1.75000E+01    8.06957E-01
 1.80000E+01    7.79466E-01
 1.85000E+01    7.54066E-01
 1.90000E+01    7.30073E-01
 1.95000E+01    7.07364E-01
 2.00000E+01    6.85775E-01
