# n + Pb208 : (n,n'05)  
# jendl4.0   O.Iwamoto, N.Iwamoto              EVAL-MAR10
# uncertainties: n
# # energies =    54
#   E(MeV)       xs(mb) 
 3.93881E+00    0.00000E+00
 3.96558E+00    1.32131E+01
 3.98017E+00    1.63062E+01
 4.00000E+00    1.92095E+01
 4.01508E+00    2.13953E+01
 4.05658E+00    2.60365E+01
 4.06462E+00    2.68973E+01
 4.07014E+00    2.71817E+01
 4.10521E+00    3.04753E+01
 4.12591E+00    3.24853E+01
 4.14532E+00    3.43110E+01
 4.16108E+00    3.56998E+01
 4.17917E+00    3.73052E+01
 4.20068E+00    3.91689E+01
 4.22580E+00    4.06309E+01
 4.25001E+00    4.17864E+01
 4.25052E+00    4.18157E+01
 4.27413E+00    4.30980E+01
 4.28307E+00    4.35576E+01
 4.31701E+00    4.47671E+01
 4.33894E+00    4.52791E+01
 4.34417E+00    4.54598E+01
 4.50000E+00    4.96663E+01
 5.00000E+00    4.94375E+01
 5.50000E+00    4.27299E+01
 6.00000E+00    3.45247E+01
 6.50000E+00    2.64733E+01
 7.00000E+00    1.97459E+01
 7.50000E+00    1.48003E+01
 8.00000E+00    1.14865E+01
 8.50000E+00    9.31997E+00
 9.00000E+00    7.83474E+00
 9.50000E+00    6.75953E+00
 1.00000E+01    5.96538E+00
 1.05000E+01    5.37898E+00
 1.10000E+01    4.94523E+00
 1.15000E+01    4.61781E+00
 1.20000E+01    4.35757E+00
 1.25000E+01    4.13430E+00
 1.30000E+01    3.92950E+00
 1.35000E+01    3.73494E+00
 1.40000E+01    3.54883E+00
 1.45000E+01    3.37236E+00
 1.50000E+01    3.20607E+00
 1.55000E+01    3.05041E+00
 1.60000E+01    2.90546E+00
 1.65000E+01    2.77134E+00
 1.70000E+01    2.64725E+00
 1.75000E+01    2.53280E+00
 1.80000E+01    2.42671E+00
 1.85000E+01    2.32836E+00
 1.90000E+01    2.23558E+00
 1.95000E+01    2.14759E+00
 2.00000E+01    2.06464E+00
