# n + Pb208 : (n,n'08)  
# jendl4.0   O.Iwamoto, N.Iwamoto              EVAL-MAR10
# uncertainties: n
# # energies =    50
#   E(MeV)       xs(mb) 
 4.01508E+00    0.00000E+00
 4.05658E+00    2.20821E+01
 4.06462E+00    2.41435E+01
 4.07014E+00    2.52237E+01
 4.10521E+00    3.21315E+01
 4.12591E+00    3.58478E+01
 4.14532E+00    3.91143E+01
 4.16108E+00    4.14070E+01
 4.17917E+00    4.41143E+01
 4.20068E+00    4.72315E+01
 4.22580E+00    4.99467E+01
 4.25001E+00    5.24076E+01
 4.25052E+00    5.24562E+01
 4.27413E+00    5.46299E+01
 4.28307E+00    5.54137E+01
 4.31701E+00    5.77396E+01
 4.33894E+00    5.88526E+01
 4.34417E+00    5.91842E+01
 4.50000E+00    6.63106E+01
 5.00000E+00    6.53235E+01
 5.50000E+00    5.27348E+01
 6.00000E+00    3.88626E+01
 6.50000E+00    2.68355E+01
 7.00000E+00    1.76832E+01
 7.50000E+00    1.14288E+01
 8.00000E+00    7.49416E+00
 8.50000E+00    5.11606E+00
 9.00000E+00    3.67799E+00
 9.50000E+00    2.79765E+00
 1.00000E+01    2.25352E+00
 1.05000E+01    1.91272E+00
 1.10000E+01    1.69388E+00
 1.15000E+01    1.54757E+00
 1.20000E+01    1.44288E+00
 1.25000E+01    1.36049E+00
 1.30000E+01    1.28936E+00
 1.35000E+01    1.22397E+00
 1.40000E+01    1.16236E+00
 1.45000E+01    1.10427E+00
 1.50000E+01    1.04963E+00
 1.55000E+01    9.98506E-01
 1.60000E+01    9.50890E-01
 1.65000E+01    9.06896E-01
 1.70000E+01    8.66272E-01
 1.75000E+01    8.28778E-01
 1.80000E+01    7.94169E-01
 1.85000E+01    7.62186E-01
 1.90000E+01    7.31940E-01
 1.95000E+01    7.03443E-01
 2.00000E+01    6.76389E-01
