# n + Pb208 : (n,n'04)  
# jendl4.0   O.Iwamoto, N.Iwamoto              EVAL-MAR10
# uncertainties: n
# # energies =    55
#   E(MeV)       xs(mb) 
 3.72643E+00    0.00000E+00
 3.93881E+00    8.57261E+01
 3.96558E+00    9.31850E+01
 3.98017E+00    9.59368E+01
 4.00000E+00    9.83148E+01
 4.01508E+00    1.01056E+02
 4.05658E+00    1.06259E+02
 4.06462E+00    1.07421E+02
 4.07014E+00    1.07704E+02
 4.10521E+00    1.11550E+02
 4.12591E+00    1.14045E+02
 4.14532E+00    1.15814E+02
 4.16108E+00    1.16644E+02
 4.17917E+00    1.18012E+02
 4.20068E+00    1.19574E+02
 4.22580E+00    1.19885E+02
 4.25001E+00    1.20089E+02
 4.25052E+00    1.20074E+02
 4.27413E+00    1.19853E+02
 4.28307E+00    1.19660E+02
 4.31701E+00    1.18562E+02
 4.33894E+00    1.17497E+02
 4.34417E+00    1.17364E+02
 4.50000E+00    1.13035E+02
 5.00000E+00    9.54288E+01
 5.50000E+00    7.76069E+01
 6.00000E+00    5.91641E+01
 6.50000E+00    4.36235E+01
 7.00000E+00    3.22981E+01
 7.50000E+00    2.47226E+01
 8.00000E+00    1.99273E+01
 8.50000E+00    1.68313E+01
 9.00000E+00    1.46581E+01
 9.50000E+00    1.30310E+01
 1.00000E+01    1.17903E+01
 1.05000E+01    1.08465E+01
 1.10000E+01    1.01268E+01
 1.15000E+01    9.56203E+00
 1.20000E+01    9.09186E+00
 1.25000E+01    8.67117E+00
 1.30000E+01    8.27491E+00
 1.35000E+01    7.89384E+00
 1.40000E+01    7.52900E+00
 1.45000E+01    7.18338E+00
 1.50000E+01    6.85879E+00
 1.55000E+01    6.55575E+00
 1.60000E+01    6.27397E+00
 1.65000E+01    6.01352E+00
 1.70000E+01    5.77192E+00
 1.75000E+01    5.54796E+00
 1.80000E+01    5.33999E+00
 1.85000E+01    5.14568E+00
 1.90000E+01    4.96223E+00
 1.95000E+01    4.78752E+00
 2.00000E+01    4.62282E+00
