# n + Pb208 : (n,n'01)  
# jendl4.0   O.Iwamoto, N.Iwamoto              EVAL-MAR10
# uncertainties: n
# # energies =    60
#   E(MeV)       xs(mb) 
 2.62723E+00    0.00000E+00
 3.00000E+00    5.57933E+02
 3.21325E+00    7.21368E+02
 3.49196E+00    8.15119E+02
 3.50000E+00    8.07728E+02
 3.72643E+00    8.26820E+02
 3.93881E+00    8.25619E+02
 3.96558E+00    8.23120E+02
 3.98017E+00    8.18550E+02
 4.00000E+00    8.13396E+02
 4.01508E+00    8.10924E+02
 4.05658E+00    8.01978E+02
 4.06462E+00    8.00514E+02
 4.07014E+00    7.99121E+02
 4.10521E+00    7.83902E+02
 4.12591E+00    7.72247E+02
 4.14532E+00    7.58875E+02
 4.16108E+00    7.48177E+02
 4.17917E+00    7.34334E+02
 4.20068E+00    7.17424E+02
 4.22580E+00    7.00082E+02
 4.25001E+00    6.84821E+02
 4.25052E+00    6.83916E+02
 4.27413E+00    6.64828E+02
 4.28307E+00    6.56612E+02
 4.31701E+00    6.32285E+02
 4.33894E+00    6.17898E+02
 4.34417E+00    6.13658E+02
 4.50000E+00    5.27376E+02
 5.00000E+00    3.68560E+02
 5.50000E+00    2.69831E+02
 6.00000E+00    2.02200E+02
 6.50000E+00    1.60750E+02
 7.00000E+00    1.35623E+02
 7.50000E+00    1.19546E+02
 8.00000E+00    1.08447E+02
 8.50000E+00    1.00227E+02
 9.00000E+00    9.38105E+01
 9.50000E+00    8.86337E+01
 1.00000E+01    8.43475E+01
 1.05000E+01    8.06672E+01
 1.10000E+01    7.73534E+01
 1.15000E+01    7.42448E+01
 1.20000E+01    7.12805E+01
 1.25000E+01    6.84614E+01
 1.30000E+01    6.58135E+01
 1.35000E+01    6.33508E+01
 1.40000E+01    6.10747E+01
 1.45000E+01    5.89778E+01
 1.50000E+01    5.70431E+01
 1.55000E+01    5.52387E+01
 1.60000E+01    5.35497E+01
 1.65000E+01    5.19562E+01
 1.70000E+01    5.04484E+01
 1.75000E+01    4.90150E+01
 1.80000E+01    4.76642E+01
 1.85000E+01    4.63855E+01
 1.90000E+01    4.51808E+01
 1.95000E+01    4.40493E+01
 2.00000E+01    4.29895E+01
