# n + Tc 98 : (n,n'29)  
# tendl.2019 A.J. Koning and D. Rochman        EVAL-NOV19
# uncertainties: n
# # energies =    70
#   E(MeV)       xs(mb) 
 6.15779E-01    0.00000E+00
 6.28590E-01    8.55359E+00
 7.00000E-01    5.62323E+01
 8.00000E-01    9.72172E+01
 9.00000E-01    1.05925E+02
 1.00000E+00    9.97811E+01
 1.20000E+00    7.81200E+01
 1.40000E+00    5.94318E+01
 1.60000E+00    4.60272E+01
 1.80000E+00    3.64432E+01
 2.00000E+00    2.92234E+01
 2.20000E+00    2.34585E+01
 2.40000E+00    1.86857E+01
 2.60000E+00    1.47017E+01
 2.80000E+00    1.14220E+01
 3.00000E+00    8.77336E+00
 3.20000E+00    6.68369E+00
 3.40000E+00    5.06874E+00
 3.60000E+00    3.83443E+00
 3.80000E+00    2.90444E+00
 4.00000E+00    2.20536E+00
 4.20000E+00    1.68054E+00
 4.40000E+00    1.28735E+00
 4.60000E+00    9.91063E-01
 4.80000E+00    7.67529E-01
 5.00000E+00    5.96788E-01
 5.20000E+00    4.66269E-01
 5.40000E+00    3.65083E-01
 5.60000E+00    2.86995E-01
 5.80000E+00    2.25949E-01
 6.00000E+00    1.78006E-01
 6.20000E+00    1.40620E-01
 6.40000E+00    1.10954E-01
 6.60000E+00    8.77837E-02
 6.80000E+00    6.94494E-02
 7.00000E+00    5.47060E-02
 7.20000E+00    4.32223E-02
 7.40000E+00    3.41659E-02
 7.60000E+00    2.70930E-02
 7.80000E+00    2.15042E-02
 8.00000E+00    1.70848E-02
 8.50000E+00    9.67950E-03
 9.00000E+00    5.53957E-03
 9.50000E+00    3.20721E-03
 1.00000E+01    1.88044E-03
 1.05000E+01    1.11594E-03
 1.10000E+01    6.70149E-04
 1.15000E+01    4.07171E-04
 1.20000E+01    2.49937E-04
 1.25000E+01    1.54883E-04
 1.30000E+01    9.67493E-05
 1.35000E+01    6.08984E-05
 1.40000E+01    3.86197E-05
 1.45000E+01    2.46461E-05
 1.50000E+01    1.58402E-05
 1.60000E+01    6.67585E-06
 1.70000E+01    2.88443E-06
 1.80000E+01    1.27661E-06
 1.90000E+01    5.73410E-07
 2.00000E+01    2.61360E-07
 2.10000E+01    1.20990E-07
 2.20000E+01    5.61080E-08
 2.30000E+01    2.67150E-08
 2.40000E+01    1.29290E-08
 2.50000E+01    6.35480E-09
 2.60000E+01    3.16260E-09
 2.70000E+01    1.59540E-09
 2.80000E+01    8.13330E-10
 2.90000E+01    4.18800E-10
 3.00000E+01    2.17600E-10
