# n + Lu175 : (n,n'15)  
# jeff3.3    A.J. Koning and D. Rochman        EVAL-DEC15
# uncertainties: n
# # energies =    84
#   E(MeV)       xs(mb) 
 6.30142E-01    0.00000E+00
 6.36408E-01    9.22848E-01
 6.76709E-01    6.85833E+00
 6.88246E-01    8.55749E+00
 6.89271E-01    8.70845E+00
 7.00000E-01    1.02886E+01
 7.61717E-01    1.45267E+01
 7.77899E-01    1.56379E+01
 8.00000E-01    1.71555E+01
 8.02702E-01    1.72634E+01
 8.04562E-01    1.73376E+01
 8.49973E-01    1.91505E+01
 8.68680E-01    1.98973E+01
 8.70993E-01    1.99897E+01
 8.91410E-01    2.08048E+01
 9.00000E-01    2.11477E+01
 9.65535E-01    2.29818E+01
 9.95859E-01    2.38305E+01
 1.00000E+00    2.39464E+01
 1.00466E+00    2.38803E+01
 1.20000E+00    2.11105E+01
 1.40000E+00    1.50851E+01
 1.60000E+00    1.01189E+01
 1.80000E+00    6.63491E+00
 2.00000E+00    4.32676E+00
 2.20000E+00    2.83321E+00
 2.40000E+00    1.87129E+00
 2.60000E+00    1.24823E+00
 2.80000E+00    8.40852E-01
 3.00000E+00    5.71463E-01
 3.20000E+00    3.96319E-01
 3.40000E+00    2.73098E-01
 3.60000E+00    1.91328E-01
 3.80000E+00    1.34197E-01
 4.00000E+00    9.39922E-02
 4.20000E+00    6.62856E-02
 4.40000E+00    4.69970E-02
 4.60000E+00    3.34860E-02
 4.80000E+00    2.39773E-02
 5.00000E+00    1.72481E-02
 5.20000E+00    1.24616E-02
 5.40000E+00    9.04746E-03
 5.60000E+00    6.59891E-03
 5.80000E+00    4.79088E-03
 6.00000E+00    3.51360E-03
 6.20000E+00    2.58244E-03
 6.40000E+00    1.90920E-03
 6.60000E+00    1.41896E-03
 6.80000E+00    1.05744E-03
 7.00000E+00    7.93211E-04
 7.20000E+00    5.96017E-04
 7.40000E+00    4.49682E-04
 7.60000E+00    3.40495E-04
 7.80000E+00    2.58167E-04
 8.00000E+00    1.96717E-04
 8.50000E+00    1.00091E-04
 9.00000E+00    5.14160E-05
 9.50000E+00    2.66773E-05
 1.00000E+01    1.39896E-05
 1.05000E+01    7.42027E-06
 1.10000E+01    3.98086E-06
 1.15000E+01    2.15990E-06
 1.20000E+01    1.18552E-06
 1.25000E+01    6.57480E-07
 1.30000E+01    3.68630E-07
 1.35000E+01    2.08810E-07
 1.40000E+01    1.19370E-07
 1.45000E+01    6.88660E-08
 1.50000E+01    4.00810E-08
 1.60000E+01    1.38960E-08
 1.70000E+01    4.96100E-09
 1.80000E+01    1.80660E-09
 1.90000E+01    6.77460E-10
 2.00000E+01    2.60380E-10
 2.10000E+01    1.02500E-10
 2.20000E+01    4.12280E-11
 2.30000E+01    1.69290E-11
 2.40000E+01    7.08620E-12
 2.50000E+01    3.01540E-12
 2.60000E+01    1.30560E-12
 2.70000E+01    5.73310E-13
 2.80000E+01    2.55270E-13
 2.90000E+01    1.15190E-13
 3.00000E+01    5.26670E-14
