# n + Lu175 : (n,n'16)  
# jeff3.3    A.J. Koning and D. Rochman        EVAL-DEC15
# uncertainties: n
# # energies =    83
#   E(MeV)       xs(mb) 
 6.36408E-01    0.00000E+00
 6.76709E-01    1.93826E+01
 6.88246E-01    2.49313E+01
 6.89271E-01    2.54242E+01
 7.00000E-01    3.05843E+01
 7.61717E-01    4.29084E+01
 7.77899E-01    4.61398E+01
 8.00000E-01    5.05531E+01
 8.02702E-01    5.07786E+01
 8.04562E-01    5.09338E+01
 8.49973E-01    5.47237E+01
 8.68680E-01    5.62849E+01
 8.70993E-01    5.64779E+01
 8.91410E-01    5.81818E+01
 9.00000E-01    5.88987E+01
 9.65535E-01    6.14148E+01
 9.95859E-01    6.25791E+01
 1.00000E+00    6.27381E+01
 1.00466E+00    6.24647E+01
 1.20000E+00    5.10031E+01
 1.40000E+00    3.45173E+01
 1.60000E+00    2.22932E+01
 1.80000E+00    1.42093E+01
 2.00000E+00    9.06090E+00
 2.20000E+00    5.82554E+00
 2.40000E+00    3.78965E+00
 2.60000E+00    2.49605E+00
 2.80000E+00    1.66386E+00
 3.00000E+00    1.12103E+00
 3.20000E+00    7.71593E-01
 3.40000E+00    5.28710E-01
 3.60000E+00    3.68407E-01
 3.80000E+00    2.57608E-01
 4.00000E+00    1.79899E-01
 4.20000E+00    1.26587E-01
 4.40000E+00    8.95999E-02
 4.60000E+00    6.37622E-02
 4.80000E+00    4.56184E-02
 5.00000E+00    3.27983E-02
 5.20000E+00    2.36905E-02
 5.40000E+00    1.71990E-02
 5.60000E+00    1.25458E-02
 5.80000E+00    9.11054E-03
 6.00000E+00    6.68382E-03
 6.20000E+00    4.91445E-03
 6.40000E+00    3.63484E-03
 6.60000E+00    2.70277E-03
 6.80000E+00    2.01516E-03
 7.00000E+00    1.51238E-03
 7.20000E+00    1.13698E-03
 7.40000E+00    8.58272E-04
 7.60000E+00    6.50216E-04
 7.80000E+00    4.93257E-04
 8.00000E+00    3.76050E-04
 8.50000E+00    1.91597E-04
 9.00000E+00    9.85598E-05
 9.50000E+00    5.12092E-05
 1.00000E+01    2.68907E-05
 1.05000E+01    1.42818E-05
 1.10000E+01    7.67138E-06
 1.15000E+01    4.16711E-06
 1.20000E+01    2.28974E-06
 1.25000E+01    1.27118E-06
 1.30000E+01    7.13410E-07
 1.35000E+01    4.04500E-07
 1.40000E+01    2.31440E-07
 1.45000E+01    1.33630E-07
 1.50000E+01    7.78380E-08
 1.60000E+01    2.70240E-08
 1.70000E+01    9.65940E-09
 1.80000E+01    3.52120E-09
 1.90000E+01    1.32160E-09
 2.00000E+01    5.08350E-10
 2.10000E+01    2.00260E-10
 2.20000E+01    8.06050E-11
 2.30000E+01    3.31170E-11
 2.40000E+01    1.38700E-11
 2.50000E+01    5.90530E-12
 2.60000E+01    2.55800E-12
 2.70000E+01    1.12370E-12
 2.80000E+01    5.00510E-13
 2.90000E+01    2.25940E-13
 3.00000E+01    1.03330E-13
