# n + Os190 : (n,n'12)  
# jeff3.3    A.J. Koning and D. Rochman        EVAL-DEC15
# uncertainties: n
# # energies =    82
#   E(MeV)       xs(mb) 
 1.33395E+00    0.00000E+00
 1.38974E+00    6.22792E+01
 1.39436E+00    6.74365E+01
 1.40000E+00    7.37326E+01
 1.44344E+00    8.25686E+01
 1.45380E+00    8.46759E+01
 1.48203E+00    9.04181E+01
 1.48987E+00    9.20128E+01
 1.52214E+00    9.85767E+01
 1.55351E+00    1.04958E+02
 1.55542E+00    1.05346E+02
 1.57737E+00    1.09811E+02
 1.57864E+00    1.10069E+02
 1.59229E+00    1.12846E+02
 1.60000E+00    1.14414E+02
 1.62455E+00    1.14188E+02
 1.67532E+00    1.13722E+02
 1.68458E+00    1.13637E+02
 1.68842E+00    1.13602E+02
 1.68952E+00    1.13592E+02
 1.69062E+00    1.13582E+02
 1.80000E+00    1.12577E+02
 2.00000E+00    9.22580E+01
 2.20000E+00    6.84731E+01
 2.40000E+00    4.77657E+01
 2.60000E+00    3.22980E+01
 2.80000E+00    2.15845E+01
 3.00000E+00    1.44199E+01
 3.20000E+00    9.64842E+00
 3.40000E+00    6.60797E+00
 3.60000E+00    4.63452E+00
 3.80000E+00    3.35121E+00
 4.00000E+00    2.51251E+00
 4.20000E+00    1.95854E+00
 4.40000E+00    1.58569E+00
 4.60000E+00    1.34224E+00
 4.80000E+00    1.17770E+00
 5.00000E+00    1.06616E+00
 5.20000E+00    9.90477E-01
 5.40000E+00    9.39368E-01
 5.60000E+00    9.04805E-01
 5.80000E+00    8.82522E-01
 6.00000E+00    8.68594E-01
 6.20000E+00    8.60688E-01
 6.40000E+00    8.56963E-01
 6.60000E+00    8.56355E-01
 6.80000E+00    8.58115E-01
 7.00000E+00    8.61686E-01
 7.20000E+00    8.66692E-01
 7.40000E+00    8.72761E-01
 7.60000E+00    8.79601E-01
 7.80000E+00    8.86949E-01
 8.00000E+00    8.94566E-01
 8.50000E+00    9.13634E-01
 9.00000E+00    9.31170E-01
 9.50000E+00    9.46033E-01
 1.00000E+01    9.57713E-01
 1.05000E+01    9.66007E-01
 1.10000E+01    9.70855E-01
 1.15000E+01    9.72259E-01
 1.20000E+01    9.70319E-01
 1.25000E+01    9.65290E-01
 1.30000E+01    9.57579E-01
 1.35000E+01    9.47747E-01
 1.40000E+01    9.36458E-01
 1.45000E+01    9.24454E-01
 1.50000E+01    9.12500E-01
 1.60000E+01    8.91675E-01
 1.70000E+01    8.78521E-01
 1.80000E+01    8.74261E-01
 1.90000E+01    8.76642E-01
 2.00000E+01    8.81733E-01
 2.10000E+01    8.86228E-01
 2.20000E+01    8.88869E-01
 2.30000E+01    8.90371E-01
 2.40000E+01    8.92382E-01
 2.50000E+01    8.96419E-01
 2.60000E+01    9.03177E-01
 2.70000E+01    9.12326E-01
 2.80000E+01    9.22685E-01
 2.90000E+01    9.32787E-01
 3.00000E+01    9.41482E-01
