# n + Os190 : (n,xa)    
# jeff3.3    A.J. Koning and D. Rochman        EVAL-DEC15
# 
# # energies =   133
#   E(MeV)        xs(mb) 
 1.87709E-01    3.91563E-08
 2.00000E-01    3.87210E-08
 3.00000E-01    4.18050E-08
 4.00000E-01    5.63490E-08
 5.00000E-01    7.76750E-08
 5.50763E-01    8.55544E-08
 5.60942E-01    8.71344E-08
 6.00000E-01    9.31970E-08
 7.00000E-01    1.17453E-07
 7.60036E-01    1.41357E-07
 8.00000E-01    1.57270E-07
 9.00000E-01    2.16670E-07
 9.16621E-01    2.28345E-07
 9.60445E-01    2.59127E-07
 1.00000E+00    2.86910E-07
 1.05596E+00    3.41496E-07
 1.12064E+00    4.04588E-07
 1.14539E+00    4.28731E-07
 1.16937E+00    4.52122E-07
 1.20000E+00    4.82000E-07
 1.21025E+00    5.00084E-07
 1.33395E+00    7.18321E-07
 1.38974E+00    8.16749E-07
 1.39436E+00    8.24900E-07
 1.40000E+00    8.34850E-07
 1.44344E+00    9.34030E-07
 1.45380E+00    9.57683E-07
 1.48203E+00    1.02214E-06
 1.48987E+00    1.04004E-06
 1.52214E+00    1.11371E-06
 1.55351E+00    1.18534E-06
 1.55542E+00    1.18970E-06
 1.57737E+00    1.23981E-06
 1.57864E+00    1.24271E-06
 1.59229E+00    1.27388E-06
 1.60000E+00    1.29148E-06
 1.62455E+00    1.36306E-06
 1.67532E+00    1.51108E-06
 1.68458E+00    1.53807E-06
 1.68842E+00    1.54927E-06
 1.68952E+00    1.55248E-06
 1.69062E+00    1.55568E-06
 1.80000E+00    1.87458E-06
 2.00000E+00    2.59514E-06
 2.20000E+00    3.39907E-06
 2.40000E+00    4.41637E-06
 2.60000E+00    5.59565E-06
 2.80000E+00    6.99897E-06
 3.00000E+00    8.72356E-06
 3.20000E+00    1.06276E-05
 3.40000E+00    1.31186E-05
 3.60000E+00    1.60644E-05
 3.80000E+00    1.96146E-05
 4.00000E+00    2.39964E-05
 4.20000E+00    2.92082E-05
 4.40000E+00    3.57703E-05
 4.60000E+00    4.34294E-05
 4.80000E+00    5.25717E-05
 5.00000E+00    6.45667E-05
 5.20000E+00    7.83800E-05
 5.40000E+00    9.67809E-05
 5.60000E+00    1.17186E-04
 5.80000E+00    1.41348E-04
 6.00000E+00    1.77772E-04
 6.20000E+00    2.17192E-04
 6.40000E+00    2.75585E-04
 6.60000E+00    3.40322E-04
 6.80000E+00    4.16251E-04
 7.00000E+00    5.42248E-04
 7.20000E+00    6.63335E-04
 7.40000E+00    8.70501E-04
 7.60000E+00    1.09861E-03
 7.80000E+00    1.32947E-03
 8.00000E+00    1.76547E-03
 8.50000E+00    3.07389E-03
 9.00000E+00    5.20412E-03
 9.50000E+00    8.91757E-03
 1.00000E+01    1.53005E-02
 1.05000E+01    2.61689E-02
 1.10000E+01    4.42807E-02
 1.15000E+01    7.35567E-02
 1.20000E+01    1.19041E-01
 1.25000E+01    1.86527E-01
 1.30000E+01    2.82319E-01
 1.35000E+01    4.06939E-01
 1.40000E+01    5.89886E-01
 1.45000E+01    8.02987E-01
 1.50000E+01    1.06261E+00
 1.60000E+01    1.74117E+00
 1.70000E+01    2.65871E+00
 1.80000E+01    3.86631E+00
 1.90000E+01    5.47368E+00
 2.00000E+01    7.69355E+00
 2.10000E+01    1.08941E+01
 2.20000E+01    1.53810E+01
 2.30000E+01    1.99460E+01
 2.40000E+01    2.27517E+01
 2.50000E+01    2.47952E+01
 2.60000E+01    2.28667E+01
 2.70000E+01    2.20956E+01
 2.80000E+01    2.16756E+01
 2.90000E+01    2.15649E+01
 3.00000E+01    2.16851E+01
 3.00000E+01    2.16177E+01
 3.20000E+01    2.22972E+01
 3.40000E+01    2.27379E+01
 3.60000E+01    2.39876E+01
 3.80000E+01    2.52832E+01
 4.00000E+01    2.66307E+01
 4.20000E+01    2.80085E+01
 4.40000E+01    2.94384E+01
 4.60000E+01    3.09111E+01
 4.80000E+01    3.23904E+01
 5.00000E+01    3.39195E+01
 5.20000E+01    3.55295E+01
 5.40000E+01    3.71369E+01
 5.60000E+01    3.87186E+01
 5.80000E+01    4.03632E+01
 6.00000E+01    4.20126E+01
 6.50000E+01    4.62716E+01
 7.00000E+01    5.10833E+01
 7.50000E+01    5.37271E+01
 8.00000E+01    5.72793E+01
 9.00000E+01    6.91283E+01
 1.00000E+02    7.01534E+01
 1.10000E+02    7.67176E+01
 1.20000E+02    8.58227E+01
 1.30000E+02    8.31176E+01
 1.40000E+02    7.99257E+01
 1.50000E+02    8.52653E+01
 1.60000E+02    9.88674E+01
 1.80000E+02    1.41788E+02
 2.00000E+02    2.46602E+02
