# n + Os190 : (n,n'16)  
# jeff3.3    A.J. Koning and D. Rochman        EVAL-DEC15
# uncertainties: n
# # energies =    77
#   E(MeV)       xs(mb) 
 1.45380E+00    0.00000E+00
 1.48203E+00    1.88191E+00
 1.48987E+00    2.40454E+00
 1.52214E+00    4.55577E+00
 1.55351E+00    6.64699E+00
 1.55542E+00    6.77432E+00
 1.57737E+00    8.23758E+00
 1.57864E+00    8.32224E+00
 1.59229E+00    9.23220E+00
 1.60000E+00    9.74617E+00
 1.62455E+00    1.11009E+01
 1.67532E+00    1.39024E+01
 1.68458E+00    1.44134E+01
 1.68842E+00    1.46253E+01
 1.68952E+00    1.46860E+01
 1.69062E+00    1.47467E+01
 1.80000E+00    2.07824E+01
 2.00000E+00    2.40331E+01
 2.20000E+00    2.21243E+01
 2.40000E+00    1.83043E+01
 2.60000E+00    1.43894E+01
 2.80000E+00    1.10091E+01
 3.00000E+00    8.25938E+00
 3.20000E+00    6.00471E+00
 3.40000E+00    4.37015E+00
 3.60000E+00    3.16094E+00
 3.80000E+00    2.27857E+00
 4.00000E+00    1.64022E+00
 4.20000E+00    1.18061E+00
 4.40000E+00    8.46394E-01
 4.60000E+00    6.07059E-01
 4.80000E+00    4.38679E-01
 5.00000E+00    3.17801E-01
 5.20000E+00    2.31125E-01
 5.40000E+00    1.68736E-01
 5.60000E+00    1.22967E-01
 5.80000E+00    9.01383E-02
 6.00000E+00    6.62668E-02
 6.20000E+00    4.89944E-02
 6.40000E+00    3.63288E-02
 6.60000E+00    2.70323E-02
 6.80000E+00    2.01915E-02
 7.00000E+00    1.51042E-02
 7.20000E+00    1.13574E-02
 7.40000E+00    8.55501E-03
 7.60000E+00    6.46342E-03
 7.80000E+00    4.90028E-03
 8.00000E+00    3.71873E-03
 8.50000E+00    1.88276E-03
 9.00000E+00    9.58926E-04
 9.50000E+00    4.91697E-04
 1.00000E+01    2.54374E-04
 1.05000E+01    1.32943E-04
 1.10000E+01    7.02188E-05
 1.15000E+01    3.74890E-05
 1.20000E+01    2.02225E-05
 1.25000E+01    1.10260E-05
 1.30000E+01    6.07425E-06
 1.35000E+01    3.38100E-06
 1.40000E+01    1.89986E-06
 1.45000E+01    1.07788E-06
 1.50000E+01    6.16650E-07
 1.60000E+01    2.06570E-07
 1.70000E+01    7.11220E-08
 1.80000E+01    2.49840E-08
 1.90000E+01    9.04400E-09
 2.00000E+01    3.34960E-09
 2.10000E+01    1.26940E-09
 2.20000E+01    4.92070E-10
 2.30000E+01    1.94480E-10
 2.40000E+01    7.84110E-11
 2.50000E+01    3.21720E-11
 2.60000E+01    1.34440E-11
 2.70000E+01    5.70120E-12
 2.80000E+01    2.45210E-12
 2.90000E+01    1.06770E-12
 3.00000E+01    4.71240E-13
