# n + Os190 : (n,n'21)  
# jeff3.3    A.J. Koning and D. Rochman        EVAL-DEC15
# uncertainties: n
# # energies =    72
#   E(MeV)       xs(mb) 
 1.55542E+00    0.00000E+00
 1.57737E+00    1.59879E+01
 1.57864E+00    1.69129E+01
 1.59229E+00    2.68552E+01
 1.60000E+00    3.24710E+01
 1.62455E+00    3.56629E+01
 1.67532E+00    4.22640E+01
 1.68458E+00    4.34679E+01
 1.68842E+00    4.39672E+01
 1.68952E+00    4.41102E+01
 1.69062E+00    4.42532E+01
 1.80000E+00    5.84746E+01
 2.00000E+00    5.89682E+01
 2.20000E+00    4.92449E+01
 2.40000E+00    3.72023E+01
 2.60000E+00    2.65223E+01
 2.80000E+00    1.83201E+01
 3.00000E+00    1.24380E+01
 3.20000E+00    8.25244E+00
 3.40000E+00    5.53243E+00
 3.60000E+00    3.70672E+00
 3.80000E+00    2.48894E+00
 4.00000E+00    1.67831E+00
 4.20000E+00    1.13790E+00
 4.40000E+00    7.75511E-01
 4.60000E+00    5.26857E-01
 4.80000E+00    3.64292E-01
 5.00000E+00    2.53520E-01
 5.20000E+00    1.77726E-01
 5.40000E+00    1.25493E-01
 5.60000E+00    8.87268E-02
 5.80000E+00    6.32735E-02
 6.00000E+00    4.53610E-02
 6.20000E+00    3.27814E-02
 6.40000E+00    2.37987E-02
 6.60000E+00    1.73663E-02
 6.80000E+00    1.27357E-02
 7.00000E+00    9.36341E-03
 7.20000E+00    6.92475E-03
 7.40000E+00    5.13387E-03
 7.60000E+00    3.81963E-03
 7.80000E+00    2.85314E-03
 8.00000E+00    2.13423E-03
 8.50000E+00    1.04417E-03
 9.00000E+00    5.15235E-04
 9.50000E+00    2.56701E-04
 1.00000E+01    1.29450E-04
 1.05000E+01    6.61508E-05
 1.10000E+01    3.42514E-05
 1.15000E+01    1.79594E-05
 1.20000E+01    9.52573E-06
 1.25000E+01    5.11050E-06
 1.30000E+01    2.77165E-06
 1.35000E+01    1.51950E-06
 1.40000E+01    8.41490E-07
 1.45000E+01    4.70880E-07
 1.50000E+01    2.65940E-07
 1.60000E+01    8.70700E-08
 1.70000E+01    2.94070E-08
 1.80000E+01    1.01620E-08
 1.90000E+01    3.62700E-09
 2.00000E+01    1.32650E-09
 2.10000E+01    4.96880E-10
 2.20000E+01    1.90480E-10
 2.30000E+01    7.44890E-11
 2.40000E+01    2.97420E-11
 2.50000E+01    1.20990E-11
 2.60000E+01    5.01960E-12
 2.70000E+01    2.11540E-12
 2.80000E+01    9.04580E-13
 2.90000E+01    3.91660E-13
 3.00000E+01    1.71870E-13
