# n + Os190 : (n,n'20)  
# jeff3.3    A.J. Koning and D. Rochman        EVAL-DEC15
# uncertainties: n
# # energies =    73
#   E(MeV)       xs(mb) 
 1.55351E+00    0.00000E+00
 1.55542E+00    6.16126E-01
 1.57737E+00    7.69640E+00
 1.57864E+00    8.10603E+00
 1.59229E+00    1.25090E+01
 1.60000E+00    1.49960E+01
 1.62455E+00    1.63141E+01
 1.67532E+00    1.90399E+01
 1.68458E+00    1.95371E+01
 1.68842E+00    1.97432E+01
 1.68952E+00    1.98023E+01
 1.69062E+00    1.98613E+01
 1.80000E+00    2.57339E+01
 2.00000E+00    2.49475E+01
 2.20000E+00    2.02735E+01
 2.40000E+00    1.50382E+01
 2.60000E+00    1.05973E+01
 2.80000E+00    7.27078E+00
 3.00000E+00    4.91633E+00
 3.20000E+00    3.27114E+00
 3.40000E+00    2.18120E+00
 3.60000E+00    1.45211E+00
 3.80000E+00    9.67982E-01
 4.00000E+00    6.47670E-01
 4.20000E+00    4.35722E-01
 4.40000E+00    2.94815E-01
 4.60000E+00    1.99287E-01
 4.80000E+00    1.36996E-01
 5.00000E+00    9.48940E-02
 5.20000E+00    6.62815E-02
 5.40000E+00    4.66738E-02
 5.60000E+00    3.29351E-02
 5.80000E+00    2.34554E-02
 6.00000E+00    1.68009E-02
 6.20000E+00    1.21353E-02
 6.40000E+00    8.80675E-03
 6.60000E+00    6.42509E-03
 6.80000E+00    4.71081E-03
 7.00000E+00    3.46262E-03
 7.20000E+00    2.56006E-03
 7.40000E+00    1.89733E-03
 7.60000E+00    1.41107E-03
 7.80000E+00    1.05355E-03
 8.00000E+00    7.87713E-04
 8.50000E+00    3.84929E-04
 9.00000E+00    1.89754E-04
 9.50000E+00    9.44749E-05
 1.00000E+01    4.76130E-05
 1.05000E+01    2.43077E-05
 1.10000E+01    1.25650E-05
 1.15000E+01    6.57144E-06
 1.20000E+01    3.47361E-06
 1.25000E+01    1.85605E-06
 1.30000E+01    1.00226E-06
 1.35000E+01    5.47140E-07
 1.40000E+01    3.01860E-07
 1.45000E+01    1.68410E-07
 1.50000E+01    9.49080E-08
 1.60000E+01    3.10200E-08
 1.70000E+01    1.04780E-08
 1.80000E+01    3.62060E-09
 1.90000E+01    1.29010E-09
 2.00000E+01    4.70450E-10
 2.10000E+01    1.75690E-10
 2.20000E+01    6.72320E-11
 2.30000E+01    2.62940E-11
 2.40000E+01    1.05170E-11
 2.50000E+01    4.28930E-12
 2.60000E+01    1.78340E-12
 2.70000E+01    7.52290E-13
 2.80000E+01    3.21600E-13
 2.90000E+01    1.39090E-13
 3.00000E+01    6.09570E-14
