# n + Os190 : (n,n'09)  
# jeff3.3    A.J. Koning and D. Rochman        EVAL-DEC15
# uncertainties: n
# # energies =    86
#   E(MeV)       xs(mb) 
 1.14539E+00    0.00000E+00
 1.16937E+00    3.77076E+01
 1.20000E+00    8.58719E+01
 1.21025E+00    8.96730E+01
 1.33395E+00    1.35545E+02
 1.38974E+00    1.56234E+02
 1.39436E+00    1.57947E+02
 1.40000E+00    1.60039E+02
 1.44344E+00    1.60986E+02
 1.45380E+00    1.61212E+02
 1.48203E+00    1.61828E+02
 1.48987E+00    1.61999E+02
 1.52214E+00    1.62702E+02
 1.55351E+00    1.63386E+02
 1.55542E+00    1.63428E+02
 1.57737E+00    1.63907E+02
 1.57864E+00    1.63934E+02
 1.59229E+00    1.64232E+02
 1.60000E+00    1.64400E+02
 1.62455E+00    1.61185E+02
 1.67532E+00    1.54535E+02
 1.68458E+00    1.53322E+02
 1.68842E+00    1.52819E+02
 1.68952E+00    1.52675E+02
 1.69062E+00    1.52531E+02
 1.80000E+00    1.38205E+02
 2.00000E+00    1.04392E+02
 2.20000E+00    7.40110E+01
 2.40000E+00    5.04915E+01
 2.60000E+00    3.36896E+01
 2.80000E+00    2.21958E+01
 3.00000E+00    1.45326E+01
 3.20000E+00    9.39086E+00
 3.40000E+00    6.16225E+00
 3.60000E+00    4.06227E+00
 3.80000E+00    2.69399E+00
 4.00000E+00    1.79688E+00
 4.20000E+00    1.19697E+00
 4.40000E+00    8.12330E-01
 4.60000E+00    5.55336E-01
 4.80000E+00    3.82857E-01
 5.00000E+00    2.66087E-01
 5.20000E+00    1.86381E-01
 5.40000E+00    1.31502E-01
 5.60000E+00    9.28969E-02
 5.80000E+00    6.61775E-02
 6.00000E+00    4.73787E-02
 6.20000E+00    3.41923E-02
 6.40000E+00    2.47865E-02
 6.60000E+00    1.80592E-02
 6.80000E+00    1.32257E-02
 7.00000E+00    9.71124E-03
 7.20000E+00    7.17338E-03
 7.40000E+00    5.31230E-03
 7.60000E+00    3.94839E-03
 7.80000E+00    2.94648E-03
 8.00000E+00    2.20205E-03
 8.50000E+00    1.07530E-03
 9.00000E+00    5.29874E-04
 9.50000E+00    2.63747E-04
 1.00000E+01    1.32886E-04
 1.05000E+01    6.78265E-05
 1.10000E+01    3.50646E-05
 1.15000E+01    1.83534E-05
 1.20000E+01    9.71805E-06
 1.25000E+01    5.20607E-06
 1.30000E+01    2.82030E-06
 1.35000E+01    1.54491E-06
 1.40000E+01    8.55080E-07
 1.45000E+01    4.78270E-07
 1.50000E+01    2.70000E-07
 1.60000E+01    8.83080E-08
 1.70000E+01    2.97850E-08
 1.80000E+01    1.02800E-08
 1.90000E+01    3.66580E-09
 2.00000E+01    1.34000E-09
 2.10000E+01    5.01810E-10
 2.20000E+01    1.92340E-10
 2.30000E+01    7.52030E-11
 2.40000E+01    3.00190E-11
 2.50000E+01    1.22080E-11
 2.60000E+01    5.06190E-12
 2.70000E+01    2.13190E-12
 2.80000E+01    9.11140E-13
 2.90000E+01    3.94320E-13
 3.00000E+01    1.72980E-13
