# n + Os190 : (n,n'22)  
# jeff3.3    A.J. Koning and D. Rochman        EVAL-DEC15
# uncertainties: n
# # energies =    71
#   E(MeV)       xs(mb) 
 1.57737E+00    0.00000E+00
 1.57864E+00    9.34154E-01
 1.59229E+00    1.09750E+01
 1.60000E+00    1.66464E+01
 1.62455E+00    2.08454E+01
 1.67532E+00    2.95291E+01
 1.68458E+00    3.11129E+01
 1.68842E+00    3.17697E+01
 1.68952E+00    3.19578E+01
 1.69062E+00    3.21460E+01
 1.80000E+00    5.08542E+01
 2.00000E+00    5.98025E+01
 2.20000E+00    5.38568E+01
 2.40000E+00    4.26620E+01
 2.60000E+00    3.15477E+01
 2.80000E+00    2.25103E+01
 3.00000E+00    1.57610E+01
 3.20000E+00    1.08103E+01
 3.40000E+00    7.43636E+00
 3.60000E+00    5.10946E+00
 3.80000E+00    3.51596E+00
 4.00000E+00    2.42735E+00
 4.20000E+00    1.68271E+00
 4.40000E+00    1.17139E+00
 4.60000E+00    8.11736E-01
 4.80000E+00    5.70006E-01
 5.00000E+00    4.02253E-01
 5.20000E+00    2.85439E-01
 5.40000E+00    2.03672E-01
 5.60000E+00    1.45313E-01
 5.80000E+00    1.04450E-01
 6.00000E+00    7.54005E-02
 6.20000E+00    5.48311E-02
 6.40000E+00    4.00337E-02
 6.60000E+00    2.93661E-02
 6.80000E+00    2.16451E-02
 7.00000E+00    1.59912E-02
 7.20000E+00    1.18828E-02
 7.40000E+00    8.85128E-03
 7.60000E+00    6.61627E-03
 7.80000E+00    4.96516E-03
 8.00000E+00    3.73122E-03
 8.50000E+00    1.84615E-03
 9.00000E+00    9.20638E-04
 9.50000E+00    4.63030E-04
 1.00000E+01    2.35399E-04
 1.05000E+01    1.21126E-04
 1.10000E+01    6.30975E-05
 1.15000E+01    3.32706E-05
 1.20000E+01    1.77436E-05
 1.25000E+01    9.57182E-06
 1.30000E+01    5.22020E-06
 1.35000E+01    2.87785E-06
 1.40000E+01    1.60247E-06
 1.45000E+01    9.01410E-07
 1.50000E+01    5.11600E-07
 1.60000E+01    1.68980E-07
 1.70000E+01    5.75070E-08
 1.80000E+01    2.00030E-08
 1.90000E+01    7.17900E-09
 2.00000E+01    2.63810E-09
 2.10000E+01    9.92380E-10
 2.20000E+01    3.81980E-10
 2.30000E+01    1.49970E-10
 2.40000E+01    6.01010E-11
 2.50000E+01    2.45300E-11
 2.60000E+01    1.02050E-11
 2.70000E+01    4.31110E-12
 2.80000E+01    1.84790E-12
 2.90000E+01    8.02050E-13
 3.00000E+01    3.52870E-13
