# n + Os190 : (n,n'05)  
# jeff3.3    A.J. Koning and D. Rochman        EVAL-DEC15
# uncertainties: n
# # energies =    91
#   E(MeV)       xs(mb) 
 9.16621E-01    0.00000E+00
 9.60445E-01    4.66321E+01
 1.00000E+00    8.87218E+01
 1.05596E+00    9.91260E+01
 1.12064E+00    1.11151E+02
 1.14539E+00    1.15753E+02
 1.16937E+00    1.20211E+02
 1.20000E+00    1.25906E+02
 1.21025E+00    1.25948E+02
 1.33395E+00    1.26461E+02
 1.38974E+00    1.26692E+02
 1.39436E+00    1.26711E+02
 1.40000E+00    1.26734E+02
 1.44344E+00    1.21648E+02
 1.45380E+00    1.20435E+02
 1.48203E+00    1.17129E+02
 1.48987E+00    1.16211E+02
 1.52214E+00    1.12433E+02
 1.55351E+00    1.08759E+02
 1.55542E+00    1.08536E+02
 1.57737E+00    1.05966E+02
 1.57864E+00    1.05817E+02
 1.59229E+00    1.04219E+02
 1.60000E+00    1.03316E+02
 1.62455E+00    9.99435E+01
 1.67532E+00    9.29691E+01
 1.68458E+00    9.16970E+01
 1.68842E+00    9.11695E+01
 1.68952E+00    9.10184E+01
 1.69062E+00    9.08673E+01
 1.80000E+00    7.58415E+01
 2.00000E+00    5.24306E+01
 2.20000E+00    3.51381E+01
 2.40000E+00    2.30584E+01
 2.60000E+00    1.49260E+01
 2.80000E+00    9.59117E+00
 3.00000E+00    6.15078E+00
 3.20000E+00    3.92274E+00
 3.40000E+00    2.53292E+00
 3.60000E+00    1.64593E+00
 3.80000E+00    1.07559E+00
 4.00000E+00    7.04950E-01
 4.20000E+00    4.70029E-01
 4.40000E+00    3.16192E-01
 4.60000E+00    2.14802E-01
 4.80000E+00    1.47369E-01
 5.00000E+00    1.02039E-01
 5.20000E+00    7.12631E-02
 5.40000E+00    5.01685E-02
 5.60000E+00    3.53720E-02
 5.80000E+00    2.51586E-02
 6.00000E+00    1.79893E-02
 6.20000E+00    1.29661E-02
 6.40000E+00    9.38892E-03
 6.60000E+00    6.83371E-03
 6.80000E+00    4.99955E-03
 7.00000E+00    3.66724E-03
 7.20000E+00    2.70604E-03
 7.40000E+00    2.00188E-03
 7.60000E+00    1.48630E-03
 7.80000E+00    1.10798E-03
 8.00000E+00    8.27241E-04
 8.50000E+00    4.03120E-04
 9.00000E+00    1.98376E-04
 9.50000E+00    9.86437E-05
 1.00000E+01    4.96344E-05
 1.05000E+01    2.52775E-05
 1.10000E+01    1.30246E-05
 1.15000E+01    6.78851E-06
 1.20000E+01    3.57720E-06
 1.25000E+01    1.90672E-06
 1.30000E+01    1.02789E-06
 1.35000E+01    5.60590E-07
 1.40000E+01    3.09140E-07
 1.45000E+01    1.72430E-07
 1.50000E+01    9.71640E-08
 1.60000E+01    3.17270E-08
 1.70000E+01    1.06950E-08
 1.80000E+01    3.68690E-09
 1.90000E+01    1.31130E-09
 2.00000E+01    4.77680E-10
 2.10000E+01    1.78350E-10
 2.20000E+01    6.82690E-11
 2.30000E+01    2.67090E-11
 2.40000E+01    1.06830E-11
 2.50000E+01    4.35470E-12
 2.60000E+01    1.80850E-12
 2.70000E+01    7.61810E-13
 2.80000E+01    3.25240E-13
 2.90000E+01    1.40540E-13
 3.00000E+01    6.15670E-14
