# n + Os186 : (n,n'09)  
# tendl.2019 A.J. Koning and D. Rochman        EVAL-NOV19
# uncertainties: n
# # energies =    85
#   E(MeV)       xs(mb) 
 1.28253E+00    0.00000E+00
 1.35926E+00    9.46430E+00
 1.40000E+00    1.44894E+01
 1.42865E+00    1.74160E+01
 1.46078E+00    2.06981E+01
 1.46390E+00    2.10168E+01
 1.46884E+00    2.15214E+01
 1.48810E+00    2.34889E+01
 1.49938E+00    2.46411E+01
 1.56829E+00    3.16803E+01
 1.57952E+00    3.28275E+01
 1.60000E+00    3.49195E+01
 1.63200E+00    3.61943E+01
 1.63737E+00    3.64082E+01
 1.64971E+00    3.68998E+01
 1.66255E+00    3.74113E+01
 1.71385E+00    3.94549E+01
 1.76030E+00    4.13054E+01
 1.76402E+00    4.14536E+01
 1.78151E+00    4.21503E+01
 1.78428E+00    4.22607E+01
 1.78543E+00    4.23065E+01
 1.80000E+00    4.28869E+01
 1.82245E+00    4.26995E+01
 1.85845E+00    4.23990E+01
 2.00000E+00    4.12176E+01
 2.20000E+00    3.22320E+01
 2.40000E+00    2.31562E+01
 2.60000E+00    1.62097E+01
 2.80000E+00    1.12703E+01
 3.00000E+00    7.82185E+00
 3.20000E+00    5.43690E+00
 3.40000E+00    3.76294E+00
 3.60000E+00    2.61087E+00
 3.80000E+00    1.81807E+00
 4.00000E+00    1.27186E+00
 4.20000E+00    8.94711E-01
 4.40000E+00    6.32490E-01
 4.60000E+00    4.47947E-01
 4.80000E+00    3.18748E-01
 5.00000E+00    2.27834E-01
 5.20000E+00    1.63614E-01
 5.40000E+00    1.18030E-01
 5.60000E+00    8.50764E-02
 5.80000E+00    6.16669E-02
 6.00000E+00    4.49032E-02
 6.20000E+00    3.28227E-02
 6.40000E+00    2.41301E-02
 6.60000E+00    1.77844E-02
 6.80000E+00    1.31774E-02
 7.00000E+00    9.79226E-03
 7.20000E+00    7.29667E-03
 7.40000E+00    5.46163E-03
 7.60000E+00    4.09507E-03
 7.80000E+00    3.08368E-03
 8.00000E+00    2.32817E-03
 8.50000E+00    1.16702E-03
 9.00000E+00    5.92072E-04
 9.50000E+00    3.02824E-04
 1.00000E+01    1.56233E-04
 1.05000E+01    8.13835E-05
 1.10000E+01    4.28337E-05
 1.15000E+01    2.27838E-05
 1.20000E+01    1.22445E-05
 1.25000E+01    6.65175E-06
 1.30000E+01    3.65236E-06
 1.35000E+01    2.02664E-06
 1.40000E+01    1.13559E-06
 1.45000E+01    6.42340E-07
 1.50000E+01    3.66480E-07
 1.60000E+01    1.22170E-07
 1.70000E+01    4.19190E-08
 1.80000E+01    1.46950E-08
 1.90000E+01    5.31270E-09
 2.00000E+01    1.96730E-09
 2.10000E+01    7.45690E-10
 2.20000E+01    2.89420E-10
 2.30000E+01    1.14800E-10
 2.40000E+01    4.65830E-11
 2.50000E+01    1.92110E-11
 2.60000E+01    8.04890E-12
 2.70000E+01    3.42240E-12
 2.80000E+01    1.47620E-12
 2.90000E+01    6.45770E-13
 3.00000E+01    2.86410E-13
