# n + Ir191 : (n,t)     
# jendl.ad   N.Iwamoto                         EVAL-Apr14
# uncertainties: n
# # energies =    64
#   E(MeV)       xs(mb) 
 4.62381E+00    0.00000E+00
 4.65479E+00    6.89580E-28
 4.66018E+00    8.48930E-28
 4.69372E+00    1.84050E-27
 4.71956E+00    2.60440E-27
 4.72168E+00    2.66700E-27
 4.84162E+00    6.21280E-27
 4.84436E+00    6.29380E-27
 4.85861E+00    6.71510E-27
 4.90119E+00    7.97390E-27
 4.91333E+00    8.33280E-27
 4.97566E+00    1.01750E-26
 4.99151E+00    1.06440E-26
 5.05400E+00    1.24910E-26
 5.06485E+00    1.28120E-26
 5.07038E+00    1.29760E-26
 5.12524E+00    1.45970E-26
 5.13233E+00    1.48070E-26
 5.15816E+00    1.55710E-26
 5.17675E+00    1.61200E-26
 5.18411E+00    1.63380E-26
 5.18948E+00    1.64970E-26
 5.22186E+00    1.74540E-26
 5.22661E+00    1.75940E-26
 5.24911E+00    1.82590E-26
 5.25774E+00    1.85150E-26
 5.26136E+00    1.86220E-26
 5.29474E+00    1.96080E-26
 5.29949E+00    1.97490E-26
 5.30047E+00    1.97780E-26
 5.30730E+00    1.99800E-26
 5.31587E+00    2.02330E-26
 5.34450E+00    2.10790E-26
 5.34459E+00    2.10820E-26
 5.36320E+00    2.16320E-26
 6.00000E+00    4.04580E-26
 6.50000E+00    7.01420E-20
 7.00000E+00    5.65830E-16
 7.50000E+00    2.49950E-13
 8.00000E+00    1.89320E-11
 8.50000E+00    4.52990E-10
 9.00000E+00    4.96930E-09
 9.50000E+00    3.33850E-08
 1.00000E+01    1.87600E-07
 1.05000E+01    1.09790E-06
 1.10000E+01    6.26302E-06
 1.15000E+01    3.06000E-05
 1.20000E+01    1.21493E-04
 1.25000E+01    4.13510E-04
 1.30000E+01    1.20945E-03
 1.35000E+01    3.10675E-03
 1.40000E+01    7.12038E-03
 1.45000E+01    1.47197E-02
 1.50000E+01    2.76836E-02
 1.55000E+01    4.77822E-02
 1.60000E+01    7.64307E-02
 1.65000E+01    1.14472E-01
 1.70000E+01    1.62118E-01
 1.75000E+01    2.18978E-01
 1.80000E+01    2.84092E-01
 1.85000E+01    3.55926E-01
 1.90000E+01    4.32322E-01
 1.95000E+01    5.10450E-01
 2.00000E+01    5.87217E-01
