# n + Ir191 : (n,xp)    
# jendl.ad   N.Iwamoto                         EVAL-Apr14
# 
# # energies =   109
#   E(MeV)        xs(mb) 
 8.28553E-02    2.91624E-20
 9.00000E-02    3.27913E-20
 1.00000E-01    3.78705E-20
 1.05000E-01    4.04101E-20
 1.10000E-01    5.03684E-20
 1.20000E-01    7.04258E-20
 1.30000E-01    9.04832E-20
 1.30099E-01    9.06817E-20
 1.40000E-01    1.10541E-19
 1.50000E-01    1.33383E-19
 1.60000E-01    1.60711E-19
 1.70000E-01    1.90101E-19
 1.72144E-01    1.96685E-19
 1.79888E-01    2.20466E-19
 1.80000E-01    2.20810E-19
 1.90000E-01    2.51519E-19
 2.00000E-01    2.82861E-19
 2.25000E-01    3.91178E-19
 2.50000E-01    5.30171E-19
 2.75000E-01    6.74187E-19
 3.00000E-01    8.25237E-19
 3.45174E-01    1.15990E-18
 3.52994E-01    1.22344E-18
 3.92834E-01    1.56332E-18
 4.00000E-01    1.62454E-18
 5.00000E-01    2.47889E-18
 5.05496E-01    2.52585E-18
 5.07084E-01    2.53942E-18
 5.41705E-01    3.04050E-18
 5.59701E-01    3.36140E-18
 5.91166E-01    4.29000E-18
 5.94574E-01    4.43480E-18
 6.00000E-01    4.69360E-18
 6.17243E-01    6.23500E-18
 6.27386E-01    7.57950E-18
 6.57424E-01    1.37710E-17
 6.62722E-01    1.54600E-17
 6.90026E-01    3.02210E-17
 7.00000E-01    3.80880E-17
 7.51760E-01    1.42670E-16
 7.66578E-01    2.06180E-16
 8.00000E-01    4.71710E-16
 8.04366E-01    5.25360E-16
 8.16832E-01    7.06780E-16
 8.21205E-01    7.80650E-16
 8.29760E-01    9.52420E-16
 8.36827E-01    1.11790E-15
 8.82537E-01    3.19300E-15
 9.00000E-01    4.70540E-15
 9.23643E-01    7.89800E-15
 9.33002E-01    9.65700E-15
 9.40542E-01    1.12560E-14
 9.51540E-01    1.40380E-14
 9.68690E-01    1.98460E-14
 9.82633E-01    2.63080E-14
 9.96757E-01    3.47990E-14
 1.00000E+00    3.70940E-14
 1.00940E+00    4.46870E-14
 1.03946E+00    8.02860E-14
 1.04217E+00    8.44460E-14
 1.05868E+00    1.15470E-13
 1.10000E+00    2.47030E-13
 1.20000E+00    1.37530E-12
 1.30000E+00    6.44890E-12
 1.40000E+00    2.63700E-11
 1.50000E+00    9.56040E-11
 1.60000E+00    3.11460E-10
 1.70000E+00    9.23360E-10
 1.80000E+00    2.51570E-09
 1.90000E+00    6.35730E-09
 2.00000E+00    1.50130E-08
 2.25000E+00    1.02050E-07
 2.50000E+00    4.89750E-07
 2.75000E+00    1.90855E-06
 3.00000E+00    5.85883E-06
 3.50000E+00    3.63842E-05
 4.00000E+00    1.40738E-04
 4.50000E+00    3.84272E-04
 5.00000E+00    8.09631E-04
 5.50000E+00    1.41085E-03
 6.00000E+00    2.18634E-03
 6.50000E+00    3.30453E-03
 7.00000E+00    5.34866E-03
 7.50000E+00    9.66382E-03
 8.00000E+00    1.88470E-02
 8.50000E+00    3.73223E-02
 9.00000E+00    7.17369E-02
 9.50000E+00    1.31577E-01
 1.00000E+01    2.28388E-01
 1.05000E+01    3.75635E-01
 1.10000E+01    5.87812E-01
 1.15000E+01    8.79641E-01
 1.20000E+01    1.26544E+00
 1.25000E+01    1.75828E+00
 1.30000E+01    2.36994E+00
 1.35000E+01    3.11065E+00
 1.40000E+01    3.98888E+00
 1.45000E+01    5.01115E+00
 1.50000E+01    6.18195E+00
 1.55000E+01    7.50378E+00
 1.60000E+01    8.97596E+00
 1.65000E+01    1.05966E+01
 1.70000E+01    1.23610E+01
 1.75000E+01    1.42631E+01
 1.80000E+01    1.62954E+01
 1.85000E+01    1.84495E+01
 1.90000E+01    2.07171E+01
 1.95000E+01    2.30901E+01
 2.00000E+01    2.55619E+01
