# n + Ir191 : (n,d)     
# jendl.ad   N.Iwamoto                         EVAL-Apr14
# uncertainties: n
# # energies =    73
#   E(MeV)       xs(mb) 
 3.08067E+00    0.00000E+00
 3.26838E+00    1.20810E-21
 3.63142E+00    3.54460E-21
 3.64160E+00    3.61010E-21
 3.84069E+00    4.89140E-21
 3.99727E+00    5.89910E-21
 4.04109E+00    6.18110E-21
 4.13660E+00    6.79580E-21
 4.20128E+00    7.21210E-21
 4.20207E+00    7.21720E-21
 4.25001E+00    7.52570E-21
 4.29089E+00    7.78880E-21
 4.41458E+00    8.58490E-21
 4.47038E+00    8.94400E-21
 4.47500E+00    8.97370E-21
 4.50000E+00    9.13460E-21
 4.52408E+00    2.41510E-17
 4.53443E+00    3.45280E-17
 4.56266E+00    6.28310E-17
 4.57050E+00    7.06910E-17
 4.60277E+00    1.03050E-16
 4.63414E+00    1.34500E-16
 4.63605E+00    1.36410E-16
 4.65800E+00    1.58420E-16
 4.65927E+00    1.59690E-16
 4.67292E+00    1.73380E-16
 4.70518E+00    2.05720E-16
 4.75595E+00    2.56620E-16
 4.76520E+00    2.65900E-16
 4.76905E+00    2.69760E-16
 4.77015E+00    2.70860E-16
 4.77125E+00    2.71960E-16
 4.77866E+00    2.79390E-16
 4.79508E+00    2.95850E-16
 4.79800E+00    2.98780E-16
 4.81458E+00    3.15400E-16
 4.82273E+00    3.23570E-16
 4.86706E+00    3.68020E-16
 4.89290E+00    3.93930E-16
 4.90375E+00    4.04800E-16
 4.91391E+00    4.14990E-16
 4.92669E+00    4.27800E-16
 5.00000E+00    5.01300E-16
 5.50000E+00    5.02380E-13
 6.00000E+00    5.54380E-11
 6.50000E+00    1.55480E-09
 7.00000E+00    1.82410E-08
 7.50000E+00    1.43140E-07
 8.00000E+00    1.24656E-06
 8.50000E+00    1.13447E-05
 9.00000E+00    8.13670E-05
 9.50000E+00    4.35845E-04
 1.00000E+01    1.81087E-03
 1.05000E+01    6.10112E-03
 1.10000E+01    1.72981E-02
 1.15000E+01    4.24363E-02
 1.20000E+01    9.19562E-02
 1.25000E+01    1.78808E-01
 1.30000E+01    3.16140E-01
 1.35000E+01    5.14394E-01
 1.40000E+01    7.79227E-01
 1.45000E+01    1.11110E+00
 1.50000E+01    1.50626E+00
 1.55000E+01    1.89410E+00
 1.60000E+01    2.38937E+00
 1.65000E+01    2.86288E+00
 1.70000E+01    3.42856E+00
 1.75000E+01    4.02051E+00
 1.80000E+01    4.62940E+00
 1.85000E+01    5.24434E+00
 1.90000E+01    5.85278E+00
 1.95000E+01    6.44132E+00
 2.00000E+01    6.99764E+00
