# n + Sm152 : (n,n'09)  
# tendl.2019 A.J. Koning and D. Rochman        EVAL-NOV19
# uncertainties: n
# # energies =    86
#   E(MeV)       xs(mb) 
 1.09004E+00    0.00000E+00
 1.09309E+00    1.77817E+00
 1.13282E+00    2.49403E+01
 1.20000E+00    6.41056E+01
 1.22959E+00    6.59192E+01
 1.23414E+00    6.61981E+01
 1.24205E+00    6.66829E+01
 1.29850E+00    7.01428E+01
 1.30134E+00    7.03168E+01
 1.31920E+00    7.14115E+01
 1.38085E+00    7.51901E+01
 1.40000E+00    7.63638E+01
 1.51561E+00    7.25384E+01
 1.52082E+00    7.23661E+01
 1.53995E+00    7.17331E+01
 1.56994E+00    7.07408E+01
 1.58992E+00    7.00796E+01
 1.60000E+00    6.97461E+01
 1.61991E+00    6.87040E+01
 1.62349E+00    6.85167E+01
 1.66084E+00    6.65618E+01
 1.66981E+00    6.60923E+01
 1.67745E+00    6.56924E+01
 1.69173E+00    6.49451E+01
 1.69326E+00    6.48650E+01
 1.80000E+00    5.92783E+01
 2.00000E+00    5.23734E+01
 2.20000E+00    4.63685E+01
 2.40000E+00    3.98474E+01
 2.60000E+00    3.28743E+01
 2.80000E+00    2.58824E+01
 3.00000E+00    1.94126E+01
 3.20000E+00    1.40154E+01
 3.40000E+00    9.71711E+00
 3.60000E+00    6.57825E+00
 3.80000E+00    4.39083E+00
 4.00000E+00    2.92969E+00
 4.20000E+00    1.96907E+00
 4.40000E+00    1.31332E+00
 4.60000E+00    8.81360E-01
 4.80000E+00    5.94723E-01
 5.00000E+00    4.03526E-01
 5.20000E+00    2.75270E-01
 5.40000E+00    1.88752E-01
 5.60000E+00    1.30139E-01
 5.80000E+00    9.03570E-02
 6.00000E+00    6.27051E-02
 6.20000E+00    4.39328E-02
 6.40000E+00    3.08844E-02
 6.60000E+00    2.18670E-02
 6.80000E+00    1.55764E-02
 7.00000E+00    1.11496E-02
 7.20000E+00    8.05477E-03
 7.40000E+00    5.84279E-03
 7.60000E+00    4.26920E-03
 7.80000E+00    3.13665E-03
 8.00000E+00    2.31285E-03
 8.50000E+00    1.10500E-03
 9.00000E+00    5.39268E-04
 9.50000E+00    2.67343E-04
 1.00000E+01    1.34419E-04
 1.05000E+01    6.85589E-05
 1.10000E+01    3.54846E-05
 1.15000E+01    1.86275E-05
 1.20000E+01    9.91948E-06
 1.25000E+01    5.35406E-06
 1.30000E+01    2.92860E-06
 1.35000E+01    1.62222E-06
 1.40000E+01    9.10120E-07
 1.45000E+01    5.16300E-07
 1.50000E+01    2.96230E-07
 1.60000E+01    1.00480E-07
 1.70000E+01    3.53260E-08
 1.80000E+01    1.28080E-08
 1.90000E+01    4.71780E-09
 2.00000E+01    1.79860E-09
 2.10000E+01    7.01750E-10
 2.20000E+01    2.79970E-10
 2.30000E+01    1.14510E-10
 2.40000E+01    4.82220E-11
 2.50000E+01    2.06310E-11
 2.60000E+01    8.99030E-12
 2.70000E+01    3.98060E-12
 2.80000E+01    1.78760E-12
 2.90000E+01    8.14930E-13
 3.00000E+01    3.75940E-13
