# n + Sm152 : (n,n'14)  
# tendl.2019 A.J. Koning and D. Rochman        EVAL-NOV19
# uncertainties: n
# # energies =    80
#   E(MeV)       xs(mb) 
 1.24205E+00    0.00000E+00
 1.29850E+00    3.02685E+01
 1.30134E+00    3.17914E+01
 1.31920E+00    4.13680E+01
 1.38085E+00    7.44247E+01
 1.40000E+00    8.46930E+01
 1.51561E+00    9.78280E+01
 1.52082E+00    9.84200E+01
 1.53995E+00    1.00593E+02
 1.56994E+00    1.04001E+02
 1.58992E+00    1.06271E+02
 1.60000E+00    1.07416E+02
 1.61991E+00    1.07572E+02
 1.62349E+00    1.07600E+02
 1.66084E+00    1.07892E+02
 1.66981E+00    1.07962E+02
 1.67745E+00    1.08022E+02
 1.69173E+00    1.08134E+02
 1.69326E+00    1.08146E+02
 1.80000E+00    1.08981E+02
 2.00000E+00    1.09006E+02
 2.20000E+00    1.06497E+02
 2.40000E+00    9.94796E+01
 2.60000E+00    8.81316E+01
 2.80000E+00    7.37328E+01
 3.00000E+00    5.82641E+01
 3.20000E+00    4.48461E+01
 3.40000E+00    3.24004E+01
 3.60000E+00    2.27473E+01
 3.80000E+00    1.56765E+01
 4.00000E+00    1.07057E+01
 4.20000E+00    7.35819E+00
 4.40000E+00    5.05568E+00
 4.60000E+00    3.44877E+00
 4.80000E+00    2.36361E+00
 5.00000E+00    1.62621E+00
 5.20000E+00    1.12361E+00
 5.40000E+00    7.79763E-01
 5.60000E+00    5.43821E-01
 5.80000E+00    3.81741E-01
 6.00000E+00    2.67811E-01
 6.20000E+00    1.89596E-01
 6.40000E+00    1.34607E-01
 6.60000E+00    9.62371E-02
 6.80000E+00    6.91528E-02
 7.00000E+00    4.99221E-02
 7.20000E+00    3.63476E-02
 7.40000E+00    2.65526E-02
 7.60000E+00    1.95293E-02
 7.80000E+00    1.44337E-02
 8.00000E+00    1.07010E-02
 8.50000E+00    5.17438E-03
 9.00000E+00    2.55262E-03
 9.50000E+00    1.27899E-03
 1.00000E+01    6.50197E-04
 1.05000E+01    3.35462E-04
 1.10000E+01    1.75686E-04
 1.15000E+01    9.33145E-05
 1.20000E+01    5.02604E-05
 1.25000E+01    2.74218E-05
 1.30000E+01    1.51499E-05
 1.35000E+01    8.46884E-06
 1.40000E+01    4.79060E-06
 1.45000E+01    2.73785E-06
 1.50000E+01    1.58130E-06
 1.60000E+01    5.42470E-07
 1.70000E+01    1.92490E-07
 1.80000E+01    7.03070E-08
 1.90000E+01    2.60550E-08
 2.00000E+01    9.98400E-09
 2.10000E+01    3.91440E-09
 2.20000E+01    1.56920E-09
 2.30000E+01    6.44750E-10
 2.40000E+01    2.72690E-10
 2.50000E+01    1.17090E-10
 2.60000E+01    5.11770E-11
 2.70000E+01    2.27120E-11
 2.80000E+01    1.02200E-11
 2.90000E+01    4.66880E-12
 3.00000E+01    2.15910E-12
