# n + Th232 : (n,f)     
# jendl4.0   O.Iwamoto,T.Nakagawa,et al.       EVAL-JAN10
# uncertainties: y
# # energies =    69
#   E(MeV)       xs(mb)       xslow(mb)      xsupp(mb)
 1.00000E-10    3.79052E-01    3.79052E-01    3.79052E-01
 5.00000E-09    1.02430E-01    1.02430E-01    1.02430E-01
 1.00000E-08    7.74501E-02    7.74501E-02    7.74501E-02
 1.50000E-08    6.50071E-02    6.50071E-02    6.50071E-02
 2.00000E-08    5.71536E-02    5.71536E-02    5.71536E-02
 2.50000E-08    5.16214E-02    5.16214E-02    5.16214E-02
 3.00000E-08    4.74555E-02    4.74555E-02    4.74555E-02
 3.50000E-08    4.36355E-02    4.36355E-02    4.36355E-02
 4.20000E-08    3.99163E-02    3.99163E-02    3.99163E-02
 5.00000E-08    3.68219E-02    3.68219E-02    3.68219E-02
 5.80000E-08    3.42269E-02    3.42269E-02    3.42269E-02
 6.70000E-08    3.15891E-02    3.15891E-02    3.15891E-02
 8.00000E-08    2.85887E-02    2.85887E-02    2.85887E-02
 1.00000E-07    2.48767E-02    2.48767E-02    2.48767E-02
 1.40000E-07    2.14696E-02    2.14696E-02    2.14696E-02
 1.80000E-07    1.91738E-02    1.91738E-02    1.91738E-02
 2.20000E-07    1.76593E-02    1.76593E-02    1.76593E-02
 2.50000E-07    1.66269E-02    1.66269E-02    1.66269E-02
 2.80000E-07    1.58853E-02    1.58853E-02    1.58853E-02
 3.00000E-07    1.53644E-02    1.53644E-02    1.53644E-02
 3.20000E-07    1.47849E-02    1.47849E-02    1.47849E-02
 3.50000E-07    1.39851E-02    1.39851E-02    1.39851E-02
 4.00000E-07    1.27975E-02    1.27975E-02    1.27975E-02
 5.00000E-07    1.14481E-02    1.14481E-02    1.14481E-02
 6.25000E-07    1.02449E-02    1.02449E-02    1.02449E-02
 7.80000E-07    9.48368E-03    9.48368E-03    9.48368E-03
 8.50000E-07    9.12508E-03    9.12508E-03    9.12508E-03
 9.10000E-07    8.87484E-03    8.87484E-03    8.87484E-03
 9.50000E-07    8.73013E-03    8.73013E-03    8.73013E-03
 9.72000E-07    8.62782E-03    8.62782E-03    8.62782E-03
 9.96000E-07    8.52448E-03    8.52448E-03    8.52448E-03
 1.02000E-06    8.42283E-03    8.42283E-03    8.42283E-03
 1.04500E-06    8.32106E-03    8.32106E-03    8.32106E-03
 1.07100E-06    8.22088E-03    8.22088E-03    8.22088E-03
 1.09700E-06    8.12395E-03    8.12395E-03    8.12395E-03
 1.12300E-06    8.02948E-03    8.02948E-03    8.02948E-03
 1.15000E-06    7.74240E-03    7.74240E-03    7.74240E-03
 1.30000E-06    7.24651E-03    7.24651E-03    7.24651E-03
 1.50000E-06    6.43643E-03    6.43643E-03    6.43643E-03
 2.10000E-06    5.60687E-03    5.60687E-03    5.60687E-03
 2.60000E-06    5.00935E-03    5.00935E-03    5.00935E-03
 3.30000E-06    4.49743E-03    4.49743E-03    4.49743E-03
 4.00000E-06    3.44827E-03    3.44827E-03    3.44827E-03
 9.87700E-06    2.42568E-03    2.42568E-03    2.42568E-03
 1.59680E-05    1.87646E-03    1.87646E-03    1.87646E-03
 2.77000E-05    1.42518E-03    1.42518E-03    1.42518E-03
 4.80520E-05    1.10834E-03    1.10834E-03    1.10834E-03
 7.55014E-05    8.38142E-04    8.38142E-04    8.38142E-04
 1.48728E-04    5.66736E-04    5.66736E-04    5.66736E-04
 3.67262E-04    2.91330E-04    2.91330E-04    2.91330E-04
 9.06898E-04    4.09546E-04    4.09546E-04    4.09546E-04
 1.42510E-03    2.46383E-04    2.46383E-04    2.46383E-04
 2.23945E-03    4.21706E-04    4.21706E-04    4.21706E-04
 3.51910E-03    9.86829E-04    9.86829E-04    9.86829E-04
 5.53000E-03    7.56788E-04    5.29752E-04    9.83824E-04
 9.11800E-03    5.73250E-04    4.01275E-04    7.45225E-04
 1.50300E-02    7.14094E-04    4.99866E-04    9.28322E-04
 2.47800E-02    1.00481E-03    1.00481E-04    1.90914E-03
 4.08500E-02    1.42756E-03    1.42756E-04    2.71236E-03
 6.73400E-02    2.02781E-03    2.02781E-04    3.85284E-03
 1.11000E-01    2.87970E-03    2.87970E-04    5.47143E-03
 1.83000E-01    4.09355E-03    4.09355E-04    7.77775E-03
 3.02000E-01    7.55960E-03    3.02384E-04    1.48168E-02
 5.00000E-01    6.65512E-02    2.22547E-02    1.10848E-01
 8.21000E-01    5.59678E+00    3.80469E+00    7.38887E+00
 1.35300E+00    1.01876E+02    9.41641E+01    1.09588E+02
 2.23100E+00    1.36717E+02    1.28183E+02    1.45251E+02
 3.67900E+00    1.53654E+02    1.44441E+02    1.62868E+02
 6.06500E+00    3.51374E+02    3.24550E+02    3.78198E+02
