# n + Th232 : (n,n'18)  
# jendl4.0   O.Iwamoto,T.Nakagawa,et al.       EVAL-JAN10
# uncertainties: y
# # energies =    60
#   E(MeV)       xs(mb)       xslow(mb)      xsupp(mb)
 1.05446E+00    0.00000E+00    0.00000E+00    0.00000E+00
 1.05818E+00    4.67787E-03    3.81246E-03    5.54328E-03
 1.07756E+00    4.28564E-02    3.49280E-02    5.07848E-02
 1.08218E+00    5.46086E-02    4.45060E-02    6.47112E-02
 1.08339E+00    5.78326E-02    4.71336E-02    6.85316E-02
 1.09916E+00    1.04107E-01    8.48472E-02    1.23367E-01
 1.10000E+00    1.06810E-01    8.70502E-02    1.26570E-01
 1.11051E+00    1.42189E-01    1.15884E-01    1.68494E-01
 1.12668E+00    2.02533E-01    1.65064E-01    2.40002E-01
 1.14204E+00    2.65949E-01    2.16748E-01    3.15150E-01
 1.14827E+00    2.93825E-01    2.39467E-01    3.48183E-01
 1.15098E+00    3.06019E-01    2.49405E-01    3.62633E-01
 1.15329E+00    3.16684E-01    2.58097E-01    3.75270E-01
 1.20000E+00    5.41492E-01    4.41316E-01    6.41668E-01
 1.30000E+00    1.18354E+00    9.64585E-01    1.40249E+00
 1.40000E+00    1.93052E+00    1.57337E+00    2.28767E+00
 1.50000E+00    2.73546E+00    1.99962E+00    3.47130E+00
 1.60000E+00    3.53144E+00    2.58148E+00    4.48140E+00
 1.70000E+00    4.24776E+00    3.10511E+00    5.39041E+00
 1.80000E+00    4.82880E+00    3.52985E+00    6.12775E+00
 1.90000E+00    5.22315E+00    3.81812E+00    6.62818E+00
 2.00000E+00    5.51502E+00    4.43408E+00    6.59596E+00
 2.30000E+00    5.36564E+00    4.31397E+00    6.41730E+00
 2.50000E+00    4.70879E+00    4.05427E+00    5.36331E+00
 2.70000E+00    3.88245E+00    3.34279E+00    4.42211E+00
 3.00000E+00    2.66252E+00    2.43301E+00    2.89203E+00
 3.50000E+00    1.21985E+00    1.13007E+00    1.30963E+00
 4.00000E+00    5.49880E-01    4.98631E-01    6.01129E-01
 4.50000E+00    2.67117E-01    2.42222E-01    2.92012E-01
 5.00000E+00    1.63445E-01    1.39909E-01    1.86981E-01
 5.50000E+00    1.18923E-01    1.01798E-01    1.36048E-01
 6.00000E+00    9.88060E-02    8.04281E-02    1.17184E-01
 6.50000E+00    8.63191E-02    7.02638E-02    1.02374E-01
 7.00000E+00    7.81254E-02    6.28909E-02    9.33598E-02
 7.50000E+00    7.15402E-02    5.75899E-02    8.54905E-02
 8.00000E+00    6.64547E-02    5.34296E-02    7.94798E-02
 8.50000E+00    6.19302E-02    4.97919E-02    7.40685E-02
 9.00000E+00    5.81710E-02    4.68858E-02    6.94562E-02
 9.50000E+00    5.45893E-02    4.39990E-02    6.51796E-02
 1.00000E+01    5.14425E-02    4.16684E-02    6.12166E-02
 1.05000E+01    4.80914E-02    3.89540E-02    5.72288E-02
 1.10000E+01    4.51881E-02    3.66024E-02    5.37738E-02
 1.15000E+01    4.26873E-02    3.45767E-02    5.07979E-02
 1.20000E+01    4.06588E-02    3.32182E-02    4.80994E-02
 1.25000E+01    3.86157E-02    3.15490E-02    4.56824E-02
 1.30000E+01    3.64440E-02    2.97747E-02    4.31132E-02
 1.35000E+01    3.44820E-02    2.81718E-02    4.07922E-02
 1.40000E+01    3.27823E-02    2.69798E-02    3.85848E-02
 1.45000E+01    3.12722E-02    2.57370E-02    3.68074E-02
 1.50000E+01    3.00091E-02    2.48175E-02    3.52007E-02
 1.55000E+01    2.89727E-02    2.39604E-02    3.39850E-02
 1.60000E+01    2.76976E-02    2.29613E-02    3.24339E-02
 1.65000E+01    2.63425E-02    2.18379E-02    3.08471E-02
 1.70000E+01    2.51076E-02    2.08142E-02    2.94010E-02
 1.75000E+01    2.39769E-02    1.98768E-02    2.80770E-02
 1.80000E+01    2.29710E-02    1.91578E-02    2.67842E-02
 1.85000E+01    2.20623E-02    1.84000E-02    2.57246E-02
 1.90000E+01    2.12459E-02    1.77191E-02    2.47727E-02
 1.95000E+01    2.04977E-02    1.70951E-02    2.39003E-02
 2.00000E+01    1.98260E-02    1.65349E-02    2.31171E-02
