# n + Th232 : (n,n'08)  
# jendl4.0   O.Iwamoto,T.Nakagawa,et al.       EVAL-JAN10
# uncertainties: y
# # energies =    73
#   E(MeV)       xs(mb)       xslow(mb)      xsupp(mb)
 7.77766E-01    0.00000E+00    0.00000E+00    0.00000E+00
 7.88714E-01    1.39427E+01    1.20883E+01    1.57971E+01
 8.00000E-01    2.33217E+01    2.02199E+01    2.64235E+01
 8.30595E-01    4.67098E+01    4.04974E+01    5.29222E+01
 8.33206E-01    4.85424E+01    4.20863E+01    5.49985E+01
 8.76795E-01    7.42551E+01    6.43792E+01    8.41310E+01
 8.87441E-01    7.94282E+01    6.88643E+01    8.99921E+01
 8.93969E-01    8.24946E+01    7.15228E+01    9.34664E+01
 9.00000E-01    8.51790E+01    7.38502E+01    9.65078E+01
 9.64575E-01    1.11625E+02    9.67789E+01    1.26471E+02
 1.00000E+00    1.23504E+02    9.94207E+01    1.47587E+02
 1.02755E+00    1.31174E+02    1.05595E+02    1.56753E+02
 1.04743E+00    1.36497E+02    1.09880E+02    1.63114E+02
 1.05446E+00    1.38355E+02    1.11376E+02    1.65334E+02
 1.05818E+00    1.39324E+02    1.12156E+02    1.66492E+02
 1.07756E+00    1.42536E+02    1.14741E+02    1.70331E+02
 1.08218E+00    1.42491E+02    1.14705E+02    1.70277E+02
 1.08339E+00    1.42517E+02    1.14726E+02    1.70308E+02
 1.09916E+00    1.43813E+02    1.15769E+02    1.71857E+02
 1.10000E+00    1.43659E+02    1.15645E+02    1.71672E+02
 1.11051E+00    1.43996E+02    1.15917E+02    1.72075E+02
 1.12668E+00    1.44259E+02    1.16129E+02    1.72389E+02
 1.14204E+00    1.43589E+02    1.15589E+02    1.71589E+02
 1.14827E+00    1.43588E+02    1.15588E+02    1.71588E+02
 1.15098E+00    1.43496E+02    1.15514E+02    1.71478E+02
 1.15329E+00    1.43469E+02    1.15493E+02    1.71445E+02
 1.20000E+00    1.43460E+02    1.13764E+02    1.73156E+02
 1.30000E+00    1.40067E+02    1.11073E+02    1.69061E+02
 1.40000E+00    1.28758E+02    1.02105E+02    1.55411E+02
 1.50000E+00    1.15624E+02    9.75867E+01    1.33661E+02
 1.60000E+00    1.00503E+02    8.48245E+01    1.16181E+02
 1.70000E+00    8.71166E+01    7.35264E+01    1.00707E+02
 1.80000E+00    7.48810E+01    6.31996E+01    8.65624E+01
 1.90000E+00    6.34257E+01    5.35313E+01    7.33201E+01
 2.00000E+00    5.32848E+01    4.99172E+01    5.66524E+01
 2.30000E+00    3.06120E+01    2.86773E+01    3.25467E+01
 2.50000E+00    2.07833E+01    1.95072E+01    2.20594E+01
 2.70000E+00    1.39397E+01    1.30838E+01    1.47956E+01
 3.00000E+00    7.49458E+00    6.92799E+00    8.06117E+00
 3.50000E+00    2.58758E+00    2.35470E+00    2.82046E+00
 4.00000E+00    8.69996E-01    7.78646E-01    9.61346E-01
 4.50000E+00    3.04786E-01    2.72783E-01    3.36789E-01
 5.00000E+00    1.23054E-01    1.08903E-01    1.37205E-01
 5.50000E+00    6.25692E-02    5.53737E-02    6.97647E-02
 6.00000E+00    4.12160E-02    3.48275E-02    4.76045E-02
 6.50000E+00    3.20965E-02    2.71215E-02    3.70715E-02
 7.00000E+00    2.76047E-02    2.24702E-02    3.27392E-02
 7.50000E+00    2.46716E-02    2.00827E-02    2.92605E-02
 8.00000E+00    2.26569E-02    1.83068E-02    2.70070E-02
 8.50000E+00    2.09621E-02    1.69374E-02    2.49868E-02
 9.00000E+00    1.95840E-02    1.58435E-02    2.33245E-02
 9.50000E+00    1.83037E-02    1.48077E-02    2.17997E-02
 1.00000E+01    1.71799E-02    1.39673E-02    2.03925E-02
 1.05000E+01    1.66674E-02    1.35506E-02    1.97842E-02
 1.10000E+01    1.58235E-02    1.28645E-02    1.87825E-02
 1.15000E+01    1.41554E-02    1.15083E-02    1.68025E-02
 1.20000E+01    1.38742E-02    1.13907E-02    1.63577E-02
 1.25000E+01    1.36383E-02    1.11970E-02    1.60796E-02
 1.30000E+01    1.27430E-02    1.04620E-02    1.50240E-02
 1.35000E+01    1.14494E-02    9.39996E-03    1.34988E-02
 1.40000E+01    1.09064E-02    9.03050E-03    1.27823E-02
 1.45000E+01    1.09507E-02    9.06718E-03    1.28342E-02
 1.50000E+01    1.07256E-02    8.90225E-03    1.25490E-02
 1.55000E+01    1.02962E-02    8.54585E-03    1.20466E-02
 1.60000E+01    9.55431E-03    7.95874E-03    1.11499E-02
 1.65000E+01    8.62527E-03    7.18485E-03    1.00657E-02
 1.70000E+01    8.22577E-03    6.85207E-03    9.59948E-03
 1.75000E+01    8.27719E-03    6.89490E-03    9.65948E-03
 1.80000E+01    8.19875E-03    6.86235E-03    9.53515E-03
 1.85000E+01    8.01294E-03    6.70683E-03    9.31905E-03
 1.90000E+01    7.74658E-03    6.48389E-03    9.00927E-03
 1.95000E+01    7.41557E-03    6.20683E-03    8.62431E-03
 2.00000E+01    7.03123E-03    5.88514E-03    8.17732E-03
