# n + Th232 : (n,n'22)  
# jendl4.0   O.Iwamoto,T.Nakagawa,et al.       EVAL-JAN10
# uncertainties: y
# # energies =    56
#   E(MeV)       xs(mb)       xslow(mb)      xsupp(mb)
 1.08339E+00    0.00000E+00    0.00000E+00    0.00000E+00
 1.09916E+00    9.07862E+00    8.44039E+00    9.71685E+00
 1.10000E+00    9.38128E+00    8.72178E+00    1.00408E+01
 1.11051E+00    1.28628E+01    1.19585E+01    1.37671E+01
 1.12668E+00    1.76135E+01    1.63753E+01    1.88517E+01
 1.14204E+00    2.16064E+01    2.00875E+01    2.31253E+01
 1.14827E+00    2.30871E+01    2.14641E+01    2.47101E+01
 1.15098E+00    2.37158E+01    2.20486E+01    2.53830E+01
 1.15329E+00    2.42444E+01    2.25400E+01    2.59488E+01
 1.20000E+00    3.26083E+01    3.03159E+01    3.49007E+01
 1.30000E+00    4.16561E+01    3.87277E+01    4.45845E+01
 1.40000E+00    4.24060E+01    3.94249E+01    4.53871E+01
 1.50000E+00    3.93448E+01    3.45841E+01    4.41055E+01
 1.60000E+00    3.49547E+01    3.07252E+01    3.91842E+01
 1.70000E+00    2.99635E+01    2.63379E+01    3.35891E+01
 1.80000E+00    2.52575E+01    2.22013E+01    2.83137E+01
 1.90000E+00    2.09155E+01    1.83847E+01    2.34463E+01
 2.00000E+00    1.72891E+01    1.61636E+01    1.84146E+01
 2.30000E+00    9.60161E+00    8.97655E+00    1.02267E+01
 2.50000E+00    6.44134E+00    6.07161E+00    6.81107E+00
 2.70000E+00    4.32151E+00    4.07346E+00    4.56956E+00
 3.00000E+00    2.37416E+00    2.21794E+00    2.53038E+00
 3.50000E+00    9.28164E-01    8.54839E-01    1.00149E+00
 4.00000E+00    4.32619E-01    3.83300E-01    4.81938E-01
 4.50000E+00    2.66947E-01    2.36515E-01    2.97379E-01
 5.00000E+00    2.06663E-01    1.68844E-01    2.44482E-01
 5.50000E+00    1.75632E-01    1.43491E-01    2.07773E-01
 6.00000E+00    1.57037E-01    1.26101E-01    1.87973E-01
 6.50000E+00    1.41840E-01    1.13898E-01    1.69782E-01
 7.00000E+00    1.30225E-01    1.04440E-01    1.56010E-01
 7.50000E+00    1.20002E-01    9.62416E-02    1.43762E-01
 8.00000E+00    1.11806E-01    8.97802E-02    1.33832E-01
 8.50000E+00    1.04334E-01    8.37802E-02    1.24888E-01
 9.00000E+00    9.80793E-02    7.90519E-02    1.17107E-01
 9.50000E+00    9.20844E-02    7.42200E-02    1.09949E-01
 1.00000E+01    8.68022E-02    7.03098E-02    1.03295E-01
 1.05000E+01    8.12079E-02    6.57784E-02    9.66374E-02
 1.10000E+01    7.62791E-02    6.17861E-02    9.07721E-02
 1.15000E+01    7.21267E-02    5.84226E-02    8.58308E-02
 1.20000E+01    6.86728E-02    5.61057E-02    8.12399E-02
 1.25000E+01    6.52656E-02    5.33220E-02    7.72092E-02
 1.30000E+01    6.15997E-02    5.03270E-02    7.28724E-02
 1.35000E+01    5.82656E-02    4.76030E-02    6.89282E-02
 1.40000E+01    5.54021E-02    4.55959E-02    6.52083E-02
 1.45000E+01    5.28862E-02    4.35253E-02    6.22471E-02
 1.50000E+01    5.07388E-02    4.19102E-02    5.95674E-02
 1.55000E+01    4.89749E-02    4.04533E-02    5.74965E-02
 1.60000E+01    4.68100E-02    3.88055E-02    5.48145E-02
 1.65000E+01    4.45713E-02    3.69496E-02    5.21930E-02
 1.70000E+01    4.24753E-02    3.52120E-02    4.97386E-02
 1.75000E+01    4.05559E-02    3.36208E-02    4.74910E-02
 1.80000E+01    3.88479E-02    3.23603E-02    4.53355E-02
 1.85000E+01    3.73046E-02    3.10747E-02    4.35345E-02
 1.90000E+01    3.59317E-02    2.99311E-02    4.19323E-02
 1.95000E+01    3.46965E-02    2.89022E-02    4.04908E-02
 2.00000E+01    3.35560E-02    2.79521E-02    3.91599E-02
