# n + Th232 :  n        
# jendl4.0   O.Iwamoto,T.Nakagawa,et al.       EVAL-JAN10
# uncertainties: n
# # energies =    27
#   E(MeV)       xs(mb) 
 1.40000E+01    0.00000E+00
 1.40625E+01    4.14780E-14
 1.41250E+01    8.28860E-14
 1.42500E+01    1.65500E-13
 1.45000E+01    3.29900E-13
 1.45625E+01    1.98000E-12
 1.46250E+01    3.61730E-12
 1.47500E+01    6.85380E-12
 1.50000E+01    1.31790E-11
 1.51250E+01    1.17720E-10
 1.52500E+01    2.22880E-10
 1.55000E+01    4.35020E-10
 1.56250E+01    4.28870E-09
 1.57500E+01    8.27710E-09
 1.60000E+01    1.63380E-08
 1.61250E+01    1.75690E-07
 1.62500E+01    3.31690E-07
 1.65000E+01    6.33980E-07
 1.67500E+01    1.32423E-05
 1.70000E+01    2.54806E-05
 1.72500E+01    5.34023E-04
 1.75000E+01    1.03369E-03
 1.80000E+01    4.07466E-02
 1.85000E+01    7.93841E-01
 1.90000E+01    5.31480E+00
 1.95000E+01    1.81539E+01
 2.00000E+01    4.10680E+01
