# n + Th232 : (n,n'09)  
# jendl4.0   O.Iwamoto,T.Nakagawa,et al.       EVAL-JAN10
# uncertainties: y
# # energies =    72
#   E(MeV)       xs(mb)       xslow(mb)      xsupp(mb)
 7.88714E-01    0.00000E+00    0.00000E+00    0.00000E+00
 8.00000E-01    3.15061E+01    2.66542E+01    3.63580E+01
 8.30595E-01    7.54851E+01    6.38604E+01    8.71098E+01
 8.33206E-01    7.88732E+01    6.67267E+01    9.10197E+01
 8.76795E-01    1.25135E+02    1.05864E+02    1.44406E+02
 8.87441E-01    1.34810E+02    1.14049E+02    1.55571E+02
 8.93969E-01    1.39995E+02    1.18436E+02    1.61554E+02
 9.00000E-01    1.44481E+02    1.22231E+02    1.66731E+02
 9.64575E-01    1.85024E+02    1.56530E+02    2.13518E+02
 1.00000E+00    2.02382E+02    1.69798E+02    2.34966E+02
 1.02755E+00    2.12118E+02    1.77967E+02    2.46269E+02
 1.04743E+00    2.18593E+02    1.83400E+02    2.53786E+02
 1.05446E+00    2.20816E+02    1.85265E+02    2.56367E+02
 1.05818E+00    2.21966E+02    1.86229E+02    2.57703E+02
 1.07756E+00    2.25969E+02    1.89588E+02    2.62350E+02
 1.08218E+00    2.26375E+02    1.89929E+02    2.62821E+02
 1.08339E+00    2.26049E+02    1.89655E+02    2.62443E+02
 1.09916E+00    2.25837E+02    1.89477E+02    2.62197E+02
 1.10000E+00    2.25698E+02    1.89361E+02    2.62035E+02
 1.11051E+00    2.25163E+02    1.88912E+02    2.61414E+02
 1.12668E+00    2.23803E+02    1.87771E+02    2.59835E+02
 1.14204E+00    2.21692E+02    1.86000E+02    2.57384E+02
 1.14827E+00    2.20997E+02    1.85416E+02    2.56578E+02
 1.15098E+00    2.20622E+02    1.85102E+02    2.56142E+02
 1.15329E+00    2.20348E+02    1.84872E+02    2.55824E+02
 1.20000E+00    2.15610E+02    1.75291E+02    2.55929E+02
 1.30000E+00    2.02641E+02    1.64747E+02    2.40535E+02
 1.40000E+00    1.80176E+02    1.46483E+02    2.13869E+02
 1.50000E+00    1.57746E+02    1.34557E+02    1.80935E+02
 1.60000E+00    1.33433E+02    1.13818E+02    1.53048E+02
 1.70000E+00    1.12847E+02    9.62585E+01    1.29436E+02
 1.80000E+00    9.49535E+01    8.09953E+01    1.08912E+02
 1.90000E+00    7.89436E+01    6.73389E+01    9.05483E+01
 2.00000E+00    6.52296E+01    6.07353E+01    6.97239E+01
 2.30000E+00    3.61152E+01    3.36269E+01    3.86035E+01
 2.50000E+00    2.41072E+01    2.25595E+01    2.56549E+01
 2.70000E+00    1.59398E+01    1.49165E+01    1.69631E+01
 3.00000E+00    8.41552E+00    7.87019E+00    8.96085E+00
 3.50000E+00    2.89751E+00    2.66571E+00    3.12931E+00
 4.00000E+00    1.05345E+00    9.52108E-01    1.15479E+00
 4.50000E+00    4.66525E-01    4.21645E-01    5.11405E-01
 5.00000E+00    2.74887E-01    2.33929E-01    3.15845E-01
 5.50000E+00    2.02050E-01    1.71945E-01    2.32155E-01
 6.00000E+00    1.69381E-01    1.37537E-01    2.01225E-01
 6.50000E+00    1.48716E-01    1.20757E-01    1.76675E-01
 7.00000E+00    1.34940E-01    1.08627E-01    1.61253E-01
 7.50000E+00    1.23444E-01    9.93724E-02    1.47516E-01
 8.00000E+00    1.14522E-01    9.23047E-02    1.36739E-01
 8.50000E+00    1.06455E-01    8.58027E-02    1.27107E-01
 9.00000E+00    9.96848E-02    8.06450E-02    1.18725E-01
 9.50000E+00    9.32799E-02    7.54634E-02    1.11096E-01
 1.00000E+01    8.76186E-02    7.12339E-02    1.04003E-01
 1.05000E+01    8.32159E-02    6.76545E-02    9.87773E-02
 1.10000E+01    7.97192E-02    6.48117E-02    9.46267E-02
 1.15000E+01    7.22488E-02    5.87383E-02    8.57593E-02
 1.20000E+01    6.91150E-02    5.67434E-02    8.14866E-02
 1.25000E+01    6.83146E-02    5.60863E-02    8.05429E-02
 1.30000E+01    6.43128E-02    5.28008E-02    7.58248E-02
 1.35000E+01    5.83823E-02    4.79319E-02    6.88327E-02
 1.40000E+01    5.49883E-02    4.54753E-02    6.45013E-02
 1.45000E+01    5.46001E-02    4.51543E-02    6.40459E-02
 1.50000E+01    5.36894E-02    4.45085E-02    6.28703E-02
 1.55000E+01    5.18050E-02    4.29463E-02    6.06637E-02
 1.60000E+01    4.83888E-02    4.02595E-02    5.65181E-02
 1.65000E+01    4.40544E-02    3.66533E-02    5.14555E-02
 1.70000E+01    4.18043E-02    3.47812E-02    4.88274E-02
 1.75000E+01    4.11577E-02    3.42432E-02    4.80722E-02
 1.80000E+01    4.08397E-02    3.41828E-02    4.74966E-02
 1.85000E+01    4.00070E-02    3.34859E-02    4.65281E-02
 1.90000E+01    3.87893E-02    3.24666E-02    4.51120E-02
 1.95000E+01    3.72627E-02    3.11889E-02    4.33365E-02
 2.00000E+01    3.54813E-02    2.96978E-02    4.12647E-02
