# n + Th232 : (n,n'26)  
# jendl4.0   O.Iwamoto,T.Nakagawa,et al.       EVAL-JAN10
# uncertainties: y
# # energies =    51
#   E(MeV)       xs(mb)       xslow(mb)      xsupp(mb)
 1.14204E+00    0.00000E+00    0.00000E+00    0.00000E+00
 1.14827E+00    1.77288E-03    1.28002E-03    2.26574E-03
 1.15098E+00    3.60498E-03    2.60280E-03    4.60716E-03
 1.15329E+00    4.56843E-03    3.29841E-03    5.83845E-03
 1.20000E+00    2.55696E-02    1.84612E-02    3.26779E-02
 1.30000E+00    6.75320E-02    4.87581E-02    8.63059E-02
 1.40000E+00    1.04080E-01    7.51458E-02    1.33014E-01
 1.50000E+00    1.36694E-01    8.51604E-02    1.88228E-01
 1.60000E+00    1.65590E-01    1.03163E-01    2.28017E-01
 1.70000E+00    1.91470E-01    1.19286E-01    2.63654E-01
 1.80000E+00    2.14451E-01    1.33603E-01    2.95299E-01
 1.90000E+00    2.34659E-01    1.46193E-01    3.23125E-01
 2.00000E+00    2.52328E-01    1.68050E-01    3.36606E-01
 2.30000E+00    2.91545E-01    1.94169E-01    3.88921E-01
 2.50000E+00    3.10012E-01    2.24449E-01    3.95575E-01
 2.70000E+00    3.23599E-01    2.34286E-01    4.12912E-01
 3.00000E+00    3.35005E-01    2.49914E-01    4.20096E-01
 3.50000E+00    3.32732E-01    2.55538E-01    4.09926E-01
 4.00000E+00    3.14787E-01    2.47108E-01    3.82466E-01
 4.50000E+00    2.89990E-01    2.27642E-01    3.52338E-01
 5.00000E+00    2.66976E-01    2.12780E-01    3.21172E-01
 5.50000E+00    2.42079E-01    1.92937E-01    2.91221E-01
 6.00000E+00    2.21601E-01    1.77281E-01    2.65921E-01
 6.50000E+00    2.02002E-01    1.61602E-01    2.42402E-01
 7.00000E+00    1.86189E-01    1.49324E-01    2.23054E-01
 7.50000E+00    1.71802E-01    1.37785E-01    2.05819E-01
 8.00000E+00    1.60262E-01    1.28690E-01    1.91834E-01
 8.50000E+00    1.49622E-01    1.20146E-01    1.79098E-01
 9.00000E+00    1.40748E-01    1.13443E-01    1.68053E-01
 9.50000E+00    1.32226E-01    1.06574E-01    1.57878E-01
 1.00000E+01    1.24704E-01    1.00886E-01    1.48522E-01
 1.05000E+01    1.16735E-01    9.44386E-02    1.39031E-01
 1.10000E+01    1.09684E-01    8.87344E-02    1.30634E-01
 1.15000E+01    1.03740E-01    8.39257E-02    1.23554E-01
 1.20000E+01    9.88585E-02    8.07674E-02    1.16950E-01
 1.25000E+01    9.38929E-02    7.67105E-02    1.11075E-01
 1.30000E+01    8.87006E-02    7.24684E-02    1.04933E-01
 1.35000E+01    8.39368E-02    6.85764E-02    9.92972E-02
 1.40000E+01    7.97691E-02    6.56500E-02    9.38882E-02
 1.45000E+01    7.61693E-02    6.26873E-02    8.96513E-02
 1.50000E+01    7.31627E-02    6.04324E-02    8.58930E-02
 1.55000E+01    7.05971E-02    5.83132E-02    8.28810E-02
 1.60000E+01    6.74489E-02    5.59151E-02    7.89827E-02
 1.65000E+01    6.42110E-02    5.32309E-02    7.51911E-02
 1.70000E+01    6.12581E-02    5.07830E-02    7.17332E-02
 1.75000E+01    5.85234E-02    4.85159E-02    6.85309E-02
 1.80000E+01    5.60429E-02    4.66837E-02    6.54021E-02
 1.85000E+01    5.38008E-02    4.48161E-02    6.27855E-02
 1.90000E+01    5.18051E-02    4.31536E-02    6.04566E-02
 1.95000E+01    5.00248E-02    4.16707E-02    5.83789E-02
 2.00000E+01    4.84271E-02    4.03398E-02    5.65144E-02
