# n + Th232 : (n,g)     
# jendl4.0   O.Iwamoto,T.Nakagawa,et al.       EVAL-JAN10
# uncertainties: y
# # energies =    69
#   E(MeV)       xs(mb)       xslow(mb)      xsupp(mb)
 1.00000E-10    5.18191E+04    5.18191E+04    5.18191E+04
 5.00000E-09    1.40673E+04    1.40673E+04    1.40673E+04
 1.00000E-08    1.06277E+04    1.06277E+04    1.06277E+04
 1.50000E-08    8.90781E+03    8.90781E+03    8.90781E+03
 2.00000E-08    7.81849E+03    7.81849E+03    7.81849E+03
 2.50000E-08    7.04689E+03    7.04689E+03    7.04689E+03
 3.00000E-08    6.46257E+03    6.46257E+03    6.46257E+03
 3.50000E-08    5.92527E+03    5.92527E+03    5.92527E+03
 4.20000E-08    5.40060E+03    5.40060E+03    5.40060E+03
 5.00000E-08    4.96283E+03    4.96283E+03    4.96283E+03
 5.80000E-08    4.59450E+03    4.59450E+03    4.59450E+03
 6.70000E-08    4.21878E+03    4.21878E+03    4.21878E+03
 8.00000E-08    3.78906E+03    3.78906E+03    3.78906E+03
 1.00000E-07    3.25328E+03    3.25328E+03    3.25328E+03
 1.40000E-07    2.75645E+03    2.75645E+03    2.75645E+03
 1.80000E-07    2.41757E+03    2.41757E+03    2.41757E+03
 2.20000E-07    2.19187E+03    2.19187E+03    2.19187E+03
 2.50000E-07    2.03681E+03    2.03681E+03    2.03681E+03
 2.80000E-07    1.92491E+03    1.92491E+03    1.92491E+03
 3.00000E-07    1.84584E+03    1.84584E+03    1.84584E+03
 3.20000E-07    1.75755E+03    1.75755E+03    1.75755E+03
 3.50000E-07    1.63512E+03    1.63512E+03    1.63512E+03
 4.00000E-07    1.45203E+03    1.45203E+03    1.45203E+03
 5.00000E-07    1.24230E+03    1.24230E+03    1.24230E+03
 6.25000E-07    1.05421E+03    1.05421E+03    1.05421E+03
 7.80000E-07    9.35040E+02    9.35040E+02    9.35040E+02
 8.50000E-07    8.79045E+02    8.79045E+02    8.79045E+02
 9.10000E-07    8.40044E+02    8.40044E+02    8.40044E+02
 9.50000E-07    8.17492E+02    8.17492E+02    8.17492E+02
 9.72000E-07    8.01581E+02    8.01581E+02    8.01581E+02
 9.96000E-07    7.85583E+02    7.85583E+02    7.85583E+02
 1.02000E-06    7.69895E+02    7.69895E+02    7.69895E+02
 1.04500E-06    7.54144E+02    7.54144E+02    7.54144E+02
 1.07100E-06    7.38669E+02    7.38669E+02    7.38669E+02
 1.09700E-06    7.23791E+02    7.23791E+02    7.23791E+02
 1.12300E-06    7.09169E+02    7.09169E+02    7.09169E+02
 1.15000E-06    6.65412E+02    6.65412E+02    6.65412E+02
 1.30000E-06    5.90539E+02    5.90539E+02    5.90539E+02
 1.50000E-06    4.72331E+02    4.72331E+02    4.72331E+02
 2.10000E-06    3.58062E+02    3.58062E+02    3.58062E+02
 2.60000E-06    2.82953E+02    2.82953E+02    2.82953E+02
 3.30000E-06    2.24824E+02    2.24824E+02    2.24824E+02
 4.00000E-06    1.51469E+02    1.51469E+02    1.51469E+02
 9.87700E-06    1.20373E+02    1.20373E+02    1.20373E+02
 1.59680E-05    7.45347E+04    7.45347E+04    7.45347E+04
 2.77000E-05    8.24649E+01    8.24649E+01    8.24649E+01
 4.80520E-05    3.74590E+04    3.74590E+04    3.74590E+04
 7.55014E-05    9.83217E+03    9.83217E+03    9.83217E+03
 1.48728E-04    1.07465E+04    1.07465E+04    1.07465E+04
 3.67262E-04    3.45337E+03    3.45337E+03    3.45337E+03
 9.06898E-04    2.19884E+03    2.19884E+03    2.19884E+03
 1.42510E-03    1.99801E+03    1.99801E+03    1.99801E+03
 2.23945E-03    1.43743E+03    1.43743E+03    1.43743E+03
 3.51910E-03    1.09730E+03    1.09730E+03    1.09730E+03
 5.53000E-03    9.20775E+02    8.91679E+02    9.49872E+02
 9.11800E-03    7.54969E+02    7.32697E+02    7.77241E+02
 1.50300E-02    6.17327E+02    5.99486E+02    6.35168E+02
 2.47800E-02    4.98678E+02    4.84516E+02    5.12841E+02
 4.08500E-02    3.81615E+02    3.70701E+02    3.92530E+02
 6.73400E-02    2.49787E+02    2.42543E+02    2.57031E+02
 1.11000E-01    1.77773E+02    1.72494E+02    1.83053E+02
 1.83000E-01    1.54027E+02    1.49452E+02    1.58601E+02
 3.02000E-01    1.46923E+02    1.42618E+02    1.51228E+02
 5.00000E-01    1.72766E+02    1.67946E+02    1.77586E+02
 8.21000E-01    1.44703E+02    1.40507E+02    1.48899E+02
 1.35300E+00    8.84197E+01    8.51924E+01    9.16471E+01
 2.23100E+00    3.33751E+01    3.21503E+01    3.46000E+01
 3.67900E+00    5.26491E+00    4.90058E+00    5.62924E+00
 6.06500E+00    1.07277E+00    8.83961E-01    1.26158E+00
