# n + Th232 : (n,n'28)  
# jendl4.0   O.Iwamoto,T.Nakagawa,et al.       EVAL-JAN10
# uncertainties: y
# # energies =    49
#   E(MeV)       xs(mb)       xslow(mb)      xsupp(mb)
 1.15098E+00    0.00000E+00    0.00000E+00    0.00000E+00
 1.15329E+00    1.55985E-03    1.35083E-03    1.76887E-03
 1.20000E+00    4.82366E-02    4.17729E-02    5.47003E-02
 1.30000E+00    2.11253E-01    1.82945E-01    2.39561E-01
 1.40000E+00    4.26596E-01    3.69432E-01    4.83760E-01
 1.50000E+00    6.69392E-01    5.01375E-01    8.37409E-01
 1.60000E+00    9.27506E-01    6.94702E-01    1.16031E+00
 1.70000E+00    1.18291E+00    8.86000E-01    1.47982E+00
 1.80000E+00    1.41318E+00    1.05847E+00    1.76789E+00
 1.90000E+00    1.60103E+00    1.19917E+00    2.00289E+00
 2.00000E+00    1.73789E+00    1.37988E+00    2.09590E+00
 2.30000E+00    1.89454E+00    1.50426E+00    2.28482E+00
 2.50000E+00    1.77565E+00    1.51640E+00    2.03489E+00
 2.70000E+00    1.56482E+00    1.33636E+00    1.79328E+00
 3.00000E+00    1.18209E+00    1.06530E+00    1.29888E+00
 3.50000E+00    6.18734E-01    5.69421E-01    6.68047E-01
 4.00000E+00    3.06426E-01    2.77315E-01    3.35536E-01
 4.50000E+00    1.56089E-01    1.41261E-01    1.70917E-01
 5.00000E+00    9.62755E-02    8.27969E-02    1.09754E-01
 5.50000E+00    6.94830E-02    5.97554E-02    7.92106E-02
 6.00000E+00    5.71555E-02    4.66960E-02    6.76150E-02
 6.50000E+00    4.96540E-02    4.05673E-02    5.87407E-02
 7.00000E+00    4.48220E-02    3.60817E-02    5.35623E-02
 7.50000E+00    4.09710E-02    3.29817E-02    4.89603E-02
 8.00000E+00    3.80595E-02    3.05998E-02    4.55192E-02
 8.50000E+00    3.54623E-02    2.85117E-02    4.24129E-02
 9.00000E+00    3.33299E-02    2.68639E-02    3.97959E-02
 9.50000E+00    3.12997E-02    2.52276E-02    3.73718E-02
 1.00000E+01    2.95141E-02    2.38769E-02    3.51513E-02
 1.05000E+01    2.76214E-02    2.23457E-02    3.28971E-02
 1.10000E+01    2.59578E-02    2.09999E-02    3.09157E-02
 1.15000E+01    2.45478E-02    1.98592E-02    2.92364E-02
 1.20000E+01    2.33982E-02    1.91163E-02    2.76801E-02
 1.25000E+01    2.22208E-02    1.81544E-02    2.62872E-02
 1.30000E+01    2.09899E-02    1.71487E-02    2.48311E-02
 1.35000E+01    1.98680E-02    1.62322E-02    2.35038E-02
 1.40000E+01    1.88801E-02    1.55383E-02    2.22219E-02
 1.45000E+01    1.80268E-02    1.48361E-02    2.12175E-02
 1.50000E+01    1.73139E-02    1.43013E-02    2.03265E-02
 1.55000E+01    1.67118E-02    1.38039E-02    1.96197E-02
 1.60000E+01    1.59657E-02    1.32356E-02    1.86958E-02
 1.65000E+01    1.51984E-02    1.25995E-02    1.77973E-02
 1.70000E+01    1.44987E-02    1.20194E-02    1.69780E-02
 1.75000E+01    1.38557E-02    1.14864E-02    1.62250E-02
 1.80000E+01    1.32679E-02    1.10522E-02    1.54836E-02
 1.85000E+01    1.27366E-02    1.06096E-02    1.48636E-02
 1.90000E+01    1.22637E-02    1.02157E-02    1.43117E-02
 1.95000E+01    1.18417E-02    9.86414E-03    1.38193E-02
 2.00000E+01    1.14630E-02    9.54868E-03    1.33773E-02
