# n + Kr 83 : (n,xp)    
# endfb8.0   You-Xiang Zhuang, Chong-Hai Cai   EVAL-JUN99
# 
# # energies =   108
#   E(MeV)        xs(mb) 
 9.51440E-03    0.00000E+00
 1.20000E-02    0.00000E+00
 1.50000E-02    0.00000E+00
 2.00000E-02    0.00000E+00
 2.50000E-02    0.00000E+00
 3.00000E-02    0.00000E+00
 3.50000E-02    0.00000E+00
 4.00000E-02    0.00000E+00
 4.20660E-02    0.00000E+00
 4.50000E-02    0.00000E+00
 5.00000E-02    0.00000E+00
 6.50000E-02    0.00000E+00
 7.00000E-02    0.00000E+00
 7.50000E-02    0.00000E+00
 8.00000E-02    0.00000E+00
 8.50000E-02    0.00000E+00
 9.00000E-02    0.00000E+00
 9.50000E-02    0.00000E+00
 1.00000E-01    0.00000E+00
 1.92340E-01    0.00000E+00
 4.00000E-01    0.00000E+00
 5.68840E-01    0.00000E+00
 5.78150E-01    0.00000E+00
 6.98550E-01    0.00000E+00
 8.08620E-01    0.00000E+00
 8.20870E-01    0.00000E+00
 1.02420E+00    0.00000E+00
 1.11630E+00    0.00000E+00
 1.13560E+00    0.00000E+00
 1.18460E+00    0.00000E+00
 1.23680E+00    0.00000E+00
 1.29340E+00    0.00000E+00
 1.53530E+00    0.00000E+00
 1.54780E+00    0.00000E+00
 1.75000E+00    2.26800E-04
 2.00000E+00    1.44430E-03
 2.25000E+00    5.66020E-03
 2.50000E+00    1.67070E-02
 2.75000E+00    3.88700E-02
 3.00000E+00    7.65640E-02
 3.25000E+00    1.30980E-01
 3.50000E+00    2.02410E-01
 3.75000E+00    2.84590E-01
 4.00000E+00    3.71600E-01
 4.25000E+00    4.52370E-01
 4.50000E+00    5.32710E-01
 4.75000E+00    5.99250E-01
 5.00000E+00    6.61930E-01
 5.25000E+00    7.17660E-01
 5.50000E+00    7.75430E-01
 5.75000E+00    8.40220E-01
 6.00000E+00    9.17010E-01
 6.25000E+00    9.78620E-01
 6.56610E+00    1.06940E+00
 6.75000E+00    1.13130E+00
 7.00000E+00    1.22130E+00
 7.25000E+00    1.33760E+00
 7.55320E+00    1.49650E+00
 7.63970E+00    1.54700E+00
 8.00000E+00    1.78600E+00
 8.25000E+00    1.98290E+00
 8.50000E+00    2.20780E+00
 8.75000E+00    2.45910E+00
 8.99130E+00    2.72780E+00
 9.00140E+00    2.73960E+00
 9.30000E+00    3.11340E+00
 9.60000E+00    3.52890E+00
 9.89140E+00    3.97510E+00
 1.00000E+01    4.14870E+00
 1.02500E+01    4.57900E+00
 1.05770E+01    5.17470E+00
 1.07500E+01    5.50750E+00
 1.10000E+01    6.01110E+00
 1.12500E+01    6.53140E+00
 1.15000E+01    7.07230E+00
 1.17500E+01    7.63540E+00
 1.20000E+01    8.21389E+00
 1.22500E+01    8.79936E+00
 1.25000E+01    9.40016E+00
 1.27500E+01    1.00158E+01
 1.30000E+01    1.06358E+01
 1.32500E+01    1.12620E+01
 1.35000E+01    1.18959E+01
 1.37500E+01    1.25370E+01
 1.40000E+01    1.31806E+01
 1.42500E+01    1.38221E+01
 1.45000E+01    1.44680E+01
 1.47500E+01    1.51172E+01
 1.50000E+01    1.57673E+01
 1.52500E+01    1.64150E+01
 1.55000E+01    1.70618E+01
 1.57500E+01    1.77072E+01
 1.60000E+01    1.83518E+01
 1.62500E+01    1.89896E+01
 1.65000E+01    1.96216E+01
 1.67500E+01    2.02559E+01
 1.70000E+01    2.08866E+01
 1.72500E+01    2.15043E+01
 1.75000E+01    2.21181E+01
 1.77500E+01    2.27274E+01
 1.80000E+01    2.33296E+01
 1.83000E+01    2.40424E+01
 1.86520E+01    2.48654E+01
 1.90000E+01    2.56591E+01
 1.92500E+01    2.62371E+01
 1.95000E+01    2.67994E+01
 1.97500E+01    2.73593E+01
 2.00000E+01    2.79062E+01
