# n + Kr 83 : (n,n'13)  
# endfb8.0   You-Xiang Zhuang, Chong-Hai Cai   EVAL-JUN99
# uncertainties: n
# # energies =    77
#   E(MeV)       xs(mb) 
 1.29340E+00    0.00000E+00
 1.53530E+00    2.87910E+00
 1.54780E+00    3.05440E+00
 1.75000E+00    5.02880E+00
 2.00000E+00    6.19980E+00
 2.25000E+00    6.62010E+00
 2.50000E+00    6.85280E+00
 2.75000E+00    7.04050E+00
 3.00000E+00    6.96070E+00
 3.25000E+00    6.40220E+00
 3.50000E+00    5.42290E+00
 3.75000E+00    4.31710E+00
 4.00000E+00    3.29260E+00
 4.25000E+00    2.56890E+00
 4.50000E+00    2.00250E+00
 4.75000E+00    1.55040E+00
 5.00000E+00    1.21810E+00
 5.25000E+00    9.76580E-01
 5.50000E+00    8.08630E-01
 5.75000E+00    6.94990E-01
 6.00000E+00    6.20800E-01
 6.25000E+00    5.31900E-01
 6.56610E+00    4.52960E-01
 6.75000E+00    4.18820E-01
 7.00000E+00    3.79400E-01
 7.25000E+00    3.53270E-01
 7.55320E+00    3.25840E-01
 7.63970E+00    3.19090E-01
 8.00000E+00    2.94830E-01
 8.25000E+00    2.81000E-01
 8.50000E+00    2.68670E-01
 8.75000E+00    2.57600E-01
 8.99130E+00    2.47850E-01
 9.00140E+00    2.47460E-01
 9.30000E+00    2.36660E-01
 9.60000E+00    2.26810E-01
 9.89140E+00    2.18180E-01
 1.00000E+01    2.15130E-01
 1.02500E+01    2.08470E-01
 1.05770E+01    2.00480E-01
 1.07500E+01    1.96510E-01
 1.10000E+01    1.91130E-01
 1.12500E+01    1.85960E-01
 1.15000E+01    1.81070E-01
 1.17500E+01    1.76430E-01
 1.20000E+01    1.72000E-01
 1.22500E+01    1.67680E-01
 1.25000E+01    1.63520E-01
 1.27500E+01    1.59500E-01
 1.30000E+01    1.55610E-01
 1.32500E+01    1.51770E-01
 1.35000E+01    1.48060E-01
 1.37500E+01    1.44430E-01
 1.40000E+01    1.40920E-01
 1.42500E+01    1.37460E-01
 1.45000E+01    1.34120E-01
 1.47500E+01    1.30860E-01
 1.50000E+01    1.27730E-01
 1.52500E+01    1.24650E-01
 1.55000E+01    1.21690E-01
 1.57500E+01    1.18790E-01
 1.60000E+01    1.16010E-01
 1.62500E+01    1.13320E-01
 1.65000E+01    1.10730E-01
 1.67500E+01    1.08210E-01
 1.70000E+01    1.05790E-01
 1.72500E+01    1.03440E-01
 1.75000E+01    1.01180E-01
 1.77500E+01    9.89810E-02
 1.80000E+01    9.68690E-02
 1.83000E+01    9.43950E-02
 1.86520E+01    9.16230E-02
 1.90000E+01    8.90060E-02
 1.92500E+01    8.72160E-02
 1.95000E+01    8.55010E-02
 1.97500E+01    8.38190E-02
 2.00000E+01    8.22010E-02
