# n + In113 : (n,n'21)  
# tendl.2019 A.J. Koning and D. Rochman        EVAL-NOV19
# uncertainties: n
# # energies =    72
#   E(MeV)       xs(mb) 
 1.58360E+00    0.00000E+00
 1.60000E+00    7.24429E-01
 1.63341E+00    1.64291E+00
 1.64514E+00    1.96538E+00
 1.64860E+00    2.06050E+00
 1.69046E+00    3.21128E+00
 1.69922E+00    3.45210E+00
 1.70371E+00    3.57554E+00
 1.71519E+00    3.89114E+00
 1.72263E+00    4.09567E+00
 1.77371E+00    5.49992E+00
 1.80000E+00    6.22266E+00
 2.00000E+00    8.58267E+00
 2.20000E+00    1.00657E+01
 2.40000E+00    1.05202E+01
 2.60000E+00    1.01021E+01
 2.80000E+00    9.15492E+00
 3.00000E+00    7.94649E+00
 3.20000E+00    6.75167E+00
 3.40000E+00    5.61780E+00
 3.60000E+00    4.60345E+00
 3.80000E+00    3.73594E+00
 4.00000E+00    3.01308E+00
 4.20000E+00    2.42656E+00
 4.40000E+00    1.95696E+00
 4.60000E+00    1.58444E+00
 4.80000E+00    1.28785E+00
 5.00000E+00    1.05244E+00
 5.20000E+00    8.61846E-01
 5.40000E+00    7.04860E-01
 5.60000E+00    5.73004E-01
 5.80000E+00    4.64177E-01
 6.00000E+00    3.76098E-01
 6.20000E+00    3.04405E-01
 6.40000E+00    2.45633E-01
 6.60000E+00    1.96858E-01
 6.80000E+00    1.57963E-01
 7.00000E+00    1.26405E-01
 7.20000E+00    1.01257E-01
 7.40000E+00    8.11178E-02
 7.60000E+00    6.47887E-02
 7.80000E+00    5.19608E-02
 8.00000E+00    4.13191E-02
 8.50000E+00    2.37387E-02
 9.00000E+00    1.37144E-02
 9.50000E+00    7.96064E-03
 1.00000E+01    4.88888E-03
 1.05000E+01    3.22522E-03
 1.10000E+01    2.13296E-03
 1.15000E+01    1.38903E-03
 1.20000E+01    8.62822E-04
 1.25000E+01    5.10068E-04
 1.30000E+01    2.95772E-04
 1.35000E+01    1.75590E-04
 1.40000E+01    1.09222E-04
 1.45000E+01    6.94929E-05
 1.50000E+01    4.65216E-05
 1.60000E+01    1.87760E-05
 1.70000E+01    7.73690E-06
 1.80000E+01    3.25426E-06
 1.90000E+01    1.39812E-06
 2.00000E+01    6.13710E-07
 2.10000E+01    2.80310E-07
 2.20000E+01    1.31380E-07
 2.30000E+01    6.25980E-08
 2.40000E+01    3.01780E-08
 2.50000E+01    1.47170E-08
 2.60000E+01    7.23840E-09
 2.70000E+01    3.60900E-09
 2.80000E+01    1.81990E-09
 2.90000E+01    9.27360E-10
 3.00000E+01    4.77790E-10
