# n + In113 : (n,n'09)  
# tendl.2019 A.J. Koning and D. Rochman        EVAL-NOV19
# uncertainties: n
# # energies =    85
#   E(MeV)       xs(mb) 
 1.20176E+00    0.00000E+00
 1.35691E+00    1.10194E+02
 1.36308E+00    1.14577E+02
 1.39313E+00    1.35920E+02
 1.40000E+00    1.40799E+02
 1.46598E+00    1.36030E+02
 1.48508E+00    1.34649E+02
 1.50976E+00    1.32866E+02
 1.51744E+00    1.32311E+02
 1.52249E+00    1.31945E+02
 1.54968E+00    1.29980E+02
 1.56587E+00    1.28810E+02
 1.58105E+00    1.27713E+02
 1.58360E+00    1.27528E+02
 1.60000E+00    1.26343E+02
 1.63341E+00    1.22191E+02
 1.64514E+00    1.20733E+02
 1.64860E+00    1.20303E+02
 1.69046E+00    1.15102E+02
 1.69922E+00    1.14013E+02
 1.70371E+00    1.13455E+02
 1.71519E+00    1.12028E+02
 1.72263E+00    1.11104E+02
 1.77371E+00    1.04756E+02
 1.80000E+00    1.01489E+02
 2.00000E+00    9.17944E+01
 2.20000E+00    8.27630E+01
 2.40000E+00    6.97675E+01
 2.60000E+00    5.57564E+01
 2.80000E+00    4.32073E+01
 3.00000E+00    3.28542E+01
 3.20000E+00    2.49771E+01
 3.40000E+00    1.89432E+01
 3.60000E+00    1.43807E+01
 3.80000E+00    1.09682E+01
 4.00000E+00    8.42052E+00
 4.20000E+00    6.52902E+00
 4.40000E+00    5.12008E+00
 4.60000E+00    4.06504E+00
 4.80000E+00    3.26232E+00
 5.00000E+00    2.64648E+00
 5.20000E+00    2.16023E+00
 5.40000E+00    1.76597E+00
 5.60000E+00    1.43908E+00
 5.80000E+00    1.17244E+00
 6.00000E+00    9.57191E-01
 6.20000E+00    7.83708E-01
 6.40000E+00    6.42629E-01
 6.60000E+00    5.26170E-01
 6.80000E+00    4.34377E-01
 7.00000E+00    3.60499E-01
 7.20000E+00    3.02124E-01
 7.40000E+00    2.55836E-01
 7.60000E+00    2.18582E-01
 7.80000E+00    1.89531E-01
 8.00000E+00    1.65113E-01
 8.50000E+00    1.25432E-01
 9.00000E+00    1.02237E-01
 9.50000E+00    8.77646E-02
 1.00000E+01    8.22053E-02
 1.05000E+01    8.44182E-02
 1.10000E+01    8.79366E-02
 1.15000E+01    9.07207E-02
 1.20000E+01    8.94319E-02
 1.25000E+01    8.38319E-02
 1.30000E+01    7.68874E-02
 1.35000E+01    7.19473E-02
 1.40000E+01    7.02419E-02
 1.45000E+01    6.98291E-02
 1.50000E+01    7.26785E-02
 1.60000E+01    6.98438E-02
 1.70000E+01    6.71230E-02
 1.80000E+01    6.45449E-02
 1.90000E+01    6.21453E-02
 2.00000E+01    5.99389E-02
 2.10000E+01    5.95003E-02
 2.20000E+01    5.90888E-02
 2.30000E+01    5.86560E-02
 2.40000E+01    5.81569E-02
 2.50000E+01    5.75664E-02
 2.60000E+01    5.68839E-02
 2.70000E+01    5.61278E-02
 2.80000E+01    5.53239E-02
 2.90000E+01    5.44960E-02
 3.00000E+01    5.36598E-02
