# n + Dy162 : (n,n'09)  
# tendl.2019 A.J. Koning and D. Rochman        EVAL-NOV19
# uncertainties: n
# # energies =    86
#   E(MeV)       xs(mb) 
 1.19013E+00    0.00000E+00
 1.20000E+00    2.99505E+00
 1.21763E+00    3.95637E+00
 1.28372E+00    7.56011E+00
 1.30509E+00    8.72537E+00
 1.33272E+00    1.02320E+01
 1.36639E+00    1.20679E+01
 1.38365E+00    1.30091E+01
 1.39917E+00    1.38554E+01
 1.40000E+00    1.39006E+01
 1.40898E+00    1.43503E+01
 1.46252E+00    1.70311E+01
 1.49493E+00    1.86540E+01
 1.49967E+00    1.88913E+01
 1.52788E+00    2.03039E+01
 1.53966E+00    2.08937E+01
 1.54523E+00    2.11726E+01
 1.58070E+00    2.29487E+01
 1.58410E+00    2.31189E+01
 1.58544E+00    2.31861E+01
 1.60000E+00    2.39151E+01
 1.64460E+00    2.54864E+01
 1.64739E+00    2.55847E+01
 1.66239E+00    2.61131E+01
 1.67665E+00    2.66155E+01
 1.80000E+00    3.09611E+01
 2.00000E+00    3.13014E+01
 2.20000E+00    2.74560E+01
 2.40000E+00    2.21471E+01
 2.60000E+00    1.70716E+01
 2.80000E+00    1.28491E+01
 3.00000E+00    9.54781E+00
 3.20000E+00    7.39283E+00
 3.40000E+00    5.41148E+00
 3.60000E+00    3.95740E+00
 3.80000E+00    2.89740E+00
 4.00000E+00    2.12646E+00
 4.20000E+00    1.61222E+00
 4.40000E+00    1.18868E+00
 4.60000E+00    8.73269E-01
 4.80000E+00    6.42241E-01
 5.00000E+00    4.72751E-01
 5.20000E+00    3.48645E-01
 5.40000E+00    2.57801E-01
 5.60000E+00    1.91170E-01
 5.80000E+00    1.42325E-01
 6.00000E+00    1.05619E-01
 6.20000E+00    7.89854E-02
 6.40000E+00    5.92440E-02
 6.60000E+00    4.46627E-02
 6.80000E+00    3.38312E-02
 7.00000E+00    2.57502E-02
 7.20000E+00    1.96998E-02
 7.40000E+00    1.51268E-02
 7.60000E+00    1.16645E-02
 7.80000E+00    9.02604E-03
 8.00000E+00    7.00360E-03
 8.50000E+00    3.76289E-03
 9.00000E+00    2.04815E-03
 9.50000E+00    1.12611E-03
 1.00000E+01    6.25023E-04
 1.05000E+01    3.50297E-04
 1.10000E+01    1.98281E-04
 1.15000E+01    1.13363E-04
 1.20000E+01    6.54778E-05
 1.25000E+01    3.81574E-05
 1.30000E+01    2.24369E-05
 1.35000E+01    1.33064E-05
 1.40000E+01    7.96225E-06
 1.45000E+01    4.79704E-06
 1.50000E+01    2.91500E-06
 1.60000E+01    1.09843E-06
 1.70000E+01    4.25380E-07
 1.80000E+01    1.68710E-07
 1.90000E+01    6.81730E-08
 2.00000E+01    2.83250E-08
 2.10000E+01    1.20040E-08
 2.20000E+01    5.18390E-09
 2.30000E+01    2.28710E-09
 2.40000E+01    1.02870E-09
 2.50000E+01    4.70580E-10
 2.60000E+01    2.18090E-10
 2.70000E+01    1.02140E-10
 2.80000E+01    4.84350E-11
 2.90000E+01    2.33440E-11
 3.00000E+01    1.13830E-11
