# n + Dy162 : (n,n'17)  
# tendl.2019 A.J. Koning and D. Rochman        EVAL-NOV19
# uncertainties: n
# # energies =    76
#   E(MeV)       xs(mb) 
 1.40898E+00    0.00000E+00
 1.46252E+00    1.59166E+01
 1.49493E+00    2.55516E+01
 1.49967E+00    2.69607E+01
 1.52788E+00    3.53471E+01
 1.53966E+00    3.88491E+01
 1.54523E+00    4.05050E+01
 1.58070E+00    5.10496E+01
 1.58410E+00    5.20604E+01
 1.58544E+00    5.24588E+01
 1.60000E+00    5.67872E+01
 1.64460E+00    5.52239E+01
 1.64739E+00    5.51262E+01
 1.66239E+00    5.46004E+01
 1.67665E+00    5.41006E+01
 1.80000E+00    4.97771E+01
 2.00000E+00    4.15949E+01
 2.20000E+00    3.15039E+01
 2.40000E+00    2.20886E+01
 2.60000E+00    1.48331E+01
 2.80000E+00    9.76695E+00
 3.00000E+00    6.39475E+00
 3.20000E+00    4.23784E+00
 3.40000E+00    2.80544E+00
 3.60000E+00    1.87556E+00
 3.80000E+00    1.26810E+00
 4.00000E+00    8.67895E-01
 4.20000E+00    6.00815E-01
 4.40000E+00    4.26819E-01
 4.60000E+00    3.02355E-01
 4.80000E+00    2.14185E-01
 5.00000E+00    1.52589E-01
 5.20000E+00    1.09175E-01
 5.40000E+00    7.84326E-02
 5.60000E+00    5.65760E-02
 5.80000E+00    4.10049E-02
 6.00000E+00    2.96338E-02
 6.20000E+00    2.16046E-02
 6.40000E+00    1.57999E-02
 6.60000E+00    1.16238E-02
 6.80000E+00    8.59929E-03
 7.00000E+00    6.39598E-03
 7.20000E+00    4.78716E-03
 7.40000E+00    3.59884E-03
 7.60000E+00    2.71953E-03
 7.80000E+00    2.06414E-03
 8.00000E+00    1.57230E-03
 8.50000E+00    8.09394E-04
 9.00000E+00    4.23763E-04
 9.50000E+00    2.24778E-04
 1.00000E+01    1.20650E-04
 1.05000E+01    6.55305E-05
 1.10000E+01    3.60216E-05
 1.15000E+01    2.00422E-05
 1.20000E+01    1.12901E-05
 1.25000E+01    6.43069E-06
 1.30000E+01    3.70368E-06
 1.35000E+01    2.15568E-06
 1.40000E+01    1.26822E-06
 1.45000E+01    7.52420E-07
 1.50000E+01    4.50890E-07
 1.60000E+01    1.65820E-07
 1.70000E+01    6.29140E-08
 1.80000E+01    2.45140E-08
 1.90000E+01    9.74930E-09
 2.00000E+01    3.99210E-09
 2.10000E+01    1.66910E-09
 2.20000E+01    7.11800E-10
 2.30000E+01    3.10510E-10
 2.40000E+01    1.38310E-10
 2.50000E+01    6.27490E-11
 2.60000E+01    2.88760E-11
 2.70000E+01    1.34370E-11
 2.80000E+01    6.33200E-12
 2.90000E+01    3.03260E-12
 3.00000E+01    1.46940E-12
