# n + Dy162 : (n,n'06)  
# tendl.2019 A.J. Koning and D. Rochman        EVAL-NOV19
# uncertainties: n
# # energies =    90
#   E(MeV)       xs(mb) 
 9.68938E-01    0.00000E+00
 1.00000E+00    1.10433E+02
 1.06760E+00    1.37599E+02
 1.15538E+00    1.72874E+02
 1.19013E+00    1.86839E+02
 1.20000E+00    1.90805E+02
 1.21763E+00    1.92880E+02
 1.28372E+00    2.00658E+02
 1.30509E+00    2.03173E+02
 1.33272E+00    2.06425E+02
 1.36639E+00    2.10387E+02
 1.38365E+00    2.12419E+02
 1.39917E+00    2.14245E+02
 1.40000E+00    2.14343E+02
 1.40898E+00    2.14294E+02
 1.46252E+00    2.14000E+02
 1.49493E+00    2.13822E+02
 1.49967E+00    2.13796E+02
 1.52788E+00    2.13641E+02
 1.53966E+00    2.13576E+02
 1.54523E+00    2.13546E+02
 1.58070E+00    2.13351E+02
 1.58410E+00    2.13332E+02
 1.58544E+00    2.13325E+02
 1.60000E+00    2.13245E+02
 1.64460E+00    2.07962E+02
 1.64739E+00    2.07632E+02
 1.66239E+00    2.05855E+02
 1.67665E+00    2.04166E+02
 1.80000E+00    1.89556E+02
 2.00000E+00    1.44196E+02
 2.20000E+00    1.02748E+02
 2.40000E+00    7.06119E+01
 2.60000E+00    4.78098E+01
 2.80000E+00    3.23004E+01
 3.00000E+00    2.19166E+01
 3.20000E+00    1.54196E+01
 3.40000E+00    1.06022E+01
 3.60000E+00    7.34423E+00
 3.80000E+00    5.12887E+00
 4.00000E+00    3.69190E+00
 4.20000E+00    2.60448E+00
 4.40000E+00    1.84554E+00
 4.60000E+00    1.31211E+00
 4.80000E+00    9.36301E-01
 5.00000E+00    6.70566E-01
 5.20000E+00    4.82263E-01
 5.40000E+00    3.48279E-01
 5.60000E+00    2.52604E-01
 5.80000E+00    1.84169E-01
 6.00000E+00    1.33901E-01
 6.20000E+00    9.82481E-02
 6.40000E+00    7.23235E-02
 6.60000E+00    5.35498E-02
 6.80000E+00    3.98742E-02
 7.00000E+00    2.98444E-02
 7.20000E+00    2.24741E-02
 7.40000E+00    1.69952E-02
 7.60000E+00    1.29148E-02
 7.80000E+00    9.85555E-03
 8.00000E+00    7.54604E-03
 8.50000E+00    3.93241E-03
 9.00000E+00    2.08315E-03
 9.50000E+00    1.11798E-03
 1.00000E+01    6.07200E-04
 1.05000E+01    3.33711E-04
 1.10000E+01    1.85561E-04
 1.15000E+01    1.04381E-04
 1.20000E+01    5.93998E-05
 1.25000E+01    3.41467E-05
 1.30000E+01    1.98291E-05
 1.35000E+01    1.16257E-05
 1.40000E+01    6.88365E-06
 1.45000E+01    4.10733E-06
 1.50000E+01    2.47387E-06
 1.60000E+01    9.17780E-07
 1.70000E+01    3.50760E-07
 1.80000E+01    1.37540E-07
 1.90000E+01    5.50230E-08
 2.00000E+01    2.26560E-08
 2.10000E+01    9.52270E-09
 2.20000E+01    4.08100E-09
 2.30000E+01    1.78790E-09
 2.40000E+01    7.99030E-10
 2.50000E+01    3.63420E-10
 2.60000E+01    1.67570E-10
 2.70000E+01    7.81210E-11
 2.80000E+01    3.68960E-11
 2.90000E+01    1.77160E-11
 3.00000E+01    8.60790E-12
