# n + Dy162 : (n,n'08)  
# tendl.2019 A.J. Koning and D. Rochman        EVAL-NOV19
# uncertainties: n
# # energies =    87
#   E(MeV)       xs(mb) 
 1.15538E+00    0.00000E+00
 1.19013E+00    7.52394E+01
 1.20000E+00    9.66097E+01
 1.21763E+00    1.01253E+02
 1.28372E+00    1.18657E+02
 1.30509E+00    1.24285E+02
 1.33272E+00    1.31561E+02
 1.36639E+00    1.40428E+02
 1.38365E+00    1.44973E+02
 1.39917E+00    1.49061E+02
 1.40000E+00    1.49279E+02
 1.40898E+00    1.49841E+02
 1.46252E+00    1.53191E+02
 1.49493E+00    1.55219E+02
 1.49967E+00    1.55516E+02
 1.52788E+00    1.57281E+02
 1.53966E+00    1.58018E+02
 1.54523E+00    1.58367E+02
 1.58070E+00    1.60586E+02
 1.58410E+00    1.60799E+02
 1.58544E+00    1.60883E+02
 1.60000E+00    1.61794E+02
 1.64460E+00    1.57027E+02
 1.64739E+00    1.56729E+02
 1.66239E+00    1.55126E+02
 1.67665E+00    1.53601E+02
 1.80000E+00    1.40417E+02
 2.00000E+00    1.06792E+02
 2.20000E+00    7.62509E+01
 2.40000E+00    5.26219E+01
 2.60000E+00    3.57814E+01
 2.80000E+00    2.42396E+01
 3.00000E+00    1.64573E+01
 3.20000E+00    1.14214E+01
 3.40000E+00    7.85056E+00
 3.60000E+00    5.43380E+00
 3.80000E+00    3.78890E+00
 4.00000E+00    2.66660E+00
 4.20000E+00    1.92117E+00
 4.40000E+00    1.36749E+00
 4.60000E+00    9.79054E-01
 4.80000E+00    7.04298E-01
 5.00000E+00    5.08826E-01
 5.20000E+00    3.69202E-01
 5.40000E+00    2.69045E-01
 5.60000E+00    1.96828E-01
 5.80000E+00    1.44672E-01
 6.00000E+00    1.06004E-01
 6.20000E+00    7.82846E-02
 6.40000E+00    5.79778E-02
 6.60000E+00    4.31462E-02
 6.80000E+00    3.22591E-02
 7.00000E+00    2.42298E-02
 7.20000E+00    1.82905E-02
 7.40000E+00    1.38588E-02
 7.60000E+00    1.05454E-02
 7.80000E+00    8.05327E-03
 8.00000E+00    6.16833E-03
 8.50000E+00    3.21208E-03
 9.00000E+00    1.69768E-03
 9.50000E+00    9.08119E-04
 1.00000E+01    4.91298E-04
 1.05000E+01    2.68873E-04
 1.10000E+01    1.48865E-04
 1.15000E+01    8.33872E-05
 1.20000E+01    4.72654E-05
 1.25000E+01    2.70736E-05
 1.30000E+01    1.56723E-05
 1.35000E+01    9.16425E-06
 1.40000E+01    5.41445E-06
 1.45000E+01    3.22502E-06
 1.50000E+01    1.93965E-06
 1.60000E+01    7.17890E-07
 1.70000E+01    2.73750E-07
 1.80000E+01    1.07090E-07
 1.90000E+01    4.27380E-08
 2.00000E+01    1.75570E-08
 2.10000E+01    7.36400E-09
 2.20000E+01    3.15010E-09
 2.30000E+01    1.37770E-09
 2.40000E+01    6.14750E-10
 2.50000E+01    2.79210E-10
 2.60000E+01    1.28580E-10
 2.70000E+01    5.98720E-11
 2.80000E+01    2.82440E-11
 2.90000E+01    1.35460E-11
 3.00000E+01    6.57410E-12
