# n + V  51 : (n,tot)   
# jendl.ad   N.Iwamoto                         EVAL-Mar10
# uncertainties: n
# # energies =    69
#   E(MeV)       xs(mb) 
 1.00000E-10    3.43452E+04
 5.00000E-09    9.35165E+03
 1.00000E-08    7.08245E+03
 1.50000E-08    5.95061E+03
 2.00000E-08    5.23562E+03
 2.50000E-08    4.73038E+03
 3.00000E-08    4.34808E+03
 3.50000E-08    3.99730E+03
 4.20000E-08    3.65623E+03
 5.00000E-08    3.37278E+03
 5.80000E-08    3.13483E+03
 6.70000E-08    2.89271E+03
 8.00000E-08    2.61754E+03
 1.00000E-07    2.27768E+03
 1.40000E-07    1.96511E+03
 1.80000E-07    1.75460E+03
 2.20000E-07    1.61622E+03
 2.50000E-07    1.52157E+03
 2.80000E-07    1.45354E+03
 3.00000E-07    1.40575E+03
 3.20000E-07    1.35261E+03
 3.50000E-07    1.27931E+03
 4.00000E-07    1.17109E+03
 5.00000E-07    1.04744E+03
 6.25000E-07    9.37035E+02
 7.80000E-07    8.67683E+02
 8.50000E-07    8.35228E+02
 9.10000E-07    8.12238E+02
 9.50000E-07    7.99109E+02
 9.72000E-07    7.89403E+02
 9.96000E-07    7.79741E+02
 1.02000E-06    7.70767E+02
 1.04500E-06    7.61447E+02
 1.07100E-06    7.51943E+02
 1.09700E-06    7.43057E+02
 1.12300E-06    7.34571E+02
 1.15000E-06    7.08079E+02
 1.30000E-06    6.62536E+02
 1.50000E-06    5.88325E+02
 2.10000E-06    5.12524E+02
 2.60000E-06    4.57734E+02
 3.30000E-06    4.11050E+02
 4.00000E-06    3.15207E+02
 9.87700E-06    2.21913E+02
 1.59680E-05    1.71876E+02
 2.77000E-05    1.30834E+02
 4.80520E-05    1.02163E+02
 7.55014E-05    7.79081E+01
 1.48728E-04    5.40173E+01
 3.67262E-04    3.72221E+01
 9.06898E-04    3.09613E+01
 1.42510E-03    3.23166E+01
 2.23945E-03    6.13561E+01
 3.51910E-03    3.55705E+02
 5.53000E-03    1.44903E+02
 9.11800E-03    5.84198E+01
 1.50300E-02    5.85921E+01
 2.47800E-02    1.81695E+01
 4.08500E-02    2.38961E+01
 6.73400E-02    1.29341E+01
 1.11000E-01    8.03822E+00
 1.83000E-01    5.65655E+00
 3.02000E-01    3.61294E+00
 5.00000E-01    2.50583E+00
 8.21000E-01    2.17600E+00
 1.35300E+00    1.97039E+00
 2.23100E+00    1.74832E+00
 3.67900E+00    8.70403E-01
 6.06500E+00    1.32569E+01
