# n + Cu 63 : (n,any)   
# endfb8.0   A.Koning,M.Chadwick,Hetrick       EVAL-FEB98
# uncertainties: n
# # energies =   151
#   E(MeV)       xs(mb) 
 2.00000E+01    0.00000E+00
 2.00000E+01    1.40740E+03
 2.00560E+01    1.40607E+03
 2.07834E+01    1.38960E+03
 2.09856E+01    1.38524E+03
 2.10000E+01    1.38494E+03
 2.20000E+01    1.36460E+03
 2.23777E+01    1.35736E+03
 2.27024E+01    1.35135E+03
 2.27081E+01    1.35125E+03
 2.30000E+01    1.34605E+03
 2.32368E+01    1.34198E+03
 2.33147E+01    1.34068E+03
 2.40000E+01    1.32990E+03
 2.41970E+01    1.32704E+03
 2.50000E+01    1.31625E+03
 2.52015E+01    1.31373E+03
 2.60000E+01    1.30430E+03
 2.69166E+01    1.29437E+03
 2.70000E+01    1.29350E+03
 2.78864E+01    1.28429E+03
 2.80000E+01    1.28310E+03
 2.90000E+01    1.27277E+03
 3.00000E+01    1.26240E+03
 3.04444E+01    1.25774E+03
 3.10000E+01    1.25198E+03
 3.14320E+01    1.24757E+03
 3.16737E+01    1.24512E+03
 3.19530E+01    1.24232E+03
 3.20000E+01    1.24185E+03
 3.22141E+01    1.23972E+03
 3.23957E+01    1.23793E+03
 3.28748E+01    1.23326E+03
 3.30000E+01    1.23206E+03
 3.40000E+01    1.22266E+03
 3.40858E+01    1.22188E+03
 3.50000E+01    1.21370E+03
 3.60000E+01    1.20514E+03
 3.67600E+01    1.19887E+03
 3.70000E+01    1.19692E+03
 3.70307E+01    1.19667E+03
 3.76279E+01    1.19190E+03
 3.80000E+01    1.18898E+03
 3.90000E+01    1.18129E+03
 3.99465E+01    1.17420E+03
 4.00000E+01    1.17380E+03
 4.10000E+01    1.16646E+03
 4.16979E+01    1.16141E+03
 4.20000E+01    1.15924E+03
 4.21762E+01    1.15798E+03
 4.26754E+01    1.15443E+03
 4.30000E+01    1.15214E+03
 4.35329E+01    1.14840E+03
 4.40000E+01    1.14516E+03
 4.46442E+01    1.14072E+03
 4.50000E+01    1.13830E+03
 4.60000E+01    1.13147E+03
 4.70000E+01    1.12459E+03
 4.70051E+01    1.12455E+03
 4.80000E+01    1.11771E+03
 4.90000E+01    1.11087E+03
 4.94455E+01    1.10784E+03
 5.00000E+01    1.10410E+03
 5.10000E+01    1.09741E+03
 5.17595E+01    1.09237E+03
 5.20000E+01    1.09079E+03
 5.20857E+01    1.09022E+03
 5.30000E+01    1.08421E+03
 5.34360E+01    1.08136E+03
 5.40000E+01    1.07768E+03
 5.50000E+01    1.07120E+03
 5.53484E+01    1.06895E+03
 5.60000E+01    1.06478E+03
 5.70000E+01    1.05842E+03
 5.71259E+01    1.05763E+03
 5.80000E+01    1.05214E+03
 5.90000E+01    1.04590E+03
 5.98575E+01    1.04058E+03
 6.00000E+01    1.03970E+03
 6.07796E+01    1.03491E+03
 6.10000E+01    1.03357E+03
 6.13201E+01    1.03162E+03
 6.20000E+01    1.02752E+03
 6.30000E+01    1.02155E+03
 6.40000E+01    1.01565E+03
 6.41470E+01    1.01479E+03
 6.50000E+01    1.00980E+03
 6.52945E+01    1.00809E+03
 6.60000E+01    1.00403E+03
 6.70000E+01    9.98352E+02
 6.79805E+01    9.92865E+02
 6.80000E+01    9.92757E+02
 6.90000E+01    9.87233E+02
 6.92526E+01    9.85848E+02
 7.00000E+01    9.81770E+02
 7.10000E+01    9.76384E+02
 7.20000E+01    9.71091E+02
 7.30000E+01    9.65880E+02
 7.40000E+01    9.60743E+02
 7.50000E+01    9.55670E+02
 7.60000E+01    9.50672E+02
 7.60458E+01    9.50445E+02
 7.70000E+01    9.45763E+02
 7.80000E+01    9.40938E+02
 7.90000E+01    9.36195E+02
 8.00000E+01    9.31530E+02
 8.10000E+01    9.26941E+02
 8.20000E+01    9.22428E+02
 8.30000E+01    9.17990E+02
 8.40000E+01    9.13628E+02
 8.50000E+01    9.09340E+02
 8.60000E+01    9.05128E+02
 8.70000E+01    9.00992E+02
 8.80000E+01    8.96929E+02
 8.90000E+01    8.92936E+02
 9.00000E+01    8.89010E+02
 9.10000E+01    8.85160E+02
 9.20000E+01    8.81391E+02
 9.30000E+01    8.77694E+02
 9.40000E+01    8.74059E+02
 9.50000E+01    8.70480E+02
 9.60000E+01    8.66963E+02
 9.70000E+01    8.63517E+02
 9.80000E+01    8.60135E+02
 9.90000E+01    8.56815E+02
 1.00000E+02    8.53550E+02
 1.02000E+02    8.47223E+02
 1.04000E+02    8.41168E+02
 1.06000E+02    8.35353E+02
 1.08000E+02    8.29746E+02
 1.10000E+02    8.24320E+02
 1.12000E+02    8.19101E+02
 1.14000E+02    8.14116E+02
 1.16000E+02    8.09340E+02
 1.18000E+02    8.04751E+02
 1.20000E+02    8.00330E+02
 1.22000E+02    7.96091E+02
 1.24000E+02    7.92048E+02
 1.26000E+02    7.88182E+02
 1.28000E+02    7.84478E+02
 1.30000E+02    7.80920E+02
 1.32000E+02    7.77514E+02
 1.34000E+02    7.74267E+02
 1.36000E+02    7.71170E+02
 1.38000E+02    7.68214E+02
 1.40000E+02    7.65390E+02
 1.42000E+02    7.62701E+02
 1.44000E+02    7.60148E+02
 1.46000E+02    7.57724E+02
 1.48000E+02    7.55420E+02
 1.50000E+02    7.53230E+02
