# n + Cu 63 : (n,el)    
# endfb8.0   A.Koning,M.Chadwick,Hetrick       EVAL-FEB98
# uncertainties: n
# # energies =   171
#   E(MeV)       xs(mb) 
 1.00000E-11    1.03686E+04
 1.00000E-07    5.10647E+03
 4.13990E-07    5.10068E+03
 5.31580E-07    5.09885E+03
 6.82560E-07    5.09709E+03
 8.76420E-07    5.09482E+03
 1.12540E-06    5.09191E+03
 1.44500E-06    5.08817E+03
 1.85540E-06    5.08350E+03
 2.37240E-06    5.07826E+03
 3.05900E-06    5.07168E+03
 3.92790E-06    5.06329E+03
 5.04350E-06    5.05251E+03
 6.47600E-06    5.03868E+03
 8.31530E-06    5.02092E+03
 1.06770E-05    4.99810E+03
 1.37100E-05    4.96882E+03
 1.76030E-05    4.93121E+03
 2.26030E-05    4.88318E+03
 2.92030E-05    4.83037E+03
 3.72670E-05    4.76536E+03
 4.78510E-05    4.68345E+03
 6.14420E-05    4.59242E+03
 7.88930E-05    4.48275E+03
 1.01300E-04    4.36076E+03
 1.30070E-04    4.22443E+03
 1.67020E-04    4.07314E+03
 2.14450E-04    3.90556E+03
 2.75360E-04    3.71026E+03
 3.53580E-04    3.44747E+03
 4.54000E-04    1.38515E+04
 5.82950E-04    5.07834E+03
 7.48520E-04    3.41489E+03
 9.61120E-04    3.04439E+03
 1.23410E-03    2.57027E+03
 1.58460E-03    1.28050E+04
 2.03470E-03    9.92639E+04
 2.24870E-03    7.57995E+03
 2.48520E-03    4.44293E+03
 2.61260E-03    3.00256E+04
 2.74650E-03    5.10322E+03
 3.03540E-03    4.11170E+03
 3.35460E-03    3.57766E+03
 3.70740E-03    2.87282E+03
 4.30740E-03    1.94402E+04
 5.53080E-03    7.05600E+03
 7.10170E-03    1.58657E+04
 9.11880E-03    1.99885E+04
 1.17090E-02    1.08189E+04
 1.50340E-02    8.47745E+03
 1.93050E-02    1.03377E+04
 2.18750E-02    1.11496E+04
 2.35790E-02    5.38404E+03
 2.41760E-02    2.20632E+03
 2.47880E-02    1.92046E+04
 2.60580E-02    1.33107E+04
 2.70000E-02    5.43387E+03
 2.85000E-02    1.05775E+04
 3.18280E-02    1.22960E+04
 3.43070E-02    7.26343E+03
 4.08680E-02    8.62037E+03
 4.63090E-02    4.14548E+03
 5.24750E-02    1.35658E+04
 5.65620E-02    7.40015E+03
 6.73790E-02    4.85869E+03
 7.20000E-02    8.98665E+03
 7.95000E-02    9.67382E+03
 8.25000E-02    7.26173E+03
 8.65170E-02    6.62566E+03
 9.80370E-02    6.36511E+03
 1.11090E-01    5.12032E+03
 1.16790E-01    4.63284E+03
 1.22770E-01    6.14216E+03
 1.29070E-01    5.02352E+03
 1.35690E-01    8.84646E+03
 1.42640E-01    5.71569E+03
 1.49960E-01    5.63933E+03
 1.57640E-01    5.35009E+03
 1.65730E-01    6.27310E+03
 1.74220E-01    5.22519E+03
 1.83160E-01    4.77794E+03
 1.92550E-01    6.43706E+03
 2.02420E-01    5.81714E+03
 2.12800E-01    5.74486E+03
 2.23710E-01    5.45631E+03
 2.35180E-01    4.89122E+03
 2.47240E-01    5.40700E+03
 2.73240E-01    4.81099E+03
 2.87250E-01    5.85916E+03
 2.94520E-01    5.01263E+03
 2.97200E-01    6.56760E+03
 2.98500E-01    4.89418E+03
 3.01970E-01    4.95876E+03
 3.33730E-01    4.78418E+03
 3.68830E-01    4.41247E+03
 3.87740E-01    4.22171E+03
 4.07620E-01    4.39555E+03
 4.50490E-01    4.84872E+03
 4.97870E-01    4.32613E+03
 5.23400E-01    4.36731E+03
 5.50230E-01    4.01365E+03
 5.78440E-01    4.22392E+03
 6.08100E-01    4.10465E+03
 6.39280E-01    3.84742E+03
 6.72060E-01    3.71191E+03
 7.06510E-01    3.62799E+03
 7.42740E-01    3.52600E+03
 7.80820E-01    3.61124E+03
 8.20850E-01    3.48361E+03
 8.62940E-01    3.53621E+03
 9.07180E-01    3.38838E+03
 9.61640E-01    3.22322E+03
 1.00260E+00    3.11947E+03
 1.10800E+00    2.63968E+03
 1.16480E+00    2.57139E+03
 1.22460E+00    2.56302E+03
 1.28730E+00    2.43829E+03
 1.35340E+00    2.34984E+03
 1.42270E+00    2.19410E+03
 1.49570E+00    2.14466E+03
 1.57240E+00    1.96286E+03
 1.65300E+00    1.90413E+03
 1.73770E+00    1.92872E+03
 1.82680E+00    1.87019E+03
 1.92050E+00    1.87761E+03
 2.01900E+00    1.81725E+03
 2.12250E+00    1.75768E+03
 2.23130E+00    1.73342E+03
 2.30690E+00    1.72938E+03
 2.34570E+00    1.73385E+03
 2.36530E+00    1.73288E+03
 2.38520E+00    1.71298E+03
 2.46600E+00    1.69990E+03
 2.59240E+00    1.66351E+03
 2.72530E+00    1.66313E+03
 2.86500E+00    1.66302E+03
 3.01190E+00    1.67318E+03
 3.16640E+00    1.69215E+03
 3.32870E+00    1.72448E+03
 3.67880E+00    1.81504E+03
 4.06570E+00    1.90135E+03
 4.49330E+00    1.94581E+03
 4.72370E+00    1.98143E+03
 4.96590E+00    2.01084E+03
 5.22050E+00    2.03021E+03
 5.48810E+00    2.04357E+03
 5.76950E+00    2.04792E+03
 6.06530E+00    2.04960E+03
 6.37630E+00    2.04590E+03
 6.59240E+00    2.03747E+03
 6.70320E+00    2.02381E+03
 7.04690E+00    2.00204E+03
 7.40820E+00    1.97531E+03
 7.78800E+00    1.94109E+03
 8.18730E+00    1.91246E+03
 8.60710E+00    1.87842E+03
 9.04840E+00    1.82902E+03
 9.51230E+00    1.79641E+03
 1.00000E+01    1.74483E+03
 1.05130E+01    1.68328E+03
 1.10520E+01    1.63124E+03
 1.16180E+01    1.56145E+03
 1.22140E+01    1.52210E+03
 1.28400E+01    1.49016E+03
 1.34990E+01    1.43811E+03
 1.38400E+01    1.39983E+03
 1.41910E+01    1.37554E+03
 1.45500E+01    1.34503E+03
 1.49180E+01    1.27658E+03
 1.56830E+01    1.18179E+03
 1.64870E+01    1.10548E+03
