# n + Nd150 : (n,n'10)  
# jeff3.3    A.J. Koning and D. Rochman        EVAL-DEC15
# uncertainties: n
# # energies =    85
#   E(MeV)       xs(mb) 
 1.14135E+00    0.00000E+00
 1.14550E+00    2.19745E-05
 1.19022E+00    2.58775E-04
 1.20000E+00    3.10562E-04
 1.20863E+00    5.00818E-04
 1.25841E+00    1.59827E-03
 1.27351E+00    1.93117E-03
 1.29232E+00    2.34586E-03
 1.31630E+00    2.87452E-03
 1.32687E+00    3.10755E-03
 1.36160E+00    3.87321E-03
 1.40000E+00    4.71978E-03
 1.43630E+00    7.56785E-03
 1.44244E+00    8.04959E-03
 1.44468E+00    8.22533E-03
 1.49356E+00    1.20604E-02
 1.49821E+00    1.24253E-02
 1.49992E+00    1.25594E-02
 1.50707E+00    1.31204E-02
 1.52761E+00    1.47319E-02
 1.52872E+00    1.48190E-02
 1.55127E+00    1.65883E-02
 1.55557E+00    1.69257E-02
 1.60000E+00    2.04116E-02
 1.80000E+00    5.85550E-02
 2.00000E+00    1.31495E-01
 2.20000E+00    2.43831E-01
 2.40000E+00    3.89391E-01
 2.60000E+00    5.49754E-01
 2.80000E+00    6.98900E-01
 3.00000E+00    8.13485E-01
 3.20000E+00    8.80714E-01
 3.40000E+00    9.07535E-01
 3.60000E+00    8.92596E-01
 3.80000E+00    8.48247E-01
 4.00000E+00    7.90097E-01
 4.20000E+00    7.35979E-01
 4.40000E+00    6.70154E-01
 4.60000E+00    6.11601E-01
 4.80000E+00    5.61706E-01
 5.00000E+00    5.20992E-01
 5.20000E+00    4.89131E-01
 5.40000E+00    4.65494E-01
 5.60000E+00    4.49302E-01
 5.80000E+00    4.39786E-01
 6.00000E+00    4.36286E-01
 6.20000E+00    4.38178E-01
 6.40000E+00    4.44924E-01
 6.60000E+00    4.55880E-01
 6.80000E+00    4.70366E-01
 7.00000E+00    4.87763E-01
 7.20000E+00    5.07300E-01
 7.40000E+00    5.28242E-01
 7.60000E+00    5.49844E-01
 7.80000E+00    5.71354E-01
 8.00000E+00    5.92124E-01
 8.50000E+00    6.37294E-01
 9.00000E+00    6.68835E-01
 9.50000E+00    6.85676E-01
 1.00000E+01    6.90028E-01
 1.05000E+01    6.85488E-01
 1.10000E+01    6.75655E-01
 1.15000E+01    6.63415E-01
 1.20000E+01    6.50725E-01
 1.25000E+01    6.38654E-01
 1.30000E+01    6.27566E-01
 1.35000E+01    6.17342E-01
 1.40000E+01    6.07646E-01
 1.45000E+01    5.98127E-01
 1.50000E+01    5.88552E-01
 1.60000E+01    5.68885E-01
 1.70000E+01    5.48615E-01
 1.80000E+01    5.28294E-01
 1.90000E+01    5.09205E-01
 2.00000E+01    4.92766E-01
 2.10000E+01    4.79631E-01
 2.20000E+01    4.69599E-01
 2.30000E+01    4.61957E-01
 2.40000E+01    4.55603E-01
 2.50000E+01    4.49124E-01
 2.60000E+01    4.41209E-01
 2.70000E+01    4.31282E-01
 2.80000E+01    4.19744E-01
 2.90000E+01    4.07577E-01
 3.00000E+01    3.95773E-01
