# n + Hf178 : (n,tot)   
# endfb8.0   R.Q. Wright, T. Kawano            EVAL-OCT16
# uncertainties: n
# # energies =   171
#   E(MeV)       xs(mb) 
 1.00000E-11    9.12877E+05
 1.00000E-07    3.76788E+04
 4.13990E-07    2.73646E+04
 5.31580E-07    2.52118E+04
 6.82560E-07    2.33453E+04
 8.76420E-07    2.17455E+04
 1.12540E-06    2.04184E+04
 1.44500E-06    1.93983E+04
 1.85540E-06    1.88138E+04
 2.37240E-06    1.90377E+04
 3.05900E-06    2.13004E+04
 3.92790E-06    3.07980E+04
 5.04350E-06    9.18530E+04
 6.47600E-06    1.40146E+07
 8.31530E-06    4.48203E+05
 1.06770E-05    7.51718E+04
 1.37100E-05    4.05100E+04
 1.76030E-05    2.86051E+04
 2.26030E-05    2.24741E+04
 2.92030E-05    1.86454E+04
 3.72670E-05    1.59186E+04
 4.78510E-05    1.37515E+04
 6.14420E-05    1.19520E+04
 7.88930E-05    1.02649E+04
 1.01300E-04    2.01410E+04
 1.30070E-04    1.59518E+04
 1.67020E-04    6.88468E+03
 2.14450E-04    1.01602E+05
 2.75360E-04    1.90101E+04
 3.53580E-04    6.81269E+04
 4.54000E-04    3.73145E+04
 5.82950E-04    4.00509E+04
 7.48520E-04    4.87470E+04
 9.61120E-04    3.10016E+04
 1.23410E-03    3.46708E+04
 1.58460E-03    2.95797E+04
 2.03470E-03    2.85552E+04
 2.24870E-03    2.75814E+04
 2.48520E-03    2.68802E+04
 2.61260E-03    2.64277E+04
 2.74650E-03    2.57705E+04
 3.03540E-03    2.49299E+04
 3.35460E-03    2.41304E+04
 3.70740E-03    2.31798E+04
 4.30740E-03    2.17753E+04
 5.53080E-03    2.01897E+04
 7.10170E-03    1.87735E+04
 9.11880E-03    1.75056E+04
 1.17090E-02    1.63681E+04
 1.50340E-02    1.53378E+04
 1.93050E-02    1.46243E+04
 2.18750E-02    1.42659E+04
 2.35790E-02    1.40938E+04
 2.41760E-02    1.40052E+04
 2.47880E-02    1.38758E+04
 2.60580E-02    1.37333E+04
 2.70000E-02    1.35819E+04
 2.85000E-02    1.33145E+04
 3.18280E-02    1.30190E+04
 3.43070E-02    1.26347E+04
 4.08680E-02    1.21896E+04
 4.63090E-02    1.09667E+04
 5.24750E-02    9.38820E+03
 5.65620E-02    9.19129E+03
 6.73790E-02    9.01764E+03
 7.20000E-02    8.89065E+03
 7.95000E-02    8.78082E+03
 8.25000E-02    8.72629E+03
 8.65170E-02    8.61313E+03
 9.80370E-02    8.44335E+03
 1.11090E-01    8.33700E+03
 1.16790E-01    8.27315E+03
 1.22770E-01    8.21265E+03
 1.29070E-01    8.15882E+03
 1.35690E-01    8.10237E+03
 1.42640E-01    8.04300E+03
 1.49960E-01    7.98369E+03
 1.57640E-01    7.93562E+03
 1.65730E-01    7.88685E+03
 1.74220E-01    7.83558E+03
 1.83160E-01    7.78167E+03
 1.92550E-01    7.72502E+03
 2.02420E-01    7.67163E+03
 2.12800E-01    7.62761E+03
 2.23710E-01    7.58163E+03
 2.35180E-01    7.53330E+03
 2.47240E-01    7.46092E+03
 2.73240E-01    7.39730E+03
 2.87250E-01    7.36468E+03
 2.94520E-01    7.34945E+03
 2.97200E-01    7.34337E+03
 2.98500E-01    7.33610E+03
 3.01970E-01    7.28679E+03
 3.33730E-01    7.20564E+03
 3.68830E-01    7.14324E+03
 3.87740E-01    7.10733E+03
 4.07620E-01    7.05077E+03
 4.50490E-01    6.97685E+03
 4.97870E-01    6.92916E+03
 5.23400E-01    6.89658E+03
 5.50230E-01    6.86833E+03
 5.78440E-01    6.83958E+03
 6.08100E-01    6.81125E+03
 6.39280E-01    6.79036E+03
 6.72060E-01    6.76954E+03
 7.06510E-01    6.74903E+03
 7.42740E-01    6.73652E+03
 7.80820E-01    6.72500E+03
 8.20850E-01    6.71385E+03
 8.62940E-01    6.70736E+03
 9.07180E-01    6.70880E+03
 9.61640E-01    6.71392E+03
 1.00260E+00    6.72167E+03
 1.10800E+00    6.73466E+03
 1.16480E+00    6.74962E+03
 1.22460E+00    6.76533E+03
 1.28730E+00    6.78186E+03
 1.35340E+00    6.79923E+03
 1.42270E+00    6.81748E+03
 1.49570E+00    6.83669E+03
 1.57240E+00    6.85687E+03
 1.65300E+00    6.87746E+03
 1.73770E+00    6.88910E+03
 1.82680E+00    6.89782E+03
 1.92050E+00    6.90667E+03
 2.01900E+00    6.90461E+03
 2.12250E+00    6.89662E+03
 2.23130E+00    6.88966E+03
 2.30690E+00    6.88366E+03
 2.34570E+00    6.87722E+03
 2.36530E+00    6.87275E+03
 2.38520E+00    6.86142E+03
 2.46600E+00    6.83806E+03
 2.59240E+00    6.80808E+03
 2.72530E+00    6.76451E+03
 2.86500E+00    6.71423E+03
 3.01190E+00    6.66136E+03
 3.16640E+00    6.59982E+03
 3.32870E+00    6.49197E+03
 3.67880E+00    6.33561E+03
 4.06570E+00    6.16281E+03
 4.49330E+00    6.02199E+03
 4.72370E+00    5.92564E+03
 4.96590E+00    5.83139E+03
 5.22050E+00    5.73246E+03
 5.48810E+00    5.63182E+03
 5.76950E+00    5.53681E+03
 6.06530E+00    5.44251E+03
 6.37630E+00    5.36875E+03
 6.59240E+00    5.32641E+03
 6.70320E+00    5.27658E+03
 7.04690E+00    5.20669E+03
 7.40820E+00    5.14926E+03
 7.78800E+00    5.10579E+03
 8.18730E+00    5.07640E+03
 8.60710E+00    5.05923E+03
 9.04840E+00    5.06069E+03
 9.51230E+00    5.07118E+03
 1.00000E+01    5.09330E+03
 1.05130E+01    5.12602E+03
 1.10520E+01    5.16580E+03
 1.16180E+01    5.21028E+03
 1.22140E+01    5.25712E+03
 1.28400E+01    5.30408E+03
 1.34990E+01    5.33806E+03
 1.38400E+01    5.35964E+03
 1.41910E+01    5.37983E+03
 1.45500E+01    5.39836E+03
 1.49180E+01    5.42242E+03
 1.56830E+01    5.44581E+03
 1.64870E+01    5.45665E+03
