# n + Hf178 : (n,a)     
# endfb8.0   R.Q. Wright, T. Kawano            EVAL-OCT16
# uncertainties: n
# # energies =    79
#   E(MeV)       xs(mb) 
 5.00000E-02    0.00000E+00
 5.00000E-02    5.14700E-08
 6.00000E-02    5.11150E-08
 8.00000E-02    5.19090E-08
 1.00000E-01    4.19140E-08
 1.20000E-01    3.69450E-08
 1.50000E-01    3.42990E-08
 2.00000E-01    3.45570E-08
 2.50000E-01    3.75920E-08
 3.00000E-01    4.26690E-08
 3.50000E-01    4.75290E-08
 4.00000E-01    5.41390E-08
 4.50000E-01    6.27780E-08
 5.00000E-01    7.37330E-08
 6.00000E-01    1.04650E-07
 7.00000E-01    1.52510E-07
 8.00000E-01    2.26450E-07
 9.00000E-01    3.40110E-07
 1.00000E+00    5.13980E-07
 1.10000E+00    7.78410E-07
 1.20000E+00    1.13600E-06
 1.30000E+00    1.48064E-06
 1.40000E+00    1.71154E-06
 1.50000E+00    1.98929E-06
 1.60000E+00    2.27641E-06
 1.70000E+00    2.73968E-06
 1.80000E+00    3.39292E-06
 1.90000E+00    4.17653E-06
 2.00000E+00    5.23518E-06
 2.10000E+00    6.52762E-06
 2.20000E+00    8.15687E-06
 2.30000E+00    1.01598E-05
 2.40000E+00    1.26140E-05
 2.50000E+00    1.56146E-05
 2.60000E+00    1.92675E-05
 2.70000E+00    2.36881E-05
 2.80000E+00    2.90042E-05
 2.90000E+00    3.53558E-05
 3.00000E+00    4.28917E-05
 3.10000E+00    5.17789E-05
 3.20000E+00    6.21846E-05
 3.30000E+00    7.42804E-05
 3.40000E+00    8.82352E-05
 3.50000E+00    1.04207E-04
 3.60000E+00    1.22369E-04
 3.80000E+00    1.65617E-04
 4.00000E+00    2.18525E-04
 4.50000E+00    3.86727E-04
 5.00000E+00    6.04931E-04
 5.50000E+00    8.77582E-04
 6.00000E+00    1.17557E-03
 6.50000E+00    1.61123E-03
 7.00000E+00    2.20189E-03
 7.50000E+00    3.09015E-03
 8.00000E+00    4.62941E-03
 8.50000E+00    7.55498E-03
 9.00000E+00    1.33772E-02
 9.50000E+00    2.46409E-02
 1.00000E+01    4.54231E-02
 1.05000E+01    8.16698E-02
 1.10000E+01    1.41107E-01
 1.15000E+01    2.32403E-01
 1.20000E+01    3.63093E-01
 1.25000E+01    5.39421E-01
 1.30000E+01    7.65212E-01
 1.35000E+01    1.04071E+00
 1.40000E+01    1.36146E+00
 1.45000E+01    1.71791E+00
 1.50000E+01    2.09472E+00
 1.55000E+01    2.47055E+00
 1.60000E+01    2.82140E+00
 1.65000E+01    3.12590E+00
 1.70000E+01    3.37400E+00
 1.75000E+01    3.56317E+00
 1.80000E+01    3.69515E+00
 1.85000E+01    3.77628E+00
 1.90000E+01    3.81665E+00
 1.95000E+01    3.81723E+00
 2.00000E+01    3.78811E+00
