# n + Eu153 : (n,n'18)  
# jeff3.3    N.Iwamoto                         EVAL-Nov09
# uncertainties: n
# # energies =    76
#   E(MeV)       xs(mb) 
 5.56117E-01    0.00000E+00
 5.63431E-01    5.02489E+00
 5.73065E-01    7.19827E+00
 5.88879E-01    9.47124E+00
 5.93227E-01    9.96132E+00
 6.00000E-01    1.06575E+01
 6.21251E-01    1.25059E+01
 6.38806E-01    1.37405E+01
 6.40714E-01    1.38695E+01
 6.45819E-01    1.42079E+01
 6.59018E-01    1.50413E+01
 6.62018E-01    1.52118E+01
 6.86398E-01    1.65450E+01
 6.98764E-01    1.72008E+01
 7.00000E-01    1.72627E+01
 7.06016E-01    1.75806E+01
 7.11290E-01    1.78460E+01
 7.15790E-01    1.80638E+01
 7.17814E-01    1.80317E+01
 7.20897E-01    1.81029E+01
 7.23430E-01    1.81756E+01
 7.37352E-01    1.86683E+01
 7.40855E-01    1.87857E+01
 7.65406E-01    1.97119E+01
 7.68838E-01    1.98446E+01
 8.00000E-01    2.10040E+01
 9.00000E-01    2.36163E+01
 1.00000E+00    2.48864E+01
 1.10000E+00    2.52328E+01
 1.20000E+00    2.51459E+01
 1.30000E+00    2.41192E+01
 1.40000E+00    2.29961E+01
 1.50000E+00    2.18317E+01
 1.60000E+00    2.04764E+01
 1.70000E+00    1.89126E+01
 1.80000E+00    1.73479E+01
 1.90000E+00    1.58165E+01
 2.00000E+00    1.43493E+01
 2.25000E+00    1.13067E+01
 2.50000E+00    8.44585E+00
 2.75000E+00    6.40638E+00
 3.00000E+00    4.71608E+00
 3.50000E+00    2.54159E+00
 4.00000E+00    1.32124E+00
 4.50000E+00    6.79624E-01
 5.00000E+00    3.57229E-01
 5.50000E+00    1.98431E-01
 6.00000E+00    1.20246E-01
 6.50000E+00    8.09834E-02
 7.00000E+00    6.05361E-02
 7.50000E+00    4.92769E-02
 8.00000E+00    4.25024E-02
 8.50000E+00    3.79582E-02
 9.00000E+00    3.45953E-02
 9.50000E+00    3.19411E-02
 1.00000E+01    2.97564E-02
 1.05000E+01    2.79172E-02
 1.10000E+01    2.63407E-02
 1.15000E+01    2.49604E-02
 1.20000E+01    2.37249E-02
 1.25000E+01    2.25928E-02
 1.30000E+01    2.15336E-02
 1.35000E+01    2.05314E-02
 1.40000E+01    1.95789E-02
 1.45000E+01    1.86753E-02
 1.50000E+01    1.78223E-02
 1.55000E+01    1.70225E-02
 1.60000E+01    1.62757E-02
 1.65000E+01    1.55913E-02
 1.70000E+01    1.49485E-02
 1.75000E+01    1.43509E-02
 1.80000E+01    1.37916E-02
 1.85000E+01    1.32623E-02
 1.90000E+01    1.27624E-02
 1.95000E+01    1.22799E-02
 2.00000E+01    1.18111E-02
