# n + Eu153 : (n,n'17)  
# jeff3.3    N.Iwamoto                         EVAL-Nov09
# uncertainties: n
# # energies =    77
#   E(MeV)       xs(mb) 
 5.41489E-01    0.00000E+00
 5.56117E-01    7.24750E+00
 5.63431E-01    8.37991E+00
 5.73065E-01    9.67010E+00
 5.88879E-01    1.13817E+01
 5.93227E-01    1.17655E+01
 6.00000E-01    1.23563E+01
 6.21251E-01    1.39428E+01
 6.38806E-01    1.51104E+01
 6.40714E-01    1.52346E+01
 6.45819E-01    1.55306E+01
 6.59018E-01    1.62671E+01
 6.62018E-01    1.64336E+01
 6.86398E-01    1.77471E+01
 6.98764E-01    1.84014E+01
 7.00000E-01    1.84624E+01
 7.06016E-01    1.87336E+01
 7.11290E-01    1.89552E+01
 7.15790E-01    1.91452E+01
 7.17814E-01    1.91078E+01
 7.20897E-01    1.91758E+01
 7.23430E-01    1.92467E+01
 7.37352E-01    1.97358E+01
 7.40855E-01    1.98503E+01
 7.65406E-01    2.07766E+01
 7.68838E-01    2.09101E+01
 8.00000E-01    2.20136E+01
 9.00000E-01    2.45722E+01
 1.00000E+00    2.56827E+01
 1.10000E+00    2.59769E+01
 1.20000E+00    2.57054E+01
 1.30000E+00    2.46167E+01
 1.40000E+00    2.34395E+01
 1.50000E+00    2.22279E+01
 1.60000E+00    2.07727E+01
 1.70000E+00    1.91554E+01
 1.80000E+00    1.75468E+01
 1.90000E+00    1.59797E+01
 2.00000E+00    1.44836E+01
 2.25000E+00    1.13918E+01
 2.50000E+00    8.49983E+00
 2.75000E+00    6.44216E+00
 3.00000E+00    4.90538E+00
 3.50000E+00    2.71368E+00
 4.00000E+00    1.47903E+00
 4.50000E+00    8.24237E-01
 5.00000E+00    4.90048E-01
 5.50000E+00    3.21080E-01
 6.00000E+00    2.34133E-01
 6.50000E+00    1.87071E-01
 7.00000E+00    1.59412E-01
 7.50000E+00    1.41343E-01
 8.00000E+00    1.28129E-01
 8.50000E+00    1.17580E-01
 9.00000E+00    1.08722E-01
 9.50000E+00    1.01151E-01
 1.00000E+01    9.46097E-02
 1.05000E+01    8.89513E-02
 1.10000E+01    8.40230E-02
 1.15000E+01    7.96689E-02
 1.20000E+01    7.57495E-02
 1.25000E+01    7.21460E-02
 1.30000E+01    6.87674E-02
 1.35000E+01    6.55671E-02
 1.40000E+01    6.25234E-02
 1.45000E+01    5.96356E-02
 1.50000E+01    5.69095E-02
 1.55000E+01    5.43572E-02
 1.60000E+01    5.19744E-02
 1.65000E+01    4.97752E-02
 1.70000E+01    4.77239E-02
 1.75000E+01    4.58172E-02
 1.80000E+01    4.40325E-02
 1.85000E+01    4.23437E-02
 1.90000E+01    4.07482E-02
 1.95000E+01    3.92082E-02
 2.00000E+01    3.77114E-02
