# n + Eu153 : (n,d)     
# jeff3.3    N.Iwamoto                         EVAL-Nov09
# uncertainties: n
# # energies =    71
#   E(MeV)       xs(mb) 
 3.69331E+00    0.00000E+00
 3.81589E+00    2.99860E-19
 4.06220E+00    9.76440E-19
 4.38252E+00    4.87500E-17
 4.40485E+00    5.20810E-17
 4.50911E+00    6.76320E-17
 4.66302E+00    1.17960E-16
 4.72302E+00    1.37760E-16
 4.74128E+00    1.43810E-16
 4.78330E+00    1.57750E-16
 4.78635E+00    1.58760E-16
 4.82608E+00    1.71960E-16
 4.92284E+00    2.04110E-16
 4.92739E+00    2.05630E-16
 4.93530E+00    2.08260E-16
 4.99176E+00    2.27020E-16
 4.99459E+00    2.27960E-16
 5.00000E+00    2.30650E-16
 5.01245E+00    2.48570E-15
 5.07410E+00    1.36680E-14
 5.20885E+00    3.81310E-14
 5.21406E+00    3.90770E-14
 5.23319E+00    4.25500E-14
 5.26318E+00    4.79950E-14
 5.28316E+00    5.16220E-14
 5.31315E+00    5.70670E-14
 5.31673E+00    5.77170E-14
 5.35408E+00    6.44980E-14
 5.36305E+00    6.61260E-14
 5.37069E+00    6.75130E-14
 5.38496E+00    7.01040E-14
 5.38649E+00    7.03820E-14
 5.43291E+00    7.88100E-14
 5.43496E+00    7.91820E-14
 5.44076E+00    8.02350E-14
 5.46193E+00    8.40780E-14
 5.46914E+00    8.53870E-14
 5.47408E+00    8.62840E-14
 5.48126E+00    8.75880E-14
 5.50000E+00    9.09900E-14
 5.50919E+00    9.51010E-13
 5.52651E+00    2.57190E-12
 6.00000E+00    4.68830E-11
 6.50000E+00    2.93360E-09
 7.00000E+00    5.10330E-08
 7.50000E+00    4.05700E-07
 8.00000E+00    2.07247E-06
 8.50000E+00    1.22459E-05
 9.00000E+00    8.42704E-05
 9.50000E+00    4.95691E-04
 1.00000E+01    2.26668E-03
 1.05000E+01    8.21556E-03
 1.10000E+01    2.44569E-02
 1.15000E+01    5.88344E-02
 1.20000E+01    1.28422E-01
 1.25000E+01    2.47837E-01
 1.30000E+01    4.30295E-01
 1.35000E+01    6.83322E-01
 1.40000E+01    1.00787E+00
 1.45000E+01    1.39962E+00
 1.50000E+01    1.85122E+00
 1.55000E+01    2.39530E+00
 1.60000E+01    2.93536E+00
 1.65000E+01    3.45683E+00
 1.70000E+01    4.02064E+00
 1.75000E+01    4.71958E+00
 1.80000E+01    5.36412E+00
 1.85000E+01    6.03335E+00
 1.90000E+01    6.59854E+00
 1.95000E+01    7.15442E+00
 2.00000E+01    7.81487E+00
