# n + Eu153 : (n,n'14)  
# jeff3.3    N.Iwamoto                         EVAL-Nov09
# uncertainties: n
# # energies =    81
#   E(MeV)       xs(mb) 
 4.51094E-01    0.00000E+00
 4.81079E-01    5.22594E+01
 4.84224E-01    5.44272E+01
 5.00000E-01    6.36685E+01
 5.41489E-01    8.06683E+01
 5.56117E-01    8.51138E+01
 5.63431E-01    8.70014E+01
 5.73065E-01    8.93509E+01
 5.88879E-01    9.11777E+01
 5.93227E-01    9.17630E+01
 6.00000E-01    9.28275E+01
 6.21251E-01    9.56910E+01
 6.38806E-01    9.66096E+01
 6.40714E-01    9.67804E+01
 6.45819E-01    9.70657E+01
 6.59018E-01    9.72970E+01
 6.62018E-01    9.74822E+01
 6.86398E-01    9.81214E+01
 6.98764E-01    9.82121E+01
 7.00000E-01    9.80107E+01
 7.06016E-01    9.78336E+01
 7.11290E-01    9.70862E+01
 7.15790E-01    9.64448E+01
 7.17814E-01    9.61165E+01
 7.20897E-01    9.57670E+01
 7.23430E-01    9.55692E+01
 7.37352E-01    9.47848E+01
 7.40855E-01    9.42010E+01
 7.65406E-01    9.23902E+01
 7.68838E-01    9.21819E+01
 8.00000E-01    9.03130E+01
 9.00000E-01    8.59656E+01
 1.00000E+00    7.95156E+01
 1.10000E+00    7.32752E+01
 1.20000E+00    6.59670E+01
 1.30000E+00    5.94111E+01
 1.40000E+00    5.35939E+01
 1.50000E+00    4.80136E+01
 1.60000E+00    4.25395E+01
 1.70000E+00    3.75301E+01
 1.80000E+00    3.30216E+01
 1.90000E+00    2.89787E+01
 2.00000E+00    2.53795E+01
 2.25000E+00    1.85165E+01
 2.50000E+00    1.29500E+01
 2.75000E+00    9.32430E+00
 3.00000E+00    6.57068E+00
 3.50000E+00    3.33395E+00
 4.00000E+00    1.66869E+00
 4.50000E+00    8.37538E-01
 5.00000E+00    4.34119E-01
 5.50000E+00    2.40403E-01
 6.00000E+00    1.46955E-01
 6.50000E+00    1.00760E-01
 7.00000E+00    7.68591E-02
 7.50000E+00    6.36206E-02
 8.00000E+00    5.54950E-02
 8.50000E+00    4.98892E-02
 9.00000E+00    4.56361E-02
 9.50000E+00    4.22197E-02
 1.00000E+01    3.93755E-02
 1.05000E+01    3.69664E-02
 1.10000E+01    3.48875E-02
 1.15000E+01    3.30618E-02
 1.20000E+01    3.14224E-02
 1.25000E+01    2.99165E-02
 1.30000E+01    2.85052E-02
 1.35000E+01    2.71691E-02
 1.40000E+01    2.58996E-02
 1.45000E+01    2.46964E-02
 1.50000E+01    2.35619E-02
 1.55000E+01    2.24996E-02
 1.60000E+01    2.15087E-02
 1.65000E+01    2.06011E-02
 1.70000E+01    1.97521E-02
 1.75000E+01    1.89596E-02
 1.80000E+01    1.82176E-02
 1.85000E+01    1.75150E-02
 1.90000E+01    1.68506E-02
 1.95000E+01    1.62091E-02
 2.00000E+01    1.55857E-02
