# n + Eu153 : (n,n'10)  
# jeff3.3    N.Iwamoto                         EVAL-Nov09
# uncertainties: n
# # energies =    86
#   E(MeV)       xs(mb) 
 3.27210E-01    0.00000E+00
 3.99018E-01    2.33163E+01
 4.00000E-01    2.30641E+01
 4.05949E-01    2.34225E+01
 4.45542E-01    2.71352E+01
 4.51094E-01    2.76579E+01
 4.81079E-01    3.03895E+01
 4.84224E-01    3.06416E+01
 5.00000E-01    3.18568E+01
 5.41489E-01    3.50538E+01
 5.56117E-01    3.53570E+01
 5.63431E-01    3.52490E+01
 5.73065E-01    3.55548E+01
 5.88879E-01    3.60530E+01
 5.93227E-01    3.60549E+01
 6.00000E-01    3.62399E+01
 6.21251E-01    3.70122E+01
 6.38806E-01    3.77508E+01
 6.40714E-01    3.78550E+01
 6.45819E-01    3.81293E+01
 6.59018E-01    3.88018E+01
 6.62018E-01    3.89693E+01
 6.86398E-01    4.02842E+01
 6.98764E-01    4.09916E+01
 7.00000E-01    4.10377E+01
 7.06016E-01    4.13695E+01
 7.11290E-01    4.15638E+01
 7.15790E-01    4.17498E+01
 7.17814E-01    4.16385E+01
 7.20897E-01    4.16846E+01
 7.23430E-01    4.17507E+01
 7.37352E-01    4.21532E+01
 7.40855E-01    4.21814E+01
 7.65406E-01    4.29379E+01
 7.68838E-01    4.30584E+01
 8.00000E-01    4.40001E+01
 9.00000E-01    4.69415E+01
 1.00000E+00    4.80541E+01
 1.10000E+00    4.82654E+01
 1.20000E+00    4.83454E+01
 1.30000E+00    4.83913E+01
 1.40000E+00    4.80351E+01
 1.50000E+00    4.75263E+01
 1.60000E+00    4.70150E+01
 1.70000E+00    4.65549E+01
 1.80000E+00    4.61717E+01
 1.90000E+00    4.58567E+01
 2.00000E+00    4.56042E+01
 2.25000E+00    4.54201E+01
 2.50000E+00    4.49602E+01
 2.75000E+00    4.48593E+01
 3.00000E+00    4.48378E+01
 3.50000E+00    4.49780E+01
 4.00000E+00    4.48978E+01
 4.50000E+00    4.44399E+01
 5.00000E+00    4.39168E+01
 5.50000E+00    4.34790E+01
 6.00000E+00    4.31181E+01
 6.50000E+00    4.27382E+01
 7.00000E+00    4.22569E+01
 7.50000E+00    4.16057E+01
 8.00000E+00    4.07786E+01
 8.50000E+00    3.97781E+01
 9.00000E+00    3.86617E+01
 9.50000E+00    3.74828E+01
 1.00000E+01    3.63038E+01
 1.05000E+01    3.51745E+01
 1.10000E+01    3.41303E+01
 1.15000E+01    3.31908E+01
 1.20000E+01    3.23593E+01
 1.25000E+01    3.16246E+01
 1.30000E+01    3.09647E+01
 1.35000E+01    3.03547E+01
 1.40000E+01    2.97736E+01
 1.45000E+01    2.92075E+01
 1.50000E+01    2.86503E+01
 1.55000E+01    2.81002E+01
 1.60000E+01    2.75576E+01
 1.65000E+01    2.70204E+01
 1.70000E+01    2.64826E+01
 1.75000E+01    2.59356E+01
 1.80000E+01    2.53708E+01
 1.85000E+01    2.47831E+01
 1.90000E+01    2.41725E+01
 1.95000E+01    2.35439E+01
 2.00000E+01    2.29049E+01
