# n + Eu153 : (n,n'21)  
# jeff3.3    N.Iwamoto                         EVAL-Nov09
# uncertainties: n
# # energies =    73
#   E(MeV)       xs(mb) 
 5.88879E-01    0.00000E+00
 5.93227E-01    5.62661E+00
 6.00000E-01    8.74752E+00
 6.21251E-01    1.47477E+01
 6.38806E-01    1.84428E+01
 6.40714E-01    1.88177E+01
 6.45819E-01    1.97996E+01
 6.59018E-01    2.21001E+01
 6.62018E-01    2.25930E+01
 6.86398E-01    2.63357E+01
 6.98764E-01    2.79731E+01
 7.00000E-01    2.81039E+01
 7.06016E-01    2.88327E+01
 7.11290E-01    2.93529E+01
 7.15790E-01    2.98043E+01
 7.17814E-01    2.99371E+01
 7.20897E-01    3.02213E+01
 7.23430E-01    3.04659E+01
 7.37352E-01    3.18576E+01
 7.40855E-01    3.21053E+01
 7.65406E-01    3.39451E+01
 7.68838E-01    3.41817E+01
 8.00000E-01    3.60090E+01
 9.00000E-01    3.98010E+01
 1.00000E+00    4.04911E+01
 1.10000E+00    3.91060E+01
 1.20000E+00    3.73803E+01
 1.30000E+00    3.46863E+01
 1.40000E+00    3.19376E+01
 1.50000E+00    2.93891E+01
 1.60000E+00    2.69709E+01
 1.70000E+00    2.43997E+01
 1.80000E+00    2.19784E+01
 1.90000E+00    1.97182E+01
 2.00000E+00    1.76313E+01
 2.25000E+00    1.34617E+01
 2.50000E+00    9.78924E+00
 2.75000E+00    7.25889E+00
 3.00000E+00    5.23154E+00
 3.50000E+00    2.74274E+00
 4.00000E+00    1.40709E+00
 4.50000E+00    7.20804E-01
 5.00000E+00    3.77805E-01
 5.50000E+00    2.08170E-01
 6.00000E+00    1.24272E-01
 6.50000E+00    8.21015E-02
 7.00000E+00    6.02975E-02
 7.50000E+00    4.84742E-02
 8.00000E+00    4.15139E-02
 8.50000E+00    3.69422E-02
 9.00000E+00    3.36130E-02
 9.50000E+00    3.10108E-02
 1.00000E+01    2.88802E-02
 1.05000E+01    2.70918E-02
 1.10000E+01    2.55618E-02
 1.15000E+01    2.42229E-02
 1.20000E+01    2.30253E-02
 1.25000E+01    2.19288E-02
 1.30000E+01    2.09032E-02
 1.35000E+01    1.99331E-02
 1.40000E+01    1.90109E-02
 1.45000E+01    1.81357E-02
 1.50000E+01    1.73093E-02
 1.55000E+01    1.65317E-02
 1.60000E+01    1.58055E-02
 1.65000E+01    1.51398E-02
 1.70000E+01    1.45196E-02
 1.75000E+01    1.39432E-02
 1.80000E+01    1.33991E-02
 1.85000E+01    1.28843E-02
 1.90000E+01    1.23982E-02
 1.95000E+01    1.19293E-02
 2.00000E+01    1.14738E-02
