# n + Eu153 : (n,n'13)  
# jeff3.3    N.Iwamoto                         EVAL-Nov09
# uncertainties: n
# # energies =    82
#   E(MeV)       xs(mb) 
 4.45542E-01    0.00000E+00
 4.51094E-01    3.76679E+01
 4.81079E-01    7.87732E+01
 4.84224E-01    8.13361E+01
 5.00000E-01    9.18958E+01
 5.41489E-01    1.10695E+02
 5.56117E-01    1.15097E+02
 5.63431E-01    1.17022E+02
 5.73065E-01    1.19393E+02
 5.88879E-01    1.21719E+02
 5.93227E-01    1.22413E+02
 6.00000E-01    1.23545E+02
 6.21251E-01    1.26031E+02
 6.38806E-01    1.25418E+02
 6.40714E-01    1.25473E+02
 6.45819E-01    1.25139E+02
 6.59018E-01    1.23559E+02
 6.62018E-01    1.23512E+02
 6.86398E-01    1.21522E+02
 6.98764E-01    1.20508E+02
 7.00000E-01    1.19904E+02
 7.06016E-01    1.18908E+02
 7.11290E-01    1.17918E+02
 7.15790E-01    1.16557E+02
 7.17814E-01    1.16181E+02
 7.20897E-01    1.15267E+02
 7.23430E-01    1.14793E+02
 7.37352E-01    1.12225E+02
 7.40855E-01    1.11513E+02
 7.65406E-01    1.08013E+02
 7.68838E-01    1.07424E+02
 8.00000E-01    1.04041E+02
 9.00000E-01    9.53515E+01
 1.00000E+00    8.58063E+01
 1.10000E+00    7.74116E+01
 1.20000E+00    6.87040E+01
 1.30000E+00    6.11585E+01
 1.40000E+00    5.46613E+01
 1.50000E+00    4.85448E+01
 1.60000E+00    4.26995E+01
 1.70000E+00    3.74243E+01
 1.80000E+00    3.27333E+01
 1.90000E+00    2.85668E+01
 2.00000E+00    2.48874E+01
 2.25000E+00    1.79384E+01
 2.50000E+00    1.23990E+01
 2.75000E+00    8.84023E+00
 3.00000E+00    6.20746E+00
 3.50000E+00    3.12671E+00
 4.00000E+00    1.56780E+00
 4.50000E+00    7.96018E-01
 5.00000E+00    4.22657E-01
 5.50000E+00    2.43424E-01
 6.00000E+00    1.56655E-01
 6.50000E+00    1.13267E-01
 7.00000E+00    9.02452E-02
 7.50000E+00    7.69242E-02
 8.00000E+00    6.82692E-02
 8.50000E+00    6.19631E-02
 9.00000E+00    5.69679E-02
 9.50000E+00    5.28412E-02
 1.00000E+01    4.93494E-02
 1.05000E+01    4.63643E-02
 1.10000E+01    4.37739E-02
 1.15000E+01    4.14916E-02
 1.20000E+01    3.94383E-02
 1.25000E+01    3.75499E-02
 1.30000E+01    3.57789E-02
 1.35000E+01    3.41017E-02
 1.40000E+01    3.25079E-02
 1.45000E+01    3.09972E-02
 1.50000E+01    2.95728E-02
 1.55000E+01    2.82399E-02
 1.60000E+01    2.69966E-02
 1.65000E+01    2.58577E-02
 1.70000E+01    2.47887E-02
 1.75000E+01    2.37944E-02
 1.80000E+01    2.28633E-02
 1.85000E+01    2.19816E-02
 1.90000E+01    2.11479E-02
 1.95000E+01    2.03428E-02
 2.00000E+01    1.95605E-02
