# n + Eu153 : (n,n'08)  
# jeff3.3    N.Iwamoto                         EVAL-Nov09
# uncertainties: n
# # energies =    90
#   E(MeV)       xs(mb) 
 2.71515E-01    0.00000E+00
 2.75000E-01    4.17489E+01
 3.00000E-01    9.62654E+01
 3.23982E-01    1.19716E+02
 3.27210E-01    1.22198E+02
 3.99018E-01    1.56200E+02
 4.00000E-01    1.56119E+02
 4.05949E-01    1.57600E+02
 4.45542E-01    1.65634E+02
 4.51094E-01    1.64421E+02
 4.81079E-01    1.61433E+02
 4.84224E-01    1.61531E+02
 5.00000E-01    1.62282E+02
 5.41489E-01    1.63918E+02
 5.56117E-01    1.63904E+02
 5.63431E-01    1.63902E+02
 5.73065E-01    1.63947E+02
 5.88879E-01    1.61575E+02
 5.93227E-01    1.61010E+02
 6.00000E-01    1.60539E+02
 6.21251E-01    1.59627E+02
 6.38806E-01    1.57552E+02
 6.40714E-01    1.57415E+02
 6.45819E-01    1.56844E+02
 6.59018E-01    1.54808E+02
 6.62018E-01    1.54582E+02
 6.86398E-01    1.50854E+02
 6.98764E-01    1.48604E+02
 7.00000E-01    1.48066E+02
 7.06016E-01    1.46913E+02
 7.11290E-01    1.45277E+02
 7.15790E-01    1.43813E+02
 7.17814E-01    1.43106E+02
 7.20897E-01    1.42156E+02
 7.23430E-01    1.41561E+02
 7.37352E-01    1.38709E+02
 7.40855E-01    1.37552E+02
 7.65406E-01    1.32602E+02
 7.68838E-01    1.31993E+02
 8.00000E-01    1.26844E+02
 9.00000E-01    1.15963E+02
 1.00000E+00    1.02294E+02
 1.10000E+00    9.06689E+01
 1.20000E+00    8.06842E+01
 1.30000E+00    7.16129E+01
 1.40000E+00    6.29025E+01
 1.50000E+00    5.51039E+01
 1.60000E+00    4.81100E+01
 1.70000E+00    4.19157E+01
 1.80000E+00    3.64892E+01
 1.90000E+00    3.17335E+01
 2.00000E+00    2.75804E+01
 2.25000E+00    1.98300E+01
 2.50000E+00    1.37465E+01
 2.75000E+00    9.83564E+00
 3.00000E+00    6.95472E+00
 3.50000E+00    3.52267E+00
 4.00000E+00    1.77067E+00
 4.50000E+00    9.03141E-01
 5.00000E+00    4.83916E-01
 5.50000E+00    2.82320E-01
 6.00000E+00    1.84058E-01
 6.50000E+00    1.34400E-01
 7.00000E+00    1.07672E-01
 7.50000E+00    9.19673E-02
 8.00000E+00    8.16299E-02
 8.50000E+00    7.40450E-02
 9.00000E+00    6.80328E-02
 9.50000E+00    6.30779E-02
 1.00000E+01    5.88943E-02
 1.05000E+01    5.53268E-02
 1.10000E+01    5.22249E-02
 1.15000E+01    4.94879E-02
 1.20000E+01    4.70203E-02
 1.25000E+01    4.47460E-02
 1.30000E+01    4.26110E-02
 1.35000E+01    4.05897E-02
 1.40000E+01    3.86714E-02
 1.45000E+01    3.68568E-02
 1.50000E+01    3.51495E-02
 1.55000E+01    3.35495E-02
 1.60000E+01    3.20592E-02
 1.65000E+01    3.06951E-02
 1.70000E+01    2.94252E-02
 1.75000E+01    2.82439E-02
 1.80000E+01    2.71364E-02
 1.85000E+01    2.60860E-02
 1.90000E+01    2.50914E-02
 1.95000E+01    2.41299E-02
 2.00000E+01    2.31953E-02
