# n + Eu153 : (n,n'22)  
# jeff3.3    N.Iwamoto                         EVAL-Nov09
# uncertainties: n
# # energies =    72
#   E(MeV)       xs(mb) 
 5.93227E-01    0.00000E+00
 6.00000E-01    4.12338E-03
 6.21251E-01    1.79989E-02
 6.38806E-01    3.41665E-02
 6.40714E-01    3.61683E-02
 6.45819E-01    4.17859E-02
 6.59018E-01    5.80370E-02
 6.62018E-01    6.08687E-02
 6.86398E-01    9.51691E-02
 6.98764E-01    1.15816E-01
 7.00000E-01    1.17952E-01
 7.06016E-01    1.28774E-01
 7.11290E-01    1.38747E-01
 7.15790E-01    1.47617E-01
 7.17814E-01    1.51671E-01
 7.20897E-01    1.58008E-01
 7.23430E-01    1.61337E-01
 7.37352E-01    1.89743E-01
 7.40855E-01    1.97614E-01
 7.65406E-01    2.57071E-01
 7.68838E-01    2.65966E-01
 8.00000E-01    3.55138E-01
 9.00000E-01    7.14028E-01
 1.00000E+00    1.14082E+00
 1.10000E+00    1.57077E+00
 1.20000E+00    2.01026E+00
 1.30000E+00    2.36943E+00
 1.40000E+00    2.66710E+00
 1.50000E+00    2.91944E+00
 1.60000E+00    3.12106E+00
 1.70000E+00    3.21843E+00
 1.80000E+00    3.25288E+00
 1.90000E+00    3.23306E+00
 2.00000E+00    3.16906E+00
 2.25000E+00    2.93471E+00
 2.50000E+00    2.49846E+00
 2.75000E+00    2.09884E+00
 3.00000E+00    1.77215E+00
 3.50000E+00    1.11392E+00
 4.00000E+00    6.66888E-01
 4.50000E+00    3.99647E-01
 5.00000E+00    2.49706E-01
 5.50000E+00    1.67242E-01
 6.00000E+00    1.21820E-01
 6.50000E+00    9.60183E-02
 7.00000E+00    8.05970E-02
 7.50000E+00    7.06320E-02
 8.00000E+00    6.35529E-02
 8.50000E+00    5.80652E-02
 9.00000E+00    5.35581E-02
 9.50000E+00    4.97592E-02
 1.00000E+01    4.65081E-02
 1.05000E+01    4.37102E-02
 1.10000E+01    4.12828E-02
 1.15000E+01    3.91413E-02
 1.20000E+01    3.72171E-02
 1.25000E+01    3.54506E-02
 1.30000E+01    3.37961E-02
 1.35000E+01    3.22297E-02
 1.40000E+01    3.07399E-02
 1.45000E+01    2.93258E-02
 1.50000E+01    2.79900E-02
 1.55000E+01    2.67326E-02
 1.60000E+01    2.55582E-02
 1.65000E+01    2.44815E-02
 1.70000E+01    2.34785E-02
 1.75000E+01    2.25463E-02
 1.80000E+01    2.16682E-02
 1.85000E+01    2.08356E-02
 1.90000E+01    2.00495E-02
 1.95000E+01    1.92911E-02
 2.00000E+01    1.85545E-02
