# n + Rb 85 : (n,tot)   
# jendl.ad   K.Shibata, A.Ichihara, S.Kunieda  EVAL-APR13
# uncertainties: n
# # energies =    69
#   E(MeV)       xs(mb) 
 1.00000E-10    3.35248E+03
 5.00000E-09    9.12832E+02
 1.00000E-08    6.91328E+02
 1.50000E-08    5.80858E+02
 2.00000E-08    5.11062E+02
 2.50000E-08    4.61755E+02
 3.00000E-08    4.24438E+02
 3.50000E-08    3.90192E+02
 4.20000E-08    3.56892E+02
 5.00000E-08    3.29246E+02
 5.80000E-08    3.06021E+02
 6.70000E-08    2.82384E+02
 8.00000E-08    2.55528E+02
 1.00000E-07    2.22363E+02
 1.40000E-07    1.91856E+02
 1.80000E-07    1.71316E+02
 2.20000E-07    1.57814E+02
 2.50000E-07    1.48572E+02
 2.80000E-07    1.41935E+02
 3.00000E-07    1.37271E+02
 3.20000E-07    1.32089E+02
 3.50000E-07    1.24937E+02
 4.00000E-07    1.14381E+02
 5.00000E-07    1.02324E+02
 6.25000E-07    9.15534E+01
 7.80000E-07    8.47762E+01
 8.50000E-07    8.16273E+01
 9.10000E-07    7.93609E+01
 9.50000E-07    7.80879E+01
 9.72000E-07    7.71519E+01
 9.96000E-07    7.62162E+01
 1.02000E-06    7.53392E+01
 1.04500E-06    7.44283E+01
 1.07100E-06    7.35010E+01
 1.09700E-06    7.26450E+01
 1.12300E-06    7.18116E+01
 1.15000E-06    6.92285E+01
 1.30000E-06    6.47918E+01
 1.50000E-06    5.75669E+01
 2.10000E-06    5.01859E+01
 2.60000E-06    4.48561E+01
 3.30000E-06    4.03266E+01
 4.00000E-06    3.10397E+01
 9.87700E-06    2.20467E+01
 1.59680E-05    1.73046E+01
 2.77000E-05    1.35298E+01
 4.80520E-05    1.10789E+01
 7.55014E-05    9.74051E+00
 1.48728E-04    7.75148E+02
 3.67262E-04    4.05917E+03
 9.06898E-04    3.24887E+03
 1.42510E-03    1.29916E+03
 2.23945E-03    1.35192E+03
 3.51910E-03    5.64558E+02
 5.53000E-03    5.50688E+02
 9.11800E-03    5.45832E+02
 1.50300E-02    4.08490E+02
 2.47800E-02    2.93606E+02
 4.08500E-02    2.09498E+02
 6.73400E-02    1.51023E+02
 1.11000E-01    1.13909E+02
 1.83000E-01    7.86540E+01
 3.02000E-01    6.04520E+01
 5.00000E-01    4.02620E+01
 8.21000E-01    2.48309E+01
 1.35300E+00    1.45904E+01
 2.23100E+00    1.02598E+01
 3.67900E+00    3.92092E+00
 6.06500E+00    7.32024E+00
