# n + Zn 67 : (n,el)    
# endfb8.0   N.Iwamoto                         EVAL-Dec09
# uncertainties: n
# # energies =   171
#   E(MeV)       xs(mb) 
 1.00000E-11    4.17194E+03
 1.00000E-07    2.09569E+03
 4.13990E-07    2.09221E+03
 5.31580E-07    2.09070E+03
 6.82560E-07    2.08900E+03
 8.76420E-07    2.08702E+03
 1.12540E-06    2.08447E+03
 1.44500E-06    2.08120E+03
 1.85540E-06    2.07705E+03
 2.37240E-06    2.07167E+03
 3.05900E-06    2.06470E+03
 3.92790E-06    2.05582E+03
 5.04350E-06    2.04441E+03
 6.47600E-06    2.02991E+03
 8.31530E-06    2.01213E+03
 1.06770E-05    1.98942E+03
 1.37100E-05    1.96026E+03
 1.76030E-05    1.92282E+03
 2.26030E-05    1.87404E+03
 2.92030E-05    1.81263E+03
 3.72670E-05    1.73707E+03
 4.78510E-05    1.63935E+03
 6.14420E-05    1.51387E+03
 7.88930E-05    1.34970E+03
 1.01300E-04    1.11984E+03
 1.30070E-04    7.56426E+02
 1.67020E-04    5.68249E+02
 2.14450E-04    1.05439E+05
 2.75360E-04    2.83822E+03
 3.53580E-04    2.37926E+05
 4.54000E-04    8.70838E+04
 5.82950E-04    1.40196E+04
 7.48520E-04    4.17077E+03
 9.61120E-04    2.87029E+03
 1.23410E-03    2.97457E+04
 1.58460E-03    3.43929E+03
 2.03470E-03    5.13041E+04
 2.24870E-03    3.89077E+04
 2.48520E-03    1.54975E+04
 2.61260E-03    2.48202E+04
 2.74650E-03    4.10318E+03
 3.03540E-03    2.46168E+03
 3.35460E-03    1.17652E+04
 3.70740E-03    3.89121E+04
 4.30740E-03    4.71035E+03
 5.53080E-03    2.03080E+04
 7.10170E-03    9.22565E+03
 9.11880E-03    3.94536E+03
 1.17090E-02    1.07563E+04
 1.50340E-02    1.80746E+04
 1.93050E-02    9.80457E+03
 2.18750E-02    8.78734E+03
 2.35790E-02    4.96942E+03
 2.41760E-02    3.53150E+03
 2.47880E-02    1.54113E+04
 2.60580E-02    6.50051E+03
 2.70000E-02    1.18230E+04
 2.85000E-02    1.02550E+04
 3.18280E-02    1.11057E+04
 3.43070E-02    6.21947E+03
 4.08680E-02    7.26972E+03
 4.63090E-02    7.55209E+03
 5.24750E-02    6.50948E+03
 5.65620E-02    6.41419E+03
 6.73790E-02    8.61113E+03
 7.20000E-02    1.04429E+04
 7.95000E-02    1.01955E+04
 8.25000E-02    1.00443E+04
 8.65170E-02    9.74220E+03
 9.80370E-02    9.31048E+03
 1.11090E-01    9.01579E+03
 1.16790E-01    8.85152E+03
 1.22770E-01    8.68986E+03
 1.29070E-01    8.52906E+03
 1.35690E-01    8.36820E+03
 1.42640E-01    8.20973E+03
 1.49960E-01    8.05395E+03
 1.57640E-01    7.90072E+03
 1.65730E-01    7.74998E+03
 1.74220E-01    7.60159E+03
 1.83160E-01    7.41530E+03
 1.92550E-01    7.17803E+03
 2.02420E-01    7.00485E+03
 2.12800E-01    6.84311E+03
 2.23710E-01    6.68770E+03
 2.35180E-01    6.53995E+03
 2.47240E-01    6.32410E+03
 2.73240E-01    6.11313E+03
 2.87250E-01    6.01213E+03
 2.94520E-01    5.96504E+03
 2.97200E-01    5.94625E+03
 2.98500E-01    5.92376E+03
 3.01970E-01    5.77239E+03
 3.33730E-01    5.50850E+03
 3.68830E-01    5.31670E+03
 3.87740E-01    5.18688E+03
 4.07620E-01    4.97439E+03
 4.50490E-01    4.70497E+03
 4.97870E-01    4.51288E+03
 5.23400E-01    4.39292E+03
 5.50230E-01    4.27374E+03
 5.78440E-01    4.15974E+03
 6.08100E-01    4.03366E+03
 6.39280E-01    3.88221E+03
 6.72060E-01    3.73593E+03
 7.06510E-01    3.60827E+03
 7.42740E-01    3.48791E+03
 7.80820E-01    3.37345E+03
 8.20850E-01    3.23710E+03
 8.62940E-01    3.05276E+03
 9.07180E-01    2.87794E+03
 9.61640E-01    2.73197E+03
 1.00260E+00    2.54513E+03
 1.10800E+00    2.38475E+03
 1.16480E+00    2.28721E+03
 1.22460E+00    2.20316E+03
 1.28730E+00    2.12217E+03
 1.35340E+00    2.03992E+03
 1.42270E+00    1.96103E+03
 1.49570E+00    1.89579E+03
 1.57240E+00    1.84797E+03
 1.65300E+00    1.80472E+03
 1.73770E+00    1.76522E+03
 1.82680E+00    1.72922E+03
 1.92050E+00    1.69722E+03
 2.01900E+00    1.68660E+03
 2.12250E+00    1.68694E+03
 2.23130E+00    1.68759E+03
 2.30690E+00    1.68938E+03
 2.34570E+00    1.69034E+03
 2.36530E+00    1.69098E+03
 2.38520E+00    1.69262E+03
 2.46600E+00    1.70203E+03
 2.59240E+00    1.72889E+03
 2.72530E+00    1.75803E+03
 2.86500E+00    1.78865E+03
 3.01190E+00    1.82487E+03
 3.16640E+00    1.86809E+03
 3.32870E+00    1.93648E+03
 3.67880E+00    2.03172E+03
 4.06570E+00    2.12500E+03
 4.49330E+00    2.19071E+03
 4.72370E+00    2.22829E+03
 4.96590E+00    2.26416E+03
 5.22050E+00    2.29245E+03
 5.48810E+00    2.31713E+03
 5.76950E+00    2.33404E+03
 6.06530E+00    2.34462E+03
 6.37630E+00    2.34870E+03
 6.59240E+00    2.34678E+03
 6.70320E+00    2.34223E+03
 7.04690E+00    2.33146E+03
 7.40820E+00    2.30620E+03
 7.78800E+00    2.27777E+03
 8.18730E+00    2.24063E+03
 8.60710E+00    2.19715E+03
 9.04840E+00    2.14732E+03
 9.51230E+00    2.09175E+03
 1.00000E+01    2.02956E+03
 1.05130E+01    1.96294E+03
 1.10520E+01    1.89247E+03
 1.16180E+01    1.81839E+03
 1.22140E+01    1.74301E+03
 1.28400E+01    1.66666E+03
 1.34990E+01    1.61055E+03
 1.38400E+01    1.57289E+03
 1.41910E+01    1.53766E+03
 1.45500E+01    1.50210E+03
 1.49180E+01    1.45125E+03
 1.56830E+01    1.38725E+03
 1.64870E+01    1.32879E+03
