# n + Zn 67 : (n,xh)    
# endfb8.0   N.Iwamoto                         EVAL-Dec09
# 
# # energies =    83
#   E(MeV)        xs(mb) 
 9.47183E-02    0.00000E+00
 1.00000E-01    0.00000E+00
 1.05000E-01    0.00000E+00
 1.10000E-01    0.00000E+00
 1.20000E-01    0.00000E+00
 1.30000E-01    0.00000E+00
 1.40000E-01    0.00000E+00
 1.50000E-01    0.00000E+00
 1.60000E-01    0.00000E+00
 1.70000E-01    0.00000E+00
 1.80000E-01    0.00000E+00
 1.87361E-01    0.00000E+00
 1.90000E-01    0.00000E+00
 2.00000E-01    0.00000E+00
 2.25000E-01    0.00000E+00
 2.50000E-01    0.00000E+00
 2.75000E-01    0.00000E+00
 3.00000E-01    0.00000E+00
 3.99462E-01    0.00000E+00
 4.00000E-01    0.00000E+00
 5.00000E-01    0.00000E+00
 6.00000E-01    0.00000E+00
 6.13600E-01    0.00000E+00
 7.00000E-01    0.00000E+00
 8.00000E-01    0.00000E+00
 8.27049E-01    0.00000E+00
 8.27050E-01    0.00000E+00
 8.84036E-01    0.00000E+00
 9.00000E-01    0.00000E+00
 9.01080E-01    0.00000E+00
 9.94607E-01    0.00000E+00
 1.00000E+00    0.00000E+00
 1.00492E+00    0.00000E+00
 1.07598E+00    0.00000E+00
 1.10000E+00    0.00000E+00
 1.16003E+00    0.00000E+00
 1.20000E+00    0.00000E+00
 1.30000E+00    0.00000E+00
 1.40000E+00    0.00000E+00
 1.50000E+00    0.00000E+00
 1.60000E+00    0.00000E+00
 1.70000E+00    0.00000E+00
 1.80000E+00    0.00000E+00
 1.90000E+00    0.00000E+00
 2.00000E+00    0.00000E+00
 2.25000E+00    0.00000E+00
 2.50000E+00    0.00000E+00
 2.75000E+00    0.00000E+00
 3.00000E+00    0.00000E+00
 3.50000E+00    0.00000E+00
 4.00000E+00    0.00000E+00
 4.50000E+00    0.00000E+00
 5.00000E+00    0.00000E+00
 5.50000E+00    0.00000E+00
 6.00000E+00    0.00000E+00
 6.50000E+00    0.00000E+00
 7.00000E+00    0.00000E+00
 7.50000E+00    0.00000E+00
 8.00000E+00    0.00000E+00
 8.50000E+00    0.00000E+00
 9.00000E+00    0.00000E+00
 9.50000E+00    0.00000E+00
 1.00000E+01    2.23528E-13
 1.05000E+01    1.90863E-12
 1.10000E+01    3.87196E-12
 1.15000E+01    6.31415E-12
 1.20000E+01    9.23860E-12
 1.25000E+01    2.38720E-10
 1.30000E+01    6.17680E-09
 1.35000E+01    6.53110E-08
 1.40000E+01    3.78020E-07
 1.45000E+01    1.44525E-06
 1.50000E+01    4.12213E-06
 1.55000E+01    9.49594E-06
 1.60000E+01    1.87456E-05
 1.65000E+01    3.34805E-05
 1.70000E+01    5.79834E-05
 1.75000E+01    1.04878E-04
 1.80000E+01    2.06218E-04
 1.85000E+01    4.28504E-04
 1.90000E+01    8.88607E-04
 1.95000E+01    1.76122E-03
 2.00000E+01    3.26306E-03
