# n + Zn 67 : (n,t)     
# endfb8.0   N.Iwamoto                         EVAL-Dec09
# uncertainties: n
# # energies =    64
#   E(MeV)       xs(mb) 
 7.60823E+00    0.00000E+00
 8.39049E+00    2.15290E-08
 8.74060E+00    3.12040E-08
 9.00000E+00    3.89200E-08
 9.11239E+00    9.11470E-07
 9.25613E+00    2.02860E-06
 9.35923E+00    2.82998E-06
 9.50000E+00    3.92418E-06
 9.73413E+00    3.04088E-05
 9.74743E+00    3.19134E-05
 9.85442E+00    4.40169E-05
 9.92107E+00    5.15569E-05
 9.97238E+00    5.73615E-05
 1.00000E+01    6.04861E-05
 1.00511E+01    8.90011E-05
 1.01720E+01    1.56469E-04
 1.01794E+01    1.60599E-04
 1.01803E+01    1.61101E-04
 1.02407E+01    1.94808E-04
 1.02677E+01    2.09876E-04
 1.02916E+01    2.23213E-04
 1.02978E+01    2.26673E-04
 1.03031E+01    2.29631E-04
 1.03175E+01    2.37667E-04
 1.04025E+01    2.85102E-04
 1.04900E+01    3.33933E-04
 1.05000E+01    3.39514E-04
 1.05141E+01    3.58815E-04
 1.05183E+01    3.64564E-04
 1.05260E+01    3.75105E-04
 1.05463E+01    4.02894E-04
 1.05544E+01    4.13982E-04
 1.06003E+01    4.76815E-04
 1.06301E+01    5.17609E-04
 1.06433E+01    5.35679E-04
 1.06503E+01    5.45261E-04
 1.06900E+01    5.99607E-04
 1.07336E+01    6.59293E-04
 1.07343E+01    6.60251E-04
 1.07407E+01    6.69012E-04
 1.07712E+01    7.10765E-04
 1.07755E+01    7.16651E-04
 1.07824E+01    7.26097E-04
 1.07874E+01    7.32941E-04
 1.07986E+01    7.48273E-04
 1.10000E+01    1.02398E-03
 1.15000E+01    2.03508E-03
 1.20000E+01    3.18093E-03
 1.25000E+01    4.71954E-03
 1.30000E+01    8.02645E-03
 1.35000E+01    1.63339E-02
 1.40000E+01    3.44572E-02
 1.45000E+01    6.69763E-02
 1.50000E+01    1.16868E-01
 1.55000E+01    1.85361E-01
 1.60000E+01    2.72263E-01
 1.65000E+01    3.76149E-01
 1.70000E+01    4.95460E-01
 1.75000E+01    6.27957E-01
 1.80000E+01    7.71715E-01
 1.85000E+01    9.24290E-01
 1.90000E+01    1.08388E+00
 1.95000E+01    1.24887E+00
 2.00000E+01    1.41760E+00
