# n + Pd104 : (n,el)    
# jendl4.0   N.Iwamoto,K.Shibata               EVAL-Dec09
# uncertainties: n
# # energies =   171
#   E(MeV)       xs(mb) 
 1.00000E-11    8.06988E+03
 1.00000E-07    4.64810E+03
 4.13990E-07    4.64573E+03
 5.31580E-07    4.64520E+03
 6.82560E-07    4.64452E+03
 8.76420E-07    4.64366E+03
 1.12540E-06    4.64257E+03
 1.44500E-06    4.64140E+03
 1.85540E-06    4.63997E+03
 2.37240E-06    4.63811E+03
 3.05900E-06    4.63571E+03
 3.92790E-06    4.63266E+03
 5.04350E-06    4.62873E+03
 6.47600E-06    4.62369E+03
 8.31530E-06    4.61721E+03
 1.06770E-05    4.60890E+03
 1.37100E-05    4.59823E+03
 1.76030E-05    4.58452E+03
 2.26030E-05    4.56667E+03
 2.92030E-05    4.54341E+03
 3.72670E-05    4.50510E+03
 4.78510E-05    4.45201E+03
 6.14420E-05    4.36646E+03
 7.88930E-05    4.21781E+03
 1.01300E-04    3.90482E+03
 1.30070E-04    2.81056E+03
 1.67020E-04    9.12582E+04
 2.14450E-04    6.54378E+03
 2.75360E-04    5.84925E+03
 3.53580E-04    5.44053E+03
 4.54000E-04    5.17201E+03
 5.82950E-04    4.93147E+03
 7.48520E-04    1.53909E+04
 9.61120E-04    1.52593E+04
 1.23410E-03    6.65601E+03
 1.58460E-03    8.01752E+03
 2.03470E-03    7.77076E+03
 2.24870E-03    1.09498E+04
 2.48520E-03    1.07370E+04
 2.61260E-03    1.05976E+04
 2.74650E-03    1.03925E+04
 3.03540E-03    1.01243E+04
 3.35460E-03    9.86336E+03
 3.70740E-03    9.55917E+03
 4.30740E-03    9.19219E+03
 5.53080E-03    8.76809E+03
 7.10170E-03    8.42222E+03
 9.11880E-03    8.16349E+03
 1.17090E-02    8.01156E+03
 1.50340E-02    7.87161E+03
 1.93050E-02    7.77641E+03
 2.18750E-02    7.74596E+03
 2.35790E-02    7.73142E+03
 2.41760E-02    7.72444E+03
 2.47880E-02    7.71375E+03
 2.60580E-02    7.70115E+03
 2.70000E-02    7.68848E+03
 2.85000E-02    7.66912E+03
 3.18280E-02    7.66528E+03
 3.43070E-02    7.66477E+03
 4.08680E-02    7.66294E+03
 4.63090E-02    7.66271E+03
 5.24750E-02    7.68015E+03
 5.65620E-02    7.70897E+03
 6.73790E-02    7.73645E+03
 7.20000E-02    7.75689E+03
 7.95000E-02    7.77476E+03
 8.25000E-02    7.78632E+03
 8.65170E-02    7.81069E+03
 9.80370E-02    7.84532E+03
 1.11090E-01    7.86822E+03
 1.16790E-01    7.88127E+03
 1.22770E-01    7.89396E+03
 1.29070E-01    7.90418E+03
 1.35690E-01    7.90979E+03
 1.42640E-01    7.91514E+03
 1.49960E-01    7.92036E+03
 1.57640E-01    7.92543E+03
 1.65730E-01    7.93035E+03
 1.74220E-01    7.93505E+03
 1.83160E-01    7.93928E+03
 1.92550E-01    7.94310E+03
 2.02420E-01    7.93532E+03
 2.12800E-01    7.92206E+03
 2.23710E-01    7.90813E+03
 2.35180E-01    7.89348E+03
 2.47240E-01    7.86999E+03
 2.73240E-01    7.84487E+03
 2.87250E-01    7.83157E+03
 2.94520E-01    7.82536E+03
 2.97200E-01    7.82288E+03
 2.98500E-01    7.81991E+03
 3.01970E-01    7.78732E+03
 3.33730E-01    7.71424E+03
 3.68830E-01    7.65443E+03
 3.87740E-01    7.61182E+03
 4.07620E-01    7.53747E+03
 4.50490E-01    7.42296E+03
 4.97870E-01    7.32959E+03
 5.23400E-01    7.26308E+03
 5.50230E-01    7.17745E+03
 5.78440E-01    7.02290E+03
 6.08100E-01    6.85898E+03
 6.39280E-01    6.70067E+03
 6.72060E-01    6.53565E+03
 7.06510E-01    6.38912E+03
 7.42740E-01    6.24913E+03
 7.80820E-01    6.11540E+03
 8.20850E-01    5.98524E+03
 8.62940E-01    5.86116E+03
 9.07180E-01    5.72752E+03
 9.61640E-01    5.61054E+03
 1.00260E+00    5.44249E+03
 1.10800E+00    5.27025E+03
 1.16480E+00    5.15381E+03
 1.22460E+00    5.03949E+03
 1.28730E+00    4.91994E+03
 1.35340E+00    4.69949E+03
 1.42270E+00    4.44190E+03
 1.49570E+00    4.22332E+03
 1.57240E+00    4.03924E+03
 1.65300E+00    3.87747E+03
 1.73770E+00    3.72521E+03
 1.82680E+00    3.53348E+03
 1.92050E+00    3.33005E+03
 2.01900E+00    3.13065E+03
 2.12250E+00    2.93905E+03
 2.23130E+00    2.78057E+03
 2.30690E+00    2.68786E+03
 2.34570E+00    2.64380E+03
 2.36530E+00    2.61404E+03
 2.38520E+00    2.54744E+03
 2.46600E+00    2.42718E+03
 2.59240E+00    2.31079E+03
 2.72530E+00    2.20345E+03
 2.86500E+00    2.10136E+03
 3.01190E+00    2.01654E+03
 3.16640E+00    1.94265E+03
 3.32870E+00    1.84267E+03
 3.67880E+00    1.74440E+03
 4.06570E+00    1.68495E+03
 4.49330E+00    1.66356E+03
 4.72370E+00    1.66575E+03
 4.96590E+00    1.67520E+03
 5.22050E+00    1.69720E+03
 5.48810E+00    1.72688E+03
 5.76950E+00    1.76573E+03
 6.06530E+00    1.80936E+03
 6.37630E+00    1.85033E+03
 6.59240E+00    1.87575E+03
 6.70320E+00    1.91079E+03
 7.04690E+00    1.96545E+03
 7.40820E+00    2.02212E+03
 7.78800E+00    2.07632E+03
 8.18730E+00    2.12834E+03
 8.60710E+00    2.17662E+03
 9.04840E+00    2.21979E+03
 9.51230E+00    2.25805E+03
 1.00000E+01    2.29300E+03
 1.05130E+01    2.30895E+03
 1.10520E+01    2.32239E+03
 1.16180E+01    2.32801E+03
 1.22140E+01    2.32149E+03
 1.28400E+01    2.30680E+03
 1.34990E+01    2.28761E+03
 1.38400E+01    2.27327E+03
 1.41910E+01    2.25400E+03
 1.45500E+01    2.23362E+03
 1.49180E+01    2.19850E+03
 1.56830E+01    2.14420E+03
 1.64870E+01    2.08208E+03
