# n + Pd104 : (n,n'06)  
# jendl4.0   N.Iwamoto,K.Shibata               EVAL-Dec09
# uncertainties: n
# # energies =    75
#   E(MeV)       xs(mb) 
 1.81172E+00    0.00000E+00
 1.83832E+00    4.46949E+01
 1.90000E+00    1.13023E+02
 1.96004E+00    1.64352E+02
 1.96691E+00    1.68095E+02
 2.00000E+00    1.86660E+02
 2.01851E+00    1.94955E+02
 2.09010E+00    2.13309E+02
 2.10260E+00    2.14660E+02
 2.12342E+00    2.16061E+02
 2.14613E+00    2.16120E+02
 2.15946E+00    2.15467E+02
 2.19965E+00    2.13458E+02
 2.20274E+00    2.12993E+02
 2.21328E+00    2.11742E+02
 2.21469E+00    2.11329E+02
 2.24963E+00    2.04237E+02
 2.25000E+00    2.04157E+02
 2.26669E+00    2.00862E+02
 2.27134E+00    1.99507E+02
 2.28730E+00    1.95500E+02
 2.29860E+00    1.92996E+02
 2.31223E+00    1.89696E+02
 2.32122E+00    1.87279E+02
 2.36060E+00    1.77661E+02
 2.37443E+00    1.74179E+02
 2.46823E+00    1.54483E+02
 2.48045E+00    1.52467E+02
 2.48893E+00    1.50922E+02
 2.50000E+00    1.48781E+02
 2.50306E+00    1.48203E+02
 2.51559E+00    1.45710E+02
 2.51619E+00    1.45592E+02
 2.54588E+00    1.39977E+02
 2.55799E+00    1.37589E+02
 2.59525E+00    1.30966E+02
 2.59747E+00    1.30598E+02
 2.63877E+00    1.23878E+02
 2.64766E+00    1.22445E+02
 2.75000E+00    1.07734E+02
 3.00000E+00    8.49607E+01
 3.50000E+00    5.39393E+01
 4.00000E+00    3.37174E+01
 4.50000E+00    2.03625E+01
 5.00000E+00    1.20033E+01
 5.50000E+00    7.00089E+00
 6.00000E+00    4.08150E+00
 6.50000E+00    2.39554E+00
 7.00000E+00    1.42510E+00
 7.50000E+00    8.67671E-01
 8.00000E+00    5.48410E-01
 8.50000E+00    3.65759E-01
 9.00000E+00    2.60405E-01
 9.50000E+00    1.98900E-01
 1.00000E+01    1.62181E-01
 1.05000E+01    1.39426E-01
 1.10000E+01    1.24314E-01
 1.15000E+01    1.13714E-01
 1.20000E+01    1.05685E-01
 1.25000E+01    9.92249E-02
 1.30000E+01    9.37623E-02
 1.35000E+01    8.89525E-02
 1.40000E+01    8.46848E-02
 1.45000E+01    8.07241E-02
 1.50000E+01    7.71263E-02
 1.55000E+01    7.36705E-02
 1.60000E+01    7.05291E-02
 1.65000E+01    6.74573E-02
 1.70000E+01    6.45671E-02
 1.75000E+01    6.17965E-02
 1.80000E+01    5.92551E-02
 1.85000E+01    5.67321E-02
 1.90000E+01    5.43353E-02
 1.95000E+01    5.20524E-02
 2.00000E+01    4.99975E-02
