# n + Pd104 : (n,xn)    
# jendl4.0   N.Iwamoto,K.Shibata               EVAL-Dec09
# 
# # energies =   112
#   E(MeV)        xs(mb) 
 1.05000E-01    0.00000E+00
 1.10000E-01    1.01472E-03
 1.20000E-01    1.20784E-03
 1.30000E-01    1.26732E-03
 1.40000E-01    1.28995E-03
 1.50000E-01    1.30094E-03
 1.60000E-01    1.30867E-03
 1.70000E-01    1.31742E-03
 1.80000E-01    1.32834E-03
 1.90000E-01    1.33802E-03
 2.00000E-01    1.35419E-03
 2.25000E-01    8.51511E-03
 2.50000E-01    9.33689E-03
 2.75000E-01    9.78246E-03
 3.00000E-01    1.02354E-02
 4.00000E-01    3.72181E-02
 5.00000E-01    9.62918E-02
 5.61206E-01    1.90366E-01
 6.00000E-01    1.61357E+02
 7.00000E-01    4.31957E+02
 8.00000E-01    5.88202E+02
 9.00000E-01    6.83119E+02
 1.00000E+00    7.43757E+02
 1.10000E+00    7.85060E+02
 1.20000E+00    8.17719E+02
 1.30000E+00    8.40279E+02
 1.33644E+00    8.48410E+02
 1.34654E+00    8.55741E+02
 1.35470E+00    8.73902E+02
 1.40000E+00    1.02786E+03
 1.50000E+00    1.24615E+03
 1.60000E+00    1.36712E+03
 1.70000E+00    1.44647E+03
 1.80000E+00    1.50435E+03
 1.81026E+00    1.50926E+03
 1.81172E+00    1.51169E+03
 1.83832E+00    1.55181E+03
 1.90000E+00    1.63548E+03
 1.96004E+00    1.69842E+03
 1.96691E+00    1.71016E+03
 2.00000E+00    1.75381E+03
 2.01851E+00    1.77194E+03
 2.09009E+00    1.84510E+03
 2.09010E+00    1.84512E+03
 2.10260E+00    1.85977E+03
 2.12342E+00    1.87978E+03
 2.14613E+00    1.90153E+03
 2.15946E+00    1.91567E+03
 2.19965E+00    1.95133E+03
 2.20274E+00    1.95440E+03
 2.21328E+00    1.96423E+03
 2.21469E+00    1.96574E+03
 2.24963E+00    2.00034E+03
 2.25000E+00    2.00076E+03
 2.26669E+00    2.01629E+03
 2.27134E+00    2.02183E+03
 2.28730E+00    2.03777E+03
 2.29860E+00    2.04799E+03
 2.31223E+00    2.06071E+03
 2.32122E+00    2.06863E+03
 2.36060E+00    2.10067E+03
 2.37443E+00    2.11203E+03
 2.46823E+00    2.17207E+03
 2.48045E+00    2.17833E+03
 2.48893E+00    2.18301E+03
 2.50000E+00    2.18933E+03
 2.50306E+00    2.19022E+03
 2.50307E+00    2.19022E+03
 2.51559E+00    2.19407E+03
 2.51619E+00    2.19424E+03
 2.54588E+00    2.20219E+03
 2.55799E+00    2.20562E+03
 2.59525E+00    2.21437E+03
 2.59747E+00    2.21485E+03
 2.63877E+00    2.22275E+03
 2.64766E+00    2.22442E+03
 2.75000E+00    2.24133E+03
 3.00000E+00    2.26915E+03
 3.50000E+00    2.26435E+03
 4.00000E+00    2.25601E+03
 4.50000E+00    2.25745E+03
 5.00000E+00    2.26199E+03
 5.50000E+00    2.26099E+03
 6.00000E+00    2.24934E+03
 6.50000E+00    2.22738E+03
 7.00000E+00    2.19898E+03
 7.50000E+00    2.16814E+03
 8.00000E+00    2.13854E+03
 8.50000E+00    2.11227E+03
 9.00000E+00    2.09004E+03
 9.50000E+00    2.07158E+03
 1.00000E+01    2.05618E+03
 1.05000E+01    2.13123E+03
 1.10000E+01    2.35987E+03
 1.15000E+01    2.62341E+03
 1.20000E+01    2.85237E+03
 1.25000E+01    3.02808E+03
 1.30000E+01    3.15647E+03
 1.35000E+01    3.24519E+03
 1.40000E+01    3.30584E+03
 1.45000E+01    3.34339E+03
 1.50000E+01    3.36862E+03
 1.55000E+01    3.38010E+03
 1.60000E+01    3.38605E+03
 1.65000E+01    3.38287E+03
 1.70000E+01    3.37948E+03
 1.75000E+01    3.36680E+03
 1.80000E+01    3.35716E+03
 1.85000E+01    3.34051E+03
 1.90000E+01    3.33119E+03
 1.95000E+01    3.32979E+03
 2.00000E+01    3.34542E+03
