# n + Pd104 : (n,n'02)  
# jendl4.0   N.Iwamoto,K.Shibata               EVAL-Dec09
# uncertainties: n
# # energies =    84
#   E(MeV)       xs(mb) 
 1.33644E+00    0.00000E+00
 1.34654E+00    8.09601E+00
 1.35470E+00    1.53122E+01
 1.40000E+00    5.36914E+01
 1.50000E+00    1.09090E+02
 1.60000E+00    1.45687E+02
 1.70000E+00    1.75824E+02
 1.80000E+00    2.02476E+02
 1.81026E+00    2.05101E+02
 1.81172E+00    2.05477E+02
 1.83832E+00    2.09540E+02
 1.90000E+00    2.08666E+02
 1.96004E+00    2.07691E+02
 1.96691E+00    2.06930E+02
 2.00000E+00    2.04781E+02
 2.01851E+00    2.03060E+02
 2.09010E+00    1.98224E+02
 2.10260E+00    1.96946E+02
 2.12342E+00    1.93411E+02
 2.14613E+00    1.90286E+02
 2.15946E+00    1.88416E+02
 2.19965E+00    1.83903E+02
 2.20274E+00    1.83570E+02
 2.21328E+00    1.81533E+02
 2.21469E+00    1.80990E+02
 2.24963E+00    1.71962E+02
 2.25000E+00    1.71765E+02
 2.26669E+00    1.67295E+02
 2.27134E+00    1.65876E+02
 2.28730E+00    1.61401E+02
 2.29860E+00    1.58100E+02
 2.31223E+00    1.54524E+02
 2.32122E+00    1.51903E+02
 2.36060E+00    1.41257E+02
 2.37443E+00    1.37778E+02
 2.46823E+00    1.20182E+02
 2.48045E+00    1.18479E+02
 2.48893E+00    1.17209E+02
 2.50000E+00    1.15552E+02
 2.50306E+00    1.15080E+02
 2.51559E+00    1.13227E+02
 2.51619E+00    1.13141E+02
 2.54588E+00    1.09138E+02
 2.55799E+00    1.07414E+02
 2.59525E+00    1.02571E+02
 2.59747E+00    1.02271E+02
 2.63877E+00    9.74165E+01
 2.64766E+00    9.63955E+01
 2.75000E+00    8.65932E+01
 3.00000E+00    7.58857E+01
 3.50000E+00    5.66623E+01
 4.00000E+00    4.20486E+01
 4.50000E+00    3.14824E+01
 5.00000E+00    2.44412E+01
 5.50000E+00    1.98541E+01
 6.00000E+00    1.68810E+01
 6.50000E+00    1.49037E+01
 7.00000E+00    1.35632E+01
 7.50000E+00    1.26381E+01
 8.00000E+00    1.19793E+01
 8.50000E+00    1.14912E+01
 9.00000E+00    1.11167E+01
 9.50000E+00    1.08027E+01
 1.00000E+01    1.05250E+01
 1.05000E+01    1.02524E+01
 1.10000E+01    9.99583E+00
 1.15000E+01    9.70698E+00
 1.20000E+01    9.42630E+00
 1.25000E+01    9.11821E+00
 1.30000E+01    8.81552E+00
 1.35000E+01    8.51333E+00
 1.40000E+01    8.21552E+00
 1.45000E+01    7.94108E+00
 1.50000E+01    7.67023E+00
 1.55000E+01    7.42840E+00
 1.60000E+01    7.19005E+00
 1.65000E+01    6.97937E+00
 1.70000E+01    6.77111E+00
 1.75000E+01    6.58863E+00
 1.80000E+01    6.40865E+00
 1.85000E+01    6.24745E+00
 1.90000E+01    6.08778E+00
 1.95000E+01    5.94008E+00
 2.00000E+01    5.79505E+00
