# n + Pd104 : (n,n'01)  
# jendl4.0   N.Iwamoto,K.Shibata               EVAL-Dec09
# uncertainties: n
# # energies =    93
#   E(MeV)       xs(mb) 
 5.61206E-01    0.00000E+00
 6.00000E-01    1.61183E+02
 7.00000E-01    4.31671E+02
 8.00000E-01    5.87737E+02
 9.00000E-01    6.82392E+02
 1.00000E+00    7.42655E+02
 1.10000E+00    7.83436E+02
 1.20000E+00    8.15386E+02
 1.30000E+00    8.36995E+02
 1.33644E+00    8.44521E+02
 1.34654E+00    8.43683E+02
 1.35470E+00    8.40006E+02
 1.40000E+00    7.73551E+02
 1.50000E+00    6.82432E+02
 1.60000E+00    6.32637E+02
 1.70000E+00    6.05883E+02
 1.80000E+00    5.92007E+02
 1.81026E+00    5.90878E+02
 1.81172E+00    5.90331E+02
 1.83832E+00    5.75752E+02
 1.90000E+00    5.42175E+02
 1.96004E+00    5.19021E+02
 1.96691E+00    5.14272E+02
 2.00000E+00    4.98477E+02
 2.01851E+00    4.89760E+02
 2.09010E+00    4.56393E+02
 2.10260E+00    4.49391E+02
 2.12342E+00    4.39644E+02
 2.14613E+00    4.29741E+02
 2.15946E+00    4.23414E+02
 2.19965E+00    4.07622E+02
 2.20274E+00    4.06277E+02
 2.21328E+00    4.01811E+02
 2.21469E+00    4.01077E+02
 2.24963E+00    3.85540E+02
 2.25000E+00    3.85347E+02
 2.26669E+00    3.78396E+02
 2.27134E+00    3.75881E+02
 2.28730E+00    3.68747E+02
 2.29860E+00    3.64200E+02
 2.31223E+00    3.58590E+02
 2.32122E+00    3.55107E+02
 2.36060E+00    3.41375E+02
 2.37443E+00    3.36519E+02
 2.46823E+00    3.12664E+02
 2.48045E+00    3.10428E+02
 2.48893E+00    3.08736E+02
 2.50000E+00    3.06432E+02
 2.50306E+00    3.05755E+02
 2.51559E+00    3.02895E+02
 2.51619E+00    3.02768E+02
 2.54588E+00    2.96840E+02
 2.55799E+00    2.94336E+02
 2.59525E+00    2.87191E+02
 2.59747E+00    2.86793E+02
 2.63877E+00    2.79983E+02
 2.64766E+00    2.78574E+02
 2.75000E+00    2.64556E+02
 3.00000E+00    2.44412E+02
 3.50000E+00    2.16627E+02
 4.00000E+00    1.99570E+02
 4.50000E+00    1.89559E+02
 5.00000E+00    1.84176E+02
 5.50000E+00    1.81219E+02
 6.00000E+00    1.78808E+02
 6.50000E+00    1.75665E+02
 7.00000E+00    1.71258E+02
 7.50000E+00    1.65710E+02
 8.00000E+00    1.59415E+02
 8.50000E+00    1.52855E+02
 9.00000E+00    1.46445E+02
 9.50000E+00    1.40447E+02
 1.00000E+01    1.34990E+02
 1.05000E+01    1.30346E+02
 1.10000E+01    1.25705E+02
 1.15000E+01    1.21915E+02
 1.20000E+01    1.18127E+02
 1.25000E+01    1.14856E+02
 1.30000E+01    1.11586E+02
 1.35000E+01    1.08629E+02
 1.40000E+01    1.05673E+02
 1.45000E+01    1.02998E+02
 1.50000E+01    1.00322E+02
 1.55000E+01    9.79795E+01
 1.60000E+01    9.56370E+01
 1.65000E+01    9.36472E+01
 1.70000E+01    9.16574E+01
 1.75000E+01    8.99716E+01
 1.80000E+01    8.82858E+01
 1.85000E+01    8.68295E+01
 1.90000E+01    8.53731E+01
 1.95000E+01    8.40956E+01
 2.00000E+01    8.28182E+01
