# n + Pd104 : (n,xa)    
# jendl4.0   N.Iwamoto,K.Shibata               EVAL-Dec09
# 
# # energies =   112
#   E(MeV)        xs(mb) 
 1.05000E-01    5.61142E-07
 1.10000E-01    5.69153E-07
 1.20000E-01    5.88468E-07
 1.30000E-01    6.11202E-07
 1.40000E-01    6.38606E-07
 1.50000E-01    6.69130E-07
 1.60000E-01    7.03001E-07
 1.70000E-01    7.40220E-07
 1.80000E-01    7.80908E-07
 1.90000E-01    8.22450E-07
 2.00000E-01    8.70755E-07
 2.25000E-01    1.00625E-06
 2.50000E-01    1.16880E-06
 2.75000E-01    1.36238E-06
 3.00000E-01    1.58359E-06
 4.00000E-01    2.88237E-06
 5.00000E-01    5.01421E-06
 5.61206E-01    7.33114E-06
 6.00000E-01    7.32391E-06
 7.00000E-01    1.04589E-05
 8.00000E-01    1.66270E-05
 9.00000E-01    2.69687E-05
 1.00000E+00    4.40623E-05
 1.10000E+00    7.17363E-05
 1.20000E+00    1.16080E-04
 1.30000E+00    1.86376E-04
 1.33644E+00    2.21140E-04
 1.34654E+00    2.28423E-04
 1.35470E+00    2.33355E-04
 1.40000E+00    2.44411E-04
 1.50000E+00    3.20154E-04
 1.60000E+00    4.46566E-04
 1.70000E+00    6.38000E-04
 1.80000E+00    9.21089E-04
 1.81026E+00    9.55667E-04
 1.81172E+00    9.59850E-04
 1.83832E+00    1.02263E-03
 1.90000E+00    1.18337E-03
 1.96004E+00    1.40475E-03
 1.96691E+00    1.41788E-03
 2.00000E+00    1.53061E-03
 2.01851E+00    1.59867E-03
 2.09009E+00    1.88317E-03
 2.09010E+00    1.88321E-03
 2.10260E+00    1.92295E-03
 2.12342E+00    2.00079E-03
 2.14613E+00    2.10629E-03
 2.15946E+00    2.15841E-03
 2.19965E+00    2.35062E-03
 2.20274E+00    2.36540E-03
 2.21328E+00    2.40575E-03
 2.21469E+00    2.41115E-03
 2.24963E+00    2.54492E-03
 2.25000E+00    2.54625E-03
 2.26669E+00    2.60210E-03
 2.27134E+00    2.60817E-03
 2.28730E+00    2.65507E-03
 2.29860E+00    2.68828E-03
 2.31223E+00    2.72834E-03
 2.32122E+00    2.76017E-03
 2.36060E+00    2.90903E-03
 2.37443E+00    2.94874E-03
 2.46823E+00    3.38395E-03
 2.48045E+00    3.45099E-03
 2.48893E+00    3.49752E-03
 2.50000E+00    3.55375E-03
 2.50306E+00    3.56929E-03
 2.50307E+00    3.56934E-03
 2.51559E+00    3.63293E-03
 2.51619E+00    3.63598E-03
 2.54588E+00    3.84286E-03
 2.55799E+00    3.91094E-03
 2.59525E+00    4.15316E-03
 2.59747E+00    4.16759E-03
 2.63877E+00    4.50994E-03
 2.64766E+00    4.58504E-03
 2.75000E+00    5.52124E-03
 3.00000E+00    9.12790E-03
 3.50000E+00    2.41887E-02
 4.00000E+00    5.79827E-02
 4.50000E+00    1.24203E-01
 5.00000E+00    2.39662E-01
 5.50000E+00    4.20309E-01
 6.00000E+00    6.75637E-01
 6.50000E+00    1.00405E+00
 7.00000E+00    1.39178E+00
 7.50000E+00    1.80902E+00
 8.00000E+00    2.22205E+00
 8.50000E+00    2.60354E+00
 9.00000E+00    2.93950E+00
 9.50000E+00    3.24977E+00
 1.00000E+01    3.53583E+00
 1.05000E+01    3.94374E+00
 1.10000E+01    4.32782E+00
 1.15000E+01    4.74604E+00
 1.20000E+01    5.24009E+00
 1.25000E+01    5.83040E+00
 1.30000E+01    6.52942E+00
 1.35000E+01    7.34829E+00
 1.40000E+01    8.29615E+00
 1.45000E+01    9.37125E+00
 1.50000E+01    1.05819E+01
 1.55000E+01    1.19011E+01
 1.60000E+01    1.33430E+01
 1.65000E+01    1.48613E+01
 1.70000E+01    1.64730E+01
 1.75000E+01    1.81306E+01
 1.80000E+01    1.98493E+01
 1.85000E+01    2.15207E+01
 1.90000E+01    2.32655E+01
 1.95000E+01    2.49231E+01
 2.00000E+01    2.66145E+01
