# n + Sn117 : (n,xd)    
# jeff3.3    N.Iwamoto,K.Shibata               EVAL-Dec09
# 
# # energies =    88
#   E(MeV)        xs(mb) 
 1.05000E-01    0.00000E+00
 1.10000E-01    0.00000E+00
 1.20000E-01    0.00000E+00
 1.30000E-01    0.00000E+00
 1.40000E-01    0.00000E+00
 1.50000E-01    0.00000E+00
 1.59930E-01    0.00000E+00
 1.60000E-01    0.00000E+00
 1.70000E-01    0.00000E+00
 1.80000E-01    0.00000E+00
 1.90000E-01    0.00000E+00
 2.00000E-01    0.00000E+00
 2.25000E-01    0.00000E+00
 2.50000E-01    0.00000E+00
 2.75000E-01    0.00000E+00
 3.00000E-01    0.00000E+00
 3.17294E-01    0.00000E+00
 4.00000E-01    0.00000E+00
 5.00000E-01    0.00000E+00
 6.00000E-01    0.00000E+00
 7.00000E-01    0.00000E+00
 7.17679E-01    0.00000E+00
 8.00000E-01    0.00000E+00
 9.00000E-01    0.00000E+00
 1.00000E+00    0.00000E+00
 1.01320E+00    0.00000E+00
 1.02872E+00    0.00000E+00
 1.10000E+00    0.00000E+00
 1.18988E+00    0.00000E+00
 1.20000E+00    0.00000E+00
 1.30000E+00    0.00000E+00
 1.31555E+00    0.00000E+00
 1.40000E+00    0.00000E+00
 1.45868E+00    0.00000E+00
 1.48127E+00    0.00000E+00
 1.50000E+00    0.00000E+00
 1.50971E+00    0.00000E+00
 1.50972E+00    0.00000E+00
 1.52313E+00    0.00000E+00
 1.54320E+00    0.00000E+00
 1.59187E+00    0.00000E+00
 1.60000E+00    0.00000E+00
 1.60170E+00    0.00000E+00
 1.60271E+00    0.00000E+00
 1.60685E+00    0.00000E+00
 1.63942E+00    0.00000E+00
 1.70000E+00    0.00000E+00
 1.80000E+00    0.00000E+00
 1.90000E+00    0.00000E+00
 2.00000E+00    0.00000E+00
 2.25000E+00    0.00000E+00
 2.50000E+00    0.00000E+00
 2.75000E+00    0.00000E+00
 3.00000E+00    0.00000E+00
 3.50000E+00    0.00000E+00
 4.00000E+00    0.00000E+00
 4.50000E+00    0.00000E+00
 5.00000E+00    0.00000E+00
 5.50000E+00    0.00000E+00
 6.00000E+00    0.00000E+00
 6.50000E+00    0.00000E+00
 7.00000E+00    0.00000E+00
 7.50000E+00    2.77262E-16
 8.00000E+00    1.87419E-12
 8.50000E+00    5.30650E-12
 9.00000E+00    2.84510E-11
 9.50000E+00    1.35080E-08
 1.00000E+01    1.05556E-06
 1.05000E+01    2.55599E-05
 1.10000E+01    3.21758E-04
 1.15000E+01    2.11765E-03
 1.20000E+01    9.59277E-03
 1.25000E+01    2.93624E-02
 1.30000E+01    8.12973E-02
 1.35000E+01    1.85980E-01
 1.40000E+01    3.37468E-01
 1.45000E+01    5.88617E-01
 1.50000E+01    9.27367E-01
 1.55000E+01    1.34797E+00
 1.60000E+01    1.84346E+00
 1.65000E+01    2.40007E+00
 1.70000E+01    3.01099E+00
 1.75000E+01    3.66173E+00
 1.80000E+01    4.34912E+00
 1.85000E+01    5.06042E+00
 1.90000E+01    5.79592E+00
 1.95000E+01    6.54535E+00
 2.00000E+01    7.31116E+00
