# n + Sn117 : (n,n'01)  
# jeff3.3    N.Iwamoto,K.Shibata               EVAL-Dec09
# uncertainties: n
# # energies =    81
#   E(MeV)       xs(mb) 
 1.59930E-01    0.00000E+00
 1.60000E-01    1.18347E+01
 1.70000E-01    1.24940E+02
 1.80000E-01    2.04952E+02
 1.90000E-01    2.74275E+02
 2.00000E-01    3.33434E+02
 2.25000E-01    4.52699E+02
 2.50000E-01    5.37032E+02
 2.75000E-01    5.95044E+02
 3.00000E-01    6.37151E+02
 3.17294E-01    6.64478E+02
 4.00000E-01    7.45884E+02
 5.00000E-01    7.96144E+02
 6.00000E-01    8.24849E+02
 7.00000E-01    8.43659E+02
 7.17679E-01    8.46595E+02
 8.00000E-01    8.27048E+02
 9.00000E-01    8.12130E+02
 1.00000E+00    7.99211E+02
 1.01320E+00    7.97145E+02
 1.02872E+00    7.69480E+02
 1.10000E+00    6.97935E+02
 1.18988E+00    6.38091E+02
 1.20000E+00    6.27590E+02
 1.30000E+00    5.62882E+02
 1.31555E+00    5.55218E+02
 1.40000E+00    5.14748E+02
 1.45868E+00    4.93649E+02
 1.48127E+00    4.82707E+02
 1.50000E+00    4.72055E+02
 1.50972E+00    4.66589E+02
 1.52313E+00    4.57325E+02
 1.54320E+00    4.43046E+02
 1.59187E+00    4.08149E+02
 1.60000E+00    4.01421E+02
 1.60170E+00    4.00224E+02
 1.60271E+00    3.99525E+02
 1.60685E+00    3.95984E+02
 1.63942E+00    3.74365E+02
 1.70000E+00    3.42410E+02
 1.80000E+00    3.01989E+02
 1.90000E+00    2.68325E+02
 2.00000E+00    2.39327E+02
 2.25000E+00    1.68341E+02
 2.50000E+00    1.26243E+02
 2.75000E+00    8.89595E+01
 3.00000E+00    6.48812E+01
 3.50000E+00    3.32957E+01
 4.00000E+00    1.72561E+01
 4.50000E+00    8.96857E+00
 5.00000E+00    4.60711E+00
 5.50000E+00    2.35148E+00
 6.00000E+00    1.23592E+00
 6.50000E+00    7.00167E-01
 7.00000E+00    4.42341E-01
 7.50000E+00    3.14543E-01
 8.00000E+00    2.47841E-01
 8.50000E+00    2.10500E-01
 9.00000E+00    1.87655E-01
 9.50000E+00    1.72111E-01
 1.00000E+01    1.60303E-01
 1.05000E+01    1.50551E-01
 1.10000E+01    1.41978E-01
 1.15000E+01    1.34398E-01
 1.20000E+01    1.27449E-01
 1.25000E+01    1.21288E-01
 1.30000E+01    1.15631E-01
 1.35000E+01    1.10457E-01
 1.40000E+01    1.05685E-01
 1.45000E+01    1.01041E-01
 1.50000E+01    9.67273E-02
 1.55000E+01    9.23835E-02
 1.60000E+01    8.83487E-02
 1.65000E+01    8.42878E-02
 1.70000E+01    8.05179E-02
 1.75000E+01    7.67972E-02
 1.80000E+01    7.33836E-02
 1.85000E+01    7.00969E-02
 1.90000E+01    6.70978E-02
 1.95000E+01    6.42650E-02
 2.00000E+01    6.16879E-02
