# n + Cd116 : (n,xt)    
# jendl4.0   S.Kunieda, A.Ichihara, K.Shibata+ EVAL-FEB22
# 
# # energies =    60
#   E(MeV)        xs(mb) 
 5.17959E-01    0.00000E+00
 5.50000E-01    0.00000E+00
 6.00000E-01    0.00000E+00
 6.50000E-01    0.00000E+00
 7.00000E-01    0.00000E+00
 7.50000E-01    0.00000E+00
 8.00000E-01    0.00000E+00
 8.50000E-01    0.00000E+00
 9.00000E-01    0.00000E+00
 9.50000E-01    0.00000E+00
 1.00000E+00    0.00000E+00
 1.20000E+00    0.00000E+00
 1.22355E+00    0.00000E+00
 1.23005E+00    0.00000E+00
 1.29372E+00    0.00000E+00
 1.39232E+00    0.00000E+00
 1.40000E+00    0.00000E+00
 1.60000E+00    0.00000E+00
 1.65678E+00    0.00000E+00
 1.80000E+00    0.00000E+00
 1.93248E+00    0.00000E+00
 1.93827E+00    0.00000E+00
 1.94522E+00    0.00000E+00
 1.96834E+00    0.00000E+00
 2.00000E+00    0.00000E+00
 2.04430E+00    0.00000E+00
 2.05438E+00    0.00000E+00
 2.20000E+00    0.00000E+00
 2.40000E+00    0.00000E+00
 2.60000E+00    0.00000E+00
 2.80000E+00    0.00000E+00
 3.00000E+00    0.00000E+00
 3.25000E+00    0.00000E+00
 3.50000E+00    0.00000E+00
 3.75000E+00    0.00000E+00
 4.00000E+00    0.00000E+00
 4.25000E+00    0.00000E+00
 4.50000E+00    0.00000E+00
 4.75000E+00    0.00000E+00
 5.00000E+00    0.00000E+00
 5.50000E+00    0.00000E+00
 6.00000E+00    0.00000E+00
 6.50000E+00    0.00000E+00
 7.00000E+00    0.00000E+00
 7.50000E+00    0.00000E+00
 8.00000E+00    0.00000E+00
 8.50000E+00    0.00000E+00
 9.00000E+00    0.00000E+00
 9.50000E+00    0.00000E+00
 1.00000E+01    0.00000E+00
 1.10000E+01    5.23400E-31
 1.20000E+01    6.05800E-17
 1.30000E+01    3.38500E-10
 1.40000E+01    3.55600E-06
 1.50000E+01    3.41700E-04
 1.60000E+01    7.39300E-03
 1.70000E+01    6.20300E-02
 1.80000E+01    2.66600E-01
 1.90000E+01    7.28300E-01
 2.00000E+01    1.49100E+00
