# n + Cd116 : (n,el)    
# jendl4.0   S.Kunieda, A.Ichihara, K.Shibata+ EVAL-FEB22
# uncertainties: n
# # energies =   171
#   E(MeV)       xs(mb) 
 1.00000E-11    9.21634E+03
 1.00000E-07    5.47721E+03
 4.13990E-07    5.47456E+03
 5.31580E-07    5.47425E+03
 6.82560E-07    5.47387E+03
 8.76420E-07    5.47338E+03
 1.12540E-06    5.47276E+03
 1.44500E-06    5.47195E+03
 1.85540E-06    5.47093E+03
 2.37240E-06    5.46961E+03
 3.05900E-06    5.46791E+03
 3.92790E-06    5.46577E+03
 5.04350E-06    5.46302E+03
 6.47600E-06    5.45950E+03
 8.31530E-06    5.45497E+03
 1.06770E-05    5.44916E+03
 1.37100E-05    5.44170E+03
 1.76030E-05    5.43212E+03
 2.26030E-05    5.41119E+03
 2.92030E-05    5.44424E+03
 3.72670E-05    5.41203E+03
 4.78510E-05    5.39517E+03
 6.14420E-05    5.37356E+03
 7.88930E-05    5.34582E+03
 1.01300E-04    5.31044E+03
 1.30070E-04    5.27326E+03
 1.67020E-04    5.22979E+03
 2.14450E-04    5.17426E+03
 2.75360E-04    5.11269E+03
 3.53580E-04    5.03872E+03
 4.54000E-04    4.94364E+03
 5.82950E-04    5.09552E+03
 7.48520E-04    4.93914E+03
 9.61120E-04    1.08737E+04
 1.23410E-03    6.06187E+03
 1.58460E-03    5.82081E+03
 2.03470E-03    4.56342E+03
 2.24870E-03    1.48592E+04
 2.48520E-03    5.42507E+03
 2.61260E-03    6.95315E+03
 2.74650E-03    5.11810E+03
 3.03540E-03    4.75909E+03
 3.35460E-03    7.54761E+03
 3.70740E-03    5.14216E+03
 4.30740E-03    6.71188E+03
 5.53080E-03    5.20759E+03
 7.10170E-03    6.30857E+03
 9.11880E-03    8.77744E+03
 1.17090E-02    8.47620E+03
 1.50340E-02    8.19009E+03
 1.93050E-02    7.99422E+03
 2.18750E-02    7.92227E+03
 2.35790E-02    7.88740E+03
 2.41760E-02    7.86980E+03
 2.47880E-02    7.84390E+03
 2.60580E-02    7.81471E+03
 2.70000E-02    7.78380E+03
 2.85000E-02    7.73226E+03
 3.18280E-02    7.69289E+03
 3.43070E-02    7.64492E+03
 4.08680E-02    7.60039E+03
 4.63090E-02    7.57319E+03
 5.24750E-02    7.55732E+03
 5.65620E-02    7.54140E+03
 6.73790E-02    7.53077E+03
 7.20000E-02    7.52716E+03
 7.95000E-02    7.52481E+03
 8.25000E-02    7.52410E+03
 8.65170E-02    7.52311E+03
 9.80370E-02    7.52254E+03
 1.11090E-01    7.52161E+03
 1.16790E-01    7.52099E+03
 1.22770E-01    7.52012E+03
 1.29070E-01    7.51915E+03
 1.35690E-01    7.51818E+03
 1.42640E-01    7.51769E+03
 1.49960E-01    7.51731E+03
 1.57640E-01    7.51692E+03
 1.65730E-01    7.51650E+03
 1.74220E-01    7.51609E+03
 1.83160E-01    7.51600E+03
 1.92550E-01    7.51599E+03
 2.02420E-01    7.51609E+03
 2.12800E-01    7.51632E+03
 2.23710E-01    7.51656E+03
 2.35180E-01    7.51681E+03
 2.47240E-01    7.51526E+03
 2.73240E-01    7.51185E+03
 2.87250E-01    7.51003E+03
 2.94520E-01    7.50918E+03
 2.97200E-01    7.50884E+03
 2.98500E-01    7.50844E+03
 3.01970E-01    7.50548E+03
 3.33730E-01    7.49979E+03
 3.68830E-01    7.49451E+03
 3.87740E-01    7.48346E+03
 4.07620E-01    7.46274E+03
 4.50490E-01    7.43265E+03
 4.97870E-01    7.34643E+03
 5.23400E-01    7.18028E+03
 5.50230E-01    7.00889E+03
 5.78440E-01    6.84651E+03
 6.08100E-01    6.70680E+03
 6.39280E-01    6.58051E+03
 6.72060E-01    6.47116E+03
 7.06510E-01    6.36899E+03
 7.42740E-01    6.27751E+03
 7.80820E-01    6.18926E+03
 8.20850E-01    6.10801E+03
 8.62940E-01    6.02350E+03
 9.07180E-01    5.93983E+03
 9.61640E-01    5.86220E+03
 1.00260E+00    5.74493E+03
 1.10800E+00    5.62221E+03
 1.16480E+00    5.53336E+03
 1.22460E+00    5.37241E+03
 1.28730E+00    5.19315E+03
 1.35340E+00    5.02200E+03
 1.42270E+00    4.85841E+03
 1.49570E+00    4.69677E+03
 1.57240E+00    4.54076E+03
 1.65300E+00    4.37980E+03
 1.73770E+00    4.22246E+03
 1.82680E+00    4.06101E+03
 1.92050E+00    3.89626E+03
 2.01900E+00    3.65485E+03
 2.12250E+00    3.38987E+03
 2.23130E+00    3.23740E+03
 2.30690E+00    3.16202E+03
 2.34570E+00    3.12569E+03
 2.36530E+00    3.10260E+03
 2.38520E+00    3.04398E+03
 2.46600E+00    2.92926E+03
 2.59240E+00    2.79773E+03
 2.72530E+00    2.67288E+03
 2.86500E+00    2.55412E+03
 3.01190E+00    2.44249E+03
 3.16640E+00    2.33724E+03
 3.32870E+00    2.19604E+03
 3.67880E+00    2.03772E+03
 4.06570E+00    1.92075E+03
 4.49330E+00    1.86052E+03
 4.72370E+00    1.83424E+03
 4.96590E+00    1.82105E+03
 5.22050E+00    1.81776E+03
 5.48810E+00    1.82253E+03
 5.76950E+00    1.83728E+03
 6.06530E+00    1.85932E+03
 6.37630E+00    1.88275E+03
 6.59240E+00    1.89970E+03
 6.70320E+00    1.92544E+03
 7.04690E+00    1.96611E+03
 7.40820E+00    2.01122E+03
 7.78800E+00    2.05895E+03
 8.18730E+00    2.10912E+03
 8.60710E+00    2.16187E+03
 9.04840E+00    2.21370E+03
 9.51230E+00    2.26400E+03
 1.00000E+01    2.31092E+03
 1.05130E+01    2.35339E+03
 1.10520E+01    2.38789E+03
 1.16180E+01    2.41568E+03
 1.22140E+01    2.43201E+03
 1.28400E+01    2.44065E+03
 1.34990E+01    2.43866E+03
 1.38400E+01    2.43566E+03
 1.41910E+01    2.42606E+03
 1.45500E+01    2.41558E+03
 1.49180E+01    2.39369E+03
 1.56830E+01    2.35472E+03
 1.64870E+01    2.30371E+03
