# n + Os190 : (n,t)m    
# jendl.ad   N.Iwamoto                         EVAL-Apr14
# uncertainties: n
# # energies =    26
#   E(MeV)       xs(mb) 
 6.77653E+00    0.00000E+00
 8.00000E+00    2.14700E-29
 8.50000E+00    2.27920E-22
 9.00000E+00    5.21690E-18
 9.50000E+00    5.08670E-15
 1.00000E+01    8.98210E-13
 1.05000E+01    5.85100E-11
 1.10000E+01    1.82380E-09
 1.15000E+01    3.08170E-08
 1.20000E+01    3.15450E-07
 1.25000E+01    2.17573E-06
 1.30000E+01    1.10390E-05
 1.35000E+01    4.40836E-05
 1.40000E+01    1.44506E-04
 1.45000E+01    4.09248E-04
 1.50000E+01    1.01790E-03
 1.55000E+01    2.25715E-03
 1.60000E+01    4.50813E-03
 1.65000E+01    8.18290E-03
 1.70000E+01    1.36456E-02
 1.75000E+01    2.11180E-02
 1.80000E+01    3.07059E-02
 1.85000E+01    4.23920E-02
 1.90000E+01    5.60665E-02
 1.95000E+01    7.15354E-02
 2.00000E+01    8.85178E-02
