# n + Os190 : (n,p)m    
# jendl.ad   N.Iwamoto                         EVAL-Apr14
# uncertainties: n
# # energies =    34
#   E(MeV)       xs(mb) 
 2.58129E+00    0.00000E+00
 4.00000E+00    4.05920E-17
 4.50000E+00    1.09970E-13
 5.00000E+00    1.82790E-11
 5.50000E+00    7.06810E-10
 6.00000E+00    1.22950E-08
 6.50000E+00    1.33970E-07
 7.00000E+00    1.05943E-06
 7.50000E+00    6.43965E-06
 8.00000E+00    3.11472E-05
 8.50000E+00    1.23776E-04
 9.00000E+00    4.14794E-04
 9.50000E+00    1.20162E-03
 1.00000E+01    3.06785E-03
 1.05000E+01    7.00950E-03
 1.10000E+01    1.45152E-02
 1.15000E+01    2.75421E-02
 1.20000E+01    4.83789E-02
 1.25000E+01    7.94506E-02
 1.30000E+01    1.23146E-01
 1.35000E+01    1.81690E-01
 1.40000E+01    2.57062E-01
 1.45000E+01    3.50755E-01
 1.50000E+01    4.63789E-01
 1.55000E+01    5.97091E-01
 1.60000E+01    7.46928E-01
 1.65000E+01    9.12125E-01
 1.70000E+01    1.08754E+00
 1.75000E+01    1.26878E+00
 1.80000E+01    1.45106E+00
 1.85000E+01    1.63009E+00
 1.90000E+01    1.80237E+00
 1.95000E+01    1.96516E+00
 2.00000E+01    2.11620E+00
