# n + Os190 : (n,tot)   
# jendl.ad   N.Iwamoto                         EVAL-Apr14
# uncertainties: n
# # energies =   171
#   E(MeV)       xs(mb) 
 1.00000E-11    1.45343E+05
 1.00000E-07    3.98681E+03
 4.13990E-07    2.03123E+03
 5.31580E-07    1.61181E+03
 6.82560E-07    1.25108E+03
 8.76420E-07    9.47610E+02
 1.12540E-06    6.99371E+02
 1.44500E-06    5.02146E+02
 1.85540E-06    3.51839E+02
 2.37240E-06    2.39772E+02
 3.05900E-06    1.59239E+02
 3.92790E-06    1.04400E+02
 5.04350E-06    6.79659E+01
 6.47600E-06    4.44686E+01
 8.31530E-06    2.96830E+01
 1.06770E-05    2.05829E+01
 1.37100E-05    1.51083E+01
 1.76030E-05    1.19316E+01
 2.26030E-05    1.02492E+01
 2.92030E-05    9.73273E+00
 3.72670E-05    1.04612E+01
 4.78510E-05    1.37552E+01
 6.14420E-05    3.14660E+01
 7.88930E-05    3.25242E+04
 1.01300E-04    5.71927E+01
 1.30070E-04    2.52160E+04
 1.67020E-04    4.51500E+03
 2.14450E-04    3.67495E+03
 2.75360E-04    1.88046E+03
 3.53580E-04    3.57410E+00
 4.54000E-04    2.86559E+03
 5.82950E-04    2.86739E+03
 7.48520E-04    2.43196E+03
 9.61120E-04    2.74228E+03
 1.23410E-03    2.22902E+03
 1.58460E-03    1.81220E+03
 2.03470E-03    1.56489E+03
 2.24870E-03    1.44113E+03
 2.48520E-03    1.35380E+03
 2.61260E-03    1.29875E+03
 2.74650E-03    1.22092E+03
 3.03540E-03    1.12394E+03
 3.35460E-03    1.03467E+03
 3.70740E-03    9.35726E+02
 4.30740E-03    8.16089E+02
 5.53080E-03    6.89756E+02
 7.10170E-03    5.90384E+02
 9.11880E-03    5.13112E+02
 1.17090E-02    4.54447E+02
 1.50340E-02    4.02966E+02
 1.93050E-02    3.69314E+02
 2.18750E-02    3.55039E+02
 2.35790E-02    3.48175E+02
 2.41760E-02    3.44967E+02
 2.47880E-02    3.40152E+02
 2.60580E-02    3.34628E+02
 2.70000E-02    3.28745E+02
 2.85000E-02    3.18910E+02
 3.18280E-02    3.10313E+02
 3.43070E-02    2.99279E+02
 4.08680E-02    2.87600E+02
 4.63090E-02    2.79074E+02
 5.24750E-02    2.73724E+02
 5.65620E-02    2.67707E+02
 6.73790E-02    2.62654E+02
 7.20000E-02    2.59707E+02
 7.95000E-02    2.57358E+02
 8.25000E-02    2.56176E+02
 8.65170E-02    2.53860E+02
 9.80370E-02    2.50565E+02
 1.11090E-01    2.47831E+02
 1.16790E-01    2.46293E+02
 1.22770E-01    2.44833E+02
 1.29070E-01    2.43762E+02
 1.35690E-01    2.43328E+02
 1.42640E-01    2.42285E+02
 1.49960E-01    2.41098E+02
 1.57640E-01    2.39830E+02
 1.65730E-01    2.38241E+02
 1.74220E-01    2.36682E+02
 1.83160E-01    2.07995E+02
 1.92550E-01    1.52480E+02
 2.02420E-01    1.40792E+02
 2.12800E-01    1.32707E+02
 2.23710E-01    1.26063E+02
 2.35180E-01    1.21582E+02
 2.47240E-01    1.15308E+02
 2.73240E-01    1.09811E+02
 2.87250E-01    1.07708E+02
 2.94520E-01    1.06731E+02
 2.97200E-01    1.06341E+02
 2.98500E-01    1.05935E+02
 3.01970E-01    1.04406E+02
 3.33730E-01    1.01638E+02
 3.68830E-01    9.96354E+01
 3.87740E-01    9.83465E+01
 4.07620E-01    9.80836E+01
 4.50490E-01    9.81048E+01
 4.97870E-01    9.85031E+01
 5.23400E-01    9.94508E+01
 5.50230E-01    9.74491E+01
 5.78440E-01    8.86370E+01
 6.08100E-01    8.48750E+01
 6.39280E-01    8.32224E+01
 6.72060E-01    8.16301E+01
 7.06510E-01    8.08175E+01
 7.42740E-01    7.98965E+01
 7.80820E-01    7.67827E+01
 8.20850E-01    7.59913E+01
 8.62940E-01    7.56184E+01
 9.07180E-01    7.47988E+01
 9.61640E-01    7.38997E+01
 1.00260E+00    7.45375E+01
 1.10800E+00    7.30518E+01
 1.16480E+00    6.90403E+01
 1.22460E+00    6.91154E+01
 1.28730E+00    6.95937E+01
 1.35340E+00    6.86000E+01
 1.42270E+00    6.52920E+01
 1.49570E+00    6.29590E+01
 1.57240E+00    6.02210E+01
 1.65300E+00    5.74769E+01
 1.73770E+00    5.44413E+01
 1.82680E+00    5.36835E+01
 1.92050E+00    5.33920E+01
 2.01900E+00    5.18072E+01
 2.12250E+00    4.96921E+01
 2.23130E+00    4.81641E+01
 2.30690E+00    4.76470E+01
 2.34570E+00    4.73956E+01
 2.36530E+00    4.72259E+01
 2.38520E+00    4.67949E+01
 2.46600E+00    4.57514E+01
 2.59240E+00    4.40960E+01
 2.72530E+00    4.17751E+01
 2.86500E+00    3.82939E+01
 3.01190E+00    3.51254E+01
 3.16640E+00    3.22425E+01
 3.32870E+00    2.82293E+01
 3.67880E+00    2.27376E+01
 4.06570E+00    1.75865E+01
 4.49330E+00    1.40637E+01
 4.72370E+00    1.18859E+01
 4.96590E+00    9.91647E+00
 5.22050E+00    8.08542E+00
 5.48810E+00    6.48312E+00
 5.76950E+00    5.09182E+00
 6.06530E+00    3.95727E+00
 6.37630E+00    1.04767E+03
 6.59240E+00    2.69221E+03
 6.70320E+00    2.67742E+03
 7.04690E+00    2.65811E+03
 7.40820E+00    2.63376E+03
 7.78800E+00    2.62241E+03
 8.18730E+00    2.62581E+03
 8.60710E+00    2.62269E+03
 9.04840E+00    2.62032E+03
 9.51230E+00    2.61664E+03
 1.00000E+01    2.61001E+03
 1.05130E+01    2.59963E+03
 1.10520E+01    2.58578E+03
 1.16180E+01    2.56943E+03
 1.22140E+01    2.55188E+03
 1.28400E+01    2.53448E+03
 1.34990E+01    2.52217E+03
 1.38400E+01    2.51451E+03
 1.41910E+01    2.50737E+03
 1.45500E+01    2.50068E+03
 1.49180E+01    2.49128E+03
 1.56830E+01    2.47925E+03
 1.64870E+01    2.46665E+03
