# n + Os190 : (n,xp)    
# jendl.ad   N.Iwamoto                         EVAL-Apr14
# 
# # energies =   113
#   E(MeV)        xs(mb) 
 1.05000E-01    0.00000E+00
 1.10000E-01    0.00000E+00
 1.20000E-01    0.00000E+00
 1.30000E-01    0.00000E+00
 1.40000E-01    0.00000E+00
 1.50000E-01    0.00000E+00
 1.60000E-01    0.00000E+00
 1.70000E-01    0.00000E+00
 1.80000E-01    0.00000E+00
 1.87709E-01    0.00000E+00
 1.87710E-01    0.00000E+00
 1.90000E-01    0.00000E+00
 2.00000E-01    0.00000E+00
 2.25000E-01    0.00000E+00
 2.50000E-01    0.00000E+00
 2.75000E-01    0.00000E+00
 3.00000E-01    0.00000E+00
 4.00000E-01    0.00000E+00
 5.00000E-01    0.00000E+00
 5.50763E-01    0.00000E+00
 5.60942E-01    0.00000E+00
 6.00000E-01    0.00000E+00
 7.00000E-01    0.00000E+00
 7.60036E-01    0.00000E+00
 8.00000E-01    0.00000E+00
 9.00000E-01    0.00000E+00
 9.16621E-01    0.00000E+00
 9.16622E-01    0.00000E+00
 9.60445E-01    0.00000E+00
 1.00000E+00    0.00000E+00
 1.05596E+00    0.00000E+00
 1.10000E+00    0.00000E+00
 1.12064E+00    0.00000E+00
 1.12142E+00    0.00000E+00
 1.16937E+00    0.00000E+00
 1.20000E+00    0.00000E+00
 1.21025E+00    0.00000E+00
 1.30000E+00    0.00000E+00
 1.33395E+00    0.00000E+00
 1.38974E+00    0.00000E+00
 1.39436E+00    0.00000E+00
 1.40000E+00    0.00000E+00
 1.44344E+00    0.00000E+00
 1.45380E+00    0.00000E+00
 1.48203E+00    0.00000E+00
 1.48987E+00    0.00000E+00
 1.50000E+00    0.00000E+00
 1.52214E+00    0.00000E+00
 1.55350E+00    0.00000E+00
 1.55351E+00    0.00000E+00
 1.55542E+00    0.00000E+00
 1.57737E+00    0.00000E+00
 1.57864E+00    0.00000E+00
 1.59229E+00    0.00000E+00
 1.60000E+00    0.00000E+00
 1.62455E+00    0.00000E+00
 1.67532E+00    0.00000E+00
 1.68458E+00    0.00000E+00
 1.68842E+00    0.00000E+00
 1.68952E+00    0.00000E+00
 1.69062E+00    0.00000E+00
 1.69803E+00    0.00000E+00
 1.70000E+00    0.00000E+00
 1.71446E+00    0.00000E+00
 1.71737E+00    0.00000E+00
 1.73396E+00    0.00000E+00
 1.74210E+00    0.00000E+00
 1.78644E+00    0.00000E+00
 1.80000E+00    0.00000E+00
 1.81227E+00    0.00000E+00
 1.82313E+00    0.00000E+00
 1.83328E+00    0.00000E+00
 1.84607E+00    0.00000E+00
 1.90000E+00    0.00000E+00
 2.00000E+00    0.00000E+00
 2.25000E+00    0.00000E+00
 2.50000E+00    1.43556E-19
 2.75000E+00    5.24722E-18
 3.00000E+00    1.26768E-17
 3.50000E+00    2.75360E-17
 4.00000E+00    5.64520E-14
 4.50000E+00    3.20400E-11
 5.00000E+00    2.06680E-09
 5.50000E+00    3.86320E-08
 6.00000E+00    3.49270E-07
 6.50000E+00    2.15343E-06
 7.00000E+00    1.13793E-05
 7.50000E+00    5.54417E-05
 8.00000E+00    2.41370E-04
 8.50000E+00    9.10629E-04
 9.00000E+00    2.97318E-03
 9.50000E+00    8.48284E-03
 1.00000E+01    2.14434E-02
 1.05000E+01    4.86524E-02
 1.10000E+01    1.00229E-01
 1.15000E+01    1.89450E-01
 1.20000E+01    3.31830E-01
 1.25000E+01    5.43818E-01
 1.30000E+01    8.41647E-01
 1.35000E+01    1.24057E+00
 1.40000E+01    1.75437E+00
 1.45000E+01    2.39548E+00
 1.50000E+01    3.17387E+00
 1.55000E+01    4.09322E+00
 1.60000E+01    5.16768E+00
 1.65000E+01    6.39459E+00
 1.70000E+01    7.77584E+00
 1.75000E+01    9.30978E+00
 1.80000E+01    1.09937E+01
 1.85000E+01    1.28238E+01
 1.90000E+01    1.47956E+01
 1.95000E+01    1.69043E+01
 2.00000E+01    1.91447E+01
