# n + Ce  0 : (n,xn)
# jeff3.3    S.Kunieda, A.Ichihara, K.Shibata+ EVAL-FEB10
#
# # energies =   129
#   E(MeV)          xs(mb) 
 5.56298E-01    1.05961E-16
 6.00000E-01    1.09279E+00
 7.00000E-01    4.47636E+01
 8.00000E-01    6.68564E+01
 9.00000E-01    8.19164E+01
 1.00000E+00    9.45206E+01
 1.08429E+00    1.04031E+02
 1.10020E+00    1.05865E+02
 1.20000E+00    1.18059E+02
 1.32390E+00    1.32035E+02
 1.40000E+00    1.41493E+02
 1.56453E+00    1.55470E+02
 1.60000E+00    1.68603E+02
 1.80000E+00    6.37851E+02
 1.99318E+00    8.28487E+02
 2.00000E+00    8.37514E+02
 2.08253E+00    8.88280E+02
 2.17094E+00    1.04690E+03
 2.20000E+00    1.10914E+03
 2.23043E+00    1.13134E+03
 2.32422E+00    1.20070E+03
 2.38406E+00    1.31708E+03
 2.40000E+00    1.39140E+03
 2.44290E+00    1.39055E+03
 2.46964E+00    1.39935E+03
 2.53600E+00    1.47400E+03
 2.60000E+00    1.72079E+03
 2.61406E+00    1.72904E+03
 2.70372E+00    1.79529E+03
 2.80000E+00    1.90033E+03
 2.81551E+00    1.90657E+03
 2.84707E+00    1.91927E+03
 2.88728E+00    1.93548E+03
 2.92706E+00    1.95428E+03
 2.95406E+00    1.97660E+03
 2.96414E+00    1.98494E+03
 2.97693E+00    1.99556E+03
 3.00000E+00    2.01471E+03
 3.01199E+00    2.01474E+03
 3.01360E+00    2.01474E+03
 3.03357E+00    2.01700E+03
 3.11847E+00    2.04996E+03
 3.17005E+00    2.08295E+03
 3.19826E+00    2.10566E+03
 3.20000E+00    2.10717E+03
 3.22526E+00    2.10939E+03
 3.40000E+00    2.16508E+03
 3.60000E+00    2.21312E+03
 3.80000E+00    2.24434E+03
 4.00000E+00    2.25758E+03
 4.20000E+00    2.25541E+03
 4.40000E+00    2.24227E+03
 4.60000E+00    2.22178E+03
 4.80000E+00    2.19734E+03
 5.00000E+00    2.17180E+03
 5.20000E+00    2.14778E+03
 5.40000E+00    2.12610E+03
 5.60000E+00    2.10812E+03
 5.80000E+00    2.09408E+03
 6.00000E+00    2.08356E+03
 6.20000E+00    2.07753E+03
 6.40000E+00    2.07439E+03
 6.60000E+00    2.07407E+03
 6.80000E+00    2.07607E+03
 7.00000E+00    2.07932E+03
 7.20000E+00    2.08866E+03
 7.40000E+00    2.09820E+03
 7.60000E+00    2.11296E+03
 7.80000E+00    2.13259E+03
 8.00000E+00    2.15141E+03
 8.50000E+00    2.20889E+03
 9.00000E+00    2.23734E+03
 9.50000E+00    2.27271E+03
 1.00000E+01    2.35241E+03
 1.05000E+01    2.51146E+03
 1.10000E+01    2.71244E+03
 1.15000E+01    2.91552E+03
 1.20000E+01    3.08970E+03
 1.25000E+01    3.22532E+03
 1.30000E+01    3.33088E+03
 1.35000E+01    3.42440E+03
 1.40000E+01    3.50009E+03
 1.45000E+01    3.56562E+03
 1.50000E+01    3.61888E+03
 1.60000E+01    3.70032E+03
 1.70000E+01    3.75318E+03
 1.80000E+01    3.78569E+03
 1.90000E+01    3.81083E+03
 2.00000E+01    3.87742E+03
 2.10000E+01    3.42326E+03
 2.20000E+01    3.58147E+03
 2.30000E+01    3.74035E+03
 2.40000E+01    3.86059E+03
 2.50000E+01    3.94308E+03
 2.60000E+01    3.99220E+03
 2.70000E+01    4.01638E+03
 2.80000E+01    4.02031E+03
 2.90000E+01    4.02134E+03
 3.00000E+01    4.03530E+03
 3.00000E+01    4.03530E+03
 3.20000E+01    4.13708E+03
 3.40000E+01    4.27392E+03
 3.60000E+01    4.38952E+03
 3.80000E+01    4.44989E+03
 4.00000E+01    4.49604E+03
 4.20000E+01    4.55148E+03
 4.40000E+01    4.62482E+03
 4.60000E+01    4.69605E+03
 4.80000E+01    4.75504E+03
 5.00000E+01    4.80576E+03
 5.20000E+01    4.85682E+03
 5.40000E+01    4.90400E+03
 5.60000E+01    4.95289E+03
 5.80000E+01    5.00256E+03
 6.00000E+01    5.04804E+03
 6.50000E+01    5.14398E+03
 7.00000E+01    5.24069E+03
 7.50000E+01    5.32034E+03
 8.00000E+01    5.39979E+03
 9.00000E+01    5.55550E+03
 1.00000E+02    5.70288E+03
 1.10000E+02    6.05390E+03
 1.20000E+02    6.43529E+03
 1.30000E+02    6.87365E+03
 1.40000E+02    7.35447E+03
 1.50000E+02    7.87512E+03
 1.60000E+02    8.45235E+03
 1.80000E+02    9.73847E+03
 2.00000E+02    1.10994E+04
