# n + Ce  0 : (n,xa)
# jeff3.3    S.Kunieda, A.Ichihara, K.Shibata+ EVAL-FEB10
#
# # energies =   129
#   E(MeV)          xs(mb) 
 5.56298E-01    9.67707E-07
 6.00000E-01    8.93548E-07
 7.00000E-01    1.00046E-06
 8.00000E-01    1.25666E-06
 9.00000E-01    1.63207E-06
 1.00000E+00    2.12499E-06
 1.08429E+00    2.45808E-06
 1.10020E+00    2.52095E-06
 1.20000E+00    2.91535E-06
 1.32390E+00    3.75060E-06
 1.40000E+00    4.26363E-06
 1.56453E+00    6.02139E-06
 1.60000E+00    6.40033E-06
 1.80000E+00    8.81371E-05
 1.99318E+00    1.47867E-04
 2.00000E+00    1.49976E-04
 2.08253E+00    1.69563E-04
 2.17094E+00    1.90544E-04
 2.20000E+00    1.97441E-04
 2.23043E+00    2.16841E-04
 2.32422E+00    2.76636E-04
 2.38406E+00    3.14786E-04
 2.40000E+00    3.24949E-04
 2.44290E+00    3.36411E-04
 2.46964E+00    3.43555E-04
 2.53600E+00    3.61285E-04
 2.60000E+00    3.78385E-04
 2.61406E+00    3.87061E-04
 2.70372E+00    4.42386E-04
 2.80000E+00    5.01797E-04
 2.81551E+00    5.58014E-04
 2.84707E+00    6.72404E-04
 2.88728E+00    8.18147E-04
 2.92706E+00    9.62330E-04
 2.95406E+00    1.06019E-03
 2.96414E+00    1.09673E-03
 2.97693E+00    1.14309E-03
 3.00000E+00    1.22670E-03
 3.01199E+00    1.24906E-03
 3.01360E+00    1.25206E-03
 3.03357E+00    1.28901E-03
 3.11847E+00    1.44510E-03
 3.17005E+00    1.53993E-03
 3.19826E+00    1.59179E-03
 3.20000E+00    1.59499E-03
 3.22526E+00    1.66687E-03
 3.40000E+00    2.17762E-03
 3.60000E+00    2.86008E-03
 3.80000E+00    3.62751E-03
 4.00000E+00    4.54309E-03
 4.20000E+00    5.31684E-03
 4.40000E+00    6.25080E-03
 4.60000E+00    7.18130E-03
 4.80000E+00    8.18670E-03
 5.00000E+00    9.35561E-03
 5.20000E+00    1.10577E-02
 5.40000E+00    1.30290E-02
 5.60000E+00    1.50546E-02
 5.80000E+00    1.70713E-02
 6.00000E+00    1.94246E-02
 6.20000E+00    2.18869E-02
 6.40000E+00    2.46644E-02
 6.60000E+00    2.85033E-02
 6.80000E+00    3.25560E-02
 7.00000E+00    3.69941E-02
 7.20000E+00    4.29941E-02
 7.40000E+00    4.99908E-02
 7.60000E+00    5.89269E-02
 7.80000E+00    6.91240E-02
 8.00000E+00    7.93670E-02
 8.50000E+00    1.19232E-01
 9.00000E+00    1.80230E-01
 9.50000E+00    2.75310E-01
 1.00000E+01    4.17849E-01
 1.05000E+01    6.28714E-01
 1.10000E+01    9.06226E-01
 1.15000E+01    1.28214E+00
 1.20000E+01    1.73807E+00
 1.25000E+01    2.31193E+00
 1.30000E+01    2.96803E+00
 1.35000E+01    3.74502E+00
 1.40000E+01    4.60673E+00
 1.45000E+01    5.56739E+00
 1.50000E+01    6.62208E+00
 1.60000E+01    9.15883E+00
 1.70000E+01    1.23688E+01
 1.80000E+01    1.65302E+01
 1.90000E+01    2.23947E+01
 2.00000E+01    2.82959E+01
 2.10000E+01    2.87893E+01
 2.20000E+01    3.07982E+01
 2.30000E+01    2.81854E+01
 2.40000E+01    2.86723E+01
 2.50000E+01    2.95617E+01
 2.60000E+01    3.06527E+01
 2.70000E+01    3.18421E+01
 2.80000E+01    3.30606E+01
 2.90000E+01    3.42925E+01
 3.00000E+01    3.55116E+01
 3.00000E+01    3.55116E+01
 3.20000E+01    3.78115E+01
 3.40000E+01    4.00364E+01
 3.60000E+01    4.22305E+01
 3.80000E+01    4.42435E+01
 4.00000E+01    4.60988E+01
 4.20000E+01    4.78079E+01
 4.40000E+01    4.94383E+01
 4.60000E+01    5.08893E+01
 4.80000E+01    5.21900E+01
 5.00000E+01    5.34779E+01
 5.20000E+01    5.46094E+01
 5.40000E+01    5.56172E+01
 5.60000E+01    5.67211E+01
 5.80000E+01    5.79654E+01
 6.00000E+01    5.90911E+01
 6.50000E+01    6.10751E+01
 7.00000E+01    6.39295E+01
 7.50000E+01    6.56552E+01
 8.00000E+01    6.52470E+01
 9.00000E+01    6.51574E+01
 1.00000E+02    6.13736E+01
 1.10000E+02    6.94218E+01
 1.20000E+02    8.01543E+01
 1.30000E+02    9.43872E+01
 1.40000E+02    1.11613E+02
 1.50000E+02    1.32578E+02
 1.60000E+02    1.59895E+02
 1.80000E+02    2.38840E+02
 2.00000E+02    3.61049E+02
