# n + Ce  0 : (n,xp)
# jeff3.3    S.Kunieda, A.Ichihara, K.Shibata+ EVAL-FEB10
#
# # energies =   129
#   E(MeV)          xs(mb) 
 5.56298E-01    4.62600E-16
 6.00000E-01    7.87194E-16
 7.00000E-01    1.75026E-14
 8.00000E-01    1.81519E-13
 9.00000E-01    1.46020E-12
 1.00000E+00    9.43638E-12
 1.08429E+00    8.61334E-11
 1.10020E+00    1.00610E-10
 1.20000E+00    1.91420E-10
 1.32390E+00    1.48011E-09
 1.40000E+00    2.27163E-09
 1.56453E+00    1.58353E-08
 1.60000E+00    1.87594E-08
 1.80000E+00    1.26966E-07
 1.99318E+00    6.33984E-07
 2.00000E+00    6.51884E-07
 2.08253E+00    1.41177E-06
 2.17094E+00    2.22580E-06
 2.20000E+00    2.49337E-06
 2.23043E+00    3.39869E-06
 2.32422E+00    6.18903E-06
 2.38406E+00    7.96933E-06
 2.40000E+00    8.44357E-06
 2.44290E+00    1.18988E-05
 2.46964E+00    1.40526E-05
 2.53600E+00    1.93973E-05
 2.60000E+00    2.45521E-05
 2.61406E+00    2.72265E-05
 2.70372E+00    4.42804E-05
 2.80000E+00    6.25934E-05
 2.81551E+00    6.85292E-05
 2.84707E+00    8.06074E-05
 2.88728E+00    9.59960E-05
 2.92706E+00    1.11220E-04
 2.95406E+00    1.21553E-04
 2.96414E+00    1.25411E-04
 2.97693E+00    1.30305E-04
 3.00000E+00    1.39135E-04
 3.01199E+00    1.48334E-04
 3.01360E+00    1.49569E-04
 3.03357E+00    1.64891E-04
 3.11847E+00    2.30030E-04
 3.17005E+00    2.69603E-04
 3.19826E+00    2.91247E-04
 3.20000E+00    2.92583E-04
 3.22526E+00    3.21790E-04
 3.40000E+00    5.23830E-04
 3.60000E+00    8.24707E-04
 3.80000E+00    1.19231E-03
 4.00000E+00    1.63854E-03
 4.20000E+00    2.14438E-03
 4.40000E+00    2.70840E-03
 4.60000E+00    3.33758E-03
 4.80000E+00    4.00489E-03
 5.00000E+00    4.70792E-03
 5.20000E+00    5.46106E-03
 5.40000E+00    6.22209E-03
 5.60000E+00    7.02054E-03
 5.80000E+00    7.86331E-03
 6.00000E+00    8.76084E-03
 6.20000E+00    9.74413E-03
 6.40000E+00    1.08870E-02
 6.60000E+00    1.22439E-02
 6.80000E+00    1.40461E-02
 7.00000E+00    1.62543E-02
 7.20000E+00    1.93718E-02
 7.40000E+00    2.34434E-02
 7.60000E+00    2.86464E-02
 7.80000E+00    3.53596E-02
 8.00000E+00    4.45442E-02
 8.50000E+00    7.81217E-02
 9.00000E+00    1.35621E-01
 9.50000E+00    2.31313E-01
 1.00000E+01    3.83654E-01
 1.05000E+01    5.60852E-01
 1.10000E+01    8.74138E-01
 1.15000E+01    1.32589E+00
 1.20000E+01    1.91119E+00
 1.25000E+01    2.68922E+00
 1.30000E+01    3.63845E+00
 1.35000E+01    4.83285E+00
 1.40000E+01    6.22920E+00
 1.45000E+01    7.90288E+00
 1.50000E+01    9.78893E+00
 1.60000E+01    1.43534E+01
 1.70000E+01    1.99177E+01
 1.80000E+01    2.63093E+01
 1.90000E+01    3.38903E+01
 2.00000E+01    4.20489E+01
 2.10000E+01    4.40796E+01
 2.20000E+01    5.16294E+01
 2.30000E+01    5.95426E+01
 2.40000E+01    6.82166E+01
 2.50000E+01    7.66181E+01
 2.60000E+01    8.51349E+01
 2.70000E+01    9.35770E+01
 2.80000E+01    1.01975E+02
 2.90000E+01    1.10197E+02
 3.00000E+01    1.18389E+02
 3.00000E+01    1.18389E+02
 3.20000E+01    1.35139E+02
 3.40000E+01    1.51250E+02
 3.60000E+01    1.67244E+02
 3.80000E+01    1.83321E+02
 4.00000E+01    1.98262E+02
 4.20000E+01    2.12384E+02
 4.40000E+01    2.26140E+02
 4.60000E+01    2.40019E+02
 4.80000E+01    2.54228E+02
 5.00000E+01    2.68209E+02
 5.20000E+01    2.82486E+02
 5.40000E+01    2.96829E+02
 5.60000E+01    3.10979E+02
 5.80000E+01    3.25223E+02
 6.00000E+01    3.38631E+02
 6.50000E+01    3.69186E+02
 7.00000E+01    3.95763E+02
 7.50000E+01    4.19747E+02
 8.00000E+01    4.42463E+02
 9.00000E+01    4.77098E+02
 1.00000E+02    5.01362E+02
 1.10000E+02    5.29194E+02
 1.20000E+02    5.64378E+02
 1.30000E+02    6.08594E+02
 1.40000E+02    6.66597E+02
 1.50000E+02    7.46849E+02
 1.60000E+02    8.70463E+02
 1.80000E+02    1.24395E+03
 2.00000E+02    1.80466E+03
