# n + Re  0 : (n,d)
# jendl.ad   N.Iwamoto                         EVAL-Apr14
# uncertainties: n
# # energies =    73
#   E(MeV)          xs(mb) 
 3.19659E+00    0.00000E+00
 3.30840E+00    2.98085E-23
 3.56263E+00    1.03332E-22
 3.94898E+00    1.12801E-20
 4.10480E+00    1.57886E-20
 4.20454E+00    1.89613E-20
 4.20805E+00    1.90741E-20
 4.32415E+00    2.28356E-20
 4.33278E+00    2.31151E-20
 4.33661E+00    2.32392E-20
 4.42454E+00    2.60889E-20
 4.45572E+00    2.70991E-20
 4.48719E+00    2.81192E-20
 4.48859E+00    2.81645E-20
 4.49857E+00    2.84878E-20
 4.50000E+00    2.85809E-20
 4.52593E+00    3.83285E-18
 4.54931E+00    7.26372E-18
 4.56438E+00    9.47533E-18
 4.59046E+00    1.33027E-17
 4.62935E+00    1.90104E-17
 4.63539E+00    1.98972E-17
 4.65074E+00    2.21500E-17
 4.68165E+00    2.66866E-17
 4.69673E+00    2.88997E-17
 4.70632E+00    3.03072E-17
 4.72818E+00    3.35156E-17
 4.74183E+00    3.55189E-17
 4.77539E+00    4.04434E-17
 4.78667E+00    4.21003E-17
 4.81895E+00    4.68393E-17
 4.82027E+00    4.70300E-17
 4.83316E+00    4.89226E-17
 4.84252E+00    5.02990E-17
 4.86662E+00    5.38336E-17
 4.88218E+00    5.61189E-17
 4.88917E+00    5.71438E-17
 4.90488E+00    5.94515E-17
 4.91941E+00    6.15835E-17
 4.92798E+00    6.28402E-17
 4.95214E+00    6.63860E-17
 4.96116E+00    6.77101E-17
 5.00000E+00    7.34106E-17
 5.50000E+00    1.35317E-13
 6.00000E+00    2.01350E-11
 6.50000E+00    6.60539E-10
 7.00000E+00    8.33823E-09
 7.50000E+00    6.30396E-08
 8.00000E+00    4.74413E-07
 8.50000E+00    4.04707E-06
 9.00000E+00    2.97280E-05
 9.50000E+00    1.31833E-04
 1.00000E+01    6.18805E-04
 1.05000E+01    2.33202E-03
 1.10000E+01    7.19634E-03
 1.15000E+01    1.81961E-02
 1.20000E+01    4.28742E-02
 1.25000E+01    8.99863E-02
 1.30000E+01    1.70510E-01
 1.35000E+01    2.95183E-01
 1.40000E+01    4.72192E-01
 1.45000E+01    7.05654E-01
 1.50000E+01    9.95446E-01
 1.55000E+01    1.37480E+00
 1.60000E+01    1.75230E+00
 1.65000E+01    2.18441E+00
 1.70000E+01    2.62781E+00
 1.75000E+01    3.10996E+00
 1.80000E+01    3.64217E+00
 1.85000E+01    4.08181E+00
 1.90000E+01    4.63379E+00
 1.95000E+01    5.11138E+00
 2.00000E+01    5.60912E+00
