# n + Os190 : (n,n'30)  
# jendl4.0   N.Iwamoto                         EVAL-Jan10
# uncertainties: n
# # energies =    53
#   E(MeV)       xs(mb) 
 1.69062E+00    0.00000E+00
 1.69803E+00    8.34601E-01
 1.70000E+00    9.18237E-01
 1.71446E+00    1.34497E+00
 1.71737E+00    1.41416E+00
 1.73396E+00    1.78146E+00
 1.74210E+00    1.95834E+00
 1.78644E+00    3.04944E+00
 1.80000E+00    3.43735E+00
 1.81227E+00    3.81421E+00
 1.82313E+00    4.17062E+00
 1.83328E+00    4.52369E+00
 1.84607E+00    4.99639E+00
 1.90000E+00    7.14357E+00
 2.00000E+00    1.13241E+01
 2.25000E+00    1.70423E+01
 2.50000E+00    1.77877E+01
 2.75000E+00    1.60494E+01
 3.00000E+00    1.24112E+01
 3.50000E+00    7.20164E+00
 4.00000E+00    3.78794E+00
 4.50000E+00    1.88099E+00
 5.00000E+00    9.16562E-01
 5.50000E+00    4.55035E-01
 6.00000E+00    2.41904E-01
 6.50000E+00    1.44732E-01
 7.00000E+00    1.00134E-01
 7.50000E+00    7.88324E-02
 8.00000E+00    6.76917E-02
 8.50000E+00    6.10722E-02
 9.00000E+00    5.65986E-02
 9.50000E+00    5.32125E-02
 1.00000E+01    5.04075E-02
 1.05000E+01    4.79046E-02
 1.10000E+01    4.55615E-02
 1.15000E+01    4.33160E-02
 1.20000E+01    4.11494E-02
 1.25000E+01    3.90849E-02
 1.30000E+01    3.71326E-02
 1.35000E+01    3.53059E-02
 1.40000E+01    3.36077E-02
 1.45000E+01    3.20365E-02
 1.50000E+01    3.05846E-02
 1.55000E+01    2.92410E-02
 1.60000E+01    2.79925E-02
 1.65000E+01    2.68264E-02
 1.70000E+01    2.57300E-02
 1.75000E+01    2.46935E-02
 1.80000E+01    2.37102E-02
 1.85000E+01    2.27751E-02
 1.90000E+01    2.18859E-02
 1.95000E+01    2.10413E-02
 2.00000E+01    2.02416E-02
