# n + Os190 : (n,xa)    
# jendl4.0   N.Iwamoto                         EVAL-Jan10
# 
# # energies =   113
#   E(MeV)        xs(mb) 
 1.05000E-01    5.80576E-08
 1.10000E-01    5.88632E-08
 1.20000E-01    6.05914E-08
 1.30000E-01    6.24242E-08
 1.40000E-01    6.42803E-08
 1.50000E-01    6.65236E-08
 1.60000E-01    6.88085E-08
 1.70000E-01    7.11687E-08
 1.80000E-01    7.35700E-08
 1.87709E-01    7.55068E-08
 1.87710E-01    7.55070E-08
 1.90000E-01    5.89199E-08
 2.00000E-01    5.26870E-08
 2.25000E-01    5.07610E-08
 2.50000E-01    5.14340E-08
 2.75000E-01    5.34670E-08
 3.00000E-01    5.69180E-08
 4.00000E-01    7.74690E-08
 5.00000E-01    1.12660E-07
 5.50763E-01    1.36664E-07
 5.60942E-01    1.41360E-07
 6.00000E-01    1.45020E-07
 7.00000E-01    1.97210E-07
 7.60036E-01    2.39160E-07
 8.00000E-01    2.65390E-07
 9.00000E-01    3.63610E-07
 9.16621E-01    3.89758E-07
 9.16622E-01    3.89760E-07
 9.60445E-01    4.35110E-07
 1.00000E+00    4.91650E-07
 1.05596E+00    5.99260E-07
 1.10000E+00    6.90570E-07
 1.12064E+00    7.52230E-07
 1.12142E+00    7.48410E-07
 1.16937E+00    7.85690E-07
 1.20000E+00    8.53260E-07
 1.21025E+00    8.97540E-07
 1.30000E+00    1.16884E-06
 1.33395E+00    1.32251E-06
 1.38974E+00    1.52307E-06
 1.39436E+00    1.52857E-06
 1.40000E+00    1.52354E-06
 1.44344E+00    1.72123E-06
 1.45380E+00    1.74718E-06
 1.48203E+00    1.86799E-06
 1.48987E+00    1.90303E-06
 1.50000E+00    1.91815E-06
 1.52214E+00    2.06564E-06
 1.55350E+00    2.22904E-06
 1.55351E+00    2.22909E-06
 1.55542E+00    2.23821E-06
 1.57737E+00    2.33351E-06
 1.57864E+00    2.33820E-06
 1.59229E+00    2.37976E-06
 1.60000E+00    2.40324E-06
 1.62455E+00    2.59777E-06
 1.67532E+00    2.88520E-06
 1.68458E+00    2.94816E-06
 1.68842E+00    2.96036E-06
 1.68952E+00    2.96385E-06
 1.69062E+00    2.96263E-06
 1.69803E+00    2.99011E-06
 1.70000E+00    2.99477E-06
 1.71446E+00    3.15563E-06
 1.71737E+00    3.17077E-06
 1.73396E+00    3.25710E-06
 1.74210E+00    3.28130E-06
 1.78644E+00    3.56691E-06
 1.80000E+00    3.66532E-06
 1.81227E+00    3.88011E-06
 1.82313E+00    3.96861E-06
 1.83328E+00    4.05132E-06
 1.84607E+00    4.15555E-06
 1.90000E+00    4.69903E-06
 2.00000E+00    6.00954E-06
 2.25000E+00    1.03308E-05
 2.50000E+00    1.74613E-05
 2.75000E+00    2.89921E-05
 3.00000E+00    4.15352E-05
 3.50000E+00    8.41723E-05
 4.00000E+00    1.50060E-04
 4.50000E+00    2.42873E-04
 5.00000E+00    3.66057E-04
 5.50000E+00    5.23937E-04
 6.00000E+00    7.29445E-04
 6.50000E+00    1.01073E-03
 7.00000E+00    1.43932E-03
 7.50000E+00    2.17524E-03
 8.00000E+00    3.47417E-03
 8.50000E+00    5.28350E-03
 9.00000E+00    8.24603E-03
 9.50000E+00    1.32241E-02
 1.00000E+01    2.14030E-02
 1.05000E+01    3.45327E-02
 1.10000E+01    5.52419E-02
 1.15000E+01    8.71631E-02
 1.20000E+01    1.35199E-01
 1.25000E+01    2.04898E-01
 1.30000E+01    3.04662E-01
 1.35000E+01    4.41650E-01
 1.40000E+01    6.23152E-01
 1.45000E+01    8.55168E-01
 1.50000E+01    1.14178E+00
 1.55000E+01    1.48479E+00
 1.60000E+01    1.88458E+00
 1.65000E+01    2.33719E+00
 1.70000E+01    2.83869E+00
 1.75000E+01    3.38572E+00
 1.80000E+01    3.97190E+00
 1.85000E+01    4.59150E+00
 1.90000E+01    5.23889E+00
 1.95000E+01    5.90880E+00
 2.00000E+01    6.59646E+00
