# n + Os190 : (n,p)     
# jendl4.0   N.Iwamoto                         EVAL-Jan10
# uncertainties: n
# # energies =    39
#   E(MeV)       xs(mb) 
 2.37017E+00    0.00000E+00
 2.48992E+00    8.13000E-20
 2.53313E+00    1.11220E-19
 2.58129E+00    1.53170E-17
 2.69157E+00    5.97450E-17
 3.50000E+00    4.05530E-16
 4.00000E+00    3.53840E-14
 4.50000E+00    2.03000E-11
 5.00000E+00    1.33750E-09
 5.50000E+00    2.59120E-08
 6.00000E+00    2.49030E-07
 6.50000E+00    1.68082E-06
 7.00000E+00    9.76063E-06
 7.50000E+00    5.07502E-05
 8.00000E+00    2.28724E-04
 8.50000E+00    8.78583E-04
 9.00000E+00    2.89523E-03
 9.50000E+00    8.30584E-03
 1.00000E+01    2.10718E-02
 1.05000E+01    4.79315E-02
 1.10000E+01    9.89314E-02
 1.15000E+01    1.87262E-01
 1.20000E+01    3.28338E-01
 1.25000E+01    5.38487E-01
 1.30000E+01    8.33764E-01
 1.35000E+01    1.22903E+00
 1.40000E+01    1.73720E+00
 1.45000E+01    2.36812E+00
 1.50000E+01    3.12716E+00
 1.55000E+01    4.01271E+00
 1.60000E+01    5.01371E+00
 1.65000E+01    6.11291E+00
 1.70000E+01    7.27824E+00
 1.75000E+01    8.48047E+00
 1.80000E+01    9.68888E+00
 1.85000E+01    1.08760E+01
 1.90000E+01    1.20189E+01
 1.95000E+01    1.30999E+01
 2.00000E+01    1.41030E+01
