# n + Os190 : (n,n'20)  
# jendl4.0   N.Iwamoto                         EVAL-Jan10
# uncertainties: n
# # energies =    64
#   E(MeV)       xs(mb) 
 1.55351E+00    0.00000E+00
 1.55542E+00    7.59241E+00
 1.57737E+00    1.90925E+01
 1.57864E+00    1.94064E+01
 1.59229E+00    2.20385E+01
 1.60000E+00    2.31468E+01
 1.62455E+00    2.58573E+01
 1.67532E+00    2.92271E+01
 1.68458E+00    2.96716E+01
 1.68842E+00    2.98357E+01
 1.68952E+00    2.98801E+01
 1.69062E+00    2.96087E+01
 1.69803E+00    2.94753E+01
 1.70000E+00    2.94827E+01
 1.71446E+00    2.97344E+01
 1.71737E+00    2.97783E+01
 1.73396E+00    3.00175E+01
 1.74210E+00    2.99470E+01
 1.78644E+00    2.94536E+01
 1.80000E+00    2.89949E+01
 1.81227E+00    2.89114E+01
 1.82313E+00    2.83798E+01
 1.83328E+00    2.78171E+01
 1.84607E+00    2.71893E+01
 1.90000E+00    2.67931E+01
 2.00000E+00    2.62149E+01
 2.25000E+00    2.20842E+01
 2.50000E+00    1.77485E+01
 2.75000E+00    1.34799E+01
 3.00000E+00    9.51627E+00
 3.50000E+00    4.54938E+00
 4.00000E+00    2.13606E+00
 4.50000E+00    1.06821E+00
 5.00000E+00    6.12752E-01
 5.50000E+00    4.15919E-01
 6.00000E+00    3.25402E-01
 6.50000E+00    2.78248E-01
 7.00000E+00    2.49584E-01
 7.50000E+00    2.29254E-01
 8.00000E+00    2.13423E-01
 8.50000E+00    2.00391E-01
 9.00000E+00    1.89342E-01
 9.50000E+00    1.79681E-01
 1.00000E+01    1.70928E-01
 1.05000E+01    1.62690E-01
 1.10000E+01    1.54747E-01
 1.15000E+01    1.47040E-01
 1.20000E+01    1.39591E-01
 1.25000E+01    1.32483E-01
 1.30000E+01    1.25777E-01
 1.35000E+01    1.19519E-01
 1.40000E+01    1.13717E-01
 1.45000E+01    1.08361E-01
 1.50000E+01    1.03420E-01
 1.55000E+01    9.88509E-02
 1.60000E+01    9.46086E-02
 1.65000E+01    9.06461E-02
 1.70000E+01    8.69197E-02
 1.75000E+01    8.33960E-02
 1.80000E+01    8.00518E-02
 1.85000E+01    7.68719E-02
 1.90000E+01    7.38488E-02
 1.95000E+01    7.09794E-02
 2.00000E+01    6.82647E-02
