# n + Os190 : (n,n'11)  
# jendl4.0   N.Iwamoto                         EVAL-Jan10
# uncertainties: n
# # energies =    76
#   E(MeV)       xs(mb) 
 1.21025E+00    0.00000E+00
 1.30000E+00    6.58571E+00
 1.33395E+00    8.91772E+00
 1.38974E+00    1.31235E+01
 1.39436E+00    1.34212E+01
 1.40000E+00    1.34849E+01
 1.44344E+00    1.64174E+01
 1.45380E+00    1.70719E+01
 1.48203E+00    1.86207E+01
 1.48987E+00    1.90972E+01
 1.50000E+00    1.97232E+01
 1.52214E+00    2.11287E+01
 1.55350E+00    2.28668E+01
 1.55542E+00    2.29873E+01
 1.57737E+00    2.44023E+01
 1.57864E+00    2.44028E+01
 1.59229E+00    2.49447E+01
 1.60000E+00    2.49373E+01
 1.62455E+00    2.57965E+01
 1.67532E+00    2.74191E+01
 1.68458E+00    2.77621E+01
 1.68842E+00    2.78095E+01
 1.68952E+00    2.77721E+01
 1.69062E+00    2.77785E+01
 1.69803E+00    2.78415E+01
 1.70000E+00    2.78194E+01
 1.71446E+00    2.81102E+01
 1.71737E+00    2.81849E+01
 1.73396E+00    2.84920E+01
 1.74210E+00    2.86960E+01
 1.78644E+00    2.99838E+01
 1.80000E+00    3.04069E+01
 1.81227E+00    3.08039E+01
 1.82313E+00    3.11515E+01
 1.83328E+00    3.14755E+01
 1.84607E+00    3.18069E+01
 1.90000E+00    3.27185E+01
 2.00000E+00    3.34276E+01
 2.25000E+00    3.03520E+01
 2.50000E+00    2.67652E+01
 2.75000E+00    2.20973E+01
 3.00000E+00    1.74369E+01
 3.50000E+00    9.97861E+00
 4.00000E+00    5.53470E+00
 4.50000E+00    3.15273E+00
 5.00000E+00    1.94650E+00
 5.50000E+00    1.34350E+00
 6.00000E+00    1.03663E+00
 6.50000E+00    8.68093E-01
 7.00000E+00    7.65500E-01
 7.50000E+00    6.95333E-01
 8.00000E+00    6.43272E-01
 8.50000E+00    6.02131E-01
 9.00000E+00    5.68069E-01
 9.50000E+00    5.38375E-01
 1.00000E+01    5.11228E-01
 1.05000E+01    4.85412E-01
 1.10000E+01    4.60455E-01
 1.15000E+01    4.36261E-01
 1.20000E+01    4.13163E-01
 1.25000E+01    3.91314E-01
 1.30000E+01    3.70886E-01
 1.35000E+01    3.51972E-01
 1.40000E+01    3.34543E-01
 1.45000E+01    3.18525E-01
 1.50000E+01    3.03792E-01
 1.55000E+01    2.90195E-01
 1.60000E+01    2.77575E-01
 1.65000E+01    2.65783E-01
 1.70000E+01    2.54685E-01
 1.75000E+01    2.44185E-01
 1.80000E+01    2.34219E-01
 1.85000E+01    2.24741E-01
 1.90000E+01    2.15740E-01
 1.95000E+01    2.07215E-01
 2.00000E+01    1.99173E-01
