# n + Os190 : (n,d)     
# jendl4.0   N.Iwamoto                         EVAL-Jan10
# uncertainties: n
# # energies =    39
#   E(MeV)       xs(mb) 
 5.82355E+00    0.00000E+00
 5.94922E+00    7.96970E-26
 5.97033E+00    9.31550E-26
 6.08534E+00    1.66620E-25
 6.10404E+00    1.30130E-22
 6.12816E+00    3.22880E-22
 6.30852E+00    2.33590E-21
 6.32721E+00    2.54460E-21
 6.42573E+00    3.64490E-21
 6.46695E+00    4.10530E-21
 6.49711E+00    4.44210E-21
 6.52426E+00    5.26690E-21
 7.00000E+00    2.33520E-20
 7.50000E+00    1.16510E-18
 8.00000E+00    1.01720E-14
 8.50000E+00    8.16000E-12
 9.00000E+00    1.22150E-09
 9.50000E+00    6.60360E-08
 1.00000E+01    1.27610E-06
 1.05000E+01    1.37507E-05
 1.10000E+01    9.64173E-05
 1.15000E+01    4.88275E-04
 1.20000E+01    1.92067E-03
 1.25000E+01    6.17728E-03
 1.30000E+01    1.68472E-02
 1.35000E+01    3.99882E-02
 1.40000E+01    8.41850E-02
 1.45000E+01    1.59532E-01
 1.50000E+01    2.75623E-01
 1.55000E+01    4.39424E-01
 1.60000E+01    6.22206E-01
 1.65000E+01    8.80930E-01
 1.70000E+01    1.15176E+00
 1.75000E+01    1.49374E+00
 1.80000E+01    1.87244E+00
 1.85000E+01    2.28206E+00
 1.90000E+01    2.71699E+00
 1.95000E+01    3.17154E+00
 2.00000E+01    3.63950E+00
