# n + Os190 : (n,n'34)  
# jendl4.0   N.Iwamoto                         EVAL-Jan10
# uncertainties: n
# # energies =    48
#   E(MeV)       xs(mb) 
 1.73396E+00    0.00000E+00
 1.74210E+00    1.90198E+01
 1.78644E+00    3.52039E+01
 1.80000E+00    3.73208E+01
 1.81227E+00    3.88273E+01
 1.82313E+00    3.99754E+01
 1.83328E+00    4.09320E+01
 1.84607E+00    4.18386E+01
 1.90000E+00    4.51679E+01
 2.00000E+00    4.88325E+01
 2.25000E+00    4.72499E+01
 2.50000E+00    4.04725E+01
 2.75000E+00    3.17620E+01
 3.00000E+00    2.20943E+01
 3.50000E+00    1.04514E+01
 4.00000E+00    4.69417E+00
 4.50000E+00    2.11977E+00
 5.00000E+00    1.02329E+00
 5.50000E+00    5.62025E-01
 6.00000E+00    3.65123E-01
 6.50000E+00    2.76629E-01
 7.00000E+00    2.32956E-01
 7.50000E+00    2.07992E-01
 8.00000E+00    1.91305E-01
 8.50000E+00    1.78678E-01
 9.00000E+00    1.68412E-01
 9.50000E+00    1.59647E-01
 1.00000E+01    1.51854E-01
 1.05000E+01    1.44632E-01
 1.10000E+01    1.37736E-01
 1.15000E+01    1.31059E-01
 1.20000E+01    1.24575E-01
 1.25000E+01    1.18376E-01
 1.30000E+01    1.12499E-01
 1.35000E+01    1.06990E-01
 1.40000E+01    1.01861E-01
 1.45000E+01    9.71104E-02
 1.50000E+01    9.27162E-02
 1.55000E+01    8.86480E-02
 1.60000E+01    8.48675E-02
 1.65000E+01    8.13361E-02
 1.70000E+01    7.80162E-02
 1.75000E+01    7.48782E-02
 1.80000E+01    7.19014E-02
 1.85000E+01    6.90709E-02
 1.90000E+01    6.63790E-02
 1.95000E+01    6.38220E-02
 2.00000E+01    6.14003E-02
