# n + Os190 : (n,n'19)  
# jendl4.0   N.Iwamoto                         EVAL-Jan10
# uncertainties: n
# # energies =    65
#   E(MeV)       xs(mb) 
 1.52214E+00    0.00000E+00
 1.55350E+00    2.83937E+00
 1.55542E+00    2.93207E+00
 1.57737E+00    3.95855E+00
 1.57864E+00    4.01650E+00
 1.59229E+00    4.63825E+00
 1.60000E+00    4.93198E+00
 1.62455E+00    6.01577E+00
 1.67532E+00    8.32485E+00
 1.68458E+00    8.75863E+00
 1.68842E+00    8.92075E+00
 1.68952E+00    8.96121E+00
 1.69062E+00    9.00656E+00
 1.69803E+00    9.29692E+00
 1.70000E+00    9.37164E+00
 1.71446E+00    9.98557E+00
 1.71737E+00    1.01125E+01
 1.73396E+00    1.08170E+01
 1.74210E+00    1.11748E+01
 1.78644E+00    1.31015E+01
 1.80000E+00    1.36393E+01
 1.81227E+00    1.41337E+01
 1.82313E+00    1.45711E+01
 1.83328E+00    1.49810E+01
 1.84607E+00    1.55017E+01
 1.90000E+00    1.77724E+01
 2.00000E+00    2.04544E+01
 2.25000E+00    2.13486E+01
 2.50000E+00    2.03612E+01
 2.75000E+00    1.75897E+01
 3.00000E+00    1.40374E+01
 3.50000E+00    8.30119E+00
 4.00000E+00    4.60448E+00
 4.50000E+00    2.53995E+00
 5.00000E+00    1.47784E+00
 5.50000E+00    9.49762E-01
 6.00000E+00    6.88632E-01
 6.50000E+00    5.54001E-01
 7.00000E+00    4.78685E-01
 7.50000E+00    4.31111E-01
 8.00000E+00    3.97462E-01
 8.50000E+00    3.71460E-01
 9.00000E+00    3.50203E-01
 9.50000E+00    3.31964E-01
 1.00000E+01    3.15592E-01
 1.05000E+01    3.00253E-01
 1.10000E+01    2.85509E-01
 1.15000E+01    2.71217E-01
 1.20000E+01    2.57426E-01
 1.25000E+01    2.44276E-01
 1.30000E+01    2.31879E-01
 1.35000E+01    2.20321E-01
 1.40000E+01    2.09610E-01
 1.45000E+01    1.99725E-01
 1.50000E+01    1.90610E-01
 1.55000E+01    1.82184E-01
 1.60000E+01    1.74360E-01
 1.65000E+01    1.67050E-01
 1.70000E+01    1.60171E-01
 1.75000E+01    1.53666E-01
 1.80000E+01    1.47492E-01
 1.85000E+01    1.41622E-01
 1.90000E+01    1.36042E-01
 1.95000E+01    1.30746E-01
 2.00000E+01    1.25737E-01
