# n + Os190 : (n,2na)   
# jendl4.0   N.Iwamoto                         EVAL-Jan10
# uncertainties: n
# # energies =    25
#   E(MeV)       xs(mb) 
 8.00000E+00    0.00000E+00
 8.50000E+00    1.86660E-35
 9.00000E+00    3.90190E-26
 9.50000E+00    2.17170E-22
 1.00000E+01    3.73340E-19
 1.05000E+01    1.98200E-16
 1.10000E+01    3.64210E-14
 1.15000E+01    2.86450E-12
 1.20000E+01    1.12660E-10
 1.25000E+01    2.51240E-09
 1.30000E+01    3.49330E-08
 1.35000E+01    3.27100E-07
 1.40000E+01    2.22260E-06
 1.45000E+01    9.78563E-06
 1.50000E+01    2.71422E-05
 1.55000E+01    5.85210E-05
 1.60000E+01    1.16256E-04
 1.65000E+01    2.28727E-04
 1.70000E+01    4.43481E-04
 1.75000E+01    8.40767E-04
 1.80000E+01    1.55125E-03
 1.85000E+01    2.77706E-03
 1.90000E+01    4.80115E-03
 1.95000E+01    8.01496E-03
 2.00000E+01    1.29459E-02
