# n + Os190 :  n        
# jendl4.0   N.Iwamoto                         EVAL-Jan10
# uncertainties: n
# # energies =   110
#   E(MeV)       xs(mb) 
 1.05000E-01    0.00000E+00
 1.10000E-01    3.00906E-03
 1.20000E-01    4.11877E-03
 1.30000E-01    5.02567E-03
 1.40000E-01    5.71996E-03
 1.50000E-01    6.31904E-03
 1.60000E-01    6.84361E-03
 1.70000E-01    7.29327E-03
 1.80000E-01    7.69956E-03
 1.87710E-01    7.99064E-03
 1.90000E-01    6.41873E-03
 2.00000E-01    6.17792E-03
 2.25000E-01    2.34824E-02
 2.50000E-01    2.86449E-02
 2.75000E-01    3.22797E-02
 3.00000E-01    3.66269E-02
 4.00000E-01    1.24019E-01
 5.00000E-01    3.17950E-01
 5.50763E-01    5.26558E-01
 5.60942E-01    5.50440E-01
 6.00000E-01    6.09762E-01
 7.00000E-01    1.06232E+00
 7.60036E-01    1.48366E+00
 8.00000E-01    1.67527E+00
 9.00000E-01    2.54434E+00
 9.16622E-01    2.82367E+00
 9.60445E-01    3.14868E+00
 1.00000E+00    3.56921E+00
 1.05596E+00    4.40928E+00
 1.10000E+00    5.03546E+00
 1.12064E+00    5.52145E+00
 1.12142E+00    5.49608E+00
 1.16937E+00    5.62175E+00
 1.20000E+00    6.08058E+00
 1.21025E+00    6.34603E+00
 1.30000E+00    7.97114E+00
 1.33395E+00    8.84210E+00
 1.38974E+00    9.66948E+00
 1.39436E+00    9.80495E+00
 1.40000E+00    9.77201E+00
 1.44344E+00    1.06322E+01
 1.45380E+00    1.06919E+01
 1.48203E+00    1.11180E+01
 1.48987E+00    1.12249E+01
 1.50000E+00    1.14096E+01
 1.52214E+00    1.19367E+01
 1.55350E+00    1.25759E+01
 1.55542E+00    1.25850E+01
 1.57737E+00    1.28950E+01
 1.57864E+00    1.28844E+01
 1.59229E+00    1.29222E+01
 1.60000E+00    1.31373E+01
 1.62455E+00    1.36971E+01
 1.67532E+00    1.45553E+01
 1.68458E+00    1.47125E+01
 1.68842E+00    1.47171E+01
 1.68952E+00    1.47056E+01
 1.69062E+00    1.46822E+01
 1.69803E+00    1.49235E+01
 1.70000E+00    1.49153E+01
 1.71446E+00    1.52010E+01
 1.71737E+00    1.52575E+01
 1.73396E+00    1.54842E+01
 1.74210E+00    1.54963E+01
 1.78644E+00    1.61503E+01
 1.80000E+00    1.65636E+01
 1.81227E+00    1.69213E+01
 1.82313E+00    1.71740E+01
 1.83328E+00    1.73951E+01
 1.84607E+00    1.76475E+01
 1.90000E+00    1.91522E+01
 2.00000E+00    7.74060E+01
 2.25000E+00    5.11312E+02
 2.50000E+00    8.90475E+02
 2.75000E+00    1.26279E+03
 3.00000E+00    1.62764E+03
 3.50000E+00    2.05729E+03
 4.00000E+00    2.26853E+03
 4.50000E+00    2.36037E+03
 5.00000E+00    2.39489E+03
 5.50000E+00    2.39846E+03
 6.00000E+00    2.38829E+03
 6.50000E+00    2.37181E+03
 7.00000E+00    2.35850E+03
 7.50000E+00    2.35138E+03
 8.00000E+00    2.31204E+03
 8.50000E+00    1.77387E+03
 9.00000E+00    1.23298E+03
 9.50000E+00    8.60472E+02
 1.00000E+01    6.22873E+02
 1.05000E+01    4.74592E+02
 1.10000E+01    3.81320E+02
 1.15000E+01    3.20852E+02
 1.20000E+01    2.79905E+02
 1.25000E+01    2.50722E+02
 1.30000E+01    2.28949E+02
 1.35000E+01    2.11934E+02
 1.40000E+01    1.99232E+02
 1.45000E+01    1.87831E+02
 1.50000E+01    1.78324E+02
 1.55000E+01    1.69884E+02
 1.60000E+01    1.62411E+02
 1.65000E+01    1.55627E+02
 1.70000E+01    1.49345E+02
 1.75000E+01    1.43447E+02
 1.80000E+01    1.37882E+02
 1.85000E+01    1.32607E+02
 1.90000E+01    1.27622E+02
 1.95000E+01    1.22921E+02
 2.00000E+01    1.18508E+02
