# n + Os190 : (n,n'04)  
# jendl4.0   N.Iwamoto                         EVAL-Jan10
# uncertainties: n
# # energies =    88
#   E(MeV)       xs(mb) 
 7.60036E-01    0.00000E+00
 8.00000E-01    1.23265E+02
 9.00000E-01    1.91559E+02
 9.16622E-01    2.01111E+02
 9.60445E-01    2.21598E+02
 1.00000E+00    2.40849E+02
 1.05596E+00    2.63476E+02
 1.10000E+00    2.79485E+02
 1.12064E+00    2.86970E+02
 1.12142E+00    2.83977E+02
 1.16937E+00    2.79139E+02
 1.20000E+00    2.80341E+02
 1.21025E+00    2.81332E+02
 1.30000E+00    2.89057E+02
 1.33395E+00    2.91891E+02
 1.38974E+00    2.90548E+02
 1.39436E+00    2.86277E+02
 1.40000E+00    2.80276E+02
 1.44344E+00    2.68825E+02
 1.45380E+00    2.62690E+02
 1.48203E+00    2.55950E+02
 1.48987E+00    2.54492E+02
 1.50000E+00    2.51091E+02
 1.52214E+00    2.47022E+02
 1.55350E+00    2.42374E+02
 1.55542E+00    2.41731E+02
 1.57737E+00    2.36529E+02
 1.57864E+00    2.35368E+02
 1.59229E+00    2.28614E+02
 1.60000E+00    2.25095E+02
 1.62455E+00    2.19503E+02
 1.67532E+00    2.07984E+02
 1.68458E+00    2.06613E+02
 1.68842E+00    2.04889E+02
 1.68952E+00    2.04066E+02
 1.69062E+00    2.03258E+02
 1.69803E+00    2.00574E+02
 1.70000E+00    1.99262E+02
 1.71446E+00    1.95002E+02
 1.71737E+00    1.94340E+02
 1.73396E+00    1.89387E+02
 1.74210E+00    1.86994E+02
 1.78644E+00    1.78034E+02
 1.80000E+00    1.75484E+02
 1.81227E+00    1.73569E+02
 1.82313E+00    1.71710E+02
 1.83328E+00    1.69978E+02
 1.84607E+00    1.67916E+02
 1.90000E+00    1.60876E+02
 2.00000E+00    1.46677E+02
 2.25000E+00    1.06914E+02
 2.50000E+00    8.04741E+01
 2.75000E+00    5.86115E+01
 3.00000E+00    3.93288E+01
 3.50000E+00    1.81370E+01
 4.00000E+00    8.11430E+00
 4.50000E+00    3.62700E+00
 5.00000E+00    1.67647E+00
 5.50000E+00    8.38018E-01
 6.00000E+00    4.76732E-01
 6.50000E+00    3.16644E-01
 7.00000E+00    2.42014E-01
 7.50000E+00    2.04005E-01
 8.00000E+00    1.82155E-01
 8.50000E+00    1.67791E-01
 9.00000E+00    1.57406E-01
 9.50000E+00    1.48625E-01
 1.00000E+01    1.40570E-01
 1.05000E+01    1.32836E-01
 1.10000E+01    1.25301E-01
 1.15000E+01    1.18034E-01
 1.20000E+01    1.11081E-01
 1.25000E+01    1.04503E-01
 1.30000E+01    9.83804E-02
 1.35000E+01    9.31352E-02
 1.40000E+01    8.83407E-02
 1.45000E+01    8.39606E-02
 1.50000E+01    7.99492E-02
 1.55000E+01    7.62577E-02
 1.60000E+01    7.28364E-02
 1.65000E+01    6.96437E-02
 1.70000E+01    6.66423E-02
 1.75000E+01    6.38067E-02
 1.80000E+01    6.11216E-02
 1.85000E+01    5.85783E-02
 1.90000E+01    5.61732E-02
 1.95000E+01    5.39052E-02
 2.00000E+01    5.17747E-02
