# n + Bi208 : (n,n'18)  
# jeff3.3    A.J. Koning and D. Rochman        EVAL-DEC15
# uncertainties: n
# # energies =    75
#   E(MeV)       xs(mb) 
 1.57872E+00    0.00000E+00
 1.60000E+00    1.99607E+00
 1.61077E+00    2.36452E+00
 1.63256E+00    3.10997E+00
 1.66551E+00    4.23722E+00
 1.67466E+00    4.55024E+00
 1.71161E+00    5.81433E+00
 1.72398E+00    6.23752E+00
 1.73194E+00    6.50984E+00
 1.73939E+00    6.76471E+00
 1.79476E+00    8.65896E+00
 1.80000E+00    8.83822E+00
 1.81083E+00    9.14835E+00
 1.83330E+00    9.79181E+00
 1.84490E+00    1.01240E+01
 2.00000E+00    1.45655E+01
 2.20000E+00    1.84199E+01
 2.40000E+00    2.04638E+01
 2.60000E+00    2.11438E+01
 2.80000E+00    2.08253E+01
 3.00000E+00    1.97753E+01
 3.20000E+00    1.82143E+01
 3.40000E+00    1.63407E+01
 3.60000E+00    1.43327E+01
 3.80000E+00    1.23353E+01
 4.00000E+00    1.04541E+01
 4.20000E+00    8.74303E+00
 4.40000E+00    7.23186E+00
 4.60000E+00    5.92576E+00
 4.80000E+00    4.81803E+00
 5.00000E+00    3.89351E+00
 5.20000E+00    3.13263E+00
 5.40000E+00    2.50804E+00
 5.60000E+00    2.00511E+00
 5.80000E+00    1.60108E+00
 6.00000E+00    1.27821E+00
 6.20000E+00    1.01842E+00
 6.40000E+00    8.10797E-01
 6.60000E+00    6.43319E-01
 6.80000E+00    5.10703E-01
 7.00000E+00    4.04070E-01
 7.20000E+00    3.19044E-01
 7.40000E+00    2.51924E-01
 7.60000E+00    1.98139E-01
 7.80000E+00    1.56082E-01
 8.00000E+00    1.22635E-01
 8.50000E+00    6.67968E-02
 9.00000E+00    3.61730E-02
 9.50000E+00    1.95100E-02
 1.00000E+01    1.05013E-02
 1.05000E+01    5.65277E-03
 1.10000E+01    3.04962E-03
 1.15000E+01    1.65219E-03
 1.20000E+01    9.00482E-04
 1.25000E+01    4.94183E-04
 1.30000E+01    2.73170E-04
 1.35000E+01    1.52003E-04
 1.40000E+01    8.50854E-05
 1.45000E+01    4.78480E-05
 1.50000E+01    2.70081E-05
 1.60000E+01    8.67122E-06
 1.70000E+01    2.79420E-06
 1.80000E+01    9.14120E-07
 1.90000E+01    3.03540E-07
 2.00000E+01    1.02620E-07
 2.10000E+01    3.53900E-08
 2.20000E+01    1.24440E-08
 2.30000E+01    4.44340E-09
 2.40000E+01    1.60880E-09
 2.50000E+01    5.88810E-10
 2.60000E+01    2.17660E-10
 2.70000E+01    8.13830E-11
 2.80000E+01    3.08240E-11
 2.90000E+01    1.18410E-11
 3.00000E+01    4.61440E-12
