# n + Bi208 : (n,n'15)  
# jeff3.3    A.J. Koning and D. Rochman        EVAL-DEC15
# uncertainties: n
# # energies =    78
#   E(MeV)       xs(mb) 
 1.53682E+00    0.00000E+00
 1.54686E+00    5.94698E-01
 1.57103E+00    2.02637E+00
 1.57872E+00    2.48187E+00
 1.60000E+00    3.74236E+00
 1.61077E+00    4.25430E+00
 1.63256E+00    5.29007E+00
 1.66551E+00    6.85633E+00
 1.67466E+00    7.29126E+00
 1.71161E+00    9.04765E+00
 1.72398E+00    9.63565E+00
 1.73194E+00    1.00140E+01
 1.73939E+00    1.03682E+01
 1.79476E+00    1.30001E+01
 1.80000E+00    1.32492E+01
 1.81083E+00    1.36022E+01
 1.83330E+00    1.43347E+01
 1.84490E+00    1.47129E+01
 2.00000E+00    1.97689E+01
 2.20000E+00    2.29723E+01
 2.40000E+00    2.42164E+01
 2.60000E+00    2.45564E+01
 2.80000E+00    2.45452E+01
 3.00000E+00    2.43015E+01
 3.20000E+00    2.36879E+01
 3.40000E+00    2.25255E+01
 3.60000E+00    2.07698E+01
 3.80000E+00    1.85587E+01
 4.00000E+00    1.61222E+01
 4.20000E+00    1.36663E+01
 4.40000E+00    1.13544E+01
 4.60000E+00    9.27828E+00
 4.80000E+00    7.48095E+00
 5.00000E+00    5.96779E+00
 5.20000E+00    4.72196E+00
 5.40000E+00    3.70526E+00
 5.60000E+00    2.89377E+00
 5.80000E+00    2.24977E+00
 6.00000E+00    1.74397E+00
 6.20000E+00    1.34470E+00
 6.40000E+00    1.03380E+00
 6.60000E+00    7.90887E-01
 6.80000E+00    6.04628E-01
 7.00000E+00    4.60726E-01
 7.20000E+00    3.50782E-01
 7.40000E+00    2.67486E-01
 7.60000E+00    2.03700E-01
 7.80000E+00    1.55831E-01
 8.00000E+00    1.19287E-01
 8.50000E+00    6.18358E-02
 9.00000E+00    3.25164E-02
 9.50000E+00    1.72809E-02
 1.00000E+01    9.23997E-03
 1.05000E+01    4.95460E-03
 1.10000E+01    2.66079E-03
 1.15000E+01    1.43149E-03
 1.20000E+01    7.72473E-04
 1.25000E+01    4.18589E-04
 1.30000E+01    2.27985E-04
 1.35000E+01    1.24831E-04
 1.40000E+01    6.87193E-05
 1.45000E+01    3.80088E-05
 1.50000E+01    2.11138E-05
 1.60000E+01    6.58440E-06
 1.70000E+01    2.06955E-06
 1.80000E+01    6.62400E-07
 1.90000E+01    2.15470E-07
 2.00000E+01    7.13520E-08
 2.10000E+01    2.40870E-08
 2.20000E+01    8.28950E-09
 2.30000E+01    2.89960E-09
 2.40000E+01    1.03060E-09
 2.50000E+01    3.71210E-10
 2.60000E+01    1.35310E-10
 2.70000E+01    4.99350E-11
 2.80000E+01    1.86730E-11
 2.90000E+01    7.08100E-12
 3.00000E+01    2.72440E-12
