# n + Se 82 : (n,tot)   
# endfb8.0   JNDC FPND W.G., Mughabghab        EVAL-JAN05
# uncertainties: n
# # energies =   171
#   E(MeV)       xs(mb) 
 1.00000E-11    9.80451E+03
 1.00000E-07    5.01647E+03
 4.13990E-07    5.00840E+03
 5.31580E-07    5.00653E+03
 6.82560E-07    5.00529E+03
 8.76420E-07    5.00419E+03
 1.12540E-06    5.00284E+03
 1.44500E-06    5.00239E+03
 1.85540E-06    5.00230E+03
 2.37240E-06    5.00218E+03
 3.05900E-06    5.00202E+03
 3.92790E-06    5.00182E+03
 5.04350E-06    5.00156E+03
 6.47600E-06    5.00122E+03
 8.31530E-06    5.00079E+03
 1.06770E-05    5.00024E+03
 1.37100E-05    4.99954E+03
 1.76030E-05    4.99863E+03
 2.26030E-05    4.99745E+03
 2.92030E-05    4.99595E+03
 3.72670E-05    4.99406E+03
 4.78510E-05    4.99159E+03
 6.14420E-05    4.98843E+03
 7.88930E-05    4.98437E+03
 1.01300E-04    4.97915E+03
 1.30070E-04    4.97246E+03
 1.67020E-04    4.96402E+03
 2.14450E-04    4.95611E+03
 2.75360E-04    4.94709E+03
 3.53580E-04    4.93550E+03
 4.54000E-04    4.92063E+03
 5.82950E-04    4.90153E+03
 7.48520E-04    4.87700E+03
 9.61120E-04    4.84551E+03
 1.23410E-03    4.80508E+03
 1.58460E-03    4.75316E+03
 2.03470E-03    4.70887E+03
 2.24870E-03    4.67621E+03
 2.48520E-03    4.64501E+03
 2.61260E-03    4.62270E+03
 2.74650E-03    4.58690E+03
 3.03540E-03    4.53050E+03
 3.35460E-03    5.08910E+03
 3.70740E-03    4.31717E+03
 4.30740E-03    3.85962E+03
 5.53080E-03    2.00377E+04
 7.10170E-03    6.44923E+03
 9.11880E-03    4.86190E+03
 1.17090E-02    1.33679E+04
 1.50340E-02    7.88501E+03
 1.93050E-02    5.20423E+03
 2.18750E-02    1.26755E+04
 2.35790E-02    7.21667E+03
 2.41760E-02    6.37770E+03
 2.47880E-02    5.16257E+03
 2.60580E-02    1.60724E+04
 2.70000E-02    8.15071E+03
 2.85000E-02    8.22938E+03
 3.18280E-02    9.31360E+03
 3.43070E-02    9.14737E+03
 4.08680E-02    8.95838E+03
 4.63090E-02    8.80978E+03
 5.24750E-02    8.69582E+03
 5.65620E-02    8.55991E+03
 6.73790E-02    8.43289E+03
 7.20000E-02    8.34867E+03
 7.95000E-02    8.28046E+03
 8.25000E-02    8.23880E+03
 8.65170E-02    8.15574E+03
 9.80370E-02    8.07732E+03
 1.11090E-01    8.05952E+03
 1.16790E-01    8.04838E+03
 1.22770E-01    8.03667E+03
 1.29070E-01    8.02435E+03
 1.35690E-01    8.01140E+03
 1.42640E-01    7.99779E+03
 1.49960E-01    7.98349E+03
 1.57640E-01    7.96844E+03
 1.65730E-01    7.95179E+03
 1.74220E-01    7.93193E+03
 1.83160E-01    7.91090E+03
 1.92550E-01    7.88880E+03
 2.02420E-01    7.86558E+03
 2.12800E-01    7.83937E+03
 2.23710E-01    7.80863E+03
 2.35180E-01    7.77624E+03
 2.47240E-01    7.72419E+03
 2.73240E-01    7.66490E+03
 2.87250E-01    7.63174E+03
 2.94520E-01    7.61626E+03
 2.97200E-01    7.61008E+03
 2.98500E-01    7.60269E+03
 3.01970E-01    7.53511E+03
 3.33730E-01    7.39742E+03
 3.68830E-01    7.29358E+03
 3.87740E-01    7.22947E+03
 4.07620E-01    7.12694E+03
 4.50490E-01    6.99218E+03
 4.97870E-01    6.88114E+03
 5.23400E-01    6.78358E+03
 5.50230E-01    6.68041E+03
 5.78440E-01    6.58083E+03
 6.08100E-01    6.48449E+03
 6.39280E-01    6.38321E+03
 6.72060E-01    6.27675E+03
 7.06510E-01    6.16483E+03
 7.42740E-01    6.04725E+03
 7.80820E-01    5.93129E+03
 8.20850E-01    5.81425E+03
 8.62940E-01    5.69227E+03
 9.07180E-01    5.56403E+03
 9.61640E-01    5.44183E+03
 1.00260E+00    5.27270E+03
 1.10800E+00    5.09545E+03
 1.16480E+00    4.98196E+03
 1.22460E+00    4.86965E+03
 1.28730E+00    4.76330E+03
 1.35340E+00    4.65734E+03
 1.42270E+00    4.55665E+03
 1.49570E+00    4.46333E+03
 1.57240E+00    4.37429E+03
 1.65300E+00    4.28772E+03
 1.73770E+00    4.20614E+03
 1.82680E+00    4.13412E+03
 1.92050E+00    4.06121E+03
 2.01900E+00    4.00273E+03
 2.12250E+00    3.95055E+03
 2.23130E+00    3.90511E+03
 2.30690E+00    3.87769E+03
 2.34570E+00    3.86563E+03
 2.36530E+00    3.85759E+03
 2.38520E+00    3.83718E+03
 2.46600E+00    3.79511E+03
 2.59240E+00    3.75346E+03
 2.72530E+00    3.72400E+03
 2.86500E+00    3.69353E+03
 3.01190E+00    3.67580E+03
 3.16640E+00    3.67523E+03
 3.32870E+00    3.67547E+03
 3.67880E+00    3.67673E+03
 4.06570E+00    3.72348E+03
 4.49330E+00    3.78060E+03
 4.72370E+00    3.82130E+03
 4.96590E+00    3.86978E+03
 5.22050E+00    3.93629E+03
 5.48810E+00    4.00708E+03
 5.76950E+00    4.08150E+03
 6.06530E+00    4.15974E+03
 6.37630E+00    4.22573E+03
 6.59240E+00    4.26450E+03
 6.70320E+00    4.31794E+03
 7.04690E+00    4.38492E+03
 7.40820E+00    4.43822E+03
 7.78800E+00    4.48904E+03
 8.18730E+00    4.50540E+03
 8.60710E+00    4.51507E+03
 9.04840E+00    4.49741E+03
 9.51230E+00    4.45990E+03
 1.00000E+01    4.39948E+03
 1.05130E+01    4.31602E+03
 1.10520E+01    4.23699E+03
 1.16180E+01    4.15589E+03
 1.22140E+01    4.05926E+03
 1.28400E+01    3.96010E+03
 1.34990E+01    3.88728E+03
 1.38400E+01    3.83990E+03
 1.41910E+01    3.79486E+03
 1.45500E+01    3.75092E+03
 1.49180E+01    3.68697E+03
 1.56830E+01    3.60259E+03
 1.64870E+01    3.50888E+03
