# n + Se 82 : (n,el)    
# endfb8.0   JNDC FPND W.G., Mughabghab        EVAL-JAN05
# uncertainties: n
# # energies =   171
#   E(MeV)       xs(mb) 
 1.00000E-11    9.32423E+03
 1.00000E-07    5.00049E+03
 4.13990E-07    4.99771E+03
 5.31580E-07    4.99752E+03
 6.82560E-07    4.99735E+03
 8.76420E-07    4.99713E+03
 1.12540E-06    4.99685E+03
 1.44500E-06    4.99648E+03
 1.85540E-06    4.99607E+03
 2.37240E-06    4.99591E+03
 3.05900E-06    4.99579E+03
 3.92790E-06    4.99564E+03
 5.04350E-06    4.99545E+03
 6.47600E-06    4.99521E+03
 8.31530E-06    4.99489E+03
 1.06770E-05    4.99449E+03
 1.37100E-05    4.99397E+03
 1.76030E-05    4.99330E+03
 2.26030E-05    4.99243E+03
 2.92030E-05    4.99133E+03
 3.72670E-05    4.98993E+03
 4.78510E-05    4.98811E+03
 6.14420E-05    4.98578E+03
 7.88930E-05    4.98279E+03
 1.01300E-04    4.97895E+03
 1.30070E-04    4.97402E+03
 1.67020E-04    4.96768E+03
 2.14450E-04    4.95955E+03
 2.75360E-04    4.94911E+03
 3.53580E-04    4.93570E+03
 4.54000E-04    4.91848E+03
 5.82950E-04    4.89791E+03
 7.48520E-04    4.87401E+03
 9.61120E-04    4.84334E+03
 1.23410E-03    4.80397E+03
 1.58460E-03    4.75341E+03
 2.03470E-03    4.70994E+03
 2.24870E-03    4.67471E+03
 2.48520E-03    4.64428E+03
 2.61260E-03    4.62260E+03
 2.74650E-03    4.58759E+03
 3.03540E-03    4.52682E+03
 3.35460E-03    4.49032E+03
 3.70740E-03    4.31469E+03
 4.30740E-03    3.85930E+03
 5.53080E-03    1.99770E+04
 7.10170E-03    6.44860E+03
 9.11880E-03    4.84378E+03
 1.17090E-02    1.33555E+04
 1.50340E-02    7.88441E+03
 1.93050E-02    5.20287E+03
 2.18750E-02    1.25104E+04
 2.35790E-02    7.21341E+03
 2.41760E-02    6.37661E+03
 2.47880E-02    5.15877E+03
 2.60580E-02    1.58229E+04
 2.70000E-02    8.14742E+03
 2.85000E-02    8.20844E+03
 3.18280E-02    9.27669E+03
 3.43070E-02    9.11347E+03
 4.08680E-02    8.92766E+03
 4.63090E-02    8.78133E+03
 5.24750E-02    8.66898E+03
 5.65620E-02    8.53475E+03
 6.73790E-02    8.40904E+03
 7.20000E-02    8.32565E+03
 7.95000E-02    8.25808E+03
 8.25000E-02    8.21677E+03
 8.65170E-02    8.13438E+03
 9.80370E-02    8.05678E+03
 1.11090E-01    8.03936E+03
 1.16790E-01    8.02843E+03
 1.22770E-01    8.01695E+03
 1.29070E-01    8.00487E+03
 1.35690E-01    7.99218E+03
 1.42640E-01    7.97884E+03
 1.49960E-01    7.96481E+03
 1.57640E-01    7.95006E+03
 1.65730E-01    7.93328E+03
 1.74220E-01    7.91342E+03
 1.83160E-01    7.89249E+03
 1.92550E-01    7.87049E+03
 2.02420E-01    7.84737E+03
 2.12800E-01    7.82128E+03
 2.23710E-01    7.79066E+03
 2.35180E-01    7.75840E+03
 2.47240E-01    7.70642E+03
 2.73240E-01    7.64670E+03
 2.87250E-01    7.61356E+03
 2.94520E-01    7.59808E+03
 2.97200E-01    7.59191E+03
 2.98500E-01    7.58452E+03
 3.01970E-01    7.51690E+03
 3.33730E-01    7.37910E+03
 3.68830E-01    7.27518E+03
 3.87740E-01    7.21103E+03
 4.07620E-01    7.10843E+03
 4.50490E-01    6.97358E+03
 4.97870E-01    6.86243E+03
 5.23400E-01    6.76472E+03
 5.50230E-01    6.66139E+03
 5.78440E-01    6.56202E+03
 6.08100E-01    6.46623E+03
 6.39280E-01    6.36067E+03
 6.72060E-01    6.15862E+03
 7.06510E-01    5.93682E+03
 7.42740E-01    5.72900E+03
 7.80820E-01    5.53150E+03
 8.20850E-01    5.34734E+03
 8.62940E-01    5.16780E+03
 9.07180E-01    4.98541E+03
 9.61640E-01    4.82471E+03
 1.00260E+00    4.60785E+03
 1.10800E+00    4.39111E+03
 1.16480E+00    4.25123E+03
 1.22460E+00    4.11769E+03
 1.28730E+00    3.99211E+03
 1.35340E+00    3.86811E+03
 1.42270E+00    3.74041E+03
 1.49570E+00    3.60757E+03
 1.57240E+00    3.48451E+03
 1.65300E+00    3.36559E+03
 1.73770E+00    3.23167E+03
 1.82680E+00    3.06951E+03
 1.92050E+00    2.91517E+03
 2.01900E+00    2.80905E+03
 2.12250E+00    2.72365E+03
 2.23130E+00    2.65621E+03
 2.30690E+00    2.61551E+03
 2.34570E+00    2.59476E+03
 2.36530E+00    2.58077E+03
 2.38520E+00    2.54760E+03
 2.46600E+00    2.48011E+03
 2.59240E+00    2.41517E+03
 2.72530E+00    2.36178E+03
 2.86500E+00    2.31178E+03
 3.01190E+00    2.28054E+03
 3.16640E+00    2.25323E+03
 3.32870E+00    2.21548E+03
 3.67880E+00    2.16439E+03
 4.06570E+00    2.18351E+03
 4.49330E+00    2.22890E+03
 4.72370E+00    2.26105E+03
 4.96590E+00    2.30389E+03
 5.22050E+00    2.36647E+03
 5.48810E+00    2.43254E+03
 5.76950E+00    2.50175E+03
 6.06530E+00    2.57075E+03
 6.37630E+00    2.62980E+03
 6.59240E+00    2.66642E+03
 6.70320E+00    2.71670E+03
 7.04690E+00    2.78085E+03
 7.40820E+00    2.83937E+03
 7.78800E+00    2.89737E+03
 8.18730E+00    2.93327E+03
 8.60710E+00    2.96650E+03
 9.04840E+00    3.03766E+03
 9.51230E+00    3.02456E+03
 1.00000E+01    2.95328E+03
 1.05130E+01    2.87032E+03
 1.10520E+01    2.85564E+03
 1.16180E+01    2.87953E+03
 1.22140E+01    2.79707E+03
 1.28400E+01    2.70675E+03
 1.34990E+01    2.65634E+03
 1.38400E+01    2.62111E+03
 1.41910E+01    2.57156E+03
 1.45500E+01    2.51978E+03
 1.49180E+01    2.44168E+03
 1.56830E+01    2.33658E+03
 1.64870E+01    2.23070E+03
